DTS Sentinel unit serial number:	SN410029Multiplexer serial number:	ORYXHardware model number:	OX2-SRSoftware version number:	ORYX F/W v4,00 Oryx Data Collector v3.7.2.0data status	okinstallation	B4 Nyhavnadifferential loss correction	single-endedforward channel	channel 2reverse channel	N/Adate	2023/12/19time	12:15:13forward acquisition time	300,00reverse acquisition time	0,00gamma	499,1914k internal	0,3128k external	0,3128temperature offset calibration	1,0000default loss term (dB/km)	0,3820temperature slope calibration	1,0000multiplexer offset coefficient	1,0000multiplexer slope coefficient	1,0000fibre end	0,00T internal ref (°C)	19,62T ext. ref 1 (°C)	4,46T ext. ref 2 (°C)	4,47length (m)	temperature (°C)	Stokes	anti-Stokes-744,400	-122,626	-0,065	-0,008
-743,385	16,252	-0,118	0,069
-742,371	-200,000	-0,001	0,078
-741,356	-110,104	-0,243	0,037
-740,342	-56,725	0,146	-0,048
-739,327	16,496	-0,254	0,149
-738,312	146,370	-0,095	-0,095
-737,298	-116,751	-0,125	0,017
-736,283	800,000	0,063	0,166
-735,269	-82,578	-0,276	0,066
-734,254	-3,804	0,169	-0,087
-733,239	-134,046	-0,542	-0,049
-732,225	-181,218	0,157	0,002
-731,210	211,127	-0,074	0,087
-730,196	-200,000	-0,014	-0,101
-729,181	150,420	-0,066	-0,067
-728,167	-125,175	0,058	-0,006
-727,152	186,327	-0,031	0,034
-726,137	108,783	-0,042	0,037
-725,123	800,000	-0,032	-0,075
-724,108	-200,000	-0,010	-0,157
-723,094	-108,508	0,077	0,012
-722,079	587,843	0,048	-0,089
-721,064	-200,000	0,009	-0,137
-720,050	238,147	0,074	-0,092
-719,035	800,000	-0,033	-0,078
-718,021	145,649	-0,112	-0,112
-717,006	-88,317	-0,110	0,024
-715,991	-200,000	0,006	-0,175
-714,977	-17,304	0,085	-0,039
-713,962	422,875	-0,065	0,104
-712,948	20,694	0,077	-0,046
-711,933	563,229	-0,050	-0,090
-710,918	119,301	-0,060	-0,055
-709,904	-109,970	-0,198	-0,030
-708,889	91,792	-0,061	-0,051
-707,875	64,924	-0,132	-0,099
-706,860	800,000	0,021	-0,066
-705,845	165,556	-0,029	-0,030
-704,831	-2,873	0,051	-0,026
-703,816	159,106	0,109	-0,113
-702,802	364,808	0,022	-0,033
-701,787	79,598	-0,083	0,066
-700,772	-27,808	-0,090	0,039
-699,758	93,731	-0,085	0,072
-698,743	-175,325	0,116	-0,002
-697,729	-200,000	0,006	0,080
-696,714	800,000	0,041	-0,122
-695,699	194,533	-0,062	0,070
-694,685	800,000	0,042	-0,112
-693,670	278,224	0,049	-0,066
-692,656	119,636	0,046	-0,042
-691,641	167,167	0,080	0,085
-690,627	800,000	0,034	-0,081
-689,612	-160,974	0,138	0,005
-688,597	132,136	0,052	-0,050
-687,583	-104,979	-0,040	-0,007
-686,568	800,000	-0,031	0,091
-685,554	-200,000	0,019	0,063
-684,539	-200,000	-0,014	0,087
-683,524	12,200	0,095	0,054
-682,510	800,000	-0,037	0,093
-681,495	800,000	0,020	-0,049
-680,481	-112,245	-0,057	0,008
-679,466	101,952	-0,088	-0,076
-678,451	-200,000	-0,002	-0,149
-677,437	196,278	-0,027	-0,030
-676,422	800,000	-0,033	-0,096
-675,408	-85,479	0,044	0,010
-674,393	53,503	0,105	-0,074
-673,378	-160,122	-0,057	-0,002
-672,364	800,000	0,017	0,050
-671,349	547,475	-0,108	-0,193
-670,335	204,200	0,076	-0,087
-669,320	-121,746	0,033	0,004
-668,305	710,256	-0,032	-0,063
-667,291	-31,963	0,107	-0,044
-666,276	354,947	-0,030	0,045
-665,262	-200,000	-0,006	-0,207
-664,247	-200,000	0,027	-0,154
-663,232	781,940	-0,027	-0,056
-662,218	403,936	-0,054	0,085
-661,203	800,000	-0,026	0,079
-660,189	714,946	-0,055	0,109
-659,174	800,000	-0,027	-0,066
-658,159	-200,000	0,020	0,141
-657,145	-105,704	0,188	-0,031
-656,130	5,200	0,050	0,027
-655,116	-151,649	-0,062	-0,003
-654,101	184,624	-0,044	0,048
-653,086	19,868	-0,080	0,047
-652,072	-200,000	-0,004	0,151
-651,057	-136,283	0,020	0,002
-650,043	800,000	-0,056	-0,163
-649,028	-133,186	0,145	0,013
-648,014	-200,000	0,010	0,112
-646,999	800,000	-0,012	0,040
-645,984	-200,000	0,023	-0,135
-644,970	183,103	0,033	-0,036
-643,955	271,087	-0,066	-0,086
-642,941	-30,206	-0,148	-0,062
-641,926	65,098	-0,061	-0,045
-640,911	48,664	-0,040	-0,028
-639,897	800,000	0,030	-0,080
-638,882	-75,325	0,046	0,012
-637,868	649,673	-0,014	0,026
-636,853	-58,417	-0,132	0,042
-635,838	-200,000	0,011	-0,061
-634,824	-93,137	-0,109	0,022
-633,809	-47,429	-0,062	-0,022
-632,795	220,670	-0,055	0,065
-631,780	412,428	0,054	-0,086
-630,765	-126,948	-0,148	-0,016
-629,751	800,000	-0,021	-0,047
-628,736	-200,000	-0,020	-0,139
-627,722	132,177	0,097	-0,093
-626,707	-200,000	0,006	-0,033
-625,692	294,585	0,142	0,193
-624,678	-106,552	-0,089	-0,015
-623,663	252,632	0,013	0,016
-622,649	706,387	0,032	0,063
-621,634	800,000	0,030	-0,070
-620,619	-200,000	-0,016	-0,119
-619,605	86,218	0,058	-0,047
-618,590	403,122	-0,014	0,021
-617,576	-15,160	0,043	0,020
-616,561	-78,318	0,079	-0,020
-615,546	-61,222	-0,067	0,021
-614,532	-144,232	-0,118	-0,008
-613,517	-200,000	-0,024	-0,124
-612,503	-135,323	-0,041	-0,004
-611,488	-200,000	0,009	-0,062
-610,474	231,570	0,085	0,103
-609,459	215,930	-0,041	0,048
-608,444	16,591	-0,061	-0,035
-607,430	182,382	-0,069	-0,076
-606,415	83,609	0,047	-0,038
-605,401	171,752	0,059	0,063
-604,386	578,732	-0,060	-0,109
-603,371	-200,000	0,000	-0,002
-602,357	800,000	-0,021	-0,060
-601,342	488,248	-0,074	0,126
-600,328	752,606	0,009	-0,018
-599,313	-135,310	-0,024	-0,002
-598,298	179,012	-0,051	-0,056
-597,284	-90,851	0,093	-0,020
-596,269	-152,009	0,098	0,005
-595,255	-15,677	0,107	0,050
-594,240	456,346	-0,025	0,041
-593,225	-200,000	0,036	-0,135
-592,211	-139,757	-0,078	0,006
-591,196	-91,049	-0,134	0,028
-590,182	800,000	0,037	-0,102
-589,167	423,740	0,073	-0,116
-588,152	-90,312	0,119	-0,025
-587,138	89,846	-0,143	-0,118
-586,123	-51,485	-0,028	-0,010
-585,109	800,000	-0,037	-0,082
-584,094	-200,000	-0,021	-0,100
-583,079	-200,000	-0,005	-0,145
-582,065	478,832	-0,052	-0,088
-581,050	800,000	0,035	-0,085
-580,036	-200,000	-0,014	0,081
-579,021	-27,406	-0,092	-0,039
-578,006	800,000	-0,007	0,023
-576,992	-35,957	-0,071	0,028
-575,977	4,737	0,126	0,068
-574,963	-42,230	0,102	-0,038
-573,948	5,377	-0,130	-0,071
-572,934	800,000	0,027	0,069
-571,919	-154,022	-0,063	0,003
-570,904	-200,000	0,013	-0,092
-569,890	142,763	0,086	-0,085
-568,875	800,000	-0,011	0,030
-567,861	621,207	-0,035	-0,065
-566,846	107,044	0,155	0,136
-565,831	61,227	0,054	0,040
-564,817	102,582	0,065	-0,056
-563,802	105,130	0,061	0,054
-562,788	-14,619	0,098	-0,046
-561,773	737,438	-0,081	-0,161
-560,758	763,907	0,053	-0,106
-559,744	118,377	-0,117	0,106
-558,729	-22,546	-0,110	0,049
-557,715	-200,000	-0,005	-0,081
-556,700	-80,021	-0,070	0,017
-555,685	-3,879	0,212	0,108
-554,671	-64,735	-0,052	-0,015
-553,656	446,680	-0,059	-0,097
-552,642	800,000	0,049	-0,104
-551,627	136,700	-0,035	0,034
-550,612	95,821	0,077	0,065
-549,598	-92,919	-0,132	-0,027
-548,583	-67,493	-0,127	-0,037
-547,569	153,166	0,041	0,041
-546,554	-150,030	0,047	0,003
-545,539	792,783	0,038	0,077
-544,525	-19,046	0,080	-0,037
-543,510	-200,000	-0,040	-0,152
-542,496	-200,000	0,024	-0,097
-541,481	437,445	-0,035	-0,057
-540,466	22,455	0,165	-0,100
-539,452	800,000	0,036	0,083
-538,437	-67,407	0,038	0,011
-537,423	381,292	0,048	-0,073
-536,408	521,076	-0,077	0,134
-535,393	-78,785	0,116	-0,029
-534,379	210,771	-0,050	-0,059
-533,364	-131,685	-0,073	-0,007
-532,350	-129,755	0,073	0,007
-531,335	307,978	-0,031	-0,043
-530,321	800,000	0,001	0,002
-529,306	-200,000	-0,003	-0,010
-528,291	558,770	0,050	0,089
-527,277	-87,073	-0,019	-0,004
-526,262	225,899	-0,040	-0,048
-525,248	20,740	-0,086	0,051
-524,233	216,456	0,103	0,121
-523,218	-33,788	-0,102	-0,041
-522,204	800,000	-0,026	0,068
-521,189	621,609	-0,042	-0,078
-520,175	455,110	0,058	-0,096
-519,160	800,000	-0,004	-0,011
-518,145	396,518	0,021	-0,033
-517,131	184,337	0,067	-0,073
-516,116	-200,000	-0,014	-0,105
-515,102	-57,720	0,008	0,003
-514,087	-133,061	-0,038	-0,003
-513,072	-78,289	-0,121	-0,030
-512,058	-200,000	0,005	-0,093
-511,043	800,000	0,047	-0,112
-510,029	-200,000	0,015	0,096
-509,014	247,298	0,060	0,075
-507,999	800,000	-0,082	0,223
-506,985	-104,625	0,050	-0,008
-505,970	800,000	-0,039	-0,086
-504,956	398,476	-0,040	-0,062
-503,941	-47,041	0,041	-0,015
-502,926	-130,145	0,056	-0,006
-501,912	-200,000	0,008	0,089
-500,897	-13,581	0,133	0,063
-499,883	-38,999	-0,061	0,024
-498,868	-200,000	0,012	-0,099
-497,853	675,185	0,076	-0,145
-496,839	-200,000	0,003	-0,159
-495,824	-37,689	-0,101	0,039
-494,810	411,838	0,100	0,158
-493,795	-200,000	0,002	0,023
-492,781	13,566	-0,034	0,019
-491,766	-102,618	0,171	-0,030
-490,751	-200,000	-0,009	-0,035
-489,737	-38,414	-0,147	0,057
-488,722	-38,438	0,085	0,033
-487,708	-48,202	0,071	-0,025
-486,693	-12,144	-0,079	0,038
-485,678	511,634	-0,054	0,092
-484,664	-200,000	-0,038	-0,168
-483,649	-126,387	-0,006	0,001
-482,635	342,258	0,080	-0,116
-481,620	180,196	-0,035	-0,038
-480,605	80,501	-0,015	-0,012
-479,591	301,605	0,070	0,096
-478,576	130,725	0,074	-0,070
-477,562	-177,786	0,072	0,001
-476,547	-96,325	-0,131	-0,025
-475,532	38,525	-0,070	0,046
-474,518	51,151	0,043	0,030
-473,503	-200,000	-0,002	0,060
-472,489	-73,375	0,042	-0,011
-471,474	-200,000	0,013	0,057
-470,459	-200,000	0,012	-0,187
-469,445	800,000	-0,050	-0,120
-468,430	21,374	0,055	-0,033
-467,416	356,336	0,019	0,028
-466,401	800,000	0,015	-0,034
-465,386	800,000	-0,074	0,198
-464,372	800,000	-0,026	-0,079
-463,357	-200,000	-0,013	0,109
-462,343	651,391	-0,034	0,065
-461,328	-200,000	0,004	0,080
-460,313	-36,862	0,067	0,026
-459,299	-70,037	0,102	0,028
-458,284	-42,839	0,021	0,008
-457,270	800,000	0,007	0,016
-456,255	595,092	0,019	0,034
-455,241	482,431	-0,036	0,061
-454,226	176,501	-0,074	0,079
-453,211	79,954	0,053	-0,042
-452,197	665,085	-0,043	-0,083
-451,182	82,813	0,086	0,069
-450,168	38,883	0,096	-0,063
-449,153	-200,000	0,015	0,095
-448,138	-96,783	-0,121	0,023
-447,124	-200,000	-0,170	-0,001
-446,109	785,866	-0,052	0,106
-445,095	507,029	-0,093	0,159
-444,080	-200,000	0,010	0,040
-443,065	800,000	-0,055	0,144
-442,051	-58,706	-0,128	-0,041
-441,036	-92,513	0,092	-0,019
-440,022	-200,000	0,018	-0,101
-439,007	418,713	0,026	-0,040
-437,992	-200,000	0,033	-0,116
-436,978	168,578	-0,022	0,023
-435,963	705,242	-0,025	0,049
-434,949	73,435	-0,050	0,038
-433,934	262,705	-0,054	-0,070
-432,919	-200,000	0,019	0,108
-431,905	49,455	0,101	-0,070
-430,890	800,000	0,023	0,072
-429,876	119,479	-0,063	-0,057
-428,861	-76,116	0,107	-0,027
-427,846	208,939	-0,019	0,022
-426,832	-139,787	0,172	0,013
-425,817	383,759	-0,018	-0,028
-424,803	203,085	-0,055	-0,062
-423,788	105,714	0,087	-0,076
-422,773	-60,576	-0,123	-0,038
-421,759	-45,716	0,100	0,036
-420,744	-200,000	-0,010	-0,160
-419,730	800,000	-0,007	0,018
-418,715	-119,339	0,076	-0,010
-417,701	-69,493	0,089	0,025
-416,686	78,340	0,104	0,082
-415,671	-65,545	0,047	-0,014
-414,657	800,000	0,040	0,085
-413,642	606,164	-0,025	0,047
-412,628	-111,119	-0,025	-0,004
-411,613	-79,459	0,053	0,013
-410,598	800,000	-0,080	-0,172
-409,584	-33,385	0,161	-0,065
-408,569	116,243	0,137	-0,123
-407,555	-200,000	-0,031	-0,133
-406,540	800,000	-0,089	-0,256
-405,525	-134,695	0,021	-0,002
-404,511	800,000	-0,039	0,087
-403,496	-200,000	-0,014	-0,081
-402,482	-98,146	0,044	-0,008
-401,467	102,827	-0,016	-0,013
-400,452	-200,000	-0,002	0,056
-399,438	-136,831	0,134	-0,011
-398,423	-200,000	-0,015	-0,072
-397,409	-130,831	-0,096	0,009
-396,394	-200,000	-0,020	-0,112
-395,379	-33,643	-0,072	0,029
-394,365	-200,000	0,004	-0,172
-393,350	-55,291	0,114	-0,037
-392,336	621,161	0,064	-0,119
-391,321	-200,000	-0,012	-0,154
-390,306	-49,464	-0,027	0,009
-389,292	9,021	-0,086	0,047
-388,277	-37,180	0,046	-0,018
-387,263	26,235	0,046	0,028
-386,248	16,732	-0,015	-0,009
-385,233	-200,000	-0,005	0,136
-384,219	144,433	-0,063	-0,062
-383,204	-75,713	0,027	-0,007
-382,190	-62,990	-0,061	-0,019
-381,175	-43,148	0,098	0,036
-380,160	-111,411	0,137	-0,020
-379,146	-200,000	0,003	0,087
-378,131	13,714	-0,019	-0,011
-377,117	-200,000	0,037	0,138
-376,102	-189,965	-0,049	0,000
-375,088	800,000	0,028	0,057
-374,073	216,343	0,032	-0,038
-373,058	-126,011	0,029	0,003
-372,044	-23,708	-0,119	-0,052
-371,029	-130,744	0,063	-0,006
-370,015	-200,000	-0,007	-0,025
-369,000	-147,873	0,014	0,001
-367,985	-47,448	-0,036	-0,013
-366,971	-16,793	-0,087	-0,040
-365,956	-200,000	0,009	-0,048
-364,942	100,948	0,053	0,045
-363,927	-200,000	0,005	-0,069
-362,912	-142,339	-0,068	-0,005
-361,898	82,038	0,061	0,049
-360,883	-200,000	0,003	0,080
-359,869	800,000	-0,048	-0,118
-358,854	59,379	-0,075	-0,054
-357,839	161,261	0,068	0,070
-356,825	-200,000	0,005	0,042
-355,810	334,723	-0,079	0,112
-354,796	-125,256	0,101	0,011
-353,781	195,082	-0,114	-0,127
-352,766	108,688	-0,067	0,059
-351,752	-100,197	0,094	-0,017
-350,737	-107,301	0,144	0,023
-349,723	72,154	0,009	-0,007
-348,708	-134,320	0,209	-0,019
-347,693	125,812	0,050	0,047
-346,679	722,790	-0,037	0,073
-345,664	65,961	-0,017	-0,013
-344,650	-88,149	-0,055	-0,012
-343,635	-200,000	-0,001	-0,039
-342,620	800,000	0,034	-0,095
-341,606	-14,362	0,123	-0,058
-340,591	-13,269	0,049	0,023
-339,577	210,221	-0,091	-0,105
-338,562	-200,000	-0,004	0,102
-337,548	3,919	0,018	-0,010
-336,533	-200,000	0,000	-0,020
-335,518	95,496	-0,056	-0,047
-334,504	-200,000	0,026	0,114
-333,489	302,484	-0,017	0,022
-332,475	-32,428	-0,079	0,032
-331,460	800,000	0,026	0,056
-330,445	119,682	-0,052	-0,047
-329,431	162,892	0,046	0,047
-328,416	191,106	0,062	0,068
-327,402	220,229	0,038	-0,045
-326,387	-139,337	-0,035	-0,003
-325,372	-58,670	-0,061	-0,019
-324,358	-200,000	-0,008	-0,083
-323,343	501,054	0,064	-0,109
-322,329	-98,228	0,122	-0,023
-321,314	105,100	-0,009	-0,008
-320,299	-57,676	0,054	0,017
-319,285	-182,014	-0,117	0,002
-318,270	-200,000	-0,038	0,154
-317,256	680,359	-0,037	-0,071
-316,241	389,627	-0,039	0,060
-315,226	-40,798	0,108	0,041
-314,212	-67,335	0,029	0,008
-313,197	800,000	-0,013	0,029
-312,183	-130,570	-0,094	0,009
-311,168	102,607	-0,155	0,132
-310,153	196,351	-0,058	0,065
-309,139	225,349	-0,058	0,068
-308,124	121,105	0,062	-0,057
-307,110	-200,000	-0,011	0,193
-306,095	-200,000	0,002	-0,018
-305,080	800,000	0,020	-0,049
-304,066	11,395	0,061	0,034
-303,051	-79,371	-0,015	0,004
-302,037	-104,617	-0,097	-0,016
-301,022	-200,000	-0,004	0,042
-300,008	100,406	0,036	0,031
-298,993	142,151	-0,020	-0,019
-297,978	251,150	-0,056	-0,069
-296,964	-200,000	0,007	0,075
-295,949	-11,085	-0,118	-0,057
-294,935	148,507	-0,088	-0,087
-293,920	-200,000	0,041	0,148
-292,905	-7,110	-0,040	-0,020
-291,891	-200,000	0,044	0,199
-290,876	-102,447	-0,092	-0,016
-289,862	-168,493	-0,098	0,003
-288,847	225,790	-0,052	-0,061
-287,832	61,621	-0,131	-0,095
-286,818	211,950	0,035	-0,040
-285,803	-22,194	0,030	-0,013
-284,789	-52,364	0,045	-0,015
-283,774	-15,230	0,017	-0,008
-282,759	-166,364	-0,042	0,001
-281,745	800,000	-0,025	0,055
-280,730	-200,000	-0,014	0,146
-279,716	-117,977	0,074	-0,010
-278,701	-200,000	0,002	-0,042
-277,686	-200,000	0,042	0,160
-276,672	76,478	0,128	0,099
-275,657	-18,375	-0,020	0,009
-274,643	-33,420	0,036	0,015
-273,628	-200,000	0,006	0,026
-272,613	800,000	0,015	0,034
-271,599	800,000	0,072	0,202
-270,584	-58,724	0,073	0,023
-269,570	-27,301	-0,041	-0,017
-268,555	-62,164	0,106	-0,032
-267,540	800,000	0,017	-0,049
-266,526	-82,225	-0,057	-0,013
-265,511	-117,659	0,021	-0,003
-264,497	-200,000	-0,010	0,091
-263,482	-200,000	0,005	0,017
-262,467	9,681	0,092	0,051
-261,453	-200,000	-0,009	0,074
-260,438	-200,000	-0,057	-0,198
-259,424	487,109	0,062	-0,104
-258,409	544,275	-0,055	0,096
-257,395	-20,700	0,130	-0,058
-256,380	-200,000	-0,003	0,114
-255,365	151,730	-0,033	-0,033
-254,351	311,402	0,091	0,125
-253,336	78,550	0,064	0,050
-252,322	800,000	0,053	0,124
-251,307	-200,000	-0,021	0,109
-250,292	-200,000	0,002	0,084
-249,278	5,957	0,086	0,046
-248,263	187,370	0,042	0,046
-247,249	75,872	0,071	0,055
-246,234	-58,530	0,164	0,052
-245,219	800,000	-0,019	0,044
-244,205	-136,215	-0,106	0,009
-243,190	368,990	-0,034	-0,050
-242,176	56,798	0,063	-0,045
-241,161	190,714	-0,077	0,085
-240,146	260,399	-0,078	0,099
-239,132	-200,000	0,009	-0,066
-238,117	-23,241	-0,113	0,049
-237,103	79,916	0,041	0,032
-236,088	-170,333	-0,075	-0,002
-235,073	128,140	0,059	0,054
-234,059	72,922	-0,040	0,031
-233,044	241,292	0,082	0,100
-232,030	93,051	-0,032	0,026
-231,015	527,906	-0,054	-0,093
-230,000	130,904	-0,055	0,051
-228,986	-200,000	0,024	0,079
-227,971	86,076	-0,076	0,061
-226,957	23,431	0,136	0,082
-225,942	800,000	-0,038	0,118
-224,927	174,012	-0,029	0,030
-223,913	-51,835	-0,112	0,038
-222,898	8,317	0,016	-0,009
-221,884	-14,054	0,074	-0,035
-220,869	165,358	0,063	0,065
-219,855	-41,052	0,151	0,057
-218,840	-99,967	-0,070	-0,013
-217,825	154,145	0,046	0,046
-216,811	-200,000	0,023	0,090
-215,796	487,788	-0,039	-0,065
-214,782	69,257	0,042	0,032
-213,767	464,219	-0,056	0,092
-212,752	89,074	0,089	-0,072
-211,738	43,578	0,075	-0,050
-210,723	-80,056	-0,101	0,025
-209,709	158,886	-0,060	-0,061
-208,694	-200,000	-0,007	0,029
-207,679	10,451	-0,136	0,076
-206,665	38,062	0,089	-0,057
-205,650	-102,333	0,157	0,027
-204,636	624,194	-0,033	0,060
-203,621	-200,000	-0,005	-0,038
-202,606	-65,816	-0,113	0,033
-201,592	24,385	-0,097	-0,058
-200,577	-73,605	-0,109	-0,029
-199,563	800,000	-0,020	0,041
-198,548	-200,000	0,000	0,075
-197,533	177,700	-0,016	-0,017
-196,519	-81,038	-0,029	0,007
-195,504	615,398	-0,082	-0,150
-194,490	421,020	-0,029	0,045
-193,475	-200,000	-0,005	0,071
-192,460	-143,567	0,046	0,003
-191,446	-200,000	-0,007	0,174
-190,431	-200,000	0,010	0,086
-189,417	-24,225	-0,114	0,049
-188,402	800,000	-0,035	0,080
-187,387	-71,498	-0,047	0,013
-186,373	-200,000	-0,032	0,125
-185,358	-110,037	-0,091	0,014
-184,344	7,731	-0,090	0,049
-183,329	-66,993	-0,135	-0,039
-182,315	-200,000	-0,009	-0,062
-181,300	-113,215	0,085	0,012
-180,285	14,702	-0,071	-0,040
-179,271	-73,009	-0,134	-0,036
-178,256	-13,332	0,136	0,064
-177,242	46,067	0,060	0,041
-176,227	-200,000	0,008	0,088
-175,212	68,860	0,126	0,094
-174,198	69,183	0,045	-0,033
-173,183	-200,000	0,002	-0,064
-172,169	-41,611	-0,049	-0,018
-171,154	-20,838	0,071	-0,032
-170,139	-80,259	-0,088	0,021
-169,125	-154,648	0,042	0,002
-168,110	359,408	-0,048	-0,070
-167,096	33,017	-0,057	-0,036
-166,081	-117,128	-0,184	-0,024
-165,066	800,000	-0,032	-0,088
-164,052	-200,000	-0,018	-0,154
-163,037	-158,294	0,139	0,006
-162,023	800,000	-0,023	0,072
-161,008	800,000	0,050	0,159
-159,993	97,415	0,040	-0,034
-158,979	800,000	-0,056	-0,161
-157,964	-67,517	-0,104	0,029
-156,950	378,625	-0,025	0,038
-155,935	-200,000	0,016	-0,075
-154,920	-46,523	0,102	-0,036
-153,906	-200,000	0,019	0,091
-152,891	70,267	-0,049	0,037
-151,877	408,104	0,056	-0,087
-150,862	-90,140	-0,092	-0,019
-149,847	-200,000	0,017	-0,088
-148,833	800,000	-0,020	-0,050
-147,818	800,000	0,058	0,126
-146,804	65,779	0,130	0,096
-145,789	663,334	-0,088	0,166
-144,775	-200,000	-0,051	-0,164
-143,760	384,093	0,023	0,035
-142,745	-20,180	-0,043	-0,019
-141,731	-49,476	0,101	-0,035
-140,716	445,332	-0,035	0,056
-139,702	-200,000	0,015	0,057
-138,687	153,749	0,053	0,053
-137,672	800,000	-0,022	-0,056
-136,658	138,472	-0,074	-0,071
-135,643	800,000	-0,012	0,036
-134,629	-1,938	-0,185	-0,094
-133,614	264,292	-0,013	-0,017
-132,599	-11,576	0,167	-0,079
-131,585	286,379	0,011	0,015
-130,570	151,994	-0,083	-0,083
-129,556	43,290	-0,064	-0,043
-128,541	232,104	0,067	0,081
-127,526	57,032	0,085	-0,060
-126,512	800,000	-0,032	0,082
-125,497	-25,775	0,032	0,014
-124,483	-154,119	0,144	-0,007
-123,468	-200,000	0,015	0,066
-122,453	43,463	-0,099	-0,066
-121,439	-200,000	-0,027	-0,124
-120,424	800,000	0,028	-0,068
