DTS Sentinel unit serial number:	SN410029Multiplexer serial number:	ORYXHardware model number:	OX2-SRSoftware version number:	ORYX F/W v4,00 Oryx Data Collector v3.7.2.0data status	okinstallation	B4 Nyhavnadifferential loss correction	single-endedforward channel	channel 2reverse channel	N/Adate	2023/12/15time	23:55:13forward acquisition time	300,00reverse acquisition time	0,00gamma	499,1914k internal	0,3128k external	0,3128temperature offset calibration	1,0000default loss term (dB/km)	0,3820temperature slope calibration	1,0000multiplexer offset coefficient	1,0000multiplexer slope coefficient	1,0000fibre end	0,00T internal ref (°C)	21,83T ext. ref 1 (°C)	6,71T ext. ref 2 (°C)	6,89length (m)	temperature (°C)	Stokes	anti-Stokes-744,400	684,241	-0,031	0,060
-743,385	-83,938	-0,267	0,063
-742,371	323,854	0,059	-0,084
-741,356	-15,301	-0,282	0,134
-740,342	-88,434	0,044	0,010
-739,327	-72,794	-0,200	0,054
-738,312	800,000	-0,048	-0,156
-737,298	-62,267	-0,141	0,044
-736,283	-72,009	-0,105	-0,029
-735,269	101,681	-0,195	0,169
-734,254	569,727	0,077	-0,140
-733,239	-85,049	-0,359	-0,083
-732,225	-200,000	-0,010	-0,081
-731,210	-200,000	0,010	0,171
-730,196	271,790	-0,096	0,126
-729,181	-200,000	0,002	-0,054
-728,167	42,813	-0,039	-0,027
-727,152	137,715	0,078	-0,076
-726,137	619,279	-0,071	-0,133
-725,123	-166,631	-0,077	0,002
-724,108	800,000	-0,053	-0,149
-723,094	119,271	-0,098	0,090
-722,079	71,980	-0,058	0,045
-721,064	-88,339	-0,163	0,036
-720,050	800,000	-0,053	-0,110
-719,035	-34,505	-0,070	0,028
-718,021	-79,812	-0,042	0,010
-717,006	-147,490	-0,151	0,009
-715,991	303,097	-0,073	-0,101
-714,977	-70,391	-0,127	-0,036
-713,962	47,119	0,071	-0,049
-712,948	132,587	0,136	-0,130
-711,933	19,903	0,057	-0,034
-710,918	258,740	-0,110	0,141
-709,904	-123,174	0,060	-0,007
-708,889	426,692	-0,046	-0,074
-707,875	-15,622	-0,062	-0,029
-706,860	115,212	0,019	-0,017
-705,845	69,468	0,080	0,061
-704,831	-38,406	-0,034	-0,013
-703,816	48,384	-0,131	0,091
-702,802	29,960	0,063	-0,040
-701,787	800,000	-0,061	-0,134
-700,772	-32,289	-0,092	0,038
-699,758	800,000	0,007	0,021
-698,743	-65,001	0,105	-0,031
-697,729	-103,549	0,137	-0,024
-696,714	531,430	-0,028	-0,049
-695,699	800,000	-0,033	-0,093
-694,685	-200,000	-0,014	0,096
-693,670	-200,000	0,005	-0,087
-692,656	294,177	-0,033	0,045
-691,641	-63,412	-0,123	-0,037
-690,627	117,097	-0,028	0,025
-689,612	-175,984	0,128	0,002
-688,597	-200,000	-0,010	-0,048
-687,583	713,906	0,034	-0,067
-686,568	-131,687	-0,109	-0,011
-685,554	800,000	0,061	-0,138
-684,539	20,536	0,061	-0,037
-683,524	162,502	0,054	-0,056
-682,510	-141,071	0,040	-0,003
-681,495	391,318	0,063	0,097
-680,481	-200,000	-0,016	-0,084
-679,466	134,679	-0,093	0,090
-678,451	-200,000	-0,019	0,116
-677,437	800,000	0,027	-0,077
-676,422	669,269	-0,013	-0,026
-675,408	-97,745	0,159	-0,030
-674,393	155,076	0,083	-0,084
-673,378	800,000	0,073	0,175
-672,364	152,152	-0,035	-0,036
-671,349	175,420	-0,042	0,045
-670,335	-200,000	0,001	0,064
-669,320	-44,504	0,131	0,048
-668,305	-126,985	0,017	-0,002
-667,291	212,008	0,053	0,063
-666,276	-27,133	-0,080	-0,034
-665,262	592,891	0,018	-0,034
-664,247	237,838	0,048	-0,060
-663,232	94,316	-0,027	0,023
-662,218	235,121	-0,072	0,088
-661,203	710,781	-0,088	-0,174
-660,189	396,427	0,057	0,089
-659,174	70,708	0,044	0,034
-658,159	109,248	0,052	0,046
-657,145	-200,000	-0,002	-0,154
-656,130	-200,000	0,017	-0,070
-655,116	-21,389	0,100	0,045
-654,101	125,298	0,116	0,109
-653,086	28,025	-0,089	0,055
-652,072	249,495	-0,088	-0,111
-651,057	488,693	0,039	-0,067
-650,043	800,000	0,054	-0,159
-649,028	115,069	-0,158	-0,143
-648,014	-200,000	0,009	0,052
-646,999	-200,000	-0,027	0,147
-645,984	-40,152	-0,034	0,013
-644,970	325,227	-0,090	-0,128
-643,955	65,195	0,117	-0,088
-642,941	800,000	-0,021	-0,056
-641,926	25,369	0,079	-0,049
-640,911	800,000	0,038	-0,099
-639,897	-200,000	-0,007	-0,104
-638,882	-200,000	-0,009	-0,042
-637,868	233,055	-0,049	-0,059
-636,853	26,267	-0,043	-0,026
-635,838	562,415	-0,030	0,053
-634,824	558,427	-0,009	-0,017
-633,809	84,956	0,075	0,061
-632,795	-161,072	0,063	-0,002
-631,780	197,016	-0,145	0,164
-630,765	115,844	-0,053	-0,048
-629,751	800,000	-0,027	0,089
-628,736	-13,065	0,075	-0,036
-627,722	541,074	0,042	0,075
-626,707	74,660	-0,095	0,074
-625,692	58,305	0,087	0,063
-624,678	177,434	-0,093	0,100
-623,663	71,983	0,085	0,066
-622,649	8,156	-0,136	-0,075
-621,634	-35,608	0,062	0,025
-620,619	671,654	0,055	0,106
-619,605	44,957	0,052	-0,035
-618,590	-120,632	-0,269	0,033
-617,576	800,000	-0,052	0,109
-616,561	312,818	-0,053	-0,074
-615,546	-21,030	0,040	-0,018
-614,532	800,000	-0,023	-0,060
-613,517	-200,000	0,031	-0,141
-612,503	76,865	-0,053	-0,041
-611,488	-200,000	0,053	0,243
-610,474	401,324	-0,043	0,068
-609,459	-200,000	0,004	-0,041
-608,444	-39,411	-0,080	-0,031
-607,430	-42,840	-0,050	0,019
-606,415	224,387	-0,079	-0,095
-605,401	50,341	0,050	-0,035
-604,386	-200,000	-0,016	0,110
-603,371	800,000	-0,025	0,067
-602,357	-24,421	-0,072	0,032
-601,342	171,709	0,030	-0,031
-600,328	151,881	-0,048	-0,048
-599,313	800,000	-0,027	0,076
-598,298	140,695	-0,068	-0,066
-597,284	-133,290	0,036	-0,003
-596,269	59,231	-0,066	-0,048
-595,255	-138,086	0,062	-0,005
-594,240	171,206	0,173	-0,184
-593,225	-60,192	0,086	-0,027
-592,211	261,247	-0,072	0,092
-591,196	-154,015	-0,141	-0,007
-590,182	-31,983	0,058	-0,024
-589,167	-36,257	-0,059	-0,023
-588,152	169,182	-0,085	0,090
-587,138	-56,462	-0,151	-0,049
-586,123	15,098	-0,030	-0,017
-585,109	-189,376	-0,084	0,001
-584,094	-55,096	-0,083	0,028
-583,079	104,348	0,134	0,117
-582,065	-53,285	0,187	0,063
-581,050	688,117	-0,082	-0,160
-580,036	249,401	-0,067	-0,084
-579,021	-79,116	0,073	-0,018
-578,006	800,000	-0,016	-0,046
-576,992	800,000	0,023	-0,054
-575,977	-200,000	-0,028	0,145
-574,963	63,286	0,024	0,018
-573,948	-74,082	-0,034	0,009
-572,934	-71,452	0,074	-0,020
-571,919	-60,325	-0,139	0,043
-570,904	-200,000	0,008	-0,089
-569,890	-19,726	-0,018	0,008
-568,875	800,000	-0,057	0,144
-567,861	163,469	0,053	0,055
-566,846	-92,469	0,111	0,023
-565,831	-200,000	0,043	0,189
-564,817	114,388	-0,115	0,104
-563,802	-200,000	0,020	0,075
-562,788	-20,688	-0,093	-0,042
-561,773	44,027	-0,213	-0,144
-560,758	-200,000	-0,022	-0,096
-559,744	13,975	0,118	-0,067
-558,729	-59,658	0,057	0,018
-557,715	-67,987	0,035	0,010
-556,700	-61,116	-0,160	-0,050
-555,685	-32,938	0,069	-0,028
-554,671	-116,209	-0,158	-0,021
-553,656	-180,020	0,107	-0,002
-552,642	-200,000	0,003	0,048
-551,627	-200,000	0,048	0,184
-550,612	763,595	0,012	0,024
-549,598	430,595	-0,014	0,022
-548,583	-200,000	0,003	-0,012
-547,569	800,000	0,023	0,064
-546,554	-154,274	0,089	-0,004
-545,539	-73,313	0,122	-0,033
-544,525	749,307	-0,031	0,062
-543,510	18,636	0,037	-0,022
-542,496	-0,622	-0,053	-0,028
-541,481	-24,682	-0,163	0,071
-540,466	332,473	-0,034	0,049
-539,452	-99,616	0,027	-0,005
-538,437	-156,207	0,089	-0,004
-537,423	84,313	0,085	-0,068
-536,408	62,953	-0,028	-0,021
-535,393	-200,000	0,009	-0,093
-534,379	-200,000	0,000	-0,045
-533,364	153,869	-0,088	-0,089
-532,350	-200,000	0,010	-0,087
-531,335	-20,774	-0,077	0,035
-530,321	-118,874	-0,020	-0,003
-529,306	55,433	-0,033	-0,024
-528,291	104,868	-0,038	-0,033
-527,277	-200,000	0,010	-0,060
-526,262	365,484	-0,052	-0,077
-525,248	800,000	-0,042	0,114
-524,233	59,118	0,058	0,042
-523,218	431,394	0,046	0,074
-522,204	214,804	-0,111	0,130
-521,189	-200,000	0,004	0,057
-520,175	-15,084	-0,067	0,031
-519,160	-200,000	-0,008	-0,034
-518,145	-125,237	0,061	0,007
-517,131	-200,000	0,024	0,079
-516,116	111,382	0,157	-0,139
-515,102	35,588	0,112	-0,073
-514,087	-200,000	0,010	-0,049
-513,072	-47,206	-0,142	0,051
-512,058	-144,276	-0,084	-0,006
-511,043	-134,367	0,115	0,010
-510,029	-200,000	0,018	0,158
-509,014	512,637	0,026	0,044
-507,999	184,980	0,080	-0,088
-506,985	150,438	0,056	-0,056
-505,970	-193,452	-0,165	-0,001
-504,956	-200,000	-0,001	-0,206
-503,941	530,707	-0,037	0,065
-502,926	-156,385	0,196	-0,009
-501,912	-178,038	0,073	0,001
-500,897	306,411	-0,035	-0,048
-499,883	-117,518	0,061	0,008
-498,868	-200,000	-0,019	-0,083
-497,853	237,401	0,023	-0,028
-496,839	-200,000	0,017	-0,062
-495,824	-79,911	0,108	0,027
-494,810	303,022	-0,083	0,113
-493,795	201,972	0,068	-0,078
-492,781	178,743	0,132	0,142
-491,766	-54,481	-0,067	-0,022
-490,751	-200,000	0,046	-0,185
-489,737	-70,964	0,032	0,009
-488,722	-200,000	-0,016	0,062
-487,708	-200,000	0,021	-0,080
-486,693	122,631	-0,024	-0,022
-485,678	-200,000	0,008	0,038
-484,664	800,000	-0,027	-0,069
-483,649	-5,830	-0,060	0,030
-482,635	167,306	0,065	0,069
-481,620	-74,478	0,116	-0,031
-480,605	-200,000	0,006	-0,025
-479,591	141,564	-0,102	0,099
-478,576	-122,855	-0,097	-0,011
-477,562	630,398	-0,032	-0,059
-476,547	246,284	-0,093	-0,115
-475,532	234,093	0,043	-0,052
-474,518	202,892	0,054	-0,062
-473,503	-200,000	-0,006	0,047
-472,489	-200,000	-0,024	0,169
-471,474	90,705	-0,073	0,060
-470,459	-137,694	-0,181	0,015
-469,445	800,000	0,042	0,099
-468,430	-113,933	0,121	0,017
-467,416	222,955	0,025	-0,030
-466,401	-90,032	-0,129	-0,028
-465,386	800,000	0,040	-0,095
-464,372	193,372	-0,082	0,091
-463,357	-69,615	-0,150	-0,042
-462,343	-40,937	-0,093	0,035
-461,328	800,000	0,028	-0,074
-460,313	-200,000	0,003	-0,050
-459,299	-200,000	0,000	-0,174
-458,284	-23,947	0,087	-0,038
-457,270	459,507	0,099	0,163
-456,255	-60,929	0,108	-0,033
-455,241	245,385	-0,040	-0,050
-454,226	371,467	0,077	-0,115
-453,211	139,110	-0,090	-0,087
-452,197	-153,171	-0,120	-0,006
-451,182	-87,792	0,102	0,022
-450,168	-200,000	-0,004	-0,053
-449,153	0,226	0,081	-0,043
-448,138	-200,000	-0,028	-0,096
-447,124	-60,527	0,051	0,016
-446,109	75,474	0,061	0,048
-445,095	132,366	0,028	0,027
-444,080	-173,064	0,111	0,002
-443,065	388,530	-0,033	0,050
-442,051	-52,249	0,092	-0,031
-441,036	513,129	0,045	0,078
-440,022	265,941	0,044	-0,057
-439,007	-66,025	-0,068	-0,020
-437,992	-70,483	-0,029	-0,008
-436,978	-23,863	0,024	0,010
-435,963	-83,265	0,075	0,018
-434,949	-200,000	-0,004	-0,016
-433,934	20,448	-0,091	-0,054
-432,919	1,927	-0,118	-0,062
-431,905	800,000	-0,015	-0,046
-430,890	265,827	0,078	0,100
-429,876	-200,000	0,015	0,080
-428,861	87,943	0,116	0,095
-427,846	800,000	-0,037	-0,085
-426,832	105,603	-0,062	0,054
-425,817	-108,719	0,062	-0,010
-424,803	129,458	-0,078	-0,073
-423,788	-200,000	0,015	-0,140
-422,773	-81,451	0,068	-0,016
-421,759	405,720	0,091	0,142
-420,744	-200,000	-0,013	-0,059
-419,730	-19,431	-0,085	0,039
-418,715	395,043	0,045	0,070
-417,701	-200,000	-0,023	0,172
-416,686	189,029	0,064	-0,071
-415,671	-141,203	0,119	-0,009
-414,657	-81,414	0,112	-0,027
-413,642	203,376	-0,102	-0,116
-412,628	46,147	-0,072	0,049
-411,613	52,859	0,076	-0,053
-410,598	-200,000	-0,005	-0,114
-409,584	166,006	0,036	0,038
-408,569	323,635	0,028	-0,040
-407,555	36,188	-0,058	-0,037
-406,540	128,478	0,087	-0,081
-405,525	729,826	-0,065	0,127
-404,511	343,582	0,016	0,023
-403,496	54,182	-0,113	0,080
-402,482	498,075	-0,022	0,038
-401,467	152,543	0,077	0,077
-400,452	-200,000	-0,021	0,119
-399,438	-200,000	-0,002	0,087
-398,423	237,302	0,038	-0,046
-397,409	5,896	0,071	0,039
-396,394	-104,804	-0,029	-0,005
-395,379	-200,000	-0,024	0,093
-394,365	523,221	0,028	0,048
-393,350	-61,447	-0,043	0,013
-392,336	560,274	-0,006	0,010
-391,321	490,820	-0,035	-0,059
-390,306	540,437	0,074	-0,130
-389,292	-200,000	-0,017	-0,127
-388,277	800,000	0,023	-0,055
-387,263	800,000	-0,078	0,180
-386,248	-24,316	-0,047	0,021
-385,233	-183,815	0,082	-0,001
-384,219	-101,806	0,033	-0,006
-383,204	-58,636	-0,110	0,035
-382,190	62,564	-0,016	-0,012
-381,175	-60,652	0,074	-0,023
-380,160	-37,300	0,129	0,050
-379,146	171,519	0,119	0,125
-378,131	-200,000	-0,017	0,167
-377,117	-196,081	0,104	0,001
-376,102	236,002	0,037	0,045
-375,088	135,998	-0,079	0,076
-374,073	-8,233	0,069	-0,034
-373,058	-100,748	0,075	0,013
-372,044	-200,000	-0,020	0,078
-371,029	76,373	0,089	0,069
-370,015	564,448	-0,032	0,058
-369,000	-200,000	-0,019	0,088
-367,985	330,221	-0,068	-0,096
-366,971	-200,000	-0,011	0,061
-365,956	42,225	-0,086	-0,057
-364,942	-186,259	0,113	0,001
-363,927	144,915	-0,049	-0,048
-362,912	-200,000	-0,009	0,042
-361,898	-200,000	0,017	-0,099
-360,883	103,702	-0,092	0,080
-359,869	232,651	0,043	0,051
-358,854	102,446	-0,071	0,061
-357,839	-200,000	0,002	0,116
-356,825	-200,000	0,001	0,075
-355,810	-166,148	0,066	0,002
-354,796	-120,795	-0,084	-0,010
-353,781	-200,000	-0,014	0,064
-352,766	28,678	0,025	-0,016
-351,752	-134,835	-0,112	0,010
-350,737	-131,898	0,067	-0,006
-349,723	-200,000	-0,021	0,190
-348,708	212,281	0,032	-0,037
-347,693	-11,742	-0,128	-0,062
-346,679	800,000	-0,021	-0,063
-345,664	-200,000	0,021	-0,135
-344,650	658,197	0,039	-0,075
-343,635	-109,610	-0,017	-0,003
-342,620	114,683	0,091	0,081
-341,606	538,704	0,057	-0,099
-340,591	800,000	0,037	0,117
-339,577	800,000	-0,034	-0,076
-338,562	-79,092	-0,099	-0,025
-337,548	-200,000	-0,011	0,091
-336,533	209,599	0,018	-0,021
-335,518	-200,000	0,003	0,103
-334,504	-141,026	0,111	0,008
-333,489	221,510	-0,024	0,029
-332,475	-114,344	-0,062	-0,009
-331,460	-200,000	-0,022	-0,154
-330,445	376,215	0,047	0,071
-329,431	1,198	-0,102	-0,054
-328,416	-75,352	0,124	0,032
-327,402	800,000	-0,030	-0,065
-326,387	-64,396	-0,146	0,043
-325,372	-200,000	0,020	-0,080
-324,358	73,454	0,086	-0,066
-323,343	-52,396	0,055	-0,019
-322,329	378,539	-0,019	0,028
-321,314	-93,397	0,052	0,011
-320,299	-86,146	0,099	-0,022
-319,285	-200,000	-0,010	-0,069
-318,270	54,016	-0,079	-0,056
-317,256	-200,000	0,007	-0,030
-316,241	800,000	0,024	-0,063
-315,226	142,398	-0,165	-0,161
-314,212	159,383	0,044	0,044
-313,197	-78,994	-0,112	-0,028
-312,183	800,000	0,062	0,138
-311,168	640,723	-0,077	0,144
-310,153	650,997	0,012	-0,023
-309,139	-97,542	0,067	-0,013
-308,124	-1,332	0,167	-0,086
-307,110	800,000	0,025	0,067
-306,095	277,846	0,075	0,099
-305,080	800,000	-0,095	0,227
-304,066	-169,364	0,095	-0,003
-303,051	320,734	0,014	-0,020
-302,037	800,000	-0,069	-0,176
-301,022	196,873	-0,118	-0,132
-300,008	800,000	0,029	-0,080
-298,993	800,000	0,071	0,148
-297,978	39,019	0,110	0,072
-296,964	656,074	0,071	0,134
-295,949	-200,000	-0,000	-0,124
-294,935	1,941	0,145	-0,076
-293,920	-200,000	0,002	-0,131
-292,905	-173,519	-0,098	0,002
-291,891	446,366	-0,042	0,068
-290,876	-200,000	0,024	0,109
-289,862	140,352	0,042	0,040
-288,847	-80,231	0,172	-0,042
-287,832	-200,000	-0,002	-0,120
-286,818	26,554	-0,223	-0,136
-285,803	800,000	0,015	-0,038
-284,789	53,447	-0,032	-0,022
-283,774	-101,162	-0,024	-0,004
-282,759	-97,443	0,036	-0,007
-281,745	283,051	-0,129	-0,170
-280,730	-158,468	-0,082	0,003
-279,716	214,745	-0,016	-0,019
-278,701	800,000	0,057	0,128
-277,686	10,572	-0,046	0,026
-276,672	-68,049	0,060	-0,017
-275,657	81,520	-0,082	-0,064
-274,643	247,929	-0,044	-0,054
-273,628	507,357	-0,010	-0,018
-272,613	-89,498	-0,096	0,020
-271,599	-200,000	0,042	0,158
-270,584	-69,403	0,169	0,047
-269,570	800,000	0,032	-0,075
-268,555	800,000	-0,027	0,059
-267,540	-200,000	-0,014	0,051
-266,526	-0,645	0,059	-0,030
-265,511	185,738	0,054	0,059
-264,497	-53,706	0,070	0,023
-263,482	503,483	0,014	-0,023
-262,467	-138,367	0,086	-0,007
-261,453	-174,759	0,138	0,003
-260,438	638,493	0,036	-0,066
-259,424	109,528	-0,115	-0,100
-258,409	115,050	0,108	0,096
-257,395	-31,263	0,031	-0,013
-256,380	290,353	0,078	0,103
-255,365	-200,000	0,007	-0,066
-254,351	-200,000	0,013	0,074
-253,336	-200,000	-0,002	0,025
-252,322	794,632	-0,034	-0,069
-251,307	800,000	0,011	-0,030
-250,292	45,237	0,078	0,053
-249,278	75,733	0,093	0,072
-248,263	-121,701	-0,070	-0,008
-247,249	30,297	0,052	0,032
-246,234	-135,144	-0,120	0,010
-245,219	114,430	-0,086	-0,077
-244,205	28,648	0,077	-0,047
-243,190	-136,782	-0,050	-0,004
-242,176	-75,643	-0,109	-0,028
-241,161	120,706	-0,043	0,039
-240,146	-200,000	0,003	-0,119
-239,132	275,119	0,028	0,037
-238,117	-200,000	0,000	0,067
-237,103	-42,491	-0,057	0,021
-236,088	163,506	-0,026	0,026
-235,073	164,654	0,085	0,087
-234,059	47,672	0,040	-0,027
-233,044	31,704	0,118	0,074
-232,030	-17,520	-0,050	-0,023
-231,015	462,305	0,048	-0,079
-230,000	-121,360	-0,071	-0,008
-228,986	-200,000	-0,026	-0,087
-227,971	159,986	0,048	0,048
-226,957	49,751	-0,034	0,023
-225,942	34,615	0,076	-0,048
-224,927	800,000	0,028	0,090
-223,913	127,174	-0,148	0,137
-222,898	-21,704	0,084	0,037
-221,884	-200,000	0,021	-0,096
-220,869	77,432	-0,035	-0,027
-219,855	800,000	-0,042	0,104
-218,840	336,839	0,048	0,068
-217,825	-68,485	-0,205	0,058
-216,811	27,377	-0,078	-0,048
-215,796	-200,000	-0,031	0,145
-214,782	-37,485	0,127	0,049
-213,767	800,000	0,033	-0,101
-212,752	267,385	0,057	0,073
-211,738	103,101	-0,016	-0,014
-210,723	-119,512	0,099	0,012
-209,709	-155,634	-0,179	-0,008
-208,694	93,371	-0,015	-0,012
-207,679	245,912	0,074	0,091
-206,665	800,000	-0,045	-0,131
-205,650	-67,914	0,177	0,050
-204,636	-200,000	0,038	0,136
-203,621	800,000	-0,032	0,100
-202,606	800,000	-0,035	-0,099
-201,592	379,157	0,098	-0,146
-200,577	282,655	-0,099	-0,130
-199,563	225,251	0,050	-0,059
-198,548	-200,000	0,003	0,032
-197,533	351,128	-0,067	0,097
-196,519	-120,752	0,053	-0,006
-195,504	800,000	-0,042	0,094
-194,490	447,101	0,044	-0,071
-193,475	23,635	-0,123	-0,074
-192,460	-200,000	0,007	-0,041
-191,446	81,569	0,021	0,016
-190,431	-84,668	0,070	0,016
-189,417	-200,000	-0,002	-0,023
-188,402	-0,136	-0,164	-0,085
-187,387	-126,945	0,100	0,011
-186,373	177,455	0,040	-0,043
-185,358	-200,000	-0,021	-0,163
-184,344	739,402	-0,009	0,017
-183,329	800,000	0,029	0,083
-182,315	3,457	0,038	-0,020
-181,300	47,037	-0,058	-0,039
-180,285	73,629	0,046	-0,035
-179,271	-62,130	-0,121	-0,036
-178,256	-37,002	0,099	-0,039
-177,242	468,659	0,077	-0,127
-176,227	18,363	0,051	0,030
-175,212	-200,000	-0,011	0,080
-174,198	371,366	0,026	-0,039
-173,183	800,000	-0,014	-0,037
-172,169	-31,246	-0,104	0,043
-171,154	54,600	-0,111	-0,078
-170,139	800,000	-0,036	0,100
-169,125	-140,382	0,071	0,005
-168,110	-200,000	-0,011	0,047
-167,096	-147,708	0,051	-0,003
-166,081	41,248	-0,178	0,117
-165,066	77,055	-0,069	0,053
-164,052	609,165	-0,073	-0,133
-163,037	800,000	0,046	-0,138
-162,023	800,000	-0,040	0,119
-161,008	132,832	0,051	-0,048
-159,993	-7,437	0,138	0,068
-158,979	1,086	0,117	-0,061
-157,964	-167,798	-0,108	-0,003
-156,950	36,189	-0,095	-0,061
-155,935	-142,160	-0,046	-0,003
-154,920	271,753	0,072	-0,093
-153,906	-200,000	-0,004	-0,057
-152,891	-94,226	-0,035	0,007
-151,877	-46,514	-0,018	0,006
-150,862	315,352	0,038	-0,052
-149,847	-167,608	-0,148	0,004
-148,833	800,000	-0,022	-0,070
-147,818	-17,853	-0,031	0,014
-146,804	481,957	0,051	0,085
-145,789	78,540	0,046	-0,036
-144,775	70,754	-0,081	-0,061
-143,760	-5,731	0,068	0,034
-142,745	-154,596	-0,042	0,002
-141,731	162,622	-0,103	0,105
-140,716	-4,836	0,082	0,041
-139,702	365,859	0,073	-0,107
-138,687	287,405	0,104	-0,137
-137,672	115,176	-0,032	0,028
-136,658	-154,319	-0,111	0,005
-135,643	-59,080	-0,065	-0,020
-134,629	66,772	0,124	-0,091
-133,614	-200,000	-0,003	0,023
-132,599	72,461	0,078	-0,059
-131,585	-39,682	-0,096	0,036
-130,570	-200,000	-0,044	0,179
-129,556	800,000	0,037	-0,104
-128,541	-200,000	-0,009	-0,040
-127,526	390,038	0,057	-0,087
-126,512	186,939	-0,021	-0,023
-125,497	516,655	0,056	0,096
-124,483	-30,280	0,114	-0,047
-123,468	800,000	-0,032	-0,070
-122,453	-200,000	-0,014	-0,071
-121,439	43,745	-0,077	-0,051
-120,424	-27,531	0,146	0,061
-119,410	800,000	0,051	0,116
