DTS Sentinel unit serial number:	SN410029Multiplexer serial number:	ORYXHardware model number:	OX2-SRSoftware version number:	ORYX F/W v4,00 Oryx Data Collector v3.7.2.0data status	okinstallation	B4 Nyhavnadifferential loss correction	single-endedforward channel	channel 2reverse channel	N/Adate	2023/12/19time	02:05:13forward acquisition time	300,00reverse acquisition time	0,00gamma	499,1914k internal	0,3124k external	0,3124temperature offset calibration	1,0000default loss term (dB/km)	0,3820temperature slope calibration	1,0000multiplexer offset coefficient	1,0000multiplexer slope coefficient	1,0000fibre end	0,00T internal ref (°C)	21,37T ext. ref 1 (°C)	6,02T ext. ref 2 (°C)	6,11length (m)	temperature (°C)	Stokes	anti-Stokes-744,400	19,770	0,094	-0,056
-743,385	205,307	-0,192	0,223
-742,371	-200,000	0,004	0,064
-741,356	-41,293	-0,255	0,097
-740,342	-33,940	0,032	0,013
-739,327	28,410	-0,266	0,167
-738,312	-200,000	-0,023	-0,117
-737,298	-38,836	-0,139	0,054
-736,283	-102,187	0,096	0,017
-735,269	135,082	-0,152	0,147
-734,254	32,672	0,029	-0,019
-733,239	-140,098	-0,314	-0,024
-732,225	-85,694	0,096	0,022
-731,210	246,853	-0,037	-0,047
-730,196	52,691	-0,098	0,070
-729,181	101,063	-0,102	0,089
-728,167	-105,904	0,068	-0,011
-727,152	171,133	-0,100	-0,107
-726,137	66,032	-0,041	0,031
-725,123	-59,062	-0,070	0,022
-724,108	182,072	-0,156	-0,171
-723,094	292,969	-0,155	-0,212
-722,079	-90,181	0,065	0,014
-721,064	63,040	-0,168	-0,125
-720,050	353,683	-0,048	-0,071
-719,035	-92,990	0,203	0,042
-718,021	-114,186	-0,120	-0,017
-717,006	-26,301	-0,101	-0,044
-715,991	-5,364	-0,155	-0,079
-714,977	184,959	-0,105	-0,117
-713,962	-103,348	0,100	-0,017
-712,948	-200,000	-0,005	-0,042
-711,933	92,607	-0,026	-0,022
-710,918	-118,088	-0,103	0,014
-709,904	-129,292	-0,080	0,008
-708,889	-200,000	-0,003	-0,140
-707,875	-45,672	-0,083	-0,031
-706,860	509,865	0,100	-0,174
-705,845	-40,509	0,079	-0,030
-704,831	-13,603	-0,073	-0,035
-703,816	800,000	-0,047	-0,104
-702,802	191,953	-0,042	-0,047
-701,787	-140,274	-0,048	0,004
-700,772	-136,549	-0,081	0,007
-699,758	-170,904	0,089	0,002
-698,743	269,524	-0,053	-0,070
-697,729	85,034	-0,069	0,056
-696,714	-9,507	0,059	-0,029
-695,699	-200,000	-0,036	-0,139
-694,685	58,576	-0,041	-0,030
-693,670	492,728	-0,101	-0,173
-692,656	177,955	-0,040	-0,043
-691,641	-38,516	-0,151	-0,059
-690,627	-200,000	-0,001	0,012
-689,612	-85,618	0,117	-0,027
-688,597	78,598	-0,077	-0,061
-687,583	-200,000	-0,007	-0,110
-686,568	-90,796	-0,148	0,031
-685,554	500,013	-0,111	-0,191
-684,539	-30,307	-0,044	0,018
-683,524	170,318	0,115	0,123
-682,510	-23,055	-0,161	0,072
-681,495	-130,345	0,082	-0,008
-680,481	439,643	-0,073	0,119
-679,466	-200,000	-0,007	-0,070
-678,451	358,125	0,032	0,048
-677,437	800,000	0,046	0,103
-676,422	132,645	-0,062	0,060
-675,408	32,708	0,079	0,050
-674,393	-200,000	0,005	-0,191
-673,378	210,352	-0,081	-0,094
-672,364	800,000	0,038	0,079
-671,349	600,024	-0,059	-0,109
-670,335	15,572	-0,192	-0,112
-669,320	360,754	0,097	0,144
-668,305	-128,323	-0,098	-0,010
-667,291	800,000	-0,042	-0,100
-666,276	800,000	-0,049	0,107
-665,262	280,978	-0,036	-0,048
-664,247	-163,088	-0,045	0,002
-663,232	235,128	-0,127	-0,156
-662,218	-200,000	0,001	0,085
-661,203	187,429	0,075	0,084
-660,189	-7,598	0,103	-0,052
-659,174	137,203	-0,077	-0,075
-658,159	-65,939	-0,079	0,023
-657,145	441,883	-0,031	-0,051
-656,130	37,415	0,077	-0,051
-655,116	-151,699	0,102	-0,005
-654,101	189,812	0,065	0,072
-653,086	-163,256	0,054	-0,002
-652,072	196,822	-0,047	-0,053
-651,057	512,350	0,020	-0,035
-650,043	800,000	0,073	-0,159
-649,028	800,000	-0,038	-0,112
-648,014	-200,000	-0,002	0,025
-646,999	-103,745	0,051	-0,009
-645,984	-200,000	-0,003	-0,073
-644,970	-5,028	0,029	-0,015
-643,955	-36,470	-0,147	0,058
-642,941	244,927	-0,059	-0,074
-641,926	664,041	0,028	-0,054
-640,911	-200,000	0,001	-0,162
-639,897	45,956	-0,081	0,055
-638,882	-114,957	0,186	0,026
-637,868	-43,900	-0,120	0,045
-636,853	211,105	-0,109	-0,127
-635,838	-16,531	-0,090	0,042
-634,824	-104,717	-0,115	0,019
-633,809	-200,000	0,041	-0,193
-632,795	131,534	0,096	0,091
-631,780	374,222	-0,026	0,039
-630,765	-50,943	-0,152	0,053
-629,751	8,184	-0,037	-0,021
-628,736	-106,340	0,043	-0,007
-627,722	-80,509	0,121	-0,030
-626,707	13,467	-0,186	-0,107
-625,692	195,778	-0,101	0,114
-624,678	-200,000	-0,007	0,078
-623,663	-200,000	0,001	-0,085
-622,649	-153,150	-0,058	0,003
-621,634	178,456	-0,022	-0,023
-620,619	-12,820	0,058	0,028
-619,605	-200,000	-0,011	0,071
-618,590	169,277	-0,070	0,074
-617,576	-33,800	0,090	0,036
-616,561	-200,000	-0,013	-0,069
-615,546	-200,000	0,028	-0,118
-614,532	800,000	0,048	-0,151
-613,517	-200,000	-0,001	0,058
-612,503	-53,442	-0,059	-0,020
-611,488	800,000	0,038	-0,120
-610,474	363,497	-0,063	0,095
-609,459	367,480	0,035	0,053
-608,444	-200,000	0,021	0,093
-607,430	-200,000	-0,018	-0,064
-606,415	800,000	0,048	-0,124
-605,401	-97,531	0,052	-0,010
-604,386	800,000	-0,027	-0,057
-603,371	25,768	0,097	-0,060
-602,357	-200,000	-0,006	-0,087
-601,342	83,716	-0,098	0,079
-600,328	64,861	0,023	0,017
-599,313	-0,271	-0,187	-0,098
-598,298	-200,000	-0,034	-0,154
-597,284	800,000	-0,044	-0,107
-596,269	87,737	0,048	0,039
-595,255	-118,094	0,077	0,010
-594,240	-169,056	0,066	0,002
-593,225	50,536	-0,083	-0,058
-592,211	-200,000	0,014	-0,089
-591,196	-200,000	-0,010	-0,108
-590,182	91,527	0,142	-0,118
-589,167	193,217	-0,028	0,031
-588,152	186,507	0,052	0,058
-587,138	-159,309	-0,183	-0,007
-586,123	146,628	-0,057	-0,057
-585,109	79,187	-0,056	-0,045
-584,094	800,000	0,064	-0,148
-583,079	-24,407	-0,103	-0,045
-582,065	-200,000	0,011	0,119
-581,050	800,000	-0,038	0,102
-580,036	225,161	0,063	-0,075
-579,021	-200,000	-0,015	0,124
-578,006	-60,816	0,053	-0,017
-576,992	348,180	-0,015	0,021
-575,977	235,371	-0,064	0,078
-574,963	-34,166	0,096	-0,039
-573,948	-82,302	-0,136	-0,033
-572,934	-200,000	-0,017	0,118
-571,919	-200,000	0,001	-0,063
-570,904	800,000	0,027	0,061
-569,890	700,966	-0,046	-0,091
-568,875	276,427	-0,087	0,115
-567,861	-200,000	0,012	0,061
-566,846	40,821	0,079	0,053
-565,831	-200,000	-0,042	0,183
-564,817	68,133	-0,056	0,042
-563,802	501,940	-0,079	-0,135
-562,788	376,701	-0,092	-0,139
-561,773	49,992	0,046	-0,032
-560,758	-200,000	-0,009	0,101
-559,744	-200,000	0,018	-0,061
-558,729	800,000	-0,018	0,041
-557,715	800,000	0,032	-0,081
-556,700	332,935	-0,023	0,033
-555,685	800,000	0,063	-0,173
-554,671	-137,553	0,218	0,018
-553,656	407,801	0,036	-0,056
-552,642	-88,951	0,027	-0,006
-551,627	69,241	-0,115	0,087
-550,612	297,764	0,041	-0,056
-549,598	-200,000	-0,015	-0,120
-548,583	-10,035	0,069	-0,034
-547,569	239,558	-0,120	0,148
-546,554	-23,174	0,133	0,059
-545,539	-61,027	-0,229	0,071
-544,525	-200,000	0,010	-0,050
-543,510	-24,018	-0,030	-0,013
-542,496	176,561	-0,082	0,088
-541,481	-200,000	-0,004	0,033
-540,466	426,422	-0,096	0,154
-539,452	-200,000	-0,025	0,141
-538,437	-200,000	0,010	0,087
-537,423	142,693	0,047	0,046
-536,408	-200,000	0,018	0,177
-535,393	-200,000	-0,013	-0,058
-534,379	84,771	-0,109	0,088
-533,364	-67,788	-0,024	-0,007
-532,350	800,000	-0,026	0,066
-531,335	-169,529	0,067	0,002
-530,321	-200,000	0,011	-0,051
-529,306	-1,366	-0,128	0,066
-528,291	-24,363	0,021	-0,009
-527,277	-112,461	0,049	0,007
-526,262	8,113	0,096	0,053
-525,248	530,780	0,054	0,095
-524,233	-200,000	0,012	0,075
-523,218	-200,000	0,019	0,157
-522,204	-200,000	-0,012	-0,111
-521,189	489,615	0,026	-0,044
-520,175	182,314	-0,020	-0,022
-519,160	436,470	-0,062	0,100
-518,145	-25,829	0,134	0,058
-517,131	399,951	0,106	-0,165
-516,116	26,206	-0,129	-0,079
-515,102	-115,148	-0,024	0,003
-514,087	355,724	-0,004	0,005
-513,072	711,795	-0,088	-0,173
-512,058	206,479	-0,041	-0,047
-511,043	67,773	0,086	0,065
-510,029	-200,000	-0,039	0,144
-509,014	-200,000	-0,037	0,157
-507,999	432,808	0,070	0,112
-506,985	-138,036	-0,110	-0,009
-505,970	-200,000	-0,004	-0,143
-504,956	-116,229	-0,126	0,017
-503,941	-200,000	0,005	-0,067
-502,926	48,874	-0,072	-0,050
-501,912	-200,000	0,017	0,066
-500,897	31,262	0,090	0,057
-499,883	-141,154	-0,175	-0,013
-498,868	-159,262	0,144	0,006
-497,853	-200,000	0,040	-0,177
-496,839	-61,546	0,119	0,037
-495,824	62,615	-0,050	-0,037
-494,810	-200,000	0,085	-0,000
-493,795	66,797	0,053	0,039
-492,781	183,046	0,078	-0,085
-491,766	-200,000	-0,016	0,072
-490,751	-11,344	0,058	0,028
-489,737	-21,907	0,145	-0,065
-488,722	-37,049	0,060	0,024
-487,708	800,000	0,036	-0,116
-486,693	-128,622	-0,053	-0,005
-485,678	-55,322	-0,060	-0,020
-484,664	-200,000	-0,028	0,107
-483,649	-200,000	-0,018	-0,072
-482,635	-200,000	0,022	-0,086
-481,620	-200,000	-0,014	-0,071
-480,605	-12,262	-0,097	0,047
-479,591	19,444	0,125	0,074
-478,576	155,071	-0,164	0,166
-477,562	800,000	-0,037	0,090
-476,547	48,785	0,100	-0,069
-475,532	228,721	-0,028	0,033
-474,518	257,219	-0,071	-0,090
-473,503	-200,000	-0,045	0,149
-472,489	-200,000	0,021	0,174
-471,474	-68,987	-0,056	0,016
-470,459	800,000	-0,053	-0,109
-469,445	773,534	0,011	-0,023
-468,430	83,511	0,126	0,101
-467,416	-72,892	-0,024	0,006
-466,401	-200,000	-0,004	-0,050
-465,386	-8,075	0,077	-0,038
-464,372	-154,513	0,104	0,005
-463,357	132,692	0,120	-0,114
-462,343	-111,800	-0,077	-0,011
-461,328	-200,000	-0,006	-0,062
-460,313	388,182	-0,039	0,059
-459,299	185,128	0,094	0,103
-458,284	800,000	0,040	-0,124
-457,270	-44,848	-0,136	0,050
-456,255	-40,081	-0,063	-0,024
-455,241	-98,679	-0,089	0,017
-454,226	120,359	-0,070	-0,064
-453,211	-102,483	-0,073	0,013
-452,197	34,356	-0,012	0,008
-451,182	-200,000	-0,032	0,000
-450,168	571,602	-0,017	0,031
-449,153	249,543	0,095	-0,119
-448,138	800,000	0,056	-0,152
-447,124	315,982	-0,085	-0,119
-446,109	800,000	0,009	0,020
-445,095	-87,168	0,140	-0,031
-444,080	-123,211	-0,045	0,005
-443,065	-200,000	-0,001	0,067
-442,051	12,878	-0,061	-0,035
-441,036	-200,000	0,015	0,054
-440,022	77,865	0,074	-0,058
-439,007	-200,000	-0,015	-0,201
-437,992	3,844	0,118	-0,063
-436,978	256,140	-0,028	-0,036
-435,963	700,267	-0,057	-0,111
-434,949	-159,407	-0,074	0,003
-433,934	-200,000	0,015	-0,066
-432,919	-200,000	-0,007	-0,083
-431,905	-3,806	0,080	0,041
-430,890	532,364	0,043	-0,076
-429,876	-200,000	0,029	-0,106
-428,861	-118,125	-0,041	0,005
-427,846	800,000	0,019	0,059
-426,832	20,281	0,060	0,036
-425,817	-200,000	-0,029	0,126
-424,803	-134,612	0,110	-0,010
-423,788	-200,000	-0,012	-0,045
-422,773	-200,000	0,013	0,047
-421,759	-200,000	0,018	-0,076
-420,744	27,160	-0,105	0,065
-419,730	-200,000	-0,011	-0,047
-418,715	48,406	0,009	-0,007
-417,701	-200,000	-0,009	-0,079
-416,686	-68,849	0,072	-0,020
-415,671	-102,051	0,093	-0,016
-414,657	800,000	0,015	0,041
-413,642	100,302	0,100	-0,086
-412,628	-40,305	-0,139	0,053
-411,613	143,516	-0,008	0,008
-410,598	-200,000	-0,013	-0,062
-409,584	-148,826	-0,036	-0,002
-408,569	127,263	-0,068	0,063
-407,555	-12,318	0,108	0,052
-406,540	-200,000	0,020	0,070
-405,525	520,108	-0,040	-0,069
-404,511	532,967	-0,048	0,085
-403,496	-9,720	-0,058	-0,028
-402,482	-200,000	0,034	-0,272
-401,467	-13,632	-0,105	0,050
-400,452	-89,976	0,062	-0,013
-399,438	-144,458	0,059	0,004
-398,423	-79,657	-0,103	0,025
-397,409	119,555	0,089	0,081
-396,394	-32,889	-0,193	0,078
-395,379	-200,000	0,015	-0,116
-394,365	-200,000	-0,001	-0,006
-393,350	-12,248	0,077	0,037
-392,336	307,618	-0,025	-0,034
-391,321	-200,000	0,014	-0,051
-390,306	-122,044	-0,074	-0,009
-389,292	800,000	-0,031	-0,069
-388,277	-55,614	0,079	-0,026
-387,263	800,000	-0,017	-0,040
-386,248	527,553	0,052	0,090
-385,233	18,335	0,001	-0,000
-384,219	427,688	-0,058	-0,092
-383,204	107,193	0,064	-0,056
-382,190	218,937	0,122	-0,143
-381,175	188,795	-0,060	-0,066
-380,160	-200,000	-0,005	0,075
-379,146	200,840	-0,051	0,058
-378,131	271,172	0,087	0,113
-377,117	-148,416	-0,050	-0,003
-376,102	-200,000	-0,002	-0,058
-375,088	-122,298	-0,078	-0,009
-374,073	-57,024	-0,108	0,035
-373,058	-108,150	0,144	0,023
-372,044	746,337	0,024	-0,048
-371,029	159,456	-0,065	0,066
-370,015	-200,000	0,035	0,162
-369,000	136,485	-0,084	0,081
-367,985	-200,000	0,061	0,000
-366,971	223,616	-0,042	-0,050
-365,956	-9,240	-0,092	0,045
-364,942	123,535	-0,083	0,076
-363,927	-200,000	-0,029	-0,112
-362,912	273,425	-0,070	0,091
-361,898	424,840	0,043	-0,068
-360,883	68,186	-0,114	-0,085
-359,869	-200,000	-0,023	0,101
-358,854	800,000	0,040	0,122
-357,839	790,251	0,076	0,154
-356,825	59,060	0,040	0,029
-355,810	313,916	-0,104	0,144
-354,796	314,350	-0,036	0,049
-353,781	-200,000	0,003	0,017
-352,766	134,453	0,022	0,021
-351,752	15,601	0,039	-0,023
-350,737	-78,790	0,145	-0,036
-349,723	98,620	-0,031	0,026
-348,708	486,892	-0,079	0,133
-347,693	-0,492	0,008	0,004
-346,679	-200,000	0,062	-0,000
-345,664	-200,000	-0,001	0,028
-344,650	7,122	0,084	0,046
-343,635	-93,315	-0,020	-0,004
-342,620	-125,914	0,097	0,011
-341,606	-200,000	-0,012	-0,063
-340,591	-48,405	0,161	0,056
-339,577	-35,564	-0,055	-0,022
-338,562	6,285	-0,032	-0,017
-337,548	800,000	0,024	0,076
-336,533	-200,000	-0,025	0,156
-335,518	19,956	-0,059	-0,035
-334,504	283,365	-0,040	0,052
-333,489	84,110	-0,084	0,067
-332,475	75,612	0,099	-0,077
-331,460	800,000	-0,033	-0,078
-330,445	450,827	-0,010	0,017
-329,431	361,891	0,041	-0,061
-328,416	89,819	-0,093	-0,076
-327,402	-73,411	0,060	0,016
-326,387	224,212	0,026	0,030
-325,372	306,261	-0,056	-0,076
-324,358	-200,000	0,005	-0,153
-323,343	-175,560	0,177	0,003
-322,329	743,662	0,077	0,152
-321,314	22,723	0,067	0,040
-320,299	647,979	-0,082	0,154
-319,285	-20,288	-0,083	-0,037
-318,270	-47,398	-0,113	-0,040
-317,256	-200,000	0,055	-0,179
-316,241	-21,781	-0,023	0,010
-315,226	522,581	0,056	0,097
-314,212	715,863	0,086	0,169
-313,197	-200,000	0,014	-0,050
-312,183	-125,613	-0,061	0,007
-311,168	-41,635	-0,091	-0,034
-310,153	800,000	-0,025	0,076
-309,139	9,723	0,040	0,022
-308,124	71,558	-0,031	-0,023
-307,110	321,450	-0,029	0,041
-306,095	502,260	0,019	0,032
-305,080	-200,000	0,020	-0,075
-304,066	165,492	-0,061	0,063
-303,051	-200,000	0,015	-0,156
-302,037	-200,000	-0,024	-0,151
-301,022	800,000	0,049	0,116
-300,008	21,767	0,091	0,054
-298,993	-40,039	-0,136	0,052
-297,978	-150,335	0,139	-0,008
-296,964	800,000	-0,028	-0,079
-295,949	800,000	0,035	0,099
-294,935	127,184	-0,073	-0,068
-293,920	348,998	-0,008	-0,012
-292,905	-51,577	0,106	0,036
-291,891	-200,000	-0,020	0,109
-290,876	396,853	0,052	0,079
-289,862	-200,000	-0,002	0,118
-288,847	800,000	-0,034	-0,096
-287,832	-65,052	-0,129	-0,038
-286,818	-16,939	0,070	-0,032
-285,803	703,548	0,050	-0,097
-284,789	-47,237	-0,128	0,046
-283,774	470,031	-0,016	-0,026
-282,759	-200,000	0,011	0,118
-281,745	-39,533	0,051	-0,020
-280,730	60,507	-0,061	-0,044
-279,716	800,000	-0,021	0,051
-278,701	-200,000	0,005	-0,050
-277,686	720,121	0,044	0,087
-276,672	24,252	0,018	-0,011
-275,657	-72,982	-0,117	0,031
-274,643	515,011	0,052	0,090
-273,628	-180,209	-0,097	-0,001
-272,613	-75,093	-0,121	0,031
-271,599	-200,000	-0,010	0,202
-270,584	800,000	-0,054	0,139
-269,570	-132,769	-0,135	0,012
-268,555	-59,551	0,056	0,017
-267,540	-21,819	0,029	-0,013
-266,526	94,229	-0,060	-0,050
-265,511	-200,000	0,018	-0,080
-264,497	800,000	-0,065	0,163
-263,482	236,708	-0,008	0,010
-262,467	433,366	0,097	0,155
-261,453	-200,000	-0,005	0,103
-260,438	-10,444	0,022	0,011
-259,424	-20,170	-0,051	-0,023
-258,409	-200,000	-0,014	0,065
-257,395	388,695	0,082	0,124
-256,380	-72,636	0,037	0,010
-255,365	-200,000	-0,000	0,026
-254,351	-200,000	0,002	-0,051
-253,336	153,962	0,055	-0,055
-252,322	-200,000	0,011	-0,087
-251,307	83,657	0,028	-0,023
-250,292	-200,000	-0,007	-0,161
-249,278	94,834	0,016	-0,014
-248,263	-200,000	-0,014	-0,069
-247,249	800,000	-0,017	0,054
-246,234	16,244	0,055	-0,031
-245,219	-59,072	0,109	-0,034
-244,205	800,000	0,070	-0,180
-243,190	-34,615	0,067	-0,027
-242,176	47,209	0,033	0,022
-241,161	-87,190	0,055	0,012
-240,146	589,909	0,089	0,161
-239,132	-200,000	-0,038	-0,140
-238,117	246,803	-0,036	0,044
-237,103	-71,902	-0,113	-0,030
-236,088	163,137	0,058	-0,060
-235,073	-54,723	0,102	0,033
-234,059	-145,136	0,108	-0,007
-233,044	-56,831	-0,044	-0,014
-232,030	295,551	0,046	0,061
-231,015	669,405	0,034	-0,064
-230,000	61,840	-0,028	0,020
-228,986	-42,288	0,053	-0,020
-227,971	800,000	-0,072	0,176
-226,957	-200,000	0,020	0,130
-225,942	800,000	0,116	0,260
-224,927	-146,861	0,102	0,006
-223,913	783,273	0,035	-0,070
-222,898	-86,979	-0,150	0,033
-221,884	-200,000	-0,014	-0,068
-220,869	69,549	0,088	0,066
-219,855	82,115	0,061	-0,048
-218,840	-200,000	0,045	0,177
-217,825	-69,987	0,043	0,012
-216,811	7,279	-0,108	-0,059
-215,796	-47,248	-0,086	-0,030
-214,782	-200,000	0,013	-0,060
-213,767	800,000	0,061	-0,124
-212,752	71,295	0,055	-0,041
-211,738	-200,000	0,008	0,036
-210,723	-200,000	0,014	0,100
-209,709	142,670	-0,063	0,062
-208,694	-200,000	-0,005	-0,032
-207,679	-200,000	0,025	-0,096
-206,665	800,000	0,018	-0,042
-205,650	-163,165	0,122	0,004
-204,636	-200,000	-0,001	-0,011
-203,621	623,555	0,002	0,004
-202,606	-200,000	0,021	0,117
-201,592	800,000	0,024	-0,059
-200,577	12,789	-0,121	-0,068
-199,563	-200,000	0,008	0,043
-198,548	800,000	0,052	0,118
-197,533	376,060	0,075	-0,112
-196,519	-67,627	0,124	-0,035
-195,504	250,440	-0,041	-0,050
-194,490	143,151	0,009	-0,009
-193,475	-93,927	0,060	0,012
-192,460	-98,583	0,069	0,013
-191,446	301,565	0,032	-0,043
-190,431	308,001	-0,031	-0,042
-189,417	-107,685	0,033	0,005
-188,402	16,237	-0,138	-0,079
-187,387	11,028	0,024	0,013
-186,373	276,853	-0,048	-0,062
-185,358	800,000	-0,038	0,100
-184,344	204,756	-0,054	-0,061
-183,329	78,897	-0,066	-0,052
-182,315	800,000	0,038	0,087
-181,300	299,821	0,044	-0,060
-180,285	-47,656	0,103	-0,036
-179,271	800,000	0,011	0,034
-178,256	800,000	0,074	-0,155
-177,242	-200,000	-0,011	0,039
-176,227	56,709	0,051	0,036
-175,212	-200,000	0,024	-0,160
-174,198	-200,000	-0,021	-0,103
-173,183	-200,000	-0,033	-0,168
-172,169	83,643	0,009	-0,007
-171,154	-200,000	-0,019	-0,082
-170,139	-84,375	0,062	0,014
-169,125	-71,333	-0,018	-0,005
-168,110	-200,000	-0,023	0,105
-167,096	-200,000	0,002	-0,134
-166,081	424,952	-0,064	-0,100
-165,066	10,919	0,147	0,081
-164,052	-200,000	0,007	0,102
-163,037	220,712	0,043	0,050
-162,023	-200,000	0,022	0,074
-161,008	-50,532	0,091	0,031
-159,993	-200,000	0,012	0,119
-158,979	537,378	-0,034	-0,058
-157,964	340,308	-0,054	-0,077
-156,950	-200,000	0,017	-0,070
-155,935	-68,775	-0,149	0,042
-154,920	217,803	0,090	0,105
-153,906	-3,301	0,107	-0,054
-152,891	325,137	0,060	0,083
-151,877	560,013	-0,082	-0,145
-150,862	94,895	-0,051	-0,042
-149,847	44,373	-0,028	0,019
-148,833	364,533	-0,031	-0,046
-147,818	-200,000	-0,032	0,128
-146,804	-176,613	0,179	-0,003
-145,789	-200,000	0,026	-0,103
-144,775	158,237	0,133	-0,134
-143,760	-200,000	0,001	0,081
-142,745	48,664	0,073	-0,050
-141,731	-115,681	0,117	0,016
-140,716	-171,041	0,050	-0,001
-139,702	-112,321	0,195	-0,028
-138,687	800,000	-0,013	0,035
-137,672	800,000	-0,008	0,026
-136,658	-88,294	-0,099	-0,021
-135,643	610,058	-0,022	-0,041
-134,629	68,229	-0,031	-0,023
-133,614	85,210	-0,071	0,056
-132,599	-129,553	0,165	-0,016
-131,585	800,000	0,016	0,045
-130,570	35,228	-0,084	0,053
-129,556	-115,248	-0,075	-0,010
-128,541	800,000	-0,077	-0,156
-127,526	-200,000	0,022	-0,147
-126,512	96,582	-0,049	0,041
-125,497	159,869	0,128	-0,129
-124,483	800,000	0,010	-0,029
-123,468	800,000	-0,019	-0,058
-122,453	11,454	0,073	-0,040
-121,439	384,053	0,040	0,060
-120,424	187,382	-0,112	0,122
