DTS Sentinel unit serial number:	SN410029Multiplexer serial number:	ORYXHardware model number:	OX2-SRSoftware version number:	ORYX F/W v4,00 Oryx Data Collector v3.7.2.0data status	okinstallation	B4 Nyhavnadifferential loss correction	single-endedforward channel	channel 2reverse channel	N/Adate	2023/12/16time	04:30:13forward acquisition time	300,00reverse acquisition time	0,00gamma	499,1914k internal	0,3128k external	0,3128temperature offset calibration	1,0000default loss term (dB/km)	0,3820temperature slope calibration	1,0000multiplexer offset coefficient	1,0000multiplexer slope coefficient	1,0000fibre end	0,00T internal ref (°C)	22,00T ext. ref 1 (°C)	7,21T ext. ref 2 (°C)	7,39length (m)	temperature (°C)	Stokes	anti-Stokes-744,400	-75,801	0,094	-0,025
-743,385	-130,466	-0,059	-0,006
-742,371	185,990	-0,032	-0,035
-741,356	-15,370	-0,247	0,117
-740,342	94,857	0,079	-0,067
-739,327	-141,673	-0,251	0,019
-738,312	-11,954	0,064	-0,031
-737,298	45,853	-0,269	0,185
-736,283	163,719	-0,048	-0,051
-735,269	118,360	-0,100	0,092
-734,254	0,825	-0,023	-0,012
-733,239	-121,998	-0,322	-0,039
-732,225	-34,653	0,095	-0,038
-731,210	247,514	-0,053	0,067
-730,196	800,000	-0,083	-0,173
-729,181	800,000	-0,017	0,048
-728,167	-200,000	0,006	0,050
-727,152	-52,457	-0,096	-0,033
-726,137	-96,149	-0,086	-0,017
-725,123	92,722	-0,070	-0,059
-724,108	70,961	-0,160	-0,123
-723,094	147,909	-0,047	-0,047
-722,079	-200,000	-0,030	-0,160
-721,064	800,000	0,016	0,050
-720,050	800,000	-0,029	0,063
-719,035	234,767	0,029	0,036
-718,021	-200,000	-0,006	-0,169
-717,006	-200,000	0,001	-0,015
-715,991	-200,000	-0,027	-0,188
-714,977	375,210	-0,048	0,073
-713,962	-200,000	0,003	-0,120
-712,948	-200,000	0,002	0,130
-711,933	149,440	0,082	0,082
-710,918	-200,000	0,025	-0,100
-709,904	-26,665	-0,092	-0,040
-708,889	74,118	-0,081	0,063
-707,875	48,103	-0,015	0,010
-706,860	119,063	0,069	-0,063
-705,845	-200,000	-0,003	0,036
-704,831	-47,876	0,075	0,027
-703,816	230,029	0,103	-0,125
-702,802	-52,382	0,099	0,034
-701,787	-28,165	-0,070	0,030
-700,772	-200,000	0,026	-0,111
-699,758	671,812	0,040	0,078
-698,743	551,114	0,041	0,074
-697,729	26,918	-0,050	0,031
-696,714	77,655	-0,029	-0,023
-695,699	-200,000	0,009	0,046
-694,685	-200,000	-0,003	-0,105
-693,670	621,966	0,031	0,059
-692,656	-1,284	0,119	-0,062
-691,641	-96,602	0,180	0,035
-690,627	-126,751	0,040	0,004
-689,612	800,000	-0,020	-0,052
-688,597	40,632	0,068	0,046
-687,583	-200,000	-0,082	0,000
-686,568	-80,520	-0,125	0,031
-685,554	570,005	-0,038	-0,069
-684,539	-200,000	-0,010	-0,052
-683,524	-200,000	-0,011	0,058
-682,510	-200,000	-0,047	0,165
-681,495	-48,979	-0,080	0,028
-680,481	341,369	-0,027	0,039
-679,466	-200,000	-0,007	0,148
-678,451	-127,980	-0,098	0,010
-677,437	800,000	0,082	-0,176
-676,422	185,267	0,077	-0,085
-675,408	-200,000	-0,024	-0,088
-674,393	73,979	0,019	-0,015
-673,378	273,057	0,069	-0,090
-672,364	244,250	-0,087	-0,109
-671,349	485,765	0,071	-0,121
-670,335	-122,096	0,060	0,007
-669,320	40,046	-0,116	-0,077
-668,305	68,967	0,124	-0,094
-667,291	371,931	-0,033	-0,051
-666,276	-78,617	0,098	-0,025
-665,262	415,369	-0,098	-0,156
-664,247	-200,000	-0,005	-0,182
-663,232	85,644	0,101	-0,082
-662,218	-18,509	0,118	-0,054
-661,203	160,564	0,115	0,119
-660,189	97,313	-0,092	-0,078
-659,174	188,600	-0,037	0,041
-658,159	-200,000	-0,017	-0,064
-657,145	-200,000	-0,006	-0,070
-656,130	-61,150	-0,029	-0,009
-655,116	298,261	-0,070	-0,095
-654,101	-93,846	-0,124	0,025
-653,086	-99,909	0,146	-0,027
-652,072	-200,000	0,011	-0,038
-651,057	-74,191	-0,097	0,026
-650,043	-56,930	-0,036	0,012
-649,028	240,864	0,056	-0,069
-648,014	-200,000	0,013	0,058
-646,999	141,957	-0,076	0,075
-645,984	14,777	-0,087	0,050
-644,970	53,215	-0,070	-0,050
-643,955	-137,143	-0,073	-0,006
-642,941	-9,453	-0,161	-0,079
-641,926	320,686	0,019	-0,027
-640,911	-106,847	0,106	0,017
-639,897	146,951	0,102	0,102
-638,882	-200,000	-0,003	0,050
-637,868	-200,000	-0,002	-0,027
-636,853	-200,000	-0,008	-0,105
-635,838	254,995	0,053	-0,068
-634,824	-49,792	-0,030	0,011
-633,809	-200,000	0,008	0,087
-632,795	-200,000	0,002	-0,009
-631,780	-92,579	-0,072	0,015
-630,765	-200,000	-0,032	-0,109
-629,751	44,756	0,007	-0,005
-628,736	-200,000	0,020	-0,075
-627,722	-78,647	-0,080	0,020
-626,707	-66,735	-0,038	0,011
-625,692	-6,336	0,082	-0,041
-624,678	-200,000	0,008	0,134
-623,663	601,980	-0,015	-0,028
-622,649	-47,885	-0,087	0,031
-621,634	-152,595	0,045	0,002
-620,619	414,585	-0,054	-0,086
-619,605	-85,094	0,075	-0,017
-618,590	251,860	0,042	0,053
-617,576	-153,389	-0,193	0,010
-616,561	294,127	0,078	-0,106
-615,546	-200,000	-0,020	0,133
-614,532	50,983	0,029	-0,021
-613,517	-53,778	0,068	0,023
-612,503	126,555	0,047	-0,044
-611,488	269,234	-0,049	-0,064
-610,474	-200,000	-0,047	0,171
-609,459	-163,673	0,055	-0,002
-608,444	-200,000	-0,016	0,078
-607,430	140,037	0,068	-0,066
-606,415	800,000	0,060	-0,183
-605,401	800,000	0,058	-0,129
-604,386	-71,618	0,135	0,037
-603,371	341,987	0,057	0,083
-602,357	369,256	-0,034	0,051
-601,342	46,305	-0,196	-0,134
-600,328	-19,694	-0,122	0,055
-599,313	-149,864	-0,111	-0,006
-598,298	-200,000	0,003	-0,015
-597,284	36,553	0,067	0,043
-596,269	-53,484	0,121	0,041
-595,255	-85,936	0,119	-0,027
-594,240	599,075	-0,068	-0,125
-593,225	-101,125	-0,119	-0,021
-592,211	800,000	0,026	-0,068
-591,196	-200,000	0,030	0,121
-590,182	77,849	0,037	-0,029
-589,167	-200,000	0,002	-0,119
-588,152	37,056	0,018	0,012
-587,138	28,196	0,072	-0,045
-586,123	800,000	-0,025	-0,054
-585,109	67,251	-0,075	0,057
-584,094	327,765	0,047	-0,067
-583,079	-200,000	-0,021	0,132
-582,065	214,862	-0,060	0,071
-581,050	-200,000	0,034	0,114
-580,036	-49,027	0,118	0,042
-579,021	800,000	0,033	-0,086
-578,006	-101,339	-0,046	0,008
-576,992	-24,102	-0,118	0,052
-575,977	100,232	0,113	0,097
-574,963	100,324	0,025	0,021
-573,948	554,205	-0,036	-0,063
-572,934	-200,000	-0,005	-0,066
-571,919	-22,570	0,120	0,054
-570,904	-178,900	-0,044	0,001
-569,890	-186,011	0,118	-0,001
-568,875	800,000	-0,023	0,048
-567,861	19,546	0,171	0,101
-566,846	450,038	0,101	0,165
-565,831	-80,829	-0,092	0,022
-564,817	-35,401	0,041	-0,016
-563,802	-200,000	0,011	-0,060
-562,788	-170,689	0,053	-0,001
-561,773	70,894	0,112	0,086
-560,758	465,138	-0,022	-0,036
-559,744	-200,000	-0,019	0,099
-558,729	-200,000	0,014	0,047
-557,715	-102,425	0,209	-0,037
-556,700	-200,000	0,005	-0,055
-555,685	-200,000	-0,018	-0,073
-554,671	80,277	0,040	0,031
-553,656	-200,000	-0,034	-0,126
-552,642	110,390	0,054	0,048
-551,627	-88,083	-0,073	-0,016
-550,612	-200,000	0,001	0,050
-549,598	-136,463	0,050	0,004
-548,583	-4,692	-0,060	-0,030
-547,569	293,491	0,064	-0,087
-546,554	-3,436	-0,002	0,001
-545,539	88,058	-0,071	0,058
-544,525	90,375	-0,054	-0,045
-543,510	383,384	0,011	0,017
-542,496	-200,000	-0,001	-0,011
-541,481	800,000	0,045	-0,112
-540,466	-149,274	-0,079	0,005
-539,452	210,244	-0,070	0,081
-538,437	430,533	-0,051	-0,081
-537,423	75,705	0,029	-0,023
-536,408	29,726	-0,111	0,070
-535,393	-200,000	0,002	0,019
-534,379	-72,589	-0,119	-0,032
-533,364	108,723	-0,119	0,105
-532,350	-94,046	-0,040	0,008
-531,335	-58,861	0,097	-0,031
-530,321	22,965	0,151	0,091
-529,306	-200,000	0,013	-0,042
-528,291	-146,684	-0,092	-0,006
-527,277	111,195	-0,062	0,055
-526,262	643,985	-0,046	0,086
-525,248	-200,000	-0,031	0,130
-524,233	-173,018	0,108	-0,002
-523,218	-105,292	0,042	-0,007
-522,204	176,407	-0,067	-0,072
-521,189	-71,423	-0,058	0,016
-520,175	158,150	-0,074	-0,076
-519,160	800,000	-0,008	-0,018
-518,145	354,296	-0,041	-0,061
-517,131	240,910	0,062	-0,077
-516,116	-64,314	-0,073	-0,022
-515,102	800,000	-0,040	-0,095
-514,087	-200,000	-0,004	-0,042
-513,072	-48,914	-0,047	-0,016
-512,058	800,000	-0,044	-0,129
-511,043	800,000	-0,014	-0,044
-510,029	118,612	0,063	-0,057
-509,014	700,760	0,023	0,044
-507,999	-200,000	-0,016	0,072
-506,985	-137,928	-0,096	0,008
-505,970	29,619	-0,081	-0,051
-504,956	38,271	-0,011	-0,007
-503,941	800,000	0,067	0,161
-502,926	-200,000	0,004	-0,041
-501,912	99,173	0,041	-0,035
-500,897	107,316	-0,061	0,053
-499,883	234,161	-0,112	0,136
-498,868	-200,000	0,002	-0,060
-497,853	160,755	-0,106	-0,109
-496,839	800,000	-0,036	-0,104
-495,824	354,830	0,045	0,066
-494,810	36,346	-0,046	0,030
-493,795	-93,809	-0,043	0,009
-492,781	-105,513	-0,063	0,011
-491,766	192,519	0,046	0,051
-490,751	-140,685	-0,072	0,005
-489,737	-95,879	-0,166	0,032
-488,722	-91,672	0,061	-0,013
-487,708	800,000	-0,032	-0,080
-486,693	800,000	0,013	-0,030
-485,678	-200,000	-0,014	-0,128
-484,664	-52,091	-0,089	-0,030
-483,649	406,990	-0,074	0,116
-482,635	-200,000	0,005	-0,037
-481,620	14,309	-0,085	0,049
-480,605	-21,446	-0,057	-0,025
-479,591	800,000	0,025	-0,062
-478,576	-16,317	-0,063	-0,029
-477,562	800,000	-0,033	-0,083
-476,547	-82,199	0,007	0,002
-475,532	424,127	0,051	-0,081
-474,518	74,676	-0,064	-0,049
-473,503	-28,261	-0,109	0,046
-472,489	273,224	0,003	0,004
-471,474	43,871	0,064	0,043
-470,459	-75,777	-0,104	0,027
-469,445	259,175	-0,034	-0,044
-468,430	56,571	-0,022	0,016
-467,416	160,891	0,038	-0,039
-466,401	70,978	0,120	0,092
-465,386	-55,727	0,089	0,029
-464,372	-200,000	-0,018	0,188
-463,357	-106,284	-0,098	0,016
-462,343	242,769	-0,019	0,024
-461,328	800,000	-0,037	-0,106
-460,313	331,111	0,053	0,075
-459,299	-34,442	0,037	-0,015
-458,284	-105,389	-0,073	-0,012
-457,270	113,079	-0,041	0,037
-456,255	46,251	-0,097	0,066
-455,241	43,300	-0,052	-0,035
-454,226	97,721	-0,058	-0,049
-453,211	-104,325	-0,026	-0,004
-452,197	-148,544	0,081	-0,005
-451,182	595,980	0,064	0,116
-450,168	340,691	-0,084	0,121
-449,153	-112,897	0,098	-0,014
-448,138	-115,550	-0,204	0,028
-447,124	275,788	-0,057	0,075
-446,109	-15,818	0,104	-0,048
-445,095	-200,000	0,001	0,036
-444,080	246,808	-0,033	-0,042
-443,065	95,295	-0,053	0,045
-442,051	482,902	-0,034	0,057
-441,036	-82,412	-0,097	0,023
-440,022	-9,200	0,090	-0,044
-439,007	-200,000	0,002	0,068
-437,992	-200,000	0,013	0,046
-436,978	38,126	0,152	0,099
-435,963	-200,000	0,016	0,101
-434,949	800,000	0,038	0,111
-433,934	-200,000	-0,024	-0,079
-432,919	-200,000	-0,019	-0,065
-431,905	537,063	-0,016	-0,027
-430,890	71,653	-0,065	-0,050
-429,876	-200,000	-0,007	-0,083
-428,861	-4,246	-0,059	-0,030
-427,846	-30,178	0,060	0,025
-426,832	-66,658	-0,084	0,024
-425,817	126,868	-0,009	0,008
-424,803	314,701	-0,035	0,049
-423,788	-200,000	0,012	0,098
-422,773	800,000	0,024	-0,076
-421,759	121,074	0,014	-0,013
-420,744	-200,000	-0,011	0,063
-419,730	-94,620	-0,080	-0,016
-418,715	319,005	-0,128	-0,179
-417,701	666,568	0,017	0,032
-416,686	-133,486	-0,164	-0,015
-415,671	-200,000	0,004	0,089
-414,657	692,552	-0,043	0,084
-413,642	133,356	-0,043	0,040
-412,628	-200,000	0,003	-0,043
-411,613	682,184	-0,057	-0,110
-410,598	-200,000	-0,044	-0,162
-409,584	155,988	0,100	0,101
-408,569	-200,000	0,020	0,242
-407,555	94,756	-0,064	0,053
-406,540	125,287	-0,017	0,015
-405,525	282,408	-0,048	0,063
-404,511	512,369	-0,040	-0,069
-403,496	-36,995	0,030	0,012
-402,482	-200,000	0,001	-0,039
-401,467	75,515	0,128	0,099
-400,452	-200,000	-0,017	0,060
-399,438	-77,507	0,131	-0,033
-398,423	-200,000	0,012	-0,115
-397,409	43,594	-0,120	-0,081
-396,394	149,804	-0,067	-0,067
-395,379	-8,344	-0,070	0,035
-394,365	203,646	-0,038	0,043
-393,350	-200,000	0,004	0,052
-392,336	-148,257	0,070	0,004
-391,321	94,757	-0,017	-0,014
-390,306	661,301	-0,051	-0,097
-389,292	-200,000	0,015	-0,150
-388,277	800,000	-0,042	-0,133
-387,263	56,624	-0,062	-0,044
-386,248	199,452	0,118	-0,133
-385,233	-200,000	0,034	-0,112
-384,219	-43,316	-0,015	0,006
-383,204	212,682	0,044	0,051
-382,190	800,000	0,057	-0,150
-381,175	-200,000	-0,032	0,113
-380,160	287,720	0,066	-0,088
-379,146	-131,912	0,138	0,013
-378,131	-47,608	0,041	-0,015
-377,117	343,600	-0,013	-0,019
-376,102	-103,285	0,049	-0,008
-375,088	746,686	-0,049	-0,096
-374,073	119,601	0,056	-0,051
-373,058	29,019	0,070	-0,043
-372,044	-41,836	0,107	0,040
-371,029	661,338	-0,010	-0,019
-370,015	136,551	-0,141	0,135
-369,000	-101,751	0,036	0,006
-367,985	46,907	-0,042	-0,028
-366,971	800,000	0,019	-0,061
-365,956	4,587	0,130	0,070
-364,942	656,800	0,048	0,091
-363,927	60,457	0,066	0,048
-362,912	-73,356	0,076	0,020
-361,898	-48,931	0,078	-0,027
-360,883	53,145	0,027	0,019
-359,869	-84,523	-0,035	0,008
-358,854	19,630	-0,192	0,113
-357,839	143,783	0,123	0,120
-356,825	549,867	0,070	0,123
-355,810	-200,000	0,002	0,113
-354,796	-173,554	-0,133	-0,003
-353,781	-200,000	-0,011	-0,098
-352,766	7,975	-0,066	-0,036
-351,752	171,780	0,087	-0,091
-350,737	-200,000	-0,027	-0,128
-349,723	450,721	-0,014	0,022
-348,708	-200,000	-0,004	0,154
-347,693	-4,589	0,120	-0,060
-346,679	800,000	0,020	-0,054
-345,664	9,526	-0,115	-0,064
-344,650	-20,667	0,087	-0,039
-343,635	16,248	0,086	-0,049
-342,620	280,820	-0,089	0,116
-341,606	-200,000	0,006	0,057
-340,591	-200,000	-0,009	-0,050
-339,577	-200,000	0,018	-0,120
-338,562	-200,000	0,007	-0,154
-337,548	-200,000	0,014	-0,119
-336,533	224,868	-0,054	0,064
-335,518	281,016	0,051	0,067
-334,504	107,056	-0,060	0,053
-333,489	270,600	-0,059	-0,077
-332,475	-200,000	0,025	-0,111
-331,460	-2,147	0,145	-0,074
-330,445	-200,000	0,019	0,075
-329,431	-87,815	0,096	-0,021
-328,416	-200,000	0,022	-0,093
-327,402	800,000	-0,008	0,020
-326,387	-74,651	0,062	-0,016
-325,372	-200,000	-0,021	0,079
-324,358	-200,000	-0,020	-0,139
-323,343	-135,629	-0,071	0,006
-322,329	72,196	0,046	0,035
-321,314	154,107	-0,062	0,062
-320,299	135,183	-0,050	-0,048
-319,285	-50,663	-0,061	0,021
-318,270	-40,718	-0,202	0,076
-317,256	800,000	0,048	0,112
-316,241	-184,259	-0,031	0,000
-315,226	800,000	-0,036	-0,079
-314,212	179,432	0,060	0,065
-313,197	-88,651	0,063	-0,014
-312,183	-13,880	-0,059	0,028
-311,168	-168,481	0,148	0,004
-310,153	-65,299	0,142	-0,041
-309,139	-200,000	0,010	-0,185
-308,124	334,720	-0,114	-0,162
-307,110	-80,149	0,106	-0,026
-306,095	-34,274	0,050	0,020
-305,080	450,194	0,024	-0,038
-304,066	-122,315	0,038	0,004
-303,051	37,737	-0,070	-0,046
-302,037	-41,317	-0,060	0,022
-301,022	329,003	-0,054	-0,077
-300,008	-200,000	-0,040	-0,187
-298,993	1,377	0,025	0,013
-297,978	800,000	-0,036	0,104
-296,964	-74,872	-0,102	-0,027
-295,949	61,802	0,045	-0,033
-294,935	128,788	-0,012	-0,011
-293,920	-62,871	0,068	-0,021
-292,905	-200,000	0,002	0,138
-291,891	17,173	0,058	-0,034
-290,876	-18,297	0,196	0,089
-289,862	-200,000	0,021	-0,183
-288,847	349,228	-0,092	-0,133
-287,832	508,206	0,030	0,052
-286,818	13,609	-0,049	0,028
-285,803	-109,704	0,150	-0,023
-284,789	101,758	0,052	-0,045
-283,774	800,000	-0,034	0,082
-282,759	-200,000	0,001	0,103
-281,745	291,756	-0,041	-0,055
-280,730	416,884	0,038	-0,060
-279,716	381,223	0,049	-0,073
-278,701	-98,863	0,025	-0,005
-277,686	185,777	0,074	0,080
-276,672	-6,450	-0,100	0,050
-275,657	392,689	-0,055	-0,084
-274,643	800,000	0,014	-0,040
-273,628	20,550	-0,067	0,039
-272,613	-200,000	0,000	-0,006
-271,599	-200,000	-0,009	0,057
-270,584	-75,502	0,118	-0,030
-269,570	800,000	-0,021	-0,044
-268,555	-200,000	0,027	0,107
-267,540	590,219	0,067	-0,121
-266,526	-126,342	-0,075	-0,008
-265,511	121,033	0,112	0,102
-264,497	-31,653	0,156	0,064
-263,482	-142,997	0,123	-0,009
-262,467	7,088	0,078	0,042
-261,453	800,000	0,029	0,089
-260,438	24,738	-0,147	-0,089
-259,424	69,687	-0,017	-0,013
-258,409	-200,000	-0,028	-0,093
-257,395	-83,713	0,105	0,024
-256,380	800,000	0,027	0,057
-255,365	-200,000	0,022	0,132
-254,351	19,715	-0,075	0,044
-253,336	-13,209	0,150	-0,071
-252,322	-73,594	-0,075	0,020
-251,307	365,690	-0,041	0,060
-250,292	18,208	0,095	0,055
-249,278	-200,000	0,000	0,056
-248,263	-80,237	0,076	0,018
-247,249	-200,000	0,007	0,067
-246,234	462,576	0,085	-0,139
-245,219	-200,000	-0,003	0,010
-244,205	-18,800	0,116	0,053
-243,190	-200,000	0,021	-0,120
-242,176	-8,634	-0,071	0,035
-241,161	-131,150	0,085	-0,008
-240,146	86,666	0,080	-0,064
-239,132	44,769	-0,068	-0,045
-238,117	351,121	-0,050	-0,072
-237,103	-16,988	0,096	-0,044
-236,088	-144,124	-0,111	-0,007
-235,073	-200,000	0,004	0,058
-234,059	-58,967	0,161	0,050
-233,044	-97,770	0,071	0,013
-232,030	-200,000	0,014	-0,055
-231,015	-200,000	-0,010	-0,100
-230,000	340,756	-0,027	-0,039
-228,986	-88,546	0,018	0,004
-227,971	448,421	0,016	0,026
-226,957	-93,492	0,005	-0,001
-225,942	-200,000	0,018	0,066
-224,927	14,166	0,129	0,073
-223,913	59,038	-0,111	0,080
-222,898	-32,616	-0,041	0,017
-221,884	543,462	-0,044	0,078
-220,869	0,012	0,048	0,025
-219,855	-200,000	0,008	0,180
-218,840	-200,000	0,028	0,108
-217,825	89,844	0,137	-0,111
-216,811	103,745	-0,020	-0,017
-215,796	-8,750	-0,052	-0,025
-214,782	800,000	0,053	-0,127
-213,767	800,000	0,051	-0,107
-212,752	352,802	-0,054	-0,078
-211,738	-200,000	0,001	0,074
-210,723	-200,000	-0,005	0,098
-209,709	554,745	0,068	0,121
-208,694	800,000	-0,065	-0,147
-207,679	-200,000	-0,004	-0,100
-206,665	14,478	0,037	0,021
-205,650	4,866	-0,078	-0,042
-204,636	-151,054	0,079	-0,004
-203,621	-92,210	-0,030	0,006
-202,606	-113,735	-0,051	-0,007
-201,592	166,292	-0,060	-0,062
-200,577	-96,873	-0,082	0,016
-199,563	187,271	-0,060	0,065
-198,548	-200,000	0,010	0,105
-197,533	800,000	0,080	0,201
-196,519	197,523	-0,054	0,061
-195,504	-9,013	-0,124	-0,060
-194,490	29,629	-0,087	0,054
-193,475	522,706	0,083	-0,142
-192,460	-200,000	-0,006	-0,175
-191,446	-6,023	-0,148	-0,073
-190,431	-200,000	-0,008	0,057
-189,417	160,648	0,096	0,098
-188,402	-200,000	0,015	0,054
-187,387	-200,000	-0,006	0,026
-186,373	800,000	-0,056	-0,138
-185,358	84,123	0,031	0,025
-184,344	96,493	-0,131	-0,109
-183,329	-85,833	0,168	0,038
-182,315	-200,000	0,012	0,060
-181,300	-200,000	0,004	0,066
-180,285	252,115	-0,025	0,031
-179,271	-200,000	-0,018	0,087
-178,256	-84,167	-0,099	-0,023
-177,242	-111,676	0,051	0,007
-176,227	191,760	-0,050	0,055
-175,212	378,179	0,049	0,074
-174,198	-200,000	-0,030	0,207
-173,183	620,422	0,006	0,012
-172,169	77,244	-0,056	0,044
-171,154	387,386	-0,053	-0,080
-170,139	575,743	0,054	0,096
-169,125	-96,959	0,041	0,008
-168,110	69,483	0,108	0,081
-167,096	-59,134	0,071	0,022
-166,081	59,950	-0,110	0,079
-165,066	-200,000	0,023	0,118
-164,052	12,656	0,102	0,057
-163,037	547,629	0,061	0,106
-162,023	115,104	0,009	0,008
-161,008	310,940	0,053	0,072
-159,993	344,825	-0,055	-0,079
-158,979	-200,000	0,024	-0,084
-157,964	800,000	-0,013	-0,031
-156,950	203,613	0,017	-0,019
-155,935	-146,285	0,059	-0,004
-154,920	-141,539	-0,019	0,001
-153,906	-200,000	-0,018	-0,163
-152,891	136,065	0,049	-0,047
-151,877	-200,000	0,000	-0,036
-150,862	237,162	-0,091	-0,110
-149,847	3,775	-0,057	0,030
-148,833	800,000	0,015	0,044
-147,818	-200,000	-0,006	0,127
-146,804	-200,000	-0,024	-0,096
-145,789	800,000	0,014	0,030
-144,775	800,000	-0,028	0,056
-143,760	229,167	-0,027	-0,032
-142,745	86,645	-0,066	0,053
-141,731	66,438	0,162	0,120
-140,716	458,073	-0,032	-0,051
-139,702	-19,537	0,065	0,029
-138,687	48,682	-0,063	0,043
-137,672	800,000	0,043	-0,107
-136,658	122,023	-0,060	0,054
-135,643	-200,000	-0,008	-0,035
-134,629	-112,580	0,048	-0,007
-133,614	800,000	0,032	-0,069
-132,599	237,102	0,082	0,099
-131,585	192,573	-0,068	0,075
-130,570	422,500	0,076	0,119
-129,556	-99,302	-0,089	0,016
-128,541	287,068	-0,061	0,081
-127,526	-169,081	0,174	-0,005
-126,512	163,942	-0,061	-0,063
-125,497	-200,000	0,011	0,055
-124,483	26,154	0,050	0,031
-123,468	-7,767	0,101	-0,049
-122,453	-88,276	-0,066	0,014
-121,439	255,375	-0,019	-0,024
-120,424	509,210	0,100	-0,169
-119,410	800,000	-0,018	0,056
-118,395	-200,000	0,011	0,138
