DTS Sentinel unit serial number:	SN410029Multiplexer serial number:	ORYXHardware model number:	OX2-SRSoftware version number:	ORYX F/W v4,00 Oryx Data Collector v3.7.2.0data status	okinstallation	B4 Nyhavnadifferential loss correction	single-endedforward channel	channel 2reverse channel	N/Adate	2023/12/15time	15:10:13forward acquisition time	300,00reverse acquisition time	0,00gamma	499,1914k internal	0,3156k external	0,3156temperature offset calibration	1,0000default loss term (dB/km)	0,3820temperature slope calibration	1,0000multiplexer offset coefficient	1,0000multiplexer slope coefficient	1,0000fibre end	0,00T internal ref (°C)	15,96T ext. ref 1 (°C)	2,32T ext. ref 2 (°C)	2,41length (m)	temperature (°C)	Stokes	anti-Stokes-744,400	-200,000	-0,009	0,045
-743,385	46,528	-0,207	0,141
-742,371	-55,958	0,147	0,048
-741,356	-89,844	-0,213	-0,046
-740,342	-103,041	0,194	0,034
-739,327	-37,689	-0,243	0,095
-738,312	-200,000	0,009	0,076
-737,298	-132,354	-0,355	-0,033
-736,283	-178,122	0,068	-0,001
-735,269	23,494	-0,278	0,168
-734,254	-40,923	0,113	0,043
-733,239	-71,033	-0,436	-0,120
-732,225	-87,611	0,136	0,030
-731,210	-56,058	0,032	-0,010
-730,196	9,251	0,091	-0,050
-729,181	281,305	0,025	-0,033
-728,167	262,164	0,045	-0,057
-727,152	222,465	-0,034	-0,041
-726,137	-28,061	-0,109	-0,046
-725,123	114,196	-0,034	0,030
-724,108	345,325	-0,065	-0,094
-723,094	-86,947	-0,049	-0,011
-722,079	-200,000	-0,019	-0,140
-721,064	483,709	-0,018	0,031
-720,050	421,105	0,026	0,042
-719,035	52,127	-0,091	-0,064
-718,021	-131,179	0,166	-0,016
-717,006	-0,287	0,028	0,014
-715,991	31,564	-0,202	-0,128
-714,977	185,319	0,057	-0,062
-713,962	-200,000	0,002	-0,072
-712,948	265,550	-0,063	-0,082
-711,933	-65,550	0,044	0,013
-710,918	166,011	-0,081	0,085
-709,904	-200,000	0,007	0,189
-708,889	13,647	-0,164	-0,093
-707,875	-200,000	0,026	-0,112
-706,860	371,500	0,030	-0,044
-705,845	134,066	0,008	0,008
-704,831	-68,515	0,059	-0,017
-703,816	-200,000	-0,011	0,074
-702,802	-110,502	0,016	-0,002
-701,787	516,343	-0,052	-0,089
-700,772	-108,606	-0,114	-0,018
-699,758	206,730	0,077	-0,088
-698,743	203,890	-0,089	0,102
-697,729	224,892	0,025	-0,030
-696,714	190,715	-0,074	0,082
-695,699	-137,498	0,024	0,002
-694,685	108,491	0,064	-0,056
-693,670	462,400	-0,070	-0,116
-692,656	-200,000	0,005	0,041
-691,641	-200,000	-0,008	0,088
-690,627	-200,000	-0,015	0,087
-689,612	-163,859	-0,082	-0,003
-688,597	764,862	0,029	-0,057
-687,583	228,329	-0,146	-0,176
-686,568	-35,350	0,097	-0,039
-685,554	-13,301	-0,036	-0,017
-684,539	95,917	-0,043	0,036
-683,524	164,817	-0,037	-0,038
-682,510	800,000	-0,035	-0,075
-681,495	296,381	0,054	0,072
-680,481	37,706	-0,172	-0,112
-679,466	-124,448	-0,138	0,016
-678,451	-200,000	-0,018	0,124
-677,437	167,755	0,098	0,103
-676,422	118,780	-0,026	0,024
-675,408	-139,132	0,051	0,004
-674,393	-38,043	0,013	-0,005
-673,378	8,369	-0,119	-0,065
-672,364	297,685	-0,064	-0,087
-671,349	121,742	-0,116	-0,106
-670,335	214,347	-0,008	-0,009
-669,320	229,074	-0,103	0,123
-668,305	-141,036	-0,068	-0,005
-667,291	-82,938	-0,092	-0,022
-666,276	-150,755	-0,051	0,003
-665,262	-200,000	-0,010	-0,137
-664,247	13,925	-0,041	0,023
-663,232	800,000	-0,034	-0,079
-662,218	-184,025	0,109	0,001
-661,203	-106,389	0,125	0,020
-660,189	235,156	0,036	-0,043
-659,174	176,068	-0,150	-0,161
-658,159	800,000	-0,012	-0,029
-657,145	-129,891	0,097	-0,010
-656,130	-58,298	-0,118	-0,037
-655,116	-145,146	0,096	-0,006
-654,101	-32,752	-0,019	-0,008
-653,086	368,705	-0,031	0,047
-652,072	351,573	-0,064	-0,093
-651,057	192,900	-0,048	-0,053
-650,043	800,000	0,033	-0,087
-649,028	-112,787	0,104	0,015
-648,014	-87,025	-0,066	-0,015
-646,999	-135,355	-0,059	0,005
-645,984	725,470	0,022	0,043
-644,970	-200,000	0,012	-0,112
-643,955	687,935	-0,021	-0,040
-642,941	230,572	-0,178	-0,214
-641,926	340,699	-0,045	-0,065
-640,911	-200,000	0,000	0,078
-639,897	39,909	0,104	-0,068
-638,882	-200,000	-0,002	0,108
-637,868	270,362	-0,112	-0,146
-636,853	251,673	0,030	-0,037
-635,838	-123,609	-0,078	-0,009
-634,824	-200,000	-0,010	-0,087
-633,809	220,468	0,057	0,068
-632,795	668,977	-0,008	-0,016
-631,780	122,894	0,029	-0,027
-630,765	-200,000	0,008	0,078
-629,751	800,000	-0,034	-0,071
-628,736	-21,202	-0,173	-0,078
-627,722	800,000	0,045	0,113
-626,707	787,438	0,091	0,184
-625,692	432,275	-0,038	-0,061
-624,678	684,047	0,067	-0,128
-623,663	-79,385	-0,046	0,011
-622,649	25,945	-0,105	-0,064
-621,634	-200,000	-0,002	-0,037
-620,619	345,650	-0,055	-0,080
-619,605	247,223	-0,041	-0,051
-618,590	167,711	0,029	-0,030
-617,576	118,621	0,077	0,070
-616,561	-102,124	0,040	0,007
-615,546	-121,774	0,131	-0,016
-614,532	-85,194	-0,077	0,018
-613,517	13,111	-0,043	-0,024
-612,503	-17,833	0,084	-0,039
-611,488	-24,396	-0,075	-0,033
-610,474	641,534	-0,032	0,060
-609,459	14,830	-0,057	0,032
-608,444	-110,080	0,047	0,007
-607,430	-16,781	-0,082	-0,038
-606,415	167,606	-0,049	0,052
-605,401	517,911	-0,025	0,043
-604,386	800,000	-0,057	0,168
-603,371	-179,200	0,142	-0,002
-602,357	-88,691	0,033	0,007
-601,342	495,337	-0,023	-0,038
-600,328	243,665	0,031	-0,038
-599,313	-16,787	-0,141	0,065
-598,298	-98,605	-0,190	-0,035
-597,284	-163,506	-0,146	0,005
-596,269	104,926	0,074	-0,064
-595,255	-200,000	0,001	-0,021
-594,240	-92,464	0,178	0,036
-593,225	800,000	-0,074	-0,172
-592,211	494,071	-0,036	-0,061
-591,196	-45,908	-0,053	0,019
-590,182	502,003	0,080	0,136
-589,167	157,563	-0,100	-0,102
-588,152	152,188	0,068	0,068
-587,138	-145,390	-0,126	-0,008
-586,123	63,386	-0,135	-0,099
-585,109	-200,000	0,013	-0,076
-584,094	-200,000	-0,004	0,097
-583,079	-109,114	-0,080	-0,012
-582,065	-166,135	0,155	-0,005
-581,050	-57,845	0,161	0,051
-580,036	124,994	0,048	-0,044
-579,021	238,483	-0,049	-0,060
-578,006	-200,000	0,018	0,071
-576,992	36,829	-0,050	0,033
-575,977	-82,728	0,134	0,031
-574,963	81,994	-0,022	0,017
-573,948	-34,580	0,109	-0,044
-572,934	-172,073	0,153	-0,004
-571,919	281,265	0,027	-0,035
-570,904	164,752	0,060	-0,062
-569,890	290,008	-0,043	-0,058
-568,875	11,766	0,085	0,047
-567,861	-102,628	-0,038	-0,007
-566,846	742,909	0,043	0,085
-565,831	175,241	-0,129	-0,137
-564,817	145,849	0,042	-0,041
-563,802	-16,357	0,068	0,032
-562,788	117,939	-0,064	-0,058
-561,773	-48,803	0,095	0,033
-560,758	-200,000	0,022	0,087
-559,744	-200,000	0,006	0,129
-558,729	-9,427	-0,042	0,021
-557,715	-200,000	-0,009	0,104
-556,700	38,902	-0,056	0,036
-555,685	-52,887	-0,070	-0,023
-554,671	-92,598	0,035	-0,007
-553,656	-200,000	0,002	-0,107
-552,642	125,428	-0,163	0,151
-551,627	314,552	0,038	0,053
-550,612	-200,000	-0,011	0,131
-549,598	717,027	0,056	-0,109
-548,583	92,977	-0,032	0,026
-547,569	-49,158	-0,039	0,013
-546,554	800,000	-0,015	0,040
-545,539	50,322	-0,049	-0,034
-544,525	29,360	-0,089	0,055
-543,510	-123,583	0,063	-0,007
-542,496	529,352	0,044	0,077
-541,481	-3,894	0,071	0,036
-540,466	-120,048	-0,139	0,017
-539,452	97,697	0,095	0,080
-538,437	61,726	0,047	0,034
-537,423	425,502	0,014	-0,022
-536,408	17,942	-0,132	0,077
-535,393	-59,525	0,042	-0,013
-534,379	200,212	0,033	-0,037
-533,364	109,718	-0,029	-0,025
-532,350	-4,374	0,143	-0,072
-531,335	-78,726	0,124	-0,031
-530,321	241,846	-0,064	-0,078
-529,306	-21,710	0,076	0,034
-528,291	-200,000	-0,012	-0,127
-527,277	562,318	-0,034	-0,060
-526,262	452,580	-0,049	0,079
-525,248	-26,930	0,148	-0,063
-524,233	137,025	0,048	0,046
-523,218	-200,000	0,002	0,135
-522,204	-16,042	-0,076	-0,035
-521,189	162,019	0,024	0,025
-520,175	-200,000	0,014	-0,176
-519,160	800,000	0,050	-0,127
-518,145	800,000	0,050	0,139
-517,131	171,448	-0,060	0,063
-516,116	-157,097	-0,128	-0,006
-515,102	-100,358	0,143	0,026
-514,087	25,570	0,073	-0,044
-513,072	-200,000	-0,003	-0,130
-512,058	-200,000	-0,024	-0,087
-511,043	-173,734	0,078	0,002
-510,029	-200,000	-0,034	-0,145
-509,014	-200,000	0,009	0,066
-507,999	-200,000	0,000	-0,048
-506,985	549,484	-0,041	-0,072
-505,970	-160,701	-0,125	-0,005
-504,956	-114,081	-0,088	0,012
-503,941	92,898	-0,066	-0,055
-502,926	-134,902	0,047	0,004
-501,912	-26,842	0,075	0,032
-500,897	800,000	-0,027	0,054
-499,883	23,289	0,036	0,021
-498,868	-200,000	0,043	-0,168
-497,853	19,787	0,022	-0,013
-496,839	172,279	0,021	-0,022
-495,824	-200,000	0,020	0,101
-494,810	763,362	0,030	0,059
-493,795	793,081	-0,037	0,074
-492,781	70,452	-0,035	-0,027
-491,766	-108,252	-0,141	-0,022
-490,751	115,132	0,020	0,018
-489,737	-91,053	-0,028	0,006
-488,722	-13,102	0,094	-0,045
-487,708	-200,000	0,017	0,059
-486,693	102,259	0,013	-0,011
-485,678	-200,000	-0,002	-0,072
-484,664	-200,000	0,013	-0,105
-483,649	67,845	-0,175	0,130
-482,635	260,215	0,103	-0,131
-481,620	488,276	-0,032	0,053
-480,605	174,648	0,080	0,085
-479,591	-96,416	0,115	0,022
-478,576	3,088	0,066	-0,035
-477,562	70,976	-0,012	0,009
-476,547	-120,954	-0,069	-0,008
-475,532	-200,000	-0,008	-0,052
-474,518	-28,426	-0,038	-0,016
-473,503	800,000	0,091	0,185
-472,489	105,704	0,049	0,042
-471,474	690,648	-0,032	-0,061
-470,459	-200,000	0,020	0,095
-469,445	-57,597	0,129	-0,041
-468,430	-101,827	-0,142	0,025
-467,416	-143,850	-0,103	-0,007
-466,401	-0,498	-0,140	0,072
-465,386	33,461	0,149	-0,094
-464,372	3,582	0,012	-0,006
-463,357	-200,000	0,015	-0,055
-462,343	-11,262	-0,031	-0,015
-461,328	85,011	-0,068	-0,055
-460,313	338,849	-0,087	0,124
-459,299	-200,000	-0,012	-0,057
-458,284	-200,000	-0,018	-0,078
-457,270	598,282	0,033	-0,060
-456,255	-13,971	-0,016	-0,007
-455,241	-200,000	-0,014	-0,071
-454,226	375,692	-0,022	0,032
-453,211	-83,600	0,163	-0,038
-452,197	652,758	-0,010	0,019
-451,182	-135,618	0,157	0,013
-450,168	-97,141	-0,150	0,028
-449,153	-200,000	0,024	-0,100
-448,138	399,161	-0,056	-0,086
-447,124	-200,000	0,023	0,076
-446,109	40,652	-0,069	-0,045
-445,095	-92,098	0,048	0,010
-444,080	800,000	0,041	0,105
-443,065	-36,908	0,079	0,031
-442,051	-200,000	-0,000	-0,134
-441,036	800,000	-0,044	-0,135
-440,022	-52,555	0,030	-0,010
-439,007	-2,787	-0,052	-0,027
-437,992	496,995	-0,045	-0,076
-436,978	-137,601	0,085	-0,007
-435,963	773,497	0,041	0,082
-434,949	69,961	-0,049	-0,037
-433,934	-142,450	0,079	-0,006
-432,919	27,460	-0,140	0,085
-431,905	-11,290	0,097	0,046
-430,890	419,620	0,021	0,034
-429,876	-200,000	0,012	0,042
-428,861	199,024	0,059	0,066
-427,846	-109,307	0,065	-0,010
-426,832	-125,483	-0,108	-0,012
-425,817	800,000	-0,011	-0,025
-424,803	-5,693	-0,088	0,044
-423,788	372,707	0,055	0,082
-422,773	288,381	0,118	0,156
-421,759	-161,717	0,093	0,003
-420,744	-200,000	-0,012	0,121
-419,730	85,760	0,037	-0,029
-418,715	-200,000	-0,030	-0,163
-417,701	-200,000	0,001	-0,077
-416,686	-200,000	-0,013	0,066
-415,671	185,299	0,074	0,080
-414,657	11,561	0,119	0,066
-413,642	-125,384	-0,127	-0,014
-412,628	-102,097	-0,114	-0,020
-411,613	-85,730	-0,131	-0,029
-410,598	124,241	-0,099	-0,090
-409,584	606,418	0,041	-0,074
-408,569	595,582	-0,035	0,063
-407,555	203,255	-0,091	0,102
-406,540	211,830	0,050	0,057
-405,525	-52,263	-0,256	0,086
-404,511	-35,596	-0,154	-0,061
-403,496	94,177	0,050	0,042
-402,482	425,827	-0,038	-0,060
-401,467	-181,301	-0,087	0,001
-400,452	311,865	0,044	-0,061
-399,438	800,000	-0,024	-0,064
-398,423	-90,592	-0,091	-0,019
-397,409	251,289	-0,003	0,004
-396,394	-200,000	0,027	-0,163
-395,379	639,253	-0,065	0,120
-394,365	425,692	-0,036	0,057
-393,350	18,612	0,145	-0,084
-392,336	-200,000	0,006	0,030
-391,321	-92,974	0,029	-0,006
-390,306	223,432	0,066	-0,078
-389,292	-51,828	-0,093	-0,031
-388,277	187,818	-0,130	-0,142
-387,263	-30,254	-0,092	0,038
-386,248	800,000	0,032	0,089
-385,233	-41,052	0,082	0,031
-384,219	263,471	-0,043	-0,054
-383,204	-85,141	-0,063	-0,014
-382,190	800,000	-0,057	-0,122
-381,175	-23,574	-0,062	-0,027
-380,160	800,000	0,030	0,095
-379,146	277,925	0,046	0,060
-378,131	-86,412	-0,137	0,030
-377,117	-64,920	0,042	0,012
-376,102	99,736	0,129	0,108
-375,088	800,000	0,019	-0,048
-374,073	-200,000	0,014	-0,060
-373,058	51,095	0,006	-0,004
-372,044	-166,968	0,115	0,003
-371,029	65,206	-0,069	0,050
-370,015	-200,000	0,002	-0,055
-369,000	-92,532	0,152	-0,031
-367,985	-109,142	0,061	0,009
-366,971	209,680	-0,065	-0,074
-365,956	-200,000	-0,003	-0,061
-364,942	-200,000	-0,025	-0,127
-363,927	800,000	-0,032	0,092
-362,912	-200,000	-0,016	0,067
-361,898	-63,892	-0,040	-0,012
-360,883	-200,000	-0,004	-0,101
-359,869	-103,022	0,099	0,017
-358,854	-200,000	0,013	-0,062
-357,839	274,066	0,044	0,057
-356,825	132,209	0,119	-0,111
-355,810	50,306	-0,116	-0,079
-354,796	-18,738	-0,110	-0,050
-353,781	538,092	-0,026	-0,045
-352,766	-37,419	-0,142	0,055
-351,752	-82,550	-0,085	-0,020
-350,737	800,000	0,048	0,149
-349,723	622,352	-0,039	-0,071
-348,708	-22,275	0,090	-0,039
-347,693	-200,000	0,007	0,069
-346,679	-144,001	0,073	0,005
-345,664	21,590	0,102	-0,060
-344,650	540,658	-0,072	0,125
-343,635	70,770	0,194	0,146
-342,620	-127,008	0,012	0,001
-341,606	-200,000	0,039	0,131
-340,591	-200,000	-0,008	0,125
-339,577	19,470	-0,081	-0,047
-338,562	148,190	-0,077	0,075
-337,548	-200,000	-0,025	0,097
-336,533	92,761	-0,068	0,056
-335,518	800,000	0,056	0,122
-334,504	424,710	0,066	0,104
-333,489	-27,551	0,136	0,057
-332,475	800,000	0,057	-0,160
-331,460	-80,777	-0,105	0,025
-330,445	79,077	-0,059	-0,046
-329,431	-154,501	0,109	0,005
-328,416	800,000	0,003	-0,008
-327,402	74,623	-0,045	-0,034
-326,387	-200,000	0,026	-0,141
-325,372	57,823	-0,090	0,064
-324,358	-79,037	-0,076	-0,019
-323,343	-167,525	-0,095	0,003
-322,329	-200,000	0,007	0,083
-321,314	-32,561	0,075	0,030
-320,299	412,506	0,011	-0,016
-319,285	-200,000	-0,023	0,108
-318,270	5,595	0,111	-0,059
-317,256	452,225	0,072	-0,116
-316,241	-140,289	-0,080	-0,006
-315,226	800,000	-0,018	-0,052
-314,212	800,000	0,093	-0,196
-313,197	-200,000	-0,013	-0,125
-312,183	-200,000	0,009	0,050
-311,168	-104,237	-0,131	-0,022
-310,153	-200,000	0,005	0,150
-309,139	-35,365	0,034	-0,013
-308,124	-200,000	0,015	0,149
-307,110	800,000	0,042	0,095
-306,095	-200,000	0,029	0,097
-305,080	33,763	0,021	0,013
-304,066	-163,596	-0,053	0,002
-303,051	-159,244	-0,070	-0,003
-302,037	-110,626	-0,090	0,013
-301,022	-200,000	0,001	0,036
-300,008	-200,000	-0,011	0,075
-298,993	-200,000	0,012	0,075
-297,978	800,000	-0,022	-0,059
-296,964	-95,097	-0,141	0,027
-295,949	16,677	0,104	-0,060
-294,935	260,056	0,050	-0,063
-293,920	465,406	-0,088	-0,143
-292,905	800,000	0,073	0,161
-291,891	4,296	0,160	0,085
-290,876	-44,026	0,159	-0,057
-289,862	-180,774	0,033	0,000
-288,847	-200,000	-0,001	-0,053
-287,832	-152,045	-0,080	-0,004
-286,818	-136,940	0,010	-0,001
-285,803	59,349	-0,097	0,069
-284,789	499,405	0,091	0,152
-283,774	800,000	-0,037	0,117
-282,759	-150,910	-0,096	0,005
-281,745	800,000	-0,035	-0,107
-280,730	236,595	-0,052	0,062
-279,716	23,399	-0,013	-0,008
-278,701	230,112	-0,083	-0,099
-277,686	-98,465	-0,054	-0,010
-276,672	105,234	0,062	0,053
-275,657	457,103	-0,063	0,101
-274,643	37,132	0,101	0,065
-273,628	200,859	-0,022	0,025
-272,613	96,840	0,110	-0,091
-271,599	-45,020	0,039	-0,014
-270,584	126,028	-0,064	-0,059
-269,570	145,944	-0,038	0,037
-268,555	-200,000	0,001	0,007
-267,540	344,856	0,082	-0,116
-266,526	-27,878	-0,065	-0,027
-265,511	-181,945	-0,086	-0,001
-264,497	-190,279	-0,041	-0,000
-263,482	-137,383	0,025	-0,002
-262,467	-136,906	0,120	0,010
-261,453	-200,000	-0,021	0,080
-260,438	-200,000	-0,001	-0,066
-259,424	-92,044	0,163	-0,033
-258,409	336,004	-0,026	-0,037
-257,395	-66,401	-0,164	-0,047
-256,380	-109,278	0,177	0,027
-255,365	215,701	0,044	0,051
-254,351	41,168	0,041	-0,027
-253,336	6,235	-0,090	0,048
-252,322	-41,895	0,109	0,040
-251,307	461,904	-0,107	-0,174
-250,292	-200,000	0,025	-0,082
-249,278	261,749	0,081	0,102
-248,263	-102,371	0,102	-0,017
-247,249	253,436	-0,073	-0,090
-246,234	-200,000	0,008	0,127
-245,219	77,347	-0,093	-0,072
-244,205	-30,045	-0,076	-0,031
-243,190	-200,000	-0,029	0,178
-242,176	128,745	-0,115	0,106
-241,161	-12,922	-0,052	-0,024
-240,146	132,269	0,132	0,123
-239,132	-3,285	-0,108	0,054
-238,117	-200,000	0,012	-0,076
-237,103	800,000	-0,012	-0,032
-236,088	142,929	-0,023	0,022
-235,073	-92,996	-0,099	0,020
-234,059	800,000	0,018	0,052
-233,044	-200,000	0,018	-0,112
-232,030	-37,910	-0,131	-0,050
-231,015	-51,245	-0,207	0,070
-230,000	-200,000	-0,011	0,041
-228,986	150,415	0,037	-0,036
-227,971	751,567	0,051	-0,101
-226,957	-107,853	-0,004	0,001
-225,942	-79,869	0,093	0,022
-224,927	6,252	-0,064	-0,034
-223,913	56,437	0,027	0,019
-222,898	-185,269	-0,073	0,001
-221,884	-200,000	-0,001	0,082
-220,869	-82,934	0,132	0,030
-219,855	126,062	-0,024	0,022
-218,840	-83,911	0,088	-0,020
-217,825	-5,150	0,112	0,055
-216,811	163,227	0,073	-0,074
-215,796	-200,000	-0,034	-0,152
-214,782	-200,000	0,000	-0,169
-213,767	335,054	0,067	0,094
-212,752	-200,000	0,002	0,076
-211,738	-141,718	0,153	0,011
-210,723	189,669	-0,099	-0,107
-209,709	-200,000	0,019	-0,174
-208,694	-34,162	-0,130	-0,051
-207,679	214,501	0,096	-0,110
-206,665	-53,112	0,070	0,023
-205,650	375,159	0,072	-0,107
-204,636	231,783	0,033	0,039
-203,621	721,111	0,024	0,046
-202,606	-90,568	-0,071	0,015
-201,592	77,611	0,030	-0,023
-200,577	89,989	0,067	0,054
-199,563	395,844	0,036	0,055
-198,548	85,510	0,047	0,037
-197,533	-138,019	0,064	0,005
-196,519	11,076	0,063	-0,035
-195,504	-200,000	0,011	-0,041
-194,490	-200,000	0,006	0,075
-193,475	-200,000	-0,041	-0,171
-192,460	-200,000	-0,007	0,057
-191,446	221,819	0,047	0,055
-190,431	800,000	0,052	0,123
-189,417	-133,644	-0,041	-0,004
-188,402	311,740	0,071	-0,096
-187,387	33,258	-0,069	0,043
-186,373	18,043	0,030	-0,017
-185,358	-200,000	0,026	-0,084
-184,344	-200,000	0,015	0,086
-183,329	486,949	0,024	0,039
-182,315	-43,936	0,029	0,011
-181,300	-171,037	-0,189	-0,005
-180,285	-83,845	0,026	0,006
-179,271	215,276	0,072	0,082
-178,256	-200,000	-0,014	0,132
-177,242	800,000	-0,084	0,196
-176,227	614,277	-0,078	0,142
-175,212	89,760	0,081	0,065
-174,198	288,761	0,062	0,081
-173,183	303,731	-0,086	0,115
-172,169	-84,497	-0,135	-0,031
-171,154	291,995	0,103	0,135
-170,139	442,481	0,032	0,051
-169,125	130,585	0,071	0,066
-168,110	-97,254	0,072	-0,013
-167,096	800,000	0,033	-0,068
-166,081	-200,000	-0,011	-0,080
-165,066	358,252	-0,065	-0,093
-164,052	523,359	0,060	-0,102
-163,037	-84,911	0,059	0,013
-162,023	800,000	-0,049	0,111
-161,008	-200,000	0,005	0,167
-159,993	-200,000	0,001	-0,034
-158,979	-53,020	-0,029	0,010
-157,964	13,229	0,150	-0,084
-156,950	-200,000	-0,032	-0,148
-155,935	800,000	-0,041	-0,103
-154,920	-200,000	-0,008	-0,032
-153,906	80,686	0,083	0,065
-152,891	185,032	0,086	-0,092
-151,877	95,276	-0,049	-0,040
-150,862	800,000	-0,067	-0,189
-149,847	-31,622	0,107	-0,043
-148,833	-163,042	0,060	-0,002
-147,818	-200,000	-0,001	0,028
-146,804	-200,000	-0,021	-0,106
-145,789	-79,714	-0,097	-0,023
-144,775	-68,100	-0,098	0,027
-143,760	-200,000	-0,008	0,046
-142,745	-15,824	-0,145	-0,067
-141,731	63,796	0,135	-0,097
-140,716	-186,257	0,022	0,000
-139,702	-200,000	0,013	-0,076
-138,687	-36,655	0,051	-0,020
-137,672	84,243	0,099	-0,078
-136,658	23,558	-0,080	-0,047
-135,643	472,252	-0,056	0,091
-134,629	-32,373	-0,124	0,050
-133,614	-89,973	-0,053	0,011
-132,599	800,000	0,019	0,055
-131,585	-200,000	0,004	-0,088
-130,570	-51,187	-0,077	-0,026
-129,556	800,000	-0,047	0,124
-128,541	800,000	-0,037	-0,078
-127,526	290,793	0,055	-0,072
-126,512	-4,029	0,082	-0,041
-125,497	-15,709	-0,133	-0,061
-124,483	426,121	0,093	-0,144
-123,468	186,396	0,058	-0,062
-122,453	-88,562	-0,090	0,019
-121,439	169,256	0,048	0,049
-120,424	-175,574	-0,227	0,004
