DTS Sentinel unit serial number:	SN410029Multiplexer serial number:	ORYXHardware model number:	OX2-SRSoftware version number:	ORYX F/W v4,00 Oryx Data Collector v3.7.2.0data status	okinstallation	B4 Nyhavnadifferential loss correction	single-endedforward channel	channel 2reverse channel	N/Adate	2023/12/19time	06:55:13forward acquisition time	300,00reverse acquisition time	0,00gamma	499,1914k internal	0,3127k external	0,3127temperature offset calibration	1,0000default loss term (dB/km)	0,3820temperature slope calibration	1,0000multiplexer offset coefficient	1,0000multiplexer slope coefficient	1,0000fibre end	0,00T internal ref (°C)	21,21T ext. ref 1 (°C)	6,53T ext. ref 2 (°C)	6,58length (m)	temperature (°C)	Stokes	anti-Stokes-744,400	800,000	0,035	-0,086
-743,385	-17,400	-0,245	0,115
-742,371	-200,000	0,015	0,102
-741,356	87,165	-0,149	0,123
-740,342	-162,919	0,203	0,007
-739,327	-154,743	-0,216	-0,010
-738,312	-11,642	0,134	-0,065
-737,298	-50,654	-0,165	0,058
-736,283	192,119	0,012	-0,014
-735,269	-11,477	-0,166	0,081
-734,254	-200,000	0,004	-0,067
-733,239	-130,542	-0,375	-0,037
-732,225	78,440	0,115	-0,091
-731,210	-200,000	0,021	0,073
-730,196	206,044	0,045	-0,052
-729,181	-200,000	0,020	-0,118
-728,167	-200,000	0,008	-0,123
-727,152	-200,000	-0,021	0,073
-726,137	-37,851	-0,077	0,031
-725,123	-200,000	0,004	0,034
-724,108	408,020	0,055	-0,088
-723,094	-200,000	0,004	-0,147
-722,079	704,031	-0,100	-0,197
-721,064	-200,000	0,007	-0,090
-720,050	40,014	-0,141	-0,094
-719,035	60,392	0,041	0,030
-718,021	-134,170	-0,119	-0,011
-717,006	8,519	-0,177	-0,099
-715,991	-147,083	-0,044	0,003
-714,977	72,330	-0,059	-0,046
-713,962	135,334	0,062	0,060
-712,948	-46,029	0,021	-0,008
-711,933	-3,298	-0,096	-0,050
-710,918	800,000	-0,041	-0,110
-709,904	-72,241	-0,026	0,007
-708,889	39,445	0,008	0,005
-707,875	435,617	-0,027	-0,045
-706,860	673,101	-0,038	0,073
-705,845	-200,000	-0,045	0,233
-704,831	150,981	0,049	0,049
-703,816	186,857	-0,070	0,078
-702,802	-125,993	-0,083	-0,009
-701,787	-200,000	0,035	-0,156
-700,772	136,266	-0,040	-0,039
-699,758	-200,000	0,016	-0,089
-698,743	-200,000	-0,020	0,092
-697,729	-26,867	-0,029	0,013
-696,714	594,056	0,050	-0,092
-695,699	-12,372	-0,105	0,051
-694,685	-200,000	-0,005	-0,058
-693,670	506,857	0,013	-0,023
-692,656	-200,000	0,003	-0,020
-691,641	117,484	-0,085	-0,077
-690,627	-162,172	0,163	-0,006
-689,612	800,000	-0,053	-0,117
-688,597	205,940	-0,054	0,062
-687,583	250,181	-0,067	-0,085
-686,568	108,022	-0,023	0,020
-685,554	186,654	-0,028	-0,031
-684,539	163,896	-0,082	0,086
-683,524	800,000	-0,027	0,088
-682,510	58,415	0,067	0,049
-681,495	474,500	0,045	-0,076
-680,481	27,830	-0,120	-0,075
-679,466	-200,000	0,031	-0,121
-678,451	-44,067	-0,104	0,039
-677,437	-0,810	0,059	0,031
-676,422	15,042	0,116	-0,067
-675,408	305,406	0,049	-0,068
-674,393	22,136	-0,134	-0,081
-673,378	-200,000	0,017	-0,079
-672,364	-200,000	0,005	0,028
-671,349	35,380	-0,153	-0,099
-670,335	-200,000	0,017	-0,108
-669,320	-107,083	0,219	-0,036
-668,305	0,203	-0,059	0,031
-667,291	-71,064	-0,021	-0,006
-666,276	-158,311	-0,025	0,001
-665,262	-200,000	-0,003	-0,043
-664,247	-89,730	-0,064	-0,014
-663,232	800,000	0,036	-0,101
-662,218	55,599	0,104	-0,075
-661,203	-194,144	0,026	-0,000
-660,189	-200,000	-0,023	0,090
-659,174	-73,309	0,122	0,033
-658,159	-166,670	-0,071	0,002
-657,145	800,000	-0,050	-0,139
-656,130	161,541	-0,090	-0,094
-655,116	-200,000	0,009	0,073
-654,101	-200,000	0,002	-0,043
-653,086	-34,260	-0,063	-0,026
-652,072	400,569	-0,098	-0,153
-651,057	-40,840	0,188	-0,072
-650,043	-200,000	-0,017	-0,118
-649,028	262,994	0,026	-0,033
-648,014	-3,819	-0,072	-0,037
-646,999	1,161	0,050	-0,026
-645,984	-56,208	-0,133	0,044
-644,970	108,885	0,007	0,007
-643,955	6,923	-0,124	0,069
-642,941	-200,000	-0,023	-0,078
-641,926	-200,000	-0,031	-0,156
-640,911	-86,363	-0,015	0,003
-639,897	-151,480	0,040	0,002
-638,882	-116,250	-0,070	0,010
-637,868	800,000	0,021	-0,053
-636,853	-66,083	0,014	0,004
-635,838	-160,522	-0,147	0,006
-634,824	800,000	0,028	-0,088
-633,809	29,339	-0,052	-0,032
-632,795	-200,000	0,001	0,069
-631,780	800,000	-0,038	-0,118
-630,765	-48,255	0,066	-0,023
-629,751	39,140	0,040	0,027
-628,736	-37,381	-0,047	-0,019
-627,722	-53,945	0,085	-0,029
-626,707	-131,915	-0,111	-0,011
-625,692	9,448	-0,076	-0,043
-624,678	-115,111	0,066	-0,009
-623,663	45,407	0,049	-0,033
-622,649	-108,433	-0,092	-0,015
-621,634	-200,000	-0,017	0,055
-620,619	-200,000	0,011	-0,052
-619,605	117,492	-0,068	0,062
-618,590	150,861	0,071	0,071
-617,576	-200,000	-0,013	-0,062
-616,561	-178,068	-0,097	-0,002
-615,546	115,758	0,055	-0,050
-614,532	-13,974	-0,061	0,029
-613,517	13,890	0,049	0,028
-612,503	-200,000	0,024	-0,100
-611,488	138,091	-0,092	-0,090
-610,474	-200,000	0,005	-0,026
-609,459	-7,885	-0,158	0,079
-608,444	800,000	0,029	-0,082
-607,430	-48,313	-0,072	-0,026
-606,415	141,848	-0,025	0,024
-605,401	50,106	-0,018	-0,012
-604,386	156,940	-0,021	-0,022
-603,371	65,888	-0,072	-0,054
-602,357	800,000	0,065	-0,189
-601,342	359,931	-0,113	-0,167
-600,328	263,333	-0,107	-0,137
-599,313	136,786	0,095	0,092
-598,298	582,153	-0,015	-0,027
-597,284	800,000	0,014	0,030
-596,269	-8,194	0,160	-0,079
-595,255	-200,000	-0,005	0,040
-594,240	800,000	-0,032	-0,069
-593,225	92,580	-0,034	0,029
-592,211	178,139	0,036	0,039
-591,196	-15,146	-0,152	0,072
-590,182	44,456	-0,092	-0,063
-589,167	800,000	-0,016	0,048
-588,152	-127,709	0,146	0,015
-587,138	113,880	-0,134	-0,120
-586,123	-157,211	0,041	0,002
-585,109	-55,050	-0,056	-0,019
-584,094	184,167	-0,136	-0,149
-583,079	-200,000	0,014	-0,087
-582,065	33,876	0,053	0,034
-581,050	24,364	0,042	0,026
-580,036	329,624	0,066	0,094
-579,021	-31,827	-0,105	-0,044
-578,006	115,002	-0,083	0,075
-576,992	495,930	-0,041	0,070
-575,977	372,506	0,034	-0,052
-574,963	-102,657	0,234	0,041
-573,948	108,097	-0,157	0,139
-572,934	-200,000	0,014	0,052
-571,919	-200,000	0,017	-0,098
-570,904	800,000	0,012	-0,035
-569,890	116,480	-0,062	-0,056
-568,875	-128,349	0,090	0,009
-567,861	-31,177	0,056	-0,023
-566,846	-200,000	0,027	0,118
-565,831	361,613	0,026	-0,039
-564,817	22,085	0,038	-0,023
-563,802	-200,000	-0,011	0,068
-562,788	-200,000	-0,011	0,039
-561,773	398,933	0,059	0,092
-560,758	800,000	0,026	0,055
-559,744	-104,018	-0,169	-0,029
-558,729	-183,770	-0,052	0,001
-557,715	-37,630	-0,119	0,047
-556,700	14,848	0,073	-0,042
-555,685	550,333	-0,042	-0,075
-554,671	103,814	-0,036	0,031
-553,656	-16,106	-0,158	-0,074
-552,642	-43,210	0,080	-0,030
-551,627	67,872	-0,117	0,088
-550,612	-124,090	-0,035	0,004
-549,598	-108,692	-0,126	-0,020
-548,583	-73,306	0,068	-0,018
-547,569	773,524	0,047	0,095
-546,554	-88,871	0,082	0,018
-545,539	-84,697	0,126	0,029
-544,525	-200,000	0,003	-0,079
-543,510	0,386	0,113	-0,060
-542,496	72,426	-0,146	0,112
-541,481	-89,611	0,175	0,038
-540,466	800,000	-0,034	-0,090
-539,452	4,665	-0,046	0,025
-538,437	-122,088	0,105	0,013
-537,423	-200,000	-0,026	0,143
-536,408	-200,000	-0,014	-0,059
-535,393	375,097	-0,023	0,035
-534,379	-200,000	-0,007	0,046
-533,364	170,898	-0,029	-0,030
-532,350	19,808	-0,063	0,037
-531,335	220,034	-0,077	-0,092
-530,321	-149,628	0,077	0,004
-529,306	336,853	-0,010	0,015
-528,291	800,000	0,036	-0,094
-527,277	-53,137	-0,062	-0,021
-526,262	-88,274	0,105	-0,023
-525,248	318,266	-0,059	0,083
-524,233	800,000	-0,061	0,162
-523,218	608,530	0,049	-0,091
-522,204	744,055	-0,063	-0,125
-521,189	446,688	0,029	-0,048
-520,175	57,900	-0,188	0,136
-519,160	66,796	-0,130	0,097
-518,145	-19,093	0,080	0,036
-517,131	800,000	0,053	0,149
-516,116	-148,826	0,107	-0,006
-515,102	-200,000	0,012	-0,061
-514,087	-200,000	0,003	-0,062
-513,072	800,000	0,041	-0,118
-512,058	287,155	-0,038	-0,051
-511,043	75,116	0,061	-0,047
-510,029	-200,000	-0,006	-0,041
-509,014	728,976	0,043	0,085
-507,999	420,499	-0,047	0,075
-506,985	451,896	-0,091	0,149
-505,970	800,000	0,011	0,026
-504,956	-200,000	0,019	0,097
-503,941	129,175	-0,068	0,064
-502,926	-80,510	0,080	-0,019
-501,912	267,106	0,039	-0,051
-500,897	192,396	0,080	0,090
-499,883	78,015	0,196	-0,154
-498,868	166,905	0,105	-0,110
-497,853	800,000	-0,035	0,087
-496,839	135,037	0,041	0,039
-495,824	98,554	-0,063	-0,053
-494,810	800,000	-0,025	0,059
-493,795	-140,967	-0,087	-0,006
-492,781	329,966	0,048	-0,068
-491,766	800,000	0,009	-0,029
-490,751	-123,232	-0,152	-0,018
-489,737	95,385	0,044	0,037
-488,722	-69,793	-0,074	-0,021
-487,708	-73,876	-0,055	0,015
-486,693	800,000	-0,043	-0,098
-485,678	-40,960	-0,089	-0,034
-484,664	-45,678	-0,134	0,049
-483,649	-77,022	0,031	0,008
-482,635	478,712	0,031	-0,052
-481,620	-114,111	0,145	-0,020
-480,605	-200,000	0,014	0,073
-479,591	-149,390	0,056	0,003
-478,576	86,103	-0,122	0,099
-477,562	-142,482	-0,157	0,011
-476,547	318,044	-0,051	-0,071
-475,532	-75,779	-0,129	-0,033
-474,518	800,000	-0,038	-0,091
-473,503	216,249	0,060	0,071
-472,489	-200,000	0,003	-0,041
-471,474	59,959	0,035	0,025
-470,459	186,222	0,047	0,051
-469,445	-200,000	0,012	-0,065
-468,430	800,000	-0,035	0,092
-467,416	-116,011	0,110	0,015
-466,401	-200,000	0,002	0,013
-465,386	25,524	-0,127	-0,078
-464,372	-200,000	0,031	-0,178
-463,357	800,000	-0,028	0,059
-462,343	800,000	-0,012	-0,026
-461,328	-200,000	-0,012	-0,137
-460,313	-200,000	-0,001	-0,097
-459,299	-33,344	0,160	-0,065
-458,284	-162,934	0,091	-0,003
-457,270	-76,426	-0,071	0,018
-456,255	232,609	-0,095	0,115
-455,241	111,300	0,111	0,098
-454,226	-141,678	0,137	0,010
-453,211	63,787	0,053	0,039
-452,197	-200,000	-0,025	0,121
-451,182	-200,000	0,012	0,048
-450,168	-27,120	0,144	0,062
-449,153	-70,875	-0,036	0,010
-448,138	-115,399	-0,135	-0,019
-447,124	-200,000	0,014	-0,067
-446,109	246,451	0,124	0,154
-445,095	4,140	0,084	-0,045
-444,080	-63,464	0,098	0,030
-443,065	12,547	-0,030	-0,017
-442,051	167,556	-0,089	-0,094
-441,036	321,659	0,038	0,053
-440,022	461,522	-0,071	-0,117
-439,007	-200,000	0,023	0,000
-437,992	327,995	0,067	-0,095
-436,978	360,749	-0,050	0,074
-435,963	10,538	0,074	0,041
-434,949	167,380	-0,081	0,085
-433,934	509,843	0,063	-0,108
-432,919	-111,459	0,113	0,017
-431,905	43,650	-0,020	-0,014
-430,890	-200,000	-0,033	0,135
-429,876	-46,965	0,142	0,051
-428,861	800,000	0,027	0,064
-427,846	-16,998	-0,043	-0,020
-426,832	-200,000	-0,021	-0,100
-425,817	189,898	-0,148	0,164
-424,803	-200,000	-0,006	0,064
-423,788	800,000	0,032	-0,085
-422,773	-200,000	0,030	-0,196
-421,759	800,000	-0,032	-0,094
-420,744	-70,346	-0,065	0,018
-419,730	-136,123	-0,080	0,007
-418,715	-131,969	-0,067	-0,006
-417,701	-175,206	0,041	0,001
-416,686	-200,000	0,020	-0,189
-415,671	-54,968	0,032	0,011
-414,657	350,002	0,042	-0,061
-413,642	800,000	-0,034	0,081
-412,628	-200,000	-0,013	0,052
-411,613	-200,000	-0,017	0,080
-410,598	800,000	-0,026	-0,073
-409,584	-13,290	0,151	0,072
-408,569	-35,125	0,070	-0,028
-407,555	800,000	-0,016	-0,034
-406,540	36,551	-0,037	0,024
-405,525	-200,000	0,005	0,066
-404,511	-200,000	-0,027	-0,119
-403,496	166,045	-0,084	0,087
-402,482	-86,719	-0,093	0,021
-401,467	-200,000	0,029	-0,096
-400,452	-6,297	0,074	-0,037
-399,438	24,491	0,041	-0,025
-398,423	-75,773	0,048	0,012
-397,409	19,620	-0,045	-0,027
-396,394	30,790	0,008	0,005
-395,379	49,237	-0,104	-0,072
-394,365	298,579	-0,104	0,141
-393,350	189,069	0,019	-0,021
-392,336	-105,765	0,069	0,011
-391,321	26,154	0,046	0,028
-390,306	158,780	-0,153	-0,157
-389,292	202,488	0,062	0,070
-388,277	-117,607	-0,066	-0,009
-387,263	-200,000	-0,019	0,127
-386,248	-200,000	-0,013	-0,105
-385,233	-91,504	0,061	0,013
-384,219	125,074	0,096	-0,089
-383,204	-51,158	0,014	0,005
-382,190	-175,241	0,093	-0,002
-381,175	-24,240	0,142	-0,062
-380,160	-123,774	0,138	-0,016
-379,146	116,051	-0,056	0,050
-378,131	165,185	-0,065	0,067
-377,117	800,000	0,041	0,099
-376,102	-80,056	0,021	-0,005
-375,088	88,079	-0,038	-0,031
-374,073	-14,941	-0,044	-0,021
-373,058	-144,878	0,126	-0,008
-372,044	-100,569	0,165	0,030
-371,029	422,267	0,054	-0,086
-370,015	-97,391	-0,049	-0,009
-369,000	641,709	-0,080	-0,150
-367,985	35,671	0,070	-0,045
-366,971	139,831	-0,067	-0,065
-365,956	410,933	0,077	-0,121
-364,942	800,000	-0,036	-0,077
-363,927	-6,824	-0,157	0,078
-362,912	44,884	-0,033	-0,022
-361,898	-200,000	0,030	-0,142
-360,883	-60,083	-0,138	-0,043
-359,869	158,111	-0,083	-0,084
-358,854	800,000	-0,058	-0,182
-357,839	115,364	-0,115	0,103
-356,825	146,273	0,099	0,097
-355,810	-200,000	-0,004	0,032
-354,796	-65,096	0,105	-0,031
-353,781	77,744	0,048	0,037
-352,766	-68,437	-0,088	-0,025
-351,752	-200,000	0,019	0,118
-350,737	69,521	0,146	0,110
-349,723	-200,000	0,018	0,091
-348,708	122,667	0,006	0,006
-347,693	376,843	-0,113	-0,170
-346,679	-200,000	-0,004	-0,187
-345,664	-28,391	0,133	0,056
-344,650	756,639	0,021	-0,041
-343,635	103,048	0,109	-0,094
-342,620	-14,080	-0,131	0,062
-341,606	192,253	0,020	0,023
-340,591	-98,530	-0,110	-0,020
-339,577	-200,000	0,030	-0,176
-338,562	-200,000	-0,001	0,132
-337,548	-200,000	0,028	0,101
-336,533	204,968	-0,094	0,107
-335,518	-135,112	0,118	0,010
-334,504	-130,894	0,025	0,002
-333,489	800,000	-0,012	0,033
-332,475	185,533	0,027	-0,029
-331,460	800,000	0,015	0,043
-330,445	-183,350	0,064	-0,001
-329,431	139,964	0,082	-0,079
-328,416	-14,637	0,044	0,021
-327,402	-200,000	-0,005	-0,062
-326,387	155,185	0,029	0,029
-325,372	234,875	-0,057	0,069
-324,358	142,787	-0,067	-0,066
-323,343	-45,079	-0,111	-0,040
-322,329	-140,986	0,135	-0,010
-321,314	661,619	0,036	-0,069
-320,299	565,445	0,059	-0,105
-319,285	279,205	0,012	0,015
-318,270	-50,538	0,027	0,009
-317,256	-85,767	-0,058	-0,013
-316,241	601,870	-0,062	-0,113
-315,226	544,519	0,027	-0,048
-314,212	-51,283	-0,015	0,005
-313,197	800,000	-0,059	0,181
-312,183	-200,000	0,010	-0,043
-311,168	800,000	-0,021	0,052
-310,153	-200,000	0,001	0,119
-309,139	49,741	0,016	-0,011
-308,124	-110,339	-0,096	-0,014
-307,110	225,796	0,084	0,100
-306,095	446,745	0,034	0,054
-305,080	-43,734	0,062	0,023
-304,066	-200,000	0,021	0,097
-303,051	-87,216	-0,170	0,037
-302,037	800,000	0,039	-0,090
-301,022	800,000	0,026	-0,054
-300,008	479,819	0,090	0,149
-298,993	297,756	0,058	0,079
-297,978	-200,000	0,002	-0,109
-296,964	30,369	0,096	-0,060
-295,949	-200,000	0,002	0,037
-294,935	178,574	0,002	-0,002
-293,920	800,000	-0,022	0,052
-292,905	523,860	-0,015	-0,025
-291,891	24,566	0,027	-0,016
-290,876	-113,517	0,050	0,007
-289,862	800,000	0,046	0,131
-288,847	98,815	-0,072	0,061
-287,832	26,648	0,095	-0,058
-286,818	-78,636	-0,107	0,026
-285,803	-78,897	0,113	-0,028
-284,789	-200,000	-0,022	-0,139
-283,774	182,216	0,058	0,062
-282,759	-200,000	0,002	0,055
-281,745	-162,945	0,042	0,001
-280,730	-79,035	0,053	-0,013
-279,716	800,000	0,023	-0,053
-278,701	-72,030	0,108	-0,029
-277,686	-121,426	-0,048	0,006
-276,672	-88,052	0,122	-0,027
-275,657	29,126	0,060	-0,037
-274,643	-200,000	0,003	-0,065
-273,628	137,705	-0,070	-0,067
-272,613	775,860	-0,025	-0,050
-271,599	-120,972	0,036	0,004
-270,584	-137,682	-0,043	0,003
-269,570	-110,796	-0,151	-0,023
-268,555	286,771	-0,024	0,032
-267,540	-200,000	-0,027	0,106
-266,526	-200,000	-0,003	0,010
-265,511	-66,640	-0,158	-0,046
-264,497	-200,000	-0,029	0,138
-263,482	-200,000	-0,025	0,131
-262,467	737,759	0,057	0,112
-261,453	-134,135	0,145	0,013
-260,438	167,316	-0,055	0,057
-259,424	1,731	-0,044	-0,023
-258,409	800,000	-0,003	0,008
-257,395	-5,425	0,069	0,034
-256,380	-200,000	0,025	0,191
-255,365	246,539	0,035	-0,043
-254,351	246,703	-0,051	0,063
-253,336	228,824	0,041	0,049
-252,322	-89,840	-0,166	0,035
-251,307	456,548	0,021	0,034
-250,292	-200,000	0,001	0,024
-249,278	25,660	0,045	-0,027
-248,263	800,000	-0,030	0,091
-247,249	578,805	0,045	0,081
-246,234	-200,000	0,032	0,115
-245,219	50,720	-0,044	-0,030
-244,205	308,815	0,048	-0,066
-243,190	239,395	-0,014	-0,017
-242,176	-104,173	-0,105	-0,018
-241,161	173,397	-0,064	0,067
-240,146	-70,849	0,045	-0,012
-239,132	800,000	0,028	-0,074
-238,117	68,491	-0,117	-0,088
-237,103	-200,000	0,001	0,045
-236,088	129,610	0,066	-0,061
-235,073	-9,950	0,014	0,007
-234,059	23,157	0,046	-0,027
-233,044	-56,350	-0,128	-0,041
-232,030	800,000	-0,028	-0,057
-231,015	-26,524	-0,033	-0,014
-230,000	-200,000	0,006	0,024
-228,986	-59,017	-0,143	-0,045
-227,971	-56,328	-0,080	0,026
-226,957	-154,667	0,019	-0,001
-225,942	39,054	0,133	0,087
-224,927	49,197	0,094	0,064
-223,913	-13,626	-0,070	-0,033
-222,898	-32,017	0,088	0,036
-221,884	800,000	0,048	-0,103
-220,869	95,321	-0,102	0,085
-219,855	-200,000	0,036	0,133
-218,840	800,000	0,043	0,123
-217,825	496,002	-0,061	0,103
-216,811	800,000	0,003	-0,007
-215,796	-8,729	-0,067	0,033
-214,782	-200,000	-0,001	-0,017
-213,767	16,591	0,170	0,098
-212,752	101,608	-0,079	-0,067
-211,738	349,455	-0,038	0,055
-210,723	-200,000	0,034	0,181
-209,709	767,456	-0,058	0,116
-208,694	18,803	0,093	-0,054
-207,679	-35,125	0,097	-0,038
-206,665	87,290	-0,041	0,033
-205,650	-66,802	0,087	0,025
-204,636	-200,000	-0,003	-0,075
-203,621	341,389	-0,056	-0,080
-202,606	251,115	-0,085	-0,106
-201,592	-119,641	0,064	0,008
-200,577	-72,482	-0,081	0,022
-199,563	-41,403	-0,173	0,065
-198,548	357,703	0,112	0,164
-197,533	-117,219	0,198	0,026
-196,519	-200,000	0,005	-0,044
-195,504	115,128	-0,052	0,047
-194,490	318,024	-0,044	0,061
-193,475	730,346	-0,015	0,028
-192,460	226,667	-0,052	0,062
-191,446	-17,548	0,023	0,011
-190,431	53,589	0,063	0,044
-189,417	800,000	-0,040	-0,084
-188,402	142,751	0,137	0,133
-187,387	-104,874	-0,029	0,005
-186,373	-200,000	-0,024	-0,105
-185,358	-149,590	0,036	-0,002
-184,344	-79,136	0,024	0,006
-183,329	41,271	0,119	0,078
-182,315	-200,000	0,065	0,000
-181,300	-76,606	0,151	-0,038
-180,285	-200,000	-0,059	-0,239
-179,271	145,648	0,053	-0,052
-178,256	-200,000	-0,028	0,091
-177,242	569,069	0,054	0,096
-176,227	101,812	-0,027	0,023
-175,212	326,215	-0,050	-0,070
-174,198	800,000	0,009	0,020
-173,183	800,000	0,057	-0,127
-172,169	67,980	0,031	0,023
-171,154	-135,617	-0,130	-0,011
-170,139	-84,196	0,090	0,021
-169,125	-72,413	0,074	-0,020
-168,110	120,423	-0,107	0,097
-167,096	-108,672	0,086	0,013
-166,081	-13,690	-0,028	-0,013
-165,066	800,000	-0,043	0,128
-164,052	542,579	-0,042	-0,073
-163,037	800,000	0,025	0,077
-162,023	-73,051	0,070	-0,019
-161,008	-39,875	0,111	0,042
-159,993	-200,000	-0,000	0,003
-158,979	-116,663	0,059	-0,008
-157,964	-200,000	-0,030	-0,106
-156,950	470,456	-0,114	-0,187
-155,935	194,086	0,048	0,053
-154,920	-200,000	0,002	-0,020
-153,906	113,543	0,068	0,060
-152,891	-126,195	-0,003	-0,000
-151,877	800,000	0,015	0,035
-150,862	-12,376	-0,138	0,066
-149,847	168,880	0,034	0,036
-148,833	-49,095	0,122	0,042
-147,818	-200,000	0,003	-0,013
-146,804	-10,322	-0,066	0,032
-145,789	467,414	-0,014	0,023
-144,775	-200,000	-0,036	0,128
-143,760	-6,539	0,071	0,035
-142,745	-39,944	-0,136	0,051
-141,731	641,981	0,061	0,114
-140,716	502,684	0,086	0,146
-139,702	-40,287	0,032	-0,012
-138,687	-125,653	-0,058	-0,006
-137,672	-200,000	0,014	-0,062
-136,658	68,675	0,102	-0,076
-135,643	-158,843	-0,115	-0,005
-134,629	-98,768	-0,029	0,005
-133,614	165,947	0,033	0,034
-132,599	800,000	0,043	-0,124
-131,585	30,462	0,126	0,078
-130,570	406,573	0,011	0,017
-129,556	33,527	-0,089	-0,056
-128,541	24,941	-0,024	0,015
-127,526	168,750	0,076	-0,079
-126,512	267,998	0,010	-0,012
-125,497	225,705	0,048	-0,057
-124,483	-184,974	0,087	0,001
-123,468	-200,000	0,011	-0,102
-122,453	-200,000	-0,029	-0,111
-121,439	16,494	-0,057	-0,032
-120,424	-42,059	0,087	-0,032
-119,410	-139,557	0,183	-0,014
-118,395	-39,477	0,096	-0,036
