DTS Sentinel unit serial number:	SN410029Multiplexer serial number:	ORYXHardware model number:	OX2-SRSoftware version number:	ORYX F/W v4,00 Oryx Data Collector v3.7.2.0data status	okinstallation	B4 Nyhavnadifferential loss correction	single-endedforward channel	channel 2reverse channel	N/Adate	2023/12/16time	09:35:13forward acquisition time	300,00reverse acquisition time	0,00gamma	499,1914k internal	0,3126k external	0,3126temperature offset calibration	1,0000default loss term (dB/km)	0,3820temperature slope calibration	1,0000multiplexer offset coefficient	1,0000multiplexer slope coefficient	1,0000fibre end	0,00T internal ref (°C)	23,06T ext. ref 1 (°C)	8,80T ext. ref 2 (°C)	8,96length (m)	temperature (°C)	Stokes	anti-Stokes-744,400	-200,000	-0,010	0,037
-743,385	-17,864	-0,177	0,082
-742,371	-65,413	0,076	-0,023
-741,356	-53,327	-0,260	0,088
-740,342	-54,285	0,055	0,018
-739,327	656,956	-0,151	0,290
-738,312	368,316	-0,094	-0,142
-737,298	27,486	-0,258	0,161
-736,283	-15,709	0,056	0,026
-735,269	31,041	-0,156	0,099
-734,254	-27,563	0,070	-0,030
-733,239	-33,964	-0,290	-0,118
-732,225	-13,078	0,107	-0,052
-731,210	275,009	0,085	-0,112
-730,196	16,415	-0,067	0,040
-729,181	-120,569	0,065	-0,008
-728,167	0,341	0,122	0,065
-727,152	122,943	-0,047	-0,044
-726,137	219,041	0,043	0,051
-725,123	479,212	-0,025	-0,042
-724,108	320,492	-0,085	-0,121
-723,094	-200,000	-0,025	-0,149
-722,079	-200,000	0,006	-0,102
-721,064	-87,952	0,063	-0,014
-720,050	75,928	-0,036	0,028
-719,035	-68,989	0,074	0,021
-718,021	139,476	-0,100	-0,098
-717,006	40,705	-0,111	-0,074
-715,991	800,000	0,030	-0,064
-714,977	800,000	-0,071	-0,194
-713,962	-200,000	0,006	0,044
-712,948	290,622	0,056	-0,076
-711,933	134,976	0,027	-0,026
-710,918	800,000	-0,022	-0,072
-709,904	-87,243	-0,099	-0,022
-708,889	122,662	-0,062	-0,058
-707,875	202,017	-0,120	-0,138
-706,860	467,950	-0,054	0,091
-705,845	-200,000	0,014	0,100
-704,831	453,164	0,089	-0,146
-703,816	800,000	-0,004	0,009
-702,802	69,703	-0,068	0,052
-701,787	40,027	-0,099	-0,066
-700,772	-114,257	-0,165	0,023
-699,758	-194,255	-0,076	0,000
-698,743	-200,000	-0,023	0,111
-697,729	359,027	0,015	0,023
-696,714	291,756	0,021	0,029
-695,699	271,303	-0,005	0,007
-694,685	-92,315	-0,171	0,036
-693,670	-18,836	-0,153	-0,071
-692,656	800,000	0,054	0,160
-691,641	-200,000	-0,010	-0,036
-690,627	90,420	-0,075	0,062
-689,612	-108,569	-0,108	0,017
-688,597	-71,345	0,029	0,008
-687,583	800,000	0,040	-0,096
-686,568	800,000	0,043	-0,091
-685,554	-38,158	-0,090	-0,035
-684,539	97,425	0,061	0,052
-683,524	468,945	0,101	-0,170
-682,510	82,214	-0,147	0,119
-681,495	288,015	0,036	-0,048
-680,481	480,166	0,073	-0,123
-679,466	209,578	-0,076	-0,089
-678,451	77,247	-0,157	-0,124
-677,437	-58,645	0,086	-0,027
-676,422	-200,000	0,001	0,088
-675,408	213,461	0,098	0,115
-674,393	-88,814	-0,132	-0,029
-673,378	-124,099	-0,078	-0,009
-672,364	144,236	-0,102	-0,101
-671,349	-148,498	-0,141	-0,008
-670,335	62,102	0,028	0,021
-669,320	83,661	-0,072	-0,058
-668,305	-112,615	0,114	0,017
-667,291	-200,000	0,020	-0,127
-666,276	117,339	-0,051	-0,046
-665,262	-147,665	-0,122	0,007
-664,247	-85,925	-0,065	0,015
-663,232	800,000	0,021	-0,067
-662,218	4,846	-0,076	0,041
-661,203	800,000	0,019	0,046
-660,189	-13,460	0,061	-0,029
-659,174	800,000	0,009	-0,024
-658,159	359,183	0,075	0,111
-657,145	-59,565	-0,043	0,014
-656,130	140,452	0,031	-0,031
-655,116	800,000	-0,050	0,114
-654,101	596,275	0,118	0,217
-653,086	-158,765	0,051	-0,002
-652,072	800,000	0,059	0,128
-651,057	132,295	0,043	-0,041
-650,043	127,990	0,067	-0,063
-649,028	234,642	0,001	0,002
-648,014	-16,969	-0,169	-0,079
-646,999	470,543	-0,044	0,074
-645,984	800,000	0,031	0,080
-644,970	-117,107	0,124	-0,017
-643,955	-200,000	0,006	0,038
-642,941	514,655	-0,099	-0,171
-641,926	-23,578	-0,219	-0,097
-640,911	147,534	0,065	0,065
-639,897	-42,304	0,077	0,029
-638,882	45,690	0,024	0,016
-637,868	-67,397	0,065	-0,019
-636,853	-21,551	-0,164	-0,074
-635,838	-108,541	0,030	-0,005
-634,824	-200,000	0,001	0,014
-633,809	103,972	0,063	-0,055
-632,795	800,000	0,027	0,065
-631,780	235,619	0,029	-0,036
-630,765	-78,619	0,093	0,023
-629,751	-78,384	-0,105	-0,026
-628,736	800,000	0,031	-0,100
-627,722	-102,696	-0,164	-0,029
-626,707	-200,000	-0,003	-0,062
-625,692	286,307	-0,079	0,106
-624,678	94,516	0,107	0,090
-623,663	-200,000	-0,045	0,188
-622,649	501,859	0,036	0,062
-621,634	79,002	-0,080	-0,064
-620,619	466,882	-0,040	0,067
-619,605	-76,122	-0,055	0,014
-618,590	-80,941	0,090	-0,022
-617,576	-44,893	0,187	0,069
-616,561	-200,000	-0,039	0,142
-615,546	8,335	-0,028	-0,016
-614,532	800,000	0,058	-0,160
-613,517	422,174	0,070	-0,112
-612,503	194,056	0,056	0,063
-611,488	-64,400	0,130	-0,039
-610,474	121,242	0,169	0,156
-609,459	406,769	0,049	0,077
-608,444	270,547	0,067	-0,087
-607,430	19,418	-0,041	0,024
-606,415	-200,000	0,005	-0,022
-605,401	725,352	0,021	-0,042
-604,386	-28,087	-0,104	0,044
-603,371	167,172	0,068	-0,072
-602,357	-2,384	-0,082	0,043
-601,342	106,011	0,111	-0,097
-600,328	-200,000	-0,014	-0,114
-599,313	-200,000	-0,028	-0,113
-598,298	148,656	0,049	-0,049
-597,284	-200,000	-0,001	-0,009
-596,269	-200,000	-0,039	0,139
-595,255	-200,000	0,009	-0,161
-594,240	-200,000	0,005	-0,141
-593,225	86,167	-0,033	-0,027
-592,211	135,225	0,085	-0,082
-591,196	200,462	-0,046	0,053
-590,182	479,114	-0,025	-0,042
-589,167	312,437	-0,057	0,079
-588,152	32,996	-0,071	-0,045
-587,138	-86,863	0,180	0,040
-586,123	-13,440	-0,075	0,036
-585,109	292,477	0,011	0,015
-584,094	122,314	-0,045	0,042
-583,079	531,806	-0,008	-0,015
-582,065	117,183	0,056	0,051
-581,050	800,000	0,026	0,068
-580,036	-200,000	0,006	0,092
-579,021	353,347	0,026	0,039
-578,006	-42,297	-0,079	-0,030
-576,992	-200,000	0,023	-0,103
-575,977	118,599	-0,054	0,050
-574,963	-111,060	0,101	-0,015
-573,948	496,683	0,048	-0,082
-572,934	-200,000	0,007	-0,035
-571,919	14,048	-0,045	0,026
-570,904	201,965	-0,061	0,069
-569,890	-10,176	-0,141	-0,069
-568,875	-55,955	-0,063	0,021
-567,861	35,820	0,070	-0,045
-566,846	72,811	-0,058	0,045
-565,831	82,490	-0,121	-0,097
-564,817	318,183	-0,023	-0,032
-563,802	-200,000	0,032	-0,142
-562,788	110,032	0,075	-0,066
-561,773	-200,000	-0,031	0,104
-560,758	-50,518	0,037	0,013
-559,744	376,158	0,023	-0,035
-558,729	119,969	-0,032	-0,030
-557,715	-106,508	-0,128	-0,021
-556,700	119,594	0,038	-0,035
-555,685	-200,000	-0,019	-0,136
-554,671	75,068	0,040	-0,031
-553,656	-72,644	0,103	0,028
-552,642	-200,000	0,005	-0,076
-551,627	-200,000	0,021	-0,076
-550,612	800,000	0,029	-0,083
-549,598	349,603	0,083	-0,121
-548,583	50,998	-0,024	-0,017
-547,569	-8,000	-0,077	-0,038
-546,554	-62,639	0,020	0,006
-545,539	-152,766	-0,062	-0,003
-544,525	-37,409	-0,058	-0,023
-543,510	-166,821	0,095	0,003
-542,496	-200,000	0,015	0,139
-541,481	-152,931	0,111	-0,006
-540,466	-55,962	-0,115	0,038
-539,452	-200,000	0,005	0,043
-538,437	-104,894	-0,121	-0,020
-537,423	47,603	0,154	0,106
-536,408	-37,630	-0,138	0,054
-535,393	623,751	-0,054	-0,101
-534,379	-19,547	0,057	-0,026
-533,364	394,534	0,031	-0,049
-532,350	-38,542	0,081	-0,032
-531,335	800,000	0,055	0,165
-530,321	171,494	0,064	0,068
-529,306	-33,790	-0,175	0,071
-528,291	-200,000	0,026	0,190
-527,277	-200,000	0,000	0,065
-526,262	-104,081	-0,065	0,011
-525,248	-84,470	0,108	-0,025
-524,233	-200,000	0,023	0,087
-523,218	-200,000	-0,015	0,079
-522,204	580,492	-0,047	0,085
-521,189	-200,000	0,024	-0,084
-520,175	800,000	-0,092	-0,211
-519,160	50,039	-0,099	-0,069
-518,145	-11,883	-0,057	0,028
-517,131	48,321	0,072	-0,049
-516,116	297,712	0,017	0,024
-515,102	2,482	0,058	-0,031
-514,087	301,437	-0,059	0,080
-513,072	-11,221	-0,082	0,040
-512,058	800,000	-0,052	-0,142
-511,043	-1,250	-0,090	0,047
-510,029	800,000	-0,042	-0,103
-509,014	800,000	0,040	0,083
-507,999	-200,000	0,001	0,030
-506,985	-200,000	0,023	-0,087
-505,970	-31,993	-0,052	-0,022
-504,956	-6,631	-0,107	-0,053
-503,941	-200,000	-0,008	0,124
-502,926	-183,400	0,068	-0,001
-501,912	-200,000	-0,011	0,056
-500,897	800,000	-0,025	0,081
-499,883	638,950	-0,034	-0,064
-498,868	-8,204	-0,084	-0,041
-497,853	194,438	-0,068	-0,076
-496,839	-200,000	-0,004	0,079
-495,824	-121,291	-0,051	-0,006
-494,810	-200,000	-0,006	-0,045
-493,795	60,740	0,035	0,025
-492,781	403,150	-0,040	-0,062
-491,766	-122,462	-0,051	0,006
-490,751	429,660	0,064	-0,102
-489,737	-200,000	0,004	-0,046
-488,722	292,216	0,039	0,052
-487,708	800,000	-0,047	0,149
-486,693	-200,000	-0,010	0,131
-485,678	800,000	-0,025	-0,076
-484,664	800,000	0,014	0,035
-483,649	-152,989	0,066	0,003
-482,635	-62,889	0,074	-0,023
-481,620	10,061	0,085	-0,047
-480,605	-135,581	0,150	0,013
-479,591	-155,611	0,085	-0,004
-478,576	715,072	-0,064	-0,125
-477,562	-90,788	0,072	0,015
-476,547	-200,000	0,024	-0,097
-475,532	87,245	0,031	-0,025
-474,518	-78,271	-0,043	-0,011
-473,503	-118,917	0,040	-0,005
-472,489	-200,000	-0,015	0,065
-471,474	-200,000	0,015	-0,128
-470,459	-200,000	-0,003	-0,028
-469,445	-200,000	0,018	-0,142
-468,430	465,236	-0,046	-0,076
-467,416	71,821	0,077	0,059
-466,401	-17,190	-0,022	0,010
-465,386	18,440	-0,164	0,096
-464,372	800,000	-0,022	0,070
-463,357	545,597	0,087	0,154
-462,343	661,749	-0,028	-0,054
-461,328	-72,680	-0,044	-0,012
-460,313	16,689	0,059	0,034
-459,299	800,000	0,018	0,047
-458,284	-4,792	-0,027	-0,014
-457,270	-132,029	-0,087	0,008
-456,255	612,417	-0,071	0,131
-455,241	-200,000	-0,006	0,060
-454,226	-133,913	0,089	0,008
-453,211	800,000	0,018	-0,042
-452,197	-200,000	-0,024	0,135
-451,182	800,000	0,022	0,065
-450,168	-200,000	-0,020	0,112
-449,153	-200,000	0,014	-0,074
-448,138	78,141	-0,097	0,076
-447,124	232,748	0,064	0,078
-446,109	-83,644	0,019	0,004
-445,095	216,272	0,037	-0,044
-444,080	23,980	-0,118	0,071
-443,065	1,052	0,048	0,025
-442,051	87,079	-0,064	0,052
-441,036	-64,274	0,093	0,028
-440,022	-200,000	-0,030	0,128
-439,007	-145,861	-0,111	0,007
-437,992	401,656	-0,046	-0,071
-436,978	-200,000	-0,003	-0,024
-435,963	4,770	0,107	-0,058
-434,949	-22,236	-0,143	-0,063
-433,934	-132,859	-0,029	-0,003
-432,919	-127,645	-0,074	0,008
-431,905	-200,000	0,006	0,157
-430,890	-81,230	0,149	0,036
-429,876	-8,161	0,086	0,043
-428,861	213,531	0,037	0,043
-427,846	800,000	0,007	-0,020
-426,832	86,323	-0,058	-0,047
-425,817	-48,731	-0,083	-0,029
-424,803	128,619	0,117	-0,110
-423,788	-200,000	-0,005	-0,080
-422,773	-200,000	-0,011	0,096
-421,759	-23,219	-0,104	0,046
-420,744	33,266	-0,170	-0,108
-419,730	471,383	-0,021	-0,036
-418,715	-200,000	0,005	-0,166
-417,701	476,923	-0,061	-0,102
-416,686	-81,900	0,126	0,030
-415,671	368,349	0,080	0,120
-414,657	584,587	0,068	-0,123
-413,642	-64,870	-0,093	0,028
-412,628	352,416	-0,011	0,016
-411,613	-200,000	0,007	-0,059
-410,598	-200,000	0,042	-0,171
-409,584	-60,353	-0,077	-0,024
-408,569	-124,608	0,117	0,013
-407,555	48,995	0,109	-0,075
-406,540	266,998	-0,033	0,042
-405,525	283,054	0,063	-0,083
-404,511	-200,000	0,010	-0,039
-403,496	-40,081	-0,099	0,038
-402,482	404,281	0,057	0,088
-401,467	135,915	-0,055	-0,053
-400,452	-70,131	0,103	0,029
-399,438	-126,521	0,101	0,011
-398,423	800,000	0,041	-0,084
-397,409	-78,445	-0,162	-0,040
-396,394	-162,112	0,047	-0,002
-395,379	-200,000	-0,003	-0,090
-394,365	510,811	0,103	0,176
-393,350	76,874	0,105	0,082
-392,336	429,315	0,037	0,059
-391,321	187,595	-0,095	0,104
-390,306	27,073	-0,119	-0,073
-389,292	573,730	-0,037	-0,067
-388,277	-97,999	-0,051	0,010
-387,263	800,000	0,045	-0,107
-386,248	496,956	0,047	-0,080
-385,233	-32,678	-0,172	0,070
-384,219	-21,388	0,080	-0,036
-383,204	184,196	-0,016	0,018
-382,190	-9,893	-0,050	-0,024
-381,175	117,907	-0,055	-0,050
-380,160	315,769	-0,044	-0,062
-379,146	-200,000	-0,014	0,049
-378,131	-94,210	0,109	-0,022
-377,117	-200,000	0,007	-0,049
-376,102	-200,000	0,004	-0,023
-375,088	800,000	-0,022	-0,061
-374,073	84,239	0,127	0,102
-373,058	107,296	0,046	0,040
-372,044	800,000	-0,035	-0,088
-371,029	-198,192	0,134	0,001
-370,015	218,450	-0,071	0,084
-369,000	112,379	-0,104	0,093
-367,985	-136,279	-0,218	0,018
-366,971	-168,199	-0,055	0,002
-365,956	216,138	0,012	-0,014
-364,942	-94,054	0,166	0,033
-363,927	-47,357	0,095	-0,034
-362,912	159,649	0,091	0,093
-361,898	-200,000	-0,035	-0,132
-360,883	155,956	-0,031	0,032
-359,869	84,809	0,030	0,024
-358,854	-200,000	-0,011	-0,084
-357,839	-20,866	0,065	0,029
-356,825	-159,795	-0,058	0,002
-355,810	602,115	-0,021	-0,038
-354,796	81,436	0,109	0,087
-353,781	-17,095	-0,034	0,016
-352,766	-96,474	-0,126	0,024
-351,752	351,110	0,104	-0,152
-350,737	-43,361	0,017	0,006
-349,723	622,643	-0,066	-0,123
-348,708	-200,000	-0,027	0,120
-347,693	209,304	-0,134	-0,154
-346,679	-200,000	0,009	-0,169
-345,664	800,000	0,046	-0,129
-344,650	69,300	0,034	-0,026
-343,635	-19,224	-0,056	-0,025
-342,620	-200,000	-0,007	-0,054
-341,606	288,208	0,088	-0,117
-340,591	47,777	-0,061	0,042
-339,577	-200,000	-0,008	-0,044
-338,562	-200,000	0,001	-0,105
-337,548	488,582	0,023	-0,039
-336,533	-17,020	0,074	-0,034
-335,518	144,483	-0,105	0,103
-334,504	-35,906	0,068	0,027
-333,489	-29,789	0,080	-0,033
-332,475	64,824	0,056	0,042
-331,460	168,289	0,037	0,038
-330,445	-200,000	0,007	0,037
-329,431	245,969	0,040	-0,049
-328,416	-72,076	0,154	-0,042
-327,402	-129,275	-0,128	0,013
-326,387	598,016	0,058	-0,106
-325,372	-200,000	0,038	-0,135
-324,358	-43,012	-0,144	-0,053
-323,343	-200,000	-0,015	0,051
-322,329	622,387	-0,061	0,113
-321,314	-39,837	0,093	0,035
-320,299	16,188	0,022	0,013
-319,285	-53,596	-0,060	-0,020
-318,270	-200,000	-0,002	-0,085
-317,256	-173,331	-0,048	-0,001
-316,241	-200,000	0,004	-0,151
-315,226	-128,482	-0,073	-0,008
-314,212	-61,572	0,245	0,075
-313,197	39,356	0,028	0,019
-312,183	800,000	-0,047	-0,113
-311,168	181,304	0,070	-0,075
-310,153	39,147	-0,093	-0,061
-309,139	391,485	-0,061	-0,092
-308,124	-24,175	-0,053	0,023
-307,110	-115,341	0,110	-0,015
-306,095	180,765	0,134	0,145
-305,080	82,253	-0,021	0,017
-304,066	-118,156	-0,041	-0,005
-303,051	-37,920	-0,067	0,026
-302,037	-200,000	0,019	0,117
-301,022	118,593	0,039	0,035
-300,008	-123,309	0,137	0,016
-298,993	-200,000	-0,033	-0,130
-297,978	-49,722	0,132	-0,046
-296,964	-200,000	-0,002	0,094
-295,949	58,938	-0,060	-0,043
-294,935	250,567	-0,045	0,056
-293,920	56,264	0,082	-0,059
-292,905	187,044	0,019	-0,021
-291,891	-44,096	0,067	0,025
-290,876	-111,832	0,079	-0,012
-289,862	-200,000	-0,026	-0,144
-288,847	-131,761	-0,123	-0,012
-287,832	-144,006	-0,044	-0,003
-286,818	455,367	-0,006	-0,009
-285,803	-85,591	0,025	-0,006
-284,789	22,865	0,171	0,102
-283,774	-58,533	-0,059	0,019
-282,759	800,000	0,075	0,196
-281,745	800,000	-0,055	-0,113
-280,730	-131,735	-0,095	-0,009
-279,716	-146,328	0,068	-0,004
-278,701	-136,327	0,129	0,011
-277,686	486,365	0,118	0,197
-276,672	516,036	0,027	-0,047
-275,657	-200,000	-0,025	-0,087
-274,643	38,876	0,046	-0,030
-273,628	-200,000	-0,010	-0,215
-272,613	320,213	-0,128	-0,179
-271,599	750,860	0,053	0,104
-270,584	219,546	-0,066	0,078
-269,570	-200,000	-0,001	0,039
-268,555	-68,671	0,036	0,010
-267,540	-7,347	-0,093	0,046
-266,526	678,555	-0,058	-0,111
-265,511	-104,260	0,040	-0,007
-264,497	-88,840	-0,128	0,028
-263,482	800,000	0,042	-0,104
-262,467	304,016	-0,073	0,100
-261,453	555,555	-0,044	0,078
-260,438	-200,000	0,011	0,086
-259,424	-200,000	0,007	-0,099
-258,409	-200,000	0,017	-0,157
-257,395	16,217	0,036	-0,020
-256,380	800,000	-0,018	0,048
-255,365	-128,982	0,106	0,011
-254,351	-200,000	0,006	0,031
-253,336	800,000	-0,018	0,040
-252,322	294,064	0,067	-0,090
-251,307	144,290	-0,096	-0,094
-250,292	94,493	-0,065	0,054
-249,278	133,595	-0,027	-0,026
-248,263	52,144	0,072	-0,050
-247,249	-107,402	0,199	-0,032
-246,234	34,896	-0,044	-0,028
-245,219	2,664	-0,070	-0,037
-244,205	-126,802	-0,108	0,011
-243,190	0,557	-0,032	-0,017
-242,176	170,519	0,023	0,024
-241,161	-200,000	-0,003	-0,034
-240,146	-103,120	-0,085	-0,015
-239,132	-174,451	-0,036	-0,001
-238,117	512,245	0,017	-0,028
-237,103	241,384	0,053	-0,065
-236,088	800,000	-0,022	-0,051
-235,073	-83,399	0,161	0,037
-234,059	243,678	-0,080	0,098
-233,044	-172,755	-0,083	0,002
-232,030	-200,000	-0,023	0,084
-231,015	345,832	0,034	0,049
-230,000	-200,000	0,010	0,117
-228,986	800,000	0,054	-0,142
-227,971	43,447	0,076	0,050
-226,957	127,739	0,044	-0,041
-225,942	172,207	0,084	-0,088
-224,927	-200,000	-0,004	0,038
-223,913	27,058	0,011	0,007
-222,898	-119,817	-0,082	-0,010
-221,884	-101,561	0,067	-0,012
-220,869	-200,000	0,008	0,113
-219,855	570,547	-0,037	0,065
-218,840	800,000	-0,020	0,060
-217,825	-200,000	0,005	-0,087
-216,811	54,434	-0,106	-0,074
-215,796	-18,955	-0,069	-0,031
-214,782	-200,000	-0,041	-0,140
-213,767	271,079	0,062	0,079
-212,752	2,366	0,048	-0,025
-211,738	-200,000	0,025	0,113
-210,723	50,191	0,013	0,009
-209,709	-200,000	0,023	0,233
-208,694	-19,106	-0,114	-0,051
-207,679	-120,487	-0,055	-0,007
-206,665	-101,068	-0,057	-0,010
-205,650	-49,052	0,073	0,025
-204,636	181,293	0,078	0,083
-203,621	-200,000	0,002	0,139
-202,606	-21,755	0,039	0,017
-201,592	-36,157	-0,058	-0,023
-200,577	86,081	-0,138	0,110
-199,563	800,000	0,035	0,084
-198,548	337,575	-0,048	0,068
-197,533	-200,000	-0,018	0,089
-196,519	-200,000	-0,040	0,180
-195,504	-79,130	-0,056	-0,014
-194,490	110,526	-0,066	-0,058
-193,475	-82,594	0,090	-0,021
-192,460	800,000	-0,043	0,136
-191,446	235,073	-0,002	-0,003
-190,431	510,851	-0,027	0,045
-189,417	377,456	0,065	0,097
-188,402	798,480	0,030	0,062
-187,387	-200,000	-0,013	0,046
-186,373	-200,000	-0,001	0,032
-185,358	114,427	-0,063	-0,056
-184,344	77,180	-0,063	0,049
-183,329	35,190	0,050	0,032
-182,315	584,876	0,042	0,076
-181,300	159,204	-0,077	0,078
-180,285	419,003	0,041	-0,065
-179,271	800,000	-0,040	0,097
-178,256	800,000	0,037	0,100
-177,242	20,275	0,033	-0,019
-176,227	138,590	0,090	0,086
-175,212	-67,533	0,047	0,013
-174,198	21,000	0,027	0,016
-173,183	227,682	0,087	0,104
-172,169	-50,421	-0,109	0,037
-171,154	800,000	-0,059	-0,127
-170,139	-78,168	0,088	-0,022
-169,125	338,956	0,094	0,134
-168,110	80,437	0,137	0,107
-167,096	720,694	-0,075	0,145
-166,081	134,710	-0,031	-0,029
-165,066	-13,363	-0,037	-0,018
-164,052	-30,870	-0,188	-0,077
-163,037	248,307	-0,068	0,084
-162,023	398,350	0,042	0,065
-161,008	380,986	-0,033	0,049
-159,993	-200,000	-0,006	-0,074
-158,979	-200,000	-0,013	-0,086
-157,964	-200,000	0,005	-0,030
-156,950	-200,000	0,016	0,076
-155,935	648,416	0,072	0,135
-154,920	77,468	0,123	0,095
-153,906	-67,939	-0,117	-0,033
-152,891	-74,187	-0,050	0,013
-151,877	395,900	0,005	0,008
-150,862	58,996	-0,079	-0,057
-149,847	68,901	0,043	-0,032
-148,833	-200,000	0,030	-0,110
-147,818	-4,376	-0,117	-0,059
-146,804	6,138	0,031	0,016
-145,789	-131,503	0,144	0,014
-144,775	-200,000	0,052	0,200
-143,760	22,613	-0,120	-0,071
-142,745	-200,000	0,006	-0,146
-141,731	105,019	0,081	0,070
-140,716	27,780	0,017	-0,010
-139,702	-200,000	0,047	0,231
-138,687	-55,575	-0,035	0,011
-137,672	-58,720	0,212	-0,066
-136,658	-118,009	-0,073	0,009
-135,643	101,732	-0,071	-0,060
-134,629	-33,377	-0,058	-0,023
-133,614	-87,317	0,088	0,019
-132,599	123,966	-0,113	-0,103
-131,585	-122,949	0,083	-0,010
-130,570	93,444	0,074	0,061
-129,556	14,114	-0,116	0,065
-128,541	-5,508	-0,213	-0,106
-127,526	-149,412	0,164	0,009
-126,512	-136,989	0,115	-0,009
-125,497	206,420	0,053	0,060
-124,483	-200,000	0,011	0,204
-123,468	-200,000	-0,002	-0,049
-122,453	-110,268	0,129	-0,019
-121,439	-161,831	-0,111	0,004
-120,424	-200,000	0,003	-0,059
-119,410	314,903	0,045	0,061
-118,395	175,130	0,015	-0,015
