DTS Sentinel unit serial number:	SN410029Multiplexer serial number:	ORYXHardware model number:	OX2-SRSoftware version number:	ORYX F/W v4,00 Oryx Data Collector v3.7.2.0data status	okinstallation	B4 Nyhavnadifferential loss correction	single-endedforward channel	channel 2reverse channel	N/Adate	2023/12/18time	16:40:13forward acquisition time	300,00reverse acquisition time	0,00gamma	499,1914k internal	0,3130k external	0,3130temperature offset calibration	1,0000default loss term (dB/km)	0,3820temperature slope calibration	1,0000multiplexer offset coefficient	1,0000multiplexer slope coefficient	1,0000fibre end	0,00T internal ref (°C)	20,76T ext. ref 1 (°C)	7,71T ext. ref 2 (°C)	7,79length (m)	temperature (°C)	Stokes	anti-Stokes-744,400	-200,000	-0,002	-0,154
-743,385	-78,019	-0,293	-0,075
-742,371	-58,335	-0,050	0,016
-741,356	116,652	-0,127	0,116
-740,342	800,000	0,019	-0,051
-739,327	81,179	-0,279	0,224
-738,312	72,896	0,102	0,079
-737,298	-132,987	-0,203	0,019
-736,283	460,616	0,022	0,036
-735,269	124,266	-0,151	0,141
-734,254	53,561	0,016	0,012
-733,239	-96,278	-0,496	-0,097
-732,225	-66,079	0,158	-0,046
-731,210	-200,000	-0,008	-0,051
-730,196	-79,522	-0,109	0,027
-729,181	-39,268	-0,083	-0,032
-728,167	151,396	0,106	0,108
-727,152	165,183	0,044	-0,046
-726,137	12,470	-0,083	-0,047
-725,123	389,974	-0,047	-0,072
-724,108	-200,000	-0,019	-0,093
-723,094	-19,019	-0,152	0,070
-722,079	-34,670	-0,107	0,043
-721,064	-200,000	0,013	-0,117
-720,050	-200,000	-0,007	0,047
-719,035	-16,299	0,086	-0,040
-718,021	-200,000	0,002	0,011
-717,006	-83,279	-0,140	0,033
-715,991	312,501	0,113	-0,157
-714,977	-153,056	-0,176	0,009
-713,962	-129,514	0,086	-0,009
-712,948	-200,000	-0,007	0,035
-711,933	800,000	-0,071	-0,177
-710,918	0,786	0,040	0,021
-709,904	-200,000	-0,024	-0,132
-708,889	800,000	-0,060	-0,162
-707,875	-99,965	-0,131	-0,024
-706,860	-80,204	-0,047	-0,012
-705,845	514,596	0,048	0,083
-704,831	752,798	-0,048	0,096
-703,816	-200,000	-0,012	-0,046
-702,802	173,809	-0,119	-0,128
-701,787	579,276	-0,005	0,010
-700,772	146,339	-0,083	-0,082
-699,758	800,000	-0,011	-0,035
-698,743	-200,000	0,039	0,156
-697,729	71,332	0,089	0,069
-696,714	-200,000	-0,009	0,189
-695,699	478,499	-0,023	-0,039
-694,685	124,384	-0,031	-0,029
-693,670	-79,914	-0,090	0,022
-692,656	-22,668	0,111	-0,049
-691,641	768,627	0,016	-0,032
-690,627	-127,707	-0,043	-0,005
-689,612	-26,548	-0,124	0,054
-688,597	213,678	0,076	0,090
-687,583	395,416	-0,118	-0,183
-686,568	-142,069	-0,097	0,007
-685,554	-200,000	0,004	-0,056
-684,539	88,593	0,064	-0,052
-683,524	117,988	0,026	0,023
-682,510	800,000	0,023	-0,070
-681,495	-67,279	0,064	-0,018
-680,481	153,034	-0,049	-0,050
-679,466	800,000	0,009	-0,020
-678,451	162,230	0,057	-0,059
-677,437	-200,000	0,016	-0,110
-676,422	-99,379	0,131	-0,024
-675,408	-200,000	0,002	0,024
-674,393	-200,000	-0,001	0,114
-673,378	5,332	0,169	-0,092
-672,364	-200,000	0,037	-0,233
-671,349	-86,425	0,133	0,030
-670,335	-200,000	-0,004	0,047
-669,320	-200,000	0,014	0,095
-668,305	-166,990	0,049	-0,001
-667,291	537,698	-0,025	-0,045
-666,276	-200,000	-0,035	-0,148
-665,262	175,417	-0,052	-0,055
-664,247	800,000	0,012	-0,028
-663,232	-32,253	0,043	-0,018
-662,218	-24,793	0,047	0,021
-661,203	692,382	0,022	-0,042
-660,189	-200,000	0,044	0,187
-659,174	34,762	-0,060	0,039
-658,159	-60,672	-0,060	-0,019
-657,145	800,000	-0,047	-0,135
-656,130	-200,000	0,009	0,053
-655,116	-5,838	-0,112	-0,057
-654,101	594,662	-0,065	0,119
-653,086	800,000	0,011	-0,037
-652,072	-200,000	-0,008	-0,142
-651,057	-200,000	0,017	-0,088
-650,043	-29,978	-0,135	-0,057
-649,028	36,502	0,060	-0,039
-648,014	800,000	0,012	-0,027
-646,999	-200,000	0,013	-0,218
-645,984	-71,003	0,090	0,025
-644,970	-44,691	-0,117	-0,043
-643,955	598,912	-0,076	0,141
-642,941	-200,000	-0,010	-0,119
-641,926	45,907	0,088	0,060
-640,911	184,582	0,041	0,045
-639,897	-110,054	-0,038	0,006
-638,882	92,802	-0,040	-0,033
-637,868	800,000	-0,031	-0,094
-636,853	-200,000	-0,003	-0,080
-635,838	28,137	-0,189	-0,118
-634,824	-200,000	0,009	-0,129
-633,809	800,000	-0,009	-0,023
-632,795	-200,000	0,014	-0,108
-631,780	765,285	0,029	-0,058
-630,765	800,000	0,025	-0,056
-629,751	-69,815	-0,136	-0,038
-628,736	257,884	0,058	-0,074
-627,722	-200,000	0,001	-0,044
-626,707	-137,291	-0,117	-0,010
-625,692	800,000	0,021	-0,051
-624,678	-67,285	-0,052	-0,015
-623,663	-200,000	0,035	0,135
-622,649	178,152	0,045	-0,049
-621,634	-126,025	0,117	-0,013
-620,619	-146,825	0,028	0,002
-619,605	-112,763	-0,084	0,012
-618,590	-200,000	0,004	0,032
-617,576	-200,000	0,021	0,130
-616,561	-41,117	-0,176	0,067
-615,546	-63,142	0,108	0,033
-614,532	447,238	0,024	0,039
-613,517	661,200	0,056	-0,108
-612,503	800,000	-0,008	0,025
-611,488	-200,000	0,000	0,070
-610,474	800,000	0,020	0,051
-609,459	-162,160	0,129	-0,005
-608,444	108,089	-0,154	-0,135
-607,430	45,019	-0,079	0,054
-606,415	499,094	-0,025	0,043
-605,401	-200,000	0,041	-0,139
-604,386	-43,585	0,031	-0,011
-603,371	-126,065	-0,032	0,004
-602,357	3,146	0,141	0,076
-601,342	-200,000	0,030	0,125
-600,328	102,930	-0,114	-0,099
-599,313	-200,000	0,001	0,088
-598,298	-82,477	-0,020	-0,005
-597,284	-18,581	-0,095	-0,044
-596,269	-200,000	-0,009	-0,076
-595,255	82,494	-0,174	0,139
-594,240	27,656	0,116	-0,072
-593,225	-118,312	-0,171	-0,022
-592,211	225,150	0,030	-0,036
-591,196	-84,830	0,065	-0,015
-590,182	800,000	-0,012	0,026
-589,167	-200,000	-0,008	0,085
-588,152	349,048	-0,079	0,116
-587,138	-200,000	0,025	0,161
-586,123	-200,000	0,011	0,048
-585,109	-200,000	0,021	0,079
-584,094	31,889	0,030	0,019
-583,079	107,766	-0,040	-0,035
-582,065	-20,199	0,099	-0,045
-581,050	633,363	0,034	-0,064
-580,036	-19,316	-0,053	0,024
-579,021	-94,514	-0,111	-0,022
-578,006	800,000	0,050	-0,135
-576,992	17,007	-0,178	-0,104
-575,977	73,034	0,020	-0,015
-574,963	-200,000	-0,023	-0,085
-573,948	576,521	-0,061	0,110
-572,934	-200,000	0,001	0,036
-571,919	199,349	-0,036	-0,041
-570,904	173,091	0,057	-0,060
-569,890	178,046	-0,026	-0,028
-568,875	800,000	0,028	-0,071
-567,861	10,783	0,137	0,077
-566,846	-200,000	0,026	-0,121
-565,831	392,488	-0,057	-0,088
-564,817	-81,384	-0,053	0,013
-563,802	-200,000	-0,006	-0,167
-562,788	427,802	-0,037	0,060
-561,773	8,502	-0,053	0,029
-560,758	-200,000	-0,035	0,130
-559,744	-90,600	0,122	0,026
-558,729	800,000	0,018	-0,046
-557,715	-200,000	0,005	0,070
-556,700	-20,866	-0,033	0,015
-555,685	-200,000	0,007	0,028
-554,671	570,140	0,024	-0,044
-553,656	22,115	0,046	-0,028
-552,642	1,908	0,060	0,032
-551,627	-56,037	-0,083	0,027
-550,612	800,000	0,040	-0,102
-549,598	78,722	-0,143	0,113
-548,583	21,298	-0,059	-0,035
-547,569	433,890	-0,038	0,061
-546,554	15,472	-0,028	0,016
-545,539	256,147	0,117	0,148
-544,525	-91,019	0,076	0,016
-543,510	-31,348	0,087	0,036
-542,496	372,346	0,022	-0,033
-541,481	-200,000	-0,008	0,101
-540,466	-106,471	0,092	-0,015
-539,452	31,632	-0,131	0,083
-538,437	-200,000	0,003	0,061
-537,423	315,521	0,047	-0,065
-536,408	102,558	0,033	-0,029
-535,393	-200,000	-0,047	0,169
-534,379	-152,554	-0,257	-0,013
-533,364	-22,402	0,055	0,024
-532,350	255,953	0,076	0,096
-531,335	299,826	0,048	0,065
-530,321	800,000	0,025	-0,053
-529,306	-91,493	-0,083	0,017
-528,291	479,376	0,076	-0,128
-527,277	-91,562	-0,101	0,021
-526,262	64,436	-0,117	0,087
-525,248	217,369	-0,032	0,037
-524,233	800,000	-0,056	0,122
-523,218	50,829	0,099	-0,069
-522,204	-200,000	-0,003	0,152
-521,189	-157,749	-0,007	-0,000
-520,175	271,677	-0,034	-0,044
-519,160	-31,822	-0,060	-0,025
-518,145	-200,000	0,016	-0,074
-517,131	22,961	0,037	-0,022
-516,116	-71,047	0,041	-0,011
-515,102	-76,994	0,111	0,028
-514,087	-200,000	0,017	0,063
-513,072	72,719	-0,118	-0,091
-512,058	91,183	0,089	-0,073
-511,043	-168,791	0,084	0,002
-510,029	650,807	0,015	-0,028
-509,014	800,000	0,016	-0,043
-507,999	800,000	-0,047	-0,120
-506,985	14,121	-0,067	0,038
-505,970	-52,736	0,219	0,074
-504,956	-200,000	0,007	-0,045
-503,941	144,498	-0,077	-0,076
-502,926	-200,000	0,021	-0,127
-501,912	800,000	0,060	0,141
-500,897	-183,929	0,069	-0,001
-499,883	43,695	-0,052	0,035
-498,868	-37,683	-0,096	-0,038
-497,853	-78,802	0,096	0,024
-496,839	28,392	0,032	-0,020
-495,824	73,958	0,053	0,041
-494,810	218,688	0,105	0,124
-493,795	-46,274	0,063	0,023
-492,781	-126,953	-0,094	-0,010
-491,766	-200,000	0,010	-0,067
-490,751	-200,000	0,032	-0,172
-489,737	194,042	0,109	0,121
-488,722	800,000	0,008	0,024
-487,708	146,530	0,182	0,180
-486,693	265,224	-0,034	0,044
-485,678	149,291	0,091	0,091
-484,664	800,000	-0,044	-0,140
-483,649	62,797	-0,084	-0,062
-482,635	-49,450	-0,098	-0,034
-481,620	19,178	0,037	0,022
-480,605	-83,165	-0,165	0,039
-479,591	-200,000	-0,019	0,138
-478,576	109,358	0,105	-0,092
-477,562	-139,608	0,040	0,003
-476,547	-3,690	-0,061	-0,031
-475,532	202,770	0,122	-0,139
-474,518	300,001	0,066	0,090
-473,503	83,163	-0,066	0,053
-472,489	800,000	-0,028	0,058
-471,474	-19,580	-0,012	-0,006
-470,459	4,379	-0,049	0,026
-469,445	252,074	-0,119	-0,150
-468,430	330,648	0,163	-0,231
-467,416	800,000	-0,034	-0,090
-466,401	16,285	0,049	-0,028
-465,386	800,000	0,028	-0,090
-464,372	-18,706	0,116	0,053
-463,357	328,610	-0,045	0,064
-462,343	208,642	0,018	-0,021
-461,328	-107,251	0,167	-0,027
-460,313	12,517	0,020	0,012
-459,299	390,778	0,039	0,060
-458,284	589,801	0,030	0,055
-457,270	-141,356	-0,041	0,003
-456,255	-200,000	0,006	0,081
-455,241	439,918	-0,044	0,071
-454,226	235,782	-0,038	-0,046
-453,211	-35,158	0,073	-0,029
-452,197	800,000	-0,021	-0,055
-451,182	-37,647	-0,054	0,021
-450,168	-200,000	0,015	0,081
-449,153	-126,873	0,036	0,004
-448,138	-200,000	-0,017	-0,095
-447,124	552,665	-0,017	-0,030
-446,109	-30,727	0,071	-0,029
-445,095	800,000	-0,015	0,042
-444,080	800,000	-0,040	0,105
-443,065	304,243	-0,023	0,031
-442,051	166,952	-0,123	-0,129
-441,036	1,952	0,005	0,002
-440,022	-28,324	0,103	0,044
-439,007	-23,788	-0,099	-0,043
-437,992	800,000	-0,024	0,052
-436,978	-58,013	0,084	0,027
-435,963	-96,639	0,051	-0,010
-434,949	-63,204	-0,119	0,036
-433,934	151,061	-0,092	-0,092
-432,919	193,111	-0,048	0,054
-431,905	316,329	0,084	0,116
-430,890	48,741	0,049	0,034
-429,876	-128,415	0,032	-0,003
-428,861	-200,000	-0,021	0,109
-427,846	-200,000	-0,002	-0,010
-426,832	-200,000	-0,006	-0,073
-425,817	-200,000	0,000	-0,081
-424,803	800,000	0,029	-0,060
-423,788	-200,000	0,009	0,082
-422,773	-200,000	0,026	0,113
-421,759	0,610	0,066	0,035
-420,744	212,170	-0,058	0,068
-419,730	-200,000	-0,016	0,097
-418,715	122,529	-0,096	-0,089
-417,701	800,000	0,060	-0,126
-416,686	194,670	0,032	-0,036
-415,671	-200,000	-0,042	0,185
-414,657	126,533	0,076	0,070
-413,642	95,998	0,104	0,087
-412,628	-99,479	0,039	-0,007
-411,613	800,000	-0,026	-0,075
-410,598	171,765	-0,051	-0,053
-409,584	-17,417	-0,021	0,010
-408,569	-108,242	0,068	-0,011
-407,555	-200,000	0,007	-0,022
-406,540	314,115	0,027	-0,038
-405,525	800,000	-0,022	-0,050
-404,511	-88,584	-0,164	-0,036
-403,496	83,266	0,073	-0,058
-402,482	800,000	0,028	0,070
-401,467	-71,507	0,105	0,029
-400,452	71,995	0,113	0,086
-399,438	800,000	-0,066	-0,147
-398,423	438,507	0,088	-0,142
-397,409	-200,000	0,011	-0,147
-396,394	100,364	-0,099	-0,085
-395,379	-200,000	0,013	0,074
-394,365	19,947	0,061	-0,036
-393,350	264,165	-0,090	0,115
-392,336	-200,000	-0,023	0,168
-391,321	-200,000	0,000	-0,059
-390,306	800,000	-0,015	-0,040
-389,292	234,033	-0,094	-0,114
-388,277	-200,000	0,003	0,042
-387,263	41,336	0,092	-0,061
-386,248	-62,135	-0,035	0,011
-385,233	800,000	0,011	0,027
-384,219	800,000	-0,042	0,102
-383,204	-81,591	-0,088	-0,021
-382,190	559,095	-0,040	-0,071
-381,175	54,991	0,056	-0,040
-380,160	723,273	-0,052	-0,101
-379,146	800,000	-0,058	0,165
-378,131	-200,000	-0,046	0,181
-377,117	-120,355	0,129	-0,016
-376,102	83,080	0,073	0,058
-375,088	-88,357	-0,140	-0,030
-374,073	5,265	0,103	0,056
-373,058	-147,700	0,043	0,003
-372,044	800,000	0,033	0,095
-371,029	77,329	0,115	0,090
-370,015	-200,000	0,050	0,169
-369,000	-11,995	0,026	-0,012
-367,985	538,582	-0,060	-0,106
-366,971	-200,000	0,000	-0,040
-365,956	-29,513	0,032	0,013
-364,942	-72,697	0,139	0,037
-363,927	82,774	0,059	0,047
-362,912	800,000	0,018	-0,054
-361,898	192,164	0,076	0,084
-360,883	-200,000	-0,004	-0,116
-359,869	-159,289	-0,143	0,006
-358,854	-200,000	0,020	0,099
-357,839	-122,471	-0,076	0,009
-356,825	800,000	-0,023	0,052
-355,810	342,422	-0,097	-0,140
-354,796	669,095	0,038	-0,072
-353,781	-36,069	-0,055	-0,022
-352,766	800,000	0,031	-0,092
-351,752	376,804	-0,131	0,197
-350,737	274,186	0,031	0,041
-349,723	16,848	0,066	-0,038
-348,708	-200,000	0,037	0,209
-347,693	-200,000	-0,022	-0,135
-346,679	180,586	-0,070	-0,075
-345,664	292,530	0,032	-0,043
-344,650	470,741	0,053	-0,087
-343,635	-200,000	-0,010	-0,054
-342,620	800,000	0,039	-0,100
-341,606	45,524	0,049	0,033
-340,591	84,550	-0,024	-0,019
-339,577	-89,906	-0,064	-0,014
-338,562	-200,000	-0,017	-0,109
-337,548	-38,978	0,155	-0,060
-336,533	-60,821	0,041	-0,012
-335,518	10,327	-0,068	-0,038
-334,504	-32,217	0,126	0,051
-333,489	-110,090	0,051	-0,008
-332,475	-67,248	-0,074	-0,021
-331,460	222,884	-0,025	-0,030
-330,445	590,350	0,083	0,151
-329,431	63,142	-0,054	0,040
-328,416	-35,387	-0,054	0,021
-327,402	339,482	0,084	-0,121
-326,387	-44,186	-0,144	0,053
-325,372	212,313	0,076	0,087
-324,358	23,667	-0,123	-0,074
-323,343	412,491	0,054	-0,083
-322,329	-200,000	0,025	0,107
-321,314	419,875	0,047	0,074
-320,299	-20,150	0,103	0,046
-319,285	800,000	-0,033	0,069
-318,270	-200,000	0,005	-0,096
-317,256	800,000	-0,057	-0,140
-316,241	34,044	0,087	-0,055
-315,226	-108,525	-0,133	-0,021
-314,212	-97,869	0,139	-0,026
-313,197	130,667	-0,123	0,116
-312,183	481,995	0,036	0,061
-311,168	-200,000	-0,009	-0,047
-310,153	-107,512	-0,139	0,022
-309,139	-200,000	0,028	-0,101
-308,124	398,371	-0,031	0,048
-307,110	180,150	0,069	-0,074
-306,095	21,150	0,086	0,051
-305,080	-71,341	0,058	0,016
-304,066	-78,171	-0,092	-0,023
-303,051	800,000	-0,009	-0,019
-302,037	208,454	-0,084	-0,096
-301,022	800,000	0,046	-0,114
-300,008	-121,099	0,166	-0,020
-298,993	-2,555	0,045	0,023
-297,978	-200,000	0,016	0,154
-296,964	85,487	-0,153	-0,123
-295,949	800,000	-0,043	-0,103
-294,935	800,000	-0,040	0,094
-293,920	-145,270	-0,163	0,011
-292,905	592,332	0,033	0,059
-291,891	-122,132	-0,067	0,008
-290,876	532,137	0,038	0,067
-289,862	-107,382	0,049	-0,008
-288,847	800,000	-0,062	-0,128
-287,832	-200,000	0,001	-0,082
-286,818	229,192	0,125	0,149
-285,803	-105,906	0,078	-0,013
-284,789	199,447	0,142	0,160
-283,774	-200,000	0,009	-0,137
-282,759	122,854	0,027	-0,025
-281,745	480,999	0,042	-0,070
-280,730	-74,515	-0,160	-0,042
-279,716	166,585	0,071	-0,074
-278,701	-139,742	0,128	0,010
-277,686	303,768	-0,103	0,140
-276,672	417,570	0,026	0,041
-275,657	-200,000	-0,019	0,000
-274,643	36,222	-0,067	-0,043
-273,628	800,000	0,005	0,015
-272,613	429,176	0,063	-0,099
-271,599	-58,152	0,058	0,018
-270,584	-48,321	-0,021	0,007
-269,570	-156,089	0,064	-0,003
-268,555	-15,138	0,112	-0,052
-267,540	73,894	0,098	-0,075
-266,526	800,000	-0,055	-0,160
-265,511	-200,000	-0,020	0,066
-264,497	63,860	-0,130	-0,095
-263,482	192,538	0,105	0,116
-262,467	-141,860	0,071	-0,005
-261,453	440,448	-0,075	0,121
-260,438	99,830	0,033	0,028
-259,424	800,000	0,020	-0,063
-258,409	-106,981	0,040	0,006
-257,395	-200,000	0,006	0,065
-256,380	800,000	-0,012	0,036
-255,365	145,116	-0,027	-0,026
-254,351	359,318	-0,044	-0,065
-253,336	-45,133	-0,096	0,035
-252,322	97,617	-0,073	-0,061
-251,307	-58,050	-0,054	0,017
-250,292	69,384	0,047	-0,035
-249,278	242,237	-0,103	0,125
-248,263	800,000	-0,019	-0,052
-247,249	203,814	0,037	-0,042
-246,234	93,004	-0,081	-0,067
-245,219	-200,000	0,000	0,045
-244,205	78,491	-0,062	0,049
-243,190	36,743	0,165	0,106
-242,176	800,000	-0,040	0,120
-241,161	-68,950	-0,065	0,018
-240,146	800,000	-0,033	-0,094
-239,132	-95,659	0,082	-0,016
-238,117	-200,000	-0,006	-0,073
-237,103	435,736	0,010	0,016
-236,088	-200,000	-0,005	0,111
-235,073	262,423	-0,069	0,087
-234,059	-166,827	0,130	-0,004
-233,044	171,301	-0,110	0,115
-232,030	800,000	-0,002	0,006
-231,015	-52,697	-0,113	0,038
-230,000	-62,761	-0,106	-0,032
-228,986	47,801	-0,098	-0,067
-227,971	-55,071	0,030	0,010
-226,957	-96,521	0,081	0,015
-225,942	-84,981	-0,122	0,028
-224,927	-200,000	0,017	0,074
-223,913	33,167	0,092	-0,058
-222,898	-200,000	0,020	-0,112
-221,884	-200,000	0,024	-0,102
-220,869	-200,000	-0,003	0,083
-219,855	19,627	0,125	0,073
-218,840	-114,317	-0,045	-0,006
-217,825	-200,000	-0,014	-0,057
-216,811	-19,681	-0,071	-0,032
-215,796	71,678	-0,040	0,030
-214,782	-167,053	-0,157	0,005
-213,767	-200,000	-0,002	-0,055
-212,752	75,659	-0,099	-0,076
-211,738	800,000	0,039	0,107
-210,723	-200,000	0,014	0,097
-209,709	800,000	-0,026	0,065
-208,694	77,796	0,058	0,045
-207,679	-26,370	-0,062	0,027
-206,665	-70,767	0,022	0,006
-205,650	-200,000	0,017	-0,067
-204,636	-200,000	-0,007	0,123
-203,621	790,728	-0,020	0,040
-202,606	-14,202	0,034	0,016
-201,592	800,000	0,066	-0,175
-200,577	282,376	-0,099	-0,130
-199,563	746,528	0,041	-0,081
-198,548	446,289	0,032	0,051
-197,533	353,756	0,038	-0,056
-196,519	253,112	-0,031	0,039
-195,504	65,884	-0,099	-0,073
-194,490	-200,000	-0,003	-0,131
-193,475	-200,000	-0,038	0,000
-192,460	800,000	0,028	0,068
-191,446	-200,000	-0,030	0,119
-190,431	-200,000	-0,003	-0,059
-189,417	-51,360	-0,052	0,018
-188,402	40,131	-0,076	-0,050
-187,387	-200,000	0,017	-0,067
-186,373	-168,642	-0,077	0,002
-185,358	503,903	-0,025	0,042
-184,344	48,655	0,086	0,058
-183,329	299,887	0,083	-0,111
-182,315	86,082	0,035	0,028
-181,300	-200,000	-0,018	-0,060
-180,285	28,310	-0,063	-0,039
-179,271	-200,000	-0,009	-0,030
-178,256	-55,045	0,026	-0,009
-177,242	800,000	0,049	0,156
-176,227	609,188	0,069	0,126
-175,212	-200,000	-0,012	0,111
-174,198	85,423	0,052	0,041
-173,183	-19,616	-0,031	0,014
-172,169	-27,242	-0,008	-0,003
-171,154	-147,044	-0,043	0,003
-170,139	800,000	-0,008	-0,021
-169,125	-91,889	-0,037	-0,008
-168,110	-200,000	-0,013	0,150
-167,096	-200,000	-0,012	0,041
-166,081	-88,902	-0,122	0,026
-165,066	376,225	-0,062	-0,092
-164,052	253,427	-0,041	0,051
-163,037	180,709	0,042	-0,045
-162,023	-200,000	0,001	0,090
-161,008	-200,000	-0,007	0,077
-159,993	-26,852	0,096	0,041
-158,979	22,321	-0,088	-0,052
-157,964	737,435	-0,026	-0,052
-156,950	-35,959	0,160	-0,063
-155,935	-200,000	0,008	-0,093
-154,920	338,988	0,062	0,088
-153,906	800,000	-0,020	0,042
-152,891	166,439	0,041	-0,042
-151,877	8,431	0,039	0,022
-150,862	330,648	-0,023	-0,032
-149,847	123,425	-0,062	0,057
-148,833	800,000	0,038	-0,089
-147,818	52,212	0,147	0,101
-146,804	98,767	0,020	-0,017
-145,789	354,964	0,052	-0,075
-144,775	300,167	0,037	-0,050
-143,760	-133,486	0,093	-0,008
-142,745	52,719	-0,060	-0,042
-141,731	-120,025	-0,036	-0,004
-140,716	-138,889	0,095	0,007
-139,702	800,000	0,042	-0,086
-138,687	32,984	-0,016	0,010
-137,672	-200,000	0,018	-0,073
-136,658	556,628	0,015	0,027
-135,643	229,436	-0,064	-0,076
-134,629	443,661	-0,054	-0,087
-133,614	800,000	0,064	-0,156
-132,599	-38,261	0,098	0,038
-131,585	105,775	0,048	0,041
-130,570	800,000	-0,019	0,057
-129,556	48,870	-0,110	-0,075
-128,541	-9,630	0,067	-0,032
-127,526	679,071	0,012	-0,023
-126,512	-140,121	-0,064	-0,005
-125,497	-133,249	0,084	-0,008
-124,483	-200,000	0,004	0,118
-123,468	439,289	-0,015	0,024
-122,453	106,638	0,059	-0,050
-121,439	19,999	-0,055	-0,032
-120,424	800,000	-0,043	-0,092
-119,410	-26,994	0,173	0,073
-118,395	71,482	-0,071	-0,053
