DTS Sentinel unit serial number:	SN410029Multiplexer serial number:	ORYXHardware model number:	OX2-SRSoftware version number:	ORYX F/W v4,00 Oryx Data Collector v3.7.2.0data status	okinstallation	B4 Nyhavnadifferential loss correction	single-endedforward channel	channel 2reverse channel	N/Adate	2023/12/16time	11:35:13forward acquisition time	300,00reverse acquisition time	0,00gamma	499,1914k internal	0,3125k external	0,3125temperature offset calibration	1,0000default loss term (dB/km)	0,3820temperature slope calibration	1,0000multiplexer offset coefficient	1,0000multiplexer slope coefficient	1,0000fibre end	0,00T internal ref (°C)	23,77T ext. ref 1 (°C)	9,60T ext. ref 2 (°C)	9,79length (m)	temperature (°C)	Stokes	anti-Stokes-744,400	800,000	0,072	-0,191
-743,385	-162,048	-0,312	0,011
-742,371	-200,000	-0,003	-0,023
-741,356	-16,122	-0,189	0,089
-740,342	-156,674	0,096	0,004
-739,327	-109,344	-0,357	0,056
-738,312	3,605	-0,056	-0,030
-737,298	-154,023	-0,114	-0,006
-736,283	462,998	0,052	-0,087
-735,269	-29,211	-0,209	0,089
-734,254	53,440	0,099	-0,070
-733,239	-30,108	-0,205	0,086
-732,225	-31,148	0,149	0,062
-731,210	-200,000	0,057	0,000
-730,196	-174,829	-0,065	0,001
-729,181	-41,406	-0,123	-0,047
-728,167	81,304	-0,083	-0,067
-727,152	147,287	-0,168	0,168
-726,137	4,395	-0,118	-0,064
-725,123	-19,128	-0,116	-0,053
-724,108	187,428	-0,017	-0,019
-723,094	85,202	0,066	0,054
-722,079	800,000	-0,027	0,065
-721,064	-128,507	0,071	-0,007
-720,050	-200,000	-0,001	-0,029
-719,035	-200,000	-0,009	0,096
-718,021	449,668	0,005	-0,008
-717,006	45,000	-0,078	-0,054
-715,991	800,000	-0,046	-0,138
-714,977	-29,347	0,039	0,016
-713,962	-36,282	-0,051	0,020
-712,948	-8,967	-0,087	0,043
-711,933	-172,728	0,070	-0,002
-710,918	-200,000	-0,001	0,031
-709,904	800,000	-0,037	0,107
-708,889	800,000	0,041	-0,128
-707,875	-200,000	0,003	-0,134
-706,860	56,051	-0,073	0,052
-705,845	188,839	-0,023	0,025
-704,831	-139,113	-0,032	-0,003
-703,816	16,836	-0,061	-0,036
-702,802	237,312	-0,096	-0,118
-701,787	-200,000	0,016	-0,079
-700,772	-47,810	-0,025	-0,009
-699,758	-134,824	-0,048	-0,004
-698,743	163,541	-0,046	-0,048
-697,729	108,816	0,074	0,066
-696,714	242,426	0,078	0,097
-695,699	377,124	0,050	0,076
-694,685	-200,000	-0,018	0,080
-693,670	-59,413	-0,163	-0,052
-692,656	54,271	0,138	-0,099
-691,641	-177,332	0,189	0,003
-690,627	169,244	0,100	0,106
-689,612	210,445	0,026	0,030
-688,597	237,459	-0,119	-0,146
-687,583	602,995	0,107	-0,199
-686,568	-166,622	0,061	0,002
-685,554	222,920	-0,102	-0,122
-684,539	32,248	-0,102	-0,066
-683,524	188,672	0,037	-0,041
-682,510	-117,782	-0,059	0,008
-681,495	-16,119	-0,127	0,060
-680,481	251,657	0,051	-0,065
-679,466	-200,000	-0,008	-0,056
-678,451	-200,000	0,014	-0,050
-677,437	188,647	0,037	-0,041
-676,422	239,906	0,051	-0,063
-675,408	-200,000	0,002	-0,041
-674,393	-71,095	-0,065	-0,018
-673,378	377,343	-0,029	-0,044
-672,364	-200,000	-0,002	-0,030
-671,349	265,199	-0,026	-0,033
-670,335	-121,269	0,079	0,010
-669,320	-200,000	0,003	-0,026
-668,305	800,000	-0,043	0,124
-667,291	-200,000	-0,029	-0,136
-666,276	693,133	-0,003	-0,006
-665,262	213,756	0,026	-0,030
-664,247	-200,000	-0,004	0,056
-663,232	252,472	-0,069	-0,088
-662,218	-163,368	-0,049	-0,002
-661,203	-200,000	0,036	0,146
-660,189	-200,000	0,013	-0,061
-659,174	800,000	-0,014	-0,039
-658,159	207,755	-0,040	0,047
-657,145	174,736	-0,071	-0,076
-656,130	336,346	-0,050	0,072
-655,116	-36,990	0,043	0,017
-654,101	194,350	0,148	0,167
-653,086	-200,000	-0,005	0,106
-652,072	153,033	-0,087	-0,088
-651,057	800,000	0,027	-0,056
-650,043	-200,000	0,006	0,116
-649,028	205,336	0,020	0,023
-648,014	101,688	0,105	0,091
-646,999	800,000	-0,067	0,182
-645,984	463,205	0,027	0,044
-644,970	104,949	0,051	0,045
-643,955	-124,407	-0,095	-0,011
-642,941	-7,871	0,032	-0,016
-641,926	800,000	-0,041	-0,106
-640,911	77,625	0,088	-0,070
-639,897	52,481	0,097	0,069
-638,882	-142,508	-0,055	-0,004
-637,868	469,558	-0,046	0,077
-636,853	-200,000	-0,007	-0,143
-635,838	800,000	0,032	-0,101
-634,824	136,018	-0,080	-0,077
-633,809	-200,000	-0,002	0,021
-632,795	-11,178	-0,054	-0,026
-631,780	-21,813	-0,058	-0,026
-630,765	-143,399	0,146	-0,010
-629,751	-27,213	0,101	0,043
-628,736	138,439	-0,047	-0,046
-627,722	28,893	0,018	0,011
-626,707	121,318	-0,063	-0,058
-625,692	623,511	-0,032	-0,059
-624,678	800,000	-0,027	-0,082
-623,663	-101,089	-0,163	-0,029
-622,649	-121,858	-0,053	0,006
-621,634	800,000	-0,063	0,139
-620,619	-200,000	0,001	-0,114
-619,605	-114,238	0,063	-0,009
-618,590	-72,087	-0,098	0,027
-617,576	-48,298	0,152	-0,054
-616,561	-200,000	0,010	-0,106
-615,546	-54,815	0,087	-0,029
-614,532	-200,000	0,004	-0,094
-613,517	172,715	-0,012	-0,013
-612,503	-124,963	-0,044	0,005
-611,488	-26,840	-0,055	-0,024
-610,474	115,666	-0,095	0,086
-609,459	746,598	-0,035	-0,070
-608,444	-91,145	0,054	0,011
-607,430	389,474	-0,049	0,075
-606,415	65,364	-0,099	-0,074
-605,401	800,000	0,028	0,058
-604,386	-200,000	0,004	0,141
-603,371	-200,000	-0,095	0,000
-602,357	-200,000	-0,013	0,090
-601,342	624,868	-0,044	0,083
-600,328	60,315	0,105	-0,077
-599,313	-200,000	-0,017	0,079
-598,298	-1,567	0,174	0,090
-597,284	-110,457	0,090	0,014
-596,269	-200,000	0,025	-0,096
-595,255	244,795	0,053	0,067
-594,240	-111,344	-0,065	0,010
-593,225	262,932	-0,096	-0,124
-592,211	162,060	-0,021	-0,022
-591,196	57,630	-0,042	0,030
-590,182	-200,000	-0,003	0,032
-589,167	42,994	0,069	-0,047
-588,152	353,586	-0,083	-0,123
-587,138	-170,253	-0,058	-0,001
-586,123	91,079	0,015	0,012
-585,109	-105,679	0,063	0,010
-584,094	-200,000	-0,035	0,127
-583,079	183,745	0,057	-0,062
-582,065	-200,000	0,031	-0,120
-581,050	800,000	-0,038	-0,083
-580,036	-200,000	-0,016	-0,054
-579,021	800,000	-0,022	0,062
-578,006	37,637	-0,060	-0,039
-576,992	-32,550	-0,158	-0,065
-575,977	89,599	-0,102	0,084
-574,963	312,523	0,009	0,013
-573,948	222,669	-0,035	0,042
-572,934	-51,092	-0,183	0,063
-571,919	-142,706	-0,099	0,007
-570,904	322,946	-0,032	0,046
-569,890	800,000	-0,006	-0,014
-568,875	-100,638	0,102	0,018
-567,861	350,206	0,020	0,029
-566,846	-50,353	0,039	-0,013
-565,831	54,274	-0,055	0,039
-564,817	-55,537	-0,106	0,035
-563,802	-22,167	0,054	0,024
-562,788	80,331	0,054	0,043
-561,773	-200,000	0,007	0,041
-560,758	35,368	-0,124	-0,080
-559,744	800,000	0,017	-0,049
-558,729	-46,472	0,089	-0,032
-557,715	-119,716	-0,017	0,002
-556,700	-200,000	0,008	-0,039
-555,685	-200,000	-0,052	-0,218
-554,671	218,405	-0,078	-0,093
-553,656	-102,944	0,070	0,012
-552,642	198,638	0,049	-0,056
-551,627	58,082	-0,115	-0,083
-550,612	800,000	0,078	-0,166
-549,598	-26,647	-0,071	-0,031
-548,583	-200,000	0,027	-0,099
-547,569	420,732	0,092	0,146
-546,554	312,660	0,022	-0,031
-545,539	47,387	0,031	-0,021
-544,525	192,650	0,035	0,039
-543,510	90,779	-0,025	-0,020
-542,496	-90,347	0,097	-0,021
-541,481	-200,000	-0,024	-0,157
-540,466	-120,403	-0,051	-0,006
-539,452	64,128	-0,033	0,025
-538,437	-7,943	0,059	0,030
-537,423	800,000	-0,030	-0,071
-536,408	744,243	-0,034	0,068
-535,393	-200,000	0,003	0,157
-534,379	-200,000	-0,004	-0,073
-533,364	-200,000	0,013	0,047
-532,350	-92,824	0,153	-0,031
-531,335	800,000	0,038	-0,100
-530,321	800,000	-0,030	-0,062
-529,306	-200,000	0,010	-0,037
-528,291	-200,000	0,033	-0,146
-527,277	800,000	0,027	-0,056
-526,262	-200,000	0,038	-0,139
-525,248	407,243	-0,058	0,090
-524,233	724,164	-0,046	0,091
-523,218	540,160	0,080	0,141
-522,204	-41,308	0,104	-0,039
-521,189	800,000	0,026	-0,066
-520,175	153,942	-0,064	-0,064
-519,160	-200,000	0,018	-0,123
-518,145	-70,982	0,013	0,004
-517,131	800,000	-0,038	0,084
-516,116	800,000	-0,010	-0,025
-515,102	162,235	-0,061	0,063
-514,087	38,874	-0,011	-0,008
-513,072	-200,000	-0,012	0,080
-512,058	-32,187	-0,114	0,047
-511,043	-200,000	-0,005	-0,080
-510,029	800,000	0,055	0,156
-509,014	-126,121	-0,033	-0,004
-507,999	215,231	0,019	0,022
-506,985	800,000	-0,045	-0,119
-505,970	10,998	-0,076	0,043
-504,956	800,000	-0,036	0,085
-503,941	-100,844	-0,150	0,027
-502,926	312,387	0,090	-0,125
-501,912	-1,634	0,114	0,059
-500,897	446,225	0,013	0,022
-499,883	-113,076	-0,158	0,023
-498,868	-39,704	0,115	0,044
-497,853	-200,000	0,022	-0,251
-496,839	81,970	-0,048	0,038
-495,824	-200,000	-0,007	0,132
-494,810	800,000	-0,007	0,015
-493,795	-20,864	-0,090	0,040
-492,781	105,054	-0,020	0,017
-491,766	185,296	-0,110	0,121
-490,751	-200,000	0,002	0,030
-489,737	-125,463	-0,101	0,011
-488,722	-125,494	0,146	-0,016
-487,708	88,122	0,098	0,080
-486,693	-131,464	-0,122	-0,012
-485,678	611,368	-0,084	0,155
-484,664	-200,000	-0,008	-0,068
-483,649	-200,000	0,004	0,072
-482,635	169,755	0,052	0,055
-481,620	-89,776	-0,082	-0,017
-480,605	-78,976	-0,088	-0,022
-479,591	-1,220	0,167	0,087
-478,576	656,413	0,016	0,031
-477,562	-200,000	-0,022	-0,111
-476,547	800,000	0,037	-0,116
-475,532	183,476	0,090	-0,098
-474,518	-25,032	0,175	-0,076
-473,503	153,730	-0,098	-0,099
-472,489	-112,312	0,167	-0,024
-471,474	-45,351	-0,159	-0,058
-470,459	-124,416	-0,138	-0,016
-469,445	-17,021	-0,013	0,006
-468,430	61,259	0,080	-0,058
-467,416	-16,800	0,078	0,036
-466,401	-200,000	0,013	0,061
-465,386	800,000	0,011	0,034
-464,372	741,490	-0,009	0,017
-463,357	455,878	0,073	0,120
-462,343	89,024	-0,046	0,038
-461,328	-5,203	-0,071	0,036
-460,313	800,000	0,045	0,141
-459,299	142,345	0,009	0,009
-458,284	-120,109	0,049	0,006
-457,270	322,444	-0,041	-0,057
-456,255	-200,000	0,005	-0,057
-455,241	-7,144	0,118	-0,059
-454,226	800,000	-0,061	0,137
-453,211	53,052	0,043	-0,030
-452,197	-73,299	0,019	0,005
-451,182	800,000	0,012	-0,035
-450,168	66,939	-0,022	-0,017
-449,153	800,000	-0,070	0,168
-448,138	628,777	0,017	-0,033
-447,124	-200,000	0,001	0,053
-446,109	-200,000	0,002	-0,082
-445,095	-33,138	0,121	-0,049
-444,080	23,200	0,101	0,061
-443,065	-200,000	-0,025	0,105
-442,051	536,017	-0,037	0,065
-441,036	-7,414	-0,042	0,021
-440,022	-28,660	0,090	-0,038
-439,007	-200,000	-0,003	-0,058
-437,992	-14,801	-0,098	0,046
-436,978	96,587	0,090	0,075
-435,963	100,645	-0,062	0,053
-434,949	713,944	0,019	-0,038
-433,934	-36,960	0,106	-0,042
-432,919	-33,130	0,065	0,026
-431,905	-137,479	0,061	0,005
-430,890	-200,000	-0,035	-0,205
-429,876	-52,976	0,144	0,049
-428,861	-200,000	-0,021	0,109
-427,846	800,000	0,033	0,074
-426,832	31,203	-0,079	0,050
-425,817	-200,000	-0,014	-0,063
-424,803	142,828	0,066	-0,065
-423,788	16,056	0,084	0,049
-422,773	-200,000	0,031	0,153
-421,759	800,000	0,050	0,103
-420,744	-200,000	-0,111	-0,000
-419,730	800,000	-0,028	-0,065
-418,715	-80,620	0,039	0,009
-417,701	800,000	0,037	0,098
-416,686	129,331	-0,079	-0,074
-415,671	800,000	-0,013	0,034
-414,657	302,370	0,013	0,017
-413,642	338,597	-0,073	0,105
-412,628	49,092	-0,049	-0,034
-411,613	217,583	-0,077	-0,090
-410,598	-200,000	0,002	-0,022
-409,584	223,494	0,101	0,120
-408,569	163,937	0,168	0,174
-407,555	55,556	0,182	0,129
-406,540	-200,000	-0,007	0,170
-405,525	-200,000	0,003	0,068
-404,511	800,000	-0,034	-0,081
-403,496	37,838	-0,171	-0,112
-402,482	-37,366	-0,060	0,023
-401,467	-100,998	0,105	0,019
-400,452	800,000	0,010	0,031
-399,438	800,000	-0,006	0,015
-398,423	530,327	-0,050	0,087
-397,409	251,466	0,046	-0,057
-396,394	-33,382	-0,052	0,021
-395,379	297,394	-0,046	-0,062
-394,365	-174,045	-0,050	-0,001
-393,350	504,941	0,054	0,093
-392,336	-200,000	-0,009	-0,041
-391,321	336,471	-0,038	-0,054
-390,306	-200,000	0,007	-0,110
-389,292	427,104	-0,045	-0,072
-388,277	89,764	0,034	0,028
-387,263	148,626	0,089	0,088
-386,248	-200,000	-0,006	-0,033
-385,233	800,000	0,036	0,095
-384,219	800,000	0,046	-0,104
-383,204	74,295	0,023	-0,018
-382,190	800,000	-0,036	0,075
-381,175	459,323	-0,057	-0,093
-380,160	389,356	0,046	0,070
-379,146	800,000	-0,013	-0,030
-378,131	51,185	0,139	0,097
-377,117	50,614	-0,013	0,009
-376,102	-200,000	-0,013	0,046
-375,088	-200,000	-0,009	0,050
-374,073	488,406	-0,048	-0,082
-373,058	-200,000	0,005	-0,091
-372,044	467,639	0,052	0,085
-371,029	800,000	-0,064	0,168
-370,015	800,000	-0,039	-0,084
-369,000	-94,326	-0,031	-0,006
-367,985	0,565	-0,062	0,032
-366,971	-200,000	-0,014	0,091
-365,956	800,000	-0,036	0,103
-364,942	89,382	0,048	-0,039
-363,927	-65,382	0,079	0,023
-362,912	-119,839	0,037	0,005
-361,898	78,913	-0,148	-0,116
-360,883	-200,000	0,023	0,141
-359,869	-200,000	-0,008	-0,139
-358,854	-200,000	0,030	0,105
-357,839	-17,021	0,076	-0,035
-356,825	743,261	-0,043	0,084
-355,810	-43,137	-0,085	-0,032
-354,796	-165,169	-0,114	-0,004
-353,781	-200,000	0,002	0,078
-352,766	18,643	0,024	0,014
-351,752	-200,000	-0,003	0,105
-350,737	-200,000	0,021	0,133
-349,723	-200,000	0,006	0,041
-348,708	-200,000	0,037	0,186
-347,693	35,268	-0,087	-0,056
-346,679	-19,618	-0,025	-0,011
-345,664	299,174	-0,135	-0,182
-344,650	-200,000	0,020	0,069
-343,635	-200,000	-0,010	0,065
-342,620	196,997	0,067	0,075
-341,606	205,790	0,037	0,043
-340,591	217,821	-0,055	0,064
-339,577	23,810	0,047	0,028
-338,562	147,193	0,056	0,055
-337,548	163,193	0,023	-0,024
-336,533	-200,000	-0,015	0,057
-335,518	-3,964	-0,076	-0,039
-334,504	-10,799	-0,064	0,031
-333,489	-61,307	-0,102	-0,031
-332,475	112,109	0,073	-0,065
-331,460	-200,000	-0,003	0,069
-330,445	276,691	-0,042	-0,055
-329,431	34,929	-0,039	-0,025
-328,416	-106,034	0,146	0,024
-327,402	519,125	0,085	0,147
-326,387	-138,648	-0,155	-0,012
-325,372	-149,219	0,081	0,005
-324,358	235,895	-0,061	-0,075
-323,343	-38,989	-0,010	-0,004
-322,329	33,883	0,101	-0,065
-321,314	800,000	-0,014	0,033
-320,299	-43,756	-0,090	0,033
-319,285	-44,243	-0,085	0,031
-318,270	-200,000	0,036	-0,131
-317,256	50,887	-0,163	0,113
-316,241	-200,000	0,003	-0,089
-315,226	800,000	0,025	0,079
-314,212	79,606	0,059	-0,046
-313,197	283,121	0,142	-0,187
-312,183	204,943	0,019	-0,022
-311,168	800,000	0,034	0,105
-310,153	118,324	-0,107	-0,096
-309,139	40,566	0,039	-0,026
-308,124	-7,597	-0,054	0,026
-307,110	332,582	0,078	-0,110
-306,095	-200,000	0,001	0,005
-305,080	-112,918	0,097	0,014
-304,066	764,764	-0,044	-0,088
-303,051	678,316	-0,056	-0,108
-302,037	212,595	-0,144	-0,167
-301,022	82,735	0,101	-0,081
-300,008	-200,000	0,003	0,020
-298,993	-107,067	-0,061	-0,010
-297,978	-200,000	-0,000	0,007
-296,964	-200,000	0,010	-0,040
-295,949	-117,028	-0,180	-0,024
-294,935	-200,000	0,004	0,016
-293,920	-200,000	-0,013	0,114
-292,905	-200,000	0,013	0,049
-291,891	-200,000	-0,024	-0,083
-290,876	-29,594	0,087	-0,036
-289,862	800,000	0,039	0,098
-288,847	96,565	-0,072	-0,060
-287,832	187,001	-0,131	-0,143
-286,818	471,844	0,101	-0,167
-285,803	800,000	0,008	-0,021
-284,789	-177,694	0,148	-0,003
-283,774	463,086	0,067	-0,109
-282,759	800,000	0,059	-0,175
-281,745	800,000	0,032	-0,072
-280,730	-9,045	0,096	-0,047
-279,716	800,000	-0,044	-0,093
-278,701	-134,359	0,160	0,014
-277,686	-24,358	0,054	-0,023
-276,672	-200,000	0,012	0,111
-275,657	-200,000	-0,016	0,105
-274,643	-12,343	0,172	0,082
-273,628	-200,000	0,026	-0,147
-272,613	-200,000	0,007	-0,083
-271,599	-18,913	0,045	0,021
-270,584	-6,454	0,060	0,030
-269,570	8,857	0,078	0,043
-268,555	265,111	0,041	0,052
-267,540	-130,157	-0,045	0,004
-266,526	146,799	0,073	-0,072
-265,511	-200,000	0,032	-0,186
-264,497	146,133	-0,145	0,142
-263,482	-200,000	-0,009	0,075
-262,467	-117,364	-0,072	-0,009
-261,453	55,515	-0,088	-0,062
-260,438	35,952	0,053	-0,034
-259,424	-138,014	-0,041	-0,003
-258,409	226,928	0,076	-0,090
-257,395	-200,000	-0,024	0,108
-256,380	286,712	0,048	-0,064
-255,365	-200,000	-0,009	-0,066
-254,351	-113,934	-0,138	-0,019
-253,336	262,770	0,028	0,035
-252,322	259,756	0,032	-0,040
-251,307	-62,734	-0,102	-0,031
-250,292	154,219	-0,025	-0,025
-249,278	-200,000	0,014	0,104
-248,263	-27,133	-0,057	0,024
-247,249	-79,550	0,142	-0,035
-246,234	1,174	-0,077	-0,040
-245,219	-78,497	-0,043	0,011
-244,205	-125,405	0,073	-0,008
-243,190	131,276	-0,057	-0,054
-242,176	64,495	-0,033	0,025
-241,161	-93,696	0,131	-0,026
-240,146	116,840	-0,066	-0,059
-239,132	-200,000	0,040	-0,137
-238,117	255,541	0,030	0,037
-237,103	13,482	-0,032	0,018
-236,088	-200,000	0,013	0,088
-235,073	175,694	0,088	0,094
-234,059	40,565	-0,016	0,010
-233,044	-200,000	-0,010	0,099
-232,030	122,072	-0,117	0,107
-231,015	42,985	0,033	0,022
-230,000	-200,000	0,006	-0,049
-228,986	-102,865	-0,034	-0,006
-227,971	800,000	-0,026	-0,081
-226,957	800,000	-0,052	-0,116
-225,942	800,000	0,014	-0,043
-224,927	-200,000	-0,019	0,116
-223,913	12,241	-0,082	0,046
-222,898	-200,000	0,008	-0,057
-221,884	727,092	0,027	0,052
-220,869	45,084	0,123	0,083
-219,855	-200,000	0,013	-0,065
-218,840	161,833	0,042	-0,043
-217,825	-106,304	-0,056	-0,009
-216,811	676,904	0,050	-0,096
-215,796	800,000	0,023	0,070
-214,782	-200,000	-0,004	-0,049
-213,767	-200,000	0,006	0,054
-212,752	518,595	-0,048	0,082
-211,738	-200,000	0,036	0,150
-210,723	251,505	-0,040	-0,049
-209,709	-200,000	0,010	0,042
-208,694	258,872	-0,065	-0,082
-207,679	-43,092	-0,111	0,041
-206,665	301,681	-0,035	-0,047
-205,650	-200,000	-0,004	0,017
-204,636	-88,186	-0,027	0,006
-203,621	-60,380	-0,067	-0,021
-202,606	46,024	0,070	-0,047
-201,592	567,100	-0,038	-0,068
-200,577	56,071	-0,052	-0,037
-199,563	86,534	0,132	-0,106
-198,548	-3,730	0,075	0,038
-197,533	-150,130	-0,002	0,000
-196,519	-200,000	0,026	0,094
-195,504	-200,000	-0,007	-0,147
-194,490	800,000	-0,016	-0,041
-193,475	-88,670	0,087	-0,019
-192,460	800,000	-0,026	0,058
-191,446	800,000	-0,025	0,056
-190,431	490,876	-0,042	0,071
-189,417	-200,000	-0,006	0,060
-188,402	-200,000	0,007	-0,022
-187,387	-99,651	0,114	-0,021
-186,373	-53,431	0,118	-0,039
-185,358	-200,000	0,027	-0,139
-184,344	-28,313	-0,034	-0,014
-183,329	-43,159	-0,105	0,038
-182,315	6,169	0,038	-0,021
-181,300	51,884	-0,023	-0,016
-180,285	800,000	0,058	-0,118
-179,271	-51,987	0,046	-0,016
-178,256	-200,000	0,001	0,109
-177,242	800,000	-0,029	0,069
-176,227	800,000	-0,021	0,068
-175,212	800,000	0,055	0,115
-174,198	-200,000	-0,018	0,107
-173,183	-200,000	-0,022	-0,125
-172,169	206,187	-0,075	-0,086
-171,154	-200,000	-0,008	-0,027
-170,139	-200,000	-0,001	0,055
-169,125	170,975	0,113	0,118
-168,110	-62,154	0,038	0,011
-167,096	253,263	-0,046	0,058
-166,081	-82,759	0,102	0,024
-165,066	41,123	0,056	0,037
-164,052	-200,000	-0,016	-0,074
-163,037	-200,000	-0,007	-0,053
-162,023	-114,538	0,079	-0,011
-161,008	25,916	0,015	-0,009
-159,993	-200,000	-0,007	0,056
-158,979	199,929	0,051	-0,057
-157,964	786,342	-0,018	0,036
-156,950	-200,000	-0,015	0,163
-155,935	-2,832	-0,118	0,060
-154,920	-98,708	-0,123	-0,023
-153,906	-200,000	0,013	0,065
-152,891	-200,000	0,029	-0,115
-151,877	-200,000	-0,012	0,184
-150,862	99,913	-0,124	-0,105
-149,847	-155,668	-0,077	-0,004
-148,833	-96,609	0,118	-0,022
-147,818	70,238	-0,066	-0,050
-146,804	-88,148	0,118	0,026
-145,789	-28,465	0,013	-0,005
-144,775	800,000	-0,024	-0,076
-143,760	9,859	-0,131	0,072
-142,745	800,000	0,026	0,059
-141,731	800,000	-0,025	-0,053
-140,716	171,584	0,079	0,082
-139,702	212,765	0,036	-0,041
-138,687	214,612	0,094	-0,109
-137,672	-200,000	-0,008	-0,106
-136,658	-200,000	-0,010	0,090
-135,643	800,000	-0,024	-0,053
-134,629	132,347	-0,124	-0,116
-133,614	-200,000	0,006	-0,093
-132,599	208,046	-0,099	0,112
-131,585	77,933	0,070	0,054
-130,570	-57,714	-0,058	0,018
-129,556	9,727	0,022	-0,012
-128,541	800,000	-0,051	0,103
-127,526	316,579	-0,038	-0,053
-126,512	-109,027	0,015	-0,002
-125,497	800,000	0,023	0,061
-124,483	-32,403	0,069	-0,028
-123,468	184,540	-0,074	-0,079
-122,453	-200,000	-0,022	-0,151
-121,439	110,742	0,061	-0,054
-120,424	800,000	0,059	-0,153
