DTS Sentinel unit serial number:	SN410029Multiplexer serial number:	ORYXHardware model number:	OX2-SRSoftware version number:	ORYX F/W v4,00 Oryx Data Collector v3.7.2.0data status	okinstallation	B4 Nyhavnadifferential loss correction	single-endedforward channel	channel 2reverse channel	N/Adate	2023/12/19time	03:40:13forward acquisition time	300,00reverse acquisition time	0,00gamma	499,1914k internal	0,3125k external	0,3125temperature offset calibration	1,0000default loss term (dB/km)	0,3820temperature slope calibration	1,0000multiplexer offset coefficient	1,0000multiplexer slope coefficient	1,0000fibre end	0,00T internal ref (°C)	21,06T ext. ref 1 (°C)	5,63T ext. ref 2 (°C)	5,58length (m)	temperature (°C)	Stokes	anti-Stokes-744,400	-200,000	0,020	-0,081
-743,385	-110,187	-0,164	0,025
-742,371	-200,000	-0,005	0,075
-741,356	187,991	-0,211	0,235
-740,342	-71,085	-0,081	-0,022
-739,327	-132,505	-0,238	0,023
-738,312	800,000	-0,070	-0,173
-737,298	92,424	-0,148	0,125
-736,283	-102,831	-0,103	0,018
-735,269	-57,630	-0,191	0,062
-734,254	4,635	0,045	-0,025
-733,239	-89,795	-0,379	-0,082
-732,225	-88,583	0,132	-0,029
-731,210	-14,833	0,046	-0,022
-730,196	768,800	-0,063	-0,127
-729,181	-200,000	-0,008	-0,049
-728,167	190,150	-0,034	0,038
-727,152	178,430	-0,178	0,193
-726,137	-43,276	-0,090	-0,034
-725,123	211,007	0,045	0,053
-724,108	788,953	0,076	-0,156
-723,094	171,670	-0,034	0,037
-722,079	454,727	-0,067	-0,110
-721,064	-48,896	-0,119	-0,042
-720,050	4,415	-0,027	-0,015
-719,035	359,264	-0,017	-0,026
-718,021	247,943	0,085	0,107
-717,006	201,259	-0,067	-0,077
-715,991	157,592	-0,070	-0,072
-714,977	800,000	-0,035	-0,104
-713,962	58,016	-0,039	-0,029
-712,948	-200,000	-0,007	0,032
-711,933	-137,951	-0,111	-0,009
-710,918	-117,891	-0,045	-0,006
-709,904	-200,000	0,007	-0,055
-708,889	-200,000	0,002	-0,054
-707,875	145,950	-0,053	-0,052
-706,860	-200,000	0,008	-0,055
-705,845	204,364	-0,013	-0,015
-704,831	-119,296	0,080	-0,010
-703,816	-58,476	0,040	-0,013
-702,802	-87,140	-0,087	-0,019
-701,787	187,736	0,047	0,053
-700,772	-183,069	-0,130	0,002
-699,758	-200,000	0,008	0,168
-698,743	-200,000	-0,015	0,102
-697,729	-77,032	0,084	-0,022
-696,714	-7,640	0,035	0,018
-695,699	359,019	-0,102	-0,152
-694,685	-200,000	-0,022	0,093
-693,670	-113,083	-0,017	0,002
-692,656	141,569	0,123	-0,121
-691,641	-200,000	-0,043	-0,170
-690,627	-200,000	0,028	0,129
-689,612	385,304	0,071	-0,109
-688,597	-90,987	-0,186	-0,039
-687,583	800,000	-0,025	-0,076
-686,568	798,981	-0,035	0,073
-685,554	-97,262	-0,127	-0,024
-684,539	-167,040	-0,100	0,003
-683,524	-200,000	0,020	-0,079
-682,510	800,000	0,017	0,052
-681,495	800,000	0,022	-0,065
-680,481	-33,854	-0,124	-0,050
-679,466	800,000	-0,066	-0,145
-678,451	-39,050	0,056	-0,022
-677,437	631,842	-0,026	0,050
-676,422	43,951	-0,047	0,032
-675,408	294,917	-0,011	-0,015
-674,393	468,818	0,056	0,094
-673,378	-163,877	-0,078	0,003
-672,364	514,223	-0,051	-0,089
-671,349	800,000	0,033	-0,073
-670,335	-128,711	0,034	-0,004
-669,320	-55,509	0,041	-0,013
-668,305	-85,514	-0,175	-0,040
-667,291	31,231	0,145	-0,092
-666,276	301,467	-0,047	-0,065
-665,262	315,114	-0,055	-0,078
-664,247	-143,505	-0,106	-0,007
-663,232	305,577	-0,078	-0,107
-662,218	-200,000	-0,003	-0,014
-661,203	-31,834	-0,138	0,057
-660,189	-200,000	-0,028	0,092
-659,174	800,000	-0,030	-0,063
-658,159	3,800	-0,106	0,057
-657,145	77,685	-0,053	-0,042
-656,130	2,781	0,092	0,049
-655,116	-106,237	0,126	-0,021
-654,101	800,000	-0,046	0,100
-653,086	-72,152	0,203	-0,056
-652,072	800,000	-0,044	-0,118
-651,057	-67,902	-0,076	-0,022
-650,043	-79,619	-0,081	-0,020
-649,028	-38,175	0,087	-0,034
-648,014	334,073	0,077	-0,111
-646,999	-200,000	-0,009	0,057
-645,984	-22,987	-0,138	-0,061
-644,970	110,604	0,033	-0,030
-643,955	310,753	-0,114	-0,158
-642,941	800,000	-0,030	-0,072
-641,926	313,206	-0,012	-0,017
-640,911	800,000	0,033	0,077
-639,897	208,553	0,020	-0,023
-638,882	41,155	-0,037	0,025
-637,868	-190,972	-0,035	-0,000
-636,853	175,280	-0,040	0,043
-635,838	67,385	0,069	0,052
-634,824	800,000	-0,046	-0,121
-633,809	-200,000	0,024	-0,107
-632,795	-50,377	0,080	-0,028
-631,780	106,351	0,092	0,081
-630,765	502,055	-0,061	0,105
-629,751	-76,975	-0,101	-0,026
-628,736	63,243	-0,094	-0,070
-627,722	118,898	0,057	-0,052
-626,707	-200,000	-0,008	0,064
-625,692	75,614	-0,054	0,042
-624,678	800,000	0,029	0,063
-623,663	138,660	0,046	0,044
-622,649	155,975	-0,033	-0,034
-621,634	800,000	-0,042	-0,098
-620,619	-58,421	-0,129	0,041
-619,605	-200,000	-0,005	-0,024
-618,590	-109,849	-0,030	0,005
-617,576	69,911	0,043	-0,033
-616,561	85,149	0,114	-0,092
-615,546	754,613	-0,069	-0,139
-614,532	347,232	0,014	-0,021
-613,517	-44,960	-0,075	0,027
-612,503	35,865	-0,099	0,064
-611,488	45,294	0,096	0,065
-610,474	114,855	0,060	-0,054
-609,459	-200,000	0,003	-0,123
-608,444	151,334	0,065	-0,066
-607,430	61,205	0,049	-0,036
-606,415	-200,000	-0,015	-0,068
-605,401	514,023	0,019	0,033
-604,386	64,538	-0,082	-0,061
-603,371	-164,055	0,110	-0,004
-602,357	289,327	-0,071	0,095
-601,342	-56,676	0,058	0,019
-600,328	155,138	-0,050	-0,051
-599,313	-200,000	-0,034	-0,113
-598,298	237,453	0,042	0,052
-597,284	-200,000	0,016	0,114
-596,269	-86,334	-0,107	0,024
-595,255	3,484	-0,143	0,077
-594,240	800,000	0,035	0,099
-593,225	54,706	-0,168	0,119
-592,211	-79,870	-0,170	0,042
-591,196	-91,026	-0,072	0,015
-590,182	-59,786	-0,020	0,006
-589,167	-7,555	-0,033	-0,016
-588,152	348,220	0,026	-0,038
-587,138	-134,618	-0,043	0,004
-586,123	374,722	0,023	-0,035
-585,109	-200,000	0,037	0,169
-584,094	235,214	-0,093	-0,114
-583,079	-200,000	-0,013	0,138
-582,065	-109,489	0,243	0,038
-581,050	-11,077	-0,078	-0,038
-580,036	-167,373	0,097	-0,003
-579,021	-200,000	-0,024	-0,133
-578,006	-107,993	-0,074	-0,012
-576,992	250,307	-0,052	-0,066
-575,977	-200,000	-0,009	-0,159
-574,963	800,000	0,019	-0,051
-573,948	-177,882	0,116	0,002
-572,934	-200,000	-0,020	-0,082
-571,919	-140,904	0,083	-0,006
-570,904	796,711	-0,063	-0,130
-569,890	-46,925	0,015	-0,006
-568,875	-200,000	-0,023	0,080
-567,861	800,000	-0,009	0,028
-566,846	123,378	-0,040	-0,037
-565,831	89,662	0,106	-0,087
-564,817	53,524	-0,067	-0,048
-563,802	372,891	0,035	0,053
-562,788	-47,385	0,028	-0,010
-561,773	-56,458	0,079	0,026
-560,758	-80,606	0,125	0,031
-559,744	-66,331	0,107	-0,031
-558,729	460,689	-0,060	0,100
-557,715	246,818	0,028	0,035
-556,700	-200,000	0,008	-0,095
-555,685	642,599	0,033	0,062
-554,671	800,000	0,056	-0,116
-553,656	201,528	-0,182	-0,208
-552,642	-200,000	0,012	0,057
-551,627	-200,000	0,024	0,118
-550,612	43,157	0,027	-0,019
-549,598	-155,328	0,024	-0,001
-548,583	135,803	0,029	-0,028
-547,569	800,000	-0,017	-0,037
-546,554	800,000	-0,058	0,145
-545,539	142,847	-0,061	0,060
-544,525	-200,000	0,013	0,065
-543,510	478,099	-0,051	0,086
-542,496	-200,000	-0,024	-0,096
-541,481	40,026	0,124	0,082
-540,466	800,000	-0,017	0,055
-539,452	82,470	-0,045	0,036
-538,437	74,830	0,060	-0,046
-537,423	-85,198	-0,071	0,016
-536,408	437,762	-0,036	0,057
-535,393	311,098	-0,073	-0,102
-534,379	-200,000	-0,001	-0,020
-533,364	-12,010	0,140	-0,068
-532,350	-200,000	-0,039	0,146
-531,335	89,310	0,078	0,064
-530,321	15,429	0,031	0,018
-529,306	-200,000	-0,005	-0,023
-528,291	71,565	-0,032	-0,024
-527,277	-54,638	-0,063	0,021
-526,262	-200,000	-0,034	0,117
-525,248	45,712	0,050	0,034
-524,233	-168,754	-0,010	-0,000
-523,218	-200,000	-0,013	0,091
-522,204	18,948	0,129	0,076
-521,189	333,222	0,071	0,101
-520,175	-112,055	-0,113	-0,017
-519,160	-65,399	-0,056	-0,017
-518,145	-56,262	0,025	0,008
-517,131	-180,850	0,062	-0,001
-516,116	-200,000	0,000	0,022
-515,102	800,000	0,012	0,036
-514,087	-10,112	0,079	-0,038
-513,072	-200,000	0,018	-0,073
-512,058	80,549	-0,103	-0,082
-511,043	800,000	-0,044	-0,096
-510,029	-191,729	-0,024	0,000
-509,014	800,000	0,043	0,108
-507,999	362,197	-0,046	-0,068
-506,985	-41,305	0,093	0,035
-505,970	44,072	-0,072	-0,048
-504,956	318,245	-0,114	-0,160
-503,941	-77,988	0,175	0,044
-502,926	-200,000	-0,000	-0,073
-501,912	235,436	0,035	0,042
-500,897	-200,000	-0,010	0,099
-499,883	301,249	0,076	-0,104
-498,868	381,976	0,046	-0,070
-497,853	-200,000	-0,016	0,063
-496,839	-175,626	-0,009	0,000
-495,824	53,300	0,073	0,052
-494,810	-171,493	-0,015	-0,000
-493,795	-200,000	-0,002	0,025
-492,781	424,533	-0,072	-0,115
-491,766	704,526	0,056	-0,109
-490,751	800,000	-0,049	-0,101
-489,737	-0,263	0,073	0,038
-488,722	-4,327	0,177	0,090
-487,708	-200,000	0,012	0,063
-486,693	504,788	-0,023	0,039
-485,678	-200,000	-0,009	-0,062
-484,664	119,466	-0,156	-0,143
-483,649	-200,000	-0,049	-0,168
-482,635	-200,000	0,045	-0,183
-481,620	179,182	0,051	-0,055
-480,605	-200,000	0,009	0,072
-479,591	133,625	0,089	0,085
-478,576	591,382	-0,035	-0,064
-477,562	51,711	-0,116	-0,081
-476,547	-200,000	-0,001	-0,096
-475,532	-200,000	-0,013	-0,058
-474,518	800,000	-0,037	0,077
-473,503	603,753	0,008	-0,015
-472,489	-200,000	-0,032	0,125
-471,474	800,000	0,039	-0,108
-470,459	15,408	0,072	-0,041
-469,445	-97,567	-0,143	-0,027
-468,430	129,152	-0,014	-0,014
-467,416	21,465	0,055	0,033
-466,401	800,000	0,048	0,109
-465,386	-17,228	0,099	-0,046
-464,372	-200,000	-0,017	0,080
-463,357	-25,842	0,091	0,039
-462,343	63,292	-0,140	-0,103
-461,328	-200,000	-0,013	0,146
-460,313	152,053	-0,166	0,167
-459,299	43,101	0,106	0,071
-458,284	-37,278	0,077	0,030
-457,270	-200,000	-0,006	0,120
-456,255	-200,000	-0,027	-0,095
-455,241	485,026	-0,037	0,063
-454,226	275,210	0,016	0,021
-453,211	800,000	0,017	0,048
-452,197	800,000	0,016	0,036
-451,182	-200,000	0,021	0,138
-450,168	44,762	0,092	-0,062
-449,153	481,875	0,026	-0,044
-448,138	10,488	-0,059	-0,033
-447,124	300,373	-0,062	-0,085
-446,109	-200,000	0,017	0,075
-445,095	-120,978	0,060	0,007
-444,080	5,293	-0,125	0,067
-443,065	137,654	0,024	0,023
-442,051	280,144	-0,030	-0,039
-441,036	800,000	0,004	-0,009
-440,022	181,528	0,121	-0,132
-439,007	-98,868	-0,138	0,026
-437,992	139,017	-0,079	0,077
-436,978	-17,055	0,047	-0,022
-435,963	-123,791	0,106	0,012
-434,949	171,986	0,094	-0,099
-433,934	-200,000	0,026	-0,094
-432,919	800,000	-0,045	-0,098
-431,905	-200,000	-0,022	-0,097
-430,890	-200,000	-0,003	0,033
-429,876	-9,456	-0,065	0,032
-428,861	511,399	-0,096	0,165
-427,846	370,579	0,033	-0,050
-426,832	800,000	-0,018	0,041
-425,817	90,290	-0,087	0,071
-424,803	25,371	0,070	-0,043
-423,788	-200,000	0,013	0,118
-422,773	366,198	0,072	0,107
-421,759	-54,242	0,076	0,025
-420,744	587,566	0,015	0,028
-419,730	-200,000	-0,024	-0,108
-418,715	-200,000	-0,030	-0,158
-417,701	-117,390	-0,137	-0,018
-416,686	-200,000	-0,002	0,046
-415,671	21,341	0,076	0,045
-414,657	148,643	0,020	-0,020
-413,642	-200,000	-0,009	0,074
-412,628	51,194	-0,134	-0,093
-411,613	-34,066	-0,127	0,051
-410,598	-200,000	-0,012	-0,111
-409,584	-187,604	-0,019	0,000
-408,569	-155,285	0,162	0,008
-407,555	-44,337	-0,126	0,046
-406,540	-91,315	-0,045	-0,009
-405,525	112,046	0,058	0,051
-404,511	-103,526	-0,062	-0,011
-403,496	-77,949	-0,095	0,024
-402,482	-200,000	0,052	-0,232
-401,467	-200,000	0,009	0,031
-400,452	96,455	-0,056	0,047
-399,438	118,486	-0,025	0,023
-398,423	-200,000	-0,002	-0,125
-397,409	-99,459	-0,118	0,022
-396,394	649,423	-0,037	-0,070
-395,379	16,063	0,053	0,031
-394,365	164,113	0,120	-0,124
-393,350	0,285	0,074	-0,038
-392,336	-117,606	0,092	0,012
-391,321	64,899	0,060	0,045
-390,306	800,000	0,025	0,053
-389,292	-200,000	-0,034	0,131
-388,277	-99,740	-0,084	0,015
-387,263	-200,000	-0,010	0,038
-386,248	-68,673	-0,058	-0,016
-385,233	-102,819	-0,123	-0,021
-384,219	-200,000	0,007	0,082
-383,204	-152,099	0,065	0,003
-382,190	-200,000	0,003	0,051
-381,175	-200,000	0,020	-0,095
-380,160	800,000	0,026	-0,063
-379,146	-5,510	-0,104	0,052
-378,131	-200,000	-0,027	-0,113
-377,117	369,775	-0,047	0,070
-376,102	-55,916	-0,128	-0,042
-375,088	216,827	0,116	-0,136
-374,073	46,634	0,033	0,022
-373,058	-200,000	0,005	-0,019
-372,044	400,044	0,068	0,105
-371,029	-200,000	-0,010	0,054
-370,015	528,755	0,072	-0,126
-369,000	-200,000	0,004	-0,092
-367,985	-200,000	-0,022	-0,113
-366,971	499,513	-0,083	0,142
-365,956	800,000	0,051	0,107
-364,942	-200,000	0,007	0,066
-363,927	-92,705	-0,094	0,019
-362,912	438,712	0,054	0,087
-361,898	-86,286	0,084	-0,019
-360,883	110,122	0,052	-0,046
-359,869	-54,264	-0,114	0,038
-358,854	26,953	0,050	0,031
-357,839	-71,356	0,199	-0,054
-356,825	28,316	-0,112	0,069
-355,810	-53,853	0,055	-0,018
-354,796	-200,000	-0,009	-0,155
-353,781	109,673	-0,029	0,026
-352,766	-200,000	0,004	-0,106
-351,752	-46,059	0,098	0,035
-350,737	-142,932	-0,140	0,010
-349,723	-200,000	-0,002	0,111
-348,708	800,000	-0,020	0,049
-347,693	-68,067	0,122	0,035
-346,679	495,498	-0,084	0,142
-345,664	-83,494	-0,091	-0,021
-344,650	97,804	-0,066	0,056
-343,635	-200,000	-0,005	0,055
-342,620	259,333	-0,035	0,045
-341,606	-200,000	0,002	0,078
-340,591	191,075	-0,142	0,157
-339,577	-58,015	-0,073	-0,023
-338,562	77,720	-0,141	-0,110
-337,548	-116,178	0,093	0,012
-336,533	800,000	0,021	0,059
-335,518	17,600	0,125	0,073
-334,504	62,325	-0,088	0,064
-333,489	-200,000	0,028	0,138
-332,475	-50,002	0,071	-0,025
-331,460	130,349	-0,037	-0,035
-330,445	800,000	-0,016	-0,046
-329,431	240,496	-0,049	-0,060
-328,416	189,101	0,044	0,048
-327,402	16,458	0,039	0,022
-326,387	66,417	-0,045	0,033
-325,372	287,399	0,032	-0,043
-324,358	726,953	-0,043	-0,084
-323,343	-82,613	0,057	0,013
-322,329	1,631	0,087	0,046
-321,314	800,000	0,028	-0,084
-320,299	54,808	0,099	-0,070
-319,285	-54,047	0,035	0,012
-318,270	-47,480	0,137	0,049
-317,256	-200,000	-0,056	-0,189
-316,241	-200,000	-0,041	-0,136
-315,226	-7,181	0,160	-0,079
-314,212	-171,737	0,090	0,002
-313,197	800,000	0,055	0,175
-312,183	800,000	-0,044	0,105
-311,168	97,186	-0,067	0,057
-310,153	-29,669	-0,076	0,032
-309,139	0,825	-0,122	0,064
-308,124	361,974	-0,025	-0,036
-307,110	209,725	0,155	0,178
-306,095	800,000	0,023	0,059
-305,080	95,867	0,085	0,071
-304,066	-82,597	-0,123	0,029
-303,051	-57,620	-0,210	-0,067
-302,037	-97,201	0,098	0,019
-301,022	-63,153	-0,145	0,043
-300,008	560,364	0,022	0,038
-298,993	208,560	0,093	-0,106
-297,978	259,611	0,091	0,115
-296,964	-200,000	0,016	-0,095
-295,949	-103,725	-0,062	-0,011
-294,935	59,976	-0,147	-0,106
-293,920	-62,263	-0,180	-0,055
-292,905	510,677	-0,025	-0,043
-291,891	-200,000	0,031	0,198
-290,876	-200,000	0,018	-0,084
-289,862	117,691	-0,044	0,040
-288,847	92,025	0,088	0,073
-287,832	-13,920	0,078	-0,037
-286,818	-111,822	-0,173	0,025
-285,803	-200,000	0,011	0,055
-284,789	48,436	0,102	-0,070
-283,774	56,686	0,031	-0,022
-282,759	-111,332	-0,131	0,019
-281,745	-200,000	-0,019	-0,061
-280,730	115,603	0,026	-0,023
-279,716	-200,000	0,048	-0,163
-278,701	-200,000	-0,003	-0,046
-277,686	800,000	0,021	-0,063
-276,672	384,664	-0,011	-0,017
-275,657	800,000	-0,061	0,135
-274,643	-38,002	-0,062	0,024
-273,628	-45,361	-0,023	-0,008
-272,613	-116,695	-0,098	0,013
-271,599	-94,671	0,023	0,005
-270,584	-137,182	-0,006	0,000
-269,570	-200,000	0,020	0,113
-268,555	536,228	-0,038	0,067
-267,540	139,664	0,089	0,085
-266,526	-200,000	-0,019	-0,179
-265,511	-4,200	0,035	-0,018
-264,497	800,000	0,044	0,092
-263,482	210,488	0,061	-0,070
-262,467	-176,434	0,085	0,002
-261,453	0,825	-0,043	-0,022
-260,438	-65,805	-0,172	0,050
-259,424	29,335	-0,114	0,071
-258,409	800,000	0,018	0,041
-257,395	800,000	0,016	0,032
-256,380	-200,000	0,016	-0,069
-255,365	10,966	0,129	-0,072
-254,351	-200,000	-0,005	0,035
-253,336	-200,000	0,025	0,127
-252,322	-200,000	-0,022	-0,092
-251,307	800,000	0,016	-0,038
-250,292	800,000	-0,038	-0,083
-249,278	800,000	0,018	-0,049
-248,263	-11,009	-0,048	0,023
-247,249	122,869	-0,127	-0,117
-246,234	-130,076	0,057	0,006
-245,219	-53,900	0,133	-0,044
-244,205	718,818	0,047	-0,091
-243,190	-59,537	0,112	-0,035
-242,176	800,000	0,032	-0,083
-241,161	19,219	0,086	-0,050
-240,146	-185,712	0,056	0,001
-239,132	47,262	0,098	-0,067
-238,117	145,528	-0,045	0,044
-237,103	800,000	-0,059	-0,184
-236,088	50,880	0,020	0,014
-235,073	-7,776	0,084	0,041
-234,059	-10,901	0,090	-0,043
-233,044	-200,000	-0,008	-0,036
-232,030	369,325	-0,071	0,105
-231,015	-56,829	-0,035	0,011
-230,000	382,479	0,103	-0,155
-228,986	-85,100	0,047	0,011
-227,971	62,062	-0,128	0,093
-226,957	-42,179	0,152	-0,057
-225,942	-34,129	0,150	0,060
-224,927	-16,169	-0,090	-0,042
-223,913	10,567	-0,091	-0,051
-222,898	800,000	-0,023	-0,056
-221,884	215,432	-0,023	-0,027
-220,869	-47,024	-0,022	-0,008
-219,855	369,574	0,028	0,042
-218,840	-85,025	-0,061	-0,014
-217,825	166,900	-0,066	-0,068
-216,811	800,000	0,025	0,056
-215,796	-81,797	-0,032	0,008
-214,782	-200,000	0,016	-0,062
-213,767	-200,000	-0,041	0,187
-212,752	-200,000	0,020	-0,065
-211,738	540,631	0,040	0,070
-210,723	6,324	0,132	0,071
-209,709	-144,887	-0,154	0,010
-208,694	177,735	0,047	0,050
-207,679	800,000	-0,060	0,162
-206,665	800,000	-0,047	0,131
-205,650	147,625	0,104	-0,102
-204,636	407,104	0,025	-0,039
-203,621	196,547	-0,056	0,062
-202,606	177,678	-0,014	0,015
-201,592	-200,000	0,000	0,129
-200,577	-150,531	0,038	-0,002
-199,563	-200,000	0,004	-0,064
-198,548	-165,153	0,199	-0,006
-197,533	0,841	0,077	0,040
-196,519	255,929	-0,052	-0,065
-195,504	89,982	0,085	0,069
-194,490	-159,175	-0,036	-0,001
-193,475	40,906	-0,030	0,020
-192,460	209,528	0,093	-0,107
-191,446	-41,750	0,260	-0,097
-190,431	22,857	0,025	-0,015
-189,417	-153,642	0,084	-0,004
-188,402	260,357	0,040	-0,051
-187,387	-200,000	-0,023	-0,155
-186,373	583,917	0,024	-0,042
-185,358	164,176	0,051	0,052
-184,344	-98,641	-0,071	0,013
-183,329	491,806	0,066	0,111
-182,315	-200,000	-0,003	-0,067
-181,300	-200,000	0,027	0,154
-180,285	286,224	-0,082	0,108
-179,271	-200,000	-0,037	0,143
-178,256	130,501	0,094	-0,088
-177,242	122,407	-0,087	0,079
-176,227	-200,000	-0,001	-0,069
-175,212	-200,000	0,011	-0,081
-174,198	800,000	-0,015	-0,047
-173,183	-143,070	-0,104	0,007
-172,169	-200,000	-0,028	-0,195
-171,154	800,000	0,050	-0,143
-170,139	-73,366	0,031	-0,008
-169,125	-200,000	-0,026	0,198
-168,110	147,922	0,044	0,043
-167,096	374,028	-0,022	0,032
-166,081	-200,000	0,000	0,098
-165,066	-200,000	0,007	0,034
-164,052	48,323	-0,022	0,015
-163,037	591,676	-0,071	0,128
-162,023	-90,960	0,190	0,039
-161,008	-16,722	-0,111	0,051
-159,993	3,994	-0,044	0,023
-158,979	-200,000	-0,019	0,066
-157,964	50,427	-0,045	-0,031
-156,950	551,520	-0,038	-0,068
-155,935	331,227	0,067	0,095
-154,920	-32,403	0,134	0,054
-153,906	-15,565	-0,124	-0,057
-152,891	-29,568	-0,139	0,057
-151,877	575,069	-0,038	-0,067
-150,862	-200,000	0,034	-0,121
-149,847	443,930	-0,052	-0,083
-148,833	149,711	-0,074	-0,073
-147,818	639,925	-0,038	-0,071
-146,804	108,884	0,128	-0,111
-145,789	-112,448	0,088	-0,013
-144,775	31,601	-0,110	-0,068
-143,760	34,216	-0,136	0,086
-142,745	-100,342	-0,084	-0,015
-141,731	65,215	-0,049	0,036
-140,716	-6,078	-0,100	0,050
-139,702	123,728	-0,065	0,060
-138,687	-50,603	-0,109	-0,037
-137,672	-9,133	0,039	-0,019
-136,658	-200,000	0,013	-0,074
-135,643	294,337	0,043	-0,057
-134,629	197,349	-0,044	-0,048
-133,614	-91,859	-0,082	-0,017
-132,599	56,406	0,044	0,031
-131,585	800,000	-0,034	0,073
-130,570	68,405	0,118	-0,088
-129,556	-200,000	0,009	0,056
-128,541	143,039	0,087	-0,084
-127,526	800,000	-0,059	-0,121
-126,512	800,000	-0,036	-0,098
-125,497	-10,654	0,056	0,027
-124,483	-200,000	0,049	-0,181
-123,468	242,693	-0,055	0,067
-122,453	-34,466	0,066	-0,026
-121,439	-200,000	-0,014	-0,084
-120,424	73,332	-0,089	-0,067
-119,410	13,335	0,055	0,031
