DTS Sentinel unit serial number:	SN410029Multiplexer serial number:	ORYXHardware model number:	OX2-SRSoftware version number:	ORYX F/W v4,00 Oryx Data Collector v3.7.2.0data status	okinstallation	B4 Nyhavnadifferential loss correction	single-endedforward channel	channel 2reverse channel	N/Adate	2023/12/19time	09:50:13forward acquisition time	300,00reverse acquisition time	0,00gamma	499,1914k internal	0,3128k external	0,3128temperature offset calibration	1,0000default loss term (dB/km)	0,3820temperature slope calibration	1,0000multiplexer offset coefficient	1,0000multiplexer slope coefficient	1,0000fibre end	0,00T internal ref (°C)	20,32T ext. ref 1 (°C)	4,78T ext. ref 2 (°C)	4,75length (m)	temperature (°C)	Stokes	anti-Stokes-744,400	3,295	0,056	0,030
-743,385	-134,858	-0,246	-0,022
-742,371	-200,000	0,012	0,083
-741,356	223,525	-0,073	0,088
-740,342	527,952	0,090	0,158
-739,327	-58,983	-0,279	0,089
-738,312	-127,082	0,019	0,002
-737,298	-60,720	-0,328	0,103
-736,283	-129,184	0,088	-0,009
-735,269	-89,863	-0,269	0,058
-734,254	414,036	0,020	0,032
-733,239	-79,257	-0,410	-0,103
-732,225	-152,457	0,071	-0,004
-731,210	-200,000	0,007	0,068
-730,196	112,879	0,102	-0,092
-729,181	454,871	0,026	-0,043
-728,167	308,306	0,060	-0,083
-727,152	-51,375	-0,117	-0,041
-726,137	20,132	-0,107	-0,064
-725,123	-200,000	0,024	-0,182
-724,108	609,048	-0,026	0,048
-723,094	18,242	-0,079	-0,047
-722,079	122,602	0,077	-0,072
-721,064	800,000	0,051	0,136
-720,050	352,225	-0,066	-0,098
-719,035	508,444	0,049	0,086
-718,021	800,000	-0,020	-0,047
-717,006	599,865	0,037	-0,069
-715,991	106,268	-0,122	-0,108
-714,977	-96,842	-0,112	0,022
-713,962	32,964	0,039	-0,025
-712,948	-78,945	-0,034	-0,009
-711,933	-44,002	0,126	0,047
-710,918	507,242	-0,017	-0,030
-709,904	673,344	-0,031	-0,059
-708,889	-71,966	0,040	0,011
-707,875	-68,386	-0,140	-0,040
-706,860	-194,117	0,029	-0,000
-705,845	-200,000	0,013	-0,051
-704,831	386,953	0,036	-0,055
-703,816	800,000	-0,025	0,077
-702,802	-200,000	0,005	0,023
-701,787	-99,781	-0,114	-0,021
-700,772	800,000	0,043	-0,089
-699,758	366,424	0,071	-0,106
-698,743	800,000	-0,021	0,056
-697,729	236,988	0,032	0,039
-696,714	147,796	-0,077	0,077
-695,699	-21,060	-0,022	0,010
-694,685	205,896	0,008	0,009
-693,670	-155,580	0,027	-0,001
-692,656	-96,405	0,089	0,017
-691,641	446,700	-0,070	-0,114
-690,627	-101,608	0,092	0,016
-689,612	-43,233	0,048	0,018
-688,597	353,177	-0,071	0,105
-687,583	-200,000	-0,011	-0,082
-686,568	394,407	-0,032	-0,050
-685,554	-200,000	-0,002	-0,021
-684,539	800,000	-0,046	-0,113
-683,524	-118,935	0,083	-0,011
-682,510	232,603	0,052	0,063
-681,495	131,203	0,016	0,015
-680,481	93,618	-0,134	-0,113
-679,466	800,000	0,034	-0,096
-678,451	186,960	-0,077	0,085
-677,437	4,823	-0,048	0,026
-676,422	180,403	0,076	0,082
-675,408	-200,000	0,022	0,130
-674,393	800,000	-0,027	-0,078
-673,378	167,869	-0,083	0,088
-672,364	-152,622	-0,192	0,010
-671,349	3,041	-0,060	0,032
-670,335	-74,265	-0,108	-0,029
-669,320	-200,000	-0,002	0,016
-668,305	-78,320	0,119	-0,030
-667,291	-200,000	0,012	-0,055
-666,276	350,190	-0,044	-0,065
-665,262	800,000	0,079	-0,182
-664,247	-146,432	-0,101	0,006
-663,232	432,823	0,042	0,067
-662,218	6,101	-0,018	0,010
-661,203	142,704	-0,128	0,127
-660,189	84,402	-0,141	-0,114
-659,174	-200,000	0,035	-0,139
-658,159	-200,000	0,008	-0,124
-657,145	-91,223	-0,120	-0,025
-656,130	800,000	-0,075	-0,157
-655,116	-44,796	-0,173	0,064
-654,101	33,410	0,125	0,080
-653,086	232,224	0,061	-0,074
-652,072	112,888	-0,075	-0,067
-651,057	-110,563	0,005	0,001
-650,043	72,810	-0,037	-0,029
-649,028	491,800	0,057	-0,098
-648,014	800,000	-0,022	-0,057
-646,999	-67,165	0,106	0,031
-645,984	154,301	0,032	-0,033
-644,970	12,030	-0,049	-0,028
-643,955	-200,000	-0,016	-0,066
-642,941	100,687	-0,083	0,071
-641,926	-200,000	-0,018	0,068
-640,911	-60,197	-0,042	0,013
-639,897	-200,000	-0,005	-0,045
-638,882	-200,000	0,012	-0,087
-637,868	-122,857	-0,078	0,009
-636,853	800,000	-0,030	-0,075
-635,838	-158,208	-0,037	0,002
-634,824	-141,668	-0,051	0,004
-633,809	362,109	0,034	0,051
-632,795	-200,000	0,003	0,103
-631,780	-200,000	0,001	-0,179
-630,765	638,045	-0,065	-0,122
-629,751	800,000	0,046	-0,103
-628,736	-18,191	-0,125	-0,058
-627,722	298,024	-0,029	-0,040
-626,707	-104,278	0,057	0,010
-625,692	39,638	-0,088	0,059
-624,678	-161,651	0,062	0,002
-623,663	-105,221	-0,116	-0,019
-622,649	147,551	0,065	0,064
-621,634	27,624	-0,098	-0,061
-620,619	-200,000	-0,004	-0,081
-619,605	361,796	-0,014	-0,021
-618,590	-162,464	0,175	0,006
-617,576	-200,000	-0,024	0,083
-616,561	40,361	-0,047	-0,031
-615,546	-75,020	-0,038	-0,010
-614,532	-200,000	-0,010	-0,073
-613,517	-64,827	-0,080	0,024
-612,503	-200,000	0,005	-0,029
-611,488	-200,000	0,007	-0,105
-610,474	204,997	0,058	0,067
-609,459	33,670	-0,150	-0,097
-608,444	800,000	-0,050	0,110
-607,430	800,000	-0,022	-0,053
-606,415	8,155	-0,088	-0,049
-605,401	-200,000	0,001	0,082
-604,386	-103,047	0,130	-0,023
-603,371	511,277	-0,057	0,098
-602,357	-41,422	0,057	0,022
-601,342	-200,000	-0,013	0,113
-600,328	800,000	0,076	-0,178
-599,313	20,857	0,155	-0,093
-598,298	-85,599	-0,125	0,029
-597,284	-45,674	0,157	0,057
-596,269	800,000	-0,032	-0,090
-595,255	-200,000	-0,007	-0,219
-594,240	800,000	0,043	-0,126
-593,225	-200,000	0,011	0,075
-592,211	123,641	0,166	-0,154
-591,196	109,943	-0,053	0,047
-590,182	-1,543	0,067	0,035
-589,167	3,721	-0,086	-0,046
-588,152	-200,000	0,016	-0,112
-587,138	-4,394	0,154	-0,079
-586,123	-200,000	-0,020	0,129
-585,109	800,000	0,023	-0,065
-584,094	-179,698	0,017	0,000
-583,079	800,000	0,028	0,060
-582,065	614,963	-0,034	0,064
-581,050	788,085	0,041	-0,084
-580,036	33,095	0,012	-0,008
-579,021	375,905	-0,030	-0,046
-578,006	266,376	0,044	0,057
-576,992	-200,000	-0,018	-0,085
-575,977	5,251	-0,044	-0,024
-574,963	298,280	0,041	0,056
-573,948	519,444	-0,072	0,126
-572,934	-0,165	0,104	-0,055
-571,919	-15,708	-0,081	-0,038
-570,904	800,000	-0,034	-0,105
-569,890	-117,769	0,026	-0,003
-568,875	532,290	0,026	0,045
-567,861	506,723	0,052	-0,089
-566,846	616,301	0,005	0,010
-565,831	57,111	0,037	0,027
-564,817	-48,030	0,111	0,040
-563,802	395,215	-0,030	0,046
-562,788	103,164	0,025	0,021
-561,773	22,511	0,181	-0,109
-560,758	-200,000	-0,002	-0,073
-559,744	394,841	-0,102	-0,158
-558,729	-200,000	0,001	0,027
-557,715	-124,263	-0,085	-0,010
-556,700	440,820	0,048	-0,078
-555,685	800,000	0,020	-0,063
-554,671	-29,513	0,109	0,046
-553,656	451,970	0,063	-0,103
-552,642	-34,486	-0,048	0,019
-551,627	232,395	0,059	0,071
-550,612	-21,387	-0,081	-0,037
-549,598	106,440	-0,059	-0,052
-548,583	800,000	-0,028	-0,060
-547,569	-46,074	0,151	0,055
-546,554	-71,768	0,086	-0,023
-545,539	51,939	0,108	-0,076
-544,525	238,219	0,103	0,127
-543,510	253,837	0,043	0,054
-542,496	800,000	0,015	0,041
-541,481	800,000	0,033	-0,097
-540,466	37,043	-0,135	-0,088
-539,452	-73,196	0,012	0,003
-538,437	-133,276	-0,193	-0,018
-537,423	-155,733	0,101	-0,005
-536,408	716,069	-0,022	0,043
-535,393	-26,260	-0,192	-0,083
-534,379	-15,220	0,090	0,043
-533,364	-49,549	-0,048	0,017
-532,350	800,000	0,039	-0,100
-531,335	-78,240	-0,122	-0,031
-530,321	728,684	-0,073	0,145
-529,306	379,133	-0,057	-0,087
-528,291	68,097	-0,049	-0,037
-527,277	16,260	-0,052	-0,030
-526,262	1,678	0,041	0,022
-525,248	-90,865	-0,098	0,021
-524,233	-200,000	-0,006	0,088
-523,218	800,000	-0,038	-0,109
-522,204	614,452	-0,053	-0,098
-521,189	427,169	0,077	-0,123
-520,175	19,816	-0,147	-0,087
-519,160	800,000	-0,037	-0,082
-518,145	-96,279	0,007	0,001
-517,131	184,511	0,140	0,153
-516,116	-200,000	-0,012	0,040
-515,102	-57,913	-0,140	0,045
-514,087	800,000	0,030	0,068
-513,072	-200,000	0,003	-0,037
-512,058	168,123	-0,018	-0,019
-511,043	-35,971	-0,065	0,026
-510,029	274,735	-0,030	-0,039
-509,014	85,147	0,101	0,082
-507,999	-91,429	0,034	0,007
-506,985	800,000	-0,005	0,013
-505,970	43,907	-0,116	-0,078
-504,956	-200,000	-0,009	-0,132
-503,941	-55,738	0,076	0,025
-502,926	-200,000	0,001	0,012
-501,912	-200,000	0,003	-0,159
-500,897	508,573	-0,051	0,087
-499,883	429,119	-0,056	0,089
-498,868	-200,000	-0,000	0,009
-497,853	229,771	-0,066	-0,079
-496,839	800,000	0,034	0,075
-495,824	88,800	-0,046	-0,037
-494,810	-13,098	0,149	0,071
-493,795	77,992	0,104	0,082
-492,781	-200,000	-0,007	-0,031
-491,766	-200,000	-0,007	-0,077
-490,751	-28,198	-0,058	-0,025
-489,737	357,635	-0,029	-0,043
-488,722	73,684	-0,089	-0,069
-487,708	-109,547	-0,081	0,012
-486,693	-87,905	-0,036	-0,008
-485,678	-200,000	-0,032	0,238
-484,664	171,217	0,041	-0,044
-483,649	-170,601	-0,114	0,003
-482,635	-85,372	-0,092	-0,021
-481,620	419,003	0,156	0,247
-480,605	-200,000	0,034	0,143
-479,591	-40,454	-0,051	0,019
-478,576	254,258	0,094	-0,118
-477,562	-200,000	0,000	-0,126
-476,547	-44,318	-0,100	-0,037
-475,532	-90,957	-0,073	-0,015
-474,518	222,420	0,041	0,049
-473,503	100,749	-0,068	-0,058
-472,489	-113,689	0,087	-0,012
-471,474	322,935	-0,075	0,106
-470,459	523,829	-0,009	0,016
-469,445	-200,000	-0,004	-0,088
-468,430	54,002	0,052	0,036
-467,416	218,287	-0,007	0,008
-466,401	-76,005	-0,016	0,004
-465,386	318,782	0,065	0,091
-464,372	169,164	-0,077	0,081
-463,357	-187,254	0,149	0,001
-462,343	133,688	-0,035	0,033
-461,328	800,000	0,021	-0,067
-460,313	800,000	0,032	-0,094
-459,299	399,906	0,096	0,149
-458,284	-79,785	0,046	-0,011
-457,270	355,755	-0,082	-0,121
-456,255	44,126	0,091	-0,061
-455,241	-200,000	-0,010	-0,056
-454,226	580,065	-0,063	0,114
-453,211	-200,000	-0,000	0,059
-452,197	267,159	0,101	-0,131
-451,182	800,000	-0,044	0,093
-450,168	791,597	-0,043	0,087
-449,153	-200,000	-0,014	-0,107
-448,138	196,703	0,039	0,044
-447,124	-160,331	0,034	0,001
-446,109	-200,000	-0,014	-0,064
-445,095	49,721	0,070	-0,048
-444,080	-200,000	-0,017	-0,075
-443,065	800,000	-0,019	0,048
-442,051	4,697	0,051	0,027
-441,036	-43,593	-0,139	0,051
-440,022	-200,000	0,011	-0,051
-439,007	23,834	0,044	-0,027
-437,992	-71,664	-0,036	0,010
-436,978	-200,000	-0,015	-0,141
-435,963	109,863	0,076	-0,067
-434,949	314,634	-0,034	-0,047
-433,934	-32,661	-0,036	-0,015
-432,919	-200,000	-0,022	0,092
-431,905	153,055	0,072	-0,072
-430,890	157,382	0,086	-0,087
-429,876	-132,165	0,007	0,001
-428,861	383,954	0,085	0,130
-427,846	-118,454	-0,116	0,015
-426,832	218,856	-0,064	-0,075
-425,817	176,784	0,017	0,018
-424,803	-122,813	0,091	0,011
-423,788	-93,195	0,066	0,013
-422,773	158,648	-0,013	-0,014
-421,759	-45,016	0,081	-0,029
-420,744	547,013	0,032	-0,057
-419,730	351,868	-0,015	0,022
-418,715	800,000	0,014	-0,030
-417,701	672,780	-0,023	0,043
-416,686	-98,640	0,091	-0,017
-415,671	-200,000	0,002	0,057
-414,657	-159,528	0,103	0,004
-413,642	-200,000	0,004	0,072
-412,628	800,000	-0,041	-0,115
-411,613	800,000	-0,043	-0,126
-410,598	53,117	-0,035	0,024
-409,584	-200,000	0,015	0,114
-408,569	125,347	0,047	0,043
-407,555	-200,000	0,012	0,127
-406,540	-45,742	0,075	-0,027
-405,525	-69,212	-0,114	-0,032
-404,511	-13,959	-0,128	0,061
-403,496	142,224	-0,074	-0,072
-402,482	-200,000	-0,007	-0,135
-401,467	235,790	0,065	0,079
-400,452	-200,000	0,002	0,026
-399,438	-200,000	-0,001	0,019
-398,423	-13,800	-0,040	-0,019
-397,409	40,621	-0,051	-0,034
-396,394	800,000	0,038	-0,107
-395,379	-200,000	-0,011	-0,047
-394,365	-200,000	0,012	0,048
-393,350	621,544	0,029	0,053
-392,336	246,597	-0,081	0,100
-391,321	229,286	-0,090	0,108
-390,306	800,000	-0,014	-0,031
-389,292	18,163	0,120	-0,070
-388,277	800,000	-0,020	-0,045
-387,263	-15,533	0,165	0,077
-386,248	-200,000	-0,002	0,066
-385,233	-200,000	0,032	0,152
-384,219	64,476	0,002	-0,002
-383,204	46,062	-0,093	-0,063
-382,190	238,489	0,088	-0,107
-381,175	-27,933	-0,171	0,072
-380,160	3,730	-0,129	-0,069
-379,146	-150,377	0,092	-0,005
-378,131	-117,336	0,083	-0,011
-377,117	-109,209	-0,047	-0,007
-376,102	516,848	-0,044	-0,075
-375,088	-43,576	-0,033	-0,012
-374,073	800,000	0,054	-0,144
-373,058	-200,000	-0,007	-0,057
-372,044	37,327	0,081	0,052
-371,029	-200,000	-0,000	0,152
-370,015	377,816	-0,051	0,076
-369,000	-120,279	-0,093	0,011
-367,985	-200,000	0,013	0,046
-366,971	-20,637	0,022	0,010
-365,956	-67,553	0,079	0,023
-364,942	284,228	-0,076	-0,100
-363,927	225,665	0,037	-0,044
-362,912	309,799	-0,052	-0,072
-361,898	800,000	0,022	-0,068
-360,883	-17,581	0,074	-0,034
-359,869	227,127	-0,066	0,078
-358,854	-126,430	0,012	0,001
-357,839	-200,000	0,017	0,071
-356,825	800,000	0,038	0,101
-355,810	-103,815	-0,171	0,029
-354,796	-79,156	-0,088	0,022
-353,781	183,959	-0,091	0,099
-352,766	-46,998	0,120	-0,043
-351,752	-200,000	0,003	0,045
-350,737	800,000	-0,042	-0,129
-349,723	-200,000	-0,017	0,098
-348,708	-92,189	0,032	-0,007
-347,693	63,388	0,068	0,050
-346,679	-200,000	-0,030	0,098
-345,664	-0,286	0,111	0,058
-344,650	-27,504	0,034	0,014
-343,635	242,181	0,054	0,066
-342,620	429,946	0,045	0,071
-341,606	800,000	0,051	-0,134
-340,591	800,000	-0,033	0,087
-339,577	649,242	-0,108	0,204
-338,562	-96,505	-0,074	0,014
-337,548	56,036	0,031	0,022
-336,533	-34,459	-0,117	-0,047
-335,518	800,000	0,077	0,200
-334,504	99,799	0,067	0,057
-333,489	131,778	0,011	0,010
-332,475	357,214	0,048	0,070
-331,460	-58,355	-0,057	0,018
-330,445	125,568	-0,073	-0,068
-329,431	26,841	0,101	0,062
-328,416	800,000	0,072	0,150
-327,402	800,000	0,038	0,085
-326,387	-80,225	0,024	-0,006
-325,372	200,297	-0,059	-0,067
-324,358	-200,000	-0,020	0,095
-323,343	216,790	-0,049	0,058
-322,329	48,847	-0,068	-0,046
-321,314	800,000	-0,010	0,030
-320,299	800,000	0,006	-0,018
-319,285	800,000	0,052	0,149
-318,270	-127,454	-0,069	0,007
-317,256	800,000	-0,037	-0,082
-316,241	800,000	0,041	0,118
-315,226	122,488	0,084	0,076
-314,212	467,658	-0,073	0,121
-313,197	-7,989	0,075	0,037
-312,183	-151,206	0,083	-0,004
-311,168	-200,000	0,013	-0,093
-310,153	-114,790	-0,179	-0,025
-309,139	-21,092	0,166	0,074
-308,124	384,873	0,050	-0,076
-307,110	-82,658	0,041	0,010
-306,095	37,510	-0,014	0,009
-305,080	-42,553	0,115	0,043
-304,066	800,000	0,031	0,089
-303,051	519,772	-0,034	-0,058
-302,037	718,613	-0,036	0,071
-301,022	-200,000	-0,010	-0,080
-300,008	-124,259	0,131	-0,015
-298,993	-200,000	-0,032	-0,138
-297,978	-80,354	-0,086	0,021
-296,964	-30,818	-0,076	-0,031
-295,949	292,654	-0,113	-0,151
-294,935	-94,282	0,085	-0,017
-293,920	800,000	0,009	0,025
-292,905	-200,000	-0,001	0,008
-291,891	790,608	-0,083	0,167
-290,876	800,000	0,054	0,151
-289,862	82,507	0,040	-0,032
-288,847	800,000	-0,048	0,120
-287,832	87,932	0,053	0,043
-286,818	-91,598	-0,151	0,031
-285,803	47,277	0,070	0,048
-284,789	-200,000	-0,037	0,190
-283,774	-3,622	-0,093	0,047
-282,759	46,746	-0,110	0,074
-281,745	-200,000	-0,011	0,070
-280,730	-33,241	-0,128	0,052
-279,716	18,092	0,062	-0,036
-278,701	-106,390	0,082	0,013
-277,686	713,027	0,113	0,220
-276,672	261,463	0,083	-0,105
-275,657	201,933	0,071	0,080
-274,643	-50,502	0,044	-0,015
-273,628	-200,000	0,033	-0,110
-272,613	-200,000	0,011	-0,046
-271,599	-200,000	-0,014	-0,097
-270,584	32,243	-0,016	-0,010
-269,570	-60,260	0,201	-0,062
-268,555	800,000	0,015	0,044
-267,540	-93,605	-0,050	-0,010
-266,526	203,849	-0,063	0,071
-265,511	686,397	-0,058	-0,112
-264,497	-200,000	0,004	0,015
-263,482	-200,000	0,022	0,114
-262,467	-200,000	0,013	0,061
-261,453	113,842	-0,063	-0,056
-260,438	131,955	0,043	0,040
-259,424	-200,000	0,003	0,113
-258,409	-200,000	-0,045	-0,148
-257,395	800,000	-0,041	0,086
-256,380	390,344	-0,101	-0,153
-255,365	-107,012	0,227	0,036
-254,351	-200,000	0,006	-0,058
-253,336	-11,728	-0,120	-0,057
-252,322	-3,150	-0,045	-0,023
-251,307	212,122	-0,054	-0,062
-250,292	800,000	0,047	-0,105
-249,278	751,029	0,055	0,109
-248,263	437,652	0,043	-0,068
-247,249	768,344	-0,022	-0,044
-246,234	-200,000	-0,017	0,079
-245,219	295,810	-0,071	-0,095
-244,205	-140,015	-0,086	-0,007
-243,190	-20,380	-0,039	0,017
-242,176	60,766	0,016	-0,011
-241,161	-69,206	0,127	0,035
-240,146	23,362	0,059	0,035
-239,132	427,715	0,083	0,131
-238,117	-200,000	0,026	-0,088
-237,103	-98,323	-0,019	-0,004
-236,088	43,079	0,128	-0,085
-235,073	-200,000	0,007	-0,038
-234,059	-200,000	0,023	0,152
-233,044	160,328	-0,058	-0,059
-232,030	35,115	-0,120	-0,077
-231,015	518,350	0,037	0,063
-230,000	-200,000	-0,012	0,044
-228,986	166,689	-0,036	-0,038
-227,971	-200,000	-0,022	-0,105
-226,957	800,000	0,010	-0,030
-225,942	-169,523	0,068	0,002
-224,927	-26,876	-0,036	-0,015
-223,913	234,015	0,015	-0,018
-222,898	59,610	-0,039	-0,028
-221,884	-60,742	0,104	0,032
-220,869	28,066	0,039	0,024
-219,855	-200,000	0,030	0,190
-218,840	-200,000	-0,007	0,150
-217,825	238,439	-0,050	-0,061
-216,811	-72,447	0,110	-0,029
-215,796	32,394	-0,144	-0,090
-214,782	466,399	0,025	-0,040
-213,767	147,271	0,040	0,039
-212,752	500,332	-0,049	-0,082
-211,738	-200,000	0,000	-0,014
-210,723	-28,168	0,078	0,033
-209,709	150,542	-0,039	-0,039
-208,694	800,000	-0,004	0,013
-207,679	0,157	0,074	0,038
-206,665	-35,112	-0,096	0,038
-205,650	21,469	-0,038	0,023
-204,636	800,000	-0,026	0,070
-203,621	-3,320	0,119	-0,060
-202,606	161,929	0,006	0,006
-201,592	800,000	0,037	-0,105
-200,577	-19,295	-0,077	-0,035
-199,563	-200,000	-0,003	-0,010
-198,548	-200,000	-0,002	-0,088
-197,533	800,000	-0,027	0,086
-196,519	-58,229	0,100	0,031
-195,504	800,000	-0,031	-0,063
-194,490	-200,000	0,004	0,019
-193,475	-5,161	-0,063	-0,031
-192,460	366,788	0,073	-0,108
-191,446	704,338	0,038	0,074
-190,431	-200,000	-0,037	0,141
-189,417	62,733	0,062	0,045
-188,402	242,738	-0,041	0,050
-187,387	71,094	-0,070	0,053
-186,373	-173,835	-0,074	0,002
-185,358	-200,000	0,006	-0,047
-184,344	800,000	0,033	0,068
-183,329	329,241	0,086	0,121
-182,315	210,522	0,063	-0,073
-181,300	139,160	0,089	0,085
-180,285	101,828	-0,084	-0,071
-179,271	-200,000	0,005	-0,058
-178,256	-200,000	-0,030	0,098
-177,242	-110,087	0,094	0,014
-176,227	132,101	-0,111	-0,104
-175,212	145,995	-0,049	0,048
-174,198	-9,777	0,115	0,056
-173,183	-200,000	0,024	-0,167
-172,169	-55,942	0,077	-0,025
-171,154	800,000	-0,079	-0,194
-170,139	800,000	-0,016	0,040
-169,125	800,000	0,037	0,079
-168,110	-93,572	0,087	-0,017
-167,096	-200,000	0,029	0,141
-166,081	-200,000	-0,009	0,070
-165,066	800,000	-0,034	-0,072
-164,052	-123,866	-0,122	-0,014
-163,037	533,884	-0,063	0,109
-162,023	800,000	-0,052	-0,107
-161,008	-200,000	0,009	0,085
-159,993	-143,819	-0,061	0,004
-158,979	-200,000	-0,005	0,080
-157,964	-122,019	-0,086	-0,010
-156,950	-3,255	-0,116	-0,058
-155,935	-200,000	0,001	0,007
-154,920	-83,503	0,201	0,046
-153,906	119,064	-0,068	-0,061
-152,891	-100,216	-0,081	-0,014
-151,877	-200,000	-0,005	-0,065
-150,862	404,885	-0,123	-0,189
-149,847	-200,000	0,029	-0,120
-148,833	-200,000	0,013	-0,064
-147,818	-200,000	0,040	0,132
-146,804	76,165	0,129	0,099
-145,789	179,384	0,081	0,086
-144,775	779,294	0,031	-0,061
-143,760	-200,000	-0,002	0,022
-142,745	800,000	-0,098	-0,296
-141,731	-200,000	0,019	-0,080
-140,716	-193,274	0,062	-0,000
-139,702	-200,000	-0,007	0,075
-138,687	-200,000	0,014	0,064
-137,672	-139,958	-0,072	0,005
-136,658	5,797	0,094	-0,051
-135,643	-14,058	0,024	0,011
-134,629	238,775	0,082	-0,100
-133,614	71,650	0,078	0,059
-132,599	141,572	0,089	0,086
-131,585	24,709	-0,127	-0,076
-130,570	146,278	-0,043	0,042
-129,556	125,757	-0,063	-0,058
-128,541	-200,000	-0,021	-0,101
-127,526	800,000	0,065	0,156
-126,512	386,775	-0,011	0,016
-125,497	520,211	0,066	0,112
-124,483	304,780	0,132	0,179
-123,468	-200,000	0,001	0,124
-122,453	346,256	0,023	-0,032
-121,439	64,520	0,102	0,074
-120,424	473,636	0,022	0,037
-119,410	129,880	-0,035	-0,033
-118,395	-200,000	0,013	0,161
