DTS Sentinel unit serial number:	SN410029Multiplexer serial number:	ORYXHardware model number:	OX2-SRSoftware version number:	ORYX F/W v4,00 Oryx Data Collector v3.7.2.0data status	okinstallation	B4 Nyhavnadifferential loss correction	single-endedforward channel	channel 2reverse channel	N/Adate	2023/12/15time	23:20:13forward acquisition time	300,00reverse acquisition time	0,00gamma	499,1914k internal	0,3129k external	0,3129temperature offset calibration	1,0000default loss term (dB/km)	0,3820temperature slope calibration	1,0000multiplexer offset coefficient	1,0000multiplexer slope coefficient	1,0000fibre end	0,00T internal ref (°C)	21,67T ext. ref 1 (°C)	6,66T ext. ref 2 (°C)	6,86length (m)	temperature (°C)	Stokes	anti-Stokes-744,400	269,995	0,086	0,113
-743,385	5,918	-0,225	0,123
-742,371	-200,000	0,202	-0,001
-741,356	-86,902	-0,263	0,059
-740,342	78,393	0,091	-0,072
-739,327	161,920	-0,176	0,184
-738,312	252,990	0,045	0,057
-737,298	-143,570	-0,250	0,017
-736,283	157,112	0,062	0,064
-735,269	134,204	-0,149	0,143
-734,254	-166,238	0,086	-0,003
-733,239	-90,353	-0,350	-0,075
-732,225	108,347	0,086	-0,077
-731,210	75,146	-0,015	0,011
-730,196	-200,000	-0,011	-0,058
-729,181	800,000	-0,071	-0,201
-728,167	184,526	0,019	-0,021
-727,152	-126,263	-0,069	-0,008
-726,137	-200,000	-0,025	0,111
-725,123	-62,516	-0,050	0,015
-724,108	-200,000	0,018	-0,059
-723,094	53,771	-0,037	-0,027
-722,079	-200,000	0,003	-0,102
-721,064	73,491	-0,073	0,057
-720,050	431,880	0,015	-0,023
-719,035	323,378	-0,030	-0,042
-718,021	-95,525	-0,119	-0,023
-717,006	800,000	-0,064	-0,139
-715,991	-61,773	-0,097	-0,030
-714,977	-88,974	-0,105	-0,023
-713,962	384,372	-0,048	-0,074
-712,948	-200,000	-0,009	-0,082
-711,933	800,000	-0,038	0,115
-710,918	138,123	0,020	-0,020
-709,904	-200,000	0,028	-0,146
-708,889	-165,899	-0,058	0,002
-707,875	800,000	-0,073	-0,150
-706,860	105,048	0,062	-0,054
-705,845	226,551	0,063	0,076
-704,831	-200,000	-0,004	-0,021
-703,816	-200,000	0,008	-0,100
-702,802	659,112	0,023	-0,044
-701,787	-177,387	0,160	-0,003
-700,772	-65,805	-0,049	-0,015
-699,758	-139,678	-0,124	-0,010
-698,743	94,788	0,055	-0,046
-697,729	-69,548	0,118	0,033
-696,714	-200,000	0,003	0,089
-695,699	-190,216	-0,074	0,001
-694,685	-79,242	0,129	-0,032
-693,670	-200,000	0,000	-0,094
-692,656	-58,276	-0,035	0,011
-691,641	220,353	0,072	0,086
-690,627	800,000	-0,041	-0,104
-689,612	94,095	-0,077	0,064
-688,597	-200,000	0,014	0,163
-687,583	456,227	0,014	-0,023
-686,568	678,533	-0,037	-0,071
-685,554	-200,000	-0,019	0,093
-684,539	85,632	0,057	0,046
-683,524	-200,000	0,002	0,026
-682,510	6,793	-0,032	0,018
-681,495	-200,000	-0,001	0,057
-680,481	111,059	-0,134	-0,119
-679,466	-72,725	0,070	-0,019
-678,451	800,000	-0,010	-0,021
-677,437	361,135	0,029	-0,043
-676,422	185,091	0,084	-0,092
-675,408	59,912	-0,135	0,099
-674,393	710,969	0,082	-0,162
-673,378	106,661	-0,067	-0,059
-672,364	-49,602	-0,097	-0,034
-671,349	76,313	-0,056	0,044
-670,335	-80,931	0,042	0,010
-669,320	229,105	0,055	-0,067
-668,305	2,147	-0,005	0,003
-667,291	206,931	-0,094	0,109
-666,276	351,319	-0,008	-0,012
-665,262	93,875	-0,058	-0,049
-664,247	641,527	-0,024	0,046
-663,232	800,000	-0,011	-0,031
-662,218	-200,000	0,010	-0,046
-661,203	-200,000	-0,007	0,041
-660,189	800,000	0,046	-0,110
-659,174	20,906	-0,131	-0,078
-658,159	52,114	0,115	-0,081
-657,145	207,815	0,016	0,018
-656,130	800,000	0,034	0,075
-655,116	-200,000	-0,009	0,111
-654,101	-56,391	-0,129	-0,042
-653,086	514,630	-0,023	-0,039
-652,072	651,180	0,056	-0,106
-651,057	800,000	0,043	-0,122
-650,043	800,000	-0,065	-0,170
-649,028	800,000	0,009	0,030
-648,014	355,406	0,023	0,034
-646,999	118,693	0,018	0,016
-645,984	-45,035	-0,149	-0,055
-644,970	348,368	0,023	0,034
-643,955	37,331	-0,100	-0,065
-642,941	-116,109	-0,084	0,011
-641,926	-200,000	0,027	0,000
-640,911	-200,000	-0,030	0,115
-639,897	-200,000	-0,050	-0,174
-638,882	800,000	0,029	-0,067
-637,868	-176,412	-0,082	-0,002
-636,853	-200,000	-0,018	-0,060
-635,838	800,000	0,047	-0,130
-634,824	205,412	-0,023	0,027
-633,809	-29,494	-0,092	-0,039
-632,795	800,000	0,046	0,133
-631,780	159,438	0,029	0,030
-630,765	-200,000	0,017	-0,129
-629,751	240,211	-0,100	0,123
-628,736	800,000	0,057	0,131
-627,722	800,000	0,061	0,172
-626,707	337,079	-0,084	-0,121
-625,692	800,000	0,043	0,136
-624,678	-36,118	-0,071	0,028
-623,663	-200,000	-0,009	0,054
-622,649	-69,417	-0,178	-0,050
-621,634	-79,443	0,084	-0,021
-620,619	195,138	-0,131	-0,147
-619,605	-200,000	-0,012	0,062
-618,590	-93,686	-0,133	-0,027
-617,576	-200,000	-0,011	0,155
-616,561	-172,749	0,098	0,002
-615,546	-200,000	0,034	0,113
-614,532	17,125	-0,019	0,011
-613,517	-22,739	-0,083	-0,037
-612,503	31,997	0,116	0,074
-611,488	-71,723	0,037	-0,010
-610,474	-127,096	-0,085	0,009
-609,459	-200,000	-0,000	0,010
-608,444	-72,844	-0,034	0,009
-607,430	181,647	-0,112	-0,122
-606,415	395,509	-0,044	0,068
-605,401	317,715	0,099	0,139
-604,386	-200,000	0,068	0,243
-603,371	146,870	0,056	0,056
-602,357	800,000	-0,031	-0,068
-601,342	-157,600	0,070	-0,003
-600,328	80,239	-0,157	-0,125
-599,313	-200,000	-0,002	0,006
-598,298	-159,002	-0,119	-0,005
-597,284	-200,000	0,013	0,088
-596,269	-25,570	0,112	0,049
-595,255	40,540	0,118	0,079
-594,240	800,000	-0,026	0,070
-593,225	-112,612	-0,149	0,022
-592,211	800,000	-0,032	-0,101
-591,196	384,480	-0,047	-0,072
-590,182	800,000	-0,040	-0,094
-589,167	800,000	0,051	0,134
-588,152	-200,000	0,006	0,096
-587,138	638,764	0,043	0,081
-586,123	217,889	-0,086	-0,102
-585,109	13,217	0,063	-0,036
-584,094	316,835	-0,046	-0,064
-583,079	343,726	-0,026	-0,037
-582,065	178,892	-0,021	-0,023
-581,050	61,852	0,088	-0,065
-580,036	-200,000	0,019	-0,083
-579,021	730,698	-0,069	-0,136
-578,006	-106,625	-0,098	0,016
-576,992	-38,627	0,067	0,026
-575,977	191,382	-0,047	-0,053
-574,963	-147,646	0,075	0,005
-573,948	82,385	-0,043	-0,035
-572,934	253,460	-0,046	0,059
-571,919	142,593	0,013	0,012
-570,904	-81,153	-0,124	0,030
-569,890	281,108	-0,099	-0,131
-568,875	88,325	-0,033	0,027
-567,861	800,000	0,033	-0,070
-566,846	330,457	0,090	-0,128
-565,831	800,000	0,017	-0,045
-564,817	31,807	-0,089	-0,056
-563,802	100,197	0,017	-0,015
-562,788	-71,779	-0,092	0,025
-561,773	217,453	-0,088	0,104
-560,758	159,776	0,078	-0,080
-559,744	95,390	0,067	0,056
-558,729	800,000	0,018	0,040
-557,715	58,428	-0,054	-0,039
-556,700	151,820	-0,093	-0,094
-555,685	-200,000	0,011	-0,104
-554,671	32,271	0,091	-0,058
-553,656	800,000	0,038	-0,085
-552,642	140,914	-0,081	-0,079
-551,627	45,105	-0,024	0,016
-550,612	31,343	-0,055	0,035
-549,598	67,989	0,132	-0,099
-548,583	299,178	0,061	-0,083
-547,569	800,000	-0,019	0,052
-546,554	129,964	0,037	-0,035
-545,539	800,000	-0,064	-0,141
-544,525	40,529	-0,047	0,031
-543,510	-200,000	0,022	-0,140
-542,496	139,289	0,075	-0,073
-541,481	31,888	-0,072	-0,046
-540,466	-170,743	-0,097	-0,002
-539,452	-64,337	-0,087	0,026
-538,437	140,887	-0,028	0,027
-537,423	-43,771	0,087	0,032
-536,408	-200,000	0,009	-0,117
-535,393	800,000	-0,062	-0,154
-534,379	17,414	-0,111	-0,065
-533,364	-200,000	0,005	0,077
-532,350	-84,643	-0,077	-0,018
-531,335	-200,000	0,006	0,102
-530,321	465,941	0,043	0,071
-529,306	-5,671	0,048	-0,024
-528,291	-200,000	-0,025	-0,096
-527,277	-200,000	-0,008	-0,029
-526,262	730,336	0,027	-0,053
-525,248	-200,000	0,027	0,102
-524,233	-105,520	0,081	0,013
-523,218	-60,002	0,032	-0,010
-522,204	105,702	-0,036	0,032
-521,189	-200,000	0,026	0,113
-520,175	-70,062	0,162	-0,045
-519,160	-200,000	0,012	0,100
-518,145	108,833	0,091	0,081
-517,131	27,299	-0,064	0,040
-516,116	-200,000	0,002	0,065
-515,102	800,000	-0,039	0,102
-514,087	120,067	0,036	-0,033
-513,072	187,624	-0,076	0,084
-512,058	250,247	-0,051	0,064
-511,043	-200,000	-0,004	0,028
-510,029	-200,000	-0,016	-0,055
-509,014	800,000	0,010	-0,020
-507,999	-80,653	-0,054	0,013
-506,985	470,170	-0,055	0,091
-505,970	205,213	-0,104	-0,119
-504,956	88,338	-0,088	0,072
-503,941	800,000	0,037	-0,080
-502,926	-48,403	-0,088	0,031
-501,912	158,077	0,046	0,047
-500,897	19,568	0,195	-0,115
-499,883	87,448	-0,034	0,028
-498,868	160,075	0,077	-0,080
-497,853	393,125	-0,005	-0,008
-496,839	108,534	0,094	0,083
-495,824	-200,000	0,023	0,082
-494,810	-200,000	0,034	-0,118
-493,795	480,370	-0,029	0,048
-492,781	59,368	0,126	0,091
-491,766	800,000	-0,030	-0,083
-490,751	-200,000	-0,012	0,047
-489,737	-200,000	0,008	0,133
-488,722	84,677	0,026	0,021
-487,708	-76,335	0,074	-0,019
-486,693	-200,000	-0,036	0,128
-485,678	800,000	-0,032	-0,102
-484,664	-61,426	-0,059	0,018
-483,649	-200,000	0,019	-0,077
-482,635	218,064	0,029	-0,034
-481,620	284,791	0,101	-0,134
-480,605	-48,775	0,060	-0,021
-479,591	93,602	0,066	0,055
-478,576	-4,162	-0,057	-0,029
-477,562	-90,655	-0,118	-0,025
-476,547	-18,408	-0,110	-0,050
-475,532	800,000	-0,030	0,062
-474,518	-200,000	0,024	-0,097
-473,503	752,840	-0,011	0,021
-472,489	191,448	0,037	-0,041
-471,474	-200,000	-0,006	0,067
-470,459	-200,000	0,019	-0,079
-469,445	800,000	-0,034	-0,083
-468,430	685,013	0,027	0,053
-467,416	-200,000	0,016	0,096
-466,401	116,040	0,066	0,059
-465,386	-88,208	0,017	0,004
-464,372	181,781	0,101	-0,109
-463,357	-200,000	0,022	-0,114
-462,343	-90,043	-0,043	-0,009
-461,328	347,589	0,053	-0,077
-460,313	-200,000	0,011	-0,062
-459,299	-40,075	-0,074	-0,028
-458,284	160,923	0,091	-0,093
-457,270	800,000	-0,041	-0,099
-456,255	311,039	0,059	-0,082
-455,241	634,219	-0,016	0,029
-454,226	-22,973	0,055	0,024
-453,211	57,729	0,083	0,060
-452,197	-200,000	0,020	-0,156
-451,182	-39,985	0,129	0,049
-450,168	47,517	-0,067	0,046
-449,153	108,014	0,044	0,039
-448,138	413,621	-0,075	-0,118
-447,124	-150,439	0,054	0,003
-446,109	-200,000	0,018	0,135
-445,095	159,993	-0,054	0,055
-444,080	-200,000	0,001	0,072
-443,065	-50,359	0,051	0,017
-442,051	97,014	0,032	0,027
-441,036	431,901	-0,046	-0,074
-440,022	-72,422	0,091	0,025
-439,007	442,222	-0,033	0,054
-437,992	800,000	-0,017	0,047
-436,978	64,149	0,089	0,066
-435,963	-27,637	-0,021	0,009
-434,949	-92,609	-0,048	-0,010
-433,934	-198,367	-0,118	0,000
-432,919	105,701	-0,047	-0,041
-431,905	800,000	0,046	-0,144
-430,890	-68,389	-0,078	-0,022
-429,876	8,457	-0,028	0,015
-428,861	61,453	0,108	0,079
-427,846	13,168	0,075	0,042
-426,832	-200,000	-0,020	-0,086
-425,817	214,415	0,052	-0,061
-424,803	-200,000	-0,003	-0,187
-423,788	521,501	-0,067	0,116
-422,773	171,225	0,056	0,059
-421,759	-200,000	-0,010	-0,063
-420,744	-153,483	0,052	-0,003
-419,730	-200,000	0,005	-0,137
-418,715	800,000	0,087	-0,216
-417,701	-200,000	-0,004	-0,032
-416,686	292,558	0,086	-0,116
-415,671	-21,776	0,101	0,045
-414,657	-200,000	-0,007	0,126
-413,642	-200,000	-0,009	-0,031
-412,628	-200,000	-0,026	0,118
-411,613	145,955	-0,132	-0,130
-410,598	-199,154	0,038	-0,000
-409,584	-200,000	0,010	0,052
-408,569	129,972	0,031	0,029
-407,555	-72,201	-0,084	0,023
-406,540	-91,058	-0,040	-0,008
-405,525	-73,254	-0,009	0,002
-404,511	-92,454	-0,063	0,013
-403,496	-200,000	-0,009	-0,053
-402,482	242,297	-0,068	0,084
-401,467	-148,076	0,008	0,000
-400,452	387,092	0,018	-0,028
-399,438	-38,310	-0,037	0,014
-398,423	365,704	0,107	-0,159
-397,409	-200,000	0,007	-0,066
-396,394	-169,068	-0,104	0,003
-395,379	65,078	0,037	0,027
-394,365	-26,477	0,075	0,032
-393,350	-11,104	0,157	0,076
-392,336	-170,257	-0,058	0,001
-391,321	800,000	0,035	-0,108
-390,306	133,244	-0,041	-0,039
-389,292	-4,050	0,074	0,038
-388,277	-137,977	-0,081	-0,007
-387,263	-200,000	0,010	0,108
-386,248	259,880	0,099	0,125
-385,233	578,509	0,115	0,207
-384,219	800,000	-0,029	0,061
-383,204	408,299	-0,044	0,069
-382,190	-131,233	-0,030	-0,003
-381,175	26,794	-0,081	-0,050
-380,160	800,000	0,055	-0,178
-379,146	-200,000	0,033	-0,130
-378,131	-200,000	-0,017	0,082
-377,117	-200,000	-0,010	0,163
-376,102	-82,501	0,040	-0,010
-375,088	141,292	-0,063	-0,061
-374,073	800,000	0,042	0,094
-373,058	19,171	-0,046	-0,027
-372,044	113,201	0,087	-0,077
-371,029	183,859	0,015	0,016
-370,015	287,702	0,021	-0,028
-369,000	-87,888	-0,087	-0,019
-367,985	-96,606	-0,082	-0,016
-366,971	-200,000	0,049	0,000
-365,956	200,322	-0,045	-0,051
-364,942	16,839	0,056	-0,032
-363,927	-78,121	-0,124	-0,031
-362,912	-200,000	0,014	0,048
-361,898	-93,078	-0,052	-0,011
-360,883	-152,148	0,028	0,001
-359,869	-109,043	-0,062	0,010
-358,854	-200,000	-0,018	0,074
-357,839	800,000	0,034	0,110
-356,825	190,128	-0,077	0,084
-355,810	-200,000	-0,004	-0,012
-354,796	-52,631	-0,109	-0,037
-353,781	95,221	-0,041	0,034
-352,766	-93,082	0,049	-0,010
-351,752	268,117	-0,010	0,013
-350,737	-106,528	0,125	-0,020
-349,723	97,261	0,069	0,058
-348,708	399,873	0,069	0,107
-347,693	-200,000	-0,009	0,098
-346,679	-200,000	0,004	-0,035
-345,664	55,115	0,095	0,067
-344,650	68,876	0,023	0,017
-343,635	-94,624	0,081	0,016
-342,620	138,198	0,133	0,128
-341,606	-200,000	-0,035	-0,172
-340,591	-61,990	-0,059	0,018
-339,577	-200,000	0,001	0,048
-338,562	-130,392	0,147	0,014
-337,548	-200,000	-0,008	-0,032
-336,533	-178,040	0,137	-0,002
-335,518	249,760	0,025	-0,031
-334,504	276,336	-0,076	0,099
-333,489	428,357	0,041	-0,065
-332,475	-200,000	0,013	0,117
-331,460	-200,000	-0,041	0,164
-330,445	-104,072	-0,075	-0,013
-329,431	-53,991	0,127	0,042
-328,416	-40,060	0,050	0,019
-327,402	800,000	0,111	0,243
-326,387	110,609	-0,137	-0,120
-325,372	-200,000	0,016	-0,058
-324,358	274,076	-0,046	0,060
-323,343	-46,976	-0,146	-0,052
-322,329	-94,131	0,179	0,036
-321,314	99,174	-0,027	0,023
-320,299	-200,000	0,007	-0,080
-319,285	-200,000	-0,015	0,132
-318,270	255,545	0,045	0,056
-317,256	323,722	-0,012	0,016
-316,241	-154,873	-0,022	0,001
-315,226	262,069	0,057	-0,073
-314,212	145,056	0,031	0,031
-313,197	-200,000	0,005	0,087
-312,183	800,000	-0,037	0,113
-311,168	-200,000	0,008	-0,055
-310,153	-200,000	0,015	0,061
-309,139	-25,846	0,048	0,021
-308,124	800,000	0,015	0,046
-307,110	30,447	0,117	-0,073
-306,095	800,000	0,032	-0,066
-305,080	-25,777	0,049	-0,021
-304,066	550,745	-0,086	-0,151
-303,051	-123,144	-0,064	0,007
-302,037	800,000	-0,034	-0,087
-301,022	61,239	0,126	0,092
-300,008	327,517	-0,077	0,108
-298,993	800,000	0,033	0,068
-297,978	598,160	-0,062	0,113
-296,964	-48,352	-0,072	0,025
-295,949	-122,071	-0,162	-0,019
-294,935	86,961	0,103	-0,083
-293,920	-30,251	0,127	-0,052
-292,905	86,617	0,078	0,062
-291,891	-200,000	-0,011	-0,069
-290,876	-200,000	-0,002	0,021
-289,862	-69,440	0,105	-0,029
-288,847	590,685	-0,092	-0,167
-287,832	-58,537	-0,058	0,018
-286,818	50,248	-0,099	-0,068
-285,803	800,000	0,030	-0,086
-284,789	601,536	-0,047	0,086
-283,774	-200,000	-0,028	0,159
-282,759	-200,000	-0,006	0,055
-281,745	-158,565	0,056	-0,002
-280,730	-200,000	-0,025	0,094
-279,716	800,000	-0,041	-0,100
-278,701	-200,000	-0,026	-0,094
-277,686	800,000	-0,042	-0,128
-276,672	168,875	0,023	-0,024
-275,657	800,000	-0,045	0,113
-274,643	-44,733	0,075	0,027
-273,628	800,000	0,035	-0,102
-272,613	-200,000	0,020	-0,090
-271,599	-200,000	-0,056	0,184
-270,584	40,519	0,061	0,040
-269,570	-200,000	0,000	0,132
-268,555	800,000	-0,026	-0,058
-267,540	-50,915	0,082	0,028
-266,526	0,108	-0,082	-0,043
-265,511	-200,000	-0,004	-0,109
-264,497	196,247	0,039	0,043
-263,482	800,000	0,044	0,093
-262,467	205,424	0,022	0,025
-261,453	-10,460	0,064	-0,031
-260,438	800,000	-0,019	0,050
-259,424	612,555	-0,020	-0,036
-258,409	-56,103	-0,092	0,030
-257,395	-200,000	0,020	-0,068
-256,380	212,416	0,076	0,088
-255,365	269,653	0,078	0,100
-254,351	-99,443	-0,079	-0,014
-253,336	-200,000	0,005	-0,035
-252,322	244,588	-0,074	-0,091
-251,307	345,777	-0,069	-0,100
-250,292	800,000	0,063	0,128
-249,278	-200,000	-0,033	0,000
-248,263	111,233	0,054	0,047
-247,249	-200,000	-0,007	-0,028
-246,234	8,338	-0,131	-0,072
-245,219	314,157	0,060	0,082
-244,205	800,000	0,038	0,095
-243,190	-54,025	0,169	0,056
-242,176	91,423	0,081	0,067
-241,161	58,834	-0,039	-0,028
-240,146	-140,482	-0,022	-0,002
-239,132	-65,685	-0,085	-0,025
-238,117	-142,557	-0,082	0,006
-237,103	622,816	-0,034	0,063
-236,088	-200,000	0,023	-0,127
-235,073	800,000	-0,041	-0,101
-234,059	-47,924	0,033	0,011
-233,044	800,000	-0,072	0,158
-232,030	-200,000	0,021	0,081
-231,015	63,647	0,130	0,095
-230,000	-142,804	0,151	0,011
-228,986	-200,000	0,033	0,158
-227,971	800,000	-0,048	0,100
-226,957	-83,428	-0,090	0,021
-225,942	800,000	0,065	0,138
-224,927	732,478	-0,113	0,221
-223,913	42,025	-0,126	-0,084
-222,898	-81,318	0,053	-0,013
-221,884	-90,903	-0,053	-0,011
-220,869	-8,013	0,045	-0,022
-219,855	-200,000	-0,000	0,051
-218,840	-67,962	-0,056	0,016
-217,825	-200,000	0,024	-0,124
-216,811	25,184	-0,167	-0,101
-215,796	102,108	0,076	-0,065
-214,782	-200,000	-0,001	0,038
-213,767	18,992	-0,074	0,043
-212,752	-80,017	0,119	-0,029
-211,738	-126,145	-0,102	0,011
-210,723	-200,000	0,004	0,055
-209,709	127,993	-0,042	-0,039
-208,694	-200,000	0,001	-0,133
-207,679	800,000	0,022	-0,052
-206,665	596,022	0,040	-0,072
-205,650	79,092	-0,055	0,043
-204,636	183,101	0,050	-0,054
-203,621	-200,000	-0,009	-0,061
-202,606	45,076	-0,029	-0,020
-201,592	43,787	-0,144	-0,096
-200,577	67,501	0,011	0,008
-199,563	-31,002	0,085	-0,035
-198,548	479,509	0,023	0,038
-197,533	-200,000	-0,032	0,209
-196,519	-200,000	0,004	0,082
-195,504	-45,705	0,048	0,017
-194,490	-200,000	0,001	-0,041
-193,475	-161,656	0,090	-0,003
-192,460	-200,000	0,011	0,061
-191,446	800,000	0,034	0,076
-190,431	-200,000	0,007	0,038
-189,417	336,896	-0,062	0,087
-188,402	-89,881	0,120	0,025
-187,387	124,730	-0,068	-0,062
-186,373	146,662	0,081	-0,079
-185,358	-134,531	-0,085	0,007
-184,344	800,000	0,061	-0,172
-183,329	63,920	0,063	0,046
-182,315	155,758	-0,126	-0,126
-181,300	800,000	-0,028	0,064
-180,285	217,990	0,084	-0,098
-179,271	360,095	0,086	-0,126
-178,256	127,689	0,030	0,028
-177,242	-28,732	-0,034	0,014
-176,227	-200,000	-0,011	-0,077
-175,212	-200,000	0,002	-0,024
-174,198	-200,000	0,005	0,108
-173,183	-162,294	-0,107	-0,004
-172,169	97,847	-0,038	0,031
-171,154	102,442	0,055	-0,046
-170,139	-19,408	0,130	0,058
-169,125	-7,819	0,063	-0,031
-168,110	158,569	-0,133	0,134
-167,096	800,000	-0,039	-0,099
-166,081	-200,000	0,002	-0,190
-165,066	483,872	-0,090	-0,149
-164,052	47,716	0,083	-0,057
-163,037	800,000	0,037	0,100
-162,023	-200,000	-0,017	-0,068
-161,008	84,973	-0,077	-0,062
-159,993	483,330	0,064	0,106
-158,979	800,000	-0,016	0,033
-157,964	90,465	-0,067	-0,055
-156,950	-200,000	0,035	-0,124
-155,935	157,185	-0,017	0,017
-154,920	129,266	0,043	-0,040
-153,906	381,372	0,050	-0,074
-152,891	-69,435	-0,045	-0,012
-151,877	132,864	0,025	-0,023
-150,862	5,298	0,029	-0,016
-149,847	323,689	0,020	0,027
-148,833	-200,000	0,008	0,075
-147,818	53,141	-0,087	0,061
-146,804	-200,000	-0,014	0,086
-145,789	652,840	0,052	0,097
-144,775	151,909	-0,135	-0,134
-143,760	367,620	-0,051	0,076
-142,745	-60,615	-0,060	-0,018
-141,731	6,075	0,015	-0,008
-140,716	60,271	0,143	0,102
-139,702	-51,056	0,058	-0,020
-138,687	184,418	0,048	0,052
-137,672	-200,000	-0,018	0,254
-136,658	54,378	-0,093	-0,065
-135,643	56,532	0,022	0,016
-134,629	17,969	-0,049	0,028
-133,614	131,745	0,065	0,061
-132,599	800,000	0,057	0,143
-131,585	-200,000	0,064	0,212
-130,570	67,442	-0,099	-0,073
-129,556	617,976	-0,075	-0,138
-128,541	-200,000	-0,016	0,098
-127,526	-200,000	-0,023	0,079
-126,512	-200,000	0,011	-0,073
-125,497	-200,000	0,036	-0,182
-124,483	-200,000	-0,003	-0,094
-123,468	-112,900	-0,164	0,023
-122,453	-22,454	0,084	-0,037
-121,439	780,592	-0,068	-0,135
-120,424	-90,700	0,101	-0,021
-119,410	-2,142	0,076	0,038
-118,395	-139,100	0,021	-0,002
