DTS Sentinel unit serial number:	SN410029Multiplexer serial number:	ORYXHardware model number:	OX2-SRSoftware version number:	ORYX F/W v4,00 Oryx Data Collector v3.7.2.0data status	okinstallation	B4 Nyhavnadifferential loss correction	single-endedforward channel	channel 2reverse channel	N/Adate	2023/12/19time	02:35:13forward acquisition time	300,00reverse acquisition time	0,00gamma	499,1914k internal	0,3125k external	0,3125temperature offset calibration	1,0000default loss term (dB/km)	0,3820temperature slope calibration	1,0000multiplexer offset coefficient	1,0000multiplexer slope coefficient	1,0000fibre end	0,00T internal ref (°C)	21,27T ext. ref 1 (°C)	6,28T ext. ref 2 (°C)	6,44length (m)	temperature (°C)	Stokes	anti-Stokes-744,400	-40,514	0,092	-0,035
-743,385	85,117	-0,144	0,118
-742,371	633,705	0,053	-0,101
-741,356	48,727	-0,186	0,130
-740,342	-115,557	0,086	-0,012
-739,327	-57,949	-0,152	-0,049
-738,312	-132,419	0,053	-0,005
-737,298	-28,454	-0,277	0,119
-736,283	-200,000	-0,007	-0,041
-735,269	49,128	-0,229	0,160
-734,254	-92,657	0,148	0,031
-733,239	-71,765	-0,470	-0,130
-732,225	-200,000	-0,018	0,075
-731,210	800,000	-0,018	0,054
-730,196	202,023	0,065	-0,075
-729,181	97,645	-0,133	0,114
-728,167	-114,926	0,038	-0,005
-727,152	-200,000	0,029	-0,247
-726,137	-200,000	-0,033	-0,131
-725,123	-124,804	-0,063	-0,007
-724,108	-200,000	-0,033	-0,118
-723,094	654,218	0,032	-0,062
-722,079	212,446	-0,030	-0,036
-721,064	199,705	-0,121	-0,138
-720,050	130,930	0,060	-0,057
-719,035	-150,635	-0,152	0,008
-718,021	476,723	-0,070	0,118
-717,006	-19,320	-0,074	-0,034
-715,991	-130,188	-0,234	-0,023
-714,977	-200,000	0,030	-0,103
-713,962	-92,617	0,081	-0,017
-712,948	52,117	-0,037	-0,026
-711,933	800,000	0,028	0,078
-710,918	79,998	-0,110	-0,088
-709,904	-123,848	0,012	0,001
-708,889	93,353	-0,060	0,050
-707,875	41,027	-0,133	-0,089
-706,860	6,364	0,066	0,036
-705,845	7,766	-0,135	-0,075
-704,831	172,105	-0,059	-0,063
-703,816	-2,570	-0,019	0,010
-702,802	-0,332	-0,044	-0,023
-701,787	-91,631	-0,152	-0,032
-700,772	-91,360	-0,112	-0,024
-699,758	353,134	-0,049	0,072
-698,743	-141,512	0,065	-0,005
-697,729	-130,747	-0,147	0,014
-696,714	-44,077	0,025	0,009
-695,699	800,000	-0,024	-0,079
-694,685	173,210	-0,062	-0,066
-693,670	-43,175	-0,112	0,042
-692,656	-103,272	-0,166	0,029
-691,641	232,097	0,051	-0,063
-690,627	358,177	-0,086	0,129
-689,612	22,659	-0,055	0,033
-688,597	-200,000	0,020	-0,086
-687,583	21,172	-0,090	0,054
-686,568	203,541	-0,117	0,135
-685,554	-132,943	-0,108	0,010
-684,539	78,805	-0,035	0,028
-683,524	800,000	-0,022	0,065
-682,510	133,164	-0,195	-0,188
-681,495	157,342	-0,046	-0,047
-680,481	800,000	-0,035	0,076
-679,466	-24,193	-0,093	-0,041
-678,451	800,000	-0,032	-0,074
-677,437	12,069	0,050	0,029
-676,422	54,545	0,110	-0,079
-675,408	539,683	-0,096	0,171
-674,393	300,014	-0,044	-0,061
-673,378	480,236	0,017	0,028
-672,364	138,503	-0,024	-0,023
-671,349	664,276	0,016	0,030
-670,335	115,834	-0,089	-0,081
-669,320	-200,000	-0,001	0,085
-668,305	-200,000	0,010	-0,087
-667,291	-142,747	-0,108	0,008
-666,276	800,000	-0,016	-0,039
-665,262	-200,000	-0,009	0,036
-664,247	-200,000	-0,003	-0,124
-663,232	-200,000	0,002	0,041
-662,218	571,770	-0,050	-0,090
-661,203	800,000	0,024	0,052
-660,189	-200,000	-0,003	-0,227
-659,174	-97,078	-0,134	0,026
-658,159	-200,000	-0,005	-0,116
-657,145	-52,310	-0,088	-0,030
-656,130	47,275	-0,075	0,052
-655,116	-200,000	-0,019	-0,067
-654,101	48,800	-0,015	0,011
-653,086	-200,000	0,010	-0,088
-652,072	-60,531	-0,081	-0,025
-651,057	19,053	0,047	0,028
-650,043	800,000	-0,022	0,051
-649,028	-200,000	0,007	0,055
-648,014	-200,000	0,025	0,134
-646,999	187,944	0,028	-0,031
-645,984	-200,000	-0,013	-0,097
-644,970	-29,748	-0,038	0,016
-643,955	-152,534	0,098	0,005
-642,941	102,588	-0,127	-0,110
-641,926	-200,000	-0,006	0,048
-640,911	81,712	0,088	0,071
-639,897	190,154	-0,089	-0,099
-638,882	38,248	-0,121	0,080
-637,868	-92,693	0,050	-0,010
-636,853	129,060	-0,117	-0,111
-635,838	119,112	-0,032	-0,029
-634,824	90,693	0,048	0,040
-633,809	-47,238	0,071	-0,026
-632,795	800,000	0,010	-0,025
-631,780	-200,000	0,009	0,036
-630,765	260,270	-0,136	-0,174
-629,751	-103,575	-0,184	-0,032
-628,736	53,447	-0,096	0,068
-627,722	-16,519	-0,052	-0,024
-626,707	538,006	0,061	-0,109
-625,692	-200,000	-0,006	0,038
-624,678	-11,596	-0,061	0,029
-623,663	13,483	0,100	-0,058
-622,649	-200,000	-0,027	-0,101
-621,634	50,788	-0,076	-0,053
-620,619	800,000	-0,032	-0,066
-619,605	800,000	0,014	-0,038
-618,590	408,945	-0,035	0,056
-617,576	754,779	0,065	0,131
-616,561	-102,579	0,107	0,019
-615,546	114,777	-0,084	0,076
-614,532	130,895	-0,093	-0,088
-613,517	-86,082	-0,074	-0,017
-612,503	-200,000	0,015	-0,154
-611,488	-58,034	0,117	0,038
-610,474	-103,627	-0,165	-0,028
-609,459	800,000	-0,020	-0,063
-608,444	1,072	-0,070	0,037
-607,430	800,000	0,047	-0,124
-606,415	-200,000	0,019	-0,096
-605,401	-56,031	0,133	0,044
-604,386	8,814	0,151	0,084
-603,371	800,000	0,019	0,052
-602,357	125,805	-0,050	0,046
-601,342	-200,000	0,012	0,109
-600,328	228,772	-0,092	-0,111
-599,313	-200,000	-0,008	-0,033
-598,298	457,417	-0,048	-0,079
-597,284	212,937	-0,034	-0,040
-596,269	-200,000	-0,019	0,120
-595,255	592,339	0,104	0,190
-594,240	3,972	-0,025	-0,013
-593,225	-103,054	0,067	-0,012
-592,211	800,000	-0,023	0,050
-591,196	-200,000	0,020	0,139
-590,182	442,955	0,119	0,194
-589,167	-112,716	0,051	0,007
-588,152	-173,846	-0,081	0,002
-587,138	78,384	0,026	0,021
-586,123	23,935	-0,127	-0,078
-585,109	115,784	0,037	-0,034
-584,094	-200,000	0,016	0,065
-583,079	-98,997	-0,126	0,023
-582,065	-53,952	0,117	-0,039
-581,050	-0,703	0,075	-0,039
-580,036	-33,185	-0,041	0,017
-579,021	194,828	-0,068	-0,077
-578,006	-22,305	-0,071	-0,032
-576,992	-113,825	0,069	0,010
-575,977	-153,653	0,017	-0,001
-574,963	464,028	-0,042	0,070
-573,948	-109,513	0,157	0,024
-572,934	-35,233	-0,132	0,053
-571,919	42,571	-0,106	-0,071
-570,904	-200,000	-0,007	0,033
-569,890	137,260	0,008	0,007
-568,875	4,757	-0,029	0,016
-567,861	264,203	0,052	0,067
-566,846	-116,405	0,044	-0,006
-565,831	800,000	-0,035	0,082
-564,817	14,861	0,102	-0,059
-563,802	-116,043	-0,221	0,030
-562,788	-200,000	-0,010	-0,067
-561,773	-127,695	0,095	0,010
-560,758	-200,000	-0,004	-0,016
-559,744	11,920	0,063	0,036
-558,729	149,016	-0,048	0,048
-557,715	711,470	0,007	-0,013
-556,700	163,115	0,044	0,046
-555,685	-200,000	0,000	0,082
-554,671	800,000	-0,043	0,092
-553,656	-136,665	0,126	0,011
-552,642	28,774	-0,058	-0,036
-551,627	295,812	-0,037	0,051
-550,612	-200,000	-0,003	0,033
-549,598	-200,000	-0,015	-0,070
-548,583	522,276	-0,046	0,079
-547,569	637,827	-0,013	-0,024
-546,554	-84,217	-0,102	-0,024
-545,539	-39,123	0,087	-0,034
-544,525	135,439	0,053	0,051
-543,510	-200,000	0,000	-0,141
-542,496	800,000	-0,047	-0,117
-541,481	-16,915	-0,078	0,036
-540,466	103,458	0,065	0,056
-539,452	79,564	-0,026	-0,021
-538,437	38,373	0,130	-0,086
-537,423	-78,734	-0,157	-0,039
-536,408	-67,009	-0,055	-0,016
-535,393	800,000	0,022	0,051
-534,379	237,042	-0,056	-0,068
-533,364	-200,000	-0,009	-0,095
-532,350	800,000	0,048	-0,136
-531,335	800,000	0,021	0,068
-530,321	-200,000	0,010	0,163
-529,306	-109,950	0,067	0,010
-528,291	134,176	-0,085	-0,082
-527,277	800,000	-0,075	-0,197
-526,262	474,450	0,040	-0,067
-525,248	155,730	0,044	-0,044
-524,233	166,414	-0,049	0,051
-523,218	-200,000	-0,005	0,047
-522,204	28,276	-0,124	-0,077
-521,189	23,749	-0,127	-0,077
-520,175	800,000	0,039	-0,110
-519,160	-106,394	-0,052	-0,009
-518,145	-102,291	0,129	0,023
-517,131	-98,329	-0,082	-0,015
-516,116	-200,000	0,002	0,136
-515,102	800,000	0,014	-0,030
-514,087	-96,628	0,123	-0,024
-513,072	227,805	0,007	0,009
-512,058	-112,604	0,017	-0,003
-511,043	800,000	0,030	0,089
-510,029	-200,000	-0,031	0,135
-509,014	387,214	0,064	0,098
-507,999	-168,424	-0,037	-0,001
-506,985	349,780	-0,015	0,022
-505,970	199,643	-0,061	-0,069
-504,956	-143,064	0,053	0,004
-503,941	-132,311	0,037	-0,004
-502,926	-31,429	0,065	-0,027
-501,912	39,072	0,066	0,043
-500,897	-16,248	-0,039	0,018
-499,883	-9,720	-0,106	0,052
-498,868	-174,173	0,186	0,004
-497,853	95,007	-0,047	-0,040
-496,839	343,521	-0,029	-0,042
-495,824	-109,417	0,104	0,016
-494,810	-200,000	0,020	0,128
-493,795	118,525	0,018	0,016
-492,781	-109,150	-0,042	-0,006
-491,766	80,850	-0,106	-0,084
-490,751	-200,000	0,011	-0,049
-489,737	800,000	0,033	0,092
-488,722	248,989	0,046	-0,057
-487,708	500,817	-0,062	-0,107
-486,693	-200,000	0,017	-0,099
-485,678	800,000	-0,024	0,074
-484,664	-200,000	-0,036	0,116
-483,649	452,644	0,033	-0,054
-482,635	-73,256	0,020	0,005
-481,620	-102,363	0,116	-0,020
-480,605	800,000	0,042	0,127
-479,591	-89,404	0,115	-0,025
-478,576	800,000	0,037	0,096
-477,562	-96,764	0,077	-0,015
-476,547	-106,897	-0,113	-0,018
-475,532	-29,192	-0,118	-0,050
-474,518	66,469	0,070	-0,052
-473,503	14,125	0,067	0,038
-472,489	115,241	0,148	0,134
-471,474	41,318	-0,103	0,069
-470,459	800,000	-0,026	0,072
-469,445	366,808	0,044	-0,066
-468,430	224,264	0,069	0,082
-467,416	65,223	-0,027	-0,020
-466,401	-56,367	0,054	0,018
-465,386	-200,000	0,002	-0,007
-464,372	-136,207	0,037	-0,003
-463,357	-20,483	-0,083	-0,037
-462,343	-200,000	0,023	0,094
-461,328	228,482	-0,040	-0,048
-460,313	188,139	-0,119	0,131
-459,299	36,312	0,091	0,059
-458,284	-29,858	-0,153	-0,064
-457,270	-137,500	0,082	0,007
-456,255	-130,234	0,040	-0,004
-455,241	-200,000	-0,003	-0,018
-454,226	-139,478	-0,071	0,006
-453,211	298,512	-0,024	-0,033
-452,197	-200,000	-0,001	-0,161
-451,182	476,101	-0,017	-0,029
-450,168	419,420	-0,038	-0,060
-449,153	-101,467	-0,121	-0,022
-448,138	-200,000	0,003	-0,192
-447,124	201,990	0,053	-0,061
-446,109	-109,843	0,054	-0,008
-445,095	73,698	-0,017	-0,013
-444,080	118,370	0,066	0,060
-443,065	-200,000	0,024	0,083
-442,051	-200,000	0,036	0,139
-441,036	-5,573	-0,116	0,058
-440,022	-3,710	-0,168	-0,085
-439,007	234,821	0,034	0,042
-437,992	-162,205	0,104	-0,004
-436,978	22,929	-0,053	0,032
-435,963	11,943	0,161	0,091
-434,949	330,623	0,018	-0,025
-433,934	87,173	-0,045	0,037
-432,919	-7,394	0,163	0,081
-431,905	-159,543	-0,046	0,002
-430,890	-96,660	-0,036	-0,007
-429,876	-109,877	-0,218	0,033
-428,861	175,456	-0,061	-0,066
-427,846	778,343	-0,031	0,063
-426,832	-105,658	-0,057	0,009
-425,817	800,000	0,057	0,148
-424,803	-26,834	-0,125	0,053
-423,788	-74,175	-0,130	0,034
-422,773	800,000	-0,030	-0,072
-421,759	49,682	0,073	-0,051
-420,744	800,000	0,052	0,125
-419,730	-64,234	0,120	-0,036
-418,715	-200,000	0,017	0,071
-417,701	-200,000	0,008	0,160
-416,686	-74,399	0,162	0,043
-415,671	-200,000	-0,016	-0,118
-414,657	-174,160	-0,039	-0,001
-413,642	36,856	0,055	0,036
-412,628	21,177	0,111	-0,066
-411,613	266,159	-0,078	-0,101
-410,598	264,934	0,034	-0,044
-409,584	440,945	-0,078	0,125
-408,569	-200,000	0,019	0,087
-407,555	582,132	0,032	-0,058
-406,540	-140,406	0,056	0,004
-405,525	10,805	-0,163	-0,091
-404,511	-36,673	-0,051	-0,020
-403,496	-200,000	0,017	-0,098
-402,482	118,703	-0,015	-0,013
-401,467	170,049	0,103	0,108
-400,452	-200,000	0,038	0,148
-399,438	-200,000	0,039	0,166
-398,423	-115,674	0,144	0,020
-397,409	800,000	-0,041	-0,105
-396,394	-200,000	0,003	0,031
-395,379	800,000	0,042	0,097
-394,365	394,316	0,044	-0,067
-393,350	-65,842	0,106	0,031
-392,336	327,898	-0,039	0,055
-391,321	-200,000	0,004	0,041
-390,306	800,000	-0,061	-0,141
-389,292	-43,158	0,054	0,020
-388,277	800,000	-0,027	0,071
-387,263	-0,785	-0,043	-0,022
-386,248	71,048	-0,036	-0,028
-385,233	216,958	-0,055	-0,064
-384,219	288,281	-0,036	-0,047
-383,204	-42,378	0,060	-0,022
-382,190	-200,000	-0,012	-0,122
-381,175	-41,821	0,093	-0,035
-380,160	-200,000	-0,016	-0,057
-379,146	-106,543	0,213	0,034
-378,131	800,000	0,034	-0,095
-377,117	-114,479	0,102	0,014
-376,102	-97,671	-0,130	0,024
-375,088	800,000	0,062	-0,177
-374,073	417,451	-0,057	0,090
-373,058	-68,249	-0,111	0,031
-372,044	26,759	0,065	-0,040
-371,029	-36,998	0,180	-0,070
-370,015	-34,674	0,068	-0,027
-369,000	190,858	-0,071	0,079
-367,985	369,985	-0,026	0,039
-366,971	119,494	-0,029	-0,027
-365,956	-200,000	0,017	0,113
-364,942	-200,000	0,153	0,000
-363,927	800,000	0,030	0,065
-362,912	800,000	-0,029	0,064
-361,898	-200,000	-0,011	-0,046
-360,883	-143,778	-0,152	0,010
-359,869	89,179	0,095	0,078
-358,854	-149,190	0,103	-0,006
-357,839	-63,054	0,116	0,035
-356,825	-1,063	0,060	-0,031
-355,810	-200,000	0,027	0,121
-354,796	-111,576	0,032	0,005
-353,781	221,119	-0,037	0,044
-352,766	-96,435	-0,258	0,050
-351,752	200,902	0,028	0,031
-350,737	-89,193	-0,087	-0,019
-349,723	263,184	0,145	0,185
-348,708	-200,000	0,012	0,056
-347,693	-64,033	-0,169	-0,050
-346,679	800,000	0,025	-0,061
-345,664	4,104	0,040	0,021
-344,650	-58,456	0,127	0,040
-343,635	113,121	-0,033	-0,029
-342,620	-200,000	0,029	0,105
-341,606	-17,864	-0,130	-0,060
-340,591	-125,409	-0,032	-0,004
-339,577	86,664	-0,037	-0,030
-338,562	800,000	-0,022	-0,062
-337,548	-200,000	0,012	-0,129
-336,533	-90,827	-0,049	-0,010
-335,518	-200,000	-0,001	-0,103
-334,504	800,000	0,024	-0,057
-333,489	-200,000	-0,014	-0,134
-332,475	-200,000	-0,001	0,069
-331,460	113,753	-0,059	-0,052
-330,445	71,329	0,042	0,032
-329,431	146,333	0,025	0,025
-328,416	-109,752	0,122	-0,019
-327,402	92,474	-0,046	0,038
-326,387	-79,128	0,063	-0,016
-325,372	456,280	-0,016	-0,026
-324,358	-95,338	-0,209	-0,041
-323,343	-200,000	0,001	-0,143
-322,329	-91,613	0,046	-0,010
-321,314	90,960	0,093	0,077
-320,299	-85,585	0,018	0,004
-319,285	45,356	-0,076	0,051
-318,270	-127,714	0,022	0,002
-317,256	207,215	-0,107	-0,123
-316,241	-21,663	0,096	0,043
-315,226	62,835	0,026	0,019
-314,212	43,927	0,050	0,033
-313,197	-200,000	0,011	-0,050
-312,183	107,845	-0,141	0,123
-311,168	169,324	0,036	-0,038
-310,153	800,000	-0,050	-0,113
-309,139	800,000	-0,015	0,034
-308,124	657,757	-0,087	0,164
-307,110	-200,000	0,004	-0,147
-306,095	-148,109	-0,053	0,003
-305,080	-61,364	0,092	-0,028
-304,066	-200,000	0,011	0,071
-303,051	-2,180	0,039	0,020
-302,037	583,420	0,052	-0,094
-301,022	-71,384	0,139	-0,038
-300,008	178,524	-0,058	0,062
-298,993	135,864	-0,093	0,088
-297,978	-200,000	0,003	0,057
-296,964	-200,000	-0,007	-0,051
-295,949	1,996	-0,097	0,051
-294,935	594,976	-0,050	-0,090
-293,920	-200,000	-0,029	0,135
-292,905	628,947	-0,041	0,076
-291,891	-15,223	0,039	0,018
-290,876	-200,000	0,031	0,103
-289,862	-200,000	0,003	-0,104
-288,847	-200,000	-0,013	-0,051
-287,832	-36,557	-0,108	0,042
-286,818	244,188	0,110	0,135
-285,803	13,608	-0,097	-0,055
-284,789	657,081	-0,067	0,126
-283,774	-85,907	0,123	-0,028
-282,759	-200,000	-0,028	0,115
-281,745	800,000	-0,046	-0,121
-280,730	-200,000	0,018	-0,138
-279,716	201,091	-0,066	-0,075
-278,701	-200,000	-0,005	0,048
-277,686	-200,000	-0,007	-0,034
-276,672	-200,000	0,019	-0,106
-275,657	-32,570	0,035	0,014
-274,643	-157,934	-0,070	-0,003
-273,628	-200,000	-0,006	-0,052
-272,613	-200,000	0,014	-0,112
-271,599	-29,044	0,128	-0,053
-270,584	-200,000	-0,002	0,060
-269,570	800,000	-0,030	0,071
-268,555	-200,000	0,010	-0,083
-267,540	-200,000	0,019	0,101
-266,526	800,000	0,020	0,061
-265,511	-26,688	0,096	-0,041
-264,497	-200,000	-0,005	-0,059
-263,482	30,516	-0,070	0,044
-262,467	-200,000	0,001	0,009
-261,453	-118,054	0,156	0,020
-260,438	38,104	-0,089	-0,058
-259,424	-89,367	0,081	0,017
-258,409	-50,922	-0,114	-0,039
-257,395	44,724	0,086	-0,057
-256,380	267,660	-0,022	0,028
-255,365	-147,805	-0,109	-0,007
-254,351	-51,724	0,036	0,012
-253,336	800,000	-0,024	-0,059
-252,322	-200,000	0,012	-0,063
-251,307	800,000	-0,038	-0,100
-250,292	-147,533	-0,117	-0,007
-249,278	157,148	0,084	0,084
-248,263	60,586	0,073	-0,053
-247,249	163,898	-0,052	-0,054
-246,234	800,000	-0,045	0,095
-245,219	-200,000	0,032	-0,271
-244,205	800,000	-0,042	-0,087
-243,190	207,882	0,042	-0,048
-242,176	104,952	0,051	0,044
-241,161	85,357	0,126	0,101
-240,146	-200,000	0,040	0,151
-239,132	800,000	-0,032	0,071
-238,117	666,203	0,070	-0,132
-237,103	33,604	-0,078	-0,049
-236,088	61,218	0,118	0,086
-235,073	9,281	0,082	0,045
-234,059	19,596	0,134	0,078
-233,044	48,773	0,097	0,067
-232,030	-200,000	-0,026	0,165
-231,015	-50,056	-0,077	-0,027
-230,000	-175,362	-0,047	-0,001
-228,986	127,585	-0,098	-0,091
-227,971	180,117	-0,040	-0,043
-226,957	511,959	0,052	-0,089
-225,942	-58,190	0,082	-0,026
-224,927	-27,045	0,055	0,023
-223,913	23,113	-0,055	0,033
-222,898	345,651	-0,054	0,077
-221,884	-52,497	0,186	0,063
-220,869	-56,973	0,164	-0,052
-219,855	236,135	-0,047	0,057
-218,840	59,794	0,094	0,068
-217,825	25,507	-0,147	-0,089
-216,811	170,258	0,058	-0,061
-215,796	292,810	0,064	-0,085
-214,782	59,954	-0,092	0,066
-213,767	115,684	-0,032	-0,028
-212,752	230,330	-0,030	0,036
-211,738	-75,407	-0,095	-0,024
-210,723	774,482	-0,013	0,027
-209,709	-56,561	-0,034	-0,011
-208,694	574,051	-0,081	-0,144
-207,679	566,497	0,030	-0,053
-206,665	564,833	-0,007	0,013
-205,650	373,108	0,052	-0,077
-204,636	-200,000	-0,007	-0,070
-203,621	128,707	0,099	0,092
-202,606	369,923	-0,042	0,063
-201,592	222,375	0,042	0,049
-200,577	-200,000	-0,030	0,109
-199,563	-80,394	0,101	0,024
-198,548	-126,160	-0,156	0,017
-197,533	-96,628	0,128	0,024
-196,519	-200,000	0,000	-0,089
-195,504	-59,020	-0,077	0,024
-194,490	581,619	0,026	-0,047
-193,475	172,210	-0,132	-0,139
-192,460	-145,617	0,113	0,007
-191,446	648,930	-0,034	-0,065
-190,431	24,995	0,101	0,061
-189,417	-200,000	-0,014	-0,064
-188,402	21,620	0,058	-0,035
-187,387	800,000	-0,027	0,076
-186,373	-132,394	-0,109	-0,010
-185,358	800,000	-0,029	0,065
-184,344	-200,000	0,023	-0,085
-183,329	800,000	-0,023	0,056
-182,315	-40,067	-0,019	-0,007
-181,300	-16,922	-0,112	-0,051
-180,285	-200,000	0,020	-0,124
-179,271	72,084	-0,072	0,055
-178,256	-8,756	0,136	-0,066
-177,242	-100,767	-0,061	0,011
-176,227	59,601	0,026	-0,019
-175,212	505,934	0,063	-0,107
-174,198	-160,163	0,048	0,002
-173,183	-117,012	0,049	-0,006
-172,169	-47,590	0,016	0,006
-171,154	-95,139	0,149	-0,029
-170,139	-200,000	0,017	-0,056
-169,125	-56,951	-0,079	-0,025
-168,110	-105,568	0,083	-0,014
-167,096	-10,986	-0,056	-0,027
-166,081	160,423	-0,062	0,063
-165,066	-14,242	-0,033	-0,016
-164,052	-68,241	-0,222	0,063
-163,037	-137,546	0,107	0,009
-162,023	60,373	-0,021	0,015
-161,008	135,093	-0,076	0,072
-159,993	222,084	0,106	-0,124
-158,979	699,201	-0,022	-0,042
-157,964	800,000	0,023	0,072
-156,950	132,035	-0,096	-0,090
-155,935	-200,000	-0,002	0,037
-154,920	800,000	-0,035	0,080
-153,906	-200,000	-0,009	0,136
-152,891	584,993	-0,036	0,064
-151,877	-39,556	-0,076	-0,029
-150,862	59,766	-0,139	-0,100
-149,847	-40,245	0,058	0,022
-148,833	362,558	-0,031	0,046
-147,818	63,735	0,076	-0,056
-146,804	800,000	0,008	0,021
-145,789	248,088	-0,127	0,156
-144,775	-110,364	-0,027	-0,004
-143,760	-165,186	-0,192	0,006
-142,745	363,659	0,067	-0,098
-141,731	54,879	-0,160	0,112
-140,716	158,855	0,060	0,061
-139,702	155,374	-0,132	0,133
-138,687	-64,514	0,065	0,019
-137,672	293,741	0,026	-0,034
-136,658	-25,307	-0,016	0,007
-135,643	-85,852	0,071	0,016
-134,629	-102,624	-0,101	0,017
-133,614	309,763	0,046	-0,062
-132,599	-52,849	-0,054	-0,018
-131,585	264,713	0,072	-0,092
-130,570	84,360	-0,008	0,006
-129,556	209,487	-0,063	-0,072
-128,541	-200,000	-0,036	-0,238
-127,526	319,245	-0,051	0,070
-126,512	-177,091	-0,095	-0,002
-125,497	-200,000	-0,032	0,144
-124,483	-89,654	0,051	-0,011
-123,468	-72,559	-0,167	0,044
-122,453	800,000	0,028	-0,082
-121,439	242,292	-0,065	0,079
-120,424	800,000	-0,054	0,130
-119,410	57,628	0,034	0,024
