DTS Sentinel unit serial number:	SN410029Multiplexer serial number:	ORYXHardware model number:	OX2-SRSoftware version number:	ORYX F/W v4,00 Oryx Data Collector v3.7.2.0data status	okinstallation	B4 Nyhavnadifferential loss correction	single-endedforward channel	channel 2reverse channel	N/Adate	2023/12/19time	04:50:13forward acquisition time	300,00reverse acquisition time	0,00gamma	499,1914k internal	0,3127k external	0,3127temperature offset calibration	1,0000default loss term (dB/km)	0,3820temperature slope calibration	1,0000multiplexer offset coefficient	1,0000multiplexer slope coefficient	1,0000fibre end	0,00T internal ref (°C)	20,95T ext. ref 1 (°C)	6,29T ext. ref 2 (°C)	6,42length (m)	temperature (°C)	Stokes	anti-Stokes-744,400	182,452	0,084	-0,093
-743,385	-188,661	-0,291	-0,003
-742,371	166,527	0,127	-0,135
-741,356	306,211	-0,092	0,128
-740,342	-200,000	-0,012	0,148
-739,327	141,749	-0,208	0,205
-738,312	800,000	0,027	-0,069
-737,298	-14,455	-0,205	0,098
-736,283	-46,905	0,136	-0,049
-735,269	-100,425	-0,176	0,032
-734,254	35,799	0,059	-0,039
-733,239	-15,572	-0,409	-0,193
-732,225	800,000	-0,017	-0,043
-731,210	-10,461	0,033	0,016
-730,196	-134,233	-0,024	-0,002
-729,181	58,559	-0,119	-0,087
-728,167	-200,000	-0,016	0,191
-727,152	-200,000	-0,025	0,112
-726,137	-200,000	-0,013	-0,096
-725,123	394,858	-0,059	-0,092
-724,108	40,103	-0,155	-0,104
-723,094	304,149	-0,115	-0,160
-722,079	62,921	-0,057	-0,042
-721,064	800,000	0,036	0,094
-720,050	-200,000	0,004	0,059
-719,035	162,222	-0,059	0,062
-718,021	139,467	0,056	-0,055
-717,006	597,578	-0,085	-0,157
-715,991	173,173	-0,111	-0,119
-714,977	-57,869	0,034	-0,011
-713,962	13,815	-0,046	-0,026
-712,948	800,000	0,048	-0,126
-711,933	688,064	0,043	0,083
-710,918	106,468	0,070	0,062
-709,904	423,174	-0,129	-0,207
-708,889	-200,000	-0,007	-0,030
-707,875	-72,298	-0,214	-0,059
-706,860	-86,542	0,081	-0,018
-705,845	-200,000	-0,019	-0,112
-704,831	-40,438	0,152	0,058
-703,816	800,000	-0,057	0,159
-702,802	800,000	0,032	0,085
-701,787	-80,801	-0,175	-0,043
-700,772	-200,000	0,024	0,134
-699,758	-200,000	-0,006	-0,098
-698,743	799,132	0,036	-0,074
-697,729	-200,000	0,001	0,086
-696,714	114,390	-0,049	-0,044
-695,699	800,000	0,002	0,004
-694,685	443,911	-0,052	-0,085
-693,670	-200,000	0,022	-0,105
-692,656	147,965	-0,080	-0,081
-691,641	-91,015	0,143	-0,030
-690,627	800,000	-0,024	0,065
-689,612	-200,000	0,024	0,101
-688,597	-14,920	-0,089	-0,042
-687,583	-200,000	-0,212	0,000
-686,568	-200,000	0,001	0,041
-685,554	-66,919	0,045	0,013
-684,539	390,151	0,032	0,049
-683,524	38,624	-0,036	-0,024
-682,510	-78,719	0,104	-0,026
-681,495	-200,000	0,007	-0,032
-680,481	-200,000	0,002	-0,057
-679,466	190,272	-0,141	-0,158
-678,451	742,096	-0,021	-0,042
-677,437	-200,000	-0,043	-0,142
-676,422	-200,000	0,033	-0,124
-675,408	800,000	0,030	0,070
-674,393	5,594	-0,102	0,056
-673,378	143,817	-0,061	0,061
-672,364	148,009	-0,106	-0,106
-671,349	-200,000	-0,008	0,046
-670,335	-57,061	-0,069	0,023
-669,320	-200,000	-0,005	0,117
-668,305	263,441	0,057	-0,073
-667,291	148,797	-0,131	-0,131
-666,276	-133,364	-0,155	-0,014
-665,262	63,161	-0,103	-0,077
-664,247	-142,863	-0,072	-0,005
-663,232	41,374	-0,068	-0,046
-662,218	-141,625	0,068	-0,005
-661,203	-1,328	-0,113	-0,059
-660,189	266,092	-0,067	0,086
-659,174	145,288	-0,062	0,062
-658,159	274,498	-0,056	0,074
-657,145	-200,000	0,011	-0,205
-656,130	97,281	0,037	0,032
-655,116	-41,768	0,121	-0,046
-654,101	223,991	0,036	0,043
-653,086	-200,000	0,011	-0,116
-652,072	175,658	0,052	0,056
-651,057	-200,000	-0,094	0,000
-650,043	-200,000	-0,013	-0,044
-649,028	-200,000	0,013	-0,054
-648,014	-13,649	0,111	0,053
-646,999	-138,358	0,096	-0,008
-645,984	196,835	-0,094	-0,106
-644,970	-200,000	-0,023	0,139
-643,955	25,101	0,122	0,075
-642,941	-84,427	-0,210	0,049
-641,926	-200,000	0,006	-0,115
-640,911	50,834	0,117	-0,082
-639,897	800,000	0,020	0,055
-638,882	-190,496	-0,072	0,001
-637,868	60,414	-0,047	-0,035
-636,853	800,000	-0,045	-0,093
-635,838	-200,000	0,002	-0,050
-634,824	376,077	-0,085	-0,128
-633,809	-28,782	0,035	-0,015
-632,795	-156,569	-0,062	-0,003
-631,780	-43,920	0,118	0,044
-630,765	351,455	-0,061	-0,090
-629,751	-5,017	-0,020	-0,010
-628,736	-121,234	-0,066	-0,008
-627,722	-53,881	0,089	-0,030
-626,707	234,033	-0,027	-0,033
-625,692	-200,000	-0,005	-0,061
-624,678	-200,000	-0,017	-0,081
-623,663	-200,000	-0,025	0,122
-622,649	800,000	0,073	0,153
-621,634	-104,790	-0,003	0,001
-620,619	800,000	0,039	-0,108
-619,605	800,000	-0,005	0,015
-618,590	199,583	-0,034	-0,038
-617,576	81,090	-0,055	0,044
-616,561	-200,000	-0,002	0,017
-615,546	56,155	-0,122	-0,088
-614,532	-21,227	-0,066	-0,030
-613,517	40,957	0,028	0,019
-612,503	136,647	0,093	0,090
-611,488	162,273	0,014	-0,015
-610,474	90,070	-0,170	-0,140
-609,459	-200,000	-0,005	-0,082
-608,444	570,727	-0,097	-0,176
-607,430	23,870	0,089	-0,054
-606,415	310,208	0,097	-0,135
-605,401	676,888	0,027	-0,053
-604,386	-182,132	0,038	-0,001
-603,371	-113,039	-0,052	0,008
-602,357	444,890	0,045	-0,074
-601,342	-24,685	0,102	-0,045
-600,328	-200,000	0,003	-0,125
-599,313	139,344	-0,038	-0,037
-598,298	800,000	0,022	-0,064
-597,284	800,000	0,031	0,065
-596,269	-9,135	-0,010	-0,005
-595,255	73,255	0,040	-0,031
-594,240	90,697	-0,102	-0,085
-593,225	-46,221	0,069	-0,025
-592,211	10,710	0,025	0,014
-591,196	109,793	-0,054	-0,048
-590,182	463,697	0,075	-0,124
-589,167	81,111	0,053	0,042
-588,152	-200,000	-0,018	0,080
-587,138	-184,735	-0,102	0,001
-586,123	76,104	0,102	-0,079
-585,109	5,114	-0,056	-0,031
-584,094	-200,000	0,039	-0,136
-583,079	-57,011	0,152	-0,049
-582,065	643,174	-0,038	0,072
-581,050	668,267	-0,063	-0,120
-580,036	229,579	-0,068	-0,083
-579,021	-187,035	-0,119	0,001
-578,006	209,024	-0,053	-0,061
-576,992	800,000	0,024	-0,053
-575,977	-200,000	0,010	0,056
-574,963	-200,000	0,023	-0,125
-573,948	800,000	0,055	-0,121
-572,934	-80,334	0,129	-0,032
-571,919	-180,524	0,067	0,001
-570,904	11,888	0,052	0,029
-569,890	-200,000	0,016	-0,096
-568,875	-51,976	0,065	-0,022
-567,861	700,186	-0,047	-0,093
-566,846	-200,000	0,034	-0,113
-565,831	-133,985	-0,263	-0,024
-564,817	274,000	-0,118	-0,154
-563,802	-200,000	0,006	-0,096
-562,788	385,182	-0,101	-0,155
-561,773	-127,636	0,168	-0,018
-560,758	-90,404	0,064	0,014
-559,744	800,000	0,056	0,145
-558,729	140,100	0,030	-0,029
-557,715	46,181	-0,081	0,055
-556,700	800,000	0,033	-0,071
-555,685	325,672	-0,089	-0,126
-554,671	14,103	0,092	-0,053
-553,656	-6,670	0,051	-0,026
-552,642	150,511	-0,118	0,119
-551,627	266,598	-0,039	0,050
-550,612	-74,695	-0,085	-0,022
-549,598	694,111	-0,049	-0,095
-548,583	111,043	-0,064	-0,057
-547,569	261,491	0,024	0,030
-546,554	144,051	0,078	0,077
-545,539	-200,000	-0,005	0,068
-544,525	-92,024	-0,102	0,021
-543,510	-66,420	0,120	0,035
-542,496	-194,508	0,111	0,001
-541,481	-200,000	0,024	0,080
-540,466	-200,000	-0,008	0,158
-539,452	593,524	0,054	-0,100
-538,437	-200,000	0,004	-0,070
-537,423	-200,000	-0,005	-0,048
-536,408	-33,308	-0,083	0,034
-535,393	345,213	0,085	0,124
-534,379	171,271	-0,041	0,043
-533,364	118,299	-0,080	-0,073
-532,350	-141,953	-0,097	0,007
-531,335	800,000	0,075	0,160
-530,321	64,823	-0,089	0,066
-529,306	-119,096	0,090	0,011
-528,291	-90,858	-0,053	0,011
-527,277	800,000	-0,012	-0,031
-526,262	344,476	0,020	-0,029
-525,248	800,000	-0,026	-0,064
-524,233	77,975	0,086	0,068
-523,218	250,693	0,179	-0,225
-522,204	42,482	-0,102	-0,068
-521,189	-200,000	-0,019	0,098
-520,175	-161,630	-0,116	0,004
-519,160	800,000	-0,037	0,092
-518,145	-52,443	0,078	-0,027
-517,131	-200,000	-0,003	0,054
-516,116	-200,000	0,001	0,058
-515,102	19,004	-0,066	0,039
-514,087	800,000	-0,058	-0,178
-513,072	-28,259	-0,043	-0,018
-512,058	-14,716	-0,141	-0,067
-511,043	528,060	-0,040	-0,069
-510,029	800,000	-0,060	0,132
-509,014	-89,783	0,085	-0,018
-507,999	568,697	-0,076	-0,136
-506,985	800,000	0,019	-0,051
-505,970	-200,000	-0,028	-0,140
-504,956	5,008	-0,038	-0,020
-503,941	186,193	-0,024	-0,027
-502,926	-34,164	0,060	-0,024
-501,912	-200,000	-0,033	0,142
-500,897	-200,000	-0,005	-0,032
-499,883	-111,021	-0,096	0,014
-498,868	-200,000	0,011	-0,117
-497,853	451,668	-0,040	-0,065
-496,839	-56,530	-0,114	-0,037
-495,824	-200,000	-0,011	0,052
-494,810	232,274	-0,040	-0,049
-493,795	-200,000	0,018	0,183
-492,781	800,000	0,045	0,113
-491,766	119,749	0,030	-0,027
-490,751	-20,480	-0,035	0,016
-489,737	-148,713	-0,011	0,001
-488,722	-200,000	-0,025	0,084
-487,708	-20,426	0,138	0,063
-486,693	-200,000	0,030	0,145
-485,678	-200,000	-0,004	-0,178
-484,664	31,163	-0,059	-0,037
-483,649	800,000	-0,023	0,058
-482,635	-200,000	0,011	-0,127
-481,620	-200,000	0,024	0,082
-480,605	-17,539	0,038	0,017
-479,591	800,000	0,020	-0,066
-478,576	-200,000	-0,000	0,055
-477,562	-200,000	-0,020	0,081
-476,547	73,209	-0,110	0,084
-475,532	374,829	-0,020	-0,031
-474,518	117,061	0,091	0,083
-473,503	-200,000	0,005	-0,033
-472,489	23,528	0,032	-0,019
-471,474	-200,000	0,018	-0,100
-470,459	124,761	-0,038	0,035
-469,445	-200,000	0,026	-0,171
-468,430	-24,781	0,056	-0,024
-467,416	256,856	-0,139	0,177
-466,401	800,000	-0,031	0,071
-465,386	-30,299	0,121	0,050
-464,372	-92,658	-0,086	0,018
-463,357	364,168	0,046	0,069
-462,343	126,160	0,010	0,009
-461,328	-158,843	-0,071	-0,003
-460,313	-200,000	-0,029	-0,139
-459,299	271,855	0,054	0,070
-458,284	-200,000	0,000	0,068
-457,270	10,622	-0,095	0,053
-456,255	-90,030	-0,062	-0,013
-455,241	-139,679	-0,067	-0,005
-454,226	-200,000	0,001	0,054
-453,211	-12,857	-0,091	-0,044
-452,197	800,000	0,065	0,140
-451,182	143,907	-0,095	-0,094
-450,168	-77,671	0,074	-0,019
-449,153	154,739	0,046	-0,046
-448,138	126,247	-0,144	-0,135
-447,124	-114,989	-0,134	0,019
-446,109	-45,923	0,067	-0,024
-445,095	-52,334	0,017	0,006
-444,080	-66,570	0,073	0,021
-443,065	-126,115	0,118	0,013
-442,051	800,000	0,038	0,084
-441,036	134,075	-0,053	-0,051
-440,022	-200,000	0,024	-0,120
-439,007	800,000	-0,019	-0,062
-437,992	-115,252	0,114	0,016
-436,978	-200,000	0,008	0,034
-435,963	8,857	-0,014	-0,008
-434,949	40,094	-0,056	0,037
-433,934	84,661	-0,076	0,061
-432,919	-168,982	-0,137	-0,004
-431,905	-113,863	0,148	0,021
-430,890	-89,286	0,121	0,026
-429,876	187,122	0,060	0,065
-428,861	225,273	-0,068	0,081
-427,846	-3,952	-0,101	0,052
-426,832	-31,690	-0,029	-0,012
-425,817	-200,000	0,017	-0,065
-424,803	-13,932	-0,074	-0,035
-423,788	-26,056	0,150	0,065
-422,773	183,332	0,108	0,118
-421,759	-60,629	-0,121	-0,037
-420,744	179,773	-0,066	-0,071
-419,730	196,404	0,026	-0,029
-418,715	-200,000	-0,023	0,108
-417,701	218,269	-0,083	0,097
-416,686	140,448	-0,093	0,090
-415,671	-57,362	0,097	-0,031
-414,657	153,482	0,028	0,028
-413,642	150,305	-0,034	0,034
-412,628	-200,000	0,010	-0,051
-411,613	-139,675	-0,063	0,005
-410,598	296,471	-0,071	0,096
-409,584	-200,000	0,024	0,095
-408,569	139,087	0,059	0,057
-407,555	-84,518	0,071	-0,016
-406,540	-59,660	0,049	0,015
-405,525	-200,000	0,030	0,128
-404,511	-146,499	0,036	-0,002
-403,496	800,000	-0,032	-0,082
-402,482	154,115	0,087	0,088
-401,467	-200,000	-0,039	0,159
-400,452	-200,000	-0,003	0,111
-399,438	355,696	0,105	-0,155
-398,423	-155,478	-0,136	0,006
-397,409	241,821	0,069	-0,085
-396,394	-160,641	-0,087	0,003
-395,379	-200,000	0,015	-0,121
-394,365	90,940	-0,111	-0,091
-393,350	86,735	0,012	-0,010
-392,336	-25,630	-0,106	-0,046
-391,321	-80,205	0,099	-0,024
-390,306	-200,000	-0,006	0,030
-389,292	-23,778	0,130	-0,057
-388,277	74,949	-0,041	0,032
-387,263	-152,103	-0,105	-0,005
-386,248	800,000	0,060	0,176
-385,233	-200,000	0,011	0,108
-384,219	-200,000	-0,021	-0,072
-383,204	-84,924	-0,109	0,025
-382,190	217,217	0,050	-0,058
-381,175	-200,000	-0,002	-0,029
-380,160	-0,951	0,067	-0,035
-379,146	179,387	0,116	0,124
-378,131	800,000	-0,057	0,160
-377,117	-200,000	-0,002	0,108
-376,102	-139,930	-0,041	0,003
-375,088	-50,776	-0,029	0,010
-374,073	276,407	-0,049	-0,064
-373,058	478,965	0,054	-0,090
-372,044	32,618	-0,072	-0,045
-371,029	-200,000	0,042	0,157
-370,015	-200,000	-0,006	0,100
-369,000	6,921	-0,153	-0,083
-367,985	-200,000	-0,010	-0,087
-366,971	-89,209	0,130	0,028
-365,956	800,000	0,069	0,143
-364,942	-90,699	-0,081	0,017
-363,927	-146,342	0,045	-0,003
-362,912	147,620	0,138	0,136
-361,898	-200,000	-0,014	-0,086
-360,883	208,037	-0,090	-0,103
-359,869	1,420	0,072	-0,038
-358,854	319,743	0,013	0,018
-357,839	-59,599	-0,052	-0,016
-356,825	76,422	0,122	0,095
-355,810	800,000	-0,030	0,073
-354,796	269,759	-0,040	0,052
-353,781	-38,506	-0,175	0,068
-352,766	282,989	0,010	-0,013
-351,752	-200,000	-0,004	0,103
-350,737	-200,000	0,015	-0,055
-349,723	272,779	0,102	0,132
-348,708	-200,000	0,001	0,007
-347,693	158,322	-0,048	0,048
-346,679	38,159	-0,047	-0,031
-345,664	800,000	-0,042	-0,104
-344,650	67,626	-0,057	-0,043
-343,635	800,000	-0,025	0,063
-342,620	125,899	0,151	0,140
-341,606	8,750	-0,051	0,028
-340,591	126,079	-0,084	-0,078
-339,577	-200,000	-0,031	-0,153
-338,562	380,642	0,125	-0,189
-337,548	800,000	0,028	-0,075
-336,533	-200,000	0,015	0,129
-335,518	154,921	0,078	0,079
-334,504	-132,921	0,185	-0,017
-333,489	554,074	-0,035	-0,062
-332,475	94,753	-0,052	-0,044
-331,460	-58,059	-0,054	-0,017
-330,445	800,000	0,057	-0,169
-329,431	263,334	-0,085	-0,109
-328,416	81,003	-0,076	0,060
-327,402	-200,000	0,005	0,211
-326,387	800,000	-0,015	0,034
-325,372	43,816	0,065	-0,044
-324,358	-147,057	-0,156	0,010
-323,343	-200,000	-0,004	-0,159
-322,329	800,000	-0,050	-0,150
-321,314	755,765	0,013	0,025
-320,299	-14,572	0,101	0,047
-319,285	119,362	0,082	-0,074
-318,270	261,141	0,030	-0,038
-317,256	-155,535	0,051	0,002
-316,241	-200,000	-0,008	0,113
-315,226	15,068	0,083	0,048
-314,212	-200,000	0,033	0,121
-313,197	257,145	0,081	-0,102
-312,183	-77,939	-0,054	0,013
-311,168	-200,000	-0,028	0,132
-310,153	-90,789	0,107	0,022
-309,139	-183,707	0,116	-0,001
-308,124	40,730	0,032	0,021
-307,110	-23,258	0,116	0,051
-306,095	-200,000	0,019	0,091
-305,080	133,772	0,052	0,049
-304,066	358,479	-0,086	0,126
-303,051	-91,269	0,125	-0,026
-302,037	-43,790	-0,042	0,015
-301,022	16,635	-0,096	0,055
-300,008	307,454	0,048	0,065
-298,993	88,182	0,066	0,054
-297,978	800,000	0,023	-0,054
-296,964	240,332	0,084	-0,102
-295,949	356,218	-0,039	-0,057
-294,935	504,643	-0,053	0,090
-293,920	-76,346	-0,102	-0,026
-292,905	86,027	-0,016	-0,013
-291,891	11,116	0,099	-0,055
-290,876	-200,000	-0,034	0,139
-289,862	-200,000	-0,021	0,106
-288,847	-200,000	0,014	0,089
-287,832	-76,131	0,025	-0,006
-286,818	37,188	0,063	0,041
-285,803	-114,398	0,103	0,014
-284,789	-40,044	-0,047	0,018
-283,774	-200,000	-0,013	0,047
-282,759	-200,000	0,017	-0,065
-281,745	-200,000	-0,012	0,084
-280,730	-200,000	-0,009	-0,146
-279,716	425,555	-0,072	-0,114
-278,701	-200,000	0,013	-0,120
-277,686	133,035	-0,118	0,111
-276,672	-200,000	-0,020	0,132
-275,657	800,000	0,020	0,065
-274,643	56,032	0,182	-0,129
-273,628	89,504	-0,147	0,120
-272,613	-43,324	-0,054	0,020
-271,599	527,068	0,005	0,009
-270,584	800,000	0,044	0,111
-269,570	-34,750	-0,075	0,030
-268,555	-35,782	-0,078	0,031
-267,540	-200,000	-0,000	-0,016
-266,526	-200,000	-0,005	0,120
-265,511	-5,123	-0,139	-0,070
-264,497	57,494	-0,092	0,066
-263,482	-65,270	0,149	-0,044
-262,467	39,140	0,079	0,051
-261,453	-200,000	-0,002	0,075
-260,438	-200,000	0,012	-0,118
-259,424	55,149	-0,071	0,050
-258,409	-200,000	0,027	-0,097
-257,395	-155,976	-0,063	-0,003
-256,380	-54,634	0,150	0,049
-255,365	141,463	0,074	0,071
-254,351	-200,000	-0,006	0,041
-253,336	-69,170	-0,047	-0,013
-252,322	-55,395	0,131	0,043
-251,307	139,841	0,093	0,090
-250,292	-62,006	-0,043	0,013
-249,278	-58,281	0,111	-0,035
-248,263	75,757	0,081	-0,063
-247,249	-68,981	-0,036	-0,010
-246,234	206,684	0,072	0,082
-245,219	-200,000	-0,010	0,033
-244,205	33,299	-0,144	-0,091
-243,190	8,052	0,078	-0,043
-242,176	58,603	-0,094	0,067
-241,161	800,000	0,057	0,131
-240,146	88,779	0,042	0,034
-239,132	752,353	-0,044	-0,087
-238,117	-7,586	-0,153	-0,075
-237,103	-32,732	-0,149	0,060
-236,088	-200,000	0,006	-0,028
-235,073	223,473	-0,030	-0,036
-234,059	-139,443	0,086	-0,007
-233,044	241,815	-0,060	0,074
-232,030	800,000	-0,044	0,124
-231,015	-169,482	-0,094	-0,002
-230,000	466,128	-0,047	0,077
-228,986	5,868	0,113	-0,061
-227,971	-200,000	-0,002	-0,106
-226,957	78,313	0,094	-0,073
-225,942	-200,000	-0,002	-0,076
-224,927	-21,597	-0,113	-0,050
-223,913	-200,000	0,000	0,031
-222,898	695,460	-0,040	0,077
-221,884	-200,000	0,003	-0,104
-220,869	-98,041	0,031	0,006
-219,855	-200,000	-0,033	-0,124
-218,840	-70,084	0,126	-0,035
-217,825	-77,422	0,048	-0,012
-216,811	-200,000	0,002	-0,112
-215,796	800,000	0,033	-0,083
-214,782	-14,531	0,028	-0,013
-213,767	256,776	0,058	0,073
-212,752	-200,000	0,004	0,140
-211,738	-12,492	0,073	-0,035
-210,723	280,219	-0,071	0,093
-209,709	40,896	0,104	0,068
-208,694	265,096	-0,050	-0,063
-207,679	-200,000	0,006	-0,029
-206,665	-95,203	-0,016	-0,003
-205,650	491,869	-0,060	-0,101
-204,636	257,480	0,118	0,148
-203,621	-122,334	0,190	0,022
-202,606	-154,910	-0,037	0,002
-201,592	-71,053	0,104	0,028
-200,577	-23,072	0,007	0,003
-199,563	800,000	0,005	-0,012
-198,548	800,000	-0,007	0,015
-197,533	-103,807	0,047	-0,008
-196,519	756,380	0,022	-0,044
-195,504	211,799	-0,089	-0,102
-194,490	143,342	-0,099	-0,096
-193,475	-200,000	-0,012	-0,161
-192,460	-200,000	-0,008	-0,053
-191,446	-200,000	-0,035	0,145
-190,431	-52,567	-0,094	-0,031
-189,417	476,833	-0,021	-0,035
-188,402	-108,313	0,083	0,013
-187,387	800,000	-0,020	-0,052
-186,373	320,758	-0,119	-0,166
-185,358	-200,000	-0,036	0,156
-184,344	-200,000	0,030	0,146
-183,329	82,801	0,058	-0,046
-182,315	-84,947	-0,074	-0,017
-181,300	-200,000	-0,016	0,107
-180,285	153,971	-0,092	0,092
-179,271	6,251	-0,101	-0,054
-178,256	130,832	0,053	0,049
-177,242	-118,510	0,032	-0,004
-176,227	-200,000	0,015	0,080
-175,212	800,000	0,022	0,067
-174,198	146,891	-0,098	0,096
-173,183	-71,257	0,106	-0,029
-172,169	800,000	-0,003	0,008
-171,154	800,000	-0,047	0,105
-170,139	126,625	-0,028	-0,026
-169,125	-42,723	0,112	-0,041
-168,110	213,006	0,072	-0,083
-167,096	-200,000	-0,008	0,035
-166,081	800,000	0,029	-0,064
-165,066	231,060	0,013	-0,015
-164,052	239,130	-0,021	-0,025
-163,037	288,288	0,063	-0,083
-162,023	800,000	-0,023	0,059
-161,008	800,000	-0,035	0,072
-159,993	-200,000	0,006	0,044
-158,979	527,070	0,028	-0,047
-157,964	-105,290	0,100	-0,016
-156,950	556,211	0,050	0,088
-155,935	-68,086	-0,094	0,026
-154,920	46,995	0,127	0,086
-153,906	506,846	0,094	0,159
-152,891	-200,000	0,018	0,061
-151,877	-107,865	-0,047	-0,007
-150,862	-189,376	-0,158	-0,001
-149,847	156,705	-0,096	-0,096
-148,833	-29,798	-0,104	-0,043
-147,818	136,013	0,049	-0,047
-146,804	-95,574	0,058	-0,011
-145,789	110,861	-0,042	-0,036
-144,775	44,981	-0,040	-0,027
-143,760	-115,025	-0,145	0,020
-142,745	800,000	-0,020	-0,059
-141,731	800,000	0,021	-0,047
-140,716	303,970	0,029	-0,040
-139,702	189,164	0,077	0,084
-138,687	60,970	0,015	0,011
-137,672	-69,507	0,053	-0,015
-136,658	77,044	-0,036	-0,028
-135,643	104,329	0,039	0,033
-134,629	-92,541	0,031	0,006
-133,614	-32,687	-0,084	-0,034
-132,599	-200,000	0,012	0,073
-131,585	45,193	0,056	-0,037
-130,570	-200,000	-0,024	0,095
-129,556	311,508	0,053	-0,073
-128,541	-61,298	-0,143	-0,043
-127,526	-200,000	-0,006	-0,023
-126,512	27,867	0,109	-0,067
-125,497	-17,476	0,097	-0,044
-124,483	-72,371	-0,066	-0,018
-123,468	87,350	0,091	-0,073
-122,453	-200,000	-0,033	0,130
-121,439	621,355	0,033	-0,060
-120,424	800,000	0,029	0,077
