DTS Sentinel unit serial number:	SN410029Multiplexer serial number:	ORYXHardware model number:	OX2-SRSoftware version number:	ORYX F/W v4,00 Oryx Data Collector v3.7.2.0data status	okinstallation	B4 Nyhavnadifferential loss correction	single-endedforward channel	channel 2reverse channel	N/Adate	2023/12/16time	01:30:13forward acquisition time	300,00reverse acquisition time	0,00gamma	499,1914k internal	0,3128k external	0,3128temperature offset calibration	1,0000default loss term (dB/km)	0,3820temperature slope calibration	1,0000multiplexer offset coefficient	1,0000multiplexer slope coefficient	1,0000fibre end	0,00T internal ref (°C)	21,91T ext. ref 1 (°C)	7,06T ext. ref 2 (°C)	7,26length (m)	temperature (°C)	Stokes	anti-Stokes-744,400	-200,000	0,033	-0,208
-743,385	145,289	-0,123	0,123
-742,371	23,061	-0,181	0,110
-741,356	-63,045	-0,190	0,058
-740,342	-49,541	-0,132	-0,046
-739,327	-100,359	-0,221	0,040
-738,312	800,000	0,044	-0,093
-737,298	-141,090	-0,160	0,012
-736,283	-200,000	0,013	0,096
-735,269	-67,997	-0,110	0,032
-734,254	-156,510	-0,075	0,003
-733,239	-126,284	-0,341	-0,037
-732,225	-16,953	0,198	0,093
-731,210	471,859	-0,083	0,140
-730,196	408,175	0,099	-0,157
-729,181	800,000	-0,063	-0,140
-728,167	30,302	0,052	-0,033
-727,152	-75,485	0,114	-0,030
-726,137	-200,000	0,005	0,021
-725,123	204,253	0,058	0,067
-724,108	-103,599	-0,090	-0,015
-723,094	-200,000	-0,019	-0,125
-722,079	-65,075	-0,126	0,038
-721,064	-51,858	-0,174	-0,060
-720,050	-172,961	0,118	0,003
-719,035	-200,000	-0,015	-0,061
-718,021	18,205	-0,055	-0,033
-717,006	-200,000	-0,026	-0,142
-715,991	-200,000	-0,004	-0,065
-714,977	-56,411	0,067	-0,022
-713,962	222,748	-0,030	-0,036
-712,948	-105,421	0,057	-0,009
-711,933	193,897	-0,021	0,023
-710,918	-60,377	-0,059	0,018
-709,904	-34,163	0,145	0,059
-708,889	-34,035	-0,098	-0,040
-707,875	-200,000	-0,003	0,019
-706,860	800,000	-0,025	-0,067
-705,845	-98,952	-0,106	-0,020
-704,831	87,587	0,146	-0,120
-703,816	244,247	-0,018	-0,022
-702,802	-22,218	-0,109	-0,049
-701,787	489,283	0,054	-0,093
-700,772	-200,000	-0,022	0,082
-699,758	-38,295	0,103	0,040
-698,743	126,329	-0,079	-0,074
-697,729	-191,584	-0,110	-0,001
-696,714	643,504	-0,029	0,055
-695,699	-61,711	-0,042	0,013
-694,685	-18,769	-0,142	-0,065
-693,670	800,000	-0,043	-0,111
-692,656	-135,553	0,088	0,008
-691,641	-55,985	0,059	-0,019
-690,627	-200,000	0,008	0,070
-689,612	-122,650	-0,175	0,021
-688,597	119,727	0,056	0,052
-687,583	-74,453	-0,034	-0,009
-686,568	170,160	-0,055	-0,059
-685,554	78,128	0,070	-0,056
-684,539	41,635	0,088	0,059
-683,524	81,893	-0,029	-0,023
-682,510	-200,000	-0,021	0,078
-681,495	3,518	-0,052	-0,028
-680,481	12,563	-0,146	-0,083
-679,466	-83,097	-0,041	0,010
-678,451	14,053	-0,137	0,079
-677,437	-153,950	0,095	0,005
-676,422	800,000	-0,022	0,062
-675,408	-200,000	-0,000	0,049
-674,393	224,395	-0,078	0,094
-673,378	-200,000	0,031	0,106
-672,364	-200,000	-0,031	-0,103
-671,349	-200,000	0,004	-0,123
-670,335	292,473	-0,036	-0,049
-669,320	423,243	-0,040	-0,064
-668,305	41,466	0,092	-0,061
-667,291	-136,352	0,025	0,002
-666,276	-85,121	-0,170	0,039
-665,262	-133,927	-0,056	-0,005
-664,247	114,138	0,021	-0,019
-663,232	-30,078	0,084	-0,035
-662,218	-108,776	0,070	-0,011
-661,203	363,044	0,064	-0,095
-660,189	-88,275	-0,047	-0,010
-659,174	-129,850	-0,183	-0,018
-658,159	4,805	0,070	-0,038
-657,145	-200,000	0,008	-0,157
-656,130	52,309	-0,060	0,042
-655,116	-60,032	0,046	0,014
-654,101	24,939	0,054	-0,033
-653,086	-135,426	0,101	-0,009
-652,072	800,000	0,037	-0,082
-651,057	153,751	0,081	-0,082
-650,043	68,890	-0,073	0,055
-649,028	94,202	-0,038	0,032
-648,014	17,050	-0,041	-0,024
-646,999	800,000	-0,044	-0,131
-645,984	334,373	0,050	0,071
-644,970	708,043	-0,017	-0,034
-643,955	146,406	0,137	-0,136
-642,941	212,349	0,068	-0,080
-641,926	-12,380	0,062	0,030
-640,911	-163,832	0,153	-0,005
-639,897	-200,000	-0,003	0,022
-638,882	392,125	0,065	0,100
-637,868	-200,000	-0,014	0,081
-636,853	-200,000	-0,033	0,112
-635,838	366,331	-0,046	0,069
-634,824	-200,000	0,001	-0,032
-633,809	-92,914	0,138	-0,028
-632,795	-83,046	-0,079	-0,019
-631,780	800,000	0,050	-0,148
-630,765	-128,407	0,021	0,002
-629,751	-200,000	-0,017	-0,079
-628,736	-200,000	-0,002	0,038
-627,722	800,000	-0,021	0,051
-626,707	78,423	-0,041	0,032
-625,692	-58,430	-0,006	-0,002
-624,678	130,912	0,010	-0,009
-623,663	-123,773	0,063	-0,007
-622,649	354,545	-0,053	-0,078
-621,634	-72,205	-0,172	-0,047
-620,619	70,597	-0,052	-0,040
-619,605	-200,000	-0,016	0,230
-618,590	-83,879	-0,031	0,007
-617,576	-200,000	0,005	0,094
-616,561	-77,738	-0,094	0,024
-615,546	196,035	0,060	0,068
-614,532	111,569	-0,087	-0,078
-613,517	79,254	-0,006	0,005
-612,503	-176,732	0,131	-0,002
-611,488	-200,000	0,000	-0,111
-610,474	121,158	0,037	0,034
-609,459	-168,240	-0,037	-0,001
-608,444	132,694	-0,092	-0,088
-607,430	-200,000	0,011	0,132
-606,415	-131,243	0,154	-0,015
-605,401	397,643	0,048	0,075
-604,386	-114,351	0,092	-0,013
-603,371	76,851	0,062	0,049
-602,357	-200,000	-0,027	0,107
-601,342	800,000	0,013	-0,033
-600,328	-13,684	-0,146	-0,069
-599,313	300,622	0,020	0,027
-598,298	114,418	-0,038	-0,034
-597,284	800,000	0,042	-0,107
-596,269	135,434	-0,092	0,088
-595,255	-200,000	0,003	0,042
-594,240	-65,785	-0,038	-0,011
-593,225	41,513	-0,031	-0,021
-592,211	-200,000	0,023	-0,093
-591,196	800,000	-0,037	-0,118
-590,182	800,000	0,010	0,021
-589,167	-200,000	0,000	0,017
-588,152	800,000	0,041	0,120
-587,138	-200,000	0,004	0,080
-586,123	244,965	0,037	-0,046
-585,109	-200,000	0,006	-0,076
-584,094	0,946	0,100	0,053
-583,079	-81,981	-0,169	0,041
-582,065	163,731	-0,069	0,072
-581,050	800,000	0,034	0,112
-580,036	121,814	-0,048	0,044
-579,021	-32,589	0,032	-0,013
-578,006	-200,000	-0,011	-0,052
-576,992	-145,906	-0,056	-0,004
-575,977	-200,000	0,045	-0,190
-574,963	-0,736	0,050	-0,026
-573,948	-55,913	-0,142	0,046
-572,934	141,493	-0,020	0,020
-571,919	32,407	-0,086	0,055
-570,904	-99,043	-0,035	0,007
-569,890	-152,410	-0,149	-0,008
-568,875	-200,000	-0,025	-0,162
-567,861	368,690	-0,083	-0,125
-566,846	-180,280	0,153	0,002
-565,831	-84,153	-0,115	0,027
-564,817	-200,000	-0,021	0,098
-563,802	192,862	-0,033	-0,037
-562,788	-112,952	-0,106	0,015
-561,773	-200,000	-0,010	0,050
-560,758	-38,572	0,118	0,046
-559,744	800,000	-0,011	0,027
-558,729	-200,000	-0,006	0,041
-557,715	-49,305	0,120	-0,042
-556,700	800,000	-0,034	-0,089
-555,685	800,000	0,067	-0,146
-554,671	800,000	0,054	-0,156
-553,656	-109,181	-0,186	0,029
-552,642	800,000	-0,038	0,091
-551,627	11,413	-0,045	-0,025
-550,612	-34,027	-0,064	-0,026
-549,598	478,898	-0,034	-0,057
-548,583	115,009	-0,081	0,073
-547,569	800,000	0,030	-0,082
-546,554	290,860	0,108	0,145
-545,539	-200,000	0,033	0,127
-544,525	56,112	0,111	0,079
-543,510	34,084	-0,150	-0,096
-542,496	-174,995	0,034	0,001
-541,481	800,000	-0,013	-0,038
-540,466	-1,612	0,028	-0,014
-539,452	-75,195	-0,024	0,006
-538,437	-82,116	0,025	0,006
-537,423	197,524	-0,072	0,081
-536,408	249,866	-0,037	-0,046
-535,393	2,470	0,076	-0,040
-534,379	-21,032	0,062	-0,028
-533,364	-93,996	-0,075	0,015
-532,350	800,000	-0,042	-0,119
-531,335	-50,172	0,239	-0,083
-530,321	148,157	-0,167	-0,166
-529,306	50,389	0,102	-0,071
-528,291	-200,000	0,012	-0,078
-527,277	-19,568	-0,091	-0,041
-526,262	-96,443	-0,121	-0,023
-525,248	15,500	0,158	0,092
-524,233	-85,630	-0,091	-0,021
-523,218	-200,000	-0,022	0,101
-522,204	-20,161	0,022	-0,010
-521,189	-61,895	0,013	-0,004
-520,175	-60,040	0,060	0,019
-519,160	192,487	0,036	-0,040
-518,145	-119,731	0,083	0,010
-517,131	-134,084	0,084	0,008
-516,116	101,181	0,064	-0,055
-515,102	-64,201	0,040	-0,012
-514,087	126,067	-0,057	-0,053
-513,072	-157,776	0,117	0,005
-512,058	-200,000	-0,010	-0,121
-511,043	-26,654	-0,062	-0,027
-510,029	75,396	0,096	0,075
-509,014	344,534	0,013	0,019
-507,999	-200,000	-0,015	-0,126
-506,985	800,000	-0,032	-0,067
-505,970	184,905	-0,094	0,102
-504,956	-200,000	0,023	-0,166
-503,941	800,000	0,007	0,020
-502,926	-70,154	-0,126	-0,035
-501,912	423,857	0,035	0,056
-500,897	-200,000	0,020	-0,108
-499,883	-200,000	0,026	-0,147
-498,868	800,000	-0,040	-0,108
-497,853	-200,000	0,015	-0,213
-496,839	-200,000	0,010	-0,090
-495,824	-200,000	-0,006	0,029
-494,810	-200,000	0,008	-0,045
-493,795	181,685	-0,023	-0,025
-492,781	-200,000	0,012	-0,076
-491,766	-124,862	-0,020	0,002
-490,751	-200,000	-0,002	-0,129
-489,737	-200,000	0,011	0,101
-488,722	-200,000	0,019	0,118
-487,708	-28,038	-0,015	-0,006
-486,693	-105,918	-0,042	-0,007
-485,678	-31,670	0,064	-0,027
-484,664	-1,080	0,117	-0,061
-483,649	133,672	-0,036	-0,034
-482,635	667,387	0,025	-0,048
-481,620	-200,000	0,006	-0,032
-480,605	238,734	0,118	0,145
-479,591	-200,000	0,001	0,081
-478,576	471,225	0,037	0,062
-477,562	-31,822	-0,079	-0,032
-476,547	116,004	-0,095	-0,086
-475,532	-180,204	-0,005	0,000
-474,518	-37,623	-0,152	-0,059
-473,503	580,259	0,044	0,080
-472,489	-137,439	0,202	0,017
-471,474	-200,000	0,004	0,038
-470,459	444,601	-0,080	0,130
-469,445	236,862	0,032	0,039
-468,430	-200,000	0,009	-0,089
-467,416	-200,000	-0,003	0,077
-466,401	74,508	-0,053	-0,041
-465,386	-100,260	0,166	0,030
-464,372	-112,456	0,070	0,010
-463,357	10,343	-0,178	0,099
-462,343	800,000	-0,032	-0,086
-461,328	-151,279	0,043	0,002
-460,313	-123,414	0,069	0,008
-459,299	193,560	0,045	-0,050
-458,284	-83,863	-0,066	0,015
-457,270	-11,075	0,104	-0,050
-456,255	68,439	-0,089	-0,067
-455,241	-200,000	0,016	-0,211
-454,226	-200,000	0,001	-0,061
-453,211	155,506	-0,048	0,049
-452,197	254,825	-0,048	0,061
-451,182	-124,007	0,102	-0,012
-450,168	-16,520	0,108	0,050
-449,153	-73,393	-0,045	0,012
-448,138	255,719	-0,133	0,168
-447,124	-200,000	-0,003	-0,035
-446,109	590,791	-0,029	-0,053
-445,095	-64,122	0,214	-0,064
-444,080	199,776	0,049	-0,056
-443,065	177,597	-0,058	-0,063
-442,051	-200,000	-0,015	-0,083
-441,036	532,508	-0,018	-0,032
-440,022	-30,220	-0,120	0,050
-439,007	800,000	0,029	-0,083
-437,992	-200,000	0,002	0,129
-436,978	4,297	-0,059	0,032
-435,963	634,004	-0,068	0,128
-434,949	-137,480	0,058	-0,005
-433,934	-42,989	-0,107	-0,040
-432,919	-200,000	0,036	-0,142
-431,905	73,765	0,040	0,031
-430,890	137,632	-0,023	0,022
-429,876	-0,558	0,177	0,092
-428,861	289,393	0,058	0,077
-427,846	800,000	-0,036	0,108
-426,832	224,539	-0,072	0,086
-425,817	-200,000	-0,018	-0,063
-424,803	-70,597	0,094	0,026
-423,788	-117,277	0,167	-0,022
-422,773	263,167	-0,032	0,041
-421,759	-55,362	-0,107	-0,035
-420,744	-200,000	-0,012	-0,080
-419,730	459,032	-0,064	0,105
-418,715	-94,801	0,039	-0,008
-417,701	-118,334	-0,068	-0,009
-416,686	658,500	0,061	0,116
-415,671	-46,710	0,064	0,023
-414,657	800,000	0,018	0,054
-413,642	800,000	-0,055	-0,175
-412,628	751,507	-0,045	0,089
-411,613	-200,000	0,007	-0,129
-410,598	-200,000	0,012	-0,097
-409,584	-87,677	0,013	0,003
-408,569	-200,000	-0,003	-0,039
-407,555	101,508	-0,032	-0,027
-406,540	-200,000	0,020	-0,067
-405,525	-200,000	0,020	-0,088
-404,511	-200,000	0,071	-0,250
-403,496	-18,658	-0,089	-0,041
-402,482	-95,653	0,070	0,014
-401,467	634,336	0,013	-0,025
-400,452	335,484	-0,138	0,197
-399,438	-25,772	-0,077	0,033
-398,423	-96,846	-0,153	0,029
-397,409	548,959	-0,037	-0,066
-396,394	40,321	-0,066	-0,044
-395,379	800,000	0,087	-0,211
-394,365	-29,871	-0,120	0,050
-393,350	584,420	0,039	-0,072
-392,336	800,000	0,035	-0,097
-391,321	35,510	-0,128	0,082
-390,306	5,685	-0,041	-0,022
-389,292	121,329	-0,102	-0,093
-388,277	800,000	0,060	-0,155
-387,263	469,314	0,011	0,018
-386,248	-200,000	0,042	0,166
-385,233	64,324	-0,135	0,099
-384,219	-200,000	0,046	0,201
-383,204	-116,456	-0,180	-0,024
-382,190	224,425	-0,074	0,088
-381,175	712,016	0,073	0,143
-380,160	192,748	0,069	0,076
-379,146	-200,000	-0,006	-0,040
-378,131	-200,000	0,035	0,191
-377,117	-86,018	-0,084	0,019
-376,102	-200,000	0,012	-0,125
-375,088	420,549	0,055	0,087
-374,073	800,000	-0,029	-0,069
-373,058	-27,308	0,047	0,020
-372,044	-149,670	0,105	0,006
-371,029	309,987	0,025	-0,035
-370,015	-66,126	-0,062	-0,018
-369,000	533,591	0,072	-0,125
-367,985	716,176	0,045	-0,089
-366,971	484,075	0,046	0,077
-365,956	-200,000	-0,032	-0,130
-364,942	-50,335	0,065	0,022
-363,927	800,000	-0,034	0,070
-362,912	-29,317	0,105	0,044
-361,898	501,970	-0,044	0,075
-360,883	120,450	-0,148	-0,135
-359,869	-57,921	-0,082	-0,026
-358,854	800,000	-0,032	0,082
-357,839	-1,410	0,116	-0,060
-356,825	36,596	0,108	0,070
-355,810	55,183	0,111	-0,079
-354,796	800,000	0,024	-0,057
-353,781	-100,526	-0,078	-0,014
-352,766	383,097	0,041	-0,062
-351,752	800,000	-0,037	0,085
-350,737	-200,000	0,003	-0,033
-349,723	150,117	-0,080	0,080
-348,708	800,000	0,021	0,053
-347,693	69,610	0,054	-0,041
-346,679	121,028	0,086	0,078
-345,664	-66,863	-0,070	0,020
-344,650	5,444	0,143	0,077
-343,635	56,878	0,138	0,099
-342,620	66,660	0,170	-0,127
-341,606	32,095	-0,064	-0,040
-340,591	-200,000	-0,008	-0,031
-339,577	68,461	-0,141	0,106
-338,562	800,000	-0,013	-0,029
-337,548	599,054	-0,046	-0,084
-336,533	694,204	0,023	0,044
-335,518	501,638	0,112	0,190
-334,504	502,470	0,053	0,089
-333,489	-200,000	0,025	0,196
-332,475	316,467	0,045	0,063
-331,460	55,449	-0,176	-0,124
-330,445	800,000	-0,047	-0,148
-329,431	53,000	-0,028	0,020
-328,416	-95,115	-0,029	-0,006
-327,402	-47,964	-0,137	0,048
-326,387	-58,564	0,120	-0,038
-325,372	74,119	-0,124	-0,096
-324,358	179,423	0,032	-0,034
-323,343	800,000	-0,011	-0,030
-322,329	-90,725	0,098	-0,021
-321,314	-34,168	0,061	-0,025
-320,299	-142,401	0,120	0,008
-319,285	-200,000	-0,006	0,028
-318,270	800,000	0,009	0,025
-317,256	62,318	-0,148	-0,108
-316,241	-200,000	0,012	0,074
-315,226	-200,000	0,001	-0,050
-314,212	15,137	0,178	0,102
-313,197	428,665	0,043	0,068
-312,183	-200,000	-0,028	0,161
-311,168	0,030	0,109	-0,056
-310,153	-200,000	0,016	0,117
-309,139	182,588	-0,029	-0,031
-308,124	530,839	-0,042	-0,073
-307,110	34,932	0,092	0,059
-306,095	59,121	-0,049	-0,035
-305,080	800,000	0,010	-0,029
-304,066	457,416	-0,045	-0,073
-303,051	800,000	-0,022	-0,067
-302,037	-126,397	-0,145	-0,016
-301,022	177,012	-0,177	-0,189
-300,008	371,054	0,093	0,139
-298,993	-200,000	-0,012	0,138
-297,978	-200,000	-0,019	0,089
-296,964	115,467	-0,081	-0,072
-295,949	187,175	-0,037	-0,040
-294,935	79,882	0,072	-0,057
-293,920	-23,282	0,037	-0,016
-292,905	-133,946	-0,054	-0,005
-291,891	-10,256	0,007	-0,003
-290,876	18,845	0,037	-0,022
-289,862	800,000	-0,019	0,061
-288,847	-200,000	0,001	-0,049
-287,832	109,413	-0,053	0,047
-286,818	-25,210	0,045	-0,019
-285,803	-136,006	0,110	0,009
-284,789	-200,000	-0,019	0,094
-283,774	-200,000	-0,029	0,093
-282,759	800,000	0,057	0,163
-281,745	127,725	-0,022	0,021
-280,730	190,933	-0,080	-0,088
-279,716	-62,953	-0,101	-0,030
-278,701	-200,000	0,008	-0,154
-277,686	455,369	-0,051	0,083
-276,672	412,974	-0,018	0,027
-275,657	754,910	-0,030	-0,060
-274,643	299,731	0,076	-0,103
-273,628	350,672	-0,065	-0,094
-272,613	-69,620	0,033	0,009
-271,599	-200,000	0,020	0,067
-270,584	74,452	-0,035	-0,027
-269,570	-145,773	0,054	-0,003
-268,555	83,617	0,011	-0,008
-267,540	-200,000	0,009	-0,073
-266,526	-200,000	0,004	-0,107
-265,511	444,968	0,071	0,114
-264,497	-200,000	-0,015	0,090
-263,482	-113,451	0,097	0,014
-262,467	127,778	-0,160	0,148
-261,453	400,148	-0,050	0,077
-260,438	73,709	0,062	-0,047
-259,424	800,000	0,034	0,084
-258,409	255,462	-0,046	-0,057
-257,395	-53,712	0,072	-0,024
-256,380	-61,137	0,075	0,023
-255,365	51,578	-0,029	0,020
-254,351	64,292	0,070	0,052
-253,336	-125,099	0,020	0,002
-252,322	800,000	-0,019	-0,062
-251,307	-200,000	0,020	-0,072
-250,292	-200,000	0,004	-0,042
-249,278	-135,262	-0,115	0,010
-248,263	-68,692	0,135	-0,038
-247,249	800,000	-0,041	0,098
-246,234	-200,000	0,022	-0,071
-245,219	141,466	-0,084	-0,081
-244,205	485,347	-0,002	0,003
-243,190	187,967	-0,033	-0,036
-242,176	407,343	-0,049	0,076
-241,161	-108,429	0,152	-0,024
-240,146	-200,000	0,013	0,168
-239,132	258,626	-0,023	0,028
-238,117	-200,000	0,019	0,116
-237,103	-173,089	-0,159	-0,003
-236,088	-158,615	0,104	-0,004
-235,073	-200,000	-0,013	-0,059
-234,059	-200,000	-0,021	0,073
-233,044	800,000	0,027	0,077
-232,030	55,858	-0,092	0,065
-231,015	800,000	-0,060	0,127
-230,000	100,408	-0,054	0,046
-228,986	62,160	0,123	-0,089
-227,971	-200,000	0,022	0,127
-226,957	707,325	0,051	0,100
-225,942	449,745	-0,092	0,148
-224,927	-200,000	0,004	-0,048
-223,913	-200,000	-0,004	0,083
-222,898	-68,083	-0,036	-0,010
-221,884	-6,065	-0,024	0,012
-220,869	800,000	0,041	-0,083
-219,855	-148,126	-0,010	-0,001
-218,840	-200,000	-0,010	-0,108
-217,825	416,034	0,047	-0,073
-216,811	-48,144	-0,034	0,012
-215,796	-200,000	0,033	-0,117
-214,782	-10,560	-0,118	0,057
-213,767	-200,000	-0,003	-0,052
-212,752	-54,225	0,041	0,013
-211,738	-102,774	0,199	0,034
-210,723	220,547	0,047	0,055
-209,709	51,355	-0,137	-0,095
-208,694	34,064	-0,075	0,047
-207,679	-142,326	-0,149	-0,011
-206,665	-200,000	-0,035	0,171
-205,650	104,206	0,055	0,048
-204,636	-200,000	-0,005	0,118
-203,621	-200,000	-0,004	0,088
-202,606	612,564	0,048	0,088
-201,592	-6,687	-0,136	-0,067
-200,577	-46,877	-0,055	-0,019
-199,563	800,000	-0,005	-0,012
-198,548	-200,000	0,036	-0,133
-197,533	33,839	0,111	0,070
-196,519	800,000	0,014	0,040
-195,504	-107,746	0,043	0,007
-194,490	-98,843	0,025	-0,005
-193,475	164,415	-0,029	-0,030
-192,460	436,907	0,039	-0,062
-191,446	767,994	-0,047	0,094
-190,431	598,544	-0,007	-0,013
-189,417	19,276	0,097	-0,057
-188,402	181,378	-0,029	0,031
-187,387	-10,393	-0,068	-0,033
-186,373	800,000	-0,033	-0,071
-185,358	-21,171	-0,078	-0,035
-184,344	-99,258	0,126	-0,023
-183,329	797,706	-0,015	-0,029
-182,315	-88,999	0,026	0,006
-181,300	-200,000	-0,022	-0,082
-180,285	-122,170	-0,034	0,004
-179,271	800,000	-0,084	-0,179
-178,256	800,000	0,051	0,126
-177,242	800,000	-0,019	0,054
-176,227	365,040	-0,019	0,027
-175,212	679,670	0,049	0,094
-174,198	-155,046	0,013	0,001
-173,183	264,579	-0,087	0,111
-172,169	287,608	0,046	0,061
-171,154	800,000	0,035	-0,080
-170,139	12,074	0,046	0,026
-169,125	-86,544	0,118	0,026
-168,110	800,000	0,056	0,117
-167,096	-200,000	-0,009	0,080
-166,081	800,000	0,033	0,085
-165,066	130,314	0,031	0,029
-164,052	142,263	-0,072	-0,070
-163,037	77,393	-0,105	-0,081
-162,023	40,518	-0,024	0,016
-161,008	146,035	0,102	0,100
-159,993	-89,084	0,022	0,005
-158,979	40,747	-0,119	-0,078
-157,964	-190,216	-0,023	0,000
-156,950	-36,910	0,091	0,035
-155,935	-44,454	0,117	0,042
-154,920	-114,040	0,115	-0,016
-153,906	800,000	0,035	0,084
-152,891	520,133	0,032	0,055
-151,877	668,829	0,062	0,116
-150,862	365,028	-0,091	-0,134
-149,847	-200,000	0,020	-0,203
-148,833	109,459	-0,093	-0,081
-147,818	-40,026	0,101	-0,038
-146,804	-82,623	0,049	0,011
-145,789	-96,722	0,261	0,049
-144,775	23,208	-0,075	-0,044
-143,760	364,442	0,055	-0,081
-142,745	24,040	-0,063	0,038
-141,731	-188,149	0,080	0,001
-140,716	800,000	-0,052	0,132
-139,702	-17,091	0,179	-0,082
-138,687	-42,773	-0,018	0,007
-137,672	380,716	0,055	-0,082
-136,658	-200,000	0,000	-0,072
-135,643	286,071	-0,043	0,057
-134,629	102,838	0,073	-0,062
-133,614	-27,526	-0,082	-0,034
-132,599	185,050	0,065	-0,070
-131,585	46,568	-0,069	0,046
-130,570	-23,931	0,094	-0,041
-129,556	86,175	-0,035	0,028
-128,541	-54,211	0,047	-0,015
-127,526	-200,000	-0,038	-0,135
-126,512	-55,730	-0,083	0,027
-125,497	137,760	-0,035	0,033
-124,483	800,000	0,041	-0,117
-123,468	-102,831	-0,125	-0,021
-122,453	800,000	0,019	0,043
-121,439	16,292	-0,043	-0,024
-120,424	-200,000	0,007	0,079
