DTS Sentinel unit serial number:	SN410029Multiplexer serial number:	ORYXHardware model number:	OX2-SRSoftware version number:	ORYX F/W v4,00 Oryx Data Collector v3.7.2.0data status	okinstallation	B4 Nyhavnadifferential loss correction	single-endedforward channel	channel 2reverse channel	N/Adate	2023/12/15time	14:10:13forward acquisition time	300,00reverse acquisition time	0,00gamma	499,1914k internal	0,3162k external	0,3162temperature offset calibration	1,0000default loss term (dB/km)	0,3820temperature slope calibration	1,0000multiplexer offset coefficient	1,0000multiplexer slope coefficient	1,0000fibre end	0,00T internal ref (°C)	14,50T ext. ref 1 (°C)	1,24T ext. ref 2 (°C)	1,37length (m)	temperature (°C)	Stokes	anti-Stokes-744,400	114,568	0,038	-0,034
-743,385	-136,431	-0,316	0,027
-742,371	582,199	0,027	-0,049
-741,356	-153,590	-0,310	-0,015
-740,342	-132,903	0,104	-0,010
-739,327	-109,224	-0,385	0,059
-738,312	30,374	0,107	0,067
-737,298	-106,288	-0,210	-0,034
-736,283	59,988	0,075	0,055
-735,269	-158,818	-0,266	0,011
-734,254	-200,000	-0,002	0,014
-733,239	18,195	-0,511	-0,300
-732,225	10,741	0,132	-0,074
-731,210	-200,000	-0,028	0,119
-730,196	-166,663	0,035	0,001
-729,181	97,843	-0,092	0,078
-728,167	19,860	-0,204	-0,121
-727,152	-23,645	-0,036	0,016
-726,137	-144,380	-0,059	0,004
-725,123	108,877	-0,043	0,038
-724,108	-14,539	0,070	-0,033
-723,094	135,342	-0,141	-0,135
-722,079	800,000	-0,041	-0,111
-721,064	-110,715	-0,096	-0,015
-720,050	-200,000	0,003	0,056
-719,035	419,392	-0,021	0,032
-718,021	-200,000	0,005	0,027
-717,006	-72,048	-0,180	0,049
-715,991	175,044	0,073	-0,078
-714,977	-200,000	-0,019	-0,083
-713,962	-21,938	-0,068	-0,030
-712,948	-200,000	-0,036	-0,212
-711,933	134,682	0,010	0,010
-710,918	-83,730	-0,163	-0,038
-709,904	415,373	0,017	-0,026
-708,889	201,536	-0,090	-0,102
-707,875	118,257	-0,117	0,106
-706,860	546,453	-0,027	-0,048
-705,845	147,809	0,018	-0,018
-704,831	-11,053	-0,068	0,033
-703,816	110,801	-0,139	-0,123
-702,802	-200,000	0,003	-0,069
-701,787	-145,669	0,044	0,003
-700,772	-200,000	0,004	0,015
-699,758	267,486	0,044	0,057
-698,743	800,000	0,065	0,133
-697,729	-200,000	0,036	0,150
-696,714	48,469	-0,056	-0,038
-695,699	40,074	-0,096	0,063
-694,685	-151,245	-0,097	0,005
-693,670	-200,000	-0,052	-0,194
-692,656	-200,000	0,011	0,036
-691,641	-200,000	-0,024	0,164
-690,627	103,554	-0,088	0,075
-689,612	-90,104	-0,157	0,033
-688,597	354,892	-0,046	0,067
-687,583	-200,000	-0,040	-0,221
-686,568	-200,000	-0,010	-0,074
-685,554	-58,994	-0,205	-0,065
-684,539	-26,565	-0,006	0,003
-683,524	-115,940	0,046	-0,006
-682,510	154,907	-0,086	0,087
-681,495	215,292	-0,087	-0,101
-680,481	-6,854	-0,128	-0,064
-679,466	779,756	0,034	-0,068
-678,451	-65,698	-0,022	-0,006
-677,437	-49,278	0,131	0,046
-676,422	-26,591	0,069	0,030
-675,408	-26,525	-0,042	-0,018
-674,393	800,000	-0,057	-0,133
-673,378	-200,000	0,054	-0,177
-672,364	-14,744	-0,075	-0,035
-671,349	67,296	-0,072	-0,054
-670,335	415,106	-0,026	-0,041
-669,320	377,655	0,024	-0,037
-668,305	-41,176	0,137	0,052
-667,291	800,000	-0,051	-0,135
-666,276	184,327	-0,078	-0,085
-665,262	111,681	-0,096	-0,085
-664,247	-48,360	0,046	0,016
-663,232	6,269	0,175	-0,095
-662,218	-133,749	-0,037	0,003
-661,203	-72,183	0,068	-0,018
-660,189	326,499	-0,088	-0,124
-659,174	91,627	-0,100	-0,083
-658,159	-7,891	0,134	0,066
-657,145	-200,000	-0,029	-0,116
-656,130	-127,288	-0,011	0,001
-655,116	-140,879	0,128	-0,010
-654,101	52,103	0,096	0,067
-653,086	-60,241	-0,065	-0,020
-652,072	-150,853	0,148	0,008
-651,057	-52,288	-0,110	-0,037
-650,043	103,574	-0,019	-0,017
-649,028	117,736	0,028	0,025
-648,014	-200,000	0,001	-0,025
-646,999	800,000	-0,002	-0,005
-645,984	-31,362	-0,130	-0,053
-644,970	-200,000	0,015	-0,119
-643,955	24,979	-0,026	-0,016
-642,941	17,799	0,096	-0,056
-641,926	96,352	0,109	0,091
-640,911	-200,000	0,014	0,056
-639,897	-51,493	-0,148	0,051
-638,882	248,584	0,068	0,084
-637,868	-6,178	-0,166	-0,083
-636,853	800,000	-0,049	-0,122
-635,838	-74,363	-0,084	-0,022
-634,824	-200,000	-0,014	0,184
-633,809	-8,242	-0,124	-0,061
-632,795	126,205	-0,031	0,028
-631,780	-117,202	0,019	-0,003
-630,765	800,000	-0,048	-0,101
-629,751	19,143	0,119	-0,070
-628,736	-200,000	-0,007	-0,152
-627,722	131,062	-0,086	0,081
-626,707	-98,249	-0,072	0,013
-625,692	-72,776	0,091	0,024
-624,678	-200,000	0,028	-0,160
-623,663	179,640	0,055	-0,059
-622,649	-200,000	-0,006	-0,184
-621,634	675,798	-0,078	-0,149
-620,619	119,999	-0,143	-0,130
-619,605	800,000	0,046	0,104
-618,590	-52,210	0,044	-0,015
-617,576	107,156	0,044	-0,038
-616,561	296,898	-0,059	-0,080
-615,546	800,000	-0,030	-0,097
-614,532	800,000	-0,018	-0,054
-613,517	-47,786	0,025	0,009
-612,503	187,032	0,026	-0,029
-611,488	239,866	-0,050	-0,062
-610,474	-115,616	0,013	0,002
-609,459	18,663	-0,082	0,048
-608,444	-200,000	-0,015	0,060
-607,430	112,997	-0,015	-0,013
-606,415	217,737	-0,050	-0,058
-605,401	305,986	-0,062	-0,084
-604,386	-113,337	-0,084	0,012
-603,371	-65,937	0,086	0,025
-602,357	-92,826	-0,117	-0,024
-601,342	-41,969	-0,085	-0,032
-600,328	16,819	-0,115	-0,067
-599,313	-200,000	-0,019	0,073
-598,298	800,000	0,023	0,071
-597,284	-40,706	0,120	0,045
-596,269	-72,355	0,079	-0,021
-595,255	800,000	0,048	0,135
-594,240	222,390	-0,037	-0,044
-593,225	148,465	-0,120	-0,119
-592,211	-166,090	0,055	-0,002
-591,196	781,788	0,048	-0,098
-590,182	800,000	-0,043	0,091
-589,167	187,577	0,064	0,070
-588,152	-150,908	-0,043	0,002
-587,138	164,439	-0,059	-0,061
-586,123	-155,385	0,161	-0,007
-585,109	-78,772	-0,123	-0,030
-584,094	-100,224	-0,024	0,004
-583,079	-200,000	0,002	0,024
-582,065	-131,168	0,055	0,005
-581,050	-200,000	-0,026	0,092
-580,036	-52,754	-0,088	-0,030
-579,021	657,519	-0,010	-0,019
-578,006	-200,000	-0,002	-0,151
-576,992	478,846	-0,079	-0,132
-575,977	800,000	-0,025	0,074
-574,963	-129,607	0,262	0,026
-573,948	113,003	-0,039	0,034
-572,934	800,000	-0,036	0,112
-571,919	-98,004	0,031	0,006
-570,904	12,770	0,063	-0,035
-569,890	800,000	-0,028	-0,080
-568,875	-200,000	-0,003	-0,082
-567,861	800,000	-0,033	0,099
-566,846	671,289	0,052	0,099
-565,831	-200,000	0,012	0,068
-564,817	800,000	-0,055	-0,115
-563,802	-95,251	-0,062	-0,012
-562,788	223,778	-0,036	-0,043
-561,773	800,000	-0,019	-0,052
-560,758	-200,000	-0,020	0,099
-559,744	617,185	0,029	-0,053
-558,729	-200,000	0,000	0,158
-557,715	-68,743	-0,106	-0,030
-556,700	-96,167	-0,050	-0,010
-555,685	800,000	-0,044	-0,129
-554,671	800,000	-0,035	-0,100
-553,656	-156,055	0,058	-0,003
-552,642	800,000	0,020	0,048
-551,627	39,799	0,072	0,047
-550,612	41,979	-0,044	-0,029
-549,598	23,883	-0,123	-0,074
-548,583	-26,528	0,078	0,033
-547,569	-108,941	0,069	-0,011
-546,554	378,010	-0,030	0,045
-545,539	800,000	0,022	0,053
-544,525	-200,000	0,026	-0,121
-543,510	-182,603	0,028	-0,000
-542,496	698,135	0,010	0,019
-541,481	128,969	-0,117	0,109
-540,466	56,254	0,093	0,066
-539,452	-200,000	-0,016	0,080
-538,437	800,000	-0,022	0,065
-537,423	-29,159	0,085	0,035
-536,408	800,000	-0,060	0,153
-535,393	-200,000	-0,010	-0,228
-534,379	-126,665	-0,066	-0,007
-533,364	351,319	0,055	-0,080
-532,350	-48,962	0,295	-0,103
-531,335	-83,387	-0,128	0,030
-530,321	800,000	-0,035	0,105
-529,306	-90,620	0,086	0,018
-528,291	41,227	0,071	-0,047
-527,277	88,319	-0,182	0,148
-526,262	107,088	-0,050	-0,043
-525,248	173,020	-0,007	-0,007
-524,233	208,526	0,026	0,029
-523,218	-200,000	0,002	0,051
-522,204	508,103	-0,040	-0,067
-521,189	-88,161	-0,109	0,024
-520,175	-200,000	0,011	-0,047
-519,160	156,186	-0,077	0,078
-518,145	623,948	0,004	-0,007
-517,131	77,814	0,146	0,114
-516,116	-8,755	0,088	-0,043
-515,102	12,151	-0,053	-0,030
-514,087	-13,586	-0,089	-0,042
-513,072	-200,000	0,011	-0,182
-512,058	-75,542	-0,105	-0,027
-511,043	-51,863	0,106	-0,036
-510,029	-13,955	-0,065	-0,031
-509,014	51,159	0,075	-0,052
-507,999	51,547	-0,051	-0,035
-506,985	141,133	-0,024	-0,023
-505,970	136,651	0,035	-0,033
-504,956	430,573	-0,034	-0,054
-503,941	-103,946	0,087	-0,015
-502,926	-101,028	0,102	0,018
-501,912	-197,554	0,092	0,000
-500,897	-200,000	-0,044	0,175
-499,883	-180,834	-0,050	0,001
-498,868	-200,000	0,019	0,079
-497,853	-200,000	-0,001	0,124
-496,839	477,398	0,060	0,100
-495,824	-114,272	-0,124	0,017
-494,810	-46,561	0,145	0,052
-493,795	-149,959	0,006	-0,000
-492,781	47,522	-0,059	-0,040
-491,766	124,553	-0,034	-0,031
-490,751	346,916	-0,040	-0,057
-489,737	-200,000	-0,016	-0,099
-488,722	284,840	0,090	-0,118
-487,708	-147,867	0,034	0,002
-486,693	747,899	0,009	-0,018
-485,678	-200,000	0,011	0,036
-484,664	-200,000	-0,002	0,014
-483,649	81,700	-0,107	-0,084
-482,635	15,028	-0,005	-0,003
-481,620	-162,153	0,105	0,004
-480,605	-68,363	-0,055	-0,015
-479,591	155,164	-0,012	0,012
-478,576	8,666	-0,114	-0,062
-477,562	800,000	0,032	-0,071
-476,547	-14,026	0,069	-0,032
-475,532	800,000	-0,054	-0,129
-474,518	-6,791	0,112	-0,055
-473,503	153,414	-0,097	0,097
-472,489	-143,594	0,067	-0,005
-471,474	-200,000	-0,021	-0,088
-470,459	-200,000	0,004	-0,156
-469,445	-200,000	0,007	-0,030
-468,430	800,000	-0,031	-0,094
-467,416	-200,000	0,043	0,170
-466,401	-30,694	0,161	0,066
-465,386	3,080	0,031	-0,016
-464,372	78,670	0,039	-0,030
-463,357	-200,000	0,003	-0,053
-462,343	-146,400	0,113	0,007
-461,328	304,831	-0,046	-0,062
-460,313	-200,000	-0,004	0,045
-459,299	-141,827	-0,127	0,009
-458,284	-200,000	0,042	0,141
-457,270	-64,358	-0,029	-0,009
-456,255	32,810	-0,019	-0,012
-455,241	138,529	-0,042	-0,040
-454,226	-200,000	0,001	-0,086
-453,211	-134,836	0,080	0,007
-452,197	50,132	0,057	0,039
-451,182	63,522	-0,104	-0,076
-450,168	260,171	0,043	-0,054
-449,153	526,567	0,045	0,078
-448,138	121,142	-0,071	0,064
-447,124	151,397	-0,078	-0,078
-446,109	-200,000	0,025	0,091
-445,095	-106,382	-0,105	-0,017
-444,080	271,812	0,062	0,079
-443,065	300,432	-0,033	-0,045
-442,051	-0,212	-0,027	0,014
-441,036	-200,000	0,007	-0,097
-440,022	-200,000	-0,007	-0,065
-439,007	-107,291	0,141	-0,022
-437,992	249,034	-0,035	-0,043
-436,978	134,063	-0,075	0,071
-435,963	-200,000	-0,011	0,183
-434,949	24,452	0,070	0,042
-433,934	283,341	-0,098	-0,129
-432,919	17,817	0,085	-0,049
-431,905	800,000	-0,041	0,111
-430,890	15,254	0,009	-0,005
-429,876	800,000	0,040	0,092
-428,861	-87,796	0,077	0,017
-427,846	472,090	-0,073	0,120
-426,832	-92,777	0,088	0,018
-425,817	-200,000	-0,014	0,105
-424,803	800,000	-0,030	-0,065
-423,788	800,000	-0,003	0,007
-422,773	571,547	-0,041	0,073
-421,759	10,326	-0,121	0,067
-420,744	115,952	-0,051	0,045
-419,730	-200,000	0,002	0,035
-418,715	50,918	-0,161	-0,111
-417,701	800,000	-0,016	-0,045
-416,686	800,000	0,028	0,082
-415,671	-159,133	-0,041	-0,002
-414,657	-200,000	0,029	0,127
-413,642	800,000	0,021	0,061
-412,628	643,165	-0,031	-0,057
-411,613	-200,000	-0,020	-0,120
-410,598	-200,000	0,020	-0,071
-409,584	11,268	0,059	0,033
-408,569	20,072	0,102	0,060
-407,555	-200,000	-0,007	0,096
-406,540	66,121	0,134	0,099
-405,525	-52,442	-0,046	-0,015
-404,511	800,000	-0,019	0,041
-403,496	-138,722	-0,107	0,008
-402,482	-82,448	-0,070	0,016
-401,467	-25,083	0,097	0,042
-400,452	97,786	0,046	-0,038
-399,438	-175,699	0,138	-0,003
-398,423	105,809	0,047	0,041
-397,409	-200,000	-0,033	-0,187
-396,394	-200,000	-0,027	0,145
-395,379	496,859	-0,039	-0,066
-394,365	-109,490	0,083	0,013
-393,350	-200,000	0,003	0,058
-392,336	-200,000	-0,019	0,175
-391,321	-60,631	-0,312	0,095
-390,306	623,578	-0,064	0,117
-389,292	3,062	0,138	-0,073
-388,277	-46,289	0,084	0,030
-387,263	-92,260	0,060	-0,012
-386,248	447,260	0,093	-0,150
-385,233	-125,202	0,107	0,012
-384,219	-136,258	0,100	0,008
-383,204	-45,991	-0,093	0,033
-382,190	-200,000	0,004	0,045
-381,175	-200,000	0,009	-0,147
-380,160	170,822	-0,129	0,135
-379,146	-200,000	0,020	-0,113
-378,131	521,310	0,090	0,154
-377,117	-50,260	0,074	-0,025
-376,102	-46,041	-0,039	-0,014
-375,088	-200,000	0,002	-0,284
-374,073	-91,730	-0,092	0,019
-373,058	167,360	0,094	0,097
-372,044	436,676	0,073	-0,116
-371,029	-200,000	0,044	0,186
-370,015	-21,449	0,085	0,038
-369,000	430,245	0,037	-0,059
-367,985	-200,000	-0,022	0,122
-366,971	800,000	0,006	0,014
-365,956	-200,000	-0,016	0,095
-364,942	-200,000	-0,001	0,101
-363,927	589,752	0,024	-0,043
-362,912	296,739	0,027	0,037
-361,898	151,983	-0,146	0,144
-360,883	-200,000	0,007	-0,041
-359,869	-200,000	0,006	-0,040
-358,854	-200,000	-0,001	-0,061
-357,839	90,063	-0,068	0,055
-356,825	23,443	0,101	0,060
-355,810	2,240	0,140	0,073
-354,796	-200,000	-0,014	0,080
-353,781	800,000	0,019	-0,041
-352,766	-169,021	-0,153	0,004
-351,752	126,546	-0,075	-0,069
-350,737	800,000	0,045	-0,113
-349,723	-78,702	-0,041	0,010
-348,708	-200,000	0,010	-0,051
-347,693	84,418	-0,032	-0,025
-346,679	-71,833	-0,047	-0,013
-345,664	-200,000	0,022	0,129
-344,650	800,000	0,056	0,123
-343,635	-65,369	0,105	-0,030
-342,620	-164,572	0,162	-0,005
-341,606	95,694	-0,065	0,054
-340,591	21,296	-0,066	0,039
-339,577	-200,000	-0,008	0,072
-338,562	-139,700	0,036	-0,003
-337,548	-200,000	0,006	0,044
-336,533	254,372	0,025	-0,031
-335,518	-28,944	0,018	-0,008
-334,504	-101,367	0,090	0,016
-333,489	-200,000	-0,006	-0,169
-332,475	-200,000	-0,012	-0,070
-331,460	32,741	-0,067	0,042
-330,445	800,000	0,027	-0,083
-329,431	-200,000	-0,002	-0,055
-328,416	800,000	0,042	0,094
-327,402	-200,000	0,016	0,136
-326,387	-200,000	-0,003	-0,126
-325,372	-200,000	0,021	0,162
-324,358	800,000	-0,020	0,041
-323,343	138,535	0,052	-0,049
-322,329	-118,958	-0,153	0,019
-321,314	578,655	0,028	0,049
-320,299	195,031	-0,047	-0,052
-319,285	-200,000	-0,039	-0,165
-318,270	-200,000	-0,002	0,032
-317,256	-20,107	-0,004	-0,002
-316,241	800,000	0,008	-0,023
-315,226	800,000	0,041	-0,088
-314,212	95,614	0,042	0,034
-313,197	143,361	0,054	0,052
-312,183	534,073	-0,036	-0,062
-311,168	-69,833	0,066	-0,018
-310,153	-170,188	0,062	-0,002
-309,139	88,033	0,070	-0,056
-308,124	800,000	-0,029	-0,082
-307,110	194,792	-0,012	-0,013
-306,095	233,008	0,077	-0,092
-305,080	-200,000	-0,012	0,093
-304,066	-95,732	-0,153	-0,029
-303,051	-200,000	-0,025	0,083
-302,037	-18,774	0,031	-0,014
-301,022	33,075	0,058	-0,036
-300,008	-200,000	-0,025	0,083
-298,993	20,902	0,178	0,104
-297,978	-76,367	0,086	-0,022
-296,964	-85,532	0,036	-0,008
-295,949	269,419	-0,047	0,060
-294,935	-200,000	0,001	-0,033
-293,920	59,302	-0,076	-0,054
-292,905	-66,812	0,086	0,024
-291,891	800,000	0,055	0,119
-290,876	40,581	-0,133	0,087
-289,862	71,309	-0,038	0,028
-288,847	32,440	-0,052	-0,032
-287,832	800,000	0,063	-0,151
-286,818	800,000	-0,077	-0,155
-285,803	-200,000	-0,024	0,100
-284,789	-176,549	0,117	0,002
-283,774	800,000	0,075	0,224
-282,759	489,840	-0,089	-0,148
-281,745	-104,878	-0,145	-0,024
-280,730	38,508	-0,180	-0,116
-279,716	96,832	-0,058	-0,048
-278,701	252,160	0,026	0,032
-277,686	371,718	0,059	0,086
-276,672	800,000	-0,040	0,108
-275,657	115,842	-0,044	-0,039
-274,643	800,000	0,035	0,105
-273,628	577,845	-0,075	-0,133
-272,613	-67,201	-0,091	0,026
-271,599	-27,837	0,036	0,015
-270,584	158,617	-0,023	-0,023
-269,570	-64,223	0,173	-0,051
-268,555	800,000	0,010	-0,023
-267,540	70,485	0,029	-0,021
-266,526	32,728	-0,092	0,057
-265,511	90,500	-0,101	-0,082
-264,497	-132,455	0,016	-0,001
-263,482	-132,379	0,179	-0,016
-262,467	-128,620	0,128	0,013
-261,453	-200,000	0,010	0,109
-260,438	-94,163	-0,022	-0,004
-259,424	274,186	-0,064	-0,082
-258,409	800,000	-0,022	0,049
-257,395	3,347	-0,125	-0,066
-256,380	-200,000	0,004	-0,063
-255,365	800,000	-0,051	0,158
-254,351	800,000	0,046	-0,139
-253,336	189,544	0,041	0,044
-252,322	268,863	-0,039	-0,049
-251,307	-200,000	0,018	0,067
-250,292	-116,768	0,070	0,009
-249,278	259,164	0,056	-0,070
-248,263	-200,000	0,014	-0,057
-247,249	800,000	0,025	0,051
-246,234	-29,283	-0,131	0,054
-245,219	-200,000	0,007	-0,032
-244,205	601,086	-0,002	-0,003
-243,190	108,124	-0,108	0,093
-242,176	-135,596	0,076	-0,006
-241,161	-200,000	-0,042	0,140
-240,146	800,000	0,080	0,186
-239,132	232,831	-0,115	0,136
-238,117	-111,199	-0,195	-0,029
-237,103	800,000	-0,024	0,060
-236,088	-79,443	0,117	0,028
-235,073	1,752	0,187	-0,097
-234,059	-42,689	-0,102	0,037
-233,044	-11,723	-0,098	-0,046
-232,030	800,000	-0,026	0,069
-231,015	-200,000	-0,010	-0,084
-230,000	-102,239	0,242	-0,042
-228,986	20,416	-0,098	0,057
-227,971	10,134	0,065	0,036
-226,957	199,955	-0,111	0,123
-225,942	-200,000	0,001	0,043
-224,927	276,289	-0,068	-0,088
-223,913	800,000	0,054	-0,141
-222,898	800,000	-0,035	-0,106
-221,884	-40,079	-0,103	-0,038
-220,869	-200,000	-0,022	-0,094
-219,855	131,689	0,148	-0,137
-218,840	800,000	-0,003	-0,010
-217,825	-7,171	0,078	-0,038
-216,811	55,802	-0,117	0,081
-215,796	90,352	-0,030	0,024
-214,782	205,870	-0,039	0,044
-213,767	46,774	0,089	-0,060
-212,752	27,712	0,162	0,098
-211,738	-134,436	0,098	0,009
-210,723	134,114	0,028	0,027
-209,709	-200,000	-0,005	0,094
-208,694	800,000	0,055	0,116
-207,679	800,000	0,013	0,037
-206,665	211,059	0,074	0,084
-205,650	-200,000	0,003	0,025
-204,636	90,775	0,122	0,099
-203,621	-58,182	0,086	-0,027
-202,606	13,464	-0,148	-0,083
-201,592	65,994	-0,113	-0,083
-200,577	-174,447	0,104	-0,002
-199,563	800,000	-0,006	-0,020
-198,548	372,084	0,038	0,055
-197,533	516,194	-0,048	0,082
-196,519	-56,359	-0,032	0,010
-195,504	-144,266	0,077	-0,005
-194,490	70,976	-0,042	0,031
-193,475	214,380	-0,085	-0,097
-192,460	84,265	0,026	0,020
-191,446	-200,000	-0,016	-0,159
-190,431	147,032	0,040	0,039
-189,417	-16,641	0,080	0,036
-188,402	-5,540	-0,117	0,058
-187,387	800,000	-0,050	-0,149
-186,373	800,000	0,031	-0,076
-185,358	-5,744	-0,025	-0,012
-184,344	-200,000	0,028	0,096
-183,329	177,599	-0,075	0,079
-182,315	-81,692	0,087	-0,020
-181,300	-131,207	-0,113	0,011
-180,285	519,957	-0,038	0,065
-179,271	-200,000	0,002	-0,114
-178,256	-107,779	-0,060	-0,009
-177,242	800,000	-0,046	0,096
-176,227	800,000	0,060	0,185
-175,212	-200,000	0,013	-0,046
-174,198	19,636	-0,091	-0,052
-173,183	316,100	0,059	-0,081
-172,169	672,041	-0,024	-0,045
-171,154	-23,267	0,053	-0,023
-170,139	-200,000	-0,005	-0,091
-169,125	-54,257	0,045	0,015
-168,110	-89,652	0,077	0,016
-167,096	-200,000	-0,005	-0,055
-166,081	-98,879	0,087	0,016
-165,066	-59,109	-0,057	0,018
-164,052	-200,000	-0,001	-0,024
-163,037	-30,997	0,132	0,054
-162,023	-200,000	-0,014	0,103
-161,008	325,241	-0,136	0,188
-159,993	123,332	0,124	0,112
-158,979	-200,000	-0,003	-0,039
-157,964	-200,000	0,028	-0,125
-156,950	174,529	0,013	0,014
-155,935	800,000	0,047	-0,124
-154,920	54,320	0,073	0,050
-153,906	398,451	0,039	0,058
-152,891	-200,000	-0,008	-0,116
-151,877	-50,681	-0,097	0,033
-150,862	-108,818	0,107	0,016
-149,847	-200,000	-0,008	0,097
-148,833	-200,000	0,015	0,060
-147,818	20,278	0,080	0,046
-146,804	777,850	0,011	0,022
-145,789	800,000	0,036	-0,081
-144,775	-107,161	-0,107	-0,017
-143,760	-70,049	-0,086	0,023
-142,745	-200,000	-0,008	-0,054
-141,731	-200,000	-0,014	-0,119
-140,716	383,038	0,122	-0,180
-139,702	61,185	0,034	-0,025
-138,687	-200,000	0,008	0,148
-137,672	-92,870	-0,128	-0,025
-136,658	-11,924	-0,116	0,054
-135,643	169,176	0,055	-0,056
-134,629	-200,000	-0,009	-0,094
-133,614	-90,991	0,027	0,005
-132,599	7,505	0,021	0,011
-131,585	284,818	0,104	0,135
-130,570	-25,652	0,166	-0,070
-129,556	4,768	0,132	0,070
-128,541	701,319	-0,071	-0,134
-127,526	-57,794	0,019	0,006
-126,512	-143,412	0,117	-0,008
-125,497	800,000	0,045	-0,091
-124,483	16,092	-0,034	-0,019
-123,468	-42,430	-0,025	0,009
-122,453	190,276	-0,030	0,032
-121,439	310,556	-0,086	-0,116
-120,424	150,462	-0,067	0,066
