DTS Sentinel unit serial number:	SN410029Multiplexer serial number:	ORYXHardware model number:	OX2-SRSoftware version number:	ORYX F/W v4,00 Oryx Data Collector v3.7.2.0data status	okinstallation	B4 Nyhavnadifferential loss correction	single-endedforward channel	channel 2reverse channel	N/Adate	2023/12/15time	20:05:13forward acquisition time	300,00reverse acquisition time	0,00gamma	499,1914k internal	0,3137k external	0,3137temperature offset calibration	1,0000default loss term (dB/km)	0,3820temperature slope calibration	1,0000multiplexer offset coefficient	1,0000multiplexer slope coefficient	1,0000fibre end	0,00T internal ref (°C)	20,32T ext. ref 1 (°C)	5,85T ext. ref 2 (°C)	6,01length (m)	temperature (°C)	Stokes	anti-Stokes-744,400	-200,000	0,010	0,193
-743,385	117,654	-0,198	0,181
-742,371	368,782	0,049	0,073
-741,356	-27,200	-0,247	0,106
-740,342	-51,861	0,055	-0,019
-739,327	-71,068	-0,383	0,106
-738,312	274,304	-0,083	-0,109
-737,298	-18,503	-0,266	0,123
-736,283	-52,676	0,153	-0,052
-735,269	56,556	-0,140	0,101
-734,254	12,445	-0,116	-0,066
-733,239	-67,738	-0,474	-0,137
-732,225	-164,559	-0,054	0,002
-731,210	539,302	-0,058	-0,102
-730,196	-40,828	-0,079	-0,030
-729,181	133,559	0,024	0,023
-728,167	178,585	0,078	0,085
-727,152	471,291	0,011	0,018
-726,137	-200,000	-0,005	-0,101
-725,123	12,055	-0,021	0,012
-724,108	723,075	0,010	-0,021
-723,094	-40,205	-0,205	-0,079
-722,079	161,837	0,062	-0,064
-721,064	362,401	0,069	0,103
-720,050	-175,984	-0,075	-0,001
-719,035	-16,737	0,088	-0,041
-718,021	-200,000	-0,018	0,065
-717,006	68,171	-0,026	0,019
-715,991	-200,000	-0,032	-0,201
-714,977	-200,000	0,009	0,046
-713,962	800,000	-0,019	0,063
-712,948	61,385	-0,025	-0,018
-711,933	102,894	0,027	-0,024
-710,918	367,862	-0,049	0,074
-709,904	-18,092	0,060	0,028
-708,889	413,491	-0,052	-0,082
-707,875	800,000	-0,022	0,048
-706,860	57,997	0,066	-0,048
-705,845	233,642	-0,024	-0,029
-704,831	20,304	-0,151	-0,090
-703,816	-119,906	0,064	-0,008
-702,802	424,335	-0,096	-0,153
-701,787	-60,981	-0,087	-0,027
-700,772	13,698	-0,031	-0,018
-699,758	-82,058	-0,088	0,021
-698,743	-200,000	-0,014	0,099
-697,729	217,353	-0,087	-0,103
-696,714	-200,000	-0,016	0,053
-695,699	-200,000	0,011	-0,111
-694,685	800,000	0,019	-0,057
-693,670	-200,000	0,014	-0,049
-692,656	165,033	-0,053	-0,055
-691,641	1,534	-0,096	-0,051
-690,627	22,353	0,151	0,091
-689,612	-200,000	0,057	0,214
-688,597	-200,000	-0,044	-0,148
-687,583	108,197	0,057	-0,050
-686,568	-34,668	-0,010	-0,004
-685,554	33,239	-0,075	0,048
-684,539	-100,284	-0,058	-0,011
-683,524	800,000	-0,046	0,104
-682,510	455,621	-0,081	0,133
-681,495	62,117	-0,029	-0,021
-680,481	800,000	-0,023	-0,068
-679,466	-93,814	-0,073	-0,015
-678,451	800,000	0,011	0,027
-677,437	134,086	0,047	-0,045
-676,422	21,391	0,108	0,065
-675,408	800,000	0,018	-0,055
-674,393	6,973	-0,022	-0,012
-673,378	57,901	0,121	0,087
-672,364	-99,354	-0,144	-0,027
-671,349	-114,556	0,093	-0,013
-670,335	-91,842	0,163	0,034
-669,320	85,348	-0,051	-0,041
-668,305	-173,485	0,116	0,003
-667,291	-90,135	-0,125	0,027
-666,276	-200,000	0,000	-0,105
-665,262	-16,878	-0,108	-0,050
-664,247	382,202	-0,041	-0,063
-663,232	182,838	0,077	-0,084
-662,218	800,000	0,066	-0,176
-661,203	-200,000	-0,022	-0,084
-660,189	34,461	0,043	0,028
-659,174	92,933	-0,049	-0,041
-658,159	-104,228	-0,180	0,031
-657,145	79,526	-0,072	0,057
-656,130	800,000	-0,016	-0,048
-655,116	190,625	0,036	-0,040
-654,101	-9,971	-0,134	0,066
-653,086	800,000	-0,052	-0,123
-652,072	-163,329	-0,132	0,005
-651,057	-13,985	-0,143	-0,068
-650,043	385,671	-0,085	-0,130
-649,028	310,736	-0,048	-0,066
-648,014	-118,265	-0,103	-0,013
-646,999	-200,000	-0,010	0,142
-645,984	244,786	-0,088	0,109
-644,970	31,476	-0,106	0,067
-643,955	-66,215	-0,094	-0,028
-642,941	147,428	-0,045	-0,044
-641,926	-200,000	0,026	0,127
-640,911	-68,599	-0,162	-0,046
-639,897	351,847	0,074	0,109
-638,882	-200,000	-0,013	-0,057
-637,868	-78,635	0,070	-0,018
-636,853	-200,000	0,013	0,042
-635,838	448,172	-0,069	-0,112
-634,824	-90,940	0,024	0,005
-633,809	-200,000	0,012	0,069
-632,795	533,895	0,020	-0,035
-631,780	-200,000	-0,044	-0,149
-630,765	588,923	-0,051	0,094
-629,751	199,889	-0,084	-0,096
-628,736	-19,612	0,081	-0,037
-627,722	28,965	-0,047	-0,030
-626,707	1,078	-0,033	0,017
-625,692	571,099	-0,048	-0,086
-624,678	151,678	0,083	0,083
-623,663	800,000	-0,029	-0,081
-622,649	-99,447	-0,129	-0,024
-621,634	-97,776	-0,040	-0,008
-620,619	800,000	0,016	0,043
-619,605	-200,000	0,010	-0,130
-618,590	89,286	-0,082	0,067
-617,576	7,484	-0,046	-0,026
-616,561	462,023	-0,019	-0,031
-615,546	140,976	-0,113	0,110
-614,532	115,567	0,052	-0,047
-613,517	800,000	-0,028	-0,084
-612,503	105,722	-0,109	0,095
-611,488	-89,901	0,074	0,016
-610,474	35,971	0,080	0,052
-609,459	195,547	0,073	0,082
-608,444	-200,000	-0,006	-0,030
-607,430	569,225	-0,077	-0,138
-606,415	222,524	-0,063	-0,074
-605,401	225,656	0,042	-0,050
-604,386	114,649	0,071	0,064
-603,371	588,708	0,078	0,142
-602,357	-101,607	-0,084	-0,015
-601,342	21,801	-0,106	0,064
-600,328	-200,000	0,012	-0,084
-599,313	800,000	0,018	-0,040
-598,298	-200,000	0,012	-0,157
-597,284	-57,344	0,129	0,042
-596,269	270,443	-0,102	0,132
-595,255	-70,063	0,179	-0,050
-594,240	60,295	-0,066	0,048
-593,225	800,000	-0,042	-0,119
-592,211	-112,163	-0,159	-0,023
-591,196	-104,211	-0,090	0,015
-590,182	595,815	-0,035	-0,064
-589,167	-37,403	0,139	0,054
-588,152	-69,210	-0,074	-0,021
-587,138	-114,390	-0,053	0,007
-586,123	156,530	-0,109	-0,111
-585,109	-119,002	-0,078	0,010
-584,094	235,757	0,077	0,095
-583,079	-200,000	-0,028	-0,103
-582,065	80,685	-0,055	0,044
-581,050	800,000	-0,034	0,080
-580,036	658,563	0,029	0,055
-579,021	-55,834	0,055	0,018
-578,006	7,267	0,008	-0,004
-576,992	358,331	-0,030	-0,044
-575,977	-22,683	-0,094	0,042
-574,963	45,631	-0,035	0,024
-573,948	52,038	-0,069	0,049
-572,934	338,992	0,071	-0,103
-571,919	-19,127	0,077	-0,035
-570,904	-92,724	-0,070	-0,014
-569,890	126,471	-0,033	-0,031
-568,875	-27,434	0,017	0,007
-567,861	739,221	-0,048	0,096
-566,846	24,713	0,053	0,032
-565,831	164,359	-0,044	-0,046
-564,817	474,774	-0,119	-0,199
-563,802	-200,000	-0,005	-0,082
-562,788	-200,000	-0,008	0,042
-561,773	800,000	-0,028	-0,059
-560,758	-200,000	-0,000	0,116
-559,744	-161,271	0,128	-0,005
-558,729	-200,000	-0,021	0,112
-557,715	-32,714	0,100	0,041
-556,700	5,479	-0,040	0,022
-555,685	26,886	-0,063	-0,039
-554,671	-80,075	0,057	-0,014
-553,656	-3,942	-0,105	0,054
-552,642	-85,485	0,136	0,031
-551,627	-97,131	-0,050	0,009
-550,612	-9,732	0,051	0,025
-549,598	576,146	-0,069	-0,124
-548,583	-7,215	0,058	0,029
-547,569	-200,000	-0,036	0,120
-546,554	48,405	-0,008	0,006
-545,539	-87,392	0,051	0,011
-544,525	-49,762	0,029	0,010
-543,510	-200,000	-0,019	-0,138
-542,496	0,740	0,048	-0,025
-541,481	-37,273	-0,041	-0,016
-540,466	-200,000	-0,005	-0,079
-539,452	-156,876	0,138	0,006
-538,437	-96,433	-0,063	-0,012
-537,423	92,422	0,043	0,035
-536,408	129,723	-0,118	-0,111
-535,393	-200,000	-0,029	-0,114
-534,379	-130,942	-0,076	-0,007
-533,364	-200,000	0,008	-0,038
-532,350	70,677	0,091	-0,069
-531,335	90,280	0,039	-0,032
-530,321	-67,733	0,176	-0,050
-529,306	9,209	-0,110	0,061
-528,291	9,914	0,085	-0,047
-527,277	272,641	-0,059	-0,077
-526,262	-200,000	0,004	-0,133
-525,248	-41,763	-0,121	-0,045
-524,233	-65,874	0,057	0,017
-523,218	-39,711	0,030	0,012
-522,204	-17,743	0,091	-0,042
-521,189	-59,159	0,069	-0,022
-520,175	800,000	-0,017	0,049
-519,160	-89,236	-0,058	0,012
-518,145	30,382	0,114	0,071
-517,131	-192,252	-0,166	-0,001
-516,116	157,401	-0,051	0,052
-515,102	198,791	-0,083	0,094
-514,087	306,020	-0,069	-0,094
-513,072	-200,000	0,020	-0,090
-512,058	27,474	0,116	-0,072
-511,043	-200,000	-0,019	-0,070
-510,029	-200,000	-0,003	0,037
-509,014	-200,000	-0,004	-0,102
-507,999	800,000	0,058	0,168
-506,985	-56,167	0,143	-0,046
-505,970	-128,903	-0,218	-0,022
-504,956	-200,000	0,012	0,070
-503,941	174,460	0,071	-0,075
-502,926	164,505	0,033	0,035
-501,912	24,134	0,122	0,074
-500,897	800,000	0,051	-0,128
-499,883	-200,000	-0,018	-0,142
-498,868	800,000	-0,063	-0,137
-497,853	-136,831	0,076	-0,006
-496,839	332,867	0,006	0,009
-495,824	-92,579	0,120	0,024
-494,810	-200,000	-0,002	0,031
-493,795	800,000	-0,041	0,087
-492,781	23,328	0,086	-0,052
-491,766	201,368	0,024	-0,028
-490,751	-41,454	-0,045	-0,017
-489,737	-98,387	-0,052	0,010
-488,722	515,411	-0,030	-0,052
-487,708	-15,704	0,017	0,008
-486,693	-200,000	0,005	-0,083
-485,678	-200,000	-0,007	-0,056
-484,664	50,423	-0,016	0,011
-483,649	179,522	0,011	-0,012
-482,635	-144,433	0,077	0,005
-481,620	800,000	0,024	-0,052
-480,605	61,539	-0,060	0,044
-479,591	32,682	0,050	0,032
-478,576	25,553	0,086	0,052
-477,562	676,489	0,029	-0,056
-476,547	-23,653	-0,074	-0,032
-475,532	494,129	-0,063	-0,107
-474,518	50,359	0,039	0,027
-473,503	137,286	-0,042	0,040
-472,489	800,000	0,026	0,073
-471,474	15,540	0,180	-0,103
-470,459	38,031	-0,047	0,031
-469,445	-4,762	0,040	0,020
-468,430	28,894	0,105	-0,065
-467,416	523,824	-0,045	0,078
-466,401	800,000	0,037	0,118
-465,386	800,000	-0,024	0,054
-464,372	-200,000	-0,038	0,128
-463,357	800,000	-0,051	-0,153
-462,343	800,000	-0,026	-0,055
-461,328	181,962	-0,056	-0,061
-460,313	115,187	-0,026	-0,023
-459,299	18,161	0,133	0,077
-458,284	-137,774	-0,021	0,002
-457,270	-200,000	0,021	0,158
-456,255	-34,069	-0,144	0,058
-455,241	-200,000	-0,030	0,139
-454,226	-200,000	0,026	0,205
-453,211	-200,000	0,014	0,058
-452,197	41,395	-0,102	0,068
-451,182	43,828	0,101	0,068
-450,168	-68,498	0,034	0,010
-449,153	-140,122	-0,112	-0,008
-448,138	-85,461	-0,044	0,010
-447,124	1,616	-0,080	0,042
-446,109	315,143	0,008	-0,011
-445,095	40,404	0,045	0,030
-444,080	800,000	-0,021	-0,049
-443,065	-200,000	0,010	0,084
-442,051	800,000	0,037	0,093
-441,036	83,500	0,093	-0,074
-440,022	-14,249	0,076	-0,036
-439,007	-21,601	-0,045	0,020
-437,992	195,474	-0,097	0,109
-436,978	-200,000	0,001	-0,053
-435,963	169,485	0,042	0,044
-434,949	102,903	-0,091	-0,078
-433,934	-200,000	0,009	-0,092
-432,919	-199,140	-0,016	0,000
-431,905	800,000	-0,015	-0,042
-430,890	653,177	0,066	-0,125
-429,876	-155,830	0,196	0,009
-428,861	-82,521	-0,082	-0,019
-427,846	-80,929	-0,118	0,028
-426,832	97,202	-0,039	0,033
-425,817	-200,000	0,004	-0,168
-424,803	800,000	-0,026	-0,057
-423,788	800,000	-0,016	-0,043
-422,773	800,000	-0,057	-0,167
-421,759	800,000	0,022	-0,053
-420,744	119,544	0,083	0,075
-419,730	-2,488	-0,142	-0,073
-418,715	800,000	-0,054	-0,112
-417,701	-113,106	0,099	-0,014
-416,686	137,790	0,048	-0,046
-415,671	189,626	-0,040	0,045
-414,657	-116,267	-0,122	-0,016
-413,642	800,000	-0,052	-0,136
-412,628	-123,725	0,124	-0,014
-411,613	-28,153	-0,083	0,035
-410,598	-200,000	-0,009	-0,076
-409,584	11,151	0,099	-0,055
-408,569	800,000	-0,030	0,064
-407,555	-64,784	0,141	-0,042
-406,540	-200,000	0,011	0,053
-405,525	515,923	0,089	-0,154
-404,511	-200,000	-0,010	-0,068
-403,496	127,008	-0,110	0,102
-402,482	-59,647	0,093	0,029
-401,467	-107,925	-0,098	-0,015
-400,452	704,798	0,083	0,160
-399,438	-2,085	0,154	0,079
-398,423	261,868	-0,029	-0,036
-397,409	-200,000	-0,002	0,055
-396,394	442,300	-0,104	-0,167
-395,379	-200,000	-0,002	-0,106
-394,365	-200,000	-0,014	0,054
-393,350	60,831	0,006	-0,004
-392,336	-178,562	0,147	0,002
-391,321	-43,473	0,089	0,033
-390,306	359,480	0,063	-0,092
-389,292	800,000	-0,048	-0,103
-388,277	-131,749	-0,126	-0,012
-387,263	-57,869	0,127	0,040
-386,248	6,086	0,058	0,031
-385,233	-200,000	-0,013	0,106
-384,219	800,000	0,056	0,159
-383,204	86,753	-0,131	-0,106
-382,190	177,752	0,069	-0,073
-381,175	-200,000	0,021	0,117
-380,160	208,273	-0,047	0,054
-379,146	-200,000	0,031	0,138
-378,131	250,106	0,023	-0,028
-377,117	800,000	-0,021	0,052
-376,102	-81,342	0,007	0,002
-375,088	800,000	-0,043	-0,134
-374,073	800,000	-0,025	-0,079
-373,058	-200,000	-0,035	0,114
-372,044	-200,000	0,005	-0,100
-371,029	196,192	0,042	0,047
-370,015	93,100	0,059	-0,049
-369,000	800,000	-0,037	0,096
-367,985	-60,645	-0,039	-0,012
-366,971	272,232	-0,078	-0,101
-365,956	-200,000	0,010	0,039
-364,942	-143,426	0,095	0,007
-363,927	-49,569	-0,169	0,059
-362,912	412,320	0,075	0,116
-361,898	-117,271	-0,107	0,014
-360,883	143,195	-0,071	0,069
-359,869	-47,381	-0,137	0,048
-358,854	-200,000	0,002	-0,061
-357,839	287,738	0,052	0,069
-356,825	-200,000	-0,012	-0,075
-355,810	-144,559	0,056	-0,004
-354,796	-25,806	-0,121	-0,052
-353,781	317,285	0,074	-0,103
-352,766	800,000	-0,046	-0,097
-351,752	84,665	0,106	0,084
-350,737	60,973	0,196	0,142
-349,723	-200,000	-0,027	0,118
-348,708	-101,315	0,098	0,017
-347,693	-166,516	-0,118	-0,004
-346,679	35,652	-0,075	-0,048
-345,664	14,171	-0,156	-0,088
-344,650	-200,000	0,021	-0,173
-343,635	-5,788	-0,063	-0,031
-342,620	59,671	0,014	-0,010
-341,606	426,615	0,071	0,113
-340,591	32,542	-0,113	-0,071
-339,577	-200,000	-0,006	-0,094
-338,562	52,619	-0,149	-0,104
-337,548	-200,000	-0,004	-0,105
-336,533	27,266	0,036	-0,022
-335,518	-115,445	-0,038	0,005
-334,504	-200,000	0,003	0,052
-333,489	-125,948	-0,036	-0,004
-332,475	-200,000	-0,006	-0,136
-331,460	72,359	-0,115	-0,088
-330,445	170,450	0,061	-0,064
-329,431	-200,000	0,007	-0,068
-328,416	-200,000	-0,010	0,069
-327,402	41,409	0,087	0,058
-326,387	-200,000	-0,010	0,045
-325,372	-54,029	-0,076	0,025
-324,358	214,060	-0,050	-0,058
-323,343	800,000	0,039	0,118
-322,329	100,342	0,096	0,081
-321,314	-200,000	-0,019	0,097
-320,299	-106,382	0,107	-0,017
-319,285	-41,949	-0,033	0,012
-318,270	-200,000	-0,009	0,044
-317,256	62,593	-0,148	-0,108
-316,241	-23,778	-0,127	0,055
-315,226	-133,137	0,022	0,002
-314,212	0,732	-0,036	-0,019
-313,197	698,019	0,042	0,081
-312,183	204,474	-0,046	0,052
-311,168	-48,455	-0,126	-0,044
-310,153	370,758	-0,068	-0,101
-309,139	-200,000	-0,015	0,152
-308,124	166,424	0,107	0,111
-307,110	-149,763	-0,032	-0,002
-306,095	-154,848	0,120	0,006
-305,080	-147,679	-0,051	-0,003
-304,066	-134,340	-0,090	-0,008
-303,051	342,510	-0,038	0,054
-302,037	-131,459	-0,077	0,007
-301,022	356,863	0,016	-0,023
-300,008	800,000	-0,016	0,046
-298,993	-200,000	0,000	0,158
-297,978	-27,288	0,029	-0,012
-296,964	-58,958	0,055	0,017
-295,949	522,044	-0,029	-0,050
-294,935	363,335	-0,042	-0,062
-293,920	-200,000	0,001	0,012
-292,905	-63,515	0,126	0,038
-291,891	-200,000	0,028	0,094
-290,876	227,779	-0,008	0,010
-289,862	11,256	-0,032	-0,018
-288,847	128,157	0,150	-0,139
-287,832	-117,781	0,132	-0,017
-286,818	5,145	-0,116	-0,062
-285,803	-150,089	0,088	0,005
-284,789	-200,000	-0,021	0,106
-283,774	-2,421	0,183	0,093
-282,759	-200,000	-0,009	0,046
-281,745	379,331	-0,027	-0,040
-280,730	800,000	0,016	-0,037
-279,716	-64,689	0,156	-0,046
-278,701	-200,000	0,011	0,073
-277,686	-200,000	0,018	0,171
-276,672	-195,827	0,052	0,000
-275,657	238,742	-0,077	0,093
-274,643	96,949	0,048	0,040
-273,628	374,814	0,020	-0,030
-272,613	-170,422	-0,089	-0,002
-271,599	187,067	0,128	-0,139
-270,584	82,671	0,029	0,023
-269,570	800,000	0,027	0,065
-268,555	-200,000	0,013	0,131
-267,540	602,701	0,045	0,082
-266,526	3,938	-0,139	-0,074
-265,511	-200,000	0,050	-0,168
-264,497	615,594	0,052	-0,095
-263,482	800,000	0,048	-0,121
-262,467	-98,068	0,123	0,023
-261,453	191,986	-0,023	-0,026
-260,438	-172,927	-0,086	-0,002
-259,424	-200,000	0,018	-0,129
-258,409	99,803	-0,096	-0,081
-257,395	-100,274	-0,090	0,016
-256,380	800,000	-0,022	0,055
-255,365	800,000	-0,084	0,190
-254,351	81,246	0,118	0,093
-253,336	-200,000	0,014	-0,057
-252,322	800,000	-0,037	-0,098
-251,307	-90,920	0,006	-0,001
-250,292	27,462	-0,041	0,025
-249,278	-200,000	-0,009	-0,136
-248,263	800,000	0,034	0,072
-247,249	-200,000	-0,031	0,230
-246,234	800,000	0,032	-0,102
-245,219	-200,000	0,002	-0,064
-244,205	594,285	0,033	-0,059
-243,190	-130,118	-0,048	-0,005
-242,176	185,227	0,103	0,112
-241,161	60,817	0,059	-0,043
-240,146	545,438	0,035	0,060
-239,132	38,625	0,071	-0,046
-238,117	-27,802	-0,098	-0,041
-237,103	332,920	-0,085	-0,120
-236,088	355,597	-0,014	0,020
-235,073	-200,000	-0,001	0,034
-234,059	578,204	0,034	0,061
-233,044	70,790	0,135	0,102
-232,030	-143,524	-0,127	-0,009
-231,015	480,538	0,025	0,041
-230,000	-25,267	-0,099	-0,042
-228,986	-79,419	0,068	0,017
-227,971	-41,126	0,137	0,051
-226,957	-2,880	-0,034	0,017
-225,942	-200,000	-0,033	0,160
-224,927	800,000	-0,013	0,033
-223,913	207,480	-0,057	-0,065
-222,898	46,245	-0,075	0,050
-221,884	-11,399	0,099	0,047
-220,869	571,152	0,040	0,072
-219,855	-59,391	0,159	0,049
-218,840	6,281	0,134	-0,072
-217,825	746,174	0,051	0,099
-216,811	9,341	0,048	0,026
-215,796	148,473	0,054	-0,054
-214,782	-121,388	0,032	-0,004
-213,767	-35,566	0,151	0,059
-212,752	-64,985	0,159	0,046
-211,738	30,170	0,144	-0,089
-210,723	122,204	0,031	0,028
-209,709	237,189	-0,099	-0,120
-208,694	-91,178	0,106	-0,022
-207,679	-57,763	-0,012	-0,004
-206,665	31,010	-0,080	0,050
-205,650	-60,178	-0,097	0,030
-204,636	48,445	0,104	-0,071
-203,621	201,640	-0,069	-0,078
-202,606	-140,981	0,049	-0,004
-201,592	720,793	-0,027	0,053
-200,577	305,669	-0,031	-0,042
-199,563	800,000	0,037	0,098
-198,548	465,038	0,089	0,145
-197,533	-119,247	-0,069	0,009
-196,519	-101,918	0,185	0,032
-195,504	-178,705	-0,169	0,003
-194,490	800,000	-0,045	0,143
-193,475	-200,000	-0,019	0,087
-192,460	-200,000	0,011	0,065
-191,446	-200,000	0,011	0,050
-190,431	-35,004	0,083	0,033
-189,417	800,000	-0,046	0,100
-188,402	-200,000	-0,004	-0,015
-187,387	-200,000	-0,008	-0,053
-186,373	1,039	-0,043	0,022
-185,358	195,589	-0,086	0,095
-184,344	57,790	0,009	0,006
-183,329	800,000	-0,026	0,070
-182,315	-200,000	-0,028	0,125
-181,300	-200,000	-0,004	-0,047
-180,285	-112,166	-0,064	-0,009
-179,271	800,000	0,043	-0,094
-178,256	-33,089	0,162	-0,065
-177,242	-125,086	-0,019	-0,002
-176,227	26,131	0,113	-0,069
-175,212	-200,000	-0,008	0,080
-174,198	-130,527	0,088	0,008
-173,183	-104,836	-0,096	-0,016
-172,169	281,590	-0,049	-0,063
-171,154	99,747	-0,035	-0,029
-170,139	-58,298	0,072	0,023
-169,125	-145,409	0,083	0,005
-168,110	800,000	-0,019	-0,042
-167,096	-21,996	0,134	0,059
-166,081	-200,000	-0,001	-0,030
-165,066	-87,960	0,181	-0,039
-164,052	350,618	-0,010	-0,014
-163,037	20,371	-0,080	-0,047
-162,023	-102,189	-0,007	0,001
-161,008	-200,000	0,023	0,131
-159,993	102,842	-0,068	0,057
-158,979	333,462	0,051	0,072
-157,964	31,702	-0,144	-0,089
-156,950	-114,584	0,030	-0,004
-155,935	13,896	-0,025	-0,014
-154,920	-200,000	0,010	-0,070
-153,906	-200,000	0,027	0,113
-152,891	800,000	-0,016	-0,048
-151,877	769,907	0,065	-0,130
-150,862	158,052	-0,052	-0,052
-149,847	-200,000	0,002	0,023
-148,833	155,909	0,032	0,032
-147,818	-200,000	-0,008	-0,041
-146,804	-110,857	0,034	0,005
-145,789	-183,297	-0,223	0,003
-144,775	72,565	-0,085	-0,064
-143,760	800,000	0,059	-0,168
-142,745	-200,000	0,007	-0,119
-141,731	-200,000	-0,027	0,161
-140,716	-200,000	-0,016	0,083
-139,702	800,000	0,023	0,048
-138,687	449,055	-0,024	-0,039
-137,672	127,041	0,123	-0,113
-136,658	-56,416	-0,179	0,057
-135,643	179,931	-0,064	0,068
-134,629	304,372	0,061	-0,082
-133,614	-25,025	0,122	0,052
-132,599	438,721	0,028	0,044
-131,585	119,000	0,055	0,050
-130,570	-200,000	0,002	-0,017
-129,556	-200,000	0,002	-0,074
-128,541	800,000	-0,018	-0,042
-127,526	-200,000	0,040	0,157
-126,512	71,860	-0,108	0,082
-125,497	313,098	-0,034	-0,047
-124,483	-104,526	0,112	-0,019
-123,468	-200,000	0,023	0,135
-122,453	800,000	-0,051	-0,103
-121,439	800,000	-0,060	-0,166
-120,424	-130,810	0,092	-0,009
-119,410	-102,063	0,007	0,001
