DTS Sentinel unit serial number:	SN410029Multiplexer serial number:	ORYXHardware model number:	OX2-SRSoftware version number:	ORYX F/W v4,00 Oryx Data Collector v3.7.2.0data status	okinstallation	B4 Nyhavnadifferential loss correction	single-endedforward channel	channel 2reverse channel	N/Adate	2023/12/19time	09:05:13forward acquisition time	300,00reverse acquisition time	0,00gamma	499,1914k internal	0,3127k external	0,3127temperature offset calibration	1,0000default loss term (dB/km)	0,3820temperature slope calibration	1,0000multiplexer offset coefficient	1,0000multiplexer slope coefficient	1,0000fibre end	0,00T internal ref (°C)	20,58T ext. ref 1 (°C)	5,42T ext. ref 2 (°C)	5,41length (m)	temperature (°C)	Stokes	anti-Stokes-744,400	800,000	-0,026	-0,070
-743,385	-115,896	-0,216	0,030
-742,371	72,039	-0,032	0,025
-741,356	-72,328	-0,174	0,048
-740,342	490,868	0,034	0,058
-739,327	-111,437	-0,342	0,051
-738,312	-75,698	-0,094	-0,025
-737,298	-137,935	-0,110	0,009
-736,283	68,938	0,092	-0,070
-735,269	-13,220	-0,158	0,076
-734,254	314,422	-0,017	-0,024
-733,239	-19,286	-0,331	-0,152
-732,225	137,202	0,123	0,120
-731,210	800,000	-0,054	0,145
-730,196	45,558	-0,036	-0,024
-729,181	165,640	-0,070	-0,073
-728,167	800,000	-0,030	-0,076
-727,152	7,411	0,008	-0,005
-726,137	-39,539	-0,095	-0,037
-725,123	-119,656	-0,102	0,013
-724,108	-62,785	0,057	0,017
-723,094	800,000	-0,063	-0,184
-722,079	800,000	-0,020	-0,060
-721,064	96,290	-0,068	-0,058
-720,050	-121,633	-0,113	-0,014
-719,035	28,000	0,042	-0,026
-718,021	197,435	0,037	0,042
-717,006	-200,000	0,012	-0,162
-715,991	800,000	0,045	-0,103
-714,977	304,382	0,011	-0,015
-713,962	-200,000	0,016	-0,069
-712,948	-200,000	-0,001	0,043
-711,933	800,000	-0,020	-0,041
-710,918	-200,000	0,015	0,053
-709,904	-95,688	-0,101	0,020
-708,889	764,680	-0,040	-0,082
-707,875	-200,000	-0,000	0,143
-706,860	113,655	-0,051	0,046
-705,845	126,593	0,126	0,119
-704,831	800,000	0,056	0,154
-703,816	-200,000	-0,049	0,194
-702,802	167,464	-0,008	0,008
-701,787	751,346	-0,037	-0,074
-700,772	-33,047	-0,081	-0,033
-699,758	-164,814	-0,212	-0,007
-698,743	56,020	0,088	-0,063
-697,729	20,959	0,018	-0,011
-696,714	-200,000	-0,011	-0,091
-695,699	136,441	0,023	0,022
-694,685	150,110	0,073	-0,073
-693,670	8,684	0,050	0,028
-692,656	675,844	0,017	0,034
-691,641	-200,000	0,005	-0,034
-690,627	-200,000	-0,033	0,153
-689,612	90,171	0,109	0,090
-688,597	-200,000	-0,008	0,087
-687,583	109,116	-0,049	0,043
-686,568	66,948	-0,034	-0,025
-685,554	619,966	-0,066	-0,124
-684,539	800,000	-0,010	-0,026
-683,524	150,057	-0,018	-0,019
-682,510	142,289	-0,022	0,022
-681,495	-200,000	-0,055	0,206
-680,481	800,000	-0,032	-0,102
-679,466	144,470	-0,118	-0,117
-678,451	154,073	-0,052	-0,053
-677,437	-200,000	0,005	0,031
-676,422	342,506	0,059	-0,086
-675,408	6,680	-0,046	-0,025
-674,393	-28,460	0,211	0,090
-673,378	33,193	-0,137	-0,088
-672,364	59,926	0,020	-0,015
-671,349	183,237	-0,077	0,084
-670,335	-131,583	0,057	0,005
-669,320	-145,927	-0,033	0,002
-668,305	221,917	0,062	0,074
-667,291	62,386	-0,162	-0,120
-666,276	109,593	-0,033	-0,029
-665,262	-69,908	0,124	0,035
-664,247	-53,596	-0,120	0,040
-663,232	-200,000	0,017	-0,138
-662,218	63,666	-0,028	0,021
-661,203	800,000	0,053	0,110
-660,189	73,722	-0,133	0,103
-659,174	-200,000	-0,030	-0,105
-658,159	-73,780	0,047	-0,013
-657,145	27,611	0,128	-0,080
-656,130	-74,683	-0,103	-0,027
-655,116	800,000	-0,005	0,013
-654,101	-200,000	-0,022	0,106
-653,086	-200,000	0,013	0,088
-652,072	83,152	0,082	0,066
-651,057	728,684	-0,070	-0,139
-650,043	334,906	0,057	0,082
-649,028	-26,508	0,084	-0,037
-648,014	-48,581	-0,060	-0,021
-646,999	-200,000	0,009	-0,039
-645,984	-200,000	-0,033	0,166
-644,970	19,178	-0,061	-0,036
-643,955	308,703	0,021	-0,029
-642,941	-25,874	-0,048	-0,021
-641,926	-200,000	0,009	0,128
-640,911	-145,812	0,102	0,007
-639,897	378,486	-0,057	0,087
-638,882	465,639	0,037	0,061
-637,868	67,623	-0,134	-0,101
-636,853	-88,721	-0,141	-0,031
-635,838	-200,000	0,011	0,081
-634,824	62,360	0,091	-0,068
-633,809	800,000	-0,026	0,073
-632,795	-92,107	0,104	0,022
-631,780	-146,410	0,047	-0,003
-630,765	-190,535	0,148	0,001
-629,751	-68,653	0,075	0,021
-628,736	145,489	-0,025	-0,025
-627,722	627,845	0,015	-0,029
-626,707	13,694	-0,117	0,067
-625,692	229,672	-0,124	0,150
-624,678	-1,678	-0,041	0,021
-623,663	-31,857	0,041	-0,017
-622,649	-94,829	-0,048	-0,010
-621,634	-200,000	0,007	-0,085
-620,619	-46,820	-0,024	-0,009
-619,605	101,889	0,069	0,059
-618,590	-175,263	0,018	-0,000
-617,576	-101,592	-0,057	-0,010
-616,561	-27,459	-0,124	-0,053
-615,546	800,000	0,030	-0,072
-614,532	-148,486	-0,153	0,009
-613,517	151,075	-0,056	-0,056
-612,503	85,924	0,112	0,091
-611,488	-200,000	0,014	0,138
-610,474	-177,523	0,045	-0,001
-609,459	-64,417	-0,048	-0,014
-608,444	-48,204	0,059	0,021
-607,430	-200,000	-0,017	-0,098
-606,415	-110,607	0,052	-0,008
-605,401	800,000	-0,014	0,035
-604,386	-30,887	0,059	-0,025
-603,371	-167,713	-0,017	0,000
-602,357	800,000	-0,016	-0,040
-601,342	-200,000	-0,005	-0,110
-600,328	-200,000	-0,006	-0,067
-599,313	547,682	-0,084	-0,150
-598,298	800,000	0,034	0,111
-597,284	-131,478	0,071	0,007
-596,269	38,814	-0,035	-0,023
-595,255	272,694	0,032	0,042
-594,240	50,144	-0,129	0,090
-593,225	-200,000	-0,019	-0,069
-592,211	0,587	-0,058	-0,031
-591,196	800,000	-0,024	0,069
-590,182	800,000	-0,027	-0,073
-589,167	-200,000	0,005	-0,062
-588,152	-8,398	0,137	0,068
-587,138	98,997	0,067	0,057
-586,123	-51,888	-0,142	0,048
-585,109	-82,256	-0,018	-0,004
-584,094	-200,000	-0,008	-0,028
-583,079	400,117	-0,084	0,130
-582,065	63,913	0,036	-0,026
-581,050	-200,000	-0,006	0,038
-580,036	-125,699	0,077	0,008
-579,021	-200,000	-0,002	-0,011
-578,006	-200,000	-0,032	-0,123
-576,992	-200,000	0,031	0,147
-575,977	277,731	-0,057	-0,075
-574,963	516,585	0,097	-0,169
-573,948	36,872	-0,061	-0,040
-572,934	800,000	0,019	0,049
-571,919	-12,675	-0,080	-0,039
-570,904	-200,000	-0,045	-0,160
-569,890	-200,000	0,030	-0,104
-568,875	168,898	0,066	-0,070
-567,861	-200,000	0,007	0,048
-566,846	118,210	0,064	0,058
-565,831	-87,181	0,012	0,003
-564,817	-200,000	0,009	0,038
-563,802	-40,169	-0,106	0,041
-562,788	-200,000	-0,020	-0,114
-561,773	-107,765	0,048	0,008
-560,758	74,572	-0,039	0,030
-559,744	-72,888	0,092	0,025
-558,729	20,503	0,059	-0,035
-557,715	-200,000	0,016	-0,107
-556,700	-40,438	0,043	-0,016
-555,685	75,684	0,066	-0,052
-554,671	-92,412	0,039	-0,008
-553,656	139,984	0,070	-0,069
-552,642	276,524	-0,048	0,064
-551,627	-23,245	-0,131	0,058
-550,612	-200,000	0,015	0,194
-549,598	302,605	-0,040	0,055
-548,583	-106,192	0,115	0,019
-547,569	257,070	0,044	0,056
-546,554	-29,246	0,079	-0,033
-545,539	330,451	-0,082	0,117
-544,525	18,562	0,089	0,052
-543,510	-200,000	-0,024	-0,091
-542,496	313,626	-0,080	-0,111
-541,481	-115,682	-0,234	-0,032
-540,466	800,000	0,049	0,121
-539,452	299,555	0,087	0,119
-538,437	27,875	0,137	0,085
-537,423	53,076	-0,061	0,043
-536,408	37,603	0,074	-0,048
-535,393	394,928	-0,084	-0,129
-534,379	-25,677	-0,101	-0,044
-533,364	288,645	-0,080	-0,107
-532,350	85,163	-0,065	0,053
-531,335	-3,194	0,061	-0,031
-530,321	-154,404	-0,108	-0,005
-529,306	-82,120	-0,123	-0,029
-528,291	-200,000	-0,003	0,015
-527,277	-72,297	-0,148	-0,040
-526,262	198,552	-0,119	-0,134
-525,248	800,000	-0,052	-0,121
-524,233	273,655	-0,052	-0,068
-523,218	169,749	0,022	-0,023
-522,204	-200,000	-0,009	-0,120
-521,189	678,729	-0,089	-0,171
-520,175	800,000	0,010	0,030
-519,160	203,738	-0,119	0,136
-518,145	519,297	0,029	-0,050
-517,131	-131,743	-0,043	-0,004
-516,116	-106,704	-0,084	-0,014
-515,102	55,934	0,014	0,010
-514,087	-104,083	-0,131	0,022
-513,072	-29,241	0,058	0,025
-512,058	-44,346	-0,056	-0,021
-511,043	-200,000	0,008	-0,079
-510,029	285,088	0,103	0,137
-509,014	-200,000	0,019	-0,064
-507,999	-104,570	0,061	-0,010
-506,985	42,415	0,062	0,041
-505,970	-200,000	0,009	-0,060
-504,956	-200,000	0,002	-0,026
-503,941	-200,000	-0,009	-0,048
-502,926	491,135	0,031	0,052
-501,912	-200,000	0,026	0,114
-500,897	800,000	0,042	0,093
-499,883	800,000	-0,031	-0,067
-498,868	-46,913	-0,082	-0,029
-497,853	-125,096	0,072	-0,008
-496,839	-105,233	0,032	0,005
-495,824	-129,769	0,036	-0,004
-494,810	194,899	-0,046	0,052
-493,795	167,895	0,045	-0,048
-492,781	-200,000	0,021	-0,114
-491,766	-200,000	0,001	0,085
-490,751	-128,354	-0,131	0,014
-489,737	-50,103	-0,066	-0,023
-488,722	337,824	-0,081	-0,116
-487,708	174,220	0,083	0,088
-486,693	311,487	-0,013	0,018
-485,678	114,304	0,019	-0,017
-484,664	800,000	-0,044	-0,115
-483,649	276,492	0,056	-0,073
-482,635	645,538	-0,045	-0,084
-481,620	241,544	0,074	-0,091
-480,605	81,822	0,030	0,024
-479,591	-47,682	0,114	-0,040
-478,576	800,000	0,056	0,120
-477,562	-24,137	-0,118	0,052
-476,547	-191,135	-0,049	-0,000
-475,532	131,829	-0,177	0,168
-474,518	587,929	-0,077	-0,141
-473,503	-90,224	0,134	-0,029
-472,489	294,872	-0,090	0,121
-471,474	800,000	0,062	0,171
-470,459	-115,448	0,177	0,024
-469,445	-24,813	-0,113	-0,049
-468,430	-193,061	0,057	-0,000
-467,416	90,084	0,075	-0,062
-466,401	800,000	0,034	-0,109
-465,386	-200,000	-0,009	0,037
-464,372	786,358	0,028	0,056
-463,357	-82,615	-0,177	0,042
-462,343	73,547	0,046	0,035
-461,328	-79,814	-0,041	-0,010
-460,313	-48,864	0,112	0,039
-459,299	800,000	0,043	0,126
-458,284	-15,835	0,043	-0,020
-457,270	-5,451	-0,101	0,051
-456,255	-200,000	0,011	0,047
-455,241	311,820	-0,044	-0,061
-454,226	-200,000	-0,003	-0,052
-453,211	37,729	0,080	0,052
-452,197	54,224	-0,056	-0,040
-451,182	800,000	0,013	-0,034
-450,168	-200,000	-0,009	0,115
-449,153	-82,690	-0,093	0,022
-448,138	454,684	-0,045	-0,074
-447,124	-41,955	-0,033	0,012
-446,109	-200,000	-0,009	-0,038
-445,095	361,762	0,057	-0,084
-444,080	-13,406	0,094	0,045
-443,065	165,770	0,015	-0,016
-442,051	-85,135	-0,092	0,021
-441,036	-113,485	-0,038	0,005
-440,022	-77,398	0,139	0,035
-439,007	-134,666	0,020	0,002
-437,992	-134,770	0,122	0,011
-436,978	60,040	-0,082	0,059
-435,963	-95,652	0,031	-0,006
-434,949	-61,775	0,092	0,028
-433,934	36,199	0,067	-0,043
-432,919	-112,752	-0,038	0,006
-431,905	-83,689	0,138	-0,032
-430,890	-200,000	-0,025	0,082
-429,876	-91,404	0,170	0,035
-428,861	165,578	-0,152	0,158
-427,846	26,404	0,172	0,106
-426,832	308,119	0,088	-0,121
-425,817	104,760	-0,083	-0,072
-424,803	165,484	-0,062	-0,065
-423,788	211,150	0,143	0,166
-422,773	173,874	-0,064	0,068
-421,759	55,568	-0,119	-0,085
-420,744	800,000	0,022	-0,070
-419,730	35,073	0,105	0,067
-418,715	120,479	-0,068	-0,062
-417,701	-200,000	-0,004	-0,105
-416,686	228,863	0,014	0,017
-415,671	800,000	0,030	-0,061
-414,657	800,000	-0,053	-0,137
-413,642	134,322	-0,033	0,031
-412,628	383,636	0,084	0,128
-411,613	34,573	-0,083	-0,053
-410,598	-63,586	-0,155	0,046
-409,584	259,751	-0,057	-0,073
-408,569	-14,796	0,091	-0,043
-407,555	213,674	-0,123	0,143
-406,540	17,711	0,027	0,016
-405,525	-200,000	-0,128	0,000
-404,511	755,847	-0,038	0,076
-403,496	110,360	0,059	-0,052
-402,482	275,432	0,123	-0,161
-401,467	-49,258	-0,102	0,035
-400,452	-200,000	-0,018	0,074
-399,438	-87,274	-0,092	-0,020
-398,423	-143,450	-0,129	-0,009
-397,409	-200,000	-0,009	-0,042
-396,394	397,443	0,070	-0,107
-395,379	800,000	-0,025	-0,055
-394,365	-23,318	-0,076	-0,034
-393,350	2,912	0,010	-0,005
-392,336	255,587	0,098	-0,123
-391,321	49,269	0,095	0,066
-390,306	800,000	-0,030	0,084
-389,292	123,154	-0,166	0,153
-388,277	68,026	-0,071	-0,053
-387,263	-200,000	-0,010	-0,038
-386,248	37,963	-0,059	0,039
-385,233	-200,000	-0,006	0,115
-384,219	-24,891	-0,100	-0,043
-383,204	800,000	-0,042	-0,111
-382,190	-200,000	-0,034	-0,144
-381,175	179,162	0,074	-0,080
-380,160	-200,000	-0,025	0,167
-379,146	100,750	-0,042	-0,036
-378,131	800,000	0,113	0,243
-377,117	213,282	0,082	0,095
-376,102	800,000	-0,033	0,078
-375,088	800,000	-0,021	-0,056
-374,073	-200,000	-0,062	-0,226
-373,058	153,326	0,139	-0,140
-372,044	-29,693	-0,028	-0,012
-371,029	100,775	0,087	0,074
-370,015	76,876	0,020	0,016
-369,000	-200,000	-0,010	-0,112
-367,985	-200,000	0,048	-0,222
-366,971	800,000	0,010	0,022
-365,956	800,000	-0,039	-0,081
-364,942	-200,000	-0,015	0,147
-363,927	98,653	0,121	0,103
-362,912	510,569	-0,034	0,059
-361,898	20,519	-0,081	-0,048
-360,883	393,292	0,045	-0,069
-359,869	-200,000	-0,002	-0,113
-358,854	-32,027	-0,074	-0,030
-357,839	189,775	-0,080	-0,088
-356,825	95,099	-0,074	-0,062
-355,810	-131,277	0,010	-0,001
-354,796	-200,000	-0,003	-0,030
-353,781	800,000	-0,017	-0,047
-352,766	338,331	0,022	0,032
-351,752	-90,614	-0,079	0,017
-350,737	668,147	0,075	-0,144
-349,723	-46,696	-0,061	0,022
-348,708	255,580	0,040	0,051
-347,693	-200,000	0,145	0,000
-346,679	-42,228	-0,133	-0,050
-345,664	-95,173	0,115	-0,023
-344,650	59,506	0,060	-0,044
-343,635	697,911	-0,049	-0,094
-342,620	-120,021	0,138	0,017
-341,606	92,726	0,112	0,092
-340,591	-200,000	-0,022	-0,079
-339,577	-12,992	0,010	0,005
-338,562	122,497	-0,070	-0,064
-337,548	157,018	0,030	-0,031
-336,533	124,919	0,085	0,078
-335,518	-130,580	0,118	0,011
-334,504	13,063	-0,112	0,063
-333,489	800,000	-0,044	-0,118
-332,475	-44,058	-0,046	-0,017
-331,460	800,000	-0,038	-0,097
-330,445	-17,273	-0,101	-0,046
-329,431	-200,000	-0,001	0,152
-328,416	-200,000	0,048	0,162
-327,402	99,276	-0,036	-0,031
-326,387	187,445	0,026	-0,028
-325,372	161,056	-0,054	-0,056
-324,358	62,947	-0,070	-0,052
-323,343	800,000	0,027	-0,072
-322,329	139,466	-0,059	0,056
-321,314	-23,919	0,063	-0,028
-320,299	-151,881	0,081	-0,004
-319,285	-97,942	-0,035	-0,007
-318,270	-200,000	-0,000	0,014
-317,256	-200,000	0,026	0,109
-316,241	-123,064	0,061	0,007
-315,226	-200,000	0,012	-0,051
-314,212	800,000	0,048	-0,098
-313,197	554,340	-0,064	0,114
-312,183	-200,000	0,003	-0,054
-311,168	-159,330	0,152	0,006
-310,153	23,928	0,061	-0,037
-309,139	405,160	0,102	-0,158
-308,124	204,874	0,065	0,074
-307,110	800,000	-0,028	-0,082
-306,095	800,000	0,023	-0,054
-305,080	-20,743	0,035	-0,016
-304,066	248,922	-0,005	0,006
-303,051	-200,000	0,023	-0,106
-302,037	-84,696	-0,040	0,009
-301,022	636,149	0,057	0,106
-300,008	744,918	0,023	-0,046
-298,993	-200,000	0,009	-0,066
-297,978	-200,000	0,061	0,200
-296,964	-7,868	0,052	-0,025
-295,949	-47,228	0,070	0,025
-294,935	-200,000	0,036	-0,175
-293,920	117,143	-0,024	0,021
-292,905	-62,799	-0,045	0,014
-291,891	-112,565	0,105	0,015
-290,876	37,725	-0,055	0,036
-289,862	-25,042	0,040	0,017
-288,847	355,036	-0,081	0,118
-287,832	64,560	-0,066	0,049
-286,818	384,761	-0,009	0,014
-285,803	116,181	-0,084	0,075
-284,789	-160,083	0,129	0,005
-283,774	-200,000	-0,014	0,149
-282,759	68,761	-0,082	0,062
-281,745	427,191	-0,028	0,045
-280,730	-43,460	-0,149	0,055
-279,716	508,916	0,055	-0,093
-278,701	9,832	-0,068	0,038
-277,686	136,993	0,120	0,115
-276,672	-29,263	0,102	0,042
-275,657	528,661	-0,067	-0,115
-274,643	-200,000	-0,006	-0,094
-273,628	-200,000	0,031	-0,131
-272,613	800,000	0,034	0,074
-271,599	-83,914	0,050	-0,011
-270,584	-200,000	-0,018	-0,085
-269,570	-200,000	-0,003	0,022
-268,555	-145,093	-0,052	0,003
-267,540	-200,000	-0,013	-0,044
-266,526	-200,000	0,001	-0,056
-265,511	-200,000	-0,005	0,025
-264,497	-23,117	-0,019	0,008
-263,482	240,664	0,050	0,061
-262,467	-72,965	0,081	0,022
-261,453	-200,000	0,026	0,138
-260,438	454,008	-0,059	-0,096
-259,424	-48,762	0,157	0,055
-258,409	-17,272	-0,137	-0,063
-257,395	-151,983	0,073	0,004
-256,380	-68,754	-0,050	0,014
-255,365	-200,000	-0,013	0,091
-254,351	-31,965	0,075	-0,030
-253,336	298,699	-0,056	-0,076
-252,322	-200,000	-0,011	0,064
-251,307	31,373	0,061	0,038
-250,292	-8,248	-0,049	0,024
-249,278	791,520	-0,029	0,059
-248,263	310,325	-0,047	0,064
-247,249	-109,818	0,156	-0,024
-246,234	-200,000	-0,007	0,092
-245,219	-53,010	0,084	-0,028
-244,205	-9,800	-0,121	-0,059
-243,190	277,472	-0,089	-0,116
-242,176	800,000	0,027	0,080
-241,161	-59,881	0,120	-0,037
-240,146	77,867	0,036	0,028
-239,132	-200,000	0,015	0,219
-238,117	279,591	-0,050	-0,065
-237,103	-109,858	-0,051	-0,008
-236,088	127,587	0,039	0,036
-235,073	494,226	0,025	-0,042
-234,059	-80,675	0,028	-0,007
-233,044	35,131	-0,174	0,111
-232,030	-154,603	0,062	-0,003
-231,015	68,018	-0,106	-0,079
-230,000	-200,000	0,008	0,073
-228,986	342,170	0,019	0,028
-227,971	-31,544	0,118	0,048
-226,957	232,179	0,073	0,088
-225,942	-190,478	0,105	0,001
-224,927	-200,000	-0,003	0,161
-223,913	-18,305	-0,027	-0,012
-222,898	78,770	0,105	-0,082
-221,884	-200,000	0,011	0,089
-220,869	-103,602	0,115	-0,019
-219,855	-200,000	0,001	0,018
-218,840	184,990	-0,076	0,083
-217,825	138,454	0,066	-0,064
-216,811	-200,000	-0,034	0,160
-215,796	211,078	0,047	0,054
-214,782	-200,000	-0,030	-0,140
-213,767	800,000	-0,024	0,059
-212,752	-200,000	0,003	0,097
-211,738	-65,779	-0,062	-0,018
-210,723	-132,040	0,232	-0,022
-209,709	-82,815	0,122	0,029
-208,694	-8,717	-0,078	-0,038
-207,679	105,731	0,085	-0,074
-206,665	169,404	-0,042	-0,044
-205,650	5,292	0,077	0,041
-204,636	404,549	-0,068	0,105
-203,621	800,000	0,065	0,170
-202,606	-200,000	-0,008	-0,044
-201,592	-200,000	0,021	0,069
-200,577	-161,144	0,154	-0,006
-199,563	-200,000	-0,023	0,164
-198,548	800,000	0,035	-0,080
-197,533	218,476	0,027	-0,032
-196,519	128,494	0,044	0,041
-195,504	-200,000	0,008	0,070
-194,490	-200,000	0,003	-0,078
-193,475	73,424	-0,077	-0,059
-192,460	-73,620	0,027	0,007
-191,446	-200,000	0,008	-0,070
-190,431	93,807	0,032	0,026
-189,417	83,388	-0,145	0,115
-188,402	15,026	-0,094	-0,053
-187,387	-175,287	0,080	0,002
-186,373	800,000	-0,032	-0,093
-185,358	48,483	0,070	0,048
-184,344	-88,341	0,045	-0,010
-183,329	-13,107	0,058	-0,027
-182,315	-9,279	-0,078	0,038
-181,300	-200,000	-0,015	0,049
-180,285	165,587	-0,027	0,028
-179,271	800,000	-0,030	-0,080
-178,256	-109,611	-0,064	-0,010
-177,242	-69,124	0,127	-0,035
-176,227	-200,000	-0,025	0,088
-175,212	-143,641	-0,040	0,003
-174,198	151,846	-0,084	0,083
-173,183	30,950	0,057	-0,035
-172,169	-200,000	0,001	0,014
-171,154	551,965	0,044	-0,076
-170,139	-200,000	-0,034	-0,126
-169,125	-59,817	-0,062	0,019
-168,110	-200,000	-0,014	0,183
-167,096	-21,737	0,020	0,009
-166,081	-95,810	-0,086	0,017
-165,066	-200,000	-0,001	-0,120
-164,052	114,200	0,141	-0,125
-163,037	800,000	0,044	-0,131
-162,023	800,000	-0,036	0,090
-161,008	142,697	-0,026	-0,025
-159,993	237,167	-0,039	0,047
-158,979	-93,070	0,045	-0,009
-157,964	-129,387	-0,090	-0,009
-156,950	-56,536	-0,098	0,032
-155,935	800,000	-0,046	0,138
-154,920	800,000	0,033	0,079
-153,906	-200,000	0,002	-0,074
-152,891	-104,507	-0,092	-0,015
-151,877	248,976	-0,093	0,115
-150,862	-47,498	-0,172	0,061
-149,847	-1,748	0,100	0,051
-148,833	-97,173	-0,084	-0,016
-147,818	-200,000	-0,015	0,149
-146,804	-5,770	-0,034	-0,017
-145,789	800,000	0,030	0,070
-144,775	55,769	-0,033	0,023
-143,760	-44,899	-0,076	0,027
-142,745	-200,000	-0,019	-0,130
-141,731	-138,577	0,043	-0,003
-140,716	241,537	-0,107	0,130
-139,702	-200,000	0,022	0,079
-138,687	75,893	0,022	-0,017
-137,672	145,951	0,063	0,062
-136,658	800,000	0,017	-0,042
-135,643	12,404	0,047	0,026
-134,629	-58,567	0,114	0,036
-133,614	83,906	0,171	0,135
-132,599	-119,921	-0,028	-0,004
-131,585	-200,000	0,016	0,128
-130,570	800,000	-0,032	-0,079
-129,556	800,000	-0,014	0,036
-128,541	-25,268	0,026	-0,011
-127,526	-109,951	0,047	-0,007
-126,512	-96,071	0,041	0,008
-125,497	0,144	0,160	-0,083
-124,483	334,830	-0,040	-0,057
-123,468	16,490	-0,115	-0,066
-122,453	451,373	-0,049	-0,079
-121,439	-200,000	-0,023	-0,158
-120,424	800,000	0,024	-0,050
-119,410	-85,689	0,116	-0,026
