DTS Sentinel unit serial number:	SN410029Multiplexer serial number:	ORYXHardware model number:	OX2-SRSoftware version number:	ORYX F/W v4,00 Oryx Data Collector v3.7.2.0data status	okinstallation	B4 Nyhavnadifferential loss correction	single-endedforward channel	channel 2reverse channel	N/Adate	2023/12/19time	07:40:13forward acquisition time	300,00reverse acquisition time	0,00gamma	499,1914k internal	0,3125k external	0,3125temperature offset calibration	1,0000default loss term (dB/km)	0,3820temperature slope calibration	1,0000multiplexer offset coefficient	1,0000multiplexer slope coefficient	1,0000fibre end	0,00T internal ref (°C)	21,13T ext. ref 1 (°C)	5,93T ext. ref 2 (°C)	6,01length (m)	temperature (°C)	Stokes	anti-Stokes-744,400	-200,000	0,004	-0,123
-743,385	-189,499	-0,265	0,002
-742,371	-23,456	0,118	0,052
-741,356	-7,412	-0,192	0,096
-740,342	237,189	0,062	-0,077
-739,327	-136,416	-0,253	0,022
-738,312	-7,869	-0,049	-0,025
-737,298	61,870	-0,208	0,154
-736,283	800,000	0,028	-0,087
-735,269	-85,672	-0,255	0,058
-734,254	409,888	0,103	-0,164
-733,239	-107,003	-0,389	-0,063
-732,225	-98,886	0,231	-0,043
-731,210	-103,244	-0,101	0,018
-730,196	-200,000	-0,000	-0,105
-729,181	67,553	0,066	-0,050
-728,167	-200,000	-0,002	0,119
-727,152	-79,192	-0,042	-0,011
-726,137	-79,406	-0,021	-0,005
-725,123	23,153	-0,071	-0,043
-724,108	160,808	-0,053	-0,055
-723,094	262,764	-0,069	0,089
-722,079	-61,231	0,067	-0,021
-721,064	-123,866	-0,193	-0,022
-720,050	-200,000	-0,003	0,072
-719,035	46,118	-0,011	0,008
-718,021	-32,458	-0,073	0,030
-717,006	-200,000	0,010	0,040
-715,991	246,558	-0,173	-0,217
-714,977	263,805	0,077	-0,100
-713,962	586,211	0,013	0,024
-712,948	696,481	0,017	0,033
-711,933	800,000	-0,033	-0,089
-710,918	-9,028	0,062	0,031
-709,904	800,000	-0,029	0,093
-708,889	238,684	-0,126	0,156
-707,875	168,814	-0,036	0,038
-706,860	800,000	-0,042	0,108
-705,845	-49,755	0,076	-0,027
-704,831	165,174	0,094	-0,098
-703,816	-200,000	0,023	0,118
-702,802	-200,000	0,017	-0,169
-701,787	50,129	0,081	0,057
-700,772	-135,337	-0,130	-0,011
-699,758	-200,000	0,007	-0,061
-698,743	-200,000	0,008	0,062
-697,729	-200,000	-0,016	0,077
-696,714	-200,000	-0,031	-0,176
-695,699	106,904	0,073	-0,065
-694,685	-88,734	-0,048	0,010
-693,670	10,518	-0,023	-0,013
-692,656	382,775	0,055	0,085
-691,641	132,713	0,074	-0,071
-690,627	800,000	-0,016	0,045
-689,612	800,000	0,004	0,009
-688,597	-200,000	-0,010	0,122
-687,583	-39,657	0,057	0,022
-686,568	41,733	-0,142	-0,096
-685,554	375,667	0,024	-0,037
-684,539	670,495	-0,003	0,006
-683,524	-200,000	-0,004	-0,018
-682,510	-200,000	-0,012	0,086
-681,495	-200,000	-0,043	-0,000
-680,481	264,391	0,020	-0,026
-679,466	-116,047	-0,116	0,016
-678,451	-39,964	0,128	-0,049
-677,437	77,194	-0,038	-0,030
-676,422	757,468	0,015	-0,030
-675,408	-141,593	-0,097	-0,007
-674,393	-200,000	0,002	0,041
-673,378	800,000	0,062	-0,177
-672,364	-102,361	0,060	-0,011
-671,349	238,659	-0,030	0,037
-670,335	-200,000	-0,000	-0,058
-669,320	-200,000	0,006	-0,081
-668,305	-121,486	-0,102	-0,012
-667,291	-91,339	0,059	0,013
-666,276	321,459	0,050	-0,071
-665,262	-200,000	0,031	-0,147
-664,247	800,000	-0,018	0,042
-663,232	-83,347	0,115	-0,027
-662,218	0,990	-0,030	0,016
-661,203	-132,972	0,142	-0,013
-660,189	235,915	0,061	0,075
-659,174	0,321	-0,055	-0,029
-658,159	-200,000	-0,021	-0,109
-657,145	0,522	0,097	0,052
-656,130	140,189	-0,083	0,081
-655,116	-115,869	0,105	0,014
-654,101	83,658	-0,049	-0,040
-653,086	-200,000	0,023	-0,116
-652,072	103,369	0,098	-0,085
-651,057	184,631	-0,009	-0,010
-650,043	-55,960	-0,096	-0,031
-649,028	189,739	0,045	-0,050
-648,014	-145,432	-0,124	-0,008
-646,999	-119,455	0,093	-0,012
-645,984	-200,000	0,011	0,050
-644,970	-175,610	-0,082	0,002
-643,955	-127,106	-0,066	-0,007
-642,941	157,932	-0,077	-0,079
-641,926	-38,612	0,043	0,017
-640,911	-200,000	0,025	-0,099
-639,897	-200,000	0,042	-0,146
-638,882	-54,821	0,070	0,023
-637,868	800,000	-0,064	-0,209
-636,853	351,014	-0,069	-0,102
-635,838	-55,697	0,059	-0,019
-634,824	-200,000	-0,032	-0,153
-633,809	-132,891	-0,056	-0,005
-632,795	18,678	0,047	0,028
-631,780	378,647	-0,025	0,039
-630,765	-43,224	-0,135	-0,051
-629,751	159,037	0,060	-0,062
-628,736	-200,000	0,037	-0,131
-627,722	200,983	-0,041	-0,047
-626,707	-81,872	0,148	-0,036
-625,692	-11,108	-0,079	-0,038
-624,678	193,304	0,033	0,037
-623,663	-200,000	-0,007	0,091
-622,649	17,314	0,054	-0,032
-621,634	-14,225	0,077	-0,037
-620,619	-93,196	0,045	0,009
-619,605	-200,000	0,024	0,101
-618,590	104,103	0,032	0,028
-617,576	163,538	0,097	0,101
-616,561	510,625	-0,043	0,075
-615,546	-200,000	-0,003	-0,029
-614,532	37,147	-0,179	-0,117
-613,517	-200,000	-0,029	-0,122
-612,503	-99,132	0,020	0,004
-611,488	-30,725	-0,106	-0,044
-610,474	800,000	0,016	0,044
-609,459	-200,000	-0,004	-0,029
-608,444	-41,998	0,069	0,026
-607,430	800,000	0,051	-0,141
-606,415	193,969	-0,080	0,090
-605,401	-200,000	-0,026	0,151
-604,386	800,000	-0,044	0,133
-603,371	-29,439	0,101	0,043
-602,357	55,943	0,070	-0,050
-601,342	-200,000	0,010	-0,082
-600,328	-120,727	-0,029	-0,004
-599,313	-74,752	-0,066	0,017
-598,298	-200,000	0,025	-0,098
-597,284	629,151	0,038	-0,072
-596,269	-200,000	0,004	-0,095
-595,255	186,149	0,111	-0,122
-594,240	-110,692	-0,013	-0,002
-593,225	-156,307	-0,084	-0,004
-592,211	-200,000	-0,008	0,071
-591,196	-200,000	-0,014	0,115
-590,182	800,000	0,011	0,034
-589,167	-16,678	-0,071	0,033
-588,152	23,000	0,087	0,053
-587,138	-75,830	-0,053	0,014
-586,123	-200,000	0,011	0,145
-585,109	-200,000	-0,004	-0,138
-584,094	-200,000	-0,007	0,022
-583,079	469,243	0,028	-0,047
-582,065	-200,000	-0,002	-0,135
-581,050	800,000	0,038	0,099
-580,036	308,762	0,054	0,074
-579,021	56,594	-0,110	0,079
-578,006	-78,879	0,144	0,036
-576,992	-66,081	-0,035	0,010
-575,977	-200,000	-0,021	-0,126
-574,963	-45,631	-0,042	-0,015
-573,948	-200,000	0,007	0,035
-572,934	-200,000	0,012	0,111
-571,919	-49,035	-0,162	-0,057
-570,904	-200,000	-0,024	0,134
-569,890	-200,000	-0,011	0,091
-568,875	800,000	-0,019	0,059
-567,861	-97,690	-0,065	0,012
-566,846	800,000	0,028	-0,089
-565,831	-128,095	0,068	-0,007
-564,817	-39,339	0,039	0,015
-563,802	800,000	0,017	0,041
-562,788	-86,976	-0,019	-0,004
-561,773	7,672	-0,014	0,008
-560,758	800,000	-0,043	0,131
-559,744	-200,000	-0,003	0,068
-558,729	-77,546	-0,039	0,010
-557,715	35,685	0,033	0,021
-556,700	164,764	-0,044	-0,046
-555,685	649,672	-0,035	-0,067
-554,671	27,103	0,065	-0,040
-553,656	-122,653	0,092	-0,011
-552,642	800,000	0,017	0,044
-551,627	-200,000	-0,005	0,140
-550,612	-21,806	-0,021	0,009
-549,598	72,023	-0,128	-0,099
-548,583	800,000	0,070	-0,148
-547,569	141,316	-0,067	-0,066
-546,554	-31,907	-0,057	-0,023
-545,539	-200,000	-0,003	-0,082
-544,525	163,413	0,027	0,028
-543,510	800,000	0,076	-0,224
-542,496	-44,516	-0,079	-0,029
-541,481	-70,262	0,046	-0,013
-540,466	269,525	-0,054	-0,070
-539,452	-77,255	0,140	0,036
-538,437	279,603	0,068	0,090
-537,423	-30,800	-0,069	-0,029
-536,408	800,000	0,060	0,172
-535,393	33,781	-0,065	0,042
-534,379	-38,177	-0,108	-0,042
-533,364	-200,000	-0,039	-0,141
-532,350	-134,138	-0,018	-0,002
-531,335	79,770	-0,071	0,056
-530,321	-200,000	-0,016	0,100
-529,306	800,000	-0,028	-0,086
-528,291	800,000	-0,017	-0,039
-527,277	-109,549	-0,094	0,014
-526,262	-200,000	0,001	-0,085
-525,248	139,367	-0,087	-0,084
-524,233	177,740	0,043	-0,046
-523,218	-200,000	0,004	-0,086
-522,204	-200,000	0,033	-0,144
-521,189	20,792	-0,176	0,105
-520,175	-185,097	0,022	-0,000
-519,160	800,000	-0,056	-0,136
-518,145	704,680	0,045	-0,088
-517,131	273,247	-0,008	0,010
-516,116	85,804	0,104	0,084
-515,102	-98,372	-0,130	-0,024
-514,087	-15,829	-0,064	-0,030
-513,072	800,000	-0,073	0,177
-512,058	-200,000	-0,013	-0,073
-511,043	-111,690	0,112	-0,017
-510,029	-200,000	-0,009	0,050
-509,014	-133,268	0,152	-0,014
-507,999	-72,294	-0,042	-0,011
-506,985	-200,000	0,004	0,029
-505,970	-200,000	0,007	0,083
-504,956	-200,000	0,023	-0,195
-503,941	497,481	0,034	0,057
-502,926	800,000	-0,058	0,126
-501,912	661,034	-0,025	0,047
-500,897	-200,000	0,040	0,156
-499,883	-134,212	-0,177	0,016
-498,868	-200,000	0,002	0,112
-497,853	603,699	0,046	-0,085
-496,839	17,521	0,089	0,052
-495,824	-200,000	0,012	0,066
-494,810	215,221	0,067	-0,078
-493,795	800,000	0,005	0,012
-492,781	32,919	-0,142	0,090
-491,766	-134,691	-0,044	-0,004
-490,751	800,000	0,019	-0,058
-489,737	605,102	0,021	-0,039
-488,722	-200,000	-0,034	-0,128
-487,708	47,567	-0,017	0,012
-486,693	-120,881	0,072	0,009
-485,678	-186,700	0,035	-0,000
-484,664	-200,000	-0,005	0,050
-483,649	-15,326	-0,181	-0,085
-482,635	-200,000	-0,065	-0,240
-481,620	-200,000	-0,005	-0,123
-480,605	800,000	0,055	0,177
-479,591	800,000	0,059	0,129
-478,576	-200,000	-0,147	0,000
-477,562	800,000	-0,033	-0,068
-476,547	209,131	-0,059	-0,069
-475,532	-200,000	0,032	-0,178
-474,518	-200,000	-0,018	0,117
-473,503	-200,000	-0,005	0,038
-472,489	158,873	0,006	-0,006
-471,474	-200,000	-0,017	-0,089
-470,459	179,749	-0,057	-0,062
-469,445	-200,000	0,008	-0,113
-468,430	-200,000	-0,017	0,063
-467,416	800,000	-0,022	0,051
-466,401	-129,804	0,056	-0,006
-465,386	-200,000	-0,003	-0,092
-464,372	800,000	-0,060	0,162
-463,357	-108,363	-0,110	-0,017
-462,343	55,772	0,053	-0,037
-461,328	800,000	-0,002	-0,004
-460,313	235,059	0,071	-0,087
-459,299	-200,000	0,011	0,145
-458,284	292,209	0,096	0,129
-457,270	800,000	-0,035	0,082
-456,255	166,118	0,003	0,003
-455,241	-200,000	0,003	-0,048
-454,226	-200,000	-0,031	-0,114
-453,211	84,468	0,057	0,046
-452,197	-200,000	0,039	0,134
-451,182	143,457	0,076	-0,075
-450,168	92,031	0,050	0,041
-449,153	-84,643	-0,130	0,030
-448,138	2,324	-0,067	0,036
-447,124	185,821	-0,104	0,114
-446,109	390,381	-0,041	-0,062
-445,095	-200,000	0,030	-0,174
-444,080	-41,968	0,244	-0,092
-443,065	111,696	0,122	-0,109
-442,051	-52,558	0,046	0,015
-441,036	-65,392	0,101	-0,030
-440,022	78,957	-0,099	-0,078
-439,007	-200,000	0,073	-0,000
-437,992	-167,719	0,072	-0,002
-436,978	-102,801	0,123	0,021
-435,963	-9,459	-0,032	-0,015
-434,949	-200,000	-0,013	0,048
-433,934	31,249	0,106	-0,067
-432,919	-3,613	0,104	-0,053
-431,905	800,000	0,044	0,092
-430,890	-200,000	0,004	0,028
-429,876	-200,000	-0,017	-0,081
-428,861	-130,566	0,084	-0,008
-427,846	-92,885	-0,099	-0,020
-426,832	800,000	0,013	-0,033
-425,817	-200,000	0,026	-0,095
-424,803	800,000	0,005	0,011
-423,788	-60,884	0,116	0,036
-422,773	-64,975	0,096	0,028
-421,759	10,414	-0,044	0,025
-420,744	53,090	-0,069	-0,049
-419,730	-200,000	-0,018	-0,125
-418,715	-200,000	-0,001	-0,028
-417,701	-200,000	0,017	-0,065
-416,686	-5,408	0,144	0,073
-415,671	154,772	0,060	0,061
-414,657	475,229	0,065	0,108
-413,642	800,000	-0,035	0,100
-412,628	98,370	-0,077	-0,065
-411,613	56,737	-0,101	-0,072
-410,598	800,000	0,061	0,130
-409,584	539,054	0,092	-0,162
-408,569	-200,000	-0,065	0,000
-407,555	44,416	0,135	0,091
-406,540	800,000	0,012	0,038
-405,525	-58,619	0,047	-0,015
-404,511	-122,255	0,076	-0,009
-403,496	126,418	-0,041	0,038
-402,482	-31,715	-0,113	-0,046
-401,467	211,957	0,042	-0,049
-400,452	83,725	-0,060	0,048
-399,438	800,000	-0,030	-0,085
-398,423	-200,000	-0,006	-0,069
-397,409	-132,522	-0,090	-0,008
-396,394	440,955	-0,050	-0,080
-395,379	-103,373	0,131	0,022
-394,365	-200,000	0,013	-0,092
-393,350	-200,000	0,019	0,079
-392,336	-200,000	0,000	0,023
-391,321	2,665	-0,059	0,031
-390,306	-157,189	-0,036	0,002
-389,292	-20,216	-0,052	0,023
-388,277	-73,308	0,162	-0,043
-387,263	-200,000	0,030	0,129
-386,248	800,000	0,031	0,073
-385,233	258,096	0,023	-0,029
-384,219	75,143	0,117	-0,091
-383,204	37,189	-0,041	0,026
-382,190	60,167	0,040	0,029
-381,175	-200,000	-0,014	-0,110
-380,160	295,301	0,070	0,094
-379,146	-45,900	-0,108	0,039
-378,131	-200,000	-0,012	0,119
-377,117	535,512	0,066	0,115
-376,102	634,425	-0,011	-0,021
-375,088	-143,279	-0,112	0,008
-374,073	462,374	0,077	-0,127
-373,058	-200,000	-0,002	0,022
-372,044	78,695	-0,052	0,041
-371,029	-200,000	0,004	-0,048
-370,015	49,224	-0,054	0,037
-369,000	-200,000	-0,018	-0,112
-367,985	9,841	-0,038	-0,021
-366,971	-200,000	0,022	0,096
-365,956	-200,000	0,056	0,275
-364,942	-29,354	0,106	0,044
-363,927	-200,000	0,013	-0,100
-362,912	-57,593	0,037	0,012
-361,898	-200,000	-0,002	-0,018
-360,883	766,121	0,018	-0,036
-359,869	-93,889	-0,060	0,012
-358,854	53,870	-0,050	-0,035
-357,839	-135,499	0,157	-0,014
-356,825	-40,010	0,003	-0,001
-355,810	800,000	0,022	-0,070
-354,796	270,874	0,123	-0,159
-353,781	-180,650	-0,054	-0,001
-352,766	800,000	-0,009	-0,022
-351,752	-200,000	0,028	0,168
-350,737	800,000	0,032	-0,085
-349,723	176,609	0,144	0,154
-348,708	800,000	-0,033	0,095
-347,693	72,204	0,070	-0,054
-346,679	672,150	0,022	-0,042
-345,664	-127,006	-0,094	0,010
-344,650	-12,119	0,127	0,061
-343,635	26,432	-0,047	0,029
-342,620	52,696	0,040	-0,028
-341,606	8,942	-0,042	-0,023
-340,591	-200,000	-0,033	0,154
-339,577	-200,000	0,012	-0,085
-338,562	347,025	0,043	-0,062
-337,548	-136,578	0,037	0,003
-336,533	58,745	-0,027	-0,019
-335,518	-83,912	-0,072	0,017
-334,504	-200,000	-0,006	0,024
-333,489	58,414	0,094	-0,068
-332,475	464,798	-0,070	-0,116
-331,460	21,781	0,102	-0,061
-330,445	326,369	0,051	-0,072
-329,431	-66,758	0,110	0,032
-328,416	-200,000	-0,009	0,117
-327,402	69,939	-0,095	-0,072
-326,387	252,839	0,025	0,031
-325,372	-200,000	0,005	-0,095
-324,358	800,000	-0,024	-0,062
-323,343	-47,962	0,089	-0,031
-322,329	402,057	0,093	0,144
-321,314	303,322	-0,097	0,132
-320,299	711,037	-0,049	0,096
-319,285	-20,781	0,040	0,018
-318,270	800,000	0,022	-0,049
-317,256	-4,239	0,087	0,044
-316,241	24,377	-0,067	0,040
-315,226	-200,000	-0,027	0,136
-314,212	66,535	-0,036	0,027
-313,197	-49,374	0,026	0,009
-312,183	57,068	-0,056	0,040
-311,168	79,959	-0,022	0,017
-310,153	520,123	0,075	-0,129
-309,139	596,445	-0,061	0,111
-308,124	32,317	0,058	0,036
-307,110	-200,000	-0,006	0,152
-306,095	164,338	-0,041	0,043
-305,080	-200,000	0,002	-0,111
-304,066	800,000	0,017	0,046
-303,051	-155,109	-0,134	-0,006
-302,037	547,075	0,059	-0,104
-301,022	-116,647	0,061	-0,008
-300,008	632,555	-0,023	0,044
-298,993	800,000	0,014	0,036
-297,978	47,658	0,048	0,033
-296,964	-40,177	-0,101	0,038
-295,949	-133,661	0,089	0,008
-294,935	357,869	-0,034	-0,050
-293,920	-74,116	-0,086	-0,023
-292,905	800,000	0,064	0,133
-291,891	-22,173	-0,066	-0,029
-290,876	753,756	0,048	0,096
-289,862	189,912	-0,108	-0,119
-288,847	-200,000	0,007	-0,075
-287,832	-200,000	-0,017	0,084
-286,818	-71,512	0,083	0,023
-285,803	800,000	-0,017	0,053
-284,789	-112,263	-0,105	0,015
-283,774	800,000	-0,017	0,044
-282,759	-200,000	-0,004	-0,043
-281,745	800,000	0,017	0,038
-280,730	80,587	-0,074	-0,058
-279,716	72,419	0,115	-0,088
-278,701	17,299	0,099	0,057
-277,686	227,253	0,030	0,035
-276,672	-74,151	0,081	-0,021
-275,657	-109,923	0,073	0,011
-274,643	-0,592	-0,023	-0,012
-273,628	252,090	0,159	-0,198
-272,613	800,000	0,017	-0,043
-271,599	262,746	-0,107	0,136
-270,584	-16,859	0,124	0,057
-269,570	723,503	0,021	-0,040
-268,555	385,938	-0,066	-0,100
-267,540	800,000	-0,061	-0,156
-266,526	316,076	0,072	-0,099
-265,511	800,000	-0,066	0,136
-264,497	800,000	-0,030	0,084
-263,482	64,776	-0,066	0,048
-262,467	-40,386	-0,084	-0,032
-261,453	373,244	-0,066	0,099
-260,438	-82,327	-0,068	0,016
-259,424	56,830	0,092	-0,065
-258,409	131,580	-0,058	-0,054
-257,395	-200,000	0,006	0,091
-256,380	276,573	-0,017	0,022
-255,365	-109,179	0,027	-0,004
-254,351	605,849	0,085	0,155
-253,336	-62,586	0,049	0,015
-252,322	262,465	-0,049	-0,062
-251,307	800,000	0,008	0,022
-250,292	800,000	-0,042	0,098
-249,278	-133,636	0,162	0,015
-248,263	-114,023	0,158	0,022
-247,249	-134,293	0,073	0,006
-246,234	-151,051	-0,097	0,005
-245,219	114,951	-0,109	0,097
-244,205	162,332	0,033	-0,034
-243,190	800,000	0,053	-0,135
-242,176	70,311	-0,037	-0,028
-241,161	-31,909	-0,065	-0,026
-240,146	-178,424	-0,080	-0,001
-239,132	122,660	-0,085	0,078
-238,117	-200,000	0,030	0,105
-237,103	-126,523	-0,053	-0,006
-236,088	-200,000	0,014	-0,073
-235,073	-200,000	0,015	-0,059
-234,059	-143,271	0,115	-0,008
-233,044	382,945	0,051	-0,077
-232,030	313,517	-0,110	-0,152
-231,015	293,928	-0,070	0,093
-230,000	-21,663	-0,071	-0,031
-228,986	800,000	0,049	0,156
-227,971	-62,056	0,145	0,044
-226,957	172,506	0,032	-0,034
-225,942	-149,944	-0,064	-0,004
-224,927	480,961	-0,041	0,068
-223,913	175,387	-0,057	-0,060
-222,898	-200,000	-0,018	0,081
-221,884	-122,092	0,115	-0,014
-220,869	-4,820	0,054	-0,027
-219,855	104,095	-0,084	-0,072
-218,840	-128,572	0,025	0,003
-217,825	432,050	-0,018	-0,029
-216,811	96,147	-0,114	-0,095
-215,796	-200,000	-0,030	-0,107
-214,782	219,707	0,026	0,031
-213,767	-200,000	0,018	0,100
-212,752	49,506	-0,039	-0,027
-211,738	-75,001	0,098	0,025
-210,723	-72,380	-0,137	0,037
-209,709	-121,457	-0,071	0,008
-208,694	599,981	-0,028	-0,050
-207,679	-200,000	0,003	-0,043
-206,665	100,089	-0,031	-0,026
-205,650	800,000	0,015	-0,042
-204,636	155,405	0,032	-0,032
-203,621	-44,774	0,097	0,035
-202,606	96,854	-0,076	0,064
-201,592	-200,000	0,009	0,040
-200,577	73,558	0,126	0,096
-199,563	586,254	-0,094	0,169
-198,548	6,603	0,066	0,035
-197,533	60,696	-0,067	0,048
-196,519	-64,448	0,055	-0,016
-195,504	800,000	0,021	0,043
-194,490	800,000	0,019	0,048
-193,475	-56,007	-0,124	0,040
-192,460	-48,295	0,081	-0,028
-191,446	163,535	-0,101	0,103
-190,431	-200,000	-0,030	0,147
-189,417	-83,300	-0,087	0,020
-188,402	-51,937	0,074	-0,025
-187,387	-17,520	0,155	0,071
-186,373	-200,000	-0,007	-0,049
-185,358	-22,754	0,034	0,015
-184,344	-200,000	-0,034	-0,138
-183,329	29,374	0,104	-0,065
-182,315	-200,000	-0,013	0,167
-181,300	-200,000	-0,017	-0,101
-180,285	212,265	-0,024	-0,028
-179,271	-200,000	-0,006	-0,056
-178,256	-29,220	0,171	0,071
-177,242	0,766	-0,044	0,023
-176,227	44,182	-0,087	0,058
-175,212	141,921	-0,031	0,030
-174,198	-2,237	-0,141	-0,072
-173,183	210,812	0,065	-0,074
-172,169	269,847	-0,061	-0,078
-171,154	195,294	-0,025	0,028
-170,139	-56,636	0,062	0,020
-169,125	800,000	-0,049	0,129
-168,110	132,221	-0,027	0,025
-167,096	-135,894	-0,100	0,008
-166,081	97,183	-0,103	0,086
-165,066	64,448	-0,091	-0,067
-164,052	-182,537	0,042	-0,001
-163,037	624,888	-0,047	-0,086
-162,023	670,493	-0,027	0,052
-161,008	-200,000	-0,004	0,054
-159,993	678,634	-0,051	0,096
-158,979	-40,412	-0,115	-0,043
-157,964	296,256	-0,123	-0,165
-156,950	-106,327	-0,078	-0,013
-155,935	800,000	-0,036	0,110
-154,920	-3,961	0,080	0,040
-153,906	108,828	-0,060	0,052
-152,891	-60,311	0,118	0,036
-151,877	102,251	-0,151	-0,128
-150,862	40,213	0,107	-0,070
-149,847	-200,000	-0,020	-0,110
-148,833	-162,302	0,025	-0,001
-147,818	167,768	0,013	-0,014
-146,804	315,329	0,096	0,132
-145,789	-200,000	0,016	0,068
-144,775	-200,000	-0,000	0,039
-143,760	800,000	0,004	-0,013
-142,745	240,588	0,102	-0,124
-141,731	283,581	0,060	0,078
-140,716	800,000	0,038	0,104
-139,702	41,893	0,061	0,040
-138,687	800,000	-0,035	-0,084
-137,672	307,945	-0,111	0,151
-136,658	15,238	0,075	-0,043
-135,643	207,903	-0,079	-0,090
-134,629	-200,000	0,011	-0,141
-133,614	348,985	0,062	0,089
-132,599	513,137	-0,033	0,057
-131,585	622,977	0,075	0,138
-130,570	-194,978	0,014	0,000
-129,556	-67,848	0,101	0,029
-128,541	-200,000	0,023	-0,124
-127,526	-200,000	0,001	0,042
-126,512	101,656	-0,048	0,041
-125,497	-200,000	0,012	0,161
-124,483	436,025	-0,041	0,065
-123,468	647,530	-0,048	0,090
-122,453	-200,000	-0,011	-0,136
-121,439	659,724	-0,019	0,037
-120,424	-200,000	0,003	-0,026
-119,410	-41,031	-0,054	-0,020
