DTS Sentinel unit serial number:	SN410029Multiplexer serial number:	ORYXHardware model number:	OX2-SRSoftware version number:	ORYX F/W v4,00 Oryx Data Collector v3.7.2.0data status	okinstallation	B4 Nyhavnadifferential loss correction	single-endedforward channel	channel 2reverse channel	N/Adate	2023/12/16time	13:20:13forward acquisition time	300,00reverse acquisition time	0,00gamma	499,1914k internal	0,3126k external	0,3126temperature offset calibration	1,0000default loss term (dB/km)	0,3820temperature slope calibration	1,0000multiplexer offset coefficient	1,0000multiplexer slope coefficient	1,0000fibre end	0,00T internal ref (°C)	24,69T ext. ref 1 (°C)	11,16T ext. ref 2 (°C)	11,37length (m)	temperature (°C)	Stokes	anti-Stokes-744,400	-200,000	-0,021	-0,082
-743,385	-2,895	-0,281	0,146
-742,371	800,000	0,033	0,074
-741,356	226,156	-0,163	0,197
-740,342	53,149	-0,121	-0,086
-739,327	-130,517	-0,251	0,025
-738,312	800,000	0,021	0,049
-737,298	188,436	-0,170	0,189
-736,283	800,000	-0,028	-0,081
-735,269	321,589	-0,146	0,207
-734,254	140,920	-0,134	-0,132
-733,239	-53,496	-0,390	-0,132
-732,225	167,679	0,130	-0,138
-731,210	-200,000	0,002	-0,025
-730,196	-200,000	0,002	-0,078
-729,181	-140,263	-0,027	0,002
-728,167	-54,363	0,027	0,009
-727,152	-19,840	-0,053	-0,024
-726,137	-152,825	-0,153	0,008
-725,123	688,156	-0,142	-0,277
-724,108	-136,135	-0,098	-0,008
-723,094	-39,156	-0,214	-0,083
-722,079	800,000	-0,039	-0,117
-721,064	30,797	-0,112	-0,071
-720,050	-28,292	0,027	0,012
-719,035	-200,000	0,034	0,165
-718,021	-153,694	-0,160	-0,008
-717,006	178,465	-0,047	-0,051
-715,991	-77,424	-0,135	-0,035
-714,977	-200,000	-0,021	-0,075
-713,962	-52,484	-0,138	-0,047
-712,948	16,010	0,131	-0,077
-711,933	-200,000	-0,013	0,046
-710,918	-5,074	0,018	-0,009
-709,904	-159,797	-0,194	0,008
-708,889	64,655	-0,060	-0,045
-707,875	-200,000	-0,004	-0,093
-706,860	-71,326	-0,128	0,035
-705,845	-200,000	0,002	0,160
-704,831	10,256	-0,027	0,015
-703,816	-200,000	0,002	-0,008
-702,802	-72,083	-0,102	0,028
-701,787	86,036	-0,088	0,072
-700,772	292,576	-0,080	-0,108
-699,758	-121,963	0,169	0,020
-698,743	50,772	-0,114	0,080
-697,729	-200,000	0,004	-0,103
-696,714	800,000	-0,007	0,020
-695,699	263,449	0,030	-0,039
-694,685	-200,000	-0,018	-0,175
-693,670	15,944	-0,033	0,019
-692,656	-127,034	0,199	0,021
-691,641	-53,414	0,141	-0,048
-690,627	574,688	-0,045	0,082
-689,612	-152,742	-0,102	0,005
-688,597	800,000	0,033	-0,071
-687,583	151,951	-0,084	-0,085
-686,568	76,064	-0,075	0,059
-685,554	-200,000	-0,017	-0,139
-684,539	502,987	0,061	-0,106
-683,524	204,048	-0,054	-0,063
-682,510	-80,351	-0,102	-0,025
-681,495	94,551	0,021	-0,018
-680,481	-200,000	-0,002	0,010
-679,466	-112,870	-0,034	-0,005
-678,451	-168,397	0,098	0,003
-677,437	359,451	0,043	-0,064
-676,422	-10,505	0,053	0,026
-675,408	110,918	0,084	-0,075
-674,393	-110,384	0,056	-0,009
-673,378	-80,457	-0,207	0,051
-672,364	-200,000	-0,035	0,139
-671,349	800,000	-0,050	0,115
-670,335	800,000	-0,061	0,149
-669,320	445,242	-0,022	-0,035
-668,305	-14,475	0,076	0,036
-667,291	133,165	-0,035	-0,034
-666,276	-60,176	-0,053	-0,017
-665,262	-39,289	-0,038	0,015
-664,247	196,865	-0,095	-0,107
-663,232	-200,000	0,017	0,101
-662,218	-200,000	-0,005	-0,066
-661,203	-192,600	-0,118	0,001
-660,189	127,803	-0,028	0,026
-659,174	800,000	0,029	-0,070
-658,159	-44,062	-0,110	-0,041
-657,145	238,989	0,070	-0,087
-656,130	-200,000	-0,013	0,066
-655,116	185,625	-0,035	0,038
-654,101	-118,412	0,037	0,005
-653,086	27,050	-0,060	-0,037
-652,072	19,309	-0,031	-0,019
-651,057	-98,285	-0,040	-0,008
-650,043	-200,000	0,006	-0,040
-649,028	-76,903	0,057	-0,015
-648,014	42,694	-0,011	-0,008
-646,999	-200,000	0,043	0,214
-645,984	158,781	0,038	0,040
-644,970	-200,000	-0,004	-0,094
-643,955	-200,000	-0,011	-0,186
-642,941	510,764	-0,097	-0,168
-641,926	77,627	-0,028	0,022
-640,911	-200,000	0,004	0,077
-639,897	127,796	-0,036	-0,034
-638,882	-147,688	-0,014	-0,001
-637,868	-200,000	0,005	-0,029
-636,853	93,943	-0,031	0,026
-635,838	45,511	-0,053	0,036
-634,824	-200,000	0,002	0,079
-633,809	-200,000	-0,017	0,130
-632,795	462,787	-0,017	0,028
-631,780	800,000	0,041	0,089
-630,765	-185,555	0,135	-0,001
-629,751	225,783	-0,106	-0,127
-628,736	-107,721	-0,181	-0,029
-627,722	-200,000	-0,004	0,022
-626,707	435,769	0,029	-0,047
-625,692	-80,129	0,171	-0,042
-624,678	471,264	0,025	0,042
-623,663	-171,581	-0,012	-0,000
-622,649	800,000	0,019	0,050
-621,634	-200,000	0,019	-0,067
-620,619	542,368	-0,086	0,153
-619,605	800,000	0,033	0,101
-618,590	112,941	-0,098	0,088
-617,576	-80,421	0,108	-0,027
-616,561	307,289	-0,033	-0,045
-615,546	509,862	-0,036	-0,062
-614,532	-149,888	-0,115	-0,007
-613,517	400,171	0,046	0,072
-612,503	675,888	-0,011	-0,022
-611,488	-97,013	0,080	0,015
-610,474	-45,004	0,103	0,038
-609,459	-129,506	-0,015	0,002
-608,444	-38,267	0,077	-0,030
-607,430	-130,415	-0,129	-0,013
-606,415	-200,000	-0,010	0,140
-605,401	-29,458	0,156	0,066
-604,386	-23,065	-0,113	0,050
-603,371	800,000	-0,051	0,126
-602,357	86,174	-0,051	-0,042
-601,342	800,000	-0,017	-0,051
-600,328	-33,736	-0,103	-0,042
-599,313	-20,430	-0,088	-0,040
-598,298	364,777	-0,022	0,032
-597,284	-18,008	-0,031	-0,014
-596,269	-200,000	-0,004	-0,030
-595,255	-200,000	-0,003	0,062
-594,240	79,807	-0,032	-0,026
-593,225	-176,376	-0,088	0,002
-592,211	19,770	0,090	0,053
-591,196	-200,000	0,006	-0,096
-590,182	44,881	0,065	0,044
-589,167	175,576	0,061	0,066
-588,152	800,000	0,009	-0,019
-587,138	-133,775	-0,040	-0,004
-586,123	201,172	-0,022	-0,025
-585,109	-97,358	-0,049	0,009
-584,094	59,453	-0,054	-0,039
-583,079	-200,000	0,005	0,034
-582,065	-200,000	0,019	-0,128
-581,050	800,000	-0,039	0,086
-580,036	-78,388	0,089	0,022
-579,021	389,172	0,012	0,018
-578,006	118,135	-0,038	-0,035
-576,992	-200,000	-0,005	-0,051
-575,977	-42,918	0,090	-0,034
-574,963	-42,451	0,065	-0,024
-573,948	800,000	-0,024	-0,078
-572,934	-200,000	0,020	-0,068
-571,919	660,823	0,007	-0,013
-570,904	-86,391	0,087	0,020
-569,890	177,030	-0,053	-0,057
-568,875	-6,227	-0,011	0,005
-567,861	368,671	0,013	0,020
-566,846	294,934	0,114	-0,154
-565,831	50,806	-0,055	-0,039
-564,817	-110,332	-0,007	0,001
-563,802	800,000	-0,041	-0,108
-562,788	196,295	-0,022	-0,025
-561,773	-120,112	-0,059	0,007
-560,758	463,353	0,048	0,079
-559,744	-100,478	-0,117	0,021
-558,729	-200,000	0,010	-0,035
-557,715	-200,000	0,023	0,000
-556,700	341,810	0,036	-0,053
-555,685	301,225	-0,034	-0,047
-554,671	6,878	0,094	0,052
-553,656	800,000	0,008	0,023
-552,642	0,511	0,076	0,040
-551,627	145,443	-0,130	0,129
-550,612	105,529	-0,061	-0,053
-549,598	177,017	0,040	-0,043
-548,583	-51,985	-0,061	0,021
-547,569	-200,000	0,012	0,042
-546,554	-118,502	0,176	-0,023
-545,539	-200,000	0,010	0,070
-544,525	57,382	0,078	0,056
-543,510	-42,043	-0,086	-0,032
-542,496	131,157	-0,063	0,060
-541,481	800,000	0,027	0,059
-540,466	540,596	-0,094	-0,167
-539,452	238,240	0,111	-0,136
-538,437	241,122	0,049	0,060
-537,423	464,821	0,034	-0,056
-536,408	-92,050	0,122	-0,025
-535,393	218,869	0,054	0,064
-534,379	603,107	0,069	-0,127
-533,364	-200,000	0,005	0,024
-532,350	36,882	0,068	-0,044
-531,335	-19,174	0,100	0,045
-530,321	800,000	-0,064	-0,169
-529,306	78,887	-0,031	-0,025
-528,291	-131,512	-0,161	0,015
-527,277	-200,000	0,005	-0,049
-526,262	-200,000	0,041	-0,147
-525,248	-45,269	0,098	0,036
-524,233	800,000	0,015	0,032
-523,218	800,000	0,025	0,075
-522,204	-200,000	-0,018	0,078
-521,189	-200,000	-0,016	0,095
-520,175	595,796	0,037	-0,068
-519,160	412,637	-0,032	-0,050
-518,145	-200,000	-0,040	0,143
-517,131	-194,250	0,050	-0,000
-516,116	352,994	0,074	0,108
-515,102	-111,090	-0,101	0,015
-514,087	800,000	-0,036	-0,111
-513,072	257,766	-0,017	-0,022
-512,058	800,000	0,019	0,040
-511,043	48,465	-0,062	0,042
-510,029	800,000	0,014	-0,039
-509,014	77,215	-0,076	-0,060
-507,999	-10,655	0,098	0,048
-506,985	190,189	-0,047	0,052
-505,970	206,169	-0,066	-0,076
-504,956	149,729	0,096	-0,096
-503,941	-115,342	-0,048	-0,007
-502,926	55,717	0,138	-0,099
-501,912	-4,767	0,079	0,040
-500,897	800,000	-0,029	0,071
-499,883	332,196	-0,047	0,068
-498,868	185,105	0,056	0,062
-497,853	56,329	-0,027	-0,020
-496,839	-129,761	0,150	0,015
-495,824	800,000	-0,006	-0,015
-494,810	327,863	0,021	0,029
-493,795	84,679	-0,107	0,087
-492,781	800,000	0,010	-0,022
-491,766	-27,207	-0,133	0,057
-490,751	122,677	-0,046	-0,043
-489,737	272,139	0,127	-0,165
-488,722	800,000	0,043	0,108
-487,708	15,182	0,024	-0,014
-486,693	115,082	-0,110	0,099
-485,678	-52,158	-0,044	-0,015
-484,664	-200,000	-0,043	-0,175
-483,649	630,472	-0,011	-0,021
-482,635	-110,547	0,082	-0,012
-481,620	-200,000	-0,038	0,130
-480,605	-60,865	0,100	0,031
-479,591	3,009	0,125	0,067
-478,576	-200,000	-0,004	0,037
-477,562	340,509	0,056	-0,081
-476,547	295,273	-0,095	-0,128
-475,532	-200,000	0,017	0,085
-474,518	-200,000	-0,015	0,056
-473,503	19,718	0,116	0,068
-472,489	-29,931	-0,086	-0,036
-471,474	79,716	-0,063	0,050
-470,459	185,506	-0,055	-0,060
-469,445	-23,127	-0,090	-0,040
-468,430	256,668	0,067	-0,086
-467,416	-200,000	0,004	-0,096
-466,401	235,231	0,075	0,092
-465,386	285,886	0,042	0,056
-464,372	67,293	0,098	-0,073
-463,357	22,191	-0,033	-0,020
-462,343	-87,897	-0,078	0,017
-461,328	70,558	-0,054	-0,041
-460,313	773,936	-0,023	-0,046
-459,299	430,858	-0,042	-0,067
-458,284	518,149	-0,037	0,064
-457,270	-193,048	-0,055	0,000
-456,255	451,825	0,064	-0,105
-455,241	-48,290	-0,100	-0,035
-454,226	-30,782	0,052	-0,022
-453,211	202,701	0,042	-0,047
-452,197	77,765	0,123	0,097
-451,182	367,352	0,073	-0,109
-450,168	-60,600	0,061	-0,019
-449,153	239,365	-0,023	-0,028
-448,138	-200,000	-0,010	0,049
-447,124	176,008	0,056	0,060
-446,109	307,779	-0,032	-0,045
-445,095	-93,150	0,131	0,027
-444,080	-200,000	-0,003	0,044
-443,065	379,557	-0,081	0,122
-442,051	92,393	0,072	-0,060
-441,036	-141,418	-0,116	0,009
-440,022	74,906	-0,087	-0,067
-439,007	-0,423	0,067	-0,035
-437,992	399,853	-0,067	0,104
-436,978	-189,672	0,095	0,001
-435,963	18,880	-0,011	-0,006
-434,949	20,017	-0,121	0,071
-433,934	-74,049	-0,072	0,019
-432,919	-102,793	-0,100	0,017
-431,905	-150,268	0,087	0,005
-430,890	-73,983	0,103	0,027
-429,876	35,057	-0,089	-0,057
-428,861	-17,524	-0,079	-0,036
-427,846	-49,465	-0,080	-0,028
-426,832	-200,000	-0,004	-0,101
-425,817	-200,000	0,031	-0,162
-424,803	-200,000	0,010	-0,123
-423,788	711,829	0,047	0,092
-422,773	800,000	-0,053	0,119
-421,759	416,624	0,015	0,024
-420,744	26,271	-0,047	-0,029
-419,730	-200,000	0,021	-0,157
-418,715	-200,000	-0,003	-0,019
-417,701	369,170	0,058	-0,087
-416,686	91,094	0,099	-0,082
-415,671	124,922	0,057	0,053
-414,657	450,587	-0,064	0,104
-413,642	-200,000	0,002	0,107
-412,628	30,214	-0,039	-0,024
-411,613	-200,000	-0,094	0,000
-410,598	-116,319	-0,054	-0,007
-409,584	-9,583	-0,215	0,105
-408,569	-6,022	0,025	0,013
-407,555	-79,138	-0,046	-0,011
-406,540	-127,370	-0,129	-0,014
-405,525	-23,182	-0,094	0,041
-404,511	-200,000	-0,017	-0,104
-403,496	-187,481	0,060	0,001
-402,482	800,000	0,040	0,101
-401,467	96,581	0,085	-0,072
-400,452	32,632	0,017	-0,011
-399,438	-72,461	0,066	0,018
-398,423	-113,938	0,147	-0,021
-397,409	-200,000	0,015	0,060
-396,394	-200,000	0,033	0,192
-395,379	-127,094	0,085	0,009
-394,365	526,036	0,047	0,082
-393,350	800,000	-0,024	0,065
-392,336	457,567	0,044	0,072
-391,321	144,175	-0,037	0,036
-390,306	-125,399	-0,011	0,001
-389,292	73,098	-0,016	-0,012
-388,277	-1,306	0,081	0,042
-387,263	-200,000	0,001	-0,016
-386,248	126,249	-0,041	0,038
-385,233	-200,000	-0,004	0,106
-384,219	151,781	0,144	0,145
-383,204	800,000	-0,050	-0,120
-382,190	134,805	-0,098	-0,094
-381,175	-200,000	0,006	0,074
-380,160	-111,427	-0,093	0,014
-379,146	-97,170	0,069	-0,013
-378,131	-132,359	0,059	0,006
-377,117	145,754	0,059	-0,058
-376,102	-200,000	0,015	0,074
-375,088	-104,571	-0,056	-0,009
-374,073	800,000	-0,032	-0,090
-373,058	-52,858	0,101	-0,034
-372,044	800,000	0,068	0,148
-371,029	-200,000	-0,009	0,044
-370,015	800,000	-0,083	-0,181
-369,000	60,535	0,061	0,044
-367,985	71,693	-0,152	-0,116
-366,971	228,917	0,047	-0,056
-365,956	800,000	-0,040	0,126
-364,942	275,470	-0,010	-0,013
-363,927	-200,000	0,000	0,061
-362,912	73,918	0,071	0,055
-361,898	-179,281	-0,066	-0,001
-360,883	-200,000	0,005	-0,066
-359,869	-95,500	-0,027	-0,005
-358,854	-50,635	-0,078	-0,027
-357,839	-56,526	0,084	0,027
-356,825	-200,000	0,023	0,084
-355,810	34,122	-0,070	-0,045
-354,796	171,993	-0,107	-0,113
-353,781	88,846	-0,015	0,012
-352,766	800,000	-0,039	-0,088
-351,752	477,234	-0,056	0,094
-350,737	334,545	0,139	0,198
-349,723	-109,110	0,090	0,014
-348,708	43,756	-0,056	-0,038
-347,693	-55,657	-0,109	-0,036
-346,679	800,000	-0,062	-0,179
-345,664	125,787	-0,103	-0,095
-344,650	-200,000	-0,030	-0,153
-343,635	800,000	-0,034	0,089
-342,620	-119,983	0,105	0,013
-341,606	-190,634	0,053	-0,000
-340,591	65,574	0,052	0,038
-339,577	518,602	-0,053	0,092
-338,562	-130,492	-0,038	-0,004
-337,548	-128,340	-0,165	-0,017
-336,533	-200,000	-0,010	0,064
-335,518	-39,171	0,197	0,076
-334,504	620,355	0,028	0,051
-333,489	-200,000	0,023	0,106
-332,475	136,041	0,076	-0,073
-331,460	37,867	-0,186	0,121
-330,445	154,322	-0,081	-0,081
-329,431	-165,572	-0,120	-0,004
-328,416	-200,000	0,005	0,019
-327,402	-105,114	0,079	0,013
-326,387	173,488	-0,085	0,089
-325,372	-200,000	0,007	-0,129
-324,358	494,149	-0,056	-0,095
-323,343	-44,258	0,055	-0,020
-322,329	226,781	-0,012	0,014
-321,314	13,214	-0,071	-0,040
-320,299	-65,901	0,053	-0,015
-319,285	-52,243	-0,062	-0,021
-318,270	-200,000	-0,008	-0,158
-317,256	58,980	-0,040	0,029
-316,241	207,235	-0,043	-0,049
-315,226	710,292	-0,030	-0,059
-314,212	800,000	0,065	0,188
-313,197	800,000	-0,009	0,029
-312,183	140,531	0,158	0,153
-311,168	59,795	-0,053	0,039
-310,153	-200,000	0,003	-0,110
-309,139	230,349	0,107	-0,129
-308,124	-45,154	0,129	0,047
-307,110	-200,000	0,016	0,060
-306,095	-27,161	0,093	-0,040
-305,080	34,554	-0,062	0,040
-304,066	-146,797	0,083	-0,005
-303,051	-146,273	-0,041	0,003
-302,037	10,701	-0,134	-0,074
-301,022	217,184	0,047	0,055
-300,008	666,143	0,065	-0,124
-298,993	800,000	-0,012	0,037
-297,978	-200,000	0,011	0,125
-296,964	800,000	0,027	0,060
-295,949	104,429	-0,032	0,028
-294,935	687,178	-0,060	-0,116
-293,920	323,849	0,031	0,043
-292,905	529,265	0,038	0,066
-291,891	-69,413	-0,037	0,010
-290,876	14,867	-0,080	0,046
-289,862	292,911	-0,030	0,040
-288,847	-125,153	0,052	-0,006
-287,832	-200,000	-0,002	0,051
-286,818	130,560	0,023	-0,022
-285,803	-29,884	-0,073	0,030
-284,789	36,725	0,090	-0,058
-283,774	230,280	0,018	0,022
-282,759	-13,052	-0,073	0,035
-281,745	-65,207	-0,040	0,012
-280,730	525,539	-0,072	-0,124
-279,716	-39,299	-0,027	0,010
-278,701	500,998	0,029	-0,049
-277,686	-200,000	-0,008	0,212
-276,672	353,842	0,037	-0,054
-275,657	25,177	-0,019	-0,011
-274,643	413,677	-0,026	-0,040
-273,628	745,895	0,033	-0,065
-272,613	-71,953	-0,131	-0,035
-271,599	800,000	-0,037	0,101
-270,584	17,112	-0,027	-0,015
-269,570	68,619	0,112	0,084
-268,555	458,454	-0,009	-0,015
-267,540	-47,353	-0,095	-0,034
-266,526	-127,688	-0,029	0,003
-265,511	81,207	0,067	0,053
-264,497	266,264	0,031	-0,039
-263,482	-200,000	0,018	0,111
-262,467	-84,532	0,054	-0,012
-261,453	-108,640	-0,124	-0,019
-260,438	330,915	0,055	-0,077
-259,424	-52,926	-0,042	-0,014
-258,409	747,143	0,017	-0,034
-257,395	3,624	0,075	0,040
-256,380	-98,426	0,126	-0,023
-255,365	-31,593	0,109	0,045
-254,351	38,898	0,114	-0,074
-253,336	-200,000	0,015	-0,172
-252,322	262,272	0,036	-0,046
-251,307	-200,000	-0,003	-0,049
-250,292	-200,000	-0,003	-0,039
-249,278	85,316	0,032	-0,025
-248,263	543,435	0,026	0,046
-247,249	595,208	-0,053	0,096
-246,234	309,708	0,058	0,079
-245,219	800,000	-0,035	-0,103
-244,205	-200,000	-0,012	-0,059
-243,190	486,537	-0,014	-0,024
-242,176	-13,174	0,102	0,048
-241,161	800,000	-0,018	0,039
-240,146	-102,804	0,154	-0,026
-239,132	-200,000	-0,010	-0,062
-238,117	-200,000	0,007	-0,179
-237,103	-200,000	-0,009	-0,090
-236,088	283,080	0,068	0,090
-235,073	-103,014	0,123	0,021
-234,059	-200,000	0,021	0,073
-233,044	-200,000	-0,005	0,097
-232,030	53,147	-0,131	-0,092
-231,015	-55,438	-0,163	-0,053
-230,000	127,184	-0,063	-0,058
-228,986	370,087	0,103	-0,153
-227,971	367,302	0,071	-0,106
-226,957	171,770	-0,045	0,047
-225,942	-200,000	0,025	0,139
-224,927	-41,881	0,082	0,031
-223,913	169,417	-0,041	0,043
-222,898	715,359	-0,028	0,055
-221,884	-200,000	0,001	0,036
-220,869	-200,000	0,006	0,060
-219,855	172,559	0,050	-0,052
-218,840	-31,338	0,089	0,036
-217,825	-33,324	0,093	0,037
-216,811	-39,541	-0,135	-0,051
-215,796	-200,000	-0,016	-0,097
-214,782	-200,000	0,001	0,060
-213,767	-11,962	0,093	0,044
-212,752	800,000	0,008	0,021
-211,738	-200,000	-0,014	-0,094
-210,723	-185,204	-0,095	-0,001
-209,709	-55,082	0,052	-0,017
-208,694	124,514	-0,068	0,062
-207,679	-200,000	-0,012	0,097
-206,665	-147,360	-0,097	-0,006
-205,650	222,016	0,042	-0,050
-204,636	538,974	-0,050	-0,087
-203,621	7,156	-0,044	0,024
-202,606	253,347	0,063	-0,079
-201,592	800,000	0,044	-0,127
-200,577	800,000	0,038	-0,103
-199,563	-131,127	-0,113	0,011
-198,548	156,532	0,090	0,091
-197,533	-106,716	0,119	0,019
-196,519	800,000	-0,028	-0,060
-195,504	-200,000	0,007	0,108
-194,490	-200,000	0,006	-0,037
-193,475	308,005	-0,069	0,094
-192,460	316,924	0,055	-0,077
-191,446	-128,699	-0,058	-0,006
-190,431	-200,000	0,011	-0,053
-189,417	324,297	0,119	-0,166
-188,402	-118,063	0,030	0,004
-187,387	-110,647	-0,129	-0,019
-186,373	-7,784	-0,069	0,034
-185,358	-200,000	-0,018	0,120
-184,344	-55,294	0,095	-0,031
-183,329	520,292	0,034	0,059
-182,315	389,875	0,039	-0,059
-181,300	800,000	0,029	-0,083
-180,285	-46,670	-0,078	0,028
-179,271	-200,000	-0,001	0,116
-178,256	800,000	-0,017	-0,042
-177,242	486,556	0,073	0,122
-176,227	-200,000	0,003	0,115
-175,212	800,000	-0,071	0,215
-174,198	800,000	-0,041	0,132
-173,183	713,083	-0,056	-0,109
-172,169	-200,000	0,017	-0,059
-171,154	-18,282	0,036	-0,016
-170,139	800,000	0,023	-0,062
-169,125	63,022	0,045	0,033
-168,110	51,020	-0,067	0,046
-167,096	-125,671	-0,047	0,005
-166,081	-95,363	0,081	-0,016
-165,066	444,497	-0,017	-0,027
-164,052	12,594	-0,046	0,026
-163,037	340,303	-0,030	-0,043
-162,023	-144,953	0,069	-0,005
-161,008	4,375	-0,097	-0,052
-159,993	-122,642	-0,052	-0,006
-158,979	-200,000	-0,025	0,096
-157,964	109,638	-0,003	0,003
-156,950	97,070	-0,153	-0,127
-155,935	-93,147	0,009	0,002
-154,920	-200,000	0,009	0,081
-153,906	-200,000	0,000	0,030
-152,891	433,599	0,027	0,042
-151,877	-137,825	0,077	0,006
-150,862	17,819	-0,104	-0,060
-149,847	800,000	-0,060	-0,142
-148,833	91,360	0,072	-0,059
-147,818	-200,000	-0,002	0,072
-146,804	79,640	-0,034	-0,027
-145,789	-40,183	-0,104	0,039
-144,775	296,970	0,041	-0,055
-143,760	227,273	0,080	-0,095
-142,745	479,741	-0,083	0,137
-141,731	-200,000	0,003	-0,033
-140,716	800,000	-0,035	-0,084
-139,702	-70,845	-0,068	-0,018
-138,687	337,570	0,030	0,043
-137,672	800,000	0,009	0,028
-136,658	454,493	-0,074	-0,120
-135,643	-200,000	-0,028	0,096
-134,629	-200,000	-0,018	-0,081
-133,614	201,423	0,043	0,048
-132,599	-62,075	0,008	0,003
-131,585	-200,000	0,005	-0,044
-130,570	-200,000	-0,007	-0,034
-129,556	24,480	0,070	0,042
-128,541	-70,773	-0,019	-0,005
-127,526	46,775	0,120	0,081
-126,512	262,912	0,091	0,115
-125,497	270,711	0,054	0,070
-124,483	-8,501	0,035	-0,017
-123,468	183,569	-0,045	-0,049
-122,453	183,086	0,033	0,036
-121,439	403,266	0,021	0,032
-120,424	-200,000	-0,005	0,111
