DTS Sentinel unit serial number:	SN410029Multiplexer serial number:	ORYXHardware model number:	OX2-SRSoftware version number:	ORYX F/W v4,00 Oryx Data Collector v3.7.2.0data status	okinstallation	B4 Nyhavnadifferential loss correction	single-endedforward channel	channel 2reverse channel	N/Adate	2023/12/18time	23:40:14forward acquisition time	300,00reverse acquisition time	0,00gamma	499,1914k internal	0,3124k external	0,3124temperature offset calibration	1,0000default loss term (dB/km)	0,3820temperature slope calibration	1,0000multiplexer offset coefficient	1,0000multiplexer slope coefficient	1,0000fibre end	0,00T internal ref (°C)	22,25T ext. ref 1 (°C)	7,63T ext. ref 2 (°C)	7,69length (m)	temperature (°C)	Stokes	anti-Stokes-744,400	-200,000	0,002	0,039
-743,385	-128,228	-0,382	0,040
-742,371	-169,916	0,116	-0,003
-741,356	-51,937	-0,249	0,086
-740,342	800,000	0,015	-0,046
-739,327	-21,912	-0,206	0,093
-738,312	93,668	-0,072	-0,061
-737,298	40,570	-0,264	0,177
-736,283	738,891	0,040	-0,079
-735,269	633,990	-0,099	0,188
-734,254	-85,217	0,026	0,006
-733,239	-25,977	-0,334	-0,146
-732,225	86,294	0,114	-0,094
-731,210	298,665	-0,070	0,096
-730,196	-95,002	-0,082	0,016
-729,181	800,000	-0,034	-0,086
-728,167	-200,000	0,003	-0,025
-727,152	-200,000	0,032	-0,104
-726,137	97,857	0,053	-0,046
-725,123	133,271	-0,068	-0,066
-724,108	661,930	-0,087	-0,167
-723,094	784,161	-0,032	-0,065
-722,079	-34,158	-0,137	-0,056
-721,064	-200,000	0,006	-0,077
-720,050	-123,064	-0,077	-0,009
-719,035	180,691	-0,039	-0,043
-718,021	14,157	-0,167	-0,096
-717,006	-9,294	-0,045	0,022
-715,991	-96,859	-0,193	0,037
-714,977	149,642	-0,051	0,052
-713,962	21,373	-0,076	0,046
-712,948	462,989	0,015	0,025
-711,933	-1,478	-0,141	0,074
-710,918	202,442	-0,038	-0,044
-709,904	448,976	-0,044	-0,072
-708,889	-200,000	-0,014	-0,130
-707,875	796,951	0,046	-0,096
-706,860	192,838	0,088	-0,099
-705,845	-192,856	-0,031	0,000
-704,831	-3,310	-0,063	0,032
-703,816	800,000	0,011	-0,027
-702,802	-16,044	-0,084	-0,040
-701,787	-116,246	-0,156	-0,021
-700,772	422,371	0,010	0,016
-699,758	-117,866	-0,134	0,018
-698,743	400,442	-0,058	0,091
-697,729	491,545	-0,029	0,050
-696,714	-90,880	-0,028	0,006
-695,699	368,273	-0,011	0,016
-694,685	-56,061	-0,032	-0,010
-693,670	407,360	-0,010	0,016
-692,656	226,870	-0,094	-0,113
-691,641	-200,000	0,009	-0,120
-690,627	487,477	0,076	-0,130
-689,612	326,126	0,056	-0,079
-688,597	25,406	-0,125	-0,077
-687,583	426,122	0,065	-0,104
-686,568	-139,305	-0,044	-0,003
-685,554	800,000	0,009	0,019
-684,539	-23,350	0,094	-0,042
-683,524	-123,295	-0,159	-0,019
-682,510	100,205	0,095	-0,082
-681,495	-66,772	0,057	-0,017
-680,481	287,641	-0,055	-0,074
-679,466	800,000	-0,020	-0,063
-678,451	-200,000	0,031	0,171
-677,437	517,819	-0,033	-0,057
-676,422	-52,356	0,076	-0,026
-675,408	-19,272	-0,038	0,017
-674,393	-200,000	-0,021	0,077
-673,378	-200,000	-0,024	-0,120
-672,364	-200,000	-0,007	-0,106
-671,349	800,000	-0,031	-0,088
-670,335	800,000	-0,024	-0,061
-669,320	377,031	-0,095	0,145
-668,305	800,000	0,057	-0,132
-667,291	10,454	-0,116	-0,065
-666,276	-120,982	0,043	-0,005
-665,262	62,944	-0,021	0,016
-664,247	251,023	-0,050	0,063
-663,232	628,894	-0,054	-0,102
-662,218	152,481	-0,053	0,054
-661,203	-30,400	-0,057	-0,024
-660,189	800,000	-0,045	-0,106
-659,174	208,339	0,044	-0,051
-658,159	16,401	0,030	-0,018
-657,145	405,728	-0,156	0,245
-656,130	-200,000	0,006	0,059
-655,116	-200,000	-0,009	0,097
-654,101	-4,848	0,008	0,004
-653,086	-200,000	0,021	0,128
-652,072	-16,567	-0,082	0,038
-651,057	146,529	-0,049	-0,049
-650,043	-128,311	-0,058	-0,006
-649,028	-166,235	-0,087	0,003
-648,014	765,110	0,032	0,066
-646,999	-200,000	0,001	0,201
-645,984	-18,642	0,023	-0,010
-644,970	-200,000	-0,003	-0,175
-643,955	-185,622	-0,039	0,000
-642,941	72,042	-0,155	-0,120
-641,926	800,000	-0,053	-0,111
-640,911	800,000	-0,022	0,063
-639,897	-200,000	0,012	-0,078
-638,882	-36,994	-0,132	0,052
-637,868	-79,860	0,050	-0,012
-636,853	-15,035	-0,109	-0,051
-635,838	-36,308	-0,129	-0,051
-634,824	-200,000	-0,027	0,090
-633,809	141,012	0,014	-0,014
-632,795	162,363	-0,078	0,081
-631,780	524,781	0,071	0,125
-630,765	82,119	-0,054	-0,044
-629,751	800,000	0,036	-0,081
-628,736	-140,421	-0,041	0,003
-627,722	58,533	0,007	0,005
-626,707	-200,000	-0,014	-0,261
-625,692	-200,000	-0,012	-0,081
-624,678	23,077	0,215	0,131
-623,663	-76,611	-0,038	-0,010
-622,649	-200,000	-0,028	-0,153
-621,634	-75,266	0,025	-0,006
-620,619	-96,541	0,083	-0,016
-619,605	800,000	0,047	0,143
-618,590	260,465	-0,102	-0,132
-617,576	469,966	0,083	0,139
-616,561	-200,000	-0,025	-0,095
-615,546	800,000	-0,063	-0,148
-614,532	-124,596	-0,051	-0,006
-613,517	29,216	-0,063	-0,039
-612,503	-200,000	-0,001	0,079
-611,488	198,151	-0,080	-0,090
-610,474	-200,000	0,009	0,051
-609,459	65,681	0,086	0,065
-608,444	-100,759	-0,060	-0,011
-607,430	136,619	0,045	-0,044
-606,415	26,922	-0,044	0,028
-605,401	-34,349	-0,078	0,032
-604,386	-152,862	0,113	-0,006
-603,371	-122,162	0,029	0,003
-602,357	-93,871	0,035	0,007
-601,342	369,965	0,054	-0,081
-600,328	349,436	-0,109	0,160
-599,313	-200,000	0,034	-0,126
-598,298	-67,502	0,080	-0,023
-597,284	294,360	0,051	0,069
-596,269	-200,000	0,003	-0,042
-595,255	800,000	0,075	0,185
-594,240	800,000	-0,037	-0,083
-593,225	-82,599	0,040	0,010
-592,211	-200,000	-0,002	-0,139
-591,196	-30,423	0,094	0,039
-590,182	-16,642	0,087	-0,041
-589,167	696,065	0,103	0,202
-588,152	800,000	-0,066	0,175
-587,138	-200,000	-0,025	0,102
-586,123	-200,000	0,000	0,022
-585,109	-27,889	-0,201	0,086
-584,094	368,985	0,081	-0,121
-583,079	348,043	0,098	-0,143
-582,065	559,921	0,028	0,049
-581,050	76,331	0,041	-0,032
-580,036	-36,173	-0,026	0,010
-579,021	-200,000	0,003	-0,045
-578,006	800,000	0,037	-0,086
-576,992	538,489	-0,089	-0,158
-575,977	434,690	0,027	0,044
-574,963	189,506	0,104	0,116
-573,948	107,820	-0,016	0,014
-572,934	-200,000	0,004	-0,091
-571,919	11,436	0,163	-0,092
-570,904	118,691	-0,120	-0,110
-569,890	215,418	0,066	-0,078
-568,875	41,287	0,082	-0,055
-567,861	-200,000	0,016	-0,102
-566,846	38,234	0,068	0,045
-565,831	-46,797	0,045	0,016
-564,817	-74,580	-0,099	0,026
-563,802	164,451	0,081	-0,085
-562,788	84,937	-0,108	0,088
-561,773	-198,580	0,083	-0,000
-560,758	140,126	0,075	0,073
-559,744	292,114	-0,039	-0,053
-558,729	12,022	-0,092	-0,052
-557,715	-200,000	0,005	0,024
-556,700	14,461	-0,128	0,074
-555,685	-65,280	-0,114	0,034
-554,671	12,790	-0,091	0,052
-553,656	-132,026	-0,037	0,004
-552,642	800,000	-0,037	-0,101
-551,627	800,000	-0,044	-0,099
-550,612	112,186	-0,017	0,015
-549,598	-98,731	-0,024	0,004
-548,583	-77,130	0,053	0,013
-547,569	-10,594	-0,087	-0,043
-546,554	-162,534	0,103	-0,004
-545,539	-142,204	0,039	-0,003
-544,525	-200,000	-0,031	0,124
-543,510	-26,421	0,084	-0,036
-542,496	1,373	-0,117	0,062
-541,481	-200,000	-0,020	-0,197
-540,466	-88,655	-0,026	-0,006
-539,452	200,022	0,063	0,072
-538,437	307,891	-0,095	0,131
-537,423	407,378	-0,045	-0,070
-536,408	-200,000	-0,007	-0,058
-535,393	319,608	0,032	-0,045
-534,379	18,623	0,020	0,012
-533,364	683,213	0,061	0,119
-532,350	-113,858	0,046	-0,007
-531,335	611,198	-0,036	0,067
-530,321	800,000	-0,050	0,117
-529,306	-200,000	0,011	-0,133
-528,291	-200,000	0,027	-0,188
-527,277	-200,000	-0,022	-0,074
-526,262	800,000	-0,059	-0,124
-525,248	-200,000	0,043	-0,147
-524,233	-200,000	-0,055	0,195
-523,218	-200,000	-0,005	-0,078
-522,204	95,013	0,065	0,054
-521,189	387,513	0,029	-0,044
-520,175	551,575	0,049	-0,088
-519,160	-69,594	-0,085	0,024
-518,145	800,000	-0,034	-0,071
-517,131	-165,377	-0,065	-0,002
-516,116	-200,000	-0,018	-0,109
-515,102	-125,097	0,058	-0,006
-514,087	-31,048	0,059	-0,024
-513,072	800,000	0,029	-0,088
-512,058	119,177	-0,121	-0,110
-511,043	72,597	-0,065	0,050
-510,029	748,828	0,010	0,020
-509,014	370,865	0,053	0,080
-507,999	-200,000	0,024	0,098
-506,985	-17,621	-0,118	-0,055
-505,970	-200,000	0,030	-0,159
-504,956	288,705	0,056	-0,075
-503,941	-158,853	-0,034	0,001
-502,926	509,284	0,034	0,059
-501,912	61,784	0,137	0,100
-500,897	299,403	0,016	-0,022
-499,883	23,928	-0,066	0,040
-498,868	-52,595	-0,136	-0,046
-497,853	-18,411	-0,100	0,046
-496,839	-76,269	0,144	0,037
-495,824	-200,000	0,020	-0,163
-494,810	800,000	0,043	0,104
-493,795	-61,655	0,024	-0,007
-492,781	-62,288	-0,078	-0,024
-491,766	800,000	0,019	0,055
-490,751	-200,000	-0,048	-0,160
-489,737	-98,903	0,103	0,019
-488,722	800,000	-0,035	0,075
-487,708	487,491	0,027	-0,046
-486,693	800,000	0,017	-0,046
-485,678	118,802	-0,065	0,060
-484,664	732,567	-0,033	0,065
-483,649	-4,147	-0,166	0,084
-482,635	382,936	0,030	-0,046
-481,620	14,314	-0,070	-0,040
-480,605	169,829	0,084	-0,089
-479,591	-56,011	0,024	-0,008
-478,576	-103,919	-0,034	0,006
-477,562	-75,201	0,045	0,012
-476,547	-61,149	-0,108	-0,033
-475,532	800,000	-0,042	-0,089
-474,518	21,721	-0,058	-0,035
-473,503	-200,000	0,011	0,160
-472,489	35,990	0,074	0,048
-471,474	-200,000	-0,021	-0,089
-470,459	-27,704	0,053	-0,023
-469,445	227,759	-0,045	0,054
-468,430	107,002	-0,038	-0,033
-467,416	-200,000	0,023	-0,075
-466,401	-136,213	0,128	0,011
-465,386	216,339	0,049	0,057
-464,372	-23,918	0,144	-0,063
-463,357	570,467	0,016	0,028
-462,343	386,418	-0,040	0,060
-461,328	-65,075	-0,087	-0,026
-460,313	82,223	0,024	0,019
-459,299	37,820	0,063	0,041
-458,284	-200,000	-0,004	0,071
-457,270	-55,752	0,059	0,019
-456,255	-200,000	-0,098	-0,000
-455,241	250,268	0,125	-0,157
-454,226	326,983	-0,070	-0,099
-453,211	-200,000	0,005	0,037
-452,197	63,154	0,095	0,070
-451,182	-200,000	0,003	0,055
-450,168	176,372	0,092	0,099
-449,153	800,000	-0,019	-0,047
-448,138	-14,143	-0,097	-0,046
-447,124	-120,626	0,087	-0,011
-446,109	-58,515	-0,149	0,047
-445,095	108,988	-0,055	-0,048
-444,080	800,000	0,008	0,021
-443,065	417,139	-0,027	-0,042
-442,051	372,143	-0,022	-0,032
-441,036	189,408	-0,122	-0,134
-440,022	800,000	-0,017	-0,039
-439,007	-42,932	0,076	0,028
-437,992	184,391	0,114	0,124
-436,978	-200,000	-0,016	-0,144
-435,963	-16,372	-0,053	0,025
-434,949	-200,000	0,006	0,067
-433,934	-200,000	-0,005	-0,037
-432,919	-200,000	-0,027	-0,117
-431,905	266,197	-0,053	0,068
-430,890	-108,185	0,042	-0,007
-429,876	601,727	-0,028	0,051
-428,861	355,297	0,033	-0,049
-427,846	-200,000	0,011	-0,162
-426,832	212,984	-0,056	-0,066
-425,817	-111,282	0,032	0,005
-424,803	141,620	-0,072	-0,071
-423,788	735,245	0,006	0,012
-422,773	-200,000	0,004	0,063
-421,759	-29,606	0,106	0,044
-420,744	-46,646	-0,056	0,020
-419,730	800,000	-0,059	-0,151
-418,715	800,000	0,013	-0,043
-417,701	-200,000	0,031	0,124
-416,686	-200,000	-0,000	-0,003
-415,671	-93,585	-0,092	-0,019
-414,657	286,433	0,050	0,066
-413,642	21,942	-0,050	0,030
-412,628	471,070	-0,067	0,112
-411,613	528,778	0,016	0,028
-410,598	239,779	-0,143	-0,176
-409,584	-115,509	0,055	-0,007
-408,569	-78,654	0,060	-0,015
-407,555	11,635	-0,023	0,013
-406,540	77,309	0,127	0,099
-405,525	191,251	-0,064	0,070
-404,511	800,000	-0,025	-0,076
-403,496	278,483	-0,042	-0,055
-402,482	-200,000	-0,018	0,139
-401,467	63,703	0,016	0,012
-400,452	454,006	-0,085	0,139
-399,438	207,691	-0,112	0,128
-398,423	503,655	0,042	-0,072
-397,409	-2,940	0,059	0,030
-396,394	-131,599	0,104	0,010
-395,379	202,568	0,115	0,131
-394,365	378,502	0,028	0,042
-393,350	-59,813	0,049	0,015
-392,336	-200,000	-0,018	-0,084
-391,321	24,530	-0,050	-0,030
-390,306	141,648	0,052	-0,050
-389,292	-164,708	-0,086	0,003
-388,277	412,554	-0,065	-0,102
-387,263	-96,953	-0,053	-0,010
-386,248	129,920	-0,095	-0,090
-385,233	800,000	-0,056	0,144
-384,219	344,091	0,007	-0,010
-383,204	-120,227	0,176	0,022
-382,190	-200,000	-0,001	-0,038
-381,175	-35,434	0,042	-0,017
-380,160	101,056	-0,113	-0,097
-379,146	506,095	0,018	-0,031
-378,131	47,660	0,102	0,070
-377,117	-200,000	-0,030	0,119
-376,102	-110,078	-0,097	-0,015
-375,088	800,000	-0,020	0,061
-374,073	225,575	0,130	0,155
-373,058	-200,000	0,030	0,100
-372,044	-19,772	0,070	-0,032
-371,029	56,273	0,080	-0,057
-370,015	-12,763	0,101	0,048
-369,000	-200,000	-0,002	0,052
-367,985	114,504	-0,067	-0,060
-366,971	-34,088	0,078	0,031
-365,956	800,000	0,014	0,040
-364,942	154,641	0,059	-0,060
-363,927	46,062	0,064	-0,043
-362,912	54,941	-0,047	-0,033
-361,898	-12,450	0,081	-0,039
-360,883	346,808	0,028	0,040
-359,869	26,160	-0,080	-0,049
-358,854	139,385	-0,080	-0,078
-357,839	-13,562	0,100	0,047
-356,825	90,419	0,027	0,022
-355,810	-3,024	-0,054	-0,027
-354,796	-118,697	-0,115	0,015
-353,781	-47,264	-0,044	0,016
-352,766	800,000	0,026	-0,080
-351,752	562,349	0,027	0,048
-350,737	-200,000	-0,015	-0,057
-349,723	800,000	-0,054	0,149
-348,708	118,724	0,051	0,046
-347,693	800,000	0,044	-0,094
-346,679	203,573	-0,050	0,057
-345,664	800,000	-0,022	-0,066
-344,650	-50,629	0,047	0,016
-343,635	87,218	-0,056	0,045
-342,620	-200,000	0,008	0,170
-341,606	800,000	0,029	0,086
-340,591	-88,461	-0,160	-0,035
-339,577	59,841	0,090	-0,065
-338,562	800,000	0,046	-0,100
-337,548	170,260	0,057	-0,060
-336,533	800,000	0,045	0,108
-335,518	278,895	-0,060	0,079
-334,504	776,108	-0,007	0,014
-333,489	-39,314	-0,163	0,062
-332,475	-200,000	-0,014	-0,083
-331,460	800,000	-0,051	-0,145
-330,445	87,378	0,033	0,027
-329,431	3,918	-0,163	-0,087
-328,416	800,000	0,026	0,075
-327,402	800,000	-0,020	0,065
-326,387	112,804	-0,049	-0,044
-325,372	643,537	0,017	-0,031
-324,358	-200,000	-0,003	-0,084
-323,343	-192,267	-0,127	0,001
-322,329	-200,000	-0,011	-0,047
-321,314	362,484	-0,033	0,048
-320,299	104,384	0,083	0,071
-319,285	-124,944	0,133	0,015
-318,270	800,000	-0,033	0,099
-317,256	-53,416	0,040	0,013
-316,241	800,000	0,006	0,020
-315,226	-65,987	0,207	-0,060
-314,212	296,589	0,082	-0,110
-313,197	130,019	0,058	0,055
-312,183	283,708	0,052	0,069
-311,168	-118,036	-0,179	-0,023
-310,153	-200,000	0,006	-0,121
-309,139	-200,000	-0,012	-0,143
-308,124	-200,000	-0,057	0,000
-307,110	-173,056	0,030	-0,001
-306,095	-95,801	0,127	-0,025
-305,080	169,797	0,042	0,044
-304,066	-1,591	-0,032	0,017
-303,051	19,483	-0,008	0,005
-302,037	32,625	0,087	0,055
-301,022	101,951	-0,083	0,071
-300,008	206,013	-0,083	0,095
-298,993	-98,271	-0,048	-0,009
-297,978	101,391	0,021	-0,018
-296,964	259,408	0,039	0,049
-295,949	-141,376	-0,112	-0,008
-294,935	208,541	-0,035	0,040
-293,920	420,939	-0,110	-0,174
-292,905	336,137	0,062	0,089
-291,891	-200,000	0,009	0,032
-290,876	117,269	-0,063	-0,057
-289,862	-95,467	0,059	-0,011
-288,847	-200,000	0,012	0,077
-287,832	102,300	-0,101	-0,086
-286,818	800,000	-0,015	-0,039
-285,803	109,477	0,086	-0,075
-284,789	-148,390	0,152	-0,009
-283,774	-200,000	0,005	0,074
-282,759	800,000	-0,009	0,027
-281,745	112,738	-0,058	-0,051
-280,730	-200,000	-0,007	-0,128
-279,716	-150,724	0,092	0,005
-278,701	142,465	-0,037	-0,036
-277,686	-200,000	0,023	0,093
-276,672	359,605	0,060	0,088
-275,657	-200,000	0,015	-0,101
-274,643	-51,211	0,076	-0,026
-273,628	-200,000	-0,005	0,022
-272,613	-106,338	-0,155	0,025
-271,599	-200,000	0,025	0,117
-270,584	107,627	-0,026	0,022
-269,570	-200,000	0,007	-0,023
-268,555	-27,269	-0,036	-0,015
-267,540	800,000	0,009	-0,027
-266,526	125,872	-0,091	-0,084
-265,511	800,000	-0,049	0,100
-264,497	188,003	0,094	0,102
-263,482	-200,000	-0,022	0,084
-262,467	-38,364	-0,107	0,041
-261,453	-53,274	0,094	-0,031
-260,438	-67,577	-0,101	0,029
-259,424	-12,295	0,027	-0,013
-258,409	-64,552	-0,007	-0,002
-257,395	-200,000	0,016	0,105
-256,380	800,000	0,034	0,071
-255,365	242,119	-0,030	-0,037
-254,351	800,000	0,029	-0,060
-253,336	274,855	-0,085	0,111
-252,322	-200,000	0,001	-0,141
-251,307	-99,668	0,091	-0,017
-250,292	255,358	0,035	0,044
-249,278	35,539	0,061	0,039
-248,263	-65,714	0,104	0,030
-247,249	-47,175	-0,030	0,011
-246,234	34,777	-0,010	-0,006
-245,219	7,809	0,030	-0,016
-244,205	-124,588	0,053	0,006
-243,190	221,253	-0,042	0,050
-242,176	-200,000	0,013	0,155
-241,161	117,382	-0,077	0,069
-240,146	92,142	-0,095	-0,078
-239,132	-200,000	0,014	0,079
-238,117	-27,475	-0,044	-0,019
-237,103	-94,054	-0,171	-0,034
-236,088	-173,774	0,010	0,000
-235,073	-99,965	-0,114	-0,021
-234,059	-95,414	0,024	-0,005
-233,044	-69,451	0,112	0,031
-232,030	-43,156	0,015	0,006
-231,015	104,094	-0,018	0,016
-230,000	-67,951	-0,044	0,013
-228,986	283,124	0,093	-0,122
-227,971	-38,269	-0,096	0,037
-226,957	-200,000	0,014	0,095
-225,942	19,581	0,132	0,077
-224,927	-43,037	0,125	-0,046
-223,913	-200,000	0,033	0,133
-222,898	800,000	0,044	0,126
-221,884	476,142	-0,053	-0,087
-220,869	-28,545	0,048	-0,020
-219,855	800,000	0,005	0,012
-218,840	27,012	0,073	0,045
-217,825	-200,000	-0,001	-0,135
-216,811	-200,000	0,013	-0,054
-215,796	-51,933	-0,074	-0,025
-214,782	-11,675	-0,072	-0,034
-213,767	-200,000	0,003	-0,059
-212,752	61,666	0,094	-0,068
-211,738	-21,416	0,134	0,059
-210,723	42,908	-0,096	-0,064
-209,709	118,506	-0,031	-0,028
-208,694	-200,000	-0,024	-0,207
-207,679	-158,235	-0,067	0,003
-206,665	-200,000	0,009	-0,100
-205,650	-185,015	-0,058	0,001
-204,636	-200,000	0,017	0,124
-203,621	61,036	0,065	0,047
-202,606	513,069	0,070	0,119
-201,592	800,000	0,063	-0,132
-200,577	240,949	0,071	0,087
-199,563	-200,000	0,022	0,072
-198,548	800,000	0,024	0,062
-197,533	89,788	0,077	-0,063
-196,519	79,439	-0,029	-0,023
-195,504	-148,444	-0,136	0,008
-194,490	-103,026	-0,097	-0,017
-193,475	467,400	-0,085	0,139
-192,460	-86,704	0,154	0,034
-191,446	343,816	-0,057	0,082
-190,431	-200,000	0,031	0,138
-189,417	-200,000	0,049	0,164
-188,402	116,334	0,006	-0,005
-187,387	59,686	0,089	0,064
-186,373	63,989	-0,144	-0,105
-185,358	42,601	0,189	0,125
-184,344	264,788	0,090	0,114
-183,329	-200,000	0,013	0,044
-182,315	125,263	-0,057	0,052
-181,300	512,854	-0,064	0,109
-180,285	-200,000	-0,003	-0,059
-179,271	800,000	-0,051	-0,109
-178,256	-74,357	-0,087	-0,023
-177,242	93,926	0,141	0,116
-176,227	-200,000	-0,002	-0,032
-175,212	17,803	-0,046	0,026
-174,198	591,676	0,032	-0,057
-173,183	-12,940	0,132	-0,063
-172,169	800,000	0,065	-0,132
-171,154	-200,000	-0,010	-0,049
-170,139	76,612	-0,026	0,020
-169,125	153,755	0,059	-0,059
-168,110	766,568	0,103	0,205
-167,096	-166,650	-0,095	-0,003
-166,081	50,432	-0,061	0,042
-165,066	800,000	0,011	0,023
-164,052	677,819	-0,033	0,062
-163,037	-26,994	0,069	0,029
-162,023	-155,157	-0,143	-0,007
-161,008	-75,093	0,049	-0,013
-159,993	249,949	0,057	0,071
-158,979	-200,000	0,029	-0,155
-157,964	209,059	-0,054	-0,062
-156,950	-69,313	0,035	0,010
-155,935	-160,161	0,028	-0,001
-154,920	800,000	0,026	-0,056
-153,906	-200,000	0,017	0,117
-152,891	800,000	0,044	0,101
-151,877	-200,000	0,006	0,031
-150,862	41,495	-0,099	-0,065
-149,847	-200,000	0,021	0,085
-148,833	800,000	-0,031	0,081
-147,818	71,938	-0,079	0,059
-146,804	-76,079	0,012	0,003
-145,789	165,943	0,056	-0,058
-144,775	-38,188	-0,049	-0,019
-143,760	-155,640	-0,075	0,003
-142,745	-200,000	0,006	-0,063
-141,731	140,293	-0,069	0,067
-140,716	800,000	-0,005	-0,015
-139,702	487,742	0,076	0,127
-138,687	-29,598	-0,093	0,039
-137,672	800,000	-0,039	0,099
-136,658	-200,000	-0,039	-0,128
-135,643	-9,564	0,066	0,032
-134,629	-145,479	0,057	0,004
-133,614	-88,522	-0,024	-0,005
-132,599	230,878	0,071	0,084
-131,585	800,000	0,076	0,163
-130,570	800,000	-0,035	0,080
-129,556	147,266	-0,081	0,080
-128,541	172,756	0,097	-0,102
-127,526	-18,705	-0,085	0,038
-126,512	-200,000	-0,029	-0,168
-125,497	800,000	-0,044	0,105
-124,483	188,185	0,103	0,112
-123,468	76,593	-0,071	0,055
-122,453	130,591	0,065	-0,060
-121,439	200,050	-0,055	-0,061
-120,424	62,401	0,049	-0,035
-119,410	74,526	0,086	-0,066
