DTS Sentinel unit serial number:	SN410029Multiplexer serial number:	ORYXHardware model number:	OX2-SRSoftware version number:	ORYX F/W v4,00 Oryx Data Collector v3.7.2.0data status	okinstallation	B4 Nyhavnadifferential loss correction	single-endedforward channel	channel 2reverse channel	N/Adate	2023/12/16time	07:10:13forward acquisition time	300,00reverse acquisition time	0,00gamma	499,1914k internal	0,3127k external	0,3127temperature offset calibration	1,0000default loss term (dB/km)	0,3820temperature slope calibration	1,0000multiplexer offset coefficient	1,0000multiplexer slope coefficient	1,0000fibre end	0,00T internal ref (°C)	22,33T ext. ref 1 (°C)	7,52T ext. ref 2 (°C)	7,73length (m)	temperature (°C)	Stokes	anti-Stokes-744,400	184,250	0,093	-0,103
-743,385	-110,315	-0,112	0,017
-742,371	-200,000	-0,013	0,214
-741,356	9,857	-0,237	0,134
-740,342	379,014	0,051	-0,078
-739,327	-53,250	-0,299	0,101
-738,312	385,941	-0,027	0,042
-737,298	5,983	-0,129	0,071
-736,283	-50,568	0,131	0,046
-735,269	800,000	-0,080	0,187
-734,254	-87,484	0,055	0,012
-733,239	-123,740	-0,402	-0,047
-732,225	-98,042	0,119	-0,023
-731,210	-95,805	-0,168	0,033
-730,196	800,000	-0,046	0,118
-729,181	-122,974	0,044	0,005
-728,167	-53,065	0,100	0,034
-727,152	-32,459	0,056	-0,023
-726,137	-79,625	-0,087	-0,022
-725,123	731,353	-0,048	-0,095
-724,108	40,311	-0,053	-0,035
-723,094	437,594	-0,022	0,037
-722,079	155,311	0,082	-0,085
-721,064	-200,000	-0,011	-0,065
-720,050	200,479	0,071	-0,082
-719,035	-33,347	-0,102	0,042
-718,021	20,671	-0,101	-0,060
-717,006	47,133	-0,065	-0,045
-715,991	99,887	0,079	-0,068
-714,977	-200,000	0,059	-0,195
-713,962	169,208	-0,086	-0,092
-712,948	-200,000	0,017	-0,163
-711,933	800,000	-0,033	-0,084
-710,918	-200,000	-0,007	0,026
-709,904	-23,852	0,106	-0,047
-708,889	-200,000	0,006	0,047
-707,875	-52,297	-0,103	-0,035
-706,860	-200,000	-0,002	-0,020
-705,845	752,084	-0,014	0,029
-704,831	-200,000	-0,016	-0,057
-703,816	30,694	0,091	-0,058
-702,802	-74,846	0,061	-0,016
-701,787	89,485	-0,081	-0,067
-700,772	-21,600	-0,116	-0,052
-699,758	-77,492	0,045	-0,012
-698,743	-200,000	0,038	0,154
-697,729	90,953	-0,027	-0,022
-696,714	-200,000	-0,027	0,121
-695,699	800,000	-0,017	0,057
-694,685	-11,632	-0,069	0,034
-693,670	-200,000	-0,006	0,072
-692,656	-86,992	-0,123	0,028
-691,641	-63,749	0,050	-0,015
-690,627	-114,739	0,131	0,018
-689,612	55,800	-0,066	-0,047
-688,597	1,066	0,030	-0,016
-687,583	274,067	-0,046	0,060
-686,568	-174,186	0,051	0,001
-685,554	-200,000	-0,002	-0,039
-684,539	-54,115	0,092	0,031
-683,524	-200,000	0,024	0,099
-682,510	-200,000	0,001	-0,092
-681,495	-200,000	-0,034	-0,135
-680,481	-69,640	-0,081	0,023
-679,466	-200,000	-0,007	-0,073
-678,451	37,881	-0,062	0,041
-677,437	800,000	-0,079	0,176
-676,422	793,564	-0,047	0,097
-675,408	371,052	-0,063	-0,096
-674,393	-200,000	0,022	-0,149
-673,378	269,156	-0,051	-0,066
-672,364	51,929	-0,047	0,033
-671,349	145,086	0,039	-0,039
-670,335	19,394	-0,061	-0,036
-669,320	-200,000	-0,004	-0,072
-668,305	800,000	-0,038	-0,098
-667,291	141,601	0,068	-0,067
-666,276	191,394	-0,022	0,025
-665,262	185,995	-0,032	-0,035
-664,247	40,993	-0,037	0,025
-663,232	-47,558	0,037	0,013
-662,218	451,603	0,030	-0,049
-661,203	88,828	-0,045	0,037
-660,189	-30,146	0,054	0,023
-659,174	51,161	-0,110	-0,077
-658,159	-66,172	0,093	-0,027
-657,145	-138,326	-0,036	-0,003
-656,130	31,184	0,145	0,092
-655,116	800,000	-0,055	-0,144
-654,101	-177,918	0,156	-0,003
-653,086	-200,000	0,023	-0,123
-652,072	-114,402	-0,083	-0,012
-651,057	-42,658	-0,048	0,018
-650,043	10,000	-0,049	-0,027
-649,028	800,000	0,030	-0,072
-648,014	-200,000	-0,009	-0,066
-646,999	-200,000	-0,023	-0,077
-645,984	-35,256	0,008	-0,003
-644,970	113,642	-0,042	-0,038
-643,955	16,988	0,138	-0,081
-642,941	-33,901	-0,086	-0,035
-641,926	193,550	-0,084	0,095
-640,911	55,106	-0,050	-0,036
-639,897	-200,000	-0,017	0,091
-638,882	-81,563	0,119	0,029
-637,868	-200,000	-0,019	-0,150
-636,853	-73,666	-0,093	-0,025
-635,838	-200,000	0,002	0,045
-634,824	354,315	-0,025	0,037
-633,809	599,421	-0,068	0,125
-632,795	-200,000	0,026	0,090
-631,780	-114,675	0,141	-0,020
-630,765	314,287	-0,074	0,104
-629,751	24,480	-0,080	0,049
-628,736	244,846	0,092	-0,115
-627,722	8,104	-0,037	0,021
-626,707	-200,000	0,003	-0,016
-625,692	-86,438	0,076	0,017
-624,678	-200,000	0,014	0,144
-623,663	-200,000	-0,039	0,133
-622,649	-98,880	-0,041	0,008
-621,634	26,645	-0,144	0,089
-620,619	-31,293	-0,067	-0,028
-619,605	322,995	0,077	-0,109
-618,590	800,000	-0,034	-0,069
-617,576	-5,755	-0,063	0,032
-616,561	-200,000	-0,004	0,030
-615,546	-200,000	-0,004	0,035
-614,532	-200,000	-0,010	-0,160
-613,517	800,000	0,047	-0,122
-612,503	-182,244	0,150	-0,002
-611,488	-130,440	0,081	0,008
-610,474	-166,265	0,159	0,005
-609,459	176,235	-0,045	0,048
-608,444	-200,000	0,001	-0,114
-607,430	-94,078	0,071	-0,014
-606,415	183,841	0,023	-0,025
-605,401	323,388	-0,036	0,051
-604,386	129,340	0,140	-0,133
-603,371	141,762	-0,102	0,100
-602,357	-200,000	-0,001	-0,074
-601,342	800,000	-0,016	-0,037
-600,328	382,143	0,015	-0,023
-599,313	443,989	0,032	-0,052
-598,298	800,000	-0,043	-0,112
-597,284	-59,850	-0,043	-0,014
-596,269	-25,421	0,132	-0,057
-595,255	345,425	0,064	0,093
-594,240	31,320	-0,150	-0,095
-593,225	-135,848	-0,104	-0,009
-592,211	-45,502	-0,056	-0,021
-591,196	20,615	-0,033	0,020
-590,182	800,000	0,022	-0,049
-589,167	-52,051	0,078	-0,027
-588,152	211,751	-0,061	0,071
-587,138	800,000	-0,024	0,075
-586,123	-200,000	0,003	-0,115
-585,109	-113,955	-0,098	0,014
-584,094	326,222	0,059	-0,085
-583,079	346,595	0,042	0,061
-582,065	800,000	0,041	0,094
-581,050	-56,911	0,032	0,010
-580,036	-200,000	0,001	-0,062
-579,021	800,000	-0,062	0,130
-578,006	-83,100	0,043	0,010
-576,992	712,325	0,008	-0,016
-575,977	-200,000	-0,001	0,031
-574,963	-200,000	-0,018	0,111
-573,948	195,523	-0,066	0,074
-572,934	-124,930	0,070	-0,008
-571,919	-200,000	-0,005	0,091
-570,904	235,472	-0,116	-0,142
-569,890	-200,000	0,045	-0,186
-568,875	-155,088	-0,059	-0,003
-567,861	800,000	0,067	0,151
-566,846	-200,000	0,016	0,096
-565,831	-200,000	-0,004	-0,054
-564,817	-94,318	-0,062	0,012
-563,802	800,000	-0,036	0,104
-562,788	346,147	0,014	0,021
-561,773	135,080	-0,053	-0,051
-560,758	-41,248	0,124	0,047
-559,744	764,753	-0,017	-0,034
-558,729	7,145	-0,020	0,011
-557,715	55,890	0,118	-0,084
-556,700	56,233	-0,095	-0,068
-555,685	25,247	-0,103	-0,063
-554,671	-200,000	-0,014	-0,071
-553,656	463,475	0,057	0,095
-552,642	160,723	-0,121	0,125
-551,627	-200,000	-0,035	0,181
-550,612	-143,009	0,136	0,010
-549,598	800,000	0,024	0,063
-548,583	-175,707	-0,044	0,001
-547,569	-200,000	0,033	0,121
-546,554	-165,317	0,190	-0,006
-545,539	109,883	-0,098	0,087
-544,525	-200,000	-0,010	-0,085
-543,510	800,000	0,036	-0,099
-542,496	-20,334	-0,106	0,048
-541,481	-72,118	0,115	0,031
-540,466	-19,147	-0,147	-0,067
-539,452	-200,000	0,020	-0,082
-538,437	-200,000	0,012	0,060
-537,423	800,000	-0,016	0,038
-536,408	-114,701	0,037	-0,005
-535,393	-200,000	-0,035	0,186
-534,379	133,589	-0,113	0,108
-533,364	-117,373	-0,120	0,016
-532,350	40,037	-0,104	-0,069
-531,335	723,726	0,062	0,122
-530,321	800,000	0,045	0,105
-529,306	800,000	0,008	-0,025
-528,291	-63,194	0,142	-0,043
-527,277	282,177	0,084	0,111
-526,262	800,000	0,024	-0,059
-525,248	-47,349	0,063	-0,023
-524,233	800,000	-0,013	0,031
-523,218	800,000	-0,035	-0,076
-522,204	-200,000	0,018	0,067
-521,189	-183,606	0,015	-0,000
-520,175	-79,926	-0,105	-0,026
-519,160	713,998	-0,046	0,090
-518,145	-200,000	-0,009	0,183
-517,131	-114,518	0,079	0,011
-516,116	800,000	-0,037	0,100
-515,102	800,000	0,027	0,084
-514,087	800,000	-0,074	-0,174
-513,072	800,000	-0,017	-0,048
-512,058	150,679	0,109	0,110
-511,043	-200,000	-0,017	0,113
-510,029	230,314	0,095	-0,115
-509,014	91,271	-0,025	-0,020
-507,999	-119,429	0,077	0,010
-506,985	-55,565	-0,134	0,044
-505,970	-200,000	-0,014	-0,093
-504,956	11,007	0,026	-0,015
-503,941	-11,410	0,035	0,017
-502,926	-33,281	0,125	0,051
-501,912	800,000	-0,025	0,064
-500,897	800,000	0,050	-0,128
-499,883	59,551	-0,073	-0,053
-498,868	-143,336	-0,061	0,004
-497,853	310,870	0,010	-0,014
-496,839	-200,000	0,008	-0,108
-495,824	-73,200	0,058	0,016
-494,810	419,794	-0,088	-0,140
-493,795	507,574	0,062	0,107
-492,781	-200,000	0,012	-0,086
-491,766	-41,359	-0,135	-0,051
-490,751	-200,000	0,009	-0,057
-489,737	97,764	0,073	-0,062
-488,722	-63,325	0,188	-0,057
-487,708	800,000	0,021	0,056
-486,693	12,562	-0,131	0,074
-485,678	-59,215	0,085	-0,027
-484,664	800,000	-0,054	-0,158
-483,649	-109,653	-0,133	-0,020
-482,635	800,000	0,075	-0,185
-481,620	-143,039	0,023	0,002
-480,605	800,000	-0,045	0,140
-479,591	-112,409	0,087	-0,013
-478,576	380,203	-0,006	0,008
-477,562	-17,046	0,076	0,035
-476,547	230,091	-0,026	-0,031
-475,532	-91,896	-0,072	-0,015
-474,518	-200,000	-0,012	0,123
-473,503	-66,552	0,129	-0,037
-472,489	800,000	-0,054	0,140
-471,474	-200,000	-0,007	-0,072
-470,459	-200,000	0,020	-0,103
-469,445	-200,000	0,015	-0,079
-468,430	148,077	0,062	-0,062
-467,416	800,000	0,039	-0,099
-466,401	44,280	0,118	0,080
-465,386	367,811	-0,028	-0,042
-464,372	-200,000	0,003	-0,019
-463,357	-30,611	-0,076	-0,032
-462,343	-58,906	-0,052	-0,017
-461,328	-27,086	-0,107	-0,046
-460,313	-48,984	0,052	-0,018
-459,299	-200,000	-0,020	0,079
-458,284	-75,014	-0,028	0,007
-457,270	497,086	-0,027	-0,046
-456,255	-1,714	0,037	0,019
-455,241	800,000	0,035	-0,071
-454,226	-200,000	-0,020	-0,082
-453,211	-159,601	-0,140	-0,006
-452,197	800,000	-0,019	0,042
-451,182	-128,767	0,167	0,017
-450,168	800,000	-0,023	0,047
-449,153	-64,483	-0,097	0,029
-448,138	-109,223	-0,129	0,020
-447,124	800,000	-0,092	-0,205
-446,109	-141,233	0,036	-0,003
-445,095	14,803	0,056	-0,032
-444,080	800,000	-0,061	-0,132
-443,065	168,465	0,069	0,072
-442,051	545,100	0,050	0,087
-441,036	-116,972	0,006	-0,001
-440,022	-61,653	0,124	-0,038
-439,007	-200,000	0,016	-0,091
-437,992	148,530	-0,091	0,090
-436,978	70,616	-0,068	-0,052
-435,963	135,850	-0,023	0,022
-434,949	-138,590	-0,168	0,013
-433,934	-60,912	0,032	-0,010
-432,919	-71,028	0,043	-0,012
-431,905	-87,909	0,061	-0,013
-430,890	303,076	-0,032	0,044
-429,876	24,488	0,060	0,036
-428,861	-62,304	0,176	0,053
-427,846	-200,000	0,010	-0,048
-426,832	-115,139	0,036	-0,005
-425,817	-200,000	-0,002	0,045
-424,803	16,294	0,162	-0,094
-423,788	800,000	-0,040	0,109
-422,773	-10,887	0,093	0,045
-421,759	-127,927	-0,043	-0,005
-420,744	185,352	-0,085	-0,092
-419,730	800,000	-0,032	0,070
-418,715	46,660	-0,113	0,077
-417,701	-200,000	-0,017	0,108
-416,686	800,000	-0,008	0,018
-415,671	453,147	-0,060	0,098
-414,657	742,447	0,054	-0,107
-413,642	-16,823	0,040	-0,019
-412,628	-200,000	0,022	0,151
-411,613	-64,088	-0,056	0,017
-410,598	-10,296	0,075	-0,036
-409,584	800,000	0,026	-0,055
-408,569	-200,000	-0,008	-0,079
-407,555	-119,180	0,120	0,015
-406,540	-200,000	0,044	0,166
-405,525	133,828	-0,145	-0,138
-404,511	438,939	-0,027	-0,043
-403,496	-200,000	-0,015	-0,140
-402,482	-91,950	0,113	0,023
-401,467	193,005	0,045	0,050
-400,452	-200,000	0,039	-0,212
-399,438	-200,000	-0,003	0,033
-398,423	24,768	0,051	0,031
-397,409	-200,000	-0,022	-0,096
-396,394	-200,000	0,016	-0,089
-395,379	-100,242	0,086	0,016
-394,365	156,936	-0,032	-0,032
-393,350	-200,000	0,010	-0,035
-392,336	800,000	-0,031	0,099
-391,321	-200,000	0,008	-0,069
-390,306	800,000	-0,021	-0,047
-389,292	-200,000	-0,017	0,077
-388,277	643,754	-0,060	0,112
-387,263	-200,000	-0,016	0,130
-386,248	71,278	-0,151	0,115
-385,233	-200,000	0,002	-0,017
-384,219	35,321	0,010	0,006
-383,204	205,327	-0,129	-0,147
-382,190	-20,001	0,088	-0,040
-381,175	-122,552	-0,113	-0,013
-380,160	302,732	0,036	0,050
-379,146	52,079	-0,087	0,061
-378,131	-200,000	-0,020	0,080
-377,117	-200,000	0,014	0,062
-376,102	-103,583	-0,039	0,007
-375,088	-200,000	-0,005	-0,074
-374,073	-168,479	-0,165	-0,005
-373,058	-200,000	0,004	0,088
-372,044	12,311	-0,119	0,067
-371,029	431,524	0,018	0,029
-370,015	4,260	0,103	-0,055
-369,000	-200,000	0,002	-0,021
-367,985	800,000	-0,044	-0,126
-366,971	800,000	0,036	-0,097
-365,956	-171,926	0,097	-0,002
-364,942	170,629	-0,017	0,018
-363,927	-70,358	0,058	-0,016
-362,912	-185,934	0,089	-0,001
-361,898	170,807	-0,115	-0,121
-360,883	-140,406	-0,025	0,002
-359,869	800,000	0,007	-0,016
-358,854	-200,000	-0,033	0,121
-357,839	150,431	-0,041	0,041
-356,825	78,887	0,067	0,053
-355,810	-200,000	-0,009	-0,212
-354,796	800,000	-0,050	-0,119
-353,781	-200,000	-0,008	0,051
-352,766	-200,000	-0,024	-0,107
-351,752	298,945	0,091	0,123
-350,737	-28,928	0,090	0,038
-349,723	800,000	0,020	0,062
-348,708	800,000	0,077	0,172
-347,693	-111,449	-0,269	0,040
-346,679	-91,111	-0,115	0,024
-345,664	458,792	-0,046	-0,075
-344,650	546,140	0,038	0,067
-343,635	33,084	0,025	-0,016
-342,620	77,959	0,044	-0,035
-341,606	194,275	-0,039	0,044
-340,591	-121,459	0,071	-0,009
-339,577	-59,033	-0,118	0,037
-338,562	-75,358	0,032	0,008
-337,548	800,000	-0,018	0,038
-336,533	800,000	-0,052	-0,119
-335,518	-200,000	-0,018	-0,100
-334,504	56,696	0,053	-0,038
-333,489	-56,523	0,068	0,022
-332,475	-200,000	0,034	-0,165
-331,460	-124,289	-0,124	0,014
-330,445	61,659	0,019	-0,014
-329,431	-200,000	0,005	0,066
-328,416	39,834	0,060	0,040
-327,402	68,093	0,030	0,022
-326,387	233,629	-0,018	0,022
-325,372	-200,000	-0,018	0,099
-324,358	-137,564	-0,038	-0,003
-323,343	126,081	0,042	0,039
-322,329	-116,905	-0,032	-0,004
-321,314	252,774	0,043	-0,053
-320,299	253,777	-0,050	0,063
-319,285	141,435	0,056	0,055
-318,270	46,924	-0,044	0,030
-317,256	213,347	0,116	0,134
-316,241	39,010	-0,120	-0,079
-315,226	800,000	0,026	-0,060
-314,212	59,993	0,062	0,045
-313,197	29,485	0,110	0,068
-312,183	-35,440	-0,027	-0,011
-311,168	81,372	-0,031	-0,024
-310,153	10,313	-0,049	-0,027
-309,139	800,000	-0,055	-0,175
-308,124	165,903	0,010	0,010
-307,110	800,000	-0,038	0,080
-306,095	-0,719	0,124	0,064
-305,080	-21,761	0,026	-0,011
-304,066	-55,039	0,068	-0,022
-303,051	-52,634	-0,065	-0,022
-302,037	-200,000	0,174	-0,000
-301,022	-19,987	-0,040	-0,018
-300,008	462,529	-0,004	0,007
-298,993	52,519	-0,041	-0,029
-297,978	448,240	-0,103	0,167
-296,964	-47,544	0,149	-0,053
-295,949	140,594	-0,040	-0,038
-294,935	-200,000	-0,012	-0,176
-293,920	800,000	-0,049	-0,156
-292,905	-87,577	0,155	-0,034
-291,891	117,282	0,012	-0,011
-290,876	-200,000	-0,036	-0,181
-289,862	-3,905	-0,126	-0,064
-288,847	407,424	0,033	-0,051
-287,832	407,103	-0,025	-0,039
-286,818	225,862	-0,015	0,018
-285,803	53,913	0,096	-0,068
-284,789	75,286	0,035	-0,027
-283,774	-200,000	0,028	0,143
-282,759	-79,013	0,006	-0,001
-281,745	-88,843	0,067	0,014
-280,730	258,139	-0,036	0,045
-279,716	671,983	0,006	-0,011
-278,701	360,622	0,067	0,099
-277,686	77,581	0,089	-0,069
-276,672	-46,883	0,070	-0,025
-275,657	-200,000	-0,012	0,116
-274,643	87,773	-0,072	-0,058
-273,628	742,795	0,046	0,091
-272,613	-98,503	0,064	0,012
-271,599	-200,000	0,031	-0,118
-270,584	-200,000	0,012	0,050
-269,570	-200,000	-0,028	0,164
-268,555	-32,364	-0,126	-0,051
-267,540	293,001	-0,076	0,101
-266,526	110,935	0,027	-0,023
-265,511	-44,636	-0,068	-0,025
-264,497	292,883	-0,087	0,116
-263,482	498,535	0,048	0,082
-262,467	800,000	0,015	-0,038
-261,453	-200,000	0,025	0,129
-260,438	83,778	-0,027	0,022
-259,424	-200,000	-0,003	-0,059
-258,409	455,658	0,047	0,077
-257,395	-84,744	-0,026	0,006
-256,380	470,596	0,033	0,054
-255,365	-98,581	0,072	0,013
-254,351	274,097	-0,103	0,133
-253,336	296,645	0,089	0,119
-252,322	-83,794	-0,079	-0,018
-251,307	-105,761	-0,248	-0,040
-250,292	131,657	0,064	0,060
-249,278	-200,000	0,006	0,043
-248,263	125,125	0,088	0,081
-247,249	510,534	0,023	0,039
-246,234	800,000	-0,037	-0,074
-245,219	-200,000	0,029	-0,096
-244,205	-93,518	-0,068	0,014
-243,190	170,141	-0,097	-0,101
-242,176	461,784	0,067	0,110
-241,161	-48,318	-0,003	-0,001
-240,146	382,844	-0,082	0,123
-239,132	419,207	-0,030	0,047
-238,117	-200,000	-0,026	-0,100
-237,103	237,077	-0,035	-0,043
-236,088	157,815	0,039	0,039
-235,073	114,332	0,087	0,077
-234,059	-33,767	0,030	-0,012
-233,044	800,000	0,068	0,156
-232,030	382,425	-0,080	-0,120
-231,015	636,303	-0,064	-0,119
-230,000	272,903	-0,056	-0,073
-228,986	800,000	0,022	-0,066
-227,971	800,000	0,028	0,071
-226,957	108,811	0,054	-0,047
-225,942	292,174	-0,040	0,054
-224,927	-168,750	-0,065	0,002
-223,913	-97,849	-0,129	-0,024
-222,898	-88,031	0,193	-0,042
-221,884	-2,904	0,098	-0,050
-220,869	535,190	0,077	0,133
-219,855	-35,782	0,078	0,031
-218,840	-142,866	-0,121	0,008
-217,825	-32,102	-0,073	0,030
-216,811	-155,027	0,042	0,002
-215,796	-101,123	0,143	-0,025
-214,782	-200,000	0,006	0,031
-213,767	-47,430	-0,202	0,071
-212,752	144,957	0,088	0,086
-211,738	-200,000	-0,009	0,079
-210,723	-160,457	-0,108	0,004
-209,709	696,113	0,054	0,104
-208,694	-12,944	-0,151	-0,072
-207,679	800,000	-0,034	0,082
-206,665	79,474	0,036	0,028
-205,650	-48,004	-0,026	-0,009
-204,636	-200,000	-0,018	-0,202
-203,621	252,559	0,096	-0,120
-202,606	-70,023	-0,024	-0,007
-201,592	457,553	-0,104	-0,169
-200,577	50,992	-0,053	-0,037
-199,563	-200,000	0,003	-0,037
-198,548	-200,000	0,001	0,018
-197,533	522,577	0,047	0,081
-196,519	-61,889	0,027	-0,008
-195,504	-152,959	-0,083	0,004
-194,490	475,922	-0,040	-0,065
-193,475	-200,000	-0,012	-0,070
-192,460	101,477	0,117	0,099
-191,446	67,063	-0,032	-0,024
-190,431	152,281	0,050	-0,050
-189,417	33,299	0,112	-0,071
-188,402	-200,000	0,006	-0,051
-187,387	-56,961	0,101	-0,032
-186,373	-114,388	-0,019	0,003
-185,358	69,739	-0,019	0,014
-184,344	-71,887	-0,100	0,027
-183,329	-74,702	-0,075	-0,020
-182,315	-200,000	0,009	-0,113
-181,300	85,870	0,072	-0,058
-180,285	800,000	0,023	0,049
-179,271	252,926	0,111	-0,138
-178,256	800,000	-0,016	-0,045
-177,242	-200,000	0,010	-0,053
-176,227	212,474	-0,028	-0,032
-175,212	-200,000	0,012	0,100
-174,198	-200,000	-0,020	0,183
-173,183	800,000	-0,022	-0,061
-172,169	146,671	-0,055	0,054
-171,154	605,771	0,098	-0,179
-170,139	4,548	-0,161	-0,086
-169,125	130,233	0,076	-0,071
-168,110	8,246	-0,053	-0,029
-167,096	-200,000	0,004	0,026
-166,081	-23,056	-0,049	0,021
-165,066	169,521	-0,100	-0,104
-164,052	119,587	0,022	-0,020
-163,037	55,286	0,126	0,088
-162,023	-200,000	-0,047	0,156
-161,008	108,886	0,154	-0,134
-159,993	299,869	0,047	0,063
-158,979	305,984	0,075	0,101
-157,964	342,336	-0,033	-0,047
-156,950	-77,572	0,130	0,032
-155,935	-34,594	0,044	-0,017
-154,920	-200,000	0,012	0,223
-153,906	151,063	0,042	0,042
-152,891	-71,124	-0,061	-0,017
-151,877	145,796	-0,074	0,073
-150,862	-93,077	-0,095	-0,019
-149,847	-5,164	0,061	-0,031
-148,833	-88,097	0,147	0,032
-147,818	-200,000	0,005	0,025
-146,804	740,187	-0,048	-0,094
-145,789	151,209	0,054	0,053
-144,775	800,000	0,013	-0,030
-143,760	-200,000	0,012	-0,071
-142,745	-43,942	0,023	-0,008
-141,731	800,000	0,027	-0,084
-140,716	-200,000	0,005	-0,055
-139,702	139,269	0,085	0,081
-138,687	-86,584	0,035	-0,008
-137,672	800,000	-0,045	0,133
-136,658	408,187	-0,016	-0,025
-135,643	-110,360	-0,120	-0,018
-134,629	172,167	0,099	-0,103
-133,614	481,233	-0,066	0,109
-132,599	84,396	0,063	0,050
-131,585	800,000	0,017	0,041
-130,570	-200,000	-0,020	-0,077
-129,556	248,001	0,026	-0,033
-128,541	43,881	-0,081	-0,054
-127,526	-121,449	-0,061	-0,007
-126,512	0,709	-0,069	0,036
-125,497	68,738	-0,033	0,025
-124,483	-185,530	0,140	-0,002
-123,468	474,785	0,050	0,082
-122,453	-200,000	0,001	0,021
-121,439	-168,573	-0,083	-0,002
-120,424	-108,183	-0,053	0,008
