DTS Sentinel unit serial number:	SN410029Multiplexer serial number:	ORYXHardware model number:	OX2-SRSoftware version number:	ORYX F/W v4,00 Oryx Data Collector v3.7.2.0data status	okinstallation	B4 Nyhavnadifferential loss correction	single-endedforward channel	channel 2reverse channel	N/Adate	2023/12/16time	07:25:13forward acquisition time	300,00reverse acquisition time	0,00gamma	499,1914k internal	0,3126k external	0,3126temperature offset calibration	1,0000default loss term (dB/km)	0,3820temperature slope calibration	1,0000multiplexer offset coefficient	1,0000multiplexer slope coefficient	1,0000fibre end	0,00T internal ref (°C)	22,35T ext. ref 1 (°C)	7,53T ext. ref 2 (°C)	7,69length (m)	temperature (°C)	Stokes	anti-Stokes-744,400	-67,103	-0,080	0,023
-743,385	74,400	-0,062	0,048
-742,371	55,802	0,037	-0,027
-741,356	-200,000	-0,064	0,222
-740,342	800,000	0,048	0,122
-739,327	92,252	-0,251	0,211
-738,312	176,579	0,041	0,044
-737,298	108,630	-0,261	0,232
-736,283	800,000	0,035	-0,106
-735,269	-159,375	-0,294	0,012
-734,254	-45,560	0,044	0,016
-733,239	-101,921	-0,340	-0,061
-732,225	-200,000	0,018	-0,155
-731,210	-200,000	-0,008	-0,061
-730,196	-146,880	-0,132	-0,008
-729,181	-0,256	-0,085	-0,045
-728,167	414,472	0,048	0,076
-727,152	-62,937	-0,042	-0,013
-726,137	242,975	-0,068	-0,085
-725,123	-200,000	0,005	0,041
-724,108	43,319	-0,129	-0,088
-723,094	-17,247	-0,164	-0,076
-722,079	800,000	-0,038	-0,099
-721,064	-7,258	-0,141	0,071
-720,050	800,000	-0,024	-0,051
-719,035	610,229	0,008	-0,015
-718,021	800,000	-0,051	0,139
-717,006	800,000	-0,020	0,061
-715,991	-200,000	0,027	-0,102
-714,977	282,564	-0,037	-0,049
-713,962	123,614	-0,052	0,049
-712,948	-100,048	0,051	0,009
-711,933	-200,000	-0,037	0,127
-710,918	-111,517	0,074	0,011
-709,904	666,448	-0,046	-0,088
-708,889	-200,000	-0,026	-0,186
-707,875	28,680	-0,055	-0,034
-706,860	350,321	0,033	0,049
-705,845	693,188	0,019	0,038
-704,831	295,903	0,108	-0,147
-703,816	-145,342	0,095	0,006
-702,802	-121,679	-0,090	-0,011
-701,787	42,325	-0,199	-0,134
-700,772	800,000	0,035	0,087
-699,758	-20,865	-0,068	-0,031
-698,743	-102,703	0,039	0,007
-697,729	153,140	-0,041	-0,042
-696,714	787,435	0,061	0,126
-695,699	495,896	-0,039	0,067
-694,685	-200,000	-0,035	-0,162
-693,670	800,000	-0,055	-0,119
-692,656	-41,116	-0,248	0,095
-691,641	-200,000	0,021	0,092
-690,627	-133,535	0,084	-0,008
-689,612	-200,000	-0,004	0,025
-688,597	800,000	0,041	0,096
-687,583	-34,455	-0,117	-0,048
-686,568	776,862	0,047	-0,096
-685,554	-200,000	0,004	-0,104
-684,539	715,914	-0,018	-0,036
-683,524	-106,428	0,103	0,017
-682,510	29,153	0,053	-0,033
-681,495	112,563	0,068	-0,061
-680,481	-200,000	-0,006	-0,070
-679,466	109,898	-0,045	-0,040
-678,451	178,761	0,048	-0,052
-677,437	648,270	0,048	-0,092
-676,422	27,701	-0,039	0,025
-675,408	-200,000	-0,005	0,042
-674,393	-200,000	0,028	-0,164
-673,378	-15,088	-0,137	-0,065
-672,364	388,822	-0,035	0,054
-671,349	-200,000	0,002	-0,155
-670,335	-200,000	0,033	-0,194
-669,320	-124,722	-0,094	-0,011
-668,305	368,057	-0,021	-0,032
-667,291	800,000	-0,049	0,128
-666,276	110,683	-0,067	-0,060
-665,262	84,515	-0,165	-0,134
-664,247	-14,608	-0,077	0,037
-663,232	-200,000	0,041	-0,162
-662,218	249,350	0,140	0,177
-661,203	-200,000	-0,027	0,105
-660,189	14,264	-0,041	-0,024
-659,174	215,186	-0,102	-0,120
-658,159	166,929	-0,085	-0,089
-657,145	-2,954	-0,117	-0,060
-656,130	-200,000	0,013	0,189
-655,116	330,811	0,024	0,035
-654,101	-89,225	0,053	0,012
-653,086	-200,000	-0,017	-0,083
-652,072	449,396	0,068	-0,112
-651,057	-28,140	0,022	0,009
-650,043	-55,685	-0,034	0,011
-649,028	71,517	0,047	-0,036
-648,014	224,948	0,075	0,090
-646,999	221,492	0,068	0,081
-645,984	140,065	0,058	-0,057
-644,970	-54,758	-0,174	-0,058
-643,955	206,785	0,073	-0,085
-642,941	-200,000	-0,009	0,045
-641,926	-200,000	0,007	-0,134
-640,911	-200,000	-0,034	-0,181
-639,897	215,780	-0,126	0,149
-638,882	50,406	-0,031	-0,021
-637,868	62,165	0,062	-0,046
-636,853	-184,137	-0,126	0,002
-635,838	800,000	0,050	-0,109
-634,824	800,000	0,043	0,095
-633,809	-200,000	0,003	0,101
-632,795	-47,815	0,046	0,016
-631,780	179,771	0,090	-0,097
-630,765	297,988	-0,060	-0,081
-629,751	-30,736	0,093	-0,039
-628,736	-120,041	0,027	0,003
-627,722	800,000	0,031	-0,069
-626,707	-200,000	-0,010	0,046
-625,692	201,764	0,023	0,026
-624,678	-75,171	0,092	0,024
-623,663	150,205	0,096	0,097
-622,649	157,867	-0,007	-0,007
-621,634	145,094	0,034	-0,033
-620,619	223,645	-0,060	-0,072
-619,605	800,000	0,055	0,117
-618,590	59,936	0,047	-0,034
-617,576	73,551	0,104	0,081
-616,561	267,970	-0,068	-0,089
-615,546	173,875	-0,025	-0,027
-614,532	-167,519	-0,037	0,001
-613,517	434,684	0,082	-0,132
-612,503	27,894	0,051	-0,032
-611,488	120,618	0,038	0,035
-610,474	800,000	0,012	0,032
-609,459	210,712	-0,070	-0,081
-608,444	607,183	-0,038	0,070
-607,430	146,727	-0,046	-0,046
-606,415	147,537	0,104	0,104
-605,401	-200,000	-0,029	0,115
-604,386	650,328	-0,007	-0,014
-603,371	72,887	-0,107	0,082
-602,357	800,000	-0,041	0,091
-601,342	93,045	0,104	-0,087
-600,328	-182,771	-0,083	-0,001
-599,313	309,566	-0,079	0,109
-598,298	-31,651	0,050	-0,021
-597,284	84,798	0,051	-0,041
-596,269	162,278	0,031	0,033
-595,255	-86,137	0,148	0,034
-594,240	-140,640	0,079	0,006
-593,225	-75,842	-0,054	0,014
-592,211	-110,663	-0,135	0,020
-591,196	800,000	0,029	0,060
-590,182	-152,755	0,015	-0,001
-589,167	11,536	-0,090	-0,051
-588,152	89,371	0,052	-0,043
-587,138	-200,000	-0,042	-0,142
-586,123	295,431	0,086	0,117
-585,109	-200,000	-0,019	0,079
-584,094	-34,781	-0,137	-0,055
-583,079	-64,859	0,143	-0,043
-582,065	800,000	0,038	0,104
-581,050	11,225	0,029	0,016
-580,036	-153,567	-0,071	0,004
-579,021	800,000	-0,009	-0,029
-578,006	95,176	0,009	-0,008
-576,992	-200,000	0,033	-0,181
-575,977	-153,530	0,069	0,003
-574,963	-197,359	0,123	0,001
-573,948	1,768	0,018	0,009
-572,934	800,000	-0,015	0,031
-571,919	800,000	-0,047	-0,119
-570,904	800,000	-0,033	-0,084
-569,890	428,430	0,010	0,017
-568,875	78,392	0,115	0,091
-567,861	84,795	0,009	0,008
-566,846	-15,896	-0,099	-0,046
-565,831	-55,909	-0,077	-0,025
-564,817	97,831	-0,052	0,044
-563,802	322,091	-0,112	-0,158
-562,788	-81,651	0,023	0,006
-561,773	-145,458	0,077	0,005
-560,758	164,888	0,116	0,121
-559,744	-200,000	0,006	-0,023
-558,729	-23,516	-0,077	0,034
-557,715	40,814	-0,125	-0,083
-556,700	-10,920	-0,077	0,037
-555,685	-6,860	-0,055	-0,028
-554,671	396,462	0,041	-0,063
-553,656	540,748	0,019	-0,034
-552,642	47,637	0,034	0,023
-551,627	-42,031	-0,058	0,022
-550,612	-36,246	-0,031	0,012
-549,598	-200,000	-0,025	-0,124
-548,583	-200,000	0,022	0,078
-547,569	70,303	-0,034	-0,026
-546,554	158,916	-0,040	-0,041
-545,539	-200,000	0,026	0,186
-544,525	-94,717	0,090	0,018
-543,510	177,211	-0,090	0,096
-542,496	-200,000	-0,007	-0,090
-541,481	597,945	0,059	-0,108
-540,466	-200,000	-0,003	-0,014
-539,452	-200,000	-0,003	0,153
-538,437	-200,000	-0,001	0,011
-537,423	285,246	-0,092	0,122
-536,408	800,000	0,045	-0,138
-535,393	-200,000	-0,009	-0,047
-534,379	135,822	-0,099	-0,095
-533,364	-116,663	0,166	0,022
-532,350	800,000	-0,041	-0,115
-531,335	397,787	-0,031	0,047
-530,321	-200,000	-0,027	0,095
-529,306	257,391	-0,105	-0,134
-528,291	800,000	-0,011	-0,026
-527,277	27,652	-0,141	0,088
-526,262	-47,459	0,115	-0,041
-525,248	-200,000	0,000	0,110
-524,233	-41,584	0,031	-0,012
-523,218	313,103	0,058	-0,080
-522,204	299,508	0,039	0,054
-521,189	50,904	-0,014	-0,010
-520,175	115,362	-0,070	-0,063
-519,160	39,755	-0,023	-0,015
-518,145	444,152	0,030	-0,048
-517,131	800,000	-0,036	-0,110
-516,116	-200,000	0,007	-0,052
-515,102	-79,728	0,006	0,002
-514,087	-93,429	-0,121	-0,025
-513,072	-73,593	-0,083	0,022
-512,058	25,006	-0,074	-0,045
-511,043	800,000	0,046	0,104
-510,029	24,224	-0,075	-0,045
-509,014	-124,325	-0,057	-0,006
-507,999	103,118	-0,044	-0,038
-506,985	21,474	0,115	0,069
-505,970	59,189	-0,053	0,038
-504,956	-149,457	-0,013	0,001
-503,941	-200,000	-0,022	-0,108
-502,926	-200,000	-0,010	-0,048
-501,912	-99,825	0,025	0,005
-500,897	10,158	0,032	-0,018
-499,883	15,124	0,178	0,103
-498,868	-15,486	-0,209	0,098
-497,853	-200,000	0,006	-0,101
-496,839	800,000	-0,017	-0,042
-495,824	-200,000	0,007	0,165
-494,810	-2,014	0,092	0,048
-493,795	468,995	0,069	0,115
-492,781	32,590	0,071	-0,045
-491,766	416,837	0,022	-0,034
-490,751	-200,000	0,012	0,105
-489,737	305,225	-0,035	-0,049
-488,722	51,133	-0,095	-0,066
-487,708	800,000	0,064	0,142
-486,693	-200,000	0,001	0,071
-485,678	205,909	0,081	0,094
-484,664	-73,448	-0,087	-0,023
-483,649	207,075	0,007	0,008
-482,635	-200,000	-0,000	-0,033
-481,620	-185,356	0,118	0,001
-480,605	-31,199	0,120	-0,050
-479,591	-108,727	-0,162	-0,025
-478,576	111,964	0,042	0,037
-477,562	-200,000	0,013	-0,051
-476,547	145,393	0,098	-0,097
-475,532	-178,790	-0,065	-0,001
-474,518	302,516	0,026	0,036
-473,503	29,975	-0,092	-0,057
-472,489	800,000	-0,025	0,069
-471,474	-147,206	-0,052	-0,003
-470,459	195,455	0,109	-0,122
-469,445	-200,000	0,010	0,071
-468,430	-42,549	0,098	0,037
-467,416	800,000	0,054	0,113
-466,401	-200,000	0,012	0,122
-465,386	800,000	-0,018	0,046
-464,372	4,510	-0,096	-0,052
-463,357	800,000	-0,031	0,094
-462,343	-65,283	0,149	0,044
-461,328	-37,731	-0,163	0,064
-460,313	-200,000	0,016	0,080
-459,299	-94,338	0,129	0,026
-458,284	17,360	-0,080	0,046
-457,270	-125,480	-0,116	0,013
-456,255	-161,196	-0,049	0,002
-455,241	313,137	-0,069	-0,095
-454,226	696,475	0,063	-0,122
-453,211	-152,565	-0,164	-0,009
-452,197	-2,518	0,087	0,044
-451,182	-111,045	-0,053	-0,008
-450,168	-59,830	-0,111	0,035
-449,153	-139,576	-0,114	-0,009
-448,138	800,000	0,063	-0,129
-447,124	-11,725	0,085	0,041
-446,109	135,414	0,055	0,053
-445,095	-32,553	-0,083	-0,034
-444,080	-92,111	0,047	-0,010
-443,065	-200,000	-0,021	-0,087
-442,051	-200,000	-0,005	-0,116
-441,036	282,786	0,082	-0,109
-440,022	-4,529	-0,104	-0,053
-439,007	-200,000	-0,038	-0,146
-437,992	-48,393	0,142	0,050
-436,978	-200,000	-0,017	0,087
-435,963	800,000	-0,022	0,053
-434,949	-43,287	-0,116	-0,043
-433,934	-164,338	-0,088	0,003
-432,919	323,419	0,107	-0,151
-431,905	-200,000	0,008	-0,076
-430,890	236,384	-0,023	-0,028
-429,876	-9,158	0,092	0,045
-428,861	-1,101	0,025	-0,013
-427,846	127,436	0,161	-0,151
-426,832	-36,391	0,077	0,030
-425,817	28,088	-0,082	-0,051
-424,803	-72,846	-0,104	0,028
-423,788	-112,930	0,127	-0,018
-422,773	-91,993	0,068	0,014
-421,759	-200,000	-0,053	0,232
-420,744	800,000	-0,073	0,201
-419,730	-85,470	-0,040	-0,009
-418,715	-200,000	-0,021	0,093
-417,701	-64,784	0,021	0,006
-416,686	79,131	0,050	-0,039
-415,671	-200,000	0,009	-0,042
-414,657	-71,533	0,111	0,030
-413,642	-84,837	-0,109	-0,025
-412,628	-123,981	-0,085	-0,010
-411,613	800,000	-0,037	-0,101
-410,598	-46,728	0,075	-0,027
-409,584	-200,000	0,012	0,118
-408,569	800,000	-0,069	0,206
-407,555	-62,561	0,075	-0,023
-406,540	25,177	-0,159	0,097
-405,525	100,333	0,093	0,080
-404,511	354,111	-0,052	-0,077
-403,496	268,841	-0,016	0,020
-402,482	-16,270	0,114	-0,053
-401,467	-182,397	-0,106	-0,001
-400,452	142,712	0,117	0,114
-399,438	800,000	-0,046	0,098
-398,423	175,370	-0,104	-0,111
-397,409	-103,733	-0,067	-0,011
-396,394	78,895	-0,067	-0,053
-395,379	273,176	0,055	-0,071
-394,365	104,320	0,025	0,021
-393,350	-152,171	-0,054	0,003
-392,336	-179,002	-0,160	-0,003
-391,321	-43,448	-0,128	0,047
-390,306	14,468	-0,052	-0,030
-389,292	-105,184	0,162	0,027
-388,277	55,383	-0,071	-0,050
-387,263	-16,978	-0,185	-0,085
-386,248	254,548	-0,038	0,048
-385,233	-200,000	-0,003	0,083
-384,219	-200,000	0,010	0,134
-383,204	-140,538	-0,151	-0,011
-382,190	-153,535	0,074	0,004
-381,175	-200,000	-0,012	-0,052
-380,160	-200,000	-0,002	-0,022
-379,146	568,771	0,039	0,069
-378,131	-200,000	-0,011	-0,085
-377,117	11,423	0,106	-0,059
-376,102	-200,000	-0,008	-0,029
-375,088	800,000	0,032	-0,093
-374,073	91,852	-0,097	-0,080
-373,058	-113,391	-0,087	0,012
-372,044	800,000	0,045	0,108
-371,029	-98,305	0,065	-0,012
-370,015	-200,000	-0,024	0,111
-369,000	375,613	0,055	-0,083
-367,985	-200,000	-0,020	-0,103
-366,971	-200,000	0,008	-0,125
-365,956	183,350	0,063	0,068
-364,942	76,910	0,090	0,070
-363,927	194,128	0,019	-0,021
-362,912	49,537	0,059	0,041
-361,898	358,391	-0,032	-0,047
-360,883	137,123	-0,049	-0,047
-359,869	55,219	-0,013	0,009
-358,854	62,559	-0,084	-0,062
-357,839	-200,000	0,006	0,141
-356,825	-200,000	0,021	0,073
-355,810	161,548	0,059	0,060
-354,796	240,085	-0,077	0,095
-353,781	-117,811	0,041	-0,005
-352,766	800,000	-0,031	-0,084
-351,752	-43,051	0,058	-0,022
-350,737	-132,001	0,030	0,003
-349,723	-20,897	0,148	-0,066
-348,708	-108,175	0,091	0,014
-347,693	149,326	-0,197	0,196
-346,679	88,769	-0,119	0,097
-345,664	800,000	0,041	-0,119
-344,650	360,123	-0,011	0,017
-343,635	800,000	-0,014	-0,032
-342,620	-64,102	-0,054	0,016
-341,606	-102,374	-0,082	-0,014
-340,591	-102,710	0,032	0,006
-339,577	194,852	-0,107	-0,120
-338,562	79,310	0,072	0,057
-337,548	-137,268	-0,129	0,011
-336,533	-200,000	0,009	0,083
-335,518	-200,000	-0,004	-0,018
-334,504	-88,539	0,017	-0,004
-333,489	36,003	-0,111	-0,071
-332,475	235,612	-0,032	-0,039
-331,460	-200,000	0,010	-0,142
-330,445	-200,000	0,048	-0,162
-329,431	-175,063	0,049	0,001
-328,416	173,560	0,027	-0,028
-327,402	-200,000	-0,013	0,146
-326,387	-136,961	-0,083	-0,007
-325,372	33,590	0,080	-0,051
-324,358	4,687	-0,142	0,076
-323,343	511,081	0,044	-0,075
-322,329	-46,529	0,050	0,018
-321,314	800,000	0,004	0,011
-320,299	142,216	-0,118	-0,115
-319,285	157,986	0,146	-0,148
-318,270	800,000	0,035	-0,084
-317,256	-25,717	0,071	0,031
-316,241	98,804	0,034	-0,029
-315,226	755,381	-0,012	0,023
-314,212	17,434	0,089	-0,052
-313,197	800,000	0,015	0,035
-312,183	552,062	-0,069	0,122
-311,168	59,625	-0,036	-0,026
-310,153	14,705	-0,148	-0,084
-309,139	800,000	-0,033	0,085
-308,124	-54,115	-0,050	0,017
-307,110	179,530	0,069	-0,074
-306,095	-146,781	0,069	0,004
-305,080	163,846	-0,081	0,084
-304,066	20,440	-0,024	0,014
-303,051	124,321	-0,077	0,071
-302,037	-116,796	-0,015	-0,002
-301,022	-179,816	-0,027	-0,000
-300,008	-76,713	0,193	0,049
-298,993	-104,743	0,249	-0,042
-297,978	-0,357	-0,123	0,064
-296,964	83,730	-0,111	0,088
-295,949	-200,000	0,003	0,028
-294,935	-23,959	0,031	0,014
-293,920	-200,000	-0,004	-0,103
-292,905	-200,000	-0,003	-0,046
-291,891	-181,891	-0,008	0,000
-290,876	-0,377	-0,100	0,052
-289,862	83,055	0,031	-0,025
-288,847	44,857	-0,076	-0,051
-287,832	800,000	-0,026	-0,084
-286,818	800,000	0,035	-0,107
-285,803	-200,000	-0,008	-0,037
-284,789	800,000	-0,026	0,065
-283,774	442,355	-0,034	0,054
-282,759	194,720	0,094	-0,104
-281,745	-200,000	0,042	-0,185
-280,730	-200,000	0,012	-0,095
-279,716	54,511	-0,091	-0,064
-278,701	181,996	-0,068	0,074
-277,686	-18,808	0,122	0,055
-276,672	452,443	-0,075	0,121
-275,657	800,000	-0,049	0,114
-274,643	-200,000	-0,001	0,094
-273,628	-7,164	0,053	0,026
-272,613	-200,000	0,018	-0,157
-271,599	-59,229	0,013	-0,004
-270,584	36,820	-0,128	-0,082
-269,570	-200,000	0,007	0,051
-268,555	9,277	-0,024	0,013
-267,540	456,525	-0,029	0,047
-266,526	641,377	-0,032	0,060
-265,511	754,864	-0,027	-0,054
-264,497	536,730	0,066	0,115
-263,482	-200,000	0,072	0,245
-262,467	-200,000	0,010	0,036
-261,453	-114,944	0,193	0,027
-260,438	563,869	-0,085	-0,152
-259,424	-200,000	0,013	-0,083
-258,409	213,013	-0,062	-0,072
-257,395	-200,000	-0,002	-0,078
-256,380	-81,235	0,225	0,054
-255,365	-200,000	0,006	0,059
-254,351	-200,000	-0,011	-0,042
-253,336	800,000	0,029	-0,075
-252,322	36,727	-0,076	-0,049
-251,307	800,000	0,021	-0,053
-250,292	-165,793	0,150	-0,005
-249,278	253,211	0,049	0,061
-248,263	187,464	0,066	0,072
-247,249	379,544	0,065	0,098
-246,234	800,000	0,015	0,034
-245,219	211,067	0,122	-0,140
-244,205	-200,000	-0,013	-0,079
-243,190	86,562	0,104	-0,084
-242,176	160,150	-0,061	0,062
-241,161	125,178	-0,034	0,032
-240,146	83,160	-0,096	-0,076
-239,132	223,493	0,047	-0,055
-238,117	800,000	0,046	-0,122
-237,103	-200,000	0,003	-0,080
-236,088	-61,061	0,053	-0,016
-235,073	81,458	0,140	-0,111
-234,059	46,978	0,156	-0,106
-233,044	-155,702	0,127	0,006
-232,030	142,299	0,026	-0,025
-231,015	800,000	0,007	0,017
-230,000	-142,762	-0,052	-0,004
-228,986	2,440	0,066	-0,035
-227,971	2,520	-0,054	0,028
-226,957	243,807	0,028	-0,035
-225,942	158,503	-0,036	0,036
-224,927	-67,168	-0,119	0,034
-223,913	-89,083	0,104	-0,022
-222,898	-51,601	-0,054	0,018
-221,884	223,008	-0,130	0,153
-220,869	-7,005	0,066	0,032
-219,855	-95,793	0,052	0,010
-218,840	597,165	0,021	0,039
-217,825	5,171	-0,078	0,042
-216,811	-43,788	-0,033	-0,012
-215,796	157,723	-0,032	-0,032
-214,782	-200,000	-0,006	-0,028
-213,767	-200,000	-0,007	0,070
-212,752	-95,244	0,104	0,020
-211,738	-200,000	-0,006	0,047
-210,723	-61,110	-0,092	-0,028
-209,709	-164,557	-0,079	-0,003
-208,694	-200,000	0,006	0,061
-207,679	439,996	0,051	-0,081
-206,665	-200,000	-0,011	-0,054
-205,650	-77,877	0,102	-0,026
-204,636	800,000	-0,013	0,042
-203,621	273,856	0,021	0,028
-202,606	223,839	-0,116	-0,136
-201,592	-79,140	-0,050	-0,012
-200,577	-55,987	0,069	-0,022
-199,563	142,258	0,049	-0,047
-198,548	426,877	0,040	0,063
-197,533	101,748	0,052	0,044
-196,519	316,561	-0,044	0,061
-195,504	58,917	0,057	-0,041
-194,490	-58,573	-0,042	-0,013
-193,475	-200,000	-0,010	0,125
-192,460	-67,073	-0,087	-0,025
-191,446	129,957	0,130	0,121
-190,431	385,950	0,062	0,094
-189,417	3,025	-0,118	0,062
-188,402	-42,342	-0,059	-0,022
-187,387	-170,490	0,065	-0,002
-186,373	-56,865	0,077	-0,025
-185,358	-13,312	-0,031	0,014
-184,344	452,948	0,040	-0,065
-183,329	-200,000	0,001	-0,049
-182,315	800,000	0,021	0,044
-181,300	698,854	-0,039	-0,075
-180,285	-63,249	-0,125	0,037
-179,271	800,000	-0,055	-0,146
-178,256	-200,000	-0,022	-0,157
-177,242	-134,687	0,047	-0,004
-176,227	-143,672	0,094	0,006
-175,212	800,000	0,023	0,072
-174,198	-200,000	-0,014	0,167
-173,183	453,220	-0,043	0,069
-172,169	315,691	0,063	-0,087
-171,154	-200,000	-0,018	0,062
-170,139	-200,000	0,027	0,087
-169,125	-200,000	0,009	0,124
-168,110	685,221	0,067	0,128
-167,096	-161,790	0,083	-0,003
-166,081	47,400	-0,123	0,083
-165,066	-70,980	0,086	-0,023
-164,052	226,201	-0,135	-0,160
-163,037	264,802	-0,032	-0,041
-162,023	-5,544	-0,121	0,060
-161,008	800,000	0,032	0,098
-159,993	-153,579	0,037	0,002
-158,979	300,176	0,051	-0,069
-157,964	-200,000	-0,012	0,111
-156,950	800,000	-0,027	0,064
-155,935	-91,800	0,063	0,013
-154,920	800,000	-0,046	0,135
-153,906	369,624	0,078	0,115
-152,891	-200,000	-0,004	0,047
-151,877	800,000	0,033	0,081
-150,862	123,258	-0,047	0,043
-149,847	-160,705	-0,105	-0,004
-148,833	800,000	0,024	-0,076
-147,818	653,502	-0,033	0,062
-146,804	346,727	0,049	-0,070
-145,789	-200,000	0,008	-0,054
-144,775	-200,000	-0,023	0,100
-143,760	7,784	-0,057	-0,031
-142,745	800,000	-0,035	0,108
-141,731	49,734	-0,041	0,028
-140,716	277,588	0,062	0,080
-139,702	-200,000	0,024	0,076
-138,687	800,000	0,060	0,158
-137,672	-130,834	0,079	-0,008
-136,658	800,000	0,015	-0,041
-135,643	-200,000	-0,009	0,086
-134,629	151,371	0,052	-0,051
-133,614	278,064	-0,077	0,101
-132,599	-61,369	0,014	0,004
-131,585	-58,520	0,164	0,051
-130,570	-4,940	-0,050	-0,025
-129,556	-200,000	-0,008	-0,095
-128,541	800,000	0,014	-0,034
-127,526	-200,000	0,000	-0,064
-126,512	800,000	-0,013	-0,034
-125,497	-20,423	0,084	-0,038
-124,483	-69,932	-0,085	-0,023
-123,468	187,493	0,060	0,065
-122,453	374,162	0,059	-0,087
-121,439	267,796	-0,027	-0,035
-120,424	-200,000	-0,005	0,067
-119,410	107,937	0,082	0,071
