DTS Sentinel unit serial number:	SN410029Multiplexer serial number:	ORYXHardware model number:	OX2-SRSoftware version number:	ORYX F/W v4,00 Oryx Data Collector v3.7.2.0data status	okinstallation	B4 Nyhavnadifferential loss correction	single-endedforward channel	channel 2reverse channel	N/Adate	2023/12/18time	23:20:13forward acquisition time	300,00reverse acquisition time	0,00gamma	499,1914k internal	0,3124k external	0,3124temperature offset calibration	1,0000default loss term (dB/km)	0,3820temperature slope calibration	1,0000multiplexer offset coefficient	1,0000multiplexer slope coefficient	1,0000fibre end	0,00T internal ref (°C)	22,16T ext. ref 1 (°C)	7,98T ext. ref 2 (°C)	7,97length (m)	temperature (°C)	Stokes	anti-Stokes-744,400	-123,014	0,040	-0,005
-743,385	564,415	-0,140	0,254
-742,371	77,728	0,153	0,122
-741,356	28,425	-0,147	0,092
-740,342	-119,667	0,144	0,018
-739,327	-4,478	-0,260	0,134
-738,312	311,903	-0,021	-0,029
-737,298	4,100	-0,150	0,081
-736,283	244,911	0,134	-0,168
-735,269	-16,604	-0,288	0,135
-734,254	-200,000	0,017	-0,088
-733,239	-183,806	-0,395	-0,005
-732,225	-5,855	0,106	-0,054
-731,210	391,700	0,044	0,068
-730,196	-180,154	-0,170	-0,003
-729,181	24,204	-0,031	-0,019
-728,167	274,371	-0,084	-0,111
-727,152	-135,108	-0,144	-0,013
-726,137	-90,152	-0,135	-0,029
-725,123	79,055	-0,138	-0,110
-724,108	800,000	0,022	-0,069
-723,094	800,000	-0,036	-0,113
-722,079	205,101	-0,142	-0,164
-721,064	19,547	0,110	-0,066
-720,050	-107,484	0,071	0,012
-719,035	16,449	0,046	-0,027
-718,021	-101,957	-0,014	0,003
-717,006	-200,000	-0,012	-0,064
-715,991	-8,115	-0,138	-0,069
-714,977	800,000	-0,022	0,064
-713,962	-45,394	-0,046	0,017
-712,948	10,154	0,116	-0,065
-711,933	185,811	-0,056	0,062
-710,918	-1,503	-0,052	-0,027
-709,904	-200,000	-0,007	-0,087
-708,889	56,632	-0,137	-0,099
-707,875	-45,808	0,073	0,027
-706,860	-200,000	-0,002	0,116
-705,845	-51,104	-0,107	0,037
-704,831	-126,888	0,067	-0,007
-703,816	-75,651	-0,146	-0,038
-702,802	-150,272	-0,111	0,006
-701,787	354,327	-0,153	-0,228
-700,772	800,000	0,017	0,055
-699,758	-118,051	-0,148	-0,019
-698,743	60,608	0,036	-0,027
-697,729	800,000	0,014	-0,032
-696,714	-108,939	-0,133	-0,021
-695,699	-134,373	-0,106	-0,010
-694,685	-132,599	-0,065	0,006
-693,670	237,417	-0,082	-0,101
-692,656	800,000	0,059	-0,138
-691,641	-60,472	-0,043	-0,014
-690,627	800,000	0,032	0,074
-689,612	-153,032	0,048	0,002
-688,597	-165,015	-0,123	0,004
-687,583	61,991	-0,073	0,054
-686,568	-113,723	0,052	-0,007
-685,554	-23,153	0,079	-0,035
-684,539	-53,699	0,132	0,045
-683,524	-200,000	-0,002	0,035
-682,510	301,282	0,091	0,125
-681,495	441,388	0,061	-0,099
-680,481	151,937	-0,136	-0,138
-679,466	-200,000	-0,051	-0,203
-678,451	-60,426	-0,210	0,066
-677,437	800,000	-0,053	0,154
-676,422	260,569	-0,144	0,186
-675,408	800,000	0,059	0,153
-674,393	-18,326	-0,121	0,056
-673,378	-90,815	-0,109	0,023
-672,364	23,105	0,029	-0,018
-671,349	-200,000	0,011	-0,194
-670,335	800,000	0,022	-0,064
-669,320	226,389	0,051	0,061
-668,305	417,694	0,058	0,092
-667,291	-94,468	-0,089	-0,018
-666,276	193,052	-0,047	-0,053
-665,262	46,877	-0,043	-0,029
-664,247	310,641	-0,075	-0,105
-663,232	800,000	-0,055	0,157
-662,218	-200,000	-0,009	-0,071
-661,203	0,229	0,136	-0,072
-660,189	482,159	-0,025	-0,042
-659,174	495,491	-0,055	-0,094
-658,159	199,494	-0,084	-0,096
-657,145	-200,000	-0,001	-0,052
-656,130	800,000	-0,011	-0,024
-655,116	-200,000	0,003	0,047
-654,101	-8,179	-0,059	-0,029
-653,086	-76,199	0,034	-0,009
-652,072	-60,052	-0,106	-0,033
-651,057	-200,000	0,004	-0,028
-650,043	800,000	-0,064	-0,134
-649,028	-48,762	-0,035	0,013
-648,014	-115,601	0,121	0,017
-646,999	-184,190	-0,214	0,003
-645,984	-121,759	-0,071	0,009
-644,970	-200,000	0,025	-0,116
-643,955	679,189	-0,036	0,071
-642,941	-139,604	-0,141	-0,011
-641,926	-48,972	0,047	0,017
-640,911	-119,473	-0,098	0,013
-639,897	-90,530	0,105	-0,022
-638,882	-32,910	0,112	0,046
-637,868	-12,310	-0,092	0,044
-636,853	102,435	-0,073	0,064
-635,838	-200,000	0,002	-0,081
-634,824	510,930	-0,054	-0,093
-633,809	34,557	0,094	-0,061
-632,795	800,000	0,033	0,090
-631,780	-200,000	-0,049	-0,179
-630,765	529,873	-0,051	0,089
-629,751	206,366	-0,088	0,102
-628,736	-125,964	-0,062	0,007
-627,722	-200,000	0,015	-0,113
-626,707	-107,836	-0,037	0,006
-625,692	-150,143	0,103	0,006
-624,678	175,628	0,058	0,063
-623,663	750,812	0,038	-0,076
-622,649	-200,000	-0,004	-0,037
-621,634	800,000	-0,061	-0,154
-620,619	173,879	0,077	0,083
-619,605	155,062	0,047	-0,048
-618,590	-91,681	0,098	-0,021
-617,576	89,973	-0,039	-0,032
-616,561	307,157	-0,058	0,080
-615,546	-200,000	0,007	0,090
-614,532	-65,255	-0,073	-0,022
-613,517	493,073	0,033	0,056
-612,503	23,510	0,074	0,045
-611,488	448,385	-0,064	0,105
-610,474	-200,000	-0,002	0,014
-609,459	-200,000	-0,004	-0,036
-608,444	249,933	-0,098	-0,123
-607,430	181,469	-0,039	0,042
-606,415	-49,160	-0,111	0,039
-605,401	41,272	-0,113	-0,076
-604,386	-123,014	0,180	-0,021
-603,371	47,234	0,096	0,066
-602,357	-16,258	-0,050	0,024
-601,342	-200,000	-0,011	-0,040
-600,328	171,077	-0,066	0,070
-599,313	626,541	-0,066	-0,124
-598,298	63,054	0,051	0,038
-597,284	-170,972	0,122	0,003
-596,269	483,202	-0,022	-0,037
-595,255	171,687	-0,020	0,021
-594,240	-137,919	-0,039	-0,003
-593,225	72,044	-0,123	0,095
-592,211	410,810	-0,085	-0,133
-591,196	800,000	0,058	-0,156
-590,182	-200,000	0,049	-0,188
-589,167	-57,940	0,059	0,019
-588,152	-200,000	0,003	-0,097
-587,138	800,000	0,032	-0,097
-586,123	188,984	-0,097	0,108
-585,109	-200,000	0,036	-0,173
-584,094	-33,559	-0,047	-0,019
-583,079	-200,000	-0,105	-0,000
-582,065	88,460	-0,055	0,045
-581,050	-200,000	0,024	-0,097
-580,036	-184,589	0,072	0,001
-579,021	-200,000	-0,014	0,076
-578,006	213,761	0,012	0,014
-576,992	-113,192	-0,097	-0,014
-575,977	800,000	0,026	0,067
-574,963	346,661	0,050	0,074
-573,948	97,960	0,023	-0,019
-572,934	311,285	0,084	-0,117
-571,919	382,977	-0,048	0,073
-570,904	698,345	0,034	-0,066
-569,890	232,542	0,087	-0,106
-568,875	-118,660	0,082	0,011
-567,861	-158,875	0,211	0,009
-566,846	-200,000	0,002	0,071
-565,831	-200,000	0,019	0,116
-564,817	-21,834	-0,090	-0,040
-563,802	-200,000	0,019	-0,078
-562,788	-109,136	-0,121	-0,019
-561,773	-200,000	0,009	0,067
-560,758	189,357	0,112	0,125
-559,744	-48,922	0,135	0,047
-558,729	-54,219	0,014	-0,005
-557,715	-101,500	-0,152	0,027
-556,700	489,743	0,030	-0,051
-555,685	311,185	0,064	-0,088
-554,671	-162,421	0,039	0,001
-553,656	-34,689	-0,029	0,012
-552,642	800,000	-0,024	0,049
-551,627	12,166	0,065	0,037
-550,612	105,811	-0,078	-0,069
-549,598	-154,546	-0,046	0,002
-548,583	-120,152	-0,065	0,008
-547,569	25,673	0,063	0,039
-546,554	-76,892	0,014	-0,004
-545,539	344,831	-0,022	-0,032
-544,525	-200,000	-0,010	-0,044
-543,510	-171,817	-0,095	0,002
-542,496	248,996	-0,099	-0,124
-541,481	-16,090	-0,052	-0,024
-540,466	-200,000	-0,004	-0,119
-539,452	-200,000	0,007	0,034
-538,437	-70,062	-0,055	-0,015
-537,423	800,000	0,045	-0,131
-536,408	-170,790	-0,056	0,001
-535,393	87,009	-0,165	-0,135
-534,379	-200,000	-0,034	-0,116
-533,364	-152,273	-0,009	-0,000
-532,350	-200,000	-0,031	0,221
-531,335	-200,000	0,052	0,208
-530,321	800,000	-0,057	0,120
-529,306	-79,066	-0,144	-0,036
-528,291	46,168	-0,109	0,074
-527,277	96,362	-0,031	-0,026
-526,262	130,635	-0,052	0,049
-525,248	-95,069	0,178	-0,035
-524,233	-200,000	0,020	0,149
-523,218	11,732	0,017	0,009
-522,204	582,257	-0,026	-0,047
-521,189	-200,000	0,024	-0,112
-520,175	213,529	0,043	0,051
-519,160	46,050	0,096	0,065
-518,145	800,000	-0,026	0,064
-517,131	458,602	0,036	0,059
-516,116	-122,190	-0,032	0,004
-515,102	263,922	0,027	-0,035
-514,087	727,579	0,029	0,057
-513,072	-54,182	-0,076	0,025
-512,058	-200,000	0,010	-0,064
-511,043	-200,000	-0,010	-0,077
-510,029	800,000	0,033	0,080
-509,014	309,245	-0,079	0,109
-507,999	511,270	-0,064	0,111
-506,985	-9,957	0,159	0,078
-505,970	-18,762	0,004	0,002
-504,956	118,624	-0,150	-0,137
-503,941	215,305	0,009	-0,011
-502,926	490,573	-0,032	0,054
-501,912	14,822	0,055	0,032
-500,897	-172,421	0,145	0,003
-499,883	79,817	0,019	-0,015
-498,868	-200,000	-0,007	0,042
-497,853	800,000	-0,031	0,067
-496,839	800,000	-0,030	-0,095
-495,824	-200,000	0,003	0,026
-494,810	-200,000	-0,003	-0,055
-493,795	-36,235	0,095	-0,038
-492,781	800,000	-0,021	-0,060
-491,766	-39,389	-0,111	-0,043
-490,751	736,902	0,020	-0,040
-489,737	366,877	0,067	-0,100
-488,722	42,108	0,120	-0,080
-487,708	143,130	0,103	0,102
-486,693	697,432	0,040	-0,078
-485,678	29,161	0,124	-0,077
-484,664	-200,000	0,035	0,145
-483,649	188,499	0,055	0,061
-482,635	103,271	0,098	-0,085
-481,620	800,000	-0,003	0,011
-480,605	131,150	0,070	-0,066
-479,591	334,163	0,074	0,107
-478,576	-200,000	0,019	-0,170
-477,562	0,276	0,061	0,032
-476,547	99,873	-0,112	-0,096
-475,532	800,000	0,034	0,070
-474,518	88,025	-0,038	-0,031
-473,503	-158,549	0,049	0,002
-472,489	443,187	0,021	-0,033
-471,474	800,000	0,019	0,052
-470,459	-200,000	-0,043	-0,154
-469,445	251,479	-0,040	0,051
-468,430	-200,000	-0,030	-0,128
-467,416	429,437	0,050	-0,080
-466,401	-50,145	0,111	-0,038
-465,386	-200,000	-0,003	0,080
-464,372	169,158	-0,025	-0,027
-463,357	-51,413	-0,034	0,012
-462,343	79,938	-0,093	0,073
-461,328	-117,227	-0,080	0,011
-460,313	-200,000	-0,038	0,144
-459,299	-200,000	-0,011	0,201
-458,284	800,000	0,024	0,051
-457,270	455,112	0,049	0,080
-456,255	-121,681	0,069	0,008
-455,241	-26,548	0,059	-0,025
-454,226	169,720	-0,070	0,074
-453,211	-200,000	0,013	0,078
-452,197	154,182	0,061	0,062
-451,182	800,000	-0,024	-0,076
-450,168	-200,000	-0,007	0,066
-449,153	337,680	-0,069	0,099
-448,138	570,830	0,031	-0,056
-447,124	-200,000	0,006	0,204
-446,109	-123,322	0,052	0,006
-445,095	11,789	0,094	-0,053
-444,080	38,378	0,046	-0,030
-443,065	-120,592	0,107	-0,013
-442,051	-164,004	-0,134	0,005
-441,036	800,000	-0,067	-0,151
-440,022	-167,522	-0,070	0,002
-439,007	-200,000	0,003	-0,049
-437,992	150,965	-0,022	-0,022
-436,978	-100,625	0,098	0,018
-435,963	55,837	-0,121	0,086
-434,949	323,704	0,021	-0,029
-433,934	688,035	-0,029	0,056
-432,919	-200,000	-0,017	0,079
-431,905	800,000	-0,039	-0,096
-430,890	7,212	0,096	-0,053
-429,876	-73,711	0,020	0,005
-428,861	431,944	-0,047	-0,075
-427,846	453,434	0,035	0,057
-426,832	-2,199	-0,192	-0,099
-425,817	11,459	-0,151	-0,085
-424,803	119,276	-0,109	0,099
-423,788	10,319	-0,072	-0,040
-422,773	1,536	0,163	-0,086
-421,759	512,690	-0,064	0,110
-420,744	344,352	0,055	-0,079
-419,730	-174,541	-0,101	-0,002
-418,715	-108,132	0,084	-0,013
-417,701	121,777	-0,031	0,029
-416,686	559,836	0,070	0,125
-415,671	35,759	0,148	0,096
-414,657	800,000	0,012	0,031
-413,642	-200,000	0,016	0,065
-412,628	-82,597	-0,065	-0,015
-411,613	388,343	0,110	-0,168
-410,598	-129,716	-0,050	-0,005
-409,584	638,767	0,035	-0,066
-408,569	54,337	0,110	0,078
-407,555	-133,388	0,152	-0,014
-406,540	800,000	0,010	-0,033
-405,525	-47,671	-0,065	-0,023
-404,511	-100,611	-0,085	-0,015
-403,496	445,645	0,063	-0,103
-402,482	-17,449	-0,088	-0,041
-401,467	27,484	-0,065	0,040
-400,452	-200,000	0,016	0,057
-399,438	612,206	0,068	0,125
-398,423	-19,219	-0,144	-0,065
-397,409	88,803	-0,101	-0,083
-396,394	9,299	0,044	0,025
-395,379	116,475	0,020	-0,018
-394,365	-24,436	0,115	0,050
-393,350	608,525	0,077	0,142
-392,336	207,836	0,101	0,116
-391,321	35,562	-0,053	0,034
-390,306	72,888	0,055	0,042
-389,292	-88,044	-0,087	-0,019
-388,277	320,732	-0,057	0,080
-387,263	-200,000	0,011	0,074
-386,248	-10,268	0,043	0,021
-385,233	-54,485	0,102	0,034
-384,219	-135,588	-0,168	-0,014
-383,204	373,675	0,017	0,026
-382,190	-200,000	0,014	-0,116
-381,175	-87,026	0,042	-0,009
-380,160	-200,000	-0,006	-0,080
-379,146	47,298	0,067	0,046
-378,131	99,008	0,074	-0,063
-377,117	-39,144	-0,121	-0,047
-376,102	128,542	-0,071	0,067
-375,088	-138,290	-0,073	-0,006
-374,073	653,108	-0,050	-0,094
-373,058	-200,000	0,002	-0,018
-372,044	-21,417	0,053	-0,024
-371,029	393,315	-0,078	-0,119
-370,015	84,375	-0,029	-0,024
-369,000	-100,389	-0,148	0,027
-367,985	-24,910	-0,061	-0,027
-366,971	800,000	-0,047	0,112
-365,956	42,987	-0,131	0,088
-364,942	288,455	0,044	-0,058
-363,927	49,569	0,130	0,090
-362,912	-122,796	0,109	0,013
-361,898	-35,310	-0,157	0,062
-360,883	-29,791	-0,118	0,049
-359,869	-200,000	0,027	-0,111
-358,854	425,389	0,036	0,057
-357,839	-200,000	-0,010	-0,055
-356,825	456,930	0,060	0,097
-355,810	215,930	0,033	-0,039
-354,796	-75,076	-0,098	-0,026
-353,781	-37,427	-0,084	-0,033
-352,766	800,000	-0,039	-0,125
-351,752	-187,963	-0,069	0,001
-350,737	25,951	0,017	-0,010
-349,723	-200,000	0,016	-0,070
-348,708	-200,000	0,010	0,110
-347,693	-200,000	0,023	0,149
-346,679	-19,042	0,112	0,051
-345,664	-112,260	0,090	-0,013
-344,650	-56,060	-0,109	-0,035
-343,635	108,379	0,042	-0,037
-342,620	800,000	0,018	0,057
-341,606	-0,232	0,061	0,032
-340,591	424,633	0,083	0,132
-339,577	-103,423	-0,159	-0,027
-338,562	48,256	-0,060	0,041
-337,548	219,542	-0,093	-0,110
-336,533	-41,464	0,147	-0,055
-335,518	435,348	-0,021	-0,033
-334,504	153,514	0,012	0,012
-333,489	-83,621	-0,046	-0,011
-332,475	-200,000	-0,014	-0,057
-331,460	-104,684	-0,101	0,017
-330,445	800,000	-0,027	-0,068
-329,431	-12,476	0,117	-0,056
-328,416	-200,000	0,016	0,054
-327,402	450,562	-0,065	0,105
-326,387	-200,000	0,010	-0,049
-325,372	658,802	-0,046	-0,087
-324,358	204,621	-0,051	-0,058
-323,343	-19,248	0,066	-0,030
-322,329	-13,540	-0,041	0,019
-321,314	690,517	0,072	0,140
-320,299	38,735	-0,067	0,043
-319,285	39,194	-0,078	0,051
-318,270	4,391	0,152	0,081
-317,256	-74,583	0,073	0,019
-316,241	-147,011	0,096	0,006
-315,226	362,307	-0,065	-0,095
-314,212	800,000	-0,009	-0,029
-313,197	-1,272	0,099	-0,051
-312,183	-72,117	0,085	-0,023
-311,168	231,395	-0,071	-0,085
-310,153	41,224	0,065	-0,043
-309,139	-162,407	0,067	-0,002
-308,124	-200,000	-0,029	0,122
-307,110	518,838	-0,035	-0,060
-306,095	65,365	0,126	-0,093
-305,080	321,148	-0,032	-0,045
-304,066	212,423	0,038	-0,045
-303,051	-31,976	-0,141	-0,058
-302,037	258,782	-0,049	-0,062
-301,022	279,335	0,070	0,091
-300,008	-200,000	-0,014	-0,053
-298,993	410,682	0,071	-0,111
-297,978	800,000	-0,069	0,147
-296,964	-60,995	0,068	-0,021
-295,949	-200,000	0,004	0,080
-294,935	35,075	-0,084	-0,054
-293,920	-200,000	0,002	-0,030
-292,905	23,604	0,056	0,034
-291,891	651,871	0,011	0,021
-290,876	-85,651	-0,057	0,013
-289,862	-200,000	0,011	-0,053
-288,847	800,000	-0,050	-0,120
-287,832	-191,082	0,076	-0,001
-286,818	170,794	-0,054	-0,057
-285,803	-4,753	-0,098	0,049
-284,789	507,320	-0,043	-0,073
-283,774	-200,000	0,005	0,081
-282,759	800,000	-0,051	-0,125
-281,745	240,599	0,070	-0,085
-280,730	-4,627	-0,019	-0,010
-279,716	-70,967	-0,109	-0,030
-278,701	269,786	-0,052	0,067
-277,686	-200,000	-0,008	0,045
-276,672	800,000	0,017	0,037
-275,657	41,125	-0,080	-0,053
-274,643	241,580	-0,058	-0,071
-273,628	-200,000	-0,023	-0,107
-272,613	281,521	-0,086	0,113
-271,599	221,451	-0,068	0,080
-270,584	800,000	0,064	0,142
-269,570	-200,000	-0,006	0,053
-268,555	-189,724	0,091	0,001
-267,540	541,863	-0,059	-0,103
-266,526	-200,000	-0,021	-0,076
-265,511	-200,000	-0,004	-0,151
-264,497	-52,066	0,052	-0,018
-263,482	-173,557	0,094	0,002
-262,467	-74,980	0,041	0,011
-261,453	158,995	-0,021	-0,022
-260,438	800,000	-0,066	0,164
-259,424	800,000	0,031	-0,064
-258,409	800,000	-0,005	-0,012
-257,395	161,492	0,077	-0,079
-256,380	-75,118	0,173	0,045
-255,365	-83,259	-0,050	0,012
-254,351	481,345	0,038	-0,063
-253,336	800,000	-0,027	-0,084
-252,322	281,966	-0,019	-0,025
-251,307	-200,000	0,008	0,051
-250,292	77,962	-0,115	-0,089
-249,278	-200,000	0,011	-0,045
-248,263	28,429	0,103	-0,064
-247,249	-200,000	-0,002	-0,066
-246,234	425,762	-0,051	-0,080
-245,219	800,000	0,022	0,071
-244,205	235,111	0,046	0,056
-243,190	800,000	-0,053	0,130
-242,176	-184,375	0,045	0,001
-241,161	-200,000	-0,026	0,138
-240,146	800,000	0,011	0,037
-239,132	-200,000	-0,008	-0,040
-238,117	753,589	-0,068	0,135
-237,103	155,616	0,024	0,024
-236,088	800,000	0,002	0,006
-235,073	175,317	0,041	0,043
-234,059	-45,579	0,105	-0,038
-233,044	33,426	0,029	-0,018
-232,030	99,110	0,059	0,050
-231,015	362,432	-0,065	0,096
-230,000	-30,447	-0,083	-0,034
-228,986	129,971	-0,047	-0,044
-227,971	-122,266	0,126	0,015
-226,957	369,125	-0,024	-0,036
-225,942	48,826	0,054	-0,037
-224,927	-195,511	0,183	0,001
-223,913	-200,000	-0,036	0,142
-222,898	800,000	-0,047	0,106
-221,884	-200,000	0,017	0,055
-220,869	461,635	0,062	-0,102
-219,855	86,102	0,034	0,027
-218,840	199,063	0,049	0,055
-217,825	-25,295	-0,135	0,058
-216,811	-200,000	-0,002	-0,050
-215,796	329,086	-0,024	-0,033
-214,782	628,870	-0,019	-0,035
-213,767	-200,000	0,032	-0,113
-212,752	-200,000	0,001	0,054
-211,738	-113,779	-0,055	-0,008
-210,723	103,638	-0,050	-0,043
-209,709	-200,000	-0,000	0,105
-208,694	76,528	0,054	0,042
-207,679	457,319	0,063	-0,102
-206,665	800,000	-0,040	-0,094
-205,650	517,356	0,014	-0,024
-204,636	800,000	0,052	0,107
-203,621	-68,181	-0,046	0,013
-202,606	29,119	0,094	0,058
-201,592	-63,612	0,040	0,012
-200,577	317,234	0,021	-0,030
-199,563	99,776	0,074	0,063
-198,548	286,574	0,051	-0,068
-197,533	265,532	0,029	0,037
-196,519	-82,644	0,088	0,021
-195,504	800,000	0,024	-0,049
-194,490	800,000	0,072	-0,196
-193,475	-82,783	0,066	0,016
-192,460	-150,170	-0,084	-0,005
-191,446	-200,000	-0,006	-0,037
-190,431	503,017	-0,105	0,177
-189,417	-200,000	-0,016	0,150
-188,402	380,765	-0,074	-0,110
-187,387	800,000	0,016	-0,051
-186,373	-133,751	-0,045	-0,004
-185,358	-200,000	0,010	0,063
-184,344	526,450	0,080	0,138
-183,329	298,462	0,093	0,126
-182,315	-77,517	0,086	0,022
-181,300	-116,931	-0,046	0,006
-180,285	46,594	-0,206	-0,139
-179,271	2,690	-0,143	-0,075
-178,256	-200,000	0,001	0,021
-177,242	800,000	0,042	-0,092
-176,227	-134,445	0,049	0,004
-175,212	-9,531	0,077	0,037
-174,198	800,000	-0,034	0,101
-173,183	-23,522	0,012	-0,005
-172,169	131,098	-0,020	0,019
-171,154	-200,000	0,024	0,169
-170,139	-1,098	0,056	-0,029
-169,125	-74,805	0,040	0,010
-168,110	-200,000	0,035	0,117
-167,096	91,364	0,029	0,024
-166,081	-88,292	-0,067	0,015
-165,066	-200,000	0,015	-0,067
-164,052	6,960	0,066	0,036
-163,037	337,102	-0,015	-0,022
-162,023	575,716	0,031	0,055
-161,008	-130,341	-0,138	0,013
-159,993	246,294	-0,067	-0,083
-158,979	-200,000	-0,015	-0,101
-157,964	53,489	0,075	0,053
-156,950	176,964	-0,108	-0,115
-155,935	173,682	0,080	-0,085
-154,920	-49,280	0,128	0,044
-153,906	91,267	0,141	0,116
-152,891	51,013	-0,109	0,075
-151,877	-106,750	0,033	-0,005
-150,862	-200,000	-0,006	0,090
-149,847	281,216	0,026	0,034
-148,833	-150,142	0,198	-0,011
-147,818	42,587	0,062	-0,041
-146,804	99,208	0,083	-0,070
-145,789	-3,532	0,024	-0,012
-144,775	30,962	0,139	-0,086
-143,760	159,094	0,022	0,022
-142,745	-200,000	0,020	0,066
-141,731	-123,013	-0,162	-0,019
-140,716	185,039	0,120	0,129
-139,702	233,152	0,077	0,092
-138,687	-200,000	0,015	-0,055
-137,672	-200,000	0,003	0,110
-136,658	626,689	-0,069	0,127
-135,643	-71,743	-0,044	0,012
-134,629	-200,000	0,003	0,035
-133,614	-200,000	-0,033	0,114
-132,599	800,000	0,054	0,134
-131,585	255,492	0,037	-0,046
-130,570	-200,000	0,005	-0,069
-129,556	-97,613	-0,136	-0,025
-128,541	137,496	-0,129	-0,123
-127,526	-200,000	-0,008	0,044
-126,512	-200,000	0,012	0,142
-125,497	-200,000	-0,017	0,061
-124,483	-74,230	0,071	-0,019
-123,468	92,681	0,075	0,062
-122,453	-200,000	-0,003	-0,051
-121,439	207,490	-0,002	-0,002
-120,424	161,791	0,044	0,045
-119,410	-200,000	-0,022	-0,088
