DTS Sentinel unit serial number:	SN410029Multiplexer serial number:	ORYXHardware model number:	OX2-SRSoftware version number:	ORYX F/W v4,00 Oryx Data Collector v3.7.2.0data status	okinstallation	B4 Nyhavnadifferential loss correction	single-endedforward channel	channel 2reverse channel	N/Adate	2023/12/18time	20:25:13forward acquisition time	300,00reverse acquisition time	0,00gamma	499,1914k internal	0,3124k external	0,3124temperature offset calibration	1,0000default loss term (dB/km)	0,3820temperature slope calibration	1,0000multiplexer offset coefficient	1,0000multiplexer slope coefficient	1,0000fibre end	0,00T internal ref (°C)	21,87T ext. ref 1 (°C)	7,00T ext. ref 2 (°C)	6,91length (m)	temperature (°C)	Stokes	anti-Stokes-744,400	320,902	0,034	-0,048
-743,385	51,960	-0,251	0,178
-742,371	374,748	0,021	0,032
-741,356	175,185	-0,210	0,227
-740,342	222,834	0,038	-0,045
-739,327	195,913	-0,090	0,103
-738,312	54,463	0,106	-0,076
-737,298	85,381	-0,192	0,157
-736,283	8,456	0,070	-0,039
-735,269	123,747	-0,250	0,234
-734,254	167,922	0,060	-0,064
-733,239	-140,089	-0,464	0,036
-732,225	-135,890	0,055	0,005
-731,210	348,540	-0,066	0,097
-730,196	250,491	-0,078	-0,098
-729,181	800,000	-0,075	0,169
-728,167	-200,000	-0,006	-0,103
-727,152	-200,000	-0,013	0,050
-726,137	-163,704	-0,081	-0,003
-725,123	-104,906	-0,127	-0,021
-724,108	-73,828	-0,109	0,029
-723,094	-127,594	-0,068	-0,007
-722,079	539,078	0,003	-0,005
-721,064	-200,000	0,003	0,035
-720,050	-192,635	-0,101	0,001
-719,035	-93,127	-0,062	-0,013
-718,021	255,445	-0,052	-0,067
-717,006	163,769	-0,088	-0,093
-715,991	6,447	-0,123	-0,068
-714,977	-200,000	-0,001	-0,139
-713,962	-10,395	-0,076	0,037
-712,948	230,809	-0,028	-0,035
-711,933	48,971	0,066	0,046
-710,918	-200,000	-0,007	-0,190
-709,904	100,700	-0,133	-0,115
-708,889	240,253	-0,037	-0,046
-707,875	-200,000	-0,014	0,091
-706,860	800,000	-0,047	-0,153
-705,845	-50,125	-0,076	-0,027
-704,831	7,337	-0,101	-0,056
-703,816	-200,000	-0,001	0,005
-702,802	614,298	0,072	-0,135
-701,787	456,820	-0,056	-0,093
-700,772	17,890	-0,108	0,064
-699,758	151,963	-0,107	0,108
-698,743	-0,576	0,100	0,053
-697,729	25,005	0,046	-0,028
-696,714	-200,000	-0,018	0,120
-695,699	-200,000	0,002	-0,082
-694,685	100,453	-0,056	0,048
-693,670	-186,260	0,095	0,001
-692,656	32,467	-0,133	-0,085
-691,641	-200,000	-0,020	-0,072
-690,627	-73,535	0,074	-0,020
-689,612	800,000	-0,030	0,071
-688,597	236,144	0,084	0,103
-687,583	-22,665	0,081	0,036
-686,568	73,868	-0,084	-0,065
-685,554	32,401	-0,035	-0,022
-684,539	250,324	-0,020	-0,025
-683,524	105,400	-0,021	0,019
-682,510	800,000	0,044	0,092
-681,495	33,972	-0,107	-0,069
-680,481	-117,461	-0,072	0,010
-679,466	-141,498	-0,057	0,004
-678,451	798,497	0,044	0,091
-677,437	59,292	0,031	-0,023
-676,422	19,528	-0,032	-0,019
-675,408	-200,000	0,008	0,064
-674,393	-200,000	-0,008	0,040
-673,378	800,000	-0,077	0,198
-672,364	-84,370	-0,154	-0,036
-671,349	-200,000	-0,059	-0,211
-670,335	-116,265	-0,144	0,020
-669,320	297,001	-0,039	0,053
-668,305	-200,000	0,023	0,102
-667,291	308,536	-0,091	-0,127
-666,276	267,217	-0,016	-0,021
-665,262	-200,000	0,019	-0,125
-664,247	800,000	0,067	-0,169
-663,232	15,051	-0,043	-0,025
-662,218	1,688	-0,171	-0,091
-661,203	681,435	0,028	0,055
-660,189	-116,698	-0,104	0,014
-659,174	31,748	-0,058	0,037
-658,159	-72,441	-0,084	-0,023
-657,145	-80,306	-0,121	-0,030
-656,130	317,119	-0,077	0,109
-655,116	109,629	0,020	-0,018
-654,101	-137,116	-0,108	0,009
-653,086	-80,147	-0,209	-0,052
-652,072	323,284	0,010	-0,014
-651,057	628,626	0,039	-0,074
-650,043	-200,000	0,011	-0,091
-649,028	134,547	-0,083	0,080
-648,014	-84,466	0,100	0,023
-646,999	72,766	-0,140	-0,109
-645,984	-200,000	-0,006	-0,050
-644,970	-84,391	0,064	-0,015
-643,955	-71,026	-0,061	-0,017
-642,941	462,645	0,047	0,078
-641,926	267,228	0,091	-0,118
-640,911	15,168	-0,059	-0,034
-639,897	-111,990	0,107	0,016
-638,882	90,559	-0,043	-0,036
-637,868	-41,370	-0,022	-0,008
-636,853	-97,279	-0,111	-0,021
-635,838	-200,000	0,003	-0,060
-634,824	-97,631	-0,152	0,029
-633,809	43,136	0,049	0,033
-632,795	72,136	0,085	0,065
-631,780	-200,000	-0,022	0,099
-630,765	466,713	-0,037	0,061
-629,751	119,998	-0,041	-0,038
-628,736	79,591	0,033	-0,027
-627,722	-16,645	-0,095	0,044
-626,707	93,841	-0,027	-0,022
-625,692	-30,297	0,106	0,044
-624,678	-200,000	-0,011	-0,066
-623,663	-8,403	-0,067	-0,033
-622,649	-56,177	-0,003	0,001
-621,634	-200,000	0,018	-0,098
-620,619	-200,000	0,011	-0,048
-619,605	-200,000	-0,004	0,030
-618,590	66,606	0,058	0,043
-617,576	-6,975	-0,049	0,024
-616,561	-38,976	0,092	-0,036
-615,546	-200,000	-0,016	-0,102
-614,532	-41,867	0,023	-0,009
-613,517	-67,542	-0,053	-0,015
-612,503	87,100	-0,042	0,034
-611,488	800,000	-0,038	0,113
-610,474	169,038	0,038	0,040
-609,459	31,780	-0,029	0,019
-608,444	-98,569	-0,048	0,009
-607,430	-200,000	0,005	-0,106
-606,415	-200,000	-0,004	-0,128
-605,401	-165,052	-0,088	-0,003
-604,386	-51,180	0,168	0,058
-603,371	682,783	0,023	0,045
-602,357	800,000	-0,054	-0,124
-601,342	800,000	-0,056	-0,138
-600,328	50,220	-0,086	0,060
-599,313	791,028	0,033	-0,067
-598,298	246,127	-0,027	-0,034
-597,284	-200,000	-0,033	0,170
-596,269	800,000	-0,023	0,056
-595,255	-82,186	0,073	-0,017
-594,240	800,000	-0,059	0,147
-593,225	69,387	0,023	0,017
-592,211	435,925	0,095	-0,153
-591,196	-200,000	-0,013	-0,081
-590,182	-200,000	0,010	0,045
-589,167	636,720	-0,050	0,095
-588,152	-67,767	-0,170	-0,049
-587,138	69,561	-0,069	0,053
-586,123	23,393	-0,058	-0,035
-585,109	800,000	-0,026	-0,069
-584,094	133,296	-0,098	-0,094
-583,079	800,000	-0,016	0,036
-582,065	20,654	0,061	-0,036
-581,050	-48,608	0,072	-0,026
-580,036	800,000	-0,003	-0,007
-579,021	-200,000	-0,005	-0,108
-578,006	-200,000	0,010	-0,123
-576,992	-59,161	-0,146	-0,046
-575,977	-33,232	0,074	-0,030
-574,963	800,000	-0,049	0,119
-573,948	52,299	0,016	0,011
-572,934	-200,000	0,006	0,042
-571,919	413,256	0,043	-0,069
-570,904	-30,340	-0,017	0,007
-569,890	741,074	-0,030	-0,059
-568,875	-55,195	-0,053	0,017
-567,861	-200,000	0,007	0,073
-566,846	368,371	0,038	0,057
-565,831	157,017	-0,059	0,060
-564,817	800,000	-0,030	-0,070
-563,802	-117,977	-0,197	-0,026
-562,788	40,333	-0,127	-0,084
-561,773	-200,000	0,015	-0,087
-560,758	258,819	0,099	-0,126
-559,744	494,618	0,014	0,025
-558,729	16,357	0,059	0,034
-557,715	-200,000	-0,085	0,000
-556,700	178,677	-0,012	-0,013
-555,685	55,145	-0,067	0,048
-554,671	800,000	-0,030	0,079
-553,656	-200,000	0,024	0,080
-552,642	-200,000	-0,010	0,137
-551,627	362,919	-0,021	0,032
-550,612	-177,134	0,152	-0,003
-549,598	-49,288	-0,272	-0,096
-548,583	-91,266	-0,149	0,031
-547,569	-14,907	0,144	-0,068
-546,554	-200,000	0,011	-0,116
-545,539	207,476	-0,070	0,081
-544,525	-186,012	-0,128	0,001
-543,510	800,000	-0,014	-0,034
-542,496	-200,000	-0,021	0,110
-541,481	800,000	-0,060	-0,128
-540,466	57,730	0,082	0,059
-539,452	-58,722	0,030	-0,010
-538,437	289,138	0,098	0,131
-537,423	-119,354	-0,095	0,012
-536,408	-134,636	0,070	0,006
-535,393	-46,413	-0,101	-0,037
-534,379	-200,000	0,028	-0,128
-533,364	-200,000	-0,024	0,079
-532,350	800,000	0,033	0,090
-531,335	-200,000	-0,004	0,080
-530,321	125,741	0,044	0,041
-529,306	-199,911	0,068	0,000
-528,291	774,281	-0,061	0,123
-527,277	-200,000	-0,004	0,017
-526,262	-200,000	0,004	-0,113
-525,248	459,998	0,064	-0,106
-524,233	129,909	-0,113	0,107
-523,218	452,573	0,058	-0,095
-522,204	800,000	0,011	-0,031
-521,189	77,315	-0,127	-0,100
-520,175	-85,723	0,103	-0,023
-519,160	560,150	0,080	-0,143
-518,145	397,904	0,043	0,066
-517,131	751,084	0,080	0,159
-516,116	126,726	0,017	-0,016
-515,102	-56,424	-0,123	0,040
-514,087	-75,892	0,196	0,051
-513,072	-12,469	-0,160	-0,077
-512,058	373,406	0,009	-0,014
-511,043	-5,359	0,123	0,062
-510,029	-96,429	-0,057	0,011
-509,014	19,435	-0,037	-0,022
-507,999	97,759	0,143	-0,121
-506,985	-200,000	-0,010	0,144
-505,970	-200,000	-0,009	-0,048
-504,956	278,279	0,083	-0,109
-503,941	-84,407	-0,095	0,022
-502,926	-200,000	0,021	0,112
-501,912	-76,290	0,112	-0,029
-500,897	-59,971	-0,030	0,009
-499,883	-133,524	-0,108	0,010
-498,868	-200,000	-0,010	0,038
-497,853	-200,000	0,034	-0,120
-496,839	-200,000	0,019	0,093
-495,824	-200,000	0,006	-0,044
-494,810	-195,346	-0,086	0,000
-493,795	92,092	0,073	-0,060
-492,781	800,000	-0,029	-0,068
-491,766	800,000	-0,039	-0,110
-490,751	247,308	-0,057	-0,071
-489,737	-73,230	0,063	0,017
-488,722	51,427	-0,052	0,037
-487,708	800,000	0,034	-0,079
-486,693	-83,236	-0,068	0,016
-485,678	144,489	-0,029	0,029
-484,664	-29,501	0,067	0,028
-483,649	408,262	-0,038	0,059
-482,635	-166,755	0,032	-0,001
-481,620	-85,707	-0,055	0,013
-480,605	92,176	0,064	-0,054
-479,591	800,000	-0,015	-0,049
-478,576	800,000	-0,012	0,030
-477,562	-200,000	0,019	-0,138
-476,547	800,000	0,022	-0,066
-475,532	-200,000	0,003	-0,020
-474,518	-28,553	-0,029	-0,012
-473,503	800,000	-0,034	0,095
-472,489	-108,997	0,212	0,033
-471,474	-141,582	-0,151	-0,011
-470,459	384,108	-0,037	-0,056
-469,445	33,685	0,027	-0,017
-468,430	61,685	-0,069	-0,051
-467,416	402,553	0,050	0,077
-466,401	-200,000	-0,032	0,164
-465,386	800,000	-0,001	0,003
-464,372	-50,673	0,066	0,023
-463,357	282,695	-0,023	-0,030
-462,343	-200,000	0,011	-0,049
-461,328	321,237	-0,036	0,051
-460,313	-200,000	0,011	0,072
-459,299	184,073	0,011	0,012
-458,284	800,000	-0,058	0,154
-457,270	-145,652	-0,039	-0,003
-456,255	-200,000	-0,014	-0,094
-455,241	-200,000	0,002	-0,153
-454,226	-133,085	0,180	0,017
-453,211	-53,177	0,126	-0,042
-452,197	-20,010	-0,022	0,010
-451,182	284,252	-0,043	-0,058
-450,168	-200,000	-0,009	0,151
-449,153	-200,000	0,005	0,033
-448,138	205,421	-0,055	-0,063
-447,124	-200,000	0,018	-0,102
-446,109	390,556	-0,086	0,132
-445,095	-200,000	0,011	0,078
-444,080	22,604	0,072	0,043
-443,065	63,136	0,021	-0,015
-442,051	314,946	0,094	-0,130
-441,036	800,000	-0,036	-0,113
-440,022	395,901	-0,117	-0,180
-439,007	288,214	-0,098	-0,131
-437,992	406,074	-0,102	-0,159
-436,978	800,000	0,027	-0,061
-435,963	-200,000	0,001	0,014
-434,949	-142,552	-0,072	0,005
-433,934	156,828	-0,081	-0,082
-432,919	69,469	-0,034	-0,026
-431,905	327,281	-0,128	-0,182
-430,890	800,000	0,022	-0,052
-429,876	33,867	0,094	0,060
-428,861	-200,000	-0,005	0,030
-427,846	-43,586	0,132	0,049
-426,832	107,872	-0,020	-0,018
-425,817	6,452	-0,089	-0,048
-424,803	800,000	0,024	-0,054
-423,788	800,000	0,028	0,079
-422,773	203,869	0,083	0,095
-421,759	-52,453	0,105	0,035
-420,744	-33,781	0,023	0,009
-419,730	-130,192	0,023	0,002
-418,715	181,752	-0,060	0,065
-417,701	-164,665	0,102	-0,003
-416,686	-18,875	0,099	-0,045
-415,671	-70,815	0,059	0,016
-414,657	800,000	0,025	0,078
-413,642	-200,000	0,018	-0,094
-412,628	800,000	-0,028	-0,060
-411,613	19,454	-0,214	-0,126
-410,598	43,967	0,027	0,018
-409,584	619,244	0,062	-0,116
-408,569	226,586	0,107	0,128
-407,555	98,923	0,133	0,113
-406,540	-200,000	-0,027	0,090
-405,525	-63,049	-0,109	-0,033
-404,511	-200,000	-0,002	-0,090
-403,496	57,143	0,029	-0,021
-402,482	54,240	0,124	-0,087
-401,467	458,731	0,043	-0,071
-400,452	-200,000	-0,007	-0,067
-399,438	800,000	-0,016	-0,044
-398,423	-200,000	0,034	-0,206
-397,409	-200,000	-0,001	0,072
-396,394	362,212	0,031	-0,047
-395,379	183,751	-0,037	-0,041
-394,365	-200,000	-0,042	0,185
-393,350	231,622	0,027	0,032
-392,336	341,765	-0,079	0,114
-391,321	-200,000	0,017	-0,072
-390,306	-200,000	-0,012	-0,073
-389,292	66,978	0,047	-0,035
-388,277	800,000	-0,049	-0,131
-387,263	800,000	0,029	0,068
-386,248	-30,888	0,090	-0,037
-385,233	-27,017	0,061	-0,026
-384,219	-200,000	0,006	0,111
-383,204	-160,624	0,122	0,005
-382,190	-8,019	0,032	-0,016
-381,175	255,196	-0,092	-0,115
-380,160	800,000	-0,035	0,084
-379,146	-200,000	0,040	0,144
-378,131	75,933	0,141	0,110
-377,117	-56,099	-0,042	0,014
-376,102	800,000	-0,040	-0,105
-375,088	800,000	-0,027	0,062
-374,073	-56,181	-0,091	-0,030
-373,058	-4,706	0,102	0,051
-372,044	-200,000	0,027	0,092
-371,029	84,037	0,138	0,111
-370,015	251,498	-0,083	-0,103
-369,000	67,070	0,076	0,056
-367,985	32,693	-0,100	0,064
-366,971	800,000	0,065	-0,190
-365,956	-200,000	-0,011	-0,081
-364,942	124,604	-0,033	-0,031
-363,927	206,589	0,050	0,057
-362,912	63,080	-0,038	-0,028
-361,898	357,982	0,048	-0,071
-360,883	-3,265	-0,040	-0,020
-359,869	434,796	-0,030	-0,048
-358,854	377,689	-0,010	-0,016
-357,839	-17,077	0,109	-0,050
-356,825	-26,574	0,053	0,023
-355,810	-200,000	-0,003	0,064
-354,796	-177,690	0,151	0,003
-353,781	-116,802	0,034	-0,005
-352,766	-200,000	-0,007	-0,036
-351,752	800,000	0,003	-0,006
-350,737	-200,000	-0,008	0,074
-349,723	41,598	0,077	-0,051
-348,708	-4,449	-0,081	0,041
-347,693	697,430	0,012	-0,022
-346,679	-93,388	-0,088	-0,018
-345,664	-200,000	0,017	-0,080
-344,650	-29,458	0,023	-0,010
-343,635	-200,000	-0,004	0,017
-342,620	462,868	-0,062	0,102
-341,606	-200,000	-0,011	0,065
-340,591	-153,949	0,018	0,001
-339,577	93,128	-0,083	-0,069
-338,562	-92,133	0,081	0,017
-337,548	120,024	0,054	0,049
-336,533	-200,000	-0,005	0,057
-335,518	157,496	0,059	-0,060
-334,504	-133,011	0,068	0,006
-333,489	-200,000	0,021	-0,086
-332,475	-200,000	-0,006	-0,099
-331,460	218,327	-0,109	0,128
-330,445	-147,256	-0,026	-0,002
-329,431	-200,000	0,014	-0,101
-328,416	-32,849	0,068	0,028
-327,402	130,417	-0,018	-0,017
-326,387	-200,000	0,004	-0,044
-325,372	782,417	0,027	-0,054
-324,358	-200,000	-0,008	0,049
-323,343	-200,000	0,017	0,064
-322,329	-10,625	0,053	0,026
-321,314	-200,000	-0,003	0,171
-320,299	581,591	0,064	0,115
-319,285	-200,000	0,017	0,149
-318,270	800,000	-0,050	-0,123
-317,256	-200,000	-0,033	-0,164
-316,241	-200,000	0,040	0,153
-315,226	94,393	0,085	0,071
-314,212	-176,444	-0,173	-0,003
-313,197	800,000	-0,046	0,095
-312,183	800,000	-0,037	-0,083
-311,168	-200,000	-0,023	-0,127
-310,153	119,791	-0,032	0,029
-309,139	-140,172	-0,018	0,001
-308,124	-138,388	0,041	0,003
-307,110	-200,000	-0,001	-0,086
-306,095	285,146	0,047	0,063
-305,080	73,948	0,112	0,086
-304,066	800,000	-0,038	-0,089
-303,051	15,774	-0,087	0,050
-302,037	97,463	0,073	-0,061
-301,022	-200,000	0,002	-0,027
-300,008	-200,000	-0,018	0,121
-298,993	356,953	0,080	0,116
-297,978	711,697	0,030	0,058
-296,964	474,450	0,029	-0,048
-295,949	509,194	0,058	0,100
-294,935	3,079	-0,122	-0,065
-293,920	71,940	-0,060	-0,046
-292,905	800,000	-0,028	0,065
-291,891	230,421	-0,063	0,076
-290,876	-97,181	-0,067	-0,013
-289,862	-80,080	-0,026	-0,006
-288,847	-4,014	-0,099	0,050
-287,832	-123,265	-0,173	-0,020
-286,818	-51,715	0,075	0,026
-285,803	346,526	0,072	0,104
-284,789	150,709	-0,068	0,067
-283,774	-93,533	0,045	0,009
-282,759	-146,547	0,013	0,001
-281,745	73,023	0,009	0,007
-280,730	-200,000	0,039	-0,202
-279,716	800,000	0,044	-0,092
-278,701	-10,798	-0,067	0,032
-277,686	-200,000	-0,008	0,170
-276,672	30,970	0,035	0,022
-275,657	34,843	-0,043	-0,027
-274,643	-20,142	-0,150	0,067
-273,628	129,239	0,106	0,099
-272,613	-18,617	-0,044	-0,020
-271,599	-90,853	0,131	0,027
-270,584	82,201	0,064	-0,050
-269,570	-134,264	0,083	0,007
-268,555	142,853	-0,075	0,073
-267,540	-200,000	0,022	-0,127
-266,526	77,528	-0,015	0,012
-265,511	800,000	0,003	-0,008
-264,497	800,000	0,067	0,180
-263,482	150,311	0,077	0,076
-262,467	693,255	0,049	0,095
-261,453	-78,033	0,147	0,037
-260,438	126,009	-0,128	-0,118
-259,424	187,468	-0,053	-0,058
-258,409	302,034	-0,073	-0,099
-257,395	-200,000	-0,013	0,079
-256,380	800,000	0,069	0,164
-255,365	-62,908	-0,067	-0,020
-254,351	800,000	0,013	0,031
-253,336	87,924	0,108	-0,087
-252,322	427,905	-0,009	0,014
-251,307	-141,294	-0,074	0,005
-250,292	467,845	-0,021	-0,034
-249,278	-114,092	0,121	0,017
-248,263	-125,937	0,100	-0,011
-247,249	-200,000	0,002	-0,089
-246,234	-140,867	-0,114	-0,008
-245,219	302,815	0,019	0,026
-244,205	266,144	0,027	-0,035
-243,190	-77,335	0,015	0,004
-242,176	61,756	0,069	-0,050
-241,161	-84,058	-0,080	-0,018
-240,146	8,960	0,007	-0,004
-239,132	-105,757	-0,153	0,025
-238,117	-200,000	-0,015	-0,085
-237,103	800,000	-0,027	-0,071
-236,088	157,182	-0,066	-0,067
-235,073	800,000	0,028	-0,071
-234,059	-200,000	-0,016	-0,124
-233,044	42,055	0,145	0,096
-232,030	-27,174	0,053	0,023
-231,015	478,973	-0,065	-0,109
-230,000	152,494	-0,005	-0,005
-228,986	-200,000	-0,003	0,051
-227,971	-87,630	0,116	0,025
-226,957	800,000	-0,025	0,066
-225,942	235,308	-0,091	0,110
-224,927	296,345	0,022	0,029
-223,913	800,000	-0,031	0,085
-222,898	150,585	0,016	-0,016
-221,884	800,000	-0,051	0,131
-220,869	-133,088	-0,170	-0,016
-219,855	800,000	0,024	-0,056
-218,840	-200,000	0,019	0,116
-217,825	-34,411	-0,116	0,046
-216,811	51,634	0,035	0,025
-215,796	-200,000	0,035	-0,175
-214,782	-66,907	0,021	0,006
-213,767	5,509	0,130	-0,070
-212,752	-165,485	-0,061	-0,002
-211,738	-200,000	0,003	0,068
-210,723	-200,000	0,006	-0,073
-209,709	-200,000	-0,009	0,077
-208,694	-90,201	-0,152	-0,032
-207,679	122,150	0,028	-0,026
-206,665	394,057	0,050	-0,076
-205,650	253,114	0,016	0,020
-204,636	-200,000	-0,014	0,093
-203,621	800,000	-0,023	0,051
-202,606	154,882	-0,076	-0,076
-201,592	-200,000	0,015	-0,114
-200,577	366,095	0,048	0,071
-199,563	-171,348	-0,066	0,002
-198,548	-200,000	-0,009	0,051
-197,533	62,799	0,109	0,080
-196,519	239,073	-0,038	0,046
-195,504	-82,299	0,093	-0,022
-194,490	505,247	0,044	-0,075
-193,475	-116,460	0,112	0,015
-192,460	-200,000	0,013	0,063
-191,446	66,338	0,069	-0,051
-190,431	572,992	0,051	0,092
-189,417	146,884	0,085	0,084
-188,402	-25,783	-0,114	-0,049
-187,387	-24,756	0,029	0,013
-186,373	143,610	0,056	0,055
-185,358	305,504	-0,044	-0,060
-184,344	235,719	0,119	0,143
-183,329	508,003	0,051	0,087
-182,315	102,085	0,137	0,116
-181,300	94,114	-0,049	0,041
-180,285	205,123	0,013	0,015
-179,271	41,874	0,087	0,057
-178,256	-200,000	-0,011	-0,160
-177,242	800,000	-0,013	0,027
-176,227	684,004	0,089	0,169
-175,212	286,505	0,046	0,061
-174,198	201,664	0,069	-0,078
-173,183	-136,662	-0,061	0,005
-172,169	-174,949	0,050	0,001
-171,154	-110,795	-0,109	-0,016
-170,139	-200,000	-0,028	-0,116
-169,125	89,863	0,043	0,035
-168,110	-58,588	-0,067	-0,021
-167,096	357,549	-0,077	0,113
-166,081	-200,000	0,025	0,095
-165,066	-81,636	-0,053	0,013
-164,052	204,990	-0,032	0,036
-163,037	82,401	-0,069	0,055
-162,023	58,626	0,093	-0,066
-161,008	277,269	-0,110	0,143
-159,993	-200,000	-0,012	0,054
-158,979	14,910	0,063	0,036
-157,964	111,748	0,016	-0,014
-156,950	-200,000	0,008	-0,031
-155,935	-200,000	-0,008	0,071
-154,920	68,956	-0,073	0,055
-153,906	-200,000	0,012	-0,115
-152,891	-8,088	0,016	0,008
-151,877	-39,330	0,143	-0,054
-150,862	-200,000	-0,094	0,000
-149,847	86,661	0,021	0,017
-148,833	-24,773	0,075	-0,032
-147,818	-16,113	0,071	-0,033
-146,804	-200,000	-0,004	0,088
-145,789	-11,929	0,034	0,016
-144,775	-200,000	0,012	-0,132
-143,760	-138,280	-0,107	-0,009
-142,745	800,000	-0,012	-0,026
-141,731	-11,023	0,087	-0,042
-140,716	-82,878	0,106	-0,025
-139,702	452,525	-0,045	0,073
-138,687	-67,210	0,213	0,061
-137,672	-200,000	-0,010	-0,082
-136,658	-200,000	0,003	-0,037
-135,643	601,886	0,042	-0,077
-134,629	800,000	-0,034	-0,086
-133,614	123,563	0,052	0,047
-132,599	-55,355	0,086	0,028
-131,585	238,783	0,100	0,121
-130,570	-200,000	0,017	0,108
-129,556	800,000	-0,048	0,149
-128,541	-200,000	-0,008	-0,069
-127,526	-20,654	-0,079	0,035
-126,512	207,127	0,048	0,054
-125,497	-200,000	-0,040	-0,161
-124,483	22,088	0,052	-0,031
-123,468	84,742	-0,145	-0,116
-122,453	-200,000	0,008	0,031
-121,439	312,744	-0,034	0,046
-120,424	740,077	0,013	0,025
-119,410	-90,880	0,065	-0,013
