DTS Sentinel unit serial number:	SN410029Multiplexer serial number:	ORYXHardware model number:	OX2-SRSoftware version number:	ORYX F/W v4,00 Oryx Data Collector v3.7.2.0data status	okinstallation	B4 Nyhavnadifferential loss correction	single-endedforward channel	channel 2reverse channel	N/Adate	2023/12/15time	19:00:13forward acquisition time	300,00reverse acquisition time	0,00gamma	499,1914k internal	0,3138k external	0,3138temperature offset calibration	1,0000default loss term (dB/km)	0,3820temperature slope calibration	1,0000multiplexer offset coefficient	1,0000multiplexer slope coefficient	1,0000fibre end	0,00T internal ref (°C)	19,54T ext. ref 1 (°C)	5,41T ext. ref 2 (°C)	5,59length (m)	temperature (°C)	Stokes	anti-Stokes-744,400	724,683	0,058	-0,114
-743,385	-30,593	-0,210	0,088
-742,371	-78,153	0,087	0,022
-741,356	105,319	-0,119	0,105
-740,342	389,983	0,111	-0,171
-739,327	-93,241	-0,286	0,058
-738,312	4,781	0,139	0,075
-737,298	-70,282	-0,332	0,093
-736,283	-78,965	0,138	0,035
-735,269	188,960	-0,096	0,107
-734,254	22,147	-0,024	-0,014
-733,239	1,899	-0,359	-0,191
-732,225	2,136	0,187	0,100
-731,210	126,326	-0,084	0,079
-730,196	-53,525	-0,050	-0,017
-729,181	-200,000	0,022	-0,141
-728,167	-200,000	-0,004	-0,169
-727,152	-200,000	0,030	0,165
-726,137	-200,000	-0,020	-0,134
-725,123	-46,816	-0,132	-0,048
-724,108	-128,433	-0,078	0,008
-723,094	269,445	-0,084	0,110
-722,079	318,917	0,106	-0,149
-721,064	800,000	-0,050	-0,120
-720,050	52,073	-0,020	-0,014
-719,035	369,462	0,037	-0,056
-718,021	-200,000	0,005	0,033
-717,006	800,000	-0,016	-0,039
-715,991	241,539	-0,075	-0,094
-714,977	-200,000	0,038	-0,198
-713,962	168,268	-0,110	-0,116
-712,948	800,000	0,045	-0,101
-711,933	589,089	-0,045	0,082
-710,918	16,272	-0,073	0,043
-709,904	800,000	-0,017	0,047
-708,889	385,539	0,041	0,063
-707,875	541,193	-0,086	-0,152
-706,860	-100,998	0,141	0,025
-705,845	59,002	-0,145	0,105
-704,831	-107,080	0,054	0,009
-703,816	421,513	-0,078	0,125
-702,802	-200,000	0,001	-0,038
-701,787	-72,296	-0,041	-0,011
-700,772	-26,785	-0,086	-0,037
-699,758	-200,000	-0,009	0,035
-698,743	137,405	0,077	-0,075
-697,729	-149,659	0,267	0,015
-696,714	800,000	-0,023	-0,067
-695,699	-200,000	0,005	-0,162
-694,685	-200,000	-0,020	-0,106
-693,670	-200,000	0,003	0,030
-692,656	42,419	-0,113	-0,076
-691,641	-24,268	0,071	0,031
-690,627	-11,943	-0,132	0,064
-689,612	245,596	0,014	0,017
-688,597	186,122	-0,103	-0,114
-687,583	-123,071	-0,037	0,004
-686,568	-200,000	-0,013	0,102
-685,554	-55,098	-0,049	0,016
-684,539	113,674	-0,094	-0,085
-683,524	131,213	0,047	-0,045
-682,510	-200,000	0,008	-0,034
-681,495	527,146	-0,067	-0,117
-680,481	-86,135	-0,097	0,022
-679,466	-200,000	0,019	-0,152
-678,451	168,528	0,077	-0,081
-677,437	-200,000	-0,024	0,087
-676,422	115,420	-0,091	-0,083
-675,408	-200,000	0,031	0,130
-674,393	99,938	-0,055	0,047
-673,378	23,127	-0,079	-0,048
-672,364	298,217	-0,046	-0,063
-671,349	-51,656	0,059	-0,020
-670,335	48,797	-0,144	0,099
-669,320	-9,933	-0,092	0,045
-668,305	-150,982	0,065	0,004
-667,291	90,381	-0,136	-0,113
-666,276	-200,000	-0,010	0,064
-665,262	-200,000	-0,012	-0,041
-664,247	-38,404	-0,053	-0,021
-663,232	-200,000	-0,011	-0,085
-662,218	-25,351	0,053	-0,023
-661,203	-17,558	-0,086	-0,040
-660,189	7,568	0,112	0,062
-659,174	-200,000	-0,028	-0,104
-658,159	-149,237	0,060	-0,003
-657,145	-85,729	-0,111	-0,025
-656,130	-46,108	-0,124	0,045
-655,116	146,591	-0,043	0,043
-654,101	181,119	-0,034	0,037
-653,086	93,914	-0,049	-0,041
-652,072	800,000	0,060	0,168
-651,057	297,909	0,057	-0,077
-650,043	145,092	0,020	0,020
-649,028	158,683	0,038	-0,039
-648,014	144,311	-0,092	-0,091
-646,999	-200,000	-0,005	0,036
-645,984	67,257	0,082	0,062
-644,970	-200,000	0,007	-0,074
-643,955	151,584	-0,058	-0,059
-642,941	552,413	0,034	-0,060
-641,926	-64,335	0,093	0,028
-640,911	800,000	0,014	0,032
-639,897	154,013	0,063	-0,064
-638,882	-200,000	0,006	0,073
-637,868	88,795	0,117	0,096
-636,853	-89,755	-0,176	0,038
-635,838	72,801	-0,106	-0,082
-634,824	163,087	-0,019	-0,020
-633,809	19,754	-0,054	0,032
-632,795	-14,435	0,134	0,063
-631,780	-81,266	-0,048	0,012
-630,765	252,584	0,046	0,058
-629,751	-66,754	-0,074	-0,021
-628,736	-55,687	-0,138	0,045
-627,722	39,293	-0,005	-0,003
-626,707	69,979	-0,068	-0,052
-625,692	-117,480	0,053	-0,007
-624,678	-54,108	-0,030	-0,010
-623,663	-116,778	-0,094	0,013
-622,649	-67,816	-0,110	-0,032
-621,634	422,396	-0,033	-0,052
-620,619	800,000	-0,038	-0,106
-619,605	252,270	0,032	-0,041
-618,590	213,789	0,020	-0,023
-617,576	206,794	0,026	-0,030
-616,561	-108,682	0,058	0,009
-615,546	-200,000	-0,023	-0,146
-614,532	108,891	-0,072	-0,063
-613,517	-18,614	-0,087	-0,040
-612,503	436,595	0,072	-0,116
-611,488	224,504	-0,044	0,053
-610,474	620,937	-0,017	0,032
-609,459	299,042	0,042	0,057
-608,444	800,000	-0,033	-0,092
-607,430	800,000	-0,034	-0,098
-606,415	129,946	-0,110	0,104
-605,401	-13,142	0,111	-0,053
-604,386	33,791	0,042	0,027
-603,371	800,000	-0,069	-0,145
-602,357	364,239	0,013	-0,020
-601,342	800,000	0,028	0,067
-600,328	203,419	0,096	-0,109
-599,313	33,292	-0,088	-0,056
-598,298	-200,000	0,023	0,227
-597,284	264,185	0,032	0,041
-596,269	-200,000	0,030	0,100
-595,255	735,336	0,027	-0,054
-594,240	267,117	0,053	-0,068
-593,225	-200,000	-0,001	-0,238
-592,211	-200,000	0,038	-0,129
-591,196	-200,000	-0,052	-0,197
-590,182	-200,000	0,006	-0,032
-589,167	116,254	0,066	-0,060
-588,152	85,932	-0,058	-0,047
-587,138	-38,145	0,072	0,028
-586,123	-200,000	-0,016	0,053
-585,109	228,264	-0,102	-0,122
-584,094	-52,034	-0,092	-0,031
-583,079	534,213	0,039	-0,068
-582,065	11,030	0,063	0,035
-581,050	-200,000	-0,032	0,127
-580,036	-132,492	0,091	0,009
-579,021	446,245	0,046	-0,074
-578,006	-200,000	0,017	-0,172
-576,992	-200,000	0,004	-0,029
-575,977	-32,517	-0,018	0,007
-574,963	658,437	-0,031	-0,058
-573,948	408,295	0,072	-0,112
-572,934	-200,000	0,001	-0,110
-571,919	800,000	-0,049	0,104
-570,904	800,000	0,016	-0,039
-569,890	800,000	0,045	-0,135
-568,875	-200,000	-0,012	0,140
-567,861	-200,000	0,011	-0,052
-566,846	-200,000	-0,007	-0,076
-565,831	2,588	-0,140	-0,074
-564,817	-200,000	0,009	0,062
-563,802	-21,732	0,071	0,032
-562,788	800,000	-0,034	-0,080
-561,773	-66,833	0,110	0,032
-560,758	84,174	0,108	0,087
-559,744	47,832	-0,036	0,024
-558,729	-153,184	-0,049	-0,002
-557,715	18,801	-0,073	-0,043
-556,700	-200,000	-0,002	-0,032
-555,685	800,000	-0,015	-0,047
-554,671	252,275	-0,026	0,033
-553,656	49,447	-0,027	-0,019
-552,642	-145,789	-0,014	-0,001
-551,627	800,000	-0,068	0,144
-550,612	156,549	-0,043	-0,044
-549,598	-104,907	-0,181	-0,030
-548,583	292,213	-0,040	0,054
-547,569	596,735	0,023	0,042
-546,554	-91,550	0,074	-0,015
-545,539	133,000	-0,044	-0,042
-544,525	-20,308	-0,126	0,057
-543,510	-44,928	-0,058	-0,021
-542,496	-52,483	0,049	0,017
-541,481	800,000	-0,010	0,024
-540,466	32,279	0,071	-0,045
-539,452	25,911	0,063	0,039
-538,437	15,481	0,081	-0,047
-537,423	800,000	-0,046	-0,096
-536,408	111,825	-0,087	-0,077
-535,393	-200,000	0,006	-0,043
-534,379	527,797	0,062	-0,108
-533,364	800,000	0,039	-0,102
-532,350	58,158	0,059	-0,042
-531,335	73,415	0,086	0,066
-530,321	-200,000	0,010	0,070
-529,306	45,908	-0,030	0,021
-528,291	-200,000	-0,026	-0,116
-527,277	159,817	-0,030	-0,030
-526,262	-200,000	-0,007	0,096
-525,248	-22,563	-0,042	0,019
-524,233	-200,000	0,017	0,057
-523,218	563,992	0,029	0,052
-522,204	800,000	-0,023	-0,060
-521,189	800,000	-0,026	-0,065
-520,175	-200,000	0,006	-0,081
-519,160	-200,000	0,009	0,095
-518,145	57,877	0,115	0,082
-517,131	-200,000	0,007	0,052
-516,116	256,379	0,040	-0,050
-515,102	-15,800	-0,124	0,058
-514,087	800,000	-0,049	-0,111
-513,072	-127,982	-0,128	-0,013
-512,058	-7,669	-0,089	-0,044
-511,043	-25,384	0,080	0,035
-510,029	174,852	0,099	0,106
-509,014	152,818	-0,019	-0,019
-507,999	-168,135	0,065	0,002
-506,985	-200,000	0,021	0,069
-505,970	800,000	-0,090	0,196
-504,956	-43,281	0,079	-0,029
-503,941	-200,000	0,001	-0,033
-502,926	91,002	0,134	0,110
-501,912	-200,000	-0,018	0,059
-500,897	800,000	0,024	0,063
-499,883	-200,000	-0,037	-0,163
-498,868	14,080	0,049	-0,028
-497,853	119,295	-0,092	-0,083
-496,839	-200,000	-0,001	0,100
-495,824	-200,000	-0,001	-0,039
-494,810	-200,000	-0,017	0,068
-493,795	800,000	0,050	0,131
-492,781	242,679	0,080	-0,098
-491,766	293,274	-0,073	-0,098
-490,751	207,067	-0,002	-0,003
-489,737	145,621	-0,078	-0,076
-488,722	-120,521	0,112	-0,014
-487,708	290,999	0,035	0,047
-486,693	-25,173	0,031	-0,013
-485,678	375,500	0,062	-0,094
-484,664	157,176	-0,019	-0,020
-483,649	800,000	-0,040	-0,112
-482,635	-117,515	-0,021	-0,003
-481,620	8,358	0,064	0,035
-480,605	800,000	-0,031	-0,087
-479,591	-200,000	-0,017	0,148
-478,576	-200,000	-0,047	0,231
-477,562	800,000	0,023	0,064
-476,547	-200,000	0,010	-0,090
-475,532	132,629	-0,145	-0,138
-474,518	-69,722	0,150	-0,042
-473,503	5,152	0,114	0,062
-472,489	114,909	-0,066	-0,059
-471,474	215,793	0,083	0,097
-470,459	-108,244	-0,149	-0,023
-469,445	-4,912	-0,068	-0,034
-468,430	800,000	-0,020	-0,042
-467,416	99,797	-0,073	0,062
-466,401	-200,000	-0,013	-0,057
-465,386	-82,992	0,030	0,007
-464,372	10,317	0,075	0,042
-463,357	291,198	-0,088	-0,117
-462,343	91,443	-0,065	-0,054
-461,328	-114,354	0,100	0,014
-460,313	-200,000	0,004	0,021
-459,299	-200,000	0,024	-0,104
-458,284	196,456	-0,102	0,114
-457,270	58,355	0,119	-0,085
-456,255	96,624	-0,010	0,008
-455,241	-27,475	-0,150	-0,064
-454,226	-75,803	-0,049	-0,013
-453,211	-34,755	0,182	-0,073
-452,197	206,654	0,095	0,109
-451,182	398,737	0,031	-0,048
-450,168	-28,366	-0,016	0,007
-449,153	528,922	0,044	0,076
-448,138	315,856	-0,034	-0,047
-447,124	-97,196	-0,075	-0,014
-446,109	13,648	0,038	-0,022
-445,095	174,424	0,102	0,108
-444,080	-200,000	0,012	-0,185
-443,065	800,000	0,069	0,147
-442,051	-10,654	0,066	-0,032
-441,036	-161,787	0,044	-0,002
-440,022	317,488	-0,043	-0,060
-439,007	-200,000	-0,010	-0,078
-437,992	-77,013	0,139	0,035
-436,978	-136,725	-0,009	0,001
-435,963	800,000	-0,054	-0,168
-434,949	42,061	-0,100	-0,067
-433,934	-170,749	-0,023	-0,001
-432,919	-200,000	-0,003	0,051
-431,905	-200,000	-0,004	0,045
-430,890	352,691	0,023	0,033
-429,876	334,999	-0,040	0,057
-428,861	326,129	0,053	0,074
-427,846	265,063	0,050	-0,064
-426,832	121,240	-0,043	-0,039
-425,817	-200,000	-0,001	0,029
-424,803	100,747	-0,047	0,040
-423,788	-71,588	-0,123	-0,033
-422,773	800,000	-0,027	-0,059
-421,759	-24,648	-0,068	-0,030
-420,744	-200,000	0,012	0,052
-419,730	35,100	-0,081	0,052
-418,715	138,891	-0,053	0,051
-417,701	-200,000	0,013	0,118
-416,686	712,329	0,057	0,110
-415,671	441,955	0,124	0,199
-414,657	42,827	-0,073	-0,049
-413,642	107,777	-0,054	0,047
-412,628	800,000	0,023	-0,056
-411,613	-200,000	-0,035	-0,153
-410,598	800,000	0,030	-0,066
-409,584	-92,884	-0,052	0,011
-408,569	111,957	0,019	0,017
-407,555	-200,000	0,101	0,000
-406,540	800,000	-0,018	0,042
-405,525	429,055	0,022	0,034
-404,511	-200,000	0,006	-0,071
-403,496	800,000	-0,069	-0,160
-402,482	63,887	0,080	-0,059
-401,467	800,000	-0,043	-0,104
-400,452	-125,133	0,028	0,003
-399,438	-110,944	-0,100	-0,015
-398,423	-57,028	0,049	0,016
-397,409	-164,366	-0,118	0,004
-396,394	274,072	0,021	-0,027
-395,379	-27,429	-0,129	0,055
-394,365	-28,041	0,109	-0,046
-393,350	-200,000	-0,007	0,077
-392,336	-200,000	0,009	-0,143
-391,321	-146,695	0,059	-0,004
-390,306	-200,000	-0,024	-0,088
-389,292	-108,133	-0,065	0,010
-388,277	-133,485	0,110	0,010
-387,263	62,725	-0,080	-0,058
-386,248	-35,137	-0,099	0,039
-385,233	471,386	0,041	0,067
-384,219	-142,011	0,111	-0,008
-383,204	800,000	0,018	0,040
-382,190	-182,495	0,108	-0,001
-381,175	350,064	0,060	0,087
-380,160	573,467	0,032	0,057
-379,146	272,287	0,060	0,077
-378,131	-200,000	0,021	-0,087
-377,117	31,017	0,031	0,019
-376,102	-154,127	-0,115	-0,006
-375,088	-67,655	0,126	0,036
-374,073	136,907	0,039	0,037
-373,058	-1,246	0,072	-0,037
-372,044	-109,322	0,196	0,030
-371,029	-138,544	-0,055	-0,004
-370,015	-87,933	-0,033	-0,007
-369,000	-56,483	0,070	0,023
-367,985	-200,000	-0,006	0,088
-366,971	800,000	-0,030	-0,067
-365,956	72,468	0,073	0,056
-364,942	-65,919	0,082	0,024
-363,927	689,285	0,055	0,105
-362,912	-86,147	-0,081	-0,018
-361,898	-200,000	0,000	-0,096
-360,883	386,438	-0,046	0,069
-359,869	-119,072	-0,071	0,009
-358,854	-64,498	0,089	0,026
-357,839	-112,234	0,138	0,020
-356,825	-200,000	0,005	-0,053
-355,810	103,837	-0,066	-0,057
-354,796	617,278	-0,041	0,075
-353,781	-8,199	-0,105	-0,052
-352,766	-200,000	0,043	0,140
-351,752	-200,000	-0,009	0,096
-350,737	-20,613	0,110	0,049
-349,723	800,000	0,062	0,178
-348,708	800,000	0,062	-0,148
-347,693	-164,344	-0,145	-0,005
-346,679	-200,000	-0,045	-0,151
-345,664	97,037	0,026	-0,022
-344,650	613,896	0,036	0,065
-343,635	-82,191	0,067	0,016
-342,620	800,000	0,034	-0,078
-341,606	348,244	0,111	0,160
-340,591	-200,000	0,020	0,071
-339,577	314,776	-0,050	0,069
-338,562	-200,000	0,013	0,071
-337,548	-139,563	-0,098	-0,008
-336,533	312,446	0,083	-0,115
-335,518	-200,000	-0,000	0,037
-334,504	-46,367	0,122	0,044
-333,489	-200,000	0,052	0,259
-332,475	115,857	0,040	0,036
-331,460	3,761	-0,171	-0,091
-330,445	-163,131	-0,048	-0,002
-329,431	-97,013	0,162	0,031
-328,416	211,387	0,104	0,120
-327,402	-78,920	-0,051	0,013
-326,387	40,930	-0,110	-0,073
-325,372	-200,000	-0,021	-0,094
-324,358	800,000	-0,043	-0,090
-323,343	450,702	0,063	-0,102
-322,329	230,253	0,026	0,031
-321,314	-200,000	-0,024	0,148
-320,299	-65,225	0,029	0,009
-319,285	23,274	-0,098	-0,058
-318,270	-200,000	0,007	0,185
-317,256	627,793	-0,060	-0,112
-316,241	-30,638	-0,059	-0,024
-315,226	103,447	0,134	0,115
-314,212	226,374	0,019	-0,022
-313,197	-93,836	-0,152	-0,030
-312,183	160,251	-0,030	-0,030
-311,168	-84,202	0,077	-0,018
-310,153	445,990	0,015	0,023
-309,139	109,490	-0,021	-0,018
-308,124	52,713	0,027	-0,019
-307,110	200,426	-0,086	0,097
-306,095	-50,344	0,092	-0,032
-305,080	-200,000	0,017	0,114
-304,066	-107,447	-0,006	-0,001
-303,051	-168,946	0,133	0,004
-302,037	800,000	0,012	0,030
-301,022	-200,000	0,006	0,036
-300,008	800,000	-0,042	-0,087
-298,993	-92,677	-0,090	0,018
-297,978	-200,000	0,000	0,069
-296,964	457,583	-0,025	0,041
-295,949	-109,014	0,068	-0,010
-294,935	-156,498	-0,155	-0,007
-293,920	-136,005	0,105	0,009
-292,905	800,000	0,033	0,094
-291,891	359,731	-0,079	0,116
-290,876	-48,315	0,085	0,030
-289,862	80,060	-0,066	-0,052
-288,847	115,950	-0,036	0,032
-287,832	37,434	0,103	0,066
-286,818	124,394	0,066	-0,060
-285,803	-200,000	-0,010	-0,105
-284,789	393,233	-0,047	0,072
-283,774	800,000	0,023	0,049
-282,759	-100,123	-0,175	0,031
-281,745	-40,052	-0,083	-0,032
-280,730	-21,327	-0,025	-0,011
-279,716	286,093	0,081	0,107
-278,701	209,851	0,055	-0,063
-277,686	294,306	0,039	0,052
-276,672	-6,144	0,050	-0,025
-275,657	706,171	0,050	0,097
-274,643	-55,451	-0,083	-0,027
-273,628	-200,000	-0,006	0,039
-272,613	-157,242	-0,048	-0,002
-271,599	800,000	-0,023	-0,051
-270,584	34,278	0,042	0,027
-269,570	800,000	-0,025	-0,058
-268,555	-200,000	-0,025	0,224
-267,540	85,366	0,079	-0,063
-266,526	331,308	-0,103	0,145
-265,511	177,384	-0,140	-0,149
-264,497	-200,000	-0,002	-0,029
-263,482	-200,000	0,019	-0,181
-262,467	-126,536	-0,095	-0,010
-261,453	143,754	-0,126	-0,122
-260,438	-111,339	0,092	-0,014
-259,424	-108,007	-0,075	-0,012
-258,409	-107,205	-0,042	-0,007
-257,395	-8,397	0,111	-0,054
-256,380	354,330	-0,052	0,075
-255,365	-200,000	-0,001	0,109
-254,351	90,059	-0,087	0,071
-253,336	-200,000	0,004	-0,040
-252,322	-118,374	-0,156	-0,020
-251,307	99,997	-0,017	-0,014
-250,292	-72,394	0,183	-0,049
-249,278	800,000	-0,041	-0,095
-248,263	26,744	0,143	-0,087
-247,249	-200,000	0,010	0,112
-246,234	242,360	-0,059	0,072
-245,219	800,000	-0,059	0,145
-244,205	-200,000	-0,019	-0,218
-243,190	304,129	0,047	-0,064
-242,176	200,425	0,048	0,054
-241,161	-138,225	-0,128	-0,010
-240,146	-102,604	0,127	0,022
-239,132	-83,142	0,072	0,017
-238,117	800,000	0,062	-0,144
-237,103	322,122	-0,057	0,079
-236,088	179,791	-0,134	0,143
-235,073	149,812	0,072	0,071
-234,059	800,000	0,021	0,045
-233,044	-200,000	0,002	0,093
-232,030	-57,856	-0,062	-0,020
-231,015	21,336	-0,056	-0,033
-230,000	-200,000	0,000	-0,076
-228,986	800,000	0,042	-0,102
-227,971	434,351	-0,047	0,075
-226,957	-109,700	0,216	0,033
-225,942	-30,144	0,050	-0,021
-224,927	-170,191	-0,128	0,003
-223,913	-200,000	0,038	-0,124
-222,898	212,644	0,094	0,109
-221,884	589,651	0,028	0,050
-220,869	7,089	0,032	0,017
-219,855	-200,000	0,004	-0,023
-218,840	800,000	-0,032	0,101
-217,825	26,612	0,084	0,051
-216,811	217,429	-0,038	-0,045
-215,796	-200,000	0,007	-0,037
-214,782	-34,382	-0,080	0,032
-213,767	800,000	-0,034	0,100
-212,752	423,188	-0,029	-0,045
-211,738	-30,479	-0,042	0,017
-210,723	-58,362	0,081	0,025
-209,709	-70,095	-0,126	0,035
-208,694	509,365	-0,045	-0,076
-207,679	-200,000	-0,010	-0,106
-206,665	37,755	0,078	-0,050
-205,650	708,408	0,042	0,082
-204,636	800,000	0,029	0,067
-203,621	-200,000	-0,008	-0,050
-202,606	-200,000	-0,028	-0,156
-201,592	0,999	-0,099	-0,051
-200,577	171,467	0,042	0,044
-199,563	800,000	-0,055	0,140
-198,548	181,667	-0,063	0,067
-197,533	757,874	0,049	0,096
-196,519	137,261	-0,055	0,052
-195,504	-29,400	0,074	0,031
-194,490	800,000	0,022	0,060
-193,475	29,470	-0,046	-0,028
-192,460	800,000	0,069	-0,177
-191,446	571,003	0,057	0,102
-190,431	800,000	0,013	0,033
-189,417	116,228	-0,125	0,111
-188,402	-15,412	0,020	-0,009
-187,387	-200,000	0,008	-0,046
-186,373	-73,878	-0,135	0,035
-185,358	191,094	0,080	0,087
-184,344	-200,000	-0,010	0,044
-183,329	-200,000	-0,004	0,180
-182,315	-29,986	0,090	0,037
-181,300	746,220	0,026	0,052
-180,285	800,000	0,058	0,154
-179,271	-184,791	-0,106	-0,001
-178,256	-0,115	0,065	0,033
-177,242	28,880	0,085	-0,052
-176,227	83,576	-0,107	0,085
-175,212	68,661	0,081	0,060
-174,198	2,928	-0,065	-0,034
-173,183	111,975	-0,049	-0,043
-172,169	-74,834	-0,085	-0,022
-171,154	-200,000	0,010	-0,050
-170,139	80,682	0,100	-0,078
-169,125	-200,000	0,020	0,084
-168,110	-1,520	-0,029	-0,015
-167,096	-200,000	-0,019	-0,148
-166,081	-200,000	-0,023	-0,124
-165,066	-200,000	-0,005	0,127
-164,052	-116,645	0,096	-0,013
-163,037	198,840	-0,045	0,050
-162,023	-56,857	0,073	-0,023
-161,008	-200,000	0,001	0,087
-159,993	800,000	0,005	-0,012
-158,979	-128,789	-0,119	0,012
-157,964	122,735	-0,027	-0,024
-156,950	328,796	0,056	-0,079
-155,935	61,437	-0,086	-0,062
-154,920	792,223	0,033	0,067
-153,906	-200,000	-0,000	0,133
-152,891	-200,000	0,011	-0,044
-151,877	-57,246	-0,012	-0,004
-150,862	663,140	0,027	-0,051
-149,847	488,328	-0,053	-0,088
-148,833	-200,000	-0,032	-0,117
-147,818	92,602	0,081	-0,066
-146,804	68,769	0,115	0,086
-145,789	-200,000	-0,020	0,073
-144,775	-200,000	-0,051	-0,173
-143,760	280,604	-0,064	-0,083
-142,745	77,314	0,085	0,065
-141,731	333,542	0,028	-0,040
-140,716	-26,715	-0,058	0,025
-139,702	800,000	-0,050	-0,118
-138,687	610,405	-0,049	0,090
-137,672	449,729	0,089	0,142
-136,658	-36,371	0,016	-0,006
-135,643	-13,720	-0,080	-0,037
-134,629	-200,000	0,023	0,122
-133,614	-138,683	0,073	0,006
-132,599	-200,000	0,018	-0,066
-131,585	-11,841	0,130	0,062
-130,570	346,895	-0,009	-0,012
-129,556	-200,000	-0,005	0,110
-128,541	-200,000	0,006	0,051
-127,526	-200,000	0,031	-0,118
-126,512	-15,003	0,054	-0,025
-125,497	-200,000	0,030	0,101
-124,483	-200,000	0,025	0,142
-123,468	281,120	0,046	0,060
-122,453	-62,351	0,047	0,014
-121,439	-8,623	-0,065	-0,031
-120,424	100,913	0,039	0,033
-119,410	800,000	-0,007	-0,015
