DTS Sentinel unit serial number:	SN410029Multiplexer serial number:	ORYXHardware model number:	OX2-SRSoftware version number:	ORYX F/W v4,00 Oryx Data Collector v3.7.2.0data status	okinstallation	B4 Nyhavnadifferential loss correction	single-endedforward channel	channel 2reverse channel	N/Adate	2023/12/16time	05:00:13forward acquisition time	300,00reverse acquisition time	0,00gamma	499,1914k internal	0,3128k external	0,3128temperature offset calibration	1,0000default loss term (dB/km)	0,3820temperature slope calibration	1,0000multiplexer offset coefficient	1,0000multiplexer slope coefficient	1,0000fibre end	0,00T internal ref (°C)	22,03T ext. ref 1 (°C)	7,09T ext. ref 2 (°C)	7,32length (m)	temperature (°C)	Stokes	anti-Stokes-744,400	87,078	0,072	0,060
-743,385	85,577	-0,183	0,150
-742,371	-117,780	0,089	-0,012
-741,356	-101,095	-0,186	0,034
-740,342	60,259	0,055	-0,041
-739,327	179,980	-0,099	0,108
-738,312	800,000	0,038	-0,109
-737,298	-156,314	-0,244	0,011
-736,283	800,000	0,038	-0,098
-735,269	157,029	-0,180	0,185
-734,254	263,471	-0,010	-0,013
-733,239	-95,082	-0,431	-0,086
-732,225	84,123	0,084	0,068
-731,210	-200,000	0,000	-0,062
-730,196	395,780	0,038	0,060
-729,181	149,215	0,026	-0,027
-728,167	-37,088	-0,162	-0,064
-727,152	-13,466	-0,053	0,026
-726,137	61,166	-0,097	-0,072
-725,123	415,067	-0,046	0,073
-724,108	440,739	-0,059	-0,097
-723,094	-200,000	-0,037	-0,134
-722,079	-130,688	-0,069	0,007
-721,064	-200,000	-0,005	-0,032
-720,050	-200,000	0,005	0,024
-719,035	139,805	0,061	0,060
-718,021	327,843	-0,047	-0,068
-717,006	-200,000	0,047	-0,162
-715,991	580,805	-0,097	-0,177
-714,977	690,435	-0,059	-0,115
-713,962	78,587	0,042	-0,033
-712,948	78,924	0,014	-0,011
-711,933	800,000	0,042	-0,088
-710,918	-15,591	-0,103	-0,049
-709,904	-52,090	-0,134	-0,046
-708,889	800,000	0,026	0,074
-707,875	800,000	-0,030	0,071
-706,860	800,000	0,020	0,046
-705,845	710,192	0,017	0,033
-704,831	-34,820	-0,026	0,010
-703,816	38,550	-0,099	-0,066
-702,802	9,342	-0,059	0,033
-701,787	192,751	-0,028	-0,032
-700,772	-200,000	-0,046	-0,176
-699,758	738,936	0,068	-0,135
-698,743	417,452	-0,009	0,014
-697,729	767,455	0,040	-0,080
-696,714	800,000	-0,069	0,154
-695,699	-200,000	0,009	0,063
-694,685	-3,211	-0,069	-0,036
-693,670	501,976	-0,051	-0,087
-692,656	294,669	-0,103	-0,140
-691,641	467,487	-0,043	-0,072
-690,627	61,120	0,019	0,014
-689,612	800,000	0,038	-0,086
-688,597	601,014	-0,040	-0,075
-687,583	596,504	0,062	-0,115
-686,568	-2,391	0,124	-0,064
-685,554	-104,103	0,076	-0,013
-684,539	-43,505	0,169	-0,063
-683,524	341,279	-0,025	-0,036
-682,510	-116,818	0,054	-0,007
-681,495	71,410	-0,074	-0,057
-680,481	91,149	-0,066	0,055
-679,466	64,113	-0,084	-0,062
-678,451	-200,000	-0,024	-0,148
-677,437	177,089	0,025	0,027
-676,422	149,053	0,062	-0,062
-675,408	128,972	0,087	-0,082
-674,393	73,615	-0,112	0,087
-673,378	-200,000	0,006	0,033
-672,364	-200,000	-0,019	-0,167
-671,349	800,000	0,090	-0,200
-670,335	106,232	-0,052	-0,045
-669,320	-57,886	0,205	-0,066
-668,305	-200,000	0,022	-0,155
-667,291	800,000	-0,028	-0,066
-666,276	495,042	-0,080	0,136
-665,262	-88,659	-0,132	-0,029
-664,247	-200,000	0,005	-0,117
-663,232	15,277	0,043	0,025
-662,218	-200,000	0,002	0,062
-661,203	-200,000	0,032	0,151
-660,189	-200,000	-0,011	-0,063
-659,174	-69,236	-0,056	-0,016
-658,159	232,576	0,065	-0,079
-657,145	800,000	-0,056	-0,182
-656,130	315,877	0,029	-0,041
-655,116	183,961	0,063	-0,069
-654,101	-200,000	0,018	0,065
-653,086	609,805	0,018	-0,033
-652,072	-200,000	-0,015	-0,084
-651,057	-200,000	-0,028	-0,097
-650,043	-56,557	-0,152	-0,050
-649,028	148,821	0,022	-0,022
-648,014	-65,034	-0,118	-0,035
-646,999	85,820	0,137	0,112
-645,984	-2,689	0,023	0,012
-644,970	800,000	-0,051	-0,136
-643,955	800,000	-0,065	-0,149
-642,941	405,575	-0,045	0,070
-641,926	174,442	-0,058	0,062
-640,911	166,404	-0,043	0,045
-639,897	-3,846	0,031	0,016
-638,882	-6,586	-0,145	-0,073
-637,868	800,000	0,040	-0,085
-636,853	-200,000	-0,001	0,056
-635,838	124,883	-0,050	-0,047
-634,824	129,010	-0,105	-0,099
-633,809	147,032	0,052	-0,052
-632,795	83,747	0,063	0,051
-631,780	-103,065	-0,047	-0,008
-630,765	800,000	0,038	0,118
-629,751	-200,000	0,007	0,024
-628,736	-200,000	-0,027	-0,095
-627,722	176,447	-0,090	0,097
-626,707	568,647	0,046	0,083
-625,692	-113,162	-0,069	0,010
-624,678	623,972	-0,076	-0,143
-623,663	58,037	0,063	-0,046
-622,649	61,119	-0,090	-0,066
-621,634	333,059	-0,116	-0,166
-620,619	-200,000	0,044	-0,166
-619,605	-200,000	-0,004	-0,021
-618,590	38,662	-0,115	-0,076
-617,576	321,028	-0,039	0,055
-616,561	221,705	-0,032	0,038
-615,546	87,158	-0,115	-0,094
-614,532	34,745	-0,080	-0,052
-613,517	-125,683	-0,059	-0,007
-612,503	40,321	-0,076	-0,051
-611,488	-200,000	-0,003	0,019
-610,474	800,000	0,008	-0,024
-609,459	-161,492	-0,105	-0,004
-608,444	-156,296	-0,083	0,004
-607,430	800,000	-0,015	-0,046
-606,415	-79,380	-0,115	0,029
-605,401	587,971	-0,054	0,099
-604,386	800,000	0,034	0,081
-603,371	108,483	0,037	0,033
-602,357	-84,934	-0,051	0,012
-601,342	546,157	-0,053	0,095
-600,328	70,923	-0,041	-0,031
-599,313	736,942	-0,071	-0,142
-598,298	800,000	-0,017	-0,036
-597,284	200,227	0,048	-0,055
-596,269	61,994	0,012	-0,009
-595,255	103,930	0,019	-0,017
-594,240	800,000	0,018	0,040
-593,225	-92,418	-0,086	-0,018
-592,211	93,963	-0,100	-0,083
-591,196	-57,821	-0,092	0,030
-590,182	800,000	0,011	0,024
-589,167	-200,000	0,035	0,118
-588,152	65,026	-0,093	0,069
-587,138	-20,082	-0,079	0,036
-586,123	407,984	0,087	-0,136
-585,109	234,481	-0,076	-0,093
-584,094	800,000	0,006	0,018
-583,079	-135,952	0,192	0,016
-582,065	-94,026	0,009	0,002
-581,050	53,113	0,032	-0,023
-580,036	599,384	0,020	0,036
-579,021	-9,611	0,085	0,042
-578,006	-200,000	-0,054	0,000
-576,992	47,015	-0,050	0,034
-575,977	-172,556	0,057	-0,001
-574,963	44,512	0,081	-0,055
-573,948	689,713	0,038	-0,074
-572,934	480,320	-0,026	0,044
-571,919	-40,118	-0,158	0,061
-570,904	322,465	0,055	-0,078
-569,890	-91,238	-0,084	-0,018
-568,875	800,000	0,080	0,199
-567,861	-112,425	0,092	-0,013
-566,846	106,790	-0,046	-0,041
-565,831	800,000	0,039	-0,122
-564,817	-200,000	-0,001	-0,244
-563,802	343,761	-0,037	-0,053
-562,788	340,323	-0,075	0,108
-561,773	800,000	0,021	0,055
-560,758	800,000	0,022	-0,054
-559,744	228,237	0,051	0,062
-558,729	-200,000	0,000	0,142
-557,715	190,998	0,030	0,034
-556,700	190,732	0,044	0,049
-555,685	-200,000	0,008	0,094
-554,671	-132,536	0,041	0,004
-553,656	-87,710	0,020	0,004
-552,642	14,037	-0,052	-0,030
-551,627	-200,000	-0,009	-0,182
-550,612	-200,000	-0,032	0,109
-549,598	-109,597	0,071	-0,011
-548,583	27,801	0,009	0,005
-547,569	-200,000	-0,002	-0,007
-546,554	-33,491	0,110	0,045
-545,539	800,000	-0,027	0,058
-544,525	-200,000	0,050	-0,189
-543,510	716,840	-0,054	-0,106
-542,496	-79,934	-0,073	-0,018
-541,481	-146,062	-0,079	-0,005
-540,466	38,115	0,026	-0,017
-539,452	-200,000	-0,007	-0,056
-538,437	-200,000	-0,014	0,199
-537,423	229,422	0,079	0,096
-536,408	-35,305	-0,087	0,035
-535,393	-200,000	-0,001	-0,048
-534,379	-109,281	-0,105	-0,016
-533,364	12,945	-0,040	-0,023
-532,350	159,352	0,108	0,111
-531,335	-41,374	-0,083	0,031
-530,321	615,535	0,015	0,028
-529,306	390,748	-0,025	0,039
-528,291	800,000	0,042	0,102
-527,277	-12,694	0,074	-0,036
-526,262	68,596	-0,073	-0,056
-525,248	-200,000	0,124	0,000
-524,233	251,911	0,028	-0,035
-523,218	-26,456	-0,131	-0,056
-522,204	129,877	0,057	0,053
-521,189	-200,000	-0,010	-0,082
-520,175	208,142	0,062	-0,072
-519,160	-200,000	0,007	0,028
-518,145	-200,000	0,010	0,110
-517,131	38,878	-0,103	0,068
-516,116	29,449	0,093	-0,058
-515,102	800,000	-0,065	0,133
-514,087	-65,489	0,048	0,014
-513,072	124,944	0,076	-0,070
-512,058	205,871	0,041	0,047
-511,043	-200,000	-0,001	0,005
-510,029	105,031	0,065	0,057
-509,014	550,912	-0,041	-0,072
-507,999	800,000	-0,001	-0,002
-506,985	-17,000	0,065	-0,030
-505,970	-80,516	-0,179	-0,044
-504,956	218,185	0,063	-0,074
-503,941	-126,579	0,070	-0,008
-502,926	288,839	0,045	-0,060
-501,912	161,680	-0,020	-0,021
-500,897	-43,811	0,067	0,025
-499,883	68,546	-0,157	-0,119
-498,868	-200,000	0,024	-0,184
-497,853	12,832	-0,080	-0,045
-496,839	95,770	0,096	-0,081
-495,824	-200,000	-0,006	0,049
-494,810	800,000	0,048	0,123
-493,795	118,795	0,183	0,167
-492,781	-200,000	-0,010	0,119
-491,766	27,767	0,097	0,060
-490,751	-65,867	0,122	0,036
-489,737	-200,000	0,043	-0,142
-488,722	83,712	0,042	-0,034
-487,708	-99,062	-0,175	-0,032
-486,693	-128,616	0,044	-0,005
-485,678	8,187	-0,145	0,080
-484,664	800,000	0,038	-0,089
-483,649	800,000	-0,064	-0,133
-482,635	-142,306	-0,032	0,002
-481,620	-200,000	0,006	-0,076
-480,605	-78,353	-0,142	0,036
-479,591	-200,000	-0,010	0,147
-478,576	122,895	-0,041	-0,038
-477,562	-118,827	-0,145	-0,019
-476,547	17,360	0,086	-0,050
-475,532	800,000	0,044	0,097
-474,518	-38,008	0,136	-0,053
-473,503	289,449	-0,051	0,068
-472,489	-200,000	0,012	0,047
-471,474	202,446	0,072	-0,082
-470,459	-130,224	0,051	-0,005
-469,445	-72,073	-0,118	0,032
-468,430	-200,000	0,011	0,062
-467,416	-200,000	0,006	0,084
-466,401	-200,000	-0,046	0,151
-465,386	-24,044	0,057	-0,025
-464,372	-200,000	0,003	0,121
-463,357	-59,660	-0,097	0,030
-462,343	-120,999	0,143	0,017
-461,328	-54,649	-0,178	-0,059
-460,313	-200,000	0,010	0,043
-459,299	-65,547	0,040	-0,012
-458,284	-200,000	-0,033	0,230
-457,270	-200,000	0,008	-0,063
-456,255	-78,063	0,027	0,007
-455,241	-88,508	0,034	0,007
-454,226	800,000	-0,012	-0,031
-453,211	-151,748	-0,048	0,003
-452,197	608,841	0,052	-0,096
-451,182	98,526	0,072	0,061
-450,168	84,839	-0,021	-0,017
-449,153	-200,000	0,008	-0,049
-448,138	20,554	0,046	0,027
-447,124	531,600	0,046	0,080
-446,109	30,249	0,117	0,074
-445,095	800,000	0,004	-0,008
-444,080	-200,000	0,011	-0,053
-443,065	-108,019	-0,086	0,014
-442,051	800,000	-0,023	-0,054
-441,036	-200,000	0,000	-0,042
-440,022	47,676	0,099	-0,068
-439,007	-54,352	0,047	-0,016
-437,992	307,510	-0,068	-0,093
-436,978	500,902	0,082	-0,140
-435,963	-200,000	-0,012	0,194
-434,949	-129,986	0,115	0,011
-433,934	-200,000	0,006	0,029
-432,919	-73,058	-0,018	0,005
-431,905	516,283	0,029	-0,050
-430,890	10,126	0,060	0,033
-429,876	39,601	0,099	0,065
-428,861	-200,000	0,002	0,108
-427,846	401,141	-0,075	0,116
-426,832	-162,686	0,038	-0,001
-425,817	-200,000	-0,000	0,001
-424,803	-5,039	-0,021	-0,011
-423,788	75,929	0,040	-0,031
-422,773	-200,000	0,005	-0,039
-421,759	36,825	-0,079	-0,052
-420,744	-131,428	0,097	-0,009
-419,730	107,585	-0,020	0,017
-418,715	147,672	-0,034	0,034
-417,701	-102,376	0,091	0,016
-416,686	48,699	-0,055	0,038
-415,671	798,493	-0,053	-0,107
-414,657	-145,289	0,054	0,004
-413,642	-136,701	-0,097	0,008
-412,628	310,517	0,075	-0,103
-411,613	-99,265	0,129	0,024
-410,598	104,915	-0,084	-0,073
-409,584	307,013	-0,078	-0,108
-408,569	393,740	0,073	0,112
-407,555	272,671	0,096	0,125
-406,540	-200,000	-0,006	-0,021
-405,525	-49,260	0,084	0,029
-404,511	-88,563	-0,056	0,012
-403,496	2,379	0,120	0,064
-402,482	762,775	-0,031	0,062
-401,467	-200,000	0,026	0,119
-400,452	-139,737	0,134	0,010
-399,438	-70,013	0,183	-0,051
-398,423	800,000	-0,034	0,078
-397,409	167,426	-0,011	0,011
-396,394	508,779	-0,068	0,116
-395,379	-136,910	-0,071	0,006
-394,365	-34,827	0,154	0,061
-393,350	-139,408	0,178	0,014
-392,336	40,403	0,104	0,068
-391,321	-200,000	0,031	0,113
-390,306	-98,440	-0,081	0,015
-389,292	-104,543	-0,129	-0,022
-388,277	406,127	0,053	-0,082
-387,263	195,878	0,071	-0,079
-386,248	8,427	0,045	0,025
-385,233	-94,379	0,035	-0,007
-384,219	37,400	0,096	-0,062
-383,204	-140,445	0,105	-0,008
-382,190	800,000	0,040	-0,094
-381,175	28,209	0,115	0,071
-380,160	-200,000	-0,002	0,119
-379,146	-123,771	-0,088	-0,010
-378,131	800,000	0,056	-0,137
-377,117	87,221	-0,124	0,101
-376,102	482,141	-0,040	0,066
-375,088	629,548	-0,026	0,049
-374,073	-200,000	-0,006	0,154
-373,058	-156,305	-0,021	0,001
-372,044	-200,000	0,009	-0,044
-371,029	-141,739	0,125	0,009
-370,015	239,119	-0,076	0,093
-369,000	-60,304	-0,107	0,033
-367,985	-40,971	0,048	-0,018
-366,971	754,414	-0,018	0,035
-365,956	195,067	-0,097	0,108
-364,942	-24,986	0,050	-0,021
-363,927	-150,098	0,057	-0,003
-362,912	232,416	-0,089	0,108
-361,898	234,717	0,052	-0,064
-360,883	-155,557	-0,056	-0,003
-359,869	-66,958	0,106	0,030
-358,854	287,243	-0,077	-0,102
-357,839	-200,000	-0,027	0,119
-356,825	206,682	-0,051	-0,058
-355,810	-188,101	0,183	0,002
-354,796	-21,355	-0,068	-0,030
-353,781	53,537	-0,042	-0,030
-352,766	-200,000	0,008	0,124
-351,752	225,996	0,063	-0,075
-350,737	351,262	0,010	0,014
-349,723	800,000	-0,050	0,135
-348,708	169,430	-0,098	0,103
-347,693	-52,099	0,006	0,002
-346,679	-15,874	0,021	0,010
-345,664	-200,000	-0,016	0,202
-344,650	-74,347	-0,020	-0,005
-343,635	-171,803	-0,039	0,001
-342,620	-79,305	0,122	0,030
-341,606	167,769	-0,068	-0,071
-340,591	800,000	-0,027	-0,064
-339,577	13,118	0,089	-0,050
-338,562	-78,735	-0,084	0,021
-337,548	260,208	-0,042	0,054
-336,533	163,355	-0,054	0,055
-335,518	-200,000	0,017	0,145
-334,504	113,947	-0,051	0,045
-333,489	52,960	-0,068	-0,048
-332,475	800,000	0,018	0,048
-331,460	-22,634	0,059	0,026
-330,445	800,000	-0,031	0,077
-329,431	12,403	0,048	0,027
-328,416	441,685	-0,030	0,049
-327,402	592,441	0,054	0,098
-326,387	800,000	0,032	0,070
-325,372	12,927	0,085	-0,048
-324,358	800,000	0,024	-0,051
-323,343	800,000	-0,054	-0,127
-322,329	-45,075	0,122	0,044
-321,314	209,293	-0,037	-0,043
-320,299	-95,573	0,067	-0,013
-319,285	-17,208	0,036	0,016
-318,270	11,146	0,033	0,018
-317,256	-13,655	-0,088	-0,041
-316,241	85,268	0,042	-0,034
-315,226	800,000	-0,049	-0,130
-314,212	800,000	-0,033	-0,100
-313,197	-63,624	0,138	-0,041
-312,183	543,660	0,091	0,159
-311,168	-57,561	0,111	0,035
-310,153	297,958	-0,035	-0,047
-309,139	-13,510	0,054	-0,026
-308,124	800,000	-0,015	0,037
-307,110	-149,850	-0,102	-0,006
-306,095	205,115	-0,063	0,072
-305,080	-55,670	0,028	0,009
-304,066	-200,000	-0,026	-0,125
-303,051	-70,280	-0,053	-0,015
-302,037	-200,000	-0,010	0,073
-301,022	-149,933	0,116	-0,007
-300,008	-200,000	0,030	0,106
-298,993	-200,000	0,005	-0,019
-297,978	-200,000	0,004	0,184
-296,964	205,918	0,039	0,045
-295,949	187,203	-0,108	-0,118
-294,935	-200,000	-0,003	-0,053
-293,920	-200,000	-0,036	-0,157
-292,905	36,917	0,080	0,052
-291,891	21,558	0,068	0,040
-290,876	202,437	-0,079	-0,089
-289,862	800,000	-0,043	0,107
-288,847	-103,473	-0,131	-0,022
-287,832	800,000	0,021	0,058
-286,818	-166,589	-0,063	-0,002
-285,803	266,696	0,008	0,010
-284,789	-200,000	0,002	0,015
-283,774	800,000	0,042	0,114
-282,759	-200,000	0,004	0,115
-281,745	58,959	-0,099	0,071
-280,730	-187,904	-0,041	-0,000
-279,716	257,762	-0,062	0,078
-278,701	800,000	0,031	0,073
-277,686	-200,000	-0,017	-0,084
-276,672	149,118	0,125	-0,124
-275,657	167,416	0,038	-0,039
-274,643	-114,241	0,092	-0,013
-273,628	187,724	-0,053	-0,058
-272,613	124,728	0,117	-0,107
-271,599	493,628	0,040	0,068
-270,584	800,000	0,047	0,106
-269,570	237,361	-0,056	0,068
-268,555	-42,841	-0,066	0,024
-267,540	103,592	-0,054	0,047
-266,526	369,508	-0,039	-0,058
-265,511	242,061	0,043	-0,052
-264,497	107,258	0,026	0,023
-263,482	8,688	0,077	-0,042
-262,467	-138,078	-0,131	0,011
-261,453	255,153	-0,028	0,035
-260,438	800,000	0,061	0,156
-259,424	-200,000	0,000	-0,046
-258,409	-54,998	0,054	0,018
-257,395	-200,000	0,010	0,085
-256,380	800,000	-0,048	0,099
-255,365	800,000	0,015	-0,038
-254,351	-200,000	0,011	-0,082
-253,336	-200,000	-0,007	-0,031
-252,322	386,587	-0,101	-0,153
-251,307	167,144	-0,076	-0,079
-250,292	78,204	0,035	0,027
-249,278	724,357	0,054	0,106
-248,263	354,993	0,059	-0,086
-247,249	25,587	0,034	0,021
-246,234	-147,220	-0,096	0,006
-245,219	99,593	-0,100	-0,085
-244,205	-8,707	0,107	-0,052
-243,190	-103,558	-0,118	-0,020
-242,176	-173,329	0,112	-0,002
-241,161	-83,081	0,044	0,010
-240,146	-200,000	0,023	0,118
-239,132	-47,154	-0,038	-0,013
-238,117	-57,778	-0,137	-0,043
-237,103	-45,264	0,123	-0,044
-236,088	238,417	0,050	-0,061
-235,073	655,988	-0,014	-0,026
-234,059	68,458	0,059	-0,044
-233,044	800,000	0,063	0,135
-232,030	800,000	0,046	-0,120
-231,015	-29,329	-0,195	-0,081
-230,000	297,937	0,033	-0,044
-228,986	537,739	-0,015	-0,025
-227,971	-155,267	-0,078	-0,004
-226,957	-200,000	-0,029	0,167
-225,942	53,681	0,072	0,050
-224,927	-42,260	-0,097	0,036
-223,913	-175,840	0,076	0,001
-222,898	800,000	-0,011	0,030
-221,884	800,000	0,031	0,084
-220,869	276,819	0,031	0,041
-219,855	-54,469	-0,028	0,009
-218,840	34,490	0,017	-0,011
-217,825	-200,000	0,010	0,060
-216,811	-200,000	-0,031	0,108
-215,796	-65,331	-0,179	-0,052
-214,782	583,369	0,029	-0,052
-213,767	92,748	-0,016	0,013
-212,752	-105,524	0,061	0,010
-211,738	-200,000	0,015	-0,147
-210,723	259,418	0,063	-0,080
-209,709	-200,000	-0,040	-0,185
-208,694	-200,000	-0,017	-0,126
-207,679	800,000	-0,025	0,068
-206,665	294,934	0,136	0,181
-205,650	-200,000	0,009	0,187
-204,636	-51,378	0,088	0,030
-203,621	-47,497	0,089	0,031
-202,606	800,000	-0,017	-0,036
-201,592	-200,000	-0,009	-0,217
-200,577	-200,000	0,025	-0,133
-199,563	-200,000	-0,001	-0,049
-198,548	7,710	0,074	-0,040
-197,533	43,831	0,053	-0,035
-196,519	521,867	-0,096	-0,165
-195,504	3,744	-0,101	0,054
-194,490	279,387	-0,065	-0,085
-193,475	-42,537	0,078	0,029
-192,460	97,114	0,026	0,022
-191,446	-200,000	-0,008	0,113
-190,431	286,679	-0,047	-0,062
-189,417	-200,000	-0,002	-0,167
-188,402	-66,197	-0,134	-0,039
-187,387	-16,137	-0,059	-0,027
-186,373	-9,830	0,164	0,079
-185,358	67,572	-0,042	-0,031
-184,344	800,000	0,029	-0,068
-183,329	82,529	0,058	0,046
-182,315	67,194	-0,064	-0,048
-181,300	-200,000	0,003	0,116
-180,285	-200,000	0,001	-0,021
-179,271	-200,000	0,012	-0,085
-178,256	800,000	-0,034	-0,105
-177,242	213,300	0,087	0,100
-176,227	110,797	0,162	0,142
-175,212	217,945	-0,037	-0,042
-174,198	-100,077	-0,091	-0,016
-173,183	-126,219	-0,063	-0,007
-172,169	147,335	0,057	-0,056
-171,154	800,000	0,040	-0,102
-170,139	800,000	-0,041	-0,087
-169,125	-65,025	0,038	-0,011
-168,110	121,733	-0,072	-0,065
-167,096	253,742	0,036	-0,045
-166,081	706,802	-0,083	-0,160
-165,066	-5,912	-0,118	-0,059
-164,052	-200,000	0,019	-0,113
-163,037	149,725	0,067	0,066
-162,023	-130,598	0,163	0,016
-161,008	210,062	-0,087	-0,099
-159,993	-200,000	-0,016	-0,159
-158,979	123,881	-0,087	-0,080
-157,964	-83,039	-0,061	0,014
-156,950	-156,829	-0,058	0,003
-155,935	23,036	-0,088	-0,052
-154,920	-200,000	-0,121	-0,000
-153,906	-12,952	0,107	0,051
-152,891	632,993	-0,025	-0,046
-151,877	368,750	0,038	0,056
-150,862	-200,000	0,021	-0,146
-149,847	122,606	-0,065	0,059
-148,833	800,000	0,054	0,148
-147,818	516,386	0,036	-0,061
-146,804	-66,068	0,074	0,021
-145,789	401,198	-0,048	0,074
-144,775	513,686	-0,057	0,098
-143,760	-200,000	0,003	-0,107
-142,745	-151,188	-0,108	0,006
-141,731	138,144	0,034	-0,032
-140,716	459,777	0,029	0,047
-139,702	331,426	0,034	0,048
-138,687	8,278	-0,044	0,024
-137,672	-68,222	-0,064	-0,018
-136,658	-60,814	-0,160	-0,049
-135,643	-200,000	0,016	0,105
-134,629	-46,493	-0,017	-0,006
-133,614	-200,000	-0,007	0,074
-132,599	12,135	-0,115	-0,064
-131,585	-57,313	0,090	0,029
-130,570	-200,000	-0,021	-0,079
-129,556	-200,000	0,011	0,043
-128,541	473,262	0,035	-0,057
-127,526	-144,358	0,102	-0,007
-126,512	-50,465	-0,029	0,010
-125,497	622,554	0,077	0,141
-124,483	30,609	-0,041	0,026
-123,468	3,961	-0,130	0,069
-122,453	800,000	-0,035	0,097
-121,439	-200,000	-0,019	0,098
-120,424	-141,003	-0,258	0,019
-119,410	-86,476	0,077	-0,017
-118,395	-200,000	-0,013	-0,055
