DTS Sentinel unit serial number:	SN410029Multiplexer serial number:	ORYXHardware model number:	OX2-SRSoftware version number:	ORYX F/W v4,00 Oryx Data Collector v3.7.2.0data status	okinstallation	B4 Nyhavnadifferential loss correction	single-endedforward channel	channel 2reverse channel	N/Adate	2023/12/19time	09:20:13forward acquisition time	300,00reverse acquisition time	0,00gamma	499,1914k internal	0,3128k external	0,3128temperature offset calibration	1,0000default loss term (dB/km)	0,3820temperature slope calibration	1,0000multiplexer offset coefficient	1,0000multiplexer slope coefficient	1,0000fibre end	0,00T internal ref (°C)	20,50T ext. ref 1 (°C)	5,20T ext. ref 2 (°C)	5,18length (m)	temperature (°C)	Stokes	anti-Stokes-744,400	381,113	-0,097	-0,148
-743,385	1,745	-0,150	0,080
-742,371	-200,000	-0,006	-0,031
-741,356	267,732	-0,177	0,231
-740,342	-78,672	-0,090	0,023
-739,327	-49,722	-0,324	0,114
-738,312	346,008	0,031	-0,046
-737,298	-51,475	-0,280	0,097
-736,283	800,000	0,017	0,043
-735,269	29,153	-0,227	0,143
-734,254	-200,000	0,016	-0,118
-733,239	-141,701	-0,415	-0,031
-732,225	537,493	0,035	0,062
-731,210	-107,073	-0,087	-0,014
-730,196	-98,515	-0,059	0,011
-729,181	147,558	-0,053	0,054
-728,167	14,899	-0,135	0,079
-727,152	335,531	-0,072	-0,104
-726,137	117,296	-0,093	-0,085
-725,123	10,856	0,001	0,001
-724,108	-200,000	-0,005	-0,077
-723,094	-37,897	-0,040	-0,016
-722,079	800,000	-0,053	-0,142
-721,064	800,000	-0,008	-0,025
-720,050	-200,000	0,034	0,151
-719,035	280,156	-0,009	0,012
-718,021	-200,000	0,001	0,071
-717,006	-23,246	-0,148	-0,066
-715,991	266,816	0,055	-0,072
-714,977	628,606	-0,111	-0,209
-713,962	-200,000	0,027	-0,107
-712,948	233,966	0,089	-0,109
-711,933	-135,118	0,067	0,006
-710,918	573,506	-0,013	-0,023
-709,904	-154,612	-0,030	0,001
-708,889	-200,000	-0,004	-0,067
-707,875	-200,000	-0,054	-0,184
-706,860	-59,151	0,098	0,031
-705,845	-61,735	-0,058	0,018
-704,831	10,325	-0,151	0,085
-703,816	42,810	0,032	0,022
-702,802	-162,471	-0,050	0,002
-701,787	138,822	0,053	-0,052
-700,772	800,000	0,029	0,062
-699,758	-56,009	-0,136	-0,045
-698,743	-28,780	-0,132	0,056
-697,729	-17,214	0,084	-0,039
-696,714	664,950	0,066	0,127
-695,699	160,092	-0,070	0,072
-694,685	-200,000	0,012	-0,114
-693,670	208,551	0,056	0,066
-692,656	-200,000	-0,011	0,117
-691,641	-95,597	-0,070	-0,014
-690,627	-200,000	0,006	0,036
-689,612	800,000	0,054	-0,146
-688,597	469,009	-0,051	-0,085
-687,583	407,936	-0,101	-0,159
-686,568	-176,344	-0,047	-0,001
-685,554	-58,830	-0,081	0,026
-684,539	-23,561	0,068	0,030
-683,524	145,973	-0,017	0,017
-682,510	163,829	-0,035	-0,037
-681,495	190,223	0,034	0,038
-680,481	800,000	-0,021	-0,044
-679,466	18,370	-0,123	-0,073
-678,451	800,000	-0,088	-0,189
-677,437	-200,000	0,025	0,099
-676,422	-45,537	-0,084	-0,031
-675,408	47,091	0,035	0,024
-674,393	-200,000	-0,009	0,081
-673,378	-96,832	-0,082	0,016
-672,364	-31,404	-0,111	-0,046
-671,349	-59,719	-0,130	-0,041
-670,335	243,179	-0,022	0,027
-669,320	800,000	-0,051	0,117
-668,305	147,406	-0,108	-0,108
-667,291	-200,000	-0,023	0,088
-666,276	-200,000	0,006	0,029
-665,262	373,965	-0,087	-0,132
-664,247	99,279	0,042	-0,036
-663,232	85,939	0,042	-0,034
-662,218	-87,012	-0,077	0,017
-661,203	65,873	-0,092	0,069
-660,189	-93,458	0,070	-0,014
-659,174	-47,014	-0,089	-0,032
-658,159	312,950	-0,120	-0,168
-657,145	322,778	0,051	-0,072
-656,130	-105,013	-0,128	0,021
-655,116	-109,001	-0,152	-0,024
-654,101	800,000	0,007	0,015
-653,086	-28,665	-0,097	0,041
-652,072	-200,000	-0,014	0,097
-651,057	32,405	0,121	-0,077
-650,043	528,881	-0,069	-0,121
-649,028	434,037	0,020	0,032
-648,014	-135,101	-0,159	0,014
-646,999	-200,000	0,000	-0,031
-645,984	177,626	-0,065	0,070
-644,970	-11,465	-0,061	-0,030
-643,955	313,296	0,053	-0,074
-642,941	800,000	-0,041	-0,111
-641,926	-71,743	0,180	-0,049
-640,911	251,267	0,077	0,098
-639,897	39,060	0,010	-0,007
-638,882	-200,000	-0,004	0,081
-637,868	-200,000	0,004	0,266
-636,853	18,109	-0,098	-0,058
-635,838	-200,000	-0,015	-0,147
-634,824	723,370	-0,054	-0,107
-633,809	-137,964	-0,064	-0,005
-632,795	-200,000	-0,015	-0,069
-631,780	82,411	-0,075	-0,060
-630,765	-200,000	0,002	0,039
-629,751	-200,000	-0,022	0,090
-628,736	-200,000	-0,028	-0,111
-627,722	800,000	-0,037	-0,096
-626,707	800,000	-0,037	-0,100
-625,692	14,160	-0,108	0,062
-624,678	246,228	-0,065	0,081
-623,663	-81,497	-0,117	0,028
-622,649	-59,125	-0,089	-0,028
-621,634	57,211	-0,056	-0,040
-620,619	-43,832	0,104	0,038
-619,605	-200,000	-0,012	0,103
-618,590	10,151	0,151	-0,085
-617,576	-200,000	-0,003	0,050
-616,561	-200,000	-0,003	0,011
-615,546	183,781	-0,080	-0,088
-614,532	-121,489	-0,090	-0,011
-613,517	800,000	0,024	0,055
-612,503	-200,000	-0,004	-0,165
-611,488	-53,813	0,168	0,057
-610,474	545,136	0,079	0,139
-609,459	-70,442	-0,060	0,017
-608,444	109,574	0,115	-0,102
-607,430	-5,287	-0,177	-0,090
-606,415	591,960	-0,035	0,063
-605,401	81,348	0,050	-0,040
-604,386	-8,045	0,062	0,031
-603,371	-31,813	0,057	0,023
-602,357	-200,000	0,000	0,128
-601,342	194,680	-0,078	0,088
-600,328	282,390	-0,111	-0,148
-599,313	586,105	0,085	-0,156
-598,298	629,728	0,037	0,069
-597,284	190,671	0,018	0,020
-596,269	-144,943	0,106	-0,007
-595,255	54,581	-0,007	-0,005
-594,240	169,609	-0,042	-0,044
-593,225	-84,232	0,044	-0,010
-592,211	-88,522	-0,062	0,014
-591,196	485,596	-0,054	-0,091
-590,182	119,437	-0,039	0,036
-589,167	75,074	0,060	0,046
-588,152	1,764	0,084	-0,045
-587,138	-74,645	0,045	-0,012
-586,123	800,000	0,028	-0,087
-585,109	23,027	-0,149	0,090
-584,094	149,227	0,098	-0,098
-583,079	800,000	-0,041	0,118
-582,065	-31,545	0,094	-0,039
-581,050	-200,000	-0,018	-0,141
-580,036	800,000	0,049	-0,102
-579,021	-75,000	0,070	-0,018
-578,006	425,792	-0,097	-0,155
-576,992	198,903	0,092	-0,104
-575,977	-83,400	0,075	0,018
-574,963	120,755	-0,018	-0,016
-573,948	30,071	0,058	0,036
-572,934	46,282	0,067	-0,046
-571,919	-26,049	-0,161	-0,070
-570,904	351,164	0,121	-0,178
-569,890	-182,105	-0,076	-0,001
-568,875	476,129	0,087	0,146
-567,861	-200,000	-0,035	0,148
-566,846	285,220	0,007	-0,010
-565,831	-200,000	-0,010	-0,124
-564,817	207,598	0,059	-0,068
-563,802	-200,000	-0,028	-0,126
-562,788	309,608	0,044	-0,060
-561,773	239,584	0,030	0,037
-560,758	555,685	-0,035	0,063
-559,744	-87,034	-0,058	0,013
-558,729	44,372	0,057	0,039
-557,715	15,418	-0,015	-0,009
-556,700	26,816	0,061	-0,038
-555,685	96,084	-0,059	-0,050
-554,671	-105,533	0,080	-0,013
-553,656	-109,745	0,196	-0,030
-552,642	-148,465	0,100	-0,006
-551,627	327,339	-0,071	0,100
-550,612	-200,000	-0,016	-0,097
-549,598	-200,000	0,006	-0,030
-548,583	-56,796	-0,108	0,035
-547,569	-104,320	0,079	0,013
-546,554	-64,532	0,084	0,025
-545,539	-200,000	-0,010	0,065
-544,525	11,883	0,049	0,028
-543,510	130,036	0,074	-0,070
-542,496	150,894	-0,121	0,122
-541,481	30,869	0,048	0,031
-540,466	-16,745	0,073	0,034
-539,452	-88,558	0,089	0,019
-538,437	-200,000	-0,018	-0,088
-537,423	800,000	-0,017	0,043
-536,408	92,192	-0,033	0,028
-535,393	174,122	0,079	-0,084
-534,379	149,260	-0,079	-0,079
-533,364	-137,930	-0,129	0,011
-532,350	-129,681	0,027	-0,003
-531,335	-88,168	-0,096	-0,021
-530,321	-18,477	0,070	-0,032
-529,306	506,700	-0,062	0,106
-528,291	-139,011	-0,219	-0,017
-527,277	800,000	-0,015	-0,039
-526,262	-200,000	0,002	-0,053
-525,248	-15,511	0,072	-0,034
-524,233	-15,863	-0,054	0,025
-523,218	800,000	-0,036	0,108
-522,204	-36,028	-0,163	-0,065
-521,189	-104,750	-0,095	0,016
-520,175	475,115	-0,021	-0,034
-519,160	-48,595	-0,091	0,032
-518,145	-200,000	0,002	0,046
-517,131	-119,876	-0,136	0,017
-516,116	800,000	0,008	-0,022
-515,102	154,387	-0,045	-0,046
-514,087	194,280	-0,040	-0,044
-513,072	103,580	-0,083	-0,072
-512,058	-63,852	-0,100	0,030
-511,043	434,819	-0,057	-0,092
-510,029	-200,000	0,002	0,012
-509,014	-85,304	-0,002	-0,000
-507,999	126,052	-0,039	0,037
-506,985	25,489	-0,018	0,011
-505,970	-26,669	0,030	0,013
-504,956	487,683	0,038	0,065
-503,941	772,826	-0,035	-0,071
-502,926	205,227	-0,012	0,014
-501,912	800,000	0,051	0,125
-500,897	-25,067	0,042	-0,018
-499,883	-200,000	0,038	-0,144
-498,868	-200,000	-0,030	0,110
-497,853	-200,000	-0,003	-0,015
-496,839	800,000	0,026	-0,083
-495,824	-86,559	0,086	-0,019
-494,810	52,497	-0,047	-0,033
-493,795	60,519	-0,089	-0,065
-492,781	639,967	-0,027	0,050
-491,766	406,277	-0,037	-0,057
-490,751	109,846	-0,074	-0,065
-489,737	-200,000	-0,007	-0,031
-488,722	-200,000	0,003	-0,069
-487,708	-82,926	0,126	0,030
-486,693	-81,204	-0,147	0,035
-485,678	8,201	0,041	-0,022
-484,664	-111,701	0,123	0,018
-483,649	295,720	0,009	0,012
-482,635	-87,735	0,045	0,010
-481,620	30,854	-0,045	0,029
-480,605	-106,040	0,058	0,009
-479,591	-200,000	0,007	0,107
-478,576	669,700	-0,015	0,028
-477,562	-200,000	-0,005	-0,103
-476,547	-31,220	-0,082	-0,034
-475,532	-200,000	0,004	-0,039
-474,518	-5,447	0,030	-0,015
-473,503	75,553	-0,018	0,014
-472,489	48,421	-0,088	-0,061
-471,474	258,549	0,025	-0,032
-470,459	800,000	-0,037	-0,083
-469,445	577,171	0,064	-0,116
-468,430	722,216	-0,047	-0,092
-467,416	289,685	0,083	0,111
-466,401	278,070	-0,082	-0,108
-465,386	800,000	0,047	0,115
-464,372	275,575	0,109	0,142
-463,357	40,274	-0,179	0,118
-462,343	169,340	-0,042	0,045
-461,328	200,501	0,041	0,046
-460,313	-13,013	-0,057	0,027
-459,299	36,206	0,060	0,039
-458,284	800,000	0,050	0,115
-457,270	-37,359	0,135	0,053
-456,255	110,393	-0,053	0,047
-455,241	72,383	-0,053	0,040
-454,226	-200,000	0,000	0,091
-453,211	-113,952	-0,042	0,006
-452,197	-36,937	0,049	0,019
-451,182	465,967	0,017	-0,029
-450,168	775,243	0,039	-0,079
-449,153	381,833	0,066	-0,100
-448,138	-200,000	0,010	-0,115
-447,124	265,039	-0,065	-0,084
-446,109	800,000	-0,048	0,102
-445,095	-200,000	-0,026	0,155
-444,080	290,196	0,058	0,078
-443,065	-200,000	-0,018	0,068
-442,051	-117,706	-0,184	-0,024
-441,036	99,185	0,044	0,037
-440,022	43,260	-0,091	-0,061
-439,007	-176,884	0,046	0,001
-437,992	390,182	0,003	0,005
-436,978	800,000	0,032	0,082
-435,963	-59,828	-0,248	0,078
-434,949	-81,895	-0,025	0,006
-433,934	-51,117	-0,142	0,049
-432,919	-200,000	0,025	0,080
-431,905	-200,000	-0,011	-0,064
-430,890	550,298	0,050	0,089
-429,876	39,504	-0,031	0,020
-428,861	-200,000	-0,049	-0,168
-427,846	440,779	0,033	0,053
-426,832	88,357	0,016	0,013
-425,817	-172,219	-0,096	0,002
-424,803	-200,000	-0,036	-0,171
-423,788	339,038	0,070	0,101
-422,773	55,750	0,092	0,066
-421,759	-100,954	0,018	-0,003
-420,744	800,000	0,023	-0,059
-419,730	425,653	-0,073	0,116
-418,715	800,000	0,013	0,026
-417,701	-151,854	0,040	0,002
-416,686	-200,000	-0,006	0,062
-415,671	800,000	-0,027	0,075
-414,657	-53,281	0,032	0,011
-413,642	-63,919	-0,114	0,034
-412,628	-73,732	-0,049	-0,013
-411,613	56,850	-0,069	-0,050
-410,598	45,598	0,096	0,065
-409,584	31,600	0,045	0,029
-408,569	383,793	0,049	0,074
-407,555	-126,763	-0,022	0,002
-406,540	-46,891	0,096	0,034
-405,525	-200,000	0,026	-0,115
-404,511	691,267	0,031	0,061
-403,496	541,475	0,031	-0,054
-402,482	150,365	0,066	-0,066
-401,467	800,000	0,005	0,012
-400,452	59,001	0,047	-0,034
-399,438	-200,000	-0,019	-0,064
-398,423	800,000	0,008	0,020
-397,409	-108,647	-0,046	0,007
-396,394	118,545	0,042	-0,038
-395,379	-200,000	0,005	-0,069
-394,365	303,667	-0,029	0,039
-393,350	-46,419	0,021	-0,008
-392,336	600,048	-0,078	0,143
-391,321	266,862	0,073	-0,093
-390,306	273,321	-0,102	-0,132
-389,292	-200,000	0,004	-0,068
-388,277	800,000	0,021	0,059
-387,263	8,670	0,051	0,028
-386,248	51,986	0,139	0,097
-385,233	423,615	0,062	0,099
-384,219	-5,379	0,019	0,009
-383,204	216,247	-0,153	0,179
-382,190	1,952	0,110	0,058
-381,175	-74,455	-0,130	-0,034
-380,160	800,000	-0,026	-0,064
-379,146	-145,140	0,133	-0,009
-378,131	-200,000	0,089	0,000
-377,117	-200,000	0,020	-0,167
-376,102	365,682	0,052	0,077
-375,088	-200,000	-0,017	-0,117
-374,073	-200,000	0,018	-0,137
-373,058	-200,000	0,018	-0,065
-372,044	131,733	-0,005	0,005
-371,029	47,717	0,088	0,060
-370,015	-62,148	0,029	-0,009
-369,000	-75,920	-0,163	0,042
-367,985	37,542	0,050	0,033
-366,971	-200,000	0,013	-0,088
-365,956	418,727	-0,037	-0,058
-364,942	-136,363	0,043	0,004
-363,927	-117,122	0,243	0,032
-362,912	-139,779	-0,122	0,009
-361,898	800,000	-0,018	0,038
-360,883	-143,469	-0,207	0,014
-359,869	-30,471	-0,017	0,007
-358,854	122,036	0,128	-0,117
-357,839	575,038	0,061	0,110
-356,825	116,951	0,068	0,061
-355,810	800,000	-0,043	0,103
-354,796	-7,314	0,131	0,065
-353,781	-72,391	-0,069	0,019
-352,766	-3,703	-0,058	-0,029
-351,752	800,000	-0,039	0,100
-350,737	-5,307	0,136	0,068
-349,723	-200,000	-0,007	-0,065
-348,708	50,363	-0,108	0,075
-347,693	120,395	-0,102	-0,093
-346,679	-98,473	0,050	0,009
-345,664	256,449	-0,038	-0,049
-344,650	-19,226	0,048	0,022
-343,635	800,000	0,053	0,163
-342,620	264,913	0,044	0,056
-341,606	-200,000	-0,019	-0,077
-340,591	-200,000	0,010	-0,192
-339,577	800,000	-0,053	0,114
-338,562	-200,000	0,008	0,027
-337,548	800,000	-0,025	-0,067
-336,533	-106,515	0,020	-0,003
-335,518	-200,000	-0,001	0,060
-334,504	-3,611	-0,071	0,036
-333,489	285,506	0,059	0,079
-332,475	533,773	0,064	-0,112
-331,460	800,000	-0,092	-0,205
-330,445	145,947	0,071	-0,070
-329,431	-200,000	0,020	-0,127
-328,416	-200,000	-0,005	0,116
-327,402	423,128	0,051	0,081
-326,387	599,016	0,013	0,023
-325,372	800,000	-0,036	0,117
-324,358	-200,000	-0,030	0,113
-323,343	-193,226	0,012	0,000
-322,329	-67,390	0,078	0,022
-321,314	-200,000	0,029	0,094
-320,299	44,346	0,002	0,002
-319,285	50,323	0,039	0,027
-318,270	-200,000	-0,001	-0,014
-317,256	-72,168	-0,128	0,035
-316,241	97,110	0,019	-0,016
-315,226	800,000	-0,037	0,091
-314,212	-115,651	0,094	-0,013
-313,197	-45,936	-0,124	0,044
-312,183	6,599	0,079	0,043
-311,168	30,994	-0,039	0,024
-310,153	-200,000	-0,007	-0,144
-309,139	328,302	-0,050	-0,071
-308,124	-200,000	-0,026	-0,168
-307,110	61,327	0,053	-0,039
-306,095	127,722	0,112	-0,104
-305,080	159,339	0,088	0,089
-304,066	-200,000	0,010	-0,078
-303,051	-200,000	-0,001	-0,038
-302,037	-200,000	0,013	-0,098
-301,022	259,285	0,058	-0,074
-300,008	800,000	0,076	0,194
-298,993	619,071	0,048	0,089
-297,978	800,000	0,065	0,136
-296,964	85,234	-0,156	0,125
-295,949	95,917	-0,027	0,023
-294,935	328,842	-0,060	-0,085
-293,920	-200,000	-0,013	0,112
-292,905	-15,458	-0,081	0,038
-291,891	-200,000	0,011	0,063
-290,876	-116,705	0,092	0,012
-289,862	12,529	0,017	-0,010
-288,847	-200,000	-0,005	0,019
-287,832	800,000	0,028	0,078
-286,818	-73,278	0,030	-0,008
-285,803	-172,590	0,041	-0,001
-284,789	800,000	0,014	-0,046
-283,774	800,000	0,038	0,100
-282,759	-97,329	-0,079	-0,015
-281,745	-200,000	0,008	0,035
-280,730	3,057	0,047	0,025
-279,716	-200,000	0,000	0,025
-278,701	-90,173	0,169	0,036
-277,686	285,724	0,107	0,142
-276,672	173,817	0,131	0,138
-275,657	-21,277	0,045	0,020
-274,643	52,658	-0,011	-0,007
-273,628	-64,210	0,044	0,013
-272,613	-163,416	-0,110	0,004
-271,599	-183,684	0,101	0,001
-270,584	-120,328	0,044	-0,005
-269,570	189,283	0,062	-0,068
-268,555	109,388	-0,076	0,066
-267,540	-174,235	-0,045	-0,001
-266,526	800,000	-0,022	0,068
-265,511	223,482	0,090	-0,106
-264,497	-177,979	-0,199	-0,003
-263,482	42,113	0,089	-0,059
-262,467	-200,000	0,007	0,064
-261,453	-200,000	0,005	0,042
-260,438	15,956	-0,066	-0,038
-259,424	800,000	-0,029	-0,066
-258,409	8,591	0,098	-0,054
-257,395	800,000	0,076	0,163
-256,380	-164,495	-0,112	0,004
-255,365	380,872	0,034	0,050
-254,351	584,861	-0,025	0,044
-253,336	-200,000	-0,022	-0,155
-252,322	-96,416	-0,109	-0,021
-251,307	200,331	0,083	-0,093
-250,292	-6,397	0,130	0,064
-249,278	800,000	-0,044	-0,095
-248,263	-200,000	-0,003	-0,067
-247,249	41,620	-0,063	0,042
-246,234	-200,000	0,004	-0,044
-245,219	-152,634	-0,113	-0,006
-244,205	-74,865	0,058	0,015
-243,190	-133,006	-0,083	0,008
-242,176	-200,000	0,001	-0,032
-241,161	24,515	-0,053	-0,032
-240,146	564,824	0,047	0,084
-239,132	-200,000	-0,015	0,075
-238,117	-200,000	0,002	-0,162
-237,103	9,092	0,016	0,009
-236,088	111,182	-0,029	-0,025
-235,073	665,674	0,051	0,097
-234,059	-130,941	-0,143	0,014
-233,044	130,291	-0,069	0,064
-232,030	-99,852	-0,087	-0,016
-231,015	-130,742	0,095	0,009
-230,000	336,147	0,011	-0,016
-228,986	10,091	0,022	0,012
-227,971	-38,142	0,075	-0,029
-226,957	-96,303	0,021	-0,004
-225,942	-134,071	0,088	-0,008
-224,927	-34,858	0,047	0,019
-223,913	800,000	0,059	-0,150
-222,898	-99,500	-0,083	-0,015
-221,884	-128,090	-0,102	-0,011
-220,869	206,199	0,102	0,116
-219,855	-48,285	-0,019	-0,007
-218,840	800,000	0,025	0,065
-217,825	0,685	-0,046	-0,024
-216,811	-200,000	-0,017	-0,070
-215,796	108,390	-0,075	-0,065
-214,782	461,998	0,093	-0,152
-213,767	-200,000	-0,021	-0,118
-212,752	-14,991	0,047	0,022
-211,738	331,449	0,003	0,004
-210,723	-200,000	0,004	0,034
-209,709	-184,921	-0,108	-0,001
-208,694	-200,000	0,013	-0,149
-207,679	800,000	0,033	-0,081
-206,665	-200,000	-0,020	-0,074
-205,650	-200,000	-0,001	-0,128
-204,636	-200,000	0,017	0,141
-203,621	159,709	-0,113	0,115
-202,606	-200,000	-0,007	-0,071
-201,592	-200,000	0,000	-0,075
-200,577	31,705	-0,087	0,054
-199,563	-98,427	-0,136	-0,025
-198,548	-109,470	0,055	-0,008
-197,533	35,317	0,118	0,075
-196,519	-89,802	-0,118	0,025
-195,504	74,290	0,065	0,049
-194,490	1,571	-0,092	0,048
-193,475	-200,000	0,002	0,051
-192,460	1,258	-0,028	-0,015
-191,446	-59,098	0,049	0,015
-190,431	-181,031	-0,034	0,000
-189,417	85,344	0,090	0,072
-188,402	-23,611	0,134	0,058
-187,387	-200,000	-0,034	-0,119
-186,373	-200,000	0,015	0,079
-185,358	67,036	-0,065	-0,048
-184,344	800,000	-0,041	0,113
-183,329	-77,892	0,160	-0,040
-182,315	-200,000	-0,007	0,028
-181,300	800,000	0,019	-0,061
-180,285	0,634	-0,090	0,047
-179,271	334,806	0,066	-0,094
-178,256	59,250	0,117	-0,083
-177,242	-200,000	0,007	-0,024
-176,227	-28,732	0,065	0,027
-175,212	-200,000	-0,015	-0,082
-174,198	499,953	0,017	-0,029
-173,183	206,776	0,042	-0,048
-172,169	-200,000	-0,009	0,109
-171,154	-120,659	0,124	-0,015
-170,139	-51,492	0,121	-0,041
-169,125	-200,000	0,022	0,082
-168,110	-200,000	0,020	0,188
-167,096	125,627	-0,141	0,129
-166,081	37,151	-0,071	-0,045
-165,066	506,739	0,023	-0,039
-164,052	-200,000	-0,000	-0,202
-163,037	-200,000	-0,016	-0,079
-162,023	800,000	0,070	0,141
-161,008	-200,000	-0,011	-0,078
-159,993	-67,898	0,088	-0,025
-158,979	49,355	-0,126	-0,086
-157,964	-200,000	0,001	-0,016
-156,950	76,468	-0,129	-0,099
-155,935	-200,000	0,030	0,104
-154,920	-145,936	0,083	0,005
-153,906	289,748	-0,079	0,105
-152,891	800,000	-0,060	0,133
-151,877	298,591	0,058	-0,078
-150,862	61,474	0,121	0,088
-149,847	-15,514	-0,062	0,029
-148,833	344,531	0,055	0,079
-147,818	269,375	0,073	0,094
-146,804	-200,000	-0,017	-0,066
-145,789	-122,936	0,162	0,019
-144,775	-50,368	0,106	-0,036
-143,760	-107,243	0,106	-0,017
-142,745	-60,949	-0,102	0,031
-141,731	-200,000	0,049	0,164
-140,716	447,760	0,102	0,163
-139,702	633,765	0,043	0,080
-138,687	-200,000	-0,018	-0,067
-137,672	-164,599	-0,032	0,001
-136,658	-92,960	-0,043	-0,009
-135,643	-137,517	-0,153	-0,012
-134,629	-200,000	0,013	0,051
-133,614	-13,903	-0,075	-0,035
-132,599	456,111	-0,005	-0,008
-131,585	800,000	-0,022	0,061
-130,570	54,418	-0,085	-0,059
-129,556	325,070	-0,019	-0,026
-128,541	-200,000	-0,018	-0,303
-127,526	800,000	-0,022	0,045
-126,512	-9,711	-0,058	0,028
-125,497	-200,000	0,015	0,061
-124,483	-44,433	-0,099	0,036
-123,468	70,801	-0,062	-0,046
-122,453	-200,000	0,007	-0,059
-121,439	-200,000	-0,003	0,020
-120,424	196,000	-0,099	-0,110
-119,410	-69,954	0,073	-0,020
-118,395	800,000	-0,026	0,072
