DTS Sentinel unit serial number:	SN410029Multiplexer serial number:	ORYXHardware model number:	OX2-SRSoftware version number:	ORYX F/W v4,00 Oryx Data Collector v3.7.2.0data status	okinstallation	B4 Nyhavnadifferential loss correction	single-endedforward channel	channel 2reverse channel	N/Adate	2023/12/19time	07:25:13forward acquisition time	300,00reverse acquisition time	0,00gamma	499,1914k internal	0,3126k external	0,3126temperature offset calibration	1,0000default loss term (dB/km)	0,3820temperature slope calibration	1,0000multiplexer offset coefficient	1,0000multiplexer slope coefficient	1,0000fibre end	0,00T internal ref (°C)	21,20T ext. ref 1 (°C)	6,16T ext. ref 2 (°C)	6,31length (m)	temperature (°C)	Stokes	anti-Stokes-744,400	743,597	-0,043	-0,086
-743,385	-172,101	-0,128	-0,003
-742,371	112,264	0,012	-0,011
-741,356	-198,037	-0,281	0,001
-740,342	366,386	0,044	0,067
-739,327	-10,962	-0,319	0,156
-738,312	-64,384	0,035	0,011
-737,298	-26,211	-0,241	0,105
-736,283	148,395	-0,101	-0,102
-735,269	763,899	-0,101	0,205
-734,254	74,521	-0,112	0,088
-733,239	-147,786	-0,452	-0,028
-732,225	99,722	0,097	0,084
-731,210	-158,535	-0,110	-0,005
-730,196	-200,000	0,011	0,061
-729,181	34,970	0,061	-0,040
-728,167	-200,000	0,004	-0,037
-727,152	114,909	-0,098	-0,089
-726,137	800,000	0,035	-0,082
-725,123	42,107	-0,055	-0,037
-724,108	-74,560	-0,153	-0,041
-723,094	358,554	-0,055	-0,082
-722,079	24,131	0,075	-0,046
-721,064	-118,264	0,099	0,013
-720,050	800,000	-0,064	-0,144
-719,035	-10,353	-0,065	0,032
-718,021	245,308	-0,079	0,099
-717,006	-57,811	-0,153	0,049
-715,991	177,178	-0,101	-0,109
-714,977	-200,000	-0,016	-0,087
-713,962	-68,085	0,048	0,014
-712,948	-200,000	0,010	0,186
-711,933	56,694	-0,069	0,050
-710,918	-88,556	-0,254	-0,056
-709,904	-37,926	-0,108	-0,042
-708,889	-93,192	0,090	-0,018
-707,875	-200,000	0,044	-0,168
-706,860	-200,000	0,023	-0,090
-705,845	-70,946	-0,136	-0,038
-704,831	-200,000	0,020	-0,097
-703,816	-200,000	-0,023	-0,172
-702,802	65,865	-0,129	-0,097
-701,787	22,845	0,028	-0,017
-700,772	161,046	-0,094	-0,097
-699,758	53,275	-0,104	-0,074
-698,743	-18,199	0,016	-0,007
-697,729	26,040	-0,113	0,070
-696,714	-200,000	0,003	-0,026
-695,699	-129,138	-0,155	-0,016
-694,685	-84,884	-0,092	-0,021
-693,670	44,840	-0,080	-0,055
-692,656	71,812	0,054	-0,042
-691,641	6,815	-0,108	-0,060
-690,627	-96,073	0,036	0,007
-689,612	707,991	0,063	-0,124
-688,597	-200,000	-0,001	-0,046
-687,583	-200,000	-0,041	-0,136
-686,568	-64,396	-0,047	0,014
-685,554	-146,612	-0,184	-0,012
-684,539	213,859	0,050	0,058
-683,524	-200,000	-0,011	0,056
-682,510	-143,411	-0,159	-0,011
-681,495	74,630	-0,213	-0,166
-680,481	-149,463	-0,084	0,005
-679,466	675,623	0,059	-0,114
-678,451	-86,699	-0,100	-0,023
-677,437	800,000	-0,021	-0,065
-676,422	-119,939	0,088	-0,011
-675,408	266,188	-0,025	-0,033
-674,393	50,773	-0,018	0,013
-673,378	5,785	-0,051	0,028
-672,364	-112,896	-0,103	-0,015
-671,349	137,001	0,101	-0,098
-670,335	330,483	0,036	0,052
-669,320	186,825	0,081	0,089
-668,305	800,000	0,023	0,071
-667,291	133,761	0,043	-0,041
-666,276	800,000	0,003	-0,007
-665,262	51,425	-0,058	-0,041
-664,247	-104,608	-0,093	-0,016
-663,232	680,902	0,050	-0,098
-662,218	-154,480	0,046	-0,002
-661,203	800,000	0,008	-0,024
-660,189	-22,643	0,031	-0,014
-659,174	-200,000	0,003	0,017
-658,159	-200,000	-0,018	-0,102
-657,145	800,000	-0,038	-0,081
-656,130	-88,840	0,149	-0,032
-655,116	80,797	-0,115	0,092
-654,101	83,080	0,046	0,037
-653,086	283,244	-0,097	-0,130
-652,072	-60,134	-0,096	0,030
-651,057	304,077	0,023	-0,032
-650,043	-68,953	-0,058	-0,016
-649,028	21,113	0,077	-0,046
-648,014	401,843	0,050	0,078
-646,999	166,342	-0,010	-0,010
-645,984	800,000	-0,064	-0,209
-644,970	227,144	0,059	-0,071
-643,955	-200,000	-0,013	-0,047
-642,941	447,702	-0,035	-0,058
-641,926	259,682	0,055	-0,070
-640,911	-200,000	0,017	-0,067
-639,897	370,090	0,075	0,114
-638,882	-1,355	-0,135	-0,071
-637,868	290,392	-0,057	0,076
-636,853	-1,304	-0,093	0,049
-635,838	-200,000	0,026	-0,175
-634,824	-63,123	-0,069	0,021
-633,809	578,740	0,096	-0,174
-632,795	-60,928	0,041	-0,013
-631,780	290,595	-0,059	-0,080
-630,765	355,623	0,014	-0,020
-629,751	139,416	-0,056	0,054
-628,736	-200,000	0,009	0,111
-627,722	49,402	0,015	-0,010
-626,707	-147,927	-0,087	0,005
-625,692	188,507	0,113	-0,125
-624,678	-21,388	0,165	0,074
-623,663	-109,192	-0,153	-0,024
-622,649	-127,465	-0,086	0,009
-621,634	800,000	-0,024	-0,053
-620,619	18,345	-0,100	0,059
-619,605	-126,720	-0,106	-0,011
-618,590	-140,093	0,030	-0,002
-617,576	66,693	0,029	0,022
-616,561	800,000	-0,042	-0,112
-615,546	-13,972	-0,085	-0,041
-614,532	800,000	-0,033	-0,091
-613,517	-200,000	0,037	-0,190
-612,503	144,179	0,056	0,056
-611,488	342,911	0,060	0,087
-610,474	-200,000	0,007	0,083
-609,459	482,678	0,091	-0,154
-608,444	161,708	-0,120	0,125
-607,430	800,000	-0,042	0,114
-606,415	19,362	-0,033	-0,020
-605,401	440,694	-0,031	-0,051
-604,386	-27,779	0,025	0,011
-603,371	-140,544	-0,029	0,002
-602,357	-92,026	0,138	0,029
-601,342	49,938	0,118	-0,082
-600,328	439,558	-0,057	0,092
-599,313	-51,214	0,087	-0,030
-598,298	-200,000	-0,027	-0,169
-597,284	-200,000	0,010	-0,117
-596,269	505,478	-0,060	-0,104
-595,255	-200,000	-0,024	-0,087
-594,240	-200,000	0,003	-0,066
-593,225	-200,000	-0,019	-0,106
-592,211	-200,000	-0,016	-0,079
-591,196	-13,151	-0,069	-0,033
-590,182	800,000	-0,020	-0,043
-589,167	800,000	0,022	-0,063
-588,152	426,693	0,020	0,032
-587,138	800,000	0,044	-0,135
-586,123	-200,000	-0,019	-0,165
-585,109	-148,099	0,052	-0,003
-584,094	236,388	0,093	0,115
-583,079	-200,000	-0,000	-0,059
-582,065	369,071	0,026	-0,038
-581,050	245,023	0,035	0,043
-580,036	415,777	-0,089	0,141
-579,021	227,674	-0,028	0,033
-578,006	83,515	0,083	-0,067
-576,992	-200,000	-0,007	0,044
-575,977	800,000	0,037	-0,093
-574,963	-134,137	0,064	0,006
-573,948	-200,000	0,002	-0,028
-572,934	-36,637	-0,144	0,057
-571,919	115,925	0,108	-0,098
-570,904	-200,000	-0,009	-0,178
-569,890	295,122	0,042	-0,057
-568,875	784,599	-0,082	-0,166
-567,861	363,488	-0,060	0,089
-566,846	616,499	0,069	0,128
-565,831	-200,000	0,000	0,034
-564,817	-137,248	0,091	-0,008
-563,802	125,966	-0,097	0,091
-562,788	202,389	0,059	0,068
-561,773	286,506	-0,039	-0,052
-560,758	175,741	0,088	0,095
-559,744	800,000	0,018	0,043
-558,729	-58,908	-0,098	-0,031
-557,715	-200,000	0,014	0,157
-556,700	190,638	-0,081	0,090
-555,685	444,637	-0,036	-0,059
-554,671	-75,453	0,078	0,020
-553,656	-159,225	-0,082	0,003
-552,642	143,553	0,106	0,104
-551,627	99,584	0,065	0,055
-550,612	800,000	0,031	-0,083
-549,598	-200,000	-0,033	-0,283
-548,583	-200,000	0,023	0,108
-547,569	192,916	-0,095	0,107
-546,554	-59,863	0,083	-0,026
-545,539	-200,000	-0,002	-0,042
-544,525	228,340	-0,068	0,082
-543,510	467,356	-0,085	0,142
-542,496	-32,209	-0,041	-0,017
-541,481	-200,000	-0,007	-0,180
-540,466	-200,000	-0,063	-0,231
-539,452	128,415	-0,089	0,084
-538,437	-161,413	0,165	0,006
-537,423	249,067	-0,019	-0,024
-536,408	-200,000	-0,018	-0,103
-535,393	299,228	0,103	-0,140
-534,379	-200,000	0,005	-0,049
-533,364	71,554	0,118	-0,091
-532,350	-100,225	0,122	-0,022
-531,335	-131,268	0,097	-0,009
-530,321	-57,553	-0,027	-0,009
-529,306	556,610	0,014	-0,024
-528,291	-12,778	-0,095	0,045
-527,277	-200,000	-0,007	0,068
-526,262	-45,779	-0,049	-0,018
-525,248	88,503	-0,028	0,023
-524,233	800,000	0,088	0,230
-523,218	320,946	0,070	0,098
-522,204	-107,689	-0,064	-0,010
-521,189	800,000	0,060	-0,129
-520,175	-48,227	-0,148	-0,053
-519,160	-200,000	-0,003	0,101
-518,145	-92,260	-0,082	-0,017
-517,131	800,000	0,023	-0,059
-516,116	294,415	0,024	-0,033
-515,102	800,000	-0,056	0,138
-514,087	-200,000	0,106	-0,000
-513,072	-14,902	-0,036	0,017
-512,058	-91,055	0,027	-0,006
-511,043	-56,075	0,105	-0,034
-510,029	60,754	-0,108	-0,079
-509,014	251,618	0,041	0,052
-507,999	384,100	-0,124	0,189
-506,985	-200,000	-0,006	-0,029
-505,970	800,000	-0,031	-0,073
-504,956	152,695	0,090	0,090
-503,941	25,741	-0,102	0,063
-502,926	-101,730	-0,154	-0,027
-501,912	800,000	-0,022	0,054
-500,897	36,611	0,062	-0,040
-499,883	800,000	-0,051	-0,112
-498,868	94,114	0,064	-0,053
-497,853	800,000	0,038	-0,093
-496,839	-41,263	-0,141	0,054
-495,824	70,013	0,069	0,052
-494,810	324,733	0,069	0,098
-493,795	77,044	0,100	-0,078
-492,781	800,000	0,035	0,088
-491,766	-200,000	0,020	-0,069
-490,751	138,052	0,086	-0,083
-489,737	-200,000	0,027	-0,107
-488,722	-200,000	0,007	-0,051
-487,708	201,520	0,073	0,083
-486,693	477,092	0,022	-0,036
-485,678	296,132	-0,073	0,099
-484,664	-76,921	0,062	-0,016
-483,649	-133,922	-0,076	0,007
-482,635	306,985	-0,040	-0,055
-481,620	800,000	-0,034	0,089
-480,605	46,717	0,059	0,040
-479,591	-200,000	0,048	0,163
-478,576	-200,000	0,035	-0,136
-477,562	33,540	-0,080	-0,051
-476,547	89,274	-0,099	0,081
-475,532	46,750	0,135	0,092
-474,518	-22,659	0,125	-0,056
-473,503	-112,837	-0,080	-0,012
-472,489	800,000	0,004	-0,010
-471,474	-56,512	-0,025	0,008
-470,459	140,614	-0,063	-0,061
-469,445	-30,880	-0,143	-0,059
-468,430	-85,405	-0,078	0,018
-467,416	510,475	-0,035	0,060
-466,401	-33,702	0,106	-0,043
-465,386	-111,359	0,156	0,023
-464,372	11,247	-0,103	-0,058
-463,357	800,000	-0,035	-0,076
-462,343	245,664	-0,055	-0,069
-461,328	800,000	0,053	-0,126
-460,313	0,668	-0,123	-0,065
-459,299	-36,376	0,149	0,059
-458,284	197,552	-0,059	0,067
-457,270	-38,268	0,055	0,021
-456,255	31,817	0,065	0,041
-455,241	-13,584	-0,112	-0,053
-454,226	-155,104	0,169	-0,008
-453,211	800,000	-0,024	0,065
-452,197	232,103	0,064	-0,077
-451,182	60,238	0,040	-0,029
-450,168	164,104	-0,092	0,095
-449,153	-90,723	0,127	-0,027
-448,138	-87,908	-0,136	-0,030
-447,124	129,593	-0,103	0,097
-446,109	-90,684	0,031	-0,006
-445,095	733,816	0,055	0,109
-444,080	-200,000	-0,012	0,043
-443,065	-166,500	0,097	0,003
-442,051	-22,681	0,042	-0,018
-441,036	-200,000	0,039	0,184
-440,022	28,956	0,034	-0,021
-439,007	800,000	-0,032	0,095
-437,992	-200,000	0,005	0,099
-436,978	-108,638	-0,060	0,009
-435,963	117,005	0,116	-0,105
-434,949	-200,000	0,016	-0,108
-433,934	-26,270	0,067	-0,029
-432,919	241,805	-0,093	-0,115
-431,905	800,000	0,079	-0,201
-430,890	66,756	0,100	0,075
-429,876	800,000	0,074	-0,182
-428,861	707,442	0,049	-0,095
-427,846	-138,560	0,155	-0,012
-426,832	-200,000	-0,005	-0,127
-425,817	-28,065	-0,153	0,065
-424,803	744,592	-0,024	0,048
-423,788	-58,576	0,031	0,010
-422,773	-159,046	0,138	0,006
-421,759	-20,207	-0,088	0,040
-420,744	-200,000	-0,012	-0,091
-419,730	-200,000	0,008	-0,101
-418,715	219,760	0,080	-0,095
-417,701	-71,762	-0,150	0,041
-416,686	48,685	0,081	0,056
-415,671	-200,000	-0,003	-0,020
-414,657	97,460	-0,127	-0,107
-413,642	85,805	-0,065	0,052
-412,628	-167,173	-0,070	-0,002
-411,613	-63,969	-0,145	-0,043
-410,598	-125,502	-0,092	-0,010
-409,584	60,194	0,019	0,014
-408,569	-93,268	0,191	-0,039
-407,555	800,000	-0,109	0,238
-406,540	-150,379	-0,119	0,007
-405,525	315,489	-0,035	0,049
-404,511	332,246	0,103	0,147
-403,496	-190,122	0,111	-0,001
-402,482	-200,000	-0,015	-0,133
-401,467	490,681	0,097	-0,163
-400,452	-200,000	-0,037	0,181
-399,438	-200,000	-0,013	-0,052
-398,423	-76,571	-0,086	0,022
-397,409	133,775	-0,094	-0,090
-396,394	800,000	-0,077	-0,169
-395,379	-59,835	0,072	-0,023
-394,365	521,836	0,032	-0,055
-393,350	800,000	0,044	0,092
-392,336	-40,659	0,035	-0,013
-391,321	59,327	0,117	-0,085
-390,306	-75,263	-0,132	-0,034
-389,292	-2,419	-0,044	-0,023
-388,277	800,000	0,037	0,095
-387,263	-124,089	0,073	-0,008
-386,248	-128,916	-0,062	-0,006
-385,233	-200,000	-0,001	0,045
-384,219	-200,000	0,010	0,035
-383,204	800,000	-0,032	-0,082
-382,190	-57,494	-0,035	-0,011
-381,175	-81,394	0,033	0,008
-380,160	-61,575	0,031	0,010
-379,146	-116,317	0,156	0,021
-378,131	219,934	0,059	0,070
-377,117	52,762	0,087	0,061
-376,102	-200,000	0,004	-0,024
-375,088	-200,000	-0,003	-0,018
-374,073	-85,890	-0,088	0,020
-373,058	-200,000	-0,002	0,030
-372,044	-200,000	-0,037	0,124
-371,029	488,822	0,033	0,056
-370,015	-200,000	0,027	0,135
-369,000	349,465	0,084	-0,122
-367,985	-200,000	0,003	0,127
-366,971	-84,864	-0,124	-0,028
-365,956	-67,315	-0,143	-0,041
-364,942	618,168	-0,051	0,094
-363,927	-200,000	0,029	0,109
-362,912	800,000	0,061	-0,127
-361,898	-200,000	-0,025	0,088
-360,883	681,927	0,040	0,076
-359,869	800,000	-0,036	-0,081
-358,854	800,000	-0,038	0,113
-357,839	159,226	0,099	-0,101
-356,825	217,137	-0,032	0,037
-355,810	-200,000	-0,007	0,186
-354,796	34,140	0,066	-0,042
-353,781	-200,000	-0,002	-0,040
-352,766	-200,000	0,023	-0,178
-351,752	-200,000	-0,021	-0,105
-350,737	287,927	0,073	0,098
-349,723	-177,006	0,049	0,001
-348,708	103,832	-0,064	0,055
-347,693	705,502	0,041	0,080
-346,679	-13,887	-0,072	-0,034
-345,664	-145,915	-0,079	-0,005
-344,650	478,941	-0,063	-0,104
-343,635	-200,000	0,019	0,070
-342,620	-200,000	-0,011	0,160
-341,606	-144,409	-0,192	0,013
-340,591	-58,513	0,137	0,043
-339,577	454,475	-0,053	0,087
-338,562	243,925	0,025	0,031
-337,548	-200,000	0,020	-0,112
-336,533	-84,412	0,047	-0,011
-335,518	30,968	0,055	-0,034
-334,504	334,469	0,056	0,080
-333,489	-16,782	-0,110	0,051
-332,475	-147,659	0,137	-0,008
-331,460	33,367	-0,081	0,051
-330,445	-200,000	0,006	0,066
-329,431	800,000	-0,011	0,026
-328,416	-128,504	-0,116	0,012
-327,402	800,000	0,055	0,118
-326,387	232,295	0,037	0,044
-325,372	800,000	-0,011	-0,026
-324,358	-181,987	-0,073	-0,001
-323,343	-158,408	0,150	0,006
-322,329	794,499	0,024	0,049
-321,314	-200,000	-0,006	0,075
-320,299	569,644	-0,031	-0,056
-319,285	-28,635	0,056	0,023
-318,270	727,546	0,047	-0,093
-317,256	48,013	-0,141	-0,097
-316,241	484,123	0,083	-0,139
-315,226	-72,976	-0,016	-0,004
-314,212	341,439	0,028	0,040
-313,197	683,112	0,052	0,100
-312,183	41,767	-0,076	0,050
-311,168	-200,000	-0,013	0,143
-310,153	135,353	0,069	-0,066
-309,139	-200,000	-0,029	0,182
-308,124	171,131	-0,073	0,076
-307,110	85,293	0,111	-0,089
-306,095	-41,924	-0,132	-0,049
-305,080	800,000	-0,028	-0,063
-304,066	27,653	-0,043	0,026
-303,051	69,038	-0,062	-0,047
-302,037	-78,741	0,145	0,036
-301,022	-200,000	-0,000	0,103
-300,008	-200,000	0,006	0,075
-298,993	-200,000	0,042	-0,171
-297,978	-135,771	0,024	-0,002
-296,964	61,434	-0,080	0,058
-295,949	800,000	0,034	-0,076
-294,935	353,079	-0,016	-0,024
-293,920	-200,000	-0,005	0,041
-292,905	-34,195	0,137	-0,055
-291,891	-87,945	-0,087	-0,019
-290,876	800,000	-0,016	0,043
-289,862	-200,000	-0,005	-0,096
-288,847	-200,000	-0,006	-0,029
-287,832	558,218	-0,051	-0,091
-286,818	-200,000	0,023	0,083
-285,803	800,000	0,058	-0,125
-284,789	-200,000	0,027	0,112
-283,774	-197,749	-0,054	-0,000
-282,759	568,261	-0,028	0,051
-281,745	800,000	-0,057	-0,152
-280,730	-200,000	0,001	-0,019
-279,716	800,000	0,007	0,015
-278,701	800,000	-0,042	0,089
-277,686	-77,818	0,119	-0,030
-276,672	-34,254	0,085	0,034
-275,657	112,958	0,096	-0,085
-274,643	155,176	-0,041	-0,042
-273,628	450,134	0,016	0,027
-272,613	-172,348	0,089	-0,002
-271,599	141,964	0,015	-0,015
-270,584	-60,125	0,163	-0,051
-269,570	-9,171	0,076	-0,037
-268,555	-38,650	-0,126	-0,049
-267,540	-200,000	-0,003	-0,099
-266,526	-200,000	-0,009	0,073
-265,511	248,046	-0,015	0,019
-264,497	62,190	0,135	-0,099
-263,482	-200,000	-0,024	-0,167
-262,467	720,325	-0,060	0,118
-261,453	-128,106	-0,035	0,004
-260,438	-32,928	-0,054	-0,022
-259,424	-13,725	-0,050	0,024
-258,409	461,449	0,025	-0,041
-257,395	79,267	0,124	0,097
-256,380	800,000	0,017	0,038
-255,365	757,909	-0,020	0,041
-254,351	-115,919	0,057	-0,008
-253,336	793,259	-0,036	0,073
-252,322	-72,912	-0,025	-0,007
-251,307	-200,000	0,082	0,000
-250,292	57,369	0,036	0,026
-249,278	-200,000	0,037	0,129
-248,263	-200,000	-0,004	0,203
-247,249	-200,000	0,003	0,031
-246,234	-200,000	-0,046	-0,155
-245,219	-200,000	0,019	-0,112
-244,205	-10,516	0,049	0,024
-243,190	-128,237	-0,044	0,005
-242,176	-20,223	-0,049	0,022
-241,161	-200,000	-0,022	0,183
-240,146	-200,000	-0,010	0,107
-239,132	57,550	-0,098	-0,070
-238,117	-200,000	0,005	0,025
-237,103	-86,589	0,073	-0,016
-236,088	-200,000	0,006	-0,080
-235,073	-11,900	-0,148	0,070
-234,059	130,972	0,098	-0,092
-233,044	-200,000	-0,003	0,118
-232,030	32,326	0,078	-0,049
-231,015	-65,109	-0,108	0,032
-230,000	800,000	0,011	-0,032
-228,986	-73,703	-0,197	0,052
-227,971	104,661	-0,056	0,048
-226,957	-137,949	0,147	-0,012
-225,942	800,000	0,022	-0,055
-224,927	-200,000	-0,010	-0,083
-223,913	-200,000	0,027	0,107
-222,898	137,850	-0,131	0,125
-221,884	-200,000	-0,038	0,154
-220,869	83,617	0,127	0,101
-219,855	531,819	-0,047	0,082
-218,840	-200,000	-0,011	0,074
-217,825	108,558	-0,011	-0,010
-216,811	-187,538	0,055	0,001
-215,796	301,645	-0,051	0,069
-214,782	28,781	0,053	-0,033
-213,767	-100,656	0,104	0,018
-212,752	711,001	0,012	-0,023
-211,738	-62,711	0,102	0,031
-210,723	380,178	-0,028	0,042
-209,709	800,000	-0,043	-0,096
-208,694	-15,924	-0,014	0,007
-207,679	241,064	-0,022	0,027
-206,665	611,571	-0,093	0,171
-205,650	800,000	0,021	0,050
-204,636	-200,000	-0,026	0,193
-203,621	-136,802	-0,108	0,009
-202,606	-128,267	0,072	0,007
-201,592	-78,358	-0,148	-0,037
-200,577	-200,000	0,002	0,077
-199,563	299,364	-0,040	0,053
-198,548	92,825	-0,067	0,055
-197,533	-123,883	0,108	-0,012
-196,519	103,326	-0,048	0,041
-195,504	-200,000	-0,026	-0,106
-194,490	-200,000	0,001	-0,005
-193,475	-200,000	-0,004	-0,082
-192,460	37,879	-0,173	0,112
-191,446	-200,000	0,011	0,111
-190,431	463,015	-0,042	0,069
-189,417	393,802	-0,036	-0,054
-188,402	671,702	-0,081	0,154
-187,387	-200,000	0,006	-0,033
-186,373	-200,000	0,008	-0,126
-185,358	80,354	-0,055	-0,043
-184,344	-200,000	0,001	0,074
-183,329	174,119	0,075	0,079
-182,315	800,000	-0,016	-0,034
-181,300	-42,402	-0,054	-0,020
-180,285	-200,000	0,012	0,055
-179,271	-200,000	0,012	0,087
-178,256	237,404	0,101	0,122
-177,242	-35,204	0,093	-0,037
-176,227	23,391	0,093	0,056
-175,212	361,219	-0,049	-0,071
-174,198	-38,184	-0,047	0,018
-173,183	145,613	-0,121	-0,118
-172,169	0,894	-0,117	-0,061
-171,154	79,052	0,041	0,032
-170,139	-200,000	0,038	-0,158
-169,125	310,804	0,093	0,127
-168,110	-200,000	-0,018	0,088
-167,096	800,000	-0,032	-0,075
-166,081	-121,323	-0,051	0,006
-165,066	777,215	-0,068	-0,136
-164,052	-42,032	-0,109	0,040
-163,037	96,497	-0,100	0,084
-162,023	90,942	-0,030	0,024
-161,008	-64,673	0,130	0,038
-159,993	344,235	0,079	0,113
-158,979	282,498	-0,063	0,083
-157,964	800,000	-0,059	-0,161
-156,950	107,232	0,120	-0,104
-155,935	249,277	0,096	-0,119
-154,920	-133,363	-0,057	0,005
-153,906	800,000	-0,024	0,067
-152,891	-200,000	0,001	0,027
-151,877	82,049	0,049	-0,039
-150,862	-200,000	0,000	-0,117
-149,847	-110,135	0,119	-0,018
-148,833	800,000	0,035	0,076
-147,818	-173,516	0,142	-0,003
-146,804	-39,888	0,022	0,008
-145,789	298,631	-0,061	0,082
-144,775	-102,310	0,062	-0,011
-143,760	-170,319	-0,073	0,002
-142,745	-38,659	-0,105	0,040
-141,731	800,000	0,068	-0,166
-140,716	229,428	0,053	0,063
-139,702	800,000	-0,038	0,099
-138,687	800,000	-0,027	-0,076
-137,672	313,286	0,034	0,047
-136,658	86,149	0,050	0,040
-135,643	33,048	-0,080	-0,050
-134,629	-200,000	-0,030	0,110
-133,614	46,192	0,107	0,072
-132,599	-81,560	-0,012	0,003
-131,585	-200,000	-0,004	-0,063
-130,570	-12,903	0,089	-0,042
-129,556	781,167	0,017	0,035
-128,541	-3,459	-0,106	-0,054
-127,526	92,491	-0,009	0,007
-126,512	-67,106	0,052	0,015
-125,497	-200,000	0,001	0,075
-124,483	-110,871	-0,097	-0,014
-123,468	241,811	0,100	-0,122
-122,453	12,049	-0,110	-0,061
-121,439	88,752	-0,097	-0,078
-120,424	198,898	-0,094	-0,105
