DTS Sentinel unit serial number:	SN410029Multiplexer serial number:	ORYXHardware model number:	OX2-SRSoftware version number:	ORYX F/W v4,00 Oryx Data Collector v3.7.2.0data status	okinstallation	B4 Nyhavnadifferential loss correction	single-endedforward channel	channel 2reverse channel	N/Adate	2023/12/15time	23:10:13forward acquisition time	300,00reverse acquisition time	0,00gamma	499,1914k internal	0,3130k external	0,3130temperature offset calibration	1,0000default loss term (dB/km)	0,3820temperature slope calibration	1,0000multiplexer offset coefficient	1,0000multiplexer slope coefficient	1,0000fibre end	0,00T internal ref (°C)	21,61T ext. ref 1 (°C)	6,72T ext. ref 2 (°C)	6,86length (m)	temperature (°C)	Stokes	anti-Stokes-744,400	-74,164	0,061	0,016
-743,385	-6,972	-0,227	0,114
-742,371	-70,127	0,119	0,033
-741,356	-26,748	-0,192	0,083
-740,342	800,000	0,060	0,174
-739,327	-101,303	-0,233	-0,042
-738,312	-17,694	-0,114	-0,053
-737,298	-91,074	-0,225	-0,048
-736,283	800,000	0,038	-0,104
-735,269	326,682	-0,156	0,223
-734,254	-118,872	-0,135	-0,017
-733,239	-87,665	-0,301	-0,067
-732,225	-5,054	0,168	0,085
-731,210	-104,173	0,039	0,007
-730,196	800,000	0,026	0,070
-729,181	-200,000	-0,030	-0,133
-728,167	498,575	0,058	0,100
-727,152	-159,521	-0,065	0,003
-726,137	-200,000	0,019	-0,090
-725,123	800,000	0,059	-0,165
-724,108	800,000	-0,028	-0,083
-723,094	800,000	-0,073	-0,175
-722,079	800,000	-0,055	-0,114
-721,064	52,745	-0,113	-0,080
-720,050	117,975	-0,093	0,085
-719,035	800,000	0,019	-0,053
-718,021	106,419	-0,066	0,058
-717,006	227,112	0,078	-0,094
-715,991	-138,007	-0,060	-0,005
-714,977	-151,713	-0,084	-0,005
-713,962	-69,643	-0,045	-0,013
-712,948	65,537	0,060	0,045
-711,933	-200,000	0,009	0,161
-710,918	130,871	-0,127	0,121
-709,904	-200,000	-0,012	-0,047
-708,889	-16,588	-0,106	0,050
-707,875	55,294	0,105	-0,075
-706,860	-200,000	0,012	-0,061
-705,845	-200,000	0,003	0,094
-704,831	800,000	-0,014	-0,030
-703,816	800,000	-0,031	-0,080
-702,802	-147,800	-0,060	-0,004
-701,787	-200,000	-0,007	-0,078
-700,772	561,071	0,045	0,081
-699,758	329,165	-0,038	-0,055
-698,743	631,710	-0,065	-0,123
-697,729	-140,615	0,158	-0,012
-696,714	-200,000	-0,032	0,154
-695,699	22,437	-0,075	-0,045
-694,685	800,000	0,057	0,187
-693,670	800,000	0,050	-0,113
-692,656	800,000	0,018	-0,044
-691,641	-6,430	0,031	-0,016
-690,627	800,000	-0,059	-0,141
-689,612	-18,059	-0,065	-0,030
-688,597	149,191	-0,102	-0,102
-687,583	74,373	-0,069	-0,053
-686,568	-13,174	-0,084	0,040
-685,554	197,714	-0,098	-0,111
-684,539	257,019	0,019	0,024
-683,524	-167,645	-0,078	0,002
-682,510	-200,000	0,001	-0,029
-681,495	-112,942	0,051	-0,007
-680,481	27,484	-0,050	0,031
-679,466	66,376	-0,058	0,044
-678,451	-140,616	0,105	-0,008
-677,437	-12,210	-0,076	-0,037
-676,422	-61,803	-0,106	-0,033
-675,408	796,921	-0,029	-0,059
-674,393	-86,991	0,105	-0,024
-673,378	18,020	-0,103	-0,061
-672,364	130,804	0,086	-0,082
-671,349	363,955	-0,012	-0,018
-670,335	-200,000	0,001	0,210
-669,320	48,068	-0,011	-0,007
-668,305	-170,297	-0,151	-0,004
-667,291	-81,368	-0,119	-0,029
-666,276	2,210	-0,075	-0,040
-665,262	210,413	0,087	0,101
-664,247	-200,000	-0,015	-0,106
-663,232	800,000	0,043	-0,119
-662,218	-37,908	0,052	0,020
-661,203	-200,000	-0,004	-0,058
-660,189	112,590	0,131	-0,117
-659,174	19,708	-0,076	0,045
-658,159	-60,018	-0,190	-0,060
-657,145	79,115	-0,080	-0,063
-656,130	-19,086	0,020	-0,009
-655,116	-22,165	-0,068	-0,030
-654,101	-200,000	-0,028	0,152
-653,086	-108,829	0,125	-0,020
-652,072	359,695	-0,060	0,089
-651,057	-200,000	-0,014	-0,229
-650,043	800,000	-0,026	-0,058
-649,028	13,565	-0,081	0,046
-648,014	-200,000	0,009	-0,044
-646,999	629,194	0,080	0,150
-645,984	208,067	0,077	0,090
-644,970	-65,138	-0,065	0,019
-643,955	64,212	-0,015	0,011
-642,941	-120,467	0,135	-0,017
-641,926	-200,000	-0,026	0,089
-640,911	-200,000	-0,018	0,113
-639,897	-83,517	0,184	-0,043
-638,882	227,453	-0,053	-0,063
-637,868	435,158	0,040	0,065
-636,853	26,563	0,081	-0,050
-635,838	156,548	-0,132	-0,135
-634,824	7,430	-0,086	0,047
-633,809	-200,000	0,003	0,055
-632,795	467,496	-0,036	0,060
-631,780	-136,134	0,081	0,007
-630,765	-200,000	-0,003	-0,018
-629,751	800,000	-0,043	-0,131
-628,736	45,245	-0,059	-0,040
-627,722	800,000	-0,010	0,025
-626,707	54,351	0,115	0,082
-625,692	-200,000	0,004	-0,115
-624,678	-93,222	0,108	-0,022
-623,663	-200,000	0,010	-0,050
-622,649	-200,000	0,004	0,060
-621,634	-185,785	0,043	0,000
-620,619	27,833	-0,125	-0,078
-619,605	36,606	0,086	0,056
-618,590	800,000	-0,047	-0,097
-617,576	-103,267	-0,075	-0,013
-616,561	-95,536	0,020	0,004
-615,546	-186,522	-0,139	0,001
-614,532	-20,359	-0,067	0,030
-613,517	-200,000	0,006	-0,041
-612,503	-200,000	-0,015	-0,094
-611,488	19,775	-0,126	0,075
-610,474	-200,000	0,019	0,084
-609,459	349,703	-0,065	0,096
-608,444	-200,000	0,017	0,091
-607,430	160,484	-0,073	0,075
-606,415	-97,533	-0,094	-0,018
-605,401	75,756	0,067	0,053
-604,386	726,160	0,013	-0,027
-603,371	-99,035	-0,093	-0,017
-602,357	789,825	-0,052	0,106
-601,342	-96,682	-0,121	-0,023
-600,328	537,109	-0,092	-0,162
-599,313	-2,857	0,066	-0,034
-598,298	180,546	-0,038	0,041
-597,284	400,094	-0,055	0,085
-596,269	-4,114	0,048	-0,025
-595,255	-200,000	0,007	-0,051
-594,240	218,990	-0,044	-0,053
-593,225	40,054	-0,097	0,065
-592,211	-200,000	0,004	-0,074
-591,196	-58,580	0,074	-0,024
-590,182	39,769	0,033	-0,022
-589,167	-200,000	0,014	-0,098
-588,152	-112,831	-0,065	-0,009
-587,138	-200,000	0,001	0,095
-586,123	-132,114	-0,170	-0,016
-585,109	-200,000	0,027	-0,147
-584,094	-37,567	-0,122	-0,048
-583,079	490,077	0,023	-0,038
-582,065	-20,532	0,043	-0,019
-581,050	-20,775	0,055	-0,025
-580,036	-118,400	-0,047	0,006
-579,021	179,220	-0,026	-0,028
-578,006	-40,059	-0,113	0,043
-576,992	-200,000	0,008	-0,088
-575,977	-152,564	-0,058	-0,003
-574,963	-35,810	0,169	0,067
-573,948	-200,000	-0,042	0,203
-572,934	800,000	-0,010	-0,022
-571,919	276,601	-0,050	0,066
-570,904	-35,075	-0,095	0,038
-569,890	-200,000	0,008	-0,073
-568,875	180,128	0,080	0,086
-567,861	-7,129	-0,051	0,026
-566,846	-200,000	0,000	0,026
-565,831	380,165	-0,011	0,016
-564,817	279,893	-0,070	0,093
-563,802	-186,686	-0,127	0,001
-562,788	-200,000	-0,019	0,088
-561,773	304,731	-0,062	0,085
-560,758	800,000	-0,041	0,104
-559,744	75,377	0,119	0,093
-558,729	-200,000	0,003	-0,045
-557,715	139,032	-0,069	0,067
-556,700	-200,000	0,028	-0,142
-555,685	-200,000	-0,015	-0,095
-554,671	-10,221	-0,053	-0,026
-553,656	-200,000	-0,010	0,113
-552,642	160,982	-0,061	0,063
-551,627	-2,027	-0,062	0,032
-550,612	800,000	-0,052	0,112
-549,598	669,919	0,071	0,135
-548,583	493,032	0,116	-0,197
-547,569	249,132	-0,098	-0,122
-546,554	80,408	-0,061	0,049
-545,539	6,167	-0,040	-0,022
-544,525	-200,000	0,006	-0,086
-543,510	-105,613	-0,048	-0,008
-542,496	83,710	0,022	-0,017
-541,481	85,239	0,058	0,047
-540,466	-146,128	0,111	-0,007
-539,452	800,000	-0,024	-0,050
-538,437	-200,000	-0,002	0,209
-537,423	-145,535	0,111	0,007
-536,408	-104,858	-0,092	0,015
-535,393	-116,640	0,075	-0,010
-534,379	-200,000	0,021	-0,154
-533,364	-140,139	-0,065	-0,005
-532,350	92,814	0,126	-0,105
-531,335	-200,000	0,019	-0,066
-530,321	-109,707	-0,010	-0,002
-529,306	202,851	-0,094	-0,107
-528,291	-48,583	0,043	-0,015
-527,277	-200,000	-0,023	-0,121
-526,262	13,084	-0,036	0,021
-525,248	226,492	0,057	-0,068
-524,233	-200,000	-0,019	0,105
-523,218	229,748	-0,062	-0,075
-522,204	27,557	-0,047	-0,029
-521,189	350,245	0,041	0,060
-520,175	444,411	-0,038	-0,062
-519,160	800,000	0,087	-0,186
-518,145	176,180	0,056	0,060
-517,131	-155,505	0,044	0,002
-516,116	-40,966	-0,091	0,034
-515,102	26,912	-0,142	0,087
-514,087	39,254	0,017	-0,011
-513,072	-200,000	0,022	-0,088
-512,058	-200,000	0,016	0,060
-511,043	365,607	0,032	0,048
-510,029	16,500	0,064	0,037
-509,014	-89,793	-0,033	-0,007
-507,999	-6,124	-0,046	0,023
-506,985	-200,000	0,070	-0,237
-505,970	-55,051	-0,018	-0,006
-504,956	53,603	0,102	-0,072
-503,941	-94,861	0,079	0,016
-502,926	-200,000	-0,000	0,083
-501,912	-16,625	0,065	0,030
-500,897	-200,000	0,003	0,083
-499,883	250,009	-0,049	-0,061
-498,868	-73,119	0,091	-0,025
-497,853	-0,428	-0,084	-0,044
-496,839	-100,402	-0,068	-0,012
-495,824	-200,000	0,001	0,008
-494,810	556,191	-0,099	0,177
-493,795	-200,000	0,011	0,206
-492,781	10,732	-0,076	0,042
-491,766	-200,000	-0,015	0,114
-490,751	-200,000	-0,018	0,079
-489,737	-117,017	0,073	0,010
-488,722	-52,989	-0,045	0,015
-487,708	-110,428	0,083	-0,012
-486,693	348,615	0,076	0,111
-485,678	-200,000	-0,006	-0,034
-484,664	-200,000	-0,004	-0,038
-483,649	341,592	-0,052	-0,075
-482,635	-200,000	-0,005	-0,227
-481,620	198,951	-0,027	-0,030
-480,605	800,000	0,061	-0,166
-479,591	-200,000	0,001	-0,051
-478,576	272,756	0,026	-0,034
-477,562	-77,059	-0,106	0,027
-476,547	-23,471	-0,112	0,049
-475,532	114,572	-0,028	-0,026
-474,518	-200,000	0,016	-0,075
-473,503	-117,896	-0,030	-0,004
-472,489	800,000	0,006	0,013
-471,474	800,000	0,044	-0,118
-470,459	-200,000	-0,087	0,000
-469,445	325,415	0,030	-0,042
-468,430	60,772	-0,009	0,007
-467,416	-200,000	0,007	-0,061
-466,401	-45,956	-0,064	0,023
-465,386	800,000	0,035	-0,113
-464,372	398,884	0,044	-0,068
-463,357	-142,627	0,095	0,007
-462,343	-200,000	-0,014	-0,074
-461,328	-200,000	0,002	-0,037
-460,313	-117,662	0,114	0,015
-459,299	0,108	0,032	-0,017
-458,284	-200,000	-0,002	-0,051
-457,270	212,956	0,074	-0,086
-456,255	-200,000	0,027	-0,096
-455,241	-200,000	0,018	-0,118
-454,226	165,333	-0,123	-0,128
-453,211	-200,000	0,019	-0,101
-452,197	-76,432	-0,126	0,032
-451,182	24,355	0,044	0,027
-450,168	-200,000	0,034	0,115
-449,153	-200,000	-0,022	0,076
-448,138	251,192	-0,085	-0,107
-447,124	-200,000	0,009	-0,118
-446,109	660,369	-0,038	-0,072
-445,095	800,000	-0,037	0,107
-444,080	-200,000	0,005	-0,104
-443,065	-200,000	0,028	-0,126
-442,051	268,432	-0,020	0,026
-441,036	39,636	-0,160	-0,105
-440,022	-101,379	-0,029	0,005
-439,007	-200,000	0,014	-0,093
-437,992	-114,000	0,113	-0,016
-436,978	-170,652	0,064	-0,002
-435,963	92,112	0,080	-0,067
-434,949	-200,000	0,039	0,186
-433,934	800,000	-0,076	-0,167
-432,919	-13,472	-0,092	-0,044
-431,905	800,000	0,039	-0,096
-430,890	72,343	0,153	-0,117
-429,876	-31,550	0,063	-0,026
-428,861	800,000	-0,028	0,062
-427,846	304,559	0,051	-0,069
-426,832	387,171	-0,048	0,073
-425,817	73,844	-0,056	0,043
-424,803	130,426	-0,124	-0,117
-423,788	-200,000	-0,014	0,069
-422,773	54,292	0,111	0,078
-421,759	-200,000	0,020	0,074
-420,744	199,084	0,027	0,030
-419,730	-200,000	-0,041	0,168
-418,715	102,566	-0,022	-0,019
-417,701	381,316	-0,069	0,104
-416,686	-117,607	0,090	-0,012
-415,671	800,000	0,004	0,008
-414,657	-93,273	-0,085	0,017
-413,642	174,994	0,038	-0,040
-412,628	-89,273	-0,048	-0,010
-411,613	800,000	-0,020	-0,044
-410,598	-107,874	0,065	-0,010
-409,584	-200,000	0,031	0,121
-408,569	-200,000	-0,010	0,068
-407,555	-200,000	0,004	0,140
-406,540	86,818	-0,064	0,052
-405,525	-155,660	0,054	-0,002
-404,511	-200,000	0,006	-0,043
-403,496	800,000	-0,041	-0,091
-402,482	607,235	-0,033	-0,060
-401,467	125,233	0,036	0,033
-400,452	307,663	-0,056	0,077
-399,438	64,407	0,091	-0,067
-398,423	34,347	-0,110	-0,071
-397,409	800,000	0,040	-0,082
-396,394	-200,000	-0,053	-0,210
-395,379	800,000	-0,037	0,109
-394,365	-94,636	0,159	0,031
-393,350	178,903	-0,084	0,090
-392,336	-33,967	0,107	0,043
-391,321	35,085	-0,033	0,021
-390,306	-119,430	-0,046	0,006
-389,292	347,632	-0,051	-0,074
-388,277	490,068	-0,021	0,035
-387,263	-145,986	0,067	0,004
-386,248	800,000	0,008	-0,020
-385,233	169,776	0,054	-0,056
-384,219	-130,033	-0,122	-0,012
-383,204	-200,000	0,028	-0,172
-382,190	16,452	-0,084	-0,049
-381,175	-17,562	0,062	-0,028
-380,160	254,761	-0,053	-0,066
-379,146	175,333	0,082	0,087
-378,131	-112,157	0,105	0,015
-377,117	106,477	0,047	-0,041
-376,102	61,667	0,063	-0,046
-375,088	117,367	0,059	-0,053
-374,073	-41,578	0,062	-0,023
-373,058	800,000	-0,034	0,102
-372,044	800,000	0,036	0,108
-371,029	800,000	-0,035	0,086
-370,015	131,812	0,078	0,074
-369,000	-61,941	-0,069	0,021
-367,985	60,490	-0,057	0,041
-366,971	-42,390	-0,128	-0,048
-365,956	361,201	0,066	0,097
-364,942	16,413	0,102	-0,059
-363,927	800,000	0,008	-0,020
-362,912	-65,110	-0,061	0,018
-361,898	-27,738	0,038	0,016
-360,883	32,559	0,041	-0,026
-359,869	800,000	-0,044	-0,132
-358,854	303,294	0,088	-0,120
-357,839	-112,710	0,047	0,007
-356,825	106,864	-0,067	0,058
-355,810	-200,000	-0,012	0,220
-354,796	16,922	0,131	0,076
-353,781	-18,035	-0,150	-0,069
-352,766	-200,000	-0,008	0,119
-351,752	-147,683	0,099	-0,006
-350,737	-200,000	0,018	-0,074
-349,723	-73,607	0,106	-0,028
-348,708	-39,579	-0,051	-0,019
-347,693	800,000	-0,035	0,105
-346,679	330,202	0,050	0,071
-345,664	32,486	-0,028	0,018
-344,650	38,669	0,155	-0,101
-343,635	-155,286	-0,097	0,005
-342,620	-198,258	0,050	0,000
-341,606	-101,541	0,072	0,013
-340,591	-135,298	0,081	0,007
-339,577	-87,066	-0,107	-0,024
-338,562	-200,000	-0,018	0,142
-337,548	255,911	0,058	0,073
-336,533	-200,000	0,001	-0,030
-335,518	172,485	-0,197	0,208
-334,504	61,005	-0,051	0,037
-333,489	-148,299	-0,073	0,004
-332,475	-16,760	0,122	0,056
-331,460	135,053	-0,038	-0,036
-330,445	-200,000	0,014	-0,075
-329,431	222,920	0,116	-0,138
-328,416	36,136	-0,174	0,112
-327,402	324,741	0,073	0,102
-326,387	-200,000	0,013	-0,057
-325,372	-200,000	0,002	-0,138
-324,358	-200,000	0,059	-0,226
-323,343	-200,000	-0,016	-0,140
-322,329	125,882	0,095	-0,088
-321,314	266,694	-0,078	0,099
-320,299	-0,983	0,048	0,025
-319,285	170,689	0,020	0,021
-318,270	373,274	-0,069	-0,103
-317,256	-12,140	-0,034	0,016
-316,241	800,000	0,019	-0,040
-315,226	188,493	0,023	0,025
-314,212	185,131	0,048	0,052
-313,197	5,409	-0,006	0,003
-312,183	-70,485	-0,217	0,060
-311,168	-200,000	-0,003	-0,014
-310,153	800,000	-0,066	-0,150
-309,139	-46,776	-0,103	0,037
-308,124	92,866	0,062	0,051
-307,110	-200,000	0,015	-0,070
-306,095	86,943	0,105	-0,085
-305,080	44,590	-0,061	-0,041
-304,066	-101,051	0,094	0,017
-303,051	-180,066	-0,105	-0,002
-302,037	488,695	0,018	-0,031
-301,022	9,220	-0,071	-0,039
-300,008	604,625	0,038	0,069
-298,993	-97,616	0,107	-0,020
-297,978	572,353	0,062	0,111
-296,964	7,403	0,038	-0,021
-295,949	-24,323	-0,024	-0,010
-294,935	188,903	-0,082	-0,090
-293,920	800,000	-0,004	0,011
-292,905	53,568	0,117	0,082
-291,891	800,000	-0,028	0,065
-290,876	71,845	-0,030	0,023
-289,862	287,823	-0,014	-0,018
-288,847	800,000	-0,027	0,071
-287,832	569,012	-0,040	-0,072
-286,818	-200,000	-0,009	0,036
-285,803	437,510	-0,002	0,003
-284,789	-79,051	0,030	0,007
-283,774	-19,047	0,133	0,060
-282,759	10,552	-0,038	-0,021
-281,745	475,724	-0,038	0,062
-280,730	-200,000	0,030	-0,128
-279,716	795,755	0,029	-0,058
-278,701	54,728	0,177	0,125
-277,686	-20,932	0,057	0,026
-276,672	800,000	-0,028	0,075
-275,657	769,501	-0,031	-0,062
-274,643	58,771	-0,054	-0,039
-273,628	-61,913	-0,080	-0,024
-272,613	-90,098	-0,046	0,010
-271,599	800,000	-0,027	0,083
-270,584	-200,000	-0,011	-0,036
-269,570	59,223	-0,136	-0,098
-268,555	-112,840	-0,079	0,011
-267,540	694,953	-0,046	0,088
-266,526	243,638	0,064	-0,078
-265,511	666,524	0,023	-0,043
-264,497	-200,000	0,005	-0,033
-263,482	-36,731	0,132	-0,052
-262,467	387,183	0,082	0,124
-261,453	90,736	-0,100	-0,082
-260,438	-200,000	-0,004	-0,068
-259,424	-200,000	0,015	-0,063
-258,409	-200,000	0,039	0,159
-257,395	-126,482	0,061	-0,006
-256,380	-61,008	0,048	0,015
-255,365	-200,000	-0,008	0,044
-254,351	-200,000	0,024	0,131
-253,336	307,545	-0,108	-0,148
-252,322	242,017	0,076	-0,093
-251,307	800,000	-0,029	-0,093
-250,292	-200,000	0,006	0,045
-249,278	-130,955	0,096	0,009
-248,263	-173,394	-0,114	-0,002
-247,249	259,428	0,043	0,054
-246,234	92,757	0,042	0,035
-245,219	358,710	-0,014	0,021
-244,205	397,092	0,047	-0,071
-243,190	-39,256	0,204	0,078
-242,176	-200,000	-0,003	0,043
-241,161	352,953	0,101	0,147
-240,146	204,932	-0,118	0,134
-239,132	-122,713	-0,087	0,010
-238,117	-200,000	-0,011	0,048
-237,103	-200,000	0,005	-0,081
-236,088	11,503	-0,035	0,020
-235,073	-200,000	0,002	0,116
-234,059	800,000	0,039	-0,123
-233,044	-200,000	0,014	-0,126
-232,030	800,000	0,026	-0,078
-231,015	-200,000	0,032	-0,119
-230,000	182,515	-0,054	0,058
-228,986	357,300	-0,052	-0,075
-227,971	174,124	0,030	0,032
-226,957	-200,000	0,010	0,116
-225,942	279,494	0,066	-0,085
-224,927	-107,644	-0,136	-0,021
-223,913	-200,000	-0,023	0,128
-222,898	0,394	0,070	-0,036
-221,884	386,641	-0,025	-0,037
-220,869	-123,031	-0,135	0,016
-219,855	-200,000	0,036	-0,123
-218,840	-200,000	0,026	0,086
-217,825	130,161	-0,015	-0,014
-216,811	-46,975	0,134	0,048
-215,796	-5,438	0,055	0,027
-214,782	800,000	-0,055	-0,160
-213,767	130,810	0,061	0,057
-212,752	-148,654	0,124	-0,007
-211,738	22,869	0,065	0,038
-210,723	800,000	-0,013	0,039
-209,709	642,512	-0,028	-0,052
-208,694	137,254	-0,086	-0,082
-207,679	-200,000	0,015	-0,048
-206,665	248,777	0,113	0,140
-205,650	539,674	0,047	0,082
-204,636	345,059	-0,028	-0,040
-203,621	423,180	0,031	0,049
-202,606	-200,000	0,002	0,120
-201,592	-59,754	-0,069	-0,021
-200,577	193,035	0,125	0,138
-199,563	275,189	-0,082	-0,106
-198,548	407,989	0,053	0,082
-197,533	-200,000	0,017	0,076
-196,519	-53,696	-0,079	-0,026
-195,504	38,676	0,027	-0,018
-194,490	543,527	0,016	-0,027
-193,475	10,361	-0,102	-0,056
-192,460	-27,834	0,081	0,034
-191,446	-104,332	0,018	-0,003
-190,431	-200,000	-0,014	-0,044
-189,417	540,523	-0,054	-0,094
-188,402	205,415	0,045	-0,051
-187,387	179,188	0,099	-0,106
-186,373	355,489	-0,032	-0,046
-185,358	301,655	-0,013	-0,017
-184,344	21,481	0,102	0,060
-183,329	-125,142	0,219	0,024
-182,315	793,145	0,088	0,177
-181,300	155,484	-0,033	-0,033
-180,285	172,550	0,050	0,052
-179,271	-154,955	-0,105	-0,005
-178,256	-200,000	-0,016	0,123
-177,242	-21,310	0,061	-0,027
-176,227	-71,134	-0,151	-0,041
-175,212	-158,351	-0,007	-0,000
-174,198	464,416	-0,058	0,094
-173,183	-200,000	0,019	-0,071
-172,169	-200,000	-0,023	0,129
-171,154	800,000	-0,021	0,047
-170,139	800,000	0,026	0,069
-169,125	587,014	0,051	0,091
-168,110	-200,000	0,008	0,085
-167,096	-4,518	-0,038	-0,019
-166,081	172,313	0,074	-0,078
-165,066	138,428	-0,080	0,077
-164,052	112,783	0,096	0,084
-163,037	174,874	0,069	0,073
-162,023	275,766	0,098	0,127
-161,008	-200,000	0,009	0,108
-159,993	-200,000	-0,016	0,198
-158,979	-65,404	-0,040	0,011
-157,964	252,640	-0,063	-0,078
-156,950	-92,396	-0,057	0,011
-155,935	204,673	0,061	-0,069
-154,920	-200,000	-0,012	0,051
-153,906	-28,981	-0,021	-0,009
-152,891	-3,258	0,106	0,054
-151,877	-24,215	0,065	-0,028
-150,862	-200,000	0,005	-0,078
-149,847	800,000	0,040	-0,102
-148,833	800,000	-0,061	0,129
-147,818	800,000	0,024	0,070
-146,804	-137,515	-0,128	0,010
-145,789	800,000	-0,024	-0,053
-144,775	175,318	0,012	0,013
-143,760	55,829	0,197	0,139
-142,745	24,662	-0,108	-0,065
-141,731	800,000	-0,038	0,086
-140,716	17,274	-0,023	-0,013
-139,702	-49,483	-0,113	0,039
-138,687	800,000	0,027	0,079
-137,672	64,627	0,071	0,052
-136,658	-200,000	0,005	0,037
-135,643	7,087	-0,078	-0,042
-134,629	6,922	0,062	0,033
-133,614	-200,000	-0,033	0,163
-132,599	522,157	-0,036	0,061
-131,585	-200,000	0,012	-0,070
-130,570	28,365	0,126	0,077
-129,556	91,463	-0,084	0,068
-128,541	262,377	-0,060	-0,075
-127,526	110,323	-0,125	-0,109
-126,512	19,979	0,068	-0,040
-125,497	111,877	0,052	0,046
-124,483	164,707	-0,055	-0,056
-123,468	800,000	0,017	0,050
-122,453	94,121	-0,035	-0,029
-121,439	127,629	-0,014	-0,013
-120,424	-57,181	-0,170	-0,054
-119,410	150,733	0,040	0,039
