DTS Sentinel unit serial number:	SN410029Multiplexer serial number:	ORYXHardware model number:	OX2-SRSoftware version number:	ORYX F/W v4,00 Oryx Data Collector v3.7.2.0data status	okinstallation	B4 Nyhavnadifferential loss correction	single-endedforward channel	channel 2reverse channel	N/Adate	2023/12/19time	09:45:13forward acquisition time	300,00reverse acquisition time	0,00gamma	499,1914k internal	0,3128k external	0,3128temperature offset calibration	1,0000default loss term (dB/km)	0,3820temperature slope calibration	1,0000multiplexer offset coefficient	1,0000multiplexer slope coefficient	1,0000fibre end	0,00T internal ref (°C)	20,37T ext. ref 1 (°C)	4,79T ext. ref 2 (°C)	4,78length (m)	temperature (°C)	Stokes	anti-Stokes-744,400	-123,652	-0,022	-0,003
-743,385	9,964	-0,215	0,121
-742,371	514,441	0,045	0,079
-741,356	60,508	-0,319	0,235
-740,342	-46,165	0,074	0,027
-739,327	-79,230	-0,232	0,058
-738,312	-48,242	0,126	-0,045
-737,298	-148,519	-0,268	-0,016
-736,283	80,816	0,059	-0,047
-735,269	800,000	-0,108	0,234
-734,254	-101,397	0,088	-0,016
-733,239	-53,795	-0,498	-0,168
-732,225	800,000	-0,047	-0,148
-731,210	118,187	0,106	0,097
-730,196	800,000	-0,050	0,137
-729,181	159,311	-0,066	0,068
-728,167	250,213	-0,084	-0,106
-727,152	603,927	-0,064	-0,119
-726,137	491,404	-0,029	-0,050
-725,123	-134,651	-0,135	-0,012
-724,108	366,996	-0,137	-0,206
-723,094	-200,000	0,008	-0,118
-722,079	800,000	-0,067	-0,218
-721,064	67,228	0,034	0,026
-720,050	54,925	0,049	-0,035
-719,035	81,868	0,003	-0,002
-718,021	398,870	-0,058	0,091
-717,006	-200,000	-0,017	-0,152
-715,991	800,000	-0,037	-0,089
-714,977	361,989	0,036	0,053
-713,962	-30,406	-0,093	-0,039
-712,948	201,789	-0,038	-0,044
-711,933	-65,095	-0,051	0,015
-710,918	305,607	0,030	-0,042
-709,904	66,262	-0,029	0,022
-708,889	-161,671	-0,065	-0,002
-707,875	-200,000	0,006	-0,068
-706,860	52,809	-0,027	0,019
-705,845	-200,000	-0,011	-0,042
-704,831	-62,630	-0,184	0,056
-703,816	-76,406	-0,101	-0,026
-702,802	104,104	0,089	-0,077
-701,787	-1,968	-0,132	0,069
-700,772	10,185	0,102	-0,057
-699,758	136,349	-0,132	-0,128
-698,743	723,604	-0,079	-0,157
-697,729	551,986	0,016	0,029
-696,714	786,765	-0,043	-0,089
-695,699	800,000	0,056	-0,136
-694,685	-200,000	0,010	-0,123
-693,670	-200,000	-0,041	-0,185
-692,656	-200,000	-0,006	0,073
-691,641	-200,000	0,016	0,056
-690,627	363,560	0,035	0,053
-689,612	-60,062	-0,122	0,038
-688,597	99,418	-0,045	0,038
-687,583	800,000	0,043	-0,095
-686,568	-139,647	-0,090	-0,007
-685,554	800,000	-0,048	0,112
-684,539	626,883	0,049	0,093
-683,524	-35,052	0,092	-0,037
-682,510	800,000	0,037	-0,117
-681,495	31,301	-0,086	-0,055
-680,481	294,103	-0,031	0,043
-679,466	31,128	-0,180	0,115
-678,451	-200,000	-0,008	-0,081
-677,437	619,354	-0,030	0,057
-676,422	383,789	-0,051	0,078
-675,408	452,905	0,058	0,096
-674,393	325,421	-0,020	-0,028
-673,378	359,504	-0,105	-0,156
-672,364	-200,000	0,001	-0,132
-671,349	697,803	-0,012	-0,023
-670,335	800,000	0,036	-0,118
-669,320	-74,021	0,060	0,016
-668,305	320,333	0,011	-0,015
-667,291	-57,745	-0,137	-0,044
-666,276	-200,000	-0,008	-0,026
-665,262	60,621	-0,116	-0,085
-664,247	90,865	-0,055	0,045
-663,232	-10,188	-0,110	-0,054
-662,218	800,000	0,025	0,071
-661,203	405,135	-0,032	0,050
-660,189	-34,365	-0,189	0,077
-659,174	-104,447	-0,150	-0,025
-658,159	-200,000	0,020	-0,211
-657,145	-200,000	-0,031	-0,132
-656,130	112,351	-0,031	0,028
-655,116	-25,638	-0,063	0,027
-654,101	-183,926	0,074	-0,001
-653,086	-200,000	0,008	0,128
-652,072	200,168	0,010	0,011
-651,057	192,394	-0,113	-0,127
-650,043	782,129	-0,041	-0,084
-649,028	139,638	-0,034	-0,034
-648,014	433,354	-0,029	-0,047
-646,999	800,000	0,035	0,077
-645,984	-200,000	0,034	0,188
-644,970	-200,000	-0,005	-0,026
-643,955	46,547	-0,123	-0,084
-642,941	87,746	-0,167	-0,137
-641,926	-90,384	0,055	0,012
-640,911	131,934	-0,094	0,090
-639,897	-200,000	0,020	-0,124
-638,882	-59,470	-0,062	-0,020
-637,868	154,562	-0,062	0,063
-636,853	800,000	0,018	0,038
-635,838	-159,445	-0,099	-0,004
-634,824	644,320	-0,014	-0,027
-633,809	-76,050	0,140	0,036
-632,795	19,342	-0,037	-0,022
-631,780	116,714	0,048	-0,044
-630,765	611,346	0,086	-0,159
-629,751	800,000	-0,038	0,096
-628,736	-130,247	-0,109	-0,011
-627,722	120,721	-0,136	-0,126
-626,707	-200,000	0,005	-0,020
-625,692	169,545	-0,054	0,057
-624,678	140,938	-0,041	0,040
-623,663	-115,062	0,110	-0,015
-622,649	-90,189	-0,128	0,027
-621,634	800,000	-0,031	0,096
-620,619	-200,000	0,027	-0,195
-619,605	-200,000	0,009	0,059
-618,590	44,496	0,119	0,081
-617,576	-94,804	-0,037	0,007
-616,561	156,062	0,085	0,087
-615,546	-200,000	0,035	0,116
-614,532	-200,000	-0,003	-0,032
-613,517	138,414	0,096	-0,093
-612,503	139,364	-0,102	0,099
-611,488	49,091	0,037	-0,026
-610,474	-159,768	-0,071	0,003
-609,459	-43,268	0,044	-0,016
-608,444	800,000	-0,024	-0,065
-607,430	451,506	-0,074	-0,122
-606,415	-115,294	-0,114	-0,016
-605,401	-137,018	-0,043	-0,004
-604,386	592,863	0,010	-0,017
-603,371	-63,228	0,086	0,026
-602,357	98,656	-0,067	0,057
-601,342	72,660	-0,077	0,060
-600,328	223,391	-0,043	0,051
-599,313	96,432	-0,083	-0,070
-598,298	121,932	-0,050	0,047
-597,284	53,746	-0,069	-0,049
-596,269	-200,000	-0,004	-0,038
-595,255	-92,409	-0,056	-0,012
-594,240	800,000	-0,020	-0,042
-593,225	689,935	-0,047	-0,091
-592,211	-129,911	-0,121	-0,012
-591,196	40,941	0,054	0,036
-590,182	212,751	-0,101	-0,118
-589,167	-200,000	-0,025	0,082
-588,152	-88,270	0,124	-0,027
-587,138	-59,000	-0,091	0,029
-586,123	-82,842	-0,104	0,025
-585,109	-200,000	0,019	-0,097
-584,094	800,000	0,049	-0,115
-583,079	137,341	0,069	0,066
-582,065	800,000	-0,028	0,081
-581,050	190,256	0,024	0,026
-580,036	-200,000	0,023	0,083
-579,021	51,233	-0,052	0,036
-578,006	-58,253	-0,183	-0,058
-576,992	144,488	-0,178	-0,176
-575,977	-121,929	-0,082	-0,010
-574,963	170,592	0,122	0,129
-573,948	358,538	-0,044	0,065
-572,934	61,303	0,132	-0,097
-571,919	-35,611	0,019	-0,007
-570,904	-200,000	-0,014	0,093
-569,890	262,300	-0,045	-0,057
-568,875	-176,235	0,118	0,002
-567,861	-200,000	0,027	-0,094
-566,846	-200,000	0,016	0,095
-565,831	-42,141	-0,101	0,038
-564,817	-128,805	-0,097	0,010
-563,802	293,329	-0,099	-0,133
-562,788	274,708	0,085	-0,111
-561,773	-77,980	0,054	-0,014
-560,758	-178,412	0,088	0,001
-559,744	800,000	0,031	0,073
-558,729	-80,699	-0,016	-0,004
-557,715	-87,717	-0,130	-0,029
-556,700	228,619	0,015	-0,018
-555,685	-70,741	0,017	-0,005
-554,671	-113,995	-0,049	-0,007
-553,656	301,200	0,059	0,081
-552,642	-200,000	0,017	-0,125
-551,627	-200,000	0,024	-0,147
-550,612	141,051	-0,051	-0,050
-549,598	-41,295	-0,191	-0,072
-548,583	246,533	0,123	-0,154
-547,569	-200,000	0,009	0,053
-546,554	-200,000	-0,018	0,159
-545,539	-200,000	0,020	-0,083
-544,525	61,286	-0,058	0,042
-543,510	-200,000	0,009	0,029
-542,496	-200,000	-0,020	0,075
-541,481	-115,464	0,056	-0,008
-540,466	-200,000	-0,009	-0,060
-539,452	-131,706	0,080	-0,008
-538,437	-200,000	-0,006	0,069
-537,423	567,763	-0,033	0,059
-536,408	-111,047	0,032	0,005
-535,393	-100,210	-0,130	0,024
-534,379	53,760	-0,058	-0,041
-533,364	236,526	-0,021	-0,026
-532,350	198,107	0,073	0,082
-531,335	-200,000	-0,017	0,171
-530,321	35,594	0,092	-0,059
-529,306	-200,000	0,001	-0,247
-528,291	141,206	-0,025	0,024
-527,277	646,186	0,050	-0,095
-526,262	234,310	0,061	0,074
-525,248	-200,000	0,037	-0,128
-524,233	-137,847	0,141	-0,011
-523,218	325,767	-0,068	0,096
-522,204	196,547	-0,054	0,061
-521,189	-88,410	-0,102	0,022
-520,175	-46,207	-0,067	-0,024
-519,160	-94,278	0,111	0,022
-518,145	-172,260	0,115	0,003
-517,131	-200,000	-0,001	0,034
-516,116	37,938	0,137	0,090
-515,102	-200,000	0,036	-0,158
-514,087	-200,000	-0,006	0,057
-513,072	-1,139	-0,091	-0,047
-512,058	-200,000	-0,008	-0,173
-511,043	-200,000	-0,015	0,108
-510,029	38,591	0,144	-0,094
-509,014	-4,084	0,071	-0,036
-507,999	-57,392	0,150	0,048
-506,985	-200,000	0,011	-0,047
-505,970	116,630	0,110	0,100
-504,956	-200,000	0,004	-0,059
-503,941	85,954	0,034	0,028
-502,926	137,068	0,088	-0,085
-501,912	351,186	-0,053	0,077
-500,897	-160,098	-0,037	0,001
-499,883	111,086	-0,071	-0,063
-498,868	681,116	-0,063	0,122
-497,853	800,000	0,051	-0,107
-496,839	800,000	-0,006	0,015
-495,824	-200,000	0,021	0,100
-494,810	800,000	-0,017	0,042
-493,795	-200,000	0,024	-0,129
-492,781	268,517	-0,121	0,156
-491,766	-26,010	0,023	0,010
-490,751	-58,407	0,118	-0,037
-489,737	-200,000	0,024	-0,089
-488,722	21,121	-0,048	-0,029
-487,708	800,000	0,039	0,109
-486,693	-162,457	0,120	-0,004
-485,678	-101,179	0,017	0,003
-484,664	15,782	0,057	-0,033
-483,649	-25,738	-0,117	-0,051
-482,635	360,852	0,059	-0,088
-481,620	-181,162	-0,070	-0,001
-480,605	-200,000	-0,005	0,093
-479,591	-200,000	-0,005	0,049
-478,576	172,700	-0,071	0,075
-477,562	169,490	-0,056	-0,059
-476,547	14,251	-0,098	0,056
-475,532	-200,000	0,027	-0,103
-474,518	478,996	-0,050	0,084
-473,503	621,656	-0,016	-0,030
-472,489	89,882	0,061	0,050
-471,474	-200,000	-0,020	0,077
-470,459	-44,858	-0,121	-0,044
-469,445	800,000	-0,010	0,022
-468,430	144,754	-0,016	-0,016
-467,416	800,000	0,023	0,051
-466,401	-200,000	-0,007	-0,064
-465,386	800,000	0,025	-0,079
-464,372	-200,000	0,040	-0,154
-463,357	-14,146	0,055	-0,026
-462,343	800,000	-0,028	-0,073
-461,328	612,971	-0,039	0,073
-460,313	-193,633	0,077	0,000
-459,299	-20,375	0,083	0,038
-458,284	426,315	0,074	0,117
-457,270	800,000	0,021	-0,063
-456,255	212,885	-0,098	-0,114
-455,241	-200,000	0,026	-0,095
-454,226	-88,353	0,067	-0,015
-453,211	578,786	0,082	0,148
-452,197	-200,000	0,003	-0,011
-451,182	130,683	0,046	-0,043
-450,168	-18,580	0,105	0,048
-449,153	-8,905	-0,051	-0,025
-448,138	80,430	0,070	-0,055
-447,124	99,749	0,007	0,006
-446,109	800,000	0,033	-0,074
-445,095	452,141	0,048	0,078
-444,080	-200,000	0,002	0,132
-443,065	-200,000	0,033	0,123
-442,051	-1,813	-0,121	0,062
-441,036	-188,367	-0,068	0,001
-440,022	-200,000	-0,001	0,106
-439,007	142,845	0,107	-0,105
-437,992	-11,301	-0,036	-0,017
-436,978	800,000	-0,048	0,103
-435,963	246,058	0,161	0,200
-434,949	800,000	0,061	0,151
-433,934	140,638	-0,066	-0,064
-432,919	800,000	0,036	0,074
-431,905	-12,837	0,182	0,087
-430,890	-33,189	-0,065	0,026
-429,876	800,000	-0,036	-0,079
-428,861	88,397	0,045	-0,037
-427,846	-12,525	-0,081	-0,039
-426,832	800,000	-0,026	0,074
-425,817	50,303	-0,017	0,012
-424,803	226,252	0,037	-0,045
-423,788	254,457	0,079	0,099
-422,773	7,364	-0,012	0,006
-421,759	104,836	0,099	0,086
-420,744	-200,000	0,008	-0,072
-419,730	341,582	0,073	0,105
-418,715	-200,000	-0,005	0,114
-417,701	439,764	-0,013	0,022
-416,686	115,187	-0,055	0,049
-415,671	800,000	0,025	-0,073
-414,657	-200,000	0,013	0,097
-413,642	-135,671	-0,128	-0,011
-412,628	133,519	-0,025	-0,024
-411,613	-0,204	0,123	0,064
-410,598	541,550	-0,038	0,066
-409,584	661,525	-0,064	-0,122
-408,569	331,282	0,065	0,093
-407,555	-119,219	0,128	0,016
-406,540	399,984	0,062	0,095
-405,525	617,954	-0,010	-0,018
-404,511	317,219	-0,096	-0,134
-403,496	96,360	0,046	0,039
-402,482	800,000	-0,015	0,034
-401,467	77,590	-0,059	0,046
-400,452	122,557	0,041	-0,037
-399,438	297,998	0,033	0,044
-398,423	-31,049	0,058	0,024
-397,409	-1,832	0,030	-0,015
-396,394	34,246	0,067	-0,043
-395,379	-86,186	-0,052	-0,012
-394,365	-68,846	0,134	-0,038
-393,350	-200,000	0,038	0,180
-392,336	11,307	0,005	0,003
-391,321	-129,526	-0,023	-0,002
-390,306	-58,207	0,081	-0,026
-389,292	367,806	-0,016	-0,023
-388,277	-73,969	-0,050	0,013
-387,263	-185,125	-0,035	-0,000
-386,248	298,188	-0,030	0,040
-385,233	167,241	-0,026	0,027
-384,219	359,782	0,119	-0,175
-383,204	-89,482	-0,107	0,023
-382,190	562,144	0,078	0,138
-381,175	-129,619	0,143	0,014
-380,160	-60,112	-0,047	-0,015
-379,146	28,817	0,104	0,064
-378,131	800,000	-0,040	0,082
-377,117	-91,492	-0,156	-0,032
-376,102	-19,760	-0,079	0,036
-375,088	800,000	0,036	0,091
-374,073	800,000	0,048	0,120
-373,058	-200,000	0,012	0,050
-372,044	32,592	0,115	0,073
-371,029	74,806	0,136	0,105
-370,015	-23,401	0,045	-0,020
-369,000	-200,000	0,021	0,101
-367,985	-27,610	-0,145	-0,062
-366,971	-200,000	0,012	-0,118
-365,956	800,000	0,043	0,102
-364,942	-98,808	0,067	0,012
-363,927	463,596	-0,039	0,064
-362,912	-102,750	0,071	0,012
-361,898	-200,000	-0,016	-0,144
-360,883	-83,280	0,016	0,004
-359,869	800,000	-0,052	-0,163
-358,854	800,000	0,063	-0,138
-357,839	-128,761	0,137	0,014
-356,825	800,000	-0,074	0,188
-355,810	430,466	-0,027	0,042
-354,796	800,000	0,042	-0,089
-353,781	800,000	0,045	-0,099
-352,766	140,394	0,035	-0,034
-351,752	17,890	0,107	0,062
-350,737	1,897	0,106	-0,056
-349,723	44,018	0,090	0,061
-348,708	5,165	-0,097	0,052
-347,693	-95,136	-0,105	0,020
-346,679	800,000	0,034	0,100
-345,664	-16,224	0,031	0,014
-344,650	127,642	0,037	0,035
-343,635	-200,000	0,016	-0,060
-342,620	61,090	0,121	0,088
-341,606	-54,010	0,021	-0,007
-340,591	99,740	-0,044	0,037
-339,577	12,046	-0,032	-0,018
-338,562	138,662	0,071	0,068
-337,548	-200,000	0,006	-0,045
-336,533	-79,323	0,195	-0,048
-335,518	-200,000	0,036	-0,120
-334,504	-11,629	-0,028	-0,013
-333,489	175,454	-0,044	-0,046
-332,475	800,000	0,019	0,058
-331,460	800,000	0,018	-0,040
-330,445	724,076	-0,109	-0,214
-329,431	251,649	0,022	-0,028
-328,416	201,249	0,058	-0,066
-327,402	348,751	0,061	0,088
-326,387	-120,230	0,073	-0,009
-325,372	800,000	-0,023	0,049
-324,358	362,660	-0,015	0,023
-323,343	-78,787	-0,170	-0,042
-322,329	-200,000	-0,004	0,172
-321,314	-67,262	0,083	-0,024
-320,299	-200,000	-0,013	0,056
-319,285	800,000	-0,029	-0,066
-318,270	-156,502	0,054	0,002
-317,256	-54,661	-0,067	0,022
-316,241	800,000	-0,036	-0,115
-315,226	-34,611	0,055	-0,022
-314,212	-200,000	0,023	0,159
-313,197	800,000	-0,035	-0,114
-312,183	14,949	-0,088	0,050
-311,168	-7,318	-0,187	-0,092
-310,153	-77,188	0,094	0,024
-309,139	104,405	-0,069	-0,059
-308,124	-200,000	0,003	-0,040
-307,110	-86,981	0,035	0,008
-306,095	-146,659	0,054	0,003
-305,080	424,077	-0,013	-0,021
-304,066	-1,919	0,111	-0,057
-303,051	-52,247	-0,104	0,035
-302,037	492,131	0,007	-0,011
-301,022	-200,000	-0,008	0,087
-300,008	800,000	0,017	0,052
-298,993	800,000	0,029	-0,087
-297,978	800,000	0,017	-0,046
-296,964	103,087	-0,145	-0,125
-295,949	-103,359	0,177	-0,030
-294,935	-200,000	-0,010	0,115
-293,920	-200,000	0,010	-0,045
-292,905	-200,000	-0,012	0,148
-291,891	-80,497	0,076	0,018
-290,876	800,000	-0,021	0,063
-289,862	-200,000	0,029	-0,122
-288,847	-153,363	0,132	-0,007
-287,832	359,652	0,027	0,039
-286,818	-29,807	-0,091	0,038
-285,803	96,731	-0,084	-0,071
-284,789	84,452	0,041	-0,033
-283,774	-59,680	-0,102	0,032
-282,759	281,278	-0,062	-0,081
-281,745	-200,000	0,005	-0,048
-280,730	-200,000	-0,002	-0,024
-279,716	-200,000	0,007	0,040
-278,701	4,928	0,034	-0,018
-277,686	150,230	0,049	-0,048
-276,672	694,358	-0,087	0,167
-275,657	-1,642	-0,056	0,029
-274,643	-200,000	-0,061	-0,207
-273,628	800,000	-0,029	0,090
-272,613	11,009	-0,036	-0,020
-271,599	-21,413	-0,070	0,031
-270,584	94,294	0,127	0,106
-269,570	-115,369	-0,105	-0,014
-268,555	-170,010	0,027	-0,001
-267,540	-75,300	0,094	0,024
-266,526	-200,000	0,010	0,045
-265,511	-95,069	-0,080	-0,016
-264,497	-200,000	-0,014	-0,134
-263,482	273,766	0,020	-0,025
-262,467	-200,000	0,010	-0,070
-261,453	800,000	0,017	0,051
-260,438	73,622	-0,140	0,107
-259,424	154,015	-0,065	0,066
-258,409	-200,000	0,008	-0,033
-257,395	-200,000	-0,024	-0,184
-256,380	-191,050	0,049	-0,000
-255,365	300,503	-0,048	-0,065
-254,351	-200,000	0,003	-0,041
-253,336	-23,778	0,081	-0,035
-252,322	426,301	-0,075	-0,118
-251,307	-200,000	0,007	0,079
-250,292	-49,329	-0,224	0,078
-249,278	-43,063	0,124	0,046
-248,263	126,337	-0,076	-0,070
-247,249	-1,880	0,090	0,046
-246,234	-10,351	0,178	-0,086
-245,219	800,000	0,025	0,052
-244,205	176,933	0,054	0,058
-243,190	800,000	-0,030	0,093
-242,176	469,684	-0,019	-0,031
-241,161	138,993	0,147	0,141
-240,146	-7,940	-0,095	0,047
-239,132	263,356	0,015	-0,019
-238,117	59,172	-0,076	-0,054
-237,103	-200,000	-0,010	0,039
-236,088	-33,175	-0,030	0,012
-235,073	-128,426	0,089	0,009
-234,059	352,457	0,071	0,102
-233,044	-200,000	0,001	0,083
-232,030	-95,891	-0,034	-0,007
-231,015	60,887	-0,026	0,019
-230,000	27,191	0,069	-0,042
-228,986	-20,050	-0,185	-0,083
-227,971	664,534	0,064	0,121
-226,957	494,022	-0,008	0,014
-225,942	-81,327	-0,075	-0,018
-224,927	-126,832	0,133	-0,014
-223,913	-196,156	0,095	-0,000
-222,898	-110,917	-0,027	-0,004
-221,884	-39,687	-0,079	0,030
-220,869	-10,555	0,113	-0,055
-219,855	-21,210	0,047	0,021
-218,840	800,000	-0,031	0,087
-217,825	-137,555	-0,096	-0,008
-216,811	800,000	0,042	0,118
-215,796	-129,636	0,103	0,010
-214,782	-131,786	0,121	0,011
-213,767	-81,242	-0,197	-0,047
-212,752	-53,461	0,095	-0,031
-211,738	800,000	0,020	0,058
-210,723	-90,385	0,055	0,012
-209,709	-2,915	-0,097	0,049
-208,694	323,680	-0,126	-0,175
-207,679	22,315	0,038	-0,023
-206,665	-36,407	-0,036	-0,014
-205,650	-200,000	-0,033	0,170
-204,636	-33,518	-0,051	0,020
-203,621	-17,355	-0,091	-0,042
-202,606	68,276	-0,054	0,040
-201,592	-200,000	0,006	0,039
-200,577	-89,949	-0,138	0,029
-199,563	769,506	0,022	0,043
-198,548	-20,638	-0,012	0,005
-197,533	-200,000	0,011	0,083
-196,519	115,513	-0,091	-0,081
-195,504	532,138	0,075	-0,129
-194,490	-83,062	-0,087	-0,020
-193,475	71,990	-0,147	-0,111
-192,460	349,016	0,033	-0,048
-191,446	6,069	-0,030	0,016
-190,431	-166,281	0,020	-0,001
-189,417	531,613	0,046	-0,079
-188,402	27,750	-0,158	-0,097
-187,387	-119,916	-0,131	-0,016
-186,373	10,284	0,040	-0,022
-185,358	-82,034	0,097	0,023
-184,344	607,309	0,042	0,077
-183,329	-190,977	0,068	0,001
-182,315	10,453	-0,123	0,068
-181,300	145,210	-0,097	-0,095
-180,285	197,622	0,137	-0,152
-179,271	800,000	-0,077	-0,233
-178,256	800,000	-0,034	-0,099
-177,242	562,809	-0,033	-0,058
-176,227	-27,002	0,159	0,067
-175,212	17,622	-0,085	0,049
-174,198	49,282	-0,140	-0,096
-173,183	-30,200	0,085	-0,035
-172,169	-47,996	-0,037	-0,013
-171,154	-104,354	-0,064	0,011
-170,139	-200,000	-0,002	-0,080
-169,125	410,627	0,092	-0,142
-168,110	800,000	-0,023	-0,065
-167,096	-67,463	-0,119	0,034
-166,081	-200,000	-0,011	-0,063
-165,066	-200,000	0,007	0,071
-164,052	-200,000	0,027	-0,114
-163,037	544,539	-0,044	-0,076
-162,023	282,635	0,074	0,097
-161,008	274,486	-0,027	-0,035
-159,993	-164,782	0,109	0,003
-158,979	-200,000	-0,041	0,138
-157,964	-71,414	-0,040	0,011
-156,950	368,926	-0,055	0,082
-155,935	-61,491	-0,072	-0,022
-154,920	-38,285	0,088	-0,034
-153,906	-200,000	0,009	-0,047
-152,891	270,740	0,066	0,085
-151,877	-200,000	-0,005	0,022
-150,862	311,011	-0,085	0,117
-149,847	-200,000	-0,012	0,095
-148,833	16,823	0,030	-0,017
-147,818	436,325	0,066	0,104
-146,804	-200,000	-0,040	0,191
-145,789	-200,000	-0,001	0,026
-144,775	-171,482	-0,085	0,002
-143,760	-200,000	0,012	-0,136
-142,745	-115,933	-0,143	-0,019
-141,731	800,000	-0,021	0,065
-140,716	-200,000	-0,028	-0,190
-139,702	800,000	-0,012	0,030
-138,687	43,350	-0,009	-0,006
-137,672	-200,000	-0,008	0,148
-136,658	-200,000	-0,005	-0,064
-135,643	61,986	0,016	-0,011
-134,629	-48,806	0,086	0,030
-133,614	104,879	0,074	0,063
-132,599	-135,745	0,090	-0,008
-131,585	7,769	0,037	0,020
-130,570	-200,000	-0,031	-0,121
-129,556	-159,927	-0,124	-0,005
-128,541	597,105	-0,044	-0,079
-127,526	8,829	-0,088	-0,048
-126,512	327,210	0,030	-0,042
-125,497	172,540	-0,054	0,057
-124,483	-93,791	0,194	0,039
-123,468	574,084	-0,044	-0,078
-122,453	749,861	-0,046	0,091
-121,439	35,591	0,057	-0,036
-120,424	-111,036	0,014	-0,002
-119,410	556,962	0,022	0,038
