DTS Sentinel unit serial number:	SN410029Multiplexer serial number:	ORYXHardware model number:	OX2-SRSoftware version number:	ORYX F/W v4,00 Oryx Data Collector v3.7.2.0data status	okinstallation	B4 Nyhavnadifferential loss correction	single-endedforward channel	channel 2reverse channel	N/Adate	2023/12/18time	15:10:13forward acquisition time	300,00reverse acquisition time	0,00gamma	499,1914k internal	0,3181k external	0,3181temperature offset calibration	1,0000default loss term (dB/km)	0,3820temperature slope calibration	1,0000multiplexer offset coefficient	1,0000multiplexer slope coefficient	1,0000fibre end	0,00T internal ref (°C)	12,19T ext. ref 1 (°C)	7,05T ext. ref 2 (°C)	7,15length (m)	temperature (°C)	Stokes	anti-Stokes-744,400	-200,000	0,000	0,147
-743,385	-142,496	-0,351	-0,025
-742,371	-58,254	0,108	-0,034
-741,356	-83,620	-0,237	-0,055
-740,342	6,566	0,186	0,101
-739,327	-96,204	-0,357	-0,069
-738,312	-146,983	0,180	-0,011
-737,298	-42,961	-0,316	-0,117
-736,283	231,968	-0,012	-0,015
-735,269	-103,593	-0,218	-0,037
-734,254	10,732	0,063	0,035
-733,239	12,567	-0,433	-0,244
-732,225	211,847	0,160	0,185
-731,210	800,000	0,054	-0,111
-730,196	697,581	0,017	0,033
-729,181	800,000	0,026	-0,053
-728,167	-1,473	-0,016	0,008
-727,152	800,000	-0,009	0,023
-726,137	-88,041	-0,149	-0,032
-725,123	-200,000	-0,009	0,049
-724,108	58,875	-0,115	-0,083
-723,094	800,000	-0,038	-0,092
-722,079	207,104	-0,113	-0,129
-721,064	-200,000	0,001	0,026
-720,050	-26,793	0,067	0,029
-719,035	-200,000	-0,004	0,015
-718,021	90,807	0,032	0,026
-717,006	-129,875	-0,047	-0,005
-715,991	62,237	-0,054	-0,039
-714,977	276,592	0,031	0,040
-713,962	-200,000	0,007	-0,122
-712,948	-14,593	-0,098	0,046
-711,933	14,202	0,101	0,057
-710,918	-123,159	0,043	0,005
-709,904	-45,693	0,052	0,019
-708,889	800,000	0,025	-0,069
-707,875	444,899	-0,077	-0,125
-706,860	611,282	0,086	0,157
-705,845	678,340	-0,070	0,134
-704,831	-152,896	-0,023	0,001
-703,816	-103,226	-0,012	0,002
-702,802	800,000	-0,007	0,017
-701,787	25,111	-0,149	0,090
-700,772	800,000	0,009	-0,022
-699,758	-200,000	-0,001	-0,083
-698,743	-62,532	-0,153	0,046
-697,729	800,000	-0,017	-0,048
-696,714	30,126	-0,013	-0,008
-695,699	-200,000	0,036	-0,148
-694,685	-36,504	0,057	-0,022
-693,670	69,477	-0,100	0,075
-692,656	-21,487	0,132	0,058
-691,641	-32,682	-0,047	0,019
-690,627	-42,464	0,088	0,033
-689,612	80,575	-0,073	-0,058
-688,597	-200,000	-0,008	-0,083
-687,583	800,000	-0,078	-0,159
-686,568	800,000	0,039	0,124
-685,554	61,948	-0,067	0,048
-684,539	42,296	0,082	-0,054
-683,524	-42,370	0,034	-0,013
-682,510	-200,000	-0,020	0,073
-681,495	39,195	-0,082	0,054
-680,481	123,007	0,067	-0,062
-679,466	-200,000	-0,063	0,000
-678,451	-41,684	-0,125	-0,047
-677,437	581,296	0,044	-0,079
-676,422	-200,000	0,019	0,072
-675,408	17,483	0,077	0,044
-674,393	800,000	-0,012	-0,031
-673,378	27,986	-0,100	0,061
-672,364	108,397	0,008	0,007
-671,349	104,951	-0,114	-0,098
-670,335	78,915	-0,012	-0,009
-669,320	-68,647	0,127	-0,036
-668,305	-129,850	0,119	0,012
-667,291	138,237	-0,073	-0,070
-666,276	-88,612	-0,116	-0,025
-665,262	800,000	-0,006	-0,017
-664,247	-200,000	-0,009	-0,112
-663,232	-200,000	-0,018	0,071
-662,218	503,369	-0,030	-0,050
-661,203	132,141	-0,037	0,035
-660,189	-81,342	-0,018	0,004
-659,174	-46,729	-0,172	-0,061
-658,159	-200,000	0,003	-0,057
-657,145	-40,064	-0,125	0,047
-656,130	800,000	-0,005	0,012
-655,116	-200,000	0,000	-0,104
-654,101	800,000	0,024	-0,073
-653,086	-200,000	0,008	-0,058
-652,072	-145,519	-0,082	0,005
-651,057	62,867	0,011	0,008
-650,043	-76,186	-0,135	-0,035
-649,028	-150,885	-0,124	-0,007
-648,014	-70,411	0,098	0,027
-646,999	-200,000	-0,030	0,096
-645,984	58,034	0,065	0,046
-644,970	175,458	0,075	-0,080
-643,955	80,459	-0,049	-0,038
-642,941	-200,000	-0,026	0,090
-641,926	22,518	0,063	0,037
-640,911	254,225	-0,054	-0,067
-639,897	109,452	0,024	-0,021
-638,882	-200,000	-0,001	0,024
-637,868	-200,000	0,023	-0,216
-636,853	4,372	-0,060	-0,032
-635,838	-102,993	-0,137	-0,023
-634,824	263,607	0,119	-0,152
-633,809	-70,042	0,033	0,009
-632,795	610,499	0,042	0,076
-631,780	282,229	0,044	-0,058
-630,765	-59,411	-0,036	0,011
-629,751	-200,000	0,022	-0,123
-628,736	800,000	0,075	-0,163
-627,722	-20,484	-0,005	-0,002
-626,707	-41,807	-0,061	0,023
-625,692	-200,000	0,009	-0,052
-624,678	24,408	-0,114	-0,068
-623,663	220,881	0,131	0,154
-622,649	131,457	-0,109	-0,102
-621,634	12,384	-0,093	0,052
-620,619	-200,000	-0,026	-0,163
-619,605	-59,141	0,027	-0,008
-618,590	-200,000	0,009	0,112
-617,576	-200,000	-0,028	-0,104
-616,561	-86,657	0,090	0,020
-615,546	800,000	-0,049	-0,106
-614,532	-42,755	-0,072	0,026
-613,517	-61,826	-0,081	0,024
-612,503	800,000	0,009	0,020
-611,488	800,000	0,022	0,047
-610,474	658,911	0,058	-0,109
-609,459	313,469	-0,029	0,040
-608,444	-28,106	-0,152	-0,064
-607,430	-200,000	-0,012	0,067
-606,415	-122,235	-0,115	0,014
-605,401	525,756	0,101	-0,173
-604,386	76,095	0,089	-0,068
-603,371	-200,000	0,018	-0,064
-602,357	-200,000	-0,048	-0,165
-601,342	125,264	0,044	-0,040
-600,328	-31,545	-0,079	0,032
-599,313	4,397	-0,079	0,042
-598,298	-200,000	0,027	0,111
-597,284	501,894	-0,020	0,034
-596,269	-45,478	0,063	-0,022
-595,255	-145,237	0,106	0,007
-594,240	-142,574	-0,030	-0,002
-593,225	13,552	0,134	0,076
-592,211	-200,000	-0,001	-0,055
-591,196	214,884	0,065	0,076
-590,182	69,762	0,099	0,074
-589,167	-200,000	0,019	0,070
-588,152	-89,004	-0,118	0,025
-587,138	-29,242	-0,096	-0,040
-586,123	-200,000	-0,001	-0,086
-585,109	6,924	-0,057	-0,031
-584,094	101,636	0,126	0,107
-583,079	800,000	0,022	-0,059
-582,065	-165,325	-0,123	0,004
-581,050	14,863	0,059	0,033
-580,036	115,209	-0,051	-0,045
-579,021	-99,056	-0,092	-0,017
-578,006	-83,921	-0,030	-0,007
-576,992	284,497	-0,084	0,110
-575,977	24,958	0,089	0,054
-574,963	472,916	-0,023	-0,039
-573,948	-200,000	-0,003	0,025
-572,934	-200,000	-0,007	0,032
-571,919	378,309	0,081	0,121
-570,904	-24,270	-0,079	-0,034
-569,890	-79,263	0,101	-0,025
-568,875	800,000	0,052	-0,110
-567,861	268,047	-0,087	0,111
-566,846	-55,892	0,135	0,044
-565,831	-170,238	-0,239	0,006
-564,817	14,719	0,065	0,037
-563,802	-200,000	-0,012	0,127
-562,788	-58,376	-0,086	-0,027
-561,773	268,994	0,033	-0,042
-560,758	176,794	0,088	-0,094
-559,744	38,244	-0,101	-0,065
-558,729	-169,492	-0,118	-0,003
-557,715	-118,556	-0,080	0,010
-556,700	304,156	-0,094	-0,127
-555,685	-170,260	-0,113	-0,003
-554,671	103,815	-0,073	0,063
-553,656	153,168	0,064	0,064
-552,642	-200,000	0,001	0,100
-551,627	-87,449	-0,060	-0,013
-550,612	-64,825	0,156	0,046
-549,598	-200,000	0,022	0,101
-548,583	219,576	-0,043	-0,050
-547,569	-183,267	-0,064	-0,001
-546,554	123,156	0,076	-0,069
-545,539	-200,000	0,000	-0,041
-544,525	-52,521	-0,063	0,021
-543,510	-24,737	-0,188	-0,081
-542,496	800,000	-0,013	-0,034
-541,481	800,000	0,028	-0,070
-540,466	-200,000	-0,005	-0,049
-539,452	-160,565	0,044	0,002
-538,437	-2,263	-0,051	-0,026
-537,423	-200,000	-0,002	0,154
-536,408	31,701	0,171	0,107
-535,393	109,984	0,038	-0,033
-534,379	-200,000	0,009	-0,034
-533,364	157,093	0,012	-0,012
-532,350	216,282	0,018	-0,021
-531,335	-200,000	0,019	0,162
-530,321	188,174	-0,107	0,116
-529,306	123,407	0,030	0,027
-528,291	800,000	0,012	0,027
-527,277	-62,413	-0,145	0,043
-526,262	247,295	0,073	0,090
-525,248	-200,000	-0,005	-0,137
-524,233	550,332	0,130	0,226
-523,218	59,092	-0,077	-0,055
-522,204	-130,126	0,078	-0,008
-521,189	-200,000	0,007	-0,038
-520,175	100,575	-0,109	-0,092
-519,160	-52,737	0,046	-0,015
-518,145	-200,000	-0,009	0,067
-517,131	-200,000	-0,009	-0,053
-516,116	800,000	-0,011	0,028
-515,102	99,016	0,038	-0,031
-514,087	235,885	0,036	0,043
-513,072	800,000	-0,058	-0,149
-512,058	66,450	0,151	-0,111
-511,043	222,048	0,047	0,055
-510,029	176,053	0,080	0,084
-509,014	800,000	-0,008	-0,020
-507,999	-56,505	-0,154	-0,049
-506,985	800,000	0,023	-0,051
-505,970	-200,000	-0,018	0,131
-504,956	-54,814	-0,014	0,005
-503,941	151,623	0,070	-0,069
-502,926	67,763	-0,071	-0,052
-501,912	-200,000	0,014	0,079
-500,897	800,000	-0,079	0,234
-499,883	800,000	-0,015	-0,041
-498,868	-200,000	-0,009	-0,192
-497,853	-200,000	-0,014	-0,077
-496,839	525,919	0,040	-0,069
-495,824	299,712	0,115	0,153
-494,810	232,912	-0,036	0,043
-493,795	420,046	-0,039	-0,061
-492,781	-200,000	-0,005	-0,030
-491,766	-38,246	-0,056	-0,021
-490,751	77,339	-0,072	-0,055
-489,737	-111,496	-0,109	0,016
-488,722	-51,816	-0,082	0,027
-487,708	-118,651	0,270	-0,034
-486,693	-122,334	-0,111	0,013
-485,678	-200,000	-0,001	0,019
-484,664	45,618	-0,059	-0,039
-483,649	200,045	-0,026	0,029
-482,635	-134,833	-0,084	0,007
-481,620	230,563	0,128	0,153
-480,605	440,610	-0,017	0,027
-479,591	487,924	-0,052	-0,086
-478,576	-200,000	-0,014	-0,069
-477,562	-200,000	-0,041	-0,166
-476,547	83,253	-0,023	0,018
-475,532	-159,023	0,093	0,004
-474,518	1,274	0,078	-0,040
-473,503	-69,784	-0,049	0,013
-472,489	107,305	0,095	0,082
-471,474	800,000	-0,017	0,053
-470,459	267,137	-0,037	-0,047
-469,445	-200,000	0,007	-0,114
-468,430	-158,628	-0,154	-0,006
-467,416	-70,767	0,119	0,032
-466,401	169,758	0,105	0,109
-465,386	0,112	-0,061	-0,031
-464,372	-200,000	-0,021	-0,087
-463,357	-120,630	-0,076	-0,009
-462,343	-200,000	0,023	-0,080
-461,328	186,675	-0,044	-0,047
-460,313	-68,388	-0,087	0,024
-459,299	385,696	0,022	0,033
-458,284	-21,619	0,024	0,010
-457,270	87,901	-0,127	0,102
-456,255	344,790	0,079	-0,113
-455,241	453,134	-0,015	0,025
-454,226	-3,359	-0,058	-0,029
-453,211	100,777	0,029	-0,025
-452,197	-140,963	0,192	-0,014
-451,182	223,620	0,078	0,092
-450,168	170,715	-0,108	0,112
-449,153	165,976	-0,065	-0,066
-448,138	-107,778	-0,096	0,015
-447,124	128,489	0,108	0,099
-446,109	-135,727	0,040	-0,003
-445,095	396,676	0,029	-0,043
-444,080	-200,000	-0,013	-0,086
-443,065	127,357	-0,097	0,089
-442,051	66,326	0,095	-0,070
-441,036	-153,998	0,059	-0,003
-440,022	62,046	-0,108	-0,078
-439,007	-123,635	0,066	-0,007
-437,992	105,026	-0,070	0,060
-436,978	308,184	0,024	0,033
-435,963	-25,613	0,057	-0,024
-434,949	-14,141	-0,021	0,010
-433,934	800,000	-0,007	-0,023
-432,919	-109,619	-0,098	0,015
-431,905	281,678	-0,042	-0,055
-430,890	527,026	0,070	0,119
-429,876	-111,284	0,070	0,010
-428,861	-89,679	-0,030	0,006
-427,846	-18,761	0,080	-0,036
-426,832	251,123	-0,042	-0,052
-425,817	-23,465	0,095	-0,041
-424,803	-165,493	0,130	-0,004
-423,788	-200,000	-0,003	-0,050
-422,773	235,793	0,066	-0,079
-421,759	45,268	-0,041	0,028
-420,744	85,698	0,048	0,038
-419,730	-200,000	0,001	0,011
-418,715	522,091	0,026	-0,044
-417,701	100,691	-0,094	-0,079
-416,686	-200,000	-0,009	0,029
-415,671	-78,147	0,085	-0,021
-414,657	-200,000	-0,031	0,104
-413,642	800,000	0,025	0,056
-412,628	9,883	-0,126	-0,069
-411,613	-200,000	-0,008	-0,113
-410,598	514,626	0,026	0,043
-409,584	355,087	-0,023	0,033
-408,569	-123,130	-0,139	0,016
-407,555	-3,660	0,081	0,041
-406,540	-200,000	-0,049	0,169
-405,525	24,683	-0,061	0,037
-404,511	85,267	0,072	-0,057
-403,496	311,988	-0,027	-0,037
-402,482	434,417	0,033	-0,052
-401,467	436,342	0,058	-0,092
-400,452	-200,000	0,009	0,048
-399,438	-90,422	0,059	-0,012
-398,423	800,000	-0,056	-0,135
-397,409	394,175	-0,064	0,097
-396,394	-200,000	0,007	0,056
-395,379	-85,312	0,040	0,009
-394,365	232,801	0,060	0,071
-393,350	-176,848	0,068	-0,001
-392,336	-91,896	0,013	0,003
-391,321	19,843	0,160	-0,093
-390,306	800,000	0,041	-0,101
-389,292	-200,000	0,017	0,060
-388,277	-104,935	-0,061	-0,010
-387,263	-41,389	0,070	0,026
-386,248	-138,177	0,188	0,015
-385,233	-200,000	0,004	0,050
-384,219	606,799	0,061	0,111
-383,204	384,720	-0,081	-0,121
-382,190	-38,974	-0,030	-0,011
-381,175	67,421	-0,038	-0,028
-380,160	194,093	0,052	-0,057
-379,146	394,746	0,032	-0,048
-378,131	-118,782	0,068	0,008
-377,117	535,372	0,027	0,047
-376,102	35,137	-0,109	0,069
-375,088	42,120	0,081	-0,053
-374,073	22,177	0,125	0,073
-373,058	58,608	0,078	-0,055
-372,044	97,913	-0,104	0,086
-371,029	13,502	0,152	-0,085
-370,015	23,005	0,073	0,043
-369,000	-117,195	-0,124	0,016
-367,985	800,000	-0,074	-0,156
-366,971	73,769	0,111	-0,084
-365,956	554,992	0,005	0,008
-364,942	-122,012	-0,024	0,003
-363,927	-40,903	-0,082	-0,030
-362,912	-200,000	0,015	-0,099
-361,898	7,286	-0,176	-0,095
-360,883	800,000	0,049	-0,103
-359,869	800,000	-0,045	-0,128
-358,854	103,882	-0,085	-0,072
-357,839	-122,994	0,097	-0,011
-356,825	-197,717	0,085	-0,000
-355,810	-200,000	0,034	-0,140
-354,796	800,000	0,027	-0,068
-353,781	252,240	-0,046	0,057
-352,766	-78,154	-0,054	-0,013
-351,752	800,000	-0,051	0,108
-350,737	800,000	0,029	0,068
-349,723	211,043	-0,031	0,035
-348,708	779,223	0,044	0,086
-347,693	15,769	0,118	0,067
-346,679	-63,718	-0,140	0,041
-345,664	33,659	-0,050	-0,031
-344,650	228,340	0,120	0,141
-343,635	262,314	0,045	0,057
-342,620	-200,000	0,011	0,134
-341,606	24,071	0,059	0,035
-340,591	-197,606	0,059	-0,000
-339,577	-200,000	-0,004	0,018
-338,562	800,000	0,082	-0,171
-337,548	800,000	-0,028	-0,061
-336,533	-200,000	0,009	0,041
-335,518	739,940	-0,059	0,114
-334,504	-200,000	-0,003	-0,035
-333,489	735,981	0,067	0,130
-332,475	-200,000	0,006	-0,061
-331,460	-142,215	-0,228	0,016
-330,445	-129,292	0,063	0,006
-329,431	290,380	0,055	-0,073
-328,416	135,059	0,068	0,063
-327,402	777,087	0,075	-0,148
-326,387	-154,212	-0,126	0,006
-325,372	26,164	-0,042	-0,025
-324,358	185,990	-0,109	0,117
-323,343	661,728	-0,063	-0,117
-322,329	93,798	0,026	0,022
-321,314	-101,731	-0,184	0,032
-320,299	538,993	0,082	0,141
-319,285	70,113	0,041	0,030
-318,270	800,000	0,061	-0,137
-317,256	395,971	-0,064	-0,097
-316,241	800,000	-0,045	0,098
-315,226	207,544	0,047	0,053
-314,212	-200,000	0,023	0,096
-313,197	65,325	-0,071	0,052
-312,183	-8,636	-0,026	0,012
-311,168	-49,520	-0,094	0,032
-310,153	800,000	0,043	-0,108
-309,139	-200,000	0,032	-0,108
-308,124	800,000	0,017	0,052
-307,110	414,241	0,081	0,124
-306,095	6,621	0,185	0,099
-305,080	-108,520	-0,140	0,021
-304,066	-200,000	-0,012	-0,056
-303,051	149,165	-0,175	-0,171
-302,037	215,268	0,087	0,099
-301,022	4,749	0,058	-0,030
-300,008	-155,118	0,067	0,003
-298,993	-200,000	0,028	0,148
-297,978	111,344	-0,089	-0,077
-296,964	-200,000	0,009	-0,103
-295,949	542,610	0,044	-0,076
-294,935	-61,275	-0,045	-0,014
-293,920	-200,000	-0,053	-0,171
-292,905	352,366	-0,004	-0,006
-291,891	-200,000	-0,009	0,144
-290,876	80,679	0,103	0,080
-289,862	-32,658	-0,053	0,021
-288,847	-200,000	0,002	-0,032
-287,832	-200,000	0,016	0,105
-286,818	78,923	0,039	0,030
-285,803	800,000	-0,016	-0,045
-284,789	800,000	0,005	-0,014
-283,774	253,420	0,049	0,061
-282,759	200,892	0,017	-0,018
-281,745	-143,202	0,115	-0,008
-280,730	-19,943	-0,248	-0,110
-279,716	-200,000	0,021	-0,147
-278,701	414,916	0,145	-0,223
-277,686	-200,000	0,010	0,109
-276,672	216,581	-0,107	0,123
-275,657	800,000	-0,034	0,076
-274,643	-200,000	-0,014	-0,071
-273,628	-200,000	-0,014	0,073
-272,613	-200,000	0,006	-0,028
-271,599	608,836	0,020	-0,037
-270,584	-13,295	-0,102	0,047
-269,570	-200,000	0,022	-0,102
-268,555	-200,000	0,007	-0,078
-267,540	800,000	0,024	-0,074
-266,526	-200,000	-0,033	0,140
-265,511	-61,204	-0,096	0,029
-264,497	-194,782	-0,086	-0,000
-263,482	-90,031	0,137	0,028
-262,467	-200,000	0,003	0,019
-261,453	14,035	0,074	0,042
-260,438	-35,077	-0,133	-0,052
-259,424	-164,463	-0,089	-0,003
-258,409	50,387	-0,104	-0,071
-257,395	-78,475	-0,034	0,008
-256,380	-18,453	0,137	0,061
-255,365	-5,815	-0,100	-0,049
-254,351	800,000	-0,002	-0,004
-253,336	-97,326	0,175	0,032
-252,322	63,886	-0,073	0,053
-251,307	15,275	0,113	-0,063
-250,292	800,000	-0,050	-0,137
-249,278	779,356	-0,054	0,107
-248,263	562,825	0,066	0,116
-247,249	800,000	-0,020	0,053
-246,234	-55,187	0,066	0,021
-245,219	49,157	-0,045	-0,030
-244,205	800,000	0,026	0,065
-243,190	800,000	0,027	0,053
-242,176	-42,996	0,037	0,013
-241,161	800,000	0,011	0,024
-240,146	-33,561	-0,095	0,037
-239,132	-200,000	0,011	0,125
-238,117	-200,000	-0,003	0,015
-237,103	-200,000	-0,005	0,101
-236,088	376,858	0,042	-0,062
-235,073	118,463	0,106	0,094
-234,059	-119,754	0,147	-0,018
-233,044	28,859	0,107	0,065
-232,030	-200,000	0,000	0,054
-231,015	800,000	-0,055	-0,113
-230,000	800,000	-0,042	-0,115
-228,986	-125,414	-0,107	-0,012
-227,971	203,725	0,076	0,085
-226,957	-100,237	0,088	-0,015
-225,942	103,033	-0,063	0,053
-224,927	-54,284	-0,131	0,042
-223,913	800,000	-0,022	-0,044
-222,898	108,775	-0,072	-0,062
-221,884	-84,401	0,105	-0,024
-220,869	-82,177	-0,027	-0,006
-219,855	-69,397	0,065	-0,018
-218,840	800,000	0,038	0,084
-217,825	800,000	0,053	-0,124
-216,811	-122,491	-0,099	-0,011
-215,796	434,468	0,048	-0,075
-214,782	20,123	0,066	-0,038
-213,767	-200,000	-0,023	-0,170
-212,752	210,996	0,011	0,012
-211,738	246,462	0,123	0,149
-210,723	800,000	-0,040	0,085
-209,709	800,000	0,034	-0,101
-208,694	-50,794	-0,072	0,024
-207,679	800,000	-0,043	-0,111
-206,665	611,861	0,022	-0,039
-205,650	-200,000	0,022	0,070
-204,636	-200,000	-0,006	0,093
-203,621	-200,000	0,043	0,169
-202,606	800,000	0,050	0,105
-201,592	369,046	-0,051	-0,074
-200,577	348,017	0,034	0,048
-199,563	-135,605	-0,145	0,012
-198,548	800,000	0,041	0,103
-197,533	-34,953	0,083	0,032
-196,519	-200,000	0,006	0,095
-195,504	-200,000	-0,028	0,092
-194,490	-200,000	-0,016	-0,116
-193,475	-107,417	0,055	0,008
-192,460	-14,550	-0,144	0,066
-191,446	-19,783	0,158	0,069
-190,431	-93,712	0,182	-0,036
-189,417	-65,289	-0,088	0,025
-188,402	-200,000	0,002	0,055
-187,387	132,239	0,065	-0,060
-186,373	-200,000	-0,007	0,052
-185,358	20,581	0,078	0,045
-184,344	-200,000	-0,003	0,093
-183,329	800,000	0,039	0,101
-182,315	34,049	0,071	0,044
-181,300	800,000	-0,031	-0,088
-180,285	41,162	-0,025	0,016
-179,271	800,000	-0,006	0,018
-178,256	-39,004	0,136	-0,051
-177,242	-35,346	-0,058	-0,023
-176,227	800,000	0,066	0,130
-175,212	-200,000	0,034	0,130
-174,198	522,028	-0,056	0,095
-173,183	-200,000	0,015	-0,068
-172,169	-200,000	0,025	-0,226
-171,154	-200,000	0,012	-0,116
-170,139	-5,202	0,131	-0,064
-169,125	-200,000	0,026	-0,090
-168,110	800,000	-0,035	0,085
-167,096	86,428	-0,117	0,092
-166,081	-47,031	-0,061	0,021
-165,066	800,000	0,016	0,038
-164,052	226,787	-0,029	0,034
-163,037	-117,755	-0,081	0,010
-162,023	800,000	0,067	0,186
-161,008	-33,156	-0,081	-0,032
-159,993	412,485	-0,075	-0,114
-158,979	2,537	-0,180	-0,093
-157,964	657,946	-0,048	-0,089
-156,950	-122,356	0,099	0,011
-155,935	-79,462	0,016	0,004
-154,920	-108,894	-0,138	0,021
-153,906	115,779	-0,018	0,016
-152,891	-84,407	-0,019	-0,004
-151,877	800,000	0,011	0,029
-150,862	-39,469	0,167	-0,062
-149,847	800,000	0,036	-0,072
-148,833	-38,407	0,144	0,054
-147,818	-71,608	-0,045	-0,012
-146,804	-28,547	0,025	0,010
-145,789	613,605	0,067	0,120
-144,775	248,097	-0,081	0,099
-143,760	296,869	0,061	0,081
-142,745	-92,517	0,077	0,015
-141,731	-170,582	-0,046	-0,001
-140,716	347,406	0,107	0,151
-139,702	-200,000	-0,000	0,062
-138,687	-39,469	0,046	0,017
-137,672	-200,000	-0,024	-0,114
-136,658	625,284	0,016	0,030
-135,643	-200,000	-0,001	-0,097
-134,629	578,452	-0,041	-0,072
-133,614	800,000	-0,057	0,134
-132,599	305,567	-0,051	0,068
-131,585	800,000	-0,064	-0,129
-130,570	-200,000	0,027	0,114
-129,556	133,759	-0,118	-0,109
-128,541	-200,000	0,009	0,130
-127,526	-200,000	-0,006	0,079
-126,512	243,875	0,020	0,024
-125,497	-200,000	-0,008	-0,107
-124,483	-104,671	0,136	-0,022
-123,468	-9,616	-0,074	0,035
-122,453	74,411	-0,084	-0,063
-121,439	403,439	-0,053	-0,080
-120,424	-163,124	-0,110	-0,004
-119,410	530,337	0,074	0,125
-118,395	-135,964	0,132	0,011
