DTS Sentinel unit serial number:	SN410029Multiplexer serial number:	ORYXHardware model number:	OX2-SRSoftware version number:	ORYX F/W v4,00 Oryx Data Collector v3.7.2.0data status	okinstallation	B4 Nyhavnadifferential loss correction	single-endedforward channel	channel 2reverse channel	N/Adate	2023/12/19time	05:55:13forward acquisition time	300,00reverse acquisition time	0,00gamma	499,1914k internal	0,3127k external	0,3127temperature offset calibration	1,0000default loss term (dB/km)	0,3820temperature slope calibration	1,0000multiplexer offset coefficient	1,0000multiplexer slope coefficient	1,0000fibre end	0,00T internal ref (°C)	21,06T ext. ref 1 (°C)	6,34T ext. ref 2 (°C)	6,54length (m)	temperature (°C)	Stokes	anti-Stokes-744,400	800,000	0,064	-0,172
-743,385	39,410	-0,151	0,101
-742,371	-33,501	0,109	-0,045
-741,356	-132,944	-0,277	0,026
-740,342	40,766	-0,052	-0,035
-739,327	-95,736	-0,262	0,052
-738,312	38,069	0,024	0,016
-737,298	-36,234	-0,317	0,127
-736,283	-200,000	-0,001	-0,020
-735,269	-75,680	-0,266	0,070
-734,254	87,152	-0,068	0,056
-733,239	-88,798	-0,441	-0,097
-732,225	648,475	-0,054	-0,103
-731,210	800,000	0,044	0,103
-730,196	130,460	0,044	0,042
-729,181	81,457	-0,018	-0,015
-728,167	700,087	0,042	-0,082
-727,152	800,000	0,053	-0,156
-726,137	-21,272	0,046	0,021
-725,123	-167,187	-0,117	-0,003
-724,108	-53,607	-0,113	-0,038
-723,094	-15,777	-0,050	-0,024
-722,079	104,275	-0,170	-0,148
-721,064	-200,000	0,053	-0,204
-720,050	-101,993	0,082	0,015
-719,035	403,013	0,021	0,033
-718,021	-52,598	-0,046	0,016
-717,006	-157,514	0,037	-0,002
-715,991	800,000	-0,047	-0,121
-714,977	-55,360	-0,157	-0,052
-713,962	4,063	0,065	-0,035
-712,948	342,225	0,064	0,093
-711,933	479,322	0,016	0,027
-710,918	-200,000	0,015	-0,068
-709,904	-147,183	-0,174	0,011
-708,889	160,586	0,056	0,058
-707,875	800,000	-0,040	-0,101
-706,860	-92,519	0,043	-0,009
-705,845	800,000	0,053	-0,134
-704,831	154,416	-0,080	0,082
-703,816	117,873	-0,055	-0,051
-702,802	-85,704	-0,096	-0,022
-701,787	110,846	-0,119	-0,106
-700,772	121,145	0,049	-0,045
-699,758	-61,071	-0,118	0,037
-698,743	558,393	0,042	0,075
-697,729	-200,000	-0,013	0,111
-696,714	-200,000	-0,016	0,082
-695,699	-30,072	-0,132	0,056
-694,685	-200,000	-0,005	-0,029
-693,670	800,000	0,025	-0,071
-692,656	-100,046	0,124	0,023
-691,641	758,730	-0,028	-0,058
-690,627	22,607	-0,029	0,018
-689,612	-90,911	-0,079	-0,017
-688,597	112,004	-0,086	0,077
-687,583	411,001	-0,055	0,088
-686,568	-200,000	0,016	0,117
-685,554	128,972	-0,034	-0,032
-684,539	800,000	-0,040	0,114
-683,524	-89,277	0,097	0,021
-682,510	41,997	-0,061	0,041
-681,495	800,000	0,010	0,030
-680,481	106,668	0,052	0,046
-679,466	-90,660	-0,124	-0,026
-678,451	-173,825	-0,090	0,002
-677,437	107,954	0,027	-0,024
-676,422	65,747	-0,106	0,080
-675,408	-200,000	0,014	0,062
-674,393	130,478	0,020	0,019
-673,378	-28,349	0,049	0,021
-672,364	800,000	-0,055	-0,139
-671,349	800,000	0,060	-0,132
-670,335	-59,824	-0,116	0,036
-669,320	-200,000	-0,028	0,095
-668,305	145,222	0,124	0,123
-667,291	-71,709	-0,112	-0,031
-666,276	268,555	0,036	-0,046
-665,262	302,827	0,028	0,038
-664,247	159,548	-0,022	-0,023
-663,232	562,919	-0,034	0,062
-662,218	800,000	-0,045	0,144
-661,203	90,317	-0,079	-0,066
-660,189	-200,000	0,024	-0,118
-659,174	50,980	-0,164	-0,115
-658,159	392,320	-0,051	-0,079
-657,145	-51,121	0,113	-0,039
-656,130	240,427	0,052	-0,065
-655,116	-200,000	-0,026	-0,127
-654,101	-200,000	0,027	-0,124
-653,086	-68,767	-0,059	0,017
-652,072	-62,481	0,051	-0,016
-651,057	259,763	-0,155	-0,199
-650,043	-200,000	-0,016	0,072
-649,028	120,770	-0,156	-0,144
-648,014	57,754	0,189	-0,137
-646,999	-61,207	0,069	-0,021
-645,984	-34,199	-0,127	-0,051
-644,970	-131,030	-0,117	-0,011
-643,955	-200,000	0,002	0,130
-642,941	-200,000	-0,005	0,066
-641,926	316,911	0,075	0,105
-640,911	-59,092	-0,096	-0,031
-639,897	-65,893	0,212	0,062
-638,882	469,364	-0,032	0,054
-637,868	-119,097	-0,086	-0,011
-636,853	385,931	-0,088	-0,135
-635,838	800,000	0,032	-0,102
-634,824	-35,471	0,107	-0,043
-633,809	228,257	-0,038	0,046
-632,795	-200,000	0,002	-0,076
-631,780	293,772	0,031	0,042
-630,765	-9,484	-0,200	-0,098
-629,751	778,829	0,039	0,080
-628,736	219,279	0,060	-0,071
-627,722	-54,665	-0,099	-0,033
-626,707	800,000	0,010	-0,032
-625,692	93,110	-0,093	0,078
-624,678	70,955	0,103	0,079
-623,663	187,004	0,040	0,044
-622,649	-49,260	0,059	-0,021
-621,634	800,000	0,028	0,080
-620,619	800,000	-0,042	0,091
-619,605	116,658	0,065	-0,059
-618,590	-200,000	0,001	-0,008
-617,576	-72,592	0,125	0,034
-616,561	-200,000	0,016	0,120
-615,546	410,013	-0,033	0,051
-614,532	800,000	-0,052	-0,128
-613,517	800,000	0,022	0,055
-612,503	-200,000	-0,007	-0,152
-611,488	31,014	-0,048	0,030
-610,474	12,851	-0,092	-0,053
-609,459	527,418	0,121	0,213
-608,444	-75,222	0,055	0,015
-607,430	800,000	0,030	-0,092
-606,415	-200,000	0,014	0,065
-605,401	-200,000	-0,003	0,137
-604,386	-200,000	0,035	0,130
-603,371	-74,200	0,067	-0,018
-602,357	39,680	-0,094	-0,062
-601,342	680,439	0,055	-0,107
-600,328	165,973	-0,004	-0,004
-599,313	-157,438	0,030	-0,001
-598,298	-200,000	-0,005	-0,088
-597,284	-100,650	-0,096	-0,017
-596,269	-200,000	-0,240	-0,000
-595,255	57,882	-0,040	0,029
-594,240	800,000	-0,014	-0,040
-593,225	-58,501	-0,130	-0,042
-592,211	-56,329	-0,051	-0,017
-591,196	276,319	0,013	0,017
-590,182	86,908	-0,038	-0,031
-589,167	32,344	0,084	0,054
-588,152	10,336	0,026	-0,015
-587,138	10,153	0,121	-0,068
-586,123	-200,000	0,031	-0,110
-585,109	132,761	-0,082	-0,078
-584,094	-85,314	0,103	0,024
-583,079	40,807	-0,109	0,073
-582,065	-115,726	-0,074	0,010
-581,050	-97,487	-0,100	0,019
-580,036	-4,082	-0,155	0,079
-579,021	-51,928	-0,127	0,043
-578,006	95,332	-0,109	0,092
-576,992	800,000	0,043	0,137
-575,977	740,912	0,047	-0,094
-574,963	26,693	-0,087	0,054
-573,948	-61,060	-0,077	-0,024
-572,934	-2,430	0,024	-0,013
-571,919	577,767	0,026	-0,048
-570,904	-200,000	0,006	-0,067
-569,890	-200,000	0,012	0,049
-568,875	358,541	-0,052	-0,077
-567,861	-200,000	-0,003	0,075
-566,846	-88,403	0,037	0,008
-565,831	-200,000	0,002	0,297
-564,817	-200,000	0,005	-0,024
-563,802	800,000	0,026	-0,083
-562,788	87,611	-0,117	-0,096
-561,773	-200,000	-0,037	0,157
-560,758	148,908	-0,044	-0,044
-559,744	-20,778	0,082	-0,037
-558,729	-0,225	0,138	-0,072
-557,715	-101,883	-0,066	-0,012
-556,700	193,170	0,042	-0,047
-555,685	429,557	0,049	0,078
-554,671	-200,000	-0,030	-0,107
-553,656	-140,804	0,054	-0,004
-552,642	-25,542	0,136	0,059
-551,627	-55,076	0,020	-0,007
-550,612	-41,413	-0,033	0,013
-549,598	326,786	-0,039	-0,055
-548,583	800,000	0,032	0,085
-547,569	18,714	0,089	0,052
-546,554	-200,000	0,015	-0,063
-545,539	172,617	0,044	-0,047
-544,525	439,237	-0,058	-0,094
-543,510	800,000	0,034	0,103
-542,496	-65,452	-0,025	0,007
-541,481	90,105	-0,013	-0,011
-540,466	-173,118	-0,088	-0,002
-539,452	514,283	0,039	-0,067
-538,437	-118,170	-0,080	0,010
-537,423	339,985	-0,023	0,033
-536,408	124,339	0,117	0,108
-535,393	-200,000	-0,010	-0,077
-534,379	-108,246	-0,141	0,022
-533,364	800,000	0,051	0,109
-532,350	800,000	0,059	0,151
-531,335	-200,000	-0,007	0,154
-530,321	-200,000	0,005	0,199
-529,306	-95,673	-0,061	-0,012
-528,291	499,339	0,045	-0,077
-527,277	-200,000	0,003	0,079
-526,262	-200,000	-0,003	0,171
-525,248	-88,606	0,093	0,020
-524,233	-27,659	-0,094	0,040
-523,218	-43,266	0,061	0,023
-522,204	-3,747	-0,031	-0,016
-521,189	-200,000	-0,024	-0,249
-520,175	800,000	-0,027	-0,063
-519,160	800,000	0,048	0,127
-518,145	800,000	0,071	-0,201
-517,131	555,652	0,044	0,079
-516,116	294,406	0,066	0,089
-515,102	-200,000	-0,002	0,096
-514,087	161,972	0,042	-0,043
-513,072	-71,520	-0,109	-0,030
-512,058	-54,266	-0,057	0,019
-511,043	-200,000	-0,019	-0,105
-510,029	-21,993	0,089	-0,040
-509,014	285,041	0,044	-0,059
-507,999	106,404	0,072	0,063
-506,985	-120,670	-0,042	0,005
-505,970	366,914	0,048	-0,072
-504,956	473,974	0,047	0,078
-503,941	236,924	-0,070	-0,086
-502,926	800,000	-0,051	-0,131
-501,912	45,150	0,072	-0,049
-500,897	-61,126	0,082	0,025
-499,883	-200,000	-0,007	-0,091
-498,868	800,000	-0,073	-0,150
-497,853	539,295	0,026	-0,045
-496,839	800,000	-0,031	-0,068
-495,824	-0,573	0,104	-0,054
-494,810	506,922	0,057	0,099
-493,795	13,636	-0,051	0,029
-492,781	-200,000	-0,031	-0,105
-491,766	-116,371	-0,134	0,018
-490,751	508,851	0,049	-0,085
-489,737	-200,000	-0,002	-0,130
-488,722	54,404	0,108	0,077
-487,708	-64,792	-0,206	0,061
-486,693	-19,803	0,062	0,028
-485,678	15,215	0,043	-0,025
-484,664	-35,341	-0,143	-0,057
-483,649	-200,000	-0,030	0,121
-482,635	96,443	-0,006	-0,005
-481,620	508,718	0,030	-0,052
-480,605	107,993	0,051	0,045
-479,591	-200,000	-0,007	0,124
-478,576	-10,071	-0,132	0,065
-477,562	540,389	-0,025	0,045
-476,547	353,970	0,027	-0,040
-475,532	-200,000	-0,003	-0,115
-474,518	336,336	0,018	-0,026
-473,503	9,950	0,122	-0,068
-472,489	-200,000	-0,004	0,038
-471,474	208,395	-0,015	0,017
-470,459	-200,000	0,010	0,043
-469,445	-200,000	-0,009	-0,094
-468,430	258,338	-0,051	-0,065
-467,416	-132,668	0,085	-0,008
-466,401	129,828	-0,157	0,148
-465,386	-32,699	0,024	0,010
-464,372	108,750	0,052	-0,046
-463,357	800,000	0,045	0,107
-462,343	-200,000	-0,018	-0,083
-461,328	800,000	-0,023	-0,058
-460,313	-137,753	0,103	0,008
-459,299	-99,953	0,153	-0,028
-458,284	33,782	0,056	-0,036
-457,270	325,244	-0,053	-0,075
-456,255	133,473	-0,059	-0,057
-455,241	-200,000	0,015	-0,085
-454,226	-24,365	0,069	-0,030
-453,211	-200,000	0,014	-0,084
-452,197	-200,000	0,019	0,127
-451,182	-200,000	-0,022	0,089
-450,168	800,000	0,098	0,200
-449,153	-88,071	0,156	0,034
-448,138	521,649	0,062	-0,107
-447,124	7,951	0,038	-0,021
-446,109	58,036	0,040	-0,029
-445,095	22,546	0,063	0,038
-444,080	-36,621	-0,085	-0,034
-443,065	-134,336	0,085	0,008
-442,051	-87,621	-0,083	-0,018
-441,036	61,971	-0,149	0,109
-440,022	800,000	-0,009	-0,029
-439,007	-200,000	-0,001	0,043
-437,992	7,922	-0,015	0,008
-436,978	265,566	0,039	0,051
-435,963	306,924	0,021	-0,028
-434,949	-48,829	-0,046	0,016
-433,934	-200,000	0,005	-0,064
-432,919	800,000	0,028	-0,068
-431,905	-19,805	-0,027	0,012
-430,890	-200,000	-0,014	0,093
-429,876	-61,053	0,052	0,016
-428,861	224,943	0,063	0,075
-427,846	-135,120	-0,061	-0,005
-426,832	-200,000	0,014	0,069
-425,817	162,341	-0,050	-0,052
-424,803	391,574	0,058	0,088
-423,788	134,340	0,083	-0,079
-422,773	800,000	0,056	0,139
-421,759	-23,761	0,156	0,068
-420,744	126,500	-0,044	-0,041
-419,730	800,000	-0,044	0,113
-418,715	-36,255	-0,060	0,024
-417,701	-200,000	-0,013	-0,097
-416,686	-84,516	-0,093	0,021
-415,671	-200,000	-0,001	0,049
-414,657	34,705	0,102	0,065
-413,642	800,000	0,005	-0,014
-412,628	-181,496	-0,086	-0,001
-411,613	800,000	-0,041	0,117
-410,598	800,000	0,048	-0,129
-409,584	486,282	-0,033	-0,055
-408,569	-110,496	-0,092	-0,014
-407,555	4,625	0,064	0,034
-406,540	29,542	0,069	0,043
-405,525	-8,217	-0,182	0,090
-404,511	800,000	0,041	0,099
-403,496	19,276	0,156	0,092
-402,482	266,693	-0,055	0,071
-401,467	-125,983	-0,100	0,011
-400,452	-50,036	0,027	-0,009
-399,438	-68,233	-0,060	0,017
-398,423	-112,686	0,085	0,012
-397,409	466,842	-0,074	0,123
-396,394	-86,208	-0,133	-0,030
-395,379	800,000	0,055	0,115
-394,365	-103,530	0,107	0,018
-393,350	800,000	-0,024	0,075
-392,336	636,748	0,063	-0,119
-391,321	-103,645	-0,125	0,021
-390,306	7,965	-0,068	-0,038
-389,292	-56,245	-0,047	0,015
-388,277	-200,000	-0,000	-0,030
-387,263	-64,589	0,080	-0,024
-386,248	270,067	0,122	0,157
-385,233	-200,000	-0,006	0,053
-384,219	69,783	-0,045	0,034
-383,204	133,206	-0,053	-0,051
-382,190	-13,202	-0,092	-0,044
-381,175	204,693	-0,117	-0,133
-380,160	-200,000	-0,045	0,154
-379,146	-31,353	-0,137	0,056
-378,131	-200,000	0,011	0,145
-377,117	314,426	0,040	0,055
-376,102	215,567	-0,091	-0,107
-375,088	174,341	-0,080	-0,085
-374,073	83,137	0,108	-0,086
-373,058	800,000	-0,028	0,079
-372,044	-200,000	-0,032	0,165
-371,029	-115,912	0,102	0,014
-370,015	40,701	0,046	0,030
-369,000	-200,000	-0,017	0,109
-367,985	-200,000	-0,000	0,042
-366,971	220,571	0,057	-0,067
-365,956	1,384	-0,069	0,036
-364,942	-160,347	0,096	-0,004
-363,927	-200,000	0,026	0,131
-362,912	-43,830	0,113	-0,042
-361,898	421,372	0,030	0,048
-360,883	33,261	0,043	-0,027
-359,869	267,450	-0,098	-0,126
-358,854	106,190	-0,015	0,013
-357,839	-99,707	-0,112	0,020
-356,825	7,439	0,048	0,027
-355,810	5,443	-0,070	0,038
-354,796	-181,060	-0,079	0,001
-353,781	136,280	-0,094	-0,090
-352,766	-200,000	-0,018	-0,232
-351,752	564,267	0,063	-0,112
-350,737	-103,852	-0,059	0,010
-349,723	262,240	0,032	0,040
-348,708	-59,913	-0,068	-0,021
-347,693	-200,000	-0,020	-0,075
-346,679	800,000	0,018	0,040
-345,664	209,333	-0,069	0,079
-344,650	800,000	-0,004	0,013
-343,635	-130,330	-0,105	-0,010
-342,620	114,593	0,096	0,085
-341,606	-200,000	0,004	0,194
-340,591	-131,820	-0,151	-0,014
-339,577	-200,000	0,000	0,018
-338,562	-200,000	-0,012	-0,065
-337,548	219,669	-0,075	-0,088
-336,533	633,082	-0,040	0,075
-335,518	49,382	0,172	0,118
-334,504	-200,000	0,004	0,075
-333,489	-4,874	0,048	0,024
-332,475	90,384	-0,029	0,024
-331,460	-70,607	0,113	0,031
-330,445	-132,798	-0,108	0,010
-329,431	-200,000	-0,007	0,081
-328,416	-200,000	0,005	-0,153
-327,402	-200,000	0,017	0,075
-326,387	47,056	-0,055	0,037
-325,372	427,807	-0,084	-0,134
-324,358	331,047	-0,093	-0,131
-323,343	274,019	0,013	0,017
-322,329	-200,000	0,045	-0,158
-321,314	137,641	0,160	-0,154
-320,299	99,490	0,098	-0,083
-319,285	7,537	0,094	-0,052
-318,270	372,329	-0,070	0,104
-317,256	-200,000	0,000	-0,076
-316,241	58,123	0,039	-0,028
-315,226	666,123	-0,044	-0,084
-314,212	-200,000	-0,002	-0,034
-313,197	632,965	0,009	0,017
-312,183	-200,000	-0,000	0,064
-311,168	311,343	-0,126	-0,173
-310,153	-200,000	-0,003	-0,206
-309,139	643,081	-0,071	-0,134
-308,124	-4,989	0,018	0,009
-307,110	-200,000	0,004	-0,024
-306,095	800,000	-0,016	0,044
-305,080	-200,000	-0,002	0,023
-304,066	558,933	-0,033	0,059
-303,051	-200,000	0,007	-0,162
-302,037	-107,992	-0,081	0,013
-301,022	554,589	-0,072	0,127
-300,008	-120,767	0,021	0,003
-298,993	173,688	0,028	0,030
-297,978	49,407	0,125	-0,086
-296,964	-144,503	-0,065	-0,004
-295,949	213,722	0,021	0,024
-294,935	124,099	-0,057	-0,053
-293,920	-200,000	-0,006	-0,054
-292,905	-196,765	0,050	-0,000
-291,891	-31,423	0,043	0,018
-290,876	800,000	-0,043	-0,121
-289,862	800,000	0,093	-0,195
-288,847	-200,000	-0,013	-0,082
-287,832	87,718	-0,051	0,042
-286,818	800,000	0,042	-0,092
-285,803	37,450	0,055	0,036
-284,789	365,363	0,078	0,116
-283,774	-129,554	-0,200	0,020
-282,759	-36,092	0,129	0,051
-281,745	800,000	-0,013	0,038
-280,730	800,000	-0,032	-0,094
-279,716	637,500	-0,019	-0,036
-278,701	12,433	0,107	-0,060
-277,686	16,459	-0,080	0,046
-276,672	7,812	0,039	-0,021
-275,657	-4,236	-0,066	-0,034
-274,643	517,755	0,015	0,026
-273,628	-200,000	-0,005	0,045
-272,613	-21,980	-0,131	-0,058
-271,599	-146,361	0,212	-0,013
-270,584	-177,390	0,118	-0,002
-269,570	185,081	0,090	-0,098
-268,555	-200,000	-0,039	0,126
-267,540	421,489	0,048	0,075
-266,526	49,557	0,044	0,030
-265,511	800,000	0,080	0,166
-264,497	-91,524	0,133	0,028
-263,482	-71,479	0,176	0,048
-262,467	-200,000	0,007	0,043
-261,453	22,451	0,075	0,045
-260,438	-78,250	-0,097	-0,024
-259,424	-200,000	0,016	-0,117
-258,409	800,000	-0,024	-0,051
-257,395	125,913	0,036	-0,033
-256,380	-200,000	-0,010	0,129
-255,365	-28,702	0,045	-0,019
-254,351	800,000	0,020	-0,062
-253,336	417,709	-0,013	0,021
-252,322	800,000	-0,031	-0,078
-251,307	-33,240	-0,022	0,009
-250,292	-134,855	0,027	-0,002
-249,278	-200,000	0,006	0,061
-248,263	15,997	0,046	0,026
-247,249	289,708	0,055	0,074
-246,234	-200,000	0,000	0,046
-245,219	55,270	-0,033	0,024
-244,205	117,574	-0,070	-0,063
-243,190	-104,367	0,156	0,026
-242,176	266,698	0,085	-0,108
-241,161	-200,000	-0,005	-0,056
-240,146	-200,000	0,007	-0,032
-239,132	-41,880	0,078	-0,029
-238,117	147,833	0,061	-0,060
-237,103	-197,115	-0,082	0,000
-236,088	92,471	0,071	0,059
-235,073	-122,146	0,080	0,009
-234,059	197,579	0,038	0,043
-233,044	332,912	-0,074	0,104
-232,030	-109,434	0,064	-0,010
-231,015	-200,000	-0,041	-0,149
-230,000	286,168	-0,042	-0,056
-228,986	-164,542	0,141	0,005
-227,971	-2,892	-0,159	0,081
-226,957	-145,339	0,052	0,003
-225,942	273,253	0,082	0,107
-224,927	197,601	0,056	-0,063
-223,913	-200,000	-0,024	-0,078
-222,898	349,743	0,020	0,029
-221,884	394,599	0,035	0,053
-220,869	-200,000	-0,020	0,173
-219,855	0,257	0,066	0,034
-218,840	-200,000	0,004	0,026
-217,825	46,654	-0,089	-0,060
-216,811	-200,000	0,034	-0,165
-215,796	800,000	-0,049	-0,111
-214,782	79,371	-0,017	-0,013
-213,767	316,771	-0,036	-0,050
-212,752	-111,487	-0,133	-0,019
-211,738	-110,002	-0,053	-0,008
-210,723	-200,000	-0,001	-0,050
-209,709	-85,988	-0,019	-0,004
-208,694	-200,000	-0,014	0,069
-207,679	-63,762	-0,091	-0,027
-206,665	274,858	-0,063	-0,081
-205,650	-200,000	-0,010	-0,137
-204,636	-57,973	0,005	-0,002
-203,621	41,090	-0,014	-0,010
-202,606	-11,648	0,024	0,011
-201,592	800,000	-0,068	-0,200
-200,577	800,000	0,042	-0,110
-199,563	82,272	-0,041	0,033
-198,548	-39,890	-0,069	0,026
-197,533	569,677	-0,011	0,020
-196,519	800,000	0,083	0,218
-195,504	-200,000	-0,002	-0,199
-194,490	-36,003	-0,027	-0,011
-193,475	800,000	0,021	0,043
-192,460	99,905	0,076	-0,064
-191,446	231,581	-0,006	-0,007
-190,431	117,701	0,041	0,036
-189,417	537,354	-0,039	-0,068
-188,402	-92,557	-0,071	-0,014
-187,387	800,000	-0,018	0,057
-186,373	-200,000	0,022	-0,175
-185,358	800,000	-0,034	-0,076
-184,344	40,467	0,080	-0,052
-183,329	446,724	-0,043	-0,069
-182,315	-200,000	0,007	0,088
-181,300	-111,098	-0,088	0,013
-180,285	181,271	0,025	-0,026
-179,271	-103,038	-0,072	0,012
-178,256	-200,000	-0,033	-0,126
-177,242	-200,000	-0,009	0,051
-176,227	800,000	0,006	0,012
-175,212	-200,000	0,053	0,189
-174,198	800,000	-0,031	0,077
-173,183	-139,364	-0,154	0,012
-172,169	-200,000	-0,018	-0,089
-171,154	92,716	-0,024	-0,019
-170,139	188,265	-0,061	0,067
-169,125	-200,000	0,001	0,028
-168,110	291,683	0,069	0,091
-167,096	800,000	-0,005	-0,017
-166,081	121,714	-0,116	0,106
-165,066	-200,000	0,016	-0,075
-164,052	181,353	0,146	-0,156
-163,037	129,845	0,074	0,069
-162,023	66,927	0,074	0,055
-161,008	-169,498	0,088	-0,002
-159,993	83,175	0,141	0,111
-158,979	711,947	-0,041	0,079
-157,964	422,103	-0,012	-0,018
-156,950	-200,000	-0,036	-0,177
-155,935	-200,000	-0,003	0,061
-154,920	5,783	0,001	-0,000
-153,906	474,961	0,076	0,126
-152,891	94,089	-0,085	0,070
-151,877	-200,000	-0,037	0,128
-150,862	205,613	-0,089	-0,101
-149,847	387,524	-0,016	-0,024
-148,833	-35,926	-0,024	-0,010
-147,818	-116,908	-0,121	0,016
-146,804	299,851	0,045	-0,060
-145,789	800,000	-0,060	0,131
-144,775	-68,611	0,048	-0,013
-143,760	-107,554	-0,032	0,005
-142,745	40,980	-0,037	0,024
-141,731	41,540	-0,068	-0,045
-140,716	800,000	0,031	-0,090
-139,702	199,073	0,060	0,067
-138,687	-49,627	0,053	0,018
-137,672	-200,000	0,004	0,067
-136,658	-22,177	-0,055	0,024
-135,643	-80,169	-0,092	-0,022
-134,629	1,625	-0,107	-0,056
-133,614	-66,424	0,072	-0,021
-132,599	-200,000	0,022	0,076
-131,585	30,890	-0,003	-0,002
-130,570	151,591	0,032	-0,031
-129,556	-10,243	0,042	0,020
-128,541	270,913	-0,029	0,038
-127,526	-114,328	-0,034	0,005
-126,512	-18,859	-0,047	-0,021
-125,497	-200,000	0,019	0,115
-124,483	800,000	-0,028	-0,079
-123,468	63,290	-0,039	0,029
-122,453	-108,960	-0,118	-0,018
-121,439	800,000	0,025	-0,050
-120,424	-51,390	-0,109	-0,037
-119,410	-200,000	0,032	0,107
-118,395	47,068	0,115	0,078
