DTS Sentinel unit serial number:	SN410029Multiplexer serial number:	ORYXHardware model number:	OX2-SRSoftware version number:	ORYX F/W v4,00 Oryx Data Collector v3.7.2.0data status	okinstallation	B4 Nyhavnadifferential loss correction	single-endedforward channel	channel 2reverse channel	N/Adate	2023/12/19time	07:15:13forward acquisition time	300,00reverse acquisition time	0,00gamma	499,1914k internal	0,3127k external	0,3127temperature offset calibration	1,0000default loss term (dB/km)	0,3820temperature slope calibration	1,0000multiplexer offset coefficient	1,0000multiplexer slope coefficient	1,0000fibre end	0,00T internal ref (°C)	21,23T ext. ref 1 (°C)	6,47T ext. ref 2 (°C)	6,61length (m)	temperature (°C)	Stokes	anti-Stokes-744,400	800,000	0,039	0,095
-743,385	22,465	-0,241	0,146
-742,371	482,474	0,063	0,108
-741,356	41,764	-0,122	0,082
-740,342	800,000	0,015	-0,032
-739,327	150,844	-0,155	0,157
-738,312	-200,000	-0,004	-0,088
-737,298	-9,866	-0,198	0,098
-736,283	-56,610	-0,081	-0,027
-735,269	-41,804	-0,245	0,093
-734,254	-200,000	0,015	-0,117
-733,239	-30,479	-0,405	-0,170
-732,225	-59,875	0,075	0,024
-731,210	547,048	0,068	-0,122
-730,196	44,924	-0,190	-0,130
-729,181	800,000	0,048	-0,142
-728,167	-200,000	-0,016	-0,098
-727,152	-11,539	-0,115	0,056
-726,137	659,865	-0,012	0,022
-725,123	-200,000	-0,068	-0,000
-724,108	205,535	-0,065	-0,075
-723,094	-95,980	-0,113	0,022
-722,079	340,567	-0,112	-0,163
-721,064	248,518	-0,104	-0,131
-720,050	-200,000	-0,036	0,119
-719,035	-200,000	-0,005	0,079
-718,021	495,479	-0,015	-0,025
-717,006	-63,605	-0,083	0,025
-715,991	95,567	0,107	-0,090
-714,977	-200,000	0,017	-0,148
-713,962	-136,821	-0,064	0,005
-712,948	-200,000	0,150	-0,001
-711,933	167,219	-0,007	-0,007
-710,918	256,352	-0,079	-0,101
-709,904	116,727	-0,091	0,083
-708,889	-80,167	-0,089	0,022
-707,875	178,025	-0,100	-0,109
-706,860	70,353	-0,083	-0,064
-705,845	704,998	-0,035	-0,068
-704,831	355,690	0,022	-0,033
-703,816	-34,794	-0,158	-0,064
-702,802	273,908	-0,102	-0,134
-701,787	-96,734	0,063	0,012
-700,772	-76,153	-0,080	-0,021
-699,758	-155,073	-0,091	0,004
-698,743	197,616	-0,036	-0,040
-697,729	-28,002	0,073	-0,031
-696,714	-142,421	-0,061	-0,004
-695,699	-200,000	-0,047	-0,230
-694,685	-200,000	0,008	0,095
-693,670	800,000	-0,013	-0,036
-692,656	327,599	-0,056	-0,081
-691,641	103,194	0,099	0,086
-690,627	-200,000	-0,038	0,167
-689,612	141,701	-0,071	0,070
-688,597	42,592	-0,108	-0,073
-687,583	377,128	-0,036	0,054
-686,568	163,267	-0,082	-0,085
-685,554	-101,604	0,108	0,019
-684,539	-98,421	-0,068	-0,013
-683,524	800,000	-0,007	-0,022
-682,510	-63,723	-0,063	0,019
-681,495	42,575	-0,050	-0,034
-680,481	-45,446	-0,126	-0,046
-679,466	800,000	-0,067	-0,173
-678,451	-200,000	-0,005	-0,076
-677,437	-24,496	0,061	-0,027
-676,422	371,156	0,032	-0,048
-675,408	66,303	0,118	0,089
-674,393	-200,000	-0,052	-0,177
-673,378	-11,523	-0,093	-0,045
-672,364	-85,890	-0,077	0,018
-671,349	-165,766	0,154	-0,005
-670,335	250,972	-0,038	0,049
-669,320	-200,000	-0,008	0,170
-668,305	-200,000	-0,013	0,056
-667,291	-200,000	-0,003	0,022
-666,276	-138,706	0,051	-0,004
-665,262	-138,559	-0,151	0,012
-664,247	85,906	-0,102	0,083
-663,232	43,345	0,046	-0,031
-662,218	493,472	-0,020	-0,034
-661,203	244,035	-0,094	-0,118
-660,189	-14,144	-0,108	-0,051
-659,174	281,829	-0,083	-0,111
-658,159	-105,967	0,053	-0,009
-657,145	176,670	-0,062	-0,067
-656,130	-200,000	0,010	-0,066
-655,116	674,467	-0,019	-0,037
-654,101	30,321	-0,037	-0,023
-653,086	54,793	-0,200	0,143
-652,072	-26,647	0,062	0,027
-651,057	800,000	-0,031	-0,085
-650,043	22,514	-0,043	0,026
-649,028	161,309	-0,031	0,032
-648,014	800,000	0,053	0,113
-646,999	535,793	0,031	-0,055
-645,984	76,004	0,062	0,049
-644,970	-175,261	-0,087	0,002
-643,955	405,752	-0,077	-0,120
-642,941	303,593	0,031	-0,043
-641,926	-200,000	-0,001	-0,083
-640,911	711,891	0,042	-0,084
-639,897	155,270	0,025	0,026
-638,882	-29,211	0,121	0,051
-637,868	800,000	0,027	-0,072
-636,853	148,077	-0,089	-0,089
-635,838	170,427	-0,116	0,124
-634,824	65,871	-0,033	-0,024
-633,809	-200,000	-0,014	0,069
-632,795	165,499	-0,066	0,069
-631,780	168,647	0,043	-0,045
-630,765	-200,000	0,039	0,142
-629,751	-115,937	-0,026	0,004
-628,736	85,348	-0,069	0,056
-627,722	159,626	0,052	-0,054
-626,707	538,277	0,011	0,019
-625,692	-200,000	-0,016	-0,056
-624,678	226,173	0,014	0,017
-623,663	96,532	-0,047	-0,040
-622,649	266,337	-0,031	-0,040
-621,634	71,868	-0,065	-0,050
-620,619	183,088	-0,086	-0,094
-619,605	99,975	-0,095	-0,081
-618,590	-112,381	0,045	0,007
-617,576	-200,000	0,025	0,103
-616,561	-41,230	-0,049	-0,019
-615,546	41,011	-0,116	0,078
-614,532	-200,000	0,012	-0,060
-613,517	-21,660	0,065	-0,029
-612,503	-200,000	0,000	-0,041
-611,488	-171,139	0,101	-0,002
-610,474	378,555	0,056	-0,086
-609,459	-109,760	-0,158	0,024
-608,444	190,703	-0,096	-0,107
-607,430	-200,000	0,001	0,025
-606,415	-193,042	-0,237	0,002
-605,401	-110,533	0,157	-0,024
-604,386	177,814	0,066	0,071
-603,371	-200,000	-0,009	-0,080
-602,357	314,107	-0,037	0,052
-601,342	110,851	-0,155	-0,139
-600,328	-142,294	-0,063	-0,005
-599,313	-200,000	-0,022	-0,075
-598,298	-200,000	-0,002	-0,030
-597,284	574,618	-0,070	-0,127
-596,269	17,250	0,101	0,059
-595,255	11,384	-0,070	-0,040
-594,240	-191,661	0,104	-0,001
-593,225	304,820	-0,022	-0,030
-592,211	-173,439	-0,124	0,003
-591,196	-33,431	-0,091	-0,037
-590,182	-200,000	-0,001	0,041
-589,167	-101,499	0,071	0,013
-588,152	176,191	0,069	0,074
-587,138	205,521	-0,059	0,068
-586,123	-24,659	0,090	0,039
-585,109	-117,741	-0,139	-0,018
-584,094	-200,000	-0,031	-0,186
-583,079	21,624	0,129	-0,077
-582,065	655,425	-0,049	-0,093
-581,050	-172,511	-0,051	-0,001
-580,036	-200,000	-0,007	0,034
-579,021	142,936	-0,088	-0,086
-578,006	-148,379	-0,127	0,008
-576,992	-56,474	-0,112	-0,036
-575,977	-82,629	0,126	-0,030
-574,963	-44,415	-0,073	-0,027
-573,948	532,517	0,039	-0,068
-572,934	800,000	-0,016	0,048
-571,919	1,398	-0,148	-0,079
-570,904	632,805	-0,050	-0,094
-569,890	528,583	0,025	-0,043
-568,875	23,008	0,046	0,028
-567,861	83,656	0,030	0,025
-566,846	262,913	0,026	0,034
-565,831	20,802	-0,112	-0,067
-564,817	513,010	-0,016	-0,027
-563,802	-200,000	0,018	-0,068
-562,788	28,280	0,087	-0,054
-561,773	-200,000	0,002	-0,011
-560,758	800,000	-0,016	0,043
-559,744	-147,472	0,065	0,004
-558,729	425,065	-0,030	0,049
-557,715	-3,950	-0,119	0,061
-556,700	338,644	-0,075	0,108
-555,685	-200,000	0,038	-0,143
-554,671	357,819	-0,048	0,071
-553,656	16,763	0,028	0,016
-552,642	-200,000	0,035	0,208
-551,627	107,875	0,029	0,025
-550,612	322,295	0,011	0,016
-549,598	-38,810	-0,065	-0,025
-548,583	-144,361	-0,046	0,003
-547,569	102,874	0,082	-0,070
-546,554	-200,000	-0,030	0,103
-545,539	184,926	0,027	-0,029
-544,525	0,068	0,096	0,050
-543,510	-104,371	0,078	0,013
-542,496	800,000	-0,012	0,028
-541,481	78,201	0,066	0,052
-540,466	-62,416	0,110	0,034
-539,452	800,000	0,013	0,036
-538,437	800,000	0,048	0,146
-537,423	238,905	0,070	-0,087
-536,408	-16,399	0,094	0,044
-535,393	-140,482	-0,032	0,002
-534,379	-124,983	-0,026	-0,003
-533,364	-143,646	0,111	0,008
-532,350	-124,679	0,035	0,004
-531,335	-200,000	0,034	0,000
-530,321	308,039	0,094	0,130
-529,306	-25,831	-0,056	-0,024
-528,291	93,974	-0,076	-0,064
-527,277	255,849	-0,076	0,096
-526,262	-200,000	-0,018	-0,109
-525,248	800,000	0,035	0,078
-524,233	-118,878	-0,074	-0,009
-523,218	-171,063	0,128	0,003
-522,204	-25,052	-0,094	0,041
-521,189	257,785	-0,046	-0,058
-520,175	310,794	-0,034	-0,047
-519,160	-200,000	-0,026	-0,114
-518,145	800,000	0,070	-0,176
-517,131	207,204	0,019	0,022
-516,116	697,138	-0,043	0,083
-515,102	18,549	0,081	-0,048
-514,087	56,784	-0,089	-0,064
-513,072	147,023	-0,016	0,016
-512,058	105,852	0,050	0,044
-511,043	-112,447	0,083	0,012
-510,029	-29,641	-0,046	-0,019
-509,014	-200,000	-0,001	-0,062
-507,999	-200,000	0,009	-0,085
-506,985	-200,000	0,016	-0,073
-505,970	-37,037	-0,118	-0,047
-504,956	730,872	0,033	-0,065
-503,941	-200,000	0,022	-0,109
-502,926	-200,000	0,004	0,086
-501,912	800,000	-0,059	0,165
-500,897	229,829	0,044	-0,054
-499,883	-200,000	-0,005	-0,101
-498,868	595,690	-0,043	-0,079
-497,853	-9,272	-0,089	0,044
-496,839	-55,637	0,017	0,006
-495,824	-62,135	0,142	0,043
-494,810	78,786	0,093	0,073
-493,795	51,433	-0,132	-0,092
-492,781	374,892	-0,034	-0,051
-491,766	-200,000	-0,006	-0,103
-490,751	-82,724	-0,153	0,036
-489,737	-111,344	0,055	-0,008
-488,722	-33,816	0,161	0,065
-487,708	800,000	0,043	0,111
-486,693	-66,690	0,120	-0,035
-485,678	-50,263	0,067	-0,023
-484,664	-42,157	0,073	0,027
-483,649	-200,000	0,010	-0,039
-482,635	-20,897	-0,023	-0,010
-481,620	571,900	0,031	-0,056
-480,605	47,256	0,060	0,041
-479,591	-82,759	0,074	-0,018
-478,576	-136,303	0,055	0,005
-477,562	273,954	-0,071	0,093
-476,547	-75,042	-0,049	0,013
-475,532	-155,227	-0,039	0,002
-474,518	448,511	-0,070	-0,113
-473,503	39,443	0,046	0,030
-472,489	-18,821	0,092	0,042
-471,474	506,373	-0,092	0,157
-470,459	114,971	-0,029	0,026
-469,445	6,565	-0,113	0,062
-468,430	41,592	0,102	0,068
-467,416	-200,000	-0,017	0,118
-466,401	62,894	-0,010	0,007
-465,386	-104,023	-0,069	0,012
-464,372	679,908	0,058	0,111
-463,357	29,092	-0,147	0,092
-462,343	43,451	0,039	0,026
-461,328	-200,000	0,020	-0,207
-460,313	157,437	-0,129	-0,131
-459,299	-14,908	-0,018	-0,009
-458,284	-38,913	0,093	0,036
-457,270	32,497	0,040	0,025
-456,255	-200,000	0,018	-0,098
-455,241	-200,000	-0,000	-0,097
-454,226	715,992	-0,067	0,131
-453,211	749,140	0,023	0,046
-452,197	800,000	-0,035	0,078
-451,182	-157,259	-0,101	-0,004
-450,168	-200,000	0,161	-0,000
-449,153	-200,000	0,020	-0,105
-448,138	717,042	0,075	-0,147
-447,124	191,583	0,010	-0,011
-446,109	343,646	0,001	-0,001
-445,095	41,487	0,111	-0,074
-444,080	116,341	0,047	-0,043
-443,065	365,669	0,081	0,121
-442,051	-200,000	-0,006	-0,138
-441,036	300,398	-0,043	0,059
-440,022	18,222	0,080	0,047
-439,007	281,199	0,007	-0,010
-437,992	-200,000	0,017	0,149
-436,978	-200,000	0,046	0,265
-435,963	355,211	-0,015	0,023
-434,949	-200,000	0,000	-0,036
-433,934	-200,000	0,003	0,033
-432,919	112,231	-0,071	-0,063
-431,905	-200,000	0,000	-0,033
-430,890	-47,761	0,117	0,042
-429,876	-200,000	0,001	0,138
-428,861	-200,000	-0,042	-0,179
-427,846	147,798	-0,017	-0,017
-426,832	-151,414	0,046	0,002
-425,817	-91,563	-0,101	0,021
-424,803	-59,477	0,074	0,023
-423,788	571,470	-0,039	0,070
-422,773	297,265	0,095	-0,129
-421,759	-195,451	0,080	-0,000
-420,744	-100,846	-0,047	0,008
-419,730	14,316	-0,059	0,034
-418,715	-92,336	0,113	-0,023
-417,701	710,621	-0,019	0,038
-416,686	-10,383	-0,060	-0,029
-415,671	-200,000	0,029	0,102
-414,657	130,659	-0,066	0,062
-413,642	800,000	-0,024	0,058
-412,628	-150,749	-0,124	-0,007
-411,613	-200,000	-0,002	-0,194
-410,598	-138,872	0,056	0,004
-409,584	273,948	-0,013	-0,017
-408,569	-200,000	0,002	-0,014
-407,555	800,000	0,027	-0,061
-406,540	800,000	-0,051	0,117
-405,525	800,000	-0,020	0,046
-404,511	371,732	-0,047	0,070
-403,496	-200,000	-0,045	-0,151
-402,482	116,697	-0,118	-0,107
-401,467	126,092	0,059	-0,055
-400,452	287,552	0,026	0,035
-399,438	626,107	-0,075	0,140
-398,423	170,962	0,092	0,097
-397,409	800,000	0,053	-0,126
-396,394	480,855	0,069	0,115
-395,379	-86,640	0,059	0,013
-394,365	299,761	-0,015	0,020
-393,350	39,002	-0,022	0,014
-392,336	40,092	0,122	-0,080
-391,321	14,748	0,091	-0,052
-390,306	-73,651	0,095	-0,025
-389,292	-200,000	0,002	-0,082
-388,277	540,860	0,055	-0,096
-387,263	437,611	0,073	-0,117
-386,248	358,940	0,016	-0,024
-385,233	9,295	-0,043	-0,024
-384,219	-134,058	0,147	0,013
-383,204	-123,690	-0,111	-0,013
-382,190	687,226	0,021	0,041
-381,175	800,000	-0,012	-0,033
-380,160	133,495	-0,032	0,030
-379,146	45,459	-0,090	-0,061
-378,131	-72,185	-0,003	0,001
-377,117	-86,337	-0,060	-0,013
-376,102	800,000	0,082	-0,184
-375,088	800,000	0,055	-0,113
-374,073	-200,000	0,024	-0,099
-373,058	800,000	0,029	0,084
-372,044	172,081	-0,083	0,088
-371,029	342,980	0,013	-0,019
-370,015	-70,867	-0,042	0,012
-369,000	6,081	-0,069	-0,037
-367,985	-200,000	-0,049	-0,190
-366,971	21,889	-0,057	-0,034
-365,956	800,000	-0,014	0,032
-364,942	58,202	0,106	0,076
-363,927	-5,467	0,052	-0,026
-362,912	-37,753	-0,103	-0,040
-361,898	-151,002	0,121	-0,007
-360,883	-29,944	-0,082	-0,034
-359,869	448,852	-0,045	0,074
-358,854	75,159	0,052	0,040
-357,839	87,386	-0,038	-0,031
-356,825	34,869	0,052	0,034
-355,810	-200,000	-0,008	-0,073
-354,796	352,188	-0,083	-0,121
-353,781	800,000	-0,011	0,025
-352,766	-200,000	-0,017	0,094
-351,752	-200,000	0,011	-0,078
-350,737	-200,000	-0,003	0,095
-349,723	788,436	-0,005	-0,011
-348,708	258,019	-0,041	-0,052
-347,693	-200,000	-0,008	0,049
-346,679	-200,000	0,002	0,025
-345,664	258,588	0,067	-0,084
-344,650	57,748	-0,045	0,032
-343,635	0,699	0,059	0,031
-342,620	105,915	-0,101	0,087
-341,606	44,817	-0,057	0,038
-340,591	61,250	0,094	-0,068
-339,577	-41,946	-0,012	-0,004
-338,562	-200,000	-0,011	-0,084
-337,548	116,116	-0,067	-0,060
-336,533	84,422	0,091	0,073
-335,518	559,069	0,010	-0,018
-334,504	-200,000	0,007	-0,037
-333,489	274,430	-0,035	0,045
-332,475	-95,701	-0,120	0,023
-331,460	-200,000	0,016	-0,052
-330,445	-163,713	-0,079	-0,003
-329,431	28,665	0,136	0,084
-328,416	-187,490	0,135	-0,001
-327,402	-200,000	-0,003	0,104
-326,387	-124,855	-0,151	-0,017
-325,372	15,039	-0,043	-0,025
-324,358	-200,000	-0,006	-0,094
-323,343	246,454	0,032	-0,039
-322,329	-39,804	0,145	0,055
-321,314	-50,908	0,050	0,017
-320,299	257,182	-0,070	0,088
-319,285	-55,823	0,096	0,031
-318,270	-200,000	0,007	-0,179
-317,256	-72,867	0,065	0,018
-316,241	-43,545	-0,041	0,015
-315,226	487,264	0,048	0,081
-314,212	-111,850	-0,055	0,008
-313,197	800,000	-0,031	0,090
-312,183	800,000	-0,009	0,025
-311,168	-200,000	-0,017	-0,074
-310,153	221,659	-0,095	-0,112
-309,139	-93,283	-0,008	0,002
-308,124	-26,958	0,097	0,041
-307,110	-200,000	0,021	-0,071
-306,095	140,796	-0,098	-0,094
-305,080	-140,987	-0,106	-0,008
-304,066	15,177	-0,101	-0,058
-303,051	24,938	-0,213	-0,129
-302,037	800,000	0,009	-0,027
-301,022	-123,634	0,058	-0,007
-300,008	-200,000	0,000	0,066
-298,993	-200,000	0,021	0,084
-297,978	-200,000	0,013	0,052
-296,964	628,415	-0,082	0,152
-295,949	-200,000	-0,019	0,088
-294,935	-200,000	-0,042	-0,143
-293,920	-165,455	0,145	0,005
-292,905	-200,000	-0,032	0,126
-291,891	-200,000	-0,004	0,051
-290,876	618,076	-0,028	0,052
-289,862	-200,000	0,011	0,126
-288,847	492,074	0,085	-0,143
-287,832	-200,000	0,023	0,143
-286,818	-71,257	-0,063	0,017
-285,803	233,220	0,064	-0,077
-284,789	-67,434	0,022	0,006
-283,774	-200,000	0,031	0,225
-282,759	771,636	0,087	0,174
-281,745	-9,844	-0,150	0,073
-280,730	-141,056	-0,110	-0,008
-279,716	800,000	-0,021	-0,051
-278,701	-120,604	0,066	-0,008
-277,686	122,828	0,143	0,131
-276,672	-161,297	0,040	-0,002
-275,657	-60,375	-0,060	-0,019
-274,643	-200,000	0,012	0,060
-273,628	222,292	-0,048	-0,056
-272,613	-200,000	0,014	-0,077
-271,599	800,000	0,020	-0,041
-270,584	-122,253	0,114	-0,013
-269,570	-21,804	-0,119	-0,053
-268,555	-78,928	0,130	0,032
-267,540	290,107	0,041	-0,054
-266,526	-43,314	-0,115	-0,042
-265,511	191,769	-0,041	-0,045
-264,497	-38,548	0,082	0,032
-263,482	718,777	-0,010	-0,019
-262,467	-200,000	0,082	0,319
-261,453	-28,825	-0,058	-0,024
-260,438	455,842	-0,062	-0,100
-259,424	-200,000	-0,014	0,061
-258,409	-200,000	0,011	-0,046
-257,395	-144,921	0,031	0,002
-256,380	91,881	0,071	0,058
-255,365	-62,755	0,180	0,054
-254,351	-200,000	-0,016	0,116
-253,336	573,999	-0,108	0,193
-252,322	800,000	0,009	0,019
-251,307	-200,000	0,023	0,193
-250,292	58,313	0,067	0,048
-249,278	-200,000	0,012	0,079
-248,263	-6,788	0,014	-0,007
-247,249	-200,000	0,000	0,016
-246,234	-200,000	0,015	0,066
-245,219	-200,000	-0,019	-0,084
-244,205	800,000	-0,021	-0,065
-243,190	-200,000	0,000	-0,041
-242,176	31,475	0,157	0,098
-241,161	-200,000	-0,024	0,102
-240,146	82,963	-0,096	0,076
-239,132	18,162	0,074	0,043
-238,117	52,246	-0,109	-0,076
-237,103	-200,000	-0,008	-0,050
-236,088	-65,565	0,092	0,027
-235,073	-6,825	-0,137	0,068
-234,059	-144,503	0,101	0,007
-233,044	79,456	0,132	0,103
-232,030	436,051	0,041	-0,065
-231,015	-200,000	0,002	-0,202
-230,000	-200,000	0,022	-0,168
-228,986	-101,698	-0,173	0,030
-227,971	64,505	-0,090	0,066
-226,957	800,000	-0,011	0,035
-225,942	476,354	-0,093	0,155
-224,927	-200,000	0,007	-0,132
-223,913	120,450	0,140	-0,126
-222,898	525,661	-0,065	-0,112
-221,884	-82,988	0,077	0,018
-220,869	254,423	-0,045	-0,056
-219,855	45,124	0,040	0,027
-218,840	169,451	-0,037	-0,039
-217,825	-200,000	-0,002	-0,045
-216,811	-200,000	0,034	0,120
-215,796	-123,291	0,073	0,008
-214,782	-200,000	0,010	-0,106
-213,767	81,279	-0,113	-0,089
-212,752	23,035	0,070	-0,042
-211,738	-200,000	0,004	0,067
-210,723	97,912	0,066	-0,055
-209,709	-200,000	0,059	-0,211
-208,694	-156,857	-0,121	0,005
-207,679	-200,000	-0,010	-0,063
-206,665	-116,328	-0,097	0,013
-205,650	800,000	-0,018	-0,049
-204,636	-200,000	0,002	0,166
-203,621	800,000	-0,027	0,067
-202,606	-52,966	0,146	0,049
-201,592	160,135	-0,059	0,060
-200,577	800,000	-0,043	0,095
-199,563	-87,170	-0,055	-0,012
-198,548	219,704	0,065	-0,076
-197,533	-200,000	-0,017	-0,056
-196,519	-2,470	-0,104	0,053
-195,504	-200,000	0,032	-0,107
-194,490	-37,059	-0,052	-0,020
-193,475	-200,000	-0,007	-0,039
-192,460	45,152	0,063	0,042
-191,446	-200,000	-0,001	-0,074
-190,431	-200,000	-0,017	0,066
-189,417	102,924	0,098	0,084
-188,402	800,000	0,053	-0,111
-187,387	800,000	0,069	-0,216
-186,373	781,060	-0,026	0,051
-185,358	-200,000	-0,018	-0,071
-184,344	-81,787	0,068	-0,016
-183,329	-60,728	-0,039	0,012
-182,315	259,714	-0,023	-0,029
-181,300	-108,038	-0,227	0,036
-180,285	-63,404	-0,058	-0,017
-179,271	-74,324	0,085	0,022
-178,256	-50,149	-0,080	0,028
-177,242	-27,332	0,028	-0,012
-176,227	800,000	0,065	0,139
-175,212	-200,000	0,006	0,125
-174,198	6,153	-0,069	-0,037
-173,183	-62,918	-0,086	-0,026
-172,169	448,803	-0,077	0,125
-171,154	-200,000	-0,006	0,094
-170,139	-200,000	0,021	0,136
-169,125	-177,731	0,019	0,000
-168,110	365,664	0,028	-0,041
-167,096	-36,595	0,173	-0,067
-166,081	-130,447	-0,103	-0,010
-165,066	800,000	0,008	-0,020
-164,052	48,944	0,143	-0,098
-163,037	-200,000	0,002	-0,074
-162,023	800,000	0,052	0,124
-161,008	-200,000	0,030	0,158
-159,993	251,492	0,037	-0,046
-158,979	-110,017	-0,090	0,014
-157,964	800,000	-0,041	0,102
-156,950	-75,223	-0,084	-0,022
-155,935	232,695	0,075	-0,090
-154,920	-200,000	0,041	0,146
-153,906	341,106	0,105	0,150
-152,891	-61,847	0,132	0,040
-151,877	38,057	0,012	-0,008
-150,862	788,605	-0,077	-0,154
-149,847	-22,348	0,117	0,051
-148,833	-200,000	-0,010	0,109
-147,818	-36,052	0,091	0,035
-146,804	583,121	-0,020	0,035
-145,789	-200,000	-0,050	0,237
-144,775	202,959	-0,134	0,151
-143,760	550,019	-0,034	-0,059
-142,745	64,633	0,067	-0,049
-141,731	-6,894	-0,014	0,007
-140,716	24,963	-0,035	0,021
-139,702	-200,000	-0,010	-0,090
-138,687	96,974	-0,052	-0,044
-137,672	84,903	-0,094	0,075
-136,658	800,000	0,067	-0,148
-135,643	303,353	0,064	-0,086
-134,629	-43,709	-0,057	-0,021
-133,614	44,380	0,039	0,026
-132,599	278,142	0,074	0,096
-131,585	25,317	0,071	-0,043
-130,570	-99,431	-0,093	-0,017
-129,556	84,014	-0,030	-0,024
-128,541	800,000	-0,056	-0,155
-127,526	49,572	-0,029	-0,020
-126,512	-200,000	-0,002	-0,069
-125,497	279,781	0,033	-0,043
-124,483	20,816	-0,097	0,057
-123,468	-200,000	0,005	0,130
-122,453	-126,149	-0,082	-0,009
-121,439	-20,945	-0,112	-0,050
-120,424	-17,377	0,097	0,044
