DTS Sentinel unit serial number:	SN410029Multiplexer serial number:	ORYXHardware model number:	OX2-SRSoftware version number:	ORYX F/W v4,00 Oryx Data Collector v3.7.2.0data status	okinstallation	B4 Nyhavnadifferential loss correction	single-endedforward channel	channel 2reverse channel	N/Adate	2023/12/19time	11:10:14forward acquisition time	300,00reverse acquisition time	0,00gamma	499,1914k internal	0,3128k external	0,3128temperature offset calibration	1,0000default loss term (dB/km)	0,3820temperature slope calibration	1,0000multiplexer offset coefficient	1,0000multiplexer slope coefficient	1,0000fibre end	0,00T internal ref (°C)	19,87T ext. ref 1 (°C)	4,61T ext. ref 2 (°C)	4,57length (m)	temperature (°C)	Stokes	anti-Stokes-744,400	-200,000	-0,015	-0,133
-743,385	12,357	-0,200	0,114
-742,371	221,061	0,070	0,083
-741,356	232,808	-0,156	0,191
-740,342	7,575	0,137	-0,076
-739,327	-67,936	-0,328	0,095
-738,312	401,250	0,056	-0,088
-737,298	-47,982	-0,141	0,050
-736,283	-76,709	-0,077	0,020
-735,269	-69,862	-0,304	0,086
-734,254	51,909	0,002	0,001
-733,239	-44,305	-0,363	-0,135
-732,225	-98,205	0,120	0,023
-731,210	554,603	-0,026	0,047
-730,196	-75,781	0,091	0,024
-729,181	-81,565	0,060	-0,014
-728,167	-200,000	0,017	-0,092
-727,152	-132,938	-0,059	0,005
-726,137	-13,399	-0,044	0,021
-725,123	492,815	-0,079	0,135
-724,108	-99,067	-0,102	0,019
-723,094	-200,000	0,012	-0,060
-722,079	-152,686	0,079	-0,004
-721,064	-29,500	-0,040	0,017
-720,050	-92,274	-0,121	-0,025
-719,035	18,873	-0,078	-0,047
-718,021	-145,701	-0,096	-0,006
-717,006	-132,198	-0,181	-0,017
-715,991	125,670	-0,110	-0,103
-714,977	-200,000	0,005	0,071
-713,962	256,609	-0,099	-0,127
-712,948	-164,470	0,085	-0,003
-711,933	135,756	-0,007	-0,007
-710,918	167,317	0,010	-0,011
-709,904	-200,000	-0,017	-0,110
-708,889	29,599	-0,168	-0,106
-707,875	-41,258	-0,113	-0,043
-706,860	800,000	-0,059	-0,139
-705,845	433,128	0,069	-0,112
-704,831	800,000	0,016	-0,035
-703,816	-19,028	-0,103	-0,048
-702,802	265,251	0,099	-0,129
-701,787	-200,000	0,013	-0,124
-700,772	-200,000	0,010	0,103
-699,758	53,146	-0,084	-0,059
-698,743	800,000	0,034	-0,088
-697,729	-45,159	0,158	-0,058
-696,714	-94,654	-0,115	-0,023
-695,699	421,172	-0,054	0,087
-694,685	135,559	-0,051	0,049
-693,670	389,919	-0,089	-0,137
-692,656	-200,000	0,001	-0,011
-691,641	86,591	-0,005	0,004
-690,627	619,624	-0,013	0,024
-689,612	206,774	-0,017	-0,020
-688,597	-148,166	-0,073	0,004
-687,583	-110,978	-0,019	0,003
-686,568	-200,000	-0,049	-0,182
-685,554	1,100	-0,097	0,052
-684,539	136,010	0,096	-0,093
-683,524	-43,600	0,030	-0,011
-682,510	-57,930	0,035	0,011
-681,495	615,430	-0,037	-0,070
-680,481	80,289	-0,095	-0,075
-679,466	-200,000	-0,006	-0,057
-678,451	-200,000	0,014	-0,075
-677,437	-200,000	-0,018	-0,102
-676,422	-162,962	-0,082	0,003
-675,408	-200,000	-0,032	-0,185
-674,393	11,725	0,092	0,052
-673,378	-118,972	-0,112	0,014
-672,364	-200,000	-0,006	-0,117
-671,349	-56,926	0,104	0,034
-670,335	256,359	0,056	-0,071
-669,320	253,461	-0,010	0,012
-668,305	184,118	-0,064	0,071
-667,291	-200,000	0,007	-0,077
-666,276	-200,000	-0,016	-0,113
-665,262	228,920	-0,105	-0,127
-664,247	800,000	-0,057	-0,137
-663,232	-28,349	0,174	0,074
-662,218	800,000	0,019	-0,051
-661,203	190,874	0,009	-0,010
-660,189	-200,000	0,003	-0,056
-659,174	-200,000	-0,016	0,081
-658,159	-137,644	-0,110	-0,009
-657,145	-200,000	0,042	-0,161
-656,130	61,690	-0,200	-0,148
-655,116	-200,000	0,001	-0,134
-654,101	-200,000	0,014	-0,086
-653,086	697,630	0,031	0,061
-652,072	115,797	-0,056	-0,051
-651,057	800,000	0,029	-0,069
-650,043	443,639	-0,042	-0,069
-649,028	-100,571	0,112	-0,020
-648,014	-200,000	0,029	0,122
-646,999	-63,549	0,116	0,035
-645,984	-147,241	-0,134	0,008
-644,970	-109,744	-0,141	-0,022
-643,955	-200,000	-0,195	-0,000
-642,941	-156,872	-0,002	0,000
-641,926	-200,000	-0,018	0,070
-640,911	-200,000	-0,039	0,135
-639,897	626,553	-0,046	0,086
-638,882	-200,000	-0,009	-0,182
-637,868	435,960	0,011	-0,018
-636,853	76,151	-0,020	0,016
-635,838	96,621	-0,112	-0,095
-634,824	54,293	0,092	-0,065
-633,809	93,980	0,117	0,099
-632,795	433,759	0,041	-0,067
-631,780	8,967	-0,091	0,051
-630,765	195,514	-0,041	-0,047
-629,751	-127,939	-0,171	0,018
-628,736	-4,704	-0,022	-0,011
-627,722	800,000	-0,014	0,046
-626,707	-98,234	-0,129	0,024
-625,692	-200,000	0,008	0,183
-624,678	-154,186	0,046	0,002
-623,663	324,769	0,080	0,114
-622,649	-118,313	-0,154	0,020
-621,634	-19,124	0,078	-0,036
-620,619	197,398	0,063	-0,071
-619,605	-48,037	0,007	-0,003
-618,590	-200,000	-0,004	-0,088
-617,576	171,285	-0,111	0,118
-616,561	800,000	-0,069	-0,158
-615,546	275,445	-0,027	0,036
-614,532	-200,000	-0,017	-0,157
-613,517	800,000	-0,070	-0,153
-612,503	145,807	-0,048	0,047
-611,488	800,000	0,079	0,176
-610,474	-200,000	0,022	0,074
-609,459	800,000	0,056	0,119
-608,444	800,000	-0,009	0,021
-607,430	-200,000	-0,003	-0,089
-606,415	-200,000	0,008	-0,044
-605,401	-161,915	-0,017	0,001
-604,386	54,747	0,076	-0,054
-603,371	-200,000	0,045	0,163
-602,357	-56,783	-0,014	-0,005
-601,342	528,503	0,002	-0,003
-600,328	165,867	-0,109	-0,115
-599,313	-200,000	-0,011	-0,101
-598,298	612,983	-0,019	0,036
-597,284	17,733	-0,107	-0,063
-596,269	773,554	-0,069	0,140
-595,255	800,000	-0,028	0,087
-594,240	622,698	-0,069	-0,129
-593,225	-83,983	-0,114	-0,027
-592,211	800,000	-0,022	0,049
-591,196	-74,001	-0,048	0,013
-590,182	201,678	0,054	0,062
-589,167	317,711	-0,029	0,040
-588,152	-69,972	-0,136	0,038
-587,138	-200,000	-0,006	-0,070
-586,123	265,390	-0,059	-0,076
-585,109	-43,083	0,112	0,042
-584,094	159,008	-0,026	-0,027
-583,079	-200,000	0,007	-0,143
-582,065	273,877	-0,052	-0,069
-581,050	-56,040	0,088	0,029
-580,036	-200,000	-0,023	-0,085
-579,021	800,000	-0,017	0,052
-578,006	-200,000	-0,015	-0,070
-576,992	45,355	0,031	0,021
-575,977	-92,585	0,038	0,008
-574,963	-50,852	-0,034	-0,012
-573,948	-97,747	0,040	-0,008
-572,934	35,864	0,018	-0,012
-571,919	194,587	-0,105	-0,117
-570,904	64,066	-0,106	-0,079
-569,890	35,776	-0,076	-0,049
-568,875	-19,718	0,034	-0,016
-567,861	-67,772	0,123	-0,035
-566,846	-200,000	-0,010	0,081
-565,831	375,570	0,027	0,041
-564,817	298,339	-0,101	-0,138
-563,802	-58,146	-0,115	-0,037
-562,788	-61,958	0,188	-0,058
-561,773	231,180	0,004	0,004
-560,758	-157,917	0,103	0,004
-559,744	-141,413	0,031	0,002
-558,729	-74,946	-0,163	-0,043
-557,715	109,072	0,072	0,063
-556,700	-200,000	-0,022	-0,091
-555,685	-200,000	-0,010	-0,103
-554,671	256,782	-0,026	-0,033
-553,656	790,167	-0,027	-0,055
-552,642	800,000	0,042	-0,109
-551,627	-56,557	0,096	0,031
-550,612	22,647	0,032	0,019
-549,598	740,391	-0,032	-0,065
-548,583	-87,227	0,055	-0,012
-547,569	175,242	-0,056	0,060
-546,554	82,260	-0,057	-0,046
-545,539	800,000	0,017	0,055
-544,525	-141,592	0,137	-0,010
-543,510	612,840	-0,064	-0,119
-542,496	-99,998	-0,126	-0,023
-541,481	-143,642	-0,028	0,002
-540,466	-4,023	0,060	0,030
-539,452	-4,871	0,060	0,031
-538,437	800,000	-0,069	0,163
-537,423	137,412	-0,116	-0,112
-536,408	-200,000	-0,007	-0,052
-535,393	-114,360	0,046	0,006
-534,379	-200,000	0,003	0,032
-533,364	-79,225	0,020	-0,005
-532,350	232,689	0,077	0,093
-531,335	-102,031	0,121	-0,021
-530,321	122,610	0,009	0,009
-529,306	800,000	-0,062	0,170
-528,291	359,465	-0,059	0,088
-527,277	21,288	-0,078	0,047
-526,262	41,863	0,026	-0,017
-525,248	49,684	-0,028	0,019
-524,233	535,026	0,076	0,133
-523,218	493,342	-0,072	-0,123
-522,204	800,000	0,023	0,073
-521,189	590,341	-0,087	-0,159
-520,175	-132,269	-0,138	-0,013
-519,160	800,000	-0,054	0,113
-518,145	198,734	0,032	-0,036
-517,131	68,004	0,106	0,080
-516,116	-200,000	0,012	-0,123
-515,102	-200,000	-0,012	-0,076
-514,087	192,090	0,036	0,040
-513,072	-200,000	0,014	0,064
-512,058	-74,609	-0,185	-0,049
-511,043	-139,864	0,086	0,007
-510,029	-126,074	0,089	0,010
-509,014	-200,000	0,016	0,068
-507,999	322,928	-0,045	0,063
-506,985	-81,342	-0,117	0,028
-505,970	40,215	-0,008	0,005
-504,956	-30,283	-0,024	-0,010
-503,941	-189,860	-0,066	0,001
-502,926	66,234	0,091	0,068
-501,912	604,147	0,085	-0,157
-500,897	-166,978	0,128	0,004
-499,883	-98,066	0,015	-0,003
-498,868	-46,711	-0,085	0,031
-497,853	-200,000	0,007	-0,057
-496,839	800,000	-0,029	0,083
-495,824	36,537	0,174	0,113
-494,810	78,363	0,037	-0,029
-493,795	96,947	0,098	-0,083
-492,781	-127,516	0,155	0,016
-491,766	264,276	0,055	0,071
-490,751	-107,856	-0,108	-0,017
-489,737	-200,000	-0,011	-0,121
-488,722	-35,422	0,047	-0,019
-487,708	-122,562	0,116	0,014
-486,693	560,874	0,060	-0,107
-485,678	237,574	0,076	-0,093
-484,664	800,000	-0,027	-0,059
-483,649	-200,000	-0,024	-0,105
-482,635	58,919	-0,025	0,018
-481,620	800,000	-0,028	0,091
-480,605	-200,000	0,007	-0,065
-479,591	-36,567	0,033	0,013
-478,576	34,834	0,055	0,035
-477,562	-70,340	-0,074	0,021
-476,547	41,318	-0,063	0,042
-475,532	88,106	0,020	0,016
-474,518	800,000	-0,041	-0,129
-473,503	664,245	-0,012	0,023
-472,489	385,514	0,065	0,099
-471,474	-200,000	0,011	-0,108
-470,459	123,214	-0,126	0,116
-469,445	800,000	0,012	0,033
-468,430	205,879	0,035	0,040
-467,416	39,694	0,107	-0,071
-466,401	-123,777	0,083	-0,009
-465,386	-1,885	0,074	0,038
-464,372	434,538	-0,007	-0,011
-463,357	251,334	-0,068	0,085
-462,343	-11,408	-0,085	-0,041
-461,328	-200,000	0,005	0,020
-460,313	30,561	-0,064	0,040
-459,299	478,842	0,057	0,096
-458,284	231,554	0,039	-0,047
-457,270	254,761	0,098	-0,124
-456,255	-51,764	0,033	-0,011
-455,241	-21,896	-0,086	0,038
-454,226	-200,000	-0,039	-0,230
-453,211	-69,247	0,076	0,021
-452,197	-200,000	0,027	0,176
-451,182	278,649	0,064	0,084
-450,168	-200,000	-0,001	0,156
-449,153	-16,886	-0,091	-0,042
-448,138	20,896	0,055	0,033
-447,124	500,314	-0,063	-0,107
-446,109	-200,000	-0,000	-0,121
-445,095	79,018	-0,049	0,039
-444,080	-200,000	0,013	-0,121
-443,065	-16,417	0,079	-0,037
-442,051	-12,460	0,139	-0,067
-441,036	-135,206	-0,056	-0,005
-440,022	-18,092	0,022	-0,010
-439,007	-200,000	0,010	0,150
-437,992	-164,634	0,063	0,002
-436,978	-74,746	-0,109	-0,029
-435,963	-84,007	0,048	-0,011
-434,949	13,605	0,078	-0,044
-433,934	800,000	0,057	-0,163
-432,919	-200,000	-0,014	-0,218
-431,905	-100,675	0,132	0,024
-430,890	-200,000	0,000	-0,032
-429,876	-138,531	0,008	-0,001
-428,861	-166,229	0,114	-0,003
-427,846	18,703	-0,026	0,015
-426,832	401,944	0,009	-0,014
-425,817	-41,327	0,093	-0,035
-424,803	84,081	0,060	-0,048
-423,788	-200,000	-0,010	0,104
-422,773	18,630	-0,064	-0,038
-421,759	-200,000	0,005	-0,063
-420,744	3,637	-0,050	-0,026
-419,730	800,000	0,042	-0,124
-418,715	275,270	0,062	-0,081
-417,701	800,000	-0,006	-0,018
-416,686	63,791	-0,031	0,023
-415,671	150,254	0,057	-0,057
-414,657	584,745	0,028	0,052
-413,642	-200,000	-0,022	0,105
-412,628	-200,000	-0,010	0,107
-411,613	-128,144	0,085	-0,009
-410,598	268,761	-0,065	-0,084
-409,584	178,214	0,048	-0,052
-408,569	-200,000	0,001	0,045
-407,555	589,178	0,113	0,205
-406,540	52,380	0,104	0,072
-405,525	160,773	0,041	0,042
-404,511	665,583	-0,042	0,081
-403,496	-200,000	0,006	-0,183
-402,482	-63,994	-0,099	0,029
-401,467	-74,231	0,093	0,025
-400,452	459,485	0,025	0,041
-399,438	21,288	-0,061	0,037
-398,423	18,401	-0,038	-0,022
-397,409	-200,000	-0,028	-0,091
-396,394	-75,057	0,015	0,004
-395,379	52,636	0,052	0,037
-394,365	328,097	0,012	0,017
-393,350	35,621	0,077	0,049
-392,336	-33,895	-0,088	0,036
-391,321	-69,814	0,101	-0,028
-390,306	-57,442	-0,010	0,003
-389,292	146,453	-0,048	0,047
-388,277	-53,130	-0,146	-0,049
-387,263	-196,150	-0,021	-0,000
-386,248	196,785	-0,021	-0,024
-385,233	142,006	0,025	0,024
-384,219	113,849	-0,066	0,059
-383,204	-65,347	-0,077	-0,022
-382,190	253,331	-0,098	-0,123
-381,175	324,329	0,038	0,053
-380,160	-200,000	0,004	0,080
-379,146	-75,877	0,149	0,038
-378,131	758,711	-0,032	-0,063
-377,117	-200,000	0,014	-0,064
-376,102	-107,632	0,116	-0,018
-375,088	160,160	0,173	-0,177
-374,073	800,000	-0,025	0,068
-373,058	800,000	0,018	0,041
-372,044	-200,000	-0,010	0,060
-371,029	-87,831	-0,107	-0,024
-370,015	762,458	-0,050	0,101
-369,000	-136,206	0,117	0,010
-367,985	-200,000	0,008	-0,070
-366,971	22,119	0,032	-0,019
-365,956	-72,174	0,197	0,053
-364,942	-200,000	0,004	0,066
-363,927	-46,027	0,068	0,024
-362,912	-200,000	-0,032	0,134
-361,898	-100,608	0,151	-0,027
-360,883	-200,000	0,004	-0,144
-359,869	800,000	0,027	-0,074
-358,854	335,619	0,046	0,065
-357,839	286,516	-0,061	0,081
-356,825	-200,000	-0,007	0,063
-355,810	800,000	0,055	0,125
-354,796	-200,000	0,020	0,092
-353,781	-40,739	-0,091	0,034
-352,766	-96,962	0,081	0,015
-351,752	13,610	-0,156	-0,089
-350,737	-119,512	-0,050	0,006
-349,723	24,738	0,090	0,055
-348,708	-200,000	0,008	0,063
-347,693	-93,023	0,130	0,026
-346,679	-145,483	-0,097	-0,006
-345,664	209,707	0,085	-0,098
-344,650	-54,501	-0,095	0,031
-343,635	-12,762	0,097	-0,046
-342,620	-200,000	-0,006	0,247
-341,606	-166,106	-0,085	-0,003
-340,591	664,875	0,041	-0,078
-339,577	-59,893	-0,122	-0,038
-338,562	91,162	0,074	-0,061
-337,548	48,568	-0,096	0,066
-336,533	515,583	0,044	0,076
-335,518	-200,000	-0,012	0,062
-334,504	-200,000	0,008	0,041
-333,489	-88,570	0,096	0,021
-332,475	86,533	-0,054	0,043
-331,460	263,881	-0,050	-0,064
-330,445	168,354	0,123	0,128
-329,431	-139,529	0,129	-0,010
-328,416	487,128	0,031	-0,052
-327,402	-40,145	-0,155	0,059
-326,387	56,344	0,056	0,040
-325,372	685,746	0,066	0,127
-324,358	603,279	0,017	0,031
-323,343	-6,430	0,037	0,018
-322,329	360,799	-0,093	-0,137
-321,314	-200,000	-0,023	0,180
-320,299	800,000	0,041	0,087
-319,285	154,672	0,008	-0,008
-318,270	366,485	0,086	0,127
-317,256	-200,000	0,026	0,101
-316,241	800,000	0,019	-0,052
-315,226	37,556	0,010	-0,006
-314,212	294,081	0,090	-0,121
-313,197	-43,373	-0,029	-0,011
-312,183	-56,733	0,015	0,005
-311,168	-93,147	0,067	-0,014
-310,153	-65,062	-0,159	-0,047
-309,139	16,970	-0,174	-0,100
-308,124	800,000	0,022	-0,048
-307,110	800,000	-0,013	-0,026
-306,095	563,736	-0,091	0,162
-305,080	667,258	-0,034	0,066
-304,066	-33,444	-0,032	-0,013
-303,051	-200,000	0,018	0,088
-302,037	549,054	-0,023	-0,041
-301,022	-200,000	-0,016	-0,167
-300,008	-73,593	0,070	0,018
-298,993	-145,386	0,068	0,004
-297,978	140,507	-0,035	0,034
-296,964	775,884	-0,083	-0,166
-295,949	800,000	-0,022	0,065
-294,935	-200,000	-0,013	-0,092
-293,920	-47,376	-0,037	-0,013
-292,905	-14,654	0,009	-0,004
-291,891	-200,000	-0,046	0,153
-290,876	8,181	0,096	0,052
-289,862	-200,000	-0,001	0,006
-288,847	554,791	0,017	0,030
-287,832	800,000	0,015	0,047
-286,818	800,000	-0,077	-0,208
-285,803	81,437	-0,099	-0,078
-284,789	-80,202	0,113	0,027
-283,774	-114,710	-0,051	-0,007
-282,759	-124,601	0,160	0,018
-281,745	800,000	-0,015	0,034
-280,730	800,000	0,012	0,036
-279,716	360,767	-0,014	0,020
-278,701	656,557	0,090	0,169
-277,686	800,000	-0,036	0,078
-276,672	80,024	0,180	0,142
-275,657	800,000	0,059	0,127
-274,643	25,896	-0,161	-0,098
-273,628	-200,000	0,003	-0,039
-272,613	-86,363	-0,085	-0,019
-271,599	-200,000	0,027	-0,112
-270,584	140,775	0,056	-0,054
-269,570	282,656	-0,043	-0,057
-268,555	25,061	-0,035	-0,021
-267,540	637,504	-0,012	-0,022
-266,526	221,380	-0,042	0,049
-265,511	-104,807	0,099	-0,016
-264,497	-200,000	0,006	-0,094
-263,482	-200,000	0,030	0,111
-262,467	282,677	-0,036	-0,047
-261,453	800,000	0,044	-0,120
-260,438	-52,598	-0,048	-0,016
-259,424	625,867	-0,004	0,008
-258,409	92,290	0,089	-0,073
-257,395	-200,000	-0,025	0,107
-256,380	-156,550	0,153	-0,007
-255,365	197,833	0,043	0,048
-254,351	-200,000	0,002	0,016
-253,336	110,712	-0,068	-0,060
-252,322	245,572	0,030	0,036
-251,307	-200,000	-0,001	0,142
-250,292	421,583	0,021	-0,034
-249,278	-40,461	0,064	-0,024
-248,263	6,951	-0,065	-0,035
-247,249	152,476	0,090	0,090
-246,234	800,000	-0,027	-0,064
-245,219	-27,540	0,159	0,067
-244,205	759,680	-0,042	-0,084
-243,190	-20,230	-0,053	-0,024
-242,176	800,000	0,033	-0,070
-241,161	141,057	0,075	0,073
-240,146	-37,873	-0,107	-0,041
-239,132	114,001	0,016	0,014
-238,117	-200,000	0,042	-0,175
-237,103	-200,000	-0,012	-0,050
-236,088	226,468	0,105	-0,124
-235,073	-56,858	-0,067	-0,022
-234,059	800,000	0,036	0,110
-233,044	-123,784	0,156	-0,018
-232,030	-135,776	0,062	-0,005
-231,015	208,810	-0,096	-0,109
-230,000	467,703	-0,101	-0,166
-228,986	-51,593	0,078	0,026
-227,971	72,440	-0,048	0,037
-226,957	-200,000	0,017	-0,110
-225,942	-55,097	0,090	-0,029
-224,927	-200,000	-0,070	-0,240
-223,913	349,917	0,105	-0,152
-222,898	-141,937	-0,167	0,012
-221,884	593,652	0,048	-0,087
-220,869	-12,544	-0,027	0,013
-219,855	310,255	-0,011	-0,015
-218,840	800,000	0,046	0,145
-217,825	472,921	-0,025	0,042
-216,811	-200,000	-0,002	-0,021
-215,796	-63,560	0,200	0,060
-214,782	-82,279	-0,087	0,021
-213,767	-63,862	0,061	0,018
-212,752	641,047	0,041	0,077
-211,738	-200,000	0,004	0,095
-210,723	-98,546	-0,090	-0,017
-209,709	800,000	0,024	0,054
-208,694	39,802	-0,108	-0,071
-207,679	800,000	-0,009	0,023
-206,665	614,029	0,019	0,036
-205,650	-58,918	-0,069	0,021
-204,636	-165,440	0,121	0,004
-203,621	731,709	-0,010	0,020
-202,606	418,723	-0,031	-0,049
-201,592	574,186	-0,074	-0,132
-200,577	559,065	-0,073	-0,130
-199,563	-34,659	-0,102	-0,040
-198,548	113,696	-0,062	0,055
-197,533	78,724	-0,072	0,056
-196,519	128,741	-0,182	0,170
-195,504	97,845	-0,068	0,057
-194,490	41,891	0,067	-0,044
-193,475	152,054	0,048	-0,048
-192,460	612,624	-0,084	0,153
-191,446	-57,353	-0,043	-0,014
-190,431	-200,000	-0,025	0,129
-189,417	89,731	-0,141	0,115
-188,402	-159,372	-0,081	0,003
-187,387	323,434	0,093	-0,130
-186,373	-63,134	-0,098	-0,029
-185,358	-200,000	-0,022	0,148
-184,344	-168,272	0,106	-0,003
-183,329	407,740	-0,037	0,057
-182,315	-22,196	0,098	-0,043
-181,300	-200,000	0,007	-0,025
-180,285	-3,918	0,017	0,008
-179,271	552,350	0,021	0,037
-178,256	73,135	-0,110	-0,084
-177,242	-104,653	0,110	-0,018
-176,227	39,326	0,076	0,049
-175,212	-200,000	-0,027	0,098
-174,198	-148,709	-0,178	-0,010
-173,183	-129,990	0,092	0,009
-172,169	-200,000	0,003	-0,037
-171,154	-128,111	-0,143	0,015
-170,139	-51,360	0,097	-0,033
-169,125	37,457	-0,023	-0,015
-168,110	-200,000	-0,017	0,123
-167,096	268,701	0,045	-0,058
-166,081	-45,180	-0,071	-0,025
-165,066	274,450	-0,057	0,074
-164,052	269,294	-0,035	0,045
-163,037	52,601	-0,055	0,038
-162,023	-200,000	-0,004	0,042
-161,008	-200,000	0,015	-0,083
-159,993	-200,000	0,010	0,034
-158,979	-200,000	0,010	-0,059
-157,964	-100,334	-0,183	0,033
-156,950	-52,542	0,103	-0,034
-155,935	444,158	-0,017	0,026
-154,920	-142,872	-0,095	0,007
-153,906	18,035	-0,034	0,020
-152,891	-38,980	-0,131	-0,050
-151,877	34,522	0,079	-0,050
-150,862	-24,923	-0,039	-0,017
-149,847	104,432	0,116	-0,100
-148,833	-200,000	0,020	0,104
-147,818	-200,000	0,021	0,139
-146,804	-17,853	0,098	0,044
-145,789	216,787	0,056	0,065
-144,775	154,070	-0,019	-0,019
-143,760	445,635	0,071	0,114
-142,745	142,501	0,024	0,023
-141,731	-151,445	0,124	0,007
-140,716	-16,034	0,270	0,124
-139,702	800,000	0,031	0,092
-138,687	-200,000	-0,002	0,078
-137,672	-200,000	-0,003	0,013
-136,658	800,000	0,019	0,058
-135,643	383,085	0,040	-0,059
-134,629	-200,000	0,029	-0,144
-133,614	-15,997	-0,023	0,011
-132,599	407,720	-0,057	-0,088
-131,585	-30,841	-0,079	-0,032
-130,570	149,092	0,064	0,063
-129,556	-56,909	-0,095	-0,030
-128,541	-183,763	0,026	0,000
-127,526	53,028	0,065	-0,045
-126,512	-43,508	-0,053	-0,019
-125,497	321,961	0,084	0,116
-124,483	233,273	-0,059	0,071
-123,468	490,153	0,024	-0,040
-122,453	141,001	-0,095	-0,091
-121,439	160,101	0,040	-0,040
-120,424	-200,000	-0,025	0,104
-119,410	-200,000	-0,014	0,075
