DTS Sentinel unit serial number:	SN410029Multiplexer serial number:	ORYXHardware model number:	OX2-SRSoftware version number:	ORYX F/W v4,00 Oryx Data Collector v3.7.2.0data status	okinstallation	B4 Nyhavnadifferential loss correction	single-endedforward channel	channel 2reverse channel	N/Adate	2023/12/19time	10:05:13forward acquisition time	300,00reverse acquisition time	0,00gamma	499,1914k internal	0,3128k external	0,3128temperature offset calibration	1,0000default loss term (dB/km)	0,3820temperature slope calibration	1,0000multiplexer offset coefficient	1,0000multiplexer slope coefficient	1,0000fibre end	0,00T internal ref (°C)	20,23T ext. ref 1 (°C)	4,99T ext. ref 2 (°C)	4,95length (m)	temperature (°C)	Stokes	anti-Stokes-744,400	-200,000	-0,003	-0,062
-743,385	137,158	-0,159	0,155
-742,371	111,301	0,066	0,059
-741,356	-29,827	-0,159	0,067
-740,342	-123,404	0,030	-0,004
-739,327	800,000	-0,068	0,144
-738,312	-200,000	-0,014	-0,053
-737,298	-10,704	-0,213	0,105
-736,283	34,427	-0,203	-0,131
-735,269	-177,746	-0,148	0,003
-734,254	-200,000	0,018	-0,069
-733,239	-146,730	-0,343	0,022
-732,225	-36,084	0,111	0,044
-731,210	-15,638	0,123	-0,058
-730,196	-200,000	-0,006	0,028
-729,181	-21,700	-0,061	0,027
-728,167	316,693	0,083	0,117
-727,152	-200,000	0,013	-0,103
-726,137	800,000	-0,054	-0,135
-725,123	368,982	-0,105	-0,158
-724,108	156,245	-0,050	0,051
-723,094	800,000	-0,005	-0,011
-722,079	-200,000	-0,018	-0,061
-721,064	16,208	-0,063	-0,037
-720,050	540,849	0,028	-0,050
-719,035	274,844	0,060	-0,080
-718,021	-196,609	-0,140	0,001
-717,006	-200,000	0,015	-0,140
-715,991	-55,667	-0,132	-0,044
-714,977	-63,688	-0,169	0,051
-713,962	800,000	-0,024	-0,065
-712,948	-11,154	0,084	0,041
-711,933	103,967	-0,103	0,090
-710,918	305,263	-0,091	-0,126
-709,904	-120,819	0,024	0,003
-708,889	800,000	0,036	-0,104
-707,875	760,957	-0,009	-0,018
-706,860	-101,683	-0,064	0,011
-705,845	-200,000	-0,014	-0,133
-704,831	-200,000	0,012	-0,077
-703,816	414,398	0,007	0,012
-702,802	800,000	-0,014	-0,032
-701,787	-200,000	0,002	-0,102
-700,772	800,000	0,037	-0,103
-699,758	-59,184	-0,087	-0,028
-698,743	-140,366	0,096	0,007
-697,729	-200,000	-0,001	-0,013
-696,714	-4,063	0,164	0,084
-695,699	13,598	-0,035	0,020
-694,685	-71,490	-0,033	-0,009
-693,670	-49,738	0,060	-0,021
-692,656	-114,123	-0,106	-0,015
-691,641	-126,893	-0,079	0,009
-690,627	800,000	0,016	0,036
-689,612	-40,915	-0,140	0,053
-688,597	502,440	-0,065	0,112
-687,583	-16,721	-0,106	-0,049
-686,568	606,628	0,057	-0,106
-685,554	-10,272	-0,122	-0,060
-684,539	-29,233	-0,044	0,019
-683,524	529,294	0,054	-0,096
-682,510	-200,000	-0,019	-0,139
-681,495	-37,037	0,035	-0,014
-680,481	-120,052	-0,136	-0,017
-679,466	-97,354	0,059	0,011
-678,451	-51,546	-0,032	-0,011
-677,437	-123,185	0,044	-0,005
-676,422	82,863	0,078	0,063
-675,408	800,000	0,018	-0,047
-674,393	-200,000	0,010	0,137
-673,378	-42,403	0,115	0,043
-672,364	800,000	-0,030	-0,090
-671,349	670,580	-0,029	0,055
-670,335	800,000	-0,060	-0,159
-669,320	800,000	-0,021	0,047
-668,305	-200,000	-0,013	0,095
-667,291	800,000	0,052	-0,118
-666,276	-63,112	-0,177	-0,054
-665,262	800,000	-0,036	-0,103
-664,247	-23,328	-0,062	0,027
-663,232	-60,977	-0,100	-0,031
-662,218	-2,988	0,086	0,044
-661,203	-200,000	0,005	-0,147
-660,189	420,255	0,028	0,044
-659,174	15,162	-0,129	-0,075
-658,159	-83,255	0,093	0,022
-657,145	-55,355	-0,140	0,046
-656,130	69,623	-0,029	0,022
-655,116	-12,283	0,134	0,065
-654,101	-17,417	0,033	-0,015
-653,086	-5,609	-0,060	-0,031
-652,072	-200,000	0,008	-0,043
-651,057	54,139	-0,077	-0,055
-650,043	-200,000	-0,011	-0,068
-649,028	-200,000	0,059	0,000
-648,014	-200,000	-0,022	-0,099
-646,999	-57,409	0,088	0,028
-645,984	138,612	-0,078	0,076
-644,970	313,514	-0,081	0,113
-643,955	800,000	0,013	-0,031
-642,941	-77,431	-0,095	0,024
-641,926	-126,801	0,066	0,007
-640,911	-200,000	-0,017	-0,154
-639,897	-99,269	0,087	0,016
-638,882	362,682	0,045	0,068
-637,868	5,606	-0,053	0,029
-636,853	103,902	0,069	0,060
-635,838	-34,431	-0,120	-0,048
-634,824	-80,680	-0,100	-0,024
-633,809	800,000	0,034	0,089
-632,795	32,203	0,032	0,021
-631,780	-200,000	-0,010	-0,032
-630,765	-200,000	-0,039	-0,151
-629,751	-200,000	-0,017	-0,072
-628,736	-200,000	-0,029	-0,123
-627,722	-9,857	-0,030	0,015
-626,707	-200,000	-0,002	-0,018
-625,692	-89,813	-0,161	-0,035
-624,678	155,705	0,056	0,057
-623,663	-165,648	0,103	0,003
-622,649	-4,165	-0,208	-0,106
-621,634	486,262	-0,028	0,047
-620,619	80,617	-0,082	0,066
-619,605	-200,000	-0,032	0,144
-618,590	800,000	-0,035	0,076
-617,576	121,558	-0,105	0,097
-616,561	-87,311	-0,113	-0,025
-615,546	395,130	0,011	0,016
-614,532	800,000	-0,012	0,033
-613,517	-200,000	0,014	-0,150
-612,503	-99,034	0,118	-0,022
-611,488	800,000	-0,056	0,130
-610,474	-30,914	0,055	0,023
-609,459	205,281	0,093	0,107
-608,444	800,000	-0,041	0,116
-607,430	800,000	-0,034	0,073
-606,415	480,340	-0,070	-0,117
-605,401	458,504	-0,061	0,100
-604,386	223,081	0,041	0,049
-603,371	328,955	0,016	0,022
-602,357	-200,000	-0,010	-0,072
-601,342	-200,000	-0,020	-0,065
-600,328	800,000	-0,018	-0,052
-599,313	451,953	-0,116	-0,191
-598,298	-62,386	-0,114	-0,035
-597,284	-200,000	-0,015	0,075
-596,269	-200,000	-0,010	0,056
-595,255	-200,000	0,045	0,199
-594,240	373,930	0,045	-0,068
-593,225	208,297	-0,101	0,117
-592,211	800,000	0,038	-0,088
-591,196	-141,142	-0,109	0,008
-590,182	578,423	-0,031	-0,056
-589,167	-200,000	-0,055	0,247
-588,152	800,000	0,048	0,125
-587,138	193,224	-0,068	-0,077
-586,123	-200,000	-0,012	-0,074
-585,109	-118,234	-0,070	-0,009
-584,094	-200,000	0,019	0,116
-583,079	-40,859	0,090	0,034
-582,065	-144,108	0,063	-0,004
-581,050	-200,000	0,015	0,094
-580,036	255,281	0,019	-0,024
-579,021	-200,000	0,002	-0,062
-578,006	-137,910	0,041	-0,003
-576,992	-56,915	-0,025	-0,008
-575,977	-24,648	0,068	-0,030
-574,963	-200,000	0,023	-0,085
-573,948	447,651	-0,025	-0,040
-572,934	800,000	-0,016	-0,039
-571,919	-86,399	-0,102	0,023
-570,904	66,798	0,145	-0,109
-569,890	-200,000	0,019	-0,134
-568,875	-200,000	0,000	0,146
-567,861	-129,726	0,120	0,012
-566,846	-10,580	-0,096	-0,047
-565,831	483,486	-0,085	0,144
-564,817	545,198	0,032	0,056
-563,802	259,389	-0,068	0,087
-562,788	800,000	0,014	0,037
-561,773	-25,230	-0,140	-0,061
-560,758	355,214	-0,014	-0,021
-559,744	15,173	0,111	-0,064
-558,729	230,714	0,081	-0,098
-557,715	-115,802	-0,155	0,021
-556,700	-107,195	0,107	0,017
-555,685	-88,687	-0,106	-0,023
-554,671	-194,904	-0,136	-0,001
-553,656	778,230	0,068	-0,138
-552,642	-119,898	0,076	0,010
-551,627	375,886	-0,116	0,176
-550,612	-200,000	-0,126	-0,000
-549,598	-132,124	-0,150	0,014
-548,583	429,092	-0,048	-0,076
-547,569	-60,329	-0,118	-0,037
-546,554	-200,000	-0,018	0,181
-545,539	-4,909	0,182	-0,092
-544,525	-10,225	0,112	0,055
-543,510	-55,237	-0,178	-0,059
-542,496	76,342	-0,110	-0,086
-541,481	-200,000	-0,005	-0,150
-540,466	-17,562	-0,039	-0,018
-539,452	590,733	0,023	-0,041
-538,437	157,720	-0,056	0,057
-537,423	-200,000	-0,014	0,110
-536,408	264,959	-0,056	-0,072
-535,393	491,217	-0,071	-0,121
-534,379	-200,000	-0,007	0,132
-533,364	-80,764	-0,064	0,016
-532,350	-172,597	-0,062	0,001
-531,335	-105,839	0,100	0,017
-530,321	-200,000	-0,000	0,175
-529,306	170,414	-0,088	-0,093
-528,291	-19,781	-0,130	0,059
-527,277	-116,873	-0,166	-0,022
-526,262	-200,000	-0,011	-0,064
-525,248	48,233	-0,027	0,019
-524,233	-200,000	-0,018	0,115
-523,218	359,805	0,059	0,088
-522,204	800,000	0,054	0,136
-521,189	-158,763	0,109	-0,005
-520,175	-0,718	-0,129	-0,067
-519,160	28,994	-0,024	-0,015
-518,145	345,835	-0,020	-0,029
-517,131	-94,527	0,143	-0,028
-516,116	102,909	-0,054	0,046
-515,102	387,777	0,051	-0,078
-514,087	-5,908	0,050	-0,025
-513,072	-127,118	-0,129	-0,014
-512,058	-57,519	-0,099	-0,032
-511,043	90,006	0,095	0,078
-510,029	703,936	0,071	0,138
-509,014	-119,097	-0,051	0,007
-507,999	210,839	-0,054	-0,063
-506,985	-200,000	0,003	-0,088
-505,970	-200,000	0,001	0,008
-504,956	-146,386	0,058	0,004
-503,941	-200,000	0,033	-0,136
-502,926	-200,000	-0,014	0,076
-501,912	474,192	0,060	0,100
-500,897	56,782	0,118	0,085
-499,883	-200,000	0,022	-0,105
-498,868	211,713	-0,087	-0,101
-497,853	360,503	-0,027	0,039
-496,839	-200,000	-0,001	-0,134
-495,824	-200,000	-0,018	-0,131
-494,810	20,939	0,068	0,041
-493,795	-120,399	0,177	0,022
-492,781	61,342	-0,048	0,035
-491,766	4,028	-0,108	-0,058
-490,751	198,951	0,092	-0,104
-489,737	-146,636	-0,072	-0,005
-488,722	11,079	0,116	-0,065
-487,708	401,911	0,071	0,110
-486,693	-200,000	0,029	-0,096
-485,678	-200,000	-0,003	-0,103
-484,664	-120,123	-0,147	-0,018
-483,649	800,000	0,037	-0,092
-482,635	461,150	-0,027	-0,045
-481,620	800,000	0,048	-0,130
-480,605	-200,000	-0,035	0,124
-479,591	-200,000	0,002	0,055
-478,576	34,095	0,070	0,045
-477,562	-200,000	0,010	-0,095
-476,547	108,676	0,151	-0,132
-475,532	-200,000	-0,002	0,066
-474,518	-88,226	0,027	0,006
-473,503	197,863	0,030	0,033
-472,489	-106,649	-0,062	-0,010
-471,474	-86,229	-0,121	0,027
-470,459	800,000	-0,018	-0,044
-469,445	800,000	0,024	0,058
-468,430	-200,000	-0,000	-0,006
-467,416	699,180	0,082	-0,160
-466,401	-51,712	0,072	0,024
-465,386	-200,000	-0,014	-0,057
-464,372	800,000	-0,079	-0,166
-463,357	96,396	0,056	-0,047
-462,343	800,000	-0,040	0,085
-461,328	-135,260	0,052	-0,005
-460,313	-35,787	0,047	0,019
-459,299	-54,492	0,081	-0,027
-458,284	478,176	-0,051	-0,085
-457,270	131,311	-0,042	-0,040
-456,255	451,064	0,030	0,048
-455,241	800,000	0,044	0,111
-454,226	334,215	0,014	0,021
-453,211	-0,691	0,110	0,057
-452,197	-200,000	-0,029	-0,101
-451,182	20,840	0,075	0,045
-450,168	53,215	-0,059	0,042
-449,153	-132,415	0,082	-0,008
-448,138	-44,185	-0,077	-0,028
-447,124	-200,000	-0,030	0,101
-446,109	182,233	-0,059	0,064
-445,095	45,393	-0,037	0,025
-444,080	-40,225	0,106	-0,041
-443,065	-75,901	-0,107	-0,028
-442,051	-45,326	0,016	-0,006
-441,036	-61,247	0,058	0,018
-440,022	-97,372	-0,068	0,013
-439,007	800,000	0,041	0,119
-437,992	-200,000	-0,026	-0,151
-436,978	-11,043	0,046	0,022
-435,963	-25,797	-0,070	0,030
-434,949	-200,000	-0,007	-0,035
-433,934	-200,000	0,017	-0,106
-432,919	112,269	-0,032	-0,029
-431,905	28,273	0,042	-0,026
-430,890	674,141	0,050	-0,095
-429,876	800,000	0,034	0,105
-428,861	182,704	0,068	0,074
-427,846	71,715	0,062	0,047
-426,832	-11,269	-0,182	-0,088
-425,817	179,827	0,101	0,109
-424,803	-49,235	0,047	-0,016
-423,788	608,386	-0,045	0,084
-422,773	92,551	0,110	0,091
-421,759	518,280	-0,027	0,046
-420,744	242,518	-0,033	0,041
-419,730	-85,412	-0,120	-0,027
-418,715	-0,420	0,026	0,014
-417,701	-200,000	0,022	-0,089
-416,686	-137,615	0,086	0,007
-415,671	627,319	-0,045	-0,084
-414,657	-137,883	0,056	-0,005
-413,642	51,644	0,114	0,080
-412,628	-200,000	-0,007	-0,113
-411,613	800,000	-0,043	0,093
-410,598	-200,000	0,020	-0,079
-409,584	-200,000	-0,007	0,076
-408,569	-200,000	0,033	0,213
-407,555	-200,000	-0,022	0,155
-406,540	800,000	0,012	0,027
-405,525	-87,816	0,076	-0,017
-404,511	800,000	-0,024	0,073
-403,496	-200,000	-0,012	-0,089
-402,482	-86,171	-0,033	0,007
-401,467	-17,535	0,064	0,030
-400,452	282,063	0,033	-0,044
-399,438	-87,436	-0,073	0,016
-398,423	631,278	0,029	-0,055
-397,409	-200,000	-0,018	-0,072
-396,394	55,555	-0,068	-0,048
-395,379	-200,000	-0,012	-0,159
-394,365	252,948	-0,025	0,031
-393,350	256,492	-0,100	-0,126
-392,336	36,063	0,116	-0,075
-391,321	-3,734	-0,011	-0,005
-390,306	-200,000	0,003	0,021
-389,292	494,778	-0,070	-0,118
-388,277	45,023	0,004	0,002
-387,263	-81,254	0,085	-0,020
-386,248	616,354	0,056	0,103
-385,233	210,255	-0,040	-0,046
-384,219	39,042	0,056	0,037
-383,204	800,000	0,022	-0,059
-382,190	800,000	-0,062	-0,162
-381,175	-47,547	0,061	-0,022
-380,160	800,000	-0,034	-0,076
-379,146	800,000	-0,044	0,093
-378,131	-103,058	0,069	0,012
-377,117	22,909	-0,036	-0,022
-376,102	-102,192	0,044	-0,008
-375,088	-7,126	0,077	0,038
-374,073	181,613	-0,067	0,072
-373,058	-190,790	0,068	-0,001
-372,044	-67,940	0,120	0,034
-371,029	800,000	0,053	0,113
-370,015	-125,412	0,114	0,013
-369,000	246,335	-0,097	0,121
-367,985	8,775	-0,162	-0,089
-366,971	-200,000	0,021	-0,138
-365,956	76,411	0,048	-0,038
-364,942	-179,302	-0,032	-0,001
-363,927	11,824	0,023	0,013
-362,912	800,000	0,057	0,130
-361,898	259,289	-0,046	-0,058
-360,883	84,220	0,019	-0,015
-359,869	319,299	-0,096	-0,134
-358,854	-17,186	0,054	-0,025
-357,839	64,529	0,042	0,031
-356,825	50,882	-0,040	-0,027
-355,810	-200,000	-0,001	-0,097
-354,796	-87,594	-0,071	-0,016
-353,781	219,171	-0,017	0,020
-352,766	-200,000	-0,003	0,077
-351,752	-26,224	-0,023	-0,010
-350,737	800,000	0,017	0,037
-349,723	368,491	0,042	-0,062
-348,708	192,272	0,091	0,100
-347,693	-200,000	0,005	-0,073
-346,679	84,172	-0,138	0,110
-345,664	-200,000	-0,021	-0,085
-344,650	-200,000	0,022	-0,088
-343,635	-61,181	-0,025	-0,008
-342,620	772,663	0,042	0,084
-341,606	-60,157	0,068	-0,021
-340,591	-71,405	0,055	0,015
-339,577	385,560	0,056	0,084
-338,562	-110,504	-0,094	-0,014
-337,548	800,000	-0,021	-0,042
-336,533	59,781	0,127	0,091
-335,518	129,253	0,091	-0,085
-334,504	-44,900	0,115	0,042
-333,489	165,314	0,024	0,025
-332,475	-53,248	0,045	-0,015
-331,460	-58,715	0,036	0,011
-330,445	680,845	-0,020	-0,039
-329,431	382,004	0,044	0,067
-328,416	-200,000	-0,005	0,024
-327,402	537,671	0,045	-0,079
-326,387	585,673	-0,022	-0,041
-325,372	128,203	-0,100	-0,093
-324,358	-64,544	0,159	-0,047
-323,343	-200,000	0,010	-0,112
-322,329	300,928	0,043	0,059
-321,314	442,029	-0,079	0,127
-320,299	139,533	0,107	-0,104
-319,285	-200,000	-0,003	-0,015
-318,270	-17,927	-0,101	0,046
-317,256	800,000	-0,032	-0,070
-316,241	-170,925	0,006	0,000
-315,226	-66,842	-0,030	0,009
-314,212	132,862	0,041	0,039
-313,197	266,437	-0,027	0,034
-312,183	-200,000	0,025	0,165
-311,168	194,295	0,029	0,032
-310,153	93,038	0,091	-0,075
-309,139	151,820	-0,115	-0,114
-308,124	-200,000	0,038	0,145
-307,110	-200,000	0,037	0,139
-306,095	800,000	0,065	0,163
-305,080	-200,000	0,018	0,073
-304,066	-200,000	-0,001	-0,003
-303,051	443,030	-0,101	-0,162
-302,037	734,596	-0,041	-0,080
-301,022	-200,000	0,011	-0,055
-300,008	-74,194	0,093	0,024
-298,993	-120,704	0,115	0,014
-297,978	462,950	-0,029	0,048
-296,964	1,873	-0,088	0,046
-295,949	70,526	0,017	0,013
-294,935	670,664	0,026	0,049
-293,920	800,000	-0,011	0,035
-292,905	800,000	0,037	0,119
-291,891	455,274	0,095	0,155
-290,876	-200,000	-0,008	0,094
-289,862	38,219	0,050	0,033
-288,847	48,063	0,047	-0,032
-287,832	-26,179	-0,174	-0,074
-286,818	-12,210	-0,076	0,036
-285,803	-200,000	0,009	0,035
-284,789	-74,800	0,076	-0,020
-283,774	-177,032	-0,080	0,001
-282,759	800,000	-0,021	0,062
-281,745	110,007	-0,085	0,074
-280,730	-114,561	0,125	-0,017
-279,716	-200,000	-0,017	0,068
-278,701	212,644	-0,032	0,037
-277,686	-200,000	0,008	0,026
-276,672	-139,181	0,118	-0,009
-275,657	-40,590	0,209	-0,079
-274,643	39,202	0,040	-0,026
-273,628	-200,000	-0,016	-0,107
-272,613	419,430	0,078	-0,123
-271,599	716,743	-0,029	-0,057
-270,584	-124,551	-0,075	0,008
-269,570	-134,423	0,159	-0,014
-268,555	445,406	-0,056	0,090
-267,540	301,036	0,056	-0,075
-266,526	31,859	0,119	-0,075
-265,511	120,428	-0,074	0,067
-264,497	-102,274	-0,109	-0,019
-263,482	125,007	0,099	-0,091
-262,467	38,823	0,128	0,083
-261,453	226,116	-0,076	-0,091
-260,438	-200,000	0,016	-0,193
-259,424	-200,000	0,009	0,064
-258,409	299,714	-0,015	-0,020
-257,395	-200,000	-0,001	-0,123
-256,380	-200,000	-0,008	0,129
-255,365	29,896	0,047	-0,029
-254,351	30,310	0,072	0,045
-253,336	150,276	-0,046	0,046
-252,322	658,949	0,059	-0,111
-251,307	800,000	-0,070	-0,149
-250,292	800,000	0,044	-0,108
-249,278	205,080	-0,078	0,088
-248,263	-200,000	-0,005	0,070
-247,249	800,000	0,075	0,158
-246,234	23,082	0,070	-0,042
-245,219	-140,136	-0,058	-0,004
-244,205	-32,944	-0,077	-0,031
-243,190	290,839	0,060	-0,080
-242,176	161,629	-0,035	0,035
-241,161	800,000	0,024	0,055
-240,146	-39,899	-0,108	0,041
-239,132	-200,000	0,032	0,110
-238,117	-200,000	-0,019	-0,131
-237,103	648,670	-0,083	-0,155
-236,088	800,000	-0,025	0,055
-235,073	-11,443	-0,053	0,025
-234,059	800,000	0,051	-0,113
-233,044	210,103	-0,042	0,049
-232,030	393,486	0,054	0,083
-231,015	-200,000	-0,007	0,156
-230,000	-200,000	0,009	-0,103
-228,986	-200,000	0,002	-0,061
-227,971	-66,237	0,049	0,014
-226,957	-200,000	-0,015	0,107
-225,942	29,726	-0,079	0,049
-224,927	800,000	0,038	-0,098
-223,913	86,837	-0,038	-0,030
-222,898	28,672	-0,079	0,049
-221,884	-80,938	-0,072	-0,017
-220,869	-108,697	-0,085	0,013
-219,855	-10,585	0,031	0,015
-218,840	73,982	0,140	0,107
-217,825	377,454	0,066	0,098
-216,811	-200,000	0,022	-0,125
-215,796	-200,000	-0,047	-0,194
-214,782	800,000	0,039	0,091
-213,767	-200,000	0,043	-0,000
-212,752	551,411	0,010	0,018
-211,738	587,425	0,037	-0,067
-210,723	-44,326	0,021	0,008
-209,709	800,000	0,041	-0,095
-208,694	800,000	-0,029	-0,065
-207,679	217,536	0,036	-0,042
-206,665	626,388	-0,036	0,067
-205,650	117,223	0,151	-0,135
-204,636	-76,034	-0,020	0,005
-203,621	-144,327	0,026	0,002
-202,606	111,253	0,055	0,048
-201,592	800,000	0,031	0,074
-200,577	800,000	-0,005	0,013
-199,563	-34,044	0,195	-0,078
-198,548	11,101	0,074	-0,041
-197,533	800,000	0,019	-0,048
-196,519	-55,824	-0,039	-0,013
-195,504	-200,000	-0,011	-0,056
-194,490	115,762	-0,053	-0,047
-193,475	800,000	0,041	-0,101
-192,460	-193,861	0,078	0,000
-191,446	-26,454	0,037	0,016
-190,431	-200,000	0,020	0,152
-189,417	-200,000	-0,022	0,135
-188,402	-200,000	-0,025	0,087
-187,387	623,255	-0,060	-0,111
-186,373	-200,000	0,003	0,084
-185,358	-44,251	-0,090	0,033
-184,344	800,000	-0,012	0,036
-183,329	-200,000	0,046	0,208
-182,315	-200,000	0,058	0,188
-181,300	72,583	0,027	0,020
-180,285	16,114	-0,109	-0,063
-179,271	6,534	-0,042	-0,023
-178,256	360,161	-0,086	-0,125
-177,242	800,000	0,041	0,121
-176,227	96,745	0,017	-0,014
-175,212	800,000	-0,014	0,037
-174,198	285,882	0,018	-0,024
-173,183	-144,003	-0,101	0,007
-172,169	217,713	0,064	-0,075
-171,154	104,586	-0,137	-0,117
-170,139	-1,876	-0,062	0,031
-169,125	800,000	0,048	0,152
-168,110	800,000	0,014	0,030
-167,096	-200,000	-0,014	0,092
-166,081	800,000	0,029	0,059
-165,066	-93,287	-0,113	0,023
-164,052	41,983	0,044	-0,029
-163,037	-72,865	0,008	-0,002
-162,023	332,296	0,040	0,057
-161,008	-67,918	0,052	0,015
-159,993	-200,000	-0,008	-0,040
-158,979	-102,447	-0,115	0,020
-157,964	-200,000	-0,001	-0,161
-156,950	800,000	-0,027	-0,086
-155,935	594,288	0,036	-0,065
-154,920	-15,528	-0,157	0,073
-153,906	711,351	0,081	0,156
-152,891	765,933	-0,062	-0,123
-151,877	-200,000	0,001	-0,213
-150,862	-16,286	-0,125	-0,058
-149,847	33,585	0,064	0,040
-148,833	-200,000	0,016	-0,114
-147,818	135,792	0,090	0,085
-146,804	133,259	0,135	-0,127
-145,789	478,850	0,031	-0,052
-144,775	-200,000	-0,017	-0,194
-143,760	332,817	0,078	0,110
-142,745	-18,189	-0,151	-0,068
-141,731	27,027	-0,167	-0,102
-140,716	2,364	0,013	0,007
-139,702	-200,000	0,010	-0,067
-138,687	-99,592	0,058	-0,010
-137,672	-53,770	0,051	-0,017
-136,658	-85,779	0,082	0,018
-135,643	-200,000	-0,023	-0,245
-134,629	99,128	-0,050	-0,042
-133,614	-200,000	0,000	-0,008
-132,599	40,616	0,098	0,064
-131,585	119,526	-0,055	-0,050
-130,570	91,882	-0,051	-0,042
-129,556	800,000	-0,033	-0,082
-128,541	-200,000	0,025	-0,193
-127,526	-34,938	0,132	-0,052
-126,512	201,219	-0,052	-0,059
-125,497	90,265	0,028	-0,023
-124,483	800,000	0,023	0,074
-123,468	800,000	-0,079	0,169
-122,453	800,000	-0,034	-0,096
-121,439	216,386	-0,071	-0,082
-120,424	-123,531	-0,097	-0,011
