DTS Sentinel unit serial number:	SN410029Multiplexer serial number:	ORYXHardware model number:	OX2-SRSoftware version number:	ORYX F/W v4,00 Oryx Data Collector v3.7.2.0data status	okinstallation	B4 Nyhavnadifferential loss correction	single-endedforward channel	channel 2reverse channel	N/Adate	2023/12/15time	17:20:13forward acquisition time	300,00reverse acquisition time	0,00gamma	499,1914k internal	0,3142k external	0,3142temperature offset calibration	1,0000default loss term (dB/km)	0,3820temperature slope calibration	1,0000multiplexer offset coefficient	1,0000multiplexer slope coefficient	1,0000fibre end	0,00T internal ref (°C)	18,25T ext. ref 1 (°C)	3,97T ext. ref 2 (°C)	4,05length (m)	temperature (°C)	Stokes	anti-Stokes-744,400	-89,872	0,049	0,011
-743,385	-64,672	-0,248	0,074
-742,371	319,686	0,034	0,048
-741,356	-25,211	-0,238	0,104
-740,342	144,330	0,051	-0,050
-739,327	31,466	-0,155	-0,098
-738,312	800,000	-0,014	-0,045
-737,298	-45,619	-0,315	0,115
-736,283	800,000	0,019	0,059
-735,269	-62,972	-0,267	0,081
-734,254	36,438	0,049	0,032
-733,239	-50,439	-0,473	-0,165
-732,225	-79,651	0,175	-0,043
-731,210	-200,000	0,047	0,185
-730,196	-200,000	-0,025	0,194
-729,181	-131,572	-0,136	0,013
-728,167	-94,784	-0,056	0,011
-727,152	-200,000	0,002	-0,131
-726,137	-62,407	-0,130	-0,040
-725,123	-32,717	-0,045	0,019
-724,108	-108,343	-0,065	-0,010
-723,094	-95,284	-0,131	0,026
-722,079	207,648	0,021	-0,024
-721,064	-200,000	-0,005	-0,048
-720,050	-111,065	-0,064	0,010
-719,035	-89,761	0,178	0,038
-718,021	189,278	-0,083	0,092
-717,006	591,015	-0,051	-0,093
-715,991	218,339	-0,053	-0,062
-714,977	-14,034	-0,055	-0,026
-713,962	-18,648	-0,108	-0,050
-712,948	-87,295	-0,054	-0,012
-711,933	41,235	-0,070	-0,047
-710,918	-200,000	-0,008	0,059
-709,904	102,459	-0,065	0,056
-708,889	800,000	-0,010	0,028
-707,875	-200,000	-0,019	-0,202
-706,860	706,195	0,028	-0,056
-705,845	435,180	0,050	0,080
-704,831	-77,746	0,145	0,037
-703,816	-200,000	-0,042	-0,155
-702,802	-200,000	0,002	0,026
-701,787	-200,000	-0,029	0,161
-700,772	171,974	0,097	0,103
-699,758	-200,000	0,031	-0,105
-698,743	-43,483	-0,039	-0,015
-697,729	-200,000	-0,019	0,143
-696,714	-200,000	-0,011	0,174
-695,699	-92,538	0,097	-0,020
-694,685	-200,000	0,020	-0,065
-693,670	800,000	0,022	-0,064
-692,656	278,849	0,029	0,039
-691,641	257,597	-0,059	0,075
-690,627	-200,000	0,004	-0,033
-689,612	-12,873	-0,078	0,038
-688,597	-138,158	0,077	-0,006
-687,583	-200,000	-0,022	-0,098
-686,568	-6,282	-0,044	-0,022
-685,554	-94,356	0,121	-0,024
-684,539	-87,739	0,182	0,040
-683,524	800,000	0,016	0,042
-682,510	45,625	0,050	-0,034
-681,495	-47,491	-0,053	-0,019
-680,481	-200,000	0,010	-0,084
-679,466	518,837	-0,075	-0,131
-678,451	-200,000	0,018	-0,069
-677,437	394,928	0,099	-0,153
-676,422	161,045	0,098	-0,101
-675,408	-73,007	-0,031	-0,008
-674,393	76,046	0,035	0,027
-673,378	557,644	-0,049	0,088
-672,364	-83,712	-0,020	-0,005
-671,349	-182,783	0,096	-0,001
-670,335	271,669	0,016	-0,020
-669,320	-200,000	-0,027	-0,144
-668,305	-1,419	-0,089	-0,046
-667,291	596,992	-0,047	-0,087
-666,276	-200,000	-0,021	-0,084
-665,262	-33,281	-0,131	-0,053
-664,247	210,563	0,078	-0,091
-663,232	-200,000	0,004	-0,100
-662,218	264,692	0,049	-0,063
-661,203	-149,942	-0,086	0,005
-660,189	160,506	0,046	0,047
-659,174	-26,185	-0,126	0,054
-658,159	613,586	-0,064	-0,119
-657,145	244,831	-0,066	-0,082
-656,130	-44,174	-0,048	-0,018
-655,116	182,350	0,053	0,057
-654,101	-119,407	0,143	-0,018
-653,086	29,575	-0,035	0,022
-652,072	-22,470	0,008	0,004
-651,057	-143,593	-0,179	-0,012
-650,043	78,723	-0,021	0,016
-649,028	128,650	0,101	0,095
-648,014	800,000	-0,037	0,112
-646,999	-126,088	0,180	-0,020
-645,984	43,841	0,035	0,024
-644,970	-200,000	-0,004	0,063
-643,955	149,623	-0,156	-0,156
-642,941	64,696	-0,149	-0,111
-641,926	-200,000	0,000	0,058
-640,911	-26,506	0,063	0,027
-639,897	-137,991	0,058	0,005
-638,882	800,000	-0,009	0,023
-637,868	93,059	0,061	0,051
-636,853	-200,000	0,005	0,062
-635,838	-99,852	-0,054	-0,010
-634,824	-200,000	-0,051	-0,173
-633,809	-7,945	-0,076	0,038
-632,795	-117,282	-0,068	-0,009
-631,780	-25,701	0,105	0,046
-630,765	-13,062	-0,053	0,025
-629,751	216,872	-0,142	-0,167
-628,736	800,000	0,023	-0,071
-627,722	-106,673	-0,053	-0,009
-626,707	-126,258	0,091	0,010
-625,692	-112,350	-0,095	0,014
-624,678	77,298	-0,174	0,136
-623,663	311,869	0,101	0,140
-622,649	-55,118	0,071	-0,023
-621,634	800,000	-0,026	-0,063
-620,619	534,944	0,051	-0,090
-619,605	-200,000	0,013	-0,085
-618,590	260,870	-0,050	-0,064
-617,576	-150,839	0,121	-0,007
-616,561	-88,966	0,065	0,014
-615,546	800,000	-0,072	-0,164
-614,532	34,140	-0,095	-0,061
-613,517	-200,000	0,016	-0,128
-612,503	215,700	-0,045	-0,053
-611,488	-200,000	0,003	0,035
-610,474	145,814	-0,054	-0,054
-609,459	-97,182	-0,119	-0,023
-608,444	92,265	0,081	-0,067
-607,430	-93,339	-0,104	0,021
-606,415	401,293	-0,052	0,081
-605,401	-164,765	0,131	-0,004
-604,386	22,080	0,102	-0,061
-603,371	122,659	0,076	-0,070
-602,357	-200,000	0,030	0,107
-601,342	217,605	-0,016	-0,019
-600,328	-86,021	-0,052	-0,012
-599,313	398,771	-0,027	0,042
-598,298	347,765	-0,066	0,097
-597,284	647,189	-0,045	0,084
-596,269	-200,000	0,011	-0,047
-595,255	452,986	0,076	0,124
-594,240	-176,893	0,026	0,000
-593,225	7,947	-0,109	-0,060
-592,211	244,871	-0,045	-0,055
-591,196	56,214	0,128	-0,091
-590,182	-200,000	0,009	-0,108
-589,167	-47,112	-0,033	-0,012
-588,152	356,067	-0,040	-0,059
-587,138	-200,000	0,005	-0,029
-586,123	-151,427	0,033	0,002
-585,109	-9,566	-0,140	0,068
-584,094	-70,624	-0,065	0,018
-583,079	-91,121	0,106	0,022
-582,065	25,047	-0,048	0,029
-581,050	176,866	0,053	0,057
-580,036	-37,602	-0,072	0,028
-579,021	-10,915	-0,072	-0,035
-578,006	453,406	-0,073	-0,119
-576,992	800,000	-0,017	-0,049
-575,977	450,191	0,049	-0,080
-574,963	18,381	0,050	0,029
-573,948	82,001	-0,087	0,069
-572,934	66,301	0,048	0,036
-571,919	-58,304	-0,008	0,002
-570,904	-200,000	0,009	0,074
-569,890	-200,000	0,000	-0,056
-568,875	-33,200	0,102	-0,041
-567,861	800,000	0,017	0,044
-566,846	-28,650	-0,152	-0,064
-565,831	-53,864	0,052	-0,017
-564,817	24,772	-0,094	-0,057
-563,802	-200,000	-0,005	0,067
-562,788	-68,164	-0,097	-0,028
-561,773	-200,000	-0,037	-0,130
-560,758	719,764	0,027	0,054
-559,744	800,000	-0,013	0,034
-558,729	-200,000	-0,006	0,045
-557,715	-200,000	0,002	-0,156
-556,700	-200,000	-0,031	-0,151
-555,685	-53,646	-0,116	-0,039
-554,671	-46,176	0,092	0,033
-553,656	-200,000	-0,038	0,169
-552,642	10,636	-0,049	0,027
-551,627	-122,731	-0,144	-0,017
-550,612	615,129	-0,036	0,066
-549,598	392,365	0,059	-0,090
-548,583	170,526	-0,104	-0,109
-547,569	-69,275	0,115	0,032
-546,554	-7,419	0,058	0,029
-545,539	44,228	0,085	0,057
-544,525	-200,000	-0,002	-0,042
-543,510	91,427	-0,056	0,046
-542,496	84,305	-0,079	-0,064
-541,481	-44,309	0,069	-0,025
-540,466	800,000	-0,018	0,037
-539,452	-99,506	-0,127	-0,023
-538,437	332,286	-0,070	0,100
-537,423	443,237	0,022	0,036
-536,408	136,295	0,094	-0,090
-535,393	-200,000	0,002	-0,077
-534,379	-98,853	0,042	0,008
-533,364	-200,000	0,019	0,111
-532,350	207,027	0,044	0,051
-531,335	-32,275	0,223	0,091
-530,321	-67,613	-0,053	0,015
-529,306	-45,444	-0,069	-0,025
-528,291	-101,965	0,030	-0,005
-527,277	-85,216	0,094	-0,021
-526,262	-31,613	-0,034	0,014
-525,248	-200,000	0,014	-0,087
-524,233	154,158	0,055	-0,055
-523,218	-28,844	0,158	-0,066
-522,204	-74,338	0,054	-0,014
-521,189	-200,000	-0,024	-0,099
-520,175	347,920	0,044	-0,064
-519,160	-129,772	0,146	-0,015
-518,145	-112,420	-0,049	0,007
-517,131	-37,016	0,075	0,029
-516,116	355,661	-0,024	-0,035
-515,102	-200,000	0,028	-0,095
-514,087	-168,258	-0,099	0,003
-513,072	51,807	-0,123	-0,086
-512,058	352,068	-0,102	0,148
-511,043	34,504	0,189	-0,121
-510,029	-200,000	0,011	-0,108
-509,014	800,000	0,009	-0,025
-507,999	-200,000	0,021	0,068
-506,985	-200,000	0,019	-0,090
-505,970	74,675	-0,127	-0,098
-504,956	-41,440	0,235	-0,088
-503,941	-34,091	-0,083	-0,033
-502,926	-31,130	0,065	-0,027
-501,912	800,000	-0,005	0,012
-500,897	800,000	0,049	-0,147
-499,883	207,793	0,005	0,005
-498,868	-200,000	0,015	0,130
-497,853	-167,535	-0,156	-0,004
-496,839	-200,000	0,008	-0,137
-495,824	-200,000	-0,004	0,144
-494,810	-109,917	-0,079	-0,012
-493,795	203,089	-0,087	-0,098
-492,781	-200,000	0,004	-0,049
-491,766	-41,154	-0,169	-0,064
-490,751	-200,000	-0,007	0,053
-489,737	800,000	0,004	0,011
-488,722	-200,000	0,011	0,080
-487,708	-40,097	-0,070	0,027
-486,693	43,825	-0,047	-0,032
-485,678	73,949	-0,122	0,094
-484,664	-200,000	0,029	-0,096
-483,649	340,981	-0,102	-0,147
-482,635	-174,751	-0,119	0,002
-481,620	-200,000	0,002	0,014
-480,605	71,368	0,094	0,071
-479,591	129,239	-0,077	0,072
-478,576	92,290	-0,087	0,072
-477,562	135,504	-0,088	-0,084
-476,547	29,806	0,108	0,067
-475,532	-108,163	0,154	-0,024
-474,518	439,507	-0,035	0,057
-473,503	-140,755	0,122	-0,009
-472,489	210,279	-0,082	-0,094
-471,474	129,575	0,046	0,043
-470,459	-200,000	0,017	0,111
-469,445	800,000	0,020	0,053
-468,430	-53,647	0,040	0,013
-467,416	-200,000	0,010	-0,032
-466,401	-19,521	0,022	-0,010
-465,386	800,000	0,049	0,144
-464,372	-200,000	-0,020	0,076
-463,357	145,994	0,102	0,101
-462,343	393,675	-0,082	-0,125
-461,328	-200,000	0,004	-0,167
-460,313	19,108	0,047	0,028
-459,299	800,000	-0,010	-0,029
-458,284	-200,000	-0,015	0,074
-457,270	120,571	0,025	-0,023
-456,255	-5,430	-0,123	-0,062
-455,241	203,663	-0,067	-0,076
-454,226	21,968	-0,038	0,023
-453,211	800,000	0,009	0,020
-452,197	128,773	-0,067	0,063
-451,182	-181,312	-0,188	0,003
-450,168	215,003	-0,066	-0,076
-449,153	-200,000	-0,010	-0,048
-448,138	-99,248	-0,040	-0,007
-447,124	-200,000	-0,026	0,093
-446,109	548,520	0,017	-0,030
-445,095	-200,000	0,001	0,030
-444,080	-200,000	-0,001	0,011
-443,065	252,342	0,056	-0,070
-442,051	-118,171	-0,135	-0,017
-441,036	2,233	-0,167	-0,088
-440,022	79,061	0,025	-0,020
-439,007	-137,898	-0,056	-0,004
-437,992	440,666	0,038	-0,062
-436,978	-76,728	0,017	-0,004
-435,963	-72,985	-0,204	-0,054
-434,949	-200,000	-0,010	-0,050
-433,934	-200,000	-0,005	-0,122
-432,919	-200,000	-0,027	-0,153
-431,905	-36,340	-0,072	0,028
-430,890	-200,000	0,019	0,097
-429,876	800,000	0,013	0,032
-428,861	800,000	-0,024	-0,077
-427,846	-4,976	0,085	-0,043
-426,832	-200,000	0,000	-0,042
-425,817	-26,347	-0,096	-0,041
-424,803	71,118	-0,082	-0,062
-423,788	-6,345	-0,024	-0,012
-422,773	178,328	0,103	-0,111
-421,759	-200,000	0,011	0,037
-420,744	-174,075	0,039	0,001
-419,730	-200,000	-0,026	0,124
-418,715	-200,000	0,001	0,161
-417,701	-200,000	-0,001	0,060
-416,686	-75,573	0,108	0,028
-415,671	-200,000	0,005	0,127
-414,657	7,368	-0,053	0,029
-413,642	-200,000	0,008	0,079
-412,628	-200,000	-0,008	0,043
-411,613	-8,011	-0,135	0,066
-410,598	800,000	0,037	-0,078
-409,584	195,935	0,098	-0,109
-408,569	70,754	0,162	0,123
-407,555	20,875	0,165	0,097
-406,540	-10,693	0,055	0,026
-405,525	270,607	-0,031	-0,041
-404,511	800,000	-0,033	-0,089
-403,496	25,179	-0,064	-0,039
-402,482	281,462	0,042	0,055
-401,467	629,209	-0,013	-0,024
-400,452	413,511	0,048	-0,075
-399,438	124,131	-0,045	-0,041
-398,423	206,084	0,040	-0,045
-397,409	-86,387	-0,202	-0,045
-396,394	-144,689	-0,095	0,006
-395,379	800,000	0,039	-0,107
-394,365	-200,000	0,007	0,107
-393,350	800,000	-0,098	0,203
-392,336	483,034	0,104	0,173
-391,321	-126,610	-0,119	0,013
-390,306	55,008	0,063	0,045
-389,292	647,360	-0,020	-0,038
-388,277	-200,000	-0,030	-0,167
-387,263	800,000	-0,022	0,061
-386,248	168,631	0,003	-0,003
-385,233	-13,904	-0,038	-0,018
-384,219	18,616	0,122	-0,071
-383,204	614,259	-0,018	-0,033
-382,190	-200,000	0,003	-0,070
-381,175	97,580	0,017	-0,015
-380,160	19,932	-0,139	0,081
-379,146	277,448	-0,100	0,130
-378,131	175,843	0,031	0,032
-377,117	703,466	0,042	-0,081
-376,102	-200,000	0,001	0,037
-375,088	723,882	-0,067	-0,130
-374,073	800,000	0,042	-0,105
-373,058	-19,316	0,057	0,026
-372,044	800,000	0,027	0,068
-371,029	-153,994	0,098	0,005
-370,015	24,208	0,091	0,055
-369,000	-200,000	-0,016	-0,150
-367,985	-42,784	0,038	-0,014
-366,971	343,332	-0,100	-0,144
-365,956	-92,416	0,050	-0,010
-364,942	300,662	0,098	-0,132
-363,927	800,000	0,015	-0,034
-362,912	285,297	0,035	-0,047
-361,898	-99,460	0,103	0,019
-360,883	92,395	0,114	-0,094
-359,869	217,283	-0,045	0,053
-358,854	-38,943	-0,168	0,064
-357,839	800,000	-0,038	0,109
-356,825	162,308	0,049	0,050
-355,810	800,000	0,022	-0,044
-354,796	-45,322	-0,103	0,037
-353,781	20,280	-0,044	-0,026
-352,766	-200,000	0,013	-0,128
-351,752	-36,481	0,099	-0,039
-350,737	-123,605	0,114	0,013
-349,723	82,045	0,040	-0,032
-348,708	-140,000	0,102	0,008
-347,693	11,835	0,052	0,029
-346,679	-101,823	-0,080	-0,014
-345,664	-59,336	0,088	-0,028
-344,650	800,000	0,016	0,048
-343,635	-39,052	0,050	0,019
-342,620	-44,186	-0,127	-0,046
-341,606	-29,612	-0,094	0,039
-340,591	-67,889	0,028	-0,008
-339,577	-113,694	0,099	0,014
-338,562	-116,907	0,127	-0,017
-337,548	738,613	0,079	-0,155
-336,533	449,027	-0,030	-0,049
-335,518	778,141	0,045	-0,091
-334,504	-200,000	-0,023	0,089
-333,489	36,758	0,097	0,063
-332,475	654,291	0,076	-0,142
-331,460	-200,000	-0,035	-0,173
-330,445	66,240	0,136	0,101
-329,431	171,458	0,101	-0,106
-328,416	-35,642	0,083	0,033
-327,402	93,233	-0,063	0,052
-326,387	112,841	0,087	-0,077
-325,372	-119,193	-0,094	0,012
-324,358	-121,994	-0,135	0,016
-323,343	41,455	-0,057	0,037
-322,329	209,608	-0,045	0,051
-321,314	800,000	0,061	0,169
-320,299	40,669	0,138	0,090
-319,285	-200,000	0,012	0,144
-318,270	-36,078	0,024	-0,009
-317,256	-0,899	-0,028	-0,014
-316,241	411,010	-0,089	-0,138
-315,226	-200,000	0,022	0,095
-314,212	-35,481	0,119	-0,047
-313,197	10,405	0,048	-0,026
-312,183	186,545	-0,070	0,077
-311,168	-25,040	0,087	0,037
-310,153	20,813	-0,092	0,054
-309,139	376,162	-0,055	-0,082
-308,124	-200,000	-0,004	0,048
-307,110	-36,270	-0,069	0,027
-306,095	752,361	-0,033	-0,065
-305,080	-122,864	0,053	0,006
-304,066	-200,000	-0,018	0,151
-303,051	-17,542	0,120	0,055
-302,037	323,965	0,045	-0,063
-301,022	-8,797	-0,027	0,013
-300,008	-103,293	0,021	-0,004
-298,993	63,788	0,105	0,076
-297,978	-200,000	-0,007	-0,038
-296,964	33,228	-0,027	-0,017
-295,949	12,375	0,189	0,106
-294,935	-42,974	-0,122	-0,045
-293,920	-200,000	0,003	0,012
-292,905	53,633	-0,097	-0,067
-291,891	-58,863	0,109	-0,034
-290,876	800,000	0,029	-0,083
-289,862	157,523	-0,052	0,052
-288,847	40,584	-0,104	-0,068
-287,832	-200,000	-0,000	-0,019
-286,818	230,557	0,027	0,032
-285,803	-42,191	0,081	0,030
-284,789	-200,000	0,044	0,175
-283,774	-200,000	0,012	-0,071
-282,759	538,599	-0,034	0,059
-281,745	-33,625	0,096	-0,038
-280,730	-200,000	-0,013	-0,089
-279,716	-92,316	-0,085	-0,017
-278,701	-159,123	-0,084	0,003
-277,686	800,000	0,066	0,195
-276,672	725,165	0,023	0,045
-275,657	-200,000	0,028	0,125
-274,643	191,594	0,055	-0,060
-273,628	-200,000	0,021	-0,111
-272,613	740,860	-0,023	-0,046
-271,599	99,514	0,073	0,061
-270,584	800,000	-0,023	0,058
-269,570	800,000	0,035	0,091
-268,555	-200,000	-0,015	0,056
-267,540	43,216	0,093	0,061
-266,526	-200,000	-0,023	-0,113
-265,511	176,211	0,072	-0,076
-264,497	-137,485	0,066	-0,005
-263,482	-59,413	0,129	0,040
-262,467	518,860	0,016	-0,028
-261,453	457,807	0,023	0,037
-260,438	-45,348	0,071	-0,026
-259,424	108,420	-0,078	-0,068
-258,409	800,000	0,065	-0,146
-257,395	5,070	-0,023	0,012
-256,380	252,110	-0,020	0,025
-255,365	-200,000	0,016	0,116
-254,351	117,403	0,070	0,063
-253,336	-144,819	-0,050	-0,003
-252,322	-155,875	-0,175	-0,008
-251,307	-200,000	0,016	-0,094
-250,292	439,922	-0,009	0,014
-249,278	73,725	0,094	0,071
-248,263	800,000	-0,058	0,131
-247,249	800,000	-0,065	0,150
-246,234	-85,190	0,142	0,032
-245,219	795,516	0,014	-0,027
-244,205	627,988	0,030	0,056
-243,190	800,000	-0,046	0,115
-242,176	-135,137	0,014	0,001
-241,161	-110,621	0,065	-0,010
-240,146	28,888	-0,021	0,013
-239,132	800,000	-0,015	0,046
-238,117	-52,890	-0,060	0,020
-237,103	154,065	-0,069	0,069
-236,088	59,017	-0,050	0,036
-235,073	-25,735	0,108	0,046
-234,059	800,000	-0,033	0,075
-233,044	24,286	-0,128	0,077
-232,030	-156,708	0,109	0,005
-231,015	-200,000	-0,014	0,071
-230,000	-200,000	-0,013	-0,048
-228,986	46,677	0,070	-0,047
-227,971	-5,964	0,088	0,044
-226,957	-200,000	-0,013	0,079
-225,942	-6,634	-0,057	0,028
-224,927	224,849	-0,143	0,169
-223,913	-200,000	0,005	0,067
-222,898	-200,000	0,019	0,077
-221,884	-135,760	-0,138	0,012
-220,869	-52,944	0,084	-0,028
-219,855	-40,587	0,070	0,026
-218,840	-200,000	-0,025	0,124
-217,825	75,257	0,158	-0,121
-216,811	-81,809	-0,149	0,035
-215,796	44,539	-0,084	0,056
-214,782	15,619	0,055	-0,031
-213,767	-200,000	0,012	-0,074
-212,752	800,000	0,023	0,059
-211,738	60,443	0,147	0,105
-210,723	179,491	0,035	0,038
-209,709	139,745	-0,065	0,062
-208,694	-99,979	-0,104	-0,019
-207,679	43,927	0,151	0,100
-206,665	800,000	-0,054	0,116
-205,650	-135,447	0,101	0,009
-204,636	-156,957	0,080	0,003
-203,621	106,646	-0,047	-0,041
-202,606	-200,000	0,006	0,046
-201,592	-200,000	-0,011	-0,054
-200,577	-200,000	0,008	-0,054
-199,563	-200,000	0,025	-0,142
-198,548	-38,293	0,082	-0,031
-197,533	218,628	0,082	0,096
-196,519	-200,000	-0,015	0,055
-195,504	225,238	-0,098	-0,115
-194,490	94,774	-0,140	0,116
-193,475	152,165	-0,035	-0,035
-192,460	-10,546	0,045	0,021
-191,446	171,839	0,112	0,117
-190,431	34,113	-0,034	0,022
-189,417	800,000	0,038	-0,089
-188,402	-142,112	0,095	-0,007
-187,387	118,202	-0,090	-0,080
-186,373	800,000	-0,072	0,177
-185,358	-200,000	0,027	0,111
-184,344	124,641	-0,031	0,028
-183,329	396,482	-0,060	0,091
-182,315	-82,243	0,137	0,032
-181,300	-36,222	-0,155	-0,060
-180,285	270,611	0,029	0,037
-179,271	109,323	-0,068	0,059
-178,256	800,000	0,031	0,069
-177,242	-27,955	0,172	0,072
-176,227	107,770	-0,062	-0,054
-175,212	-200,000	0,005	-0,050
-174,198	143,561	-0,134	-0,130
-173,183	-124,364	-0,085	-0,009
-172,169	346,322	0,071	-0,102
-171,154	-200,000	0,017	0,096
-170,139	95,381	0,045	-0,037
-169,125	-119,136	0,070	0,009
-168,110	8,289	-0,091	0,050
-167,096	23,801	-0,113	0,067
-166,081	-200,000	0,032	0,106
-165,066	790,295	0,023	0,046
-164,052	-200,000	0,015	-0,078
-163,037	-119,333	0,034	-0,004
-162,023	321,019	-0,005	0,007
-161,008	46,750	-0,080	0,054
-159,993	152,505	-0,091	-0,090
-158,979	337,870	0,028	-0,039
-157,964	800,000	-0,080	-0,245
-156,950	589,990	0,079	-0,141
-155,935	107,507	-0,016	0,014
-154,920	24,255	0,021	-0,012
-153,906	-200,000	0,010	0,093
-152,891	153,861	0,090	0,089
-151,877	119,413	0,027	-0,024
-150,862	130,825	-0,052	-0,048
-149,847	134,320	-0,015	-0,015
-148,833	66,259	-0,042	-0,031
-147,818	-3,062	-0,054	0,027
-146,804	330,670	0,105	0,146
-145,789	-131,800	0,056	0,005
-144,775	105,830	-0,068	-0,058
-143,760	-200,000	0,009	-0,031
-142,745	194,239	-0,105	-0,116
-141,731	295,259	0,011	-0,014
-140,716	-130,730	0,079	0,008
-139,702	-70,317	-0,106	0,029
-138,687	-200,000	0,020	0,073
-137,672	800,000	-0,043	-0,088
-136,658	-21,344	-0,066	0,029
-135,643	286,966	-0,105	-0,138
-134,629	79,176	0,042	0,033
-133,614	-164,338	0,108	0,003
-132,599	-84,334	0,062	0,014
-131,585	-200,000	-0,001	0,081
-130,570	-125,881	-0,037	0,004
-129,556	74,788	-0,194	0,147
-128,541	-137,529	-0,040	-0,003
-127,526	800,000	0,007	0,014
-126,512	800,000	-0,037	-0,082
-125,497	-194,095	0,067	-0,000
-124,483	89,294	-0,038	-0,031
-123,468	88,518	0,082	-0,066
-122,453	63,478	-0,058	-0,042
-121,439	-20,926	-0,099	0,044
-120,424	-200,000	0,000	0,023
-119,410	800,000	-0,014	-0,030
-118,395	175,634	-0,032	-0,034
