DTS Sentinel unit serial number:	SN410029Multiplexer serial number:	ORYXHardware model number:	OX2-SRSoftware version number:	ORYX F/W v4,00 Oryx Data Collector v3.7.2.0data status	okinstallation	B4 Nyhavnadifferential loss correction	single-endedforward channel	channel 2reverse channel	N/Adate	2023/12/15time	19:50:13forward acquisition time	300,00reverse acquisition time	0,00gamma	499,1914k internal	0,3137k external	0,3137temperature offset calibration	1,0000default loss term (dB/km)	0,3820temperature slope calibration	1,0000multiplexer offset coefficient	1,0000multiplexer slope coefficient	1,0000fibre end	0,00T internal ref (°C)	20,15T ext. ref 1 (°C)	5,71T ext. ref 2 (°C)	5,86length (m)	temperature (°C)	Stokes	anti-Stokes-744,400	-200,000	0,008	-0,102
-743,385	-15,075	-0,208	0,098
-742,371	-12,149	0,028	-0,014
-741,356	10,952	-0,189	0,107
-740,342	237,150	-0,066	0,081
-739,327	-31,367	-0,181	0,075
-738,312	642,947	-0,072	0,136
-737,298	-42,330	-0,286	0,108
-736,283	-200,000	-0,007	-0,031
-735,269	21,108	-0,161	0,097
-734,254	157,904	-0,030	-0,031
-733,239	-138,463	-0,475	-0,038
-732,225	800,000	0,028	0,064
-731,210	117,256	-0,028	-0,026
-730,196	-200,000	-0,010	-0,067
-729,181	-18,108	0,029	-0,013
-728,167	-64,996	-0,071	0,021
-727,152	330,111	0,062	-0,088
-726,137	-28,315	-0,152	0,065
-725,123	-200,000	-0,002	-0,046
-724,108	800,000	-0,070	-0,150
-723,094	-200,000	-0,023	-0,128
-722,079	160,390	-0,027	0,028
-721,064	800,000	-0,063	0,149
-720,050	800,000	0,022	-0,048
-719,035	117,109	-0,079	0,072
-718,021	56,960	-0,042	-0,031
-717,006	39,713	-0,091	-0,060
-715,991	-200,000	-0,017	-0,109
-714,977	102,610	-0,108	-0,094
-713,962	312,543	-0,070	0,098
-712,948	-92,707	0,092	0,019
-711,933	-104,510	-0,096	-0,016
-710,918	-200,000	0,012	0,069
-709,904	230,050	-0,071	-0,087
-708,889	800,000	-0,015	0,034
-707,875	-97,842	-0,080	-0,015
-706,860	61,282	0,062	0,046
-705,845	-200,000	0,050	0,000
-704,831	323,039	0,061	0,086
-703,816	-143,505	-0,128	0,009
-702,802	-200,000	0,003	0,105
-701,787	672,321	-0,044	-0,084
-700,772	168,680	-0,120	-0,126
-699,758	-77,815	-0,064	0,016
-698,743	-56,344	0,096	0,031
-697,729	-143,304	-0,030	0,002
-696,714	-200,000	-0,038	0,166
-695,699	-200,000	-0,006	-0,039
-694,685	219,233	0,028	0,033
-693,670	303,002	-0,018	-0,025
-692,656	144,370	0,021	-0,021
-691,641	-200,000	-0,005	-0,086
-690,627	143,192	0,090	0,089
-689,612	282,807	0,093	-0,124
-688,597	-154,489	0,060	-0,003
-687,583	800,000	-0,071	-0,157
-686,568	28,712	-0,107	-0,067
-685,554	-200,000	0,040	-0,182
-684,539	800,000	-0,023	0,049
-683,524	-200,000	-0,032	-0,160
-682,510	-200,000	-0,013	0,112
-681,495	-131,180	-0,047	0,005
-680,481	137,678	0,018	-0,018
-679,466	37,466	-0,061	-0,040
-678,451	-200,000	0,008	-0,138
-677,437	104,770	0,097	0,085
-676,422	215,992	-0,011	0,013
-675,408	-83,338	-0,104	0,024
-674,393	-102,321	-0,009	0,002
-673,378	75,192	-0,079	-0,061
-672,364	-19,701	-0,079	0,036
-671,349	-200,000	-0,021	0,088
-670,335	627,018	0,039	-0,074
-669,320	279,743	0,041	-0,055
-668,305	102,582	-0,006	0,005
-667,291	-200,000	0,001	-0,072
-666,276	-142,394	0,134	-0,010
-665,262	-194,004	-0,118	-0,001
-664,247	69,080	0,041	0,031
-663,232	-8,713	-0,075	-0,037
-662,218	108,712	0,073	0,065
-661,203	-43,838	-0,080	-0,030
-660,189	113,766	-0,061	0,055
-659,174	29,483	-0,088	0,055
-658,159	-137,142	0,080	-0,007
-657,145	398,170	-0,061	-0,095
-656,130	211,273	0,033	-0,038
-655,116	236,918	0,037	-0,045
-654,101	-187,157	0,119	-0,001
-653,086	-101,052	-0,020	0,004
-652,072	314,260	0,121	0,169
-651,057	22,786	-0,210	-0,127
-650,043	-80,885	0,014	0,003
-649,028	29,969	-0,119	-0,075
-648,014	376,976	-0,049	0,074
-646,999	8,733	0,100	0,055
-645,984	48,016	0,130	0,090
-644,970	345,454	0,046	0,067
-643,955	-200,000	-0,037	-0,158
-642,941	-158,239	-0,124	0,005
-641,926	31,435	0,062	0,039
-640,911	-74,669	0,052	-0,014
-639,897	-74,344	-0,120	-0,032
-638,882	-200,000	0,023	0,084
-637,868	-106,209	-0,074	-0,012
-636,853	-200,000	-0,044	-0,152
-635,838	72,868	0,056	0,043
-634,824	120,301	0,053	0,049
-633,809	-200,000	0,022	0,093
-632,795	463,746	0,055	0,090
-631,780	542,688	-0,033	0,059
-630,765	-74,925	0,018	0,005
-629,751	-132,233	-0,078	-0,007
-628,736	186,649	-0,090	0,100
-627,722	-141,143	0,075	-0,006
-626,707	-120,770	0,019	0,002
-625,692	800,000	0,018	-0,040
-624,678	506,235	0,049	-0,085
-623,663	-200,000	-0,019	-0,073
-622,649	-55,263	-0,053	-0,017
-621,634	-6,281	0,112	-0,056
-620,619	-200,000	0,044	-0,162
-619,605	38,556	0,063	-0,041
-618,590	-200,000	0,004	-0,150
-617,576	800,000	-0,011	-0,034
-616,561	-91,979	-0,086	-0,018
-615,546	-135,450	0,106	0,009
-614,532	800,000	-0,028	0,082
-613,517	-200,000	0,015	0,057
-612,503	-200,000	-0,023	-0,115
-611,488	78,329	0,096	-0,075
-610,474	601,035	-0,033	0,061
-609,459	43,112	0,109	0,073
-608,444	-101,281	-0,055	-0,010
-607,430	-200,000	0,011	-0,037
-606,415	-200,000	-0,037	-0,134
-605,401	119,694	-0,144	0,132
-604,386	-137,965	-0,039	-0,003
-603,371	94,928	0,148	0,124
-602,357	-59,396	-0,084	-0,027
-601,342	-200,000	0,008	0,062
-600,328	101,800	0,104	-0,090
-599,313	570,945	-0,028	-0,050
-598,298	216,220	-0,027	-0,032
-597,284	-99,381	-0,137	0,025
-596,269	-122,174	0,028	0,003
-595,255	800,000	-0,038	0,094
-594,240	-200,000	-0,027	0,095
-593,225	51,376	-0,096	-0,067
-592,211	114,088	0,115	-0,103
-591,196	63,972	-0,028	-0,021
-590,182	-3,793	0,013	0,007
-589,167	375,744	0,083	-0,125
-588,152	510,853	-0,047	0,080
-587,138	-7,234	-0,101	-0,050
-586,123	353,681	0,055	0,081
-585,109	-55,444	0,050	-0,017
-584,094	-1,210	-0,135	0,070
-583,079	-200,000	0,002	0,051
-582,065	-200,000	0,002	0,017
-581,050	-200,000	-0,011	-0,076
-580,036	-8,708	-0,157	-0,077
-579,021	-125,441	-0,058	-0,006
-578,006	171,029	0,067	-0,071
-576,992	107,622	0,089	0,078
-575,977	-17,865	-0,016	-0,007
-574,963	-200,000	0,030	0,174
-573,948	-87,209	-0,062	-0,014
-572,934	-200,000	-0,006	0,120
-571,919	168,985	-0,033	0,035
-570,904	206,823	0,058	0,067
-569,890	-73,633	-0,061	-0,016
-568,875	-122,971	-0,121	0,014
-567,861	153,173	0,097	-0,098
-566,846	-62,466	-0,094	-0,028
-565,831	57,233	-0,056	-0,040
-564,817	-200,000	-0,004	-0,090
-563,802	113,761	0,044	-0,040
-562,788	-200,000	0,005	0,018
-561,773	669,620	0,022	0,043
-560,758	-200,000	0,051	0,203
-559,744	408,999	0,024	-0,037
-558,729	-19,764	-0,085	-0,039
-557,715	800,000	0,019	-0,055
-556,700	-110,557	-0,076	-0,012
-555,685	-78,484	-0,037	-0,009
-554,671	86,966	-0,083	0,068
-553,656	13,357	0,058	0,033
-552,642	266,127	-0,046	0,060
-551,627	11,021	-0,059	0,033
-550,612	-138,862	-0,101	-0,008
-549,598	219,143	-0,013	0,015
-548,583	-200,000	0,009	-0,093
-547,569	-200,000	0,216	-0,000
-546,554	370,526	-0,059	-0,089
-545,539	141,667	0,049	-0,048
-544,525	800,000	0,030	-0,081
-543,510	-70,629	-0,099	0,027
-542,496	800,000	-0,013	0,039
-541,481	800,000	0,037	0,079
-540,466	-200,000	0,027	-0,108
-539,452	160,366	0,043	-0,044
-538,437	510,256	0,031	0,054
-537,423	173,437	-0,060	-0,064
-536,408	-75,676	-0,039	-0,010
-535,393	185,503	-0,033	-0,036
-534,379	324,213	0,037	0,052
-533,364	150,959	-0,140	0,140
-532,350	162,201	0,060	0,062
-531,335	155,904	-0,107	0,108
-530,321	184,641	0,090	-0,099
-529,306	-34,881	-0,084	0,034
-528,291	129,152	-0,067	0,063
-527,277	-200,000	0,005	-0,109
-526,262	55,560	0,066	-0,047
-525,248	-200,000	-0,007	0,024
-524,233	-136,244	0,143	0,012
-523,218	800,000	-0,040	-0,097
-522,204	-87,276	0,064	-0,014
-521,189	28,727	0,039	-0,024
-520,175	126,355	0,046	-0,042
-519,160	-64,824	-0,053	0,016
-518,145	-32,289	-0,087	-0,036
-517,131	-200,000	-0,035	-0,154
-516,116	7,325	0,023	0,013
-515,102	-29,063	-0,075	-0,031
-514,087	-23,584	0,139	-0,061
-513,072	-200,000	-0,001	-0,092
-512,058	333,746	0,042	-0,060
-511,043	514,457	0,039	-0,068
-510,029	293,142	0,063	-0,084
-509,014	-158,086	-0,070	0,003
-507,999	-59,116	0,067	0,021
-506,985	-200,000	-0,000	-0,210
-505,970	-126,889	-0,135	-0,014
-504,956	-160,983	0,104	-0,004
-503,941	-200,000	-0,024	0,120
-502,926	-200,000	-0,001	-0,056
-501,912	172,232	-0,069	0,073
-500,897	361,684	0,031	0,045
-499,883	137,461	-0,055	-0,053
-498,868	65,686	0,061	-0,046
-497,853	131,589	0,021	0,020
-496,839	52,658	0,125	-0,088
-495,824	-34,534	0,098	-0,039
-494,810	800,000	-0,060	0,130
-493,795	-200,000	-0,011	0,164
-492,781	509,288	-0,048	0,083
-491,766	-105,548	0,092	0,015
-490,751	-157,527	-0,041	-0,002
-489,737	-42,790	0,066	-0,024
-488,722	510,987	-0,082	0,142
-487,708	674,553	-0,043	0,083
-486,693	556,380	0,037	-0,066
-485,678	7,685	0,057	-0,031
-484,664	-200,000	0,047	-0,223
-483,649	-134,991	0,008	0,001
-482,635	-59,587	0,009	-0,003
-481,620	-100,176	0,112	0,020
-480,605	-200,000	-0,006	0,158
-479,591	-200,000	-0,013	-0,106
-478,576	800,000	-0,052	0,137
-477,562	2,013	-0,112	-0,059
-476,547	800,000	0,070	-0,142
-475,532	-87,872	0,043	-0,009
-474,518	-91,961	-0,076	0,016
-473,503	-105,437	0,080	0,013
-472,489	519,255	0,042	-0,072
-471,474	1,238	-0,018	-0,010
-470,459	676,195	0,066	-0,127
-469,445	-100,069	0,138	0,025
-468,430	800,000	0,024	-0,052
-467,416	296,632	0,054	0,073
-466,401	416,528	0,064	-0,100
-465,386	-87,487	-0,024	0,005
-464,372	-10,299	0,031	-0,015
-463,357	52,408	-0,091	-0,064
-462,343	113,001	-0,086	-0,077
-461,328	400,784	0,008	-0,013
-460,313	-147,497	-0,088	0,005
-459,299	594,971	0,044	-0,080
-458,284	-200,000	0,000	-0,081
-457,270	800,000	0,065	-0,136
-456,255	-200,000	-0,006	0,060
-455,241	188,215	-0,081	-0,089
-454,226	800,000	-0,057	-0,139
-453,211	-200,000	-0,005	0,061
-452,197	22,523	0,115	0,069
-451,182	254,987	-0,082	0,103
-450,168	118,257	-0,016	-0,014
-449,153	-200,000	-0,003	0,045
-448,138	-0,437	0,057	0,030
-447,124	-200,000	-0,017	0,106
-446,109	130,798	-0,086	0,081
-445,095	-200,000	0,018	0,133
-444,080	-67,784	-0,084	-0,024
-443,065	108,081	0,069	0,061
-442,051	614,849	0,103	0,190
-441,036	-200,000	0,004	-0,048
-440,022	-132,743	0,012	0,001
-439,007	-55,389	-0,153	0,050
-437,992	-111,720	0,086	0,013
-436,978	-88,240	0,071	0,015
-435,963	85,006	0,038	0,030
-434,949	-15,259	-0,052	0,024
-433,934	-200,000	0,014	-0,101
-432,919	244,897	-0,126	0,156
-431,905	408,857	-0,056	-0,088
-430,890	288,707	-0,060	0,079
-429,876	521,579	0,025	0,043
-428,861	-200,000	-0,017	0,065
-427,846	-55,041	-0,118	0,039
-426,832	89,072	-0,099	0,081
-425,817	70,311	-0,060	-0,045
-424,803	788,458	-0,034	-0,069
-423,788	787,116	0,061	-0,123
-422,773	-39,447	0,088	-0,034
-421,759	-23,129	-0,033	0,014
-420,744	-99,792	0,109	-0,020
-419,730	18,284	-0,011	-0,006
-418,715	-0,933	0,048	0,025
-417,701	614,179	0,050	-0,093
-416,686	8,966	0,082	-0,045
-415,671	-200,000	0,010	0,121
-414,657	-200,000	-0,005	0,113
-413,642	-154,091	-0,116	0,006
-412,628	-200,000	0,016	-0,104
-411,613	283,267	-0,083	-0,109
-410,598	-119,214	0,094	-0,012
-409,584	85,828	0,051	-0,041
-408,569	-200,000	0,026	0,129
-407,555	-86,971	0,081	-0,018
-406,540	800,000	-0,043	-0,095
-405,525	-16,693	-0,180	-0,083
-404,511	37,142	0,021	0,014
-403,496	-81,858	-0,066	-0,016
-402,482	800,000	0,036	0,114
-401,467	32,091	0,053	0,034
-400,452	800,000	-0,030	-0,085
-399,438	118,610	0,090	-0,081
-398,423	13,248	-0,024	-0,013
-397,409	318,208	0,039	0,054
-396,394	800,000	0,024	0,053
-395,379	126,260	0,089	0,083
-394,365	274,712	0,117	-0,152
-393,350	160,012	-0,057	-0,058
-392,336	-137,230	-0,166	-0,014
-391,321	635,318	0,039	0,072
-390,306	-200,000	0,018	0,067
-389,292	280,409	0,069	0,091
-388,277	-160,129	0,100	0,004
-387,263	320,028	0,022	-0,031
-386,248	-200,000	-0,003	0,095
-385,233	279,940	0,056	0,074
-384,219	-200,000	0,003	-0,051
-383,204	492,405	0,021	-0,035
-382,190	-39,204	-0,140	-0,053
-381,175	-200,000	0,037	-0,129
-380,160	-137,689	0,180	-0,015
-379,146	-173,573	-0,048	-0,001
-378,131	-94,596	-0,042	0,008
-377,117	26,046	-0,067	0,041
-376,102	800,000	0,013	-0,035
-375,088	30,726	-0,040	-0,025
-374,073	711,978	-0,042	-0,082
-373,058	-31,025	0,019	0,008
-372,044	-200,000	-0,014	-0,117
-371,029	436,473	-0,053	0,084
-370,015	140,655	0,077	0,074
-369,000	-200,000	-0,005	0,048
-367,985	471,037	-0,024	0,040
-366,971	-13,178	0,057	0,027
-365,956	279,149	-0,062	0,081
-364,942	-200,000	-0,004	0,046
-363,927	-157,756	0,107	0,005
-362,912	-200,000	-0,022	0,086
-361,898	-98,002	-0,108	-0,020
-360,883	-200,000	-0,011	0,059
-359,869	776,825	-0,019	0,039
-358,854	81,725	0,060	0,048
-357,839	-68,621	0,141	0,040
-356,825	-86,675	-0,112	0,025
-355,810	-200,000	-0,062	0,230
-354,796	-200,000	0,020	0,099
-353,781	210,181	-0,045	-0,052
-352,766	-200,000	-0,008	-0,043
-351,752	-200,000	0,025	-0,164
-350,737	88,098	0,116	-0,094
-349,723	800,000	0,029	0,059
-348,708	800,000	-0,009	0,025
-347,693	-200,000	-0,037	-0,162
-346,679	-5,286	-0,064	-0,032
-345,664	37,927	-0,128	0,083
-344,650	-31,462	0,070	-0,028
-343,635	183,287	0,084	-0,091
-342,620	626,854	-0,022	0,040
-341,606	-200,000	-0,006	-0,084
-340,591	-200,000	-0,021	0,115
-339,577	-200,000	0,005	0,102
-338,562	104,988	-0,073	0,063
-337,548	-200,000	-0,012	-0,080
-336,533	-200,000	0,030	0,102
-335,518	33,263	-0,065	0,041
-334,504	-200,000	0,015	0,049
-333,489	766,764	-0,046	-0,092
-332,475	18,059	-0,047	-0,027
-331,460	-81,951	-0,061	0,014
-330,445	-33,839	0,039	-0,015
-329,431	424,292	-0,077	-0,122
-328,416	518,142	-0,037	0,064
-327,402	118,192	-0,065	0,058
-326,387	90,474	0,059	0,048
-325,372	116,363	0,057	0,051
-324,358	84,186	0,087	-0,069
-323,343	149,684	-0,073	0,072
-322,329	58,492	0,062	-0,044
-321,314	-200,000	-0,028	0,118
-320,299	-200,000	-0,001	0,053
-319,285	-90,498	0,116	-0,024
-318,270	11,045	-0,090	-0,050
-317,256	-116,100	0,057	0,008
-316,241	115,425	0,121	-0,107
-315,226	-200,000	0,002	-0,065
-314,212	-64,768	0,115	0,034
-313,197	-90,482	0,128	-0,027
-312,183	102,808	-0,061	-0,052
-311,168	101,232	-0,107	-0,091
-310,153	422,119	0,019	0,029
-309,139	-200,000	0,013	-0,070
-308,124	800,000	0,008	-0,023
-307,110	-101,329	0,073	-0,013
-306,095	-200,000	0,026	0,119
-305,080	800,000	-0,024	-0,054
-304,066	134,030	-0,065	-0,061
-303,051	261,653	0,102	0,129
-302,037	-129,242	0,054	-0,005
-301,022	15,140	0,095	-0,054
-300,008	-31,847	0,106	-0,043
-298,993	-96,664	-0,012	0,002
-297,978	431,104	0,051	0,081
-296,964	-69,527	0,062	0,017
-295,949	-200,000	-0,011	-0,038
-294,935	331,632	-0,072	-0,102
-293,920	476,475	0,008	-0,013
-292,905	70,798	-0,043	-0,032
-291,891	203,164	0,048	0,054
-290,876	-6,345	-0,064	-0,032
-289,862	52,630	0,045	0,031
-288,847	300,451	-0,133	0,179
-287,832	800,000	0,037	-0,108
-286,818	-200,000	-0,009	-0,051
-285,803	800,000	0,019	0,058
-284,789	-149,189	0,132	-0,008
-283,774	-111,720	0,076	0,011
-282,759	-200,000	-0,031	0,000
-281,745	-141,956	-0,099	-0,007
-280,730	-200,000	-0,012	-0,069
-279,716	-66,150	0,113	-0,033
-278,701	800,000	0,033	-0,103
-277,686	-58,287	0,079	0,025
-276,672	-46,262	-0,118	0,042
-275,657	72,221	-0,008	0,006
-274,643	75,716	-0,043	-0,033
-273,628	67,276	-0,076	-0,056
-272,613	387,363	-0,039	-0,059
-271,599	47,802	0,080	-0,055
-270,584	800,000	-0,024	0,064
-269,570	10,663	0,133	0,073
-268,555	-23,962	0,068	-0,029
-267,540	-14,164	0,109	-0,051
-266,526	83,076	0,047	-0,037
-265,511	-139,754	-0,049	0,004
-264,497	-200,000	-0,000	-0,070
-263,482	-111,766	-0,196	0,029
-262,467	19,686	0,127	-0,074
-261,453	-55,407	0,075	0,024
-260,438	186,545	-0,082	-0,089
-259,424	35,944	-0,083	-0,053
-258,409	313,942	0,071	-0,098
-257,395	205,323	0,069	0,078
-256,380	592,538	-0,036	0,064
-255,365	262,423	0,062	0,078
-254,351	-83,691	-0,065	-0,015
-253,336	-200,000	-0,001	-0,026
-252,322	78,443	-0,097	-0,076
-251,307	-16,888	0,087	0,040
-250,292	90,332	0,019	-0,016
-249,278	358,288	0,023	0,034
-248,263	-87,623	0,116	0,025
-247,249	-200,000	-0,004	0,057
-246,234	778,928	-0,018	-0,036
-245,219	-11,200	-0,045	0,022
-244,205	800,000	-0,006	0,014
-243,190	-87,057	-0,095	0,021
-242,176	120,965	0,129	0,117
-241,161	422,727	0,045	0,071
-240,146	-111,291	0,170	-0,025
-239,132	570,940	-0,039	0,070
-238,117	800,000	-0,065	-0,154
-237,103	-200,000	0,001	-0,057
-236,088	-200,000	0,021	0,095
-235,073	-65,518	0,072	0,021
-234,059	-141,116	0,148	0,011
-233,044	4,428	-0,099	0,053
-232,030	-74,798	-0,107	-0,028
-231,015	-147,815	-0,044	-0,003
-230,000	102,603	0,052	0,044
-228,986	-45,327	-0,052	-0,019
-227,971	-160,748	0,217	0,008
-226,957	20,849	-0,073	0,043
-225,942	191,532	-0,122	-0,133
-224,927	272,144	-0,058	-0,074
-223,913	-140,325	-0,116	0,009
-222,898	-15,417	0,099	-0,046
-221,884	107,200	-0,052	-0,045
-220,869	800,000	-0,027	0,057
-219,855	-200,000	0,016	0,084
-218,840	-200,000	0,022	0,113
-217,825	-73,764	-0,169	-0,044
-216,811	-175,961	-0,197	-0,004
-215,796	-200,000	-0,017	-0,107
-214,782	74,213	-0,033	0,025
-213,767	367,454	-0,035	-0,052
-212,752	-116,242	0,027	-0,004
-211,738	578,449	0,053	-0,095
-210,723	800,000	-0,050	0,120
-209,709	-181,692	-0,054	-0,001
-208,694	345,801	0,025	0,036
-207,679	521,890	0,010	0,017
-206,665	-200,000	-0,002	-0,042
-205,650	-200,000	0,007	0,046
-204,636	-200,000	0,021	0,143
-203,621	-179,717	0,077	-0,001
-202,606	800,000	-0,021	-0,051
-201,592	-200,000	-0,021	-0,075
-200,577	308,198	-0,080	0,109
-199,563	-79,550	-0,080	0,019
-198,548	274,877	-0,083	0,108
-197,533	-200,000	-0,013	0,110
-196,519	33,879	0,115	0,073
-195,504	800,000	0,022	-0,070
-194,490	-15,148	0,039	0,018
-193,475	800,000	-0,029	0,074
-192,460	-171,737	0,155	0,004
-191,446	417,928	0,056	0,087
-190,431	800,000	-0,006	-0,016
-189,417	593,070	-0,066	-0,119
-188,402	800,000	0,042	-0,132
-187,387	800,000	0,052	-0,125
-186,373	-152,976	-0,085	0,004
-185,358	136,627	-0,061	-0,057
-184,344	116,726	0,047	0,042
-183,329	-200,000	0,022	0,107
-182,315	-88,977	-0,018	-0,004
-181,300	800,000	0,022	0,068
-180,285	-10,446	-0,100	-0,048
-179,271	-113,814	0,035	0,005
-178,256	-7,342	0,088	-0,043
-177,242	-102,858	-0,054	0,009
-176,227	87,120	0,087	0,070
-175,212	23,787	0,102	0,061
-174,198	300,617	0,063	-0,084
-173,183	36,101	-0,093	0,059
-172,169	800,000	-0,022	0,052
-171,154	196,936	-0,121	0,134
-170,139	252,542	-0,072	0,089
-169,125	-200,000	0,019	0,127
-168,110	224,462	-0,087	-0,102
-167,096	-200,000	-0,017	0,090
-166,081	39,530	-0,050	0,033
-165,066	22,736	-0,156	-0,093
-164,052	209,501	-0,054	0,062
-163,037	800,000	-0,008	0,019
-162,023	-200,000	-0,010	0,110
-161,008	525,560	-0,018	0,032
-159,993	800,000	0,058	-0,133
-158,979	430,926	-0,082	-0,130
-157,964	-200,000	0,016	0,083
-156,950	104,508	0,027	-0,023
-155,935	364,449	0,052	-0,076
-154,920	67,975	-0,041	0,030
-153,906	376,044	0,069	0,102
-152,891	33,311	-0,073	-0,046
-151,877	-47,048	-0,207	-0,073
-150,862	-32,172	0,069	0,028
-149,847	-68,894	-0,185	-0,051
-148,833	5,513	0,060	-0,032
-147,818	-200,000	0,010	0,089
-146,804	664,355	0,034	0,064
-145,789	800,000	-0,038	-0,099
-144,775	-200,000	0,011	-0,046
-143,760	80,564	-0,091	0,071
-142,745	470,733	0,073	0,120
-141,731	-96,572	-0,037	-0,007
-140,716	180,802	0,086	0,091
-139,702	540,947	-0,080	0,139
-138,687	670,421	0,065	0,122
-137,672	-159,130	-0,230	-0,009
-136,658	800,000	-0,011	-0,033
-135,643	-29,174	-0,130	0,054
-134,629	800,000	0,050	-0,112
-133,614	800,000	-0,012	0,035
-132,599	-44,467	-0,030	-0,011
-131,585	561,047	-0,110	0,193
-130,570	-200,000	-0,003	0,039
-129,556	-200,000	-0,022	0,153
-128,541	-180,906	-0,099	0,001
-127,526	-126,013	0,060	-0,006
-126,512	-200,000	-0,029	0,121
-125,497	187,182	-0,041	0,044
-124,483	8,061	0,087	-0,047
-123,468	800,000	-0,042	0,092
-122,453	-115,319	0,070	0,009
-121,439	72,398	0,084	-0,063
-120,424	-107,697	-0,058	-0,009
-119,410	507,904	0,066	0,112
