DTS Sentinel unit serial number:	SN410029Multiplexer serial number:	ORYXHardware model number:	OX2-SRSoftware version number:	ORYX F/W v4,00 Oryx Data Collector v3.7.2.0data status	okinstallation	B4 Nyhavnadifferential loss correction	single-endedforward channel	channel 2reverse channel	N/Adate	2023/12/16time	06:15:13forward acquisition time	300,00reverse acquisition time	0,00gamma	499,1914k internal	0,3127k external	0,3127temperature offset calibration	1,0000default loss term (dB/km)	0,3820temperature slope calibration	1,0000multiplexer offset coefficient	1,0000multiplexer slope coefficient	1,0000fibre end	0,00T internal ref (°C)	22,25T ext. ref 1 (°C)	7,55T ext. ref 2 (°C)	7,73length (m)	temperature (°C)	Stokes	anti-Stokes-744,400	-200,000	-0,013	-0,188
-743,385	-125,025	-0,238	0,027
-742,371	-53,276	-0,021	-0,007
-741,356	-43,274	-0,191	0,072
-740,342	-106,137	-0,020	-0,003
-739,327	-178,090	-0,219	-0,004
-738,312	800,000	0,036	-0,098
-737,298	-93,574	-0,225	-0,046
-736,283	-200,000	-0,025	-0,096
-735,269	185,460	-0,122	0,136
-734,254	337,748	0,025	0,037
-733,239	-143,545	-0,336	-0,023
-732,225	-25,849	0,238	-0,104
-731,210	627,359	0,044	0,084
-730,196	-83,036	-0,071	-0,017
-729,181	48,069	0,112	-0,078
-728,167	-200,000	0,010	0,041
-727,152	-15,319	-0,021	0,010
-726,137	-200,000	-0,030	-0,106
-725,123	41,985	-0,048	0,032
-724,108	-59,052	-0,137	-0,044
-723,094	-200,000	-0,009	-0,120
-722,079	187,002	-0,055	-0,061
-721,064	535,022	0,028	0,049
-720,050	8,922	0,017	0,010
-719,035	-200,000	0,006	0,026
-718,021	-134,604	0,109	-0,010
-717,006	36,941	0,051	-0,033
-715,991	-130,532	-0,227	0,023
-714,977	800,000	0,045	-0,145
-713,962	286,320	0,047	-0,064
-712,948	40,613	-0,074	0,050
-711,933	800,000	-0,014	0,041
-710,918	3,631	-0,102	-0,055
-709,904	453,052	-0,072	-0,119
-708,889	-136,091	-0,082	0,007
-707,875	133,314	-0,095	-0,092
-706,860	517,652	-0,061	-0,107
-705,845	52,653	-0,062	0,044
-704,831	64,686	0,045	0,034
-703,816	-28,319	-0,105	0,045
-702,802	-28,228	-0,110	0,047
-701,787	800,000	-0,035	-0,095
-700,772	169,249	-0,069	-0,074
-699,758	68,688	0,021	-0,016
-698,743	745,004	-0,027	0,054
-697,729	-200,000	-0,006	-0,027
-696,714	172,751	-0,097	0,104
-695,699	-76,462	0,201	0,052
-694,685	800,000	0,031	-0,095
-693,670	43,632	-0,070	-0,047
-692,656	800,000	-0,099	-0,210
-691,641	10,585	0,105	-0,060
-690,627	-200,000	0,042	0,164
-689,612	-200,000	-0,012	0,118
-688,597	-122,060	-0,138	0,017
-687,583	107,130	-0,055	0,049
-686,568	103,789	0,060	-0,052
-685,554	101,973	0,061	0,053
-684,539	-170,010	-0,166	-0,004
-683,524	800,000	0,015	-0,041
-682,510	236,793	0,045	0,056
-681,495	-55,117	0,104	-0,034
-680,481	591,717	-0,088	-0,162
-679,466	429,710	0,063	0,102
-678,451	143,607	-0,139	-0,138
-677,437	54,024	-0,082	-0,058
-676,422	333,805	-0,106	-0,152
-675,408	-200,000	0,015	0,108
-674,393	-200,000	-0,009	0,049
-673,378	-4,573	-0,109	-0,056
-672,364	749,142	-0,050	-0,101
-671,349	353,759	-0,074	-0,110
-670,335	49,544	-0,106	0,074
-669,320	-82,615	-0,128	-0,031
-668,305	51,709	-0,103	0,073
-667,291	287,911	-0,025	-0,033
-666,276	257,520	-0,030	0,038
-665,262	88,180	-0,045	-0,037
-664,247	-169,218	-0,105	0,003
-663,232	800,000	0,037	0,085
-662,218	800,000	0,044	0,103
-661,203	-139,578	0,020	0,002
-660,189	-74,707	-0,098	0,026
-659,174	162,649	-0,025	-0,026
-658,159	733,374	-0,058	-0,115
-657,145	587,362	-0,085	-0,156
-656,130	-89,370	-0,079	-0,017
-655,116	-14,459	0,168	0,080
-654,101	31,734	-0,127	0,081
-653,086	152,756	-0,073	-0,074
-652,072	-105,726	-0,097	0,016
-651,057	-18,472	-0,114	-0,053
-650,043	-45,748	-0,101	0,037
-649,028	-200,000	-0,016	-0,119
-648,014	-200,000	0,003	0,019
-646,999	415,827	0,032	0,051
-645,984	98,096	-0,011	0,010
-644,970	-11,037	-0,090	-0,044
-643,955	-200,000	0,016	-0,150
-642,941	401,561	0,028	-0,044
-641,926	73,571	0,071	0,055
-640,911	800,000	0,040	0,126
-639,897	140,033	-0,080	0,078
-638,882	800,000	0,039	-0,089
-637,868	-112,195	-0,042	0,006
-636,853	-13,144	-0,037	-0,018
-635,838	800,000	0,035	-0,078
-634,824	-200,000	-0,031	-0,105
-633,809	800,000	-0,019	-0,063
-632,795	800,000	-0,007	-0,019
-631,780	800,000	0,050	-0,139
-630,765	-120,036	-0,101	-0,013
-629,751	-125,931	-0,094	0,010
-628,736	-200,000	-0,043	0,000
-627,722	125,737	-0,092	-0,086
-626,707	14,818	-0,089	-0,052
-625,692	126,087	-0,062	0,058
-624,678	544,014	-0,098	0,173
-623,663	94,112	-0,019	-0,016
-622,649	-58,209	-0,115	-0,037
-621,634	800,000	0,013	0,035
-620,619	-200,000	-0,008	-0,109
-619,605	-24,131	-0,052	-0,023
-618,590	104,595	-0,064	0,056
-617,576	-200,000	0,020	0,183
-616,561	323,195	-0,129	0,183
-615,546	334,865	0,042	0,061
-614,532	36,953	-0,040	0,026
-613,517	244,906	0,052	-0,064
-612,503	800,000	-0,035	-0,074
-611,488	615,475	-0,046	0,086
-610,474	-62,466	0,092	0,028
-609,459	-200,000	0,028	0,152
-608,444	-23,869	-0,129	-0,057
-607,430	54,885	-0,107	0,077
-606,415	-12,276	-0,101	-0,049
-605,401	221,967	0,037	-0,044
-604,386	-200,000	-0,021	-0,099
-603,371	-200,000	0,035	0,150
-602,357	800,000	0,045	0,102
-601,342	-174,252	0,077	-0,002
-600,328	800,000	-0,013	0,039
-599,313	-200,000	-0,005	0,168
-598,298	24,383	-0,046	-0,028
-597,284	-4,825	-0,099	0,051
-596,269	-200,000	-0,005	0,087
-595,255	-12,467	0,218	0,105
-594,240	-200,000	-0,011	-0,100
-593,225	-108,072	-0,101	0,016
-592,211	242,960	-0,060	-0,074
-591,196	800,000	-0,029	-0,063
-590,182	108,458	0,109	0,096
-589,167	-200,000	-0,028	-0,107
-588,152	-200,000	0,031	-0,125
-587,138	-108,793	0,035	0,006
-586,123	-92,134	-0,028	0,006
-585,109	-24,839	-0,050	-0,022
-584,094	-121,949	-0,082	-0,010
-583,079	-21,468	-0,050	0,023
-582,065	-200,000	0,010	0,041
-581,050	159,558	0,001	-0,001
-580,036	-148,104	-0,103	-0,006
-579,021	-200,000	0,028	-0,103
-578,006	375,570	-0,131	-0,198
-576,992	23,666	-0,168	0,102
-575,977	-200,000	0,017	-0,095
-574,963	309,072	0,049	0,068
-573,948	-200,000	-0,020	0,109
-572,934	-23,750	-0,123	-0,054
-571,919	-89,858	0,011	-0,002
-570,904	-200,000	-0,002	-0,074
-569,890	-146,490	-0,150	-0,010
-568,875	800,000	0,051	-0,153
-567,861	84,223	0,041	-0,033
-566,846	-200,000	-0,076	0,274
-565,831	58,289	0,044	0,032
-564,817	-200,000	0,033	-0,132
-563,802	-200,000	-0,005	0,070
-562,788	230,243	0,028	-0,034
-561,773	246,937	-0,073	-0,091
-560,758	-200,000	0,018	-0,070
-559,744	156,809	-0,049	0,050
-558,729	313,829	0,018	-0,025
-557,715	659,814	-0,040	-0,076
-556,700	800,000	-0,011	-0,028
-555,685	800,000	-0,018	-0,041
-554,671	-13,007	0,078	-0,038
-553,656	284,486	-0,038	0,051
-552,642	169,827	0,018	-0,019
-551,627	800,000	0,067	0,155
-550,612	87,341	-0,087	-0,071
-549,598	165,606	-0,047	-0,049
-548,583	-200,000	-0,010	-0,109
-547,569	31,737	0,040	0,025
-546,554	-54,962	0,208	0,069
-545,539	414,188	-0,112	0,176
-544,525	244,111	0,104	0,130
-543,510	800,000	0,013	0,028
-542,496	64,209	-0,036	0,027
-541,481	-9,939	0,085	-0,042
-540,466	-121,780	0,066	-0,008
-539,452	800,000	-0,046	-0,117
-538,437	84,733	0,038	0,031
-537,423	-200,000	-0,001	0,078
-536,408	-150,035	-0,038	0,002
-535,393	-200,000	0,010	-0,083
-534,379	800,000	-0,029	-0,091
-533,364	-32,480	0,054	0,022
-532,350	-49,519	-0,126	-0,044
-531,335	347,480	-0,014	-0,021
-530,321	278,999	0,050	-0,066
-529,306	72,321	0,125	-0,096
-528,291	-30,663	-0,039	-0,016
-527,277	68,689	-0,056	-0,042
-526,262	47,926	0,143	-0,098
-525,248	305,280	0,052	0,072
-524,233	50,468	0,121	0,085
-523,218	433,568	0,022	0,035
-522,204	381,917	0,031	-0,047
-521,189	139,677	0,071	-0,069
-520,175	105,498	-0,049	-0,043
-519,160	96,151	-0,061	-0,051
-518,145	-200,000	0,002	-0,079
-517,131	-33,802	-0,059	0,024
-516,116	58,406	-0,128	-0,093
-515,102	431,797	-0,047	-0,076
-514,087	136,800	0,068	0,065
-513,072	-45,229	-0,099	0,036
-512,058	-200,000	-0,003	-0,024
-511,043	153,293	0,168	-0,169
-510,029	40,447	-0,073	0,049
-509,014	-200,000	-0,003	0,058
-507,999	168,954	-0,016	-0,016
-506,985	-200,000	0,008	-0,030
-505,970	67,809	-0,101	-0,076
-504,956	116,406	0,034	0,030
-503,941	252,295	0,011	0,014
-502,926	329,467	0,054	0,077
-501,912	264,341	-0,024	-0,031
-500,897	141,907	-0,006	-0,006
-499,883	87,326	-0,142	-0,116
-498,868	-197,490	-0,088	0,000
-497,853	90,528	0,071	-0,058
-496,839	733,242	0,033	-0,066
-495,824	12,918	0,029	0,016
-494,810	124,785	0,025	0,023
-493,795	46,851	0,061	-0,042
-492,781	-28,076	0,090	-0,038
-491,766	-83,667	0,059	-0,014
-490,751	-200,000	-0,037	-0,152
-489,737	-10,295	-0,047	0,023
-488,722	-200,000	0,002	0,145
-487,708	126,048	0,049	-0,045
-486,693	261,435	0,037	-0,047
-485,678	570,642	-0,051	-0,091
-484,664	-168,739	-0,050	0,001
-483,649	1,361	0,016	-0,008
-482,635	-65,180	0,079	0,023
-481,620	-124,473	-0,063	-0,007
-480,605	-200,000	0,022	-0,075
-479,591	-53,866	0,076	-0,025
-478,576	22,989	-0,018	0,011
-477,562	800,000	-0,013	0,027
-476,547	237,943	-0,018	-0,022
-475,532	369,587	-0,066	0,099
-474,518	404,125	0,015	0,024
-473,503	-200,000	0,000	0,156
-472,489	-84,512	0,018	-0,004
-471,474	-137,454	0,105	-0,009
-470,459	-200,000	0,001	-0,094
-469,445	800,000	-0,052	0,112
-468,430	-50,303	-0,074	0,026
-467,416	800,000	0,024	0,068
-466,401	83,983	-0,063	-0,051
-465,386	800,000	0,027	0,085
-464,372	-200,000	-0,031	0,117
-463,357	-200,000	-0,013	0,045
-462,343	-23,032	-0,095	-0,042
-461,328	-200,000	-0,005	-0,139
-460,313	-171,368	0,043	0,001
-459,299	-139,651	0,187	0,014
-458,284	-200,000	0,030	0,144
-457,270	800,000	-0,051	-0,107
-456,255	-31,938	-0,047	-0,019
-455,241	-200,000	-0,031	0,148
-454,226	800,000	-0,012	0,030
-453,211	-196,773	0,115	0,001
-452,197	-200,000	0,000	-0,123
-451,182	-133,756	-0,061	-0,006
-450,168	800,000	0,018	0,048
-449,153	790,289	0,039	-0,080
-448,138	482,826	-0,029	0,049
-447,124	-5,034	0,025	-0,013
-446,109	302,446	0,026	-0,035
-445,095	221,343	0,037	0,044
-444,080	-151,117	0,164	0,009
-443,065	-200,000	-0,001	0,063
-442,051	19,273	-0,081	0,048
-441,036	-200,000	0,022	-0,091
-440,022	59,923	0,014	0,010
-439,007	119,667	0,034	-0,031
-437,992	214,193	-0,030	-0,035
-436,978	308,177	-0,072	0,099
-435,963	-70,743	0,180	0,050
-434,949	227,867	-0,068	-0,082
-433,934	-200,000	0,038	-0,143
-432,919	-200,000	0,022	-0,118
-431,905	406,025	0,085	0,133
-430,890	800,000	-0,092	-0,214
-429,876	-122,465	0,138	-0,016
-428,861	-200,000	0,008	0,070
-427,846	88,357	-0,136	0,111
-426,832	800,000	0,038	0,086
-425,817	667,044	-0,032	-0,061
-424,803	409,678	-0,054	-0,085
-423,788	245,540	0,068	-0,084
-422,773	-90,001	0,086	-0,018
-421,759	-174,370	-0,012	-0,000
-420,744	-200,000	0,012	-0,088
-419,730	631,619	0,077	-0,144
-418,715	-114,236	-0,135	-0,019
-417,701	51,698	-0,065	0,045
-416,686	-200,000	0,039	-0,127
-415,671	-44,899	-0,076	-0,028
-414,657	633,409	0,095	0,177
-413,642	-200,000	0,022	0,102
-412,628	800,000	-0,056	0,142
-411,613	-200,000	0,013	-0,059
-410,598	406,431	0,034	-0,054
-409,584	246,801	-0,066	0,083
-408,569	-119,791	0,142	0,018
-407,555	96,498	0,039	0,033
-406,540	223,387	-0,046	0,055
-405,525	94,078	-0,017	0,014
-404,511	-200,000	-0,003	-0,100
-403,496	-200,000	-0,004	-0,027
-402,482	-98,423	-0,138	-0,026
-401,467	-47,590	0,041	0,015
-400,452	-40,298	-0,030	0,011
-399,438	788,721	0,055	-0,112
-398,423	49,223	0,038	0,026
-397,409	646,005	0,052	0,098
-396,394	-20,308	-0,032	-0,014
-395,379	273,641	0,030	-0,039
-394,365	-200,000	0,009	-0,130
-393,350	24,679	-0,070	0,042
-392,336	800,000	0,036	-0,095
-391,321	50,865	-0,073	0,051
-390,306	-94,650	-0,061	0,012
-389,292	-200,000	-0,011	0,076
-388,277	-200,000	0,000	-0,058
-387,263	354,971	-0,047	-0,068
-386,248	14,048	0,041	-0,023
-385,233	-107,597	0,171	0,027
-384,219	-200,000	-0,020	0,066
-383,204	49,443	0,142	-0,098
-382,190	-99,748	0,125	0,023
-381,175	-200,000	0,016	0,120
-380,160	4,734	-0,063	-0,034
-379,146	142,575	0,121	0,118
-378,131	-200,000	-0,010	0,057
-377,117	-65,569	-0,046	-0,014
-376,102	747,256	-0,045	0,089
-375,088	188,467	0,083	0,092
-374,073	-200,000	-0,017	0,059
-373,058	291,387	-0,050	0,067
-372,044	-88,128	0,153	0,033
-371,029	413,516	-0,050	0,078
-370,015	800,000	0,032	0,066
-369,000	372,855	-0,081	0,121
-367,985	371,565	-0,016	-0,024
-366,971	-26,869	0,053	-0,023
-365,956	-14,461	-0,071	0,033
-364,942	800,000	0,080	0,173
-363,927	-108,237	-0,110	-0,017
-362,912	-31,520	0,023	-0,010
-361,898	-19,137	-0,040	0,018
-360,883	-77,753	0,168	-0,042
-359,869	-75,953	-0,141	-0,036
-358,854	20,965	-0,106	-0,063
-357,839	57,700	-0,048	0,035
-356,825	-62,348	0,055	-0,017
-355,810	-104,167	0,022	0,004
-354,796	166,955	0,024	0,025
-353,781	78,678	-0,072	-0,056
-352,766	80,117	-0,035	-0,027
-351,752	-200,000	0,004	-0,060
-350,737	-99,420	0,148	-0,027
-349,723	-200,000	0,009	0,128
-348,708	195,030	-0,156	0,174
-347,693	-114,400	-0,159	0,022
-346,679	425,135	0,034	-0,054
-345,664	123,101	-0,054	0,050
-344,650	176,558	-0,086	0,092
-343,635	-127,070	-0,030	-0,003
-342,620	-41,588	-0,042	0,016
-341,606	-200,000	-0,014	0,103
-340,591	-72,496	0,063	-0,017
-339,577	-81,196	0,076	0,018
-338,562	-36,262	0,063	0,025
-337,548	-200,000	-0,015	0,076
-336,533	-125,100	0,152	0,017
-335,518	4,180	0,147	0,079
-334,504	107,253	0,070	0,061
-333,489	255,554	-0,071	0,089
-332,475	90,583	-0,084	-0,069
-331,460	516,976	-0,043	0,073
-330,445	579,297	0,048	0,087
-329,431	800,000	0,037	0,119
-328,416	-200,000	0,004	0,051
-327,402	-156,302	-0,096	0,004
-326,387	582,633	-0,021	-0,039
-325,372	16,538	-0,070	0,040
-324,358	-32,149	-0,176	-0,072
-323,343	483,291	0,077	0,128
-322,329	-90,175	-0,022	-0,005
-321,314	800,000	0,047	0,134
-320,299	-41,856	-0,069	0,026
-319,285	-67,764	0,166	-0,047
-318,270	-200,000	-0,032	0,141
-317,256	-120,097	-0,123	0,015
-316,241	428,525	-0,003	0,004
-315,226	-47,541	-0,060	0,021
-314,212	206,821	0,077	-0,088
-313,197	-124,528	-0,060	-0,007
-312,183	-62,737	-0,031	-0,009
-311,168	-200,000	0,000	-0,028
-310,153	-200,000	-0,014	0,065
-309,139	467,455	-0,029	-0,047
-308,124	359,670	-0,066	0,096
-307,110	-137,697	0,148	0,012
-306,095	800,000	0,074	-0,196
-305,080	211,631	-0,062	0,071
-304,066	-200,000	-0,003	0,037
-303,051	800,000	0,013	0,032
-302,037	-63,065	-0,071	-0,021
-301,022	-200,000	0,016	-0,080
-300,008	38,816	0,076	-0,049
-298,993	409,955	-0,031	0,049
-297,978	-200,000	-0,019	-0,104
-296,964	-200,000	-0,037	-0,220
-295,949	-200,000	0,019	-0,165
-294,935	-47,974	-0,009	-0,003
-293,920	-30,906	0,094	-0,038
-292,905	800,000	-0,040	-0,105
-291,891	-160,079	0,134	-0,005
-290,876	535,984	0,034	0,059
-289,862	800,000	0,050	-0,115
-288,847	107,501	-0,109	-0,095
-287,832	149,845	-0,040	0,040
-286,818	-200,000	-0,021	-0,107
-285,803	800,000	0,034	0,072
-284,789	366,903	0,068	-0,100
-283,774	134,945	-0,076	0,072
-282,759	-106,998	0,058	0,009
-281,745	-65,106	-0,145	-0,042
-280,730	528,053	0,007	0,011
-279,716	-200,000	-0,012	0,081
-278,701	416,528	0,033	-0,052
-277,686	-42,279	0,176	0,066
-276,672	-66,448	0,177	0,051
-275,657	276,756	0,028	0,037
-274,643	-200,000	-0,003	-0,064
-273,628	56,586	0,039	0,028
-272,613	-200,000	0,036	0,134
-271,599	-63,486	0,046	0,014
-270,584	800,000	0,105	0,235
-269,570	240,838	0,035	0,042
-268,555	-200,000	-0,004	0,209
-267,540	213,261	0,033	-0,038
-266,526	117,753	0,042	-0,037
-265,511	172,330	0,100	-0,105
-264,497	-29,783	-0,087	0,036
-263,482	-73,934	-0,008	-0,002
-262,467	-89,174	-0,110	0,024
-261,453	-131,992	-0,024	0,002
-260,438	36,956	-0,087	-0,056
-259,424	-200,000	-0,004	-0,028
-258,409	-200,000	0,019	0,081
-257,395	-108,438	0,273	-0,042
-256,380	-200,000	0,022	0,081
-255,365	800,000	-0,032	0,072
-254,351	-183,086	0,145	-0,002
-253,336	-112,069	-0,079	-0,011
-252,322	-44,248	-0,091	0,033
-251,307	-200,000	-0,018	0,088
-250,292	-200,000	0,004	-0,091
-249,278	-145,643	0,033	-0,002
-248,263	-40,971	0,140	0,053
-247,249	414,612	0,062	0,097
-246,234	-94,741	0,153	0,030
-245,219	-31,286	0,083	0,034
-244,205	455,819	-0,047	-0,076
-243,190	-200,000	-0,004	-0,058
-242,176	800,000	-0,006	0,016
-241,161	800,000	-0,031	0,084
-240,146	235,590	-0,041	0,049
-239,132	-22,763	0,078	-0,034
-238,117	-200,000	0,003	-0,078
-237,103	-20,846	-0,182	-0,081
-236,088	-71,509	-0,076	-0,021
-235,073	-98,461	0,131	0,024
-234,059	297,465	0,073	0,099
-233,044	-200,000	0,019	0,144
-232,030	-154,511	-0,031	-0,002
-231,015	-200,000	0,020	-0,120
-230,000	800,000	-0,055	-0,134
-228,986	-200,000	-0,021	-0,072
-227,971	-108,505	0,090	0,014
-226,957	-200,000	0,030	0,118
-225,942	-152,670	-0,049	-0,002
-224,927	29,687	0,037	-0,023
-223,913	103,918	-0,099	0,085
-222,898	396,114	0,062	-0,094
-221,884	-13,082	0,060	-0,028
-220,869	20,149	0,082	0,048
-219,855	-26,219	-0,043	0,018
-218,840	-200,000	0,004	0,035
-217,825	130,238	-0,081	-0,076
-216,811	5,912	-0,069	0,037
-215,796	800,000	0,050	0,151
-214,782	428,744	0,053	0,084
-213,767	-200,000	0,014	-0,048
-212,752	-36,464	0,115	-0,045
-211,738	197,079	0,030	-0,033
-210,723	172,481	-0,047	0,050
-209,709	-141,673	-0,097	-0,007
-208,694	-99,100	-0,064	0,012
-207,679	164,171	-0,061	-0,062
-206,665	-152,430	0,036	-0,002
-205,650	-103,189	-0,027	0,005
-204,636	137,034	-0,044	0,042
-203,621	-78,608	-0,092	0,023
-202,606	-200,000	-0,008	-0,043
-201,592	-200,000	0,023	0,076
-200,577	139,739	-0,028	-0,027
-199,563	174,543	0,040	0,042
-198,548	-200,000	-0,048	0,168
-197,533	236,430	0,060	0,072
-196,519	800,000	0,027	0,059
-195,504	800,000	0,066	-0,186
-194,490	-134,175	-0,071	0,006
-193,475	-200,000	-0,012	0,056
-192,460	-32,989	0,074	0,030
-191,446	581,170	0,036	-0,064
-190,431	-200,000	0,001	-0,006
-189,417	306,517	0,060	-0,081
-188,402	245,106	-0,073	0,089
-187,387	-200,000	0,001	-0,024
-186,373	-200,000	-0,014	-0,152
-185,358	-150,458	0,118	0,006
-184,344	409,786	-0,027	0,042
-183,329	800,000	0,023	-0,048
-182,315	112,338	-0,089	-0,078
-181,300	-200,000	0,009	0,181
-180,285	800,000	-0,072	-0,146
-179,271	-200,000	0,012	-0,055
-178,256	118,112	-0,048	-0,043
-177,242	715,265	0,010	0,019
-176,227	232,328	0,004	-0,005
-175,212	40,730	0,042	0,027
-174,198	140,080	-0,091	-0,087
-173,183	800,000	-0,079	-0,243
-172,169	-200,000	-0,009	-0,147
-171,154	103,893	-0,088	-0,075
-170,139	68,691	-0,100	-0,075
-169,125	-137,381	0,130	-0,011
-168,110	-34,886	0,070	0,028
-167,096	-197,345	-0,122	0,001
-166,081	-11,575	0,036	-0,017
-165,066	-200,000	0,026	-0,135
-164,052	351,826	-0,090	-0,131
-163,037	-55,473	0,063	-0,020
-162,023	-200,000	-0,010	0,078
-161,008	-200,000	-0,008	0,068
-159,993	350,724	0,038	0,055
-158,979	563,885	0,040	-0,072
-157,964	-76,018	0,067	-0,017
-156,950	462,163	0,051	-0,084
-155,935	800,000	-0,026	-0,070
-154,920	-200,000	0,017	0,142
-153,906	270,018	0,056	0,071
-152,891	800,000	0,059	-0,130
-151,877	294,186	-0,018	0,024
-150,862	-146,422	-0,064	-0,004
-149,847	208,322	0,047	-0,053
-148,833	-31,754	-0,122	-0,050
-147,818	53,887	-0,015	0,010
-146,804	-200,000	-0,009	-0,098
-145,789	-200,000	-0,003	-0,068
-144,775	-59,788	-0,074	0,023
-143,760	-148,864	-0,065	0,004
-142,745	-172,684	-0,130	-0,003
-141,731	-177,139	-0,094	-0,002
-140,716	277,045	0,044	0,056
-139,702	-200,000	-0,005	-0,032
-138,687	-129,413	0,062	0,006
-137,672	483,583	-0,020	-0,033
-136,658	-27,159	-0,080	0,034
-135,643	-49,783	0,038	-0,013
-134,629	800,000	-0,030	0,063
-133,614	261,335	-0,025	0,032
-132,599	7,277	0,092	0,050
-131,585	86,998	0,029	-0,023
-130,570	496,401	-0,004	-0,007
-129,556	-47,894	-0,108	-0,038
-128,541	-86,984	-0,104	-0,023
-127,526	-76,593	0,061	0,016
-126,512	2,875	-0,033	0,017
-125,497	-183,716	0,102	-0,001
-124,483	132,695	0,104	-0,097
-123,468	154,041	0,076	-0,076
-122,453	182,004	0,032	-0,035
-121,439	272,798	-0,104	-0,133
-120,424	83,630	0,040	0,032
