DTS Sentinel unit serial number:	SN410029Multiplexer serial number:	ORYXHardware model number:	OX2-SRSoftware version number:	ORYX F/W v4,00 Oryx Data Collector v3.7.2.0data status	okinstallation	B4 Nyhavnadifferential loss correction	single-endedforward channel	channel 2reverse channel	N/Adate	2023/12/15time	21:15:13forward acquisition time	300,00reverse acquisition time	0,00gamma	499,1914k internal	0,3134k external	0,3134temperature offset calibration	1,0000default loss term (dB/km)	0,3820temperature slope calibration	1,0000multiplexer offset coefficient	1,0000multiplexer slope coefficient	1,0000fibre end	0,00T internal ref (°C)	20,92T ext. ref 1 (°C)	6,18T ext. ref 2 (°C)	6,36length (m)	temperature (°C)	Stokes	anti-Stokes-744,400	229,954	0,127	-0,154
-743,385	-90,779	-0,202	0,043
-742,371	-17,316	0,085	0,040
-741,356	-49,624	-0,237	0,083
-740,342	800,000	0,055	0,138
-739,327	133,341	-0,197	0,189
-738,312	-140,662	0,045	0,003
-737,298	-90,068	-0,248	0,053
-736,283	243,755	0,094	-0,117
-735,269	-70,733	-0,215	-0,060
-734,254	-94,329	0,064	0,013
-733,239	-91,816	-0,471	-0,099
-732,225	-47,552	0,008	-0,003
-731,210	340,581	0,020	-0,029
-730,196	252,443	-0,011	0,014
-729,181	-98,548	-0,172	-0,032
-728,167	800,000	-0,043	-0,129
-727,152	800,000	0,043	-0,102
-726,137	800,000	0,032	0,078
-725,123	-95,349	-0,142	0,028
-724,108	-200,000	-0,061	-0,204
-723,094	400,935	-0,060	-0,095
-722,079	346,271	0,027	-0,040
-721,064	697,932	-0,056	-0,111
-720,050	-200,000	-0,012	-0,224
-719,035	615,132	-0,057	0,106
-718,021	-122,085	-0,094	-0,011
-717,006	800,000	-0,055	0,117
-715,991	-200,000	-0,034	-0,131
-714,977	800,000	-0,015	-0,037
-713,962	-200,000	-0,011	0,066
-712,948	-200,000	-0,017	-0,074
-711,933	625,691	-0,052	-0,097
-710,918	800,000	-0,045	0,136
-709,904	800,000	-0,025	0,061
-708,889	800,000	-0,035	-0,102
-707,875	-176,237	-0,084	0,002
-706,860	533,911	-0,057	0,100
-705,845	-94,243	0,135	-0,027
-704,831	-69,488	0,022	0,006
-703,816	250,833	-0,078	0,098
-702,802	68,119	0,013	-0,010
-701,787	210,825	-0,053	0,061
-700,772	-200,000	0,009	-0,094
-699,758	-124,590	-0,149	-0,017
-698,743	446,238	0,091	0,150
-697,729	357,856	0,100	0,149
-696,714	444,881	-0,023	-0,038
-695,699	-200,000	0,003	-0,068
-694,685	-91,344	-0,142	-0,030
-693,670	-150,426	-0,090	0,005
-692,656	-200,000	-0,014	0,095
-691,641	169,304	0,133	-0,141
-690,627	651,005	-0,025	0,047
-689,612	-200,000	-0,019	-0,117
-688,597	140,420	0,016	-0,016
-687,583	-200,000	0,017	-0,098
-686,568	259,606	-0,001	0,002
-685,554	171,989	0,023	-0,025
-684,539	-90,566	-0,169	0,036
-683,524	-39,843	-0,081	0,031
-682,510	-131,309	0,105	0,010
-681,495	333,103	0,009	-0,012
-680,481	-34,836	0,057	-0,023
-679,466	-173,059	-0,078	-0,002
-678,451	137,740	0,039	0,038
-677,437	18,705	-0,116	-0,069
-676,422	-133,872	-0,052	-0,005
-675,408	-113,275	0,068	-0,010
-674,393	-139,202	-0,145	-0,011
-673,378	45,731	-0,102	0,069
-672,364	118,541	-0,099	-0,091
-671,349	-200,000	0,016	-0,115
-670,335	-200,000	-0,026	0,094
-669,320	27,383	-0,031	0,019
-668,305	315,077	-0,065	-0,092
-667,291	-135,747	0,132	0,011
-666,276	-2,349	0,095	0,049
-665,262	334,062	-0,094	-0,135
-664,247	13,858	-0,082	0,047
-663,232	178,171	0,097	-0,105
-662,218	-200,000	0,025	-0,102
-661,203	282,206	0,012	0,016
-660,189	-23,085	0,068	-0,030
-659,174	-47,920	-0,089	0,032
-658,159	-200,000	0,025	-0,129
-657,145	500,334	-0,093	-0,159
-656,130	747,788	0,018	0,036
-655,116	-76,529	0,191	0,049
-654,101	232,633	-0,034	0,041
-653,086	-200,000	0,005	-0,064
-652,072	800,000	-0,065	-0,161
-651,057	800,000	-0,036	-0,083
-650,043	-111,520	-0,124	-0,019
-649,028	-82,584	0,113	-0,027
-648,014	19,466	0,027	-0,016
-646,999	7,305	-0,094	0,052
-645,984	341,438	0,044	0,064
-644,970	-200,000	-0,011	-0,067
-643,955	50,626	0,005	-0,003
-642,941	90,102	-0,006	0,005
-641,926	-159,489	0,057	0,002
-640,911	80,685	-0,064	0,051
-639,897	-113,403	0,042	0,006
-638,882	800,000	0,059	0,146
-637,868	653,294	-0,023	0,044
-636,853	-172,798	-0,030	-0,001
-635,838	19,455	-0,119	0,071
-634,824	-62,545	-0,093	0,028
-633,809	-132,358	-0,136	0,013
-632,795	216,679	0,067	0,079
-631,780	-98,739	-0,139	-0,026
-630,765	97,642	-0,033	0,028
-629,751	-93,074	-0,071	-0,015
-628,736	416,404	-0,018	0,028
-627,722	-200,000	-0,005	-0,159
-626,707	271,932	0,056	-0,074
-625,692	94,291	0,041	0,034
-624,678	800,000	-0,052	0,159
-623,663	-97,962	-0,108	0,020
-622,649	-200,000	-0,011	-0,136
-621,634	800,000	-0,030	-0,069
-620,619	-147,336	0,025	-0,002
-619,605	72,020	0,055	0,042
-618,590	30,166	0,057	0,036
-617,576	-57,870	0,207	-0,066
-616,561	300,717	-0,119	0,163
-615,546	181,555	-0,122	-0,133
-614,532	12,105	-0,045	-0,026
-613,517	800,000	-0,024	-0,051
-612,503	-200,000	0,023	-0,132
-611,488	379,742	-0,031	0,047
-610,474	115,332	-0,081	-0,073
-609,459	-62,241	-0,039	-0,012
-608,444	-200,000	-0,060	-0,202
-607,430	73,209	-0,144	-0,111
-606,415	-90,537	-0,075	-0,016
-605,401	-200,000	-0,010	0,146
-604,386	-135,209	0,016	-0,001
-603,371	800,000	-0,023	0,068
-602,357	-200,000	0,032	0,189
-601,342	-46,514	-0,113	-0,041
-600,328	110,163	-0,095	0,084
-599,313	-113,638	0,093	0,013
-598,298	800,000	0,026	0,061
-597,284	800,000	0,040	0,119
-596,269	-200,000	-0,013	-0,048
-595,255	-200,000	0,009	0,110
-594,240	-8,961	-0,082	-0,041
-593,225	427,805	0,027	-0,043
-592,211	-109,020	0,043	0,007
-591,196	800,000	-0,034	-0,071
-590,182	800,000	-0,060	0,159
-589,167	-168,543	0,048	0,001
-588,152	352,235	0,018	0,026
-587,138	-36,332	-0,103	0,041
-586,123	-200,000	-0,004	-0,038
-585,109	284,266	-0,073	-0,098
-584,094	-143,960	-0,119	-0,008
-583,079	69,576	0,101	-0,077
-582,065	-116,407	-0,089	-0,012
-581,050	159,661	0,074	0,076
-580,036	-200,000	0,027	0,192
-579,021	-200,000	0,008	-0,054
-578,006	-200,000	0,032	-0,134
-576,992	-200,000	0,051	0,180
-575,977	800,000	0,030	-0,065
-574,963	-171,896	-0,158	0,004
-573,948	-200,000	0,025	0,091
-572,934	1,968	0,058	0,031
-571,919	416,179	-0,068	-0,107
-570,904	-159,234	0,105	-0,004
-569,890	-72,883	0,052	0,014
-568,875	479,202	-0,010	0,016
-567,861	188,225	0,019	0,021
-566,846	800,000	-0,056	0,115
-565,831	-115,081	-0,080	-0,011
-564,817	-36,380	0,086	0,034
-563,802	162,416	-0,079	-0,082
-562,788	646,265	-0,029	-0,055
-561,773	-54,699	0,042	-0,014
-560,758	-6,766	0,141	0,070
-559,744	196,967	0,046	-0,051
-558,729	-200,000	0,024	0,091
-557,715	560,739	0,000	0,001
-556,700	-179,225	0,132	-0,002
-555,685	-81,786	-0,049	-0,012
-554,671	687,291	-0,029	-0,055
-553,656	418,079	0,028	-0,045
-552,642	-164,454	0,122	0,004
-551,627	-200,000	0,007	-0,098
-550,612	674,485	-0,049	-0,093
-549,598	79,230	-0,101	-0,080
-548,583	-200,000	-0,004	0,156
-547,569	642,457	-0,028	0,053
-546,554	56,523	-0,022	0,016
-545,539	-200,000	-0,001	-0,018
-544,525	800,000	0,049	0,138
-543,510	-34,356	-0,114	-0,046
-542,496	800,000	-0,050	-0,108
-541,481	-108,700	-0,023	0,004
-540,466	427,755	0,093	-0,148
-539,452	381,231	-0,031	0,047
-538,437	355,436	-0,080	-0,118
-537,423	-200,000	0,006	0,034
-536,408	89,218	-0,118	-0,097
-535,393	328,200	-0,041	-0,059
-534,379	-84,194	0,123	0,029
-533,364	34,606	-0,112	0,072
-532,350	233,472	-0,120	0,146
-531,335	-200,000	-0,019	0,071
-530,321	-200,000	0,002	0,146
-529,306	-200,000	-0,013	0,044
-528,291	-159,148	-0,110	-0,004
-527,277	800,000	-0,048	-0,110
-526,262	-200,000	0,016	-0,186
-525,248	-23,828	0,006	-0,003
-524,233	235,721	-0,038	0,047
-523,218	-200,000	-0,002	0,035
-522,204	110,542	0,027	0,024
-521,189	132,190	-0,134	0,128
-520,175	-48,010	-0,122	-0,043
-519,160	-69,440	0,077	-0,022
-518,145	-78,964	-0,076	0,019
-517,131	-63,205	0,058	0,018
-516,116	-75,079	0,046	-0,012
-515,102	-62,107	0,038	0,012
-514,087	-200,000	0,007	0,031
-513,072	-200,000	-0,002	-0,155
-512,058	-200,000	-0,003	-0,041
-511,043	534,086	0,039	-0,069
-510,029	264,680	0,007	0,009
-509,014	650,633	0,033	0,063
-507,999	55,506	0,103	-0,074
-506,985	800,000	-0,019	-0,051
-505,970	800,000	0,035	-0,105
-504,956	-44,586	-0,014	0,005
-503,941	-200,000	0,019	0,119
-502,926	-73,045	0,062	0,017
-501,912	781,835	0,031	-0,063
-500,897	130,891	0,049	0,046
-499,883	9,457	-0,064	-0,036
-498,868	-26,484	-0,108	-0,046
-497,853	800,000	0,066	-0,151
-496,839	314,961	0,050	0,070
-495,824	-77,273	0,071	-0,018
-494,810	-9,065	0,037	-0,018
-493,795	-200,000	-0,026	-0,104
-492,781	-154,943	-0,068	0,003
-491,766	-200,000	-0,021	-0,074
-490,751	-104,557	0,146	0,024
-489,737	-72,991	0,047	-0,013
-488,722	-104,644	0,148	0,025
-487,708	-200,000	0,017	0,080
-486,693	-26,048	0,038	0,016
-485,678	-92,689	-0,085	-0,017
-484,664	51,822	-0,146	0,102
-483,649	-94,668	-0,026	0,005
-482,635	-151,636	0,197	-0,010
-481,620	167,119	-0,061	0,063
-480,605	-118,454	0,020	0,003
-479,591	43,240	-0,078	0,052
-478,576	-200,000	0,019	0,108
-477,562	61,147	-0,111	0,081
-476,547	-77,851	-0,119	-0,030
-475,532	-62,100	0,145	-0,044
-474,518	-0,264	0,099	-0,052
-473,503	53,702	-0,057	0,040
-472,489	-7,445	-0,126	0,062
-471,474	44,814	0,089	-0,060
-470,459	178,810	-0,007	-0,008
-469,445	134,599	-0,079	-0,075
-468,430	547,049	0,007	-0,013
-467,416	145,708	0,090	-0,089
-466,401	-62,051	-0,016	-0,005
-465,386	12,037	-0,113	0,064
-464,372	334,982	0,093	0,132
-463,357	-111,428	-0,072	0,011
-462,343	-110,174	-0,049	-0,007
-461,328	800,000	-0,036	-0,074
-460,313	75,911	0,201	-0,156
-459,299	273,277	0,119	-0,155
-458,284	238,545	-0,010	-0,012
-457,270	131,712	0,101	0,096
-456,255	450,233	-0,044	0,071
-455,241	-166,190	-0,091	-0,003
-454,226	95,895	-0,093	-0,078
-453,211	800,000	-0,018	0,041
-452,197	800,000	-0,012	0,034
-451,182	-200,000	-0,014	-0,067
-450,168	69,517	0,201	-0,152
-449,153	800,000	-0,022	-0,062
-448,138	-133,986	0,048	-0,004
-447,124	800,000	0,062	0,158
-446,109	-46,575	0,077	-0,027
-445,095	800,000	-0,031	0,074
-444,080	-106,539	0,065	-0,010
-443,065	33,416	0,070	-0,044
-442,051	-112,243	0,064	0,009
-441,036	-118,122	-0,023	-0,003
-440,022	-200,000	-0,020	-0,107
-439,007	-200,000	0,011	-0,134
-437,992	-200,000	0,001	-0,059
-436,978	-197,141	0,204	-0,001
-435,963	-16,991	-0,068	0,032
-434,949	-161,665	-0,102	-0,004
-433,934	103,596	-0,076	-0,066
-432,919	-200,000	0,008	-0,049
-431,905	77,543	0,026	-0,020
-430,890	800,000	0,009	0,029
-429,876	800,000	-0,044	-0,126
-428,861	-83,585	-0,064	-0,015
-427,846	-200,000	0,009	-0,031
-426,832	800,000	0,029	0,081
-425,817	-200,000	0,013	-0,065
-424,803	356,138	0,057	-0,083
-423,788	-200,000	0,002	0,038
-422,773	88,125	-0,093	0,075
-421,759	-200,000	-0,000	0,050
-420,744	-85,772	0,052	-0,012
-419,730	-30,035	-0,048	-0,020
-418,715	-10,156	-0,044	-0,021
-417,701	800,000	-0,047	0,098
-416,686	-56,818	-0,056	-0,018
-415,671	-51,828	0,021	0,007
-414,657	-4,032	0,020	-0,010
-413,642	-117,512	0,105	0,014
-412,628	5,527	-0,098	0,053
-411,613	-200,000	-0,012	-0,058
-410,598	-153,378	-0,081	-0,004
-409,584	-200,000	0,012	0,057
-408,569	325,193	0,032	0,045
-407,555	576,076	0,048	0,086
-406,540	-25,005	-0,100	0,043
-405,525	278,050	-0,079	-0,104
-404,511	278,954	-0,083	-0,108
-403,496	-65,795	0,030	0,009
-402,482	217,972	0,084	0,098
-401,467	142,851	0,020	-0,019
-400,452	-200,000	-0,014	0,103
-399,438	-71,041	0,070	0,019
-398,423	246,780	-0,112	0,139
-397,409	-71,206	0,097	-0,026
-396,394	452,930	-0,057	0,093
-395,379	298,223	0,040	0,054
-394,365	-200,000	-0,007	0,024
-393,350	800,000	0,057	0,127
-392,336	708,483	0,064	0,125
-391,321	352,773	-0,076	-0,111
-390,306	800,000	-0,018	0,041
-389,292	78,229	0,062	-0,049
-388,277	-200,000	-0,009	-0,150
-387,263	276,389	-0,067	-0,087
-386,248	481,017	0,034	-0,057
-385,233	-200,000	-0,025	0,112
-384,219	800,000	0,043	0,122
-383,204	522,528	-0,063	0,108
-382,190	115,533	0,026	0,023
-381,175	376,458	-0,050	-0,075
-380,160	800,000	0,047	0,111
-379,146	181,973	0,059	0,064
-378,131	28,427	0,082	-0,051
-377,117	-122,305	0,076	0,009
-376,102	-134,918	-0,213	0,019
-375,088	482,504	-0,016	-0,027
-374,073	-60,769	0,045	0,014
-373,058	-200,000	0,024	-0,135
-372,044	119,139	-0,011	0,010
-371,029	384,076	0,061	0,092
-370,015	-34,678	-0,052	0,021
-369,000	-200,000	0,017	-0,105
-367,985	532,774	-0,102	-0,178
-366,971	194,550	-0,037	-0,041
-365,956	-99,592	0,147	0,027
-364,942	327,733	0,116	0,163
-363,927	9,901	0,091	0,050
-362,912	-68,040	0,075	0,021
-361,898	370,345	-0,041	-0,062
-360,883	7,473	-0,145	-0,079
-359,869	-53,969	-0,092	0,030
-358,854	183,984	-0,070	0,076
-357,839	-81,301	0,029	-0,007
-356,825	-78,263	0,233	-0,058
-355,810	329,809	-0,041	-0,058
-354,796	-200,000	-0,009	0,087
-353,781	74,197	-0,047	0,036
-352,766	-200,000	0,009	-0,064
-351,752	30,797	0,085	-0,053
-350,737	46,896	0,058	-0,040
-349,723	20,845	-0,071	-0,042
-348,708	33,808	0,048	-0,031
-347,693	-89,073	0,182	-0,039
-346,679	270,268	-0,022	-0,028
-345,664	202,573	0,129	-0,146
-344,650	93,280	-0,056	-0,046
-343,635	-200,000	0,027	-0,154
-342,620	-25,300	-0,066	0,028
-341,606	800,000	0,032	-0,083
-340,591	169,807	-0,077	-0,081
-339,577	36,080	0,025	0,016
-338,562	-200,000	-0,147	-0,000
-337,548	139,850	0,103	-0,099
-336,533	800,000	0,065	-0,145
-335,518	800,000	-0,038	0,089
-334,504	111,568	0,029	-0,026
-333,489	-200,000	0,004	0,088
-332,475	236,057	-0,011	-0,014
-331,460	398,355	-0,051	0,079
-330,445	-43,798	0,007	-0,003
-329,431	50,561	0,060	0,041
-328,416	617,939	-0,071	0,130
-327,402	-65,239	0,056	-0,016
-326,387	-36,695	-0,003	-0,001
-325,372	-200,000	-0,005	0,108
-324,358	800,000	0,075	0,157
-323,343	-200,000	0,020	0,066
-322,329	268,896	-0,062	0,080
-321,314	-100,140	0,150	0,027
-320,299	-200,000	-0,001	0,170
-319,285	800,000	-0,013	0,030
-318,270	-73,848	0,022	-0,006
-317,256	800,000	-0,031	0,081
-316,241	-99,716	-0,100	-0,018
-315,226	195,151	0,101	-0,112
-314,212	-184,790	0,097	-0,001
-313,197	323,667	-0,056	-0,078
-312,183	-200,000	0,027	-0,156
-311,168	151,714	0,149	0,149
-310,153	211,874	0,019	-0,022
-309,139	-82,827	-0,045	-0,011
-308,124	-119,833	0,142	0,018
-307,110	800,000	-0,032	0,067
-306,095	202,328	-0,037	0,041
-305,080	365,698	0,068	-0,100
-304,066	-68,980	-0,117	-0,033
-303,051	-200,000	-0,031	-0,116
-302,037	72,962	0,044	0,034
-301,022	278,344	-0,056	0,073
-300,008	44,610	0,083	0,055
-298,993	128,266	-0,043	0,040
-297,978	578,987	-0,014	0,026
-296,964	-200,000	-0,014	-0,053
-295,949	-200,000	0,007	-0,023
-294,935	68,872	-0,054	-0,040
-293,920	800,000	-0,036	-0,073
-292,905	37,989	-0,033	0,021
-291,891	564,606	-0,052	-0,093
-290,876	160,453	0,039	-0,039
-289,862	-200,000	-0,013	0,071
-288,847	800,000	-0,033	-0,081
-287,832	183,201	-0,028	0,030
-286,818	-116,864	-0,034	0,004
-285,803	159,588	-0,102	0,103
-284,789	69,168	0,111	0,083
-283,774	800,000	-0,026	-0,066
-282,759	314,556	-0,060	0,083
-281,745	533,227	-0,031	-0,054
-280,730	-1,489	-0,034	-0,017
-279,716	-200,000	-0,033	0,113
-278,701	-80,085	0,038	0,009
-277,686	64,460	-0,029	-0,021
-276,672	800,000	-0,022	0,068
-275,657	-161,394	-0,082	-0,003
-274,643	800,000	-0,065	0,174
-273,628	-7,538	0,060	0,029
-272,613	-13,132	0,067	-0,032
-271,599	330,518	0,036	0,051
-270,584	418,098	0,040	-0,063
-269,570	-69,356	-0,140	-0,039
-268,555	-50,544	0,080	-0,027
-267,540	800,000	0,010	-0,029
-266,526	535,674	-0,064	-0,111
-265,511	-19,977	-0,054	-0,024
-264,497	-94,981	0,079	-0,015
-263,482	129,463	0,036	0,034
-262,467	559,943	-0,030	-0,053
-261,453	-200,000	-0,003	0,084
-260,438	-53,203	-0,076	-0,025
-259,424	34,690	-0,063	0,040
-258,409	205,200	0,053	-0,060
-257,395	-24,917	-0,062	0,027
-256,380	-56,693	0,110	0,035
-255,365	800,000	-0,008	-0,023
-254,351	800,000	0,027	0,061
-253,336	148,137	-0,003	0,003
-252,322	800,000	0,020	-0,048
-251,307	336,120	-0,063	0,089
-250,292	-200,000	0,007	0,061
-249,278	-200,000	-0,001	-0,020
-248,263	800,000	0,014	0,032
-247,249	800,000	-0,042	0,122
-246,234	-89,142	-0,037	-0,008
-245,219	18,185	-0,131	-0,076
-244,205	800,000	0,005	0,014
-243,190	-53,904	-0,118	0,039
-242,176	18,952	-0,074	0,043
-241,161	-134,559	-0,136	-0,012
-240,146	-58,243	0,061	0,019
-239,132	-200,000	0,004	0,055
-238,117	800,000	0,013	-0,027
-237,103	488,200	-0,047	-0,079
-236,088	-200,000	0,000	0,040
-235,073	-65,069	0,115	0,034
-234,059	304,455	0,062	0,084
-233,044	-161,946	0,152	0,005
-232,030	-53,231	-0,067	0,022
-231,015	-200,000	0,026	-0,121
-230,000	-103,649	-0,114	-0,019
-228,986	-200,000	-0,004	0,023
-227,971	-1,572	-0,033	-0,017
-226,957	-200,000	0,017	0,072
-225,942	27,524	0,093	0,057
-224,927	800,000	-0,031	-0,075
-223,913	46,734	0,041	0,028
-222,898	-121,481	-0,077	0,009
-221,884	-42,031	0,130	-0,048
-220,869	-200,000	-0,001	0,087
-219,855	800,000	0,059	0,144
-218,840	-142,846	0,024	0,002
-217,825	800,000	0,058	0,168
-216,811	-41,793	0,114	0,042
-215,796	92,373	0,130	-0,107
-214,782	800,000	-0,004	0,009
-213,767	296,447	-0,008	-0,011
-212,752	-34,456	0,101	-0,040
-211,738	-200,000	0,001	-0,026
-210,723	-162,804	-0,106	-0,004
-209,709	-100,819	0,081	-0,014
-208,694	-200,000	0,056	-0,192
-207,679	105,799	-0,155	-0,134
-206,665	139,702	0,104	-0,099
-205,650	-80,705	-0,069	0,017
-204,636	800,000	0,052	0,113
-203,621	-103,961	-0,068	0,011
-202,606	-200,000	0,014	0,083
-201,592	651,111	-0,056	-0,105
-200,577	80,030	-0,038	-0,030
-199,563	800,000	-0,016	0,044
-198,548	-22,205	0,120	-0,053
-197,533	-134,179	0,137	0,012
-196,519	466,582	0,074	-0,120
-195,504	-13,122	-0,046	-0,022
-194,490	-48,328	0,063	-0,022
-193,475	-144,017	-0,031	0,002
-192,460	499,150	0,032	-0,053
-191,446	-200,000	-0,006	-0,050
-190,431	-117,829	-0,065	-0,008
-189,417	-125,132	-0,068	-0,008
-188,402	490,762	-0,027	0,046
-187,387	-200,000	0,008	-0,033
-186,373	-21,997	0,187	-0,082
-185,358	464,391	-0,075	-0,123
-184,344	-19,607	0,108	-0,048
-183,329	236,175	0,096	0,116
-182,315	-200,000	-0,017	0,093
-181,300	-139,017	-0,078	0,006
-180,285	-189,452	0,068	-0,001
-179,271	490,275	-0,052	-0,086
-178,256	-45,821	0,129	0,046
-177,242	37,069	0,021	0,013
-176,227	115,568	-0,086	0,077
-175,212	411,851	-0,047	-0,072
-174,198	23,097	-0,036	0,021
-173,183	323,192	-0,091	-0,126
-172,169	16,892	0,042	0,024
-171,154	-12,166	0,080	0,038
-170,139	99,021	0,006	0,005
-169,125	143,327	0,140	0,136
-168,110	-200,000	-0,006	0,020
-167,096	-180,245	-0,054	0,001
-166,081	-47,886	0,098	0,034
-165,066	-200,000	-0,002	0,040
-164,052	159,336	-0,156	-0,157
-163,037	11,770	0,080	-0,045
-162,023	62,321	0,170	-0,123
-161,008	258,700	-0,034	0,043
-159,993	800,000	-0,057	0,130
-158,979	800,000	0,052	-0,133
-157,964	-47,653	-0,089	-0,031
-156,950	90,684	-0,018	0,015
-155,935	-200,000	-0,005	-0,054
-154,920	17,896	-0,080	0,046
-153,906	-54,673	0,135	0,044
-152,891	679,080	-0,015	0,028
-151,877	-29,844	-0,132	0,054
-150,862	-200,000	-0,029	-0,100
-149,847	-200,000	-0,010	-0,068
-148,833	-96,720	0,072	-0,014
-147,818	800,000	0,046	0,132
-146,804	-114,398	0,018	-0,002
-145,789	538,771	0,078	-0,135
-144,775	-6,552	-0,047	0,023
-143,760	-57,853	-0,072	0,023
-142,745	-61,917	-0,119	0,036
-141,731	-140,670	0,043	0,003
-140,716	-127,884	-0,124	0,013
-139,702	263,458	0,098	-0,124
-138,687	241,268	-0,052	0,063
-137,672	-102,279	-0,086	-0,015
-136,658	-129,222	0,136	0,014
-135,643	800,000	0,057	-0,151
-134,629	-64,326	0,103	0,030
-133,614	-63,612	-0,034	0,010
-132,599	691,368	-0,027	-0,052
-131,585	-200,000	-0,013	0,101
-130,570	-83,703	0,133	-0,031
-129,556	-200,000	-0,016	-0,067
-128,541	-200,000	0,005	0,047
-127,526	-200,000	-0,027	0,126
-126,512	-21,717	-0,029	0,013
-125,497	375,797	0,093	-0,138
-124,483	-200,000	-0,017	-0,114
-123,468	-200,000	0,032	0,123
-122,453	686,777	0,027	-0,051
-121,439	-200,000	0,041	-0,135
-120,424	-8,891	-0,131	0,063
