DTS Sentinel unit serial number:	SN410029Multiplexer serial number:	ORYXHardware model number:	OX2-SRSoftware version number:	ORYX F/W v4,00 Oryx Data Collector v3.7.2.0data status	okinstallation	B4 Nyhavnadifferential loss correction	single-endedforward channel	channel 2reverse channel	N/Adate	2023/12/18time	20:05:13forward acquisition time	300,00reverse acquisition time	0,00gamma	499,1914k internal	0,3124k external	0,3124temperature offset calibration	1,0000default loss term (dB/km)	0,3820temperature slope calibration	1,0000multiplexer offset coefficient	1,0000multiplexer slope coefficient	1,0000fibre end	0,00T internal ref (°C)	21,88T ext. ref 1 (°C)	7,11T ext. ref 2 (°C)	7,09length (m)	temperature (°C)	Stokes	anti-Stokes-744,400	31,873	-0,011	-0,007
-743,385	-144,610	-0,378	0,026
-742,371	-2,004	0,070	0,037
-741,356	-200,000	-0,034	0,125
-740,342	800,000	-0,031	-0,068
-739,327	-12,753	-0,330	0,160
-738,312	800,000	-0,016	-0,048
-737,298	-83,283	-0,161	0,038
-736,283	74,721	0,074	0,058
-735,269	-190,027	-0,091	0,001
-734,254	-200,000	-0,027	-0,151
-733,239	-130,870	-0,417	-0,041
-732,225	34,846	0,161	-0,105
-731,210	367,446	-0,015	0,023
-730,196	-200,000	-0,003	0,021
-729,181	380,676	-0,046	-0,071
-728,167	-105,790	-0,103	-0,017
-727,152	17,460	-0,038	-0,023
-726,137	-105,526	-0,165	0,028
-725,123	-99,512	-0,067	0,012
-724,108	-50,579	0,095	0,033
-723,094	55,585	-0,080	0,058
-722,079	259,248	-0,023	-0,030
-721,064	332,720	-0,052	0,075
-720,050	-145,737	-0,066	0,004
-719,035	-43,401	0,076	0,028
-718,021	-200,000	-0,012	-0,068
-717,006	-53,966	-0,024	0,008
-715,991	-200,000	0,013	-0,166
-714,977	104,266	0,046	0,040
-713,962	-45,187	-0,088	0,032
-712,948	-200,000	0,021	0,113
-711,933	-200,000	0,002	-0,076
-710,918	-161,897	-0,164	-0,006
-709,904	526,613	-0,079	-0,140
-708,889	-200,000	0,008	0,049
-707,875	263,804	-0,063	-0,081
-706,860	29,564	0,081	-0,051
-705,845	54,901	-0,043	0,031
-704,831	0,476	0,064	0,034
-703,816	-200,000	-0,008	-0,083
-702,802	-41,906	0,094	-0,036
-701,787	-92,909	-0,184	-0,038
-700,772	58,385	-0,018	0,013
-699,758	526,088	0,019	0,034
-698,743	-200,000	-0,020	-0,146
-697,729	-200,000	0,014	0,072
-696,714	-153,018	0,069	0,004
-695,699	54,996	0,065	-0,047
-694,685	-200,000	-0,015	-0,061
-693,670	-156,602	-0,114	-0,005
-692,656	-64,986	0,052	-0,016
-691,641	-62,746	0,109	0,033
-690,627	345,529	0,033	-0,049
-689,612	798,966	0,029	0,059
-688,597	-148,784	-0,084	-0,005
-687,583	232,796	-0,111	-0,135
-686,568	-200,000	-0,003	-0,011
-685,554	-111,608	-0,095	0,014
-684,539	-106,145	0,023	0,004
-683,524	192,694	0,090	-0,101
-682,510	800,000	0,048	0,106
-681,495	319,253	0,019	-0,026
-680,481	-4,561	-0,095	0,049
-679,466	46,490	-0,064	0,044
-678,451	186,636	-0,109	0,121
-677,437	686,111	0,052	-0,101
-676,422	250,194	0,051	-0,064
-675,408	124,182	-0,057	-0,053
-674,393	237,417	-0,008	-0,010
-673,378	125,704	-0,107	-0,100
-672,364	800,000	-0,054	-0,154
-671,349	-200,000	0,003	-0,028
-670,335	800,000	0,059	0,130
-669,320	34,640	-0,107	-0,069
-668,305	343,505	-0,028	-0,041
-667,291	266,519	0,066	-0,086
-666,276	665,450	-0,047	0,090
-665,262	-200,000	0,014	0,081
-664,247	403,544	-0,044	-0,069
-663,232	180,634	0,027	0,029
-662,218	-200,000	-0,009	-0,035
-661,203	800,000	-0,033	0,083
-660,189	9,429	-0,071	-0,040
-659,174	-99,108	-0,096	0,018
-658,159	14,740	-0,070	-0,040
-657,145	-65,413	0,135	0,040
-656,130	322,280	-0,054	0,076
-655,116	-200,000	0,053	0,186
-654,101	42,983	0,045	-0,030
-653,086	-161,765	-0,052	0,002
-652,072	203,517	0,052	0,059
-651,057	-200,000	-0,027	-0,141
-650,043	-200,000	0,003	0,106
-649,028	85,711	0,034	0,027
-648,014	800,000	0,057	-0,139
-646,999	-57,906	0,107	0,034
-645,984	42,180	-0,074	-0,050
-644,970	-20,258	-0,096	0,044
-643,955	220,738	-0,046	0,055
-642,941	-33,743	-0,196	-0,080
-641,926	-21,752	0,047	-0,021
-640,911	-45,449	-0,071	-0,026
-639,897	75,275	0,140	-0,110
-638,882	-163,933	0,118	-0,004
-637,868	85,688	-0,037	-0,030
-636,853	-56,122	-0,093	-0,031
-635,838	800,000	-0,026	0,078
-634,824	-200,000	-0,012	0,166
-633,809	800,000	-0,026	-0,068
-632,795	-60,312	-0,061	0,019
-631,780	15,059	0,051	0,030
-630,765	-22,960	-0,109	0,048
-629,751	-200,000	0,002	0,144
-628,736	216,539	-0,095	-0,113
-627,722	-200,000	-0,002	0,050
-626,707	800,000	0,016	0,051
-625,692	-153,254	0,110	0,006
-624,678	-8,793	-0,021	0,010
-623,663	194,300	0,064	0,072
-622,649	-38,840	-0,062	0,024
-621,634	-137,487	-0,036	0,003
-620,619	93,349	-0,073	-0,061
-619,605	-36,648	0,027	-0,011
-618,590	-200,000	0,033	0,110
-617,576	-109,803	-0,169	0,026
-616,561	585,782	0,032	0,059
-615,546	74,189	-0,079	-0,061
-614,532	800,000	-0,062	-0,194
-613,517	-175,520	0,105	-0,002
-612,503	674,309	0,067	0,130
-611,488	7,925	-0,065	-0,036
-610,474	-98,343	0,170	0,032
-609,459	157,497	-0,023	0,024
-608,444	800,000	-0,056	-0,151
-607,430	-200,000	0,003	0,043
-606,415	24,305	0,054	0,033
-605,401	268,935	0,019	0,025
-604,386	23,127	0,037	0,022
-603,371	800,000	0,025	0,053
-602,357	-78,333	-0,071	0,018
-601,342	-156,823	0,178	0,008
-600,328	197,989	-0,066	-0,074
-599,313	302,052	0,075	-0,102
-598,298	200,684	0,064	0,073
-597,284	-200,000	-0,002	0,059
-596,269	766,679	0,019	0,038
-595,255	134,422	0,036	0,035
-594,240	-200,000	0,008	-0,115
-593,225	-185,211	-0,079	-0,001
-592,211	-43,612	-0,060	-0,022
-591,196	-200,000	-0,003	-0,084
-590,182	-37,784	-0,084	-0,033
-589,167	-107,109	-0,125	0,020
-588,152	268,223	0,116	0,151
-587,138	81,042	-0,093	-0,075
-586,123	-32,232	-0,136	0,056
-585,109	-45,279	0,018	-0,007
-584,094	800,000	-0,032	-0,094
-583,079	800,000	-0,019	-0,040
-582,065	-84,900	-0,086	-0,020
-581,050	-152,695	0,027	0,001
-580,036	50,212	0,053	-0,037
-579,021	-31,941	-0,078	0,032
-578,006	-200,000	-0,014	0,046
-576,992	67,787	0,030	0,022
-575,977	21,653	0,069	0,041
-574,963	-200,000	0,045	0,164
-573,948	24,813	-0,034	-0,021
-572,934	272,892	-0,026	0,034
-571,919	800,000	-0,054	-0,125
-570,904	-31,473	-0,165	0,068
-569,890	800,000	-0,005	0,013
-568,875	81,539	-0,019	0,015
-567,861	-77,314	0,088	-0,023
-566,846	-79,476	-0,069	-0,017
-565,831	361,262	0,022	0,033
-564,817	-169,793	0,020	0,001
-563,802	116,824	0,084	0,076
-562,788	101,437	0,070	0,061
-561,773	330,001	-0,034	-0,048
-560,758	644,707	-0,046	0,088
-559,744	-200,000	0,000	0,047
-558,729	111,572	-0,053	0,048
-557,715	-200,000	0,029	-0,132
-556,700	-200,000	0,018	-0,164
-555,685	-63,971	-0,097	-0,029
-554,671	147,359	0,127	0,126
-553,656	197,600	-0,056	-0,064
-552,642	49,673	-0,069	0,048
-551,627	134,586	-0,021	0,020
-550,612	-200,000	-0,001	-0,166
-549,598	800,000	0,071	-0,170
-548,583	-200,000	0,009	-0,033
-547,569	-101,424	-0,077	0,014
-546,554	-200,000	-0,018	0,105
-545,539	-200,000	0,008	0,047
-544,525	-115,500	0,091	-0,013
-543,510	-135,030	-0,114	-0,010
-542,496	-74,356	-0,033	0,009
-541,481	-200,000	-0,027	-0,102
-540,466	1,339	-0,048	-0,025
-539,452	190,039	-0,143	0,159
-538,437	447,354	0,076	0,124
-537,423	38,507	0,069	0,045
-536,408	-200,000	-0,010	0,054
-535,393	800,000	-0,020	-0,049
-534,379	243,821	-0,015	0,018
-533,364	800,000	0,018	0,053
-532,350	190,524	0,033	0,036
-531,335	-48,850	0,059	0,021
-530,321	465,167	0,026	0,043
-529,306	800,000	-0,036	-0,074
-528,291	388,290	-0,010	0,016
-527,277	130,347	0,047	-0,045
-526,262	173,794	-0,022	0,023
-525,248	208,168	-0,018	-0,021
-524,233	-200,000	0,011	0,049
-523,218	800,000	-0,024	0,055
-522,204	417,024	-0,041	0,066
-521,189	-174,586	0,052	0,001
-520,175	198,585	-0,007	-0,007
-519,160	-200,000	-0,013	-0,073
-518,145	-43,781	0,062	0,023
-517,131	4,353	0,133	0,072
-516,116	52,613	-0,081	-0,057
-515,102	-200,000	0,017	-0,057
-514,087	-72,421	-0,153	-0,042
-513,072	-151,787	0,042	0,002
-512,058	4,068	0,076	-0,041
-511,043	338,387	0,070	-0,101
-510,029	20,537	-0,036	0,021
-509,014	31,318	0,045	0,029
-507,999	-200,000	0,025	0,088
-506,985	-111,922	-0,056	-0,008
-505,970	78,659	-0,057	-0,045
-504,956	-103,231	-0,118	-0,020
-503,941	225,817	0,045	-0,054
-502,926	-10,581	0,188	0,092
-501,912	87,942	0,055	0,045
-500,897	256,362	0,055	-0,070
-499,883	800,000	-0,031	0,084
-498,868	-8,394	0,033	-0,016
-497,853	199,706	-0,017	0,019
-496,839	-10,163	0,025	0,012
-495,824	-115,673	0,075	0,010
-494,810	-200,000	-0,027	0,096
-493,795	800,000	0,008	-0,020
-492,781	-140,902	-0,065	0,005
-491,766	-80,128	-0,103	0,025
-490,751	-35,361	0,076	-0,030
-489,737	-2,545	-0,048	-0,025
-488,722	-132,647	-0,125	-0,012
-487,708	800,000	0,038	0,087
-486,693	-173,525	-0,070	-0,002
-485,678	16,748	0,044	-0,025
-484,664	41,161	0,078	-0,052
-483,649	800,000	-0,016	-0,034
-482,635	-5,365	-0,026	-0,013
-481,620	-29,672	0,049	0,020
-480,605	-28,660	0,090	-0,038
-479,591	800,000	-0,035	0,082
-478,576	241,578	-0,145	-0,179
-477,562	139,926	-0,048	0,047
-476,547	-29,140	-0,115	-0,048
-475,532	279,523	-0,033	0,044
-474,518	717,642	-0,037	0,073
-473,503	319,765	-0,020	0,028
-472,489	130,039	-0,063	0,059
-471,474	-26,586	-0,032	0,014
-470,459	569,123	-0,068	-0,122
-469,445	-66,432	0,109	-0,032
-468,430	184,689	0,064	-0,070
-467,416	-200,000	-0,046	0,000
-466,401	-47,213	0,027	-0,010
-465,386	562,446	0,100	0,179
-464,372	800,000	0,045	-0,135
-463,357	69,950	-0,062	-0,047
-462,343	-200,000	-0,013	0,115
-461,328	800,000	0,052	-0,130
-460,313	-72,801	-0,088	0,024
-459,299	800,000	-0,077	0,162
-458,284	56,631	0,025	0,018
-457,270	-153,347	-0,084	-0,004
-456,255	-5,159	-0,066	0,034
-455,241	-200,000	0,012	-0,186
-454,226	-200,000	-0,015	-0,120
-453,211	43,895	0,044	0,030
-452,197	-38,420	-0,047	0,018
-451,182	126,620	0,008	0,008
-450,168	-133,938	-0,031	-0,003
-449,153	-200,000	-0,011	0,161
-448,138	361,518	-0,023	-0,034
-447,124	-82,738	0,142	-0,033
-446,109	454,302	-0,050	-0,081
-445,095	180,994	-0,053	-0,058
-444,080	-200,000	-0,025	0,119
-443,065	-85,870	-0,040	0,009
-442,051	294,361	0,060	0,080
-441,036	-200,000	0,005	0,085
-440,022	800,000	-0,021	0,048
-439,007	800,000	-0,036	0,104
-437,992	800,000	0,049	0,143
-436,978	-103,690	0,128	-0,022
-435,963	430,940	-0,024	-0,038
-434,949	-200,000	-0,036	-0,123
-433,934	792,471	0,050	-0,102
-432,919	158,988	-0,081	-0,083
-431,905	88,953	-0,053	0,043
-430,890	-200,000	0,040	-0,165
-429,876	-117,453	0,100	0,013
-428,861	800,000	-0,040	0,113
-427,846	-17,131	-0,017	0,008
-426,832	4,477	-0,065	-0,035
-425,817	72,662	-0,177	-0,136
-424,803	-200,000	0,005	-0,110
-423,788	127,952	-0,033	0,031
-422,773	800,000	0,025	0,055
-421,759	146,584	-0,077	0,076
-420,744	390,884	0,032	0,049
-419,730	23,082	-0,046	-0,028
-418,715	160,126	0,044	0,046
-417,701	63,100	-0,080	-0,059
-416,686	-31,605	-0,070	-0,029
-415,671	800,000	-0,005	0,014
-414,657	14,072	0,087	0,050
-413,642	-62,073	0,062	0,019
-412,628	197,581	-0,039	-0,044
-411,613	-28,770	-0,050	-0,021
-410,598	-25,635	-0,096	-0,042
-409,584	-154,013	-0,075	-0,004
-408,569	-186,794	0,034	-0,000
-407,555	-200,000	-0,010	0,065
-406,540	55,443	0,132	-0,094
-405,525	-200,000	0,034	0,139
-404,511	218,127	0,068	-0,080
-403,496	-12,220	-0,171	-0,082
-402,482	343,343	0,047	-0,068
-401,467	332,939	0,080	0,115
-400,452	-200,000	-0,006	0,021
-399,438	645,092	-0,014	-0,027
-398,423	-76,140	0,030	0,008
-397,409	-200,000	-0,007	0,145
-396,394	-200,000	-0,019	-0,148
-395,379	-73,660	0,095	-0,025
-394,365	-200,000	0,052	0,237
-393,350	168,711	-0,063	0,066
-392,336	-200,000	0,013	-0,166
-391,321	-200,000	-0,027	-0,110
-390,306	800,000	0,015	-0,034
-389,292	76,213	0,112	0,087
-388,277	-30,119	0,028	-0,012
-387,263	-200,000	-0,005	-0,180
-386,248	-200,000	-0,017	-0,102
-385,233	-115,375	-0,083	0,011
-384,219	-49,843	0,078	-0,027
-383,204	-200,000	-0,049	-0,209
-382,190	-4,413	-0,105	-0,053
-381,175	27,023	0,075	-0,046
-380,160	800,000	0,048	-0,153
-379,146	-118,975	0,137	0,017
-378,131	70,644	0,178	0,135
-377,117	105,782	0,046	-0,040
-376,102	800,000	-0,049	-0,154
-375,088	800,000	0,073	-0,169
-374,073	329,773	-0,059	0,084
-373,058	-68,491	0,169	-0,048
-372,044	-200,000	-0,005	-0,076
-371,029	-200,000	-0,033	0,133
-370,015	444,158	0,003	-0,005
-369,000	800,000	0,053	-0,113
-367,985	-165,747	0,125	0,004
-366,971	215,464	-0,075	0,088
-365,956	-103,854	0,077	-0,013
-364,942	161,042	-0,110	0,113
-363,927	83,694	-0,062	0,050
-362,912	62,190	-0,069	0,051
-361,898	-73,161	-0,091	-0,024
-360,883	-79,279	0,037	-0,009
-359,869	-139,887	-0,044	0,003
-358,854	238,964	-0,051	0,062
-357,839	482,607	0,089	0,149
-356,825	-111,711	0,028	-0,004
-355,810	-116,100	0,147	-0,020
-354,796	800,000	0,010	0,025
-353,781	-200,000	0,013	-0,075
-352,766	249,331	0,105	-0,131
-351,752	800,000	0,027	0,067
-350,737	-29,887	-0,091	-0,038
-349,723	366,426	-0,086	0,127
-348,708	-17,445	0,102	0,047
-347,693	-11,036	-0,026	0,012
-346,679	40,201	-0,024	0,016
-345,664	800,000	-0,069	-0,144
-344,650	-200,000	-0,009	0,079
-343,635	610,714	0,031	0,056
-342,620	-200,000	-0,030	0,121
-341,606	645,417	0,005	-0,010
-340,591	0,322	-0,035	-0,018
-339,577	-200,000	0,007	-0,086
-338,562	-200,000	-0,013	-0,061
-337,548	-120,688	-0,113	0,014
-336,533	65,287	-0,018	0,013
-335,518	-200,000	0,009	0,137
-334,504	-68,186	0,055	0,016
-333,489	433,348	0,048	-0,077
-332,475	270,449	-0,088	0,114
-331,460	188,479	-0,030	-0,033
-330,445	297,111	-0,044	-0,060
-329,431	-200,000	0,003	-0,083
-328,416	77,603	0,108	0,084
-327,402	-200,000	0,026	0,122
-326,387	-2,023	-0,065	0,033
-325,372	-97,983	-0,049	0,009
-324,358	-40,410	0,125	-0,047
-323,343	-200,000	-0,021	-0,093
-322,329	316,618	-0,049	0,068
-321,314	-9,303	0,124	-0,061
-320,299	-200,000	0,016	0,118
-319,285	-91,164	-0,086	0,018
-318,270	39,237	-0,097	0,064
-317,256	-200,000	-0,004	-0,013
-316,241	-200,000	-0,005	-0,082
-315,226	800,000	0,032	0,074
-314,212	-67,669	0,104	-0,030
-313,197	800,000	0,031	0,084
-312,183	800,000	0,084	0,206
-311,168	-200,000	-0,034	-0,122
-310,153	-200,000	-0,004	-0,184
-309,139	-144,416	-0,116	0,008
-308,124	87,695	0,038	0,031
-307,110	-66,209	0,093	0,027
-306,095	800,000	-0,016	0,040
-305,080	-200,000	0,088	-0,000
-304,066	152,308	-0,070	0,070
-303,051	115,836	-0,055	0,050
-302,037	144,248	0,036	-0,035
-301,022	159,721	0,062	0,063
-300,008	800,000	-0,046	0,103
-298,993	34,486	-0,093	0,059
-297,978	800,000	0,039	-0,101
-296,964	-11,529	-0,021	-0,010
-295,949	-200,000	-0,016	0,086
-294,935	800,000	-0,020	0,050
-293,920	-9,368	-0,100	0,049
-292,905	491,446	-0,025	-0,041
-291,891	150,909	0,068	0,067
-290,876	182,972	0,045	-0,049
-289,862	18,147	-0,079	-0,046
-288,847	482,864	0,090	-0,150
-287,832	-80,151	0,200	-0,049
-286,818	-62,910	-0,096	0,029
-285,803	775,411	-0,024	-0,048
-284,789	800,000	0,026	-0,069
-283,774	5,003	-0,103	-0,055
-282,759	-200,000	-0,000	0,090
-281,745	-46,518	-0,135	0,048
-280,730	100,314	0,088	-0,075
-279,716	-20,110	-0,072	-0,032
-278,701	-200,000	-0,015	0,067
-277,686	-200,000	-0,004	0,189
-276,672	-200,000	-0,017	0,138
-275,657	800,000	0,047	0,106
-274,643	317,591	-0,023	0,032
-273,628	250,506	0,034	0,042
-272,613	-80,905	-0,153	-0,037
-271,599	-152,993	0,070	-0,004
-270,584	-200,000	0,133	-0,000
-269,570	380,206	0,011	-0,017
-268,555	-200,000	0,014	-0,131
-267,540	800,000	-0,009	0,026
-266,526	-63,977	-0,074	-0,022
-265,511	-46,980	-0,020	-0,007
-264,497	-200,000	0,013	-0,078
-263,482	-160,177	0,158	-0,006
-262,467	-200,000	-0,029	-0,129
-261,453	800,000	0,011	-0,033
-260,438	72,411	0,011	0,008
-259,424	253,321	-0,026	-0,032
-258,409	451,583	-0,095	-0,154
-257,395	-200,000	0,021	-0,087
-256,380	-52,899	-0,114	-0,038
-255,365	800,000	-0,018	-0,049
-254,351	-101,832	0,085	0,015
-253,336	-34,959	-0,123	0,049
-252,322	59,395	-0,182	-0,131
-251,307	36,954	0,150	-0,097
-250,292	172,344	-0,095	-0,100
-249,278	-25,745	0,106	0,046
-248,263	525,878	-0,050	-0,086
-247,249	768,320	0,047	0,095
-246,234	-200,000	0,013	0,057
-245,219	800,000	0,017	-0,039
-244,205	-200,000	-0,010	0,044
-243,190	41,175	0,061	-0,040
-242,176	-86,869	0,040	0,009
-241,161	-200,000	0,029	0,117
-240,146	104,109	-0,060	-0,051
-239,132	-77,424	0,099	0,025
-238,117	-182,834	-0,052	-0,001
-237,103	800,000	-0,021	0,046
-236,088	-94,308	0,196	-0,039
-235,073	-200,000	-0,034	0,110
-234,059	-200,000	-0,037	0,163
-233,044	-95,776	-0,106	-0,020
-232,030	-154,769	0,086	0,004
-231,015	28,615	-0,103	-0,064
-230,000	-163,067	0,132	-0,005
-228,986	611,744	-0,045	0,082
-227,971	-25,254	-0,095	-0,041
-226,957	-40,726	0,084	-0,032
-225,942	497,627	0,042	0,070
-224,927	800,000	0,020	0,056
-223,913	-90,139	-0,089	0,019
-222,898	39,023	-0,096	-0,062
-221,884	237,047	-0,033	-0,040
-220,869	310,564	0,060	-0,082
-219,855	-57,126	0,049	0,016
-218,840	-59,334	0,031	-0,010
-217,825	800,000	0,036	0,096
-216,811	-200,000	0,008	-0,043
-215,796	560,790	0,033	-0,058
-214,782	639,774	-0,022	-0,041
-213,767	-56,530	0,144	-0,046
-212,752	-179,018	0,135	-0,002
-211,738	800,000	-0,029	-0,088
-210,723	10,407	-0,081	0,045
-209,709	190,728	0,043	-0,047
-208,694	-200,000	0,005	-0,041
-207,679	-127,418	-0,106	0,011
-206,665	41,534	0,054	0,036
-205,650	238,290	0,049	0,059
-204,636	-72,110	-0,050	0,013
-203,621	-200,000	0,017	0,080
-202,606	63,843	0,048	0,035
-201,592	-93,190	-0,044	0,009
-200,577	-32,217	0,081	-0,033
-199,563	-200,000	-0,011	0,080
-198,548	800,000	0,031	0,063
-197,533	-62,010	0,022	-0,007
-196,519	-75,575	0,042	0,011
-195,504	89,821	-0,127	0,104
-194,490	355,089	0,102	0,148
-193,475	-200,000	-0,005	-0,033
-192,460	12,778	-0,051	-0,029
-191,446	498,678	0,038	-0,064
-190,431	800,000	-0,036	-0,086
-189,417	131,897	0,133	0,124
-188,402	-51,320	0,089	-0,030
-187,387	-61,740	-0,117	-0,036
-186,373	800,000	0,038	-0,098
-185,358	-23,652	0,094	0,041
-184,344	433,045	0,002	0,003
-183,329	103,515	0,084	-0,072
-182,315	12,588	0,072	0,040
-181,300	381,658	-0,031	-0,047
-180,285	448,041	-0,103	-0,166
-179,271	-200,000	0,011	-0,078
-178,256	204,203	0,113	0,127
-177,242	7,791	0,135	-0,074
-176,227	166,039	0,088	-0,091
-175,212	216,451	-0,058	0,067
-174,198	217,754	0,072	0,084
-173,183	-62,783	-0,102	-0,031
-172,169	800,000	-0,077	-0,174
-171,154	32,426	-0,058	0,036
-170,139	197,270	0,076	-0,084
-169,125	161,241	-0,026	0,027
-168,110	-200,000	0,020	0,123
-167,096	574,678	-0,096	0,171
-166,081	-29,693	-0,177	0,073
-165,066	-200,000	0,006	-0,045
-164,052	-200,000	0,003	-0,201
-163,037	-126,336	0,023	0,002
-162,023	-125,902	0,144	0,016
-161,008	80,057	0,139	0,108
-159,993	196,587	0,046	-0,051
-158,979	-200,000	0,005	-0,022
-157,964	-200,000	0,013	-0,049
-156,950	-200,000	-0,013	-0,103
-155,935	574,671	0,085	0,152
-154,920	-200,000	-0,011	0,082
-153,906	-100,675	0,124	0,022
-152,891	800,000	-0,043	-0,096
-151,877	-200,000	0,025	0,146
-150,862	-36,253	-0,099	0,039
-149,847	-200,000	0,008	-0,065
-148,833	800,000	-0,034	0,097
-147,818	-46,863	0,065	0,023
-146,804	34,787	-0,110	0,070
-145,789	-130,741	0,038	-0,004
-144,775	4,087	-0,035	-0,019
-143,760	-69,801	-0,104	0,029
-142,745	-200,000	0,006	0,119
-141,731	-145,707	0,138	-0,009
-140,716	-200,000	-0,005	0,085
-139,702	-134,122	-0,093	-0,008
-138,687	38,096	0,031	0,020
-137,672	-34,769	-0,049	0,019
-136,658	-200,000	-0,018	0,073
-135,643	-200,000	-0,011	-0,055
-134,629	800,000	0,027	-0,065
-133,614	-200,000	-0,013	0,044
-132,599	241,349	0,066	0,080
-131,585	258,709	-0,027	0,034
-130,570	-1,958	0,051	-0,026
-129,556	-70,623	0,028	-0,008
-128,541	800,000	0,039	-0,080
-127,526	-110,657	-0,024	0,004
-126,512	-94,527	-0,079	-0,016
-125,497	222,802	0,166	0,194
-124,483	800,000	0,037	0,115
-123,468	23,320	-0,063	-0,038
-122,453	290,229	0,051	0,067
-121,439	315,090	0,055	0,075
-120,424	261,392	-0,027	-0,034
-119,410	-200,000	0,025	0,192
-118,395	-133,777	-0,011	0,001
