DTS Sentinel unit serial number:	SN410029Multiplexer serial number:	ORYXHardware model number:	OX2-SRSoftware version number:	ORYX F/W v4,00 Oryx Data Collector v3.7.2.0data status	okinstallation	B4 Nyhavnadifferential loss correction	single-endedforward channel	channel 2reverse channel	N/Adate	2023/12/16time	07:15:13forward acquisition time	300,00reverse acquisition time	0,00gamma	499,1914k internal	0,3127k external	0,3127temperature offset calibration	1,0000default loss term (dB/km)	0,3820temperature slope calibration	1,0000multiplexer offset coefficient	1,0000multiplexer slope coefficient	1,0000fibre end	0,00T internal ref (°C)	22,33T ext. ref 1 (°C)	7,50T ext. ref 2 (°C)	7,69length (m)	temperature (°C)	Stokes	anti-Stokes-744,400	618,204	0,060	-0,112
-743,385	13,092	-0,207	0,119
-742,371	-17,107	0,069	-0,032
-741,356	662,198	-0,070	0,135
-740,342	-200,000	0,011	0,070
-739,327	-84,961	-0,086	-0,020
-738,312	242,168	0,092	-0,115
-737,298	42,402	-0,270	0,182
-736,283	163,150	0,110	0,115
-735,269	-178,470	-0,139	0,002
-734,254	-32,503	0,014	0,006
-733,239	-121,110	-0,307	-0,038
-732,225	-200,000	0,008	-0,125
-731,210	13,739	-0,114	-0,066
-730,196	687,523	-0,047	-0,093
-729,181	122,981	0,047	-0,044
-728,167	-200,000	-0,012	0,164
-727,152	171,564	0,016	0,018
-726,137	-171,172	-0,063	0,002
-725,123	119,029	-0,022	-0,021
-724,108	-200,000	-0,074	-0,260
-723,094	234,379	-0,094	-0,116
-722,079	741,338	-0,038	-0,076
-721,064	92,325	-0,057	0,048
-720,050	-200,000	0,032	0,136
-719,035	-200,000	-0,005	0,052
-718,021	800,000	0,027	-0,088
-717,006	-15,258	-0,082	-0,039
-715,991	-147,700	-0,123	-0,008
-714,977	11,187	-0,028	0,016
-713,962	385,700	-0,042	-0,064
-712,948	665,866	0,080	-0,154
-711,933	706,464	0,018	-0,035
-710,918	250,245	0,034	-0,043
-709,904	800,000	-0,045	-0,146
-708,889	-157,696	-0,053	-0,002
-707,875	-51,258	-0,157	-0,054
-706,860	100,270	-0,048	0,041
-705,845	-150,612	-0,056	-0,003
-704,831	-200,000	-0,021	0,105
-703,816	49,999	0,104	0,073
-702,802	800,000	-0,032	-0,084
-701,787	800,000	0,050	-0,148
-700,772	-15,712	-0,055	-0,026
-699,758	-61,797	0,052	0,016
-698,743	-200,000	0,015	0,109
-697,729	800,000	-0,006	0,017
-696,714	800,000	-0,024	-0,049
-695,699	800,000	0,015	-0,048
-694,685	-121,594	0,106	0,013
-693,670	159,092	-0,015	0,016
-692,656	462,059	0,063	0,105
-691,641	-98,490	-0,116	0,022
-690,627	-200,000	0,018	0,128
-689,612	-200,000	0,007	0,070
-688,597	800,000	-0,007	-0,022
-687,583	363,508	0,053	-0,080
-686,568	-200,000	-0,021	-0,119
-685,554	-160,769	0,198	-0,008
-684,539	-172,859	0,111	-0,003
-683,524	302,009	-0,031	0,043
-682,510	155,277	0,069	0,070
-681,495	800,000	0,032	-0,104
-680,481	246,660	-0,076	-0,096
-679,466	-44,988	-0,145	0,053
-678,451	38,164	0,058	0,038
-677,437	-92,532	0,090	-0,019
-676,422	-200,000	0,009	0,140
-675,408	-200,000	0,014	-0,087
-674,393	-200,000	-0,005	0,042
-673,378	330,102	0,046	0,066
-672,364	-146,723	0,099	0,006
-671,349	-200,000	0,026	-0,138
-670,335	172,458	-0,088	-0,094
-669,320	137,782	0,035	-0,034
-668,305	800,000	0,044	0,122
-667,291	-12,395	0,029	-0,014
-666,276	92,587	-0,101	-0,085
-665,262	95,264	-0,109	0,092
-664,247	113,555	-0,041	-0,037
-663,232	96,515	-0,056	-0,047
-662,218	-22,867	0,023	0,010
-661,203	-98,196	0,096	0,018
-660,189	-29,455	-0,083	-0,035
-659,174	-24,209	-0,127	-0,056
-658,159	578,606	0,052	0,096
-657,145	-200,000	0,001	-0,060
-656,130	-200,000	-0,024	0,102
-655,116	-164,380	0,108	0,004
-654,101	34,634	0,047	-0,030
-653,086	-200,000	-0,013	0,066
-652,072	-113,604	-0,089	-0,013
-651,057	800,000	-0,064	-0,193
-650,043	-103,380	-0,072	0,012
-649,028	-55,846	0,079	0,026
-648,014	295,806	0,078	-0,106
-646,999	-200,000	-0,014	0,078
-645,984	187,667	-0,113	-0,125
-644,970	22,099	-0,126	-0,076
-643,955	426,618	-0,032	-0,051
-642,941	228,630	-0,103	-0,125
-641,926	245,276	0,003	0,004
-640,911	-109,853	0,124	0,019
-639,897	800,000	0,063	0,141
-638,882	-174,756	-0,091	0,002
-637,868	47,043	-0,059	-0,041
-636,853	152,687	-0,034	-0,034
-635,838	16,969	-0,034	-0,020
-634,824	-1,254	0,078	-0,041
-633,809	90,902	0,117	-0,098
-632,795	172,118	-0,051	0,055
-631,780	-200,000	0,016	0,070
-630,765	-200,000	-0,007	-0,040
-629,751	-163,347	0,018	0,001
-628,736	278,720	-0,047	-0,063
-627,722	220,381	0,052	0,062
-626,707	-200,000	-0,001	-0,025
-625,692	98,887	0,054	-0,047
-624,678	-73,545	-0,048	-0,013
-623,663	-148,562	0,057	-0,003
-622,649	-64,132	-0,160	-0,048
-621,634	800,000	-0,032	0,072
-620,619	-127,496	0,124	-0,013
-619,605	-1,172	-0,095	-0,050
-618,590	49,936	0,131	0,092
-617,576	-87,881	-0,056	-0,012
-616,561	-200,000	0,015	0,050
-615,546	-200,000	-0,034	-0,120
-614,532	-156,637	-0,136	-0,006
-613,517	-93,363	0,066	-0,014
-612,503	-200,000	-0,001	-0,020
-611,488	-200,000	0,014	-0,075
-610,474	526,552	-0,042	-0,073
-609,459	-123,736	-0,079	-0,009
-608,444	81,256	0,093	-0,074
-607,430	-129,962	-0,049	0,005
-606,415	131,879	-0,073	-0,070
-605,401	-48,609	-0,103	0,037
-604,386	16,993	0,039	0,023
-603,371	72,705	0,022	0,017
-602,357	247,304	-0,046	0,058
-601,342	-200,000	0,000	0,087
-600,328	66,563	-0,011	0,008
-599,313	354,285	-0,064	0,094
-598,298	794,029	0,012	0,024
-597,284	-70,399	-0,103	-0,029
-596,269	-200,000	-0,046	0,163
-595,255	800,000	-0,052	0,153
-594,240	800,000	-0,012	-0,030
-593,225	245,152	0,022	0,027
-592,211	106,610	-0,028	-0,025
-591,196	75,037	-0,049	0,039
-590,182	-200,000	-0,003	0,079
-589,167	187,034	-0,066	0,073
-588,152	-200,000	0,010	-0,039
-587,138	2,224	-0,066	-0,035
-586,123	312,846	-0,065	-0,091
-585,109	-37,913	-0,196	-0,077
-584,094	163,909	0,080	0,084
-583,079	-185,734	0,152	-0,002
-582,065	499,239	-0,107	0,183
-581,050	800,000	0,051	0,112
-580,036	800,000	0,041	-0,098
-579,021	316,481	-0,086	-0,121
-578,006	-88,243	0,058	0,013
-576,992	-200,000	-0,027	-0,172
-575,977	-200,000	0,013	-0,087
-574,963	-111,910	-0,137	0,020
-573,948	-158,304	0,049	0,002
-572,934	-200,000	-0,001	0,133
-571,919	303,008	-0,079	0,108
-570,904	-131,433	-0,016	0,002
-569,890	-200,000	-0,053	-0,194
-568,875	800,000	0,004	-0,010
-567,861	741,253	-0,030	-0,060
-566,846	-112,277	-0,061	-0,009
-565,831	-15,793	-0,054	-0,026
-564,817	112,656	-0,063	0,056
-563,802	485,869	0,043	-0,072
-562,788	613,459	-0,042	-0,079
-561,773	-68,990	0,084	0,024
-560,758	657,288	-0,046	0,088
-559,744	-200,000	0,000	0,107
-558,729	445,735	0,027	-0,043
-557,715	-102,757	-0,068	-0,012
-556,700	-200,000	0,000	-0,051
-555,685	52,484	-0,103	0,073
-554,671	-169,294	0,147	-0,004
-553,656	-63,649	0,096	-0,029
-552,642	-134,366	-0,059	-0,005
-551,627	800,000	-0,019	0,057
-550,612	34,674	-0,122	-0,079
-549,598	-119,449	-0,116	-0,015
-548,583	103,599	-0,107	-0,093
-547,569	-200,000	0,010	0,096
-546,554	-20,667	0,153	0,069
-545,539	77,626	0,055	-0,044
-544,525	327,726	-0,017	0,024
-543,510	-189,056	-0,091	0,001
-542,496	800,000	0,022	-0,052
-541,481	-200,000	0,006	-0,132
-540,466	-98,372	0,115	0,022
-539,452	96,073	0,032	0,027
-538,437	598,417	0,070	0,129
-537,423	85,686	0,163	0,133
-536,408	800,000	0,028	0,061
-535,393	-0,826	-0,111	0,058
-534,379	800,000	0,064	-0,189
-533,364	99,744	-0,120	-0,103
-532,350	-59,642	0,042	0,013
-531,335	117,208	-0,034	0,031
-530,321	-33,363	0,063	0,026
-529,306	800,000	-0,045	0,112
-528,291	-200,000	0,022	-0,105
-527,277	-54,912	0,144	-0,048
-526,262	800,000	0,057	0,125
-525,248	-34,354	-0,112	0,045
-524,233	-99,788	-0,129	0,024
-523,218	398,945	0,081	0,126
-522,204	800,000	-0,025	0,075
-521,189	277,337	-0,013	-0,018
-520,175	411,387	-0,055	0,086
-519,160	-200,000	0,029	0,131
-518,145	194,169	0,033	-0,036
-517,131	293,484	0,024	0,033
-516,116	-83,179	0,102	0,024
-515,102	-45,770	0,036	0,013
-514,087	-200,000	0,012	-0,172
-513,072	800,000	0,049	-0,152
-512,058	800,000	0,016	-0,050
-511,043	-112,254	-0,029	-0,004
-510,029	-200,000	-0,010	-0,050
-509,014	-200,000	0,009	0,076
-507,999	-11,498	-0,056	0,027
-506,985	212,018	0,063	-0,074
-505,970	-59,029	-0,165	-0,052
-504,956	800,000	-0,053	-0,117
-503,941	-93,047	0,141	0,029
-502,926	507,671	0,015	-0,025
-501,912	-200,000	0,020	0,098
-500,897	-200,000	-0,005	0,057
-499,883	800,000	0,035	0,103
-498,868	-14,097	-0,093	0,044
-497,853	-87,162	0,086	-0,019
-496,839	-101,747	-0,070	0,012
-495,824	436,658	0,060	-0,096
-494,810	432,407	-0,020	-0,032
-493,795	-200,000	0,021	0,145
-492,781	11,465	-0,073	-0,041
-491,766	-112,131	-0,037	-0,005
-490,751	-146,520	-0,079	0,005
-489,737	-51,153	0,044	-0,015
-488,722	434,942	0,082	0,131
-487,708	-110,791	-0,138	0,021
-486,693	-200,000	0,020	0,167
-485,678	-93,987	-0,050	-0,010
-484,664	-200,000	-0,030	-0,139
-483,649	-200,000	-0,004	-0,162
-482,635	-54,637	-0,059	-0,020
-481,620	-90,224	-0,102	0,022
-480,605	800,000	-0,051	0,108
-479,591	-200,000	-0,002	0,056
-478,576	73,597	0,007	0,005
-477,562	-200,000	-0,031	-0,130
-476,547	359,019	-0,023	0,034
-475,532	-200,000	-0,022	-0,162
-474,518	-32,544	0,099	0,040
-473,503	11,612	0,065	-0,037
-472,489	-200,000	-0,016	0,066
-471,474	-200,000	0,015	-0,106
-470,459	800,000	0,012	-0,024
-469,445	166,162	0,112	0,116
-468,430	-117,166	-0,116	0,015
-467,416	392,642	0,028	0,043
-466,401	-200,000	-0,012	0,229
-465,386	-200,000	-0,005	0,182
-464,372	71,877	-0,051	0,039
-463,357	-35,233	-0,047	-0,019
-462,343	141,659	0,026	-0,026
-461,328	-92,733	0,066	0,014
-460,313	-64,112	0,061	-0,018
-459,299	78,498	-0,051	0,040
-458,284	-200,000	0,013	-0,128
-457,270	-18,725	0,093	0,042
-456,255	-53,131	0,045	-0,015
-455,241	-62,324	-0,121	-0,037
-454,226	-200,000	0,032	-0,185
-453,211	171,447	0,088	-0,093
-452,197	-110,139	0,128	0,019
-451,182	800,000	-0,024	0,077
-450,168	-200,000	-0,023	0,134
-449,153	52,146	0,090	-0,063
-448,138	-10,511	-0,140	-0,068
-447,124	37,643	-0,049	-0,032
-446,109	-105,382	0,025	-0,004
-445,095	-200,000	0,011	-0,095
-444,080	45,386	0,048	-0,032
-443,065	-10,118	-0,059	-0,029
-442,051	104,136	-0,083	-0,072
-441,036	123,073	0,065	-0,060
-440,022	800,000	0,042	-0,090
-439,007	800,000	-0,026	0,079
-437,992	534,462	-0,033	-0,058
-436,978	-106,373	0,069	0,011
-435,963	-200,000	-0,005	0,025
-434,949	-200,000	-0,001	0,018
-433,934	-200,000	0,022	-0,196
-432,919	78,651	0,057	0,045
-431,905	800,000	0,040	-0,110
-430,890	-200,000	0,010	-0,105
-429,876	-200,000	-0,034	-0,188
-428,861	276,969	0,054	-0,070
-427,846	-200,000	0,018	-0,107
-426,832	800,000	-0,022	0,071
-425,817	800,000	-0,051	-0,146
-424,803	-200,000	-0,024	0,117
-423,788	-148,956	0,103	-0,006
-422,773	-146,990	0,032	-0,002
-421,759	465,435	-0,024	0,040
-420,744	135,176	0,027	-0,026
-419,730	800,000	0,014	0,033
-418,715	800,000	-0,075	-0,156
-417,701	79,684	0,080	-0,063
-416,686	-200,000	0,009	0,028
-415,671	205,926	0,069	-0,079
-414,657	-200,000	-0,007	0,176
-413,642	195,576	0,056	-0,062
-412,628	-84,013	-0,068	-0,016
-411,613	71,508	-0,142	-0,108
-410,598	-200,000	-0,006	-0,069
-409,584	96,464	0,127	-0,107
-408,569	189,290	0,066	0,073
-407,555	-200,000	0,013	0,120
-406,540	800,000	-0,022	0,058
-405,525	-135,260	0,058	0,005
-404,511	-200,000	-0,038	-0,161
-403,496	667,993	-0,076	-0,145
-402,482	-0,486	-0,053	0,028
-401,467	267,296	0,077	0,099
-400,452	-200,000	0,004	0,093
-399,438	800,000	0,050	-0,134
-398,423	-90,318	0,025	0,005
-397,409	183,150	-0,057	0,062
-396,394	692,507	0,062	-0,121
-395,379	800,000	-0,006	-0,014
-394,365	-83,024	0,141	0,033
-393,350	-200,000	-0,010	-0,051
-392,336	-105,274	0,036	0,006
-391,321	-32,411	0,154	0,063
-390,306	-61,142	0,117	0,036
-389,292	-23,230	-0,147	0,065
-388,277	-44,339	-0,098	-0,036
-387,263	800,000	-0,051	0,132
-386,248	800,000	-0,014	0,039
-385,233	100,567	-0,021	-0,018
-384,219	76,696	-0,141	0,110
-383,204	-200,000	0,000	-0,047
-382,190	-141,488	-0,101	0,007
-381,175	800,000	-0,019	0,054
-380,160	-200,000	-0,016	-0,093
-379,146	-200,000	-0,015	-0,098
-378,131	800,000	-0,031	0,101
-377,117	185,145	0,025	0,027
-376,102	465,730	-0,054	-0,088
-375,088	-82,313	-0,042	-0,010
-374,073	29,896	-0,028	-0,017
-373,058	105,532	0,066	-0,057
-372,044	10,069	0,062	-0,034
-371,029	800,000	0,018	0,038
-370,015	426,540	0,050	-0,079
-369,000	-88,540	0,124	-0,027
-367,985	-103,257	0,060	0,010
-366,971	88,030	-0,078	0,063
-365,956	-125,885	0,126	-0,014
-364,942	-50,680	0,057	0,020
-363,927	290,456	0,057	-0,076
-362,912	-41,355	0,087	-0,033
-361,898	53,617	-0,042	0,030
-360,883	800,000	-0,032	0,077
-359,869	800,000	-0,035	0,076
-358,854	217,100	0,001	-0,002
-357,839	185,764	0,056	0,061
-356,825	-200,000	0,040	0,206
-355,810	-200,000	0,004	0,130
-354,796	93,021	-0,049	0,040
-353,781	800,000	-0,038	-0,079
-352,766	800,000	0,020	-0,045
-351,752	-3,905	0,056	-0,029
-350,737	-200,000	-0,106	0,000
-349,723	-60,012	0,135	0,042
-348,708	-200,000	0,010	-0,058
-347,693	-66,120	-0,124	0,036
-346,679	395,028	-0,071	-0,109
-345,664	99,032	0,035	-0,030
-344,650	149,650	0,112	0,111
-343,635	-100,086	-0,154	-0,028
-342,620	265,864	0,067	0,086
-341,606	-162,482	-0,245	0,009
-340,591	800,000	0,030	-0,061
-339,577	-28,304	0,037	-0,016
-338,562	-124,100	0,028	0,003
-337,548	743,360	0,011	-0,023
-336,533	76,271	0,044	0,034
-335,518	-97,280	0,133	0,025
-334,504	-146,240	0,081	-0,005
-333,489	-35,496	-0,018	-0,007
-332,475	581,440	0,029	-0,053
-331,460	-9,447	-0,065	-0,032
-330,445	370,391	0,117	0,175
-329,431	715,326	-0,053	-0,103
-328,416	-45,077	-0,014	0,005
-327,402	63,541	0,077	0,057
-326,387	139,787	0,152	0,146
-325,372	500,951	0,009	-0,016
-324,358	119,739	-0,052	0,047
-323,343	603,560	0,025	0,046
-322,329	42,476	0,119	0,079
-321,314	134,368	-0,077	-0,073
-320,299	-200,000	0,010	0,163
-319,285	-103,821	-0,172	-0,029
-318,270	36,944	-0,031	-0,020
-317,256	-200,000	0,002	0,077
-316,241	325,047	-0,022	0,030
-315,226	-172,576	0,128	0,003
-314,212	-200,000	0,004	0,053
-313,197	800,000	0,013	-0,033
-312,183	800,000	0,034	-0,084
-311,168	94,252	-0,072	-0,060
-310,153	-200,000	0,008	0,086
-309,139	-119,784	-0,138	0,017
-308,124	-43,425	0,107	-0,039
-307,110	134,397	-0,163	0,155
-306,095	172,639	0,130	0,137
-305,080	-200,000	-0,004	0,051
-304,066	-150,693	-0,151	-0,008
-303,051	-62,650	-0,059	0,018
-302,037	530,860	-0,022	0,038
-301,022	378,017	0,045	-0,068
-300,008	192,272	-0,016	0,018
-298,993	122,943	0,043	0,039
-297,978	800,000	-0,058	0,136
-296,964	-200,000	0,010	0,085
-295,949	19,388	0,140	-0,082
-294,935	179,715	0,073	0,079
-293,920	398,485	0,076	-0,116
-292,905	-200,000	-0,018	0,208
-291,891	522,923	-0,055	-0,094
-290,876	800,000	-0,033	0,096
-289,862	117,413	0,034	-0,031
-288,847	190,061	0,038	-0,042
-287,832	210,835	-0,078	-0,090
-286,818	-160,417	-0,013	0,001
-285,803	-77,987	0,195	-0,049
-284,789	-200,000	-0,046	-0,162
-283,774	-200,000	-0,008	-0,067
-282,759	-200,000	-0,009	0,132
-281,745	-119,684	-0,049	-0,006
-280,730	-15,532	-0,192	-0,089
-279,716	-74,075	-0,047	-0,012
-278,701	-26,142	0,036	-0,016
-277,686	-141,703	0,194	0,014
-276,672	418,002	0,025	0,039
-275,657	-63,728	-0,196	0,058
-274,643	-27,326	-0,148	0,063
-273,628	-56,643	-0,150	-0,048
-272,613	-200,000	-0,000	-0,049
-271,599	433,792	0,003	-0,005
-270,584	800,000	0,033	-0,085
-269,570	-53,892	0,040	-0,013
-268,555	620,057	0,044	0,081
-267,540	-95,133	-0,060	-0,012
-266,526	-200,000	0,024	-0,136
-265,511	-200,000	0,028	-0,151
-264,497	124,722	-0,026	-0,024
-263,482	-200,000	0,009	0,069
-262,467	-200,000	0,024	0,164
-261,453	403,293	0,071	0,110
-260,438	-200,000	0,028	-0,108
-259,424	-154,080	-0,132	-0,006
-258,409	800,000	0,039	0,117
-257,395	-200,000	0,000	-0,001
-256,380	800,000	0,034	0,091
-255,365	800,000	-0,042	0,092
-254,351	-169,244	-0,052	0,001
-253,336	160,656	0,080	-0,081
-252,322	800,000	0,017	-0,054
-251,307	-200,000	0,024	-0,092
-250,292	-200,000	-0,055	-0,194
-249,278	205,955	0,078	-0,089
-248,263	-200,000	0,011	0,122
-247,249	589,103	0,027	0,049
-246,234	-97,166	-0,046	0,009
-245,219	-156,902	-0,177	0,008
-244,205	8,035	0,084	-0,046
-243,190	-100,231	-0,018	0,003
-242,176	-97,244	0,028	0,005
-241,161	-200,000	0,019	0,096
-240,146	800,000	0,037	0,097
-239,132	-200,000	-0,008	0,163
-238,117	566,494	0,009	0,016
-237,103	-116,849	-0,056	0,007
-236,088	-5,944	0,084	-0,042
-235,073	277,308	0,056	0,073
-234,059	172,822	-0,059	-0,062
-233,044	-22,470	-0,069	-0,030
-232,030	172,705	0,082	0,087
-231,015	-93,547	0,048	-0,010
-230,000	341,711	0,101	0,145
-228,986	389,499	-0,081	0,122
-227,971	743,999	0,039	-0,078
-226,957	121,696	-0,032	-0,029
-225,942	-200,000	-0,033	0,114
-224,927	-200,000	-0,024	0,086
-223,913	-200,000	-0,036	-0,161
-222,898	114,439	-0,100	-0,089
-221,884	-200,000	0,011	-0,081
-220,869	142,824	-0,076	0,074
-219,855	-114,836	-0,082	-0,011
-218,840	61,450	-0,114	0,083
-217,825	-200,000	0,001	-0,049
-216,811	207,373	0,060	-0,069
-215,796	-69,758	-0,127	0,035
-214,782	271,443	-0,105	-0,135
-213,767	516,085	-0,061	-0,104
-212,752	-200,000	0,000	0,004
-211,738	712,294	0,036	-0,070
-210,723	-200,000	0,013	-0,120
-209,709	-17,573	0,100	0,046
-208,694	800,000	-0,049	-0,141
-207,679	-143,853	0,077	-0,005
-206,665	-200,000	0,001	0,019
-205,650	-120,149	0,124	-0,015
-204,636	211,101	0,086	0,099
-203,621	646,486	-0,062	0,115
-202,606	36,867	-0,049	-0,031
-201,592	-47,759	0,098	0,034
-200,577	-200,000	0,000	-0,111
-199,563	-200,000	0,023	-0,138
-198,548	71,190	0,023	0,017
-197,533	242,748	0,087	0,107
-196,519	300,841	0,044	-0,060
-195,504	599,267	0,065	-0,118
-194,490	-200,000	-0,010	-0,046
-193,475	84,319	0,018	0,014
-192,460	264,044	-0,054	0,069
-191,446	4,418	-0,038	-0,020
-190,431	250,703	0,063	-0,079
-189,417	-84,527	0,078	-0,018
-188,402	800,000	0,010	-0,023
-187,387	800,000	-0,017	-0,040
-186,373	51,502	0,077	0,053
-185,358	276,010	-0,012	0,015
-184,344	112,085	0,020	-0,017
-183,329	-200,000	0,005	-0,022
-182,315	-200,000	0,013	-0,067
-181,300	133,669	-0,041	-0,038
-180,285	80,338	0,137	-0,107
-179,271	800,000	-0,035	0,074
-178,256	198,619	0,056	-0,062
-177,242	-200,000	-0,038	0,130
-176,227	-200,000	0,008	0,084
-175,212	-89,496	0,055	-0,012
-174,198	126,836	0,059	0,055
-173,183	800,000	-0,027	0,060
-172,169	-200,000	0,015	0,066
-171,154	-200,000	-0,005	0,051
-170,139	303,106	-0,033	0,045
-169,125	64,040	0,098	0,072
-168,110	8,176	-0,098	0,054
-167,096	257,309	-0,013	-0,016
-166,081	13,425	-0,055	0,031
-165,066	156,171	-0,123	-0,123
-164,052	-41,536	0,066	0,024
-163,037	-170,085	0,112	-0,003
-162,023	89,231	0,088	0,072
-161,008	-141,820	0,151	-0,011
-159,993	214,253	-0,060	0,069
-158,979	45,394	0,109	-0,073
-157,964	-200,000	-0,012	-0,148
-156,950	447,067	0,026	-0,041
-155,935	-200,000	0,010	0,089
-154,920	-68,345	0,166	0,047
-153,906	800,000	-0,034	0,092
-152,891	253,375	-0,037	0,046
-151,877	-38,463	0,136	0,052
-150,862	-70,924	-0,087	0,024
-149,847	-200,000	-0,003	-0,076
-148,833	41,590	0,094	-0,062
-147,818	507,640	0,040	0,067
-146,804	-200,000	0,011	0,056
-145,789	-200,000	-0,011	0,098
-144,775	82,414	-0,038	0,030
-143,760	-55,573	-0,100	0,033
-142,745	-200,000	-0,007	-0,066
-141,731	-159,366	0,021	-0,001
-140,716	-159,133	-0,082	0,003
-139,702	-27,781	0,123	0,052
-138,687	800,000	-0,025	0,071
-137,672	-200,000	0,008	0,095
-136,658	800,000	-0,032	0,085
-135,643	800,000	-0,060	-0,122
-134,629	171,489	-0,146	-0,153
-133,614	-200,000	0,013	0,078
-132,599	-128,399	0,071	-0,007
-131,585	238,871	-0,010	-0,013
-130,570	183,471	0,054	0,058
-129,556	-200,000	-0,003	0,139
-128,541	102,717	-0,022	0,019
-127,526	-59,179	-0,039	0,012
-126,512	800,000	-0,030	0,087
-125,497	9,202	-0,050	0,027
-124,483	417,420	0,037	0,058
-123,468	-200,000	-0,006	-0,070
-122,453	579,974	0,065	0,116
-121,439	-200,000	-0,012	0,058
-120,424	-45,819	0,029	0,010
