DTS Sentinel unit serial number:	SN410029Multiplexer serial number:	ORYXHardware model number:	OX2-SRSoftware version number:	ORYX F/W v4,00 Oryx Data Collector v3.7.2.0data status	okinstallation	B4 Nyhavnadifferential loss correction	single-endedforward channel	channel 2reverse channel	N/Adate	2023/12/19time	02:45:13forward acquisition time	300,00reverse acquisition time	0,00gamma	499,1914k internal	0,3125k external	0,3125temperature offset calibration	1,0000default loss term (dB/km)	0,3820temperature slope calibration	1,0000multiplexer offset coefficient	1,0000multiplexer slope coefficient	1,0000fibre end	0,00T internal ref (°C)	21,25T ext. ref 1 (°C)	6,16T ext. ref 2 (°C)	6,19length (m)	temperature (°C)	Stokes	anti-Stokes-744,400	800,000	0,023	-0,059
-743,385	-60,577	-0,127	-0,040
-742,371	-35,560	0,079	-0,032
-741,356	120,282	-0,228	0,211
-740,342	-200,000	0,007	0,114
-739,327	-200,000	0,011	0,130
-738,312	-200,000	-0,018	-0,102
-737,298	108,454	-0,254	0,226
-736,283	528,192	-0,035	0,061
-735,269	90,884	-0,160	0,133
-734,254	-200,000	0,006	0,034
-733,239	11,872	-0,318	-0,181
-732,225	-200,000	0,009	-0,117
-731,210	72,284	0,115	0,089
-730,196	14,625	0,085	-0,049
-729,181	354,996	-0,045	-0,066
-728,167	134,052	-0,022	0,021
-727,152	-117,046	0,053	-0,007
-726,137	800,000	-0,089	-0,212
-725,123	-24,937	-0,154	-0,068
-724,108	106,091	-0,139	-0,122
-723,094	143,615	-0,128	-0,127
-722,079	631,356	-0,107	-0,202
-721,064	424,944	0,037	-0,059
-720,050	-200,000	0,010	0,075
-719,035	-27,383	0,084	0,036
-718,021	-117,099	-0,177	0,024
-717,006	-32,737	-0,046	0,019
-715,991	-200,000	-0,054	-0,211
-714,977	-42,205	-0,153	-0,058
-713,962	238,338	0,035	0,043
-712,948	-46,526	-0,113	0,041
-711,933	395,819	0,074	-0,116
-710,918	-50,099	-0,188	-0,066
-709,904	197,825	-0,043	-0,049
-708,889	800,000	0,059	-0,122
-707,875	-169,224	-0,022	-0,001
-706,860	408,026	0,028	0,044
-705,845	-200,000	0,001	-0,169
-704,831	800,000	0,024	0,062
-703,816	-135,870	0,102	0,009
-702,802	35,438	-0,065	0,042
-701,787	281,707	-0,112	-0,149
-700,772	-6,865	-0,058	-0,029
-699,758	-200,000	-0,018	0,188
-698,743	-200,000	0,010	0,159
-697,729	-126,555	-0,042	-0,005
-696,714	44,420	-0,056	-0,038
-695,699	768,196	-0,078	-0,159
-694,685	-200,000	-0,052	-0,176
-693,670	-78,511	0,034	0,009
-692,656	-91,425	-0,150	-0,032
-691,641	-200,000	0,016	0,076
-690,627	54,614	-0,149	-0,106
-689,612	-77,092	0,094	0,024
-688,597	38,314	0,058	-0,038
-687,583	-171,574	-0,083	0,002
-686,568	321,447	0,033	-0,047
-685,554	-53,670	0,117	0,039
-684,539	-200,000	-0,020	0,159
-683,524	-69,488	0,038	0,011
-682,510	-45,310	0,088	-0,032
-681,495	-200,000	-0,020	0,093
-680,481	-64,086	-0,009	0,003
-679,466	-64,142	-0,148	-0,045
-678,451	143,289	-0,073	0,072
-677,437	-158,628	0,084	0,004
-676,422	-200,000	-0,002	0,089
-675,408	40,984	-0,018	-0,012
-674,393	-139,633	-0,122	-0,010
-673,378	594,373	-0,093	-0,171
-672,364	800,000	0,068	-0,167
-671,349	-200,000	0,004	-0,105
-670,335	-39,387	0,092	-0,036
-669,320	-200,000	-0,005	0,041
-668,305	-200,000	0,007	0,093
-667,291	-66,261	0,051	-0,015
-666,276	-140,665	-0,042	-0,003
-665,262	168,103	0,051	0,054
-664,247	-112,418	-0,156	0,023
-663,232	-200,000	0,007	0,059
-662,218	800,000	0,021	0,059
-661,203	800,000	0,032	0,080
-660,189	97,135	0,036	-0,030
-659,174	-22,726	-0,067	-0,030
-658,159	304,394	-0,126	-0,174
-657,145	450,623	-0,040	0,066
-656,130	-23,333	-0,098	0,043
-655,116	146,720	-0,076	0,076
-654,101	-200,000	0,043	-0,160
-653,086	-13,526	0,120	-0,058
-652,072	135,604	0,114	0,111
-651,057	157,580	0,020	-0,020
-650,043	-200,000	-0,011	-0,117
-649,028	-55,837	-0,056	0,019
-648,014	-200,000	0,001	0,088
-646,999	416,405	0,104	-0,166
-645,984	205,461	-0,071	0,082
-644,970	214,567	-0,043	-0,051
-643,955	-57,903	-0,009	0,003
-642,941	800,000	-0,039	-0,099
-641,926	-200,000	-0,026	0,121
-640,911	-109,496	-0,194	-0,030
-639,897	611,475	0,110	0,204
-638,882	74,158	-0,163	0,127
-637,868	-200,000	-0,009	0,116
-636,853	800,000	-0,028	-0,076
-635,838	-200,000	0,020	-0,077
-634,824	-41,072	-0,008	0,003
-633,809	295,031	0,097	0,132
-632,795	320,772	0,021	-0,030
-631,780	-115,497	0,114	-0,016
-630,765	800,000	-0,017	0,055
-629,751	-200,000	-0,004	0,144
-628,736	184,735	0,110	-0,121
-627,722	-200,000	0,012	0,052
-626,707	168,661	0,016	0,017
-625,692	800,000	0,050	-0,107
-624,678	-200,000	-0,021	-0,101
-623,663	60,768	-0,063	0,046
-622,649	-200,000	-0,012	-0,042
-621,634	-200,000	-0,032	-0,107
-620,619	56,509	0,050	-0,036
-619,605	800,000	-0,043	0,108
-618,590	28,757	0,104	0,065
-617,576	80,550	0,108	0,086
-616,561	312,290	0,103	0,143
-615,546	23,806	-0,016	0,010
-614,532	283,026	-0,060	-0,080
-613,517	24,494	-0,113	0,069
-612,503	-200,000	0,029	-0,190
-611,488	800,000	0,021	-0,045
-610,474	121,190	-0,108	0,100
-609,459	-111,750	0,197	-0,029
-608,444	-200,000	-0,017	0,095
-607,430	186,548	-0,087	0,096
-606,415	-200,000	0,025	-0,111
-605,401	-112,979	0,134	0,019
-604,386	-127,227	0,165	-0,018
-603,371	-22,413	-0,082	0,036
-602,357	479,482	0,030	-0,050
-601,342	-143,181	-0,052	0,004
-600,328	-200,000	-0,007	-0,034
-599,313	20,440	0,112	-0,067
-598,298	-68,400	0,106	-0,030
-597,284	356,551	0,055	-0,081
-596,269	-200,000	-0,006	0,203
-595,255	-74,683	0,162	0,043
-594,240	378,750	-0,066	-0,101
-593,225	-141,804	-0,167	-0,012
-592,211	516,794	0,045	-0,077
-591,196	324,495	-0,074	-0,105
-590,182	-19,969	0,166	0,076
-589,167	800,000	0,003	-0,010
-588,152	-200,000	0,009	0,094
-587,138	65,585	0,152	0,114
-586,123	106,143	-0,106	0,093
-585,109	800,000	-0,014	0,038
-584,094	178,988	-0,051	-0,055
-583,079	-50,633	0,071	0,025
-582,065	177,887	-0,034	-0,037
-581,050	100,010	-0,052	0,044
-580,036	14,990	-0,132	0,076
-579,021	-41,047	-0,084	-0,032
-578,006	16,522	-0,048	0,028
-576,992	-200,000	0,014	-0,054
-575,977	584,711	0,072	0,132
-574,963	539,377	0,059	0,104
-573,948	200,709	-0,095	-0,108
-572,934	409,705	-0,068	-0,107
-571,919	510,638	0,030	0,053
-570,904	169,092	0,018	0,019
-569,890	452,987	-0,157	-0,257
-568,875	-47,457	-0,002	0,001
-567,861	23,990	0,102	0,062
-566,846	800,000	-0,042	0,087
-565,831	42,134	0,014	0,009
-564,817	800,000	-0,024	-0,072
-563,802	-160,166	-0,024	0,001
-562,788	346,725	-0,116	-0,169
-561,773	-200,000	0,004	-0,122
-560,758	49,220	-0,078	0,054
-559,744	-200,000	-0,013	0,136
-558,729	-119,975	0,103	-0,013
-557,715	-97,142	0,062	-0,012
-556,700	-200,000	-0,031	-0,120
-555,685	171,783	0,018	0,019
-554,671	-106,872	-0,091	-0,015
-553,656	34,269	-0,040	0,026
-552,642	800,000	0,024	0,065
-551,627	-66,066	-0,116	-0,034
-550,612	397,037	-0,038	0,059
-549,598	-7,888	0,056	0,028
-548,583	-200,000	0,029	-0,101
-547,569	-200,000	-0,003	0,081
-546,554	-200,000	0,006	0,057
-545,539	48,705	-0,016	0,011
-544,525	657,415	0,036	-0,068
-543,510	-200,000	0,042	0,140
-542,496	-200,000	0,008	-0,044
-541,481	27,529	0,098	0,061
-540,466	-98,845	0,144	-0,027
-539,452	306,253	0,031	-0,042
-538,437	800,000	-0,034	0,108
-537,423	-13,159	-0,047	-0,023
-536,408	-43,654	0,024	-0,009
-535,393	-109,364	0,056	0,009
-534,379	-81,799	0,071	0,017
-533,364	91,338	0,110	-0,091
-532,350	131,465	0,036	0,034
-531,335	289,879	-0,059	0,079
-530,321	-200,000	0,004	0,023
-529,306	197,180	0,071	0,080
-528,291	140,029	0,057	0,056
-527,277	-140,991	-0,054	-0,004
-526,262	-200,000	-0,094	0,000
-525,248	-130,393	-0,188	-0,019
-524,233	266,934	0,100	0,129
-523,218	-115,648	0,078	-0,011
-522,204	-128,396	-0,130	-0,013
-521,189	119,172	0,027	0,025
-520,175	-33,033	-0,154	-0,063
-519,160	-154,740	0,151	-0,007
-518,145	-138,212	0,147	0,012
-517,131	36,246	0,090	-0,059
-516,116	-20,136	0,112	0,051
-515,102	0,947	-0,136	0,072
-514,087	-200,000	-0,000	-0,077
-513,072	-105,783	-0,065	-0,011
-512,058	800,000	0,022	-0,051
-511,043	331,316	0,044	-0,063
-510,029	77,563	0,100	0,079
-509,014	253,799	0,040	0,051
-507,999	-200,000	-0,007	0,075
-506,985	-90,517	-0,041	0,009
-505,970	-36,721	-0,088	0,035
-504,956	279,520	-0,052	0,069
-503,941	232,930	0,050	-0,061
-502,926	-200,000	0,003	-0,086
-501,912	-200,000	0,000	0,090
-500,897	-70,269	0,042	-0,012
-499,883	210,879	-0,037	0,043
-498,868	55,315	-0,043	-0,031
-497,853	-200,000	-0,014	-0,135
-496,839	-187,128	-0,048	-0,000
-495,824	-85,167	0,079	-0,018
-494,810	-200,000	0,007	0,131
-493,795	79,749	0,085	0,067
-492,781	800,000	0,044	-0,137
-491,766	225,532	-0,079	0,095
-490,751	129,772	-0,025	0,024
-489,737	238,997	-0,089	0,110
-488,722	-4,208	0,076	-0,039
-487,708	800,000	-0,051	-0,133
-486,693	-200,000	-0,017	0,133
-485,678	-200,000	0,011	0,150
-484,664	-89,026	-0,019	0,004
-483,649	-200,000	-0,017	-0,074
-482,635	-200,000	-0,025	-0,091
-481,620	-67,813	-0,102	0,029
-480,605	35,587	0,084	0,054
-479,591	22,966	-0,119	-0,072
-478,576	-200,000	-0,015	-0,087
-477,562	-23,122	0,062	0,028
-476,547	252,294	-0,075	0,094
-475,532	800,000	0,010	-0,023
-474,518	-200,000	-0,014	-0,068
-473,503	217,154	0,053	0,062
-472,489	800,000	-0,031	0,073
-471,474	800,000	-0,045	0,117
-470,459	-51,669	-0,048	0,016
-469,445	-103,490	-0,160	0,027
-468,430	-200,000	0,011	-0,089
-467,416	-109,963	0,101	-0,015
-466,401	16,477	0,118	-0,069
-465,386	-200,000	-0,007	0,087
-464,372	33,997	0,062	-0,040
-463,357	183,496	-0,105	0,115
-462,343	-83,527	-0,121	0,028
-461,328	-21,651	-0,102	-0,045
-460,313	2,286	0,068	0,036
-459,299	45,011	0,041	0,028
-458,284	-113,384	0,064	-0,009
-457,270	6,389	0,063	0,034
-456,255	35,002	0,083	-0,054
-455,241	-32,221	-0,093	-0,038
-454,226	-180,926	-0,115	-0,002
-453,211	-86,983	-0,117	0,026
-452,197	39,359	-0,028	-0,018
-451,182	-139,898	-0,047	-0,004
-450,168	498,072	-0,081	0,138
-449,153	500,887	0,032	0,054
-448,138	-29,541	0,083	-0,035
-447,124	-200,000	-0,016	-0,168
-446,109	-200,000	-0,001	-0,111
-445,095	-34,432	0,139	0,056
-444,080	-119,373	0,087	-0,011
-443,065	-130,626	-0,116	0,011
-442,051	55,870	-0,055	0,039
-441,036	-200,000	0,034	-0,117
-440,022	-25,465	-0,047	0,020
-439,007	-157,905	-0,027	0,001
-437,992	59,945	0,130	0,095
-436,978	-55,042	0,108	0,035
-435,963	494,085	0,019	-0,032
-434,949	800,000	0,037	-0,117
-433,934	30,166	0,025	-0,016
-432,919	-200,000	0,004	0,025
-431,905	176,022	-0,071	0,076
-430,890	43,253	0,092	-0,062
-429,876	-200,000	0,018	-0,092
-428,861	-200,000	-0,002	-0,044
-427,846	800,000	-0,026	-0,083
-426,832	-200,000	0,015	-0,119
-425,817	800,000	0,030	-0,077
-424,803	120,319	0,046	-0,042
-423,788	-43,575	0,207	-0,077
-422,773	-24,948	0,009	0,004
-421,759	-200,000	-0,025	-0,086
-420,744	-4,281	-0,085	0,043
-419,730	144,260	0,041	-0,040
-418,715	-200,000	0,019	-0,116
-417,701	-12,868	-0,087	-0,042
-416,686	101,238	0,042	0,036
-415,671	-59,821	-0,016	0,005
-414,657	-135,309	0,116	-0,010
-413,642	740,419	0,068	-0,135
-412,628	72,009	-0,023	0,018
-411,613	800,000	0,030	-0,088
-410,598	99,182	-0,044	-0,037
-409,584	800,000	-0,009	-0,020
-408,569	-108,325	-0,063	-0,010
-407,555	800,000	0,073	-0,198
-406,540	-200,000	-0,009	0,048
-405,525	36,534	-0,041	0,027
-404,511	-47,694	-0,023	-0,008
-403,496	501,297	0,049	0,083
-402,482	-83,340	0,107	-0,025
-401,467	37,261	0,055	0,036
-400,452	-200,000	0,012	0,063
-399,438	111,422	-0,027	0,024
-398,423	-200,000	-0,009	-0,084
-397,409	-62,598	0,048	0,015
-396,394	800,000	0,006	-0,014
-395,379	-200,000	0,001	0,015
-394,365	-200,000	0,032	0,164
-393,350	-62,615	0,071	0,022
-392,336	-61,793	0,185	0,056
-391,321	-200,000	-0,032	-0,132
-390,306	-200,000	0,034	-0,136
-389,292	182,838	-0,058	-0,062
-388,277	-106,771	0,140	0,023
-387,263	-46,686	-0,077	-0,027
-386,248	605,295	0,058	-0,106
-385,233	-109,777	0,033	0,005
-384,219	48,004	0,076	-0,052
-383,204	418,414	0,003	-0,005
-382,190	24,025	-0,155	-0,094
-381,175	208,972	-0,033	0,038
-380,160	415,323	-0,072	0,113
-379,146	392,367	-0,102	0,156
-378,131	-200,000	-0,013	0,066
-377,117	43,823	-0,072	0,048
-376,102	152,869	-0,045	0,046
-375,088	417,900	-0,082	-0,128
-374,073	-200,000	-0,002	0,045
-373,058	187,318	0,075	-0,083
-372,044	452,315	0,012	0,019
-371,029	-105,648	-0,045	0,007
-370,015	158,238	0,064	0,066
-369,000	800,000	-0,030	-0,070
-367,985	-200,000	-0,031	-0,155
-366,971	344,658	0,018	0,026
-365,956	-28,589	0,138	0,058
-364,942	153,936	0,068	0,069
-363,927	64,585	-0,037	-0,027
-362,912	800,000	0,034	-0,108
-361,898	-200,000	0,018	-0,064
-360,883	416,261	0,013	0,020
-359,869	-35,871	-0,074	0,029
-358,854	163,437	-0,025	-0,026
-357,839	-49,428	0,108	0,037
-356,825	-58,631	0,089	0,028
-355,810	130,902	0,087	-0,082
-354,796	-87,296	0,050	-0,011
-353,781	-200,000	0,020	-0,100
-352,766	184,521	-0,050	0,054
-351,752	800,000	0,023	0,054
-350,737	800,000	-0,031	0,072
-349,723	87,537	-0,077	0,062
-348,708	245,984	0,087	0,108
-347,693	-91,931	-0,071	-0,015
-346,679	-87,182	-0,087	-0,019
-345,664	308,909	0,019	-0,026
-344,650	116,649	0,032	-0,029
-343,635	532,975	-0,035	-0,060
-342,620	702,061	0,014	-0,028
-341,606	168,801	-0,036	-0,038
-340,591	331,566	-0,019	0,027
-339,577	-85,533	-0,170	-0,038
-338,562	-32,486	-0,064	-0,026
-337,548	292,793	0,149	0,200
-336,533	110,786	0,068	0,060
-335,518	800,000	0,014	-0,040
-334,504	-39,894	-0,059	0,023
-333,489	-71,800	-0,068	-0,019
-332,475	-200,000	0,006	0,080
-331,460	800,000	-0,080	-0,209
-330,445	-200,000	-0,030	-0,175
-329,431	38,219	0,083	-0,054
-328,416	-200,000	-0,004	0,168
-327,402	208,504	0,053	-0,061
-326,387	-60,138	-0,115	-0,036
-325,372	476,922	-0,027	-0,044
-324,358	-200,000	-0,025	-0,101
-323,343	305,599	0,010	-0,014
-322,329	-106,880	-0,026	-0,004
-321,314	-58,475	-0,031	0,010
-320,299	277,612	0,033	0,043
-319,285	800,000	-0,010	0,022
-318,270	-200,000	0,001	0,071
-317,256	172,970	0,035	-0,037
-316,241	-200,000	0,017	-0,099
-315,226	-89,306	0,096	-0,021
-314,212	-21,346	0,092	0,041
-313,197	-127,519	-0,089	-0,009
-312,183	255,005	0,109	-0,137
-311,168	800,000	-0,059	-0,176
-310,153	230,384	0,076	-0,091
-309,139	-25,139	-0,050	-0,022
-308,124	44,533	-0,045	-0,030
-307,110	-40,748	0,180	0,068
-306,095	730,094	0,034	0,067
-305,080	800,000	0,035	-0,075
-304,066	-200,000	0,020	0,118
-303,051	-200,000	-0,001	-0,080
-302,037	-34,781	-0,092	-0,037
-301,022	-27,098	0,236	0,100
-300,008	-141,017	-0,083	0,006
-298,993	-0,225	0,065	0,034
-297,978	-200,000	0,024	0,089
-296,964	429,136	0,007	0,011
-295,949	428,016	-0,030	-0,048
-294,935	-35,540	-0,017	-0,007
-293,920	179,110	0,055	0,059
-292,905	-57,303	0,071	0,023
-291,891	295,690	0,060	0,080
-290,876	-200,000	-0,007	0,090
-289,862	258,405	0,096	-0,122
-288,847	800,000	-0,043	-0,108
-287,832	800,000	-0,011	0,032
-286,818	53,661	0,050	0,035
-285,803	-18,910	0,095	0,043
-284,789	91,253	-0,060	0,049
-283,774	-200,000	0,009	0,052
-282,759	173,095	-0,066	-0,069
-281,745	-200,000	0,016	0,128
-280,730	126,959	0,101	-0,094
-279,716	44,261	-0,115	0,077
-278,701	800,000	-0,029	0,088
-277,686	800,000	0,033	0,081
-276,672	-79,130	-0,071	-0,017
-275,657	-167,762	-0,063	0,002
-274,643	-16,156	0,090	-0,042
-273,628	38,930	-0,147	0,096
-272,613	12,057	0,082	-0,046
-271,599	800,000	-0,018	-0,052
-270,584	26,828	-0,107	-0,065
-269,570	125,132	-0,110	0,101
-268,555	800,000	0,017	-0,042
-267,540	-41,354	-0,124	0,047
-266,526	-200,000	0,002	-0,086
-265,511	-200,000	0,000	-0,152
-264,497	-123,053	0,044	-0,005
-263,482	-200,000	0,003	0,088
-262,467	11,818	-0,068	-0,038
-261,453	104,158	0,091	-0,079
-260,438	-126,542	-0,111	-0,012
-259,424	125,440	-0,041	-0,038
-258,409	-64,154	-0,139	-0,041
-257,395	533,538	-0,066	-0,116
-256,380	-2,524	0,098	-0,050
-255,365	37,861	0,108	-0,070
-254,351	-44,099	-0,080	0,029
-253,336	-63,569	-0,105	-0,031
-252,322	-200,000	0,004	0,019
-251,307	-200,000	-0,012	0,094
-250,292	800,000	0,035	0,103
-249,278	-200,000	0,005	0,044
-248,263	104,878	0,069	0,059
-247,249	-77,242	0,083	0,021
-246,234	384,282	-0,045	0,068
-245,219	-113,328	-0,054	-0,008
-244,205	800,000	-0,008	0,019
-243,190	570,896	-0,027	0,049
-242,176	42,896	-0,064	0,043
-241,161	220,932	0,023	0,027
-240,146	9,172	-0,070	-0,038
-239,132	-200,000	0,024	-0,119
-238,117	152,204	-0,054	-0,054
-237,103	151,828	0,051	-0,050
-236,088	-153,226	-0,023	0,001
-235,073	62,280	-0,159	-0,116
-234,059	338,035	0,067	-0,096
-233,044	-200,000	0,015	-0,107
-232,030	-200,000	-0,005	0,071
-231,015	74,559	-0,093	-0,071
-230,000	-68,401	-0,088	-0,025
-228,986	461,440	0,056	0,091
-227,971	-6,360	-0,029	-0,014
-226,957	-200,000	0,020	0,118
-225,942	-107,839	-0,053	-0,008
-224,927	19,926	0,150	0,088
-223,913	2,955	-0,035	0,019
-222,898	719,398	0,021	-0,041
-221,884	-150,782	0,092	0,005
-220,869	-77,142	0,026	-0,007
-219,855	305,681	0,068	-0,093
-218,840	467,810	-0,058	0,095
-217,825	800,000	0,007	-0,014
-216,811	149,508	-0,014	-0,014
-215,796	-200,000	0,018	-0,147
-214,782	-95,078	-0,099	0,019
-213,767	-200,000	-0,018	0,109
-212,752	455,103	-0,029	0,047
-211,738	-200,000	0,012	0,085
-210,723	212,059	-0,137	0,157
-209,709	-21,158	-0,052	-0,023
-208,694	-108,316	0,031	-0,005
-207,679	-200,000	0,007	-0,051
-206,665	-136,089	0,090	-0,008
-205,650	-200,000	0,006	0,115
-204,636	258,779	0,067	0,084
-203,621	-200,000	0,001	-0,015
-202,606	-86,857	-0,172	-0,038
-201,592	-200,000	0,003	-0,084
-200,577	-147,580	0,123	0,007
-199,563	-149,785	-0,086	0,005
-198,548	38,291	0,026	-0,017
-197,533	49,709	0,085	-0,058
-196,519	87,825	-0,084	-0,068
-195,504	-1,593	-0,066	-0,034
-194,490	-73,608	0,051	0,014
-193,475	-200,000	-0,011	-0,043
-192,460	128,571	-0,084	-0,078
-191,446	342,482	0,043	-0,061
-190,431	-80,612	-0,060	0,014
-189,417	800,000	0,033	-0,104
-188,402	-200,000	-0,004	-0,031
-187,387	127,488	-0,009	-0,009
-186,373	166,861	-0,076	-0,079
-185,358	-119,103	-0,102	0,013
-184,344	73,124	0,034	-0,026
-183,329	-38,279	-0,084	0,032
-182,315	177,810	-0,079	0,084
-181,300	240,008	-0,072	0,088
-180,285	-121,621	-0,052	-0,006
-179,271	121,600	-0,067	0,061
-178,256	-67,906	0,070	0,020
-177,242	-158,825	0,051	-0,002
-176,227	-14,560	0,118	0,055
-175,212	174,291	-0,091	-0,096
-174,198	264,858	0,013	-0,017
-173,183	-0,392	-0,139	-0,072
-172,169	383,031	-0,013	0,019
-171,154	-64,002	-0,213	-0,063
-170,139	-132,146	0,075	-0,007
-169,125	-200,000	0,004	0,048
-168,110	-11,934	-0,125	-0,059
-167,096	141,886	-0,054	0,052
-166,081	613,685	0,071	0,130
-165,066	-151,020	0,109	0,006
-164,052	51,642	0,033	-0,023
-163,037	610,006	0,048	-0,087
-162,023	-55,678	0,130	0,042
-161,008	-200,000	0,018	0,079
-159,993	800,000	-0,049	0,111
-158,979	315,769	-0,041	0,056
-157,964	-200,000	0,003	0,086
-156,950	800,000	-0,007	0,020
-155,935	181,911	0,048	0,051
-154,920	-200,000	0,021	0,068
-153,906	-200,000	0,026	0,129
-152,891	800,000	-0,030	0,062
-151,877	-151,979	-0,021	-0,001
-150,862	-115,547	-0,150	0,020
-149,847	46,054	-0,045	-0,030
-148,833	23,948	0,070	-0,042
-147,818	-52,320	0,059	-0,020
-146,804	-200,000	-0,021	0,081
-145,789	184,902	0,076	0,082
-144,775	-200,000	-0,001	-0,073
-143,760	800,000	-0,020	0,051
-142,745	371,682	-0,062	-0,092
-141,731	-200,000	0,007	-0,069
-140,716	-96,594	0,140	0,027
-139,702	-21,500	0,020	-0,009
-138,687	204,433	-0,093	0,104
-137,672	482,061	0,035	0,059
-136,658	-96,988	0,086	-0,016
-135,643	-200,000	-0,014	0,082
-134,629	-125,166	-0,083	0,009
-133,614	-26,604	0,045	0,019
-132,599	-68,321	-0,037	-0,010
-131,585	-39,445	-0,070	0,026
-130,570	-24,430	0,103	-0,044
-129,556	294,440	-0,071	0,094
-128,541	-200,000	-0,035	0,143
-127,526	-200,000	0,001	0,014
-126,512	-112,230	0,054	0,008
-125,497	-40,102	-0,092	0,035
-124,483	115,320	-0,139	-0,124
-123,468	84,921	0,127	0,101
-122,453	410,798	-0,053	-0,082
-121,439	99,251	-0,115	0,097
-120,424	-154,062	-0,130	-0,006
-119,410	88,676	0,092	0,075
