DTS Sentinel unit serial number:	SN410029Multiplexer serial number:	ORYXHardware model number:	OX2-SRSoftware version number:	ORYX F/W v4,00 Oryx Data Collector v3.7.2.0data status	okinstallation	B4 Nyhavnadifferential loss correction	single-endedforward channel	channel 2reverse channel	N/Adate	2023/12/15time	22:50:13forward acquisition time	300,00reverse acquisition time	0,00gamma	499,1914k internal	0,3130k external	0,3130temperature offset calibration	1,0000default loss term (dB/km)	0,3820temperature slope calibration	1,0000multiplexer offset coefficient	1,0000multiplexer slope coefficient	1,0000fibre end	0,00T internal ref (°C)	21,50T ext. ref 1 (°C)	6,60T ext. ref 2 (°C)	6,80length (m)	temperature (°C)	Stokes	anti-Stokes-744,400	-88,006	0,023	0,005
-743,385	-61,402	-0,235	0,073
-742,371	213,772	0,131	0,154
-741,356	-67,083	-0,346	0,101
-740,342	-102,766	0,125	-0,022
-739,327	-21,236	-0,320	0,145
-738,312	783,758	-0,033	0,067
-737,298	-53,837	-0,310	0,104
-736,283	199,055	-0,061	0,070
-735,269	-66,044	-0,209	0,062
-734,254	-200,000	-0,037	0,137
-733,239	-89,082	-0,297	-0,065
-732,225	800,000	0,040	0,094
-731,210	-103,749	-0,040	-0,007
-730,196	-149,640	-0,042	-0,002
-729,181	-200,000	-0,006	-0,037
-728,167	698,098	-0,104	0,204
-727,152	204,006	-0,093	-0,107
-726,137	131,492	0,019	0,018
-725,123	-200,000	-0,011	-0,055
-724,108	194,559	-0,036	-0,041
-723,094	44,162	-0,162	-0,110
-722,079	113,796	-0,046	0,041
-721,064	429,673	0,018	-0,028
-720,050	-140,191	0,118	0,009
-719,035	130,499	-0,082	-0,078
-718,021	-71,043	0,061	0,017
-717,006	207,340	-0,078	-0,091
-715,991	-99,381	-0,052	0,010
-714,977	-200,000	-0,010	-0,148
-713,962	800,000	-0,021	0,067
-712,948	527,857	-0,053	0,093
-711,933	-102,775	-0,057	-0,010
-710,918	180,222	-0,069	0,075
-709,904	-200,000	-0,013	0,092
-708,889	800,000	-0,057	-0,120
-707,875	697,945	-0,058	-0,114
-706,860	220,469	-0,009	-0,011
-705,845	-200,000	-0,002	0,007
-704,831	800,000	0,015	-0,047
-703,816	35,846	0,006	-0,004
-702,802	94,912	0,026	0,022
-701,787	-86,691	-0,087	0,020
-700,772	-200,000	0,003	0,034
-699,758	553,581	0,025	-0,044
-698,743	20,376	-0,095	-0,057
-697,729	581,249	0,085	-0,156
-696,714	800,000	-0,025	-0,078
-695,699	-70,821	-0,141	-0,039
-694,685	251,748	-0,126	-0,159
-693,670	-44,559	-0,045	-0,017
-692,656	-200,000	0,007	0,030
-691,641	800,000	-0,041	0,084
-690,627	-200,000	-0,002	-0,008
-689,612	111,833	0,003	0,003
-688,597	-200,000	-0,018	-0,074
-687,583	-149,036	-0,142	-0,008
-686,568	-200,000	0,009	-0,079
-685,554	800,000	-0,055	-0,133
-684,539	524,724	0,059	-0,103
-683,524	800,000	0,006	-0,020
-682,510	-138,477	-0,053	-0,004
-681,495	89,118	0,038	0,032
-680,481	279,007	-0,043	-0,057
-679,466	-135,992	0,096	0,008
-678,451	357,680	0,105	-0,156
-677,437	800,000	0,038	-0,116
-676,422	89,837	-0,055	0,045
-675,408	42,786	-0,032	-0,021
-674,393	-200,000	0,020	-0,093
-673,378	-200,000	-0,034	-0,155
-672,364	-200,000	0,000	-0,027
-671,349	71,891	-0,073	-0,056
-670,335	-200,000	-0,017	0,072
-669,320	93,512	0,018	-0,015
-668,305	-200,000	-0,006	0,036
-667,291	-200,000	0,000	0,147
-666,276	383,026	0,027	-0,041
-665,262	-31,086	-0,035	-0,015
-664,247	740,191	-0,062	-0,125
-663,232	51,087	-0,104	-0,073
-662,218	-1,631	-0,116	-0,060
-661,203	-200,000	0,029	0,169
-660,189	113,957	0,064	0,058
-659,174	36,938	0,026	0,017
-658,159	-6,596	-0,136	0,068
-657,145	323,404	0,073	-0,104
-656,130	-166,239	-0,128	-0,004
-655,116	-200,000	0,025	0,118
-654,101	-193,727	-0,117	0,001
-653,086	2,550	-0,150	0,080
-652,072	155,132	-0,155	-0,158
-651,057	356,030	-0,153	-0,226
-650,043	-122,499	0,071	0,008
-649,028	800,000	-0,027	0,069
-648,014	-62,142	-0,079	-0,024
-646,999	-200,000	-0,002	-0,163
-645,984	30,899	-0,113	-0,071
-644,970	268,411	0,007	-0,009
-643,955	378,899	0,056	-0,084
-642,941	297,896	-0,037	0,050
-641,926	800,000	0,077	-0,167
-640,911	-93,269	0,037	0,008
-639,897	-102,991	0,109	0,019
-638,882	-200,000	-0,004	-0,140
-637,868	-47,402	-0,097	-0,035
-636,853	-200,000	0,001	-0,039
-635,838	-58,647	-0,140	-0,045
-634,824	-172,193	0,095	0,002
-633,809	464,732	-0,044	0,073
-632,795	-187,569	0,131	0,001
-631,780	-200,000	-0,027	0,091
-630,765	-30,432	0,061	0,026
-629,751	495,198	0,057	-0,096
-628,736	79,202	-0,100	-0,079
-627,722	-65,357	0,063	-0,019
-626,707	800,000	0,024	0,059
-625,692	-200,000	-0,024	0,135
-624,678	-20,463	-0,115	0,052
-623,663	-89,373	0,100	0,022
-622,649	353,195	-0,126	-0,185
-621,634	107,729	-0,062	-0,055
-620,619	136,797	0,075	-0,072
-619,605	130,224	-0,056	0,053
-618,590	427,504	0,055	-0,088
-617,576	-200,000	0,032	0,159
-616,561	404,683	0,050	-0,078
-615,546	15,784	-0,114	0,066
-614,532	54,240	-0,061	-0,044
-613,517	116,317	-0,043	-0,039
-612,503	-109,898	0,108	-0,017
-611,488	67,270	0,045	0,034
-610,474	-42,134	0,036	0,014
-609,459	487,587	-0,061	0,104
-608,444	-55,741	-0,035	-0,011
-607,430	-200,000	0,011	-0,134
-606,415	-200,000	0,017	-0,069
-605,401	-82,226	0,054	0,013
-604,386	-21,793	-0,142	0,064
-603,371	-41,232	0,093	0,035
-602,357	-11,406	0,054	0,026
-601,342	793,104	-0,068	-0,139
-600,328	-200,000	-0,004	-0,059
-599,313	12,026	-0,048	0,027
-598,298	-200,000	-0,001	-0,018
-597,284	-200,000	0,032	0,186
-596,269	800,000	0,045	-0,135
-595,255	800,000	0,041	-0,088
-594,240	-37,161	0,084	0,033
-593,225	162,414	0,018	0,019
-592,211	-200,000	0,019	-0,098
-591,196	2,875	-0,073	-0,039
-590,182	-37,037	-0,110	0,043
-589,167	-33,711	0,057	-0,023
-588,152	226,485	-0,025	0,030
-587,138	85,116	-0,058	-0,047
-586,123	112,241	-0,151	-0,135
-585,109	642,933	-0,029	-0,055
-584,094	123,406	-0,099	-0,092
-583,079	11,525	0,106	0,060
-582,065	20,314	-0,024	0,014
-581,050	-51,159	0,107	-0,037
-580,036	-120,575	-0,104	-0,013
-579,021	561,252	-0,030	-0,054
-578,006	42,466	0,022	-0,015
-576,992	800,000	-0,018	-0,039
-575,977	-29,133	-0,174	-0,074
-574,963	168,413	0,068	0,071
-573,948	6,960	-0,161	0,088
-572,934	-104,999	-0,034	-0,006
-571,919	-69,669	0,076	0,021
-570,904	20,544	0,044	-0,026
-569,890	-200,000	0,016	0,123
-568,875	101,620	0,091	-0,079
-567,861	64,935	0,030	0,022
-566,846	350,744	-0,074	-0,109
-565,831	-200,000	-0,012	0,052
-564,817	-200,000	0,011	-0,037
-563,802	-200,000	-0,023	-0,096
-562,788	-200,000	0,004	0,025
-561,773	84,425	0,090	-0,072
-560,758	245,878	-0,060	-0,075
-559,744	-75,424	-0,141	-0,037
-558,729	-32,162	-0,110	0,045
-557,715	-168,506	-0,049	0,001
-556,700	800,000	-0,010	-0,029
-555,685	87,036	-0,090	-0,073
-554,671	800,000	-0,060	-0,159
-553,656	-199,276	-0,097	-0,000
-552,642	-145,812	0,141	-0,009
-551,627	-200,000	-0,028	0,093
-550,612	-144,348	0,136	-0,009
-549,598	110,521	-0,053	-0,047
-548,583	282,626	-0,068	-0,090
-547,569	-120,631	0,112	0,014
-546,554	-90,987	0,022	0,005
-545,539	-38,122	-0,073	0,028
-544,525	-153,448	-0,085	-0,004
-543,510	800,000	0,037	0,119
-542,496	84,177	-0,136	-0,109
-541,481	475,461	0,042	-0,070
-540,466	-200,000	-0,009	0,104
-539,452	-200,000	0,004	0,049
-538,437	-200,000	0,019	0,268
-537,423	800,000	0,022	0,065
-536,408	-121,794	-0,167	-0,020
-535,393	-164,847	0,059	0,002
-534,379	121,126	-0,048	0,044
-533,364	800,000	0,010	-0,023
-532,350	800,000	0,036	0,098
-531,335	235,834	0,041	0,050
-530,321	100,639	-0,089	0,076
-529,306	649,411	0,038	-0,073
-528,291	-69,283	-0,135	0,038
-527,277	676,188	-0,024	0,046
-526,262	-175,144	0,101	0,002
-525,248	-200,000	-0,022	0,203
-524,233	-67,088	0,051	-0,015
-523,218	800,000	0,020	-0,050
-522,204	-71,551	-0,050	0,014
-521,189	155,951	0,065	0,066
-520,175	-101,333	-0,075	-0,013
-519,160	-30,920	-0,098	-0,041
-518,145	648,794	-0,065	0,123
-517,131	59,633	0,125	0,091
-516,116	114,785	0,070	-0,063
-515,102	118,077	0,062	0,057
-514,087	312,797	0,094	0,131
-513,072	-164,904	-0,032	0,001
-512,058	68,156	-0,026	-0,020
-511,043	-153,947	-0,040	-0,002
-510,029	800,000	0,030	-0,091
-509,014	-200,000	-0,010	-0,048
-507,999	265,743	-0,045	-0,058
-506,985	171,172	-0,080	0,085
-505,970	-112,265	-0,174	-0,025
-504,956	375,828	0,042	-0,064
-503,941	-200,000	-0,011	-0,086
-502,926	46,437	-0,096	0,066
-501,912	-129,658	0,121	-0,012
-500,897	-200,000	-0,015	-0,082
-499,883	7,281	-0,070	-0,039
-498,868	262,320	-0,045	0,058
-497,853	-68,131	-0,050	-0,014
-496,839	-200,000	0,023	-0,120
-495,824	241,110	0,042	-0,052
-494,810	267,587	-0,051	0,066
-493,795	276,234	0,056	0,074
-492,781	619,699	0,030	-0,056
-491,766	-200,000	-0,023	0,089
-490,751	28,361	-0,147	0,091
-489,737	53,623	0,095	-0,067
-488,722	-62,861	0,044	-0,013
-487,708	-75,715	0,066	0,017
-486,693	2,372	0,059	0,031
-485,678	800,000	0,049	-0,107
-484,664	22,725	-0,103	-0,062
-483,649	-104,320	-0,101	0,017
-482,635	-200,000	-0,003	0,081
-481,620	746,666	0,069	0,138
-480,605	-200,000	-0,011	-0,037
-479,591	-47,223	0,053	0,019
-478,576	74,295	-0,095	0,074
-477,562	800,000	0,023	-0,054
-476,547	-200,000	0,004	-0,079
-475,532	382,252	0,057	0,087
-474,518	-30,587	0,083	-0,034
-473,503	604,811	0,048	0,088
-472,489	800,000	0,060	0,156
-471,474	-181,471	0,112	0,002
-470,459	167,414	0,061	-0,064
-469,445	800,000	0,027	-0,067
-468,430	679,633	0,070	-0,134
-467,416	76,549	0,040	0,031
-466,401	-155,736	0,132	-0,006
-465,386	-175,191	0,036	0,001
-464,372	-72,878	-0,091	-0,025
-463,357	87,142	-0,107	0,087
-462,343	469,282	-0,064	0,106
-461,328	55,554	0,105	-0,075
-460,313	800,000	-0,019	-0,062
-459,299	317,209	-0,064	0,089
-458,284	800,000	0,023	0,068
-457,270	800,000	-0,038	-0,104
-456,255	-146,480	0,037	-0,002
-455,241	-132,076	-0,135	0,013
-454,226	26,426	-0,122	-0,075
-453,211	-158,886	0,072	0,003
-452,197	-200,000	0,034	0,156
-451,182	800,000	0,043	0,139
-450,168	800,000	-0,041	0,097
-449,153	-200,000	0,004	-0,031
-448,138	-200,000	0,012	0,045
-447,124	-200,000	-0,023	-0,121
-446,109	-200,000	-0,036	-0,124
-445,095	2,259	0,022	0,011
-444,080	800,000	-0,023	-0,070
-443,065	800,000	-0,028	0,067
-442,051	-50,931	0,094	-0,032
-441,036	309,207	0,063	-0,087
-440,022	-62,329	0,025	-0,007
-439,007	293,630	-0,026	0,035
-437,992	-32,010	0,091	0,037
-436,978	49,882	0,129	0,089
-435,963	-200,000	0,016	0,108
-434,949	226,261	0,025	0,030
-433,934	300,107	0,036	0,048
-432,919	130,763	-0,036	-0,034
-431,905	800,000	0,042	0,122
-430,890	417,198	-0,073	0,115
-429,876	728,624	0,060	-0,118
-428,861	-115,998	0,091	0,012
-427,846	-21,343	-0,094	0,042
-426,832	-200,000	0,004	0,138
-425,817	-200,000	0,113	0,000
-424,803	-200,000	-0,000	-0,021
-423,788	-134,117	0,086	0,008
-422,773	-107,181	0,075	-0,012
-421,759	-49,288	0,043	0,015
-420,744	-10,169	-0,015	-0,007
-419,730	-38,016	-0,020	0,008
-418,715	800,000	0,064	-0,174
-417,701	800,000	0,022	-0,048
-416,686	325,778	0,066	0,093
-415,671	800,000	-0,015	-0,033
-414,657	-191,225	-0,080	-0,001
-413,642	-200,000	0,015	-0,103
-412,628	72,622	-0,078	-0,060
-411,613	800,000	0,018	-0,049
-410,598	-200,000	-0,002	-0,058
-409,584	82,026	-0,082	-0,065
-408,569	14,194	0,106	0,060
-407,555	5,623	-0,063	0,034
-406,540	431,700	-0,072	-0,116
-405,525	-36,902	-0,066	-0,026
-404,511	-200,000	-0,006	-0,160
-403,496	800,000	-0,041	-0,096
-402,482	-48,908	-0,102	-0,036
-401,467	-200,000	0,001	0,157
-400,452	139,269	0,078	0,075
-399,438	-200,000	-0,018	0,065
-398,423	230,739	0,044	-0,053
-397,409	-200,000	-0,062	-0,222
-396,394	-200,000	-0,002	0,008
-395,379	800,000	0,062	-0,136
-394,365	-200,000	0,012	-0,041
-393,350	-200,000	-0,006	0,024
-392,336	270,653	0,116	0,150
-391,321	-109,048	0,018	-0,003
-390,306	274,619	-0,043	-0,056
-389,292	-200,000	0,018	0,093
-388,277	-200,000	-0,012	0,075
-387,263	-45,884	-0,154	0,055
-386,248	-200,000	0,008	-0,036
-385,233	-200,000	-0,002	-0,052
-384,219	-200,000	-0,007	0,075
-383,204	99,602	0,040	0,034
-382,190	-117,416	0,137	0,018
-381,175	-26,978	0,080	0,034
-380,160	-200,000	-0,006	0,030
-379,146	-77,939	0,201	0,050
-378,131	-200,000	-0,004	-0,022
-377,117	252,439	-0,065	0,081
-376,102	290,386	0,088	0,118
-375,088	-101,894	-0,176	-0,031
-374,073	202,118	0,035	0,040
-373,058	800,000	0,027	0,058
-372,044	-83,111	-0,046	0,011
-371,029	83,023	0,130	0,103
-370,015	-77,359	-0,017	0,004
-369,000	127,033	-0,034	-0,032
-367,985	-200,000	-0,014	0,062
-366,971	87,815	-0,040	0,032
-365,956	800,000	0,014	0,043
-364,942	-32,700	0,031	0,013
-363,927	-200,000	-0,005	-0,042
-362,912	5,992	0,132	-0,072
-361,898	-82,732	0,085	0,020
-360,883	-20,126	0,077	-0,035
-359,869	393,464	0,031	0,048
-358,854	-200,000	0,012	-0,067
-357,839	1,113	0,112	0,059
-356,825	756,561	-0,023	0,046
-355,810	-142,205	0,026	-0,002
-354,796	800,000	-0,052	0,118
-353,781	-3,937	-0,078	-0,039
-352,766	-111,709	-0,017	0,003
-351,752	-90,496	0,039	0,008
-350,737	129,191	-0,057	0,053
-349,723	-187,869	-0,100	0,001
-348,708	254,260	0,094	0,118
-347,693	-200,000	0,009	-0,030
-346,679	-81,649	-0,052	-0,012
-345,664	-200,000	-0,001	0,042
-344,650	75,442	0,041	-0,032
-343,635	48,992	0,076	-0,052
-342,620	70,661	-0,029	0,022
-341,606	-85,744	0,125	0,028
-340,591	49,577	0,017	0,012
-339,577	-200,000	-0,024	-0,190
-338,562	294,906	0,018	0,024
-337,548	75,458	-0,063	0,049
-336,533	36,159	0,111	-0,071
-335,518	165,022	0,086	0,089
-334,504	44,652	-0,027	-0,018
-333,489	-99,324	-0,095	0,017
-332,475	-38,403	0,082	0,032
-331,460	-26,106	0,083	-0,036
-330,445	800,000	0,023	-0,049
-329,431	-22,504	-0,052	0,023
-328,416	800,000	0,049	0,114
-327,402	-200,000	0,006	0,082
-326,387	-200,000	-0,006	-0,049
-325,372	-200,000	0,012	0,085
-324,358	328,174	-0,102	0,144
-323,343	800,000	0,046	-0,115
-322,329	-70,361	-0,094	0,026
-321,314	-11,304	0,055	-0,027
-320,299	153,448	-0,045	0,045
-319,285	23,669	-0,106	-0,064
-318,270	-200,000	-0,038	-0,146
-317,256	-200,000	0,010	0,046
-316,241	-200,000	0,005	-0,032
-315,226	-200,000	-0,001	-0,032
-314,212	223,778	-0,060	-0,071
-313,197	251,468	0,018	-0,022
-312,183	800,000	0,011	-0,025
-311,168	-79,684	-0,045	-0,011
-310,153	-200,000	-0,008	-0,037
-309,139	158,876	-0,128	-0,130
-308,124	481,912	-0,045	-0,076
-307,110	-148,549	-0,113	0,007
-306,095	326,948	0,012	-0,017
-305,080	-155,628	-0,146	0,007
-304,066	-57,747	-0,143	0,045
-303,051	-26,063	0,063	-0,027
-302,037	-98,470	0,025	-0,005
-301,022	74,439	0,141	-0,108
-300,008	-102,834	-0,059	0,010
-298,993	675,855	0,035	0,067
-297,978	-27,055	0,029	0,012
-296,964	362,896	0,030	0,045
-295,949	160,268	0,034	0,035
-294,935	800,000	0,024	-0,074
-293,920	81,710	0,085	-0,067
-292,905	763,203	-0,045	-0,089
-291,891	-200,000	-0,019	0,087
-290,876	-200,000	0,009	-0,123
-289,862	109,384	-0,059	0,051
-288,847	403,541	0,065	0,100
-287,832	54,094	0,136	0,095
-286,818	273,382	-0,026	-0,034
-285,803	121,385	0,103	-0,094
-284,789	800,000	0,025	0,053
-283,774	-200,000	0,026	0,113
-282,759	-92,992	-0,060	-0,012
-281,745	479,152	0,021	-0,035
-280,730	800,000	-0,058	0,149
-279,716	-200,000	0,099	0,000
-278,701	-86,800	0,043	-0,010
-277,686	-200,000	-0,021	-0,114
-276,672	-200,000	0,009	-0,047
-275,657	800,000	-0,043	-0,090
-274,643	-200,000	-0,023	-0,113
-273,628	-200,000	-0,001	-0,106
-272,613	-160,811	0,047	0,002
-271,599	-200,000	-0,004	0,054
-270,584	58,125	0,035	-0,025
-269,570	158,704	0,106	0,107
-268,555	-200,000	-0,005	0,172
-267,540	358,612	0,052	-0,076
-266,526	57,037	-0,121	-0,086
-265,511	-75,323	-0,061	-0,016
-264,497	-40,539	-0,180	0,068
-263,482	800,000	-0,024	0,074
-262,467	-50,883	-0,020	0,007
-261,453	181,057	-0,047	0,050
-260,438	800,000	0,022	0,048
-259,424	-200,000	-0,012	-0,057
-258,409	-163,895	0,124	-0,004
-257,395	-10,899	0,075	-0,036
-256,380	-24,330	0,158	0,068
-255,365	-59,526	-0,085	0,026
-254,351	-15,666	0,042	0,019
-253,336	-200,000	0,028	0,091
-252,322	-200,000	-0,001	0,046
-251,307	-152,861	-0,080	-0,004
-250,292	113,800	0,093	0,082
-249,278	800,000	0,065	0,144
-248,263	-182,410	0,112	0,001
-247,249	-126,439	0,156	-0,017
-246,234	32,613	-0,131	-0,083
-245,219	-156,408	0,044	-0,002
-244,205	-200,000	-0,022	-0,101
-243,190	95,545	0,058	0,048
-242,176	187,762	0,029	0,032
-241,161	-102,572	0,050	0,009
-240,146	75,435	0,079	-0,061
-239,132	88,013	0,049	-0,040
-238,117	-114,997	-0,265	0,036
-237,103	800,000	-0,025	-0,055
-236,088	-42,584	0,043	0,016
-235,073	-200,000	-0,014	0,094
-234,059	-143,778	0,057	0,004
-233,044	5,117	-0,084	-0,045
-232,030	720,080	0,041	-0,081
-231,015	-60,094	0,077	-0,024
-230,000	164,912	-0,064	-0,066
-228,986	-200,000	-0,021	0,137
-227,971	-200,000	-0,004	0,063
-226,957	-73,007	0,069	0,018
-225,942	54,144	0,057	-0,040
-224,927	-33,823	-0,018	-0,007
-223,913	369,860	-0,020	-0,029
-222,898	-87,830	-0,075	0,016
-221,884	529,472	-0,050	0,087
-220,869	453,755	0,022	-0,036
-219,855	-95,374	0,012	0,002
-218,840	116,762	-0,070	0,063
-217,825	-200,000	-0,004	0,056
-216,811	325,824	0,032	-0,045
-215,796	56,446	-0,092	-0,065
-214,782	-42,778	0,071	-0,026
-213,767	-200,000	-0,008	-0,035
-212,752	800,000	-0,025	0,055
-211,738	414,812	-0,015	-0,023
-210,723	-5,389	0,088	-0,044
-209,709	-200,000	0,011	-0,074
-208,694	-200,000	-0,012	-0,089
-207,679	-79,341	0,131	-0,032
-206,665	-111,319	0,050	0,007
-205,650	506,559	0,029	0,050
-204,636	-46,649	0,030	-0,011
-203,621	-200,000	-0,005	0,020
-202,606	595,206	0,017	-0,030
-201,592	26,307	-0,028	-0,017
-200,577	21,277	-0,092	-0,054
-199,563	-200,000	0,013	-0,089
-198,548	-200,000	0,006	0,060
-197,533	67,997	0,025	0,019
-196,519	-74,597	-0,090	0,023
-195,504	185,229	-0,057	-0,061
-194,490	-162,361	-0,093	-0,003
-193,475	140,934	-0,070	-0,067
-192,460	-68,989	0,072	-0,020
-191,446	-71,591	-0,098	0,027
-190,431	608,101	-0,083	0,152
-189,417	359,578	0,078	-0,114
-188,402	-134,424	-0,093	0,008
-187,387	-51,019	-0,032	-0,011
-186,373	-33,088	-0,035	0,014
-185,358	111,027	-0,016	0,014
-184,344	-59,409	-0,016	0,005
-183,329	222,999	0,073	-0,086
-182,315	141,947	-0,019	0,018
-181,300	-152,703	-0,156	0,008
-180,285	-22,213	0,033	0,015
-179,271	-94,352	-0,185	0,036
-178,256	800,000	0,042	-0,096
-177,242	-174,496	-0,141	0,003
-176,227	-76,015	0,094	-0,024
-175,212	-113,194	0,048	-0,007
-174,198	-85,978	0,015	-0,003
-173,183	-200,000	-0,006	0,034
-172,169	63,524	-0,118	0,086
-171,154	30,827	0,064	0,040
-170,139	-200,000	-0,007	-0,059
-169,125	760,408	-0,004	0,008
-168,110	-19,360	0,096	0,043
-167,096	-200,000	0,004	0,092
-166,081	354,710	-0,028	-0,041
-165,066	-200,000	0,007	-0,068
-164,052	361,340	0,038	-0,056
-163,037	-75,259	-0,063	0,016
-162,023	-134,105	0,075	-0,007
-161,008	-115,350	0,138	0,019
-159,993	37,883	-0,081	0,053
-158,979	15,712	0,012	0,007
-157,964	-200,000	-0,020	-0,101
-156,950	82,453	-0,138	0,109
-155,935	-125,727	0,076	0,008
-154,920	-200,000	-0,006	0,093
-153,906	-200,000	0,030	0,101
-152,891	371,410	0,048	0,071
-151,877	-200,000	-0,004	-0,083
-150,862	-200,000	-0,007	0,074
-149,847	-108,092	-0,196	-0,030
-148,833	-200,000	0,009	-0,047
-147,818	-79,774	0,130	0,031
-146,804	28,218	-0,082	0,050
-145,789	800,000	0,050	0,139
-144,775	-46,710	-0,129	0,046
-143,760	-200,000	-0,008	0,052
-142,745	-4,480	-0,108	0,054
-141,731	-197,995	-0,036	-0,000
-140,716	133,464	0,008	0,008
-139,702	135,339	0,046	0,044
-138,687	487,091	-0,103	0,172
-137,672	450,296	0,024	-0,039
-136,658	800,000	-0,058	-0,158
-135,643	-100,085	-0,063	0,011
-134,629	-142,356	0,051	-0,004
-133,614	-188,553	0,032	0,000
-132,599	-58,610	-0,063	-0,020
-131,585	268,841	0,085	-0,109
-130,570	458,504	-0,019	-0,030
-129,556	-110,069	-0,064	0,010
-128,541	119,675	-0,022	-0,020
-127,526	579,799	-0,035	-0,063
-126,512	53,286	-0,051	0,035
-125,497	800,000	0,062	0,127
-124,483	-200,000	-0,023	0,105
-123,468	-111,996	-0,144	0,021
-122,453	352,479	-0,066	-0,096
-121,439	6,573	-0,070	-0,038
-120,424	263,044	0,060	-0,075
-119,410	-200,000	0,009	-0,049
