DTS Sentinel unit serial number:	SN410029Multiplexer serial number:	ORYXHardware model number:	OX2-SRSoftware version number:	ORYX F/W v4,00 Oryx Data Collector v3.7.2.0data status	okinstallation	B4 Nyhavnadifferential loss correction	single-endedforward channel	channel 2reverse channel	N/Adate	2023/12/16time	10:20:13forward acquisition time	300,00reverse acquisition time	0,00gamma	499,1914k internal	0,3125k external	0,3125temperature offset calibration	1,0000default loss term (dB/km)	0,3820temperature slope calibration	1,0000multiplexer offset coefficient	1,0000multiplexer slope coefficient	1,0000fibre end	0,00T internal ref (°C)	23,28T ext. ref 1 (°C)	8,98T ext. ref 2 (°C)	9,16length (m)	temperature (°C)	Stokes	anti-Stokes-744,400	298,737	0,093	-0,128
-743,385	76,753	-0,125	0,099
-742,371	-33,433	0,059	0,024
-741,356	392,032	-0,122	0,190
-740,342	7,221	0,065	0,036
-739,327	246,635	-0,177	0,222
-738,312	-12,115	0,094	-0,046
-737,298	-134,113	-0,221	-0,020
-736,283	-200,000	0,033	-0,114
-735,269	-25,741	-0,210	0,092
-734,254	217,411	0,075	-0,089
-733,239	-163,526	-0,457	-0,016
-732,225	800,000	0,035	-0,102
-731,210	800,000	-0,015	0,037
-730,196	100,196	-0,024	0,021
-729,181	243,890	-0,054	0,068
-728,167	-200,000	-0,005	0,138
-727,152	-200,000	0,006	0,036
-726,137	-101,197	0,055	0,010
-725,123	-29,952	-0,137	-0,058
-724,108	170,789	-0,048	0,051
-723,094	-200,000	0,033	-0,135
-722,079	-200,000	-0,029	-0,152
-721,064	-200,000	-0,062	-0,209
-720,050	-200,000	0,008	0,073
-719,035	163,211	-0,053	-0,056
-718,021	-200,000	-0,013	-0,232
-717,006	34,591	-0,122	-0,079
-715,991	-73,473	-0,099	-0,027
-714,977	-200,000	-0,003	-0,018
-713,962	-70,221	0,101	0,028
-712,948	-56,025	-0,087	0,029
-711,933	20,081	-0,027	0,016
-710,918	-75,150	0,190	-0,050
-709,904	-19,509	-0,090	0,041
-708,889	219,472	0,003	0,004
-707,875	-200,000	-0,004	-0,144
-706,860	89,131	0,059	-0,049
-705,845	-200,000	-0,007	0,104
-704,831	-200,000	0,021	0,072
-703,816	62,277	-0,123	-0,091
-702,802	-69,214	0,033	-0,009
-701,787	341,554	-0,093	-0,136
-700,772	800,000	0,071	-0,188
-699,758	-4,662	-0,065	0,033
-698,743	-101,518	-0,099	0,018
-697,729	13,386	-0,165	0,095
-696,714	322,057	0,026	0,037
-695,699	13,097	0,048	0,027
-694,685	-0,198	-0,045	0,024
-693,670	-200,000	0,003	0,043
-692,656	-200,000	0,016	-0,116
-691,641	-76,631	-0,084	-0,022
-690,627	800,000	-0,023	0,049
-689,612	20,155	-0,090	0,054
-688,597	800,000	-0,052	0,118
-687,583	646,614	-0,040	-0,077
-686,568	-200,000	0,011	-0,161
-685,554	-200,000	0,036	0,123
-684,539	393,985	0,057	-0,088
-683,524	800,000	-0,047	-0,141
-682,510	178,747	-0,092	0,100
-681,495	-200,000	0,026	-0,088
-680,481	-101,442	-0,121	-0,022
-679,466	800,000	0,046	-0,096
-678,451	-200,000	0,005	-0,089
-677,437	-172,750	0,232	-0,005
-676,422	26,825	0,053	0,033
-675,408	538,488	-0,037	0,066
-674,393	734,838	-0,054	0,108
-673,378	-69,378	-0,084	0,024
-672,364	-200,000	0,009	-0,057
-671,349	-58,202	0,036	-0,012
-670,335	-89,936	-0,072	-0,015
-669,320	-76,613	0,058	0,015
-668,305	-104,268	-0,065	-0,011
-667,291	94,883	-0,071	-0,060
-666,276	77,478	-0,064	-0,051
-665,262	-121,245	-0,152	0,019
-664,247	336,953	-0,040	-0,058
-663,232	697,693	0,061	-0,120
-662,218	-156,239	0,140	0,006
-661,203	124,944	0,018	-0,017
-660,189	-200,000	-0,015	-0,082
-659,174	-89,562	-0,129	-0,028
-658,159	-200,000	-0,012	0,045
-657,145	-23,392	-0,091	-0,041
-656,130	800,000	0,021	-0,046
-655,116	-200,000	-0,004	-0,044
-654,101	-7,897	0,026	0,013
-653,086	-65,065	-0,053	-0,016
-652,072	-200,000	0,004	0,035
-651,057	341,192	-0,046	-0,067
-650,043	418,688	0,039	-0,063
-649,028	118,192	-0,086	0,078
-648,014	303,660	0,081	-0,112
-646,999	-200,000	-0,021	-0,079
-645,984	49,434	-0,103	-0,072
-644,970	800,000	0,041	0,099
-643,955	226,018	-0,038	-0,046
-642,941	-200,000	-0,013	-0,066
-641,926	239,580	-0,121	-0,150
-640,911	22,124	0,019	-0,012
-639,897	-200,000	-0,001	-0,038
-638,882	42,428	0,052	0,035
-637,868	20,988	0,061	0,036
-636,853	800,000	-0,065	-0,144
-635,838	571,306	0,034	-0,061
-634,824	54,857	-0,092	0,066
-633,809	-44,482	0,136	-0,050
-632,795	-90,927	-0,057	-0,012
-631,780	-200,000	-0,009	0,031
-630,765	158,471	-0,060	-0,061
-629,751	244,310	-0,019	0,023
-628,736	568,138	0,089	-0,161
-627,722	-120,147	-0,027	0,003
-626,707	769,551	0,041	0,083
-625,692	288,674	-0,056	0,076
-624,678	-200,000	0,009	-0,059
-623,663	-78,302	-0,109	-0,027
-622,649	-108,012	0,127	0,020
-621,634	-200,000	-0,023	-0,098
-620,619	-200,000	-0,023	-0,117
-619,605	42,817	0,083	-0,056
-618,590	800,000	0,006	0,018
-617,576	67,511	-0,065	0,050
-616,561	344,554	-0,074	0,108
-615,546	-173,187	-0,100	-0,002
-614,532	442,115	-0,009	0,014
-613,517	37,722	-0,101	0,066
-612,503	212,155	0,028	-0,033
-611,488	800,000	0,049	0,118
-610,474	38,935	-0,043	-0,028
-609,459	501,823	0,049	0,084
-608,444	39,683	0,078	0,052
-607,430	-165,534	0,022	-0,001
-606,415	-200,000	-0,049	0,201
-605,401	68,970	-0,085	0,064
-604,386	-73,359	-0,125	-0,034
-603,371	329,317	0,070	0,099
-602,357	800,000	0,032	0,079
-601,342	800,000	-0,030	-0,061
-600,328	-200,000	-0,047	-0,200
-599,313	800,000	0,044	0,095
-598,298	-200,000	-0,005	-0,079
-597,284	-200,000	-0,010	0,051
-596,269	73,484	0,055	-0,043
-595,255	394,596	-0,058	-0,091
-594,240	-58,921	0,058	0,018
-593,225	586,710	-0,083	-0,153
-592,211	-105,104	0,106	0,018
-591,196	234,331	0,070	-0,086
-590,182	20,380	-0,128	0,076
-589,167	119,241	0,153	0,140
-588,152	323,561	0,058	0,083
-587,138	81,834	-0,071	0,057
-586,123	46,294	-0,084	-0,058
-585,109	-51,401	-0,104	0,036
-584,094	800,000	0,004	-0,010
-583,079	-42,341	0,043	0,016
-582,065	245,263	-0,047	-0,059
-581,050	-116,839	-0,096	0,013
-580,036	-200,000	0,006	-0,100
-579,021	-200,000	-0,029	-0,110
-578,006	525,607	0,063	-0,110
-576,992	-200,000	-0,002	-0,135
-575,977	-4,663	0,057	0,029
-574,963	800,000	-0,038	0,111
-573,948	30,638	0,046	0,029
-572,934	800,000	0,011	-0,032
-571,919	6,482	0,085	0,046
-570,904	643,282	-0,013	-0,024
-569,890	159,426	-0,042	0,043
-568,875	-200,000	0,008	0,044
-567,861	800,000	-0,066	0,180
-566,846	94,699	0,047	-0,039
-565,831	182,919	0,088	-0,097
-564,817	-200,000	0,011	0,045
-563,802	-200,000	0,001	-0,038
-562,788	-36,851	0,044	0,017
-561,773	800,000	0,048	0,126
-560,758	15,632	0,035	0,020
-559,744	-11,102	-0,170	0,083
-558,729	52,487	0,046	0,032
-557,715	215,153	-0,059	0,069
-556,700	121,931	-0,007	-0,007
-555,685	-200,000	0,012	-0,080
-554,671	-132,111	-0,024	-0,002
-553,656	-200,000	-0,018	0,000
-552,642	-200,000	0,042	-0,144
-551,627	-85,298	0,086	-0,020
-550,612	-155,675	-0,117	0,005
-549,598	-200,000	-0,038	-0,196
-548,583	-70,079	0,115	0,032
-547,569	800,000	-0,023	-0,064
-546,554	-54,842	0,040	0,013
-545,539	258,040	-0,007	-0,008
-544,525	-200,000	0,011	-0,047
-543,510	-200,000	0,002	-0,037
-542,496	-200,000	0,005	-0,054
-541,481	-200,000	-0,040	0,189
-540,466	-200,000	0,003	-0,077
-539,452	-178,808	-0,072	-0,001
-538,437	628,469	0,054	0,102
-537,423	800,000	-0,026	-0,079
-536,408	162,992	-0,075	-0,078
-535,393	-195,421	-0,042	0,000
-534,379	800,000	0,026	0,064
-533,364	-200,000	-0,038	0,133
-532,350	-104,101	0,047	-0,008
-531,335	88,069	0,083	0,068
-530,321	18,951	-0,121	-0,072
-529,306	-200,000	0,014	-0,139
-528,291	47,617	-0,045	0,031
-527,277	510,608	0,040	-0,069
-526,262	-200,000	0,029	-0,116
-525,248	384,539	0,043	0,066
-524,233	-200,000	-0,001	0,070
-523,218	-181,670	-0,101	0,001
-522,204	-112,052	0,092	0,014
-521,189	-200,000	-0,015	0,096
-520,175	-200,000	0,008	-0,055
-519,160	-151,027	-0,085	0,005
-518,145	-74,579	0,096	0,025
-517,131	800,000	-0,016	-0,048
-516,116	800,000	0,039	-0,092
-515,102	-29,415	0,136	-0,057
-514,087	-200,000	0,012	0,102
-513,072	-83,102	-0,052	-0,012
-512,058	-22,158	0,101	-0,045
-511,043	-200,000	0,011	-0,043
-510,029	-70,234	0,267	0,074
-509,014	-34,122	-0,074	0,030
-507,999	-129,615	-0,073	-0,007
-506,985	718,838	0,048	-0,095
-505,970	-200,000	-0,009	-0,143
-504,956	17,998	0,056	-0,033
-503,941	172,066	-0,100	0,106
-502,926	-200,000	-0,002	-0,163
-501,912	-200,000	0,014	0,138
-500,897	-157,981	-0,157	0,007
-499,883	-200,000	-0,030	-0,177
-498,868	-77,302	-0,023	0,006
-497,853	-200,000	-0,046	-0,197
-496,839	-200,000	-0,042	-0,139
-495,824	107,895	0,076	-0,067
-494,810	169,158	0,132	0,139
-493,795	800,000	-0,017	-0,039
-492,781	-64,975	0,021	-0,006
-491,766	800,000	-0,013	0,043
-490,751	-151,333	-0,086	0,005
-489,737	-177,861	0,060	0,001
-488,722	-200,000	-0,003	0,046
-487,708	11,857	-0,054	0,030
-486,693	440,465	-0,014	0,023
-485,678	140,682	-0,021	-0,021
-484,664	79,403	-0,094	-0,074
-483,649	-8,782	-0,070	0,034
-482,635	800,000	-0,017	-0,043
-481,620	83,069	-0,029	-0,023
-480,605	2,772	-0,076	0,041
-479,591	800,000	-0,010	0,027
-478,576	800,000	0,053	-0,125
-477,562	800,000	-0,041	-0,116
-476,547	-200,000	-0,013	-0,143
-475,532	50,281	0,152	-0,106
-474,518	55,271	0,049	-0,035
-473,503	236,384	0,039	0,048
-472,489	-161,164	0,072	0,003
-471,474	800,000	-0,040	0,105
-470,459	19,433	-0,182	-0,107
-469,445	-33,156	-0,097	-0,040
-468,430	-18,549	0,164	-0,075
-467,416	217,294	-0,032	-0,038
-466,401	-200,000	-0,006	-0,040
-465,386	-200,000	0,006	0,022
-464,372	800,000	0,008	0,023
-463,357	-200,000	0,006	0,033
-462,343	-45,976	-0,070	-0,025
-461,328	-100,311	-0,068	-0,012
-460,313	800,000	0,033	0,071
-459,299	-57,847	-0,084	0,027
-458,284	-200,000	0,043	-0,208
-457,270	800,000	0,021	0,052
-456,255	-200,000	0,029	-0,126
-455,241	-200,000	0,034	-0,120
-454,226	-200,000	0,002	0,194
-453,211	800,000	-0,040	0,096
-452,197	-200,000	0,002	0,088
-451,182	120,852	-0,040	0,036
-450,168	175,814	0,081	-0,087
-449,153	-43,189	0,067	0,025
-448,138	-181,966	0,119	0,002
-447,124	-200,000	0,006	-0,109
-446,109	684,746	0,094	-0,181
-445,095	-37,010	-0,024	0,010
-444,080	800,000	0,015	0,045
-443,065	-200,000	0,027	-0,119
-442,051	800,000	0,021	-0,059
-441,036	747,669	-0,024	0,048
-440,022	-141,096	-0,055	0,004
-439,007	-200,000	-0,025	0,098
-437,992	515,858	0,037	0,063
-436,978	-200,000	0,004	0,063
-435,963	-175,935	-0,062	-0,001
-434,949	25,815	0,049	-0,030
-433,934	-200,000	-0,009	-0,056
-432,919	-200,000	-0,008	-0,121
-431,905	37,117	-0,111	-0,072
-430,890	-200,000	0,027	0,106
-429,876	-200,000	-0,033	0,109
-428,861	706,869	-0,037	0,073
-427,846	-155,117	0,087	0,004
-426,832	-75,639	-0,244	-0,063
-425,817	-111,119	0,061	-0,009
-424,803	-49,874	0,093	-0,032
-423,788	800,000	-0,037	0,112
-422,773	537,016	0,040	0,070
-421,759	490,166	0,041	-0,070
-420,744	43,813	0,080	0,054
-419,730	159,129	0,113	0,115
-418,715	-200,000	0,023	-0,077
-417,701	112,740	0,103	0,092
-416,686	-23,322	0,095	0,042
-415,671	-200,000	-0,004	0,014
-414,657	-47,619	-0,121	-0,043
-413,642	56,132	0,138	0,098
-412,628	780,511	-0,022	-0,045
-411,613	-53,560	-0,144	0,048
-410,598	141,145	-0,068	-0,066
-409,584	-200,000	0,027	0,129
-408,569	79,485	0,124	-0,098
-407,555	54,959	0,097	-0,069
-406,540	-43,666	-0,084	0,031
-405,525	174,512	0,037	-0,040
-404,511	158,363	0,042	0,043
-403,496	-110,892	0,095	0,014
-402,482	310,015	-0,032	-0,044
-401,467	800,000	0,037	0,078
-400,452	-200,000	0,007	0,079
-399,438	-200,000	0,043	0,143
-398,423	800,000	0,024	0,063
-397,409	800,000	-0,039	-0,119
-396,394	546,646	-0,015	0,027
-395,379	174,320	-0,039	0,041
-394,365	-42,149	-0,053	-0,020
-393,350	-200,000	0,002	0,210
-392,336	49,075	-0,046	-0,031
-391,321	43,929	0,033	0,022
-390,306	-141,794	-0,096	0,007
-389,292	-28,914	-0,138	0,058
-388,277	40,201	-0,073	-0,048
-387,263	-108,292	0,083	0,013
-386,248	394,491	0,042	0,064
-385,233	-200,000	-0,043	0,148
-384,219	-200,000	-0,001	-0,190
-383,204	800,000	0,009	-0,026
-382,190	-2,855	-0,190	0,097
-381,175	86,223	0,107	0,086
-380,160	-93,747	-0,126	-0,025
-379,146	-200,000	0,004	0,030
-378,131	-17,156	0,058	-0,027
-377,117	-200,000	-0,026	-0,114
-376,102	-200,000	0,009	-0,144
-375,088	-29,007	-0,119	-0,050
-374,073	800,000	-0,022	0,050
-373,058	43,452	-0,051	0,034
-372,044	-72,559	0,208	-0,056
-371,029	800,000	-0,014	0,043
-370,015	-61,542	0,072	-0,022
-369,000	-88,924	0,113	-0,024
-367,985	-193,550	-0,203	0,001
-366,971	-66,944	0,077	0,022
-365,956	-99,598	0,126	0,023
-364,942	-200,000	0,038	0,152
-363,927	601,644	0,047	0,086
-362,912	-200,000	-0,002	0,124
-361,898	238,309	-0,084	0,103
-360,883	-34,475	-0,142	-0,057
-359,869	-57,982	0,113	-0,036
-358,854	-2,858	-0,068	0,035
-357,839	-200,000	-0,001	0,023
-356,825	-85,289	-0,014	0,003
-355,810	800,000	0,044	-0,142
-354,796	150,386	-0,112	-0,112
-353,781	-22,000	-0,194	-0,086
-352,766	-70,395	-0,104	-0,029
-351,752	-50,512	0,137	-0,047
-350,737	-80,607	0,114	0,028
-349,723	-49,747	-0,043	-0,015
-348,708	225,874	-0,013	-0,015
-347,693	-200,000	0,004	-0,012
-346,679	275,737	0,020	-0,026
-345,664	-32,761	0,054	0,022
-344,650	687,753	-0,027	0,052
-343,635	-62,432	-0,115	0,035
-342,620	141,192	0,032	-0,031
-341,606	-140,351	0,122	0,009
-340,591	-200,000	0,013	-0,096
-339,577	133,523	-0,093	-0,088
-338,562	-200,000	-0,013	0,063
-337,548	-200,000	0,010	-0,073
-336,533	2,653	-0,021	0,011
-335,518	667,061	0,051	0,097
-334,504	47,537	-0,090	0,062
-333,489	-200,000	-0,006	-0,031
-332,475	59,837	0,017	0,012
-331,460	-200,000	-0,004	-0,081
-330,445	-200,000	-0,016	0,154
-329,431	10,546	0,007	-0,004
-328,416	13,088	0,101	0,057
-327,402	81,155	0,065	-0,051
-326,387	-200,000	0,001	-0,060
-325,372	-159,833	-0,141	-0,006
-324,358	118,770	-0,108	-0,097
-323,343	60,807	-0,098	-0,071
-322,329	-109,994	0,060	-0,009
-321,314	75,578	0,085	0,066
-320,299	800,000	-0,057	0,140
-319,285	800,000	-0,046	-0,127
-318,270	-200,000	-0,005	-0,098
-317,256	-49,555	0,098	-0,034
-316,241	-200,000	-0,001	-0,069
-315,226	194,553	0,106	0,118
-314,212	-159,170	-0,098	-0,004
-313,197	-162,545	0,020	-0,001
-312,183	439,132	0,068	-0,108
-311,168	753,221	0,041	0,081
-310,153	-78,015	-0,087	-0,022
-309,139	10,660	-0,080	0,045
-308,124	-61,466	0,012	-0,004
-307,110	637,769	0,071	0,133
-306,095	231,928	-0,024	-0,028
-305,080	258,664	0,073	0,093
-304,066	-34,191	0,026	-0,011
-303,051	-200,000	0,000	-0,020
-302,037	-92,846	-0,114	0,023
-301,022	-200,000	-0,003	-0,013
-300,008	296,423	0,048	-0,064
-298,993	104,086	-0,032	-0,027
-297,978	-200,000	0,004	0,014
-296,964	-200,000	0,003	0,061
-295,949	-200,000	-0,004	-0,031
-294,935	-188,511	0,067	-0,001
-293,920	-68,706	0,122	-0,034
-292,905	-90,287	0,112	-0,024
-291,891	292,638	0,106	0,142
-290,876	-14,314	-0,097	0,046
-289,862	-200,000	-0,009	0,139
-288,847	80,378	-0,055	0,043
-287,832	140,733	-0,053	0,052
-286,818	45,451	0,045	-0,030
-285,803	278,720	0,062	0,081
-284,789	-92,823	0,118	0,024
-283,774	-70,812	-0,009	-0,003
-282,759	-200,000	-0,002	-0,133
-281,745	353,458	0,062	-0,090
-280,730	54,742	0,053	0,037
-279,716	-118,555	-0,104	0,013
-278,701	800,000	-0,033	-0,094
-277,686	106,640	-0,076	-0,066
-276,672	800,000	0,033	0,079
-275,657	750,936	-0,044	-0,087
-274,643	-135,774	-0,045	0,004
-273,628	41,043	-0,019	-0,012
-272,613	-144,288	0,060	-0,004
-271,599	-43,007	-0,091	-0,034
-270,584	204,745	0,133	0,151
-269,570	-200,000	0,003	0,014
-268,555	330,156	-0,040	0,056
-267,540	356,192	0,051	-0,074
-266,526	-101,798	0,099	-0,017
-265,511	762,447	-0,012	-0,024
-264,497	322,123	-0,059	-0,082
-263,482	101,484	0,167	0,142
-262,467	116,378	-0,058	0,052
-261,453	30,256	-0,013	0,008
-260,438	-37,479	-0,085	-0,033
-259,424	-128,648	0,069	-0,007
-258,409	800,000	-0,039	0,093
-257,395	459,188	-0,049	0,081
-256,380	174,937	-0,093	0,099
-255,365	-129,719	0,051	0,005
-254,351	-200,000	-0,003	-0,044
-253,336	-148,227	-0,173	0,010
-252,322	-118,681	-0,113	-0,014
-251,307	-116,857	0,199	-0,026
-250,292	-133,301	0,102	-0,009
-249,278	160,979	0,082	0,084
-248,263	157,093	0,079	0,080
-247,249	-200,000	0,000	0,016
-246,234	-178,331	0,049	0,001
-245,219	509,841	-0,052	-0,088
-244,205	55,435	-0,053	-0,037
-243,190	350,931	-0,018	0,026
-242,176	-129,396	0,089	0,009
-241,161	-89,137	0,075	0,016
-240,146	-200,000	0,011	-0,051
-239,132	-139,543	-0,094	0,007
-238,117	65,425	0,062	0,046
-237,103	-200,000	0,002	-0,167
-236,088	-15,038	-0,128	-0,060
-235,073	203,631	-0,019	0,022
-234,059	-200,000	0,001	0,118
-233,044	800,000	0,024	-0,072
-232,030	65,585	0,073	0,054
-231,015	-200,000	-0,045	-0,193
-230,000	-200,000	0,001	0,032
-228,986	360,767	-0,039	0,057
-227,971	647,324	0,012	0,023
-226,957	211,734	-0,048	-0,055
-225,942	17,798	-0,099	0,058
-224,927	-120,800	-0,044	-0,005
-223,913	800,000	-0,049	-0,158
-222,898	-16,508	-0,149	0,069
-221,884	-200,000	0,025	-0,092
-220,869	-200,000	-0,025	0,140
-219,855	109,148	0,072	0,063
-218,840	-41,234	0,147	-0,055
-217,825	-200,000	0,029	-0,142
-216,811	-200,000	0,026	0,090
-215,796	158,678	-0,069	0,070
-214,782	-72,202	0,135	-0,036
-213,767	-9,481	0,038	-0,019
-212,752	-200,000	0,001	0,037
-211,738	440,307	-0,085	0,137
-210,723	104,177	-0,150	0,129
-209,709	662,552	-0,043	-0,082
-208,694	-116,881	-0,037	-0,005
-207,679	-200,000	0,034	-0,204
-206,665	160,722	-0,060	-0,061
-205,650	-102,781	0,127	-0,022
-204,636	37,152	0,148	0,095
-203,621	71,479	-0,069	0,052
-202,606	-75,291	-0,104	0,027
-201,592	-35,374	0,046	-0,018
-200,577	800,000	0,014	0,029
-199,563	-200,000	0,004	0,115
-198,548	213,301	0,020	0,023
-197,533	-200,000	0,019	0,084
-196,519	27,784	0,034	0,021
-195,504	12,133	0,133	-0,074
-194,490	800,000	0,031	0,068
-193,475	-200,000	-0,010	-0,054
-192,460	-71,350	-0,048	0,013
-191,446	800,000	0,041	0,091
-190,431	-157,386	-0,080	0,003
-189,417	-200,000	0,039	0,131
-188,402	599,253	0,057	0,104
-187,387	-76,728	-0,169	0,043
-186,373	800,000	-0,040	0,105
-185,358	497,866	0,039	0,066
-184,344	-200,000	-0,021	-0,211
-183,329	-200,000	0,004	-0,038
-182,315	800,000	-0,020	0,049
-181,300	-200,000	0,005	-0,032
-180,285	800,000	0,045	-0,099
-179,271	28,036	0,059	0,036
-178,256	137,704	0,071	-0,067
-177,242	89,049	-0,078	0,063
-176,227	-119,829	0,096	0,012
-175,212	131,809	-0,028	0,026
-174,198	63,006	-0,090	-0,065
-173,183	342,740	-0,046	0,066
-172,169	-200,000	-0,006	-0,158
-171,154	-30,788	-0,094	0,038
-170,139	-157,398	0,027	-0,001
-169,125	189,771	0,152	0,166
-168,110	-91,963	0,009	-0,002
-167,096	-200,000	0,002	0,013
-166,081	183,890	0,055	-0,060
-165,066	-200,000	-0,025	-0,137
-164,052	800,000	-0,028	-0,086
-163,037	359,272	0,048	0,070
-162,023	-118,780	0,078	0,010
-161,008	-155,074	-0,158	0,007
-159,993	-200,000	0,024	0,127
-158,979	-57,882	-0,110	-0,035
-157,964	-200,000	-0,013	0,076
-156,950	299,230	0,064	0,087
-155,935	-200,000	-0,009	0,065
-154,920	55,446	0,116	0,081
-153,906	-61,238	0,073	-0,022
-152,891	-200,000	0,024	0,153
-151,877	5,931	-0,070	-0,038
-150,862	-122,647	0,069	0,008
-149,847	-79,462	-0,037	0,009
-148,833	70,000	0,100	0,075
-147,818	-200,000	0,008	-0,045
-146,804	-200,000	0,017	0,223
-145,789	24,600	0,132	0,079
-144,775	-169,965	-0,028	0,001
-143,760	57,867	-0,054	0,038
-142,745	-34,091	0,082	0,033
-141,731	-6,152	-0,048	0,024
-140,716	403,878	-0,006	-0,010
-139,702	173,872	0,062	0,065
-138,687	89,760	-0,061	-0,050
-137,672	-200,000	-0,023	-0,081
-136,658	-200,000	-0,039	-0,168
-135,643	-33,810	0,035	-0,014
-134,629	104,612	0,019	-0,016
-133,614	-200,000	-0,006	0,125
-132,599	-200,000	0,022	0,103
-131,585	-24,210	-0,060	-0,026
-130,570	4,332	-0,071	-0,038
-129,556	800,000	-0,007	0,020
-128,541	-200,000	0,008	-0,054
-127,526	800,000	0,049	0,120
-126,512	-62,678	-0,137	0,041
-125,497	743,576	0,044	0,086
-124,483	205,877	-0,062	0,070
-123,468	159,397	0,074	0,075
-122,453	-126,894	-0,147	0,015
-121,439	598,662	0,050	-0,091
-120,424	-72,536	-0,081	0,022
-119,410	-6,552	0,070	0,035
