DTS Sentinel unit serial number:	SN410029Multiplexer serial number:	ORYXHardware model number:	OX2-SRSoftware version number:	ORYX F/W v4,00 Oryx Data Collector v3.7.2.0data status	okinstallation	B4 Nyhavnadifferential loss correction	single-endedforward channel	channel 2reverse channel	N/Adate	2023/12/19time	14:10:13forward acquisition time	300,00reverse acquisition time	0,00gamma	499,1914k internal	0,3127k external	0,3127temperature offset calibration	1,0000default loss term (dB/km)	0,3820temperature slope calibration	1,0000multiplexer offset coefficient	1,0000multiplexer slope coefficient	1,0000fibre end	0,00T internal ref (°C)	19,38T ext. ref 1 (°C)	4,59T ext. ref 2 (°C)	4,55length (m)	temperature (°C)	Stokes	anti-Stokes-744,400	-200,000	0,008	-0,103
-743,385	-55,076	-0,240	0,080
-742,371	-200,000	0,002	0,018
-741,356	-62,080	-0,230	0,071
-740,342	55,133	-0,116	0,083
-739,327	-17,785	-0,192	0,090
-738,312	800,000	0,031	-0,083
-737,298	-98,226	-0,301	0,057
-736,283	-200,000	0,017	-0,081
-735,269	-135,281	-0,204	0,018
-734,254	-31,817	0,061	-0,025
-733,239	-34,821	-0,395	-0,160
-732,225	314,626	0,053	-0,074
-731,210	345,884	0,051	0,075
-730,196	800,000	0,059	-0,138
-729,181	247,685	-0,018	-0,023
-728,167	-32,720	-0,049	-0,020
-727,152	-198,100	-0,112	0,000
-726,137	-37,832	-0,031	0,012
-725,123	79,694	-0,046	0,036
-724,108	-200,000	-0,009	-0,056
-723,094	281,754	0,043	-0,058
-722,079	-136,677	0,068	-0,006
-721,064	800,000	-0,044	0,108
-720,050	153,458	0,091	0,093
-719,035	2,510	-0,033	-0,018
-718,021	-185,107	-0,089	0,001
-717,006	-200,000	-0,014	0,050
-715,991	19,207	-0,090	-0,054
-714,977	178,656	-0,146	-0,158
-713,962	15,756	0,072	0,042
-712,948	73,455	-0,043	-0,033
-711,933	-127,734	0,082	0,009
-710,918	541,625	-0,029	-0,051
-709,904	800,000	-0,073	-0,176
-708,889	67,836	0,041	-0,031
-707,875	559,465	0,062	-0,112
-706,860	-200,000	0,001	-0,051
-705,845	255,775	-0,066	-0,084
-704,831	800,000	0,043	0,094
-703,816	-41,357	-0,054	-0,021
-702,802	-138,298	-0,063	-0,005
-701,787	-188,815	-0,028	0,000
-700,772	-52,411	-0,055	-0,019
-699,758	-200,000	-0,006	-0,123
-698,743	-200,000	-0,015	0,154
-697,729	-200,000	-0,003	0,195
-696,714	-55,354	-0,057	-0,019
-695,699	4,266	0,074	0,040
-694,685	800,000	-0,023	-0,055
-693,670	-200,000	-0,029	-0,132
-692,656	-121,387	-0,119	-0,015
-691,641	64,075	0,051	0,038
-690,627	-200,000	-0,011	0,074
-689,612	206,523	-0,057	-0,066
-688,597	137,980	0,095	-0,092
-687,583	82,750	0,099	0,080
-686,568	93,246	-0,036	-0,031
-685,554	800,000	-0,036	-0,088
-684,539	-124,073	0,128	-0,015
-683,524	-59,986	0,095	0,030
-682,510	-200,000	-0,002	0,098
-681,495	43,732	-0,045	-0,030
-680,481	-136,388	-0,093	-0,008
-679,466	-150,190	-0,055	-0,003
-678,451	476,451	0,074	-0,125
-677,437	-98,472	-0,177	0,033
-676,422	-200,000	0,033	0,202
-675,408	-200,000	0,008	0,076
-674,393	115,818	0,076	-0,069
-673,378	-200,000	0,000	-0,053
-672,364	200,721	-0,149	-0,171
-671,349	-200,000	-0,006	0,062
-670,335	4,048	-0,108	0,058
-669,320	170,554	-0,035	0,037
-668,305	13,674	0,127	0,073
-667,291	-200,000	-0,021	0,110
-666,276	800,000	0,033	-0,105
-665,262	275,918	-0,014	0,018
-664,247	296,611	0,054	0,074
-663,232	93,468	-0,012	0,010
-662,218	-200,000	0,038	0,239
-661,203	401,659	0,111	-0,174
-660,189	300,342	0,025	0,034
-659,174	-176,367	-0,093	0,002
-658,159	-200,000	-0,004	-0,218
-657,145	-200,000	-0,029	-0,188
-656,130	-9,732	-0,104	0,051
-655,116	-189,855	-0,057	0,000
-654,101	771,350	0,076	-0,154
-653,086	-100,040	-0,070	0,013
-652,072	726,520	-0,032	0,064
-651,057	-95,169	0,034	0,007
-650,043	58,835	0,077	0,056
-649,028	-71,238	-0,024	-0,007
-648,014	657,801	-0,026	0,051
-646,999	99,853	-0,115	0,099
-645,984	223,221	-0,021	0,025
-644,970	204,083	0,051	-0,059
-643,955	800,000	0,078	-0,168
-642,941	24,263	-0,047	-0,029
-641,926	352,842	0,033	0,049
-640,911	800,000	0,073	0,162
-639,897	281,101	0,028	0,037
-638,882	162,460	0,150	-0,156
-637,868	22,593	-0,104	-0,063
-636,853	247,030	0,062	-0,078
-635,838	800,000	0,009	0,024
-634,824	633,863	-0,034	-0,065
-633,809	-200,000	-0,015	-0,216
-632,795	800,000	0,006	0,014
-631,780	-200,000	0,017	0,072
-630,765	-74,427	0,013	-0,004
-629,751	-200,000	0,006	-0,072
-628,736	625,209	-0,095	-0,178
-627,722	800,000	0,051	0,115
-626,707	-200,000	-0,011	-0,117
-625,692	800,000	-0,012	0,026
-624,678	-200,000	0,014	0,088
-623,663	57,932	0,054	-0,039
-622,649	128,007	-0,060	-0,057
-621,634	199,357	-0,131	-0,149
-620,619	647,284	0,044	-0,083
-619,605	-200,000	0,000	-0,023
-618,590	-200,000	-0,005	0,029
-617,576	200,757	0,075	-0,085
-616,561	-43,301	-0,056	-0,021
-615,546	-172,758	-0,093	-0,002
-614,532	48,313	-0,048	-0,033
-613,517	800,000	0,049	-0,144
-612,503	-128,782	0,031	0,003
-611,488	-11,471	0,027	-0,013
-610,474	800,000	-0,042	0,128
-609,459	39,527	-0,100	0,067
-608,444	-200,000	0,006	-0,054
-607,430	681,524	-0,041	-0,079
-606,415	800,000	0,049	-0,152
-605,401	35,061	0,062	0,040
-604,386	-10,970	-0,063	-0,031
-603,371	200,628	-0,046	-0,052
-602,357	-19,848	0,016	-0,007
-601,342	-121,715	-0,144	-0,017
-600,328	311,712	-0,034	-0,047
-599,313	800,000	0,034	-0,080
-598,298	126,741	0,120	0,113
-597,284	295,956	0,056	0,076
-596,269	169,975	-0,076	0,080
-595,255	539,654	0,047	0,083
-594,240	99,837	-0,044	0,038
-593,225	92,112	-0,082	-0,068
-592,211	-56,784	-0,158	-0,051
-591,196	50,090	-0,115	0,080
-590,182	-71,151	-0,120	0,033
-589,167	270,250	0,030	0,039
-588,152	-43,114	0,144	0,054
-587,138	800,000	0,028	0,066
-586,123	800,000	-0,079	-0,179
-585,109	-200,000	-0,004	0,066
-584,094	-145,207	-0,136	0,009
-583,079	-198,872	0,094	0,000
-582,065	57,794	-0,141	-0,102
-581,050	79,864	0,095	-0,075
-580,036	-118,826	0,107	-0,014
-579,021	421,107	-0,040	-0,064
-578,006	66,884	-0,162	-0,122
-576,992	344,388	-0,074	-0,107
-575,977	71,231	0,066	-0,051
-574,963	665,283	-0,051	-0,097
-573,948	800,000	0,024	0,067
-572,934	272,662	0,032	-0,041
-571,919	292,375	-0,117	0,158
-570,904	-73,150	-0,041	-0,011
-569,890	252,773	-0,060	-0,076
-568,875	-200,000	0,031	0,111
-567,861	800,000	-0,024	0,077
-566,846	202,638	-0,035	-0,041
-565,831	-200,000	-0,035	-0,142
-564,817	-60,922	-0,146	0,045
-563,802	-138,573	-0,102	0,008
-562,788	781,084	0,035	-0,072
-561,773	-200,000	0,051	-0,218
-560,758	168,806	0,091	0,096
-559,744	-83,498	0,107	-0,025
-558,729	-29,334	-0,141	-0,059
-557,715	-137,669	-0,033	-0,003
-556,700	-42,092	0,060	0,023
-555,685	-135,556	-0,139	0,012
-554,671	266,672	-0,094	0,122
-553,656	800,000	0,057	0,126
-552,642	473,108	0,060	-0,101
-551,627	227,375	-0,107	-0,128
-550,612	-41,007	-0,127	0,048
-549,598	-106,809	-0,128	-0,021
-548,583	-200,000	-0,039	0,000
-547,569	-200,000	0,020	0,090
-546,554	43,954	0,071	-0,048
-545,539	-200,000	0,021	0,128
-544,525	-12,015	0,050	0,024
-543,510	-0,910	-0,111	-0,058
-542,496	-59,872	0,095	0,030
-541,481	800,000	0,011	-0,025
-540,466	-50,947	0,138	-0,048
-539,452	-48,705	0,046	0,016
-538,437	507,115	-0,047	0,081
-537,423	-83,832	-0,112	0,026
-536,408	96,460	0,030	-0,026
-535,393	59,176	-0,084	-0,061
-534,379	339,785	-0,131	-0,189
-533,364	-200,000	-0,004	0,113
-532,350	-38,726	-0,150	0,058
-531,335	-44,116	0,100	-0,037
-530,321	-200,000	-0,012	0,055
-529,306	43,232	0,125	0,084
-528,291	-79,813	-0,007	0,002
-527,277	-55,914	0,019	-0,006
-526,262	388,169	-0,044	0,068
-525,248	236,673	0,072	-0,089
-524,233	-200,000	-0,026	0,178
-523,218	106,704	-0,100	0,088
-522,204	11,379	0,148	0,083
-521,189	-79,449	0,061	-0,015
-520,175	64,198	-0,071	-0,052
-519,160	-200,000	-0,019	-0,107
-518,145	800,000	-0,031	0,069
-517,131	143,493	0,048	-0,047
-516,116	28,028	0,126	-0,078
-515,102	42,896	-0,158	0,106
-514,087	22,440	0,031	-0,019
-513,072	800,000	0,035	-0,088
-512,058	-200,000	0,016	-0,054
-511,043	0,966	0,082	-0,043
-510,029	800,000	0,016	-0,035
-509,014	-22,442	-0,030	-0,013
-507,999	-200,000	0,000	0,182
-506,985	800,000	0,013	0,028
-505,970	-133,219	-0,105	-0,010
-504,956	11,482	-0,040	-0,022
-503,941	108,287	-0,050	0,044
-502,926	-200,000	0,010	0,175
-501,912	14,031	0,105	0,060
-500,897	79,839	-0,070	0,056
-499,883	124,802	-0,116	-0,108
-498,868	-32,143	-0,111	0,046
-497,853	311,525	0,041	0,056
-496,839	12,886	0,056	-0,032
-495,824	-67,862	0,049	-0,014
-494,810	-92,183	0,069	0,014
-493,795	123,445	-0,091	-0,084
-492,781	2,984	0,067	-0,036
-491,766	-200,000	0,015	-0,065
-490,751	-102,007	-0,081	-0,014
-489,737	580,248	0,053	0,096
-488,722	3,658	0,141	0,076
-487,708	154,153	0,010	-0,011
-486,693	220,477	-0,030	-0,035
-485,678	84,846	0,130	0,105
-484,664	-200,000	-0,007	-0,091
-483,649	25,845	-0,106	-0,065
-482,635	-200,000	-0,034	0,149
-481,620	-200,000	0,001	0,065
-480,605	308,068	0,020	-0,028
-479,591	81,646	-0,033	-0,027
-478,576	-15,612	0,171	0,080
-477,562	800,000	-0,036	0,081
-476,547	509,001	0,007	0,011
-475,532	-200,000	0,000	0,025
-474,518	-183,977	0,056	0,001
-473,503	348,528	0,082	0,120
-472,489	673,040	-0,061	0,118
-471,474	800,000	0,033	0,107
-470,459	-149,043	-0,088	0,005
-469,445	-58,107	-0,054	0,017
-468,430	352,593	0,115	0,169
-467,416	-31,763	0,031	-0,013
-466,401	107,257	-0,009	0,008
-465,386	-168,875	0,126	-0,003
-464,372	509,322	-0,046	0,079
-463,357	104,201	-0,112	-0,097
-462,343	800,000	0,032	-0,096
-461,328	223,356	-0,117	-0,139
-460,313	-200,000	0,011	-0,043
-459,299	-63,701	0,190	0,057
-458,284	-34,659	-0,056	0,022
-457,270	-200,000	-0,025	0,080
-456,255	120,086	-0,037	-0,034
-455,241	800,000	-0,066	-0,149
-454,226	-66,867	0,063	-0,018
-453,211	318,337	0,050	0,069
-452,197	87,085	0,122	0,099
-451,182	-200,000	0,011	-0,059
-450,168	566,968	-0,078	0,140
-449,153	371,042	0,028	0,041
-448,138	-200,000	-0,012	-0,039
-447,124	8,518	-0,047	-0,026
-446,109	296,140	-0,055	-0,075
-445,095	800,000	0,059	0,146
-444,080	519,444	-0,010	-0,017
-443,065	-59,351	0,035	0,011
-442,051	-90,185	0,103	0,022
-441,036	-50,640	-0,085	0,029
-440,022	31,463	0,037	0,023
-439,007	48,326	-0,050	-0,034
-437,992	-112,542	0,046	0,007
-436,978	25,448	-0,123	-0,075
-435,963	-107,904	-0,015	0,002
-434,949	148,963	0,046	0,046
-433,934	52,689	0,132	0,092
-432,919	800,000	0,044	-0,092
-431,905	-163,358	0,219	-0,008
-430,890	574,385	0,041	0,073
-429,876	490,691	-0,038	0,063
-428,861	-200,000	-0,009	0,263
-427,846	119,887	0,126	0,115
-426,832	-200,000	-0,001	-0,066
-425,817	-200,000	0,014	-0,140
-424,803	-26,404	0,100	0,043
-423,788	52,838	0,011	0,007
-422,773	709,307	-0,031	0,061
-421,759	800,000	0,038	-0,118
-420,744	800,000	0,077	-0,172
-419,730	-200,000	-0,015	0,063
-418,715	550,566	-0,074	0,131
-417,701	356,106	0,090	-0,132
-416,686	-102,472	0,149	-0,026
-415,671	24,747	0,082	-0,050
-414,657	-200,000	0,001	0,035
-413,642	283,014	-0,049	0,065
-412,628	416,249	-0,100	0,158
-411,613	-200,000	-0,018	0,123
-410,598	800,000	0,031	0,098
-409,584	63,452	0,012	-0,009
-408,569	800,000	0,049	0,140
-407,555	-69,479	0,037	-0,010
-406,540	-25,513	0,086	0,037
-405,525	800,000	-0,019	0,060
-404,511	-6,078	-0,102	-0,051
-403,496	75,139	-0,025	-0,019
-402,482	370,486	0,106	-0,158
-401,467	192,420	0,064	-0,071
-400,452	61,217	-0,156	-0,114
-399,438	11,735	-0,027	-0,015
-398,423	-54,803	-0,027	-0,009
-397,409	-200,000	-0,004	0,168
-396,394	-109,961	-0,068	0,010
-395,379	-90,430	-0,039	0,008
-394,365	239,455	-0,018	-0,022
-393,350	-200,000	-0,009	0,072
-392,336	800,000	0,075	0,162
-391,321	438,491	-0,020	-0,032
-390,306	-200,000	0,027	0,154
-389,292	332,586	0,111	0,158
-388,277	-200,000	0,014	-0,065
-387,263	-200,000	-0,012	0,087
-386,248	-200,000	-0,018	0,127
-385,233	87,243	0,016	0,013
-384,219	50,653	-0,154	-0,107
-383,204	-200,000	-0,035	0,143
-382,190	800,000	-0,022	-0,058
-381,175	-137,688	-0,127	0,010
-380,160	-10,886	0,069	0,033
-379,146	498,529	0,047	0,080
-378,131	-200,000	0,024	0,151
-377,117	-80,080	-0,078	-0,019
-376,102	101,693	-0,072	-0,061
-375,088	232,826	0,046	0,055
-374,073	800,000	-0,037	-0,105
-373,058	800,000	0,029	-0,072
-372,044	-28,981	0,127	-0,053
-371,029	-37,234	0,060	-0,024
-370,015	27,495	0,096	0,059
-369,000	383,742	-0,041	0,063
-367,985	478,222	-0,054	-0,090
-366,971	210,565	-0,156	-0,181
-365,956	-154,309	0,108	0,005
-364,942	-116,885	0,081	-0,011
-363,927	-73,746	-0,082	0,022
-362,912	-200,000	-0,010	0,060
-361,898	333,427	0,052	-0,074
-360,883	-33,304	0,086	0,035
-359,869	-200,000	-0,007	-0,023
-358,854	-200,000	-0,022	-0,123
-357,839	87,835	0,052	-0,042
-356,825	67,675	0,044	0,033
-355,810	800,000	0,020	-0,058
-354,796	142,599	0,042	0,041
-353,781	74,605	-0,078	-0,060
-352,766	388,262	-0,031	0,047
-351,752	800,000	-0,030	-0,064
-350,737	457,903	0,045	0,074
-349,723	59,831	0,029	-0,021
-348,708	-137,453	0,185	0,015
-347,693	325,476	-0,035	-0,049
-346,679	800,000	0,016	0,049
-345,664	-65,157	-0,098	-0,029
-344,650	-200,000	-0,059	0,000
-343,635	800,000	-0,010	-0,023
-342,620	677,040	-0,027	-0,052
-341,606	800,000	-0,033	-0,094
-340,591	-200,000	0,009	0,045
-339,577	-200,000	0,013	-0,154
-338,562	45,836	-0,076	-0,051
-337,548	800,000	-0,034	-0,076
-336,533	-98,628	0,106	0,020
-335,518	-200,000	0,014	-0,108
-334,504	-118,393	0,079	-0,010
-333,489	295,166	0,024	-0,032
-332,475	-200,000	-0,033	-0,144
-331,460	218,202	-0,020	-0,023
-330,445	95,611	0,063	-0,053
-329,431	-108,637	0,094	0,015
-328,416	207,924	0,097	0,111
-327,402	368,062	0,047	0,070
-326,387	-66,899	0,067	-0,019
-325,372	-200,000	0,001	0,082
-324,358	-200,000	0,006	0,027
-323,343	231,144	0,048	0,058
-322,329	800,000	0,048	0,130
-321,314	-200,000	-0,009	0,034
-320,299	-200,000	-0,011	0,131
-319,285	173,766	0,088	0,093
-318,270	-12,164	0,019	-0,009
-317,256	-79,043	-0,091	-0,022
-316,241	-200,000	-0,006	-0,066
-315,226	800,000	0,077	0,190
-314,212	-58,112	0,106	0,034
-313,197	-60,823	0,065	0,020
-312,183	334,929	0,040	0,056
-311,168	-76,429	-0,055	0,014
-310,153	-104,159	-0,116	-0,020
-309,139	44,278	-0,114	0,076
-308,124	-108,139	0,036	0,006
-307,110	-200,000	-0,001	0,054
-306,095	-200,000	0,034	0,118
-305,080	-200,000	-0,028	0,113
-304,066	147,603	-0,111	-0,109
-303,051	384,614	-0,059	-0,089
-302,037	-183,775	-0,069	-0,001
-301,022	-200,000	-0,012	-0,069
-300,008	-108,291	0,091	-0,014
-298,993	34,238	0,103	0,065
-297,978	-200,000	0,014	-0,159
-296,964	91,610	-0,104	0,086
-295,949	-200,000	0,022	-0,145
-294,935	424,425	-0,052	-0,082
-293,920	-96,294	-0,031	0,006
-292,905	800,000	0,038	-0,119
-291,891	26,004	0,205	0,125
-290,876	437,168	0,039	-0,063
-289,862	332,788	-0,079	0,113
-288,847	-148,958	-0,074	-0,004
-287,832	51,119	0,106	0,073
-286,818	161,169	0,151	0,154
-285,803	161,580	0,041	0,041
-284,789	126,532	-0,063	-0,058
-283,774	98,906	-0,062	0,052
-282,759	800,000	-0,031	0,069
-281,745	-200,000	-0,007	-0,105
-280,730	-200,000	0,009	-0,034
-279,716	-22,338	-0,012	-0,005
-278,701	13,327	0,072	0,041
-277,686	255,902	-0,096	-0,121
-276,672	-170,151	-0,070	0,002
-275,657	-200,000	-0,000	-0,008
-274,643	800,000	0,036	-0,113
-273,628	-200,000	0,011	0,059
-272,613	-123,281	-0,065	0,007
-271,599	169,121	0,099	0,103
-270,584	235,889	0,067	0,081
-269,570	-101,830	-0,166	-0,029
-268,555	-11,079	-0,182	0,088
-267,540	800,000	-0,026	-0,062
-266,526	130,458	-0,102	-0,096
-265,511	31,383	0,090	-0,057
-264,497	120,291	0,070	0,063
-263,482	-170,910	0,109	-0,003
-262,467	-200,000	-0,009	-0,111
-261,453	-109,976	-0,062	0,009
-260,438	800,000	-0,046	0,098
-259,424	800,000	-0,036	-0,075
-258,409	-144,900	0,107	0,007
-257,395	-49,274	0,056	-0,019
-256,380	800,000	-0,020	-0,058
-255,365	66,333	-0,109	0,081
-254,351	-200,000	-0,004	-0,063
-253,336	292,598	0,041	-0,055
-252,322	-178,055	-0,099	-0,002
-251,307	-82,580	-0,087	0,020
-250,292	800,000	-0,026	-0,061
-249,278	19,699	0,082	0,048
-248,263	-132,544	0,077	0,007
-247,249	-165,795	-0,038	-0,001
-246,234	268,662	0,054	-0,070
-245,219	-200,000	-0,024	-0,087
-244,205	-12,436	-0,017	0,008
-243,190	-79,445	-0,191	-0,047
-242,176	340,898	0,072	0,103
-241,161	529,744	0,043	0,074
-240,146	-200,000	-0,021	0,079
-239,132	-200,000	-0,001	0,060
-238,117	503,938	-0,082	-0,140
-237,103	379,953	0,078	-0,117
-236,088	122,220	-0,036	0,032
-235,073	800,000	-0,023	-0,065
-234,059	540,997	-0,019	-0,034
-233,044	-119,176	-0,125	0,016
-232,030	800,000	0,017	-0,035
-231,015	217,441	-0,074	-0,086
-230,000	437,955	0,035	-0,056
-228,986	69,639	0,093	-0,070
-227,971	-164,444	0,134	0,004
-226,957	10,437	0,061	-0,034
-225,942	-200,000	0,006	0,079
-224,927	-66,100	0,120	0,035
-223,913	456,914	0,050	-0,082
-222,898	-35,068	0,089	-0,035
-221,884	-200,000	0,003	0,052
-220,869	-0,033	0,128	-0,066
-219,855	-200,000	-0,012	-0,039
-218,840	21,861	0,056	0,033
-217,825	167,819	0,054	-0,056
-216,811	-60,723	-0,125	0,038
-215,796	-67,786	0,062	0,018
-214,782	-200,000	-0,033	0,111
-213,767	800,000	-0,037	0,100
-212,752	-200,000	-0,042	0,164
-211,738	53,226	0,154	-0,108
-210,723	99,399	-0,132	0,111
-209,709	56,784	-0,043	0,030
-208,694	495,147	0,014	0,023
-207,679	-200,000	0,040	0,194
-206,665	-0,924	-0,086	0,044
-205,650	-200,000	0,022	0,089
-204,636	197,724	0,038	-0,042
-203,621	-200,000	-0,018	-0,097
-202,606	-139,350	-0,100	-0,008
-201,592	-200,000	0,004	-0,147
-200,577	40,058	0,073	-0,048
-199,563	800,000	-0,008	-0,018
-198,548	-200,000	0,030	-0,103
-197,533	800,000	-0,010	-0,030
-196,519	40,699	0,042	0,027
-195,504	-200,000	0,033	-0,168
-194,490	122,062	-0,098	-0,089
-193,475	-56,052	0,038	0,012
-192,460	-200,000	-0,000	-0,146
-191,446	-113,028	-0,015	-0,002
-190,431	-200,000	0,025	-0,085
-189,417	99,241	0,080	-0,067
-188,402	-200,000	0,001	-0,048
-187,387	-200,000	0,001	0,021
-186,373	-60,741	-0,042	0,013
-185,358	110,097	0,030	0,026
-184,344	-200,000	-0,022	0,162
-183,329	94,273	-0,071	-0,059
-182,315	-200,000	0,017	-0,118
-181,300	165,762	-0,021	-0,022
-180,285	-200,000	-0,001	0,027
-179,271	-200,000	-0,004	-0,064
-178,256	197,133	0,053	-0,059
-177,242	-200,000	-0,012	0,145
-176,227	-200,000	-0,015	0,059
-175,212	-200,000	-0,002	0,054
-174,198	43,445	0,084	0,056
-173,183	-40,228	-0,089	-0,034
-172,169	257,238	-0,035	-0,044
-171,154	800,000	-0,037	-0,095
-170,139	129,975	-0,093	-0,087
-169,125	-34,725	-0,114	0,045
-168,110	800,000	-0,022	0,057
-167,096	530,251	0,023	-0,039
-166,081	69,648	0,028	-0,021
-165,066	137,271	-0,061	-0,058
-164,052	12,797	-0,148	-0,083
-163,037	526,442	0,054	0,094
-162,023	-106,108	0,111	-0,018
-161,008	-200,000	-0,035	0,132
-159,993	-138,927	-0,047	-0,004
-158,979	43,411	0,032	0,022
-157,964	151,899	-0,102	-0,101
-156,950	-141,568	0,199	-0,014
-155,935	-200,000	-0,008	-0,046
-154,920	-89,185	0,106	-0,023
-153,906	747,411	-0,032	0,064
-152,891	-200,000	-0,007	0,112
-151,877	-131,112	0,079	0,008
-150,862	607,707	-0,067	0,121
-149,847	29,843	0,062	0,038
-148,833	-200,000	0,005	0,029
-147,818	298,342	0,088	0,118
-146,804	800,000	0,012	0,036
-145,789	296,079	0,083	0,111
-144,775	-200,000	-0,017	0,115
-143,760	238,794	0,049	0,060
-142,745	275,280	-0,119	-0,153
-141,731	-27,197	0,027	-0,011
-140,716	800,000	0,045	0,113
-139,702	-200,000	0,004	0,127
-138,687	5,443	-0,102	0,055
-137,672	800,000	0,059	0,134
-136,658	422,104	-0,041	-0,064
-135,643	107,549	-0,035	-0,030
-134,629	248,657	0,012	0,015
-133,614	-200,000	0,004	0,019
-132,599	-200,000	0,006	0,073
-131,585	-200,000	-0,011	0,169
-130,570	-85,391	-0,081	-0,018
-129,556	736,810	-0,038	0,075
-128,541	305,236	-0,033	-0,045
-127,526	-200,000	0,026	0,124
-126,512	-144,566	-0,088	-0,006
-125,497	521,370	0,042	0,072
-124,483	-200,000	0,014	0,072
-123,468	49,428	0,116	0,079
-122,453	-128,884	-0,089	0,009
-121,439	-26,311	0,114	-0,048
-120,424	800,000	-0,064	-0,186
-119,410	800,000	0,021	-0,044
