DTS Sentinel unit serial number:	SN410029Multiplexer serial number:	ORYXHardware model number:	OX2-SRSoftware version number:	ORYX F/W v4,00 Oryx Data Collector v3.7.2.0data status	okinstallation	B4 Nyhavnadifferential loss correction	single-endedforward channel	channel 2reverse channel	N/Adate	2023/12/19time	01:35:13forward acquisition time	300,00reverse acquisition time	0,00gamma	499,1914k internal	0,3123k external	0,3123temperature offset calibration	1,0000default loss term (dB/km)	0,3820temperature slope calibration	1,0000multiplexer offset coefficient	1,0000multiplexer slope coefficient	1,0000fibre end	0,00T internal ref (°C)	21,57T ext. ref 1 (°C)	6,00T ext. ref 2 (°C)	6,13length (m)	temperature (°C)	Stokes	anti-Stokes-744,400	800,000	0,010	-0,030
-743,385	-24,657	-0,212	0,094
-742,371	-166,616	-0,122	0,004
-741,356	425,011	-0,066	0,106
-740,342	77,188	-0,027	-0,021
-739,327	-128,848	-0,249	0,026
-738,312	407,782	0,051	-0,081
-737,298	47,715	-0,174	0,121
-736,283	-200,000	-0,003	-0,083
-735,269	-19,780	-0,188	0,086
-734,254	-116,701	0,057	-0,008
-733,239	-36,698	-0,461	-0,184
-732,225	-167,609	0,117	-0,003
-731,210	-0,466	0,087	-0,046
-730,196	83,836	0,024	-0,020
-729,181	-195,501	0,067	-0,000
-728,167	208,667	0,020	-0,023
-727,152	-30,443	-0,107	0,045
-726,137	89,738	-0,040	0,033
-725,123	-200,000	-0,001	0,031
-724,108	67,589	-0,137	-0,104
-723,094	800,000	-0,056	-0,178
-722,079	-105,966	-0,087	-0,014
-721,064	-154,456	0,025	-0,001
-720,050	800,000	-0,014	0,031
-719,035	191,134	0,063	-0,070
-718,021	259,661	-0,024	-0,031
-717,006	800,000	0,046	-0,110
-715,991	224,009	-0,104	-0,125
-714,977	269,208	-0,065	-0,085
-713,962	681,804	-0,055	-0,108
-712,948	800,000	0,022	-0,072
-711,933	-200,000	0,007	-0,026
-710,918	265,614	-0,051	0,067
-709,904	-200,000	-0,047	-0,204
-708,889	24,040	0,062	-0,038
-707,875	-86,902	-0,174	-0,039
-706,860	271,194	0,041	0,053
-705,845	300,726	0,013	-0,018
-704,831	245,525	-0,035	0,044
-703,816	-200,000	-0,012	0,051
-702,802	466,989	0,015	-0,024
-701,787	-24,266	-0,075	0,033
-700,772	-112,538	-0,145	0,021
-699,758	263,762	0,024	-0,031
-698,743	180,050	0,064	-0,070
-697,729	268,898	0,097	0,127
-696,714	-43,517	-0,098	-0,037
-695,699	155,550	0,034	-0,034
-694,685	-138,591	-0,077	0,006
-693,670	95,795	-0,134	-0,114
-692,656	-200,000	0,006	-0,073
-691,641	800,000	-0,037	-0,095
-690,627	195,464	-0,069	-0,079
-689,612	-200,000	0,011	-0,085
-688,597	-200,000	-0,003	-0,100
-687,583	436,062	0,038	-0,062
-686,568	-29,173	0,051	-0,022
-685,554	-161,551	-0,117	-0,004
-684,539	2,705	0,077	0,042
-683,524	-11,617	0,057	0,028
-682,510	-66,278	-0,101	-0,030
-681,495	800,000	0,057	0,140
-680,481	-200,000	-0,035	0,137
-679,466	-200,000	-0,034	-0,149
-678,451	800,000	-0,020	0,050
-677,437	-200,000	0,026	-0,103
-676,422	-200,000	0,002	-0,014
-675,408	-200,000	0,020	0,097
-674,393	-153,032	-0,073	0,004
-673,378	139,138	-0,093	0,091
-672,364	800,000	-0,041	-0,126
-671,349	260,183	-0,064	-0,082
-670,335	-93,202	-0,036	0,007
-669,320	167,613	0,056	-0,059
-668,305	-4,096	0,056	0,029
-667,291	-200,000	0,005	0,036
-666,276	471,532	-0,082	-0,137
-665,262	-200,000	-0,015	-0,136
-664,247	-200,000	-0,004	-0,026
-663,232	-114,582	0,114	-0,016
-662,218	-49,427	0,065	-0,023
-661,203	-200,000	-0,018	0,104
-660,189	-148,220	-0,232	0,014
-659,174	240,853	-0,050	0,063
-658,159	51,356	-0,152	0,107
-657,145	251,834	0,068	-0,086
-656,130	96,705	0,029	-0,025
-655,116	-200,000	-0,025	0,147
-654,101	-200,000	0,010	0,101
-653,086	800,000	-0,014	0,044
-652,072	-200,000	0,000	-0,031
-651,057	42,950	-0,081	-0,055
-650,043	-200,000	-0,008	0,039
-649,028	114,657	-0,127	-0,115
-648,014	-8,419	-0,126	-0,063
-646,999	-200,000	-0,004	-0,061
-645,984	800,000	0,043	-0,092
-644,970	11,398	-0,194	-0,110
-643,955	628,444	-0,067	-0,126
-642,941	-25,477	-0,013	-0,006
-641,926	-200,000	0,018	0,077
-640,911	23,839	0,067	0,041
-639,897	-200,000	0,004	0,032
-638,882	-151,188	-0,066	0,004
-637,868	122,970	0,045	-0,042
-636,853	-200,000	-0,004	-0,163
-635,838	41,331	0,091	-0,061
-634,824	800,000	0,024	0,051
-633,809	-60,920	0,085	0,026
-632,795	2,754	0,033	0,018
-631,780	-200,000	-0,025	0,109
-630,765	-193,133	0,026	-0,000
-629,751	-200,000	-0,034	-0,147
-628,736	-1,742	-0,132	-0,069
-627,722	304,004	0,026	-0,036
-626,707	-200,000	-0,163	-0,000
-625,692	-77,316	-0,062	-0,016
-624,678	800,000	0,071	0,152
-623,663	61,441	-0,096	-0,071
-622,649	-28,304	-0,087	-0,037
-621,634	800,000	-0,046	0,120
-620,619	-2,018	0,031	-0,016
-619,605	-172,531	-0,058	-0,001
-618,590	211,368	-0,049	-0,057
-617,576	-200,000	-0,022	0,147
-616,561	51,788	0,052	-0,037
-615,546	-11,812	-0,068	0,033
-614,532	221,711	-0,052	-0,063
-613,517	285,162	-0,076	0,102
-612,503	599,547	-0,058	0,107
-611,488	75,042	0,070	0,055
-610,474	-200,000	-0,010	0,071
-609,459	-200,000	0,002	-0,032
-608,444	69,345	0,082	-0,063
-607,430	184,185	0,081	-0,090
-606,415	299,786	-0,054	-0,074
-605,401	55,323	-0,200	-0,143
-604,386	-200,000	-0,006	-0,054
-603,371	-175,696	-0,018	-0,000
-602,357	76,227	0,040	-0,031
-601,342	-19,026	0,071	-0,033
-600,328	-10,603	0,066	-0,032
-599,313	-200,000	0,001	0,029
-598,298	-2,413	-0,118	-0,061
-597,284	103,406	0,098	-0,085
-596,269	151,286	-0,070	0,071
-595,255	-90,281	-0,135	0,029
-594,240	286,299	-0,051	-0,069
-593,225	235,287	-0,082	-0,101
-592,211	671,760	-0,034	-0,065
-591,196	72,558	-0,070	-0,054
-590,182	-22,794	-0,127	0,057
-589,167	400,703	0,025	-0,039
-588,152	-127,885	0,014	0,001
-587,138	237,225	-0,099	-0,121
-586,123	-10,811	-0,032	-0,016
-585,109	800,000	0,023	0,065
-584,094	340,822	0,086	-0,125
-583,079	-102,355	0,023	0,004
-582,065	-200,000	-0,001	0,039
-581,050	83,118	-0,070	-0,056
-580,036	22,833	-0,087	0,053
-579,021	-50,025	-0,163	-0,057
-578,006	577,431	-0,066	-0,120
-576,992	79,262	-0,048	-0,038
-575,977	-200,000	-0,007	0,122
-574,963	5,027	0,048	0,026
-573,948	24,327	0,115	-0,070
-572,934	-96,241	-0,174	0,034
-571,919	-102,400	0,087	-0,015
-570,904	-200,000	0,024	-0,168
-569,890	-200,000	-0,009	-0,055
-568,875	122,755	0,060	0,056
-567,861	379,552	0,076	0,115
-566,846	139,406	0,136	0,133
-565,831	484,203	0,063	-0,107
-564,817	-129,334	-0,099	0,010
-563,802	800,000	-0,032	-0,093
-562,788	-73,525	0,113	-0,030
-561,773	-200,000	0,012	-0,049
-560,758	202,184	0,039	0,045
-559,744	-200,000	-0,049	-0,000
-558,729	448,464	-0,082	-0,135
-557,715	-38,061	-0,039	0,015
-556,700	-200,000	-0,028	-0,147
-555,685	-34,009	-0,082	0,033
-554,671	-200,000	-0,012	-0,041
-553,656	800,000	0,034	0,095
-552,642	210,240	0,040	0,047
-551,627	32,212	-0,182	0,116
-550,612	657,450	-0,014	-0,026
-549,598	24,573	0,026	-0,016
-548,583	-102,153	-0,082	0,014
-547,569	276,269	0,034	-0,045
-546,554	671,059	0,042	0,082
-545,539	-200,000	-0,110	-0,000
-544,525	-61,178	-0,107	-0,033
-543,510	-200,000	0,007	0,134
-542,496	-148,473	-0,040	-0,002
-541,481	800,000	0,040	0,105
-540,466	133,171	0,068	0,065
-539,452	-200,000	0,009	-0,041
-538,437	-200,000	0,002	0,057
-537,423	-200,000	0,001	0,016
-536,408	-107,231	-0,105	0,017
-535,393	800,000	-0,055	-0,113
-534,379	-17,360	-0,033	0,015
-533,364	800,000	-0,089	-0,184
-532,350	-200,000	0,009	-0,063
-531,335	-200,000	0,009	-0,080
-530,321	-93,251	0,177	-0,036
-529,306	-33,669	-0,195	0,079
-528,291	800,000	-0,032	-0,070
-527,277	476,692	0,046	-0,077
-526,262	234,483	0,048	0,059
-525,248	-200,000	-0,021	-0,088
-524,233	-167,830	-0,043	-0,001
-523,218	190,171	-0,017	0,019
-522,204	-145,292	0,040	-0,003
-521,189	123,608	-0,077	0,071
-520,175	280,004	-0,042	-0,055
-519,160	11,589	-0,082	-0,046
-518,145	15,090	0,047	-0,027
-517,131	-74,776	0,114	-0,030
-516,116	240,525	0,059	0,073
-515,102	-200,000	-0,002	-0,019
-514,087	800,000	0,055	-0,113
-513,072	800,000	-0,021	-0,044
-512,058	-200,000	0,032	-0,146
-511,043	800,000	-0,011	-0,028
-510,029	408,418	0,055	0,086
-509,014	-200,000	0,027	-0,101
-507,999	-175,837	-0,021	0,000
-506,985	63,682	0,077	0,057
-505,970	535,139	-0,040	-0,070
-504,956	-9,069	-0,087	-0,043
-503,941	-200,000	-0,018	-0,074
-502,926	-34,923	0,137	0,055
-501,912	800,000	0,020	0,051
-500,897	-47,476	-0,097	-0,034
-499,883	-136,033	-0,058	-0,005
-498,868	-181,945	-0,106	0,001
-497,853	-57,397	-0,106	0,034
-496,839	337,966	-0,096	0,138
-495,824	-200,000	-0,028	-0,094
-494,810	-108,750	-0,086	0,013
-493,795	800,000	0,033	0,092
-492,781	-23,332	-0,043	0,019
-491,766	-200,000	-0,117	0,000
-490,751	-43,046	0,038	-0,014
-489,737	-200,000	0,003	0,061
-488,722	-200,000	0,007	0,134
-487,708	-121,921	-0,065	0,008
-486,693	16,993	-0,102	0,060
-485,678	89,087	-0,066	-0,054
-484,664	-63,132	-0,133	0,040
-483,649	-46,508	-0,125	-0,045
-482,635	41,041	0,165	0,110
-481,620	212,182	-0,034	0,039
-480,605	28,312	-0,022	-0,014
-479,591	800,000	-0,024	0,072
-478,576	215,995	-0,099	-0,117
-477,562	-77,622	-0,075	-0,019
-476,547	-53,744	0,093	0,031
-475,532	437,268	0,064	0,104
-474,518	42,289	0,093	-0,062
-473,503	-69,783	0,119	-0,033
-472,489	800,000	-0,034	0,074
-471,474	-10,796	-0,185	0,090
-470,459	800,000	0,031	-0,075
-469,445	800,000	0,042	0,086
-468,430	-200,000	-0,002	0,034
-467,416	-63,558	0,057	-0,017
-466,401	242,001	-0,048	0,059
-465,386	-200,000	-0,025	0,125
-464,372	-31,512	0,119	0,049
-463,357	800,000	0,060	-0,152
-462,343	-200,000	0,001	0,020
-461,328	-200,000	-0,021	-0,142
-460,313	800,000	-0,013	0,037
-459,299	344,259	-0,022	-0,032
-458,284	94,584	0,014	0,012
-457,270	720,067	-0,014	0,028
-456,255	347,774	-0,035	-0,050
-455,241	-60,774	0,065	-0,020
-454,226	236,674	-0,121	-0,149
-453,211	-125,451	0,095	0,011
-452,197	800,000	0,031	0,081
-451,182	-68,004	0,094	0,027
-450,168	-200,000	0,008	0,073
-449,153	40,157	-0,133	-0,088
-448,138	12,851	-0,027	0,016
-447,124	800,000	0,036	0,103
-446,109	800,000	0,020	0,044
-445,095	-200,000	0,017	-0,126
-444,080	-178,660	0,108	-0,002
-443,065	-95,311	-0,114	-0,022
-442,051	-200,000	-0,006	0,025
-441,036	-200,000	-0,025	-0,159
-440,022	-102,893	0,118	-0,020
-439,007	232,084	-0,008	-0,010
-437,992	422,674	0,109	0,173
-436,978	-141,402	0,115	-0,008
-435,963	18,658	-0,035	0,020
-434,949	242,409	0,036	0,044
-433,934	-200,000	0,020	-0,111
-432,919	367,339	-0,043	0,064
-431,905	-200,000	-0,007	0,046
-430,890	226,840	0,086	0,103
-429,876	-26,535	0,137	0,059
-428,861	740,817	0,054	0,107
-427,846	-200,000	0,003	0,051
-426,832	18,727	-0,135	-0,080
-425,817	535,283	0,027	0,047
-424,803	108,401	-0,091	0,080
-423,788	111,042	0,046	0,041
-422,773	422,564	0,045	0,071
-421,759	-113,831	0,047	-0,007
-420,744	-200,000	-0,005	-0,153
-419,730	-200,000	-0,010	-0,118
-418,715	35,941	-0,019	-0,012
-417,701	-109,067	-0,172	-0,027
-416,686	8,171	-0,071	0,039
-415,671	-15,049	-0,050	-0,024
-414,657	-157,510	0,136	0,006
-413,642	-91,954	-0,035	0,007
-412,628	-13,404	0,097	0,046
-411,613	800,000	0,045	-0,111
-410,598	159,505	-0,048	-0,049
-409,584	388,258	-0,020	0,030
-408,569	682,768	-0,070	-0,135
-407,555	-48,081	0,060	0,021
-406,540	-200,000	0,009	0,030
-405,525	-47,539	0,053	0,019
-404,511	4,530	-0,064	-0,034
-403,496	800,000	0,048	-0,116
-402,482	800,000	0,034	0,073
-401,467	143,112	-0,076	0,074
-400,452	-200,000	-0,007	0,036
-399,438	-200,000	0,033	0,133
-398,423	286,333	-0,019	0,026
-397,409	15,332	0,059	-0,034
-396,394	93,084	-0,151	-0,125
-395,379	261,872	0,024	-0,030
-394,365	-26,446	0,076	0,033
-393,350	73,545	-0,014	-0,011
-392,336	-15,777	0,046	0,021
-391,321	-17,879	-0,102	-0,047
-390,306	-200,000	-0,023	-0,091
-389,292	487,321	0,085	-0,144
-388,277	800,000	-0,080	-0,216
-387,263	-57,410	0,165	-0,053
-386,248	598,509	-0,021	0,039
-385,233	-200,000	0,014	-0,047
-384,219	-200,000	0,001	-0,034
-383,204	269,714	-0,055	-0,071
-382,190	302,582	-0,039	0,053
-381,175	-79,056	-0,077	-0,019
-380,160	-4,437	0,101	0,051
-379,146	600,272	0,042	0,076
-378,131	55,383	0,136	-0,097
-377,117	260,293	-0,072	-0,092
-376,102	74,603	-0,151	-0,117
-375,088	-7,243	-0,092	-0,046
-374,073	-34,275	0,086	-0,035
-373,058	88,081	0,094	-0,076
-372,044	235,077	0,078	-0,094
-371,029	34,508	0,050	0,032
-370,015	-200,000	-0,029	0,160
-369,000	-200,000	0,054	0,193
-367,985	-200,000	0,020	-0,073
-366,971	-107,407	0,076	0,012
-365,956	-21,524	0,052	0,023
-364,942	69,445	0,095	0,072
-363,927	16,030	-0,092	-0,053
-362,912	-94,561	0,086	0,017
-361,898	800,000	-0,029	-0,073
-360,883	-64,929	-0,154	0,045
-359,869	-82,759	0,040	-0,009
-358,854	-88,887	0,166	-0,036
-357,839	33,518	-0,118	0,075
-356,825	-96,430	0,046	0,009
-355,810	-200,000	-0,036	0,160
-354,796	248,819	-0,068	0,084
-353,781	-200,000	-0,003	0,013
-352,766	-32,389	0,106	-0,043
-351,752	428,238	-0,032	0,051
-350,737	-200,000	0,015	-0,067
-349,723	32,644	0,122	0,078
-348,708	184,001	0,038	0,041
-347,693	-131,995	-0,118	0,011
-346,679	-200,000	-0,005	0,123
-345,664	126,438	0,094	0,088
-344,650	70,908	-0,043	0,032
-343,635	-200,000	0,007	-0,071
-342,620	-2,238	0,123	0,063
-341,606	800,000	-0,020	0,062
-340,591	186,285	-0,020	-0,022
-339,577	190,320	-0,063	-0,069
-338,562	-91,494	0,059	0,012
-337,548	-133,191	-0,053	0,005
-336,533	-69,667	0,096	0,027
-335,518	542,148	0,039	0,069
-334,504	-200,000	-0,022	-0,075
-333,489	236,002	0,027	0,033
-332,475	21,184	-0,086	0,051
-331,460	177,731	0,047	-0,050
-330,445	274,102	-0,034	0,044
-329,431	50,854	0,073	0,051
-328,416	-120,322	0,157	-0,019
-327,402	-55,237	0,086	0,028
-326,387	800,000	0,023	-0,071
-325,372	-42,140	-0,103	-0,038
-324,358	-27,658	0,103	0,043
-323,343	-63,445	0,040	0,012
-322,329	-200,000	-0,034	0,173
-321,314	-200,000	0,027	0,128
-320,299	-200,000	-0,007	0,217
-319,285	325,520	-0,027	0,038
-318,270	719,243	0,040	-0,078
-317,256	-94,167	0,067	0,013
-316,241	-200,000	-0,026	-0,099
-315,226	83,359	0,093	-0,074
-314,212	-88,790	-0,129	-0,028
-313,197	631,002	0,071	0,133
-312,183	-135,609	-0,098	-0,008
-311,168	93,065	0,114	0,094
-310,153	-71,648	0,107	0,029
-309,139	283,003	-0,017	-0,022
-308,124	-56,206	0,056	0,018
-307,110	-200,000	0,006	0,123
-306,095	800,000	-0,048	0,113
-305,080	146,776	0,036	0,036
-304,066	800,000	-0,047	-0,097
-303,051	150,344	-0,071	-0,071
-302,037	-67,593	0,138	-0,039
-301,022	800,000	0,023	0,060
-300,008	-59,621	0,124	0,039
-298,993	781,738	-0,018	-0,036
-297,978	173,922	0,088	-0,093
-296,964	800,000	0,027	0,067
-295,949	243,800	0,027	0,033
-294,935	-137,603	0,140	-0,011
-293,920	208,026	0,072	-0,083
-292,905	147,612	-0,040	0,040
-291,891	-106,649	-0,143	0,023
-290,876	26,576	0,037	-0,023
-289,862	-200,000	0,011	-0,054
-288,847	800,000	-0,026	-0,060
-287,832	86,584	0,021	-0,017
-286,818	-74,176	0,105	-0,028
-285,803	-200,000	0,006	-0,069
-284,789	-200,000	-0,002	0,018
-283,774	-70,522	0,135	0,037
-282,759	800,000	-0,030	-0,085
-281,745	800,000	0,006	-0,017
-280,730	-114,172	-0,074	-0,010
-279,716	-17,295	0,192	-0,088
-278,701	800,000	0,043	0,091
-277,686	-200,000	0,009	0,191
-276,672	-200,000	0,000	0,026
-275,657	22,590	-0,084	0,050
-274,643	-96,849	0,074	-0,014
-273,628	-144,639	0,040	-0,003
-272,613	494,491	0,057	-0,096
-271,599	-200,000	0,033	-0,163
-270,584	-182,560	-0,088	0,001
-269,570	-177,283	0,052	-0,001
-268,555	201,821	0,105	-0,118
-267,540	-200,000	0,029	-0,104
-266,526	-200,000	-0,009	-0,108
-265,511	26,206	-0,072	-0,044
-264,497	-200,000	0,028	0,102
-263,482	800,000	-0,021	0,048
-262,467	-60,420	-0,014	-0,004
-261,453	356,734	0,026	0,038
-260,438	-81,721	-0,129	-0,031
-259,424	129,963	-0,096	-0,090
-258,409	750,736	-0,052	0,104
-257,395	-112,588	0,050	-0,007
-256,380	-153,873	0,161	-0,008
-255,365	-70,976	0,059	0,016
-254,351	-137,423	-0,162	0,013
-253,336	-10,043	0,064	0,031
-252,322	-200,000	0,009	0,046
-251,307	74,434	-0,208	-0,160
-250,292	-4,559	-0,033	0,016
-249,278	-124,694	0,087	-0,010
-248,263	-200,000	0,037	0,136
-247,249	-200,000	-0,013	0,137
-246,234	-200,000	-0,006	-0,078
-245,219	60,469	0,123	-0,089
-244,205	-146,417	-0,133	0,008
-243,190	-102,354	0,056	-0,010
-242,176	165,158	0,033	0,034
-241,161	17,957	0,074	-0,043
-240,146	303,492	0,070	-0,095
-239,132	-125,304	-0,118	0,013
-238,117	8,771	-0,139	-0,077
-237,103	-49,216	-0,029	-0,010
-236,088	267,012	0,099	0,127
-235,073	479,445	0,087	0,144
-234,059	7,488	0,067	0,037
-233,044	-91,213	0,016	0,003
-232,030	108,918	0,049	0,042
-231,015	-200,000	-0,007	-0,081
-230,000	800,000	-0,031	-0,084
-228,986	-60,957	-0,054	0,017
-227,971	-200,000	0,009	0,067
-226,957	-200,000	0,020	0,077
-225,942	184,057	0,080	0,087
-224,927	-123,991	0,066	0,007
-223,913	-200,000	-0,008	-0,106
-222,898	104,148	-0,047	0,041
-221,884	31,795	0,093	0,058
-220,869	-200,000	-0,001	-0,035
-219,855	-59,580	0,019	-0,006
-218,840	-153,582	0,134	-0,007
-217,825	-200,000	-0,004	0,092
-216,811	-200,000	-0,016	0,157
-215,796	173,379	-0,082	0,087
-214,782	81,732	0,096	0,076
-213,767	-200,000	0,005	0,078
-212,752	-115,765	0,107	0,015
-211,738	48,913	0,098	0,067
-210,723	-200,000	-0,011	0,107
-209,709	-200,000	0,014	-0,084
-208,694	-98,391	-0,200	-0,037
-207,679	-25,135	0,090	0,039
-206,665	800,000	-0,027	-0,070
-205,650	-117,738	0,079	0,010
-204,636	505,139	-0,089	0,151
-203,621	-34,537	0,065	0,026
-202,606	-47,782	-0,091	-0,032
-201,592	-10,063	-0,092	-0,045
-200,577	-52,163	0,122	-0,041
-199,563	49,320	-0,086	0,059
-198,548	-63,740	-0,056	-0,017
-197,533	208,254	-0,026	-0,029
-196,519	337,753	-0,088	-0,125
-195,504	-74,710	0,032	0,008
-194,490	-66,608	-0,108	-0,031
-193,475	-72,900	-0,101	-0,027
-192,460	800,000	-0,031	-0,065
-191,446	-122,423	0,149	-0,018
-190,431	-79,826	0,033	0,008
-189,417	-124,672	-0,144	-0,016
-188,402	50,840	0,019	0,013
-187,387	516,806	-0,026	0,044
-186,373	367,261	0,035	0,052
-185,358	-200,000	0,049	0,165
-184,344	110,247	0,065	0,057
-183,329	631,451	0,069	0,128
-182,315	198,165	0,034	0,038
-181,300	-15,186	-0,014	-0,006
-180,285	-200,000	-0,066	-0,000
-179,271	-200,000	0,032	-0,187
-178,256	-200,000	0,001	0,148
-177,242	800,000	0,031	0,065
-176,227	-116,206	-0,099	0,013
-175,212	378,847	0,093	0,140
-174,198	-88,771	0,092	0,020
-173,183	-172,252	-0,079	0,002
-172,169	-6,760	-0,068	0,034
-171,154	313,772	0,087	-0,120
-170,139	-83,440	-0,125	-0,029
-169,125	183,124	0,098	0,105
-168,110	754,329	0,041	-0,082
-167,096	302,630	-0,060	-0,081
-166,081	251,913	-0,101	-0,126
-165,066	-105,469	-0,067	0,011
-164,052	-4,184	-0,034	-0,017
-163,037	37,839	0,155	0,100
-162,023	-74,492	0,091	0,024
-161,008	-7,970	0,080	0,039
-159,993	191,150	-0,086	-0,095
-158,979	800,000	0,032	-0,079
-157,964	94,870	0,044	0,037
-156,950	-200,000	0,011	-0,096
-155,935	-200,000	-0,022	0,100
-154,920	800,000	-0,007	0,019
-153,906	788,762	0,110	0,220
-152,891	115,398	0,075	0,067
-151,877	-47,689	0,078	-0,027
-150,862	187,486	-0,144	0,157
-149,847	800,000	0,059	0,152
-148,833	286,938	0,021	-0,028
-147,818	629,934	0,028	-0,052
-146,804	133,693	0,071	0,067
-145,789	505,315	-0,054	0,091
-144,775	-6,278	0,045	-0,022
-143,760	-127,697	-0,042	-0,004
-142,745	-151,027	-0,107	0,006
-141,731	710,687	0,052	0,100
-140,716	684,830	0,115	-0,219
-139,702	-200,000	0,034	0,111
-138,687	-200,000	0,039	0,000
-137,672	30,603	-0,071	-0,044
-136,658	-116,759	-0,025	0,003
-135,643	-74,813	0,071	-0,018
-134,629	-106,318	0,049	-0,008
-133,614	-12,345	-0,032	0,015
-132,599	-200,000	-0,007	0,088
-131,585	336,922	-0,062	-0,087
-130,570	-14,075	-0,158	0,074
-129,556	-123,163	-0,105	-0,012
-128,541	800,000	0,016	-0,043
-127,526	-81,022	-0,054	-0,013
-126,512	670,135	0,011	0,020
-125,497	204,568	-0,087	0,099
-124,483	34,312	0,127	0,080
-123,468	-200,000	0,008	0,030
-122,453	-200,000	-0,040	0,184
-121,439	-200,000	0,019	-0,069
-120,424	800,000	-0,017	-0,052
-119,410	44,700	0,120	0,080
