DTS Sentinel unit serial number:	SN410029Multiplexer serial number:	ORYXHardware model number:	OX2-SRSoftware version number:	ORYX F/W v4,00 Oryx Data Collector v3.7.2.0data status	okinstallation	B4 Nyhavnadifferential loss correction	single-endedforward channel	channel 2reverse channel	N/Adate	2023/12/15time	17:25:13forward acquisition time	300,00reverse acquisition time	0,00gamma	499,1914k internal	0,3142k external	0,3142temperature offset calibration	1,0000default loss term (dB/km)	0,3820temperature slope calibration	1,0000multiplexer offset coefficient	1,0000multiplexer slope coefficient	1,0000fibre end	0,00T internal ref (°C)	18,31T ext. ref 1 (°C)	4,08T ext. ref 2 (°C)	4,18length (m)	temperature (°C)	Stokes	anti-Stokes-744,400	241,585	0,058	0,072
-743,385	-173,488	-0,138	-0,003
-742,371	270,712	0,076	0,099
-741,356	-115,581	-0,295	0,041
-740,342	121,413	0,138	0,127
-739,327	-141,740	-0,252	-0,018
-738,312	-200,000	-0,008	-0,061
-737,298	423,920	-0,055	0,088
-736,283	-200,000	-0,005	0,040
-735,269	-65,391	-0,287	0,085
-734,254	300,628	-0,066	-0,090
-733,239	-40,758	-0,452	-0,172
-732,225	-22,280	0,202	0,090
-731,210	607,917	0,022	0,040
-730,196	800,000	-0,043	-0,140
-729,181	53,363	-0,083	-0,059
-728,167	123,100	-0,012	-0,011
-727,152	-147,669	-0,072	-0,004
-726,137	800,000	0,047	0,105
-725,123	-123,326	-0,170	-0,020
-724,108	800,000	-0,048	-0,143
-723,094	142,629	-0,092	-0,090
-722,079	368,819	0,032	-0,048
-721,064	620,967	0,037	-0,069
-720,050	596,235	-0,021	-0,038
-719,035	-200,000	-0,016	0,088
-718,021	-164,321	-0,117	-0,004
-717,006	-68,874	-0,035	0,010
-715,991	800,000	0,033	-0,106
-714,977	19,592	-0,067	-0,040
-713,962	-51,628	-0,069	0,024
-712,948	571,063	-0,041	0,075
-711,933	697,536	-0,025	0,050
-710,918	-38,737	-0,153	0,060
-709,904	-105,521	-0,211	-0,035
-708,889	-106,512	-0,049	0,008
-707,875	-200,000	-0,005	-0,037
-706,860	150,051	-0,041	0,041
-705,845	-200,000	-0,012	-0,120
-704,831	-24,786	0,080	0,035
-703,816	250,491	0,060	0,076
-702,802	156,396	-0,027	-0,028
-701,787	33,837	-0,049	-0,032
-700,772	-200,000	-0,039	-0,151
-699,758	-200,000	-0,003	-0,103
-698,743	577,549	0,040	-0,073
-697,729	87,027	-0,092	0,075
-696,714	76,809	-0,072	0,057
-695,699	-69,086	-0,138	-0,039
-694,685	27,609	0,049	0,030
-693,670	522,364	-0,111	-0,193
-692,656	-200,000	0,027	-0,102
-691,641	89,075	0,146	-0,120
-690,627	85,195	0,040	0,033
-689,612	-85,671	0,060	0,014
-688,597	497,446	0,057	-0,098
-687,583	-144,589	-0,060	-0,004
-686,568	194,762	-0,078	-0,088
-685,554	338,401	-0,036	0,053
-684,539	-122,872	0,092	0,011
-683,524	419,395	-0,085	-0,134
-682,510	122,583	0,067	-0,062
-681,495	20,535	0,116	-0,069
-680,481	-154,921	-0,090	0,004
-679,466	592,828	-0,056	-0,103
-678,451	-13,739	-0,012	0,006
-677,437	681,387	0,068	-0,131
-676,422	1,313	-0,118	-0,063
-675,408	99,795	-0,047	0,040
-674,393	155,796	0,014	0,014
-673,378	90,164	-0,088	-0,072
-672,364	-200,000	-0,033	-0,164
-671,349	577,126	0,068	-0,123
-670,335	-38,138	0,088	-0,034
-669,320	69,454	-0,178	0,135
-668,305	64,496	-0,098	-0,073
-667,291	258,358	-0,071	-0,090
-666,276	169,320	-0,065	-0,069
-665,262	-200,000	0,009	-0,051
-664,247	-162,705	0,061	-0,002
-663,232	82,997	-0,041	-0,033
-662,218	-57,998	-0,034	0,011
-661,203	326,417	-0,139	-0,197
-660,189	-128,912	0,127	0,013
-659,174	-120,855	-0,032	-0,004
-658,159	-69,536	0,109	-0,031
-657,145	-200,000	0,030	-0,133
-656,130	-200,000	-0,025	-0,159
-655,116	26,331	0,067	0,041
-654,101	513,165	0,070	-0,120
-653,086	145,879	0,125	0,124
-652,072	-200,000	-0,002	-0,076
-651,057	800,000	-0,045	-0,146
-650,043	100,919	0,064	-0,055
-649,028	-37,217	0,099	-0,039
-648,014	-200,000	-0,010	0,046
-646,999	-55,696	0,057	-0,019
-645,984	-86,752	-0,045	-0,010
-644,970	-50,191	-0,080	-0,028
-643,955	-200,000	-0,005	-0,032
-642,941	-5,026	-0,103	0,052
-641,926	800,000	-0,042	-0,097
-640,911	800,000	-0,020	-0,059
-639,897	-84,017	0,127	0,029
-638,882	-162,154	-0,068	0,002
-637,868	176,805	0,021	-0,022
-636,853	-9,876	-0,065	-0,032
-635,838	-200,000	0,003	-0,074
-634,824	227,938	0,068	0,082
-633,809	-26,016	-0,065	0,028
-632,795	49,601	0,081	-0,056
-631,780	251,141	0,080	0,101
-630,765	47,181	-0,017	0,011
-629,751	138,475	0,040	-0,039
-628,736	58,973	-0,049	-0,036
-627,722	-149,041	-0,080	0,005
-626,707	800,000	0,031	0,065
-625,692	602,156	-0,060	0,111
-624,678	118,030	-0,046	0,042
-623,663	272,902	0,083	0,108
-622,649	-123,556	-0,115	-0,013
-621,634	91,514	-0,235	-0,195
-620,619	70,168	-0,085	-0,065
-619,605	223,439	0,057	0,068
-618,590	-200,000	-0,000	-0,030
-617,576	-28,446	0,128	0,054
-616,561	800,000	-0,026	0,079
-615,546	28,099	-0,045	-0,028
-614,532	-114,997	-0,149	-0,021
-613,517	654,417	-0,040	-0,076
-612,503	-200,000	-0,016	0,057
-611,488	16,666	0,168	0,098
-610,474	36,700	-0,078	0,051
-609,459	33,029	0,123	0,079
-608,444	-125,843	-0,119	-0,013
-607,430	346,783	0,038	0,055
-606,415	-200,000	0,016	0,070
-605,401	5,339	-0,047	-0,025
-604,386	9,882	-0,192	0,107
-603,371	-66,072	0,054	-0,016
-602,357	287,578	0,079	0,105
-601,342	800,000	0,012	-0,036
-600,328	-200,000	0,001	0,006
-599,313	-78,515	0,091	-0,023
-598,298	-157,358	0,047	-0,002
-597,284	800,000	-0,026	0,056
-596,269	-101,699	-0,064	0,011
-595,255	681,738	0,076	0,146
-594,240	-72,643	-0,138	0,037
-593,225	39,025	-0,066	-0,043
-592,211	-75,108	-0,144	-0,038
-591,196	-200,000	-0,025	0,123
-590,182	350,511	0,085	0,124
-589,167	-141,178	-0,165	0,012
-588,152	-30,451	0,159	-0,066
-587,138	-200,000	-0,010	0,053
-586,123	-200,000	0,020	-0,104
-585,109	192,865	-0,089	-0,100
-584,094	68,850	-0,014	-0,011
-583,079	-200,000	-0,010	0,044
-582,065	-200,000	-0,017	-0,077
-581,050	800,000	0,027	0,068
-580,036	-19,634	-0,045	-0,021
-579,021	-200,000	0,023	-0,121
-578,006	-200,000	-0,010	0,045
-576,992	-200,000	-0,012	-0,095
-575,977	800,000	0,033	0,091
-574,963	-25,044	0,099	0,043
-573,948	15,548	-0,084	-0,049
-572,934	58,664	0,143	-0,103
-571,919	-200,000	0,009	-0,057
-570,904	-125,184	-0,139	-0,015
-569,890	187,747	0,018	-0,020
-568,875	-200,000	-0,036	-0,186
-567,861	-200,000	-0,011	0,049
-566,846	-112,359	0,092	0,013
-565,831	800,000	-0,018	-0,038
-564,817	800,000	-0,038	-0,110
-563,802	239,163	-0,025	-0,030
-562,788	-200,000	0,007	0,159
-561,773	73,728	-0,094	-0,072
-560,758	-200,000	0,009	0,042
-559,744	172,666	0,074	0,078
-558,729	72,096	-0,031	-0,024
-557,715	800,000	0,040	-0,122
-556,700	-200,000	-0,014	0,081
-555,685	45,769	-0,079	0,053
-554,671	-37,724	-0,055	0,022
-553,656	-104,151	0,124	-0,021
-552,642	-200,000	0,012	-0,062
-551,627	-54,083	0,103	-0,034
-550,612	-63,997	-0,045	-0,013
-549,598	-27,853	-0,078	-0,033
-548,583	-112,720	-0,073	0,010
-547,569	189,489	0,056	-0,061
-546,554	-200,000	-0,022	0,157
-545,539	397,843	0,070	0,108
-544,525	-200,000	0,027	-0,088
-543,510	594,381	0,056	0,103
-542,496	-59,919	-0,096	0,030
-541,481	194,707	-0,077	-0,086
-540,466	-100,106	-0,059	-0,011
-539,452	-29,065	0,154	0,065
-538,437	-106,691	0,096	-0,016
-537,423	800,000	-0,032	0,085
-536,408	359,136	-0,061	-0,089
-535,393	41,692	-0,062	0,041
-534,379	150,490	-0,145	-0,145
-533,364	800,000	-0,039	0,119
-532,350	-200,000	0,030	0,109
-531,335	-200,000	-0,011	0,048
-530,321	85,127	0,071	-0,058
-529,306	-146,340	0,045	-0,003
-528,291	-200,000	0,015	-0,092
-527,277	-99,457	0,038	0,007
-526,262	-157,560	-0,025	0,001
-525,248	163,613	0,116	0,120
-524,233	-183,092	-0,093	-0,001
-523,218	800,000	-0,042	0,104
-522,204	236,176	0,052	0,064
-521,189	89,898	-0,081	0,067
-520,175	89,724	-0,087	0,071
-519,160	-200,000	0,004	0,046
-518,145	-27,946	0,143	0,060
-517,131	114,150	0,095	-0,085
-516,116	800,000	0,018	-0,055
-515,102	800,000	-0,008	0,017
-514,087	-200,000	0,023	0,120
-513,072	800,000	-0,034	-0,084
-512,058	-200,000	-0,023	0,087
-511,043	15,232	0,049	0,028
-510,029	-200,000	-0,002	0,019
-509,014	149,639	0,021	0,021
-507,999	-200,000	-0,004	0,025
-506,985	24,113	-0,136	-0,082
-505,970	-16,591	-0,043	0,020
-504,956	149,529	-0,024	-0,024
-503,941	138,108	-0,109	-0,105
-502,926	-68,704	0,062	0,017
-501,912	-51,620	0,109	0,037
-500,897	378,188	-0,022	-0,033
-499,883	561,563	-0,078	-0,139
-498,868	37,188	0,052	-0,034
-497,853	703,849	-0,035	-0,067
-496,839	192,372	-0,074	-0,082
-495,824	138,299	-0,034	-0,032
-494,810	800,000	0,017	-0,053
-493,795	-82,846	-0,145	-0,034
-492,781	-73,773	0,143	-0,038
-491,766	-17,688	-0,050	-0,023
-490,751	484,164	-0,027	-0,046
-489,737	-9,818	-0,055	-0,027
-488,722	-33,606	0,073	-0,030
-487,708	329,831	-0,011	-0,015
-486,693	800,000	0,016	-0,036
-485,678	81,895	0,056	-0,045
-484,664	681,814	0,052	-0,099
-483,649	-89,844	-0,121	-0,026
-482,635	-200,000	-0,004	-0,098
-481,620	-61,700	0,059	0,018
-480,605	678,823	0,025	0,049
-479,591	-200,000	-0,025	-0,129
-478,576	800,000	0,021	-0,059
-477,562	-200,000	-0,002	0,148
-476,547	8,766	-0,036	0,020
-475,532	-111,607	0,090	0,013
-474,518	800,000	0,049	0,119
-473,503	-38,923	-0,123	0,047
-472,489	106,168	-0,036	0,031
-471,474	97,682	0,135	-0,114
-470,459	15,092	0,050	-0,029
-469,445	-92,508	-0,021	0,004
-468,430	98,740	-0,015	0,013
-467,416	35,386	-0,048	-0,031
-466,401	800,000	-0,049	0,107
-465,386	800,000	0,090	0,183
-464,372	252,687	-0,056	-0,071
-463,357	156,370	-0,031	-0,031
-462,343	38,215	0,082	0,053
-461,328	75,338	0,038	-0,030
-460,313	800,000	-0,030	0,062
-459,299	800,000	0,017	0,044
-458,284	-200,000	-0,042	0,247
-457,270	133,996	0,025	-0,024
-456,255	-200,000	-0,018	0,068
-455,241	-10,471	-0,045	-0,022
-454,226	-200,000	0,002	-0,129
-453,211	37,143	0,088	0,057
-452,197	-123,900	0,165	-0,019
-451,182	800,000	-0,022	0,064
-450,168	-3,450	0,044	-0,023
-449,153	800,000	0,003	0,006
-448,138	-200,000	-0,047	-0,153
-447,124	-200,000	-0,035	-0,120
-446,109	-200,000	-0,000	0,141
-445,095	-200,000	0,003	0,053
-444,080	108,845	-0,053	-0,046
-443,065	-32,309	-0,030	0,012
-442,051	154,645	-0,030	-0,030
-441,036	-186,355	0,031	-0,000
-440,022	69,093	-0,039	-0,030
-439,007	-22,971	-0,066	-0,029
-437,992	-200,000	0,019	0,070
-436,978	-19,843	0,071	-0,032
-435,963	800,000	-0,044	0,092
-434,949	-67,023	-0,059	0,017
-433,934	85,335	-0,067	0,054
-432,919	-19,108	0,157	0,071
-431,905	-143,539	0,080	0,005
-430,890	143,338	0,080	-0,078
-429,876	736,064	-0,088	0,174
-428,861	242,942	-0,048	0,058
-427,846	227,226	0,105	0,125
-426,832	-200,000	0,018	0,069
-425,817	-85,174	0,057	0,013
-424,803	52,443	-0,051	-0,036
-423,788	51,558	0,045	-0,032
-422,773	119,922	-0,025	-0,023
-421,759	-2,403	-0,045	0,023
-420,744	53,133	0,067	0,047
-419,730	-150,433	0,073	-0,004
-418,715	-200,000	0,015	-0,145
-417,701	52,029	0,055	0,039
-416,686	234,944	0,065	-0,078
-415,671	-128,427	0,030	0,003
-414,657	-200,000	-0,010	0,086
-413,642	176,327	0,137	0,146
-412,628	-1,743	0,114	-0,059
-411,613	626,271	0,028	-0,052
-410,598	-60,715	-0,148	0,046
-409,584	33,077	0,153	-0,097
-408,569	106,202	-0,117	0,102
-407,555	-38,024	-0,050	0,019
-406,540	-200,000	0,029	0,115
-405,525	52,025	-0,042	-0,029
-404,511	-173,551	0,015	-0,000
-403,496	800,000	-0,049	-0,120
-402,482	800,000	0,054	-0,143
-401,467	-122,273	0,035	0,004
-400,452	50,139	-0,029	0,020
-399,438	-130,871	0,093	0,009
-398,423	-129,741	0,075	-0,007
-397,409	-30,861	-0,073	0,030
-396,394	340,946	-0,097	0,140
-395,379	-111,560	-0,154	-0,023
-394,365	2,012	0,117	-0,061
-393,350	-200,000	-0,019	0,069
-392,336	86,479	-0,063	0,051
-391,321	-200,000	-0,004	-0,041
-390,306	-101,793	-0,040	-0,007
-389,292	146,044	-0,037	0,036
-388,277	183,421	0,019	0,021
-387,263	220,306	0,095	0,111
-386,248	8,956	-0,037	0,020
-385,233	-200,000	-0,022	-0,155
-384,219	270,672	-0,044	0,057
-383,204	-135,621	0,047	-0,004
-382,190	-200,000	-0,018	-0,237
-381,175	-200,000	-0,003	0,035
-380,160	-200,000	0,012	0,056
-379,146	-74,150	-0,103	0,027
-378,131	-63,514	0,146	0,043
-377,117	21,482	-0,114	-0,067
-376,102	-148,125	-0,122	0,007
-375,088	42,613	-0,075	0,050
-374,073	-147,085	0,100	-0,006
-373,058	-200,000	0,010	0,036
-372,044	-200,000	0,009	-0,095
-371,029	238,685	0,068	0,082
-370,015	309,958	-0,034	0,047
-369,000	232,130	-0,120	-0,144
-367,985	-200,000	-0,011	-0,067
-366,971	-11,475	-0,121	-0,058
-365,956	224,769	0,086	0,102
-364,942	66,829	-0,017	0,013
-363,927	-200,000	0,004	-0,036
-362,912	-200,000	0,018	0,071
-361,898	-200,000	-0,016	-0,095
-360,883	-91,175	-0,126	0,026
-359,869	-132,239	-0,110	0,010
-358,854	429,545	-0,065	0,104
-357,839	800,000	-0,050	0,156
-356,825	-200,000	0,005	0,200
-355,810	-200,000	-0,030	0,206
-354,796	-83,546	0,101	0,023
-353,781	338,945	-0,040	0,057
-352,766	77,673	-0,190	-0,147
-351,752	1,998	0,111	0,058
-350,737	-80,951	0,035	-0,008
-349,723	-175,562	0,107	0,002
-348,708	800,000	-0,022	0,067
-347,693	114,095	0,066	0,058
-346,679	-200,000	-0,024	-0,140
-345,664	-200,000	-0,039	-0,128
-344,650	-107,956	0,144	0,023
-343,635	-16,579	0,096	0,044
-342,620	147,584	0,055	-0,054
-341,606	800,000	-0,030	0,076
-340,591	-200,000	0,043	0,158
-339,577	166,334	0,055	0,057
-338,562	68,289	-0,107	-0,079
-337,548	800,000	-0,014	0,041
-336,533	7,874	0,074	-0,040
-335,518	10,808	-0,096	0,053
-334,504	-64,056	0,207	0,061
-333,489	-66,762	0,052	-0,015
-332,475	645,783	0,039	-0,073
-331,460	761,535	-0,024	0,047
-330,445	631,385	-0,062	-0,116
-329,431	-140,886	-0,105	0,008
-328,416	-13,476	0,119	-0,056
-327,402	262,583	0,060	-0,076
-326,387	371,759	0,124	-0,183
-325,372	491,465	-0,059	-0,099
-324,358	321,197	-0,028	-0,038
-323,343	68,603	0,045	-0,034
-322,329	-26,854	-0,016	-0,007
-321,314	-200,000	0,017	0,055
-320,299	88,526	0,071	0,058
-319,285	181,377	-0,036	0,039
-318,270	26,417	0,092	0,056
-317,256	795,138	0,018	-0,036
-316,241	-200,000	-0,001	-0,095
-315,226	-193,589	0,141	-0,001
-314,212	-55,032	-0,030	0,010
-313,197	-133,250	-0,030	0,003
-312,183	-45,808	0,039	-0,014
-311,168	-200,000	-0,031	-0,146
-310,153	-200,000	-0,008	-0,124
-309,139	229,310	-0,095	0,114
-308,124	618,001	0,074	-0,137
-307,110	73,264	0,069	-0,053
-306,095	377,704	-0,013	-0,020
-305,080	204,047	-0,038	0,043
-304,066	253,347	0,131	-0,163
-303,051	13,725	0,026	-0,015
-302,037	322,043	-0,046	-0,065
-301,022	-127,488	0,095	0,010
-300,008	-25,941	0,086	0,037
-298,993	-114,666	-0,143	0,020
-297,978	-52,014	0,090	0,030
-296,964	104,444	0,080	0,068
-295,949	-31,425	-0,012	-0,005
-294,935	-200,000	-0,004	-0,067
-293,920	534,894	-0,022	-0,037
-292,905	149,879	0,031	0,030
-291,891	800,000	0,037	0,092
-290,876	91,115	-0,064	0,052
-289,862	-200,000	0,028	-0,114
-288,847	-200,000	0,001	-0,086
-287,832	-100,445	-0,008	0,001
-286,818	-72,340	-0,132	0,035
-285,803	223,829	0,016	-0,019
-284,789	-45,518	0,065	0,023
-283,774	-79,501	0,135	-0,033
-282,759	-200,000	-0,009	-0,036
-281,745	800,000	0,035	-0,072
-280,730	341,842	-0,088	-0,125
-279,716	522,221	0,116	-0,199
-278,701	96,190	-0,049	-0,041
-277,686	-74,893	0,126	-0,033
-276,672	-107,801	0,109	-0,017
-275,657	-76,573	-0,138	0,035
-274,643	-200,000	0,000	0,118
-273,628	800,000	0,059	-0,157
-272,613	117,676	-0,044	0,039
-271,599	-75,704	0,113	0,029
-270,584	123,839	0,037	0,034
-269,570	-200,000	0,024	0,114
-268,555	-122,740	0,085	0,010
-267,540	146,528	-0,060	0,059
-266,526	800,000	-0,017	-0,041
-265,511	800,000	-0,079	-0,226
-264,497	-44,115	-0,139	-0,051
-263,482	-200,000	0,009	0,039
-262,467	771,082	0,061	-0,122
-261,453	-200,000	-0,028	0,114
-260,438	-61,451	0,064	0,019
-259,424	144,258	-0,030	-0,029
-258,409	243,174	0,064	-0,078
-257,395	-31,032	0,030	-0,012
-256,380	-56,476	0,031	-0,010
-255,365	800,000	-0,044	0,132
-254,351	525,681	0,025	-0,043
-253,336	24,745	0,025	-0,015
-252,322	282,839	-0,082	0,108
-251,307	-103,125	-0,043	-0,007
-250,292	309,844	0,034	-0,047
-249,278	19,743	-0,054	0,032
-248,263	583,456	0,076	-0,136
-247,249	-200,000	-0,055	0,212
-246,234	-162,512	-0,055	0,002
-245,219	-200,000	0,059	-0,222
-244,205	336,751	-0,043	-0,061
-243,190	800,000	-0,019	0,042
-242,176	-171,639	-0,083	0,002
-241,161	800,000	0,027	0,066
-240,146	71,669	-0,110	-0,083
-239,132	-200,000	-0,034	-0,206
-238,117	-97,690	0,120	-0,022
-237,103	139,957	-0,035	0,033
-236,088	800,000	-0,020	0,044
-235,073	-200,000	-0,001	0,044
-234,059	-120,898	0,037	-0,004
-233,044	-34,462	0,125	-0,050
-232,030	-3,394	-0,019	-0,009
-231,015	5,387	-0,134	-0,072
-230,000	-200,000	-0,019	-0,089
-228,986	-123,845	0,171	0,019
-227,971	800,000	0,055	0,115
-226,957	345,736	-0,047	-0,067
-225,942	-27,564	0,087	-0,036
-224,927	800,000	0,015	-0,047
-223,913	800,000	0,043	-0,097
-222,898	-200,000	0,007	0,034
-221,884	-200,000	0,004	-0,021
-220,869	531,021	0,031	-0,054
-219,855	147,145	-0,107	0,105
-218,840	-200,000	-0,003	0,015
-217,825	-153,753	-0,033	-0,002
-216,811	202,408	-0,112	-0,126
-215,796	12,451	-0,072	0,040
-214,782	-200,000	0,013	-0,093
-213,767	109,497	0,050	-0,044
-212,752	60,703	0,089	0,064
-211,738	127,209	0,059	0,055
-210,723	-24,860	-0,128	0,055
-209,709	800,000	0,031	-0,075
-208,694	187,963	-0,096	-0,104
-207,679	-126,676	0,051	-0,005
-206,665	208,915	-0,055	0,062
-205,650	199,975	0,047	0,053
-204,636	-200,000	0,001	0,034
-203,621	-12,958	0,055	0,026
-202,606	147,011	0,057	-0,056
-201,592	800,000	0,025	-0,057
-200,577	-74,407	-0,114	-0,030
-199,563	-83,679	-0,072	-0,017
-198,548	-62,347	0,095	0,029
-197,533	-175,754	0,119	-0,002
-196,519	788,063	-0,022	0,045
-195,504	54,896	0,040	-0,028
-194,490	-200,000	-0,002	0,072
-193,475	-200,000	0,008	-0,067
-192,460	278,734	-0,063	0,081
-191,446	-13,991	-0,041	0,019
-190,431	800,000	-0,025	-0,052
-189,417	-200,000	-0,026	0,144
-188,402	427,378	0,064	0,101
-187,387	33,243	-0,091	0,057
-186,373	-200,000	-0,018	-0,069
-185,358	800,000	-0,014	-0,039
-184,344	-80,369	-0,165	-0,040
-183,329	101,918	-0,044	-0,037
-182,315	-10,600	-0,031	0,015
-181,300	-150,984	0,064	0,003
-180,285	56,108	-0,047	0,033
-179,271	99,048	0,013	0,011
-178,256	12,646	0,141	0,079
-177,242	-6,674	-0,060	0,029
-176,227	-70,614	0,036	0,010
-175,212	65,384	0,020	-0,015
-174,198	-64,902	-0,100	0,029
-173,183	-162,965	0,062	-0,002
-172,169	-129,606	-0,084	0,008
-171,154	-200,000	0,002	0,240
-170,139	10,993	0,019	0,010
-169,125	800,000	-0,010	-0,023
-168,110	-200,000	0,018	0,065
-167,096	-200,000	0,001	-0,009
-166,081	-200,000	0,017	0,067
-165,066	-200,000	0,012	-0,079
-164,052	-13,096	-0,078	0,037
-163,037	595,923	-0,017	-0,031
-162,023	-200,000	-0,036	0,212
-161,008	-200,000	-0,002	-0,063
-159,993	299,699	-0,088	-0,118
-158,979	-200,000	0,011	-0,075
-157,964	-64,670	-0,010	0,003
-156,950	800,000	-0,044	-0,133
-155,935	-23,535	0,082	0,036
-154,920	-55,307	0,033	0,011
-153,906	32,313	0,079	-0,049
-152,891	-200,000	0,043	0,143
-151,877	-140,089	-0,169	0,013
-150,862	-53,217	-0,106	-0,035
-149,847	448,187	-0,056	-0,089
-148,833	-62,497	-0,051	-0,015
-147,818	-200,000	0,033	-0,132
-146,804	326,096	-0,100	-0,140
-145,789	-110,836	-0,086	0,013
-144,775	-200,000	-0,006	0,086
-143,760	-112,932	-0,092	0,013
-142,745	-37,305	-0,109	0,042
-141,731	394,166	-0,006	-0,010
-140,716	416,985	-0,016	-0,024
-139,702	-70,889	0,084	0,023
-138,687	-126,856	-0,036	-0,004
-137,672	800,000	-0,007	0,023
-136,658	220,910	0,045	0,053
-135,643	-200,000	-0,025	-0,083
-134,629	48,438	0,086	-0,058
-133,614	-200,000	-0,009	0,055
-132,599	162,935	-0,036	0,037
-131,585	398,206	0,025	0,037
-130,570	-32,795	0,019	0,008
-129,556	-128,767	-0,126	-0,013
-128,541	-46,598	-0,084	-0,030
-127,526	-200,000	0,016	-0,067
-126,512	800,000	-0,053	0,106
-125,497	800,000	-0,034	0,074
-124,483	-10,191	-0,103	0,049
-123,468	31,688	0,040	-0,025
-122,453	-200,000	0,037	0,139
-121,439	-8,153	-0,126	-0,061
-120,424	-136,314	-0,118	0,010
