DTS Sentinel unit serial number:	SN410029Multiplexer serial number:	ORYXHardware model number:	OX2-SRSoftware version number:	ORYX F/W v4,00 Oryx Data Collector v3.7.2.0data status	okinstallation	B4 Nyhavnadifferential loss correction	single-endedforward channel	channel 2reverse channel	N/Adate	2023/12/15time	17:10:13forward acquisition time	300,00reverse acquisition time	0,00gamma	499,1914k internal	0,3143k external	0,3143temperature offset calibration	1,0000default loss term (dB/km)	0,3820temperature slope calibration	1,0000multiplexer offset coefficient	1,0000multiplexer slope coefficient	1,0000fibre end	0,00T internal ref (°C)	18,12T ext. ref 1 (°C)	3,88T ext. ref 2 (°C)	3,97length (m)	temperature (°C)	Stokes	anti-Stokes-744,400	800,000	-0,048	-0,106
-743,385	-8,104	-0,304	0,151
-742,371	48,140	0,110	-0,076
-741,356	282,606	-0,088	0,117
-740,342	-200,000	0,038	0,136
-739,327	-104,273	-0,280	0,048
-738,312	101,135	0,108	-0,093
-737,298	-75,974	-0,412	-0,107
-736,283	-18,356	-0,111	0,051
-735,269	-186,556	-0,300	0,003
-734,254	754,298	0,058	0,117
-733,239	-115,697	-0,505	-0,069
-732,225	0,305	0,081	-0,043
-731,210	217,967	0,081	0,096
-730,196	147,676	-0,069	0,069
-729,181	219,614	-0,046	0,054
-728,167	195,975	-0,024	0,028
-727,152	-91,241	-0,091	0,019
-726,137	562,216	-0,029	-0,053
-725,123	398,582	-0,030	0,046
-724,108	-46,673	-0,080	0,029
-723,094	73,708	-0,028	-0,022
-722,079	383,033	0,040	-0,061
-721,064	800,000	-0,042	0,134
-720,050	-200,000	-0,030	0,180
-719,035	69,904	-0,107	0,082
-718,021	-200,000	0,009	0,048
-717,006	-200,000	0,010	-0,101
-715,991	-3,648	-0,025	0,013
-714,977	-91,008	0,068	-0,014
-713,962	800,000	-0,048	-0,106
-712,948	52,233	0,038	-0,027
-711,933	57,377	0,107	-0,077
-710,918	-134,947	-0,068	-0,006
-709,904	-106,965	-0,063	0,010
-708,889	-155,102	-0,124	-0,006
-707,875	59,119	-0,061	-0,045
-706,860	-39,201	0,076	-0,030
-705,845	48,785	0,022	0,015
-704,831	50,459	0,103	0,072
-703,816	-200,000	0,005	0,038
-702,802	657,127	-0,074	0,141
-701,787	-200,000	-0,010	-0,130
-700,772	-59,969	-0,028	0,009
-699,758	50,583	0,115	0,080
-698,743	3,715	0,039	-0,021
-697,729	378,678	-0,035	0,053
-696,714	-3,967	0,105	0,054
-695,699	-111,340	-0,127	0,019
-694,685	800,000	0,034	-0,100
-693,670	-28,413	-0,167	-0,071
-692,656	800,000	0,047	0,118
-691,641	295,140	0,046	-0,063
-690,627	374,589	0,036	-0,055
-689,612	-50,763	-0,026	-0,009
-688,597	-98,871	0,099	0,019
-687,583	-52,096	-0,106	-0,036
-686,568	-123,722	-0,099	0,011
-685,554	122,818	-0,040	-0,037
-684,539	235,690	-0,023	0,028
-683,524	26,839	0,055	-0,034
-682,510	-179,768	0,122	-0,002
-681,495	15,425	-0,045	0,026
-680,481	-7,822	-0,049	-0,024
-679,466	247,229	0,092	-0,115
-678,451	-11,997	-0,106	-0,051
-677,437	-111,241	0,033	-0,005
-676,422	329,517	-0,025	0,036
-675,408	-143,311	0,036	-0,002
-674,393	119,300	-0,050	-0,046
-673,378	-200,000	-0,020	-0,145
-672,364	-200,000	-0,000	-0,050
-671,349	226,077	-0,125	-0,150
-670,335	68,630	-0,023	0,018
-669,320	-53,084	0,017	0,006
-668,305	-200,000	-0,022	0,093
-667,291	89,078	-0,030	-0,025
-666,276	-200,000	0,008	0,080
-665,262	497,395	0,024	-0,041
-664,247	800,000	-0,045	0,145
-663,232	-170,943	0,171	-0,004
-662,218	-56,278	0,046	0,015
-661,203	800,000	-0,008	0,018
-660,189	-200,000	0,018	0,060
-659,174	-200,000	0,002	-0,046
-658,159	-200,000	0,021	-0,078
-657,145	-58,160	-0,067	0,021
-656,130	81,961	0,107	-0,085
-655,116	-200,000	-0,006	0,053
-654,101	110,954	0,054	-0,048
-653,086	-141,834	-0,160	0,012
-652,072	133,248	-0,055	0,052
-651,057	-200,000	-0,058	-0,216
-650,043	-147,066	-0,207	0,013
-649,028	800,000	-0,036	-0,091
-648,014	-111,091	0,145	-0,022
-646,999	-45,226	-0,070	-0,026
-645,984	-200,000	0,025	-0,089
-644,970	83,002	-0,049	-0,039
-643,955	71,684	-0,013	0,010
-642,941	-200,000	-0,018	-0,066
-641,926	339,128	-0,023	-0,033
-640,911	-200,000	-0,011	-0,111
-639,897	800,000	0,006	0,019
-638,882	599,159	0,010	0,018
-637,868	-173,377	-0,027	-0,001
-636,853	211,970	0,036	-0,042
-635,838	-102,171	0,079	-0,014
-634,824	346,793	-0,044	0,064
-633,809	-106,182	-0,037	0,006
-632,795	340,157	0,029	0,042
-631,780	-200,000	-0,012	-0,078
-630,765	190,381	0,040	-0,044
-629,751	-200,000	-0,009	0,072
-628,736	-200,000	0,005	-0,173
-627,722	34,075	0,051	0,033
-626,707	405,508	0,024	0,038
-625,692	-200,000	0,005	0,065
-624,678	-118,975	-0,178	0,023
-623,663	-200,000	-0,034	0,112
-622,649	89,573	0,011	0,009
-621,634	-10,787	-0,006	-0,003
-620,619	800,000	0,029	-0,085
-619,605	-200,000	-0,007	-0,078
-618,590	28,807	0,035	0,022
-617,576	102,856	-0,010	0,008
-616,561	-200,000	-0,033	-0,130
-615,546	-46,264	-0,074	0,027
-614,532	202,122	-0,019	-0,021
-613,517	205,792	-0,038	-0,044
-612,503	82,787	0,018	-0,014
-611,488	10,343	0,072	-0,041
-610,474	57,829	-0,068	0,049
-609,459	-200,000	0,017	-0,085
-608,444	-200,000	-0,024	0,110
-607,430	461,713	-0,082	-0,136
-606,415	-200,000	-0,025	-0,109
-605,401	-200,000	0,018	-0,086
-604,386	-200,000	-0,015	0,063
-603,371	723,946	0,032	0,062
-602,357	65,665	-0,037	0,028
-601,342	24,985	0,075	-0,046
-600,328	-200,000	0,008	-0,137
-599,313	-128,800	0,123	0,013
-598,298	-200,000	0,008	-0,067
-597,284	115,423	0,113	-0,102
-596,269	177,972	-0,046	0,049
-595,255	-200,000	0,011	0,065
-594,240	-18,540	-0,026	0,012
-593,225	397,038	-0,059	0,091
-592,211	-71,552	-0,034	-0,009
-591,196	-200,000	-0,013	0,068
-590,182	444,275	-0,053	-0,086
-589,167	-200,000	0,012	-0,138
-588,152	-146,264	0,114	-0,007
-587,138	231,800	-0,111	0,134
-586,123	-189,919	-0,214	0,002
-585,109	270,826	0,025	-0,032
-584,094	800,000	0,028	-0,057
-583,079	-135,183	-0,142	0,012
-582,065	210,854	0,027	0,031
-581,050	127,836	0,072	0,068
-580,036	-71,361	0,092	-0,025
-579,021	-87,779	0,127	-0,028
-578,006	76,965	-0,028	0,022
-576,992	-200,000	0,020	0,099
-575,977	-200,000	-0,010	0,075
-574,963	264,174	0,107	0,137
-573,948	-149,211	-0,125	0,007
-572,934	185,530	0,043	-0,047
-571,919	69,722	0,093	0,070
-570,904	-49,735	0,027	0,010
-569,890	383,021	0,057	-0,087
-568,875	-200,000	-0,003	-0,021
-567,861	-5,784	-0,048	0,024
-566,846	-200,000	-0,010	-0,090
-565,831	22,129	0,101	-0,060
-564,817	-175,041	-0,094	-0,002
-563,802	91,661	-0,108	-0,090
-562,788	283,821	-0,068	0,091
-561,773	-200,000	0,005	0,030
-560,758	-25,610	0,143	0,062
-559,744	107,267	-0,030	0,026
-558,729	17,689	-0,071	-0,042
-557,715	-200,000	-0,022	-0,098
-556,700	39,628	-0,100	-0,066
-555,685	-200,000	0,026	-0,092
-554,671	-174,457	0,060	-0,001
-553,656	-200,000	-0,014	0,077
-552,642	188,903	0,064	-0,070
-551,627	800,000	0,027	0,088
-550,612	193,921	-0,027	-0,030
-549,598	-200,000	0,002	-0,040
-548,583	-79,954	-0,024	-0,006
-547,569	-200,000	0,023	0,217
-546,554	111,330	-0,032	0,029
-545,539	311,427	0,067	0,093
-544,525	800,000	-0,049	-0,104
-543,510	6,949	0,058	-0,031
-542,496	13,730	-0,180	-0,102
-541,481	800,000	-0,034	-0,100
-540,466	14,096	0,019	-0,011
-539,452	-200,000	0,026	-0,091
-538,437	25,280	0,147	0,090
-537,423	-85,973	0,083	0,019
-536,408	-111,406	-0,043	0,006
-535,393	618,064	-0,046	-0,086
-534,379	-153,017	0,075	-0,004
-533,364	130,970	0,091	-0,086
-532,350	222,250	-0,043	-0,051
-531,335	631,848	0,020	-0,038
-530,321	98,149	-0,025	0,021
-529,306	800,000	-0,072	-0,149
-528,291	800,000	-0,077	-0,188
-527,277	516,813	-0,029	0,049
-526,262	-12,316	-0,064	0,031
-525,248	426,333	0,063	0,101
-524,233	113,684	0,042	-0,037
-523,218	800,000	-0,042	-0,099
-522,204	-200,000	-0,001	0,130
-521,189	166,094	-0,063	0,066
-520,175	-63,232	0,058	0,018
-519,160	-200,000	-0,002	-0,103
-518,145	251,451	0,032	-0,040
-517,131	800,000	0,058	0,138
-516,116	28,831	0,075	0,047
-515,102	-200,000	0,030	0,115
-514,087	800,000	0,033	-0,084
-513,072	31,370	-0,114	-0,072
-512,058	-200,000	-0,001	-0,054
-511,043	-182,393	-0,098	-0,001
-510,029	3,540	0,081	0,043
-509,014	-200,000	0,019	-0,156
-507,999	-57,704	-0,063	0,020
-506,985	29,321	-0,099	-0,062
-505,970	173,879	0,068	0,072
-504,956	-92,616	-0,107	-0,022
-503,941	-162,118	-0,127	-0,005
-502,926	733,618	0,073	0,144
-501,912	-200,000	-0,003	0,037
-500,897	-200,000	0,019	-0,086
-499,883	-1,537	-0,102	-0,052
-498,868	-142,241	-0,112	-0,008
-497,853	-200,000	-0,009	-0,056
-496,839	441,243	-0,030	-0,048
-495,824	742,267	-0,016	-0,031
-494,810	89,681	-0,093	0,076
-493,795	304,152	0,082	0,111
-492,781	124,106	0,033	-0,030
-491,766	20,348	0,124	0,073
-490,751	-200,000	-0,018	-0,099
-489,737	-66,922	-0,163	0,047
-488,722	800,000	0,036	-0,087
-487,708	-75,141	0,212	-0,055
-486,693	284,151	0,080	0,105
-485,678	-200,000	0,028	0,112
-484,664	91,213	-0,113	0,093
-483,649	5,640	-0,063	0,034
-482,635	511,979	-0,022	0,037
-481,620	110,089	0,057	0,050
-480,605	-200,000	0,007	0,046
-479,591	-107,340	-0,116	-0,019
-478,576	4,128	-0,051	0,027
-477,562	258,910	-0,071	0,090
-476,547	-30,033	0,089	-0,037
-475,532	-155,569	0,113	-0,005
-474,518	-200,000	-0,043	0,209
-473,503	-48,848	0,051	0,018
-472,489	-200,000	-0,023	-0,107
-471,474	132,770	-0,060	0,057
-470,459	-139,961	0,033	-0,002
-469,445	800,000	-0,028	0,089
-468,430	-50,161	0,230	-0,079
-467,416	152,334	0,119	0,119
-466,401	-200,000	0,010	0,060
-465,386	661,051	-0,043	-0,082
-464,372	149,458	-0,107	-0,107
-463,357	674,042	-0,044	-0,084
-462,343	318,111	-0,044	-0,062
-461,328	800,000	0,038	-0,087
-460,313	-130,887	0,090	-0,009
-459,299	135,812	0,061	0,058
-458,284	281,527	0,039	0,051
-457,270	-22,564	-0,115	0,051
-456,255	800,000	0,008	-0,024
-455,241	166,647	0,132	-0,137
-454,226	-159,887	-0,167	0,007
-453,211	226,649	-0,091	0,108
-452,197	-11,510	-0,086	-0,041
-451,182	24,301	0,071	0,043
-450,168	-200,000	-0,004	0,023
-449,153	358,182	-0,054	-0,080
-448,138	475,432	0,049	-0,082
-447,124	604,400	0,027	0,049
-446,109	23,846	0,108	-0,065
-445,095	-137,970	-0,093	-0,008
-444,080	-93,039	0,038	0,008
-443,065	-33,967	0,035	0,014
-442,051	-200,000	-0,035	0,139
-441,036	7,122	-0,092	-0,050
-440,022	-85,745	-0,026	0,006
-439,007	-56,056	-0,150	-0,049
-437,992	-71,478	0,038	0,010
-436,978	-200,000	0,012	-0,044
-435,963	-48,958	0,134	-0,047
-434,949	183,215	-0,106	-0,115
-433,934	695,392	-0,076	0,146
-432,919	55,957	-0,186	0,132
-431,905	-200,000	0,040	-0,156
-430,890	-200,000	0,013	0,099
-429,876	-7,699	-0,075	0,037
-428,861	123,133	-0,160	0,146
-427,846	-32,344	-0,113	0,046
-426,832	95,935	-0,085	0,071
-425,817	-72,155	-0,103	0,028
-424,803	-23,636	0,076	0,033
-423,788	-200,000	0,009	0,133
-422,773	-1,311	0,184	0,095
-421,759	800,000	0,063	-0,153
-420,744	206,229	0,051	-0,058
-419,730	587,980	-0,036	-0,064
-418,715	-200,000	0,032	-0,109
-417,701	-200,000	-0,034	0,142
-416,686	418,202	-0,061	-0,096
-415,671	524,794	0,047	-0,081
-414,657	231,501	0,086	0,103
-413,642	-57,372	0,008	0,002
-412,628	-200,000	0,031	0,162
-411,613	800,000	-0,016	0,036
-410,598	128,633	-0,073	0,068
-409,584	519,294	-0,010	-0,017
-408,569	-62,155	0,024	0,007
-407,555	-200,000	0,000	-0,001
-406,540	-200,000	-0,050	-0,196
-405,525	-200,000	0,020	-0,099
-404,511	117,933	-0,036	0,032
-403,496	-152,122	-0,085	-0,004
-402,482	-200,000	-0,007	-0,032
-401,467	20,417	0,107	0,063
-400,452	217,201	0,074	0,087
-399,438	174,601	0,043	-0,045
-398,423	27,972	-0,243	-0,149
-397,409	-4,879	0,087	-0,044
-396,394	95,171	-0,028	-0,023
-395,379	-73,639	0,044	-0,012
-394,365	-131,792	0,186	-0,018
-393,350	-39,233	0,166	-0,063
-392,336	-200,000	0,017	0,064
-391,321	-200,000	-0,019	0,094
-390,306	155,333	-0,016	-0,016
-389,292	169,077	-0,045	-0,047
-388,277	51,561	-0,051	0,036
-387,263	-200,000	-0,001	0,025
-386,248	-163,731	0,127	0,004
-385,233	-73,558	0,043	0,011
-384,219	72,813	-0,003	-0,002
-383,204	-46,856	-0,131	0,047
-382,190	-72,818	-0,077	-0,021
-381,175	132,779	-0,112	0,105
-380,160	234,428	0,018	0,022
-379,146	-98,464	0,059	0,011
-378,131	-200,000	-0,016	0,165
-377,117	-200,000	0,008	-0,126
-376,102	-112,413	-0,109	-0,016
-375,088	-33,130	0,032	-0,013
-374,073	800,000	0,023	0,068
-373,058	33,546	0,057	0,036
-372,044	232,092	0,049	-0,058
-371,029	-91,986	0,144	0,029
-370,015	-131,268	0,115	-0,011
-369,000	171,339	-0,069	-0,072
-367,985	-200,000	0,012	-0,102
-366,971	-111,992	-0,058	-0,008
-365,956	-200,000	-0,005	-0,040
-364,942	-33,902	0,051	0,020
-363,927	-72,693	0,104	-0,028
-362,912	-31,356	-0,168	-0,069
-361,898	185,468	-0,034	0,037
-360,883	-200,000	0,013	-0,060
-359,869	800,000	-0,013	0,035
-358,854	-76,008	0,177	-0,045
-357,839	800,000	-0,036	0,085
-356,825	367,505	0,088	0,130
-355,810	800,000	-0,082	-0,175
-354,796	-4,574	-0,022	0,011
-353,781	-200,000	0,004	-0,112
-352,766	-78,037	0,081	-0,020
-351,752	-28,655	-0,064	-0,027
-350,737	-44,529	0,176	-0,064
-349,723	-73,186	-0,057	-0,015
-348,708	-200,000	-0,016	0,052
-347,693	104,436	0,067	0,058
-346,679	168,658	0,032	0,033
-345,664	386,353	-0,107	0,161
-344,650	202,170	0,088	0,099
-343,635	-200,000	0,023	-0,117
-342,620	125,864	0,037	-0,034
-341,606	90,074	0,133	0,108
-340,591	223,650	0,019	-0,022
-339,577	114,888	0,056	0,049
-338,562	-94,333	-0,219	0,043
-337,548	198,071	-0,111	-0,123
-336,533	-18,074	-0,098	0,045
-335,518	203,031	0,111	0,125
-334,504	-200,000	-0,008	0,111
-333,489	-200,000	-0,027	0,159
-332,475	480,724	-0,039	-0,064
-331,460	-200,000	0,002	0,024
-330,445	41,913	0,102	0,067
-329,431	-162,347	-0,023	-0,001
-328,416	198,286	-0,081	0,090
-327,402	-157,602	0,097	-0,004
-326,387	199,401	-0,016	-0,018
-325,372	-39,396	-0,054	0,020
-324,358	-200,000	-0,008	-0,027
-323,343	-200,000	0,031	-0,110
-322,329	-124,984	0,069	0,008
-321,314	-179,234	-0,024	0,000
-320,299	80,822	-0,017	0,013
-319,285	-100,955	-0,064	0,011
-318,270	-200,000	0,033	0,153
-317,256	185,678	-0,028	-0,031
-316,241	800,000	0,026	-0,052
-315,226	-168,769	0,130	-0,004
-314,212	-200,000	0,004	-0,032
-313,197	80,643	0,021	0,016
-312,183	63,148	-0,035	-0,025
-311,168	-200,000	-0,023	-0,098
-310,153	-81,973	-0,211	-0,050
-309,139	-106,882	0,052	-0,008
-308,124	37,660	-0,089	-0,058
-307,110	-200,000	0,024	0,089
-306,095	-108,279	-0,046	-0,007
-305,080	-200,000	-0,001	-0,059
-304,066	-200,000	-0,023	-0,107
-303,051	-176,853	-0,033	-0,001
-302,037	800,000	-0,030	0,075
-301,022	429,231	-0,061	0,097
-300,008	-84,867	0,154	0,035
-298,993	313,537	0,048	0,066
-297,978	-200,000	0,003	-0,067
-296,964	38,576	0,124	-0,080
-295,949	-200,000	-0,012	-0,141
-294,935	93,350	-0,071	-0,058
-293,920	800,000	0,044	0,138
-292,905	-16,594	-0,042	-0,019
-291,891	-57,194	0,065	-0,021
-290,876	-180,568	0,033	-0,000
-289,862	0,245	0,123	-0,064
-288,847	279,520	0,070	0,092
-287,832	-28,748	0,083	-0,035
-286,818	-141,832	-0,067	0,005
-285,803	800,000	0,030	-0,061
-284,789	-79,840	-0,146	0,036
-283,774	453,055	0,079	0,127
-282,759	123,602	0,067	0,061
-281,745	168,654	-0,054	-0,056
-280,730	800,000	0,033	-0,087
-279,716	-108,894	0,070	-0,011
-278,701	51,737	0,069	0,048
-277,686	77,542	0,014	0,011
-276,672	112,016	-0,088	0,078
-275,657	-200,000	0,006	-0,063
-274,643	137,978	-0,044	-0,042
-273,628	800,000	-0,043	-0,111
-272,613	800,000	-0,040	0,093
-271,599	369,591	-0,036	0,052
-270,584	-200,000	0,010	-0,090
-269,570	167,240	0,026	0,027
-268,555	-11,245	0,096	0,046
-267,540	221,066	-0,054	-0,063
-266,526	168,856	-0,060	-0,062
-265,511	518,792	-0,072	0,123
-264,497	386,473	0,008	-0,013
-263,482	-110,235	0,110	-0,017
-262,467	-74,830	0,157	0,041
-261,453	-92,224	-0,104	-0,021
-260,438	30,623	-0,037	0,023
-259,424	44,517	0,090	-0,060
-258,409	-200,000	0,021	-0,094
-257,395	169,900	0,121	0,126
-256,380	-200,000	0,016	0,080
-255,365	435,230	0,057	0,090
-254,351	-9,553	0,131	-0,063
-253,336	111,213	-0,043	-0,037
-252,322	523,888	-0,003	-0,004
-251,307	-18,693	-0,057	-0,026
-250,292	-168,792	-0,018	-0,000
-249,278	-13,682	0,134	0,063
-248,263	-27,456	0,181	0,076
-247,249	-200,000	0,003	0,108
-246,234	83,422	-0,067	-0,053
-245,219	560,416	0,020	0,036
-244,205	-21,233	-0,012	0,005
-243,190	363,331	-0,029	0,042
-242,176	47,200	0,041	0,028
-241,161	353,211	0,087	-0,125
-240,146	-139,158	0,086	0,007
-239,132	348,308	0,037	0,053
-238,117	-36,969	-0,083	-0,032
-237,103	-70,306	-0,072	-0,020
-236,088	731,007	-0,026	-0,050
-235,073	800,000	-0,054	0,139
-234,059	800,000	0,116	0,257
-233,044	139,537	-0,136	0,131
-232,030	35,685	-0,118	0,075
-231,015	-76,584	-0,064	-0,016
-230,000	-160,619	-0,061	0,002
-228,986	800,000	0,009	0,020
-227,971	800,000	-0,048	-0,106
-226,957	-118,982	0,118	0,015
-225,942	151,643	-0,116	-0,115
-224,927	-162,433	0,052	0,002
-223,913	-200,000	-0,009	-0,052
-222,898	134,283	-0,052	0,049
-221,884	155,934	-0,074	0,074
-220,869	304,609	0,098	0,133
-219,855	800,000	0,028	-0,059
-218,840	-200,000	-0,012	0,065
-217,825	20,737	-0,060	-0,035
-216,811	-10,300	0,045	0,022
-215,796	-200,000	0,001	-0,008
-214,782	-200,000	-0,002	0,042
-213,767	800,000	-0,034	-0,091
-212,752	-25,037	0,089	0,038
-211,738	-200,000	-0,012	0,051
-210,723	41,948	-0,060	-0,039
-209,709	-56,571	-0,173	-0,055
-208,694	-17,607	0,119	0,054
-207,679	18,255	-0,036	-0,021
-206,665	-96,211	0,157	-0,030
-205,650	-200,000	0,011	0,044
-204,636	-200,000	0,008	0,028
-203,621	139,710	0,066	-0,063
-202,606	800,000	-0,041	0,086
-201,592	-200,000	0,033	-0,115
-200,577	17,934	-0,049	0,028
-199,563	-88,271	0,048	0,010
-198,548	800,000	0,038	-0,088
-197,533	259,049	-0,015	0,019
-196,519	6,756	0,078	0,042
-195,504	-48,763	-0,070	0,024
-194,490	45,286	-0,037	-0,025
-193,475	-200,000	-0,002	-0,066
-192,460	218,172	0,052	-0,060
-191,446	21,360	0,077	0,045
-190,431	-94,479	-0,062	-0,012
-189,417	84,556	-0,057	0,046
-188,402	-37,495	0,087	0,033
-187,387	-118,147	-0,032	-0,004
-186,373	90,138	-0,091	-0,074
-185,358	76,711	0,047	0,036
-184,344	226,323	-0,041	-0,049
-183,329	113,747	0,035	-0,031
-182,315	800,000	-0,029	-0,077
-181,300	36,410	0,122	-0,078
-180,285	-22,292	0,179	-0,078
-179,271	-200,000	-0,000	-0,030
-178,256	45,929	-0,066	0,044
-177,242	-21,466	0,128	0,056
-176,227	-161,010	0,081	0,003
-175,212	800,000	-0,059	-0,157
-174,198	75,194	0,080	0,061
-173,183	92,271	-0,051	0,042
-172,169	516,684	-0,040	-0,067
-171,154	88,128	-0,068	-0,054
-170,139	-200,000	-0,028	0,130
-169,125	-200,000	-0,023	-0,099
-168,110	-30,661	-0,163	0,067
-167,096	188,646	0,106	-0,115
-166,081	-72,978	-0,067	0,018
-165,066	-200,000	-0,009	-0,052
-164,052	-76,975	-0,108	-0,027
-163,037	643,161	-0,087	0,162
-162,023	-200,000	0,010	0,104
-161,008	143,624	0,015	0,015
-159,993	95,278	-0,166	0,137
-158,979	-121,013	0,138	0,017
-157,964	800,000	-0,045	-0,101
-156,950	29,113	-0,121	-0,074
-155,935	-103,355	0,054	0,009
-154,920	135,462	-0,021	-0,019
-153,906	-200,000	0,003	0,139
-152,891	-1,243	0,026	0,013
-151,877	800,000	-0,027	0,078
-150,862	135,412	-0,084	-0,079
-149,847	-200,000	0,001	-0,138
-148,833	245,718	-0,051	-0,063
-147,818	399,800	-0,007	0,010
-146,804	333,280	0,028	0,040
-145,789	-106,906	0,089	-0,014
-144,775	101,248	-0,101	-0,085
-143,760	800,000	-0,095	-0,226
-142,745	800,000	-0,023	0,066
-141,731	-117,886	0,061	0,008
-140,716	-48,786	0,079	0,027
-139,702	-50,139	-0,123	0,042
-138,687	114,400	-0,058	-0,051
-137,672	-87,433	-0,076	0,017
-136,658	800,000	0,030	0,075
-135,643	462,003	-0,028	0,045
-134,629	-129,945	-0,163	0,016
-133,614	-200,000	0,012	0,162
-132,599	62,227	0,058	-0,042
-131,585	246,253	0,080	0,098
-130,570	-9,074	-0,136	-0,065
-129,556	113,901	0,078	0,068
-128,541	-200,000	-0,001	0,040
-127,526	-200,000	-0,015	-0,052
-126,512	28,017	0,042	-0,025
-125,497	445,350	0,067	0,108
-124,483	786,008	0,048	0,096
-123,468	137,549	0,051	-0,048
-122,453	-117,164	0,263	0,034
-121,439	637,970	-0,062	-0,115
-120,424	-26,495	-0,060	-0,025
-119,410	-72,669	0,064	0,017
