DTS Sentinel unit serial number:	SN410029Multiplexer serial number:	ORYXHardware model number:	OX2-SRSoftware version number:	ORYX F/W v4,00 Oryx Data Collector v3.7.2.0data status	okinstallation	B4 Nyhavnadifferential loss correction	single-endedforward channel	channel 2reverse channel	N/Adate	2023/12/16time	00:35:14forward acquisition time	300,00reverse acquisition time	0,00gamma	499,1914k internal	0,3128k external	0,3128temperature offset calibration	1,0000default loss term (dB/km)	0,3820temperature slope calibration	1,0000multiplexer offset coefficient	1,0000multiplexer slope coefficient	1,0000fibre end	0,00T internal ref (°C)	21,99T ext. ref 1 (°C)	6,80T ext. ref 2 (°C)	6,96length (m)	temperature (°C)	Stokes	anti-Stokes-744,400	223,071	0,045	0,054
-743,385	-11,675	-0,283	0,138
-742,371	-148,780	0,059	-0,003
-741,356	-90,695	-0,303	0,065
-740,342	-60,962	0,073	-0,023
-739,327	-88,695	-0,207	0,045
-738,312	26,090	0,008	-0,005
-737,298	-43,120	-0,316	0,118
-736,283	-101,199	0,071	0,013
-735,269	506,691	-0,135	0,234
-734,254	-1,900	0,101	-0,053
-733,239	-134,636	-0,471	-0,042
-732,225	-148,381	0,094	-0,006
-731,210	-107,325	-0,038	-0,006
-730,196	591,377	-0,022	0,040
-729,181	-58,316	-0,192	-0,062
-728,167	-200,000	0,014	-0,109
-727,152	-152,420	0,058	0,003
-726,137	425,764	-0,045	-0,072
-725,123	800,000	0,028	-0,067
-724,108	-61,183	-0,210	0,065
-723,094	-143,963	-0,109	-0,008
-722,079	-48,936	-0,067	0,024
-721,064	-200,000	0,012	0,051
-720,050	-57,656	0,046	-0,015
-719,035	-200,000	-0,023	-0,090
-718,021	127,578	-0,047	0,045
-717,006	172,440	0,020	-0,021
-715,991	-200,000	-0,020	0,155
-714,977	-18,111	0,076	-0,035
-713,962	361,944	-0,108	-0,162
-712,948	800,000	-0,002	0,005
-711,933	-200,000	-0,012	0,123
-710,918	-69,078	-0,051	0,015
-709,904	37,005	-0,114	0,075
-708,889	-200,000	0,004	-0,017
-707,875	800,000	-0,022	-0,054
-706,860	-118,163	-0,218	-0,029
-705,845	326,822	0,011	-0,016
-704,831	517,036	-0,010	-0,018
-703,816	-174,755	-0,122	-0,003
-702,802	800,000	-0,062	-0,179
-701,787	-8,659	-0,099	-0,049
-700,772	800,000	-0,045	-0,132
-699,758	-200,000	-0,024	-0,200
-698,743	-40,341	-0,029	0,011
-697,729	-200,000	-0,025	-0,083
-696,714	800,000	0,027	-0,066
-695,699	-200,000	-0,018	-0,135
-694,685	84,756	-0,074	-0,060
-693,670	715,244	0,022	0,044
-692,656	680,456	-0,058	0,113
-691,641	42,253	0,111	-0,075
-690,627	112,535	0,065	-0,058
-689,612	30,975	0,004	-0,002
-688,597	110,249	0,037	-0,033
-687,583	-50,510	-0,174	-0,061
-686,568	-92,664	-0,042	0,009
-685,554	66,923	0,117	-0,089
-684,539	800,000	0,010	-0,025
-683,524	-200,000	0,009	0,093
-682,510	232,690	-0,043	0,053
-681,495	84,132	0,012	-0,010
-680,481	-22,097	-0,089	-0,040
-679,466	-200,000	-0,007	-0,214
-678,451	-120,343	0,110	-0,014
-677,437	-11,639	0,063	0,031
-676,422	-200,000	-0,019	0,069
-675,408	686,095	0,063	0,122
-674,393	-200,000	0,022	0,093
-673,378	-200,000	0,028	-0,142
-672,364	400,704	-0,048	0,075
-671,349	800,000	-0,027	-0,065
-670,335	45,447	0,077	0,052
-669,320	-166,281	-0,103	-0,003
-668,305	-148,073	0,162	-0,010
-667,291	-73,687	-0,089	0,024
-666,276	-83,923	-0,126	0,029
-665,262	800,000	-0,040	-0,107
-664,247	-200,000	-0,000	-0,077
-663,232	-31,207	-0,022	-0,009
-662,218	13,989	0,005	-0,003
-661,203	800,000	0,023	-0,049
-660,189	-200,000	-0,018	-0,074
-659,174	244,148	-0,145	-0,181
-658,159	-83,711	0,017	0,004
-657,145	216,543	-0,076	-0,089
-656,130	800,000	0,004	0,010
-655,116	-200,000	0,009	0,043
-654,101	47,897	0,132	-0,091
-653,086	-144,286	-0,065	-0,004
-652,072	-89,804	0,061	-0,013
-651,057	800,000	-0,030	0,093
-650,043	-200,000	0,008	-0,111
-649,028	315,009	0,089	-0,125
-648,014	264,920	-0,037	0,048
-646,999	462,641	-0,048	-0,080
-645,984	-55,162	0,153	0,051
-644,970	-38,681	0,059	-0,023
-643,955	-57,552	-0,055	0,018
-642,941	220,735	0,051	0,060
-641,926	96,450	-0,051	0,043
-640,911	25,546	-0,030	-0,018
-639,897	-200,000	-0,033	0,182
-638,882	169,305	-0,040	0,042
-637,868	-9,438	0,033	-0,016
-636,853	49,242	-0,034	0,024
-635,838	-200,000	0,033	-0,133
-634,824	-132,862	0,092	-0,009
-633,809	-33,443	0,145	0,059
-632,795	161,530	-0,145	0,151
-631,780	-127,725	0,143	-0,015
-630,765	480,758	-0,072	-0,122
-629,751	680,676	-0,064	-0,123
-628,736	-200,000	-0,041	-0,135
-627,722	-200,000	0,016	-0,088
-626,707	55,117	0,164	-0,117
-625,692	-200,000	0,013	0,054
-624,678	4,054	-0,137	-0,074
-623,663	-107,580	-0,145	-0,023
-622,649	-59,160	-0,067	0,021
-621,634	148,799	-0,050	0,051
-620,619	-130,270	0,029	-0,003
-619,605	-200,000	-0,005	-0,035
-618,590	37,815	0,059	-0,039
-617,576	314,645	-0,057	0,080
-616,561	-200,000	0,028	0,095
-615,546	800,000	0,023	0,066
-614,532	-106,399	-0,079	0,013
-613,517	-119,304	-0,078	-0,010
-612,503	800,000	0,036	-0,087
-611,488	407,100	-0,026	0,041
-610,474	-2,029	-0,033	0,017
-609,459	800,000	-0,012	0,035
-608,444	-104,335	-0,125	-0,021
-607,430	48,925	-0,097	-0,067
-606,415	509,259	0,020	-0,035
-605,401	-139,663	-0,052	0,004
-604,386	-200,000	0,045	0,156
-603,371	14,479	0,115	0,066
-602,357	800,000	-0,046	0,130
-601,342	-30,872	-0,054	-0,022
-600,328	-36,544	-0,082	0,033
-599,313	-14,358	-0,086	-0,041
-598,298	715,577	-0,019	-0,037
-597,284	580,567	-0,038	-0,069
-596,269	168,400	-0,036	-0,038
-595,255	-68,975	-0,013	-0,004
-594,240	385,112	-0,047	-0,072
-593,225	-104,448	-0,191	-0,032
-592,211	-41,054	0,044	0,017
-591,196	-17,982	0,140	0,065
-590,182	315,787	0,044	-0,062
-589,167	-200,000	-0,013	-0,051
-588,152	-70,116	0,039	0,011
-587,138	382,336	-0,093	-0,141
-586,123	-200,000	-0,023	0,108
-585,109	173,341	-0,072	-0,077
-584,094	33,678	-0,079	0,051
-583,079	132,428	0,111	0,105
-582,065	132,994	0,024	-0,023
-581,050	-71,086	-0,015	0,004
-580,036	466,632	-0,032	-0,053
-579,021	-39,652	-0,042	-0,016
-578,006	-151,309	-0,057	0,003
-576,992	240,349	0,031	-0,039
-575,977	-54,270	-0,027	0,009
-574,963	-200,000	-0,008	0,038
-573,948	32,684	0,007	0,005
-572,934	1,910	-0,011	0,006
-571,919	-66,383	-0,158	-0,046
-570,904	-2,392	-0,128	0,066
-569,890	-200,000	-0,003	-0,018
-568,875	-11,181	-0,097	-0,047
-567,861	-143,884	0,114	0,008
-566,846	-37,627	-0,081	-0,032
-565,831	153,728	0,018	-0,018
-564,817	-200,000	-0,026	-0,095
-563,802	-23,134	0,063	-0,028
-562,788	58,126	-0,080	-0,058
-561,773	-200,000	-0,009	-0,041
-560,758	-200,000	-0,006	0,039
-559,744	-136,047	-0,137	0,012
-558,729	140,526	-0,062	-0,061
-557,715	169,182	0,051	-0,054
-556,700	-99,273	0,047	-0,009
-555,685	178,950	0,081	-0,088
-554,671	-86,719	0,131	0,029
-553,656	172,662	-0,055	0,058
-552,642	-200,000	0,005	-0,047
-551,627	505,838	0,010	-0,016
-550,612	-200,000	-0,003	0,073
-549,598	-94,763	-0,084	0,017
-548,583	170,122	-0,062	0,065
-547,569	95,823	0,060	-0,051
-546,554	-51,435	-0,046	-0,016
-545,539	-200,000	-0,007	0,052
-544,525	278,658	-0,038	0,051
-543,510	205,630	-0,046	-0,053
-542,496	14,064	0,095	-0,055
-541,481	-200,000	-0,019	-0,064
-540,466	71,045	-0,060	-0,046
-539,452	-8,005	0,077	0,038
-538,437	-200,000	-0,023	0,141
-537,423	800,000	0,018	-0,041
-536,408	-100,148	0,125	0,023
-535,393	-79,720	-0,085	-0,021
-534,379	-159,462	-0,084	0,003
-533,364	-200,000	0,011	-0,055
-532,350	-113,255	-0,095	0,014
-531,335	317,674	0,022	-0,031
-530,321	160,477	0,031	0,032
-529,306	-118,663	0,108	-0,014
-528,291	-200,000	0,044	-0,281
-527,277	333,857	0,065	-0,092
-526,262	104,788	0,077	0,067
-525,248	48,742	0,099	0,069
-524,233	-200,000	-0,025	-0,114
-523,218	66,411	-0,056	0,042
-522,204	-67,418	0,105	-0,030
-521,189	26,884	-0,029	-0,018
-520,175	-124,484	-0,185	0,021
-519,160	472,862	-0,048	0,080
-518,145	800,000	-0,070	0,159
-517,131	70,616	0,054	0,041
-516,116	-200,000	0,009	-0,188
-515,102	-51,374	0,070	-0,024
-514,087	-200,000	0,035	-0,183
-513,072	-200,000	0,009	0,140
-512,058	800,000	-0,031	-0,068
-511,043	-46,734	-0,049	0,018
-510,029	-21,494	0,089	0,040
-509,014	84,829	-0,075	0,060
-507,999	273,955	0,010	0,014
-506,985	-200,000	0,004	-0,095
-505,970	42,655	-0,145	0,097
-504,956	-200,000	-0,008	0,038
-503,941	-154,040	0,065	-0,003
-502,926	800,000	-0,036	0,105
-501,912	222,881	0,106	0,126
-500,897	-200,000	0,004	-0,038
-499,883	-126,083	-0,094	0,010
-498,868	-104,509	-0,130	-0,022
-497,853	463,483	0,029	0,048
-496,839	-200,000	0,021	-0,185
-495,824	602,252	0,009	-0,017
-494,810	33,681	0,083	-0,053
-493,795	81,529	-0,133	0,106
-492,781	-64,578	-0,110	-0,033
-491,766	36,633	0,156	-0,101
-490,751	93,433	0,063	-0,052
-489,737	239,258	-0,076	-0,094
-488,722	15,327	0,062	-0,036
-487,708	-30,106	0,052	-0,022
-486,693	-167,814	-0,117	0,003
-485,678	-197,434	0,138	-0,001
-484,664	-25,898	-0,120	-0,052
-483,649	-88,900	0,082	0,018
-482,635	-71,351	0,074	-0,020
-481,620	785,000	0,041	0,083
-480,605	190,603	0,067	0,075
-479,591	349,568	0,025	0,037
-478,576	-143,796	0,077	0,005
-477,562	57,465	-0,073	0,052
-476,547	134,086	0,095	-0,090
-475,532	40,222	-0,045	0,030
-474,518	800,000	-0,023	-0,059
-473,503	800,000	0,073	0,217
-472,489	158,407	0,146	0,150
-471,474	-143,316	-0,020	-0,001
-470,459	-200,000	0,022	-0,144
-469,445	800,000	0,027	-0,078
-468,430	-62,954	-0,196	-0,059
-467,416	-31,658	0,085	-0,035
-466,401	-200,000	-0,010	0,064
-465,386	510,722	0,012	0,020
-464,372	-200,000	-0,022	0,075
-463,357	-173,660	-0,097	0,002
-462,343	-200,000	-0,002	0,106
-461,328	800,000	0,023	0,052
-460,313	800,000	-0,044	-0,135
-459,299	501,268	0,042	0,072
-458,284	-200,000	-0,012	0,065
-457,270	6,749	0,042	-0,023
-456,255	800,000	-0,033	-0,088
-455,241	-200,000	-0,006	0,094
-454,226	-23,741	0,159	-0,070
-453,211	599,414	-0,026	0,048
-452,197	-200,000	0,033	-0,142
-451,182	-200,000	0,016	0,055
-450,168	-29,711	-0,053	-0,022
-449,153	800,000	0,026	0,060
-448,138	342,099	-0,018	-0,025
-447,124	-200,000	0,015	-0,072
-446,109	-200,000	0,042	-0,148
-445,095	-140,090	-0,118	0,009
-444,080	-49,406	0,038	0,013
-443,065	565,063	0,025	0,044
-442,051	-37,438	0,144	0,056
-441,036	272,187	0,080	-0,104
-440,022	46,126	-0,096	-0,065
-439,007	402,261	-0,016	-0,025
-437,992	344,396	0,047	-0,069
-436,978	-80,456	0,216	0,053
-435,963	55,586	-0,134	0,096
-434,949	682,061	-0,008	0,015
-433,934	-200,000	-0,014	0,063
-432,919	-200,000	-0,024	-0,093
-431,905	53,231	-0,063	0,044
-430,890	736,664	-0,041	0,081
-429,876	-127,133	0,082	-0,009
-428,861	-200,000	0,016	-0,059
-427,846	-200,000	-0,011	0,076
-426,832	182,878	-0,055	-0,060
-425,817	478,142	0,054	0,091
-424,803	31,241	-0,060	-0,038
-423,788	-135,753	-0,102	-0,009
-422,773	-128,583	0,070	0,007
-421,759	1,009	0,127	0,066
-420,744	623,970	-0,067	-0,125
-419,730	-200,000	-0,005	-0,020
-418,715	-200,000	-0,004	-0,113
-417,701	-200,000	0,019	-0,075
-416,686	0,224	0,069	0,036
-415,671	-200,000	-0,012	0,042
-414,657	-122,951	0,090	0,011
-413,642	37,201	-0,079	0,051
-412,628	-200,000	0,011	-0,069
-411,613	97,221	0,028	0,023
-410,598	46,265	0,101	0,069
-409,584	-200,000	-0,025	0,089
-408,569	-200,000	-0,005	-0,031
-407,555	420,311	0,045	0,072
-406,540	101,222	0,084	0,072
-405,525	171,498	-0,107	0,113
-404,511	-200,000	0,017	0,054
-403,496	-101,357	0,081	-0,014
-402,482	304,197	0,015	-0,021
-401,467	-118,351	0,027	-0,003
-400,452	-200,000	0,036	0,126
-399,438	800,000	0,034	0,081
-398,423	-90,977	0,011	-0,002
-397,409	69,482	-0,077	-0,058
-396,394	-200,000	0,007	0,059
-395,379	207,832	-0,055	-0,064
-394,365	286,499	-0,004	-0,005
-393,350	800,000	0,015	-0,036
-392,336	-127,571	0,071	-0,007
-391,321	800,000	0,003	-0,006
-390,306	647,318	0,012	0,023
-389,292	-200,000	0,002	-0,034
-388,277	-200,000	-0,051	-0,166
-387,263	-14,353	-0,057	-0,027
-386,248	-200,000	-0,023	-0,159
-385,233	-93,907	-0,097	-0,019
-384,219	66,237	0,083	-0,062
-383,204	-149,768	-0,208	-0,012
-382,190	397,275	0,035	-0,055
-381,175	-120,138	0,057	0,007
-380,160	-200,000	0,012	-0,056
-379,146	342,282	-0,035	0,051
-378,131	-142,203	0,180	-0,013
-377,117	-134,914	-0,077	0,007
-376,102	354,682	0,060	0,087
-375,088	-200,000	0,008	-0,038
-374,073	-200,000	-0,030	-0,123
-373,058	26,573	0,046	0,028
-372,044	78,269	0,005	-0,004
-371,029	-200,000	-0,011	0,245
-370,015	-38,710	-0,095	0,037
-369,000	-45,774	-0,169	-0,061
-367,985	13,676	-0,127	-0,072
-366,971	220,357	-0,053	0,063
-365,956	-200,000	-0,013	0,140
-364,942	227,135	0,095	0,114
-363,927	-200,000	-0,017	0,131
-362,912	201,184	0,021	0,023
-361,898	-200,000	-0,003	-0,112
-360,883	-200,000	-0,022	-0,100
-359,869	378,150	0,133	-0,200
-358,854	-134,665	0,166	-0,015
-357,839	-200,000	0,006	0,035
-356,825	-200,000	-0,009	-0,034
-355,810	800,000	0,054	0,124
-354,796	87,428	0,056	0,045
-353,781	-52,843	-0,232	-0,078
-352,766	-200,000	0,022	-0,082
-351,752	-27,847	0,082	-0,035
-350,737	-200,000	0,018	0,094
-349,723	-101,118	0,072	0,013
-348,708	800,000	0,040	0,097
-347,693	-200,000	0,023	-0,087
-346,679	379,762	-0,030	0,045
-345,664	-200,000	-0,018	-0,068
-344,650	270,015	-0,049	-0,063
-343,635	189,858	0,046	-0,051
-342,620	82,987	0,038	0,030
-341,606	479,493	-0,054	0,090
-340,591	-200,000	-0,032	-0,150
-339,577	-42,395	0,078	0,029
-338,562	36,171	-0,095	-0,061
-337,548	63,843	0,032	0,024
-336,533	480,652	0,018	-0,031
-335,518	30,449	-0,026	-0,016
-334,504	268,941	0,079	-0,102
-333,489	178,249	-0,029	0,031
-332,475	-200,000	-0,006	0,055
-331,460	-112,215	0,055	-0,008
-330,445	-53,210	-0,096	0,032
-329,431	468,832	0,039	0,065
-328,416	204,319	0,054	0,061
-327,402	-54,814	-0,140	-0,046
-326,387	-200,000	0,035	-0,201
-325,372	-200,000	-0,027	0,090
-324,358	341,623	-0,049	0,070
-323,343	-72,264	-0,081	-0,022
-322,329	223,719	0,061	-0,072
-321,314	166,128	-0,041	-0,043
-320,299	800,000	0,036	0,094
-319,285	-167,194	0,040	-0,001
-318,270	800,000	0,044	-0,116
-317,256	-39,042	-0,053	-0,020
-316,241	800,000	-0,032	0,087
-315,226	800,000	0,025	-0,080
-314,212	21,767	0,095	0,056
-313,197	800,000	0,031	0,089
-312,183	-61,805	-0,047	0,014
-311,168	800,000	-0,034	-0,073
-310,153	-37,836	-0,075	-0,029
-309,139	121,908	0,032	-0,029
-308,124	-200,000	0,000	0,078
-307,110	513,669	-0,037	-0,063
-306,095	-87,194	0,175	-0,039
-305,080	147,434	0,056	0,055
-304,066	-31,520	-0,056	-0,023
-303,051	-188,744	-0,145	-0,001
-302,037	44,296	-0,096	-0,064
-301,022	9,074	0,062	0,034
-300,008	-200,000	0,002	0,118
-298,993	105,081	0,080	-0,069
-297,978	270,234	0,069	-0,089
-296,964	39,359	-0,111	-0,072
-295,949	502,724	-0,002	-0,003
-294,935	-48,095	-0,107	0,038
-293,920	-200,000	-0,031	-0,133
-292,905	-156,005	-0,040	-0,002
-291,891	27,109	0,022	0,014
-290,876	-97,413	0,093	-0,017
-289,862	18,504	0,089	-0,052
-288,847	574,447	-0,038	0,068
-287,832	-200,000	-0,006	-0,066
-286,818	800,000	0,058	0,126
-285,803	-200,000	0,016	0,178
-284,789	800,000	0,037	-0,085
-283,774	78,817	0,086	0,067
-282,759	719,569	-0,048	0,095
-281,745	800,000	0,025	0,060
-280,730	-0,376	-0,140	-0,073
-279,716	-133,270	0,080	-0,007
-278,701	800,000	0,047	0,132
-277,686	800,000	-0,047	0,127
-276,672	-138,752	0,113	0,009
-275,657	-200,000	-0,012	0,071
-274,643	-108,580	-0,050	0,008
-273,628	620,788	0,075	-0,138
-272,613	190,798	-0,056	-0,062
-271,599	-58,302	0,016	0,005
-270,584	-83,710	0,101	-0,023
-269,570	-200,000	0,016	0,065
-268,555	494,756	-0,015	0,024
-267,540	800,000	-0,027	-0,082
-266,526	-200,000	0,027	-0,115
-265,511	23,942	-0,048	-0,029
-264,497	-200,000	0,005	-0,035
-263,482	263,931	0,086	0,110
-262,467	-104,855	0,173	-0,029
-261,453	15,869	-0,059	0,034
-260,438	323,318	-0,112	0,157
-259,424	371,829	0,006	-0,010
-258,409	-47,769	-0,090	0,032
-257,395	-123,326	0,094	0,011
-256,380	347,278	-0,070	0,100
-255,365	800,000	-0,034	0,107
-254,351	-200,000	-0,000	-0,042
-253,336	-200,000	-0,003	-0,044
-252,322	-200,000	0,016	-0,055
-251,307	599,975	0,048	-0,087
-250,292	-19,428	-0,166	-0,075
-249,278	-200,000	-0,007	-0,058
-248,263	-62,836	0,102	0,031
-247,249	80,916	-0,319	0,251
-246,234	49,568	-0,094	-0,065
-245,219	-200,000	0,000	0,043
-244,205	-65,866	-0,125	0,036
-243,190	249,081	0,071	0,088
-242,176	38,846	-0,045	0,029
-241,161	97,515	0,123	0,103
-240,146	-11,105	0,069	-0,033
-239,132	162,834	-0,067	0,069
-238,117	-116,944	-0,106	0,014
-237,103	-200,000	0,017	-0,112
-236,088	800,000	0,036	-0,098
-235,073	-0,723	-0,047	-0,024
-234,059	-200,000	-0,016	0,137
-233,044	155,143	0,056	-0,056
-232,030	39,077	-0,060	-0,039
-231,015	-46,947	-0,124	-0,044
-230,000	-77,049	0,146	-0,037
-228,986	-21,480	0,066	0,029
-227,971	507,793	-0,024	-0,041
-226,957	800,000	0,027	0,079
-225,942	235,890	0,093	0,112
-224,927	114,175	0,043	-0,038
-223,913	800,000	-0,047	-0,099
-222,898	-200,000	-0,019	-0,242
-221,884	261,467	-0,070	-0,089
-220,869	-85,441	-0,042	0,009
-219,855	276,692	0,146	0,190
-218,840	-32,119	-0,118	0,048
-217,825	27,681	-0,114	-0,070
-216,811	800,000	0,042	-0,134
-215,796	681,429	0,014	-0,026
-214,782	-178,662	-0,087	-0,001
-213,767	800,000	-0,043	0,090
-212,752	119,671	0,058	-0,052
-211,738	-148,656	0,161	0,009
-210,723	-112,245	0,049	-0,007
-209,709	348,147	-0,091	-0,131
-208,694	103,598	-0,075	-0,064
-207,679	-200,000	-0,007	-0,025
-206,665	52,814	0,092	0,064
-205,650	-190,873	0,126	-0,001
-204,636	-200,000	-0,023	0,169
-203,621	275,391	0,117	0,152
-202,606	697,277	-0,060	0,115
-201,592	-10,578	-0,106	-0,051
-200,577	421,996	0,028	-0,044
-199,563	-31,306	-0,072	0,029
-198,548	144,892	0,120	0,117
-197,533	-5,115	-0,099	0,049
-196,519	58,238	0,091	-0,065
-195,504	-112,769	0,037	0,005
-194,490	800,000	0,058	-0,132
-193,475	-71,877	0,107	0,029
-192,460	-200,000	0,007	-0,036
-191,446	31,790	-0,083	0,052
-190,431	-200,000	-0,015	0,068
-189,417	-16,688	0,075	0,035
-188,402	-176,735	-0,052	0,001
-187,387	-20,043	0,030	0,013
-186,373	211,875	-0,098	0,113
-185,358	395,533	-0,045	-0,069
-184,344	51,686	0,075	-0,052
-183,329	-49,369	0,138	-0,048
-182,315	8,817	0,037	0,020
-181,300	-200,000	0,005	0,087
-180,285	-76,453	0,046	-0,012
-179,271	60,236	-0,091	-0,065
-178,256	-200,000	0,015	-0,063
-177,242	-200,000	0,121	0,000
-176,227	-16,371	0,121	-0,056
-175,212	529,094	0,078	0,135
-174,198	800,000	0,019	0,038
-173,183	187,223	0,062	-0,068
-172,169	-200,000	-0,004	0,082
-171,154	-42,752	0,154	0,057
-170,139	-111,329	-0,039	0,006
-169,125	-4,698	-0,027	0,013
-168,110	142,577	0,053	0,051
-167,096	800,000	0,034	0,092
-166,081	-18,814	-0,118	0,053
-165,066	-200,000	-0,007	-0,090
-164,052	403,957	-0,011	-0,017
-163,037	62,708	-0,132	0,096
-162,023	-0,230	0,060	-0,031
-161,008	388,652	-0,086	0,131
-159,993	800,000	-0,025	0,061
-158,979	89,173	-0,063	-0,051
-157,964	-200,000	0,017	0,079
-156,950	800,000	0,034	-0,077
-155,935	-77,294	0,051	0,013
-154,920	-200,000	0,030	0,099
-153,906	-106,972	0,098	0,016
-152,891	79,185	0,025	-0,020
-151,877	-78,809	0,056	-0,014
-150,862	798,998	-0,038	0,076
-149,847	337,844	-0,053	0,075
-148,833	226,546	0,028	0,033
-147,818	-87,088	0,258	-0,057
-146,804	-200,000	0,043	0,160
-145,789	225,613	-0,030	0,036
-144,775	800,000	-0,046	-0,093
-143,760	152,597	-0,092	0,091
-142,745	252,698	0,061	-0,075
-141,731	-200,000	-0,011	0,110
-140,716	66,977	0,062	0,046
-139,702	142,133	-0,015	-0,014
-138,687	-200,000	-0,009	0,053
-137,672	-0,441	0,098	-0,050
-136,658	273,995	-0,054	0,069
-135,643	-27,507	-0,062	-0,026
-134,629	64,589	0,109	-0,080
-133,614	92,398	0,125	0,102
-132,599	-10,887	-0,050	-0,024
-131,585	800,000	-0,021	-0,058
-130,570	423,306	-0,021	0,032
-129,556	66,109	0,101	0,074
-128,541	-169,401	0,073	-0,002
-127,526	-149,875	0,077	0,004
-126,512	-150,140	-0,038	0,002
-125,497	-200,000	0,014	0,124
-124,483	-191,383	0,020	0,000
-123,468	-44,302	0,028	-0,010
-122,453	-91,168	0,013	0,003
-121,439	-10,063	-0,033	0,016
-120,424	-151,094	-0,164	0,009
-119,410	-200,000	0,038	0,227
