DTS Sentinel unit serial number:	SN410029Multiplexer serial number:	ORYXHardware model number:	OX2-SRSoftware version number:	ORYX F/W v4,00 Oryx Data Collector v3.7.2.0data status	okinstallation	B4 Nyhavnadifferential loss correction	single-endedforward channel	channel 2reverse channel	N/Adate	2023/12/15time	18:35:13forward acquisition time	300,00reverse acquisition time	0,00gamma	499,1914k internal	0,3139k external	0,3139temperature offset calibration	1,0000default loss term (dB/km)	0,3820temperature slope calibration	1,0000multiplexer offset coefficient	1,0000multiplexer slope coefficient	1,0000fibre end	0,00T internal ref (°C)	19,25T ext. ref 1 (°C)	5,31T ext. ref 2 (°C)	5,44length (m)	temperature (°C)	Stokes	anti-Stokes-744,400	-70,538	0,130	0,036
-743,385	15,104	-0,197	0,114
-742,371	-100,325	0,134	0,024
-741,356	-140,971	-0,152	0,011
-740,342	355,316	0,070	0,103
-739,327	-128,801	-0,238	0,024
-738,312	-160,707	0,144	0,006
-737,298	0,039	-0,230	0,121
-736,283	384,952	0,115	0,176
-735,269	136,994	-0,223	0,216
-734,254	614,576	0,037	-0,068
-733,239	-64,709	-0,437	-0,131
-732,225	33,086	0,231	-0,148
-731,210	-200,000	-0,034	0,208
-730,196	-185,107	-0,111	0,001
-729,181	-142,423	-0,096	-0,007
-728,167	320,967	-0,061	-0,086
-727,152	33,748	-0,046	0,030
-726,137	-143,437	0,026	0,002
-725,123	318,961	0,023	-0,032
-724,108	-27,891	-0,119	-0,051
-723,094	-17,368	0,088	0,041
-722,079	382,059	0,009	-0,013
-721,064	800,000	0,020	-0,051
-720,050	-200,000	-0,012	0,103
-719,035	115,574	0,078	0,071
-718,021	169,724	-0,072	0,077
-717,006	763,696	-0,030	-0,061
-715,991	19,538	-0,229	-0,136
-714,977	-8,598	-0,122	-0,060
-713,962	-148,772	-0,069	0,004
-712,948	698,592	-0,034	0,066
-711,933	395,239	-0,034	0,053
-710,918	10,447	-0,095	0,054
-709,904	15,866	-0,073	-0,042
-708,889	121,977	0,040	-0,037
-707,875	-96,863	-0,131	0,025
-706,860	23,945	0,033	0,020
-705,845	-144,704	0,068	-0,005
-704,831	175,675	0,062	0,066
-703,816	-142,990	0,100	0,007
-702,802	-116,320	-0,100	0,014
-701,787	517,284	0,101	-0,175
-700,772	199,419	0,095	0,108
-699,758	135,839	-0,104	-0,100
-698,743	132,191	-0,055	0,052
-697,729	-47,623	0,053	0,019
-696,714	-200,000	-0,015	0,059
-695,699	-135,456	0,080	0,007
-694,685	800,000	-0,057	-0,137
-693,670	-120,744	0,009	-0,001
-692,656	353,445	0,023	-0,034
-691,641	-63,280	-0,116	0,035
-690,627	-200,000	0,009	0,062
-689,612	-200,000	-0,010	-0,043
-688,597	800,000	0,021	0,060
-687,583	-200,000	0,014	-0,144
-686,568	22,601	-0,152	-0,092
-685,554	-200,000	-0,036	0,133
-684,539	800,000	-0,017	0,046
-683,524	36,516	0,022	0,015
-682,510	147,628	-0,083	-0,083
-681,495	-67,193	0,067	0,019
-680,481	-200,000	-0,006	-0,083
-679,466	140,561	-0,158	-0,154
-678,451	211,242	-0,072	-0,084
-677,437	165,392	-0,100	0,105
-676,422	-112,684	-0,116	-0,017
-675,408	354,513	-0,039	0,057
-674,393	406,017	-0,060	-0,094
-673,378	114,670	-0,047	-0,043
-672,364	-166,000	-0,114	0,004
-671,349	800,000	-0,034	-0,072
-670,335	95,507	-0,021	0,018
-669,320	800,000	-0,018	-0,054
-668,305	-200,000	-0,014	0,073
-667,291	153,817	-0,015	-0,015
-666,276	-200,000	-0,004	-0,138
-665,262	427,806	-0,026	-0,042
-664,247	304,757	0,064	-0,088
-663,232	12,225	-0,129	-0,073
-662,218	359,306	0,062	0,092
-661,203	-56,734	-0,148	0,048
-660,189	97,869	-0,041	0,035
-659,174	-123,431	0,036	0,004
-658,159	-59,509	0,033	0,010
-657,145	-56,912	-0,040	0,013
-656,130	-78,080	0,105	-0,027
-655,116	-200,000	0,009	-0,063
-654,101	264,897	-0,061	0,079
-653,086	799,731	0,023	-0,047
-652,072	-0,786	-0,060	-0,031
-651,057	800,000	0,003	0,006
-650,043	-200,000	0,024	-0,142
-649,028	-200,000	0,018	0,121
-648,014	142,264	0,066	-0,065
-646,999	-28,577	0,213	0,090
-645,984	232,494	-0,027	0,033
-644,970	-36,950	0,056	0,022
-643,955	374,439	-0,019	0,029
-642,941	92,295	0,048	0,040
-641,926	121,056	-0,045	0,041
-640,911	70,452	-0,047	0,036
-639,897	-200,000	-0,005	-0,045
-638,882	440,553	-0,049	-0,079
-637,868	-200,000	0,008	0,096
-636,853	-11,876	-0,129	0,062
-635,838	387,272	-0,036	-0,055
-634,824	-61,848	0,053	0,016
-633,809	-25,690	-0,125	-0,054
-632,795	707,378	-0,045	-0,087
-631,780	-200,000	-0,033	0,172
-630,765	-200,000	0,005	0,081
-629,751	-200,000	-0,043	-0,145
-628,736	218,399	0,042	-0,050
-627,722	800,000	-0,026	0,056
-626,707	175,453	0,017	0,018
-625,692	-200,000	-0,034	-0,141
-624,678	55,408	-0,130	0,093
-623,663	78,376	-0,086	0,067
-622,649	121,623	0,037	-0,034
-621,634	301,753	0,028	-0,039
-620,619	-116,374	-0,081	-0,011
-619,605	-155,471	0,196	-0,009
-618,590	-116,248	0,042	0,006
-617,576	24,143	-0,109	-0,066
-616,561	40,454	-0,132	0,088
-615,546	551,204	-0,082	-0,146
-614,532	-47,038	-0,101	-0,036
-613,517	-200,000	0,014	-0,062
-612,503	-16,980	-0,029	0,014
-611,488	-200,000	0,010	-0,068
-610,474	800,000	-0,045	0,105
-609,459	633,208	0,041	-0,077
-608,444	201,277	-0,091	-0,104
-607,430	-200,000	-0,033	-0,107
-606,415	-200,000	-0,010	0,046
-605,401	143,372	0,062	0,061
-604,386	800,000	-0,045	0,140
-603,371	-101,842	0,057	0,010
-602,357	-200,000	-0,003	0,057
-601,342	62,984	-0,112	-0,083
-600,328	96,514	-0,135	-0,114
-599,313	-52,114	-0,120	0,041
-598,298	-120,952	-0,055	-0,007
-597,284	18,754	0,088	-0,052
-596,269	-26,027	-0,126	0,055
-595,255	60,600	-0,110	0,080
-594,240	25,769	0,063	-0,039
-593,225	-81,739	-0,038	-0,009
-592,211	-200,000	0,001	-0,009
-591,196	253,293	-0,050	0,063
-590,182	324,851	0,066	0,093
-589,167	-200,000	-0,004	-0,090
-588,152	-126,532	0,086	-0,009
-587,138	800,000	-0,034	-0,103
-586,123	-200,000	0,019	-0,086
-585,109	22,061	-0,109	0,066
-584,094	-200,000	0,012	-0,047
-583,079	114,775	0,022	0,020
-582,065	-13,923	0,070	0,033
-581,050	16,751	-0,018	-0,010
-580,036	539,872	-0,050	-0,087
-579,021	-200,000	-0,033	0,139
-578,006	171,916	0,085	0,090
-576,992	800,000	0,057	-0,171
-575,977	-200,000	-0,001	0,059
-574,963	12,836	-0,064	0,036
-573,948	183,375	0,130	0,141
-572,934	297,066	-0,072	0,097
-571,919	-200,000	0,017	-0,108
-570,904	201,890	0,090	0,102
-569,890	203,748	-0,021	0,023
-568,875	317,034	0,017	0,023
-567,861	47,027	0,028	-0,019
-566,846	272,159	0,002	-0,003
-565,831	-24,090	-0,068	-0,030
-564,817	729,367	0,009	0,018
-563,802	-3,522	-0,129	-0,066
-562,788	275,380	0,056	-0,073
-561,773	230,913	-0,139	-0,168
-560,758	674,778	-0,040	0,077
-559,744	800,000	0,008	-0,020
-558,729	75,293	0,050	-0,039
-557,715	800,000	-0,042	-0,100
-556,700	148,149	-0,042	0,042
-555,685	273,106	-0,048	-0,063
-554,671	-200,000	-0,001	0,238
-553,656	-160,663	0,103	0,004
-552,642	-200,000	0,009	0,034
-551,627	-200,000	0,006	-0,074
-550,612	-23,299	-0,048	-0,021
-549,598	-44,404	0,088	-0,032
-548,583	66,829	0,043	0,032
-547,569	25,832	-0,058	0,036
-546,554	-135,191	0,129	0,011
-545,539	-75,987	-0,085	-0,022
-544,525	-8,790	-0,042	0,021
-543,510	568,010	-0,083	-0,149
-542,496	-42,681	-0,095	-0,035
-541,481	15,778	-0,076	0,044
-540,466	-200,000	0,005	-0,036
-539,452	800,000	0,025	0,051
-538,437	737,155	-0,024	-0,048
-537,423	66,001	-0,023	-0,017
-536,408	-172,949	-0,049	-0,001
-535,393	-92,208	-0,092	-0,019
-534,379	-200,000	-0,006	0,077
-533,364	-200,000	0,022	0,081
-532,350	800,000	0,058	0,124
-531,335	458,432	-0,046	0,075
-530,321	226,208	0,098	0,117
-529,306	-200,000	0,008	0,028
-528,291	34,950	0,069	-0,044
-527,277	-117,904	-0,203	0,026
-526,262	800,000	0,031	-0,077
-525,248	800,000	0,041	-0,100
-524,233	800,000	0,093	0,198
-523,218	-200,000	-0,008	-0,032
-522,204	-37,302	-0,078	-0,030
-521,189	-200,000	0,008	-0,039
-520,175	-34,534	-0,052	-0,021
-519,160	800,000	-0,023	-0,051
-518,145	-154,113	-0,026	0,001
-517,131	7,869	0,051	0,028
-516,116	-200,000	-0,008	-0,225
-515,102	48,305	-0,051	0,035
-514,087	-143,696	-0,077	0,005
-513,072	140,316	0,047	-0,046
-512,058	-200,000	-0,000	0,054
-511,043	-60,408	0,135	-0,042
-510,029	-200,000	0,021	-0,089
-509,014	-200,000	-0,014	0,133
-507,999	102,931	0,033	-0,028
-506,985	-33,424	0,024	0,010
-505,970	800,000	0,032	0,085
-504,956	-33,766	-0,144	-0,058
-503,941	135,943	0,091	-0,087
-502,926	-200,000	0,002	-0,029
-501,912	61,725	0,068	-0,050
-500,897	62,266	-0,030	-0,022
-499,883	647,064	-0,048	-0,091
-498,868	469,493	0,057	0,094
-497,853	228,825	-0,091	-0,110
-496,839	-200,000	0,014	-0,087
-495,824	-200,000	-0,007	-0,041
-494,810	-200,000	0,034	-0,151
-493,795	110,306	0,038	-0,034
-492,781	-200,000	0,001	0,072
-491,766	-200,000	0,003	-0,018
-490,751	800,000	0,019	0,049
-489,737	-63,124	0,147	-0,044
-488,722	-200,000	-0,001	0,127
-487,708	90,937	0,117	0,096
-486,693	-73,823	-0,065	-0,017
-485,678	260,453	-0,067	-0,086
-484,664	277,987	-0,013	0,017
-483,649	-132,660	-0,077	-0,007
-482,635	800,000	0,032	-0,084
-481,620	6,026	0,058	-0,032
-480,605	-118,866	0,081	0,010
-479,591	471,633	-0,084	0,140
-478,576	-82,451	-0,076	0,018
-477,562	-48,924	-0,099	-0,035
-476,547	635,086	-0,057	-0,107
-475,532	117,371	-0,085	0,076
-474,518	64,360	0,036	-0,027
-473,503	460,991	-0,066	0,109
-472,489	605,905	0,031	0,057
-471,474	-200,000	-0,033	-0,130
-470,459	88,759	-0,112	-0,091
-469,445	-44,355	-0,064	-0,023
-468,430	-46,930	-0,079	0,028
-467,416	-18,583	-0,025	-0,012
-466,401	227,294	0,069	0,083
-465,386	-42,963	-0,093	0,034
-464,372	278,848	0,048	-0,063
-463,357	10,425	-0,088	-0,049
-462,343	26,826	0,113	-0,069
-461,328	-110,574	-0,127	-0,019
-460,313	-135,848	0,095	-0,008
-459,299	-200,000	0,013	0,083
-458,284	-200,000	0,030	0,233
-457,270	-200,000	-0,010	-0,040
-456,255	-200,000	-0,000	0,006
-455,241	-147,088	-0,151	-0,009
-454,226	-200,000	0,001	-0,052
-453,211	800,000	0,019	-0,060
-452,197	166,803	-0,032	0,033
-451,182	-200,000	0,000	0,078
-450,168	-200,000	0,011	-0,065
-449,153	-102,179	0,050	-0,009
-448,138	-200,000	0,003	-0,019
-447,124	-2,948	0,087	-0,044
-446,109	-117,616	-0,081	0,011
-445,095	-58,846	0,254	0,080
-444,080	-74,893	0,161	-0,042
-443,065	48,891	-0,143	-0,098
-442,051	-50,162	-0,065	0,023
-441,036	-142,681	-0,124	-0,009
-440,022	85,978	0,075	0,061
-439,007	-82,128	0,070	-0,017
-437,992	-21,429	0,052	-0,023
-436,978	607,588	0,024	0,043
-435,963	-56,503	-0,032	-0,010
-434,949	-42,831	0,065	0,024
-433,934	39,953	-0,076	-0,050
-432,919	470,827	-0,029	0,047
-431,905	-200,000	-0,008	-0,034
-430,890	106,155	0,054	0,047
-429,876	-200,000	0,008	0,086
-428,861	-42,659	0,109	0,040
-427,846	-97,631	-0,061	-0,011
-426,832	-115,860	0,062	0,008
-425,817	-200,000	-0,015	-0,052
-424,803	-137,331	0,095	-0,008
-423,788	367,828	-0,054	-0,080
-422,773	-29,551	0,043	-0,018
-421,759	-126,467	0,158	-0,017
-420,744	-122,525	0,066	-0,008
-419,730	-200,000	0,003	-0,016
-418,715	-126,541	0,026	-0,003
-417,701	-94,814	0,085	0,017
-416,686	-82,932	0,046	0,011
-415,671	-200,000	-0,008	-0,117
-414,657	-31,281	-0,086	0,036
-413,642	800,000	0,007	-0,017
-412,628	-32,344	-0,058	0,023
-411,613	140,031	-0,132	-0,128
-410,598	-200,000	-0,011	-0,075
-409,584	-200,000	-0,005	0,150
-408,569	800,000	0,023	-0,052
-407,555	372,947	0,125	0,186
-406,540	-200,000	-0,009	-0,061
-405,525	263,339	-0,027	0,035
-404,511	-118,259	0,071	-0,009
-403,496	-67,722	0,086	-0,025
-402,482	800,000	0,016	-0,039
-401,467	800,000	0,029	0,062
-400,452	-39,534	0,012	0,005
-399,438	277,502	0,074	0,097
-398,423	-200,000	0,015	-0,134
-397,409	800,000	0,053	0,122
-396,394	94,996	0,050	-0,042
-395,379	24,552	0,010	-0,006
-394,365	-33,296	0,114	-0,046
-393,350	135,526	-0,045	-0,043
-392,336	330,913	0,011	-0,015
-391,321	-200,000	0,010	0,092
-390,306	-99,663	-0,070	0,013
-389,292	-200,000	0,022	-0,168
-388,277	-56,918	-0,078	0,025
-387,263	-200,000	0,005	-0,039
-386,248	800,000	-0,058	0,181
-385,233	-14,754	0,051	-0,024
-384,219	-3,723	-0,098	0,050
-383,204	800,000	0,037	-0,096
-382,190	39,432	-0,072	-0,047
-381,175	-93,872	-0,063	0,012
-380,160	-77,229	0,019	-0,005
-379,146	-200,000	0,000	-0,001
-378,131	177,793	-0,038	0,041
-377,117	-200,000	-0,001	-0,029
-376,102	-200,000	0,010	-0,044
-375,088	80,564	0,086	-0,068
-374,073	-98,568	0,100	0,019
-373,058	191,029	0,073	0,080
-372,044	-200,000	-0,001	0,149
-371,029	179,506	-0,053	0,057
-370,015	182,067	0,053	0,057
-369,000	273,717	-0,015	-0,019
-367,985	-200,000	-0,008	-0,038
-366,971	296,814	0,092	-0,124
-365,956	107,721	0,010	0,009
-364,942	-200,000	0,007	-0,095
-363,927	-200,000	-0,021	-0,105
-362,912	-200,000	-0,026	0,125
-361,898	173,062	-0,021	0,023
-360,883	800,000	-0,041	0,105
-359,869	-138,481	-0,132	0,010
-358,854	60,101	0,070	-0,051
-357,839	24,917	-0,098	0,059
-356,825	55,019	0,053	-0,038
-355,810	-46,744	-0,063	0,023
-354,796	72,258	0,094	-0,071
-353,781	295,528	0,024	0,032
-352,766	226,918	0,020	-0,024
-351,752	48,560	-0,091	0,062
-350,737	-200,000	0,000	-0,013
-349,723	18,749	0,067	0,039
-348,708	274,229	-0,054	0,071
-347,693	41,790	0,038	-0,025
-346,679	-104,904	-0,170	0,028
-345,664	77,217	0,049	0,038
-344,650	-200,000	0,033	0,109
-343,635	-200,000	-0,032	-0,121
-342,620	-100,598	0,162	0,029
-341,606	-200,000	-0,002	0,061
-340,591	36,531	-0,144	0,093
-339,577	-106,109	0,058	0,009
-338,562	-56,275	-0,050	0,016
-337,548	-9,673	-0,076	0,037
-336,533	67,834	0,016	-0,012
-335,518	-200,000	-0,004	-0,024
-334,504	-200,000	0,023	0,093
-333,489	-155,676	0,009	0,000
-332,475	800,000	-0,086	-0,184
-331,460	63,380	-0,039	0,028
-330,445	-200,000	0,019	-0,089
-329,431	-40,768	0,091	-0,034
-328,416	-89,293	-0,036	0,008
-327,402	-181,362	-0,045	0,001
-326,387	-200,000	0,000	-0,035
-325,372	397,758	-0,032	-0,048
-324,358	-200,000	-0,009	-0,119
-323,343	722,198	0,072	-0,140
-322,329	-72,550	0,149	-0,040
-321,314	544,860	-0,058	0,102
-320,299	96,011	-0,023	0,019
-319,285	800,000	-0,054	0,157
-318,270	-124,254	-0,116	-0,013
-317,256	-200,000	-0,014	-0,047
-316,241	-200,000	-0,008	0,072
-315,226	800,000	-0,054	-0,124
-314,212	-71,025	0,080	0,022
-313,197	-0,581	0,115	0,059
-312,183	35,179	-0,017	0,011
-311,168	-200,000	-0,012	-0,041
-310,153	-79,636	-0,165	0,040
-309,139	800,000	-0,079	-0,161
-308,124	289,937	0,073	-0,097
-307,110	800,000	-0,022	0,059
-306,095	-48,567	0,079	-0,028
-305,080	4,063	-0,030	0,016
-304,066	-200,000	0,017	0,065
-303,051	84,757	0,120	-0,096
-302,037	33,740	-0,177	-0,112
-301,022	5,616	0,127	0,068
-300,008	-20,228	0,093	-0,041
-298,993	-86,315	0,096	-0,021
-297,978	-200,000	-0,009	0,148
-296,964	-33,123	-0,109	0,044
-295,949	-200,000	-0,004	0,167
-294,935	120,661	-0,178	0,161
-293,920	-125,840	0,011	0,001
-292,905	-200,000	0,012	-0,063
-291,891	193,996	0,053	0,059
-290,876	-200,000	-0,017	0,076
-289,862	800,000	0,064	0,183
-288,847	800,000	0,012	0,030
-287,832	-200,000	0,022	-0,120
-286,818	-8,220	-0,042	-0,021
-285,803	-145,800	0,109	-0,007
-284,789	398,976	0,119	0,182
-283,774	-164,712	-0,085	-0,003
-282,759	151,681	0,027	-0,027
-281,745	800,000	-0,023	-0,057
-280,730	-118,299	0,137	-0,018
-279,716	112,611	0,041	0,036
-278,701	94,790	0,067	0,055
-277,686	-96,291	0,065	0,012
-276,672	-97,409	-0,016	0,003
-275,657	-46,160	0,043	-0,015
-274,643	371,405	0,079	-0,117
-273,628	-30,811	-0,079	0,032
-272,613	11,943	-0,164	-0,091
-271,599	-151,108	0,155	-0,008
-270,584	-200,000	0,029	-0,096
-269,570	96,186	0,065	-0,054
-268,555	-12,534	0,135	-0,064
-267,540	470,434	-0,059	-0,097
-266,526	-200,000	-0,009	-0,052
-265,511	176,244	-0,055	-0,059
-264,497	-200,000	-0,008	-0,114
-263,482	-200,000	0,003	0,116
-262,467	-5,743	0,161	0,080
-261,453	-110,940	-0,046	0,007
-260,438	-200,000	-0,002	-0,123
-259,424	141,571	-0,084	0,081
-258,409	-77,177	0,092	0,023
-257,395	-58,767	0,054	-0,017
-256,380	-200,000	0,009	0,039
-255,365	-189,314	-0,033	0,000
-254,351	113,710	-0,255	0,226
-253,336	-200,000	0,007	0,026
-252,322	-117,269	0,064	-0,008
-251,307	-109,309	0,126	0,019
-250,292	-45,215	-0,022	0,008
-249,278	-94,058	0,032	-0,006
-248,263	800,000	0,040	-0,124
-247,249	-3,990	-0,047	-0,024
-246,234	111,219	0,052	-0,046
-245,219	800,000	0,069	-0,183
-244,205	336,952	0,080	-0,113
-243,190	-154,169	0,146	0,007
-242,176	-200,000	0,050	0,164
-241,161	-200,000	-0,025	0,093
-240,146	157,437	0,029	0,029
-239,132	-81,449	-0,075	-0,018
-238,117	-200,000	-0,042	0,000
-237,103	-34,792	0,010	0,004
-236,088	342,973	0,095	-0,136
-235,073	3,831	0,028	-0,015
-234,059	-35,520	0,089	0,035
-233,044	-4,156	0,101	-0,051
-232,030	169,262	-0,020	-0,021
-231,015	127,414	0,103	-0,095
-230,000	-140,813	0,044	-0,003
-228,986	-40,794	-0,076	-0,028
-227,971	382,712	-0,050	0,075
-226,957	-52,394	0,071	0,024
-225,942	-200,000	0,003	0,057
-224,927	292,401	-0,064	0,085
-223,913	-200,000	0,006	0,034
-222,898	322,099	-0,092	0,128
-221,884	-81,657	0,056	0,013
-220,869	257,757	0,017	0,021
-219,855	-32,612	0,153	-0,062
-218,840	-11,634	0,080	0,038
-217,825	143,111	0,020	0,019
-216,811	774,099	-0,006	0,013
-215,796	-200,000	0,034	-0,144
-214,782	66,311	-0,199	-0,147
-213,767	800,000	-0,015	-0,040
-212,752	48,346	-0,068	-0,046
-211,738	394,641	-0,052	-0,079
-210,723	366,438	0,098	-0,144
-209,709	25,176	0,043	0,026
-208,694	162,204	-0,028	-0,029
-207,679	-149,879	0,097	-0,005
-206,665	-39,491	-0,074	0,028
-205,650	620,458	0,033	-0,060
-204,636	-200,000	0,034	0,112
-203,621	-200,000	0,009	0,065
-202,606	800,000	0,005	-0,014
-201,592	6,618	0,047	-0,025
-200,577	-200,000	-0,021	0,108
-199,563	700,287	-0,047	-0,090
-198,548	-200,000	0,023	0,152
-197,533	800,000	-0,027	0,078
-196,519	519,976	0,027	0,046
-195,504	205,449	0,023	-0,026
-194,490	94,455	0,071	-0,059
-193,475	279,360	0,062	-0,080
-192,460	237,903	-0,038	0,045
-191,446	800,000	-0,014	0,038
-190,431	37,206	0,073	0,047
-189,417	106,846	-0,039	0,034
-188,402	-116,421	0,110	0,015
-187,387	-131,457	-0,070	-0,007
-186,373	-135,071	-0,083	-0,007
-185,358	272,930	-0,043	-0,055
-184,344	-200,000	-0,004	0,020
-183,329	-200,000	0,033	0,130
-182,315	800,000	-0,067	0,146
-181,300	3,331	0,107	0,056
-180,285	-200,000	0,016	-0,141
-179,271	800,000	0,055	-0,119
-178,256	-143,607	-0,103	0,007
-177,242	188,991	0,019	-0,021
-176,227	240,994	0,013	0,016
-175,212	136,790	0,097	0,092
-174,198	115,956	-0,026	-0,023
-173,183	800,000	0,041	0,090
-172,169	800,000	-0,030	-0,081
-171,154	-200,000	-0,040	0,130
-170,139	-200,000	-0,021	0,106
-169,125	-28,290	-0,046	0,019
-168,110	-81,870	0,051	0,012
-167,096	-138,303	-0,074	0,006
-166,081	-200,000	0,008	-0,064
-165,066	51,645	-0,063	0,043
-164,052	-200,000	-0,009	0,078
-163,037	18,556	0,034	0,020
-162,023	-115,952	0,067	0,009
-161,008	-102,211	-0,021	0,004
-159,993	551,962	-0,018	0,032
-158,979	3,427	-0,144	0,076
-157,964	-200,000	-0,095	-0,305
-156,950	-66,217	-0,123	0,035
-155,935	-200,000	0,003	-0,016
-154,920	-33,494	-0,018	0,007
-153,906	-24,663	0,015	-0,006
-152,891	800,000	0,041	0,124
-151,877	3,739	-0,068	-0,036
-150,862	-200,000	-0,008	-0,125
-149,847	800,000	0,029	0,075
-148,833	-200,000	0,007	-0,089
-147,818	-200,000	-0,019	0,068
-146,804	-14,903	-0,040	0,019
-145,789	-200,000	0,009	0,032
-144,775	449,658	0,055	-0,088
-143,760	-200,000	-0,013	-0,112
-142,745	-200,000	0,013	-0,106
-141,731	30,745	-0,164	-0,101
-140,716	327,406	-0,082	0,114
-139,702	-146,641	0,177	0,011
-138,687	216,608	0,012	0,014
-137,672	-200,000	0,032	0,130
-136,658	800,000	0,037	0,081
-135,643	-102,504	-0,088	0,015
-134,629	-200,000	-0,016	0,076
-133,614	-169,456	0,222	-0,006
-132,599	-200,000	0,020	0,190
-131,585	800,000	0,020	0,050
-130,570	105,455	0,116	0,100
-129,556	-133,765	-0,120	0,011
-128,541	800,000	-0,019	0,051
-127,526	800,000	0,031	0,094
-126,512	17,019	-0,064	0,037
-125,497	109,440	0,006	0,006
-124,483	107,899	-0,096	-0,083
-123,468	14,085	-0,097	0,054
-122,453	-48,096	0,044	0,015
-121,439	1,708	0,096	-0,050
-120,424	58,489	0,007	-0,005
-119,410	-200,000	-0,000	-0,050
