DTS Sentinel unit serial number:	SN410029Multiplexer serial number:	ORYXHardware model number:	OX2-SRSoftware version number:	ORYX F/W v4,00 Oryx Data Collector v3.7.2.0data status	okinstallation	B4 Nyhavnadifferential loss correction	single-endedforward channel	channel 2reverse channel	N/Adate	2023/12/18time	14:45:13forward acquisition time	300,00reverse acquisition time	0,00gamma	499,1914k internal	0,3201k external	0,3201temperature offset calibration	1,0000default loss term (dB/km)	0,3820temperature slope calibration	1,0000multiplexer offset coefficient	1,0000multiplexer slope coefficient	1,0000fibre end	0,00T internal ref (°C)	8,43T ext. ref 1 (°C)	7,29T ext. ref 2 (°C)	7,36length (m)	temperature (°C)	Stokes	anti-Stokes-744,400	-74,563	0,336	0,087
-743,385	7,807	-0,478	-0,260
-742,371	511,885	0,125	0,212
-741,356	-37,035	-0,527	-0,204
-740,342	-30,131	0,224	0,092
-739,327	-95,742	-0,588	-0,113
-738,312	3,270	0,272	0,143
-737,298	-69,266	-0,536	-0,149
-736,283	-173,645	0,325	-0,007
-735,269	-88,161	-0,466	-0,101
-734,254	-58,723	0,198	0,062
-733,239	102,301	-0,548	-0,465
-732,225	-22,891	0,287	0,125
-731,210	-200,000	0,014	-0,082
-730,196	404,339	-0,146	-0,225
-729,181	557,026	0,028	-0,049
-728,167	-200,000	-0,004	-0,013
-727,152	-67,290	-0,145	-0,041
-726,137	486,939	-0,047	0,078
-725,123	-168,841	-0,125	0,003
-724,108	-200,000	-0,001	0,026
-723,094	124,681	-0,021	0,019
-722,079	-39,705	-0,158	-0,060
-721,064	37,172	0,025	-0,016
-720,050	527,654	0,039	0,067
-719,035	-200,000	0,000	-0,056
-718,021	-200,000	-0,001	0,128
-717,006	44,709	-0,018	-0,012
-715,991	485,278	-0,031	-0,052
-714,977	-200,000	-0,013	-0,146
-713,962	-200,000	0,009	0,084
-712,948	-174,462	0,064	0,001
-711,933	-11,203	0,084	-0,040
-710,918	233,359	-0,076	0,091
-709,904	277,695	0,078	-0,101
-708,889	9,969	-0,093	-0,051
-707,875	-200,000	0,006	-0,054
-706,860	90,705	-0,011	-0,009
-705,845	-130,384	0,109	0,011
-704,831	800,000	-0,003	-0,007
-703,816	-56,909	-0,100	0,032
-702,802	-26,199	-0,118	0,050
-701,787	127,199	-0,018	0,017
-700,772	75,868	-0,071	0,054
-699,758	-200,000	0,020	0,137
-698,743	55,277	0,104	0,073
-697,729	800,000	-0,071	0,163
-696,714	476,686	0,072	0,118
-695,699	-37,608	0,144	0,055
-694,685	4,584	-0,070	-0,037
-693,670	265,158	-0,041	0,052
-692,656	-116,324	0,082	0,011
-691,641	136,069	0,048	0,045
-690,627	-200,000	-0,020	0,068
-689,612	-23,326	-0,153	0,066
-688,597	800,000	0,033	0,074
-687,583	-200,000	-0,024	-0,080
-686,568	-200,000	0,031	-0,106
-685,554	-200,000	-0,011	-0,101
-684,539	32,411	0,084	0,053
-683,524	-7,229	-0,185	0,091
-682,510	178,337	-0,050	0,053
-681,495	800,000	-0,070	0,145
-680,481	800,000	0,027	-0,056
-679,466	800,000	0,038	0,098
-678,451	325,835	-0,058	-0,081
-677,437	800,000	0,028	-0,088
-676,422	17,328	-0,151	-0,087
-675,408	-200,000	0,018	0,076
-674,393	178,550	0,082	0,087
-673,378	-98,055	-0,155	-0,029
-672,364	511,192	-0,036	0,061
-671,349	-34,321	-0,059	0,023
-670,335	-111,125	0,091	-0,013
-669,320	-200,000	-0,047	-0,152
-668,305	-200,000	-0,003	0,093
-667,291	-46,316	-0,143	-0,051
-666,276	-200,000	0,009	0,070
-665,262	-109,340	-0,162	-0,025
-664,247	-33,341	-0,067	0,027
-663,232	95,684	0,022	-0,018
-662,218	-79,936	0,108	-0,026
-661,203	300,354	0,040	-0,054
-660,189	-47,050	-0,213	0,075
-659,174	-34,115	-0,044	-0,018
-658,159	6,943	-0,149	-0,080
-657,145	518,311	-0,011	0,020
-656,130	-92,231	0,117	-0,024
-655,116	794,412	0,053	-0,106
-654,101	121,875	0,163	0,148
-653,086	-134,053	-0,081	-0,007
-652,072	-200,000	-0,002	-0,060
-651,057	-200,000	-0,028	-0,095
-650,043	-54,230	-0,153	0,050
-649,028	-44,241	0,067	0,024
-648,014	-200,000	0,053	0,172
-646,999	-200,000	-0,013	-0,097
-645,984	-58,324	0,033	0,010
-644,970	490,499	-0,025	-0,041
-643,955	-2,989	-0,099	-0,050
-642,941	800,000	0,050	-0,122
-641,926	-26,485	0,055	-0,023
-640,911	800,000	-0,026	0,056
-639,897	-200,000	0,021	0,090
-638,882	800,000	-0,058	-0,133
-637,868	-106,092	0,069	0,011
-636,853	20,380	-0,057	-0,033
-635,838	800,000	-0,004	0,010
-634,824	374,921	-0,031	-0,047
-633,809	-54,508	-0,062	-0,020
-632,795	-200,000	0,002	0,043
-631,780	-79,455	-0,091	-0,022
-630,765	-141,565	0,045	-0,003
-629,751	24,562	-0,062	-0,037
-628,736	172,629	-0,054	-0,057
-627,722	211,715	-0,039	0,044
-626,707	800,000	-0,010	0,020
-625,692	-200,000	0,013	0,119
-624,678	-200,000	-0,023	0,129
-623,663	-111,909	-0,135	-0,020
-622,649	-63,140	0,167	-0,049
-621,634	59,278	0,022	-0,016
-620,619	-18,767	-0,122	-0,055
-619,605	-200,000	0,004	-0,022
-618,590	-200,000	-0,014	-0,086
-617,576	65,282	0,026	0,019
-616,561	-30,788	0,105	0,043
-615,546	-47,846	0,063	0,022
-614,532	800,000	-0,064	-0,147
-613,517	723,585	0,041	0,080
-612,503	109,800	-0,087	-0,075
-611,488	115,115	-0,086	0,076
-610,474	-43,255	-0,045	-0,017
-609,459	387,530	0,072	0,109
-608,444	-76,739	0,085	0,021
-607,430	800,000	-0,018	-0,049
-606,415	51,804	-0,136	0,093
-605,401	532,748	0,038	-0,066
-604,386	-200,000	0,007	-0,026
-603,371	198,235	-0,059	0,065
-602,357	11,216	0,046	0,025
-601,342	120,948	-0,117	-0,105
-600,328	39,682	-0,078	-0,050
-599,313	582,633	-0,042	-0,075
-598,298	-200,000	0,016	-0,139
-597,284	111,019	0,102	-0,089
-596,269	112,993	-0,008	0,007
-595,255	-200,000	0,006	-0,046
-594,240	143,757	0,015	0,014
-593,225	74,207	0,080	-0,060
-592,211	-200,000	0,017	-0,091
-591,196	-200,000	-0,004	-0,018
-590,182	-200,000	0,017	0,064
-589,167	9,428	-0,087	0,048
-588,152	2,460	0,060	-0,032
-587,138	366,034	0,035	0,052
-586,123	-200,000	-0,122	0,000
-585,109	-200,000	0,042	-0,193
-584,094	-152,607	0,062	-0,003
-583,079	-70,035	0,101	-0,028
-582,065	-200,000	-0,009	-0,138
-581,050	-155,513	0,073	-0,003
-580,036	588,329	-0,027	0,048
-579,021	-200,000	-0,006	0,020
-578,006	-110,505	-0,052	0,008
-576,992	-79,942	-0,091	0,022
-575,977	800,000	-0,036	0,074
-574,963	-200,000	0,028	0,116
-573,948	236,986	-0,063	0,076
-572,934	-200,000	-0,018	0,062
-571,919	121,418	-0,041	-0,037
-570,904	544,309	0,085	-0,148
-569,890	-158,479	-0,100	0,004
-568,875	800,000	-0,048	-0,114
-567,861	-200,000	-0,030	0,103
-566,846	-80,514	0,177	0,042
-565,831	434,181	-0,039	-0,061
-564,817	-200,000	-0,061	-0,229
-563,802	-74,249	0,076	0,020
-562,788	347,646	-0,058	0,083
-561,773	800,000	0,080	-0,180
-560,758	127,899	-0,125	-0,115
-559,744	-200,000	-0,010	0,043
-558,729	-200,000	0,003	-0,029
-557,715	-200,000	0,018	-0,075
-556,700	-74,753	0,078	0,020
-555,685	145,495	-0,081	0,078
-554,671	-200,000	0,027	0,088
-553,656	594,827	-0,025	-0,045
-552,642	416,418	0,060	-0,093
-551,627	46,423	-0,037	-0,024
-550,612	155,061	0,047	-0,046
-549,598	32,057	0,032	0,020
-548,583	-200,000	-0,022	0,131
-547,569	-60,658	0,033	0,010
-546,554	147,660	-0,049	0,048
-545,539	-200,000	-0,006	-0,062
-544,525	792,176	0,031	-0,061
-543,510	171,166	-0,089	-0,093
-542,496	-200,000	-0,013	-0,138
-541,481	-200,000	0,022	-0,075
-540,466	-200,000	0,006	0,087
-539,452	-200,000	0,019	-0,089
-538,437	-200,000	-0,029	0,114
-537,423	395,185	0,043	0,064
-536,408	209,020	0,049	-0,055
-535,393	-200,000	-0,013	0,050
-534,379	800,000	0,050	-0,132
-533,364	-132,750	-0,070	-0,006
-532,350	59,967	0,044	-0,031
-531,335	160,485	-0,070	0,070
-530,321	-200,000	-0,008	0,063
-529,306	159,945	0,024	-0,024
-528,291	-162,387	-0,132	0,005
-527,277	-200,000	-0,060	0,000
-526,262	221,722	0,026	0,030
-525,248	800,000	0,028	-0,085
-524,233	-200,000	-0,007	0,080
-523,218	315,535	0,030	-0,041
-522,204	-200,000	0,031	0,103
-521,189	442,960	0,031	-0,050
-520,175	-134,014	-0,083	-0,007
-519,160	242,239	-0,049	0,059
-518,145	246,100	-0,083	-0,101
-517,131	-135,311	0,057	0,005
-516,116	37,983	-0,029	-0,019
-515,102	-200,000	0,011	0,059
-514,087	-89,287	-0,190	-0,040
-513,072	800,000	0,035	0,110
-512,058	40,920	-0,032	0,021
-511,043	-200,000	0,003	0,010
-510,029	195,076	0,080	0,088
-509,014	-67,551	-0,098	-0,028
-507,999	800,000	-0,064	-0,136
-506,985	13,835	-0,194	-0,108
-505,970	409,241	-0,059	-0,091
-504,956	800,000	0,047	-0,115
-503,941	28,283	-0,047	-0,028
-502,926	-57,248	-0,151	0,048
-501,912	202,519	0,045	0,050
-500,897	146,288	-0,041	-0,039
-499,883	-50,612	-0,119	0,040
-498,868	-8,602	0,126	0,061
-497,853	-200,000	0,013	0,143
-496,839	-130,565	0,100	0,010
-495,824	-200,000	0,031	0,157
-494,810	-98,380	-0,027	0,005
-493,795	-200,000	-0,019	-0,081
-492,781	88,055	0,105	0,084
-491,766	22,047	-0,185	0,108
-490,751	608,987	0,051	0,092
-489,737	291,919	-0,046	-0,061
-488,722	591,686	0,047	-0,083
-487,708	-10,164	0,121	-0,058
-486,693	-200,000	0,003	0,054
-485,678	5,712	-0,105	-0,055
-484,664	-200,000	-0,019	-0,135
-483,649	800,000	-0,054	-0,138
-482,635	800,000	0,050	0,102
-481,620	-183,713	0,064	0,001
-480,605	135,147	-0,060	0,056
-479,591	-200,000	-0,021	0,094
-478,576	48,413	-0,044	-0,030
-477,562	-200,000	0,043	-0,143
-476,547	-133,350	-0,086	0,008
-475,532	12,558	0,089	0,049
-474,518	204,942	0,041	-0,046
-473,503	-200,000	0,002	-0,043
-472,489	-200,000	-0,001	0,096
-471,474	-114,490	0,075	0,010
-470,459	320,275	-0,024	0,033
-469,445	-98,948	-0,130	0,024
-468,430	-78,903	-0,071	-0,017
-467,416	277,908	-0,084	0,108
-466,401	-177,157	0,080	0,001
-465,386	-200,000	0,025	0,158
-464,372	433,449	-0,056	0,087
-463,357	-200,000	-0,019	-0,073
-462,343	-14,828	0,071	-0,033
-461,328	-100,080	-0,136	0,024
-460,313	-85,722	0,073	-0,016
-459,299	-149,736	0,171	0,010
-458,284	-200,000	0,098	0,000
-457,270	800,000	0,008	0,017
-456,255	337,893	-0,110	-0,154
-455,241	-83,016	0,053	-0,012
-454,226	626,300	-0,029	0,053
-453,211	-102,944	0,036	0,006
-452,197	21,269	0,124	0,072
-451,182	-71,746	-0,013	0,004
-450,168	-200,000	0,011	0,093
-449,153	-200,000	-0,000	0,089
-448,138	196,112	-0,092	-0,101
-447,124	127,605	0,128	0,117
-446,109	-75,242	0,059	-0,015
-445,095	-140,956	0,068	0,005
-444,080	-25,246	0,096	0,040
-443,065	254,647	-0,022	0,027
-442,051	-72,225	-0,076	-0,020
-441,036	-144,442	0,021	-0,001
-440,022	-120,635	-0,073	-0,009
-439,007	-153,311	0,160	0,008
-437,992	107,330	0,108	0,092
-436,978	17,114	-0,058	-0,033
-435,963	111,250	-0,081	0,070
-434,949	-141,281	-0,065	0,005
-433,934	-200,000	0,018	-0,069
-432,919	491,003	0,005	-0,007
-431,905	-30,078	-0,044	0,018
-430,890	-15,497	0,071	0,033
-429,876	-67,084	-0,135	0,038
-428,861	-35,345	0,162	-0,063
-427,846	358,915	0,024	0,034
-426,832	-12,615	-0,095	-0,044
-425,817	259,463	0,081	-0,100
-424,803	212,886	-0,052	0,060
-423,788	-200,000	0,006	0,061
-422,773	164,946	-0,048	-0,049
-421,759	49,849	-0,105	-0,071
-420,744	-127,219	0,057	-0,006
-419,730	27,379	-0,053	-0,032
-418,715	-102,347	-0,139	-0,024
-417,701	-59,346	-0,062	-0,019
-416,686	800,000	0,012	0,032
-415,671	-200,000	-0,003	0,082
-414,657	-21,653	-0,104	-0,045
-413,642	66,951	-0,082	0,060
-412,628	346,316	0,011	0,016
-411,613	53,192	-0,094	0,065
-410,598	187,160	0,045	-0,049
-409,584	-200,000	-0,001	0,068
-408,569	-121,302	-0,077	-0,009
-407,555	-200,000	-0,008	0,095
-406,540	111,793	0,089	0,077
-405,525	-57,954	0,055	-0,017
-404,511	-96,612	-0,201	-0,038
-403,496	25,359	-0,036	0,021
-402,482	-84,903	0,045	-0,010
-401,467	-200,000	0,002	-0,012
-400,452	-200,000	0,004	0,027
-399,438	475,119	-0,036	-0,059
-398,423	202,209	-0,002	-0,002
-397,409	-96,382	-0,141	-0,027
-396,394	252,399	-0,076	-0,093
-395,379	203,692	0,021	-0,024
-394,365	36,848	0,069	0,044
-393,350	187,026	0,077	-0,082
-392,336	427,794	0,056	-0,086
-391,321	341,889	-0,041	-0,057
-390,306	11,753	0,113	-0,062
-389,292	-93,875	-0,082	0,016
-388,277	225,255	-0,055	-0,064
-387,263	38,407	-0,014	-0,009
-386,248	-32,081	-0,035	0,014
-385,233	-200,000	0,010	0,097
-384,219	-95,741	0,026	-0,005
-383,204	-200,000	0,014	-0,151
-382,190	-107,981	0,144	0,022
-381,175	-173,677	-0,026	-0,001
-380,160	-200,000	0,039	-0,174
-379,146	-200,000	-0,009	0,071
-378,131	92,731	-0,130	-0,105
-377,117	800,000	0,038	0,084
-376,102	-12,452	0,072	-0,034
-375,088	104,229	-0,154	-0,130
-374,073	-200,000	-0,002	-0,059
-373,058	-200,000	0,036	0,126
-372,044	33,250	0,066	-0,041
-371,029	-200,000	0,007	-0,033
-370,015	800,000	0,025	-0,073
-369,000	-200,000	0,016	0,078
-367,985	800,000	-0,037	-0,105
-366,971	226,991	-0,060	0,070
-365,956	800,000	0,087	0,188
-364,942	78,000	-0,051	-0,039
-363,927	644,190	0,045	-0,083
-362,912	-82,456	-0,110	-0,025
-361,898	-200,000	-0,029	-0,156
-360,883	-81,849	-0,043	0,010
-359,869	612,843	0,043	-0,078
-358,854	120,107	-0,127	-0,113
-357,839	-82,921	-0,087	-0,020
-356,825	634,974	0,059	0,107
-355,810	-107,265	0,100	-0,016
-354,796	800,000	0,002	-0,006
-353,781	360,995	-0,055	0,079
-352,766	-200,000	0,032	-0,131
-351,752	617,603	-0,041	0,075
-350,737	699,026	0,020	0,037
-349,723	-91,919	-0,073	-0,015
-348,708	-96,882	0,185	0,035
-347,693	384,900	-0,101	0,149
-346,679	800,000	-0,034	0,078
-345,664	535,725	-0,083	0,141
-344,650	226,690	-0,027	-0,032
-343,635	714,748	0,066	0,126
-342,620	39,220	-0,114	0,073
-341,606	-200,000	0,010	0,120
-340,591	-153,543	-0,035	0,002
-339,577	800,000	0,102	-0,287
-338,562	800,000	-0,005	-0,013
-337,548	340,551	-0,028	-0,039
-336,533	800,000	-0,031	0,079
-335,518	-200,000	0,006	-0,042
-334,504	213,739	0,055	-0,063
-333,489	-200,000	-0,028	-0,091
-332,475	264,296	0,061	-0,076
-331,460	-105,124	-0,179	0,029
-330,445	-200,000	-0,003	-0,064
-329,431	54,987	-0,049	0,033
-328,416	-200,000	0,006	0,029
-327,402	198,774	-0,131	0,144
-326,387	-8,530	0,069	-0,033
-325,372	190,440	-0,041	-0,044
-324,358	-200,000	0,019	-0,296
-323,343	-87,630	0,046	0,010
-322,329	481,124	0,034	0,056
-321,314	-16,107	-0,015	0,007
-320,299	-15,378	-0,105	0,048
-319,285	-17,021	-0,130	0,059
-318,270	-57,462	-0,116	0,036
-317,256	-85,411	-0,020	0,004
-316,241	180,480	0,045	0,047
-315,226	800,000	0,043	-0,088
-314,212	-200,000	0,002	0,017
-313,197	-200,000	-0,032	-0,134
-312,183	-200,000	0,009	-0,102
-311,168	-200,000	-0,027	-0,089
-310,153	800,000	0,013	-0,036
-309,139	-55,034	0,056	0,018
-308,124	251,915	-0,074	-0,090
-307,110	-129,660	0,061	0,006
-306,095	285,625	0,177	0,229
-305,080	-76,739	-0,126	-0,031
-304,066	-61,563	0,042	-0,012
-303,051	-200,000	0,001	-0,085
-302,037	-200,000	0,017	-0,086
-301,022	-200,000	0,036	0,117
-300,008	211,508	0,039	0,044
-298,993	-20,847	0,135	0,059
-297,978	81,232	-0,074	0,057
-296,964	319,178	0,119	-0,162
-295,949	289,395	0,032	0,042
-294,935	207,870	0,101	-0,113
-293,920	191,699	-0,080	0,086
-292,905	295,919	0,046	0,060
-291,891	800,000	0,047	-0,111
-290,876	-200,000	-0,055	0,215
-289,862	183,882	0,065	0,069
-288,847	127,786	-0,075	-0,068
-287,832	800,000	-0,043	0,123
-286,818	800,000	0,034	-0,086
-285,803	-200,000	-0,011	0,169
-284,789	11,919	0,106	0,058
-283,774	168,958	-0,086	0,087
-282,759	-149,661	-0,091	-0,005
-281,745	442,715	0,049	-0,077
-280,730	205,653	-0,026	-0,029
-279,716	257,598	0,088	0,109
-278,701	158,029	0,126	0,125
-277,686	197,694	0,095	0,104
-276,672	-52,934	-0,097	-0,032
-275,657	-81,501	0,074	0,017
-274,643	800,000	0,028	-0,086
-273,628	105,847	0,026	0,022
-272,613	131,859	0,094	0,087
-271,599	553,094	-0,012	-0,021
-270,584	-200,000	-0,011	0,076
-269,570	517,349	0,135	0,226
-268,555	-111,086	-0,157	0,023
-267,540	87,187	0,157	0,124
-266,526	-113,188	0,120	-0,017
-265,511	-61,273	-0,116	-0,035
-264,497	800,000	-0,024	-0,071
-263,482	12,913	0,128	0,070
-262,467	-200,000	0,007	0,126
-261,453	83,823	0,055	0,042
-260,438	12,814	-0,119	-0,066
-259,424	70,173	0,080	0,059
-258,409	-100,346	-0,030	-0,005
-257,395	69,402	0,072	-0,053
-256,380	-161,341	-0,024	-0,001
-255,365	699,734	0,031	0,058
-254,351	-28,395	-0,031	-0,013
-253,336	-13,672	-0,031	-0,014
-252,322	800,000	-0,030	-0,081
-251,307	154,145	0,062	-0,060
-250,292	-23,066	0,049	-0,021
-249,278	-52,413	0,074	-0,024
-248,263	176,073	0,068	-0,071
-247,249	800,000	0,016	0,051
-246,234	-117,220	-0,035	0,005
-245,219	-200,000	0,001	-0,017
-244,205	4,302	-0,084	-0,044
-243,190	357,623	-0,056	0,079
-242,176	-200,000	0,003	0,059
-241,161	-200,000	-0,004	-0,205
-240,146	-200,000	-0,006	-0,029
-239,132	-16,934	-0,019	-0,009
-238,117	63,576	0,156	0,111
-237,103	482,710	-0,040	-0,066
-236,088	800,000	-0,061	-0,140
-235,073	24,004	0,090	0,053
-234,059	60,509	0,022	0,016
-233,044	126,099	0,107	0,097
-232,030	-200,000	-0,011	0,125
-231,015	-200,000	0,009	-0,206
-230,000	23,757	-0,043	0,025
-228,986	44,548	0,107	0,070
-227,971	-200,000	0,014	-0,133
-226,957	-78,133	0,029	0,007
-225,942	20,953	-0,060	0,035
-224,927	25,553	-0,061	-0,036
-223,913	651,519	-0,039	-0,071
-222,898	156,008	0,018	-0,017
-221,884	1,155	0,098	-0,050
-220,869	-107,528	0,112	0,017
-219,855	-130,741	0,094	-0,009
-218,840	800,000	-0,036	-0,101
-217,825	151,940	0,119	0,116
-216,811	596,685	-0,017	-0,030
-215,796	-90,853	0,024	-0,005
-214,782	332,680	0,007	0,010
-213,767	-115,116	-0,080	-0,011
-212,752	110,160	-0,163	0,139
-211,738	324,887	0,073	0,099
-210,723	-18,949	-0,022	0,009
-209,709	-165,732	0,133	0,004
-208,694	-18,337	0,100	-0,044
-207,679	-200,000	0,022	0,139
-206,665	-200,000	-0,013	-0,055
-205,650	78,120	0,053	0,040
-204,636	153,408	0,124	0,121
-203,621	683,510	0,040	0,074
-202,606	-31,507	0,136	0,054
-201,592	68,444	0,010	0,007
-200,577	11,500	-0,091	-0,050
-199,563	-200,000	0,016	0,103
-198,548	800,000	-0,012	0,036
-197,533	4,459	0,040	0,021
-196,519	800,000	-0,034	0,095
-195,504	-200,000	-0,010	0,094
-194,490	-200,000	-0,029	-0,133
-193,475	-141,714	0,142	-0,010
-192,460	129,395	0,185	-0,168
-191,446	800,000	0,021	-0,054
-190,431	-10,692	-0,019	-0,009
-189,417	-86,984	0,067	-0,014
-188,402	64,561	-0,145	0,104
-187,387	-200,000	-0,004	0,104
-186,373	370,012	0,073	-0,106
-185,358	283,340	-0,056	-0,071
-184,344	-73,092	0,053	0,014
-183,329	19,927	0,061	0,035
-182,315	72,616	-0,054	0,040
-181,300	-71,989	-0,035	-0,009
-180,285	800,000	0,036	-0,072
-179,271	-67,168	-0,164	-0,046
-178,256	-189,422	0,079	0,001
-177,242	-200,000	-0,039	0,166
-176,227	-98,276	0,076	0,014
-175,212	-72,784	0,180	-0,047
-174,198	-67,736	-0,102	0,028
-173,183	286,231	0,032	0,041
-172,169	-200,000	0,015	0,098
-171,154	-90,634	-0,065	-0,013
-170,139	800,000	-0,030	-0,092
-169,125	203,075	-0,067	0,074
-168,110	-200,000	0,004	0,045
-167,096	-184,381	-0,039	0,000
-166,081	133,641	-0,060	-0,055
-165,066	-101,901	0,147	-0,025
-164,052	800,000	0,038	-0,078
-163,037	262,985	-0,025	0,031
-162,023	127,762	0,083	0,075
-161,008	-107,755	0,075	0,012
-159,993	-74,991	0,077	0,019
-158,979	-58,319	0,045	0,014
-157,964	1,321	-0,103	0,053
-156,950	14,163	-0,054	0,030
-155,935	81,696	0,047	-0,037
-154,920	800,000	-0,043	0,108
-153,906	-83,431	0,064	0,014
-152,891	-31,653	-0,106	-0,042
-151,877	62,070	-0,102	0,072
-150,862	655,428	-0,018	0,034
-149,847	164,058	-0,044	0,044
-148,833	607,249	-0,086	-0,153
-147,818	800,000	0,026	-0,052
-146,804	-74,780	-0,122	0,031
-145,789	-112,362	-0,026	-0,004
-144,775	-200,000	0,003	0,062
-143,760	-200,000	-0,006	-0,032
-142,745	97,430	0,037	-0,030
-141,731	-48,759	-0,128	0,044
-140,716	-200,000	-0,031	-0,130
-139,702	-200,000	-0,004	0,021
-138,687	794,354	-0,014	0,027
-137,672	141,786	-0,043	-0,040
-136,658	-35,037	-0,152	-0,059
-135,643	-73,524	0,063	0,016
-134,629	314,176	-0,054	-0,073
-133,614	-200,000	0,028	0,109
-132,599	-171,225	-0,074	0,002
-131,585	-62,072	0,151	-0,044
-130,570	9,296	-0,080	-0,043
-129,556	105,009	-0,054	0,045
-128,541	-200,000	-0,006	-0,098
-127,526	-200,000	-0,026	-0,085
-126,512	800,000	-0,048	-0,113
-125,497	170,245	0,078	0,079
-124,483	-96,937	0,066	-0,012
-123,468	183,419	-0,047	0,049
-122,453	-28,957	-0,070	0,028
-121,439	-123,267	-0,029	-0,003
-120,424	-1,644	-0,108	0,054
-119,410	-192,622	0,069	-0,000
