DTS Sentinel unit serial number:	SN410029Multiplexer serial number:	ORYXHardware model number:	OX2-SRSoftware version number:	ORYX F/W v4,00 Oryx Data Collector v3.7.2.0data status	okinstallation	B4 Nyhavnadifferential loss correction	single-endedforward channel	channel 2reverse channel	N/Adate	2023/12/18time	17:35:13forward acquisition time	300,00reverse acquisition time	0,00gamma	499,1914k internal	0,3125k external	0,3125temperature offset calibration	1,0000default loss term (dB/km)	0,3820temperature slope calibration	1,0000multiplexer offset coefficient	1,0000multiplexer slope coefficient	1,0000fibre end	0,00T internal ref (°C)	21,74T ext. ref 1 (°C)	7,21T ext. ref 2 (°C)	7,24length (m)	temperature (°C)	Stokes	anti-Stokes-744,400	-200,000	-0,029	0,170
-743,385	-53,865	-0,215	0,073
-742,371	-200,000	-0,005	-0,036
-741,356	-23,697	-0,194	0,086
-740,342	-200,000	-0,034	-0,144
-739,327	0,994	-0,284	0,151
-738,312	-200,000	-0,015	0,060
-737,298	-69,957	-0,328	0,092
-736,283	800,000	-0,032	-0,094
-735,269	143,969	-0,194	0,193
-734,254	-200,000	0,002	0,105
-733,239	-124,346	-0,428	0,049
-732,225	119,478	0,068	-0,063
-731,210	-200,000	0,026	0,101
-730,196	-4,594	-0,111	0,057
-729,181	68,679	-0,125	-0,095
-728,167	800,000	-0,021	-0,047
-727,152	-200,000	-0,030	-0,157
-726,137	690,932	-0,085	-0,167
-725,123	223,791	-0,062	-0,074
-724,108	84,259	-0,055	-0,045
-723,094	-72,889	-0,130	-0,035
-722,079	37,176	-0,083	-0,054
-721,064	800,000	-0,036	0,081
-720,050	85,573	0,078	-0,064
-719,035	757,315	0,048	0,097
-718,021	22,362	0,056	-0,034
-717,006	192,754	-0,058	-0,065
-715,991	-200,000	0,040	-0,225
-714,977	-200,000	-0,034	0,000
-713,962	-200,000	0,020	-0,092
-712,948	158,456	0,072	-0,074
-711,933	190,272	-0,105	0,118
-710,918	-92,529	-0,097	0,020
-709,904	800,000	-0,018	-0,050
-708,889	27,063	-0,116	0,072
-707,875	-61,745	-0,131	0,040
-706,860	-200,000	-0,034	0,179
-705,845	-115,947	0,048	-0,007
-704,831	-200,000	-0,003	0,033
-703,816	227,271	-0,078	-0,095
-702,802	-200,000	-0,034	-0,169
-701,787	-200,000	0,002	0,028
-700,772	46,323	-0,084	-0,058
-699,758	-200,000	-0,007	0,141
-698,743	-45,453	0,052	0,019
-697,729	-144,377	0,076	0,005
-696,714	236,829	0,027	-0,034
-695,699	531,701	-0,078	-0,137
-694,685	798,918	0,012	-0,024
-693,670	-200,000	-0,016	-0,127
-692,656	327,654	0,046	-0,065
-691,641	155,259	0,075	0,077
-690,627	800,000	-0,027	0,057
-689,612	45,631	-0,011	-0,008
-688,597	88,829	-0,117	-0,097
-687,583	-98,016	-0,152	-0,029
-686,568	-116,457	-0,103	0,014
-685,554	44,052	-0,042	-0,029
-684,539	64,576	0,134	-0,100
-683,524	800,000	0,036	0,097
-682,510	17,342	0,057	-0,034
-681,495	800,000	-0,040	0,105
-680,481	-200,000	-0,015	-0,109
-679,466	156,452	-0,070	-0,072
-678,451	185,387	0,017	-0,019
-677,437	800,000	-0,035	-0,105
-676,422	25,748	-0,100	-0,062
-675,408	408,923	-0,035	0,055
-674,393	-77,893	0,144	-0,037
-673,378	800,000	-0,018	0,043
-672,364	398,730	0,048	0,074
-671,349	301,782	-0,014	0,019
-670,335	800,000	-0,092	-0,207
-669,320	-200,000	0,004	-0,051
-668,305	-200,000	-0,015	-0,094
-667,291	81,337	-0,074	0,059
-666,276	-200,000	0,017	-0,072
-665,262	-105,981	-0,138	-0,023
-664,247	-14,636	-0,050	-0,024
-663,232	-160,972	0,098	0,004
-662,218	800,000	-0,028	0,074
-661,203	800,000	0,035	0,077
-660,189	235,205	0,029	0,036
-659,174	800,000	0,018	-0,059
-658,159	204,695	-0,139	0,160
-657,145	-45,999	-0,081	0,030
-656,130	148,544	-0,082	0,082
-655,116	800,000	-0,042	-0,128
-654,101	-10,667	-0,090	-0,044
-653,086	179,858	-0,067	0,073
-652,072	-200,000	-0,031	-0,137
-651,057	208,925	-0,064	0,074
-650,043	-200,000	0,006	-0,030
-649,028	71,770	-0,082	0,063
-648,014	-52,831	-0,114	-0,039
-646,999	800,000	-0,050	0,146
-645,984	800,000	-0,007	-0,016
-644,970	-162,565	-0,157	-0,006
-643,955	800,000	-0,017	-0,050
-642,941	800,000	-0,006	0,017
-641,926	109,330	0,019	-0,017
-640,911	142,174	0,132	0,130
-639,897	800,000	0,015	-0,041
-638,882	-200,000	-0,037	-0,122
-637,868	800,000	-0,102	-0,227
-636,853	267,298	-0,038	0,049
-635,838	136,422	0,172	0,166
-634,824	100,810	-0,134	-0,116
-633,809	80,123	-0,064	0,051
-632,795	-200,000	0,009	-0,111
-631,780	502,550	0,016	-0,028
-630,765	48,416	0,083	0,058
-629,751	-18,501	-0,202	0,093
-628,736	800,000	-0,040	-0,122
-627,722	-94,902	-0,200	-0,040
-626,707	-5,511	0,010	-0,005
-625,692	130,289	-0,128	0,122
-624,678	-200,000	-0,017	0,197
-623,663	203,740	0,026	0,029
-622,649	800,000	-0,024	-0,077
-621,634	260,094	-0,070	-0,090
-620,619	505,781	-0,015	0,026
-619,605	-49,985	0,026	0,009
-618,590	-66,695	-0,038	-0,011
-617,576	-200,000	0,025	0,095
-616,561	292,672	-0,051	-0,069
-615,546	382,321	0,033	0,051
-614,532	-103,520	0,163	-0,028
-613,517	-75,419	0,049	0,013
-612,503	800,000	0,012	-0,025
-611,488	-200,000	-0,021	0,073
-610,474	43,230	-0,109	-0,074
-609,459	-200,000	-0,012	0,041
-608,444	800,000	-0,062	0,151
-607,430	375,176	0,032	-0,049
-606,415	62,627	-0,141	-0,104
-605,401	-121,570	-0,094	0,011
-604,386	120,761	0,173	0,160
-603,371	-9,474	0,080	-0,039
-602,357	-97,478	-0,061	-0,012
-601,342	35,821	-0,136	-0,088
-600,328	71,720	-0,048	-0,037
-599,313	-148,726	0,093	-0,005
-598,298	18,253	-0,139	-0,082
-597,284	106,376	0,102	0,090
-596,269	-61,356	0,087	0,027
-595,255	308,541	0,025	-0,035
-594,240	-118,275	0,039	0,005
-593,225	800,000	-0,036	-0,109
-592,211	570,453	-0,050	-0,091
-591,196	127,367	-0,098	0,092
-590,182	-5,742	-0,026	0,013
-589,167	800,000	0,043	-0,101
-588,152	344,183	0,056	0,081
-587,138	800,000	0,017	-0,034
-586,123	800,000	-0,017	-0,042
-585,109	-61,513	-0,053	-0,016
-584,094	-200,000	-0,007	-0,042
-583,079	64,172	0,142	0,106
-582,065	194,710	-0,061	0,069
-581,050	95,029	-0,106	0,089
-580,036	34,159	-0,029	-0,018
-579,021	800,000	-0,054	-0,156
-578,006	212,323	-0,125	-0,146
-576,992	-138,716	0,050	-0,004
-575,977	23,601	0,040	0,024
-574,963	-200,000	0,012	0,080
-573,948	800,000	-0,040	0,123
-572,934	-200,000	0,018	-0,143
-571,919	-61,811	-0,177	-0,055
-570,904	129,360	-0,040	0,038
-569,890	356,930	-0,047	0,070
-568,875	-103,493	-0,051	-0,009
-567,861	-124,570	-0,071	-0,008
-566,846	800,000	0,048	0,102
-565,831	-47,551	-0,111	0,040
-564,817	-94,401	-0,240	0,048
-563,802	-59,196	0,079	-0,025
-562,788	467,712	-0,079	-0,131
-561,773	-128,576	-0,087	-0,009
-560,758	589,532	-0,040	0,073
-559,744	146,988	0,079	0,079
-558,729	-78,987	0,099	-0,025
-557,715	7,645	-0,108	0,059
-556,700	53,294	0,014	-0,010
-555,685	191,104	0,102	-0,114
-554,671	79,855	-0,015	-0,012
-553,656	-3,383	-0,122	0,062
-552,642	800,000	0,021	0,045
-551,627	-200,000	-0,014	0,077
-550,612	-74,355	-0,099	-0,026
-549,598	492,859	0,086	-0,146
-548,583	281,382	-0,042	0,055
-547,569	800,000	-0,005	-0,012
-546,554	-82,851	-0,088	0,021
-545,539	-89,144	-0,076	0,016
-544,525	-124,533	0,037	-0,004
-543,510	467,495	-0,088	-0,147
-542,496	-200,000	0,027	-0,122
-541,481	144,475	-0,044	0,044
-540,466	800,000	0,045	-0,119
-539,452	-200,000	-0,015	-0,061
-538,437	-78,858	0,060	0,015
-537,423	27,127	-0,098	0,061
-536,408	800,000	-0,059	-0,163
-535,393	284,538	0,036	0,048
-534,379	144,149	-0,028	-0,028
-533,364	290,012	0,023	-0,030
-532,350	800,000	-0,059	0,125
-531,335	800,000	0,023	0,055
-530,321	-81,446	0,144	-0,035
-529,306	-67,360	-0,067	0,019
-528,291	299,656	0,049	-0,066
-527,277	15,704	0,140	-0,081
-526,262	55,700	0,052	0,037
-525,248	466,084	0,045	-0,074
-524,233	-200,000	0,001	0,023
-523,218	800,000	0,057	0,120
-522,204	-200,000	0,022	0,132
-521,189	118,711	-0,037	0,034
-520,175	20,587	0,073	-0,044
-519,160	80,899	-0,042	0,034
-518,145	448,682	0,035	-0,056
-517,131	51,695	0,040	0,028
-516,116	-200,000	-0,023	-0,089
-515,102	-200,000	-0,001	0,070
-514,087	-15,093	0,049	0,023
-513,072	-75,026	-0,054	-0,014
-512,058	-200,000	-0,023	-0,147
-511,043	800,000	-0,042	-0,117
-510,029	-200,000	-0,035	0,146
-509,014	-46,686	0,078	0,028
-507,999	24,644	-0,041	0,025
-506,985	800,000	-0,010	0,031
-505,970	90,401	-0,071	0,058
-504,956	98,384	-0,049	-0,041
-503,941	-200,000	-0,007	-0,117
-502,926	-129,820	0,062	0,006
-501,912	800,000	0,025	-0,070
-500,897	73,684	0,093	-0,072
-499,883	-24,106	-0,046	-0,020
-498,868	-2,121	0,044	0,023
-497,853	-1,443	0,030	0,016
-496,839	-200,000	0,002	-0,062
-495,824	44,162	-0,054	0,037
-494,810	-37,662	0,054	0,021
-493,795	347,307	0,089	-0,130
-492,781	-42,261	0,094	-0,035
-491,766	302,295	-0,012	-0,017
-490,751	-101,196	-0,104	-0,019
-489,737	-114,532	-0,049	-0,007
-488,722	145,891	-0,032	0,032
-487,708	617,536	0,020	0,037
-486,693	-44,233	-0,009	-0,003
-485,678	-200,000	-0,006	0,130
-484,664	-171,807	0,049	0,001
-483,649	800,000	0,023	-0,049
-482,635	-200,000	-0,024	0,143
-481,620	-24,048	0,086	-0,038
-480,605	-104,298	0,186	0,032
-479,591	325,065	-0,072	0,102
-478,576	328,783	0,046	-0,066
-477,562	-200,000	0,005	-0,089
-476,547	259,664	-0,052	-0,067
-475,532	18,965	-0,085	-0,050
-474,518	-200,000	0,032	0,121
-473,503	800,000	0,054	0,158
-472,489	406,212	-0,052	0,081
-471,474	26,333	0,036	-0,022
-470,459	800,000	-0,021	0,045
-469,445	7,810	-0,139	-0,077
-468,430	-119,732	0,126	-0,016
-467,416	-147,973	-0,036	0,002
-466,401	-36,437	0,074	-0,029
-465,386	738,020	0,024	0,048
-464,372	26,327	0,053	0,033
-463,357	-200,000	0,015	-0,142
-462,343	800,000	-0,048	-0,122
-461,328	800,000	0,036	0,079
-460,313	-62,612	0,106	0,032
-459,299	166,614	0,134	0,140
-458,284	115,916	0,075	-0,067
-457,270	-200,000	0,007	0,100
-456,255	184,306	-0,071	-0,077
-455,241	219,712	0,051	0,060
-454,226	479,582	0,016	-0,026
-453,211	-200,000	0,023	0,097
-452,197	-112,342	0,098	0,014
-451,182	-35,018	0,063	-0,025
-450,168	800,000	-0,047	-0,115
-449,153	-93,764	0,018	0,004
-448,138	-31,607	-0,123	-0,050
-447,124	182,546	0,094	-0,103
-446,109	-200,000	-0,014	0,105
-445,095	-155,026	-0,137	0,006
-444,080	253,942	-0,080	0,101
-443,065	-139,931	0,106	0,008
-442,051	43,150	0,021	-0,014
-441,036	257,249	-0,048	-0,060
-440,022	-200,000	0,009	-0,114
-439,007	-8,895	-0,084	0,041
-437,992	-66,263	-0,011	0,003
-436,978	-109,691	-0,054	0,008
-435,963	800,000	-0,056	0,118
-434,949	-112,490	-0,125	0,018
-433,934	800,000	0,080	0,210
-432,919	81,434	0,067	-0,053
-431,905	-61,917	0,084	-0,026
-430,890	48,281	0,110	0,076
-429,876	-200,000	0,021	-0,075
-428,861	441,829	0,044	0,071
-427,846	-200,000	0,007	0,088
-426,832	33,756	-0,082	0,052
-425,817	-93,039	-0,020	0,004
-424,803	-190,951	0,160	0,001
-423,788	-200,000	-0,010	0,063
-422,773	-200,000	0,047	0,164
-421,759	-98,295	0,078	0,015
-420,744	76,593	-0,102	0,079
-419,730	99,086	-0,075	-0,064
-418,715	-200,000	-0,037	0,182
-417,701	681,375	0,036	-0,070
-416,686	287,376	0,071	-0,094
-415,671	-200,000	-0,003	0,090
-414,657	273,689	-0,084	0,109
-413,642	800,000	-0,051	0,114
-412,628	-142,421	-0,053	0,004
-411,613	-71,816	-0,033	-0,009
-410,598	800,000	-0,047	-0,108
-409,584	175,478	0,036	0,039
-408,569	-102,132	0,059	0,010
-407,555	-200,000	0,005	0,107
-406,540	116,142	-0,047	0,042
-405,525	-200,000	0,002	0,105
-404,511	-200,000	0,000	0,038
-403,496	22,271	-0,041	0,025
-402,482	-34,765	0,099	0,040
-401,467	30,738	-0,140	-0,088
-400,452	-200,000	-0,036	0,131
-399,438	-135,496	0,058	-0,005
-398,423	-94,836	-0,092	0,018
-397,409	124,947	-0,096	-0,089
-396,394	449,577	-0,050	-0,081
-395,379	700,887	0,046	-0,090
-394,365	-200,000	0,018	-0,076
-393,350	-80,908	0,073	-0,018
-392,336	-200,000	-0,026	-0,090
-391,321	98,271	0,091	-0,077
-390,306	271,417	-0,125	-0,162
-389,292	84,324	-0,192	-0,154
-388,277	16,967	0,041	0,024
-387,263	200,558	0,071	0,080
-386,248	-200,000	0,004	-0,036
-385,233	-131,208	-0,079	0,008
-384,219	-200,000	-0,045	-0,177
-383,204	417,253	-0,072	-0,114
-382,190	-200,000	-0,039	-0,183
-381,175	-98,323	0,083	0,015
-380,160	-200,000	0,010	-0,058
-379,146	-102,428	-0,102	0,018
-378,131	-200,000	0,035	0,174
-377,117	-196,572	-0,130	0,001
-376,102	-200,000	0,014	-0,199
-375,088	-200,000	0,026	-0,125
-374,073	71,099	0,187	-0,142
-373,058	-200,000	0,013	0,144
-372,044	-200,000	0,004	-0,022
-371,029	36,179	0,025	-0,016
-370,015	800,000	-0,033	0,081
-369,000	-126,857	0,060	-0,006
-367,985	379,250	-0,089	-0,135
-366,971	343,302	0,021	0,031
-365,956	161,664	0,071	0,073
-364,942	-79,107	0,139	-0,034
-363,927	-12,167	0,026	0,013
-362,912	115,996	0,034	0,031
-361,898	800,000	0,036	0,085
-360,883	800,000	-0,040	-0,096
-359,869	32,479	0,041	0,026
-358,854	-200,000	-0,003	0,054
-357,839	123,317	0,098	0,090
-356,825	-134,518	0,171	-0,015
-355,810	800,000	0,042	-0,112
-354,796	181,188	0,039	-0,042
-353,781	-200,000	-0,026	0,106
-352,766	531,009	0,048	-0,083
-351,752	-133,917	-0,083	0,007
-350,737	320,179	-0,051	-0,071
-349,723	155,846	0,115	0,116
-348,708	12,035	-0,032	0,018
-347,693	800,000	0,039	-0,101
-346,679	-117,825	0,073	0,009
-345,664	-200,000	0,005	0,023
-344,650	800,000	-0,017	-0,035
-343,635	240,406	0,034	0,042
-342,620	112,777	0,111	0,098
-341,606	-44,181	0,043	-0,016
-340,591	-200,000	-0,015	0,058
-339,577	800,000	0,026	-0,055
-338,562	172,069	-0,067	-0,071
-337,548	-200,000	0,004	0,016
-336,533	800,000	-0,039	-0,081
-335,518	87,735	0,089	-0,073
-334,504	160,657	0,036	-0,037
-333,489	349,733	-0,028	-0,040
-332,475	-66,931	-0,173	0,050
-331,460	138,718	-0,072	-0,070
-330,445	554,875	0,030	-0,054
-329,431	66,628	0,090	-0,067
-328,416	50,525	0,153	0,106
-327,402	680,503	-0,032	0,062
-326,387	-69,801	-0,149	-0,041
-325,372	-200,000	0,011	-0,063
-324,358	-124,004	-0,122	0,014
-323,343	142,983	-0,037	-0,036
-322,329	-75,570	0,127	-0,033
-321,314	82,052	0,108	0,086
-320,299	48,630	-0,116	-0,080
-319,285	129,249	-0,090	-0,084
-318,270	-200,000	0,040	-0,000
-317,256	-7,726	0,019	0,009
-316,241	800,000	-0,013	0,029
-315,226	514,568	0,070	-0,120
-314,212	-200,000	0,007	0,046
-313,197	-6,132	0,170	-0,085
-312,183	7,818	0,030	-0,016
-311,168	198,965	-0,146	-0,163
-310,153	-69,010	0,113	0,032
-309,139	277,433	0,009	-0,012
-308,124	-99,315	0,065	0,012
-307,110	-46,810	-0,103	0,037
-306,095	-200,000	-0,008	-0,057
-305,080	-200,000	-0,009	0,058
-304,066	-14,881	0,082	-0,038
-303,051	800,000	0,022	-0,069
-302,037	-200,000	0,004	-0,023
-301,022	-200,000	0,004	0,019
-300,008	-26,621	0,095	0,040
-298,993	16,409	-0,093	0,054
-297,978	800,000	-0,007	-0,016
-296,964	110,454	0,025	-0,022
-295,949	800,000	0,013	0,040
-294,935	332,487	0,021	0,030
-293,920	800,000	0,042	0,086
-292,905	-97,861	-0,053	-0,010
-291,891	14,618	0,056	0,032
-290,876	147,909	0,039	0,038
-289,862	511,121	0,073	-0,125
-288,847	717,601	-0,070	-0,137
-287,832	0,945	-0,058	-0,030
-286,818	48,052	-0,072	0,049
-285,803	-200,000	0,007	0,117
-284,789	695,549	0,014	0,027
-283,774	800,000	-0,004	-0,011
-282,759	193,173	0,094	0,104
-281,745	800,000	0,036	0,084
-280,730	52,269	0,094	-0,065
-279,716	-107,578	0,131	-0,021
-278,701	-111,778	0,094	0,014
-277,686	-200,000	0,016	0,058
-276,672	-200,000	0,001	0,083
-275,657	-112,878	-0,075	0,011
-274,643	-14,160	-0,077	-0,036
-273,628	800,000	0,073	-0,214
-272,613	313,679	-0,086	0,119
-271,599	64,442	0,102	0,075
-270,584	-64,531	0,054	-0,016
-269,570	-200,000	0,023	0,084
-268,555	-200,000	0,019	0,097
-267,540	-128,207	-0,100	0,010
-266,526	-33,468	0,040	-0,016
-265,511	393,005	-0,052	0,079
-264,497	-42,800	0,112	0,041
-263,482	800,000	0,018	-0,048
-262,467	800,000	0,032	0,090
-261,453	793,231	-0,036	0,072
-260,438	230,065	-0,072	0,086
-259,424	-34,680	-0,069	-0,027
-258,409	49,934	-0,054	-0,037
-257,395	-42,770	0,086	-0,032
-256,380	326,367	-0,076	0,107
-255,365	800,000	0,027	-0,085
-254,351	124,751	-0,048	0,044
-253,336	148,513	0,074	0,073
-252,322	1,962	-0,048	0,025
-251,307	-200,000	0,010	-0,060
-250,292	800,000	0,045	-0,104
-249,278	144,543	0,071	0,069
-248,263	158,897	0,117	0,119
-247,249	-58,559	-0,089	-0,028
-246,234	-45,592	-0,123	-0,044
-245,219	-41,466	-0,055	-0,020
-244,205	-200,000	-0,023	-0,144
-243,190	21,616	0,087	0,051
-242,176	800,000	-0,026	0,076
-241,161	-79,252	0,008	-0,002
-240,146	-93,101	0,054	0,011
-239,132	-200,000	0,011	0,082
-238,117	800,000	0,026	-0,064
-237,103	-200,000	0,011	-0,119
-236,088	-93,389	0,059	-0,012
-235,073	-117,920	-0,092	-0,012
-234,059	299,600	0,049	-0,067
-233,044	-200,000	-0,005	0,096
-232,030	-200,000	-0,017	-0,098
-231,015	29,159	0,046	0,029
-230,000	-22,751	0,073	-0,032
-228,986	-200,000	0,006	0,057
-227,971	-200,000	-0,046	0,186
-226,957	190,244	-0,047	0,052
-225,942	-200,000	0,017	0,059
-224,927	-2,141	-0,068	0,035
-223,913	800,000	-0,022	-0,048
-222,898	-99,803	0,091	0,016
-221,884	800,000	-0,015	0,036
-220,869	-200,000	0,005	0,137
-219,855	800,000	0,045	0,112
-218,840	-60,093	0,111	-0,034
-217,825	159,944	-0,070	-0,071
-216,811	800,000	-0,062	-0,158
-215,796	431,355	-0,048	-0,076
-214,782	-65,995	0,050	0,014
-213,767	143,148	-0,058	0,056
-212,752	-71,753	0,158	0,043
-211,738	-200,000	-0,016	-0,106
-210,723	339,776	0,026	0,038
-209,709	9,752	0,113	0,063
-208,694	-76,631	0,112	-0,029
-207,679	310,458	0,046	0,063
-206,665	252,625	-0,049	-0,061
-205,650	786,407	-0,021	-0,041
-204,636	507,139	0,138	-0,234
-203,621	-172,720	0,154	-0,003
-202,606	75,759	-0,123	-0,095
-201,592	63,574	-0,042	0,030
-200,577	24,771	0,035	-0,021
-199,563	105,416	0,080	0,069
-198,548	-40,561	0,092	-0,035
-197,533	591,237	0,030	0,054
-196,519	233,409	-0,031	0,037
-195,504	-200,000	-0,023	-0,213
-194,490	747,561	-0,044	-0,087
-193,475	-200,000	-0,009	0,102
-192,460	121,007	-0,022	0,020
-191,446	-200,000	-0,006	0,122
-190,431	800,000	0,092	-0,225
-189,417	-200,000	-0,023	0,098
-188,402	86,011	-0,040	0,032
-187,387	772,919	0,052	-0,105
-186,373	-145,171	-0,084	0,005
-185,358	800,000	-0,028	-0,065
-184,344	120,026	0,060	-0,054
-183,329	800,000	0,042	0,097
-182,315	512,959	-0,060	0,103
-181,300	800,000	0,029	0,061
-180,285	-200,000	-0,027	0,088
-179,271	-28,975	-0,057	0,024
-178,256	205,608	0,066	0,074
-177,242	-200,000	0,006	-0,078
-176,227	133,038	-0,074	0,070
-175,212	109,343	-0,050	-0,043
-174,198	-41,143	-0,146	0,055
-173,183	79,049	0,031	-0,024
-172,169	800,000	-0,057	-0,122
-171,154	517,348	-0,071	-0,121
-170,139	-200,000	0,008	0,046
-169,125	800,000	0,038	0,119
-168,110	101,123	0,080	0,068
-167,096	800,000	0,047	0,107
-166,081	412,895	0,041	-0,064
-165,066	-200,000	-0,048	-0,164
-164,052	794,740	-0,029	0,059
-163,037	-200,000	0,020	0,072
-162,023	362,293	-0,108	0,158
-161,008	104,562	0,044	0,037
-159,993	404,493	-0,084	-0,129
-158,979	-84,649	0,008	-0,002
-157,964	48,555	0,120	-0,081
-156,950	-1,471	-0,047	-0,024
-155,935	394,499	-0,037	0,056
-154,920	-200,000	-0,005	0,063
-153,906	800,000	-0,020	0,051
-152,891	-23,869	0,040	0,018
-151,877	632,914	0,054	-0,099
-150,862	347,058	0,043	0,061
-149,847	-36,773	-0,095	-0,037
-148,833	800,000	0,019	0,044
-147,818	-200,000	-0,008	0,068
-146,804	-200,000	0,005	-0,022
-145,789	800,000	-0,053	0,157
-144,775	-55,516	0,083	-0,027
-143,760	295,003	-0,033	-0,044
-142,745	-200,000	-0,031	-0,176
-141,731	-114,118	-0,171	-0,024
-140,716	-121,098	-0,040	-0,005
-139,702	-200,000	0,018	0,066
-138,687	800,000	-0,028	0,084
-137,672	800,000	0,036	-0,089
-136,658	-58,124	-0,035	-0,011
-135,643	361,739	-0,022	0,032
-134,629	-135,894	-0,151	0,013
-133,614	291,216	0,016	0,022
-132,599	83,128	-0,095	0,075
-131,585	-28,247	0,027	-0,011
-130,570	18,437	0,004	0,003
-129,556	44,565	-0,050	-0,033
-128,541	-200,000	-0,040	-0,161
-127,526	-200,000	0,001	-0,020
-126,512	-47,807	0,105	0,037
-125,497	-172,959	-0,092	0,002
-124,483	52,902	0,185	0,128
-123,468	-134,601	-0,112	0,010
-122,453	-35,242	-0,053	0,021
-121,439	800,000	0,019	-0,051
-120,424	527,658	-0,057	-0,097
-119,410	-200,000	-0,027	0,148
-118,395	-200,000	0,005	0,104
