DTS Sentinel unit serial number:	SN410029Multiplexer serial number:	ORYXHardware model number:	OX2-SRSoftware version number:	ORYX F/W v4,00 Oryx Data Collector v3.7.2.0data status	okinstallation	B4 Nyhavnadifferential loss correction	single-endedforward channel	channel 2reverse channel	N/Adate	2023/12/16time	05:40:14forward acquisition time	300,00reverse acquisition time	0,00gamma	499,1914k internal	0,3128k external	0,3128temperature offset calibration	1,0000default loss term (dB/km)	0,3820temperature slope calibration	1,0000multiplexer offset coefficient	1,0000multiplexer slope coefficient	1,0000fibre end	0,00T internal ref (°C)	22,18T ext. ref 1 (°C)	7,47T ext. ref 2 (°C)	7,62length (m)	temperature (°C)	Stokes	anti-Stokes-744,400	77,965	0,066	0,052
-743,385	-77,155	-0,263	0,068
-742,371	800,000	0,007	-0,022
-741,356	-170,442	-0,255	0,006
-740,342	-12,338	0,068	-0,033
-739,327	121,145	-0,135	0,125
-738,312	162,088	0,030	0,032
-737,298	-13,657	-0,205	0,099
-736,283	48,505	-0,102	-0,071
-735,269	198,843	-0,114	0,131
-734,254	-6,205	0,126	0,064
-733,239	9,329	-0,292	-0,164
-732,225	-84,300	0,167	0,039
-731,210	-77,070	0,020	0,005
-730,196	95,949	0,074	-0,063
-729,181	212,038	0,038	0,045
-728,167	80,884	0,042	-0,034
-727,152	116,190	-0,046	-0,042
-726,137	-8,488	0,033	0,017
-725,123	800,000	-0,031	-0,076
-724,108	-5,452	-0,056	-0,029
-723,094	-68,448	-0,172	-0,049
-722,079	406,284	-0,136	-0,214
-721,064	245,995	-0,083	-0,104
-720,050	196,694	0,090	0,102
-719,035	-133,988	0,085	-0,008
-718,021	-200,000	-0,020	-0,124
-717,006	100,082	-0,066	-0,057
-715,991	800,000	-0,019	-0,061
-714,977	-200,000	0,013	-0,174
-713,962	-162,006	-0,098	0,004
-712,948	450,618	-0,067	-0,110
-711,933	712,451	-0,099	-0,196
-710,918	-173,841	0,041	0,001
-709,904	31,412	0,065	-0,041
-708,889	672,344	0,018	-0,035
-707,875	-20,935	-0,032	0,015
-706,860	151,721	0,064	0,064
-705,845	-200,000	-0,006	-0,059
-704,831	-119,723	0,101	0,013
-703,816	-98,297	-0,067	0,013
-702,802	92,886	-0,044	-0,037
-701,787	-81,339	-0,070	0,017
-700,772	-43,072	-0,099	0,037
-699,758	-200,000	-0,004	-0,037
-698,743	-92,248	0,075	-0,016
-697,729	-144,344	-0,082	0,006
-696,714	800,000	0,019	0,060
-695,699	-200,000	-0,006	-0,095
-694,685	99,141	0,030	0,026
-693,670	-200,000	0,017	0,054
-692,656	188,300	0,034	-0,038
-691,641	29,634	0,073	-0,046
-690,627	-200,000	0,032	0,125
-689,612	263,922	0,096	0,124
-688,597	33,065	-0,030	-0,019
-687,583	99,608	0,037	-0,031
-686,568	-200,000	-0,041	-0,151
-685,554	-200,000	0,025	-0,084
-684,539	-200,000	-0,022	0,161
-683,524	1,423	-0,027	-0,014
-682,510	-88,929	-0,090	-0,020
-681,495	327,587	-0,024	0,034
-680,481	751,559	-0,093	-0,188
-679,466	-200,000	-0,001	-0,014
-678,451	-95,671	-0,080	-0,016
-677,437	127,764	0,038	-0,036
-676,422	-113,296	-0,093	-0,013
-675,408	448,366	-0,060	0,098
-674,393	495,920	-0,020	0,034
-673,378	98,934	-0,112	-0,096
-672,364	-200,000	-0,002	0,084
-671,349	277,921	-0,127	-0,169
-670,335	-200,000	0,016	-0,094
-669,320	64,497	-0,023	-0,017
-668,305	40,885	-0,076	-0,051
-667,291	-100,869	-0,101	-0,018
-666,276	-49,269	-0,048	-0,017
-665,262	800,000	-0,014	0,044
-664,247	52,589	-0,061	-0,043
-663,232	173,837	0,048	-0,052
-662,218	800,000	-0,038	-0,101
-661,203	442,743	0,080	0,130
-660,189	800,000	0,048	0,128
-659,174	-87,454	-0,133	-0,030
-658,159	-105,489	-0,042	0,007
-657,145	-53,252	-0,048	0,016
-656,130	153,367	-0,080	-0,082
-655,116	-200,000	0,031	0,161
-654,101	-40,181	0,039	0,015
-653,086	-13,988	0,071	0,034
-652,072	-7,169	0,090	0,045
-651,057	800,000	-0,056	0,154
-650,043	-200,000	0,009	-0,133
-649,028	221,469	-0,084	-0,100
-648,014	608,078	-0,001	0,002
-646,999	-185,130	-0,081	-0,001
-645,984	-200,000	-0,016	0,092
-644,970	408,739	0,084	-0,132
-643,955	-200,000	0,032	-0,152
-642,941	17,568	0,121	-0,071
-641,926	98,956	0,042	-0,036
-640,911	-200,000	-0,019	-0,061
-639,897	185,162	-0,025	0,027
-638,882	-94,034	0,135	0,027
-637,868	-12,364	-0,079	0,038
-636,853	-59,326	-0,080	-0,025
-635,838	474,355	0,069	-0,116
-634,824	-200,000	-0,016	-0,157
-633,809	800,000	0,029	0,082
-632,795	783,751	-0,005	0,010
-631,780	363,374	0,070	0,105
-630,765	272,848	-0,110	-0,144
-629,751	192,954	-0,041	-0,046
-628,736	800,000	-0,053	-0,160
-627,722	301,269	-0,032	0,044
-626,707	-23,812	-0,072	0,032
-625,692	-33,102	0,048	-0,020
-624,678	800,000	0,022	0,060
-623,663	154,334	-0,033	0,034
-622,649	319,512	-0,048	0,068
-621,634	-200,000	-0,010	-0,070
-620,619	7,099	-0,104	-0,057
-619,605	-113,586	0,139	0,020
-618,590	546,907	0,059	-0,104
-617,576	-150,177	0,137	-0,008
-616,561	-200,000	-0,029	0,125
-615,546	-88,587	-0,111	-0,024
-614,532	-85,679	0,059	-0,014
-613,517	-200,000	-0,015	0,059
-612,503	800,000	-0,043	-0,137
-611,488	-143,875	0,119	-0,008
-610,474	345,583	-0,016	-0,024
-609,459	128,048	-0,030	-0,028
-608,444	-121,352	-0,079	0,010
-607,430	330,988	0,046	-0,066
-606,415	58,011	0,021	-0,015
-605,401	456,384	0,017	0,029
-604,386	-200,000	0,001	0,060
-603,371	-53,055	0,031	0,011
-602,357	-41,465	0,039	0,015
-601,342	-101,183	-0,081	-0,015
-600,328	-200,000	0,012	-0,081
-599,313	-162,209	-0,099	0,004
-598,298	171,761	0,095	-0,101
-597,284	800,000	0,019	0,056
-596,269	-200,000	0,004	-0,090
-595,255	329,517	0,100	0,142
-594,240	3,230	-0,113	-0,061
-593,225	295,506	-0,058	-0,079
-592,211	-99,352	-0,127	0,023
-591,196	130,078	0,042	-0,040
-590,182	107,667	0,068	0,060
-589,167	-200,000	-0,024	0,106
-588,152	73,391	0,057	-0,044
-587,138	179,577	-0,089	0,096
-586,123	-69,442	-0,135	-0,038
-585,109	1,737	-0,101	-0,054
-584,094	184,214	-0,145	-0,159
-583,079	800,000	0,061	0,151
-582,065	-154,897	0,053	-0,003
-581,050	-109,542	0,092	0,014
-580,036	108,993	-0,061	0,054
-579,021	800,000	0,040	-0,089
-578,006	81,043	0,068	0,054
-576,992	-200,000	-0,006	0,044
-575,977	35,595	-0,094	0,061
-574,963	163,554	0,068	0,071
-573,948	10,795	0,031	0,017
-572,934	-200,000	-0,000	-0,032
-571,919	-200,000	-0,061	0,000
-570,904	256,885	-0,070	-0,089
-569,890	-200,000	0,006	-0,073
-568,875	-55,351	0,122	0,040
-567,861	-200,000	-0,020	0,133
-566,846	-92,429	0,123	-0,025
-565,831	92,012	0,047	-0,039
-564,817	419,410	-0,085	-0,136
-563,802	484,985	-0,012	-0,020
-562,788	162,624	-0,040	-0,041
-561,773	-200,000	0,028	-0,119
-560,758	-43,947	-0,090	0,033
-559,744	45,912	0,055	0,037
-558,729	-200,000	0,000	-0,113
-557,715	25,064	0,115	0,071
-556,700	285,601	-0,065	0,086
-555,685	-200,000	0,009	0,038
-554,671	800,000	-0,018	-0,045
-553,656	216,163	0,041	0,049
-552,642	800,000	0,017	0,054
-551,627	-67,884	0,070	-0,020
-550,612	-200,000	0,004	-0,021
-549,598	94,073	-0,058	0,049
-548,583	-9,502	-0,116	-0,057
-547,569	100,497	0,018	-0,015
-546,554	800,000	0,033	0,070
-545,539	-157,171	-0,070	0,003
-544,525	187,425	0,046	0,051
-543,510	-200,000	-0,020	-0,101
-542,496	165,081	0,071	-0,074
-541,481	162,304	-0,095	-0,098
-540,466	-200,000	0,125	-0,000
-539,452	493,101	0,080	0,137
-538,437	-97,930	0,054	0,010
-537,423	-60,907	0,181	0,056
-536,408	-159,742	-0,045	-0,002
-535,393	337,759	0,053	-0,076
-534,379	800,000	-0,055	-0,123
-533,364	-200,000	-0,013	-0,084
-532,350	-177,245	-0,041	-0,001
-531,335	-176,832	0,074	-0,001
-530,321	-31,572	-0,068	0,028
-529,306	800,000	-0,022	0,071
-528,291	273,830	-0,077	-0,101
-527,277	86,016	-0,063	-0,051
-526,262	-85,309	0,103	-0,024
-525,248	-30,217	-0,114	0,047
-524,233	264,047	0,025	0,032
-523,218	800,000	-0,035	0,099
-522,204	284,478	0,052	0,069
-521,189	-91,490	0,073	0,015
-520,175	800,000	-0,023	-0,072
-519,160	-38,487	-0,094	-0,036
-518,145	-200,000	0,012	-0,065
-517,131	800,000	0,013	-0,031
-516,116	350,170	0,045	-0,065
-515,102	-200,000	0,022	0,080
-514,087	-14,337	-0,060	0,028
-513,072	450,704	-0,078	0,128
-512,058	-40,598	-0,060	-0,023
-511,043	438,939	-0,062	-0,101
-510,029	12,308	0,185	0,105
-509,014	49,083	0,111	-0,076
-507,999	800,000	-0,009	0,023
-506,985	73,744	0,104	-0,080
-505,970	263,888	-0,016	-0,020
-504,956	71,634	-0,010	0,008
-503,941	800,000	-0,043	0,108
-502,926	-76,972	-0,107	-0,027
-501,912	-200,000	-0,029	-0,140
-500,897	-170,560	0,127	0,003
-499,883	-108,757	-0,072	0,011
-498,868	40,512	0,036	0,024
-497,853	298,890	-0,022	-0,030
-496,839	800,000	-0,039	0,083
-495,824	-96,647	0,146	0,028
-494,810	26,371	0,066	0,040
-493,795	-68,697	0,029	-0,008
-492,781	-200,000	0,002	-0,074
-491,766	-132,361	-0,066	-0,006
-490,751	-124,739	-0,139	-0,016
-489,737	-200,000	0,007	0,066
-488,722	358,856	0,015	-0,023
-487,708	66,690	0,125	0,094
-486,693	-68,388	0,110	0,031
-485,678	212,335	-0,097	-0,113
-484,664	248,480	0,049	0,061
-483,649	-11,182	-0,058	-0,028
-482,635	14,962	-0,058	0,034
-481,620	283,995	0,161	0,213
-480,605	-146,427	0,115	0,007
-479,591	-200,000	0,014	-0,056
-478,576	-33,161	0,017	-0,007
-477,562	-67,754	-0,123	-0,035
-476,547	271,261	-0,064	0,083
-475,532	-14,845	0,151	-0,071
-474,518	529,400	-0,051	0,088
-473,503	17,089	0,025	-0,015
-472,489	-43,793	0,136	0,050
-471,474	-200,000	-0,035	-0,166
-470,459	85,104	0,069	-0,055
-469,445	191,932	0,043	0,047
-468,430	800,000	-0,047	-0,098
-467,416	260,623	-0,099	0,126
-466,401	21,133	-0,061	-0,036
-465,386	718,872	0,049	-0,096
-464,372	-200,000	0,006	0,094
-463,357	384,175	-0,021	-0,032
-462,343	-34,812	-0,076	0,030
-461,328	270,088	-0,047	-0,061
-460,313	110,541	-0,051	-0,045
-459,299	-25,293	0,026	0,011
-458,284	264,961	-0,137	0,176
-457,270	31,580	-0,075	0,047
-456,255	-200,000	0,004	0,023
-455,241	543,145	-0,061	0,107
-454,226	-200,000	0,010	0,083
-453,211	-99,229	0,126	-0,023
-452,197	-23,350	-0,044	0,019
-451,182	-200,000	0,022	-0,129
-450,168	144,617	0,083	-0,082
-449,153	51,206	0,063	-0,044
-448,138	-200,000	-0,010	0,087
-447,124	-21,149	-0,017	-0,008
-446,109	107,746	0,102	-0,090
-445,095	785,649	0,055	0,111
-444,080	128,523	-0,057	-0,054
-443,065	-200,000	-0,019	0,068
-442,051	196,595	-0,021	-0,023
-441,036	800,000	-0,025	-0,073
-440,022	-56,955	-0,072	-0,023
-439,007	190,215	0,042	0,046
-437,992	-200,000	0,001	-0,013
-436,978	-200,000	-0,024	-0,103
-435,963	308,876	0,094	0,129
-434,949	237,012	-0,002	-0,003
-433,934	-118,611	-0,100	0,013
-432,919	729,934	0,055	0,108
-431,905	-200,000	0,006	-0,051
-430,890	-200,000	-0,041	-0,148
-429,876	-6,688	0,128	-0,064
-428,861	35,689	0,010	-0,006
-427,846	-134,109	0,056	0,005
-426,832	800,000	-0,017	-0,049
-425,817	-200,000	0,010	-0,058
-424,803	800,000	-0,035	-0,073
-423,788	3,823	0,085	-0,046
-422,773	800,000	0,034	0,104
-421,759	-28,514	-0,129	0,054
-420,744	-50,637	0,132	0,046
-419,730	-155,044	-0,161	-0,008
-418,715	314,132	-0,115	-0,159
-417,701	-200,000	-0,004	-0,071
-416,686	-200,000	0,019	-0,089
-415,671	-16,002	0,043	-0,020
-414,657	682,025	-0,029	0,056
-413,642	-2,506	0,066	-0,034
-412,628	-143,368	-0,127	0,009
-411,613	-200,000	-0,007	-0,130
-410,598	86,117	0,031	0,025
-409,584	-117,416	-0,083	0,011
-408,569	-200,000	-0,045	-0,157
-407,555	-86,124	-0,235	0,053
-406,540	160,044	-0,063	0,065
-405,525	-200,000	-0,006	-0,113
-404,511	600,595	0,059	-0,109
-403,496	-83,682	-0,014	0,003
-402,482	190,683	0,035	0,038
-401,467	69,339	0,057	-0,043
-400,452	-14,963	0,066	-0,031
-399,438	-90,108	-0,067	0,014
-398,423	-200,000	0,038	-0,192
-397,409	111,361	0,055	-0,049
-396,394	23,705	-0,043	0,026
-395,379	-200,000	-0,028	-0,092
-394,365	624,109	0,038	0,071
-393,350	74,991	0,062	0,048
-392,336	97,166	-0,093	-0,078
-391,321	-142,048	-0,046	-0,003
-390,306	-84,764	-0,086	0,020
-389,292	-200,000	0,010	0,038
-388,277	-200,000	-0,008	0,042
-387,263	-43,103	0,073	-0,027
-386,248	-200,000	0,015	0,067
-385,233	-18,337	-0,047	-0,022
-384,219	-106,823	-0,162	0,026
-383,204	-141,190	-0,061	0,004
-382,190	336,157	-0,048	-0,068
-381,175	-79,311	0,042	0,010
-380,160	-200,000	-0,001	0,037
-379,146	-34,280	0,056	0,022
-378,131	251,379	-0,026	0,032
-377,117	-11,469	-0,138	0,066
-376,102	-72,173	-0,192	-0,052
-375,088	-83,130	-0,073	-0,017
-374,073	142,793	0,057	0,056
-373,058	1,532	0,092	0,049
-372,044	9,083	0,032	0,018
-371,029	485,938	0,030	0,051
-370,015	-200,000	0,011	-0,038
-369,000	613,714	-0,065	0,121
-367,985	-40,713	-0,048	0,018
-366,971	-153,096	0,125	0,006
-365,956	-142,679	-0,095	-0,007
-364,942	-82,431	0,052	-0,012
-363,927	215,313	-0,100	0,116
-362,912	-200,000	0,005	0,175
-361,898	296,738	-0,022	0,030
-360,883	-200,000	-0,005	0,094
-359,869	800,000	0,029	-0,086
-358,854	436,170	-0,121	-0,195
-357,839	328,178	0,033	0,047
-356,825	800,000	0,006	-0,014
-355,810	149,376	0,064	0,064
-354,796	800,000	0,082	-0,229
-353,781	-200,000	0,000	-0,067
-352,766	375,499	-0,028	0,042
-351,752	-200,000	0,010	0,052
-350,737	-157,421	0,051	0,002
-349,723	299,347	0,061	0,083
-348,708	91,806	0,084	0,069
-347,693	180,811	0,124	0,133
-346,679	51,237	-0,058	-0,040
-345,664	-136,463	-0,060	-0,005
-344,650	136,254	-0,062	0,059
-343,635	-44,662	0,055	-0,020
-342,620	-200,000	0,090	-0,000
-341,606	506,156	-0,034	-0,058
-340,591	-37,481	-0,112	0,044
-339,577	-88,526	-0,128	-0,028
-338,562	800,000	0,018	-0,050
-337,548	-31,058	-0,089	0,037
-336,533	-200,000	0,006	0,115
-335,518	621,158	-0,064	0,118
-334,504	-83,270	0,070	-0,016
-333,489	14,070	0,068	0,038
-332,475	45,449	-0,047	0,032
-331,460	800,000	0,080	-0,186
-330,445	-200,000	-0,026	-0,128
-329,431	800,000	0,023	-0,057
-328,416	-151,945	0,126	0,007
-327,402	800,000	0,026	0,072
-326,387	62,789	-0,023	0,017
-325,372	-200,000	0,006	-0,028
-324,358	-200,000	0,019	0,075
-323,343	800,000	0,039	0,082
-322,329	149,602	0,010	0,010
-321,314	-50,574	0,056	-0,019
-320,299	-65,995	0,079	0,023
-319,285	17,044	-0,118	-0,068
-318,270	-142,744	-0,019	0,001
-317,256	223,866	-0,028	-0,033
-316,241	15,288	-0,096	0,055
-315,226	-145,300	-0,145	0,009
-314,212	166,961	0,034	0,035
-313,197	97,840	0,137	0,115
-312,183	60,049	0,106	-0,077
-311,168	-200,000	0,005	0,076
-310,153	598,829	-0,066	-0,121
-309,139	235,798	-0,077	-0,093
-308,124	800,000	-0,066	0,168
-307,110	-110,110	0,113	-0,017
-306,095	-200,000	-0,029	0,166
-305,080	67,362	-0,058	-0,043
-304,066	-130,644	-0,114	-0,011
-303,051	121,807	-0,070	-0,064
-302,037	135,148	0,010	-0,010
-301,022	308,658	-0,098	-0,134
-300,008	63,422	0,029	0,022
-298,993	800,000	0,027	0,062
-297,978	800,000	0,041	-0,091
-296,964	-98,064	0,042	0,008
-295,949	800,000	0,042	0,093
-294,935	316,352	-0,036	0,050
-293,920	-200,000	-0,010	0,055
-292,905	-99,902	0,163	0,029
-291,891	0,333	-0,077	0,040
-290,876	215,718	0,095	0,110
-289,862	-200,000	-0,004	-0,088
-288,847	30,787	0,032	-0,020
-287,832	800,000	0,012	0,034
-286,818	333,900	0,109	0,154
-285,803	232,753	0,021	-0,025
-284,789	204,309	0,097	0,110
-283,774	301,662	-0,089	0,121
-282,759	-69,735	0,141	0,039
-281,745	12,928	0,107	0,060
-280,730	118,839	-0,040	-0,036
-279,716	88,039	-0,055	0,045
-278,701	178,167	0,018	-0,020
-277,686	-200,000	-0,019	0,099
-276,672	27,179	0,059	-0,036
-275,657	-200,000	-0,002	-0,024
-274,643	7,563	-0,126	-0,068
-273,628	-200,000	-0,009	-0,035
-272,613	-200,000	-0,009	0,099
-271,599	-200,000	-0,002	-0,101
-270,584	103,884	-0,044	0,038
-269,570	122,791	0,005	-0,004
-268,555	259,234	0,073	0,093
-267,540	91,999	-0,101	0,083
-266,526	-133,684	-0,135	0,012
-265,511	-200,000	0,018	0,141
-264,497	-200,000	0,024	0,145
-263,482	-27,350	0,081	0,034
-262,467	-9,801	-0,036	0,018
-261,453	94,954	0,023	-0,019
-260,438	800,000	-0,034	-0,085
-259,424	-200,000	0,010	0,050
-258,409	-166,463	-0,080	0,002
-257,395	800,000	-0,010	0,030
-256,380	-200,000	-0,003	0,045
-255,365	16,227	0,121	0,069
-254,351	22,838	-0,075	0,045
-253,336	55,622	0,123	-0,087
-252,322	-200,000	-0,039	-0,184
-251,307	434,357	0,130	-0,207
-250,292	-140,931	-0,155	0,011
-249,278	-200,000	0,020	-0,068
-248,263	-117,421	0,053	0,007
-247,249	81,009	-0,115	-0,091
-246,234	800,000	-0,042	-0,102
-245,219	-43,964	-0,101	-0,037
-244,205	-200,000	0,008	0,093
-243,190	267,339	-0,005	-0,006
-242,176	800,000	0,027	-0,060
-241,161	276,882	0,016	-0,020
-240,146	-157,559	0,116	0,005
-239,132	56,314	-0,072	-0,051
-238,117	-200,000	0,016	-0,058
-237,103	64,520	0,056	-0,041
-236,088	-38,275	0,065	0,025
-235,073	185,170	0,147	0,159
-234,059	-127,167	0,065	-0,007
-233,044	-53,904	0,086	0,029
-232,030	-200,000	-0,011	-0,114
-231,015	-200,000	0,010	-0,129
-230,000	-107,859	0,032	0,005
-228,986	-80,794	0,068	-0,016
-227,971	-200,000	-0,010	0,056
-226,957	172,090	0,116	0,122
-225,942	-200,000	-0,021	0,077
-224,927	-71,975	0,032	0,009
-223,913	-200,000	-0,008	0,050
-222,898	-85,611	-0,091	-0,020
-221,884	800,000	0,029	-0,086
-220,869	-105,120	-0,087	-0,014
-219,855	-200,000	0,027	-0,108
-218,840	306,502	0,051	-0,069
-217,825	99,882	-0,037	-0,031
-216,811	589,708	-0,080	0,144
-215,796	391,062	-0,074	-0,113
-214,782	-26,393	0,116	-0,049
-213,767	-102,976	0,142	-0,024
-212,752	-200,000	0,009	0,058
-211,738	-200,000	-0,017	0,116
-210,723	800,000	-0,033	0,096
-209,709	142,840	0,018	0,017
-208,694	-200,000	-0,025	-0,093
-207,679	563,037	0,030	0,054
-206,665	-200,000	-0,012	-0,038
-205,650	-200,000	-0,016	0,078
-204,636	59,706	-0,022	0,015
-203,621	-200,000	-0,012	0,128
-202,606	-50,915	0,195	0,066
-201,592	240,953	-0,130	-0,158
-200,577	-12,025	-0,106	-0,050
-199,563	111,524	0,085	0,074
-198,548	800,000	-0,035	0,074
-197,533	147,364	0,067	-0,065
-196,519	-200,000	-0,012	-0,050
-195,504	25,881	-0,089	0,054
-194,490	251,036	0,097	-0,121
-193,475	1,404	-0,050	0,026
-192,460	-200,000	0,006	-0,048
-191,446	-200,000	0,005	-0,083
-190,431	-200,000	0,034	-0,126
-189,417	439,060	-0,026	-0,041
-188,402	-200,000	-0,000	0,053
-187,387	-35,595	-0,104	0,041
-186,373	-99,152	0,086	-0,016
-185,358	440,800	0,075	0,119
-184,344	466,859	-0,021	0,034
-183,329	180,031	0,087	-0,093
-182,315	-8,568	-0,071	0,035
-181,300	-200,000	-0,020	-0,072
-180,285	-200,000	-0,001	-0,011
-179,271	-180,999	0,130	0,002
-178,256	94,393	-0,043	0,035
-177,242	-200,000	-0,016	0,062
-176,227	191,580	-0,047	0,052
-175,212	250,590	0,054	-0,067
-174,198	-200,000	-0,014	0,103
-173,183	-148,142	-0,073	-0,004
-172,169	746,486	-0,057	-0,113
-171,154	28,512	-0,049	0,030
-170,139	-200,000	0,010	0,164
-169,125	800,000	0,064	0,146
-168,110	115,482	0,066	0,059
-167,096	-66,472	-0,031	0,009
-166,081	-45,506	0,097	-0,035
-165,066	437,526	-0,076	-0,120
-164,052	-200,000	-0,024	0,083
-163,037	98,079	0,045	-0,037
-162,023	154,727	0,084	0,084
-161,008	-102,927	0,126	0,022
-159,993	-135,690	-0,069	-0,006
-158,979	-200,000	0,041	0,137
-157,964	507,372	-0,023	-0,038
-156,950	-13,557	-0,234	-0,110
-155,935	-200,000	0,035	0,145
-154,920	467,645	-0,052	0,084
-153,906	211,659	-0,053	0,061
-152,891	-29,027	-0,046	0,019
-151,877	-200,000	0,000	-0,105
-150,862	76,782	-0,069	-0,053
-149,847	-41,409	0,063	-0,023
-148,833	-11,193	0,098	-0,047
-147,818	-12,239	0,071	-0,034
-146,804	59,240	0,070	-0,050
-145,789	-44,634	-0,041	-0,015
-144,775	-94,360	-0,032	-0,006
-143,760	-200,000	0,035	-0,139
-142,745	-139,735	0,134	0,010
-141,731	800,000	0,087	-0,186
-140,716	21,899	0,080	-0,047
-139,702	-200,000	-0,044	0,158
-138,687	23,846	0,090	-0,054
-137,672	800,000	-0,052	0,108
-136,658	342,336	-0,086	-0,123
-135,643	-15,425	0,033	-0,015
-134,629	-119,940	0,134	-0,016
-133,614	-85,155	-0,120	-0,027
-132,599	-9,677	0,129	0,062
-131,585	-91,095	-0,133	0,027
-130,570	-200,000	-0,007	0,026
-129,556	-173,733	0,054	0,001
-128,541	7,338	-0,179	-0,097
-127,526	-161,707	0,096	-0,004
-126,512	-200,000	0,002	0,017
-125,497	8,722	0,100	0,054
-124,483	-135,826	-0,073	0,006
-123,468	-90,079	0,064	0,013
-122,453	161,986	-0,108	0,110
-121,439	-200,000	0,041	-0,147
-120,424	754,050	-0,047	-0,092
-119,410	-200,000	0,006	0,043
