DTS Sentinel unit serial number:	SN410029Multiplexer serial number:	ORYXHardware model number:	OX2-SRSoftware version number:	ORYX F/W v4,00 Oryx Data Collector v3.7.2.0data status	okinstallation	B4 Nyhavnadifferential loss correction	single-endedforward channel	channel 2reverse channel	N/Adate	2023/12/16time	01:25:13forward acquisition time	300,00reverse acquisition time	0,00gamma	499,1914k internal	0,3129k external	0,3129temperature offset calibration	1,0000default loss term (dB/km)	0,3820temperature slope calibration	1,0000multiplexer offset coefficient	1,0000multiplexer slope coefficient	1,0000fibre end	0,00T internal ref (°C)	21,92T ext. ref 1 (°C)	7,04T ext. ref 2 (°C)	7,26length (m)	temperature (°C)	Stokes	anti-Stokes-744,400	141,713	-0,059	0,059
-743,385	-68,836	-0,146	0,042
-742,371	-131,666	0,148	-0,014
-741,356	-34,326	-0,369	0,150
-740,342	127,411	0,046	-0,043
-739,327	10,679	-0,242	0,137
-738,312	16,798	-0,061	-0,036
-737,298	8,190	-0,262	0,146
-736,283	-3,971	0,104	0,053
-735,269	59,513	-0,173	0,127
-734,254	267,037	-0,037	0,048
-733,239	-31,184	-0,316	-0,132
-732,225	-158,085	0,129	-0,006
-731,210	-200,000	0,018	-0,067
-730,196	800,000	-0,043	-0,099
-729,181	18,241	-0,096	-0,057
-728,167	-136,829	0,108	0,009
-727,152	-50,032	-0,012	-0,004
-726,137	65,843	0,062	-0,047
-725,123	13,393	-0,124	-0,071
-724,108	-25,646	-0,130	0,057
-723,094	21,856	0,078	-0,047
-722,079	-88,903	0,023	-0,005
-721,064	279,412	0,024	-0,033
-720,050	191,944	-0,069	-0,078
-719,035	-200,000	0,005	-0,023
-718,021	203,252	-0,059	-0,068
-717,006	800,000	0,046	-0,095
-715,991	800,000	-0,023	-0,068
-714,977	-26,882	-0,122	-0,053
-713,962	134,447	0,032	-0,031
-712,948	-200,000	-0,003	0,053
-711,933	-200,000	-0,007	0,027
-710,918	126,204	-0,090	-0,085
-709,904	-200,000	-0,007	-0,052
-708,889	125,356	-0,060	0,056
-707,875	800,000	0,048	-0,133
-706,860	-200,000	0,004	0,123
-705,845	178,409	0,087	0,095
-704,831	800,000	-0,023	0,052
-703,816	-200,000	-0,006	0,026
-702,802	-109,510	0,011	-0,002
-701,787	-198,119	-0,062	-0,000
-700,772	154,357	0,048	0,049
-699,758	94,311	-0,074	0,062
-698,743	800,000	0,002	-0,005
-697,729	-65,303	-0,221	-0,066
-696,714	8,799	-0,054	-0,030
-695,699	186,019	0,040	0,045
-694,685	800,000	0,005	-0,012
-693,670	-57,773	-0,107	-0,035
-692,656	-200,000	0,012	-0,056
-691,641	-78,008	-0,056	0,014
-690,627	160,556	0,052	0,054
-689,612	-100,438	-0,099	-0,018
-688,597	284,919	-0,075	-0,101
-687,583	-200,000	0,006	0,065
-686,568	195,268	-0,061	-0,069
-685,554	-79,616	0,080	-0,020
-684,539	-43,605	0,085	-0,032
-683,524	-200,000	0,034	0,126
-682,510	206,547	0,038	0,044
-681,495	-200,000	0,001	0,098
-680,481	-200,000	0,007	-0,097
-679,466	800,000	-0,035	0,073
-678,451	284,444	-0,034	0,046
-677,437	502,251	-0,011	-0,019
-676,422	30,878	-0,073	0,046
-675,408	-200,000	0,003	0,054
-674,393	286,907	0,047	-0,064
-673,378	83,971	-0,104	-0,084
-672,364	-200,000	-0,026	-0,093
-671,349	-152,924	0,068	-0,003
-670,335	-115,569	-0,024	-0,003
-669,320	-150,623	0,096	0,005
-668,305	28,795	-0,031	0,019
-667,291	800,000	-0,028	-0,084
-666,276	-200,000	-0,027	-0,148
-665,262	-200,000	0,002	-0,093
-664,247	-200,000	0,005	-0,076
-663,232	-109,357	0,009	0,001
-662,218	-24,793	0,058	0,025
-661,203	-26,454	-0,180	-0,078
-660,189	229,772	-0,061	-0,074
-659,174	-72,764	-0,094	-0,025
-658,159	0,401	-0,126	-0,067
-657,145	-62,215	-0,072	0,022
-656,130	-63,215	-0,049	-0,015
-655,116	-200,000	-0,005	-0,017
-654,101	-200,000	-0,001	0,018
-653,086	-122,653	-0,070	-0,008
-652,072	373,123	0,028	0,043
-651,057	-175,053	-0,056	-0,001
-650,043	383,770	0,083	-0,128
-649,028	-145,484	-0,106	-0,007
-648,014	59,525	-0,066	-0,048
-646,999	-7,670	-0,094	-0,047
-645,984	-200,000	0,019	0,080
-644,970	69,659	-0,036	-0,028
-643,955	800,000	0,036	0,110
-642,941	22,867	-0,113	-0,069
-641,926	266,853	-0,029	-0,038
-640,911	-32,049	-0,049	0,020
-639,897	-200,000	0,003	-0,037
-638,882	-200,000	-0,008	-0,053
-637,868	182,335	-0,036	0,039
-636,853	15,135	-0,097	-0,056
-635,838	-200,000	-0,007	-0,025
-634,824	34,977	-0,101	-0,065
-633,809	459,000	0,053	0,088
-632,795	800,000	0,012	0,034
-631,780	309,544	0,128	-0,178
-630,765	-64,151	-0,057	-0,017
-629,751	-200,000	-0,031	-0,196
-628,736	-200,000	-0,016	-0,151
-627,722	75,863	0,062	-0,049
-626,707	800,000	0,029	-0,062
-625,692	404,116	0,049	0,076
-624,678	448,524	-0,122	0,199
-623,663	-142,914	0,038	0,003
-622,649	243,858	-0,076	-0,095
-621,634	-200,000	-0,003	-0,067
-620,619	800,000	0,035	-0,113
-619,605	481,226	-0,066	-0,111
-618,590	44,066	0,070	-0,047
-617,576	-118,557	-0,039	-0,005
-616,561	-200,000	-0,035	-0,156
-615,546	-200,000	0,018	-0,089
-614,532	-10,081	-0,027	0,013
-613,517	33,367	-0,011	0,007
-612,503	800,000	0,070	0,157
-611,488	215,924	0,117	0,137
-610,474	117,901	-0,079	0,072
-609,459	-109,033	-0,034	0,005
-608,444	-103,244	-0,104	-0,018
-607,430	-11,851	-0,117	0,057
-606,415	-200,000	-0,019	0,070
-605,401	-200,000	0,019	-0,083
-604,386	-200,000	-0,005	-0,073
-603,371	73,934	0,052	0,041
-602,357	-108,083	-0,031	0,005
-601,342	244,404	-0,039	0,048
-600,328	-86,628	-0,214	-0,048
-599,313	800,000	0,052	-0,144
-598,298	47,208	-0,120	-0,082
-597,284	60,969	-0,050	0,036
-596,269	0,903	-0,046	0,024
-595,255	-200,000	-0,008	-0,063
-594,240	652,902	-0,049	-0,093
-593,225	800,000	0,018	0,051
-592,211	131,837	0,014	0,014
-591,196	204,445	-0,035	-0,040
-590,182	116,945	-0,054	-0,049
-589,167	298,706	-0,045	0,061
-588,152	-200,000	0,028	0,125
-587,138	-200,000	0,034	-0,220
-586,123	-94,450	-0,194	0,039
-585,109	-200,000	0,004	-0,086
-584,094	365,594	-0,020	0,030
-583,079	800,000	-0,041	-0,094
-582,065	-200,000	-0,002	0,025
-581,050	89,375	0,084	0,069
-580,036	-200,000	-0,007	0,067
-579,021	800,000	-0,041	-0,127
-578,006	-200,000	-0,011	-0,095
-576,992	2,325	-0,121	-0,065
-575,977	-104,953	-0,038	0,006
-574,963	-21,742	0,123	0,055
-573,948	-200,000	0,006	0,031
-572,934	-28,579	0,063	-0,027
-571,919	-39,736	-0,120	0,046
-570,904	50,733	-0,007	0,005
-569,890	800,000	-0,046	-0,126
-568,875	14,280	0,122	-0,070
-567,861	-200,000	0,010	-0,047
-566,846	800,000	0,016	0,052
-565,831	800,000	0,035	-0,074
-564,817	327,305	-0,087	-0,124
-563,802	-200,000	0,007	0,049
-562,788	-29,352	0,037	-0,015
-561,773	-97,992	0,038	-0,007
-560,758	800,000	-0,041	0,103
-559,744	59,104	0,166	0,121
-558,729	800,000	-0,030	0,090
-557,715	-155,899	-0,055	-0,003
-556,700	800,000	0,041	-0,133
-555,685	522,833	-0,087	-0,152
-554,671	622,855	0,072	-0,134
-553,656	186,258	-0,023	-0,025
-552,642	100,732	0,078	0,067
-551,627	374,940	0,076	0,114
-550,612	800,000	-0,042	-0,091
-549,598	-79,853	0,071	-0,017
-548,583	-76,458	0,175	0,045
-547,569	4,947	0,037	0,020
-546,554	205,292	0,112	-0,128
-545,539	33,066	-0,018	-0,011
-544,525	-81,643	-0,076	-0,018
-543,510	-30,838	0,072	-0,030
-542,496	202,748	-0,160	-0,182
-541,481	108,415	0,069	0,061
-540,466	38,597	-0,099	0,065
-539,452	-43,127	0,100	-0,037
-538,437	291,513	0,012	0,016
-537,423	-200,000	0,001	0,092
-536,408	148,098	-0,030	-0,030
-535,393	-200,000	-0,006	-0,057
-534,379	177,164	0,063	0,068
-533,364	222,003	-0,076	-0,090
-532,350	75,144	-0,033	0,026
-531,335	493,226	0,069	0,116
-530,321	800,000	-0,044	0,110
-529,306	360,112	-0,092	0,136
-528,291	-200,000	-0,021	-0,072
-527,277	104,774	-0,106	-0,093
-526,262	602,116	-0,026	0,048
-525,248	711,215	0,027	-0,053
-524,233	-200,000	-0,006	-0,088
-523,218	111,039	0,102	-0,091
-522,204	800,000	-0,021	-0,060
-521,189	67,333	0,088	-0,066
-520,175	106,019	-0,110	-0,096
-519,160	-19,421	-0,145	0,066
-518,145	800,000	-0,072	0,175
-517,131	-145,462	0,059	0,004
-516,116	-35,465	-0,029	0,012
-515,102	-200,000	-0,002	-0,119
-514,087	-125,910	-0,052	0,006
-513,072	-15,006	0,138	0,065
-512,058	114,714	-0,037	-0,034
-511,043	47,307	0,087	0,059
-510,029	-200,000	-0,026	0,130
-509,014	5,545	-0,015	0,008
-507,999	236,394	0,045	0,055
-506,985	170,972	0,020	-0,021
-505,970	-44,755	-0,129	-0,047
-504,956	-130,511	0,166	-0,016
-503,941	800,000	0,044	0,100
-502,926	-200,000	0,021	0,077
-501,912	95,105	0,077	-0,064
-500,897	-90,687	-0,076	-0,016
-499,883	94,817	-0,088	-0,074
-498,868	-200,000	-0,013	-0,069
-497,853	-49,982	-0,100	0,035
-496,839	-88,534	0,074	-0,016
-495,824	-38,975	-0,176	0,068
-494,810	-45,005	0,069	0,025
-493,795	-200,000	-0,004	0,026
-492,781	-200,000	0,045	-0,262
-491,766	753,798	-0,070	-0,140
-490,751	-200,000	-0,026	-0,165
-489,737	21,766	-0,036	-0,022
-488,722	54,678	-0,079	0,056
-487,708	506,823	-0,024	0,040
-486,693	82,245	0,107	0,086
-485,678	-200,000	0,007	-0,210
-484,664	-23,623	-0,139	-0,061
-483,649	-114,268	0,107	0,015
-482,635	-62,102	0,068	-0,021
-481,620	556,412	-0,053	0,094
-480,605	-200,000	0,001	-0,060
-479,591	267,078	0,037	0,047
-478,576	410,939	0,024	0,038
-477,562	-200,000	0,027	-0,103
-476,547	-200,000	-0,025	-0,138
-475,532	800,000	-0,037	0,095
-474,518	279,935	0,065	0,086
-473,503	-200,000	0,014	0,119
-472,489	-64,568	-0,106	0,031
-471,474	-72,127	-0,082	0,022
-470,459	800,000	0,015	-0,033
-469,445	-200,000	-0,030	0,099
-468,430	-11,619	-0,031	-0,015
-467,416	130,810	0,113	0,107
-466,401	-85,600	-0,034	-0,008
-465,386	18,330	0,067	0,039
-464,372	-200,000	-0,010	-0,039
-463,357	86,095	0,004	-0,003
-462,343	42,011	-0,086	-0,058
-461,328	-130,378	0,054	-0,005
-460,313	-67,819	0,031	-0,009
-459,299	96,664	0,094	0,079
-458,284	-68,870	0,164	0,046
-457,270	-200,000	0,041	0,211
-456,255	86,845	0,091	0,074
-455,241	-177,492	-0,194	0,003
-454,226	-200,000	0,007	-0,028
-453,211	-87,389	0,159	0,035
-452,197	-94,986	-0,023	-0,004
-451,182	-112,168	-0,076	-0,011
-450,168	61,037	0,166	-0,121
-449,153	40,223	0,059	0,039
-448,138	-200,000	0,002	0,025
-447,124	800,000	0,021	-0,057
-446,109	-154,963	-0,026	-0,001
-445,095	-200,000	-0,009	0,044
-444,080	-200,000	-0,014	0,160
-443,065	-47,597	0,144	0,051
-442,051	-117,237	-0,020	0,003
-441,036	-0,278	-0,088	-0,046
-440,022	-139,659	-0,082	-0,006
-439,007	335,663	-0,045	0,064
-437,992	168,699	0,063	0,066
-436,978	-24,853	0,125	0,054
-435,963	234,683	0,067	-0,081
-434,949	-53,548	0,059	-0,020
-433,934	800,000	-0,076	-0,216
-432,919	2,402	0,009	-0,005
-431,905	-85,942	-0,062	0,014
-430,890	800,000	0,049	0,141
-429,876	-157,315	-0,078	0,003
-428,861	618,525	0,061	-0,112
-427,846	282,678	-0,167	-0,221
-426,832	800,000	0,024	-0,057
-425,817	-89,369	-0,044	-0,010
-424,803	633,311	-0,036	0,068
-423,788	135,844	0,118	0,113
-422,773	130,472	-0,015	0,014
-421,759	-200,000	-0,023	0,081
-420,744	-200,000	-0,003	0,050
-419,730	-200,000	0,017	0,064
-418,715	-26,886	0,074	-0,032
-417,701	800,000	0,069	-0,144
-416,686	371,793	0,093	-0,139
-415,671	25,406	0,111	0,067
-414,657	59,769	-0,021	0,015
-413,642	402,127	0,075	0,116
-412,628	174,720	0,098	-0,104
-411,613	-200,000	-0,011	0,061
-410,598	-200,000	-0,007	-0,055
-409,584	99,072	0,058	0,049
-408,569	480,970	0,017	0,028
-407,555	800,000	0,048	0,101
-406,540	800,000	0,036	0,105
-405,525	5,537	-0,027	0,014
-404,511	47,092	-0,079	0,054
-403,496	118,158	-0,024	-0,021
-402,482	83,831	-0,093	-0,075
-401,467	-200,000	-0,006	0,045
-400,452	800,000	-0,003	0,007
-399,438	-124,759	-0,072	0,008
-398,423	800,000	-0,035	0,081
-397,409	101,610	-0,014	-0,012
-396,394	122,167	0,056	-0,051
-395,379	-200,000	0,032	0,133
-394,365	-109,344	-0,079	-0,012
-393,350	800,000	-0,022	0,072
-392,336	332,225	0,032	-0,045
-391,321	-200,000	0,001	-0,056
-390,306	200,763	-0,086	0,098
-389,292	28,945	-0,138	-0,086
-388,277	503,240	-0,072	-0,122
-387,263	-46,771	0,099	0,035
-386,248	192,704	0,115	0,128
-385,233	-168,254	0,040	-0,001
-384,219	382,648	-0,039	-0,059
-383,204	423,697	-0,104	0,164
-382,190	800,000	-0,046	0,103
-381,175	-155,184	-0,183	0,009
-380,160	125,470	0,070	-0,065
-379,146	431,034	-0,032	0,051
-378,131	49,303	0,118	0,081
-377,117	237,818	0,033	0,040
-376,102	158,982	0,021	0,022
-375,088	-200,000	0,007	0,028
-374,073	102,360	-0,089	-0,076
-373,058	117,787	0,056	0,051
-372,044	-200,000	-0,003	-0,020
-371,029	-200,000	-0,006	0,056
-370,015	-136,287	-0,136	0,012
-369,000	2,603	0,094	-0,050
-367,985	159,502	-0,092	0,094
-366,971	-200,000	0,007	0,037
-365,956	-106,207	0,140	-0,023
-364,942	-200,000	0,005	0,053
-363,927	-44,392	0,039	-0,014
-362,912	63,961	-0,050	-0,037
-361,898	454,166	0,051	0,084
-360,883	-36,405	0,092	0,036
-359,869	46,762	-0,085	0,058
-358,854	-200,000	-0,001	0,228
-357,839	-200,000	-0,005	0,040
-356,825	-200,000	0,003	-0,066
-355,810	-57,532	0,086	0,027
-354,796	-56,413	0,028	-0,009
-353,781	93,412	0,061	-0,050
-352,766	-36,755	0,087	-0,034
-351,752	262,398	-0,047	-0,060
-350,737	291,794	0,028	0,038
-349,723	130,226	-0,065	-0,061
-348,708	-57,603	0,096	-0,031
-347,693	-200,000	-0,014	-0,059
-346,679	-178,316	-0,022	-0,000
-345,664	-141,632	-0,038	-0,003
-344,650	-84,111	-0,156	-0,036
-343,635	800,000	-0,019	0,042
-342,620	-108,802	0,057	0,009
-341,606	800,000	0,037	0,094
-340,591	120,722	0,059	-0,053
-339,577	-103,525	0,131	-0,022
-338,562	355,441	-0,113	-0,165
-337,548	800,000	-0,032	-0,067
-336,533	297,942	0,066	0,089
-335,518	684,691	-0,044	0,084
-334,504	515,661	-0,049	0,085
-333,489	-200,000	-0,001	-0,053
-332,475	278,982	-0,091	-0,119
-331,460	-200,000	-0,008	0,075
-330,445	-200,000	0,034	0,277
-329,431	-38,538	-0,060	-0,023
-328,416	-200,000	-0,000	0,012
-327,402	-200,000	-0,006	-0,062
-326,387	-200,000	-0,011	0,060
-325,372	792,291	-0,003	-0,006
-324,358	26,365	0,157	0,096
-323,343	-133,108	-0,105	0,010
-322,329	96,668	0,050	-0,042
-321,314	-62,750	0,035	0,010
-320,299	91,748	-0,017	0,014
-319,285	690,682	0,020	0,038
-318,270	-172,484	-0,045	-0,001
-317,256	138,274	-0,166	-0,160
-316,241	322,424	0,014	0,020
-315,226	-119,737	0,049	0,006
-314,212	-82,444	0,068	0,016
-313,197	-19,905	-0,108	-0,048
-312,183	-200,000	0,035	-0,123
-311,168	800,000	-0,027	0,068
-310,153	157,405	-0,027	-0,028
-309,139	-170,291	-0,127	0,003
-308,124	-126,608	-0,052	-0,006
-307,110	-200,000	0,009	0,222
-306,095	58,863	0,038	0,027
-305,080	-121,720	0,046	-0,005
-304,066	63,138	0,116	0,085
-303,051	184,397	-0,007	0,007
-302,037	800,000	0,043	-0,118
-301,022	800,000	0,017	0,046
-300,008	-200,000	0,017	-0,080
-298,993	478,739	0,035	0,058
-297,978	620,347	-0,045	0,084
-296,964	215,197	-0,084	0,097
-295,949	191,623	0,021	-0,024
-294,935	21,395	0,078	-0,046
-293,920	-99,938	-0,108	-0,020
-292,905	-200,000	-0,011	-0,067
-291,891	414,441	0,063	0,099
-290,876	141,958	0,079	-0,077
-289,862	-178,567	-0,056	0,001
-288,847	-200,000	0,006	-0,076
-287,832	-200,000	0,001	0,006
-286,818	220,360	0,065	-0,076
-285,803	-5,857	-0,073	0,036
-284,789	137,398	0,030	0,029
-283,774	116,080	0,145	0,130
-282,759	-103,482	0,177	0,030
-281,745	85,856	0,079	0,064
-280,730	-66,251	-0,051	-0,015
-279,716	117,532	0,052	-0,047
-278,701	-136,091	0,100	-0,008
-277,686	191,751	-0,041	-0,046
-276,672	800,000	0,037	0,094
-275,657	-154,532	-0,068	-0,003
-274,643	-88,816	0,028	-0,006
-273,628	-200,000	0,000	-0,046
-272,613	-200,000	0,035	-0,131
-271,599	-90,883	-0,041	-0,008
-270,584	-22,189	0,113	-0,050
-269,570	-181,196	0,142	0,002
-268,555	118,142	-0,072	0,065
-267,540	-12,760	0,109	-0,052
-266,526	-200,000	-0,006	0,110
-265,511	11,541	-0,156	-0,087
-264,497	-200,000	0,019	-0,073
-263,482	-41,845	0,034	0,013
-262,467	-138,540	0,177	0,014
-261,453	-50,737	0,040	-0,014
-260,438	-200,000	0,032	-0,183
-259,424	-121,103	-0,104	0,013
-258,409	11,389	-0,090	-0,050
-257,395	-200,000	0,008	0,035
-256,380	800,000	0,011	0,024
-255,365	442,777	0,078	0,126
-254,351	63,994	-0,040	0,029
-253,336	4,165	-0,075	-0,040
-252,322	-111,206	-0,034	0,005
-251,307	-146,482	0,079	0,005
-250,292	94,371	0,082	-0,068
-249,278	100,555	0,128	-0,108
-248,263	774,660	0,037	0,074
-247,249	800,000	0,081	0,240
-246,234	101,453	-0,098	0,083
-245,219	597,651	0,006	-0,011
-244,205	-200,000	0,000	-0,167
-243,190	-200,000	-0,001	-0,066
-242,176	97,268	0,110	-0,092
-241,161	-113,655	0,076	0,011
-240,146	-106,624	0,100	0,016
-239,132	337,171	0,014	0,020
-238,117	634,123	-0,048	0,089
-237,103	104,359	-0,111	-0,095
-236,088	370,270	0,045	0,067
-235,073	353,682	0,083	-0,120
-234,059	-200,000	0,023	0,106
-233,044	-25,821	0,189	0,081
-232,030	-160,012	-0,076	-0,003
-231,015	543,011	-0,024	-0,042
-230,000	-105,733	-0,185	0,030
-228,986	-151,424	-0,082	-0,004
-227,971	-40,611	-0,092	-0,035
-226,957	-200,000	0,009	0,040
-225,942	24,315	-0,070	0,042
-224,927	0,190	-0,020	-0,010
-223,913	-14,752	-0,056	-0,026
-222,898	151,043	-0,109	-0,108
-221,884	331,230	0,043	0,061
-220,869	233,006	-0,053	0,064
-219,855	39,950	0,135	-0,088
-218,840	138,361	0,086	-0,083
-217,825	26,559	0,096	-0,058
-216,811	800,000	-0,048	-0,148
-215,796	442,309	-0,067	-0,107
-214,782	-158,530	-0,145	-0,006
-213,767	800,000	-0,025	-0,075
-212,752	-33,865	-0,107	0,043
-211,738	-37,500	-0,117	0,045
-210,723	-95,328	0,124	-0,024
-209,709	289,461	0,095	-0,126
-208,694	-123,423	-0,134	0,015
-207,679	18,068	-0,122	-0,071
-206,665	19,207	0,119	0,070
-205,650	-200,000	-0,011	0,170
-204,636	15,561	-0,065	-0,037
-203,621	505,374	0,069	0,117
-202,606	-200,000	0,007	0,028
-201,592	54,580	0,065	-0,046
-200,577	103,832	0,049	-0,042
-199,563	-134,845	-0,013	-0,001
-198,548	-52,492	-0,028	-0,009
-197,533	-83,960	0,133	0,031
-196,519	21,820	0,062	-0,036
-195,504	-26,714	-0,122	-0,052
-194,490	-26,445	-0,144	-0,061
-193,475	270,011	-0,035	-0,045
-192,460	60,780	0,059	0,043
-191,446	230,499	-0,005	0,005
-190,431	-86,645	0,102	0,023
-189,417	800,000	0,048	0,115
-188,402	-2,977	-0,055	-0,028
-187,387	-140,521	0,041	0,003
-186,373	800,000	0,058	0,128
-185,358	52,458	-0,115	0,080
-184,344	454,761	-0,016	0,026
-183,329	83,514	-0,069	-0,055
-182,315	-200,000	-0,005	0,048
-181,300	323,042	-0,067	0,093
-180,285	-200,000	0,006	0,085
-179,271	17,316	-0,056	0,032
-178,256	-200,000	0,014	0,140
-177,242	-177,248	0,082	-0,001
-176,227	800,000	0,049	0,121
-175,212	142,360	0,023	0,022
-174,198	331,967	0,038	-0,054
-173,183	-164,165	0,113	0,004
-172,169	-200,000	0,015	0,053
-171,154	-141,831	-0,092	-0,007
-170,139	800,000	-0,012	0,038
-169,125	-10,605	0,197	0,094
-168,110	660,265	0,069	0,129
-167,096	-129,841	0,068	-0,007
-166,081	50,153	0,089	-0,061
-165,066	-119,616	-0,135	-0,017
-164,052	222,433	-0,079	-0,093
-163,037	-27,581	0,115	-0,048
-162,023	61,241	0,102	0,073
-161,008	59,716	-0,080	0,058
-159,993	-200,000	-0,018	-0,095
-158,979	-134,933	-0,100	0,009
-157,964	216,162	-0,066	0,077
-156,950	-11,405	-0,034	-0,016
-155,935	-200,000	0,007	-0,103
-154,920	514,197	-0,024	0,042
-153,906	30,159	0,094	-0,058
-152,891	-200,000	-0,023	0,104
-151,877	139,834	-0,059	-0,057
-150,862	251,480	-0,043	0,054
-149,847	-57,690	-0,089	-0,028
-148,833	-38,364	0,070	0,027
-147,818	-17,739	-0,026	-0,012
-146,804	800,000	0,006	-0,012
-145,789	70,950	0,075	0,057
-144,775	-93,701	-0,163	-0,032
-143,760	57,960	-0,095	0,067
-142,745	-32,715	0,060	-0,024
-141,731	-74,158	-0,049	0,013
-140,716	800,000	-0,036	0,087
-139,702	348,675	0,080	0,114
-138,687	800,000	0,066	0,179
-137,672	800,000	0,025	-0,067
-136,658	376,749	-0,104	-0,155
-135,643	-178,706	0,116	-0,002
-134,629	-136,608	-0,084	0,007
-133,614	16,571	-0,057	0,033
-132,599	-200,000	0,043	-0,183
-131,585	-31,727	-0,158	0,064
-130,570	482,594	-0,087	0,144
-129,556	-200,000	-0,010	0,043
-128,541	-200,000	-0,031	-0,164
-127,526	-200,000	-0,012	0,054
-126,512	-17,123	-0,056	0,026
-125,497	-42,490	0,134	-0,049
-124,483	-53,218	-0,060	-0,020
-123,468	-21,459	-0,121	0,054
-122,453	-200,000	0,001	-0,020
-121,439	-116,676	-0,101	-0,013
-120,424	-77,893	-0,080	-0,020
-119,410	-8,922	-0,088	0,043
