DTS Sentinel unit serial number:	SN410029Multiplexer serial number:	ORYXHardware model number:	OX2-SRSoftware version number:	ORYX F/W v4,00 Oryx Data Collector v3.7.2.0data status	okinstallation	B4 Nyhavnadifferential loss correction	single-endedforward channel	channel 2reverse channel	N/Adate	2023/12/16time	10:00:13forward acquisition time	300,00reverse acquisition time	0,00gamma	499,1914k internal	0,3126k external	0,3126temperature offset calibration	1,0000default loss term (dB/km)	0,3820temperature slope calibration	1,0000multiplexer offset coefficient	1,0000multiplexer slope coefficient	1,0000fibre end	0,00T internal ref (°C)	23,19T ext. ref 1 (°C)	8,87T ext. ref 2 (°C)	9,03length (m)	temperature (°C)	Stokes	anti-Stokes-744,400	595,312	0,011	-0,020
-743,385	94,794	-0,137	0,116
-742,371	-200,000	0,001	-0,144
-741,356	191,856	-0,075	0,085
-740,342	54,534	0,041	-0,030
-739,327	-20,389	-0,227	0,104
-738,312	360,874	0,121	-0,181
-737,298	222,760	-0,159	0,192
-736,283	800,000	0,014	-0,031
-735,269	-16,711	-0,265	0,125
-734,254	47,832	0,027	0,019
-733,239	-48,953	-0,441	-0,156
-732,225	-181,571	0,060	-0,001
-731,210	-17,337	0,022	0,010
-730,196	-200,000	0,006	0,026
-729,181	-169,097	-0,158	0,004
-728,167	-200,000	0,003	0,019
-727,152	-24,479	-0,148	-0,065
-726,137	-11,673	-0,191	-0,093
-725,123	18,452	-0,043	-0,025
-724,108	35,274	-0,111	-0,072
-723,094	406,902	-0,088	-0,138
-722,079	-146,282	-0,163	-0,010
-721,064	327,578	0,029	0,042
-720,050	-104,453	-0,046	0,008
-719,035	800,000	-0,043	-0,096
-718,021	-82,639	0,057	0,014
-717,006	800,000	-0,042	0,102
-715,991	-200,000	0,005	0,019
-714,977	800,000	0,038	-0,088
-713,962	800,000	-0,038	-0,107
-712,948	-82,014	0,002	0,000
-711,933	-200,000	0,006	-0,056
-710,918	-126,802	-0,041	-0,004
-709,904	800,000	-0,029	-0,066
-708,889	800,000	-0,043	-0,128
-707,875	-136,616	0,051	0,004
-706,860	800,000	0,047	0,127
-705,845	72,396	0,077	0,059
-704,831	-122,522	0,158	-0,019
-703,816	800,000	0,039	0,081
-702,802	-200,000	-0,004	0,108
-701,787	151,419	-0,027	-0,028
-700,772	-127,479	-0,162	-0,017
-699,758	-200,000	-0,014	-0,124
-698,743	71,124	0,090	0,069
-697,729	800,000	-0,059	-0,129
-696,714	764,723	-0,048	-0,098
-695,699	89,420	-0,096	-0,080
-694,685	-175,297	-0,095	0,002
-693,670	36,926	-0,019	-0,012
-692,656	259,674	0,053	-0,068
-691,641	-149,595	0,101	-0,006
-690,627	286,021	0,066	0,089
-689,612	-105,087	-0,236	0,040
-688,597	-92,006	-0,072	0,015
-687,583	800,000	0,015	0,042
-686,568	-68,682	-0,148	-0,042
-685,554	-32,224	0,087	0,036
-684,539	800,000	-0,015	-0,040
-683,524	-18,938	-0,038	-0,017
-682,510	800,000	0,028	-0,058
-681,495	-180,992	-0,125	-0,002
-680,481	800,000	-0,025	0,070
-679,466	-200,000	0,003	-0,013
-678,451	50,348	0,096	-0,067
-677,437	800,000	0,030	-0,080
-676,422	44,337	0,126	0,085
-675,408	150,009	0,112	-0,113
-674,393	162,614	-0,141	0,148
-673,378	148,874	-0,097	-0,098
-672,364	-10,532	-0,154	-0,075
-671,349	21,173	-0,051	0,031
-670,335	-200,000	0,019	0,095
-669,320	-200,000	0,003	0,100
-668,305	519,085	0,019	-0,034
-667,291	220,071	-0,105	-0,125
-666,276	-200,000	0,015	-0,103
-665,262	31,126	-0,149	-0,094
-664,247	63,831	-0,061	-0,046
-663,232	310,537	-0,032	-0,045
-662,218	-200,000	-0,004	0,106
-661,203	252,166	0,047	0,060
-660,189	282,724	-0,075	0,100
-659,174	224,135	0,076	0,091
-658,159	380,051	-0,062	-0,095
-657,145	-57,985	0,006	-0,002
-656,130	-200,000	0,022	0,099
-655,116	251,103	0,054	0,068
-654,101	-95,702	0,114	-0,022
-653,086	800,000	-0,060	0,138
-652,072	-200,000	0,025	-0,103
-651,057	107,221	-0,101	-0,089
-650,043	800,000	-0,027	-0,058
-649,028	-32,705	-0,090	-0,037
-648,014	-78,585	0,037	0,009
-646,999	-200,000	-0,014	0,127
-645,984	800,000	-0,053	0,128
-644,970	425,178	-0,049	-0,078
-643,955	29,896	0,076	-0,048
-642,941	337,626	-0,088	-0,127
-641,926	225,508	0,080	-0,096
-640,911	74,748	-0,038	0,030
-639,897	-200,000	0,005	0,101
-638,882	105,415	0,025	0,022
-637,868	800,000	-0,025	0,073
-636,853	-93,022	-0,172	0,035
-635,838	133,501	-0,039	-0,038
-634,824	-6,357	-0,081	-0,041
-633,809	358,928	0,038	-0,056
-632,795	112,913	0,082	-0,073
-631,780	42,915	0,125	0,084
-630,765	28,435	-0,091	-0,057
-629,751	-131,093	-0,102	-0,010
-628,736	-138,832	0,110	0,009
-627,722	793,880	-0,019	-0,040
-626,707	379,327	-0,035	0,053
-625,692	495,089	0,023	0,039
-624,678	-200,000	0,004	-0,075
-623,663	226,515	-0,069	0,083
-622,649	-54,936	-0,032	-0,011
-621,634	-93,771	0,062	0,013
-620,619	7,741	-0,130	-0,072
-619,605	-200,000	0,030	0,102
-618,590	660,408	-0,057	0,109
-617,576	-75,230	-0,022	-0,006
-616,561	438,747	0,099	-0,161
-615,546	201,174	0,078	0,089
-614,532	67,782	0,017	0,013
-613,517	265,916	-0,035	0,045
-612,503	-200,000	0,007	-0,022
-611,488	-200,000	-0,019	0,106
-610,474	195,196	0,023	0,026
-609,459	148,593	-0,099	0,099
-608,444	60,623	-0,088	0,064
-607,430	-200,000	-0,010	0,064
-606,415	-200,000	0,004	-0,199
-605,401	15,334	0,105	0,061
-604,386	-136,106	0,088	-0,008
-603,371	-35,602	0,162	0,065
-602,357	29,162	-0,108	-0,068
-601,342	-200,000	-0,022	-0,080
-600,328	800,000	0,029	-0,086
-599,313	800,000	0,026	-0,076
-598,298	-200,000	0,001	-0,070
-597,284	321,726	-0,044	-0,062
-596,269	498,272	0,071	0,122
-595,255	-53,086	0,007	0,002
-594,240	365,139	-0,058	-0,087
-593,225	299,122	-0,066	-0,090
-592,211	-200,000	0,012	-0,093
-591,196	9,099	0,067	0,037
-590,182	800,000	-0,027	0,071
-589,167	-80,005	0,040	-0,010
-588,152	800,000	0,015	0,039
-587,138	260,340	-0,017	-0,021
-586,123	221,839	-0,087	-0,104
-585,109	75,208	-0,187	-0,146
-584,094	33,224	0,095	-0,061
-583,079	76,586	0,145	-0,114
-582,065	-200,000	0,008	0,086
-581,050	-200,000	0,021	0,111
-580,036	330,231	0,024	-0,034
-579,021	-47,658	0,183	-0,065
-578,006	170,011	0,096	0,102
-576,992	15,733	-0,035	0,020
-575,977	93,614	0,113	-0,094
-574,963	79,064	-0,085	-0,068
-573,948	-200,000	0,013	0,054
-572,934	-200,000	-0,013	0,050
-571,919	-126,110	0,046	-0,005
-570,904	-10,574	-0,068	0,033
-569,890	204,578	-0,032	0,036
-568,875	497,792	-0,041	-0,070
-567,861	39,891	0,052	0,035
-566,846	-200,000	0,001	0,025
-565,831	671,678	-0,064	-0,123
-564,817	153,520	-0,042	-0,042
-563,802	-127,390	-0,070	-0,007
-562,788	-200,000	-0,001	-0,060
-561,773	396,250	-0,010	-0,016
-560,758	-10,285	-0,049	0,024
-559,744	800,000	0,044	0,107
-558,729	-200,000	0,009	0,069
-557,715	800,000	0,044	0,098
-556,700	-131,615	0,046	0,004
-555,685	209,630	-0,026	0,030
-554,671	341,323	-0,022	0,031
-553,656	-200,000	0,029	0,147
-552,642	800,000	-0,035	0,112
-551,627	467,032	-0,082	-0,137
-550,612	800,000	0,051	0,156
-549,598	62,554	-0,058	-0,042
-548,583	99,830	0,095	0,081
-547,569	-200,000	0,010	-0,096
-546,554	-200,000	0,006	-0,128
-545,539	554,996	0,069	-0,123
-544,525	-200,000	0,029	0,140
-543,510	83,118	-0,031	-0,025
-542,496	59,216	-0,075	0,055
-541,481	50,906	0,045	0,031
-540,466	116,902	0,090	-0,082
-539,452	-90,800	0,190	0,040
-538,437	130,384	-0,056	0,053
-537,423	-200,000	-0,033	0,112
-536,408	-43,328	-0,049	-0,018
-535,393	-200,000	-0,010	-0,111
-534,379	-168,389	-0,060	-0,002
-533,364	3,854	0,144	-0,077
-532,350	58,157	0,082	0,059
-531,335	-200,000	0,023	0,076
-530,321	357,182	-0,048	0,071
-529,306	-200,000	-0,004	-0,018
-528,291	-200,000	-0,011	-0,101
-527,277	-200,000	-0,021	-0,099
-526,262	-86,992	0,031	0,007
-525,248	665,032	-0,032	-0,061
-524,233	313,620	0,065	0,090
-523,218	6,346	-0,104	0,057
-522,204	195,171	-0,020	-0,023
-521,189	158,136	-0,025	0,026
-520,175	-30,777	-0,241	-0,100
-519,160	-200,000	0,004	-0,017
-518,145	-97,038	-0,062	0,012
-517,131	-42,691	0,098	0,037
-516,116	-200,000	0,006	-0,026
-515,102	445,561	-0,025	-0,040
-514,087	-200,000	-0,023	-0,139
-513,072	-200,000	0,003	-0,017
-512,058	-200,000	-0,005	0,017
-511,043	-98,658	-0,103	0,019
-510,029	299,560	-0,070	-0,095
-509,014	135,342	-0,063	0,060
-507,999	-200,000	0,002	-0,037
-506,985	574,959	-0,105	-0,190
-505,970	215,374	0,097	-0,113
-504,956	63,337	-0,013	-0,009
-503,941	338,162	0,102	-0,146
-502,926	-91,882	0,088	0,018
-501,912	-200,000	-0,018	0,097
-500,897	-28,428	-0,091	0,039
-499,883	64,196	0,052	0,039
-498,868	-200,000	0,001	-0,127
-497,853	-110,887	-0,075	-0,011
-496,839	-93,032	-0,101	-0,021
-495,824	84,977	0,029	0,023
-494,810	-75,530	0,156	0,041
-493,795	451,253	-0,073	-0,119
-492,781	-76,015	-0,088	-0,023
-491,766	800,000	-0,022	0,071
-490,751	-200,000	-0,006	0,025
-489,737	74,967	0,060	-0,047
-488,722	800,000	0,042	-0,130
-487,708	141,458	0,047	0,046
-486,693	-79,823	-0,196	0,048
-485,678	-200,000	0,011	-0,042
-484,664	800,000	-0,042	-0,088
-483,649	-130,514	-0,076	-0,007
-482,635	361,845	-0,054	0,081
-481,620	-200,000	0,029	-0,109
-480,605	-198,741	0,186	-0,001
-479,591	-145,874	-0,080	0,005
-478,576	183,988	0,030	-0,032
-477,562	-74,270	-0,047	0,012
-476,547	-146,397	-0,031	0,002
-475,532	800,000	-0,035	-0,076
-474,518	-152,490	0,064	-0,003
-473,503	402,652	-0,056	-0,087
-472,489	800,000	-0,048	0,150
-471,474	-125,913	-0,116	-0,013
-470,459	-194,322	0,090	-0,001
-469,445	87,275	-0,077	-0,063
-468,430	-200,000	-0,016	0,079
-467,416	-200,000	-0,004	-0,111
-466,401	-200,000	-0,003	0,155
-465,386	800,000	0,019	0,058
-464,372	-200,000	-0,002	0,120
-463,357	21,829	-0,095	-0,057
-462,343	-200,000	-0,001	-0,021
-461,328	-40,840	-0,085	-0,032
-460,313	-200,000	0,004	-0,093
-459,299	126,122	0,018	-0,017
-458,284	467,436	0,050	-0,082
-457,270	419,224	0,010	0,016
-456,255	-83,385	-0,097	0,023
-455,241	60,982	-0,033	0,024
-454,226	-114,339	-0,079	0,011
-453,211	669,874	0,018	0,034
-452,197	510,187	-0,029	-0,050
-451,182	800,000	0,040	0,091
-450,168	-21,264	0,103	-0,046
-449,153	207,326	0,109	-0,125
-448,138	-200,000	0,019	-0,109
-447,124	-113,179	-0,123	0,018
-446,109	-22,914	0,153	0,068
-445,095	-200,000	-0,004	0,042
-444,080	12,089	0,134	-0,075
-443,065	99,922	0,068	0,058
-442,051	-49,073	-0,138	0,049
-441,036	399,244	-0,026	-0,040
-440,022	374,185	-0,117	-0,176
-439,007	-200,000	0,019	0,073
-437,992	-4,683	0,087	0,044
-436,978	65,127	0,136	0,101
-435,963	119,598	0,098	0,089
-434,949	-49,045	0,099	-0,035
-433,934	47,171	0,066	0,045
-432,919	800,000	-0,058	-0,143
-431,905	456,221	0,020	-0,033
-430,890	-142,285	0,128	0,009
-429,876	53,078	-0,101	0,071
-428,861	196,155	0,017	-0,019
-427,846	135,724	-0,040	-0,039
-426,832	-200,000	-0,007	0,074
-425,817	135,123	0,050	0,048
-424,803	-17,159	-0,091	-0,042
-423,788	786,677	-0,019	-0,038
-422,773	-123,777	0,032	-0,004
-421,759	-101,731	-0,090	-0,016
-420,744	-200,000	0,040	0,173
-419,730	-200,000	0,016	-0,064
-418,715	573,381	-0,084	-0,152
-417,701	49,610	-0,014	0,010
-416,686	57,791	0,084	0,060
-415,671	-93,440	0,202	0,041
-414,657	-64,798	-0,131	0,039
-413,642	408,112	-0,092	0,143
-412,628	-121,079	0,108	-0,013
-411,613	800,000	-0,025	-0,052
-410,598	-200,000	-0,008	0,064
-409,584	10,839	0,044	0,025
-408,569	357,149	0,036	0,054
-407,555	-158,691	0,136	0,006
-406,540	16,711	-0,019	-0,011
-405,525	580,721	-0,069	0,124
-404,511	233,734	0,049	-0,060
-403,496	107,728	0,062	0,054
-402,482	-48,421	0,052	0,018
-401,467	-44,951	0,133	-0,048
-400,452	800,000	-0,041	0,101
-399,438	694,203	0,030	0,059
-398,423	253,645	0,068	0,085
-397,409	334,573	0,095	-0,135
-396,394	359,888	-0,063	-0,092
-395,379	-82,195	-0,119	-0,028
-394,365	-200,000	-0,008	-0,050
-393,350	-183,473	0,158	0,002
-392,336	800,000	0,034	-0,083
-391,321	-200,000	-0,009	0,171
-390,306	737,241	-0,036	-0,070
-389,292	498,777	0,032	-0,054
-388,277	-85,917	-0,136	-0,031
-387,263	652,967	0,032	0,060
-386,248	-200,000	-0,024	0,082
-385,233	104,452	0,091	0,079
-384,219	-24,271	-0,031	-0,013
-383,204	-128,754	-0,089	0,009
-382,190	616,187	0,043	-0,080
-381,175	722,541	0,023	0,046
-380,160	-99,085	0,027	0,005
-379,146	100,842	-0,016	0,013
-378,131	23,658	0,089	0,054
-377,117	126,213	-0,031	0,029
-376,102	162,088	-0,093	0,096
-375,088	800,000	0,059	-0,121
-374,073	-64,609	-0,066	-0,020
-373,058	186,163	-0,042	0,046
-372,044	479,376	0,043	-0,072
-371,029	127,994	-0,112	-0,104
-370,015	800,000	-0,042	-0,111
-369,000	33,951	-0,039	-0,025
-367,985	6,004	-0,059	0,032
-366,971	-49,009	-0,119	-0,041
-365,956	413,847	0,065	0,101
-364,942	-200,000	0,029	0,136
-363,927	214,148	0,036	-0,041
-362,912	374,446	-0,097	0,145
-361,898	31,225	0,166	-0,104
-360,883	-29,241	-0,109	-0,046
-359,869	-200,000	-0,009	-0,037
-358,854	-29,797	-0,105	-0,044
-357,839	-143,544	0,026	-0,002
-356,825	4,746	0,010	0,005
-355,810	-101,186	0,145	-0,026
-354,796	-144,674	-0,098	0,006
-353,781	-200,000	-0,009	-0,061
-352,766	157,031	-0,090	-0,091
-351,752	8,494	0,034	0,019
-350,737	397,100	0,038	-0,058
-349,723	466,510	-0,024	-0,039
-348,708	800,000	0,013	0,039
-347,693	-200,000	-0,013	0,133
-346,679	44,569	-0,103	-0,069
-345,664	-200,000	-0,001	-0,050
-344,650	-39,326	-0,129	-0,050
-343,635	102,939	-0,113	0,097
-342,620	-100,943	-0,049	0,009
-341,606	800,000	0,011	0,029
-340,591	61,146	-0,125	-0,091
-339,577	107,940	0,112	-0,098
-338,562	103,595	0,030	0,026
-337,548	-200,000	0,000	0,002
-336,533	-200,000	0,025	-0,174
-335,518	-200,000	0,021	0,104
-334,504	31,442	-0,058	0,036
-333,489	800,000	-0,062	0,135
-332,475	676,207	-0,035	-0,067
-331,460	-23,578	-0,114	-0,050
-330,445	-191,870	0,091	-0,001
-329,431	37,102	0,037	0,024
-328,416	150,910	0,083	0,083
-327,402	800,000	-0,020	0,046
-326,387	546,814	0,020	0,035
-325,372	37,547	0,044	0,029
-324,358	63,936	0,095	-0,070
-323,343	-106,151	-0,105	-0,017
-322,329	21,938	0,085	-0,050
-321,314	99,643	0,109	0,093
-320,299	-200,000	-0,030	0,117
-319,285	-34,545	0,116	-0,046
-318,270	-108,293	-0,067	-0,010
-317,256	-200,000	0,006	0,023
-316,241	-61,341	0,031	-0,009
-315,226	198,937	-0,117	-0,131
-314,212	65,227	0,073	-0,054
-313,197	-200,000	-0,023	-0,084
-312,183	-187,035	-0,119	-0,001
-311,168	-15,440	-0,064	-0,030
-310,153	100,566	-0,071	-0,060
-309,139	-105,251	-0,103	-0,017
-308,124	-94,104	0,068	-0,013
-307,110	36,689	-0,045	0,029
-306,095	-200,000	0,015	0,156
-305,080	800,000	0,046	0,132
-304,066	-200,000	0,009	-0,050
-303,051	198,014	-0,065	0,073
-302,037	-139,868	0,050	0,004
-301,022	45,496	-0,046	0,031
-300,008	31,717	0,184	0,115
-298,993	184,510	0,052	-0,057
-297,978	334,549	-0,046	-0,066
-296,964	497,591	-0,005	-0,008
-295,949	517,112	0,018	0,030
-294,935	800,000	0,037	-0,116
-293,920	-55,102	0,097	0,032
-292,905	3,188	0,039	0,021
-291,891	31,983	0,028	0,018
-290,876	194,594	0,023	0,026
-289,862	489,176	0,056	-0,094
-288,847	800,000	-0,031	-0,063
-287,832	-200,000	0,000	0,110
-286,818	-200,000	-0,006	0,096
-285,803	234,046	0,057	0,069
-284,789	-97,805	0,022	0,004
-283,774	316,746	-0,099	0,137
-282,759	-200,000	0,020	0,069
-281,745	-5,508	0,066	-0,033
-280,730	-64,272	-0,200	-0,059
-279,716	322,163	-0,024	-0,034
-278,701	-90,954	0,129	0,027
-277,686	-200,000	0,008	-0,124
-276,672	-177,661	0,047	0,001
-275,657	-200,000	0,021	0,209
-274,643	357,889	0,075	-0,110
-273,628	-200,000	0,038	-0,200
-272,613	51,517	-0,003	0,002
-271,599	-200,000	-0,001	0,061
-270,584	-200,000	-0,004	-0,060
-269,570	9,542	-0,035	0,019
-268,555	132,292	-0,065	0,061
-267,540	27,152	0,110	-0,067
-266,526	-91,121	-0,152	0,032
-265,511	505,034	0,039	0,066
-264,497	-174,840	0,137	0,003
-263,482	315,065	-0,015	0,020
-262,467	114,042	0,136	0,121
-261,453	-200,000	0,021	-0,069
-260,438	100,481	0,083	-0,070
-259,424	22,559	0,039	-0,023
-258,409	60,125	-0,109	0,079
-257,395	314,434	0,082	0,113
-256,380	57,451	0,090	0,064
-255,365	310,972	0,078	0,106
-254,351	131,290	-0,097	0,091
-253,336	-167,549	-0,222	-0,006
-252,322	-200,000	0,009	-0,231
-251,307	32,225	0,013	0,008
-250,292	-168,082	0,087	-0,002
-249,278	-146,883	0,078	-0,005
-248,263	-200,000	-0,032	0,180
-247,249	362,166	0,043	0,064
-246,234	-200,000	0,015	0,110
-245,219	-47,603	-0,095	-0,034
-244,205	-82,663	-0,099	-0,023
-243,190	-200,000	-0,002	-0,017
-242,176	-13,545	0,115	-0,054
-241,161	2,910	-0,068	0,036
-240,146	117,342	0,077	-0,069
-239,132	79,579	-0,057	-0,045
-238,117	-200,000	0,017	-0,089
-237,103	170,662	-0,031	-0,032
-236,088	189,585	0,072	0,079
-235,073	-169,370	0,090	-0,002
-234,059	281,530	-0,057	0,075
-233,044	-83,191	-0,152	0,035
-232,030	-200,000	0,002	-0,083
-231,015	-76,948	0,060	-0,015
-230,000	691,812	-0,042	-0,082
-228,986	-135,059	0,086	-0,007
-227,971	-200,000	-0,013	-0,081
-226,957	440,747	0,058	0,093
-225,942	553,744	-0,036	0,063
-224,927	58,378	0,044	0,032
-223,913	295,043	-0,028	0,037
-222,898	-70,783	-0,075	0,021
-221,884	-74,060	-0,115	-0,030
-220,869	-200,000	-0,027	0,147
-219,855	-200,000	-0,015	0,157
-218,840	487,747	-0,102	0,170
-217,825	102,991	-0,058	-0,049
-216,811	583,307	0,063	0,113
-215,796	403,530	0,038	-0,059
-214,782	305,117	0,029	-0,040
-213,767	-136,315	0,124	-0,010
-212,752	147,780	0,022	0,022
-211,738	29,765	-0,058	0,036
-210,723	461,683	0,031	-0,050
-209,709	-200,000	-0,002	0,037
-208,694	791,178	0,016	0,033
-207,679	-134,366	-0,150	-0,013
-206,665	-126,958	0,053	-0,006
-205,650	-200,000	-0,007	-0,067
-204,636	-183,337	0,025	-0,000
-203,621	800,000	0,023	0,067
-202,606	800,000	0,038	-0,104
-201,592	69,282	-0,073	-0,054
-200,577	-14,665	0,043	-0,020
-199,563	-200,000	-0,006	0,050
-198,548	-72,297	-0,076	0,020
-197,533	-200,000	-0,034	-0,114
-196,519	800,000	0,032	0,090
-195,504	259,948	0,030	0,038
-194,490	-57,695	0,074	0,023
-193,475	475,428	0,039	-0,064
-192,460	-200,000	-0,008	-0,132
-191,446	144,543	0,101	0,098
-190,431	384,441	0,059	0,090
-189,417	-127,748	0,104	-0,011
-188,402	63,428	0,065	-0,048
-187,387	-26,070	0,027	-0,012
-186,373	-88,308	-0,048	-0,010
-185,358	-78,935	0,046	0,011
-184,344	-62,011	-0,079	0,024
-183,329	-38,873	0,037	0,014
-182,315	-33,571	0,010	-0,004
-181,300	-107,006	0,085	-0,014
-180,285	-200,000	-0,008	0,222
-179,271	-54,173	-0,059	-0,019
-178,256	113,898	-0,097	-0,086
-177,242	16,614	0,137	0,079
-176,227	-200,000	-0,035	0,136
-175,212	-68,721	-0,025	0,007
-174,198	800,000	-0,038	-0,107
-173,183	-5,159	-0,076	0,038
-172,169	-152,951	-0,042	-0,002
-171,154	-130,131	0,034	0,003
-170,139	66,280	0,036	0,026
-169,125	-75,241	0,130	-0,034
-168,110	-39,798	-0,029	0,011
-167,096	-67,644	-0,067	0,019
-166,081	284,864	-0,027	-0,036
-165,066	-49,922	-0,124	-0,043
-164,052	-66,615	-0,044	-0,013
-163,037	-200,000	0,008	-0,047
-162,023	-141,866	0,095	0,007
-161,008	-33,793	-0,083	0,033
-159,993	94,343	0,062	0,052
-158,979	226,475	0,072	-0,085
-157,964	-56,193	-0,076	-0,024
-156,950	314,748	-0,053	-0,072
-155,935	-97,467	0,038	-0,007
-154,920	-200,000	0,009	0,038
-153,906	-200,000	0,013	-0,045
-152,891	800,000	-0,039	-0,082
-151,877	-63,007	0,119	-0,035
-150,862	-200,000	-0,009	-0,034
-149,847	800,000	-0,016	0,041
-148,833	48,273	-0,076	-0,052
-147,818	-155,953	0,088	-0,004
-146,804	626,684	0,084	0,155
-145,789	-46,506	0,065	-0,023
-144,775	-200,000	0,024	0,088
-143,760	-200,000	-0,043	0,216
-142,745	800,000	0,027	-0,080
-141,731	-0,727	-0,073	0,037
-140,716	62,572	0,210	0,152
-139,702	-200,000	-0,008	0,040
-138,687	800,000	0,028	0,071
-137,672	-200,000	0,010	0,081
-136,658	643,383	0,024	0,045
-135,643	800,000	-0,039	-0,099
-134,629	-200,000	-0,004	0,036
-133,614	-83,431	0,058	0,014
-132,599	-200,000	0,000	-0,020
-131,585	-200,000	0,032	0,118
-130,570	531,761	-0,078	0,134
-129,556	-137,293	0,064	0,005
-128,541	-82,269	0,025	-0,006
-127,526	-200,000	-0,027	-0,110
-126,512	-200,000	0,001	0,090
-125,497	113,424	0,104	0,092
-124,483	-200,000	0,008	-0,047
-123,468	-77,870	0,171	-0,043
-122,453	83,851	-0,124	-0,099
-121,439	-193,514	0,139	-0,001
-120,424	-57,190	-0,039	0,012
-119,410	569,906	0,041	0,073
-118,395	-81,666	0,065	-0,015
