DTS Sentinel unit serial number:	SN410029Multiplexer serial number:	ORYXHardware model number:	OX2-SRSoftware version number:	ORYX F/W v4,00 Oryx Data Collector v3.7.2.0data status	okinstallation	B4 Nyhavnadifferential loss correction	single-endedforward channel	channel 2reverse channel	N/Adate	2023/12/16time	05:50:13forward acquisition time	300,00reverse acquisition time	0,00gamma	499,1914k internal	0,3127k external	0,3127temperature offset calibration	1,0000default loss term (dB/km)	0,3820temperature slope calibration	1,0000multiplexer offset coefficient	1,0000multiplexer slope coefficient	1,0000fibre end	0,00T internal ref (°C)	22,20T ext. ref 1 (°C)	7,47T ext. ref 2 (°C)	7,64length (m)	temperature (°C)	Stokes	anti-Stokes-744,400	589,274	0,065	-0,120
-743,385	281,918	-0,087	0,116
-742,371	-101,748	0,070	-0,013
-741,356	-33,603	-0,283	0,116
-740,342	-30,739	0,170	0,071
-739,327	10,176	-0,270	0,152
-738,312	-89,289	-0,148	0,032
-737,298	-15,598	-0,253	0,120
-736,283	-200,000	-0,005	0,107
-735,269	30,794	-0,146	0,093
-734,254	-15,430	0,174	0,082
-733,239	-34,681	-0,478	-0,194
-732,225	60,987	0,198	-0,146
-731,210	-200,000	-0,002	0,098
-730,196	-200,000	0,003	0,033
-729,181	-200,000	-0,021	-0,108
-728,167	227,027	-0,012	0,015
-727,152	363,358	0,108	-0,163
-726,137	-145,451	-0,177	-0,012
-725,123	-171,163	-0,072	0,002
-724,108	494,575	-0,066	-0,113
-723,094	800,000	-0,015	0,035
-722,079	-13,014	-0,097	-0,047
-721,064	215,027	0,064	-0,076
-720,050	-136,204	-0,140	0,012
-719,035	151,201	0,114	-0,116
-718,021	-114,490	-0,119	0,017
-717,006	199,370	-0,044	-0,050
-715,991	-103,162	-0,040	-0,007
-714,977	800,000	-0,022	-0,064
-713,962	-23,620	-0,135	-0,060
-712,948	401,573	0,055	-0,086
-711,933	329,064	-0,035	-0,050
-710,918	-200,000	-0,014	-0,054
-709,904	53,346	-0,158	-0,113
-708,889	-200,000	-0,003	0,098
-707,875	571,793	-0,059	-0,107
-706,860	401,012	-0,048	-0,076
-705,845	-200,000	-0,007	-0,093
-704,831	-200,000	-0,010	-0,048
-703,816	-141,478	-0,067	-0,005
-702,802	800,000	-0,030	-0,062
-701,787	84,794	-0,056	-0,046
-700,772	557,311	-0,045	0,082
-699,758	-141,025	0,013	-0,001
-698,743	764,505	0,051	0,103
-697,729	-119,509	0,031	-0,004
-696,714	-151,515	-0,097	-0,005
-695,699	-15,111	0,116	0,055
-694,685	-200,000	0,022	-0,077
-693,670	800,000	-0,035	-0,096
-692,656	698,775	-0,073	-0,144
-691,641	800,000	-0,052	0,147
-690,627	293,678	0,046	0,063
-689,612	105,624	0,078	0,068
-688,597	266,211	-0,031	-0,041
-687,583	383,742	-0,057	-0,087
-686,568	57,286	-0,029	0,021
-685,554	83,486	-0,102	-0,083
-684,539	162,374	-0,037	-0,039
-683,524	-111,287	-0,118	0,018
-682,510	310,372	0,063	-0,088
-681,495	-200,000	-0,024	-0,132
-680,481	38,015	-0,027	0,018
-679,466	-113,581	0,139	-0,020
-678,451	270,616	-0,043	-0,057
-677,437	-1,785	0,095	-0,050
-676,422	-35,316	-0,057	-0,023
-675,408	59,806	-0,067	0,049
-674,393	61,987	-0,068	-0,051
-673,378	-200,000	0,019	-0,115
-672,364	548,826	0,089	-0,158
-671,349	256,863	-0,048	-0,061
-670,335	2,154	0,127	0,068
-669,320	-41,461	0,041	-0,016
-668,305	22,840	-0,089	-0,054
-667,291	-138,014	-0,069	-0,006
-666,276	42,221	0,068	0,046
-665,262	91,901	-0,053	-0,044
-664,247	155,119	-0,093	0,095
-663,232	168,169	0,062	-0,066
-662,218	-200,000	-0,006	0,034
-661,203	-200,000	-0,021	-0,071
-660,189	23,990	-0,082	0,050
-659,174	-200,000	0,012	-0,121
-658,159	-200,000	-0,001	-0,009
-657,145	-200,000	-0,087	-0,300
-656,130	-60,106	-0,077	-0,024
-655,116	-58,968	0,165	-0,053
-654,101	-116,963	-0,049	-0,007
-653,086	-200,000	-0,021	0,101
-652,072	-200,000	-0,045	0,173
-651,057	-119,790	-0,105	0,013
-650,043	-200,000	0,018	-0,077
-649,028	800,000	-0,047	-0,119
-648,014	800,000	0,057	0,164
-646,999	135,704	-0,079	0,076
-645,984	339,157	-0,070	0,101
-644,970	-200,000	-0,032	-0,154
-643,955	-159,688	-0,090	-0,004
-642,941	137,413	-0,111	-0,107
-641,926	-93,216	0,056	0,011
-640,911	-135,542	-0,020	-0,002
-639,897	-200,000	0,043	0,160
-638,882	762,452	0,045	-0,091
-637,868	-148,175	-0,051	-0,003
-636,853	646,978	0,073	-0,139
-635,838	560,590	-0,083	0,150
-634,824	800,000	-0,014	-0,041
-633,809	-200,000	-0,007	0,097
-632,795	40,207	-0,080	0,053
-631,780	-5,147	0,052	0,026
-630,765	-139,407	0,054	-0,004
-629,751	192,209	0,056	-0,063
-628,736	60,552	-0,092	-0,067
-627,722	433,552	-0,041	-0,066
-626,707	479,868	-0,041	0,068
-625,692	24,131	0,136	0,083
-624,678	-9,077	0,090	0,044
-623,663	-52,717	0,084	0,029
-622,649	-200,000	-0,016	0,091
-621,634	2,355	-0,042	0,023
-620,619	-190,030	-0,079	-0,001
-619,605	800,000	0,018	-0,053
-618,590	414,344	-0,094	0,148
-617,576	15,295	0,079	-0,046
-616,561	248,198	0,038	-0,048
-615,546	-53,116	-0,078	-0,026
-614,532	800,000	0,047	-0,112
-613,517	285,045	-0,037	-0,050
-612,503	19,775	0,048	-0,029
-611,488	-200,000	-0,003	-0,041
-610,474	166,483	0,096	0,101
-609,459	-107,828	0,012	-0,002
-608,444	-74,128	0,046	-0,012
-607,430	267,348	-0,077	0,099
-606,415	647,400	0,031	-0,058
-605,401	755,504	-0,023	0,046
-604,386	-2,915	-0,158	0,081
-603,371	-149,467	-0,072	-0,004
-602,357	782,194	-0,084	-0,172
-601,342	-64,973	0,143	-0,042
-600,328	-127,338	0,078	-0,008
-599,313	-200,000	0,003	0,107
-598,298	-85,954	0,036	0,008
-597,284	800,000	0,029	-0,064
-596,269	176,971	0,037	-0,040
-595,255	800,000	-0,047	0,113
-594,240	293,155	-0,026	-0,036
-593,225	-87,764	-0,092	-0,020
-592,211	800,000	-0,010	-0,022
-591,196	-200,000	0,005	-0,061
-590,182	-84,324	0,113	-0,026
-589,167	800,000	0,050	0,104
-588,152	29,587	0,076	0,048
-587,138	223,455	0,028	-0,033
-586,123	243,954	-0,034	-0,043
-585,109	125,017	0,071	-0,066
-584,094	566,298	0,054	-0,097
-583,079	218,324	0,056	0,067
-582,065	690,325	-0,034	0,066
-581,050	113,502	-0,041	0,037
-580,036	-89,022	-0,110	0,024
-579,021	407,956	-0,066	-0,104
-578,006	-155,021	-0,122	0,006
-576,992	-200,000	-0,003	0,024
-575,977	-200,000	-0,036	0,189
-574,963	395,937	0,034	-0,053
-573,948	289,498	-0,019	0,026
-572,934	-96,055	-0,071	0,014
-571,919	-200,000	0,009	-0,115
-570,904	-168,176	0,110	-0,003
-569,890	81,648	-0,032	0,025
-568,875	-200,000	0,009	0,072
-567,861	324,221	0,059	0,084
-566,846	68,291	-0,053	0,040
-565,831	15,746	0,039	0,023
-564,817	83,963	-0,070	0,056
-563,802	52,553	-0,082	-0,058
-562,788	-200,000	-0,006	-0,026
-561,773	201,128	-0,012	-0,013
-560,758	233,038	0,017	-0,020
-559,744	152,824	0,050	0,051
-558,729	48,765	0,078	-0,054
-557,715	-200,000	-0,022	-0,135
-556,700	38,920	0,099	0,065
-555,685	131,983	0,067	0,064
-554,671	-200,000	-0,005	-0,058
-553,656	76,637	0,008	-0,006
-552,642	31,836	0,041	0,026
-551,627	-200,000	0,002	0,032
-550,612	-200,000	0,000	-0,043
-549,598	-46,742	-0,068	0,025
-548,583	-26,608	0,035	-0,015
-547,569	-9,717	-0,067	0,033
-546,554	-200,000	-0,031	0,157
-545,539	-200,000	-0,022	0,157
-544,525	-200,000	0,007	0,048
-543,510	-200,000	0,019	0,103
-542,496	-82,535	-0,062	0,015
-541,481	402,895	-0,067	0,105
-540,466	424,484	0,061	-0,097
-539,452	-200,000	0,021	0,079
-538,437	-200,000	-0,003	0,022
-537,423	-200,000	0,002	-0,044
-536,408	-99,880	0,138	0,025
-535,393	139,164	-0,110	0,107
-534,379	-27,513	-0,090	0,038
-533,364	303,710	-0,085	0,117
-532,350	-200,000	-0,026	-0,096
-531,335	-122,439	0,036	0,004
-530,321	126,090	0,004	0,004
-529,306	243,023	0,088	-0,110
-528,291	-93,649	-0,066	0,013
-527,277	-36,782	0,021	-0,008
-526,262	106,946	0,043	0,038
-525,248	-200,000	-0,002	0,085
-524,233	240,709	0,073	-0,090
-523,218	800,000	-0,023	-0,064
-522,204	-200,000	-0,006	0,025
-521,189	-68,855	-0,066	0,019
-520,175	-125,027	0,014	-0,002
-519,160	-0,218	-0,075	0,039
-518,145	-200,000	0,036	0,127
-517,131	-200,000	-0,020	0,087
-516,116	800,000	0,043	-0,095
-515,102	-53,727	0,052	0,017
-514,087	11,047	-0,047	0,027
-513,072	-200,000	-0,016	-0,061
-512,058	176,300	-0,047	-0,050
-511,043	-24,863	0,130	-0,057
-510,029	-117,258	-0,171	-0,023
-509,014	76,624	-0,067	0,052
-507,999	240,154	0,033	0,041
-506,985	-122,156	-0,057	-0,007
-505,970	1,662	0,057	-0,030
-504,956	50,973	0,073	0,051
-503,941	284,169	-0,039	-0,051
-502,926	43,829	0,097	0,065
-501,912	694,063	0,093	0,181
-500,897	-85,820	-0,079	-0,018
-499,883	42,169	-0,075	-0,050
-498,868	320,093	0,030	-0,042
-497,853	4,870	-0,107	-0,058
-496,839	-119,630	-0,071	-0,009
-495,824	166,115	0,011	-0,011
-494,810	-200,000	-0,005	0,037
-493,795	58,582	-0,024	-0,018
-492,781	-23,466	0,028	-0,013
-491,766	-105,956	-0,153	-0,025
-490,751	-67,551	0,138	0,040
-489,737	-63,373	-0,073	-0,022
-488,722	14,219	0,113	0,065
-487,708	644,332	-0,053	0,100
-486,693	91,782	0,048	0,040
-485,678	-200,000	0,031	-0,188
-484,664	800,000	-0,020	0,050
-483,649	-200,000	0,016	-0,105
-482,635	162,024	-0,085	0,087
-481,620	487,253	0,089	0,151
-480,605	-163,904	0,067	0,002
-479,591	165,392	-0,065	0,068
-478,576	-200,000	-0,009	-0,051
-477,562	-174,623	0,060	0,001
-476,547	209,165	-0,067	-0,078
-475,532	-200,000	-0,003	-0,055
-474,518	800,000	0,015	-0,032
-473,503	-200,000	0,035	-0,262
-472,489	-156,007	-0,031	0,001
-471,474	409,716	-0,008	0,013
-470,459	-200,000	-0,017	-0,091
-469,445	153,196	-0,070	0,071
-468,430	-111,873	-0,080	0,012
-467,416	161,149	-0,088	-0,091
-466,401	-200,000	-0,006	-0,122
-465,386	249,104	0,044	0,055
-464,372	194,211	0,040	-0,044
-463,357	-2,407	0,041	-0,021
-462,343	295,149	0,058	-0,078
-461,328	-38,488	0,057	-0,022
-460,313	-200,000	0,009	0,032
-459,299	-97,665	0,059	0,011
-458,284	-166,182	0,095	-0,003
-457,270	-66,841	0,179	0,052
-456,255	4,433	0,024	0,013
-455,241	-9,063	-0,117	-0,058
-454,226	-200,000	0,016	0,107
-453,211	110,775	0,042	0,037
-452,197	302,705	0,025	-0,035
-451,182	212,264	-0,038	0,045
-450,168	586,385	0,020	-0,037
-449,153	625,439	0,051	-0,094
-448,138	800,000	-0,046	-0,124
-447,124	15,429	0,038	-0,022
-446,109	-164,256	-0,052	-0,002
-445,095	-160,073	-0,108	0,004
-444,080	800,000	0,035	0,103
-443,065	-36,561	0,113	0,045
-442,051	-200,000	-0,039	-0,176
-441,036	-140,169	0,036	0,003
-440,022	-26,029	-0,049	-0,021
-439,007	-200,000	0,018	-0,064
-437,992	-107,339	-0,061	-0,010
-436,978	-200,000	-0,011	-0,044
-435,963	-151,039	-0,137	0,007
-434,949	-26,491	-0,031	0,013
-433,934	-200,000	0,024	-0,182
-432,919	41,358	0,131	-0,087
-431,905	-200,000	-0,002	-0,038
-430,890	800,000	0,015	-0,030
-429,876	-96,043	0,110	0,021
-428,861	203,650	0,075	-0,086
-427,846	639,310	-0,030	0,057
-426,832	168,518	-0,028	0,029
-425,817	153,752	-0,077	-0,078
-424,803	-0,531	-0,126	-0,066
-423,788	-153,077	-0,051	-0,003
-422,773	-131,459	-0,076	0,007
-421,759	248,330	0,011	0,014
-420,744	800,000	0,086	0,184
-419,730	-200,000	0,000	-0,013
-418,715	303,756	0,016	-0,022
-417,701	196,411	0,097	0,108
-416,686	-147,193	-0,176	-0,011
-415,671	800,000	-0,046	0,131
-414,657	-200,000	-0,036	0,139
-413,642	3,976	0,059	0,032
-412,628	170,385	-0,015	0,016
-411,613	231,273	0,023	0,028
-410,598	800,000	0,019	-0,055
-409,584	-200,000	0,001	0,110
-408,569	-44,389	0,112	0,041
-407,555	-63,852	0,099	-0,030
-406,540	-189,689	-0,045	0,000
-405,525	800,000	0,030	-0,079
-404,511	-0,500	0,018	0,010
-403,496	-158,043	-0,097	-0,004
-402,482	-147,468	0,091	-0,006
-401,467	-200,000	-0,016	0,080
-400,452	150,490	-0,030	0,030
-399,438	-200,000	0,035	0,149
-398,423	-200,000	0,034	-0,155
-397,409	-41,613	0,013	-0,005
-396,394	106,875	-0,106	-0,092
-395,379	678,735	-0,036	-0,070
-394,365	-62,619	-0,103	0,031
-393,350	37,799	-0,108	0,071
-392,336	800,000	-0,029	0,059
-391,321	-35,688	0,131	-0,052
-390,306	-200,000	0,007	0,033
-389,292	-200,000	0,022	-0,113
-388,277	-87,737	0,183	-0,040
-387,263	211,152	0,057	-0,065
-386,248	800,000	-0,013	-0,037
-385,233	800,000	0,012	-0,033
-384,219	393,688	-0,031	0,048
-383,204	800,000	-0,017	-0,046
-382,190	-200,000	0,017	0,097
-381,175	94,187	-0,045	0,038
-380,160	-32,030	0,053	-0,022
-379,146	21,857	0,093	-0,055
-378,131	-200,000	0,000	-0,095
-377,117	267,859	0,035	0,044
-376,102	-200,000	-0,026	-0,092
-375,088	-200,000	-0,029	-0,128
-374,073	-81,092	-0,042	0,010
-373,058	800,000	-0,037	-0,101
-372,044	-70,254	-0,027	0,007
-371,029	-100,188	-0,066	0,012
-370,015	-200,000	0,001	0,058
-369,000	-200,000	0,027	-0,095
-367,985	-200,000	0,033	-0,190
-366,971	-200,000	-0,003	-0,114
-365,956	-200,000	0,012	-0,060
-364,942	-200,000	-0,011	0,167
-363,927	-200,000	-0,020	0,073
-362,912	-90,267	-0,062	-0,013
-361,898	125,386	0,062	0,057
-360,883	288,694	0,040	0,053
-359,869	800,000	0,013	0,028
-358,854	120,093	0,044	-0,040
-357,839	-89,234	0,090	-0,019
-356,825	-200,000	0,039	0,143
-355,810	266,708	0,070	0,090
-354,796	-200,000	0,022	-0,121
-353,781	-78,654	0,171	-0,043
-352,766	-134,599	-0,119	-0,010
-351,752	-200,000	-0,004	-0,130
-350,737	-106,819	-0,106	0,017
-349,723	290,960	0,087	-0,116
-348,708	443,010	-0,076	-0,123
-347,693	-27,176	0,110	-0,047
-346,679	30,844	-0,105	0,066
-345,664	-200,000	0,039	-0,139
-344,650	-200,000	-0,023	-0,174
-343,635	306,625	-0,022	0,031
-342,620	-200,000	0,009	-0,036
-341,606	-200,000	0,000	-0,123
-340,591	-200,000	0,003	0,058
-339,577	-21,279	0,058	-0,026
-338,562	-17,291	-0,147	-0,067
-337,548	-70,137	0,062	-0,017
-336,533	326,609	-0,047	0,066
-335,518	-5,214	0,073	0,037
-334,504	-200,000	-0,004	-0,014
-333,489	-29,557	-0,084	0,035
-332,475	180,087	0,037	0,040
-331,460	34,297	-0,049	-0,031
-330,445	-112,374	0,054	0,008
-329,431	348,894	0,055	0,080
-328,416	117,846	-0,028	0,025
-327,402	346,467	0,065	0,094
-326,387	128,975	-0,035	0,032
-325,372	-42,770	0,102	-0,038
-324,358	365,264	-0,029	-0,044
-323,343	-75,859	0,069	-0,018
-322,329	399,360	0,030	-0,047
-321,314	-200,000	0,018	0,130
-320,299	-42,921	-0,051	0,019
-319,285	800,000	-0,065	0,161
-318,270	252,474	0,061	0,076
-317,256	292,297	0,004	-0,005
-316,241	-200,000	-0,004	-0,060
-315,226	-33,190	0,099	0,040
-314,212	-37,458	0,072	0,028
-313,197	150,105	0,046	0,046
-312,183	7,548	-0,055	0,030
-311,168	558,198	-0,046	0,082
-310,153	-200,000	-0,022	-0,156
-309,139	-200,000	0,004	-0,164
-308,124	800,000	0,016	-0,034
-307,110	456,202	0,084	0,137
-306,095	399,023	0,074	0,113
-305,080	33,765	0,087	-0,055
-304,066	25,922	0,049	-0,030
-303,051	-200,000	-0,022	0,085
-302,037	472,489	-0,034	0,056
-301,022	800,000	-0,053	0,112
-300,008	-200,000	0,006	0,081
-298,993	110,066	-0,111	-0,097
-297,978	88,601	-0,056	0,046
-296,964	800,000	-0,056	-0,152
-295,949	374,336	-0,057	-0,085
-294,935	-200,000	0,005	-0,026
-293,920	-52,779	0,071	-0,024
-292,905	149,325	-0,088	0,087
-291,891	800,000	0,051	0,162
-290,876	262,856	0,074	-0,095
-289,862	-38,432	0,091	-0,035
-288,847	-200,000	-0,045	-0,199
-287,832	130,737	-0,063	-0,059
-286,818	800,000	0,070	-0,184
-285,803	508,495	-0,058	-0,099
-284,789	-90,592	0,105	-0,022
-283,774	800,000	-0,059	0,130
-282,759	136,146	-0,085	0,081
-281,745	-23,768	0,154	-0,067
-280,730	-135,244	-0,054	-0,005
-279,716	567,252	0,051	0,092
-278,701	-200,000	-0,018	0,118
-277,686	-84,173	0,083	-0,019
-276,672	697,881	0,035	0,068
-275,657	-47,369	-0,144	-0,051
-274,643	-200,000	-0,026	-0,120
-273,628	-200,000	-0,004	-0,033
-272,613	-125,226	-0,106	-0,012
-271,599	343,740	0,110	-0,158
-270,584	-116,484	0,178	0,024
-269,570	182,838	0,034	-0,036
-268,555	386,952	-0,056	0,084
-267,540	-200,000	-0,019	-0,065
-266,526	500,430	-0,051	-0,086
-265,511	-200,000	0,020	0,114
-264,497	-55,372	0,155	0,051
-263,482	-200,000	0,048	0,181
-262,467	-131,345	0,135	0,013
-261,453	139,581	-0,052	-0,050
-260,438	559,075	-0,016	0,029
-259,424	-200,000	-0,012	-0,041
-258,409	-138,332	0,196	0,016
-257,395	-200,000	0,013	0,124
-256,380	-200,000	0,038	0,202
-255,365	-200,000	0,078	0,258
-254,351	-60,859	-0,113	0,035
-253,336	217,720	0,068	-0,079
-252,322	-38,608	-0,084	-0,032
-251,307	51,212	-0,094	-0,065
-250,292	70,871	0,064	-0,048
-249,278	-200,000	0,011	0,169
-248,263	-200,000	0,052	0,177
-247,249	757,345	-0,046	0,092
-246,234	-59,748	-0,072	-0,022
-245,219	-89,465	-0,060	-0,013
-244,205	474,806	0,031	0,051
-243,190	-92,345	-0,083	-0,017
-242,176	6,784	-0,067	-0,037
-241,161	-42,974	0,067	0,025
-240,146	-200,000	0,019	0,080
-239,132	-200,000	-0,007	0,071
-238,117	22,236	-0,044	-0,026
-237,103	-200,000	0,000	-0,045
-236,088	96,709	0,109	-0,091
-235,073	-22,118	-0,092	0,040
-234,059	-104,196	-0,069	0,012
-233,044	-200,000	-0,017	-0,120
-232,030	17,681	-0,102	0,059
-231,015	487,945	-0,024	-0,041
-230,000	800,000	0,042	-0,106
-228,986	-200,000	-0,001	-0,103
-227,971	-131,922	-0,060	0,006
-226,957	-84,739	0,065	0,015
-225,942	361,837	-0,109	-0,160
-224,927	-200,000	0,013	-0,125
-223,913	159,245	0,025	-0,025
-222,898	-157,666	-0,046	0,002
-221,884	-71,034	-0,128	-0,035
-220,869	20,705	0,115	-0,068
-219,855	137,087	-0,024	0,023
-218,840	-200,000	-0,002	-0,067
-217,825	237,069	-0,028	-0,033
-216,811	39,123	0,010	-0,006
-215,796	-200,000	0,051	-0,169
-214,782	116,852	-0,036	-0,032
-213,767	549,203	0,042	0,073
-212,752	-136,993	0,028	0,002
-211,738	800,000	0,020	-0,061
-210,723	-7,796	0,064	-0,031
-209,709	800,000	-0,043	0,104
-208,694	-200,000	0,010	-0,076
-207,679	25,614	-0,068	-0,041
-206,665	-79,347	0,190	0,047
-205,650	-200,000	-0,009	0,061
-204,636	800,000	-0,049	0,128
-203,621	24,574	-0,136	0,082
-202,606	-143,920	-0,113	-0,008
-201,592	137,202	-0,128	-0,122
-200,577	800,000	0,013	0,029
-199,563	-101,856	0,058	-0,010
-198,548	-200,000	0,008	0,065
-197,533	544,661	-0,019	0,033
-196,519	-200,000	0,005	-0,040
-195,504	-108,847	-0,195	0,030
-194,490	-148,425	0,040	-0,002
-193,475	-200,000	0,000	0,019
-192,460	412,508	-0,075	-0,116
-191,446	-170,734	-0,103	0,003
-190,431	517,623	0,114	0,195
-189,417	800,000	0,039	-0,113
-188,402	-31,314	0,025	-0,010
-187,387	-123,703	-0,204	-0,023
-186,373	800,000	0,021	-0,062
-185,358	-200,000	-0,001	-0,040
-184,344	-112,116	0,072	-0,010
-183,329	-200,000	-0,017	0,204
-182,315	246,125	0,019	0,024
-181,300	200,926	0,109	-0,123
-180,285	-200,000	0,010	-0,105
-179,271	-162,498	-0,203	0,007
-178,256	-141,395	0,012	-0,001
-177,242	800,000	0,035	0,072
-176,227	-17,669	0,105	-0,048
-175,212	800,000	-0,019	0,044
-174,198	-200,000	-0,001	0,158
-173,183	274,793	-0,085	-0,110
-172,169	800,000	0,031	0,099
-171,154	696,012	-0,020	0,038
-170,139	395,368	0,025	-0,039
-169,125	-60,197	0,016	0,005
-168,110	513,957	0,046	0,078
-167,096	800,000	0,009	0,029
-166,081	-97,946	-0,103	-0,019
-165,066	29,552	-0,087	-0,054
-164,052	132,735	-0,028	0,027
-163,037	800,000	0,034	0,087
-162,023	-44,859	0,080	0,029
-161,008	-200,000	0,002	-0,148
-159,993	464,512	0,044	0,071
-158,979	242,309	-0,100	0,122
-157,964	-200,000	0,041	-0,151
-156,950	582,401	-0,027	-0,048
-155,935	-200,000	0,019	0,096
-154,920	-200,000	-0,002	0,011
-153,906	-200,000	-0,007	0,093
-152,891	186,493	0,052	0,056
-151,877	120,878	-0,012	0,011
-150,862	-200,000	-0,011	-0,155
-149,847	-200,000	0,065	-0,000
-148,833	800,000	-0,050	0,115
-147,818	214,023	-0,069	-0,079
-146,804	800,000	0,010	-0,032
-145,789	193,628	-0,058	-0,064
-144,775	16,934	-0,052	-0,030
-143,760	-70,485	-0,184	0,050
-142,745	800,000	0,048	-0,152
-141,731	294,860	-0,111	-0,149
-140,716	-121,399	-0,039	0,005
-139,702	143,115	0,063	0,061
-138,687	336,731	-0,032	0,045
-137,672	-134,393	0,096	0,008
-136,658	-43,788	-0,076	0,028
-135,643	-196,185	-0,068	0,000
-134,629	353,606	-0,092	0,133
-133,614	-75,061	0,073	0,019
-132,599	-200,000	-0,017	0,105
-131,585	-200,000	-0,004	-0,015
-130,570	-200,000	0,003	0,061
-129,556	25,964	-0,148	-0,089
-128,541	38,276	0,077	-0,050
-127,526	374,159	0,115	-0,170
-126,512	183,900	-0,105	0,113
-125,497	216,132	0,010	0,011
-124,483	37,393	-0,069	0,044
-123,468	614,709	-0,044	-0,080
-122,453	36,627	-0,150	-0,096
-121,439	90,310	-0,027	-0,022
