DTS Sentinel unit serial number:	SN410029Multiplexer serial number:	ORYXHardware model number:	OX2-SRSoftware version number:	ORYX F/W v4,00 Oryx Data Collector v3.7.2.0data status	okinstallation	B4 Nyhavnadifferential loss correction	single-endedforward channel	channel 2reverse channel	N/Adate	2023/12/16time	08:10:13forward acquisition time	300,00reverse acquisition time	0,00gamma	499,1914k internal	0,3127k external	0,3127temperature offset calibration	1,0000default loss term (dB/km)	0,3820temperature slope calibration	1,0000multiplexer offset coefficient	1,0000multiplexer slope coefficient	1,0000fibre end	0,00T internal ref (°C)	22,44T ext. ref 1 (°C)	8,23T ext. ref 2 (°C)	8,39length (m)	temperature (°C)	Stokes	anti-Stokes-744,400	53,993	0,125	-0,089
-743,385	41,022	-0,280	0,188
-742,371	-200,000	-0,013	-0,103
-741,356	-45,184	-0,178	0,065
-740,342	-18,825	-0,136	-0,063
-739,327	99,245	-0,175	0,150
-738,312	484,315	-0,031	-0,053
-737,298	12,728	-0,220	0,126
-736,283	-144,351	0,193	0,013
-735,269	800,000	-0,098	0,238
-734,254	800,000	0,024	-0,072
-733,239	-158,682	-0,397	-0,017
-732,225	-94,819	0,171	-0,034
-731,210	140,552	0,064	0,063
-730,196	1,307	-0,116	-0,062
-729,181	-200,000	0,008	-0,046
-728,167	-200,000	0,039	-0,169
-727,152	-105,781	-0,104	-0,017
-726,137	283,109	0,041	0,054
-725,123	96,472	-0,070	-0,060
-724,108	-55,753	-0,121	0,040
-723,094	-34,450	-0,238	-0,097
-722,079	-85,322	-0,210	-0,048
-721,064	174,656	-0,029	-0,031
-720,050	29,794	0,117	0,074
-719,035	-57,039	0,072	-0,023
-718,021	113,186	-0,090	-0,081
-717,006	571,333	-0,094	-0,171
-715,991	468,024	0,090	-0,151
-714,977	-137,993	0,017	0,001
-713,962	-13,828	-0,098	-0,047
-712,948	277,885	0,079	0,104
-711,933	800,000	0,060	-0,126
-710,918	361,354	0,081	0,122
-709,904	-200,000	-0,008	-0,070
-708,889	198,008	-0,090	-0,102
-707,875	124,674	0,065	-0,061
-706,860	-64,936	0,124	0,037
-705,845	-200,000	-0,013	0,089
-704,831	39,056	0,114	-0,075
-703,816	800,000	0,036	-0,105
-702,802	-200,000	0,012	0,142
-701,787	366,914	-0,033	-0,049
-700,772	-200,000	-0,030	-0,128
-699,758	229,189	-0,078	0,095
-698,743	-200,000	-0,007	0,033
-697,729	36,960	-0,031	0,020
-696,714	324,477	0,030	-0,043
-695,699	800,000	0,011	0,035
-694,685	-200,000	0,033	-0,121
-693,670	195,558	-0,063	-0,071
-692,656	454,323	0,061	0,101
-691,641	-200,000	-0,031	0,176
-690,627	-200,000	0,004	-0,029
-689,612	-200,000	0,031	0,176
-688,597	62,638	-0,115	0,086
-687,583	448,422	-0,010	0,017
-686,568	112,560	0,127	-0,114
-685,554	-40,893	-0,062	0,024
-684,539	-88,873	0,015	-0,003
-683,524	800,000	-0,056	0,122
-682,510	-139,984	0,058	-0,004
-681,495	-200,000	-0,023	-0,102
-680,481	30,499	-0,065	-0,041
-679,466	-47,853	-0,090	-0,032
-678,451	-23,473	-0,071	0,031
-677,437	15,064	-0,101	0,059
-676,422	-141,628	-0,049	0,004
-675,408	-200,000	0,005	0,066
-674,393	574,262	0,025	0,045
-673,378	11,360	-0,033	-0,019
-672,364	-63,212	-0,066	0,020
-671,349	-119,140	-0,055	-0,007
-670,335	-111,329	0,095	0,014
-669,320	-89,977	-0,023	-0,005
-668,305	131,031	0,047	-0,045
-667,291	14,822	-0,102	-0,059
-666,276	224,742	-0,053	0,064
-665,262	198,624	-0,049	0,056
-664,247	-200,000	-0,000	-0,004
-663,232	-33,485	-0,084	-0,034
-662,218	-3,867	0,061	-0,031
-661,203	199,666	-0,094	0,108
-660,189	-46,339	-0,064	-0,023
-659,174	-81,913	-0,158	0,038
-658,159	800,000	-0,054	-0,176
-657,145	-122,135	0,098	0,012
-656,130	201,596	-0,039	-0,045
-655,116	-73,973	0,070	-0,019
-654,101	-64,219	0,051	-0,015
-653,086	-200,000	0,002	-0,047
-652,072	-17,099	-0,066	0,031
-651,057	436,387	0,076	0,123
-650,043	-200,000	-0,020	0,072
-649,028	800,000	-0,034	0,078
-648,014	-12,902	0,057	-0,027
-646,999	-200,000	0,028	0,133
-645,984	351,096	0,065	0,095
-644,970	-162,367	-0,112	-0,004
-643,955	616,418	-0,013	0,025
-642,941	118,072	0,029	0,027
-641,926	138,482	0,034	-0,033
-640,911	407,782	0,016	0,026
-639,897	-92,984	-0,050	0,010
-638,882	-200,000	-0,020	0,102
-637,868	260,690	-0,045	-0,057
-636,853	45,785	0,128	-0,087
-635,838	-115,164	-0,129	-0,018
-634,824	800,000	0,023	-0,069
-633,809	-200,000	0,003	-0,049
-632,795	-200,000	0,004	0,189
-631,780	13,792	-0,102	0,058
-630,765	74,478	0,032	-0,025
-629,751	-200,000	0,004	-0,041
-628,736	-25,842	-0,044	-0,019
-627,722	-200,000	-0,005	-0,053
-626,707	110,797	0,047	-0,041
-625,692	-200,000	0,014	0,183
-624,678	-200,000	0,017	0,143
-623,663	-148,620	0,034	0,002
-622,649	0,468	-0,170	-0,090
-621,634	800,000	0,030	-0,088
-620,619	-200,000	-0,018	-0,086
-619,605	-200,000	0,002	-0,018
-618,590	-60,567	0,049	0,015
-617,576	800,000	0,025	0,078
-616,561	143,246	-0,132	-0,130
-615,546	-200,000	-0,026	-0,096
-614,532	35,193	-0,031	0,020
-613,517	-200,000	0,005	0,053
-612,503	-200,000	0,039	0,153
-611,488	-200,000	0,012	-0,099
-610,474	-127,008	-0,028	0,003
-609,459	424,182	0,054	-0,087
-608,444	-200,000	-0,018	-0,091
-607,430	-63,334	0,015	-0,004
-606,415	391,816	0,039	-0,061
-605,401	6,463	0,018	-0,010
-604,386	523,376	0,008	0,015
-603,371	251,677	0,041	0,051
-602,357	469,342	-0,062	-0,104
-601,342	325,549	0,045	-0,063
-600,328	800,000	0,030	0,063
-599,313	-200,000	0,008	-0,069
-598,298	685,701	-0,038	-0,075
-597,284	-200,000	-0,006	-0,040
-596,269	800,000	0,016	0,051
-595,255	-101,953	0,076	-0,013
-594,240	-195,820	-0,034	0,000
-593,225	274,366	-0,055	-0,072
-592,211	19,638	-0,088	-0,052
-591,196	142,827	-0,042	-0,041
-590,182	-200,000	0,009	-0,128
-589,167	776,834	-0,040	-0,080
-588,152	545,687	0,009	-0,015
-587,138	-59,721	-0,088	0,028
-586,123	77,790	-0,060	-0,048
-585,109	800,000	-0,012	-0,038
-584,094	-69,187	0,115	0,033
-583,079	-200,000	0,057	0,275
-582,065	-119,618	0,091	-0,011
-581,050	-163,930	0,129	-0,004
-580,036	-200,000	0,018	0,063
-579,021	800,000	0,018	0,045
-578,006	800,000	0,028	0,075
-576,992	56,234	0,073	-0,053
-575,977	-73,634	-0,056	-0,015
-574,963	365,352	-0,049	0,073
-573,948	-38,000	-0,123	0,048
-572,934	-200,000	0,001	0,038
-571,919	-85,366	-0,072	0,016
-570,904	-200,000	0,010	-0,110
-569,890	11,204	0,133	-0,075
-568,875	-159,616	0,085	0,003
-567,861	800,000	0,020	0,059
-566,846	800,000	-0,029	0,081
-565,831	20,435	-0,080	-0,048
-564,817	-200,000	0,006	-0,059
-563,802	101,949	-0,152	-0,131
-562,788	-200,000	-0,019	0,113
-561,773	404,113	0,057	-0,089
-560,758	776,621	0,024	0,049
-559,744	-25,238	0,026	0,011
-558,729	800,000	0,045	-0,112
-557,715	800,000	0,022	-0,052
-556,700	239,120	-0,078	-0,096
-555,685	594,180	0,016	-0,030
-554,671	304,428	-0,049	0,068
-553,656	346,719	0,025	0,036
-552,642	-200,000	0,038	0,134
-551,627	-113,559	-0,050	0,007
-550,612	800,000	0,057	-0,117
-549,598	800,000	-0,019	-0,061
-548,583	-97,410	-0,055	0,011
-547,569	258,949	-0,031	-0,040
-546,554	21,908	0,077	-0,046
-545,539	-200,000	-0,001	0,099
-544,525	-200,000	-0,010	-0,123
-543,510	96,851	-0,060	-0,051
-542,496	77,461	-0,088	-0,069
-541,481	-181,210	0,033	-0,000
-540,466	-200,000	0,000	-0,098
-539,452	-96,761	0,123	0,024
-538,437	-30,032	-0,091	0,038
-537,423	-200,000	0,006	-0,062
-536,408	-108,977	-0,123	0,019
-535,393	390,910	-0,015	0,023
-534,379	-101,561	-0,114	0,020
-533,364	225,190	-0,042	-0,050
-532,350	180,605	0,015	0,017
-531,335	-200,000	-0,009	0,075
-530,321	483,832	0,030	-0,051
-529,306	-200,000	0,017	0,072
-528,291	800,000	0,053	-0,162
-527,277	-200,000	-0,004	-0,087
-526,262	363,709	-0,031	-0,046
-525,248	-200,000	-0,005	0,018
-524,233	-200,000	0,006	-0,036
-523,218	533,626	0,059	-0,104
-522,204	195,998	-0,034	0,038
-521,189	231,378	-0,039	-0,047
-520,175	-46,439	-0,082	-0,030
-519,160	83,597	0,009	-0,007
-518,145	-200,000	-0,146	-0,000
-517,131	-200,000	0,015	-0,069
-516,116	-50,116	0,176	0,061
-515,102	89,786	-0,031	0,026
-514,087	-152,642	0,088	-0,005
-513,072	606,059	-0,045	0,082
-512,058	16,410	0,071	-0,041
-511,043	-80,493	0,017	0,004
-510,029	86,531	-0,125	-0,102
-509,014	-81,565	0,148	0,036
-507,999	461,187	-0,056	-0,093
-506,985	-30,545	0,033	0,014
-505,970	-69,270	0,091	0,026
-504,956	73,799	-0,087	-0,067
-503,941	800,000	0,029	-0,088
-502,926	-123,335	0,118	-0,014
-501,912	-200,000	0,022	0,138
-500,897	800,000	-0,043	-0,113
-499,883	179,347	-0,036	-0,039
-498,868	720,335	-0,035	-0,068
-497,853	-200,000	0,012	-0,053
-496,839	-200,000	-0,010	-0,060
-495,824	-200,000	-0,004	0,062
-494,810	-30,264	-0,093	-0,039
-493,795	-200,000	0,017	0,101
-492,781	-65,454	-0,081	0,024
-491,766	568,902	-0,045	-0,082
-490,751	786,749	-0,038	-0,077
-489,737	-77,217	0,171	0,043
-488,722	176,236	-0,094	0,101
-487,708	-28,958	0,080	-0,034
-486,693	-91,010	0,063	0,013
-485,678	25,829	0,135	0,083
-484,664	800,000	-0,003	-0,008
-483,649	-86,249	-0,052	0,012
-482,635	354,913	0,032	0,047
-481,620	-200,000	-0,037	0,147
-480,605	-200,000	0,009	0,065
-479,591	66,106	0,094	0,070
-478,576	597,587	-0,079	0,145
-477,562	-200,000	-0,009	-0,095
-476,547	-1,331	-0,037	-0,019
-475,532	-200,000	0,019	0,094
-474,518	-51,917	-0,043	0,015
-473,503	500,854	-0,039	0,067
-472,489	-185,050	0,205	-0,002
-471,474	-19,183	-0,043	-0,020
-470,459	-133,365	-0,075	-0,007
-469,445	-26,320	-0,077	-0,033
-468,430	-23,312	-0,156	-0,069
-467,416	196,112	0,039	-0,044
-466,401	601,349	0,026	0,047
-465,386	-200,000	0,024	0,111
-464,372	25,595	0,020	-0,012
-463,357	109,842	-0,064	-0,056
-462,343	800,000	0,021	0,065
-461,328	56,688	0,007	-0,005
-460,313	-76,009	-0,056	0,014
-459,299	800,000	0,037	0,079
-458,284	145,871	0,057	0,056
-457,270	-200,000	-0,003	0,078
-456,255	-77,743	-0,086	0,022
-455,241	374,311	0,038	0,057
-454,226	-200,000	-0,012	-0,038
-453,211	-200,000	0,011	0,131
-452,197	-200,000	0,007	0,188
-451,182	390,295	0,078	0,119
-450,168	17,094	0,035	0,020
-449,153	-123,247	-0,067	0,008
-448,138	-112,194	-0,031	-0,005
-447,124	-200,000	0,022	-0,134
-446,109	-200,000	0,005	-0,141
-445,095	-200,000	-0,008	0,068
-444,080	136,682	-0,101	0,097
-443,065	359,583	0,126	0,186
-442,051	-200,000	0,005	-0,175
-441,036	118,877	0,046	0,042
-440,022	-200,000	0,008	-0,034
-439,007	-200,000	-0,011	-0,076
-437,992	-38,513	0,062	-0,024
-436,978	193,107	0,047	-0,053
-435,963	800,000	0,018	0,051
-434,949	-154,929	0,178	-0,008
-433,934	-200,000	0,005	0,029
-432,919	-200,000	-0,015	-0,125
-431,905	657,730	-0,007	0,013
-430,890	800,000	-0,015	0,031
-429,876	-187,878	-0,158	0,001
-428,861	-111,118	0,081	0,012
-427,846	47,258	-0,150	-0,103
-426,832	800,000	0,009	-0,020
-425,817	-200,000	-0,010	0,109
-424,803	-200,000	-0,007	0,107
-423,788	-200,000	0,009	0,101
-422,773	-72,638	0,031	0,008
-421,759	-200,000	0,014	0,127
-420,744	154,418	0,051	-0,052
-419,730	-200,000	-0,010	0,059
-418,715	767,100	-0,042	-0,085
-417,701	-123,779	-0,041	-0,005
-416,686	605,432	0,025	-0,047
-415,671	-200,000	0,010	-0,136
-414,657	277,843	-0,068	0,089
-413,642	46,305	0,052	0,036
-412,628	-35,017	-0,178	-0,071
-411,613	252,003	-0,085	-0,107
-410,598	-200,000	-0,007	-0,163
-409,584	75,639	0,127	0,098
-408,569	800,000	0,030	-0,083
-407,555	187,258	0,107	0,118
-406,540	-79,248	0,079	-0,019
-405,525	-81,706	0,121	0,029
-404,511	-3,713	0,044	-0,022
-403,496	-200,000	-0,005	-0,099
-402,482	-22,948	-0,079	-0,035
-401,467	-200,000	-0,018	0,083
-400,452	-26,420	-0,092	0,039
-399,438	800,000	-0,035	-0,077
-398,423	11,950	0,051	-0,029
-397,409	64,211	-0,093	-0,068
-396,394	590,515	0,033	-0,060
-395,379	232,497	0,010	-0,011
-394,365	800,000	0,039	-0,090
-393,350	-200,000	-0,008	-0,100
-392,336	800,000	0,042	0,119
-391,321	-200,000	-0,024	0,100
-390,306	-200,000	0,011	-0,104
-389,292	-200,000	-0,022	-0,153
-388,277	-107,435	-0,124	0,020
-387,263	34,669	0,102	0,065
-386,248	575,795	0,091	0,163
-385,233	-200,000	0,010	0,038
-384,219	-52,784	-0,062	0,021
-383,204	-200,000	0,004	-0,052
-382,190	393,872	0,032	-0,049
-381,175	800,000	-0,045	-0,113
-380,160	-109,659	-0,040	-0,006
-379,146	47,903	0,104	0,071
-378,131	-200,000	0,016	0,118
-377,117	-190,833	-0,052	0,000
-376,102	592,421	-0,071	-0,129
-375,088	-29,862	0,122	-0,051
-374,073	-200,000	0,008	-0,031
-373,058	50,956	-0,068	0,047
-372,044	-200,000	0,006	0,160
-371,029	800,000	-0,007	0,020
-370,015	82,166	0,127	0,101
-369,000	-200,000	0,029	-0,100
-367,985	304,699	-0,082	-0,112
-366,971	224,503	0,095	-0,113
-365,956	-200,000	0,001	-0,009
-364,942	-44,744	0,124	0,045
-363,927	171,918	0,073	0,077
-362,912	29,012	0,036	0,023
-361,898	93,589	0,058	-0,048
-360,883	93,173	-0,040	-0,033
-359,869	56,365	-0,097	0,069
-358,854	128,703	-0,034	-0,032
-357,839	800,000	0,004	-0,012
-356,825	800,000	-0,029	-0,063
-355,810	43,895	-0,029	-0,020
-354,796	-90,123	0,086	-0,018
-353,781	800,000	0,032	0,089
-352,766	-118,092	0,124	0,016
-351,752	-26,498	-0,144	0,061
-350,737	78,205	0,064	0,050
-349,723	179,855	0,100	0,108
-348,708	800,000	0,035	0,072
-347,693	-200,000	-0,019	0,192
-346,679	-110,317	0,045	-0,007
-345,664	561,264	-0,030	-0,053
-344,650	-106,844	0,120	-0,019
-343,635	12,056	0,038	-0,022
-342,620	-200,000	-0,013	0,144
-341,606	-67,659	-0,061	-0,017
-340,591	800,000	0,027	0,063
-339,577	-44,462	-0,080	0,029
-338,562	-200,000	-0,013	-0,173
-337,548	-200,000	0,015	-0,090
-336,533	13,966	-0,103	-0,058
-335,518	800,000	-0,017	-0,046
-334,504	-200,000	0,030	0,097
-333,489	-10,552	-0,128	0,062
-332,475	800,000	0,046	0,100
-331,460	242,182	0,067	-0,082
-330,445	-200,000	-0,001	-0,053
-329,431	66,759	-0,046	0,034
-328,416	-74,594	0,049	-0,013
-327,402	210,412	-0,110	0,127
-326,387	-200,000	-0,022	0,106
-325,372	-55,766	-0,076	0,025
-324,358	-69,474	-0,007	-0,002
-323,343	-200,000	-0,020	0,121
-322,329	405,833	0,056	0,087
-321,314	193,618	0,065	0,072
-320,299	-200,000	-0,011	0,087
-319,285	-200,000	-0,003	0,034
-318,270	-68,592	0,036	-0,010
-317,256	-20,937	0,073	-0,033
-316,241	-27,408	0,046	-0,019
-315,226	41,468	0,064	0,043
-314,212	9,294	0,107	0,059
-313,197	800,000	0,071	-0,149
-312,183	454,856	0,041	0,066
-311,168	142,755	-0,073	-0,071
-310,153	-120,306	-0,155	0,019
-309,139	191,481	-0,061	0,067
-308,124	-200,000	0,024	0,107
-307,110	109,993	0,082	0,072
-306,095	184,624	-0,087	0,095
-305,080	-83,167	-0,041	-0,010
-304,066	-52,285	-0,074	0,025
-303,051	-84,511	-0,044	-0,010
-302,037	-200,000	-0,004	-0,130
-301,022	500,928	0,055	-0,094
-300,008	340,524	0,091	0,130
-298,993	-157,856	0,118	-0,005
-297,978	-93,999	-0,126	0,025
-296,964	-200,000	0,000	0,012
-295,949	-200,000	0,001	0,021
-294,935	229,991	-0,095	-0,114
-293,920	-88,876	0,030	0,006
-292,905	136,446	-0,062	-0,060
-291,891	781,308	0,041	0,082
-290,876	-70,071	-0,072	0,020
-289,862	-200,000	-0,005	-0,086
-288,847	-137,028	-0,099	-0,008
-287,832	-200,000	0,033	-0,193
-286,818	21,763	0,021	0,012
-285,803	415,434	0,057	0,090
-284,789	43,111	0,018	0,012
-283,774	800,000	0,023	0,072
-282,759	649,880	-0,017	0,033
-281,745	-200,000	-0,002	0,010
-280,730	-200,000	0,005	-0,094
-279,716	800,000	0,024	-0,051
-278,701	-200,000	-0,004	0,031
-277,686	-17,646	0,084	-0,039
-276,672	-22,099	-0,075	-0,033
-275,657	-200,000	0,001	0,006
-274,643	110,936	0,078	-0,069
-273,628	32,561	-0,047	-0,029
-272,613	-200,000	0,006	-0,135
-271,599	-149,425	-0,116	0,007
-270,584	149,074	-0,059	0,059
-269,570	-112,016	0,108	-0,016
-268,555	-200,000	0,023	0,106
-267,540	23,815	0,175	-0,105
-266,526	-200,000	0,012	-0,107
-265,511	563,405	-0,065	-0,115
-264,497	190,058	0,063	0,069
-263,482	-200,000	0,006	0,122
-262,467	95,124	-0,100	0,083
-261,453	631,852	-0,051	-0,096
-260,438	800,000	-0,042	-0,125
-259,424	-56,289	-0,120	0,039
-258,409	-97,848	0,116	-0,022
-257,395	-200,000	0,000	-0,053
-256,380	599,491	-0,036	0,066
-255,365	73,117	0,113	0,086
-254,351	-47,402	-0,098	-0,035
-253,336	69,028	-0,089	0,066
-252,322	131,721	0,024	-0,022
-251,307	-200,000	0,003	0,012
-250,292	19,786	0,100	0,059
-249,278	328,062	-0,016	-0,023
-248,263	800,000	0,054	0,109
-247,249	234,536	-0,050	0,060
-246,234	-105,427	-0,037	0,006
-245,219	174,925	-0,082	-0,087
-244,205	150,488	-0,071	-0,071
-243,190	-5,803	0,120	0,060
-242,176	152,601	-0,060	-0,060
-241,161	27,812	0,064	0,039
-240,146	-10,612	0,128	-0,061
-239,132	-0,237	-0,126	-0,065
-238,117	475,051	-0,041	0,067
-237,103	800,000	-0,066	-0,208
-236,088	196,009	0,143	-0,159
-235,073	-200,000	0,012	0,065
-234,059	-200,000	0,013	-0,096
-233,044	-37,548	0,139	-0,054
-232,030	-200,000	-0,004	0,089
-231,015	306,083	-0,020	-0,027
-230,000	139,516	-0,016	0,016
-228,986	35,023	0,178	0,114
-227,971	204,031	-0,079	0,089
-226,957	-54,928	0,091	-0,030
-225,942	-84,117	0,076	0,017
-224,927	-200,000	0,010	-0,034
-223,913	200,865	-0,114	-0,128
-222,898	-6,972	-0,071	-0,035
-221,884	-200,000	-0,017	0,000
-220,869	-108,052	-0,033	-0,005
-219,855	-200,000	0,010	0,053
-218,840	78,981	-0,087	-0,068
-217,825	571,490	-0,024	-0,042
-216,811	-28,474	0,045	0,019
-215,796	-200,000	0,003	-0,074
-214,782	-149,299	-0,088	-0,005
-213,767	800,000	-0,065	0,184
-212,752	-38,349	0,085	0,033
-211,738	-200,000	-0,001	-0,065
-210,723	52,021	0,073	0,051
-209,709	314,075	-0,080	-0,111
-208,694	150,469	-0,125	-0,124
-207,679	302,329	-0,016	-0,022
-206,665	-75,658	0,105	0,027
-205,650	-10,038	-0,040	-0,019
-204,636	31,796	0,048	0,030
-203,621	-200,000	-0,009	0,099
-202,606	-200,000	-0,009	-0,030
-201,592	201,031	-0,014	0,016
-200,577	-200,000	0,013	0,106
-199,563	389,089	0,039	0,059
-198,548	470,430	0,020	-0,032
-197,533	221,197	0,063	0,073
-196,519	90,702	-0,062	0,050
-195,504	-148,656	0,136	0,008
-194,490	713,016	-0,022	0,043
-193,475	-200,000	0,011	0,074
-192,460	-134,174	-0,214	-0,019
-191,446	-200,000	-0,017	-0,068
-190,431	106,766	0,071	-0,061
-189,417	81,332	-0,090	0,070
-188,402	800,000	-0,048	0,101
-187,387	457,438	-0,059	0,096
-186,373	49,310	-0,083	-0,057
-185,358	800,000	0,011	0,035
-184,344	-97,314	0,136	0,026
-183,329	38,629	-0,045	-0,030
-182,315	-200,000	-0,002	0,064
-181,300	-200,000	-0,007	-0,037
-180,285	-141,617	0,102	0,007
-179,271	254,291	-0,083	-0,104
-178,256	133,942	-0,052	0,049
-177,242	-92,037	0,057	-0,012
-176,227	-109,957	-0,100	0,015
-175,212	-26,170	-0,035	-0,015
-174,198	800,000	-0,024	0,072
-173,183	-101,409	0,086	0,015
-172,169	-200,000	-0,010	-0,125
-171,154	56,826	-0,121	-0,085
-170,139	492,542	-0,058	-0,097
-169,125	-67,440	0,083	-0,024
-168,110	151,707	0,051	0,051
-167,096	-54,976	-0,017	-0,005
-166,081	-200,000	0,024	-0,082
-165,066	-117,223	-0,050	-0,007
-164,052	800,000	0,020	-0,046
-163,037	-200,000	0,004	0,043
-162,023	-141,078	0,077	0,006
-161,008	753,237	0,078	0,155
-159,993	-200,000	0,021	0,067
-158,979	-65,126	0,053	0,016
-157,964	800,000	-0,037	-0,083
-156,950	50,445	-0,080	-0,055
-155,935	33,342	-0,036	0,023
-154,920	174,983	0,041	-0,043
-153,906	47,267	-0,084	0,057
-152,891	73,570	0,097	0,074
-151,877	-122,457	-0,113	0,013
-150,862	-200,000	-0,028	-0,152
-149,847	452,851	-0,078	0,126
-148,833	47,846	-0,068	0,046
-147,818	-200,000	0,010	0,130
-146,804	38,466	-0,118	-0,076
-145,789	15,455	-0,030	0,017
-144,775	-200,000	0,005	0,076
-143,760	185,731	0,041	-0,045
-142,745	-200,000	0,007	-0,072
-141,731	-200,000	0,000	-0,124
-140,716	-95,372	-0,078	-0,015
-139,702	-17,956	-0,080	0,036
-138,687	34,570	0,066	0,042
-137,672	800,000	0,025	-0,067
-136,658	-6,099	-0,103	0,051
-135,643	-153,280	-0,146	-0,007
-134,629	800,000	-0,025	0,060
-133,614	-200,000	-0,013	0,138
-132,599	633,242	0,073	0,136
-131,585	-200,000	0,012	0,042
-130,570	69,474	-0,068	-0,051
-129,556	-200,000	0,014	-0,112
-128,541	800,000	0,060	-0,162
-127,526	-200,000	-0,018	0,064
-126,512	-200,000	-0,027	0,100
-125,497	800,000	0,044	0,108
-124,483	-200,000	0,015	0,070
-123,468	-111,641	0,131	-0,019
-122,453	-200,000	0,006	-0,105
-121,439	-200,000	0,002	0,115
-120,424	-5,166	0,094	0,047
-119,410	800,000	0,041	0,090
