DTS Sentinel unit serial number:	SN410029Multiplexer serial number:	ORYXHardware model number:	OX2-SRSoftware version number:	ORYX F/W v4,00 Oryx Data Collector v3.7.2.0data status	okinstallation	B4 Nyhavnadifferential loss correction	single-endedforward channel	channel 2reverse channel	N/Adate	2023/12/16time	09:00:13forward acquisition time	300,00reverse acquisition time	0,00gamma	499,1914k internal	0,3127k external	0,3127temperature offset calibration	1,0000default loss term (dB/km)	0,3820temperature slope calibration	1,0000multiplexer offset coefficient	1,0000multiplexer slope coefficient	1,0000fibre end	0,00T internal ref (°C)	22,81T ext. ref 1 (°C)	8,80T ext. ref 2 (°C)	8,95length (m)	temperature (°C)	Stokes	anti-Stokes-744,400	236,491	0,059	0,073
-743,385	-33,217	-0,114	0,047
-742,371	-147,505	0,064	0,004
-741,356	718,802	-0,165	0,328
-740,342	800,000	0,016	-0,043
-739,327	31,236	-0,273	0,174
-738,312	800,000	-0,036	-0,103
-737,298	-136,028	-0,237	-0,020
-736,283	-117,236	0,077	-0,010
-735,269	-76,302	-0,104	0,027
-734,254	-99,407	-0,047	-0,009
-733,239	-63,350	-0,451	-0,137
-732,225	-59,783	0,090	-0,029
-731,210	-200,000	0,020	-0,107
-730,196	-200,000	-0,007	0,031
-729,181	-87,523	-0,050	-0,011
-728,167	-87,980	0,088	0,020
-727,152	-118,868	-0,067	-0,009
-726,137	-132,326	-0,108	-0,010
-725,123	46,274	-0,037	0,026
-724,108	7,526	0,048	-0,027
-723,094	-76,961	0,053	-0,014
-722,079	-126,821	-0,015	0,002
-721,064	125,524	-0,068	0,064
-720,050	-200,000	0,003	0,084
-719,035	57,064	-0,076	0,055
-718,021	-200,000	-0,005	0,016
-717,006	204,336	-0,063	-0,073
-715,991	271,505	0,133	-0,174
-714,977	800,000	-0,020	-0,058
-713,962	58,380	-0,172	0,125
-712,948	-112,599	-0,058	0,009
-711,933	800,000	-0,012	-0,032
-710,918	48,715	-0,089	-0,062
-709,904	800,000	0,046	-0,096
-708,889	-136,554	-0,170	-0,014
-707,875	146,291	-0,084	-0,084
-706,860	249,512	-0,062	-0,078
-705,845	-58,316	-0,070	0,023
-704,831	-0,797	-0,101	0,053
-703,816	-200,000	-0,009	0,038
-702,802	-200,000	0,019	-0,067
-701,787	69,037	-0,064	-0,049
-700,772	800,000	-0,024	-0,062
-699,758	396,632	-0,062	0,096
-698,743	-162,273	-0,035	0,001
-697,729	-113,722	-0,020	0,003
-696,714	-46,731	-0,078	0,028
-695,699	-61,667	-0,114	-0,035
-694,685	-134,735	-0,057	0,005
-693,670	218,972	-0,117	-0,139
-692,656	-100,882	0,082	-0,015
-691,641	121,034	-0,049	-0,045
-690,627	-106,310	-0,064	-0,011
-689,612	-62,529	0,036	0,011
-688,597	-28,206	-0,096	0,041
-687,583	69,234	0,048	0,037
-686,568	164,134	0,013	0,014
-685,554	-121,930	-0,131	-0,016
-684,539	42,192	0,103	0,069
-683,524	156,103	-0,072	0,074
-682,510	-200,000	-0,018	0,124
-681,495	-200,000	0,019	0,117
-680,481	-21,037	-0,088	-0,040
-679,466	-59,070	-0,184	-0,059
-678,451	-99,117	-0,034	0,006
-677,437	-200,000	0,006	-0,096
-676,422	-6,722	0,143	-0,072
-675,408	84,887	0,064	-0,052
-674,393	-200,000	0,012	-0,178
-673,378	-200,000	0,003	0,102
-672,364	-11,517	-0,105	0,051
-671,349	230,026	0,048	-0,058
-670,335	-200,000	0,012	0,040
-669,320	-102,299	0,062	-0,011
-668,305	-200,000	0,014	0,103
-667,291	800,000	-0,048	-0,136
-666,276	-200,000	-0,004	-0,084
-665,262	-79,110	-0,030	0,007
-664,247	-77,321	-0,121	-0,031
-663,232	800,000	-0,016	-0,037
-662,218	481,786	-0,003	0,005
-661,203	793,993	-0,066	0,136
-660,189	-200,000	0,027	-0,093
-659,174	9,646	-0,093	0,052
-658,159	35,245	-0,096	0,063
-657,145	-200,000	-0,017	-0,056
-656,130	230,051	0,059	-0,072
-655,116	1,449	-0,062	-0,033
-654,101	-6,197	-0,051	0,026
-653,086	800,000	-0,019	-0,046
-652,072	45,841	0,054	-0,037
-651,057	-10,316	-0,064	-0,031
-650,043	193,790	-0,114	-0,129
-649,028	67,201	-0,087	0,065
-648,014	800,000	0,020	-0,046
-646,999	57,771	-0,088	0,064
-645,984	249,140	-0,003	0,004
-644,970	0,912	-0,097	-0,051
-643,955	472,303	0,055	-0,092
-642,941	800,000	-0,023	-0,062
-641,926	-58,149	0,064	-0,021
-640,911	-200,000	-0,019	-0,166
-639,897	-200,000	-0,016	0,082
-638,882	800,000	0,076	0,157
-637,868	58,011	-0,069	-0,050
-636,853	-200,000	0,057	-0,247
-635,838	76,449	-0,010	-0,007
-634,824	354,181	0,069	-0,102
-633,809	-7,789	-0,166	0,083
-632,795	800,000	-0,017	0,045
-631,780	-20,645	-0,039	0,017
-630,765	-90,930	-0,085	-0,018
-629,751	-50,660	-0,040	0,014
-628,736	49,445	-0,027	-0,019
-627,722	-28,175	-0,061	0,026
-626,707	-200,000	-0,026	0,163
-625,692	-35,549	0,114	-0,046
-624,678	619,071	-0,024	0,045
-623,663	-45,014	-0,112	0,041
-622,649	800,000	-0,035	-0,100
-621,634	206,677	-0,087	0,101
-620,619	280,724	-0,081	-0,108
-619,605	90,741	0,126	0,105
-618,590	800,000	-0,048	-0,135
-617,576	-147,598	0,109	0,007
-616,561	-200,000	-0,002	0,014
-615,546	167,669	-0,083	0,088
-614,532	-200,000	-0,017	-0,103
-613,517	800,000	0,047	0,143
-612,503	160,088	0,055	0,057
-611,488	-200,000	0,010	0,084
-610,474	181,021	-0,011	0,012
-609,459	294,662	0,112	0,152
-608,444	-64,318	-0,076	0,023
-607,430	-45,976	-0,104	-0,038
-606,415	-147,554	0,076	0,005
-605,401	157,509	0,047	-0,048
-604,386	-30,067	0,120	0,050
-603,371	-200,000	0,008	0,095
-602,357	320,588	0,050	-0,071
-601,342	-37,843	0,032	-0,013
-600,328	-158,910	0,067	-0,003
-599,313	800,000	0,015	-0,045
-598,298	-200,000	-0,013	0,063
-597,284	4,881	-0,099	0,054
-596,269	-116,445	0,212	-0,029
-595,255	-149,032	0,057	0,003
-594,240	-19,244	-0,166	-0,076
-593,225	-80,348	-0,044	-0,011
-592,211	-96,161	0,066	0,013
-591,196	196,676	-0,081	0,091
-590,182	26,465	-0,065	-0,040
-589,167	-116,498	0,121	0,016
-588,152	-200,000	-0,013	0,148
-587,138	111,288	-0,056	-0,050
-586,123	433,597	0,059	-0,095
-585,109	-61,437	0,086	-0,026
-584,094	298,867	-0,059	0,080
-583,079	-50,409	-0,052	0,018
-582,065	-200,000	-0,010	-0,045
-581,050	8,353	-0,219	0,122
-580,036	-200,000	0,004	0,097
-579,021	46,748	-0,078	-0,054
-578,006	-36,324	-0,086	-0,034
-576,992	88,262	-0,019	-0,016
-575,977	205,741	0,109	0,125
-574,963	-3,852	0,082	0,042
-573,948	800,000	-0,033	0,099
-572,934	-55,513	-0,023	0,008
-571,919	355,168	-0,052	-0,077
-570,904	526,619	0,078	-0,136
-569,890	-200,000	-0,012	-0,054
-568,875	-0,798	0,044	-0,023
-567,861	644,105	-0,063	0,120
-566,846	11,777	-0,048	-0,027
-565,831	-57,512	0,050	0,016
-564,817	573,970	0,008	-0,015
-563,802	-77,217	-0,047	-0,012
-562,788	71,343	0,088	-0,068
-561,773	365,754	0,039	-0,058
-560,758	313,554	-0,067	-0,094
-559,744	-11,609	-0,046	-0,022
-558,729	-22,608	0,058	0,026
-557,715	-200,000	-0,018	-0,129
-556,700	7,851	-0,050	0,028
-555,685	-200,000	-0,014	0,128
-554,671	769,144	0,021	-0,043
-553,656	800,000	0,031	0,074
-552,642	-200,000	0,015	0,078
-551,627	33,422	-0,126	-0,080
-550,612	-88,276	0,027	-0,006
-549,598	-147,933	-0,104	-0,006
-548,583	-157,477	0,126	0,005
-547,569	-200,000	0,027	0,088
-546,554	800,000	-0,025	-0,073
-545,539	-200,000	-0,033	0,134
-544,525	-200,000	-0,059	0,229
-543,510	5,029	-0,107	0,058
-542,496	-81,839	-0,018	-0,004
-541,481	51,657	0,121	0,085
-540,466	-200,000	0,014	-0,071
-539,452	202,414	-0,010	0,011
-538,437	61,520	0,112	-0,082
-537,423	251,535	0,097	0,122
-536,408	175,238	0,027	0,029
-535,393	99,417	-0,048	-0,041
-534,379	-0,490	-0,070	-0,036
-533,364	-26,790	0,093	-0,040
-532,350	88,576	0,005	-0,004
-531,335	-6,219	0,016	-0,008
-530,321	-200,000	-0,016	0,055
-529,306	117,933	0,070	-0,064
-528,291	800,000	-0,018	0,038
-527,277	-200,000	-0,007	0,044
-526,262	800,000	0,030	-0,062
-525,248	119,203	-0,046	-0,042
-524,233	-187,913	0,106	-0,001
-523,218	800,000	-0,029	0,066
-522,204	724,631	-0,078	0,155
-521,189	37,730	-0,060	-0,039
-520,175	-200,000	0,008	0,181
-519,160	-20,876	-0,068	-0,031
-518,145	-61,025	0,098	0,030
-517,131	-200,000	0,033	0,168
-516,116	301,437	-0,073	-0,100
-515,102	69,744	-0,039	-0,030
-514,087	-136,838	0,147	0,012
-513,072	-200,000	-0,039	-0,240
-512,058	25,444	0,046	-0,028
-511,043	84,970	0,036	0,029
-510,029	-123,529	0,155	-0,018
-509,014	-200,000	-0,006	-0,019
-507,999	-143,386	0,093	-0,006
-506,985	-133,923	-0,059	-0,005
-505,970	92,582	-0,019	-0,015
-504,956	59,055	-0,143	-0,104
-503,941	800,000	0,049	-0,110
-502,926	-156,783	0,154	-0,007
-501,912	294,090	-0,073	-0,098
-500,897	312,931	0,072	0,101
-499,883	800,000	0,044	-0,135
-498,868	405,293	-0,040	-0,062
-497,853	-12,450	0,137	0,066
-496,839	-200,000	0,023	-0,171
-495,824	-200,000	-0,017	-0,063
-494,810	37,808	0,054	-0,035
-493,795	-200,000	0,000	-0,009
-492,781	119,265	0,061	-0,056
-491,766	-200,000	-0,000	0,080
-490,751	-65,496	-0,038	-0,011
-489,737	800,000	-0,036	0,091
-488,722	41,710	-0,035	0,023
-487,708	548,093	0,077	0,137
-486,693	-152,908	0,081	-0,004
-485,678	339,751	0,035	-0,050
-484,664	800,000	-0,047	0,098
-483,649	8,526	0,123	-0,068
-482,635	-200,000	-0,008	-0,037
-481,620	41,701	0,128	0,085
-480,605	-200,000	0,030	0,099
-479,591	800,000	0,017	-0,045
-478,576	-39,448	0,025	-0,010
-477,562	-200,000	-0,013	-0,103
-476,547	-15,729	-0,063	-0,030
-475,532	800,000	0,040	-0,118
-474,518	123,105	-0,041	0,038
-473,503	-7,223	0,127	0,063
-472,489	85,684	-0,062	0,050
-471,474	800,000	0,024	0,061
-470,459	800,000	-0,007	-0,023
-469,445	303,325	-0,072	-0,099
-468,430	-46,436	0,044	0,016
-467,416	-200,000	-0,007	0,048
-466,401	-73,404	-0,051	-0,014
-465,386	116,511	-0,010	0,009
-464,372	-200,000	-0,018	0,060
-463,357	-68,865	0,097	0,027
-462,343	24,597	-0,096	-0,058
-461,328	-200,000	-0,006	-0,050
-460,313	80,993	0,115	0,091
-459,299	156,954	-0,086	0,088
-458,284	195,592	-0,172	0,193
-457,270	800,000	0,017	0,044
-456,255	775,758	-0,034	-0,069
-455,241	-141,184	-0,018	-0,001
-454,226	121,284	-0,105	0,097
-453,211	800,000	-0,059	0,146
-452,197	-103,004	0,118	-0,020
-451,182	-52,830	0,071	0,024
-450,168	79,450	-0,090	0,071
-449,153	662,861	-0,058	0,111
-448,138	621,314	-0,012	0,023
-447,124	-166,856	-0,033	-0,001
-446,109	-200,000	0,009	0,085
-445,095	-200,000	0,026	0,156
-444,080	-200,000	-0,023	-0,080
-443,065	-200,000	-0,022	0,078
-442,051	-90,274	0,058	-0,012
-441,036	-99,590	0,068	-0,012
-440,022	-39,618	-0,029	0,011
-439,007	-46,230	0,076	0,028
-437,992	27,636	-0,057	-0,035
-436,978	324,056	-0,031	0,044
-435,963	-132,988	-0,054	-0,005
-434,949	5,496	0,013	0,007
-433,934	37,916	-0,012	0,008
-432,919	684,344	-0,020	0,039
-431,905	217,120	-0,042	0,050
-430,890	-111,372	0,194	-0,029
-429,876	264,076	0,092	0,118
-428,861	550,806	0,054	0,096
-427,846	66,894	-0,057	0,043
-426,832	-56,567	-0,129	-0,042
-425,817	126,150	0,119	-0,110
-424,803	-200,000	-0,002	-0,017
-423,788	226,741	0,099	0,118
-422,773	60,307	0,083	0,061
-421,759	-100,145	0,047	0,009
-420,744	135,469	-0,075	-0,072
-419,730	673,668	-0,065	0,125
-418,715	-200,000	0,016	-0,092
-417,701	331,070	-0,024	0,034
-416,686	667,743	-0,061	0,117
-415,671	-154,837	0,134	0,006
-414,657	-37,944	0,149	0,058
-413,642	-200,000	-0,011	-0,111
-412,628	-200,000	-0,015	0,066
-411,613	584,101	-0,048	-0,086
-410,598	198,103	-0,130	-0,146
-409,584	773,059	0,045	0,091
-408,569	-34,830	0,065	0,026
-407,555	-122,849	0,051	0,006
-406,540	156,416	0,124	-0,126
-405,525	243,490	0,068	0,084
-404,511	-162,686	-0,089	-0,003
-403,496	-200,000	0,011	0,198
-402,482	58,842	0,028	0,020
-401,467	70,647	0,077	0,058
-400,452	-52,090	0,154	0,052
-399,438	800,000	-0,049	0,107
-398,423	-200,000	0,015	0,050
-397,409	347,452	0,094	-0,136
-396,394	254,658	-0,088	0,110
-395,379	800,000	0,021	0,065
-394,365	-200,000	-0,009	-0,032
-393,350	-200,000	0,012	0,042
-392,336	23,141	-0,067	-0,040
-391,321	5,258	0,079	0,043
-390,306	29,837	-0,025	0,016
-389,292	-135,623	-0,145	0,012
-388,277	329,488	-0,059	0,083
-387,263	-156,259	0,144	-0,007
-386,248	337,800	-0,024	-0,034
-385,233	22,433	0,093	0,055
-384,219	-200,000	-0,020	0,077
-383,204	-200,000	-0,050	-0,193
-382,190	299,618	-0,002	-0,002
-381,175	117,820	-0,063	-0,057
-380,160	61,212	-0,057	0,041
-379,146	-5,499	0,019	-0,010
-378,131	195,268	0,048	0,054
-377,117	-200,000	0,018	-0,061
-376,102	-100,092	0,059	-0,011
-375,088	117,224	-0,092	-0,083
-374,073	-200,000	-0,007	-0,094
-373,058	800,000	-0,041	0,084
-372,044	768,089	0,089	0,178
-371,029	7,995	0,096	0,053
-370,015	175,187	-0,050	0,053
-369,000	-200,000	-0,002	-0,056
-367,985	800,000	-0,084	-0,206
-366,971	-200,000	-0,028	-0,110
-365,956	149,766	0,039	-0,039
-364,942	-115,413	-0,119	-0,016
-363,927	-200,000	-0,009	0,045
-362,912	-200,000	0,014	0,090
-361,898	-45,455	0,040	0,015
-360,883	-200,000	-0,009	-0,040
-359,869	-200,000	-0,011	-0,087
-358,854	-200,000	-0,010	-0,109
-357,839	-31,743	-0,110	-0,045
-356,825	347,905	0,035	-0,051
-355,810	-200,000	0,010	0,040
-354,796	-163,985	0,043	0,001
-353,781	-85,847	-0,076	0,017
-352,766	478,001	-0,069	0,115
-351,752	161,337	0,057	0,059
-350,737	800,000	-0,062	-0,135
-349,723	-66,689	-0,021	-0,006
-348,708	46,194	0,106	0,072
-347,693	800,000	0,021	0,068
-346,679	-27,978	0,070	-0,030
-345,664	-200,000	-0,021	-0,167
-344,650	-37,804	0,176	-0,068
-343,635	205,745	0,024	-0,027
-342,620	-134,947	-0,127	-0,011
-341,606	-22,406	0,071	-0,032
-340,591	-47,705	-0,160	0,057
-339,577	345,809	0,082	-0,119
-338,562	-29,880	-0,112	-0,046
-337,548	-106,133	-0,035	-0,006
-336,533	14,164	-0,028	-0,016
-335,518	14,794	0,051	0,029
-334,504	-59,969	-0,122	-0,038
-333,489	800,000	-0,021	-0,049
-332,475	522,383	-0,049	-0,085
-331,460	-111,970	0,117	0,017
-330,445	124,126	-0,052	0,048
-329,431	-101,422	-0,182	0,032
-328,416	154,616	0,110	0,111
-327,402	-200,000	0,010	-0,166
-326,387	142,179	0,011	-0,011
-325,372	279,900	-0,128	-0,168
-324,358	448,433	0,015	-0,025
-323,343	-35,799	0,081	0,032
-322,329	112,838	0,008	-0,008
-321,314	-61,862	0,094	-0,029
-320,299	181,575	0,058	0,062
-319,285	423,928	-0,056	0,089
-318,270	400,003	0,063	0,097
-317,256	553,506	-0,023	-0,041
-316,241	190,691	0,038	0,042
-315,226	-63,504	0,088	0,026
-314,212	-200,000	0,000	-0,076
-313,197	800,000	-0,025	0,065
-312,183	-200,000	-0,002	0,082
-311,168	-200,000	-0,031	-0,147
-310,153	-31,465	-0,128	-0,052
-309,139	-134,070	0,170	0,015
-308,124	-42,779	-0,130	-0,048
-307,110	-23,815	0,074	-0,033
-306,095	800,000	0,035	0,090
-305,080	373,724	0,065	-0,097
-304,066	155,606	-0,049	-0,049
-303,051	5,907	-0,101	-0,055
-302,037	800,000	-0,020	0,055
-301,022	12,078	-0,076	-0,043
-300,008	-52,788	0,141	0,047
-298,993	-61,261	0,202	0,062
-297,978	245,838	0,008	-0,010
-296,964	-200,000	-0,007	0,022
-295,949	-200,000	0,018	0,000
-294,935	305,403	-0,045	-0,061
-293,920	-200,000	-0,014	0,095
-292,905	3,824	0,132	0,070
-291,891	67,032	0,096	0,071
-290,876	-200,000	-0,019	0,106
-289,862	60,579	-0,112	0,081
-288,847	-108,823	-0,068	0,011
-287,832	495,935	-0,030	-0,051
-286,818	210,341	-0,035	-0,041
-285,803	-200,000	0,020	-0,086
-284,789	-19,315	-0,152	-0,069
-283,774	-200,000	-0,001	-0,066
-282,759	-200,000	0,032	0,115
-281,745	-66,283	-0,089	-0,026
-280,730	273,804	-0,131	-0,170
-279,716	180,520	0,064	0,069
-278,701	121,196	0,048	-0,044
-277,686	-200,000	0,007	-0,049
-276,672	357,104	0,024	0,036
-275,657	-200,000	0,008	-0,110
-274,643	1,094	0,050	-0,026
-273,628	38,779	-0,068	0,044
-272,613	71,710	0,093	-0,070
-271,599	-200,000	0,041	-0,138
-270,584	-70,232	0,082	-0,022
-269,570	-200,000	0,012	0,063
-268,555	161,062	0,123	-0,126
-267,540	-31,516	0,158	-0,065
-266,526	-132,578	-0,137	0,013
-265,511	77,561	0,014	0,011
-264,497	-152,908	-0,087	-0,004
-263,482	-152,777	-0,200	0,010
-262,467	-200,000	0,006	0,023
-261,453	589,733	0,055	0,099
-260,438	202,120	0,064	-0,072
-259,424	800,000	-0,022	-0,063
-258,409	-200,000	-0,039	-0,183
-257,395	26,073	-0,096	-0,059
-256,380	-200,000	0,001	-0,032
-255,365	-65,487	0,154	0,045
-254,351	-44,756	-0,157	0,057
-253,336	103,375	0,120	-0,102
-252,322	97,402	-0,126	-0,105
-251,307	-200,000	0,018	-0,100
-250,292	503,591	-0,035	0,059
-249,278	-200,000	-0,010	0,117
-248,263	-200,000	-0,027	0,090
-247,249	-66,804	-0,062	0,018
-246,234	-89,473	0,026	-0,006
-245,219	-118,493	-0,094	-0,012
-244,205	-67,413	-0,002	0,001
-243,190	-200,000	-0,002	0,094
-242,176	-93,897	-0,039	0,008
-241,161	199,954	0,084	-0,094
-240,146	-158,795	0,069	-0,003
-239,132	773,979	-0,022	0,044
-238,117	134,715	-0,025	0,024
-237,103	622,854	-0,003	0,005
-236,088	800,000	-0,007	-0,018
-235,073	-58,530	0,066	-0,021
-234,059	-103,523	-0,062	0,011
-233,044	230,005	0,036	-0,043
-232,030	350,131	-0,077	0,112
-231,015	-127,051	-0,099	0,011
-230,000	230,655	0,057	-0,069
-228,986	-200,000	0,017	0,084
-227,971	800,000	0,040	-0,094
-226,957	91,419	-0,102	-0,084
-225,942	102,853	0,073	0,063
-224,927	20,113	0,041	-0,024
-223,913	171,582	-0,069	0,072
-222,898	181,498	-0,059	0,064
-221,884	440,214	-0,064	0,102
-220,869	-77,532	0,099	-0,025
-219,855	-155,573	0,135	0,006
-218,840	486,364	0,109	-0,182
-217,825	525,991	-0,044	-0,076
-216,811	90,735	-0,063	-0,052
-215,796	800,000	-0,086	-0,192
-214,782	21,474	-0,089	0,053
-213,767	381,528	-0,077	-0,115
-212,752	69,883	0,079	-0,060
-211,738	-93,980	-0,070	0,014
-210,723	-50,548	0,105	0,036
-209,709	-103,063	0,091	0,016
-208,694	47,855	-0,118	-0,080
-207,679	35,376	-0,092	0,059
-206,665	202,148	0,025	0,028
-205,650	800,000	0,005	0,015
-204,636	-38,488	0,095	0,037
-203,621	-103,445	-0,038	-0,006
-202,606	-90,778	0,065	-0,014
-201,592	265,110	0,030	0,038
-200,577	-16,248	0,076	0,035
-199,563	103,685	-0,089	0,076
-198,548	-200,000	-0,006	0,145
-197,533	-108,071	0,017	0,003
-196,519	-114,213	-0,090	0,012
-195,504	-200,000	-0,010	-0,076
-194,490	-200,000	-0,028	0,119
-193,475	-118,923	-0,067	-0,008
-192,460	-80,096	0,112	0,027
-191,446	643,767	0,024	0,045
-190,431	-3,839	0,101	0,051
-189,417	-155,479	-0,105	0,005
-188,402	800,000	0,042	-0,129
-187,387	22,256	-0,088	0,052
-186,373	-200,000	-0,050	-0,161
-185,358	1,823	0,106	-0,056
-184,344	-200,000	0,022	0,107
-183,329	411,922	0,104	-0,162
-182,315	800,000	0,016	0,050
-181,300	217,564	-0,039	0,045
-180,285	-53,028	-0,025	0,008
-179,271	43,043	-0,038	-0,025
-178,256	-107,205	-0,125	0,020
-177,242	-27,172	0,061	-0,026
-176,227	-49,132	0,116	0,040
-175,212	-124,900	-0,094	-0,010
-174,198	-200,000	0,022	-0,087
-173,183	-155,551	-0,061	-0,003
-172,169	45,651	-0,046	-0,031
-171,154	-200,000	-0,005	-0,063
-170,139	557,372	0,027	-0,048
-169,125	45,332	-0,033	0,022
-168,110	-57,639	0,077	-0,024
-167,096	-200,000	-0,021	0,148
-166,081	-65,061	0,008	-0,002
-165,066	-78,289	-0,171	0,043
-164,052	631,125	0,081	-0,150
-163,037	-200,000	0,009	-0,048
-162,023	-91,382	0,080	0,016
-161,008	-58,308	-0,103	0,032
-159,993	-200,000	-0,013	-0,062
-158,979	224,733	-0,104	-0,123
-157,964	122,884	0,085	-0,077
-156,950	381,573	-0,046	-0,068
-155,935	-200,000	-0,005	-0,146
-154,920	5,474	0,061	-0,033
-153,906	-200,000	-0,013	0,099
-152,891	-89,183	-0,146	-0,031
-151,877	223,871	-0,019	0,022
-150,862	-78,382	0,015	-0,004
-149,847	-80,039	-0,133	-0,032
-148,833	227,252	0,087	0,103
-147,818	-72,201	0,059	-0,016
-146,804	-172,239	0,103	0,002
-145,789	800,000	0,006	0,016
-144,775	115,982	-0,038	-0,034
-143,760	-112,902	-0,078	-0,011
-142,745	-200,000	0,003	0,024
-141,731	800,000	0,032	-0,076
-140,716	31,882	0,129	0,081
-139,702	121,295	0,046	0,041
-138,687	258,077	0,053	-0,066
-137,672	800,000	0,034	-0,088
-136,658	800,000	-0,065	-0,145
-135,643	800,000	0,016	-0,039
-134,629	-200,000	-0,005	-0,027
-133,614	70,178	-0,055	0,042
-132,599	-33,948	0,027	-0,011
-131,585	68,667	0,085	0,063
-130,570	-200,000	0,040	0,157
-129,556	-200,000	0,009	-0,073
-128,541	34,153	-0,075	-0,048
-127,526	41,474	-0,071	0,047
-126,512	-200,000	-0,017	0,135
-125,497	-200,000	-0,021	0,152
-124,483	626,096	0,090	0,166
-123,468	254,127	-0,110	0,137
-122,453	-123,595	-0,250	-0,029
-121,439	800,000	0,015	0,033
-120,424	-200,000	-0,038	0,129
-119,410	-122,283	-0,026	0,003
