DTS Sentinel unit serial number:	SN410029Multiplexer serial number:	ORYXHardware model number:	OX2-SRSoftware version number:	ORYX F/W v4,00 Oryx Data Collector v3.7.2.0data status	okinstallation	B4 Nyhavnadifferential loss correction	single-endedforward channel	channel 2reverse channel	N/Adate	2023/12/19time	03:45:13forward acquisition time	300,00reverse acquisition time	0,00gamma	499,1914k internal	0,3126k external	0,3126temperature offset calibration	1,0000default loss term (dB/km)	0,3820temperature slope calibration	1,0000multiplexer offset coefficient	1,0000multiplexer slope coefficient	1,0000fibre end	0,00T internal ref (°C)	21,04T ext. ref 1 (°C)	5,69T ext. ref 2 (°C)	5,68length (m)	temperature (°C)	Stokes	anti-Stokes-744,400	800,000	-0,041	-0,097
-743,385	358,016	-0,125	0,187
-742,371	-200,000	0,007	-0,062
-741,356	-96,649	-0,254	0,049
-740,342	182,771	0,060	-0,066
-739,327	47,727	-0,269	0,186
-738,312	60,777	0,066	-0,049
-737,298	-143,977	-0,240	-0,017
-736,283	163,794	-0,080	-0,084
-735,269	115,030	-0,239	0,218
-734,254	-200,000	-0,003	0,035
-733,239	-58,118	-0,429	0,138
-732,225	124,091	0,100	0,093
-731,210	-200,000	0,018	0,078
-730,196	196,385	-0,067	0,076
-729,181	-200,000	0,045	-0,159
-728,167	-200,000	0,011	-0,125
-727,152	-55,731	-0,091	-0,030
-726,137	-200,000	0,028	-0,093
-725,123	120,172	-0,110	-0,102
-724,108	34,197	0,029	-0,019
-723,094	-200,000	-0,023	-0,247
-722,079	344,983	-0,036	-0,053
-721,064	-37,055	-0,051	-0,020
-720,050	-83,885	0,024	-0,006
-719,035	338,584	-0,055	-0,080
-718,021	42,762	-0,082	-0,055
-717,006	800,000	-0,033	-0,100
-715,991	-200,000	-0,005	-0,056
-714,977	800,000	-0,075	-0,177
-713,962	800,000	-0,024	-0,068
-712,948	94,349	0,055	-0,047
-711,933	-115,041	-0,151	-0,021
-710,918	800,000	-0,045	-0,117
-709,904	-200,000	0,000	0,001
-708,889	-128,566	0,122	0,013
-707,875	227,066	-0,027	0,033
-706,860	493,369	0,024	0,041
-705,845	574,480	-0,061	0,111
-704,831	88,577	-0,120	-0,099
-703,816	163,650	-0,033	-0,035
-702,802	-200,000	0,004	-0,043
-701,787	386,903	-0,070	-0,108
-700,772	-12,742	-0,106	-0,051
-699,758	10,139	-0,050	0,028
-698,743	311,357	0,051	0,071
-697,729	800,000	0,037	-0,081
-696,714	117,756	0,081	0,074
-695,699	470,697	-0,064	-0,107
-694,685	-89,604	-0,096	0,021
-693,670	531,959	0,024	-0,043
-692,656	226,449	-0,010	0,012
-691,641	-95,962	-0,031	0,006
-690,627	-200,000	-0,019	-0,070
-689,612	-200,000	-0,009	-0,128
-688,597	800,000	0,028	-0,073
-687,583	639,433	-0,107	-0,202
-686,568	-200,000	-0,018	-0,059
-685,554	-15,162	0,059	-0,028
-684,539	-136,432	0,054	-0,005
-683,524	31,558	0,089	-0,056
-682,510	-157,580	0,112	-0,005
-681,495	-21,203	0,035	-0,016
-680,481	7,093	-0,180	-0,100
-679,466	-200,000	-0,001	-0,072
-678,451	800,000	0,045	-0,104
-677,437	-200,000	-0,032	-0,147
-676,422	-134,089	0,118	-0,011
-675,408	255,839	0,060	-0,076
-674,393	412,760	-0,029	0,046
-673,378	104,852	-0,005	0,004
-672,364	-76,706	-0,089	0,023
-671,349	-60,257	-0,016	0,005
-670,335	-76,573	0,057	-0,015
-669,320	-200,000	-0,020	0,103
-668,305	107,342	0,053	0,046
-667,291	522,744	-0,026	-0,045
-666,276	-22,035	-0,059	0,027
-665,262	-195,550	-0,095	-0,001
-664,247	800,000	-0,104	-0,229
-663,232	-114,296	0,052	0,007
-662,218	800,000	0,027	0,058
-661,203	327,426	-0,087	0,125
-660,189	272,774	0,047	0,062
-659,174	-200,000	0,019	-0,101
-658,159	-111,049	-0,131	-0,020
-657,145	749,505	-0,055	0,110
-656,130	687,338	-0,029	0,057
-655,116	622,548	-0,055	0,104
-654,101	139,480	0,031	-0,030
-653,086	61,683	0,049	0,036
-652,072	3,840	-0,148	-0,080
-651,057	125,240	-0,043	-0,040
-650,043	800,000	0,030	0,094
-649,028	800,000	-0,018	-0,057
-648,014	63,719	0,078	-0,058
-646,999	-80,857	-0,050	-0,012
-645,984	800,000	-0,022	0,064
-644,970	-79,369	0,119	0,030
-643,955	306,173	0,053	0,074
-642,941	109,988	-0,013	0,011
-641,926	167,183	0,032	0,033
-640,911	-200,000	-0,034	-0,227
-639,897	66,465	-0,021	-0,016
-638,882	-200,000	-0,009	0,137
-637,868	800,000	0,040	0,126
-636,853	252,202	0,064	-0,081
-635,838	-200,000	-0,009	-0,058
-634,824	-35,615	0,061	0,025
-633,809	800,000	-0,022	0,058
-632,795	-200,000	0,010	-0,064
-631,780	-71,043	0,100	0,028
-630,765	318,040	0,045	0,063
-629,751	-79,090	-0,103	-0,026
-628,736	-200,000	-0,030	-0,136
-627,722	143,141	-0,071	0,070
-626,707	-133,700	0,170	-0,016
-625,692	262,697	0,046	-0,059
-624,678	45,925	0,092	-0,063
-623,663	480,153	-0,031	-0,052
-622,649	-61,493	0,033	0,010
-621,634	-200,000	-0,019	-0,163
-620,619	109,972	-0,085	-0,076
-619,605	265,086	-0,064	-0,083
-618,590	228,232	-0,171	-0,207
-617,576	-64,981	-0,063	0,019
-616,561	325,853	0,070	-0,100
-615,546	157,038	-0,081	-0,083
-614,532	49,485	0,130	-0,090
-613,517	127,838	0,052	0,049
-612,503	-134,021	0,218	-0,020
-611,488	2,697	-0,122	-0,065
-610,474	-87,449	-0,067	-0,015
-609,459	-32,990	-0,121	0,049
-608,444	800,000	-0,054	-0,113
-607,430	-200,000	0,016	-0,100
-606,415	155,422	-0,158	0,161
-605,401	82,560	-0,025	0,020
-604,386	800,000	0,065	0,140
-603,371	121,871	0,061	-0,056
-602,357	125,047	-0,071	0,067
-601,342	-119,139	0,105	0,013
-600,328	-200,000	0,025	-0,089
-599,313	800,000	-0,034	-0,101
-598,298	102,637	-0,050	-0,043
-597,284	-4,804	-0,122	0,062
-596,269	-200,000	0,003	0,045
-595,255	-64,209	-0,049	-0,015
-594,240	170,927	0,064	-0,068
-593,225	28,358	0,047	-0,030
-592,211	290,440	-0,087	-0,117
-591,196	442,534	0,064	-0,104
-590,182	337,907	0,062	0,089
-589,167	800,000	0,035	0,100
-588,152	800,000	0,023	-0,054
-587,138	-4,311	-0,130	0,066
-586,123	129,086	-0,049	0,046
-585,109	-88,557	-0,085	-0,018
-584,094	-75,687	-0,033	-0,009
-583,079	-200,000	0,015	0,130
-582,065	-200,000	-0,016	0,153
-581,050	-82,289	0,240	0,057
-580,036	800,000	-0,029	-0,080
-579,021	-200,000	0,003	0,090
-578,006	-67,908	-0,082	0,023
-576,992	800,000	0,025	0,055
-575,977	-200,000	-0,014	-0,102
-574,963	-200,000	-0,031	0,118
-573,948	26,486	-0,051	0,031
-572,934	26,918	0,009	0,006
-571,919	-97,325	-0,059	0,011
-570,904	-200,000	0,024	-0,115
-569,890	-200,000	-0,003	-0,082
-568,875	124,032	0,115	0,107
-567,861	274,973	0,032	0,041
-566,846	-200,000	0,054	0,000
-565,831	-200,000	0,004	-0,101
-564,817	-200,000	-0,022	-0,118
-563,802	462,168	-0,066	-0,110
-562,788	177,618	0,137	0,147
-561,773	252,860	-0,062	0,078
-560,758	-151,311	-0,040	-0,002
-559,744	156,930	0,149	0,152
-558,729	-71,438	-0,045	-0,012
-557,715	6,196	-0,087	0,048
-556,700	86,558	0,069	-0,056
-555,685	494,464	-0,009	-0,015
-554,671	-200,000	-0,005	-0,081
-553,656	256,579	0,039	0,050
-552,642	-22,927	0,110	-0,049
-551,627	800,000	-0,038	0,118
-550,612	-200,000	0,028	-0,152
-549,598	-18,452	0,058	0,027
-548,583	25,288	0,104	0,064
-547,569	-72,973	0,081	-0,022
-546,554	-200,000	0,049	-0,161
-545,539	-200,000	-0,017	-0,061
-544,525	-200,000	-0,002	-0,021
-543,510	-91,087	-0,059	-0,012
-542,496	330,674	-0,052	0,075
-541,481	-200,000	-0,026	-0,184
-540,466	78,264	-0,177	-0,139
-539,452	-44,633	0,166	0,061
-538,437	133,345	0,073	0,070
-537,423	102,007	-0,091	-0,079
-536,408	-200,000	-0,033	-0,123
-535,393	-200,000	-0,037	0,130
-534,379	-121,005	-0,089	-0,011
-533,364	-200,000	-0,013	0,167
-532,350	-89,808	-0,070	0,015
-531,335	-29,078	0,092	0,039
-530,321	-90,027	0,081	0,017
-529,306	-91,489	-0,114	-0,024
-528,291	-133,969	0,054	-0,005
-527,277	248,942	-0,096	0,121
-526,262	585,733	0,047	-0,085
-525,248	-86,711	0,116	-0,026
-524,233	800,000	-0,039	0,121
-523,218	41,653	0,082	0,055
-522,204	800,000	-0,055	0,115
-521,189	-200,000	0,003	0,057
-520,175	800,000	-0,106	-0,219
-519,160	800,000	0,035	-0,087
-518,145	-138,324	-0,052	0,004
-517,131	800,000	0,044	-0,100
-516,116	25,197	-0,009	-0,005
-515,102	800,000	-0,052	-0,159
-514,087	-29,015	-0,067	-0,028
-513,072	611,674	0,032	-0,059
-512,058	-200,000	-0,046	-0,152
-511,043	784,311	-0,076	0,154
-510,029	-200,000	0,020	-0,093
-509,014	-18,817	0,113	0,052
-507,999	-200,000	-0,031	0,173
-506,985	-200,000	0,033	0,142
-505,970	102,356	-0,049	0,042
-504,956	184,831	0,046	0,050
-503,941	-20,404	0,033	-0,015
-502,926	51,210	-0,051	0,035
-501,912	-200,000	-0,026	0,085
-500,897	-200,000	0,034	0,148
-499,883	800,000	0,016	0,048
-498,868	-71,187	-0,150	-0,041
-497,853	-200,000	0,005	-0,026
-496,839	-200,000	-0,009	0,054
-495,824	291,908	-0,056	0,075
-494,810	-13,665	-0,070	0,033
-493,795	-105,276	-0,106	0,018
-492,781	-48,026	-0,106	-0,038
-491,766	44,442	0,092	0,062
-490,751	-92,092	-0,124	0,026
-489,737	-42,303	-0,079	-0,030
-488,722	-79,635	0,180	-0,044
-487,708	-200,000	0,012	0,041
-486,693	-95,464	-0,120	0,024
-485,678	-200,000	-0,018	-0,081
-484,664	-48,994	-0,016	0,006
-483,649	800,000	-0,042	0,104
-482,635	800,000	-0,035	-0,082
-481,620	114,375	-0,021	0,019
-480,605	-22,020	0,167	-0,075
-479,591	-160,126	-0,083	-0,003
-478,576	77,696	0,099	-0,077
-477,562	213,103	0,146	-0,170
-476,547	486,506	-0,087	-0,146
-475,532	-176,151	0,050	0,001
-474,518	-73,603	-0,067	0,018
-473,503	91,068	0,038	0,031
-472,489	266,124	-0,060	0,077
-471,474	535,086	0,051	0,089
-470,459	-200,000	-0,004	-0,041
-469,445	574,124	0,021	-0,037
-468,430	-200,000	0,016	-0,132
-467,416	-200,000	0,015	0,048
-466,401	800,000	0,027	0,079
-465,386	-56,458	-0,104	-0,034
-464,372	-88,894	0,149	-0,032
-463,357	138,909	0,100	0,097
-462,343	800,000	-0,019	0,052
-461,328	-200,000	-0,007	-0,055
-460,313	67,262	0,108	0,081
-459,299	-66,687	0,087	0,025
-458,284	-200,000	-0,001	0,051
-457,270	781,715	0,030	0,061
-456,255	-161,472	-0,102	0,004
-455,241	41,449	-0,067	-0,045
-454,226	800,000	-0,031	0,082
-453,211	514,333	-0,066	-0,115
-452,197	112,458	-0,101	0,090
-451,182	35,139	0,077	-0,049
-450,168	2,929	-0,046	-0,024
-449,153	739,518	-0,024	-0,048
-448,138	-200,000	-0,004	-0,020
-447,124	800,000	0,018	-0,043
-446,109	8,315	0,103	0,057
-445,095	800,000	-0,076	0,200
-444,080	-200,000	0,003	0,026
-443,065	-14,496	0,150	-0,071
-442,051	443,051	0,060	0,097
-441,036	-139,485	-0,189	0,015
-440,022	305,034	-0,018	-0,025
-439,007	-33,673	-0,036	0,015
-437,992	82,269	-0,068	0,054
-436,978	51,237	0,160	0,111
-435,963	50,810	-0,124	0,086
-434,949	231,379	-0,105	-0,127
-433,934	-99,056	-0,117	0,022
-432,919	691,149	-0,042	0,081
-431,905	-26,246	-0,102	0,044
-430,890	770,036	0,056	-0,112
-429,876	-99,042	-0,087	-0,016
-428,861	-89,153	-0,094	-0,020
-427,846	-200,000	-0,010	-0,063
-426,832	-123,313	-0,127	-0,015
-425,817	-37,887	0,054	-0,021
-424,803	-200,000	-0,013	-0,086
-423,788	800,000	0,028	-0,077
-422,773	800,000	-0,048	0,117
-421,759	80,586	0,039	0,031
-420,744	55,496	-0,096	0,068
-419,730	-101,521	0,064	-0,011
-418,715	-200,000	-0,014	-0,135
-417,701	133,334	0,119	-0,113
-416,686	-59,403	0,049	-0,015
-415,671	800,000	-0,028	0,068
-414,657	-81,742	-0,093	-0,022
-413,642	4,365	0,092	-0,049
-412,628	-115,022	-0,145	-0,020
-411,613	-200,000	0,015	-0,239
-410,598	-200,000	0,001	0,007
-409,584	133,830	0,133	-0,127
-408,569	390,638	0,065	0,099
-407,555	134,597	0,064	-0,061
-406,540	-200,000	-0,004	0,066
-405,525	129,704	-0,033	-0,031
-404,511	800,000	0,011	0,028
-403,496	-171,749	0,061	0,001
-402,482	47,768	0,038	-0,026
-401,467	-200,000	0,020	-0,083
-400,452	-193,126	0,080	0,001
-399,438	-200,000	-0,028	0,111
-398,423	12,826	-0,028	0,016
-397,409	95,477	0,055	-0,046
-396,394	23,934	0,040	0,024
-395,379	175,884	0,027	0,028
-394,365	114,035	0,112	0,100
-393,350	58,182	0,035	-0,025
-392,336	-84,371	-0,111	0,026
-391,321	800,000	0,041	0,132
-390,306	88,341	0,138	0,112
-389,292	-98,236	-0,066	-0,012
-388,277	-148,832	0,028	-0,002
-387,263	-31,674	0,101	-0,042
-386,248	-104,222	0,092	0,016
-385,233	-200,000	-0,023	-0,141
-384,219	-159,825	-0,028	-0,001
-383,204	-73,301	0,083	0,022
-382,190	-65,687	-0,104	-0,030
-381,175	-115,768	0,104	0,014
-380,160	800,000	0,086	-0,180
-379,146	-200,000	0,010	0,108
-378,131	-200,000	0,009	-0,070
-377,117	325,970	0,067	0,094
-376,102	800,000	-0,019	0,057
-375,088	800,000	-0,063	-0,187
-374,073	230,561	0,087	-0,105
-373,058	-200,000	0,008	0,053
-372,044	-150,307	0,108	0,006
-371,029	26,253	-0,042	0,026
-370,015	521,227	0,093	-0,161
-369,000	190,818	-0,032	0,035
-367,985	287,980	-0,055	-0,074
-366,971	-200,000	-0,034	0,115
-365,956	-138,428	-0,219	-0,017
-364,942	-200,000	-0,009	-0,099
-363,927	342,043	-0,026	0,038
-362,912	800,000	0,014	-0,040
-361,898	-0,352	-0,123	0,064
-360,883	-200,000	-0,003	0,024
-359,869	-120,915	0,064	0,008
-358,854	215,104	-0,034	0,040
-357,839	119,031	0,055	0,050
-356,825	364,339	0,049	0,072
-355,810	338,490	-0,088	0,126
-354,796	523,137	0,016	-0,028
-353,781	-104,754	-0,037	0,006
-352,766	205,865	-0,070	0,080
-351,752	-200,000	-0,018	-0,063
-350,737	-52,347	0,093	0,031
-349,723	310,591	-0,012	0,016
-348,708	-14,306	-0,077	-0,036
-347,693	-9,124	0,035	-0,017
-346,679	37,205	-0,091	-0,059
-345,664	86,317	0,068	-0,055
-344,650	-162,399	0,143	0,005
-343,635	199,111	-0,077	0,087
-342,620	-64,312	0,091	0,027
-341,606	106,260	0,037	0,032
-340,591	-116,583	-0,106	-0,014
-339,577	800,000	-0,029	-0,060
-338,562	63,219	-0,087	-0,064
-337,548	366,077	0,023	-0,035
-336,533	-147,588	0,101	-0,006
-335,518	-200,000	0,022	0,187
-334,504	-200,000	-0,001	-0,101
-333,489	78,044	0,073	-0,057
-332,475	-200,000	-0,023	0,124
-331,460	-200,000	-0,005	-0,095
-330,445	144,850	-0,087	0,085
-329,431	-14,529	0,023	-0,011
-328,416	27,099	-0,073	0,045
-327,402	299,137	0,039	-0,053
-326,387	-200,000	-0,018	-0,089
-325,372	549,836	0,015	0,026
-324,358	-73,362	-0,175	-0,047
-323,343	-147,898	-0,032	0,002
-322,329	-59,155	0,027	-0,009
-321,314	800,000	0,040	0,105
-320,299	-76,162	0,040	-0,010
-319,285	-110,310	0,128	0,019
-318,270	800,000	-0,013	-0,029
-317,256	162,308	0,029	-0,030
-316,241	-200,000	0,022	-0,136
-315,226	-49,780	-0,123	-0,043
-314,212	86,036	-0,030	0,024
-313,197	112,176	0,031	-0,027
-312,183	0,070	0,074	0,039
-311,168	575,440	-0,009	0,016
-310,153	-200,000	-0,011	-0,044
-309,139	98,172	-0,007	0,006
-308,124	-132,620	-0,087	0,008
-307,110	-69,322	0,020	-0,006
-306,095	-109,911	0,089	-0,013
-305,080	21,903	0,140	0,083
-304,066	115,515	-0,079	0,071
-303,051	122,837	0,013	-0,012
-302,037	-116,360	-0,108	0,015
-301,022	800,000	0,044	0,139
-300,008	680,119	0,063	0,121
-298,993	-111,257	-0,021	-0,003
-297,978	563,259	-0,012	-0,022
-296,964	-200,000	-0,014	-0,082
-295,949	551,709	0,064	-0,113
-294,935	-200,000	-0,008	-0,206
-293,920	-200,000	0,017	-0,103
-292,905	-200,000	0,000	0,044
-291,891	-200,000	-0,001	0,102
-290,876	-200,000	-0,013	0,131
-289,862	-51,726	-0,049	-0,017
-288,847	-120,088	-0,174	-0,022
-287,832	78,770	0,046	0,036
-286,818	800,000	0,019	-0,046
-285,803	22,446	-0,101	0,060
-284,789	800,000	0,056	0,115
-283,774	751,093	0,013	-0,026
-282,759	-76,831	0,094	0,024
-281,745	181,819	0,052	-0,056
-280,730	-84,939	0,078	-0,018
-279,716	-38,356	0,044	-0,017
-278,701	-200,000	-0,009	0,071
-277,686	800,000	0,043	0,121
-276,672	24,385	0,029	-0,018
-275,657	-200,000	0,000	0,080
-274,643	-200,000	0,002	0,137
-273,628	800,000	0,047	-0,096
-272,613	12,444	0,118	0,066
-271,599	262,774	0,107	0,137
-270,584	391,497	0,132	0,201
-269,570	116,098	0,097	0,087
-268,555	-200,000	-0,022	0,076
-267,540	-200,000	0,003	-0,046
-266,526	158,552	-0,045	0,045
-265,511	-200,000	0,016	0,063
-264,497	-37,386	-0,071	-0,028
-263,482	15,480	0,108	0,062
-262,467	43,121	0,106	0,071
-261,453	144,935	0,049	-0,048
-260,438	-200,000	-0,023	0,086
-259,424	-56,071	-0,120	0,039
-258,409	150,147	-0,069	-0,068
-257,395	-10,107	0,048	-0,023
-256,380	-20,045	0,134	0,060
-255,365	-60,516	0,070	0,022
-254,351	800,000	-0,054	-0,125
-253,336	-200,000	0,009	0,147
-252,322	-200,000	0,002	-0,082
-251,307	445,741	-0,011	-0,018
-250,292	800,000	-0,017	-0,041
-249,278	-42,393	-0,134	0,050
-248,263	-200,000	0,047	0,251
-247,249	-122,211	-0,066	-0,008
-246,234	-115,009	-0,112	0,015
-245,219	732,925	0,018	-0,035
-244,205	507,596	0,015	0,025
-243,190	-200,000	0,011	-0,104
-242,176	-85,303	0,065	-0,015
-241,161	-81,524	-0,068	-0,016
-240,146	-52,829	0,123	-0,041
-239,132	279,433	0,049	-0,063
-238,117	-137,590	-0,110	0,009
-237,103	-65,507	0,130	-0,038
-236,088	189,571	0,063	0,069
-235,073	-77,378	0,059	-0,015
-234,059	800,000	0,066	0,138
-233,044	-121,692	-0,142	-0,017
-232,030	-30,624	0,015	0,006
-231,015	228,772	-0,090	-0,107
-230,000	421,608	0,103	-0,161
-228,986	-58,247	-0,136	-0,043
-227,971	800,000	0,020	-0,045
-226,957	-200,000	0,012	-0,074
-225,942	-127,216	0,025	-0,003
-224,927	-200,000	-0,030	0,165
-223,913	-200,000	0,009	-0,137
-222,898	222,852	0,035	-0,041
-221,884	-200,000	0,035	-0,161
-220,869	51,574	0,086	-0,060
-219,855	48,362	-0,048	0,033
-218,840	-200,000	0,004	-0,033
-217,825	-200,000	-0,016	-0,118
-216,811	800,000	-0,029	-0,087
-215,796	321,648	0,073	-0,101
-214,782	166,131	-0,024	-0,024
-213,767	800,000	0,018	-0,047
-212,752	800,000	0,035	0,088
-211,738	800,000	-0,010	0,027
-210,723	-200,000	0,021	0,072
-209,709	-103,186	-0,068	-0,012
-208,694	35,013	-0,012	0,007
-207,679	369,719	-0,076	-0,113
-206,665	276,757	-0,040	-0,052
-205,650	-40,151	0,153	0,058
-204,636	-168,284	-0,044	0,001
-203,621	-10,237	0,053	0,025
-202,606	-85,662	-0,127	0,028
-201,592	-94,160	0,046	0,009
-200,577	800,000	0,062	-0,160
-199,563	-117,989	-0,180	-0,023
-198,548	276,668	-0,055	0,071
-197,533	-200,000	-0,012	0,079
-196,519	-36,313	0,070	0,028
-195,504	769,345	0,015	0,029
-194,490	800,000	-0,036	-0,076
-193,475	1,011	-0,137	-0,071
-192,460	62,382	-0,121	-0,088
-191,446	451,077	-0,086	0,139
-190,431	-86,207	0,089	-0,020
-189,417	800,000	-0,003	-0,008
-188,402	39,089	-0,026	-0,017
-187,387	-70,719	-0,136	-0,037
-186,373	-200,000	0,015	0,110
-185,358	-5,603	0,010	0,005
-184,344	-100,170	0,119	-0,021
-183,329	42,064	0,076	0,050
-182,315	298,009	0,070	0,094
-181,300	93,026	-0,023	0,019
-180,285	-200,000	0,009	-0,028
-179,271	-200,000	-0,014	-0,066
-178,256	454,497	-0,018	0,030
-177,242	320,873	-0,039	-0,054
-176,227	326,533	-0,096	0,135
-175,212	-200,000	-0,019	0,092
-174,198	-200,000	-0,017	0,065
-173,183	-13,850	0,108	-0,051
-172,169	448,886	-0,053	-0,085
-171,154	525,784	-0,063	-0,109
-170,139	-200,000	-0,011	0,110
-169,125	-200,000	0,016	0,124
-168,110	-200,000	-0,003	0,103
-167,096	103,457	-0,060	-0,051
-166,081	-100,217	-0,242	-0,043
-165,066	-16,963	-0,117	-0,053
-164,052	197,716	-0,056	-0,062
-163,037	-200,000	-0,030	0,135
-162,023	-24,110	0,071	0,031
-161,008	340,821	-0,060	-0,086
-159,993	-200,000	-0,008	0,118
-158,979	-16,630	0,057	-0,026
-157,964	-200,000	0,024	0,090
-156,950	-14,425	0,090	-0,042
-155,935	292,836	-0,060	0,080
-154,920	42,536	-0,035	0,023
-153,906	-175,495	0,182	-0,004
-152,891	-200,000	-0,003	-0,013
-151,877	800,000	0,014	0,034
-150,862	800,000	0,030	-0,092
-149,847	-24,927	-0,100	0,043
-148,833	800,000	-0,041	0,097
-147,818	197,615	0,092	0,102
-146,804	-131,494	-0,050	0,005
-145,789	-200,000	0,033	0,148
-144,775	-200,000	0,044	-0,179
-143,760	-200,000	0,008	-0,035
-142,745	139,478	-0,120	0,115
-141,731	231,166	-0,079	-0,095
-140,716	539,438	0,059	-0,103
-139,702	-52,858	0,151	-0,050
-138,687	-200,000	-0,007	0,028
-137,672	-200,000	0,002	-0,032
-136,658	-68,474	-0,069	0,019
-135,643	-12,840	0,043	-0,020
-134,629	410,570	0,056	0,087
-133,614	-200,000	-0,009	0,218
-132,599	-200,000	-0,003	-0,041
-131,585	139,799	0,050	-0,048
-130,570	-178,646	-0,141	-0,002
-129,556	387,305	0,076	-0,115
-128,541	-61,502	-0,131	0,040
-127,526	800,000	-0,051	-0,112
-126,512	-200,000	-0,011	0,065
-125,497	800,000	0,047	0,098
-124,483	9,708	0,033	0,018
-123,468	-200,000	-0,002	-0,010
-122,453	-56,899	-0,097	0,031
-121,439	-95,686	-0,138	-0,027
-120,424	-84,770	-0,053	-0,012
