DTS Sentinel unit serial number:	SN410029Multiplexer serial number:	ORYXHardware model number:	OX2-SRSoftware version number:	ORYX F/W v4,00 Oryx Data Collector v3.7.2.0data status	okinstallation	B4 Nyhavnadifferential loss correction	single-endedforward channel	channel 2reverse channel	N/Adate	2023/12/16time	12:35:13forward acquisition time	300,00reverse acquisition time	0,00gamma	499,1914k internal	0,3126k external	0,3126temperature offset calibration	1,0000default loss term (dB/km)	0,3820temperature slope calibration	1,0000multiplexer offset coefficient	1,0000multiplexer slope coefficient	1,0000fibre end	0,00T internal ref (°C)	24,15T ext. ref 1 (°C)	10,30T ext. ref 2 (°C)	10,42length (m)	temperature (°C)	Stokes	anti-Stokes-744,400	-38,025	-0,032	0,013
-743,385	-80,711	-0,185	0,045
-742,371	60,837	0,088	-0,065
-741,356	800,000	-0,075	0,233
-740,342	-57,762	0,119	-0,039
-739,327	-63,879	-0,282	0,085
-738,312	-200,000	0,018	-0,074
-737,298	-12,534	-0,189	0,091
-736,283	247,144	-0,054	-0,068
-735,269	-44,385	-0,177	0,066
-734,254	800,000	0,048	0,112
-733,239	-177,928	-0,323	0,006
-732,225	106,847	0,045	-0,039
-731,210	91,817	-0,149	0,124
-730,196	-100,785	0,122	-0,022
-729,181	-88,861	-0,146	0,032
-728,167	-200,000	-0,018	0,091
-727,152	-130,558	-0,159	-0,016
-726,137	103,789	-0,048	-0,042
-725,123	-60,652	-0,092	0,029
-724,108	214,760	-0,037	0,044
-723,094	399,482	-0,043	-0,067
-722,079	262,848	-0,096	-0,125
-721,064	447,015	-0,025	0,042
-720,050	-153,603	0,182	-0,009
-719,035	-120,642	0,075	-0,009
-718,021	35,980	0,072	0,047
-717,006	78,319	-0,208	-0,165
-715,991	-52,390	-0,157	-0,054
-714,977	515,870	0,033	0,058
-713,962	-122,646	-0,144	0,017
-712,948	800,000	0,029	0,083
-711,933	432,114	-0,028	0,045
-710,918	114,458	0,079	0,071
-709,904	-76,565	-0,134	0,035
-708,889	-167,914	-0,170	-0,005
-707,875	-65,210	0,081	0,024
-706,860	40,749	-0,074	-0,050
-705,845	158,472	0,074	0,076
-704,831	-200,000	0,008	0,119
-703,816	-62,395	-0,092	0,028
-702,802	592,996	0,054	-0,100
-701,787	78,164	-0,043	-0,034
-700,772	23,775	-0,013	0,008
-699,758	38,815	-0,058	-0,039
-698,743	-200,000	0,013	-0,051
-697,729	-38,221	-0,049	-0,019
-696,714	4,937	0,103	-0,056
-695,699	-97,547	-0,081	0,016
-694,685	64,311	-0,120	-0,090
-693,670	169,689	0,108	-0,115
-692,656	-90,766	0,100	-0,021
-691,641	15,977	-0,044	0,026
-690,627	-167,890	-0,110	-0,003
-689,612	-114,836	-0,159	-0,022
-688,597	-36,281	0,011	0,004
-687,583	-200,000	0,023	-0,101
-686,568	74,226	0,088	-0,069
-685,554	45,636	0,070	-0,048
-684,539	325,618	0,071	0,101
-683,524	800,000	-0,004	0,009
-682,510	200,029	-0,029	0,033
-681,495	-69,267	-0,032	-0,009
-680,481	-57,953	-0,202	-0,065
-679,466	-200,000	0,017	-0,141
-678,451	800,000	0,053	-0,130
-677,437	-200,000	0,010	-0,070
-676,422	-58,854	0,084	0,027
-675,408	800,000	-0,014	-0,041
-674,393	348,384	-0,053	-0,078
-673,378	-60,718	0,067	0,021
-672,364	143,604	-0,076	-0,076
-671,349	-200,000	0,002	-0,036
-670,335	800,000	-0,007	0,022
-669,320	-19,207	-0,095	0,044
-668,305	-200,000	0,007	-0,075
-667,291	-200,000	-0,005	0,029
-666,276	800,000	0,058	-0,137
-665,262	-200,000	0,013	-0,107
-664,247	-200,000	-0,002	-0,104
-663,232	-200,000	0,003	-0,067
-662,218	0,408	-0,151	-0,080
-661,203	-45,951	0,104	-0,038
-660,189	261,102	-0,030	0,039
-659,174	-123,101	-0,049	0,006
-658,159	705,905	0,001	-0,001
-657,145	-67,695	-0,188	0,054
-656,130	-200,000	-0,023	0,127
-655,116	434,835	-0,012	0,019
-654,101	-200,000	0,010	0,104
-653,086	-104,065	-0,137	0,024
-652,072	-7,614	-0,191	-0,095
-651,057	-200,000	-0,007	-0,085
-650,043	3,955	0,013	-0,007
-649,028	56,387	-0,048	-0,035
-648,014	-130,539	0,125	-0,012
-646,999	-71,171	0,096	0,027
-645,984	-200,000	-0,016	0,088
-644,970	-81,406	0,108	-0,026
-643,955	-122,286	-0,148	-0,018
-642,941	-143,299	0,023	0,002
-641,926	65,302	0,098	-0,073
-640,911	165,939	-0,073	0,076
-639,897	216,233	0,065	0,077
-638,882	107,684	-0,067	0,059
-637,868	-200,000	0,007	0,093
-636,853	800,000	0,013	-0,035
-635,838	175,939	0,041	-0,044
-634,824	-200,000	0,000	0,002
-633,809	125,301	0,029	-0,027
-632,795	338,989	0,011	-0,016
-631,780	-200,000	0,008	0,185
-630,765	-200,000	0,015	-0,096
-629,751	800,000	0,016	-0,050
-628,736	-180,866	0,068	-0,001
-627,722	-200,000	-0,007	-0,078
-626,707	-200,000	0,008	-0,181
-625,692	-14,660	-0,144	-0,068
-624,678	-68,616	-0,110	-0,031
-623,663	-13,863	0,096	-0,046
-622,649	-170,224	-0,060	-0,002
-621,634	-200,000	-0,010	-0,095
-620,619	138,498	-0,016	0,016
-619,605	52,292	-0,024	0,017
-618,590	-46,531	-0,082	0,030
-617,576	158,622	-0,068	0,070
-616,561	64,987	-0,109	-0,081
-615,546	142,245	-0,028	-0,028
-614,532	800,000	0,025	0,061
-613,517	-200,000	-0,030	-0,209
-612,503	229,014	-0,089	-0,107
-611,488	444,710	-0,061	0,099
-610,474	205,079	0,049	0,056
-609,459	-84,197	-0,121	-0,028
-608,444	-200,000	0,005	-0,109
-607,430	133,720	-0,093	-0,089
-606,415	-76,654	0,058	0,015
-605,401	800,000	0,033	-0,098
-604,386	7,912	-0,032	-0,018
-603,371	199,370	-0,040	0,045
-602,357	744,340	0,038	-0,075
-601,342	437,317	-0,061	-0,098
-600,328	-200,000	0,026	-0,124
-599,313	155,022	-0,055	-0,056
-598,298	25,959	0,027	0,016
-597,284	0,321	0,177	0,094
-596,269	-83,500	-0,048	-0,011
-595,255	-127,192	-0,226	0,024
-594,240	298,735	-0,061	0,083
-593,225	800,000	-0,036	-0,075
-592,211	-200,000	0,027	-0,168
-591,196	-200,000	0,025	-0,168
-590,182	-200,000	0,003	-0,143
-589,167	5,636	-0,101	-0,055
-588,152	-200,000	-0,023	0,119
-587,138	26,747	-0,071	-0,044
-586,123	689,956	0,029	-0,056
-585,109	800,000	-0,039	-0,082
-584,094	-60,517	0,028	0,009
-583,079	-149,783	-0,068	-0,004
-582,065	293,261	0,068	-0,091
-581,050	260,329	-0,041	0,052
-580,036	-200,000	0,019	0,067
-579,021	-200,000	-0,014	-0,047
-578,006	800,000	-0,055	-0,116
-576,992	168,720	-0,054	-0,057
-575,977	-200,000	-0,014	0,121
-574,963	-200,000	0,004	-0,031
-573,948	252,973	0,034	0,043
-572,934	58,453	-0,083	0,060
-571,919	-89,010	0,040	0,009
-570,904	-200,000	0,028	-0,160
-569,890	13,538	-0,015	-0,008
-568,875	-26,281	0,094	0,041
-567,861	-200,000	-0,003	0,047
-566,846	-200,000	-0,004	0,054
-565,831	40,968	-0,079	-0,053
-564,817	33,696	0,005	0,003
-563,802	-117,309	-0,057	0,008
-562,788	-200,000	-0,018	-0,180
-561,773	800,000	-0,026	-0,070
-560,758	185,257	0,028	-0,031
-559,744	116,587	0,061	-0,056
-558,729	307,997	0,041	0,057
-557,715	171,793	0,071	0,076
-556,700	-92,563	-0,050	0,010
-555,685	90,293	-0,097	-0,080
-554,671	-142,992	-0,060	0,004
-553,656	417,927	-0,033	0,052
-552,642	55,449	0,067	0,048
-551,627	436,830	0,019	-0,031
-550,612	-25,786	-0,094	0,041
-549,598	-90,412	-0,077	-0,016
-548,583	215,597	-0,136	-0,160
-547,569	-77,171	-0,066	-0,017
-546,554	-45,373	0,007	0,003
-545,539	6,724	0,091	0,050
-544,525	407,248	-0,069	0,108
-543,510	-200,000	-0,015	-0,054
-542,496	145,308	-0,065	-0,064
-541,481	-189,050	0,003	0,000
-540,466	800,000	-0,021	-0,054
-539,452	-26,134	-0,203	0,088
-538,437	146,767	0,111	0,110
-537,423	415,625	-0,042	0,066
-536,408	-200,000	0,010	-0,107
-535,393	0,783	-0,150	0,079
-534,379	327,267	-0,029	-0,041
-533,364	-76,273	0,129	-0,033
-532,350	-200,000	-0,009	-0,036
-531,335	800,000	-0,025	0,075
-530,321	-200,000	-0,015	0,073
-529,306	-112,067	0,040	0,006
-528,291	-78,761	0,078	0,019
-527,277	161,043	-0,025	-0,026
-526,262	-143,222	-0,094	0,007
-525,248	138,095	-0,054	0,053
-524,233	50,881	0,140	0,098
-523,218	-185,465	-0,096	0,001
-522,204	-200,000	0,010	0,048
-521,189	800,000	-0,017	-0,049
-520,175	3,590	-0,092	-0,050
-519,160	489,019	-0,036	0,062
-518,145	-63,017	0,091	-0,027
-517,131	-18,632	0,110	0,051
-516,116	-200,000	-0,046	0,179
-515,102	-104,211	0,112	0,019
-514,087	-200,000	0,022	-0,078
-513,072	-200,000	-0,002	-0,155
-512,058	-26,949	-0,016	-0,007
-511,043	197,216	-0,016	-0,018
-510,029	116,794	-0,026	-0,023
-509,014	800,000	-0,029	-0,072
-507,999	800,000	-0,033	0,079
-506,985	41,607	0,129	-0,086
-505,970	-200,000	-0,029	-0,098
-504,956	-200,000	0,018	-0,068
-503,941	107,125	0,019	-0,017
-502,926	-69,658	0,010	0,003
-501,912	-7,902	0,078	0,039
-500,897	800,000	0,035	-0,089
-499,883	-200,000	-0,008	-0,280
-498,868	99,092	-0,058	0,050
-497,853	393,763	-0,008	0,012
-496,839	-200,000	0,010	0,093
-495,824	759,765	0,074	0,148
-494,810	720,950	0,067	-0,133
-493,795	167,549	-0,118	0,124
-492,781	-127,459	0,034	-0,004
-491,766	121,030	-0,087	-0,080
-490,751	351,087	-0,092	0,135
-489,737	298,362	-0,020	0,027
-488,722	-200,000	-0,001	0,019
-487,708	-104,228	0,152	0,026
-486,693	-200,000	-0,011	-0,057
-485,678	-2,580	-0,073	0,038
-484,664	24,947	-0,138	-0,084
-483,649	-172,679	-0,062	0,001
-482,635	169,396	0,059	-0,062
-481,620	-200,000	0,004	0,062
-480,605	800,000	-0,044	-0,095
-479,591	-200,000	-0,026	0,128
-478,576	144,101	0,020	-0,020
-477,562	-200,000	-0,006	-0,089
-476,547	406,789	-0,029	-0,046
-475,532	-19,417	-0,089	0,041
-474,518	616,663	0,042	0,078
-473,503	231,378	0,036	0,043
-472,489	487,895	0,054	-0,091
-471,474	800,000	0,040	0,094
-470,459	93,156	-0,148	0,123
-469,445	-141,726	0,076	-0,006
-468,430	-40,278	0,118	0,045
-467,416	800,000	0,015	-0,042
-466,401	153,303	0,036	-0,036
-465,386	-33,363	0,118	0,048
-464,372	-90,902	-0,064	0,013
-463,357	44,031	-0,071	-0,048
-462,343	307,793	0,076	0,104
-461,328	-200,000	0,001	-0,018
-460,313	168,865	0,051	-0,053
-459,299	800,000	0,016	-0,040
-458,284	177,796	-0,032	0,034
-457,270	584,282	-0,022	0,039
-456,255	353,463	0,027	-0,040
-455,241	-200,000	0,008	-0,173
-454,226	-200,000	-0,037	-0,172
-453,211	-132,588	0,095	0,009
-452,197	539,308	0,032	0,056
-451,182	219,087	-0,072	0,084
-450,168	-200,000	0,005	0,091
-449,153	484,361	-0,059	-0,099
-448,138	-124,167	-0,148	0,017
-447,124	208,743	0,031	0,036
-446,109	-49,500	-0,094	-0,033
-445,095	767,497	0,044	0,088
-444,080	-48,208	0,110	0,039
-443,065	-74,193	-0,041	-0,011
-442,051	-62,878	-0,155	0,047
-441,036	193,068	-0,019	-0,021
-440,022	-200,000	-0,012	0,053
-439,007	-80,117	-0,067	-0,016
-437,992	309,503	0,072	0,100
-436,978	261,587	0,035	0,045
-435,963	384,656	0,038	0,057
-434,949	15,784	-0,067	0,039
-433,934	800,000	-0,050	-0,106
-432,919	-200,000	0,020	-0,104
-431,905	800,000	0,060	-0,152
-430,890	-160,948	-0,122	-0,005
-429,876	-72,457	0,097	-0,026
-428,861	-200,000	-0,010	-0,145
-427,846	-137,954	-0,024	-0,002
-426,832	133,382	0,094	-0,090
-425,817	-8,219	0,048	0,024
-424,803	14,657	0,027	-0,015
-423,788	-39,934	0,093	0,035
-422,773	-124,415	0,160	-0,018
-421,759	-200,000	0,015	-0,051
-420,744	-137,369	-0,145	-0,012
-419,730	248,132	-0,064	-0,080
-418,715	545,236	-0,065	-0,115
-417,701	205,051	-0,102	0,117
-416,686	7,336	-0,059	-0,032
-415,671	14,566	-0,067	-0,038
-414,657	-200,000	0,002	0,098
-413,642	4,866	0,118	-0,064
-412,628	422,610	0,039	0,062
-411,613	-100,197	-0,057	-0,010
-410,598	-174,366	0,109	0,002
-409,584	52,744	0,151	-0,106
-408,569	72,490	0,042	-0,032
-407,555	-132,687	0,106	0,010
-406,540	-200,000	-0,036	0,131
-405,525	107,750	-0,060	0,053
-404,511	332,530	-0,056	-0,080
-403,496	-95,741	-0,030	-0,006
-402,482	-66,468	0,150	0,043
-401,467	378,719	0,029	0,044
-400,452	282,428	0,049	0,064
-399,438	65,616	0,063	0,047
-398,423	73,527	-0,022	-0,017
-397,409	-80,022	0,057	0,014
-396,394	22,736	0,069	0,041
-395,379	-166,918	-0,094	0,003
-394,365	54,233	0,105	0,074
-393,350	-200,000	0,015	-0,060
-392,336	-123,640	0,185	0,021
-391,321	-139,729	-0,177	0,014
-390,306	800,000	-0,044	-0,090
-389,292	289,481	0,011	-0,015
-388,277	-200,000	0,003	0,150
-387,263	-107,113	-0,064	0,010
-386,248	-200,000	-0,013	0,114
-385,233	-130,298	0,110	0,011
-384,219	-114,722	0,126	0,017
-383,204	191,319	0,007	-0,008
-382,190	102,074	-0,092	0,079
-381,175	800,000	0,004	-0,012
-380,160	238,679	0,069	0,084
-379,146	-200,000	-0,014	-0,065
-378,131	-45,339	0,013	-0,005
-377,117	800,000	-0,058	0,147
-376,102	800,000	-0,043	-0,112
-375,088	-190,722	-0,075	-0,001
-374,073	-104,496	-0,071	-0,012
-373,058	-132,167	0,151	0,014
-372,044	196,679	0,074	-0,083
-371,029	-77,493	-0,095	-0,024
-370,015	109,628	-0,153	0,134
-369,000	141,024	0,065	0,063
-367,985	-200,000	-0,032	-0,146
-366,971	800,000	-0,006	0,012
-365,956	39,363	0,138	0,090
-364,942	-41,885	0,206	0,077
-363,927	-200,000	-0,008	0,127
-362,912	60,494	-0,094	0,068
-361,898	-9,438	0,035	0,017
-360,883	150,402	-0,097	0,097
-359,869	59,615	-0,057	-0,041
-358,854	162,805	0,007	-0,007
-357,839	512,146	0,052	-0,089
-356,825	-68,942	-0,050	0,014
-355,810	51,246	0,046	0,032
-354,796	-200,000	-0,165	-0,000
-353,781	195,193	-0,083	-0,093
-352,766	99,595	-0,129	-0,110
-351,752	800,000	0,003	0,006
-350,737	-137,800	0,168	0,014
-349,723	-200,000	0,011	0,077
-348,708	-200,000	-0,024	-0,119
-347,693	-27,566	-0,121	0,051
-346,679	28,409	-0,036	0,022
-345,664	800,000	0,006	-0,013
-344,650	117,527	0,107	-0,096
-343,635	-200,000	0,006	0,056
-342,620	-200,000	-0,006	0,075
-341,606	69,016	-0,035	-0,026
-340,591	156,017	-0,091	-0,092
-339,577	-200,000	0,003	0,028
-338,562	327,673	-0,051	-0,072
-337,548	171,024	-0,030	0,032
-336,533	-72,573	-0,053	0,014
-335,518	-200,000	0,011	0,128
-334,504	-38,496	0,055	0,021
-333,489	263,628	-0,013	0,017
-332,475	273,266	-0,035	-0,046
-331,460	-200,000	0,029	-0,110
-330,445	-200,000	0,009	-0,030
-329,431	-200,000	-0,021	-0,091
-328,416	72,899	0,067	0,051
-327,402	-100,657	0,077	-0,014
-326,387	-26,322	-0,038	-0,016
-325,372	725,079	0,003	-0,007
-324,358	648,321	-0,042	-0,079
-323,343	159,394	0,084	-0,085
-322,329	445,069	0,070	0,113
-321,314	-139,918	0,061	0,005
-320,299	137,602	0,070	0,067
-319,285	-200,000	0,009	-0,044
-318,270	800,000	-0,054	0,155
-317,256	634,164	0,019	-0,036
-316,241	-89,065	0,158	-0,034
-315,226	218,391	-0,020	-0,023
-314,212	36,631	0,061	0,040
-313,197	20,861	0,047	-0,028
-312,183	-200,000	-0,000	-0,007
-311,168	-200,000	-0,018	-0,062
-310,153	51,368	-0,083	-0,057
-309,139	717,380	-0,054	0,106
-308,124	336,426	0,044	0,063
-307,110	202,985	0,060	0,067
-306,095	182,709	0,096	-0,103
-305,080	96,116	-0,058	-0,049
-304,066	188,151	-0,054	0,060
-303,051	301,888	0,122	-0,166
-302,037	176,219	0,029	0,031
-301,022	-200,000	-0,014	-0,048
-300,008	43,458	-0,026	0,017
-298,993	764,698	0,009	-0,018
-297,978	800,000	0,040	0,128
-296,964	42,047	0,015	0,010
-295,949	-35,936	-0,063	0,025
-294,935	800,000	0,073	0,164
-293,920	436,304	-0,054	0,087
-292,905	-200,000	0,003	0,064
-291,891	-200,000	0,007	-0,030
-290,876	251,063	0,064	0,079
-289,862	-85,314	0,051	0,012
-288,847	79,729	-0,077	0,060
-287,832	215,198	0,010	0,012
-286,818	56,711	-0,117	-0,083
-285,803	372,853	-0,028	-0,042
-284,789	-68,233	0,053	0,015
-283,774	302,745	0,069	0,094
-282,759	111,139	0,132	0,116
-281,745	77,276	-0,049	0,038
-280,730	119,769	-0,028	-0,025
-279,716	-55,821	0,086	-0,028
-278,701	-129,090	0,098	0,010
-277,686	46,179	-0,154	0,104
-276,672	-73,408	0,117	0,031
-275,657	-2,379	-0,039	0,020
-274,643	-200,000	-0,010	0,033
-273,628	219,580	-0,113	-0,132
-272,613	64,512	-0,156	-0,114
-271,599	-200,000	0,004	0,024
-270,584	-200,000	-0,023	0,082
-269,570	-200,000	-0,005	-0,055
-268,555	91,413	0,055	-0,045
-267,540	374,006	-0,025	-0,037
-266,526	421,637	-0,066	-0,105
-265,511	-200,000	0,011	-0,096
-264,497	800,000	-0,008	0,024
-263,482	-11,520	0,063	-0,030
-262,467	442,031	0,093	0,149
-261,453	58,933	-0,105	0,075
-260,438	-17,699	0,098	-0,045
-259,424	278,900	-0,050	-0,066
-258,409	234,223	-0,040	-0,048
-257,395	-47,911	-0,028	0,010
-256,380	40,891	-0,046	0,030
-255,365	800,000	0,039	0,108
-254,351	-109,208	-0,129	-0,020
-253,336	167,119	-0,073	-0,076
-252,322	26,790	0,077	0,047
-251,307	-200,000	-0,016	0,109
-250,292	209,660	0,079	0,090
-249,278	-200,000	0,046	0,190
-248,263	351,265	0,077	-0,112
-247,249	-18,243	-0,013	0,006
-246,234	184,833	-0,078	-0,084
-245,219	-200,000	-0,004	-0,065
-244,205	-200,000	0,027	0,147
-243,190	800,000	0,040	0,092
-242,176	-200,000	0,011	0,072
-241,161	598,234	0,120	0,219
-240,146	800,000	-0,044	0,135
-239,132	-200,000	-0,013	0,105
-238,117	-200,000	-0,011	0,073
-237,103	-200,000	0,035	-0,173
-236,088	84,223	-0,039	0,031
-235,073	-41,450	0,011	0,004
-234,059	-200,000	0,001	-0,033
-233,044	8,318	0,090	0,049
-232,030	74,025	0,011	-0,009
-231,015	5,940	-0,090	-0,049
-230,000	800,000	-0,062	-0,130
-228,986	-162,567	0,097	0,003
-227,971	597,292	-0,023	-0,042
-226,957	596,624	-0,047	-0,086
-225,942	-39,870	0,140	-0,053
-224,927	-2,074	0,100	0,051
-223,913	250,977	0,019	-0,023
-222,898	618,691	-0,019	0,035
-221,884	569,842	0,050	0,089
-220,869	-200,000	-0,001	0,037
-219,855	447,075	0,004	-0,007
-218,840	231,949	0,060	0,073
-217,825	659,014	-0,044	0,083
-216,811	278,683	0,015	-0,019
-215,796	-200,000	-0,018	0,122
-214,782	800,000	0,024	0,073
-213,767	800,000	-0,028	0,056
-212,752	800,000	0,029	0,075
-211,738	-88,664	0,081	0,017
-210,723	-200,000	0,005	0,017
-209,709	-200,000	-0,007	0,057
-208,694	75,403	-0,100	-0,077
-207,679	-200,000	-0,013	0,050
-206,665	-200,000	-0,026	0,094
-205,650	307,408	0,025	-0,035
-204,636	347,404	-0,038	0,054
-203,621	-200,000	0,001	0,063
-202,606	-20,389	0,182	-0,081
-201,592	20,646	0,112	-0,066
-200,577	-200,000	0,045	-0,178
-199,563	483,987	0,036	-0,061
-198,548	-8,659	0,112	0,054
-197,533	230,499	0,049	-0,059
-196,519	-200,000	0,004	-0,106
-195,504	58,280	-0,079	-0,057
-194,490	-140,743	-0,067	-0,005
-193,475	99,510	-0,078	0,066
-192,460	-145,807	-0,033	-0,002
-191,446	26,412	-0,062	0,038
-190,431	26,187	0,068	-0,041
-189,417	800,000	0,023	-0,069
-188,402	207,787	0,065	0,074
-187,387	771,961	0,032	0,063
-186,373	151,568	0,079	-0,078
-185,358	800,000	0,018	-0,044
-184,344	76,821	0,059	0,045
-183,329	779,045	0,057	-0,114
-182,315	-200,000	-0,011	-0,089
-181,300	800,000	-0,066	0,139
-180,285	-200,000	0,007	0,049
-179,271	189,826	-0,040	0,043
-178,256	297,618	-0,080	0,107
-177,242	321,790	-0,077	-0,107
-176,227	-200,000	-0,013	0,083
-175,212	109,431	0,066	0,058
-174,198	-39,147	0,113	0,043
-173,183	-94,618	-0,039	0,008
-172,169	-200,000	-0,008	0,035
-171,154	-59,706	0,141	0,044
-170,139	-113,052	0,037	-0,005
-169,125	800,000	-0,015	0,034
-168,110	-87,278	-0,118	-0,026
-167,096	-89,960	0,088	-0,019
-166,081	531,062	-0,040	0,070
-165,066	202,092	-0,035	-0,040
-164,052	-200,000	0,042	-0,180
-163,037	263,044	0,107	0,135
-162,023	800,000	-0,011	0,034
-161,008	-200,000	0,018	-0,074
-159,993	-73,216	0,079	0,021
-158,979	434,266	0,023	-0,036
-157,964	-115,896	-0,005	0,001
-156,950	-200,000	-0,015	-0,066
-155,935	11,817	0,027	0,015
-154,920	-109,865	-0,083	0,013
-153,906	-200,000	0,000	0,008
-152,891	800,000	-0,025	0,063
-151,877	666,332	-0,043	-0,081
-150,862	587,983	0,040	-0,072
-149,847	48,029	0,087	0,059
-148,833	12,243	-0,057	-0,032
-147,818	-200,000	-0,014	-0,072
-146,804	-69,370	-0,024	0,007
-145,789	-200,000	-0,020	0,083
-144,775	-86,761	-0,060	-0,013
-143,760	756,214	0,035	-0,069
-142,745	90,050	-0,087	-0,070
-141,731	124,669	0,045	-0,041
-140,716	15,434	-0,268	0,153
-139,702	-200,000	0,079	-0,000
-138,687	28,847	-0,027	0,017
-137,672	-200,000	0,000	0,002
-136,658	430,505	-0,068	0,108
-135,643	250,644	0,032	-0,040
-134,629	-200,000	-0,008	-0,070
-133,614	195,405	0,090	0,099
-132,599	151,404	0,111	0,110
-131,585	100,137	-0,053	0,045
-130,570	800,000	0,047	0,115
-129,556	800,000	0,041	0,083
-128,541	-45,214	-0,113	0,041
-127,526	-62,143	0,037	0,011
-126,512	-200,000	-0,005	0,031
-125,497	214,943	0,105	0,122
-124,483	800,000	-0,049	0,100
-123,468	-84,140	0,064	-0,015
-122,453	-100,573	0,046	-0,008
-121,439	115,016	0,044	0,039
-120,424	487,603	0,056	-0,094
-119,410	-128,152	0,212	0,022
-118,395	164,083	-0,025	-0,026
