DTS Sentinel unit serial number:	SN410029Multiplexer serial number:	ORYXHardware model number:	OX2-SRSoftware version number:	ORYX F/W v4,00 Oryx Data Collector v3.7.2.0data status	okinstallation	B4 Nyhavnadifferential loss correction	single-endedforward channel	channel 2reverse channel	N/Adate	2023/12/19time	01:00:13forward acquisition time	300,00reverse acquisition time	0,00gamma	499,1914k internal	0,3123k external	0,3123temperature offset calibration	1,0000default loss term (dB/km)	0,3820temperature slope calibration	1,0000multiplexer offset coefficient	1,0000multiplexer slope coefficient	1,0000fibre end	0,00T internal ref (°C)	21,89T ext. ref 1 (°C)	6,20T ext. ref 2 (°C)	6,22length (m)	temperature (°C)	Stokes	anti-Stokes-744,400	243,572	0,103	-0,130
-743,385	277,346	-0,137	0,182
-742,371	194,077	0,066	0,075
-741,356	422,375	-0,152	0,244
-740,342	56,268	-0,027	0,019
-739,327	-15,513	-0,192	0,091
-738,312	800,000	0,075	-0,171
-737,298	-112,382	-0,201	0,030
-736,283	-200,000	-0,021	-0,160
-735,269	172,447	-0,097	0,104
-734,254	269,572	0,080	-0,106
-733,239	-35,135	-0,335	-0,135
-732,225	-0,044	0,058	0,031
-731,210	501,525	-0,007	0,012
-730,196	-0,268	0,070	0,037
-729,181	-57,354	-0,083	0,027
-728,167	20,775	0,040	0,024
-727,152	-90,899	0,044	-0,009
-726,137	644,829	0,052	0,099
-725,123	695,697	0,018	0,035
-724,108	750,730	-0,078	-0,157
-723,094	-200,000	-0,022	-0,156
-722,079	391,742	-0,121	-0,188
-721,064	-53,134	-0,010	0,003
-720,050	800,000	-0,027	0,087
-719,035	225,931	-0,037	-0,044
-718,021	800,000	-0,009	-0,019
-717,006	-200,000	-0,028	-0,221
-715,991	-2,406	-0,066	-0,034
-714,977	-66,752	0,096	-0,028
-713,962	-200,000	0,016	-0,066
-712,948	-200,000	-0,005	0,096
-711,933	-200,000	0,018	0,077
-710,918	-200,000	0,008	-0,030
-709,904	-112,797	-0,172	0,025
-708,889	353,594	0,042	-0,062
-707,875	124,597	-0,149	-0,140
-706,860	800,000	0,042	0,098
-705,845	-99,920	0,067	-0,012
-704,831	800,000	0,011	0,029
-703,816	-200,000	-0,003	0,029
-702,802	128,168	-0,100	-0,095
-701,787	237,703	-0,141	-0,175
-700,772	-138,547	-0,120	-0,010
-699,758	-200,000	0,010	-0,126
-698,743	-200,000	0,029	0,155
-697,729	333,681	0,035	-0,051
-696,714	-126,230	-0,022	0,002
-695,699	-100,062	0,148	0,027
-694,685	-200,000	-0,009	-0,098
-693,670	199,072	0,028	-0,032
-692,656	108,455	-0,049	-0,043
-691,641	-200,000	0,008	-0,070
-690,627	800,000	0,036	0,084
-689,612	-200,000	-0,008	0,036
-688,597	800,000	-0,019	-0,044
-687,583	81,647	-0,173	-0,139
-686,568	-32,013	-0,100	-0,041
-685,554	800,000	0,007	0,024
-684,539	-200,000	0,011	0,132
-683,524	-79,558	0,094	-0,024
-682,510	-151,350	0,125	0,007
-681,495	88,387	-0,090	-0,075
-680,481	800,000	-0,031	-0,080
-679,466	45,288	-0,097	-0,066
-678,451	-5,516	-0,084	-0,043
-677,437	311,606	0,028	-0,039
-676,422	800,000	-0,033	0,089
-675,408	-131,627	-0,126	-0,012
-674,393	560,376	-0,025	0,045
-673,378	-200,000	-0,023	-0,075
-672,364	1,436	-0,095	-0,051
-671,349	800,000	0,013	0,026
-670,335	800,000	-0,021	0,055
-669,320	210,032	-0,072	0,085
-668,305	-200,000	-0,007	0,121
-667,291	-57,288	-0,067	-0,022
-666,276	701,217	-0,042	-0,082
-665,262	350,998	0,058	-0,085
-664,247	-89,174	-0,145	0,032
-663,232	-200,000	0,005	-0,080
-662,218	176,233	-0,037	0,040
-661,203	-162,733	0,084	-0,003
-660,189	-200,000	-0,037	-0,125
-659,174	800,000	0,045	-0,106
-658,159	-200,000	-0,041	-0,138
-657,145	59,561	0,062	0,045
-656,130	-200,000	0,012	-0,072
-655,116	33,229	0,018	0,011
-654,101	-147,736	-0,078	0,005
-653,086	-200,000	0,008	-0,029
-652,072	123,299	-0,076	0,071
-651,057	210,830	-0,066	-0,077
-650,043	-24,625	-0,064	-0,028
-649,028	-5,901	-0,083	0,042
-648,014	-66,191	0,073	-0,021
-646,999	185,857	0,022	0,024
-645,984	-200,000	-0,005	0,070
-644,970	714,514	-0,077	-0,152
-643,955	800,000	0,045	-0,094
-642,941	162,465	0,020	0,021
-641,926	800,000	0,004	-0,012
-640,911	61,412	0,055	-0,040
-639,897	-200,000	-0,005	0,037
-638,882	-15,880	0,071	-0,033
-637,868	-200,000	0,022	-0,099
-636,853	-200,000	0,001	-0,110
-635,838	332,453	-0,007	-0,010
-634,824	-20,903	-0,149	-0,067
-633,809	-200,000	0,016	-0,092
-632,795	-200,000	-0,005	-0,025
-631,780	-85,746	-0,069	0,016
-630,765	-200,000	0,014	-0,079
-629,751	687,346	-0,017	-0,034
-628,736	-200,000	-0,027	-0,145
-627,722	-200,000	0,008	-0,081
-626,707	193,878	0,034	0,038
-625,692	-9,978	-0,096	-0,047
-624,678	-121,047	-0,040	0,005
-623,663	-200,000	-0,006	-0,160
-622,649	110,408	0,116	-0,104
-621,634	176,786	-0,013	-0,014
-620,619	-200,000	0,003	-0,064
-619,605	26,067	-0,025	-0,016
-618,590	43,671	0,115	-0,078
-617,576	28,760	0,102	-0,064
-616,561	-200,000	-0,007	0,053
-615,546	-116,231	0,087	-0,012
-614,532	-200,000	0,007	-0,116
-613,517	-200,000	-0,007	-0,180
-612,503	365,013	0,061	0,092
-611,488	-99,432	-0,106	-0,020
-610,474	32,243	0,006	-0,004
-609,459	372,191	-0,059	0,089
-608,444	800,000	-0,035	-0,097
-607,430	-66,067	-0,179	-0,053
-606,415	-83,165	-0,097	0,023
-605,401	396,891	-0,022	-0,034
-604,386	-200,000	0,022	-0,124
-603,371	46,506	-0,056	-0,039
-602,357	55,335	0,013	0,010
-601,342	-15,841	-0,144	-0,068
-600,328	-200,000	-0,008	-0,068
-599,313	-200,000	0,013	0,132
-598,298	89,130	-0,029	0,024
-597,284	32,237	0,045	-0,029
-596,269	104,840	-0,100	0,088
-595,255	-105,390	0,024	0,004
-594,240	3,316	-0,078	-0,042
-593,225	192,803	-0,090	-0,100
-592,211	-20,673	-0,121	-0,055
-591,196	-200,000	0,003	-0,064
-590,182	23,370	0,110	-0,067
-589,167	-200,000	-0,022	-0,097
-588,152	-200,000	-0,002	0,152
-587,138	344,095	-0,067	0,098
-586,123	-112,638	-0,095	-0,014
-585,109	5,541	-0,165	-0,090
-584,094	549,116	0,028	0,050
-583,079	39,358	-0,037	0,024
-582,065	-96,260	-0,083	0,016
-581,050	-200,000	-0,005	0,109
-580,036	-111,759	0,040	0,006
-579,021	94,924	-0,098	0,082
-578,006	-200,000	0,015	-0,170
-576,992	-200,000	0,007	-0,054
-575,977	476,097	0,048	0,080
-574,963	7,588	0,077	-0,043
-573,948	-74,728	0,029	-0,008
-572,934	-166,912	0,083	-0,002
-571,919	-200,000	-0,002	-0,016
-570,904	245,165	-0,026	0,033
-569,890	800,000	0,043	-0,099
-568,875	11,057	0,051	0,029
-567,861	208,272	0,037	0,042
-566,846	-88,766	-0,068	-0,015
-565,831	-61,432	0,116	-0,036
-564,817	168,862	-0,096	-0,101
-563,802	800,000	-0,032	-0,086
-562,788	-188,516	0,143	-0,001
-561,773	521,743	-0,032	0,057
-560,758	-200,000	-0,006	0,156
-559,744	-106,083	-0,016	-0,003
-558,729	-45,253	0,043	0,016
-557,715	800,000	-0,030	0,081
-556,700	446,644	-0,021	0,034
-555,685	-23,120	-0,163	0,072
-554,671	-24,502	-0,136	-0,060
-553,656	-200,000	0,002	0,139
-552,642	-108,855	0,108	0,017
-551,627	-200,000	0,006	0,030
-550,612	-200,000	0,001	-0,003
-549,598	226,028	-0,115	-0,138
-548,583	-200,000	-0,018	0,058
-547,569	-69,879	0,023	0,007
-546,554	-53,927	0,164	0,055
-545,539	-82,807	-0,116	0,028
-544,525	89,449	0,047	-0,039
-543,510	800,000	-0,024	0,052
-542,496	-200,000	-0,009	-0,054
-541,481	-200,000	0,019	-0,121
-540,466	-5,141	0,052	0,026
-539,452	179,822	-0,022	-0,024
-538,437	-159,021	0,061	0,002
-537,423	30,806	-0,138	-0,087
-536,408	109,595	0,061	-0,054
-535,393	-5,066	-0,083	0,042
-534,379	-200,000	0,012	-0,150
-533,364	800,000	0,034	-0,094
-532,350	39,934	-0,088	-0,058
-531,335	-200,000	0,007	0,094
-530,321	40,937	0,171	0,114
-529,306	-42,280	-0,071	-0,027
-528,291	-200,000	0,013	0,084
-527,277	15,253	0,023	0,013
-526,262	69,336	0,047	0,036
-525,248	112,639	-0,093	0,083
-524,233	-144,321	0,185	0,013
-523,218	134,011	-0,054	0,052
-522,204	-130,706	-0,165	-0,016
-521,189	-52,412	0,068	0,023
-520,175	-200,000	0,037	-0,193
-519,160	131,742	-0,110	-0,105
-518,145	-47,149	-0,148	-0,053
-517,131	-70,979	0,112	0,031
-516,116	-85,388	-0,054	0,012
-515,102	800,000	-0,014	0,044
-514,087	62,991	0,068	-0,050
-513,072	-49,178	-0,101	-0,036
-512,058	800,000	-0,010	-0,023
-511,043	-57,311	-0,113	-0,036
-510,029	-152,845	0,061	0,003
-509,014	-200,000	0,006	0,098
-507,999	72,451	0,074	0,057
-506,985	800,000	-0,022	-0,061
-505,970	-200,000	0,038	0,136
-504,956	-200,000	-0,023	-0,174
-503,941	-200,000	0,012	0,229
-502,926	687,706	0,056	0,109
-501,912	156,910	-0,023	0,024
-500,897	311,256	-0,096	-0,133
-499,883	-69,746	-0,050	0,014
-498,868	800,000	0,072	0,163
-497,853	105,252	-0,037	0,033
-496,839	-147,953	0,117	-0,007
-495,824	79,603	0,086	-0,068
-494,810	290,583	-0,087	0,117
-493,795	-65,229	0,062	0,018
-492,781	-45,725	0,037	-0,013
-491,766	157,641	0,064	0,065
-490,751	800,000	0,011	0,031
-489,737	-82,629	-0,076	-0,018
-488,722	-200,000	-0,000	-0,009
-487,708	-46,895	-0,071	-0,025
-486,693	-98,270	-0,036	0,007
-485,678	-200,000	0,008	0,029
-484,664	200,732	0,087	-0,099
-483,649	-55,070	-0,119	0,039
-482,635	-195,238	0,133	-0,001
-481,620	-200,000	-0,009	-0,105
-480,605	800,000	0,027	0,080
-479,591	-63,162	0,023	-0,007
-478,576	-200,000	-0,023	0,075
-477,562	-107,811	-0,180	0,029
-476,547	-167,652	0,096	-0,003
-475,532	-105,447	-0,044	0,007
-474,518	183,395	0,070	-0,076
-473,503	-200,000	0,008	-0,059
-472,489	216,160	-0,042	-0,049
-471,474	-34,100	0,117	-0,047
-470,459	773,028	0,072	-0,145
-469,445	580,261	-0,111	-0,201
-468,430	-79,845	-0,085	-0,021
-467,416	-132,435	-0,035	0,003
-466,401	-25,917	-0,056	0,024
-465,386	40,493	0,102	0,068
-464,372	392,859	-0,054	-0,082
-463,357	-176,515	-0,162	-0,003
-462,343	-58,002	-0,071	-0,023
-461,328	-104,065	-0,067	0,011
-460,313	-68,553	0,153	0,044
-459,299	141,574	0,068	-0,067
-458,284	-122,330	0,093	-0,011
-457,270	65,727	0,020	0,015
-456,255	800,000	-0,024	0,055
-455,241	44,720	0,030	0,020
-454,226	-47,764	-0,110	0,039
-453,211	22,277	0,008	0,005
-452,197	108,308	0,020	0,017
-451,182	225,722	-0,023	-0,027
-450,168	50,176	0,038	-0,027
-449,153	800,000	-0,017	0,049
-448,138	800,000	-0,056	0,117
-447,124	175,164	-0,104	-0,112
-446,109	86,592	0,131	-0,106
-445,095	800,000	-0,027	0,066
-444,080	580,530	-0,072	0,131
-443,065	141,834	-0,049	0,048
-442,051	-200,000	0,028	0,138
-441,036	195,646	-0,094	-0,105
-440,022	-80,205	-0,164	-0,040
-439,007	-200,000	-0,009	0,079
-437,992	108,174	-0,038	0,033
-436,978	115,057	0,085	-0,077
-435,963	-96,397	-0,018	0,003
-434,949	-200,000	-0,015	0,055
-433,934	-87,866	-0,088	-0,019
-432,919	74,756	0,022	0,017
-431,905	-200,000	-0,058	-0,220
-430,890	-95,458	-0,067	0,013
-429,876	-63,816	0,202	-0,060
-428,861	95,827	0,069	0,058
-427,846	-200,000	-0,010	0,081
-426,832	33,159	-0,034	-0,021
-425,817	90,173	0,048	0,039
-424,803	800,000	-0,042	0,111
-423,788	-200,000	0,033	0,184
-422,773	-200,000	0,004	-0,044
-421,759	-86,057	-0,118	-0,027
-420,744	-35,019	-0,101	0,040
-419,730	2,273	-0,092	0,049
-418,715	-96,349	-0,046	0,009
-417,701	-34,755	-0,106	-0,043
-416,686	29,166	0,105	-0,066
-415,671	89,777	0,072	-0,059
-414,657	800,000	0,042	-0,105
-413,642	-200,000	0,024	0,138
-412,628	-88,054	-0,031	-0,007
-411,613	-200,000	-0,017	-0,203
-410,598	33,699	0,074	-0,047
-409,584	33,796	0,048	-0,031
-408,569	213,501	0,044	0,051
-407,555	-200,000	-0,013	0,102
-406,540	-13,446	0,109	-0,052
-405,525	800,000	0,045	-0,139
-404,511	158,889	0,012	0,013
-403,496	-200,000	0,015	0,084
-402,482	240,168	0,022	-0,028
-401,467	409,067	-0,008	0,012
-400,452	-84,160	0,044	-0,010
-399,438	137,284	0,054	-0,052
-398,423	332,532	-0,037	-0,053
-397,409	-200,000	-0,005	0,108
-396,394	214,130	-0,089	-0,104
-395,379	800,000	-0,039	-0,085
-394,365	153,315	0,040	0,040
-393,350	54,160	0,078	0,055
-392,336	120,948	0,063	0,057
-391,321	330,580	-0,053	0,075
-390,306	-149,538	0,044	0,002
-389,292	105,151	-0,116	0,101
-388,277	-137,721	0,029	-0,002
-387,263	-106,836	0,083	-0,013
-386,248	-103,512	0,106	0,018
-385,233	-76,997	-0,050	0,013
-384,219	-200,000	0,012	-0,129
-383,204	-200,000	0,028	-0,172
-382,190	-132,884	-0,100	0,009
-381,175	239,076	-0,046	0,056
-380,160	-184,582	-0,020	0,000
-379,146	-200,000	0,003	-0,152
-378,131	-76,330	0,110	-0,028
-377,117	97,889	-0,075	-0,063
-376,102	221,997	-0,027	-0,032
-375,088	800,000	-0,018	-0,042
-374,073	800,000	-0,019	0,045
-373,058	-18,119	0,175	0,080
-372,044	-168,116	0,109	0,003
-371,029	-200,000	0,026	0,128
-370,015	190,761	0,058	0,064
-369,000	-127,515	-0,083	0,009
-367,985	549,399	0,068	-0,119
-366,971	800,000	0,033	-0,096
-365,956	158,664	0,019	0,019
-364,942	77,006	0,119	0,093
-363,927	17,906	-0,076	0,044
-362,912	641,451	0,043	-0,081
-361,898	166,164	0,093	-0,097
-360,883	246,974	0,099	0,123
-359,869	660,194	0,073	-0,139
-358,854	-124,914	0,132	-0,015
-357,839	-26,023	0,045	0,019
-356,825	171,039	-0,054	-0,057
-355,810	-15,446	-0,043	0,020
-354,796	-200,000	-0,011	0,126
-353,781	-110,071	-0,045	-0,007
-352,766	-71,904	-0,140	-0,038
-351,752	800,000	-0,063	0,137
-350,737	800,000	-0,039	-0,097
-349,723	-19,215	0,140	0,063
-348,708	563,126	-0,037	0,066
-347,693	-51,804	-0,072	-0,025
-346,679	143,058	-0,093	-0,091
-345,664	-200,000	0,003	-0,018
-344,650	-64,713	-0,073	-0,022
-343,635	-200,000	-0,002	0,057
-342,620	-200,000	0,001	0,174
-341,606	20,872	0,049	-0,029
-340,591	330,449	-0,033	0,047
-339,577	258,327	-0,118	-0,150
-338,562	-200,000	-0,009	-0,096
-337,548	421,899	0,032	0,051
-336,533	635,046	0,046	0,086
-335,518	204,540	0,139	0,159
-334,504	-113,497	0,038	-0,005
-333,489	-200,000	-0,008	0,044
-332,475	322,154	-0,020	0,028
-331,460	-92,174	-0,223	0,046
-330,445	-100,034	0,088	0,016
-329,431	800,000	0,084	0,177
-328,416	127,836	-0,045	0,042
-327,402	-122,057	0,192	-0,023
-326,387	113,335	-0,137	-0,122
-325,372	454,468	-0,061	0,100
-324,358	60,842	-0,116	-0,084
-323,343	-200,000	-0,004	0,024
-322,329	-104,546	0,069	0,011
-321,314	-200,000	-0,023	0,146
-320,299	-108,959	0,081	-0,013
-319,285	-157,421	-0,064	-0,003
-318,270	175,533	-0,037	0,039
-317,256	-91,780	-0,111	0,023
-316,241	120,225	0,056	0,051
-315,226	-109,937	-0,045	-0,007
-314,212	800,000	-0,065	0,141
-313,197	-200,000	-0,002	0,038
-312,183	10,848	0,122	-0,068
-311,168	800,000	-0,042	-0,088
-310,153	23,821	-0,016	0,010
-309,139	89,103	-0,045	0,037
-308,124	255,060	0,100	-0,126
-307,110	101,908	0,007	-0,006
-306,095	-125,159	-0,126	-0,014
-305,080	24,525	-0,098	0,059
-304,066	536,920	0,029	-0,050
-303,051	-200,000	-0,015	-0,069
-302,037	-49,213	0,023	-0,008
-301,022	-200,000	-0,005	-0,032
-300,008	304,907	0,096	0,130
-298,993	207,591	-0,051	-0,058
-297,978	-13,665	-0,129	0,061
-296,964	674,900	-0,067	0,129
-295,949	-200,000	0,027	-0,103
-294,935	71,483	-0,104	-0,079
-293,920	-200,000	0,030	-0,101
-292,905	-200,000	-0,002	0,044
-291,891	-98,441	0,026	-0,005
-290,876	-200,000	-0,034	-0,132
-289,862	800,000	0,046	0,100
-288,847	-110,242	-0,107	0,016
-287,832	-109,709	0,037	0,006
-286,818	-24,839	0,104	0,045
-285,803	120,559	0,137	0,124
-284,789	-17,828	0,096	0,044
-283,774	-136,844	0,056	0,005
-282,759	-200,000	-0,010	0,039
-281,745	-70,679	-0,061	-0,017
-280,730	-100,948	-0,103	0,018
-279,716	-200,000	-0,001	-0,040
-278,701	-86,047	0,083	0,019
-277,686	15,047	0,120	-0,069
-276,672	13,004	0,271	0,153
-275,657	-200,000	0,013	-0,091
-274,643	-51,990	0,022	0,007
-273,628	-38,363	-0,137	-0,053
-272,613	-56,323	-0,068	-0,022
-271,599	-135,853	0,133	-0,011
-270,584	-99,368	-0,142	0,026
-269,570	-144,990	0,061	0,004
-268,555	-31,926	-0,054	0,022
-267,540	-18,881	0,073	-0,033
-266,526	197,789	-0,059	-0,066
-265,511	-49,960	-0,056	0,019
-264,497	-200,000	0,022	0,123
-263,482	800,000	0,080	0,172
-262,467	-93,882	0,051	-0,010
-261,453	800,000	0,045	0,114
-260,438	147,619	-0,076	-0,075
-259,424	21,540	-0,101	-0,060
-258,409	-200,000	-0,008	-0,035
-257,395	88,475	0,045	0,036
-256,380	457,230	-0,060	-0,097
-255,365	379,652	-0,047	0,071
-254,351	-32,567	-0,103	-0,042
-253,336	-200,000	-0,017	-0,069
-252,322	52,205	0,116	-0,081
-251,307	89,780	-0,049	0,040
-250,292	117,507	0,033	0,029
-249,278	-200,000	0,011	-0,052
-248,263	-43,160	-0,060	0,022
-247,249	-75,036	-0,079	0,021
-246,234	-122,906	0,059	-0,007
-245,219	-102,976	0,114	-0,020
-244,205	800,000	0,017	-0,045
-243,190	743,776	0,051	0,100
-242,176	-103,368	-0,011	0,002
-241,161	112,308	-0,025	-0,022
-240,146	-200,000	0,024	-0,083
-239,132	231,868	-0,049	-0,059
-238,117	-200,000	0,001	-0,018
-237,103	-200,000	0,018	0,060
-236,088	-156,002	-0,133	0,006
-235,073	-28,245	0,096	-0,040
-234,059	162,348	0,134	0,137
-233,044	-200,000	0,001	0,135
-232,030	-200,000	-0,010	-0,099
-231,015	-200,000	0,019	-0,137
-230,000	-135,142	0,100	-0,009
-228,986	-29,854	-0,058	-0,024
-227,971	507,248	0,081	0,138
-226,957	800,000	-0,085	0,185
-225,942	3,462	0,078	-0,041
-224,927	458,447	-0,015	-0,025
-223,913	-30,957	0,073	0,030
-222,898	-200,000	-0,011	0,072
-221,884	-200,000	-0,010	0,069
-220,869	-200,000	0,012	0,093
-219,855	80,155	-0,101	-0,079
-218,840	-137,115	0,056	0,005
-217,825	358,996	-0,096	0,141
-216,811	800,000	0,071	0,206
-215,796	-84,360	-0,238	0,055
-214,782	-185,020	0,119	0,001
-213,767	-114,170	0,040	0,006
-212,752	-200,000	-0,005	0,020
-211,738	375,872	-0,029	0,043
-210,723	230,672	-0,074	-0,089
-209,709	25,277	0,070	-0,042
-208,694	45,002	-0,052	-0,035
-207,679	-51,122	-0,083	-0,028
-206,665	-30,038	0,083	0,034
-205,650	-93,483	0,097	0,019
-204,636	326,758	0,037	0,052
-203,621	800,000	-0,041	0,092
-202,606	800,000	0,017	0,047
-201,592	-200,000	0,002	-0,212
-200,577	-200,000	0,030	0,183
-199,563	305,017	-0,015	0,020
-198,548	-106,395	-0,060	0,010
-197,533	-200,000	-0,005	0,054
-196,519	-200,000	-0,022	0,144
-195,504	-17,090	-0,032	0,014
-194,490	-200,000	-0,032	-0,163
-193,475	400,846	0,038	-0,058
-192,460	-116,163	-0,157	-0,021
-191,446	179,765	0,070	0,075
-190,431	20,627	0,066	-0,039
-189,417	340,832	0,104	0,148
-188,402	69,663	0,099	0,075
-187,387	-200,000	0,004	0,122
-186,373	-200,000	0,017	0,085
-185,358	-104,875	0,133	-0,022
-184,344	800,000	0,014	-0,041
-183,329	-200,000	-0,023	0,122
-182,315	-200,000	-0,016	0,053
-181,300	349,521	0,067	0,097
-180,285	-14,687	-0,027	-0,012
-179,271	-18,239	0,036	0,016
-178,256	155,606	-0,022	-0,022
-177,242	792,178	0,030	0,060
-176,227	26,911	0,048	-0,029
-175,212	-58,006	0,055	0,017
-174,198	197,502	0,071	0,079
-173,183	141,775	0,028	-0,027
-172,169	360,428	0,103	-0,151
-171,154	-200,000	-0,015	-0,067
-170,139	-200,000	0,016	0,083
-169,125	-83,610	0,079	0,018
-168,110	92,624	0,064	0,052
-167,096	55,621	-0,019	-0,014
-166,081	-162,820	-0,063	0,002
-165,066	369,108	0,028	-0,041
-164,052	444,766	-0,032	-0,052
-163,037	299,375	0,073	-0,098
-162,023	182,420	0,093	0,100
-161,008	244,356	0,041	0,050
-159,993	-200,000	-0,027	0,000
-158,979	110,577	-0,048	0,042
-157,964	561,571	-0,116	-0,206
-156,950	800,000	0,040	0,108
-155,935	64,340	0,096	-0,070
-154,920	800,000	0,027	-0,083
-153,906	-40,500	0,090	0,034
-152,891	55,095	0,033	0,023
-151,877	-17,984	-0,053	-0,024
-150,862	-65,057	-0,126	0,037
-149,847	-39,725	0,075	-0,029
-148,833	-200,000	-0,025	0,102
-147,818	-83,272	0,110	0,025
-146,804	236,321	-0,111	0,134
-145,789	2,344	0,127	0,067
-144,775	800,000	0,031	0,083
-143,760	83,448	0,069	-0,054
-142,745	-76,710	-0,174	0,044
-141,731	25,110	0,163	0,098
-140,716	-200,000	-0,012	0,062
-139,702	293,005	-0,043	-0,057
-138,687	-200,000	0,004	-0,024
-137,672	98,219	0,086	0,072
-136,658	171,257	0,009	0,009
-135,643	-188,673	-0,132	-0,001
-134,629	-140,138	0,062	0,005
-133,614	5,658	0,032	0,017
-132,599	800,000	-0,029	-0,078
-131,585	-100,897	-0,117	0,021
-130,570	-200,000	0,020	0,143
-129,556	268,925	-0,038	0,048
-128,541	-76,296	-0,072	-0,018
-127,526	119,689	0,062	-0,056
-126,512	-55,243	-0,031	0,010
-125,497	-44,147	0,014	0,005
-124,483	800,000	-0,030	0,090
-123,468	800,000	-0,025	0,070
-122,453	304,313	-0,037	-0,050
-121,439	-200,000	-0,066	-0,216
-120,424	-75,746	-0,183	0,047
-119,410	60,297	0,086	0,062
