DTS Sentinel unit serial number:	SN410029Multiplexer serial number:	ORYXHardware model number:	OX2-SRSoftware version number:	ORYX F/W v4,00 Oryx Data Collector v3.7.2.0data status	okinstallation	B4 Nyhavnadifferential loss correction	single-endedforward channel	channel 2reverse channel	N/Adate	2023/12/18time	19:45:13forward acquisition time	300,00reverse acquisition time	0,00gamma	499,1914k internal	0,3123k external	0,3123temperature offset calibration	1,0000default loss term (dB/km)	0,3820temperature slope calibration	1,0000multiplexer offset coefficient	1,0000multiplexer slope coefficient	1,0000fibre end	0,00T internal ref (°C)	21,87T ext. ref 1 (°C)	7,03T ext. ref 2 (°C)	7,05length (m)	temperature (°C)	Stokes	anti-Stokes-744,400	-115,473	0,052	0,007
-743,385	414,358	-0,152	0,242
-742,371	-48,425	0,094	-0,034
-741,356	10,458	-0,267	0,151
-740,342	-106,580	0,118	0,019
-739,327	-83,224	-0,250	0,059
-738,312	-28,933	0,108	-0,046
-737,298	-140,731	-0,310	0,023
-736,283	257,625	0,045	-0,057
-735,269	6,736	-0,291	0,161
-734,254	-19,759	0,135	0,062
-733,239	-45,014	-0,455	-0,168
-732,225	129,852	0,117	0,111
-731,210	-200,000	-0,051	0,223
-730,196	-150,747	-0,051	0,003
-729,181	-200,000	0,021	0,086
-728,167	-200,000	-0,017	-0,095
-727,152	-133,830	-0,008	-0,001
-726,137	-16,853	-0,156	-0,073
-725,123	-69,368	-0,124	-0,035
-724,108	272,704	0,036	0,048
-723,094	54,507	-0,168	-0,120
-722,079	-26,647	-0,091	-0,039
-721,064	-200,000	-0,020	-0,105
-720,050	-199,229	-0,100	-0,000
-719,035	-143,074	-0,156	-0,011
-718,021	-122,405	-0,117	0,014
-717,006	431,434	-0,100	-0,162
-715,991	-77,861	-0,079	0,020
-714,977	-200,000	0,000	-0,022
-713,962	800,000	-0,021	-0,044
-712,948	787,386	0,020	0,041
-711,933	670,965	0,071	-0,138
-710,918	-83,447	-0,091	0,021
-709,904	-200,000	-0,021	-0,135
-708,889	-200,000	0,006	-0,031
-707,875	-200,000	-0,004	-0,134
-706,860	800,000	0,042	-0,109
-705,845	765,151	0,022	0,044
-704,831	18,239	-0,091	-0,054
-703,816	800,000	0,013	-0,030
-702,802	-153,991	0,051	0,003
-701,787	-22,889	-0,069	-0,031
-700,772	-103,002	0,060	-0,011
-699,758	211,733	0,053	-0,062
-698,743	-200,000	-0,003	0,060
-697,729	800,000	-0,037	0,079
-696,714	113,929	0,106	-0,096
-695,699	211,191	0,100	-0,117
-694,685	-200,000	0,009	-0,048
-693,670	5,728	0,020	0,011
-692,656	-200,000	0,001	-0,102
-691,641	-200,000	-0,003	0,087
-690,627	363,105	-0,050	-0,075
-689,612	99,579	0,010	0,008
-688,597	350,655	0,034	0,050
-687,583	58,459	-0,046	-0,033
-686,568	-200,000	0,016	-0,063
-685,554	-182,901	-0,112	0,001
-684,539	-200,000	0,010	0,065
-683,524	-200,000	0,003	-0,028
-682,510	-39,723	-0,119	-0,046
-681,495	-200,000	-0,005	-0,120
-680,481	138,881	0,059	-0,058
-679,466	-33,547	-0,079	-0,032
-678,451	800,000	0,058	-0,172
-677,437	309,427	-0,102	-0,142
-676,422	-80,130	0,047	-0,012
-675,408	-200,000	0,009	0,115
-674,393	-200,000	0,004	-0,132
-673,378	-46,535	0,070	-0,025
-672,364	648,582	-0,041	0,079
-671,349	471,990	0,030	-0,050
-670,335	57,923	0,036	-0,027
-669,320	222,173	0,043	-0,051
-668,305	800,000	-0,031	-0,077
-667,291	-200,000	-0,002	-0,036
-666,276	778,916	0,056	0,115
-665,262	677,815	-0,041	-0,080
-664,247	-19,239	-0,061	-0,028
-663,232	-99,077	-0,015	-0,003
-662,218	71,938	-0,075	-0,058
-661,203	-182,239	-0,092	-0,001
-660,189	338,252	-0,023	0,033
-659,174	-147,694	-0,115	0,007
-658,159	88,933	0,103	-0,085
-657,145	85,466	-0,024	-0,019
-656,130	29,982	-0,025	0,015
-655,116	235,307	-0,075	0,092
-654,101	312,127	-0,020	-0,027
-653,086	83,670	-0,140	0,113
-652,072	309,326	-0,053	-0,074
-651,057	89,525	0,034	0,028
-650,043	351,215	-0,094	0,139
-649,028	-89,035	-0,072	-0,016
-648,014	-200,000	0,031	-0,123
-646,999	800,000	0,030	-0,068
-645,984	-200,000	-0,023	-0,100
-644,970	800,000	0,041	-0,085
-643,955	-200,000	-0,003	0,064
-642,941	26,473	-0,065	0,040
-641,926	-69,479	0,194	0,055
-640,911	63,316	-0,029	0,022
-639,897	-76,844	-0,035	0,009
-638,882	-87,386	-0,108	-0,024
-637,868	-163,149	-0,075	0,003
-636,853	38,107	0,040	-0,027
-635,838	800,000	-0,019	0,040
-634,824	262,934	-0,011	-0,014
-633,809	400,285	-0,029	-0,045
-632,795	109,937	0,113	0,100
-631,780	-135,692	0,164	-0,014
-630,765	300,531	-0,040	-0,055
-629,751	-200,000	-0,063	-0,227
-628,736	-104,785	-0,105	-0,018
-627,722	800,000	0,055	-0,177
-626,707	800,000	0,046	-0,134
-625,692	182,858	-0,106	0,116
-624,678	800,000	-0,012	-0,032
-623,663	800,000	0,026	0,056
-622,649	-33,237	-0,135	-0,055
-621,634	800,000	0,050	-0,127
-620,619	-200,000	-0,033	-0,255
-619,605	556,416	-0,005	-0,009
-618,590	-120,437	-0,045	0,006
-617,576	741,470	0,033	-0,067
-616,561	-131,466	-0,091	-0,009
-615,546	-200,000	-0,021	0,096
-614,532	-16,310	-0,171	-0,080
-613,517	-44,577	0,027	0,010
-612,503	-200,000	-0,024	-0,089
-611,488	103,077	-0,037	0,033
-610,474	-41,477	0,158	-0,060
-609,459	213,142	-0,039	-0,046
-608,444	117,112	-0,083	-0,076
-607,430	74,022	0,128	-0,100
-606,415	-200,000	-0,029	-0,177
-605,401	-109,214	0,165	-0,026
-604,386	-128,824	0,089	0,009
-603,371	-200,000	-0,008	-0,067
-602,357	-40,552	-0,078	-0,030
-601,342	345,985	0,028	0,040
-600,328	469,257	-0,107	-0,179
-599,313	-200,000	-0,020	-0,138
-598,298	-18,791	-0,070	-0,032
-597,284	-200,000	-0,003	0,025
-596,269	-200,000	0,010	0,046
-595,255	128,063	-0,064	-0,060
-594,240	283,439	-0,058	-0,077
-593,225	505,727	-0,027	-0,047
-592,211	-200,000	0,002	-0,100
-591,196	-200,000	-0,023	0,092
-590,182	-200,000	0,024	-0,101
-589,167	486,881	0,032	-0,054
-588,152	-62,821	0,062	-0,019
-587,138	23,761	0,066	0,040
-586,123	790,578	-0,032	-0,066
-585,109	34,873	0,104	-0,067
-584,094	-108,841	0,095	0,015
-583,079	-200,000	-0,005	-0,050
-582,065	800,000	-0,018	0,055
-581,050	800,000	-0,025	0,051
-580,036	210,677	0,032	0,038
-579,021	294,592	0,040	-0,055
-578,006	283,272	-0,071	-0,094
-576,992	42,308	0,061	-0,041
-575,977	640,532	0,035	-0,066
-574,963	-200,000	-0,010	0,095
-573,948	125,806	0,110	0,103
-572,934	-200,000	-0,008	-0,053
-571,919	173,523	-0,090	-0,096
-570,904	298,525	-0,048	-0,065
-569,890	-200,000	-0,021	0,142
-568,875	76,226	-0,116	0,091
-567,861	91,783	0,014	-0,012
-566,846	-200,000	-0,010	-0,042
-565,831	-200,000	-0,005	0,024
-564,817	-90,209	-0,100	-0,021
-563,802	105,306	0,097	0,085
-562,788	260,115	-0,063	-0,081
-561,773	202,724	-0,104	-0,119
-560,758	32,458	-0,137	0,087
-559,744	-24,260	0,066	-0,029
-558,729	-192,760	-0,025	-0,000
-557,715	94,263	-0,092	-0,077
-556,700	-9,126	-0,056	-0,028
-555,685	-200,000	-0,019	0,157
-554,671	-200,000	0,001	-0,045
-553,656	-18,888	0,046	0,021
-552,642	-69,896	0,115	-0,032
-551,627	-200,000	-0,148	-0,000
-550,612	-200,000	0,037	0,154
-549,598	395,527	0,050	0,078
-548,583	800,000	0,057	-0,162
-547,569	274,747	-0,040	0,053
-546,554	42,994	0,069	-0,046
-545,539	-71,810	-0,087	0,024
-544,525	-200,000	-0,015	0,113
-543,510	-29,774	-0,135	-0,057
-542,496	112,153	0,115	0,103
-541,481	800,000	0,020	0,041
-540,466	189,637	0,062	0,069
-539,452	-200,000	0,036	0,128
-538,437	-0,169	-0,057	0,030
-537,423	269,566	0,021	0,027
-536,408	9,281	0,102	-0,057
-535,393	-135,810	-0,101	0,009
-534,379	-116,347	-0,121	0,016
-533,364	-94,176	-0,057	-0,012
-532,350	-200,000	0,031	0,161
-531,335	800,000	-0,026	-0,075
-530,321	800,000	0,052	0,112
-529,306	-140,687	-0,084	-0,006
-528,291	-93,298	-0,093	-0,019
-527,277	307,836	0,042	0,058
-526,262	-200,000	-0,007	0,031
-525,248	-55,071	0,103	-0,034
-524,233	-200,000	0,000	-0,011
-523,218	-125,650	0,068	0,008
-522,204	-200,000	-0,009	-0,071
-521,189	162,805	-0,033	-0,034
-520,175	-200,000	0,018	0,101
-519,160	800,000	0,035	-0,103
-518,145	800,000	-0,046	0,096
-517,131	30,066	0,040	-0,025
-516,116	53,378	-0,022	-0,015
-515,102	-200,000	-0,003	-0,053
-514,087	-200,000	-0,002	-0,027
-513,072	551,683	0,054	0,097
-512,058	-141,445	0,134	-0,010
-511,043	294,971	0,052	0,070
-510,029	-41,304	0,027	-0,010
-509,014	101,174	0,099	0,085
-507,999	800,000	0,043	0,094
-506,985	258,181	0,097	-0,123
-505,970	331,440	-0,011	-0,015
-504,956	800,000	0,013	-0,041
-503,941	-200,000	0,003	-0,020
-502,926	85,428	-0,129	0,104
-501,912	219,684	-0,001	0,002
-500,897	-152,523	-0,078	-0,004
-499,883	12,625	-0,068	-0,039
-498,868	-37,428	-0,054	0,021
-497,853	-55,530	-0,045	-0,015
-496,839	-127,072	-0,034	0,004
-495,824	281,807	0,058	-0,076
-494,810	31,951	0,046	0,029
-493,795	-200,000	0,002	-0,068
-492,781	800,000	-0,045	-0,143
-491,766	295,206	-0,053	-0,071
-490,751	-29,383	-0,071	0,030
-489,737	111,758	0,072	0,064
-488,722	-200,000	0,021	0,170
-487,708	49,720	0,053	0,037
-486,693	424,681	0,028	0,045
-485,678	-92,040	0,110	0,023
-484,664	165,043	-0,115	-0,120
-483,649	71,992	-0,071	-0,055
-482,635	558,782	-0,100	-0,180
-481,620	-200,000	0,014	0,125
-480,605	-200,000	-0,007	-0,046
-479,591	244,769	0,030	0,037
-478,576	-92,033	-0,077	-0,016
-477,562	-125,322	0,054	-0,006
-476,547	800,000	0,047	-0,117
-475,532	-65,214	-0,091	-0,027
-474,518	800,000	0,062	0,185
-473,503	166,340	0,091	0,095
-472,489	800,000	0,035	0,083
-471,474	-200,000	0,023	0,136
-470,459	800,000	0,025	-0,055
-469,445	54,718	-0,127	-0,090
-468,430	-200,000	0,032	-0,166
-467,416	-0,571	-0,080	0,042
-466,401	-113,284	0,110	-0,016
-465,386	-200,000	-0,007	-0,047
-464,372	800,000	0,042	0,106
-463,357	-200,000	0,015	0,105
-462,343	-150,181	-0,168	0,009
-461,328	-200,000	-0,014	0,073
-460,313	134,064	0,081	0,077
-459,299	800,000	-0,032	0,074
-458,284	-200,000	-0,009	-0,070
-457,270	-200,000	-0,000	-0,185
-456,255	248,345	0,046	-0,058
-455,241	291,349	0,061	0,082
-454,226	436,929	0,061	0,099
-453,211	800,000	-0,024	-0,059
-452,197	10,861	0,056	0,032
-451,182	-200,000	-0,020	0,147
-450,168	51,291	0,114	0,079
-449,153	303,755	0,058	-0,079
-448,138	142,639	-0,070	-0,069
-447,124	6,680	0,061	0,033
-446,109	-117,758	-0,088	0,011
-445,095	249,502	0,008	-0,010
-444,080	393,782	0,075	-0,116
-443,065	55,639	-0,082	-0,058
-442,051	223,148	-0,059	0,070
-441,036	-117,449	-0,100	-0,013
-440,022	52,306	0,116	-0,082
-439,007	-200,000	-0,011	0,067
-437,992	800,000	0,035	0,084
-436,978	-146,650	-0,018	0,001
-435,963	635,083	0,099	0,185
-434,949	-51,652	0,025	-0,008
-433,934	-200,000	0,013	-0,127
-432,919	-200,000	-0,025	0,097
-431,905	-48,255	0,025	-0,009
-430,890	173,327	0,090	0,096
-429,876	232,432	0,070	0,085
-428,861	-53,077	-0,017	0,006
-427,846	-200,000	-0,004	-0,019
-426,832	-103,671	0,034	0,006
-425,817	58,781	-0,089	-0,064
-424,803	800,000	0,030	0,080
-423,788	453,839	0,031	-0,050
-422,773	800,000	0,010	0,022
-421,759	-12,569	0,028	0,013
-420,744	-200,000	0,018	0,128
-419,730	-200,000	0,004	-0,078
-418,715	800,000	0,052	-0,146
-417,701	800,000	0,042	-0,133
-416,686	25,405	0,178	-0,109
-415,671	-200,000	-0,029	-0,116
-414,657	-45,534	-0,024	0,009
-413,642	800,000	-0,031	0,071
-412,628	-56,052	-0,148	-0,048
-411,613	800,000	-0,043	-0,094
-410,598	-60,897	-0,044	-0,014
-409,584	639,099	0,033	0,061
-408,569	570,261	-0,033	0,059
-407,555	-91,950	0,171	0,035
-406,540	800,000	0,017	0,046
-405,525	536,878	0,030	-0,053
-404,511	-200,000	0,001	-0,013
-403,496	-22,303	-0,084	0,037
-402,482	-101,886	-0,044	-0,008
-401,467	-92,927	0,125	0,025
-400,452	-39,043	0,090	-0,035
-399,438	520,158	0,041	0,070
-398,423	-35,439	0,147	0,058
-397,409	258,990	-0,076	-0,097
-396,394	-200,000	0,012	-0,054
-395,379	800,000	-0,072	0,204
-394,365	800,000	0,043	0,103
-393,350	-200,000	0,007	0,083
-392,336	-140,273	0,033	-0,003
-391,321	294,697	-0,016	0,022
-390,306	100,043	-0,077	-0,066
-389,292	166,006	0,093	-0,096
-388,277	-24,776	-0,049	0,021
-387,263	800,000	0,072	0,161
-386,248	318,430	0,079	-0,110
-385,233	-200,000	0,015	0,154
-384,219	-49,516	0,084	-0,029
-383,204	222,342	0,048	0,057
-382,190	741,243	-0,057	-0,114
-381,175	590,089	0,058	-0,106
-380,160	-0,440	0,096	-0,050
-379,146	-200,000	-0,003	0,045
-378,131	109,522	0,033	-0,029
-377,117	180,592	-0,058	-0,062
-376,102	188,028	0,084	0,092
-375,088	-22,130	0,054	0,024
-374,073	800,000	-0,042	-0,095
-373,058	-2,249	-0,028	-0,014
-372,044	48,273	-0,074	0,051
-371,029	360,196	0,066	0,098
-370,015	86,934	-0,024	0,020
-369,000	-30,278	-0,048	-0,020
-367,985	-86,445	0,139	0,031
-366,971	800,000	0,037	-0,102
-365,956	-200,000	0,001	-0,093
-364,942	358,859	0,058	0,085
-363,927	-200,000	-0,015	-0,083
-362,912	282,038	-0,101	-0,134
-361,898	-79,630	-0,090	0,022
-360,883	-200,000	-0,002	-0,141
-359,869	-68,484	-0,191	-0,054
-358,854	800,000	-0,036	0,102
-357,839	-52,504	0,101	0,034
-356,825	353,287	0,042	-0,061
-355,810	461,051	-0,029	0,048
-354,796	37,945	0,076	-0,050
-353,781	-30,387	-0,068	0,028
-352,766	-149,952	-0,110	-0,006
-351,752	228,329	0,141	0,169
-350,737	372,541	-0,092	0,137
-349,723	-149,768	0,138	0,008
-348,708	217,618	-0,083	0,098
-347,693	-67,489	-0,060	0,017
-346,679	-200,000	0,101	-0,000
-345,664	546,886	-0,043	-0,076
-344,650	511,974	-0,082	-0,141
-343,635	247,704	-0,027	-0,033
-342,620	-44,862	0,055	-0,020
-341,606	293,611	-0,124	0,166
-340,591	291,620	-0,073	0,098
-339,577	360,871	-0,042	0,062
-338,562	-200,000	-0,014	-0,095
-337,548	-49,952	0,070	-0,024
-336,533	-200,000	-0,005	0,120
-335,518	-108,581	0,089	0,014
-334,504	192,842	-0,088	0,098
-333,489	-101,354	-0,101	0,018
-332,475	-36,409	-0,162	-0,064
-331,460	80,498	0,078	-0,061
-330,445	627,087	0,040	0,074
-329,431	618,481	-0,021	-0,038
-328,416	-95,007	0,127	0,025
-327,402	301,595	0,057	-0,078
-326,387	-182,034	-0,052	0,001
-325,372	800,000	-0,026	0,070
-324,358	-200,000	-0,029	0,134
-323,343	-200,000	-0,004	0,022
-322,329	-63,666	0,096	0,029
-321,314	-200,000	0,005	0,021
-320,299	-159,754	0,157	-0,006
-319,285	388,548	0,095	-0,145
-318,270	-46,568	-0,077	-0,027
-317,256	-200,000	0,018	-0,068
-316,241	20,956	-0,100	-0,059
-315,226	-85,273	-0,053	0,012
-314,212	126,699	0,054	0,050
-313,197	-73,091	-0,160	0,043
-312,183	800,000	0,030	0,093
-311,168	-34,122	-0,059	0,024
-310,153	-19,294	0,035	-0,016
-309,139	-7,144	-0,095	0,047
-308,124	413,851	0,060	-0,094
-307,110	375,803	-0,079	-0,118
-306,095	-200,000	-0,005	0,052
-305,080	-200,000	-0,013	0,117
-304,066	-200,000	-0,003	0,085
-303,051	-200,000	-0,026	-0,133
-302,037	450,092	0,027	-0,044
-301,022	736,462	0,009	-0,018
-300,008	168,645	-0,030	0,031
-298,993	-33,905	0,041	0,016
-297,978	323,460	0,044	-0,061
-296,964	-200,000	0,007	0,030
-295,949	-20,687	0,128	-0,057
-294,935	57,578	-0,060	-0,043
-293,920	192,898	-0,049	-0,054
-292,905	18,579	0,018	-0,011
-291,891	-86,141	0,071	-0,016
-290,876	179,344	-0,032	0,034
-289,862	733,259	-0,029	-0,057
-288,847	-166,583	-0,186	-0,006
-287,832	800,000	-0,038	0,087
-286,818	800,000	-0,048	-0,156
-285,803	-200,000	-0,040	-0,139
-284,789	308,887	0,054	0,074
-283,774	282,690	0,077	-0,101
-282,759	-200,000	-0,034	0,132
-281,745	-200,000	-0,008	-0,028
-280,730	-34,086	-0,056	-0,022
-279,716	139,802	0,026	-0,025
-278,701	81,800	0,067	-0,053
-277,686	319,091	-0,055	0,076
-276,672	-200,000	-0,002	0,099
-275,657	-200,000	0,007	0,118
-274,643	341,366	-0,106	-0,152
-273,628	-200,000	-0,002	0,037
-272,613	454,418	-0,064	-0,104
-271,599	497,143	-0,019	0,033
-270,584	-40,101	-0,071	0,027
-269,570	65,810	0,058	-0,043
-268,555	-88,146	-0,057	-0,012
-267,540	-23,148	-0,071	0,031
-266,526	800,000	0,018	0,043
-265,511	-200,000	0,007	0,100
-264,497	-200,000	-0,027	-0,131
-263,482	158,812	0,080	-0,081
-262,467	800,000	0,049	0,131
-261,453	1,966	0,084	0,044
-260,438	800,000	-0,042	0,112
-259,424	150,107	-0,053	0,053
-258,409	209,462	-0,096	-0,110
-257,395	121,302	-0,028	-0,026
-256,380	-200,000	0,021	0,076
-255,365	-200,000	-0,018	0,140
-254,351	651,775	-0,061	-0,115
-253,336	197,710	-0,052	-0,058
-252,322	242,030	-0,099	-0,121
-251,307	351,260	0,055	-0,080
-250,292	354,279	0,077	-0,112
-249,278	800,000	0,014	0,041
-248,263	25,819	0,132	-0,080
-247,249	-200,000	0,001	0,079
-246,234	48,813	0,131	0,090
-245,219	269,445	-0,064	-0,083
-244,205	-200,000	0,023	0,101
-243,190	93,473	-0,139	0,115
-242,176	85,246	0,056	-0,045
-241,161	-48,117	0,064	-0,023
-240,146	-104,855	-0,078	-0,013
-239,132	318,831	-0,031	0,043
-238,117	-4,930	0,129	-0,065
-237,103	44,854	-0,150	-0,100
-236,088	507,448	0,046	0,078
-235,073	-200,000	0,036	0,150
-234,059	154,663	-0,083	0,084
-233,044	-200,000	-0,026	0,135
-232,030	298,887	0,091	-0,123
-231,015	207,492	-0,049	0,056
-230,000	-142,911	-0,106	0,007
-228,986	-62,385	0,080	0,024
-227,971	-112,275	0,089	-0,013
-226,957	-200,000	0,044	-0,191
-225,942	413,869	-0,047	-0,073
-224,927	635,733	-0,025	-0,047
-223,913	-113,052	-0,051	-0,007
-222,898	170,405	-0,108	-0,113
-221,884	-200,000	-0,006	-0,099
-220,869	-132,128	0,144	-0,013
-219,855	66,173	0,240	0,178
-218,840	205,772	0,015	0,017
-217,825	-200,000	0,011	0,061
-216,811	-72,657	-0,118	0,032
-215,796	426,625	0,056	0,088
-214,782	-6,409	-0,029	0,014
-213,767	-200,000	0,032	0,135
-212,752	183,094	0,099	0,107
-211,738	-104,802	-0,143	-0,024
-210,723	35,662	0,119	0,076
-209,709	-63,640	0,248	0,074
-208,694	-85,569	-0,062	0,014
-207,679	-79,275	-0,060	0,015
-206,665	-31,123	-0,086	0,035
-205,650	-200,000	0,001	-0,026
-204,636	-200,000	0,003	0,053
-203,621	-200,000	0,014	0,081
-202,606	-168,055	0,041	-0,001
-201,592	-92,897	-0,079	-0,016
-200,577	-200,000	0,015	-0,049
-199,563	-173,532	-0,123	-0,003
-198,548	-25,358	-0,018	0,008
-197,533	-39,384	0,043	0,016
-196,519	23,328	-0,134	0,080
-195,504	800,000	-0,013	-0,037
-194,490	116,137	-0,034	-0,030
-193,475	-200,000	-0,018	-0,074
-192,460	46,747	-0,064	0,043
-191,446	800,000	-0,034	0,079
-190,431	516,172	0,090	0,154
-189,417	-200,000	-0,050	0,191
-188,402	167,391	0,086	0,089
-187,387	-200,000	0,008	0,097
-186,373	244,701	0,061	-0,075
-185,358	207,617	-0,033	0,038
-184,344	-200,000	-0,000	0,152
-183,329	309,487	-0,028	-0,038
-182,315	-164,688	0,042	0,001
-181,300	2,470	-0,117	0,062
-180,285	-155,547	-0,013	-0,001
-179,271	-200,000	-0,012	-0,092
-178,256	-8,506	-0,037	0,018
-177,242	800,000	-0,043	0,133
-176,227	392,970	0,036	-0,054
-175,212	206,379	-0,030	0,034
-174,198	-200,000	-0,020	-0,077
-173,183	-39,948	0,119	0,045
-172,169	163,869	0,042	-0,043
-171,154	-200,000	0,040	-0,163
-170,139	-200,000	0,018	0,070
-169,125	-200,000	0,016	-0,177
-168,110	-86,178	0,209	0,047
-167,096	39,463	-0,074	0,048
-166,081	-200,000	0,005	0,053
-165,066	-102,389	-0,091	-0,016
-164,052	800,000	-0,021	0,052
-163,037	-200,000	0,032	0,124
-162,023	-200,000	0,006	0,095
-161,008	800,000	-0,006	0,019
-159,993	8,065	0,140	0,076
-158,979	313,467	0,044	-0,060
-157,964	-200,000	-0,020	-0,088
-156,950	219,807	-0,014	-0,017
-155,935	-32,204	0,031	0,012
-154,920	-200,000	0,003	-0,030
-153,906	-200,000	0,005	0,025
-152,891	-38,487	-0,041	0,016
-151,877	-127,598	-0,175	0,018
-150,862	756,154	0,034	-0,067
-149,847	-70,864	-0,208	-0,057
-148,833	800,000	0,027	0,056
-147,818	119,931	0,093	0,084
-146,804	800,000	0,018	0,044
-145,789	172,618	-0,045	0,047
-144,775	2,509	0,055	-0,029
-143,760	-200,000	-0,007	-0,208
-142,745	155,762	-0,068	-0,068
-141,731	-66,540	-0,035	-0,010
-140,716	-53,343	0,143	0,047
-139,702	-200,000	0,005	0,107
-138,687	-33,466	-0,064	-0,026
-137,672	144,575	-0,026	0,025
-136,658	155,617	-0,014	0,014
-135,643	17,144	0,021	-0,012
-134,629	-9,055	-0,082	-0,040
-133,614	-200,000	-0,026	-0,138
-132,599	547,407	0,052	-0,090
-131,585	262,642	-0,011	-0,014
-130,570	554,816	0,032	-0,056
-129,556	800,000	0,015	-0,034
-128,541	-200,000	0,010	-0,040
-127,526	90,071	0,095	0,077
-126,512	248,135	-0,053	-0,065
-125,497	-200,000	0,037	0,125
-124,483	-200,000	0,014	-0,143
-123,468	437,918	-0,031	0,049
-122,453	-200,000	-0,008	0,086
-121,439	618,273	0,092	0,168
-120,424	-51,059	-0,274	-0,093
