DTS Sentinel unit serial number:	SN410029Multiplexer serial number:	ORYXHardware model number:	OX2-SRSoftware version number:	ORYX F/W v4,00 Oryx Data Collector v3.7.2.0data status	okinstallation	B4 Nyhavnadifferential loss correction	single-endedforward channel	channel 2reverse channel	N/Adate	2023/12/19time	12:10:13forward acquisition time	300,00reverse acquisition time	0,00gamma	499,1914k internal	0,3128k external	0,3128temperature offset calibration	1,0000default loss term (dB/km)	0,3820temperature slope calibration	1,0000multiplexer offset coefficient	1,0000multiplexer slope coefficient	1,0000fibre end	0,00T internal ref (°C)	19,63T ext. ref 1 (°C)	4,43T ext. ref 2 (°C)	4,42length (m)	temperature (°C)	Stokes	anti-Stokes-744,400	-143,478	-0,017	0,001
-743,385	-23,625	-0,230	0,102
-742,371	621,930	0,012	-0,023
-741,356	77,939	-0,280	0,222
-740,342	269,498	0,048	0,063
-739,327	-129,466	-0,234	0,024
-738,312	800,000	0,047	0,106
-737,298	-124,430	-0,313	-0,036
-736,283	-43,324	0,111	0,042
-735,269	12,384	-0,145	0,083
-734,254	-104,192	0,090	-0,015
-733,239	-14,565	-0,448	-0,214
-732,225	-81,256	0,099	-0,024
-731,210	35,187	0,111	-0,072
-730,196	-71,857	0,037	-0,010
-729,181	800,000	0,049	-0,106
-728,167	-94,859	0,035	-0,007
-727,152	-200,000	-0,013	-0,123
-726,137	-7,489	0,064	0,032
-725,123	-5,772	-0,145	-0,074
-724,108	308,582	-0,044	-0,062
-723,094	-200,000	-0,007	-0,144
-722,079	-2,519	-0,088	0,046
-721,064	-84,260	-0,062	0,014
-720,050	19,192	-0,015	0,009
-719,035	741,906	-0,032	-0,064
-718,021	-200,000	0,018	-0,061
-717,006	800,000	-0,022	-0,048
-715,991	-122,230	-0,232	-0,028
-714,977	413,835	-0,041	0,065
-713,962	-200,000	0,024	0,094
-712,948	588,909	0,023	-0,042
-711,933	-109,632	0,015	0,002
-710,918	180,749	-0,107	0,116
-709,904	657,244	-0,072	0,138
-708,889	-116,317	-0,063	0,009
-707,875	-200,000	0,049	-0,205
-706,860	176,459	-0,018	-0,020
-705,845	-200,000	0,007	0,041
-704,831	210,175	-0,079	-0,092
-703,816	578,391	-0,053	-0,097
-702,802	741,310	0,031	-0,063
-701,787	-200,000	0,016	-0,066
-700,772	-200,000	0,037	-0,138
-699,758	-55,351	0,063	0,021
-698,743	60,198	-0,095	0,070
-697,729	90,354	0,075	-0,062
-696,714	800,000	0,002	0,003
-695,699	-139,397	0,007	0,001
-694,685	-200,000	0,000	-0,083
-693,670	-14,395	0,042	-0,020
-692,656	-155,162	-0,086	-0,004
-691,641	452,065	-0,031	-0,051
-690,627	63,461	0,019	0,014
-689,612	465,976	-0,059	0,098
-688,597	393,435	0,063	-0,097
-687,583	-36,836	-0,184	-0,073
-686,568	273,630	-0,070	0,092
-685,554	-108,713	-0,070	0,011
-684,539	-4,332	0,101	-0,052
-683,524	-200,000	0,001	0,145
-682,510	-200,000	0,037	0,154
-681,495	-24,340	-0,101	0,045
-680,481	-117,446	-0,062	-0,008
-679,466	800,000	0,057	-0,139
-678,451	785,865	-0,052	-0,107
-677,437	-163,981	0,102	0,003
-676,422	136,405	0,151	-0,146
-675,408	97,368	0,037	-0,032
-674,393	-164,170	0,154	-0,005
-673,378	-27,641	-0,111	-0,048
-672,364	414,204	-0,063	-0,099
-671,349	118,843	0,008	0,007
-670,335	71,710	-0,031	0,024
-669,320	134,116	-0,028	-0,027
-668,305	-113,766	0,073	-0,010
-667,291	-165,687	-0,072	-0,002
-666,276	800,000	-0,038	-0,080
-665,262	-88,713	0,017	0,004
-664,247	141,766	-0,069	0,068
-663,232	-63,305	-0,152	0,046
-662,218	-84,029	0,108	0,025
-661,203	44,153	0,059	0,040
-660,189	800,000	0,016	-0,042
-659,174	650,281	0,039	-0,075
-658,159	428,773	0,030	-0,049
-657,145	800,000	-0,038	0,109
-656,130	-42,225	0,045	0,017
-655,116	-148,492	0,058	-0,003
-654,101	-200,000	0,004	-0,150
-653,086	-151,348	0,030	-0,002
-652,072	-200,000	0,000	0,030
-651,057	215,245	-0,159	-0,188
-650,043	458,574	-0,074	-0,123
-649,028	187,658	0,031	-0,034
-648,014	-122,485	-0,087	0,010
-646,999	-45,492	-0,079	-0,029
-645,984	-15,006	0,091	0,043
-644,970	31,326	-0,032	0,020
-643,955	218,399	0,041	0,048
-642,941	-100,115	-0,217	-0,040
-641,926	196,979	-0,031	-0,035
-640,911	368,432	-0,039	-0,059
-639,897	76,299	-0,142	0,112
-638,882	-127,171	-0,034	0,004
-637,868	-22,762	-0,109	-0,048
-636,853	-28,225	0,103	-0,044
-635,838	543,940	-0,070	-0,124
-634,824	800,000	0,060	-0,152
-633,809	58,152	-0,109	-0,079
-632,795	-200,000	0,031	0,110
-631,780	-8,576	0,074	-0,037
-630,765	800,000	-0,021	0,054
-629,751	280,185	-0,074	-0,099
-628,736	-200,000	0,009	-0,066
-627,722	369,426	-0,098	-0,147
-626,707	22,807	-0,059	-0,036
-625,692	-200,000	0,039	-0,143
-624,678	18,214	-0,072	0,042
-623,663	265,036	-0,059	0,076
-622,649	152,074	0,085	-0,086
-621,634	-200,000	0,003	0,089
-620,619	-200,000	-0,011	0,150
-619,605	-28,217	-0,008	0,003
-618,590	673,386	0,088	0,171
-617,576	-137,228	0,127	-0,011
-616,561	-200,000	0,001	0,045
-615,546	465,893	-0,041	0,068
-614,532	-200,000	0,104	0,000
-613,517	43,118	0,080	0,054
-612,503	673,735	0,019	-0,037
-611,488	34,150	-0,143	-0,092
-610,474	-8,269	0,112	0,056
-609,459	95,581	-0,132	-0,111
-608,444	204,785	-0,025	-0,029
-607,430	-120,247	-0,071	0,009
-606,415	-67,835	-0,043	0,012
-605,401	-200,000	0,010	-0,137
-604,386	32,843	-0,027	0,017
-603,371	-38,932	0,013	-0,005
-602,357	-61,177	-0,085	-0,026
-601,342	-200,000	0,008	0,059
-600,328	303,484	-0,084	0,115
-599,313	6,336	0,042	0,023
-598,298	-200,000	0,006	-0,083
-597,284	148,178	-0,049	-0,049
-596,269	-200,000	0,005	0,127
-595,255	-50,774	0,102	0,035
-594,240	73,628	0,050	-0,039
-593,225	-200,000	-0,004	-0,081
-592,211	-200,000	-0,003	0,024
-591,196	-151,617	-0,119	-0,006
-590,182	-34,424	-0,126	-0,051
-589,167	-200,000	0,017	0,180
-588,152	-135,292	0,007	-0,001
-587,138	140,243	0,072	0,070
-586,123	48,912	-0,088	-0,061
-585,109	-200,000	0,001	-0,055
-584,094	800,000	0,034	-0,073
-583,079	-200,000	-0,017	-0,155
-582,065	176,121	0,174	-0,187
-581,050	361,516	-0,055	-0,082
-580,036	-200,000	-0,007	0,053
-579,021	78,923	-0,047	0,037
-578,006	-37,069	-0,065	-0,026
-576,992	800,000	-0,026	-0,061
-575,977	-200,000	0,011	-0,070
-574,963	800,000	0,056	-0,171
-573,948	412,301	0,007	0,012
-572,934	166,185	-0,037	0,039
-571,919	-200,000	-0,001	-0,042
-570,904	-1,151	-0,103	-0,053
-569,890	38,424	-0,086	-0,057
-568,875	200,563	0,078	-0,089
-567,861	357,236	-0,041	0,061
-566,846	-200,000	0,001	-0,043
-565,831	275,472	-0,054	0,071
-564,817	800,000	-0,037	0,100
-563,802	-114,709	-0,067	0,009
-562,788	-139,801	-0,060	0,005
-561,773	43,855	-0,042	0,028
-560,758	800,000	0,040	0,091
-559,744	-72,763	0,020	0,005
-558,729	292,446	-0,093	-0,126
-557,715	-200,000	0,023	-0,322
-556,700	-22,917	-0,094	-0,042
-555,685	-200,000	0,011	-0,220
-554,671	110,200	0,050	0,045
-553,656	-105,784	-0,116	-0,019
-552,642	-43,145	0,041	0,015
-551,627	99,430	-0,072	0,062
-550,612	-103,835	0,071	0,012
-549,598	-200,000	0,005	0,074
-548,583	-122,225	-0,017	-0,002
-547,569	48,696	0,063	0,044
-546,554	31,834	0,053	-0,034
-545,539	800,000	0,006	0,018
-544,525	87,769	-0,068	0,056
-543,510	-12,612	-0,124	-0,059
-542,496	161,037	-0,065	0,067
-541,481	-200,000	-0,092	-0,000
-540,466	174,734	-0,037	0,039
-539,452	350,354	-0,067	-0,098
-538,437	800,000	0,015	-0,038
-537,423	237,217	-0,072	-0,088
-536,408	-200,000	0,008	-0,027
-535,393	800,000	-0,032	-0,097
-534,379	-18,455	0,051	-0,023
-533,364	-86,864	-0,070	0,016
-532,350	115,571	-0,038	0,034
-531,335	-75,245	0,069	-0,018
-530,321	394,573	0,010	0,015
-529,306	-20,509	-0,049	0,022
-528,291	-40,455	-0,053	-0,020
-527,277	147,732	0,072	0,072
-526,262	650,092	0,028	-0,053
-525,248	763,345	0,021	-0,043
-524,233	363,817	0,118	-0,175
-523,218	-200,000	-0,017	-0,056
-522,204	800,000	-0,052	0,113
-521,189	-200,000	-0,047	0,160
-520,175	110,469	0,078	-0,069
-519,160	-200,000	-0,016	-0,116
-518,145	-113,310	-0,051	-0,007
-517,131	-200,000	0,006	0,074
-516,116	176,329	-0,050	-0,054
-515,102	800,000	0,040	0,125
-514,087	800,000	-0,052	0,117
-513,072	224,133	-0,046	0,055
-512,058	-200,000	0,006	0,120
-511,043	800,000	-0,051	-0,113
-510,029	637,325	-0,045	-0,086
-509,014	-76,548	0,106	-0,027
-507,999	78,783	0,175	-0,138
-506,985	40,688	-0,032	-0,021
-505,970	-35,756	-0,034	0,014
-504,956	122,760	0,067	0,062
-503,941	-121,201	-0,179	0,022
-502,926	-200,000	0,057	0,196
-501,912	800,000	-0,019	0,040
-500,897	419,908	-0,035	-0,055
-499,883	107,596	-0,053	0,047
-498,868	-17,558	-0,084	-0,039
-497,853	-74,448	-0,020	0,005
-496,839	47,203	-0,088	-0,060
-495,824	-200,000	-0,029	0,138
-494,810	-200,000	-0,022	-0,103
-493,795	-45,854	0,058	0,021
-492,781	-18,120	-0,096	-0,044
-491,766	-0,603	0,115	0,060
-490,751	187,216	0,013	0,014
-489,737	-125,867	0,110	-0,012
-488,722	56,671	0,053	-0,038
-487,708	92,084	0,137	0,113
-486,693	214,361	0,079	-0,093
-485,678	41,617	0,090	-0,060
-484,664	-200,000	0,003	-0,140
-483,649	-90,848	-0,163	-0,034
-482,635	-200,000	0,006	0,056
-481,620	-76,714	-0,037	0,009
-480,605	800,000	-0,027	-0,055
-479,591	800,000	0,078	-0,229
-478,576	-200,000	-0,016	-0,085
-477,562	-200,000	-0,035	0,150
-476,547	137,140	-0,070	0,067
-475,532	332,825	0,025	0,036
-474,518	80,577	-0,074	0,059
-473,503	-53,251	-0,022	0,007
-472,489	405,738	-0,030	0,047
-471,474	367,186	-0,025	-0,037
-470,459	437,966	0,033	-0,053
-469,445	138,046	0,071	0,069
-468,430	207,594	0,031	-0,035
-467,416	56,848	0,098	0,070
-466,401	-150,842	0,067	0,004
-465,386	-106,963	0,098	-0,016
-464,372	800,000	0,010	-0,025
-463,357	-16,109	-0,171	-0,080
-462,343	800,000	0,041	-0,126
-461,328	3,352	-0,051	-0,027
-460,313	528,829	-0,012	0,020
-459,299	-38,918	0,325	0,126
-458,284	800,000	0,026	0,069
-457,270	-200,000	0,013	0,085
-456,255	63,387	-0,079	0,058
-455,241	-146,157	-0,085	-0,005
-454,226	800,000	0,028	0,084
-453,211	-79,838	0,160	0,039
-452,197	303,869	0,073	-0,100
-451,182	-139,603	0,141	0,011
-450,168	288,410	0,038	0,050
-449,153	-60,672	0,131	-0,040
-448,138	-200,000	-0,014	-0,073
-447,124	-145,320	-0,091	0,006
-446,109	270,456	-0,056	-0,073
-445,095	174,945	-0,045	0,048
-444,080	-200,000	-0,005	-0,027
-443,065	800,000	0,037	0,101
-442,051	-200,000	-0,005	-0,146
-441,036	-200,000	-0,026	-0,183
-440,022	-67,178	0,075	0,022
-439,007	41,926	-0,042	0,028
-437,992	42,661	0,056	0,037
-436,978	-200,000	0,007	0,044
-435,963	800,000	-0,054	-0,138
-434,949	-200,000	-0,012	-0,085
-433,934	-157,452	0,095	0,004
-432,919	800,000	0,039	-0,126
-431,905	248,905	0,084	0,105
-430,890	680,061	0,042	0,082
-429,876	155,849	0,068	0,069
-428,861	-200,000	0,003	0,147
-427,846	-35,492	0,138	0,055
-426,832	-51,073	0,043	-0,015
-425,817	689,747	0,010	0,020
-424,803	549,233	0,034	-0,060
-423,788	-152,257	0,079	0,004
-422,773	214,106	-0,062	0,072
-421,759	-135,298	-0,121	0,010
-420,744	49,452	0,078	0,054
-419,730	-200,000	-0,009	0,087
-418,715	107,197	-0,056	0,049
-417,701	106,413	0,103	-0,090
-416,686	29,058	0,092	0,057
-415,671	-75,429	0,103	-0,027
-414,657	39,038	0,109	0,072
-413,642	-200,000	0,004	-0,028
-412,628	-126,884	0,068	0,007
-411,613	101,753	0,078	-0,067
-410,598	-200,000	0,019	0,111
-409,584	-92,718	-0,066	-0,013
-408,569	204,970	0,030	-0,034
-407,555	-5,895	0,160	0,080
-406,540	-200,000	0,004	0,061
-405,525	-122,754	-0,063	0,007
-404,511	-200,000	0,007	0,108
-403,496	-27,351	0,062	0,027
-402,482	-18,148	0,035	-0,016
-401,467	800,000	-0,022	-0,050
-400,452	-200,000	0,019	-0,112
-399,438	215,828	0,094	0,110
-398,423	-200,000	0,010	-0,034
-397,409	271,731	-0,019	0,025
-396,394	280,052	-0,068	0,089
-395,379	-134,277	-0,050	0,004
-394,365	-200,000	0,080	-0,000
-393,350	-200,000	-0,001	-0,052
-392,336	800,000	-0,022	0,051
-391,321	800,000	-0,021	0,051
-390,306	373,454	-0,048	-0,072
-389,292	-40,852	-0,061	-0,023
-388,277	139,040	-0,098	-0,094
-387,263	-200,000	-0,024	0,089
-386,248	383,008	0,037	0,057
-385,233	-67,320	0,097	0,028
-384,219	-36,282	0,082	-0,032
-383,204	283,405	-0,058	0,077
-382,190	-200,000	0,027	-0,128
-381,175	-11,296	0,041	0,020
-380,160	800,000	-0,010	-0,029
-379,146	800,000	0,029	0,061
-378,131	800,000	-0,036	-0,105
-377,117	-2,727	-0,072	0,037
-376,102	97,323	-0,084	-0,071
-375,088	-57,476	0,027	0,009
-374,073	-91,746	0,088	0,018
-373,058	-200,000	-0,005	-0,067
-372,044	-200,000	-0,010	-0,035
-371,029	-200,000	-0,027	0,092
-370,015	92,507	-0,042	0,035
-369,000	507,821	0,038	0,066
-367,985	-18,843	-0,123	-0,056
-366,971	778,381	-0,017	-0,035
-365,956	730,684	0,012	0,023
-364,942	70,314	0,029	0,022
-363,927	-200,000	0,002	-0,051
-362,912	69,589	0,096	-0,072
-361,898	-200,000	0,018	0,085
-360,883	7,765	-0,090	-0,049
-359,869	-200,000	-0,003	0,037
-358,854	-99,200	0,051	-0,009
-357,839	-112,567	0,184	-0,027
-356,825	-200,000	-0,006	0,089
-355,810	128,059	-0,068	0,063
-354,796	448,958	-0,030	-0,048
-353,781	407,093	0,108	-0,169
-352,766	95,599	-0,078	0,065
-351,752	-200,000	-0,000	-0,064
-350,737	25,654	0,081	-0,049
-349,723	800,000	-0,013	-0,036
-348,708	62,915	0,093	0,068
-347,693	178,891	0,182	-0,195
-346,679	-200,000	-0,016	-0,074
-345,664	-63,603	0,158	-0,047
-344,650	-15,877	-0,144	0,067
-343,635	132,800	-0,057	-0,054
-342,620	-58,308	-0,104	0,033
-341,606	7,214	-0,022	0,012
-340,591	471,177	-0,020	0,033
-339,577	110,617	0,005	0,005
-338,562	284,980	-0,045	-0,059
-337,548	-118,540	-0,090	-0,012
-336,533	-113,953	0,157	0,022
-335,518	47,033	0,036	0,025
-334,504	800,000	-0,003	-0,008
-333,489	-200,000	0,017	0,079
-332,475	-200,000	0,004	0,030
-331,460	240,195	-0,074	-0,091
-330,445	146,442	-0,046	-0,046
-329,431	-21,834	0,027	0,012
-328,416	141,943	0,102	0,099
-327,402	-200,000	-0,018	0,131
-326,387	800,000	0,028	0,073
-325,372	-108,985	-0,092	-0,014
-324,358	176,099	0,072	-0,077
-323,343	800,000	0,024	0,075
-322,329	-134,666	0,061	0,005
-321,314	-86,646	0,134	-0,030
-320,299	115,335	0,055	0,049
-319,285	-30,376	0,060	-0,025
-318,270	-200,000	0,011	-0,152
-317,256	-200,000	-0,023	-0,099
-316,241	-20,595	0,038	0,017
-315,226	-42,891	0,072	0,027
-314,212	8,733	-0,136	0,075
-313,197	-66,401	0,071	-0,021
-312,183	-147,092	-0,056	-0,003
-311,168	-13,265	0,056	-0,026
-310,153	-99,819	-0,159	-0,029
-309,139	62,610	-0,097	-0,071
-308,124	166,607	-0,026	0,027
-307,110	800,000	-0,024	0,061
-306,095	-100,951	0,050	-0,009
-305,080	-200,000	0,067	-0,000
-304,066	-200,000	0,012	0,076
-303,051	714,559	-0,075	-0,146
-302,037	89,205	-0,078	-0,063
-301,022	800,000	0,029	0,064
-300,008	800,000	0,051	0,151
-298,993	-200,000	0,017	0,174
-297,978	460,131	0,054	0,089
-296,964	-130,033	-0,138	0,014
-295,949	-200,000	0,019	-0,065
-294,935	167,568	-0,018	-0,019
-293,920	-200,000	0,020	-0,078
-292,905	-200,000	-0,016	0,069
-291,891	537,254	0,029	-0,050
-290,876	-200,000	-0,027	0,104
-289,862	10,994	0,141	-0,079
-288,847	-53,921	-0,106	-0,035
-287,832	21,455	-0,054	0,032
-286,818	-77,438	-0,039	-0,010
-285,803	-200,000	0,013	0,051
-284,789	155,052	0,042	-0,042
-283,774	-200,000	0,001	0,061
-282,759	-200,000	-0,018	0,075
-281,745	800,000	0,054	-0,161
-280,730	-40,425	0,044	-0,017
-279,716	-13,231	0,024	-0,012
-278,701	-200,000	0,011	-0,082
-277,686	271,584	0,040	-0,052
-276,672	258,092	0,046	-0,059
-275,657	78,787	-0,042	-0,033
-274,643	-200,000	0,020	0,150
-273,628	-200,000	0,007	0,039
-272,613	770,141	0,068	0,137
-271,599	-83,575	-0,041	0,010
-270,584	-200,000	0,002	0,114
-269,570	-200,000	0,020	0,113
-268,555	483,543	-0,037	0,062
-267,540	-62,569	-0,118	-0,036
-266,526	-200,000	0,011	-0,050
-265,511	-200,000	0,022	0,105
-264,497	800,000	0,010	0,025
-263,482	439,621	0,076	0,122
-262,467	92,703	-0,134	0,110
-261,453	232,448	-0,013	-0,016
-260,438	-11,768	-0,122	0,058
-259,424	-161,061	0,081	0,003
-258,409	43,881	0,088	-0,059
-257,395	751,440	-0,060	0,119
-256,380	27,510	0,086	-0,053
-255,365	-200,000	0,024	0,083
-254,351	-119,549	0,097	0,012
-253,336	159,763	-0,062	0,064
-252,322	-125,372	-0,097	-0,011
-251,307	-200,000	0,000	0,022
-250,292	-64,008	0,047	0,014
-249,278	583,126	-0,043	0,077
-248,263	535,825	0,031	-0,053
-247,249	399,817	-0,024	0,037
-246,234	41,442	0,111	0,073
-245,219	32,164	-0,137	-0,086
-244,205	-200,000	-0,015	-0,144
-243,190	472,463	0,054	-0,089
-242,176	243,770	-0,100	0,123
-241,161	-200,000	-0,026	0,149
-240,146	800,000	-0,057	0,117
-239,132	800,000	0,048	0,096
-238,117	800,000	0,019	0,054
-237,103	299,400	0,052	-0,070
-236,088	-4,383	-0,032	-0,016
-235,073	163,704	-0,009	0,009
-234,059	97,425	-0,072	0,060
-233,044	1,770	-0,085	0,045
-232,030	323,540	-0,049	-0,068
-231,015	71,538	-0,050	0,038
-230,000	38,095	0,002	-0,002
-228,986	176,829	-0,099	0,106
-227,971	74,482	0,030	-0,023
-226,957	619,450	-0,028	-0,051
-225,942	696,466	0,019	0,037
-224,927	119,655	-0,107	0,097
-223,913	-200,000	0,002	-0,064
-222,898	-200,000	-0,042	0,182
-221,884	800,000	0,060	-0,151
-220,869	800,000	-0,081	-0,169
-219,855	-3,836	-0,093	-0,047
-218,840	800,000	0,053	-0,108
-217,825	-200,000	-0,009	-0,045
-216,811	-200,000	-0,000	0,030
-215,796	-47,103	-0,082	-0,029
-214,782	10,321	-0,046	0,025
-213,767	-200,000	0,011	0,128
-212,752	5,282	0,093	-0,050
-211,738	-200,000	0,016	0,138
-210,723	-103,645	0,143	0,024
-209,709	-200,000	0,004	-0,025
-208,694	-109,309	-0,037	-0,006
-207,679	33,156	-0,111	0,070
-206,665	-200,000	0,027	0,091
-205,650	-200,000	-0,037	-0,208
-204,636	607,870	0,034	0,062
-203,621	-200,000	-0,002	0,098
-202,606	-32,084	-0,042	-0,017
-201,592	65,261	-0,077	0,057
-200,577	55,057	0,099	-0,069
-199,563	218,442	0,080	0,093
-198,548	-200,000	0,006	0,077
-197,533	793,602	-0,053	0,108
-196,519	800,000	0,025	-0,066
-195,504	67,272	-0,063	0,047
-194,490	4,579	-0,172	-0,091
-193,475	-200,000	0,017	0,077
-192,460	222,640	-0,054	0,064
-191,446	-200,000	0,005	0,240
-190,431	-34,922	0,095	0,037
-189,417	-122,886	0,109	-0,013
-188,402	-200,000	-0,024	-0,082
-187,387	247,765	0,046	0,057
-186,373	12,442	0,116	0,065
-185,358	-200,000	-0,004	0,089
-184,344	-140,638	0,121	0,009
-183,329	-200,000	-0,001	-0,149
-182,315	359,766	0,016	0,023
-181,300	530,819	-0,051	0,088
-180,285	100,526	-0,058	-0,049
-179,271	744,208	0,042	0,082
-178,256	-69,799	0,044	-0,012
-177,242	7,814	-0,125	0,068
-176,227	518,542	0,072	-0,124
-175,212	26,639	0,111	-0,068
-174,198	17,003	-0,058	-0,033
-173,183	-34,125	-0,088	-0,035
-172,169	623,591	0,029	-0,053
-171,154	11,056	-0,061	-0,034
-170,139	-200,000	-0,008	0,034
-169,125	482,235	-0,068	-0,113
-168,110	800,000	0,031	-0,084
-167,096	538,734	-0,071	-0,124
-166,081	32,710	0,098	0,062
-165,066	-200,000	0,016	-0,091
-164,052	20,710	-0,085	-0,050
-163,037	343,773	0,055	0,079
-162,023	-150,940	0,066	0,004
-161,008	38,422	0,083	-0,054
-159,993	-200,000	-0,031	0,139
-158,979	-200,000	-0,003	-0,055
-157,964	-108,401	0,131	-0,020
-156,950	152,043	0,024	-0,024
-155,935	129,401	-0,078	-0,072
-154,920	-200,000	0,019	-0,138
-153,906	-32,433	0,049	-0,020
-152,891	800,000	-0,029	0,077
-151,877	68,419	0,075	-0,055
-150,862	158,474	-0,029	-0,029
-149,847	-134,965	-0,116	0,010
-148,833	-115,215	0,050	0,007
-147,818	660,782	0,033	0,062
-146,804	800,000	-0,021	0,044
-145,789	129,573	-0,026	0,024
-144,775	-200,000	-0,006	0,024
-143,760	-44,964	-0,061	-0,022
-142,745	-200,000	0,014	-0,075
-141,731	-141,814	-0,015	-0,001
-140,716	-72,702	0,070	-0,019
-139,702	26,385	-0,085	0,052
-138,687	16,095	-0,065	-0,037
-137,672	189,789	0,049	0,054
-136,658	-200,000	0,001	-0,082
-135,643	10,040	-0,079	0,044
-134,629	167,803	0,098	0,101
-133,614	800,000	0,027	0,073
-132,599	800,000	-0,017	0,055
-131,585	211,519	-0,053	-0,060
-130,570	800,000	-0,048	-0,121
-129,556	-200,000	0,002	-0,057
-128,541	266,087	-0,037	-0,047
-127,526	-200,000	-0,008	-0,172
-126,512	529,320	-0,047	-0,081
-125,497	-200,000	-0,051	0,169
-124,483	-89,606	-0,062	0,013
-123,468	800,000	-0,044	-0,092
-122,453	232,742	0,050	0,060
-121,439	371,233	-0,019	-0,027
-120,424	-151,680	-0,078	0,004
-119,410	-200,000	0,017	0,069
