DTS Sentinel unit serial number:	SN410029Multiplexer serial number:	ORYXHardware model number:	OX2-SRSoftware version number:	ORYX F/W v4,00 Oryx Data Collector v3.7.2.0data status	okinstallation	B4 Nyhavnadifferential loss correction	single-endedforward channel	channel 2reverse channel	N/Adate	2023/12/15time	16:05:13forward acquisition time	300,00reverse acquisition time	0,00gamma	499,1914k internal	0,3147k external	0,3147temperature offset calibration	1,0000default loss term (dB/km)	0,3820temperature slope calibration	1,0000multiplexer offset coefficient	1,0000multiplexer slope coefficient	1,0000fibre end	0,00T internal ref (°C)	17,04T ext. ref 1 (°C)	2,98T ext. ref 2 (°C)	3,09length (m)	temperature (°C)	Stokes	anti-Stokes-744,400	25,719	0,064	-0,039
-743,385	-124,107	-0,209	-0,024
-742,371	-114,469	0,143	0,020
-741,356	-143,451	-0,232	0,016
-740,342	399,074	0,060	0,094
-739,327	0,148	-0,316	0,166
-738,312	-142,748	0,058	-0,004
-737,298	-109,171	-0,405	-0,063
-736,283	-112,299	0,126	0,018
-735,269	-16,158	-0,189	0,088
-734,254	-195,450	0,125	-0,001
-733,239	-29,461	-0,431	-0,181
-732,225	-86,088	0,226	0,051
-731,210	-200,000	-0,007	-0,101
-730,196	54,373	0,041	0,029
-729,181	-53,375	0,025	0,008
-728,167	800,000	0,033	-0,099
-727,152	193,221	-0,104	-0,116
-726,137	-104,262	-0,040	0,007
-725,123	800,000	0,021	-0,058
-724,108	114,733	-0,023	-0,021
-723,094	185,550	0,032	-0,035
-722,079	-48,041	-0,198	0,070
-721,064	-75,210	0,204	0,053
-720,050	-15,783	0,077	0,036
-719,035	-200,000	0,002	0,088
-718,021	117,147	0,029	0,027
-717,006	747,762	0,025	-0,050
-715,991	800,000	0,052	-0,107
-714,977	-45,261	-0,093	0,034
-713,962	62,462	-0,101	0,074
-712,948	138,153	0,069	0,067
-711,933	33,363	-0,114	0,073
-710,918	220,556	-0,040	0,047
-709,904	75,034	-0,040	-0,031
-708,889	-200,000	-0,026	-0,143
-707,875	-73,525	-0,060	0,016
-706,860	-125,980	-0,149	-0,016
-705,845	683,134	0,080	-0,155
-704,831	-200,000	-0,017	0,167
-703,816	800,000	-0,051	-0,112
-702,802	-200,000	0,022	-0,166
-701,787	67,163	-0,090	-0,068
-700,772	222,841	0,043	-0,051
-699,758	800,000	-0,019	-0,047
-698,743	227,430	0,044	0,053
-697,729	393,436	-0,078	0,120
-696,714	12,022	0,068	-0,039
-695,699	153,591	-0,078	0,079
-694,685	-200,000	0,009	-0,166
-693,670	800,000	-0,088	-0,183
-692,656	-55,895	-0,058	-0,019
-691,641	-200,000	0,013	-0,061
-690,627	589,132	-0,044	0,081
-689,612	228,631	-0,055	0,066
-688,597	800,000	-0,018	0,039
-687,583	-200,000	0,004	-0,079
-686,568	759,908	-0,064	-0,128
-685,554	-200,000	0,010	-0,049
-684,539	-132,052	0,060	0,006
-683,524	465,455	0,057	-0,095
-682,510	134,579	-0,055	-0,052
-681,495	79,544	-0,142	-0,113
-680,481	125,465	-0,096	-0,090
-679,466	376,995	-0,160	-0,242
-678,451	-200,000	0,004	-0,120
-677,437	-200,000	-0,030	-0,175
-676,422	-200,000	0,008	-0,050
-675,408	-200,000	0,039	0,147
-674,393	-42,353	-0,101	-0,038
-673,378	-200,000	-0,057	-0,285
-672,364	-200,000	-0,026	-0,130
-671,349	144,867	-0,098	-0,096
-670,335	-200,000	-0,028	-0,230
-669,320	-200,000	0,009	-0,094
-668,305	23,987	-0,107	-0,065
-667,291	-200,000	-0,006	-0,130
-666,276	308,595	-0,029	0,040
-665,262	38,473	-0,106	-0,069
-664,247	68,974	-0,165	0,125
-663,232	84,318	-0,128	-0,103
-662,218	-5,916	0,134	-0,067
-661,203	12,380	-0,068	-0,039
-660,189	800,000	0,020	0,063
-659,174	0,332	0,101	0,053
-658,159	800,000	-0,030	-0,064
-657,145	800,000	0,058	-0,173
-656,130	800,000	-0,013	0,041
-655,116	-50,935	-0,031	0,011
-654,101	198,897	0,044	0,050
-653,086	500,750	0,018	0,031
-652,072	-72,255	0,077	0,021
-651,057	-18,505	-0,054	-0,025
-650,043	800,000	0,006	0,016
-649,028	146,304	-0,043	-0,043
-648,014	469,322	0,060	0,099
-646,999	68,336	-0,063	0,048
-645,984	-192,694	0,172	0,001
-644,970	-8,035	-0,064	-0,032
-643,955	120,822	-0,074	0,068
-642,941	-200,000	-0,018	-0,092
-641,926	-200,000	-0,007	-0,059
-640,911	-200,000	0,003	-0,080
-639,897	32,190	0,062	0,039
-638,882	-54,794	0,073	-0,024
-637,868	48,837	-0,015	0,010
-636,853	-200,000	-0,003	0,011
-635,838	-116,493	0,043	0,006
-634,824	3,742	-0,099	-0,053
-633,809	-200,000	-0,022	0,079
-632,795	410,440	-0,020	0,032
-631,780	31,255	-0,034	0,022
-630,765	135,062	-0,099	-0,094
-629,751	-162,108	-0,103	0,004
-628,736	-31,326	-0,070	0,029
-627,722	-200,000	-0,001	-0,123
-626,707	478,014	0,053	0,088
-625,692	-200,000	0,001	0,033
-624,678	249,585	0,016	-0,021
-623,663	57,573	-0,107	-0,077
-622,649	-16,996	-0,080	-0,037
-621,634	173,145	-0,036	-0,038
-620,619	-77,281	0,063	-0,016
-619,605	-200,000	-0,004	0,050
-618,590	800,000	-0,018	0,043
-617,576	221,243	0,083	-0,098
-616,561	-59,263	-0,088	-0,028
-615,546	-200,000	-0,003	-0,050
-614,532	-181,499	0,068	0,001
-613,517	800,000	0,068	0,144
-612,503	-200,000	0,003	0,013
-611,488	-200,000	-0,026	0,086
-610,474	423,662	-0,034	-0,054
-609,459	-35,102	0,063	0,025
-608,444	-110,442	-0,097	0,015
-607,430	76,463	0,022	-0,017
-606,415	-65,659	-0,095	0,028
-605,401	-26,687	-0,047	-0,020
-604,386	265,984	0,030	0,038
-603,371	800,000	0,070	-0,166
-602,357	112,593	-0,091	-0,081
-601,342	28,208	0,089	-0,055
-600,328	-79,074	0,017	0,004
-599,313	133,516	0,024	-0,023
-598,298	800,000	0,028	-0,066
-597,284	800,000	0,063	-0,132
-596,269	-200,000	-0,018	-0,075
-595,255	-200,000	-0,001	-0,081
-594,240	-200,000	0,008	0,047
-593,225	239,707	-0,060	-0,074
-592,211	-200,000	0,011	-0,116
-591,196	140,319	-0,149	0,144
-590,182	37,586	0,079	0,051
-589,167	-200,000	0,007	-0,038
-588,152	15,456	0,033	0,019
-587,138	-132,809	-0,138	0,013
-586,123	479,104	-0,046	-0,077
-585,109	2,577	-0,033	-0,018
-584,094	93,002	-0,092	0,076
-583,079	-96,395	0,154	-0,030
-582,065	-130,660	-0,074	-0,007
-581,050	-200,000	-0,024	-0,084
-580,036	800,000	0,028	0,064
-579,021	405,859	-0,072	0,112
-578,006	-200,000	-0,007	-0,127
-576,992	800,000	-0,024	-0,059
-575,977	-8,154	-0,064	-0,031
-574,963	-200,000	-0,025	-0,110
-573,948	800,000	0,067	-0,151
-572,934	30,698	-0,048	0,030
-571,919	62,056	-0,099	-0,072
-570,904	800,000	0,024	0,077
-569,890	247,449	0,047	0,058
-568,875	-200,000	0,014	0,065
-567,861	675,702	0,057	0,108
-566,846	800,000	-0,087	0,221
-565,831	159,141	0,020	0,021
-564,817	-200,000	0,002	-0,063
-563,802	-68,290	-0,033	-0,009
-562,788	-200,000	0,014	0,049
-561,773	-76,633	0,089	-0,023
-560,758	-48,509	-0,027	0,010
-559,744	-200,000	0,011	0,096
-558,729	21,766	-0,078	-0,047
-557,715	-200,000	-0,003	-0,112
-556,700	-200,000	0,077	0,000
-555,685	47,430	-0,057	0,039
-554,671	-73,082	0,037	0,010
-553,656	484,872	0,054	0,090
-552,642	319,865	-0,052	-0,072
-551,627	134,816	0,094	-0,090
-550,612	-127,702	-0,080	-0,008
-549,598	-139,634	-0,123	-0,010
-548,583	228,519	-0,018	-0,022
-547,569	-140,105	0,060	-0,005
-546,554	108,111	-0,069	-0,060
-545,539	72,209	0,085	0,065
-544,525	800,000	0,032	0,103
-543,510	195,539	-0,086	-0,096
-542,496	-72,533	0,079	0,021
-541,481	150,941	-0,025	0,025
-540,466	-200,000	0,000	-0,041
-539,452	32,048	0,130	-0,082
-538,437	800,000	0,025	0,061
-537,423	800,000	0,051	0,139
-536,408	10,150	-0,118	0,066
-535,393	800,000	0,022	0,062
-534,379	-97,752	-0,039	-0,007
-533,364	71,046	-0,101	-0,077
-532,350	-112,882	0,139	-0,020
-531,335	50,498	0,051	0,036
-530,321	-26,638	0,014	0,006
-529,306	292,796	0,017	0,023
-528,291	-155,130	-0,143	-0,007
-527,277	254,011	0,072	-0,090
-526,262	-92,564	0,012	-0,003
-525,248	-148,122	-0,047	-0,003
-524,233	-101,702	0,070	0,012
-523,218	184,045	0,056	0,061
-522,204	-80,366	0,117	0,028
-521,189	-44,289	-0,172	-0,063
-520,175	-200,000	-0,005	-0,025
-519,160	44,479	-0,070	0,047
-518,145	800,000	-0,050	0,110
-517,131	-200,000	-0,008	0,027
-516,116	19,866	0,052	0,031
-515,102	55,711	-0,044	0,031
-514,087	72,258	-0,012	-0,009
-513,072	188,906	-0,014	0,015
-512,058	-200,000	-0,094	0,000
-511,043	-70,514	-0,060	0,016
-510,029	70,572	0,141	-0,107
-509,014	-200,000	-0,009	-0,036
-507,999	146,258	0,032	-0,031
-506,985	136,493	0,027	-0,025
-505,970	-200,000	-0,013	-0,206
-504,956	-200,000	-0,009	0,104
-503,941	128,030	0,065	-0,060
-502,926	-23,416	0,061	-0,027
-501,912	800,000	-0,064	0,172
-500,897	800,000	-0,017	-0,040
-499,883	-105,246	-0,131	0,022
-498,868	800,000	0,028	-0,071
-497,853	11,839	-0,065	0,036
-496,839	220,416	0,067	-0,079
-495,824	-124,510	-0,031	-0,004
-494,810	-200,000	0,036	0,118
-493,795	-126,551	0,124	-0,013
-492,781	168,676	-0,088	0,092
-491,766	800,000	-0,083	0,201
-490,751	29,449	-0,072	-0,045
-489,737	163,984	0,048	-0,050
-488,722	-159,824	0,189	-0,007
-487,708	-200,000	-0,009	-0,090
-486,693	-88,698	-0,109	-0,024
-485,678	-200,000	-0,012	-0,079
-484,664	-82,769	-0,105	-0,025
-483,649	92,144	-0,046	-0,038
-482,635	-200,000	0,009	-0,078
-481,620	10,334	0,101	-0,056
-480,605	-200,000	0,014	0,060
-479,591	61,855	0,114	0,083
-478,576	-200,000	0,011	0,056
-477,562	-200,000	-0,011	-0,062
-476,547	67,262	0,044	-0,033
-475,532	-200,000	0,015	-0,286
-474,518	12,336	0,123	-0,069
-473,503	-47,271	0,108	0,038
-472,489	-10,890	0,025	-0,012
-471,474	660,239	-0,037	0,071
-470,459	-111,992	-0,015	0,002
-469,445	223,255	0,025	-0,029
-468,430	-67,808	-0,094	-0,027
-467,416	159,091	0,026	-0,027
-466,401	-3,349	0,041	0,021
-465,386	276,706	0,092	0,120
-464,372	-118,109	-0,141	-0,018
-463,357	-118,800	-0,121	-0,015
-462,343	-87,252	0,017	0,004
-461,328	-200,000	-0,003	0,060
-460,313	800,000	-0,022	-0,050
-459,299	-200,000	-0,019	0,145
-458,284	-17,621	0,025	-0,011
-457,270	37,351	0,064	0,041
-456,255	134,512	-0,022	0,021
-455,241	249,355	-0,025	0,031
-454,226	64,490	-0,077	-0,056
-453,211	54,206	0,070	0,049
-452,197	-200,000	0,001	-0,131
-451,182	-91,991	-0,077	0,016
-450,168	-5,618	-0,070	0,035
-449,153	1,506	0,033	-0,017
-448,138	800,000	0,036	0,079
-447,124	-97,639	0,054	-0,010
-446,109	59,139	-0,092	0,066
-445,095	95,959	0,076	0,064
-444,080	118,743	0,031	0,028
-443,065	182,686	0,013	0,014
-442,051	-200,000	-0,012	0,097
-441,036	-127,872	0,161	-0,017
-440,022	405,994	-0,037	-0,057
-439,007	282,784	0,060	0,080
-437,992	324,602	0,067	0,093
-436,978	17,939	-0,035	0,020
-435,963	54,504	0,134	0,094
-434,949	-17,936	-0,034	0,016
-433,934	800,000	0,059	-0,131
-432,919	-200,000	-0,014	-0,099
-431,905	800,000	-0,028	-0,087
-430,890	171,939	0,090	0,094
-429,876	-200,000	0,044	0,209
-428,861	59,039	0,051	0,036
-427,846	435,446	-0,013	-0,021
-426,832	19,524	-0,042	-0,024
-425,817	121,297	-0,065	-0,059
-424,803	355,694	-0,016	0,024
-423,788	47,851	-0,050	-0,034
-422,773	-200,000	0,016	-0,080
-421,759	-200,000	0,006	-0,021
-420,744	800,000	-0,042	-0,099
-419,730	85,997	0,136	-0,109
-418,715	-200,000	-0,009	-0,122
-417,701	44,269	-0,104	-0,070
-416,686	-6,848	0,083	0,041
-415,671	800,000	-0,019	0,056
-414,657	-200,000	0,000	-0,064
-413,642	-22,881	-0,037	-0,016
-412,628	-200,000	-0,010	-0,081
-411,613	-123,234	-0,092	-0,011
-410,598	494,198	-0,074	-0,124
-409,584	114,788	-0,095	-0,085
-408,569	28,791	0,164	-0,101
-407,555	-102,168	0,068	0,012
-406,540	157,826	0,056	0,057
-405,525	800,000	-0,027	0,055
-404,511	654,297	-0,028	-0,053
-403,496	-73,991	-0,013	-0,003
-402,482	493,611	0,056	0,094
-401,467	445,641	-0,021	-0,034
-400,452	-11,940	0,121	0,058
-399,438	-33,945	-0,086	-0,034
-398,423	122,222	0,039	0,035
-397,409	800,000	-0,016	-0,049
-396,394	-64,339	-0,142	0,042
-395,379	800,000	0,047	-0,130
-394,365	-200,000	-0,018	0,080
-393,350	-102,042	0,068	0,012
-392,336	94,491	-0,046	0,038
-391,321	-200,000	0,015	0,078
-390,306	253,284	-0,053	-0,067
-389,292	-148,192	0,069	0,004
-388,277	290,645	-0,108	0,143
-387,263	-99,445	0,209	0,038
-386,248	800,000	0,019	0,045
-385,233	48,666	0,063	0,043
-384,219	-72,468	-0,066	-0,018
-383,204	-67,453	-0,042	-0,012
-382,190	-41,296	-0,109	0,041
-381,175	310,344	-0,039	-0,054
-380,160	75,187	0,039	-0,030
-379,146	-200,000	-0,005	0,019
-378,131	391,341	0,113	-0,171
-377,117	423,623	-0,073	0,115
-376,102	-94,184	0,007	0,001
-375,088	221,435	-0,096	-0,113
-374,073	29,960	-0,117	0,073
-373,058	-153,933	0,084	0,004
-372,044	800,000	0,012	-0,027
-371,029	76,726	0,032	0,025
-370,015	800,000	0,039	0,093
-369,000	142,691	0,072	-0,070
-367,985	221,306	-0,034	0,039
-366,971	-200,000	0,008	-0,045
-365,956	483,685	0,043	-0,072
-364,942	90,549	-0,048	-0,039
-363,927	323,284	-0,073	0,101
-362,912	-200,000	-0,005	-0,049
-361,898	-200,000	0,009	-0,137
-360,883	-109,018	0,059	0,009
-359,869	25,670	0,012	0,007
-358,854	-129,388	0,084	0,008
-357,839	72,408	0,045	0,034
-356,825	-200,000	-0,009	0,094
-355,810	322,484	0,027	0,037
-354,796	761,111	0,034	0,067
-353,781	-128,516	-0,023	0,002
-352,766	-21,815	-0,085	0,038
-351,752	212,730	-0,094	-0,108
-350,737	160,989	-0,039	0,040
-349,723	-200,000	-0,040	0,142
-348,708	178,591	0,028	0,030
-347,693	-137,763	-0,218	0,018
-346,679	564,863	0,036	-0,064
-345,664	-200,000	-0,016	-0,082
-344,650	-118,398	0,036	-0,005
-343,635	39,230	-0,040	0,026
-342,620	800,000	0,038	0,087
-341,606	800,000	0,036	0,076
-340,591	-52,919	0,052	0,017
-339,577	226,006	0,048	-0,056
-338,562	-200,000	0,003	0,027
-337,548	-32,150	-0,106	0,043
-336,533	116,333	-0,080	0,072
-335,518	17,565	0,125	0,072
-334,504	86,494	-0,066	0,053
-333,489	-58,952	-0,141	0,044
-332,475	120,786	-0,055	0,050
-331,460	-200,000	0,008	-0,051
-330,445	-157,408	-0,058	-0,002
-329,431	189,489	-0,017	-0,019
-328,416	-200,000	0,011	0,084
-327,402	785,510	0,025	0,049
-326,387	-200,000	-0,021	-0,116
-325,372	218,826	0,020	-0,023
-324,358	0,431	-0,089	-0,046
-323,343	-200,000	0,018	-0,104
-322,329	-100,213	0,110	0,020
-321,314	-122,218	-0,034	0,004
-320,299	-38,992	-0,057	-0,022
-319,285	800,000	0,063	-0,148
-318,270	419,352	0,026	-0,041
-317,256	38,960	-0,097	-0,063
-316,241	-45,517	0,080	-0,029
-315,226	-81,725	-0,046	-0,011
-314,212	-107,382	0,092	-0,015
-313,197	91,015	0,049	-0,040
-312,183	-112,497	0,048	0,007
-311,168	171,401	0,030	0,031
-310,153	1,891	0,088	-0,046
-309,139	355,980	0,100	-0,145
-308,124	-200,000	0,001	0,003
-307,110	48,279	0,091	0,062
-306,095	800,000	0,031	0,088
-305,080	513,997	-0,084	0,144
-304,066	300,559	-0,058	-0,078
-303,051	-200,000	0,028	-0,102
-302,037	114,391	0,070	-0,062
-301,022	329,528	-0,017	0,024
-300,008	-177,890	-0,114	0,002
-298,993	143,958	0,042	-0,040
-297,978	-200,000	0,013	-0,069
-296,964	42,316	-0,146	0,096
-295,949	129,230	-0,072	-0,067
-294,935	-200,000	0,000	0,027
-293,920	-7,699	0,036	0,017
-292,905	-31,754	0,061	0,025
-291,891	-121,876	-0,015	-0,002
-290,876	188,878	-0,124	0,135
-289,862	28,518	-0,083	0,051
-288,847	126,492	-0,080	-0,074
-287,832	-83,450	0,070	0,016
-286,818	-50,028	-0,086	-0,029
-285,803	-38,948	0,083	-0,031
-284,789	25,576	0,061	0,037
-283,774	-200,000	0,037	0,141
-282,759	-42,830	-0,020	-0,007
-281,745	417,519	-0,052	0,081
-280,730	-54,094	-0,047	-0,015
-279,716	-169,449	0,092	-0,002
-278,701	627,658	-0,060	0,110
-277,686	-25,387	0,123	-0,052
-276,672	2,913	0,096	0,051
-275,657	-200,000	-0,031	0,186
-274,643	-77,668	0,057	-0,014
-273,628	4,462	0,129	0,068
-272,613	178,886	-0,074	-0,078
-271,599	-200,000	-0,000	-0,009
-270,584	-93,748	-0,045	0,009
-269,570	-200,000	0,011	-0,073
-268,555	-24,101	0,114	-0,049
-267,540	-17,732	-0,098	-0,044
-266,526	625,910	0,017	0,032
-265,511	657,445	0,023	0,043
-264,497	49,709	0,042	0,029
-263,482	-45,619	0,096	-0,034
-262,467	-80,874	0,059	-0,014
-261,453	-200,000	0,011	0,075
-260,438	48,443	0,033	0,023
-259,424	161,893	0,058	-0,059
-258,409	-115,945	-0,105	-0,014
-257,395	94,443	0,037	-0,031
-256,380	800,000	-0,021	0,051
-255,365	704,782	-0,009	-0,017
-254,351	593,619	-0,035	0,063
-253,336	191,679	0,037	-0,040
-252,322	-105,970	-0,018	-0,003
-251,307	800,000	-0,016	-0,041
-250,292	83,258	-0,092	0,073
-249,278	-157,338	0,098	0,004
-248,263	-200,000	0,002	-0,084
-247,249	690,819	0,042	-0,080
-246,234	-57,873	0,021	-0,007
-245,219	61,856	-0,047	-0,034
-244,205	-28,027	-0,145	-0,060
-243,190	-200,000	0,000	0,059
-242,176	642,174	0,043	0,081
-241,161	199,323	-0,064	0,072
-240,146	14,256	0,101	0,057
-239,132	-127,330	-0,047	-0,005
-238,117	-182,755	-0,097	-0,001
-237,103	152,557	-0,038	-0,037
-236,088	-200,000	0,008	0,065
-235,073	-200,000	0,009	0,084
-234,059	589,321	0,032	-0,057
-233,044	-62,490	-0,041	-0,012
-232,030	61,891	-0,106	-0,076
-231,015	113,296	-0,031	-0,027
-230,000	53,303	0,101	-0,070
-228,986	-128,232	0,060	0,006
-227,971	-92,678	0,069	0,014
-226,957	800,000	-0,029	0,074
-225,942	-117,201	0,131	0,017
-224,927	323,143	0,040	0,056
-223,913	-200,000	-0,028	0,129
-222,898	107,159	-0,030	0,026
-221,884	-35,986	-0,035	-0,014
-220,869	-20,959	-0,090	0,040
-219,855	-200,000	0,012	0,109
-218,840	-200,000	-0,029	-0,099
-217,825	550,320	-0,021	0,036
-216,811	800,000	-0,012	0,027
-215,796	-200,000	0,021	-0,100
-214,782	-200,000	0,011	-0,055
-213,767	800,000	0,018	0,047
-212,752	235,951	0,051	0,062
-211,738	800,000	-0,014	0,029
-210,723	47,145	-0,085	0,057
-209,709	-200,000	0,004	-0,015
-208,694	800,000	-0,045	-0,099
-207,679	-200,000	0,007	-0,080
-206,665	44,705	0,127	0,085
-205,650	417,423	0,051	-0,080
-204,636	188,592	-0,043	0,047
-203,621	-200,000	0,001	-0,012
-202,606	-149,472	-0,069	0,004
-201,592	800,000	0,077	-0,161
-200,577	-200,000	0,021	-0,136
-199,563	50,466	-0,065	0,045
-198,548	800,000	0,030	0,075
-197,533	450,555	0,024	0,038
-196,519	-200,000	-0,001	0,003
-195,504	-154,044	0,023	-0,001
-194,490	800,000	0,054	-0,113
-193,475	132,528	0,084	-0,079
-192,460	-76,504	-0,058	-0,015
-191,446	-200,000	0,015	0,106
-190,431	-69,343	-0,026	-0,007
-189,417	160,728	-0,054	0,054
-188,402	-0,880	-0,075	-0,038
-187,387	572,213	0,005	-0,009
-186,373	-111,005	0,060	0,009
-185,358	-200,000	-0,027	-0,104
-184,344	800,000	-0,004	-0,012
-183,329	45,421	0,101	-0,068
-182,315	230,251	-0,033	-0,039
-181,300	800,000	-0,030	0,077
-180,285	314,493	0,089	0,122
-179,271	191,815	-0,027	0,029
-178,256	186,079	0,070	0,075
-177,242	-200,000	0,005	0,023
-176,227	594,803	-0,080	0,143
-175,212	412,676	0,048	-0,073
-174,198	86,117	0,148	0,117
-173,183	-190,009	0,007	0,000
-172,169	67,858	0,031	0,023
-171,154	107,665	-0,055	0,047
-170,139	-200,000	0,045	-0,190
-169,125	-200,000	-0,002	-0,013
-168,110	-200,000	0,015	0,077
-167,096	254,773	-0,031	0,039
-166,081	800,000	-0,012	0,034
-165,066	-132,510	-0,042	0,004
-164,052	279,269	-0,061	-0,079
-163,037	248,920	-0,087	-0,107
-162,023	101,010	0,051	0,043
-161,008	-200,000	0,033	0,142
-159,993	-200,000	-0,008	0,034
-158,979	-200,000	-0,024	-0,097
-157,964	42,256	0,079	-0,052
-156,950	-200,000	0,015	-0,072
-155,935	800,000	0,063	0,174
-154,920	800,000	0,039	0,113
-153,906	522,559	-0,085	0,145
-152,891	258,515	0,076	-0,095
-151,877	-153,421	0,035	0,002
-150,862	548,894	-0,078	-0,135
-149,847	800,000	0,036	-0,087
-148,833	-111,544	-0,035	-0,005
-147,818	-52,012	0,064	0,021
-146,804	-200,000	0,003	0,042
-145,789	198,945	-0,014	0,015
-144,775	193,015	-0,062	0,068
-143,760	423,939	-0,073	-0,114
-142,745	-140,096	0,084	0,006
-141,731	507,427	0,037	0,063
-140,716	-11,950	0,069	0,033
-139,702	19,320	0,129	0,075
-138,687	405,098	0,048	0,073
-137,672	-200,000	0,027	0,096
-136,658	-128,900	-0,132	0,013
-135,643	-200,000	0,010	-0,067
-134,629	-200,000	-0,043	0,142
-133,614	25,739	0,005	0,003
-132,599	800,000	0,023	0,070
-131,585	-200,000	0,008	-0,030
-130,570	-56,015	-0,125	-0,040
-129,556	800,000	0,067	-0,147
-128,541	-2,578	0,082	0,041
-127,526	296,266	0,059	-0,078
-126,512	412,062	0,019	-0,029
-125,497	44,547	-0,074	0,049
-124,483	789,890	-0,050	0,100
-123,468	800,000	0,025	0,067
-122,453	-145,788	0,103	-0,007
-121,439	29,389	-0,046	-0,028
-120,424	-75,894	-0,096	0,024
-119,410	800,000	0,027	0,083
-118,395	302,221	-0,030	0,040
