DTS Sentinel unit serial number:	SN410029Multiplexer serial number:	ORYXHardware model number:	OX2-SRSoftware version number:	ORYX F/W v4,00 Oryx Data Collector v3.7.2.0data status	okinstallation	B4 Nyhavnadifferential loss correction	single-endedforward channel	channel 2reverse channel	N/Adate	2023/12/19time	01:20:13forward acquisition time	300,00reverse acquisition time	0,00gamma	499,1914k internal	0,3123k external	0,3123temperature offset calibration	1,0000default loss term (dB/km)	0,3820temperature slope calibration	1,0000multiplexer offset coefficient	1,0000multiplexer slope coefficient	1,0000fibre end	0,00T internal ref (°C)	21,73T ext. ref 1 (°C)	5,88T ext. ref 2 (°C)	5,85length (m)	temperature (°C)	Stokes	anti-Stokes-744,400	-200,000	-0,017	-0,093
-743,385	-62,157	-0,188	0,058
-742,371	800,000	0,068	0,209
-741,356	137,218	-0,257	0,251
-740,342	-91,849	0,145	0,030
-739,327	-71,313	-0,253	0,070
-738,312	354,995	0,020	-0,030
-737,298	-117,726	-0,285	0,038
-736,283	800,000	0,029	-0,065
-735,269	-13,149	-0,219	0,106
-734,254	81,445	0,040	-0,033
-733,239	-108,484	-0,460	0,073
-732,225	-20,114	0,172	0,079
-731,210	-116,896	-0,070	0,009
-730,196	171,899	-0,054	-0,058
-729,181	-117,583	-0,101	-0,013
-728,167	800,000	-0,042	-0,134
-727,152	800,000	0,045	0,130
-726,137	54,793	-0,100	-0,071
-725,123	640,145	-0,048	-0,090
-724,108	800,000	-0,024	0,059
-723,094	-122,277	-0,094	-0,011
-722,079	-35,416	-0,140	-0,056
-721,064	-174,274	0,071	0,001
-720,050	-200,000	0,008	-0,044
-719,035	-34,756	-0,065	-0,026
-718,021	273,013	0,032	-0,042
-717,006	-77,729	-0,137	-0,035
-715,991	124,726	0,094	-0,088
-714,977	101,893	-0,081	-0,070
-713,962	43,635	0,069	0,047
-712,948	-111,489	0,138	0,021
-711,933	-35,505	0,050	-0,020
-710,918	-72,328	0,084	-0,023
-709,904	68,476	-0,174	-0,133
-708,889	-200,000	-0,026	-0,178
-707,875	-37,087	-0,063	-0,025
-706,860	709,421	0,055	-0,108
-705,845	800,000	-0,038	0,103
-704,831	80,421	-0,036	0,029
-703,816	101,729	-0,087	-0,075
-702,802	-115,185	0,066	0,009
-701,787	-200,000	0,012	-0,059
-700,772	-200,000	-0,014	0,126
-699,758	39,291	0,130	0,086
-698,743	-104,188	0,100	0,017
-697,729	135,252	0,083	0,080
-696,714	-200,000	-0,010	0,056
-695,699	-155,144	-0,064	0,003
-694,685	-8,928	-0,094	-0,047
-693,670	-63,192	-0,069	-0,021
-692,656	675,413	0,016	0,031
-691,641	-98,969	-0,103	-0,019
-690,627	-200,000	-0,012	0,111
-689,612	33,178	-0,070	-0,045
-688,597	163,710	-0,161	-0,169
-687,583	-84,525	-0,119	-0,028
-686,568	-200,000	0,009	0,041
-685,554	-12,173	-0,166	-0,081
-684,539	112,164	-0,042	-0,037
-683,524	356,898	-0,057	0,084
-682,510	-200,000	-0,004	-0,037
-681,495	407,759	0,025	0,040
-680,481	-49,526	0,032	0,011
-679,466	-200,000	-0,009	-0,031
-678,451	-46,152	-0,151	-0,055
-677,437	424,067	-0,031	0,050
-676,422	-200,000	-0,008	-0,108
-675,408	-33,761	-0,123	-0,050
-674,393	-164,850	0,123	-0,004
-673,378	-6,493	-0,052	-0,026
-672,364	508,584	-0,027	-0,046
-671,349	64,003	-0,023	-0,017
-670,335	-200,000	-0,024	0,098
-669,320	-72,063	0,024	-0,007
-668,305	-200,000	-0,028	0,106
-667,291	-200,000	0,018	0,069
-666,276	-177,964	-0,051	-0,001
-665,262	-145,646	-0,045	0,003
-664,247	-39,591	-0,064	-0,025
-663,232	800,000	-0,027	-0,082
-662,218	234,158	0,042	0,051
-661,203	-200,000	0,004	0,018
-660,189	248,875	0,076	-0,096
-659,174	164,110	0,116	-0,121
-658,159	170,284	-0,089	0,094
-657,145	183,474	-0,019	-0,021
-656,130	43,864	0,054	0,037
-655,116	-159,363	0,143	-0,006
-654,101	-56,420	0,073	0,024
-653,086	60,713	-0,022	-0,016
-652,072	94,342	-0,022	-0,019
-651,057	707,597	-0,056	0,111
-650,043	800,000	0,016	0,039
-649,028	422,816	0,011	0,018
-648,014	800,000	-0,040	0,120
-646,999	-200,000	0,004	-0,148
-645,984	-200,000	-0,014	-0,091
-644,970	-103,861	-0,080	0,014
-643,955	3,742	0,066	-0,036
-642,941	-73,203	-0,261	-0,070
-641,926	-200,000	0,026	-0,160
-640,911	-200,000	0,002	0,082
-639,897	26,635	0,102	0,063
-638,882	-200,000	0,039	0,162
-637,868	-200,000	-0,027	-0,127
-636,853	-200,000	-0,017	-0,073
-635,838	-67,096	0,047	0,014
-634,824	-113,471	-0,128	0,018
-633,809	-91,250	0,125	-0,026
-632,795	-65,923	0,055	-0,016
-631,780	800,000	0,044	0,104
-630,765	615,892	-0,041	-0,076
-629,751	800,000	0,041	-0,118
-628,736	143,628	-0,082	-0,081
-627,722	63,993	-0,006	-0,004
-626,707	-200,000	0,021	-0,071
-625,692	56,253	0,103	0,074
-624,678	685,061	0,039	0,076
-623,663	-185,296	-0,086	0,001
-622,649	-28,581	-0,120	0,051
-621,634	800,000	-0,006	0,015
-620,619	800,000	-0,034	-0,070
-619,605	756,288	0,048	-0,098
-618,590	76,408	0,068	-0,054
-617,576	800,000	0,036	0,081
-616,561	-200,000	-0,004	-0,089
-615,546	27,770	0,077	0,048
-614,532	-43,260	-0,082	0,031
-613,517	393,689	-0,061	0,094
-612,503	585,435	-0,048	0,088
-611,488	21,044	-0,055	-0,033
-610,474	-200,000	0,003	0,185
-609,459	-117,270	-0,066	0,009
-608,444	133,588	0,070	-0,067
-607,430	19,826	-0,086	-0,051
-606,415	92,444	-0,012	0,010
-605,401	90,318	-0,092	-0,076
-604,386	-97,245	-0,028	-0,005
-603,371	368,601	-0,025	-0,038
-602,357	312,869	0,072	0,100
-601,342	-179,977	0,083	0,001
-600,328	-200,000	0,026	-0,136
-599,313	214,309	-0,053	-0,062
-598,298	159,169	-0,065	-0,067
-597,284	74,163	0,114	0,089
-596,269	133,688	0,085	-0,082
-595,255	-41,070	-0,068	0,026
-594,240	-131,218	-0,055	0,005
-593,225	38,164	0,194	0,128
-592,211	-149,940	-0,105	0,006
-591,196	594,154	-0,021	-0,039
-590,182	-49,847	0,149	-0,052
-589,167	-200,000	0,010	0,058
-588,152	-58,757	-0,110	0,035
-587,138	114,089	-0,015	-0,014
-586,123	67,976	0,040	-0,030
-585,109	144,863	0,079	-0,078
-584,094	15,698	-0,135	-0,078
-583,079	98,662	0,021	0,018
-582,065	-31,926	-0,098	0,040
-581,050	-172,710	0,091	-0,002
-580,036	197,159	-0,052	0,059
-579,021	104,257	0,068	0,059
-578,006	-3,561	-0,094	0,048
-576,992	-110,943	-0,051	0,008
-575,977	-56,612	-0,037	-0,012
-574,963	-200,000	0,006	0,033
-573,948	38,228	-0,053	0,035
-572,934	-40,940	0,027	-0,010
-571,919	-105,129	0,020	0,003
-570,904	60,577	0,057	-0,042
-569,890	26,560	0,068	-0,042
-568,875	800,000	0,035	-0,076
-567,861	-200,000	0,004	-0,024
-566,846	800,000	-0,041	-0,094
-565,831	-134,674	-0,035	0,003
-564,817	800,000	0,016	-0,039
-563,802	-154,205	-0,072	-0,004
-562,788	800,000	0,018	0,050
-561,773	-58,330	0,125	-0,040
-560,758	214,518	-0,130	-0,152
-559,744	-159,319	0,109	0,004
-558,729	-95,625	-0,224	0,044
-557,715	-191,628	-0,058	-0,000
-556,700	-200,000	0,026	0,102
-555,685	-2,677	-0,066	-0,034
-554,671	128,951	0,092	-0,087
-553,656	12,653	0,067	-0,038
-552,642	-140,557	0,120	-0,009
-551,627	709,201	0,028	-0,055
-550,612	-135,371	-0,078	-0,007
-549,598	-12,507	-0,060	0,029
-548,583	142,729	-0,039	-0,039
-547,569	800,000	0,006	-0,013
-546,554	192,977	0,048	0,054
-545,539	800,000	0,045	-0,101
-544,525	-158,124	0,069	-0,003
-543,510	-38,094	0,079	-0,031
-542,496	800,000	-0,051	-0,112
-541,481	-200,000	0,036	-0,135
-540,466	-200,000	-0,012	0,050
-539,452	182,889	0,032	-0,036
-538,437	-200,000	-0,028	0,112
-537,423	663,184	0,099	-0,189
-536,408	800,000	-0,018	-0,038
-535,393	479,522	-0,022	-0,037
-534,379	583,855	-0,054	-0,098
-533,364	196,815	0,096	0,108
-532,350	800,000	0,014	0,034
-531,335	760,107	-0,022	-0,044
-530,321	-17,277	-0,069	-0,032
-529,306	676,866	-0,051	0,098
-528,291	-0,878	-0,100	-0,052
-527,277	72,425	-0,022	-0,017
-526,262	-200,000	0,007	-0,085
-525,248	51,551	0,135	-0,095
-524,233	393,686	-0,016	0,025
-523,218	800,000	-0,026	0,079
-522,204	416,351	0,084	0,133
-521,189	574,878	-0,006	0,011
-520,175	466,715	-0,083	-0,139
-519,160	-145,760	-0,042	0,003
-518,145	-74,939	0,129	0,034
-517,131	-24,328	0,064	-0,028
-516,116	800,000	0,050	-0,120
-515,102	272,686	-0,070	0,091
-514,087	-22,669	-0,068	0,030
-513,072	150,060	-0,031	-0,031
-512,058	-70,398	-0,077	-0,022
-511,043	-73,461	0,050	0,013
-510,029	-133,063	-0,020	0,002
-509,014	-200,000	0,042	0,275
-507,999	-63,073	-0,102	0,031
-506,985	800,000	-0,055	-0,150
-505,970	800,000	-0,024	-0,056
-504,956	185,275	-0,125	0,137
-503,941	116,621	0,073	0,066
-502,926	800,000	0,024	0,074
-501,912	-200,000	0,000	0,017
-500,897	3,179	0,048	0,026
-499,883	132,619	-0,030	0,029
-498,868	36,190	0,028	0,018
-497,853	48,727	0,035	0,024
-496,839	90,909	-0,088	0,073
-495,824	165,919	0,111	0,116
-494,810	-39,170	0,068	0,026
-493,795	-10,375	-0,039	-0,019
-492,781	800,000	0,040	-0,121
-491,766	-197,055	-0,121	-0,001
-490,751	353,826	-0,153	-0,226
-489,737	609,414	0,102	-0,188
-488,722	800,000	-0,064	0,172
-487,708	-117,713	-0,071	-0,009
-486,693	-16,563	0,115	-0,054
-485,678	-172,651	-0,075	0,002
-484,664	-200,000	0,018	0,096
-483,649	-44,224	-0,055	-0,020
-482,635	15,840	0,099	0,057
-481,620	-168,885	-0,151	0,004
-480,605	101,174	-0,088	0,076
-479,591	289,552	-0,021	0,028
-478,576	-200,000	0,026	-0,136
-477,562	-66,493	-0,058	-0,017
-476,547	646,614	-0,056	-0,105
-475,532	-45,111	0,101	-0,037
-474,518	104,674	-0,075	-0,065
-473,503	800,000	-0,039	0,117
-472,489	63,131	-0,139	0,102
-471,474	800,000	-0,036	0,099
-470,459	-200,000	-0,022	0,108
-469,445	800,000	-0,050	0,140
-468,430	-113,903	0,037	0,005
-467,416	-189,435	-0,037	0,000
-466,401	-62,935	-0,090	0,027
-465,386	-5,849	0,069	0,035
-464,372	2,088	-0,097	-0,052
-463,357	-200,000	-0,088	0,000
-462,343	143,930	-0,067	-0,066
-461,328	-168,431	-0,132	0,004
-460,313	-77,163	-0,080	0,020
-459,299	800,000	-0,005	0,012
-458,284	-61,144	0,112	0,034
-457,270	286,589	-0,079	-0,106
-456,255	800,000	0,029	-0,069
-455,241	-200,000	-0,009	0,118
-454,226	-200,000	0,007	-0,026
-453,211	-74,111	-0,053	-0,014
-452,197	-200,000	0,030	0,156
-451,182	-200,000	-0,023	0,108
-450,168	-200,000	0,012	0,135
-449,153	314,633	0,022	0,030
-448,138	62,497	-0,093	-0,068
-447,124	-92,080	-0,148	0,031
-446,109	-115,340	0,023	-0,003
-445,095	-200,000	0,002	-0,062
-444,080	77,101	0,125	-0,098
-443,065	16,889	0,010	-0,006
-442,051	438,316	-0,034	-0,055
-441,036	10,824	-0,107	-0,060
-440,022	328,490	0,036	0,051
-439,007	788,662	0,005	-0,010
-437,992	800,000	-0,051	0,157
-436,978	107,108	0,028	0,025
-435,963	-200,000	-0,001	-0,038
-434,949	-81,981	-0,059	-0,014
-433,934	59,411	-0,076	-0,055
-432,919	-200,000	-0,003	-0,070
-431,905	170,126	-0,012	0,013
-430,890	-108,321	0,073	-0,011
-429,876	273,641	0,063	0,083
-428,861	9,475	0,111	0,062
-427,846	-200,000	0,021	-0,075
-426,832	-200,000	-0,004	0,029
-425,817	148,539	-0,020	0,020
-424,803	-36,767	0,204	0,080
-423,788	323,755	0,065	0,091
-422,773	-106,644	-0,152	-0,025
-421,759	98,699	0,056	0,047
-420,744	15,985	0,120	0,069
-419,730	-52,398	-0,090	0,031
-418,715	-113,334	-0,104	-0,015
-417,701	800,000	0,040	-0,096
-416,686	42,857	0,086	-0,058
-415,671	179,420	-0,099	-0,107
-414,657	-95,278	0,080	0,016
-413,642	236,426	0,076	-0,092
-412,628	466,214	0,010	0,016
-411,613	-8,808	0,021	-0,010
-410,598	-200,000	-0,045	-0,159
-409,584	81,170	0,065	0,052
-408,569	-109,098	-0,020	-0,003
-407,555	-181,083	0,091	0,001
-406,540	404,758	0,052	0,081
-405,525	-200,000	0,006	-0,137
-404,511	-200,000	-0,021	0,080
-403,496	80,388	0,060	0,047
-402,482	800,000	0,031	0,098
-401,467	-200,000	-0,024	0,199
-400,452	671,654	0,084	0,162
-399,438	-200,000	0,016	-0,122
-398,423	800,000	-0,041	-0,091
-397,409	586,564	0,069	-0,125
-396,394	724,413	-0,052	-0,103
-395,379	-200,000	-0,013	-0,089
-394,365	800,000	-0,034	0,072
-393,350	44,177	-0,100	-0,067
-392,336	-48,241	0,153	0,054
-391,321	-18,216	-0,020	0,009
-390,306	167,813	-0,087	0,092
-389,292	84,733	0,040	-0,032
-388,277	800,000	-0,067	-0,196
-387,263	-123,551	-0,212	-0,024
-386,248	-200,000	-0,026	0,150
-385,233	-200,000	0,004	0,085
-384,219	-158,189	0,116	-0,005
-383,204	-200,000	-0,046	-0,199
-382,190	-200,000	-0,012	-0,071
-381,175	-200,000	-0,012	0,046
-380,160	-200,000	0,021	0,087
-379,146	10,561	0,108	0,060
-378,131	188,619	-0,037	-0,041
-377,117	-200,000	0,017	0,065
-376,102	-200,000	-0,039	0,148
-375,088	-200,000	-0,016	-0,059
-374,073	-200,000	-0,007	-0,043
-373,058	2,815	0,152	0,081
-372,044	-9,966	-0,124	0,061
-371,029	249,443	0,053	0,066
-370,015	800,000	-0,036	-0,102
-369,000	147,680	0,126	-0,124
-367,985	264,336	-0,071	-0,091
-366,971	-33,819	-0,054	-0,022
-365,956	-108,088	-0,030	0,005
-364,942	-22,621	0,065	0,029
-363,927	-20,191	0,122	0,055
-362,912	-10,191	-0,020	-0,010
-361,898	-47,001	0,121	-0,043
-360,883	-105,989	-0,085	0,014
-359,869	294,231	-0,054	0,073
-358,854	329,781	0,046	0,065
-357,839	267,018	0,027	0,034
-356,825	-200,000	-0,002	0,035
-355,810	231,258	-0,061	0,073
-354,796	-200,000	-0,013	0,057
-353,781	28,844	0,023	0,014
-352,766	547,618	-0,028	-0,050
-351,752	-26,528	0,105	0,045
-350,737	800,000	-0,025	0,077
-349,723	189,387	-0,048	-0,053
-348,708	17,063	0,020	0,011
-347,693	73,527	0,049	-0,037
-346,679	710,690	0,053	-0,103
-345,664	-200,000	0,020	-0,089
-344,650	27,652	0,078	0,048
-343,635	-200,000	-0,022	0,076
-342,620	-188,859	-0,014	0,000
-341,606	21,538	0,092	0,055
-340,591	9,049	0,143	0,079
-339,577	-200,000	0,019	0,091
-338,562	639,763	0,059	0,110
-337,548	37,689	0,061	-0,040
-336,533	-49,719	0,015	-0,005
-335,518	800,000	-0,038	0,089
-334,504	471,626	0,023	-0,038
-333,489	-200,000	0,001	0,109
-332,475	800,000	0,066	-0,139
-331,460	800,000	-0,055	0,133
-330,445	800,000	-0,011	-0,027
-329,431	91,540	-0,053	-0,044
-328,416	800,000	0,074	0,169
-327,402	-200,000	-0,007	0,073
-326,387	199,397	-0,033	-0,037
-325,372	142,216	0,076	-0,074
-324,358	800,000	-0,039	-0,122
-323,343	-200,000	0,015	-0,131
-322,329	-65,666	0,047	0,014
-321,314	-30,795	0,178	0,073
-320,299	70,061	-0,005	-0,004
-319,285	246,781	-0,098	0,121
-318,270	-28,120	-0,003	0,001
-317,256	-200,000	0,027	-0,089
-316,241	279,018	-0,028	0,037
-315,226	-84,187	0,060	0,014
-314,212	3,336	0,129	-0,069
-313,197	-200,000	0,013	-0,057
-312,183	800,000	-0,018	-0,053
-311,168	-200,000	0,006	-0,023
-310,153	-198,450	0,076	-0,000
-309,139	-200,000	0,002	-0,035
-308,124	205,831	0,051	-0,058
-307,110	-73,839	-0,042	-0,011
-306,095	157,551	0,028	-0,028
-305,080	719,758	-0,041	0,081
-304,066	110,584	-0,059	0,052
-303,051	-47,666	0,087	-0,031
-302,037	121,920	-0,076	-0,069
-301,022	385,531	0,077	-0,117
-300,008	-183,925	-0,118	0,001
-298,993	-116,640	0,074	0,010
-297,978	-138,813	-0,061	0,005
-296,964	-200,000	0,004	-0,036
-295,949	160,809	0,060	0,062
-294,935	-74,010	0,108	0,028
-293,920	233,412	0,043	0,052
-292,905	-87,494	0,142	0,031
-291,891	-97,066	-0,052	0,010
-290,876	800,000	0,014	-0,043
-289,862	800,000	0,018	-0,039
-288,847	255,676	-0,046	-0,058
-287,832	800,000	0,044	0,101
-286,818	361,958	-0,061	-0,090
-285,803	101,279	0,024	0,020
-284,789	507,925	0,077	0,131
-283,774	469,028	-0,036	0,060
-282,759	-200,000	-0,009	-0,098
-281,745	125,940	0,136	0,125
-280,730	-200,000	-0,034	-0,113
-279,716	-200,000	0,064	0,000
-278,701	-200,000	0,011	0,124
-277,686	-200,000	-0,013	0,041
-276,672	800,000	0,048	-0,114
-275,657	-99,688	0,100	0,018
-274,643	331,501	-0,016	-0,023
-273,628	-140,608	-0,073	-0,005
-272,613	-200,000	-0,016	0,064
-271,599	108,541	0,122	-0,107
-270,584	269,101	0,053	-0,068
-269,570	102,612	-0,139	0,119
-268,555	-0,631	0,064	-0,033
-267,540	-79,788	0,109	-0,027
-266,526	-200,000	0,014	0,141
-265,511	-191,581	-0,150	-0,001
-264,497	272,030	-0,047	0,061
-263,482	-85,650	0,082	-0,018
-262,467	-64,748	0,159	-0,047
-261,453	-200,000	-0,001	0,026
-260,438	-75,404	0,073	0,019
-259,424	-112,395	-0,083	0,012
-258,409	208,580	0,116	-0,133
-257,395	-12,718	-0,144	0,068
-256,380	45,088	0,106	-0,071
-255,365	12,771	0,015	-0,009
-254,351	41,468	0,024	0,016
-253,336	-200,000	0,003	-0,059
-252,322	12,838	0,045	-0,026
-251,307	56,193	-0,073	-0,052
-250,292	4,546	-0,085	-0,046
-249,278	257,784	0,035	0,044
-248,263	-113,627	0,044	-0,006
-247,249	224,386	0,023	-0,027
-246,234	-200,000	0,036	-0,117
-245,219	75,420	0,082	-0,064
-244,205	59,673	0,134	-0,097
-243,190	-105,599	-0,063	0,010
-242,176	-21,052	-0,084	-0,037
-241,161	-200,000	-0,022	0,109
-240,146	19,946	0,106	-0,062
-239,132	-147,180	0,014	0,001
-238,117	-0,205	0,049	-0,025
-237,103	-200,000	-0,002	-0,007
-236,088	-99,251	-0,104	0,019
-235,073	344,924	0,045	-0,065
-234,059	-200,000	0,011	0,084
-233,044	-108,248	-0,090	-0,014
-232,030	-189,339	0,054	-0,000
-231,015	-139,852	-0,137	-0,010
-230,000	-200,000	-0,005	-0,166
-228,986	63,798	0,079	-0,058
-227,971	-200,000	0,044	0,155
-226,957	-114,069	-0,073	0,010
-225,942	-200,000	-0,006	0,084
-224,927	-200,000	-0,009	0,154
-223,913	121,245	-0,016	-0,014
-222,898	-161,476	0,220	0,008
-221,884	-200,000	-0,006	0,042
-220,869	29,244	0,052	-0,032
-219,855	66,408	-0,019	0,014
-218,840	-82,208	0,046	-0,011
-217,825	-200,000	-0,017	0,089
-216,811	-89,673	0,038	-0,008
-215,796	-132,608	-0,068	-0,006
-214,782	-200,000	-0,022	0,103
-213,767	239,047	-0,087	0,105
-212,752	-200,000	0,002	-0,114
-211,738	179,533	-0,121	0,130
-210,723	111,992	0,120	-0,106
-209,709	-102,360	-0,110	-0,019
-208,694	39,253	-0,091	0,059
-207,679	31,681	-0,153	-0,096
-206,665	-70,411	0,112	0,031
-205,650	332,934	-0,013	-0,018
-204,636	133,873	0,082	0,078
-203,621	-43,986	-0,113	0,041
-202,606	-20,431	0,111	-0,050
-201,592	-51,716	-0,047	-0,016
-200,577	-83,701	-0,098	0,023
-199,563	-99,647	-0,060	-0,011
-198,548	681,238	-0,062	0,119
-197,533	-98,702	0,113	0,021
-196,519	-162,652	-0,128	-0,005
-195,504	-200,000	-0,008	-0,040
-194,490	190,958	0,060	0,066
-193,475	-51,723	-0,041	-0,014
-192,460	168,673	0,054	0,056
-191,446	-200,000	-0,003	-0,084
-190,431	153,790	0,057	0,057
-189,417	-200,000	0,021	-0,146
-188,402	-12,816	0,074	0,035
-187,387	114,801	0,051	0,045
-186,373	800,000	-0,034	-0,090
-185,358	-131,995	-0,124	0,012
-184,344	-200,000	-0,014	0,104
-183,329	175,647	0,056	-0,059
-182,315	10,093	-0,081	0,045
-181,300	800,000	0,054	0,126
-180,285	800,000	-0,051	-0,134
-179,271	151,882	-0,062	-0,062
-178,256	-44,800	-0,105	0,038
-177,242	-200,000	-0,029	0,103
-176,227	95,488	0,085	0,071
-175,212	-114,412	-0,089	0,012
-174,198	340,473	-0,079	-0,113
-173,183	49,449	-0,114	-0,078
-172,169	800,000	0,045	0,113
-171,154	-157,233	-0,028	-0,001
-170,139	800,000	0,041	0,127
-169,125	800,000	0,049	0,122
-168,110	-200,000	-0,004	-0,059
-167,096	800,000	0,038	-0,106
-166,081	-200,000	-0,000	-0,124
-165,066	249,536	-0,095	0,117
-164,052	0,372	-0,122	0,063
-163,037	-82,714	0,109	-0,026
-162,023	-179,173	0,110	0,002
-161,008	-31,062	-0,074	-0,030
-159,993	-168,565	-0,132	0,004
-158,979	-22,380	-0,104	0,046
-157,964	-200,000	-0,003	-0,086
-156,950	264,743	0,048	-0,061
-155,935	-105,534	0,060	0,010
-154,920	800,000	-0,022	0,070
-153,906	41,982	0,064	-0,043
-152,891	800,000	-0,046	-0,097
-151,877	208,144	-0,097	-0,111
-150,862	-58,831	-0,026	0,008
-149,847	-200,000	-0,053	-0,190
-148,833	800,000	0,037	-0,113
-147,818	-200,000	-0,020	0,080
-146,804	-56,880	-0,076	-0,024
-145,789	800,000	0,034	-0,097
-144,775	-21,401	0,045	-0,020
-143,760	290,823	-0,080	-0,106
-142,745	152,778	0,101	0,101
-141,731	2,951	-0,036	0,019
-140,716	-102,897	0,102	0,017
-139,702	395,032	-0,027	-0,041
-138,687	415,480	0,045	-0,071
-137,672	800,000	0,049	0,101
-136,658	-200,000	-0,117	-0,000
-135,643	-200,000	-0,025	-0,084
-134,629	51,474	-0,097	-0,067
-133,614	-200,000	-0,020	-0,068
-132,599	-200,000	0,001	-0,055
-131,585	-40,428	-0,035	0,013
-130,570	234,365	-0,066	0,079
-129,556	558,170	0,038	-0,067
-128,541	65,777	0,097	-0,071
-127,526	-48,895	0,108	-0,037
-126,512	282,289	-0,033	-0,043
-125,497	213,349	0,107	0,123
-124,483	-105,879	-0,035	-0,006
-123,468	592,905	0,044	0,079
-122,453	132,954	-0,095	0,090
-121,439	148,009	-0,037	-0,036
-120,424	-122,396	-0,076	0,009
