DTS Sentinel unit serial number:	SN410029Multiplexer serial number:	ORYXHardware model number:	OX2-SRSoftware version number:	ORYX F/W v4,00 Oryx Data Collector v3.7.2.0data status	okinstallation	B4 Nyhavnadifferential loss correction	single-endedforward channel	channel 2reverse channel	N/Adate	2023/12/15time	22:00:13forward acquisition time	300,00reverse acquisition time	0,00gamma	499,1914k internal	0,3132k external	0,3132temperature offset calibration	1,0000default loss term (dB/km)	0,3820temperature slope calibration	1,0000multiplexer offset coefficient	1,0000multiplexer slope coefficient	1,0000fibre end	0,00T internal ref (°C)	21,17T ext. ref 1 (°C)	6,57T ext. ref 2 (°C)	6,72length (m)	temperature (°C)	Stokes	anti-Stokes-744,400	-200,000	0,009	-0,147
-743,385	-24,928	-0,279	0,123
-742,371	800,000	0,007	0,017
-741,356	-46,025	-0,190	0,069
-740,342	-10,028	0,110	0,054
-739,327	-44,819	-0,201	-0,074
-738,312	-200,000	-0,001	-0,015
-737,298	-156,566	-0,236	0,011
-736,283	-13,590	-0,107	0,051
-735,269	-100,837	-0,227	0,041
-734,254	252,647	-0,023	0,029
-733,239	-82,835	-0,278	-0,066
-732,225	114,593	0,100	0,091
-731,210	800,000	0,017	0,043
-730,196	384,956	-0,107	-0,164
-729,181	80,282	-0,066	-0,053
-728,167	162,160	0,015	0,016
-727,152	800,000	-0,037	0,084
-726,137	-93,807	0,160	0,033
-725,123	-200,000	-0,002	0,013
-724,108	-91,875	-0,102	0,021
-723,094	-30,939	-0,055	-0,023
-722,079	493,353	0,054	-0,092
-721,064	285,405	-0,043	-0,058
-720,050	800,000	0,022	-0,051
-719,035	-108,693	0,131	-0,021
-718,021	-96,313	0,103	0,020
-717,006	-200,000	0,010	-0,096
-715,991	11,252	-0,113	-0,064
-714,977	17,056	-0,081	-0,047
-713,962	265,711	-0,088	-0,114
-712,948	53,429	0,053	0,038
-711,933	-15,490	-0,190	-0,090
-710,918	-200,000	-0,013	-0,187
-709,904	-200,000	-0,009	-0,037
-708,889	217,742	0,094	0,112
-707,875	-103,192	-0,045	-0,008
-706,860	36,808	0,030	0,020
-705,845	-200,000	0,006	-0,034
-704,831	-78,540	0,105	-0,026
-703,816	0,856	0,043	0,023
-702,802	-200,000	0,011	-0,048
-701,787	800,000	-0,021	-0,067
-700,772	-200,000	-0,014	0,063
-699,758	-200,000	0,002	-0,091
-698,743	281,311	0,050	0,067
-697,729	-200,000	-0,017	0,128
-696,714	-38,083	0,138	0,054
-695,699	-42,265	0,079	0,030
-694,685	-62,907	0,082	-0,025
-693,670	800,000	0,060	-0,141
-692,656	800,000	0,051	-0,144
-691,641	21,468	-0,079	0,047
-690,627	-200,000	-0,017	0,060
-689,612	800,000	0,010	-0,029
-688,597	-7,191	-0,087	-0,044
-687,583	-99,977	-0,199	0,036
-686,568	-60,560	-0,104	-0,033
-685,554	124,068	-0,079	-0,074
-684,539	-100,838	-0,058	-0,010
-683,524	-137,166	-0,070	-0,006
-682,510	230,917	0,019	0,023
-681,495	35,478	0,127	-0,082
-680,481	-13,081	-0,196	-0,094
-679,466	506,348	-0,055	-0,095
-678,451	32,975	-0,054	-0,035
-677,437	-200,000	0,020	-0,086
-676,422	-29,742	-0,115	-0,048
-675,408	146,832	0,039	0,038
-674,393	50,500	0,075	-0,053
-673,378	78,854	-0,086	-0,068
-672,364	-109,740	-0,119	0,018
-671,349	416,448	0,074	-0,117
-670,335	-24,117	-0,058	-0,026
-669,320	90,488	0,032	-0,026
-668,305	196,516	0,032	0,036
-667,291	611,710	-0,017	-0,032
-666,276	800,000	-0,028	-0,068
-665,262	-200,000	-0,008	-0,113
-664,247	-200,000	0,001	0,005
-663,232	-11,334	0,106	-0,051
-662,218	-200,000	0,019	0,130
-661,203	-200,000	0,010	0,140
-660,189	-127,698	-0,059	0,006
-659,174	-200,000	-0,023	-0,086
-658,159	161,610	-0,104	-0,108
-657,145	190,651	-0,141	-0,157
-656,130	81,214	0,058	-0,046
-655,116	-58,568	0,149	0,048
-654,101	184,665	0,088	-0,096
-653,086	800,000	0,049	-0,112
-652,072	39,255	0,087	-0,057
-651,057	-197,198	-0,068	-0,000
-650,043	-97,508	-0,031	0,006
-649,028	-146,705	0,026	-0,002
-648,014	142,326	0,046	0,045
-646,999	800,000	0,031	0,080
-645,984	58,863	0,048	-0,035
-644,970	-200,000	0,016	-0,128
-643,955	12,620	-0,146	-0,083
-642,941	49,506	-0,106	-0,074
-641,926	-200,000	-0,015	0,088
-640,911	6,447	0,029	0,016
-639,897	43,268	0,075	0,051
-638,882	800,000	-0,050	0,156
-637,868	-200,000	-0,005	-0,070
-636,853	-200,000	0,005	-0,139
-635,838	-200,000	-0,002	-0,082
-634,824	-200,000	0,008	-0,125
-633,809	-110,549	-0,073	-0,011
-632,795	-200,000	0,022	0,202
-631,780	800,000	0,036	0,090
-630,765	-200,000	-0,035	0,124
-629,751	99,605	-0,037	-0,032
-628,736	-200,000	0,002	-0,038
-627,722	-108,883	0,097	0,015
-626,707	800,000	0,029	0,077
-625,692	800,000	-0,027	0,066
-624,678	-32,944	-0,073	0,030
-623,663	239,040	-0,108	-0,133
-622,649	-200,000	-0,035	-0,138
-621,634	78,096	-0,078	0,061
-620,619	35,199	0,138	-0,090
-619,605	-200,000	-0,002	-0,115
-618,590	119,264	0,068	0,062
-617,576	-6,332	0,081	-0,041
-616,561	293,825	0,086	0,116
-615,546	800,000	0,029	0,084
-614,532	273,719	-0,059	-0,078
-613,517	-53,328	-0,154	-0,052
-612,503	-200,000	-0,012	-0,071
-611,488	-112,404	-0,144	0,021
-610,474	628,237	-0,023	0,044
-609,459	800,000	-0,047	0,114
-608,444	22,838	-0,137	0,083
-607,430	70,674	-0,055	-0,042
-606,415	-200,000	-0,032	0,106
-605,401	-200,000	0,009	0,138
-604,386	66,191	0,074	0,055
-603,371	-95,356	-0,090	-0,018
-602,357	-200,000	-0,003	0,061
-601,342	147,499	-0,066	0,066
-600,328	-62,654	-0,048	0,015
-599,313	800,000	-0,024	0,068
-598,298	90,601	0,101	-0,083
-597,284	339,635	0,056	0,081
-596,269	-85,558	0,066	0,015
-595,255	-42,992	0,102	-0,038
-594,240	-36,286	-0,168	0,067
-593,225	197,327	-0,018	-0,020
-592,211	32,615	-0,131	-0,083
-591,196	-200,000	0,020	0,081
-590,182	-41,312	-0,067	-0,025
-589,167	-90,147	0,078	0,017
-588,152	588,373	-0,055	-0,101
-587,138	458,158	0,032	-0,052
-586,123	-200,000	0,000	-0,039
-585,109	-200,000	-0,021	-0,092
-584,094	-59,791	-0,110	-0,034
-583,079	132,869	-0,070	-0,066
-582,065	162,206	0,092	-0,096
-581,050	288,502	0,070	0,094
-580,036	-112,311	-0,057	0,008
-579,021	-100,325	-0,117	0,021
-578,006	15,213	-0,087	0,050
-576,992	21,365	-0,062	-0,037
-575,977	14,789	0,133	0,077
-574,963	-115,915	0,096	-0,013
-573,948	30,564	-0,104	-0,066
-572,934	67,215	-0,110	-0,082
-571,919	800,000	0,050	-0,135
-570,904	76,110	-0,101	-0,079
-569,890	678,242	0,034	-0,065
-568,875	800,000	0,039	-0,112
-567,861	-200,000	0,025	0,109
-566,846	84,352	0,134	0,108
-565,831	142,776	0,052	0,051
-564,817	-88,295	-0,124	-0,027
-563,802	-98,543	-0,128	-0,024
-562,788	800,000	0,007	-0,017
-561,773	-136,275	0,118	0,010
-560,758	-4,634	0,093	-0,047
-559,744	49,514	0,075	0,052
-558,729	43,998	0,128	0,087
-557,715	800,000	0,032	0,075
-556,700	-117,207	0,051	-0,007
-555,685	-11,524	-0,168	-0,081
-554,671	800,000	-0,037	0,082
-553,656	-200,000	-0,019	0,073
-552,642	-200,000	-0,018	-0,109
-551,627	277,523	-0,054	-0,071
-550,612	-28,752	-0,124	-0,052
-549,598	-200,000	0,002	0,034
-548,583	-200,000	-0,005	-0,028
-547,569	-200,000	-0,001	0,087
-546,554	-200,000	0,002	0,090
-545,539	71,658	0,025	-0,019
-544,525	800,000	0,015	0,036
-543,510	291,099	0,023	-0,032
-542,496	166,140	-0,018	0,019
-541,481	-200,000	-0,007	-0,099
-540,466	438,945	0,042	-0,068
-539,452	213,363	-0,107	0,125
-538,437	602,367	0,062	-0,113
-537,423	-62,664	0,030	-0,009
-536,408	-49,551	-0,119	0,041
-535,393	-19,528	0,079	0,036
-534,379	-200,000	0,002	-0,093
-533,364	800,000	-0,043	0,096
-532,350	47,390	-0,112	0,077
-531,335	790,591	0,033	0,067
-530,321	-101,440	0,095	0,017
-529,306	-200,000	-0,008	0,026
-528,291	800,000	0,065	-0,186
-527,277	-200,000	0,016	-0,131
-526,262	139,508	-0,084	-0,081
-525,248	-200,000	-0,045	0,164
-524,233	-28,146	-0,078	0,033
-523,218	584,897	-0,025	0,045
-522,204	-41,651	-0,072	-0,027
-521,189	800,000	-0,011	0,025
-520,175	53,769	-0,033	-0,024
-519,160	-200,000	-0,022	-0,090
-518,145	-16,252	0,087	-0,040
-517,131	-15,699	0,168	0,079
-516,116	111,533	0,074	-0,066
-515,102	-200,000	0,014	-0,167
-514,087	193,642	0,025	0,028
-513,072	-200,000	-0,002	0,033
-512,058	800,000	0,028	0,080
-511,043	-200,000	-0,034	0,142
-510,029	-200,000	-0,020	0,071
-509,014	86,556	0,096	-0,078
-507,999	-34,787	-0,172	-0,069
-506,985	800,000	0,032	-0,101
-505,970	524,400	-0,089	-0,155
-504,956	186,912	-0,058	-0,064
-503,941	-133,199	0,098	0,009
-502,926	-144,576	0,082	0,006
-501,912	185,817	-0,025	-0,027
-500,897	368,564	0,013	-0,020
-499,883	-200,000	-0,002	0,120
-498,868	-69,440	0,069	-0,019
-497,853	-92,857	0,025	-0,005
-496,839	32,924	0,060	-0,038
-495,824	668,240	0,034	0,065
-494,810	12,925	0,133	-0,076
-493,795	178,810	0,087	0,094
-492,781	386,141	-0,059	-0,090
-491,766	644,980	0,019	-0,036
-490,751	-200,000	-0,007	-0,027
-489,737	139,475	-0,026	0,025
-488,722	16,486	-0,084	0,049
-487,708	-117,312	0,123	-0,016
-486,693	276,512	-0,012	-0,016
-485,678	235,589	-0,035	0,043
-484,664	-49,952	-0,100	-0,035
-483,649	-58,108	-0,074	0,024
-482,635	-200,000	-0,006	0,055
-481,620	800,000	0,025	0,066
-480,605	251,483	-0,014	0,018
-479,591	30,155	0,021	0,013
-478,576	95,030	0,072	0,060
-477,562	-86,093	0,058	-0,013
-476,547	445,226	-0,049	0,080
-475,532	-47,911	-0,052	0,018
-474,518	208,059	0,031	-0,036
-473,503	-200,000	0,024	0,123
-472,489	-43,521	0,166	-0,061
-471,474	231,557	0,034	-0,041
-470,459	-72,146	0,018	0,005
-469,445	106,394	0,075	-0,066
-468,430	45,868	-0,088	-0,060
-467,416	800,000	0,031	-0,074
-466,401	-200,000	-0,018	-0,100
-465,386	-200,000	-0,015	0,091
-464,372	138,829	-0,012	0,012
-463,357	-65,226	0,156	0,046
-462,343	62,790	0,116	-0,085
-461,328	-200,000	0,005	0,018
-460,313	346,240	-0,045	-0,065
-459,299	800,000	-0,057	0,147
-458,284	607,144	0,010	0,018
-457,270	-125,427	-0,060	0,007
-456,255	-200,000	-0,020	-0,069
-455,241	-54,109	-0,226	0,075
-454,226	-54,697	0,085	-0,028
-453,211	49,879	0,068	-0,047
-452,197	-200,000	-0,013	0,067
-451,182	-200,000	-0,021	0,242
-450,168	-200,000	-0,006	-0,110
-449,153	105,916	0,027	0,024
-448,138	-131,752	-0,084	0,008
-447,124	-18,222	0,052	-0,024
-446,109	-27,560	0,078	0,033
-445,095	203,527	0,046	-0,053
-444,080	800,000	0,045	-0,118
-443,065	204,288	-0,020	-0,023
-442,051	800,000	0,034	0,080
-441,036	-200,000	-0,008	-0,077
-440,022	-131,874	-0,075	-0,007
-439,007	-200,000	-0,031	-0,111
-437,992	800,000	-0,005	-0,015
-436,978	-0,613	-0,025	0,013
-435,963	664,378	0,041	0,077
-434,949	-138,592	-0,136	0,011
-433,934	-200,000	0,022	-0,310
-432,919	-31,275	-0,170	-0,070
-431,905	-41,989	-0,103	-0,039
-430,890	427,483	0,107	0,170
-429,876	-200,000	-0,027	0,088
-428,861	96,333	0,033	-0,027
-427,846	800,000	-0,037	0,078
-426,832	5,090	-0,186	0,100
-425,817	312,237	-0,041	0,057
-424,803	402,392	-0,010	-0,015
-423,788	441,113	-0,080	0,128
-422,773	800,000	0,038	0,108
-421,759	-162,904	0,034	0,001
-420,744	45,925	-0,035	-0,024
-419,730	-200,000	0,000	-0,029
-418,715	-60,116	-0,138	-0,043
-417,701	59,188	-0,067	-0,048
-416,686	64,893	0,043	-0,032
-415,671	-120,943	0,165	0,020
-414,657	-87,710	0,095	0,021
-413,642	-200,000	0,008	-0,056
-412,628	-102,577	0,086	0,015
-411,613	-200,000	-0,002	0,044
-410,598	96,930	-0,017	0,014
-409,584	13,979	0,010	-0,006
-408,569	-126,828	-0,078	-0,008
-407,555	159,809	0,062	0,064
-406,540	55,497	0,136	-0,097
-405,525	800,000	0,066	0,141
-404,511	30,179	-0,097	-0,061
-403,496	-200,000	-0,006	-0,120
-402,482	-63,918	0,147	-0,044
-401,467	216,308	-0,101	0,117
-400,452	36,262	0,146	0,094
-399,438	800,000	-0,053	0,169
-398,423	800,000	-0,022	-0,053
-397,409	-200,000	0,012	-0,059
-396,394	2,278	-0,151	-0,080
-395,379	159,192	-0,118	-0,120
-394,365	800,000	-0,012	0,034
-393,350	-200,000	0,004	0,138
-392,336	34,896	0,024	-0,015
-391,321	-200,000	0,010	-0,115
-390,306	800,000	0,060	-0,135
-389,292	-200,000	-0,021	0,091
-388,277	-200,000	-0,002	-0,020
-387,263	452,988	0,022	0,036
-386,248	-130,144	0,120	0,012
-385,233	29,284	0,155	0,096
-384,219	57,731	0,062	0,044
-383,204	190,495	-0,003	-0,004
-382,190	501,381	-0,009	-0,016
-381,175	62,158	0,049	0,036
-380,160	800,000	0,027	0,084
-379,146	429,950	0,004	0,006
-378,131	377,845	0,071	0,107
-377,117	156,874	0,096	-0,097
-376,102	139,591	-0,024	-0,024
-375,088	800,000	0,024	0,051
-374,073	350,278	-0,048	0,070
-373,058	555,224	-0,036	0,065
-372,044	-109,013	-0,024	-0,004
-371,029	-107,052	-0,062	-0,010
-370,015	-191,521	0,109	0,001
-369,000	194,214	-0,040	-0,044
-367,985	21,673	0,095	0,056
-366,971	-73,417	0,130	-0,035
-365,956	12,866	0,049	-0,028
-364,942	-169,089	0,098	0,003
-363,927	-5,588	-0,093	0,047
-362,912	596,473	0,028	0,051
-361,898	-200,000	0,019	0,072
-360,883	150,359	-0,100	-0,099
-359,869	-200,000	0,011	0,064
-358,854	514,438	-0,067	-0,116
-357,839	800,000	0,056	-0,149
-356,825	800,000	-0,014	-0,036
-355,810	200,749	0,004	0,005
-354,796	49,079	-0,046	0,032
-353,781	136,209	-0,037	0,035
-352,766	11,158	0,087	0,049
-351,752	800,000	0,056	0,135
-350,737	800,000	0,065	0,161
-349,723	92,571	-0,082	0,068
-348,708	14,214	-0,091	0,052
-347,693	800,000	-0,015	0,038
-346,679	-95,845	-0,090	-0,017
-345,664	-88,822	-0,015	0,003
-344,650	800,000	-0,042	0,124
-343,635	238,149	-0,087	0,106
-342,620	800,000	-0,018	-0,043
-341,606	-97,964	-0,092	0,017
-340,591	12,276	-0,011	0,006
-339,577	379,240	-0,089	-0,134
-338,562	299,334	-0,121	0,164
-337,548	-28,515	0,058	0,025
-336,533	77,276	-0,018	0,014
-335,518	-200,000	-0,017	0,101
-334,504	8,850	-0,041	0,023
-333,489	-200,000	-0,011	-0,036
-332,475	183,013	-0,068	0,074
-331,460	132,679	0,059	-0,055
-330,445	76,251	-0,164	-0,127
-329,431	-200,000	0,011	0,049
-328,416	-200,000	0,031	0,142
-327,402	572,999	0,032	-0,057
-326,387	234,559	-0,113	-0,136
-325,372	396,820	0,039	-0,060
-324,358	-144,672	-0,046	0,003
-323,343	-200,000	-0,000	0,055
-322,329	42,744	0,073	0,049
-321,314	417,701	0,033	-0,051
-320,299	-93,369	0,104	0,021
-319,285	143,951	-0,021	-0,021
-318,270	149,958	0,054	0,053
-317,256	-200,000	-0,001	-0,074
-316,241	507,891	0,036	0,061
-315,226	-127,589	0,072	-0,008
-314,212	-115,295	-0,062	0,008
-313,197	38,876	-0,061	0,040
-312,183	800,000	-0,027	-0,071
-311,168	750,787	0,032	0,063
-310,153	-103,492	-0,133	0,023
-309,139	227,571	-0,054	0,064
-308,124	-200,000	0,004	0,153
-307,110	94,512	0,043	0,036
-306,095	41,222	-0,045	0,030
-305,080	-200,000	-0,006	-0,062
-304,066	-200,000	-0,003	0,061
-303,051	-127,228	-0,060	-0,006
-302,037	92,788	-0,078	-0,064
-301,022	-200,000	0,037	0,150
-300,008	800,000	-0,016	0,039
-298,993	-16,630	0,040	0,018
-297,978	-100,186	-0,096	0,017
-296,964	86,822	-0,121	0,097
-295,949	-120,547	0,156	-0,019
-294,935	800,000	-0,039	-0,079
-293,920	800,000	0,023	-0,052
-292,905	-200,000	0,007	0,091
-291,891	-121,604	0,035	-0,004
-290,876	-66,068	0,046	0,013
-289,862	42,742	0,089	0,059
-288,847	-200,000	-0,002	0,078
-287,832	-200,000	0,016	0,069
-286,818	50,235	0,085	-0,059
-285,803	-200,000	-0,008	0,032
-284,789	-28,387	0,057	0,024
-283,774	-123,537	0,047	0,005
-282,759	-200,000	-0,001	-0,025
-281,745	571,643	0,030	-0,053
-280,730	-200,000	-0,034	-0,127
-279,716	-200,000	-0,007	0,021
-278,701	-200,000	0,011	0,057
-277,686	-155,195	-0,148	0,007
-276,672	23,643	0,036	-0,022
-275,657	-1,980	0,101	0,052
-274,643	-200,000	0,012	-0,106
-273,628	55,028	-0,115	-0,081
-272,613	-8,419	-0,083	0,041
-271,599	-200,000	0,011	0,111
-270,584	78,451	-0,084	0,066
-269,570	82,604	-0,113	0,089
-268,555	-200,000	-0,005	-0,033
-267,540	-200,000	-0,030	-0,144
-266,526	-200,000	0,015	0,080
-265,511	61,931	-0,015	-0,011
-264,497	335,670	0,032	-0,046
-263,482	301,505	0,081	0,109
-262,467	74,517	0,067	0,051
-261,453	4,447	0,113	-0,060
-260,438	-200,000	-0,002	-0,093
-259,424	-200,000	-0,002	0,020
-258,409	-22,011	-0,104	-0,046
-257,395	27,578	0,065	0,040
-256,380	-200,000	-0,016	-0,065
-255,365	-134,772	0,189	-0,017
-254,351	-46,145	-0,108	0,038
-253,336	-200,000	-0,009	-0,045
-252,322	224,890	-0,028	-0,033
-251,307	328,908	0,087	-0,122
-250,292	-45,916	0,135	-0,048
-249,278	-200,000	0,013	0,160
-248,263	290,989	0,052	-0,069
-247,249	729,053	0,016	-0,031
-246,234	477,067	-0,029	-0,048
-245,219	800,000	-0,058	0,131
-244,205	23,412	-0,146	0,087
-243,190	-200,000	0,005	-0,133
-242,176	205,928	0,056	0,063
-241,161	-6,340	-0,024	-0,012
-240,146	800,000	-0,041	-0,122
-239,132	-97,552	-0,119	0,022
-238,117	-69,778	0,139	0,038
-237,103	-200,000	-0,009	-0,038
-236,088	-55,962	-0,077	0,025
-235,073	388,380	0,087	-0,132
-234,059	-50,519	0,062	0,021
-233,044	-35,745	-0,055	0,022
-232,030	-200,000	0,028	-0,138
-231,015	-200,000	-0,017	0,151
-230,000	-200,000	0,006	0,076
-228,986	15,096	-0,087	-0,050
-227,971	-200,000	0,009	-0,036
-226,957	-144,933	0,099	0,006
-225,942	-75,983	-0,135	-0,035
-224,927	-200,000	0,008	-0,147
-223,913	-200,000	0,034	-0,149
-222,898	-200,000	-0,018	-0,112
-221,884	192,236	-0,066	-0,073
-220,869	-27,171	0,089	-0,038
-219,855	-84,227	0,094	0,022
-218,840	-107,376	-0,040	-0,006
-217,825	19,478	0,041	0,024
-216,811	800,000	0,009	-0,028
-215,796	-200,000	-0,043	-0,151
-214,782	-173,254	-0,145	0,003
-213,767	477,728	-0,042	0,070
-212,752	-200,000	-0,002	-0,010
-211,738	286,733	0,016	-0,021
-210,723	-127,778	-0,103	0,011
-209,709	-200,000	-0,002	-0,083
-208,694	564,585	0,055	-0,097
-207,679	276,001	0,044	0,056
-206,665	-174,718	0,133	-0,003
-205,650	-113,884	0,051	-0,007
-204,636	579,324	0,049	0,087
-203,621	245,670	0,089	0,109
-202,606	800,000	-0,006	0,019
-201,592	411,672	-0,063	-0,098
-200,577	-200,000	0,001	-0,100
-199,563	38,704	0,022	-0,014
-198,548	239,723	-0,047	-0,056
-197,533	9,074	-0,095	-0,052
-196,519	158,007	-0,039	0,039
-195,504	-94,348	0,058	0,011
-194,490	-200,000	-0,036	-0,130
-193,475	800,000	-0,011	-0,023
-192,460	-15,345	-0,053	-0,025
-191,446	20,224	0,094	0,055
-190,431	230,958	0,032	0,038
-189,417	-200,000	-0,002	-0,023
-188,402	-116,172	-0,065	-0,009
-187,387	-98,026	0,031	-0,006
-186,373	-59,314	0,060	-0,019
-185,358	19,978	0,063	-0,037
-184,344	-108,931	0,103	0,016
-183,329	-3,288	0,056	0,028
-182,315	-119,683	-0,031	0,004
-181,300	800,000	-0,021	0,049
-180,285	-200,000	0,009	-0,045
-179,271	290,251	-0,023	-0,030
-178,256	23,635	0,079	-0,047
-177,242	222,431	-0,056	-0,066
-176,227	13,763	0,037	-0,021
-175,212	255,123	0,030	0,037
-174,198	233,233	-0,022	-0,026
-173,183	293,186	-0,020	-0,026
-172,169	-150,289	0,145	-0,008
-171,154	-200,000	0,012	0,060
-170,139	-84,273	0,090	-0,021
-169,125	-52,807	0,098	-0,033
-168,110	-61,931	0,059	0,018
-167,096	-139,639	-0,077	0,006
-166,081	-200,000	-0,015	-0,067
-165,066	800,000	-0,017	-0,037
-164,052	-20,575	0,086	-0,038
-163,037	800,000	0,031	-0,097
-162,023	-200,000	0,011	-0,052
-161,008	-86,409	0,130	-0,029
-159,993	-43,670	-0,070	-0,025
-158,979	175,561	0,097	0,102
-157,964	-200,000	0,015	-0,092
-156,950	-200,000	0,003	-0,020
-155,935	-65,446	-0,022	0,006
-154,920	800,000	0,030	-0,060
-153,906	-200,000	-0,013	0,149
-152,891	-200,000	-0,006	0,057
-151,877	-1,507	0,011	0,005
-150,862	-12,298	-0,069	0,032
-149,847	216,200	-0,082	-0,094
-148,833	-90,004	0,060	-0,013
-147,818	-200,000	0,016	-0,077
-146,804	-69,214	0,066	0,018
-145,789	154,611	0,107	0,107
-144,775	119,278	-0,119	-0,107
-143,760	32,368	0,080	-0,050
-142,745	-200,000	0,008	-0,126
-141,731	39,792	-0,091	0,059
-140,716	-62,424	0,130	0,039
-139,702	-200,000	0,028	0,095
-138,687	-117,556	0,096	0,012
-137,672	176,442	0,032	-0,034
-136,658	-14,838	-0,006	0,003
-135,643	10,419	-0,049	-0,027
-134,629	800,000	0,023	-0,064
-133,614	97,168	0,055	0,046
-132,599	-200,000	-0,000	-0,024
-131,585	406,762	0,050	0,077
-130,570	39,306	0,098	0,064
-129,556	126,113	-0,059	0,054
-128,541	-1,381	0,063	0,032
-127,526	397,364	-0,056	-0,085
-126,512	361,360	-0,051	0,075
-125,497	-161,314	0,012	0,000
-124,483	-82,967	0,091	-0,021
-123,468	800,000	-0,045	0,123
-122,453	-73,742	-0,095	0,025
-121,439	-100,506	0,133	0,024
-120,424	-79,418	0,079	-0,019
-119,410	-7,645	0,066	0,032
-118,395	-61,079	0,143	-0,044
