DTS Sentinel unit serial number:	SN410029Multiplexer serial number:	ORYXHardware model number:	OX2-SRSoftware version number:	ORYX F/W v4,00 Oryx Data Collector v3.7.2.0data status	okinstallation	B4 Nyhavnadifferential loss correction	single-endedforward channel	channel 2reverse channel	N/Adate	2023/12/16time	11:40:13forward acquisition time	300,00reverse acquisition time	0,00gamma	499,1914k internal	0,3125k external	0,3125temperature offset calibration	1,0000default loss term (dB/km)	0,3820temperature slope calibration	1,0000multiplexer offset coefficient	1,0000multiplexer slope coefficient	1,0000fibre end	0,00T internal ref (°C)	23,81T ext. ref 1 (°C)	9,64T ext. ref 2 (°C)	9,84length (m)	temperature (°C)	Stokes	anti-Stokes-744,400	-200,000	0,035	-0,153
-743,385	-106,711	-0,159	0,026
-742,371	-200,000	-0,013	-0,061
-741,356	187,165	-0,168	0,187
-740,342	-200,000	0,013	0,076
-739,327	255,368	-0,161	0,206
-738,312	168,681	-0,036	0,038
-737,298	-75,465	-0,263	0,069
-736,283	-200,000	-0,001	0,042
-735,269	-108,073	-0,217	0,035
-734,254	-200,000	-0,007	0,024
-733,239	-119,543	-0,407	-0,052
-732,225	13,047	0,107	-0,061
-731,210	-200,000	0,005	0,058
-730,196	-92,608	-0,059	0,012
-729,181	-84,579	-0,093	-0,022
-728,167	282,105	-0,043	0,058
-727,152	-164,926	-0,191	0,006
-726,137	-200,000	0,003	-0,083
-725,123	-33,856	0,080	-0,033
-724,108	-121,618	-0,140	-0,017
-723,094	-72,456	-0,193	-0,053
-722,079	-200,000	0,000	-0,084
-721,064	800,000	0,031	0,069
-720,050	666,084	0,043	0,084
-719,035	111,792	-0,047	-0,043
-718,021	589,186	0,017	0,031
-717,006	-100,982	-0,193	0,035
-715,991	95,989	-0,036	-0,030
-714,977	397,998	-0,036	-0,056
-713,962	157,866	-0,008	-0,009
-712,948	-200,000	0,018	0,120
-711,933	-30,736	-0,089	0,037
-710,918	800,000	-0,025	-0,052
-709,904	800,000	-0,026	-0,075
-708,889	-84,897	-0,034	0,008
-707,875	-31,122	0,108	-0,045
-706,860	800,000	-0,029	-0,073
-705,845	-5,371	0,045	-0,023
-704,831	247,753	0,096	-0,121
-703,816	-91,869	-0,102	0,021
-702,802	-50,568	-0,199	-0,069
-701,787	-200,000	-0,027	0,197
-700,772	800,000	-0,022	0,063
-699,758	800,000	0,022	-0,057
-698,743	-200,000	0,013	-0,048
-697,729	65,271	0,103	-0,077
-696,714	381,454	-0,020	0,030
-695,699	-70,645	-0,172	-0,048
-694,685	-34,290	-0,093	-0,038
-693,670	-109,365	-0,084	-0,013
-692,656	208,223	0,085	-0,099
-691,641	57,272	-0,070	-0,051
-690,627	76,158	0,066	-0,052
-689,612	-71,070	-0,057	-0,016
-688,597	800,000	-0,062	-0,145
-687,583	-200,000	0,005	0,025
-686,568	-141,933	-0,102	0,007
-685,554	475,550	0,047	0,079
-684,539	173,950	0,010	0,010
-683,524	-161,095	-0,053	0,002
-682,510	800,000	-0,045	0,140
-681,495	218,547	-0,149	0,177
-680,481	-85,836	-0,135	-0,031
-679,466	800,000	-0,013	-0,027
-678,451	-34,645	0,112	0,045
-677,437	6,113	-0,102	0,056
-676,422	207,779	0,056	-0,065
-675,408	-200,000	0,012	-0,074
-674,393	-200,000	-0,011	0,094
-673,378	234,540	0,060	-0,074
-672,364	-35,593	-0,111	0,045
-671,349	-200,000	0,014	0,055
-670,335	26,053	0,030	0,018
-669,320	21,717	-0,032	-0,019
-668,305	-124,646	-0,031	-0,003
-667,291	800,000	-0,020	0,045
-666,276	-36,410	-0,042	-0,017
-665,262	465,680	-0,070	-0,117
-664,247	800,000	-0,081	-0,169
-663,232	629,489	-0,051	-0,095
-662,218	561,106	0,022	-0,040
-661,203	-200,000	0,006	-0,048
-660,189	800,000	0,045	-0,118
-659,174	-56,004	-0,117	0,039
-658,159	40,090	-0,057	0,038
-657,145	196,105	-0,086	-0,097
-656,130	303,299	-0,052	0,072
-655,116	358,993	0,068	0,101
-654,101	272,688	-0,040	0,053
-653,086	274,307	-0,082	0,108
-652,072	377,982	-0,029	-0,044
-651,057	-200,000	0,020	-0,091
-650,043	-108,695	0,065	-0,010
-649,028	-200,000	0,004	-0,058
-648,014	-200,000	0,008	-0,078
-646,999	800,000	0,039	-0,082
-645,984	216,310	-0,081	0,096
-644,970	120,247	-0,062	0,057
-643,955	296,277	-0,106	-0,144
-642,941	-200,000	0,018	-0,060
-641,926	-141,224	-0,077	-0,006
-640,911	61,585	0,123	0,091
-639,897	203,101	-0,009	-0,010
-638,882	-118,100	-0,076	0,010
-637,868	268,467	-0,006	0,008
-636,853	-200,000	0,010	-0,051
-635,838	-200,000	0,007	-0,054
-634,824	-59,939	-0,157	-0,050
-633,809	425,734	0,053	0,085
-632,795	-95,702	-0,032	-0,006
-631,780	-137,967	0,037	-0,003
-630,765	372,924	0,053	0,081
-629,751	45,769	-0,053	-0,036
-628,736	-70,436	-0,015	0,004
-627,722	-36,672	-0,068	-0,027
-626,707	24,089	-0,048	0,029
-625,692	800,000	0,091	0,188
-624,678	-87,614	-0,070	-0,016
-623,663	-200,000	0,010	-0,039
-622,649	400,633	0,030	0,047
-621,634	800,000	-0,061	0,159
-620,619	-28,021	-0,046	0,020
-619,605	-137,481	-0,134	-0,011
-618,590	-94,092	0,172	-0,035
-617,576	-200,000	-0,010	-0,110
-616,561	332,251	-0,074	0,106
-615,546	800,000	0,006	-0,013
-614,532	58,264	0,133	-0,096
-613,517	-1,539	-0,124	0,065
-612,503	217,571	-0,036	-0,042
-611,488	-200,000	0,006	0,030
-610,474	42,592	0,146	0,098
-609,459	800,000	0,065	0,137
-608,444	704,627	-0,073	-0,143
-607,430	455,462	0,020	-0,033
-606,415	113,436	-0,066	-0,059
-605,401	-175,209	-0,085	0,002
-604,386	-200,000	0,027	-0,139
-603,371	-200,000	0,000	-0,060
-602,357	800,000	0,050	0,105
-601,342	5,389	-0,140	-0,076
-600,328	800,000	-0,041	-0,090
-599,313	-200,000	0,020	-0,087
-598,298	555,768	-0,069	0,123
-597,284	38,074	0,108	0,071
-596,269	31,761	-0,061	0,039
-595,255	156,203	-0,092	0,094
-594,240	-9,937	-0,048	-0,024
-593,225	-200,000	-0,180	0,000
-592,211	-65,867	-0,049	-0,014
-591,196	-183,276	-0,135	0,002
-590,182	-46,173	0,073	0,026
-589,167	180,753	0,063	-0,069
-588,152	315,242	0,087	-0,122
-587,138	195,666	-0,119	0,134
-586,123	-200,000	-0,002	0,022
-585,109	32,366	-0,094	0,060
-584,094	800,000	0,042	0,125
-583,079	100,546	0,037	-0,032
-582,065	216,721	0,024	0,028
-581,050	-155,026	0,054	0,003
-580,036	-79,613	-0,053	0,013
-579,021	-200,000	-0,001	-0,015
-578,006	2,743	-0,100	-0,053
-576,992	-200,000	0,035	-0,114
-575,977	-30,765	0,164	0,069
-574,963	33,651	-0,057	0,037
-573,948	-200,000	-0,028	0,136
-572,934	102,941	0,059	0,051
-571,919	-200,000	-0,021	0,126
-570,904	-101,554	0,086	0,015
-569,890	29,124	0,094	-0,059
-568,875	-14,822	0,090	-0,043
-567,861	-92,145	-0,016	0,003
-566,846	-200,000	0,022	0,168
-565,831	-41,413	0,058	0,022
-564,817	-200,000	-0,013	-0,086
-563,802	-200,000	0,019	-0,094
-562,788	800,000	0,048	-0,109
-561,773	-200,000	-0,018	0,113
-560,758	-16,174	0,150	0,070
-559,744	239,607	-0,098	0,121
-558,729	-200,000	-0,014	-0,053
-557,715	-200,000	-0,038	-0,137
-556,700	28,008	0,051	-0,032
-555,685	-23,360	-0,152	0,067
-554,671	-200,000	0,007	-0,084
-553,656	3,695	0,105	0,057
-552,642	800,000	0,021	0,060
-551,627	-200,000	0,009	0,066
-550,612	386,769	0,028	-0,043
-549,598	0,648	-0,052	0,028
-548,583	-200,000	-0,011	-0,156
-547,569	-39,310	0,123	-0,047
-546,554	-29,131	0,030	-0,013
-545,539	140,127	0,051	-0,050
-544,525	-10,662	-0,040	-0,019
-543,510	-99,142	0,051	0,009
-542,496	199,607	0,045	-0,051
-541,481	-200,000	0,003	0,054
-540,466	703,581	-0,042	0,082
-539,452	180,921	0,041	-0,045
-538,437	54,977	0,059	-0,042
-537,423	-200,000	-0,001	0,060
-536,408	800,000	0,076	0,205
-535,393	-4,649	-0,083	-0,042
-534,379	329,080	0,074	-0,106
-533,364	-200,000	0,017	-0,058
-532,350	-200,000	0,013	0,088
-531,335	173,499	0,057	0,061
-530,321	-200,000	-0,003	-0,022
-529,306	-200,000	0,002	0,180
-528,291	-200,000	0,003	0,020
-527,277	-200,000	0,019	-0,107
-526,262	800,000	-0,067	-0,149
-525,248	19,306	0,026	0,015
-524,233	-40,435	0,056	0,021
-523,218	351,261	0,102	0,149
-522,204	193,519	-0,078	0,088
-521,189	-200,000	-0,014	-0,122
-520,175	354,633	-0,016	0,024
-519,160	356,811	-0,070	-0,104
-518,145	-27,677	-0,035	0,015
-517,131	150,235	0,090	-0,090
-516,116	110,730	-0,006	-0,006
-515,102	-53,652	0,104	0,035
-514,087	-23,668	-0,057	-0,025
-513,072	800,000	-0,040	-0,103
-512,058	-200,000	-0,007	-0,036
-511,043	4,112	0,090	0,048
-510,029	12,341	0,022	-0,012
-509,014	-71,625	0,036	-0,010
-507,999	-13,468	0,007	-0,003
-506,985	-200,000	0,021	0,159
-505,970	95,255	0,071	-0,060
-504,956	800,000	-0,027	-0,062
-503,941	636,806	-0,082	-0,155
-502,926	800,000	0,090	0,193
-501,912	-35,482	0,080	0,032
-500,897	800,000	0,063	0,153
-499,883	-200,000	-0,006	0,020
-498,868	18,321	-0,111	0,065
-497,853	-1,882	-0,072	0,037
-496,839	800,000	-0,015	-0,032
-495,824	-200,000	0,020	-0,077
-494,810	800,000	0,055	-0,113
-493,795	139,356	-0,067	0,065
-492,781	-200,000	-0,013	0,066
-491,766	-32,045	-0,121	-0,050
-490,751	-44,883	-0,036	-0,013
-489,737	-200,000	-0,010	-0,097
-488,722	4,603	0,118	0,064
-487,708	214,102	-0,023	0,027
-486,693	-45,607	0,053	0,019
-485,678	-91,370	0,099	0,021
-484,664	-48,942	0,062	-0,022
-483,649	67,624	-0,024	0,018
-482,635	21,779	-0,040	0,024
-481,620	651,168	0,076	0,145
-480,605	250,213	-0,051	0,064
-479,591	48,625	0,088	0,061
-478,576	800,000	0,032	-0,103
-477,562	325,116	-0,042	-0,060
-476,547	-4,079	-0,061	0,031
-475,532	-121,227	-0,058	0,007
-474,518	25,324	0,170	0,104
-473,503	800,000	-0,024	0,062
-472,489	800,000	-0,056	-0,181
-471,474	252,251	-0,092	0,116
-470,459	-200,000	0,005	-0,086
-469,445	175,308	-0,033	0,035
-468,430	81,758	0,055	0,043
-467,416	-200,000	0,012	-0,053
-466,401	800,000	-0,017	0,052
-465,386	61,827	0,069	0,051
-464,372	123,721	-0,035	0,032
-463,357	-113,319	-0,064	-0,009
-462,343	-124,391	0,211	0,024
-461,328	-9,636	-0,047	-0,023
-460,313	165,152	-0,090	-0,093
-459,299	670,233	0,006	-0,011
-458,284	-50,033	0,080	0,028
-457,270	79,711	-0,020	0,015
-456,255	237,493	0,145	0,178
-455,241	113,397	0,065	0,058
-454,226	19,369	-0,161	-0,095
-453,211	291,087	0,064	0,087
-452,197	34,888	0,028	-0,018
-451,182	800,000	0,033	0,101
-450,168	800,000	-0,025	0,070
-449,153	302,144	-0,037	0,050
-448,138	-38,617	-0,087	0,034
-447,124	-200,000	-0,011	-0,155
-446,109	-77,507	0,043	0,011
-445,095	800,000	0,039	-0,087
-444,080	-120,923	0,069	-0,008
-443,065	-200,000	-0,025	0,262
-442,051	2,545	-0,129	-0,069
-441,036	-14,466	-0,214	-0,101
-440,022	800,000	0,027	0,080
-439,007	-200,000	0,011	-0,058
-437,992	800,000	0,031	0,090
-436,978	-200,000	0,004	0,067
-435,963	-76,767	-0,073	0,019
-434,949	237,623	0,115	-0,141
-433,934	-139,258	-0,047	-0,004
-432,919	800,000	-0,064	-0,132
-431,905	-200,000	0,005	-0,042
-430,890	207,066	0,101	-0,116
-429,876	331,095	-0,035	-0,050
-428,861	-110,261	0,054	-0,008
-427,846	149,795	-0,084	-0,084
-426,832	-35,515	-0,073	0,029
-425,817	800,000	-0,034	0,094
-424,803	-7,127	0,061	-0,031
-423,788	-63,521	-0,127	0,038
-422,773	206,253	0,062	-0,071
-421,759	-200,000	-0,016	0,071
-420,744	-200,000	0,021	-0,068
-419,730	-176,655	0,084	-0,002
-418,715	-200,000	0,004	-0,154
-417,701	-200,000	-0,007	-0,131
-416,686	-7,233	0,045	0,022
-415,671	-77,816	0,118	-0,030
-414,657	-66,089	-0,096	0,028
-413,642	-175,404	0,172	-0,003
-412,628	800,000	0,023	-0,072
-411,613	-91,653	-0,047	0,010
-410,598	-48,777	0,095	0,033
-409,584	-200,000	-0,004	0,108
-408,569	256,486	0,096	0,121
-407,555	53,819	0,068	0,048
-406,540	-12,358	0,070	0,033
-405,525	-32,629	-0,035	-0,014
-404,511	800,000	0,092	-0,189
-403,496	-200,000	-0,004	-0,162
-402,482	54,988	0,032	-0,023
-401,467	721,819	0,036	0,070
-400,452	32,785	0,099	-0,063
-399,438	29,503	-0,046	-0,029
-398,423	-11,433	0,055	0,027
-397,409	168,411	-0,061	0,063
-396,394	800,000	-0,008	-0,025
-395,379	-125,126	-0,133	-0,015
-394,365	51,505	-0,178	0,124
-393,350	-200,000	0,001	-0,013
-392,336	92,539	0,090	0,074
-391,321	-27,653	0,038	-0,016
-390,306	-200,000	-0,004	-0,142
-389,292	788,312	-0,046	-0,094
-388,277	-83,313	0,056	-0,013
-387,263	83,324	0,080	-0,064
-386,248	-40,834	0,049	0,019
-385,233	-200,000	-0,001	0,043
-384,219	-111,177	0,166	0,025
-383,204	800,000	-0,051	-0,143
-382,190	-200,000	0,002	-0,053
-381,175	48,298	0,127	-0,087
-380,160	298,428	0,034	-0,046
-379,146	-200,000	0,012	0,093
-378,131	-200,000	-0,017	0,074
-377,117	206,112	-0,060	0,069
-376,102	800,000	0,030	-0,076
-375,088	465,233	0,025	-0,041
-374,073	800,000	0,027	0,084
-373,058	202,117	-0,019	-0,021
-372,044	-200,000	0,012	-0,146
-371,029	203,628	-0,216	-0,246
-370,015	796,661	0,078	-0,158
-369,000	126,290	-0,075	-0,070
-367,985	-200,000	-0,035	-0,125
-366,971	-72,471	-0,134	-0,036
-365,956	-37,658	0,087	-0,034
-364,942	800,000	-0,034	0,081
-363,927	-125,203	0,163	0,018
-362,912	-17,546	-0,052	-0,024
-361,898	-190,640	-0,144	-0,001
-360,883	800,000	-0,017	0,039
-359,869	-200,000	0,008	0,035
-358,854	-200,000	0,020	0,117
-357,839	472,076	-0,026	0,043
-356,825	800,000	0,016	-0,049
-355,810	800,000	-0,017	-0,041
-354,796	800,000	-0,040	-0,104
-353,781	-126,561	0,127	-0,014
-352,766	616,479	-0,047	0,087
-351,752	185,386	-0,047	-0,051
-350,737	49,969	0,071	0,049
-349,723	-116,612	-0,146	0,020
-348,708	-200,000	0,019	-0,128
-347,693	-9,729	0,028	-0,014
-346,679	251,853	0,077	-0,096
-345,664	52,117	-0,128	0,089
-344,650	466,343	-0,053	0,088
-343,635	-75,122	0,199	0,052
-342,620	206,672	-0,094	-0,108
-341,606	800,000	0,016	0,033
-340,591	-12,779	0,033	0,016
-339,577	145,244	-0,093	-0,091
-338,562	397,179	0,049	0,076
-337,548	800,000	-0,060	0,143
-336,533	439,255	0,041	-0,066
-335,518	800,000	0,013	-0,041
-334,504	-24,430	0,111	0,048
-333,489	-200,000	0,005	0,092
-332,475	-200,000	0,001	-0,127
-331,460	-95,941	-0,033	-0,006
-330,445	497,772	-0,043	0,073
-329,431	-185,742	0,173	-0,002
-328,416	800,000	-0,059	0,131
-327,402	603,140	0,067	-0,123
-326,387	59,252	-0,067	-0,048
-325,372	800,000	0,022	0,065
-324,358	800,000	0,014	-0,043
-323,343	800,000	0,044	0,119
-322,329	388,481	0,035	0,054
-321,314	-139,072	-0,029	-0,002
-320,299	-64,787	0,100	0,029
-319,285	-156,753	0,170	0,008
-318,270	800,000	0,013	0,035
-317,256	-82,413	-0,115	-0,027
-316,241	268,536	-0,108	-0,139
-315,226	-200,000	0,008	-0,061
-314,212	10,651	0,019	0,011
-313,197	-200,000	-0,006	0,090
-312,183	800,000	-0,027	0,073
-311,168	-200,000	-0,003	0,159
-310,153	353,221	-0,075	-0,109
-309,139	450,390	0,040	0,065
-308,124	170,657	-0,105	-0,110
-307,110	-58,354	0,094	-0,030
-306,095	-200,000	0,005	-0,080
-305,080	800,000	0,044	-0,095
-304,066	29,661	0,069	0,043
-303,051	-152,832	-0,203	-0,010
-302,037	119,475	0,059	-0,053
-301,022	182,729	0,059	0,064
-300,008	-200,000	-0,013	0,110
-298,993	719,894	0,052	0,102
-297,978	-200,000	-0,026	0,087
-296,964	607,935	-0,088	0,162
-295,949	-30,882	-0,061	-0,025
-294,935	130,076	0,028	-0,026
-293,920	-75,139	0,192	-0,050
-292,905	761,238	-0,071	0,142
-291,891	635,096	0,064	0,120
-290,876	655,893	0,016	0,030
-289,862	800,000	0,032	0,098
-288,847	16,818	0,167	-0,097
-287,832	-200,000	-0,037	-0,185
-286,818	-43,628	-0,132	0,048
-285,803	-200,000	-0,009	0,048
-284,789	800,000	-0,020	-0,061
-283,774	264,525	-0,023	-0,030
-282,759	279,303	0,064	0,083
-281,745	800,000	-0,048	-0,148
-280,730	444,711	-0,018	0,028
-279,716	-163,276	0,055	-0,002
-278,701	800,000	-0,016	0,033
-277,686	85,551	0,041	0,033
-276,672	-120,872	0,062	-0,008
-275,657	-11,461	0,127	-0,061
-274,643	84,015	-0,098	-0,078
-273,628	-151,265	-0,161	-0,009
-272,613	-200,000	-0,008	-0,073
-271,599	164,030	0,040	-0,041
-270,584	-200,000	-0,012	0,066
-269,570	-200,000	-0,005	-0,122
-268,555	433,383	-0,054	-0,086
-267,540	45,294	0,108	-0,073
-266,526	134,616	-0,036	0,034
-265,511	298,200	-0,042	0,056
-264,497	-200,000	0,007	-0,068
-263,482	-31,106	-0,087	-0,036
-262,467	453,852	-0,018	0,029
-261,453	-200,000	-0,018	0,065
-260,438	139,065	-0,080	-0,077
-259,424	-200,000	-0,165	0,000
-258,409	-109,770	0,048	0,007
-257,395	-200,000	0,077	0,000
-256,380	-200,000	-0,000	0,066
-255,365	800,000	0,063	0,138
-254,351	35,963	0,132	0,085
-253,336	289,642	0,053	-0,070
-252,322	-149,390	-0,099	-0,006
-251,307	340,560	0,039	0,055
-250,292	-56,944	-0,080	-0,026
-249,278	768,165	0,036	-0,071
-248,263	800,000	0,042	0,103
-247,249	-172,434	-0,030	-0,001
-246,234	-61,043	-0,096	0,029
-245,219	-20,527	-0,059	0,026
-244,205	216,014	0,030	0,034
-243,190	434,161	0,008	-0,013
-242,176	800,000	-0,029	0,083
-241,161	-63,335	0,082	-0,025
-240,146	165,087	0,093	-0,096
-239,132	-66,563	-0,116	0,033
-238,117	800,000	-0,069	-0,217
-237,103	279,505	0,010	0,013
-236,088	107,431	-0,068	0,059
-235,073	-200,000	0,001	-0,043
-234,059	575,061	-0,042	-0,076
-233,044	-44,541	-0,011	0,004
-232,030	616,217	-0,040	-0,073
-231,015	22,769	-0,117	-0,070
-230,000	-200,000	0,027	-0,101
-228,986	-124,510	-0,026	-0,003
-227,971	-124,627	-0,111	0,012
-226,957	579,753	0,005	-0,008
-225,942	244,427	-0,072	0,089
-224,927	-94,652	0,128	0,025
-223,913	116,524	-0,036	-0,032
-222,898	-11,363	-0,108	0,052
-221,884	729,512	-0,036	0,070
-220,869	75,348	0,042	0,033
-219,855	264,721	0,066	0,084
-218,840	800,000	0,045	0,102
-217,825	-148,973	0,039	0,002
-216,811	-117,330	-0,123	0,016
-215,796	732,465	-0,079	-0,155
-214,782	-98,579	-0,075	0,014
-213,767	-148,750	-0,061	0,004
-212,752	800,000	0,055	0,147
-211,738	276,749	0,075	0,098
-210,723	-109,821	0,101	-0,015
-209,709	800,000	-0,003	0,008
-208,694	-148,287	-0,154	-0,009
-207,679	-200,000	-0,005	0,069
-206,665	52,168	0,129	-0,089
-205,650	65,363	0,138	-0,102
-204,636	721,665	0,018	0,036
-203,621	-200,000	0,017	-0,095
-202,606	-31,113	-0,069	-0,028
-201,592	800,000	-0,027	-0,055
-200,577	-200,000	-0,047	0,164
-199,563	-200,000	-0,034	-0,185
-198,548	-151,490	0,088	-0,005
-197,533	-86,072	0,118	-0,026
-196,519	429,055	0,066	0,104
-195,504	-200,000	-0,024	0,095
-194,490	194,532	-0,042	-0,046
-193,475	800,000	-0,047	0,127
-192,460	84,377	0,075	0,059
-191,446	-148,420	0,053	0,003
-190,431	230,261	0,059	0,071
-189,417	800,000	0,040	-0,118
-188,402	153,662	-0,042	0,042
-187,387	800,000	-0,050	-0,104
-186,373	-200,000	-0,028	-0,093
-185,358	351,842	0,014	-0,020
-184,344	-200,000	-0,001	-0,134
-183,329	-116,900	-0,015	-0,002
-182,315	-20,578	-0,056	-0,025
-181,300	800,000	-0,029	-0,064
-180,285	-200,000	-0,010	-0,167
-179,271	393,612	-0,062	-0,095
-178,256	-54,659	-0,197	-0,064
-177,242	800,000	-0,046	0,094
-176,227	424,695	0,058	-0,091
-175,212	-14,782	-0,056	-0,026
-174,198	328,057	0,071	-0,099
-173,183	800,000	-0,013	0,038
-172,169	209,274	0,105	0,120
-171,154	6,023	-0,110	-0,059
-170,139	75,394	-0,061	-0,047
-169,125	313,016	0,103	0,141
-168,110	167,999	0,068	0,071
-167,096	-200,000	-0,006	-0,027
-166,081	51,403	-0,018	-0,013
-165,066	800,000	0,040	0,085
-164,052	-193,496	-0,042	-0,000
-163,037	-97,361	-0,039	-0,007
-162,023	418,176	-0,047	0,073
-161,008	26,931	0,152	0,093
-159,993	-200,000	0,002	-0,009
-158,979	275,573	-0,017	-0,022
-157,964	289,626	-0,056	-0,075
-156,950	-27,328	-0,063	0,027
-155,935	-72,771	-0,058	0,015
-154,920	800,000	0,101	0,265
-153,906	-4,608	-0,083	0,042
-152,891	143,808	-0,132	0,128
-151,877	-200,000	0,024	-0,141
-150,862	-200,000	0,022	-0,084
-149,847	-103,105	-0,154	0,026
-148,833	-200,000	0,005	-0,072
-147,818	210,707	0,057	-0,065
-146,804	-198,910	-0,051	0,000
-145,789	-128,526	0,085	-0,009
-144,775	-18,020	0,080	-0,036
-143,760	-9,050	-0,043	0,021
-142,745	610,642	0,033	-0,061
-141,731	208,381	-0,042	-0,048
-140,716	-86,086	0,085	0,019
-139,702	-200,000	0,002	0,037
-138,687	-55,748	-0,047	-0,015
-137,672	800,000	-0,021	0,054
-136,658	-200,000	-0,006	-0,149
-135,643	-200,000	0,017	-0,095
-134,629	208,781	-0,025	-0,029
-133,614	66,858	0,042	-0,031
-132,599	104,932	0,110	0,094
-131,585	800,000	0,028	0,059
-130,570	800,000	-0,062	-0,148
-129,556	-200,000	-0,011	-0,059
-128,541	159,275	-0,057	-0,057
-127,526	-167,536	0,108	-0,003
-126,512	-14,623	-0,071	0,033
-125,497	800,000	-0,045	0,093
-124,483	333,349	0,029	-0,041
-123,468	800,000	-0,003	-0,007
-122,453	-81,875	-0,121	0,029
-121,439	291,067	0,037	0,049
-120,424	-200,000	-0,012	-0,064
-119,410	102,742	0,104	0,088
