DTS Sentinel unit serial number:	SN410029Multiplexer serial number:	ORYXHardware model number:	OX2-SRSoftware version number:	ORYX F/W v4,00 Oryx Data Collector v3.7.2.0data status	okinstallation	B4 Nyhavnadifferential loss correction	single-endedforward channel	channel 2reverse channel	N/Adate	2023/12/18time	23:55:13forward acquisition time	300,00reverse acquisition time	0,00gamma	499,1914k internal	0,3123k external	0,3123temperature offset calibration	1,0000default loss term (dB/km)	0,3820temperature slope calibration	1,0000multiplexer offset coefficient	1,0000multiplexer slope coefficient	1,0000fibre end	0,00T internal ref (°C)	22,25T ext. ref 1 (°C)	7,30T ext. ref 2 (°C)	7,33length (m)	temperature (°C)	Stokes	anti-Stokes-744,400	275,695	0,027	-0,036
-743,385	169,602	-0,212	0,226
-742,371	-200,000	0,024	-0,114
-741,356	-15,257	-0,219	0,104
-740,342	800,000	0,038	0,105
-739,327	44,115	-0,189	0,129
-738,312	-132,725	0,114	0,011
-737,298	48,327	-0,171	0,119
-736,283	119,004	-0,087	-0,080
-735,269	-7,978	-0,172	0,086
-734,254	516,293	0,042	-0,073
-733,239	-154,082	-0,378	-0,019
-732,225	45,603	0,027	-0,018
-731,210	-200,000	-0,024	0,214
-730,196	-200,000	-0,009	-0,067
-729,181	39,097	-0,038	0,026
-728,167	800,000	-0,005	0,015
-727,152	-49,834	-0,101	-0,036
-726,137	800,000	-0,013	-0,027
-725,123	-8,259	-0,058	0,029
-724,108	800,000	-0,052	-0,108
-723,094	-200,000	-0,007	-0,164
-722,079	291,870	-0,014	0,019
-721,064	39,418	0,025	0,017
-720,050	-200,000	-0,003	0,127
-719,035	800,000	-0,047	-0,100
-718,021	800,000	-0,055	-0,122
-717,006	-30,359	-0,115	-0,048
-715,991	435,663	-0,048	-0,078
-714,977	88,424	0,032	0,026
-713,962	216,642	-0,072	-0,086
-712,948	-88,671	-0,098	-0,021
-711,933	125,606	-0,028	0,026
-710,918	9,016	0,121	-0,068
-709,904	-177,424	-0,154	0,003
-708,889	800,000	0,021	0,066
-707,875	800,000	-0,059	0,159
-706,860	93,435	-0,020	-0,017
-705,845	273,256	0,024	-0,031
-704,831	-36,325	-0,058	0,023
-703,816	47,294	-0,084	-0,058
-702,802	-200,000	0,006	-0,076
-701,787	135,490	-0,108	-0,105
-700,772	153,199	-0,072	-0,074
-699,758	-200,000	0,012	-0,054
-698,743	638,694	-0,056	-0,106
-697,729	370,613	-0,026	-0,039
-696,714	-200,000	0,003	0,031
-695,699	-200,000	-0,004	0,104
-694,685	-87,001	0,105	-0,024
-693,670	240,969	-0,095	-0,118
-692,656	-200,000	-0,008	-0,092
-691,641	-4,004	0,053	-0,027
-690,627	-200,000	-0,097	0,000
-689,612	200,255	0,029	-0,034
-688,597	-145,108	-0,118	-0,008
-687,583	393,762	-0,069	-0,107
-686,568	173,470	-0,087	-0,094
-685,554	463,751	0,085	0,141
-684,539	800,000	0,024	-0,063
-683,524	-91,345	-0,027	0,006
-682,510	12,297	-0,096	-0,055
-681,495	800,000	0,057	-0,186
-680,481	-98,345	-0,042	0,008
-679,466	36,482	-0,053	-0,035
-678,451	-200,000	0,021	0,080
-677,437	-200,000	-0,028	-0,181
-676,422	-200,000	-0,021	0,169
-675,408	-92,431	-0,100	0,021
-674,393	353,995	-0,048	-0,070
-673,378	57,907	-0,041	0,030
-672,364	-164,026	-0,058	-0,002
-671,349	569,663	0,018	-0,033
-670,335	312,429	-0,045	0,062
-669,320	-115,627	0,068	0,009
-668,305	-200,000	-0,026	-0,092
-667,291	-41,943	-0,073	0,027
-666,276	-200,000	-0,026	-0,109
-665,262	-200,000	-0,003	-0,010
-664,247	-200,000	0,008	-0,043
-663,232	102,836	0,046	-0,040
-662,218	-11,245	-0,054	-0,026
-661,203	103,586	-0,035	-0,030
-660,189	-200,000	-0,001	0,022
-659,174	-113,412	-0,053	-0,008
-658,159	-200,000	0,027	0,158
-657,145	109,531	-0,094	-0,083
-656,130	695,174	0,074	-0,146
-655,116	800,000	-0,004	-0,011
-654,101	800,000	0,020	0,051
-653,086	430,872	-0,038	-0,062
-652,072	576,591	-0,038	0,070
-651,057	-200,000	-0,011	-0,210
-650,043	-26,794	-0,061	0,026
-649,028	-6,028	-0,028	0,014
-648,014	12,731	0,040	-0,023
-646,999	800,000	0,071	0,210
-645,984	-200,000	-0,006	0,103
-644,970	146,496	-0,072	0,072
-643,955	800,000	0,044	-0,121
-642,941	4,401	0,112	-0,061
-641,926	-6,472	0,105	-0,053
-640,911	800,000	0,041	0,088
-639,897	28,899	0,140	-0,088
-638,882	672,425	-0,012	0,023
-637,868	267,843	-0,006	-0,008
-636,853	-200,000	-0,004	-0,027
-635,838	119,540	-0,065	-0,059
-634,824	-200,000	-0,006	-0,030
-633,809	800,000	0,050	-0,118
-632,795	800,000	0,007	-0,015
-631,780	610,573	0,021	0,039
-630,765	665,857	-0,025	-0,049
-629,751	-103,547	0,074	-0,013
-628,736	-123,672	-0,077	-0,009
-627,722	-82,065	-0,112	-0,027
-626,707	157,281	0,045	-0,046
-625,692	-125,776	0,106	-0,012
-624,678	-200,000	0,010	-0,144
-623,663	-17,798	-0,141	0,065
-622,649	-110,447	0,074	0,011
-621,634	113,321	0,059	-0,053
-620,619	547,802	-0,031	0,054
-619,605	-100,598	0,090	0,016
-618,590	-35,476	0,071	-0,029
-617,576	464,903	0,064	-0,106
-616,561	-40,789	-0,116	0,044
-615,546	-192,641	-0,113	0,001
-614,532	-200,000	-0,003	-0,078
-613,517	-141,994	0,134	-0,010
-612,503	-8,120	0,133	-0,066
-611,488	-200,000	0,003	0,058
-610,474	257,646	-0,011	-0,014
-609,459	196,372	0,141	0,160
-608,444	-96,043	0,022	-0,004
-607,430	-141,352	0,061	0,005
-606,415	-200,000	0,016	-0,098
-605,401	-200,000	-0,022	0,091
-604,386	167,234	0,069	0,073
-603,371	-200,000	-0,028	0,111
-602,357	0,159	0,038	-0,020
-601,342	800,000	-0,022	0,046
-600,328	-200,000	0,050	-0,201
-599,313	-200,000	-0,007	-0,041
-598,298	-200,000	0,005	0,156
-597,284	134,305	0,069	-0,066
-596,269	441,772	0,024	0,039
-595,255	145,508	0,010	-0,010
-594,240	92,628	0,045	-0,038
-593,225	6,817	0,053	-0,029
-592,211	22,917	-0,051	-0,031
-591,196	158,040	0,039	0,041
-590,182	6,776	0,107	-0,059
-589,167	-47,421	0,155	0,056
-588,152	-80,796	-0,102	-0,025
-587,138	800,000	-0,034	-0,110
-586,123	-200,000	0,006	0,073
-585,109	602,328	0,078	-0,145
-584,094	-81,295	-0,064	0,015
-583,079	-90,386	0,134	0,029
-582,065	19,142	0,057	-0,034
-581,050	-200,000	0,019	0,116
-580,036	-132,089	-0,106	-0,010
-579,021	-200,000	-0,021	-0,076
-578,006	-200,000	0,010	-0,059
-576,992	-42,292	-0,070	-0,026
-575,977	800,000	0,025	-0,070
-574,963	446,258	-0,066	0,108
-573,948	241,641	-0,070	0,087
-572,934	-110,852	-0,156	0,024
-571,919	147,481	-0,073	-0,073
-570,904	55,592	-0,066	-0,047
-569,890	-19,901	0,056	-0,025
-568,875	37,396	-0,020	-0,013
-567,861	-200,000	-0,041	0,158
-566,846	-200,000	0,045	0,157
-565,831	-200,000	-0,010	-0,037
-564,817	562,277	-0,037	0,066
-563,802	-43,212	-0,068	-0,025
-562,788	800,000	-0,040	0,099
-561,773	-200,000	0,033	-0,117
-560,758	-200,000	0,010	0,051
-559,744	716,856	0,007	-0,014
-558,729	36,018	-0,034	0,022
-557,715	-200,000	-0,020	0,147
-556,700	-200,000	-0,003	0,009
-555,685	81,373	0,085	-0,068
-554,671	24,119	-0,156	0,095
-553,656	219,060	-0,040	0,047
-552,642	90,135	-0,021	0,018
-551,627	-200,000	-0,002	-0,056
-550,612	109,172	-0,082	-0,073
-549,598	-13,085	-0,090	0,043
-548,583	186,656	0,007	-0,007
-547,569	173,532	-0,031	0,033
-546,554	-34,205	0,112	0,045
-545,539	607,369	-0,030	-0,056
-544,525	-17,287	-0,093	0,043
-543,510	-200,000	0,013	-0,047
-542,496	800,000	-0,039	-0,093
-541,481	91,792	0,057	-0,047
-540,466	10,684	-0,071	-0,040
-539,452	576,901	0,070	0,128
-538,437	-88,452	-0,057	-0,013
-537,423	800,000	-0,024	0,057
-536,408	-200,000	-0,000	0,013
-535,393	-0,531	-0,115	0,060
-534,379	248,835	0,075	-0,094
-533,364	477,797	-0,088	-0,148
-532,350	-65,088	0,109	-0,032
-531,335	-141,409	-0,112	-0,008
-530,321	357,735	-0,024	0,035
-529,306	249,230	0,055	0,069
-528,291	402,337	0,026	0,040
-527,277	108,712	0,157	-0,138
-526,262	75,225	-0,081	0,063
-525,248	-139,384	0,034	-0,003
-524,233	800,000	-0,013	0,039
-523,218	-200,000	0,008	0,029
-522,204	800,000	-0,029	0,063
-521,189	346,836	-0,018	-0,026
-520,175	-29,589	-0,194	0,082
-519,160	-0,394	0,079	-0,041
-518,145	55,514	0,144	-0,103
-517,131	-200,000	0,021	-0,070
-516,116	210,744	-0,069	-0,080
-515,102	-200,000	-0,029	0,101
-514,087	-200,000	0,012	-0,077
-513,072	-200,000	-0,035	-0,147
-512,058	147,336	-0,072	-0,071
-511,043	-58,080	-0,097	-0,031
-510,029	102,754	-0,015	0,013
-509,014	-71,066	0,079	0,022
-507,999	-179,049	-0,067	-0,001
-506,985	260,572	-0,066	-0,085
-505,970	-113,556	-0,077	-0,011
-504,956	-200,000	0,018	-0,101
-503,941	800,000	-0,039	-0,081
-502,926	80,514	-0,093	0,074
-501,912	484,946	0,096	0,162
-500,897	800,000	-0,022	0,056
-499,883	800,000	-0,005	-0,012
-498,868	-200,000	0,024	-0,098
-497,853	114,975	-0,088	-0,080
-496,839	66,073	-0,047	-0,035
-495,824	-200,000	0,010	0,098
-494,810	-40,552	0,135	-0,051
-493,795	170,349	0,029	-0,030
-492,781	-200,000	-0,011	-0,040
-491,766	-75,494	-0,142	-0,037
-490,751	-200,000	-0,005	-0,135
-489,737	800,000	-0,036	-0,099
-488,722	12,604	0,105	-0,059
-487,708	545,750	-0,021	0,037
-486,693	-64,052	-0,094	0,028
-485,678	524,651	-0,026	-0,046
-484,664	17,531	-0,156	-0,091
-483,649	800,000	-0,021	-0,060
-482,635	800,000	-0,026	-0,072
-481,620	28,421	0,122	0,076
-480,605	181,415	-0,066	0,071
-479,591	-89,074	0,028	-0,006
-478,576	81,278	-0,114	-0,091
-477,562	-55,383	-0,080	0,026
-476,547	516,096	-0,050	0,087
-475,532	-200,000	0,015	-0,072
-474,518	544,538	-0,042	-0,075
-473,503	-38,450	0,081	-0,031
-472,489	259,464	-0,093	0,119
-471,474	59,865	0,095	0,069
-470,459	-200,000	-0,001	-0,108
-469,445	-200,000	-0,001	-0,063
-468,430	-103,833	-0,097	-0,017
-467,416	220,514	0,064	-0,076
-466,401	790,201	0,028	-0,057
-465,386	691,374	-0,059	-0,114
-464,372	-200,000	-0,011	0,107
-463,357	312,942	-0,048	0,067
-462,343	-200,000	-0,058	-0,202
-461,328	-200,000	0,020	0,124
-460,313	51,100	-0,155	0,108
-459,299	-200,000	-0,013	0,114
-458,284	325,408	0,021	0,029
-457,270	167,250	-0,146	-0,153
-456,255	-114,644	-0,132	0,018
-455,241	-66,729	-0,169	-0,049
-454,226	-45,656	-0,049	0,018
-453,211	-0,487	0,081	-0,042
-452,197	800,000	0,043	0,096
-451,182	94,984	-0,046	0,038
-450,168	-93,848	-0,098	0,020
-449,153	-77,409	0,078	-0,020
-448,138	29,392	-0,084	-0,052
-447,124	-10,500	-0,081	0,039
-446,109	-21,714	0,069	0,031
-445,095	82,093	0,051	-0,040
-444,080	4,626	0,063	0,034
-443,065	57,544	0,123	0,088
-442,051	-200,000	-0,006	-0,231
-441,036	-191,545	-0,105	0,001
-440,022	58,165	0,061	0,044
-439,007	92,693	0,048	-0,040
-437,992	257,934	-0,027	0,034
-436,978	502,168	0,040	0,069
-435,963	800,000	-0,012	-0,028
-434,949	800,000	0,026	-0,067
-433,934	-67,540	-0,110	-0,032
-432,919	-108,751	0,089	0,014
-431,905	-76,771	0,064	0,016
-430,890	-200,000	0,007	0,036
-429,876	86,090	-0,082	-0,067
-428,861	341,854	0,051	0,074
-427,846	76,971	-0,062	0,049
-426,832	37,372	0,008	-0,005
-425,817	-200,000	0,003	0,012
-424,803	-159,700	-0,024	0,001
-423,788	99,950	0,062	-0,053
-422,773	398,661	0,042	0,065
-421,759	104,281	-0,054	-0,046
-420,744	-119,799	0,108	0,013
-419,730	-32,157	-0,155	-0,064
-418,715	328,824	0,035	-0,050
-417,701	41,625	-0,067	0,044
-416,686	13,565	0,208	-0,118
-415,671	-96,056	0,038	-0,007
-414,657	-152,762	-0,080	0,004
-413,642	800,000	0,021	0,066
-412,628	-114,784	-0,016	-0,002
-411,613	-29,929	-0,027	0,011
-410,598	32,539	0,065	0,041
-409,584	1,922	-0,007	-0,004
-408,569	40,819	0,048	0,032
-407,555	-32,450	0,052	-0,021
-406,540	372,995	-0,061	-0,091
-405,525	800,000	-0,047	0,143
-404,511	-134,213	-0,088	-0,008
-403,496	-200,000	-0,015	0,063
-402,482	-115,433	0,068	-0,009
-401,467	-200,000	0,011	0,069
-400,452	-162,512	0,079	-0,003
-399,438	800,000	0,063	-0,182
-398,423	800,000	-0,023	-0,054
-397,409	800,000	0,015	0,034
-396,394	271,245	0,013	0,017
-395,379	-200,000	0,018	-0,113
-394,365	54,403	0,123	0,087
-393,350	-200,000	0,021	0,084
-392,336	-200,000	0,006	0,023
-391,321	491,242	0,011	-0,019
-390,306	-69,423	-0,099	-0,028
-389,292	31,114	-0,023	-0,014
-388,277	340,425	-0,138	-0,199
-387,263	123,626	0,115	-0,106
-386,248	-50,541	-0,040	0,014
-385,233	-135,932	-0,003	-0,000
-384,219	-200,000	0,002	0,030
-383,204	-45,148	0,068	0,025
-382,190	-200,000	-0,014	-0,146
-381,175	-200,000	0,018	0,065
-380,160	55,003	0,104	0,074
-379,146	800,000	-0,060	0,145
-378,131	296,730	0,030	0,041
-377,117	-200,000	0,000	0,093
-376,102	-13,108	0,055	0,026
-375,088	-137,100	-0,023	0,002
-374,073	246,334	0,035	0,044
-373,058	-28,317	-0,091	0,038
-372,044	213,877	0,160	0,186
-371,029	-200,000	0,012	-0,049
-370,015	-3,985	0,044	0,022
-369,000	-165,986	-0,061	-0,002
-367,985	-25,640	-0,164	-0,071
-366,971	-200,000	-0,023	-0,131
-365,956	110,204	0,083	0,073
-364,942	-14,356	0,132	-0,062
-363,927	-200,000	-0,011	0,090
-362,912	-200,000	-0,020	0,074
-361,898	0,662	-0,040	0,021
-360,883	800,000	0,059	0,135
-359,869	93,620	-0,065	-0,054
-358,854	178,894	-0,064	-0,069
-357,839	633,199	0,041	0,076
-356,825	-16,289	-0,065	-0,030
-355,810	800,000	-0,070	-0,146
-354,796	116,394	0,081	-0,072
-353,781	12,265	-0,010	-0,006
-352,766	458,358	0,039	0,064
-351,752	-134,960	0,049	0,004
-350,737	238,344	-0,020	0,025
-349,723	-200,000	0,013	0,108
-348,708	189,650	0,121	-0,133
-347,693	705,465	-0,029	-0,057
-346,679	800,000	-0,051	-0,117
-345,664	-46,673	-0,021	-0,007
-344,650	-87,342	0,123	0,027
-343,635	-110,069	0,051	-0,008
-342,620	502,536	0,030	0,052
-341,606	-200,000	0,007	-0,038
-340,591	-58,624	-0,064	0,020
-339,577	-200,000	0,026	-0,108
-338,562	-30,736	0,054	-0,022
-337,548	-200,000	0,002	-0,069
-336,533	-85,065	0,098	0,022
-335,518	101,834	-0,075	0,064
-334,504	77,820	-0,126	0,098
-333,489	-42,918	-0,109	-0,040
-332,475	118,193	-0,101	-0,092
-331,460	800,000	-0,031	0,087
-330,445	-60,579	0,058	-0,018
-329,431	-37,572	0,082	-0,032
-328,416	241,066	-0,091	0,111
-327,402	165,321	0,105	0,109
-326,387	67,246	-0,101	0,075
-325,372	196,872	-0,058	-0,064
-324,358	93,305	0,090	-0,074
-323,343	800,000	-0,009	0,017
-322,329	88,664	0,034	0,028
-321,314	-119,593	-0,105	0,013
-320,299	51,947	-0,076	0,053
-319,285	-117,407	0,021	0,003
-318,270	151,028	0,077	0,077
-317,256	-200,000	0,017	0,060
-316,241	388,418	0,088	0,134
-315,226	-115,140	-0,240	0,033
-314,212	11,161	-0,057	0,032
-313,197	-72,541	0,073	0,020
-312,183	-200,000	0,004	0,054
-311,168	-200,000	-0,006	-0,033
-310,153	-56,121	0,015	-0,005
-309,139	800,000	0,022	0,067
-308,124	-200,000	0,000	-0,014
-307,110	158,485	-0,071	-0,072
-306,095	-56,308	0,088	0,028
-305,080	-140,100	0,011	0,001
-304,066	-200,000	0,031	-0,161
-303,051	545,093	0,028	0,049
-302,037	322,760	0,025	-0,036
-301,022	-200,000	-0,010	0,083
-300,008	800,000	0,035	0,084
-298,993	486,571	0,066	0,110
-297,978	-96,181	0,034	-0,007
-296,964	-103,281	0,186	0,032
-295,949	266,087	0,065	-0,083
-294,935	-11,499	0,045	0,022
-293,920	180,714	0,037	0,040
-292,905	800,000	-0,060	-0,126
-291,891	-127,985	0,173	0,018
-290,876	-96,478	-0,101	-0,019
-289,862	-200,000	0,016	0,120
-288,847	60,213	-0,082	-0,059
-287,832	624,918	-0,031	0,058
-286,818	-22,372	-0,047	0,021
-285,803	269,671	0,082	0,106
-284,789	-30,899	0,125	0,052
-283,774	16,196	-0,033	-0,019
-282,759	335,398	-0,057	0,081
-281,745	-200,000	-0,009	-0,099
-280,730	-200,000	0,013	-0,092
-279,716	-200,000	-0,009	-0,046
-278,701	36,245	-0,052	0,033
-277,686	-135,419	0,087	-0,008
-276,672	-200,000	-0,005	0,048
-275,657	800,000	-0,038	0,091
-274,643	119,143	-0,174	-0,157
-273,628	-200,000	0,012	-0,059
-272,613	-200,000	0,011	-0,041
-271,599	-200,000	0,025	0,089
-270,584	-99,629	0,085	-0,016
-269,570	73,972	0,132	0,101
-268,555	-200,000	-0,026	-0,150
-267,540	444,612	-0,073	-0,117
-266,526	99,865	-0,054	0,046
-265,511	-200,000	-0,008	-0,032
-264,497	-143,295	0,133	0,009
-263,482	122,550	0,067	0,061
-262,467	-200,000	0,024	-0,083
-261,453	-187,003	-0,115	-0,001
-260,438	-19,056	0,052	0,024
-259,424	-134,564	-0,166	0,015
-258,409	-68,160	0,092	-0,026
-257,395	484,785	-0,075	0,126
-256,380	800,000	0,031	0,075
-255,365	86,369	0,150	0,121
-254,351	404,461	-0,084	0,130
-253,336	-200,000	0,014	0,123
-252,322	-200,000	-0,011	0,053
-251,307	532,273	0,024	0,042
-250,292	281,185	0,076	0,099
-249,278	800,000	-0,016	0,039
-248,263	-5,110	-0,024	0,012
-247,249	-200,000	0,011	-0,072
-246,234	-133,967	-0,167	-0,015
-245,219	-200,000	0,026	-0,113
-244,205	-19,508	-0,094	-0,042
-243,190	800,000	0,010	-0,023
-242,176	265,460	0,123	-0,158
-241,161	-194,943	-0,050	0,000
-240,146	-2,756	0,116	0,059
-239,132	-7,097	0,133	-0,066
-238,117	2,091	0,038	0,020
-237,103	-163,768	-0,156	0,005
-236,088	339,466	0,109	-0,156
-235,073	-200,000	0,051	0,180
-234,059	-200,000	0,008	-0,163
-233,044	52,297	-0,018	-0,012
-232,030	-164,700	0,083	0,003
-231,015	64,030	-0,135	0,099
-230,000	-65,176	-0,139	-0,041
-228,986	800,000	-0,048	-0,125
-227,971	-200,000	-0,002	0,110
-226,957	-179,250	0,147	0,002
-225,942	250,528	0,042	-0,052
-224,927	-200,000	-0,012	0,039
-223,913	125,438	-0,086	-0,079
-222,898	124,046	-0,069	0,063
-221,884	124,025	-0,065	0,059
-220,869	-200,000	-0,015	0,072
-219,855	-200,000	0,004	0,078
-218,840	572,549	0,040	0,071
-217,825	26,859	0,106	0,065
-216,811	137,382	0,092	-0,088
-215,796	-5,937	-0,055	-0,028
-214,782	-189,947	-0,088	0,001
-213,767	-137,412	0,021	0,002
-212,752	-42,503	0,130	-0,048
-211,738	-200,000	0,015	0,060
-210,723	-160,573	0,216	0,008
-209,709	-42,142	-0,061	0,023
-208,694	-76,093	0,049	-0,013
-207,679	800,000	0,012	-0,025
-206,665	-128,902	0,072	0,007
-205,650	800,000	0,033	-0,082
-204,636	-200,000	-0,021	0,127
-203,621	88,096	0,033	0,026
-202,606	194,239	-0,045	0,050
-201,592	-200,000	0,010	-0,094
-200,577	-200,000	0,013	0,069
-199,563	800,000	0,032	-0,069
-198,548	800,000	0,046	0,138
-197,533	436,662	-0,031	0,050
-196,519	-200,000	-0,014	-0,073
-195,504	31,737	-0,059	0,037
-194,490	85,410	-0,023	-0,018
-193,475	60,525	0,052	-0,038
-192,460	-92,058	0,050	0,010
-191,446	-200,000	-0,018	0,121
-190,431	365,927	-0,044	0,066
-189,417	207,124	0,017	-0,020
-188,402	-22,757	-0,064	0,028
-187,387	-200,000	0,017	0,103
-186,373	-64,071	-0,095	-0,028
-185,358	11,759	-0,041	-0,023
-184,344	-67,461	-0,098	-0,028
-183,329	-172,973	0,162	-0,004
-182,315	-171,704	0,122	-0,003
-181,300	428,873	-0,019	-0,030
-180,285	287,210	-0,054	-0,071
-179,271	303,058	-0,031	0,042
-178,256	-74,282	-0,053	-0,014
-177,242	3,826	0,025	0,013
-176,227	-89,901	0,109	0,023
-175,212	800,000	-0,023	-0,056
-174,198	-162,375	0,111	0,004
-173,183	114,412	-0,076	-0,068
-172,169	197,178	0,142	-0,158
-171,154	-40,472	-0,064	0,024
-170,139	800,000	0,021	-0,049
-169,125	800,000	-0,030	0,076
-168,110	800,000	0,017	-0,042
-167,096	800,000	-0,005	0,013
-166,081	98,757	0,038	-0,032
-165,066	-200,000	-0,032	0,113
-164,052	-164,258	0,038	-0,001
-163,037	-95,204	-0,119	0,023
-162,023	800,000	-0,017	0,042
-161,008	219,462	-0,054	0,063
-159,993	800,000	-0,025	0,066
-158,979	800,000	-0,042	-0,107
-157,964	80,881	-0,034	-0,027
-156,950	800,000	-0,052	-0,113
-155,935	-15,658	0,048	-0,022
-154,920	-78,377	-0,079	-0,020
-153,906	705,049	-0,068	0,130
-152,891	406,066	0,038	0,059
-151,877	308,647	0,063	-0,086
-150,862	-2,804	-0,077	0,039
-149,847	390,093	0,096	-0,145
-148,833	292,456	-0,050	-0,066
-147,818	319,050	-0,042	-0,059
-146,804	-139,129	0,078	-0,006
-145,789	66,995	-0,129	0,096
-144,775	632,167	-0,028	-0,052
-143,760	267,918	0,025	-0,031
-142,745	-45,942	-0,126	-0,045
-141,731	72,810	-0,067	0,051
-140,716	128,278	-0,085	-0,078
-139,702	114,161	0,039	0,035
-138,687	476,974	0,084	0,139
-137,672	402,658	-0,034	-0,052
-136,658	-200,000	0,026	0,171
-135,643	-200,000	0,015	-0,075
-134,629	523,112	-0,068	0,117
-133,614	-200,000	0,013	0,122
-132,599	-126,525	-0,107	-0,011
-131,585	-200,000	0,010	0,043
-130,570	800,000	0,042	-0,128
-129,556	115,914	-0,036	0,032
-128,541	-109,345	-0,182	0,028
-127,526	-65,586	0,072	-0,021
-126,512	295,405	0,146	0,194
-125,497	275,972	-0,076	-0,099
-124,483	107,763	-0,151	0,131
-123,468	-200,000	-0,007	-0,029
-122,453	-200,000	0,001	-0,076
-121,439	449,594	-0,054	0,087
-120,424	134,211	-0,145	-0,137
-119,410	99,551	-0,060	0,051
