DTS Sentinel unit serial number:	SN410029Multiplexer serial number:	ORYXHardware model number:	OX2-SRSoftware version number:	ORYX F/W v4,00 Oryx Data Collector v3.7.2.0data status	okinstallation	B4 Nyhavnadifferential loss correction	single-endedforward channel	channel 2reverse channel	N/Adate	2023/12/16time	09:05:13forward acquisition time	300,00reverse acquisition time	0,00gamma	499,1914k internal	0,3127k external	0,3127temperature offset calibration	1,0000default loss term (dB/km)	0,3820temperature slope calibration	1,0000multiplexer offset coefficient	1,0000multiplexer slope coefficient	1,0000fibre end	0,00T internal ref (°C)	22,85T ext. ref 1 (°C)	8,80T ext. ref 2 (°C)	8,95length (m)	temperature (°C)	Stokes	anti-Stokes-744,400	214,899	-0,102	-0,120
-743,385	304,610	-0,101	0,139
-742,371	-70,616	-0,074	-0,021
-741,356	800,000	-0,101	0,225
-740,342	-31,531	0,059	0,025
-739,327	-29,470	-0,188	0,080
-738,312	38,051	0,105	-0,070
-737,298	-140,761	-0,125	-0,009
-736,283	-200,000	-0,022	-0,103
-735,269	30,886	-0,190	0,121
-734,254	10,656	0,039	0,022
-733,239	-116,629	-0,344	-0,047
-732,225	-11,158	0,091	-0,045
-731,210	-12,790	-0,046	0,022
-730,196	800,000	0,071	-0,201
-729,181	800,000	-0,080	-0,166
-728,167	-200,000	-0,003	0,057
-727,152	117,174	-0,065	0,060
-726,137	-200,000	-0,004	-0,026
-725,123	-14,290	-0,187	-0,089
-724,108	123,613	0,014	0,013
-723,094	-42,615	-0,109	-0,041
-722,079	151,638	-0,071	-0,072
-721,064	-200,000	0,003	-0,059
-720,050	388,403	-0,064	-0,099
-719,035	-132,949	-0,099	0,009
-718,021	180,101	-0,059	-0,065
-717,006	-11,557	-0,094	0,046
-715,991	-200,000	-0,005	-0,042
-714,977	800,000	-0,036	0,115
-713,962	3,448	-0,087	-0,047
-712,948	31,582	0,093	0,060
-711,933	-22,444	-0,058	0,026
-710,918	73,969	0,070	-0,054
-709,904	-161,842	-0,044	-0,002
-708,889	201,394	-0,058	0,067
-707,875	-200,000	-0,005	0,097
-706,860	176,460	-0,055	-0,060
-705,845	-74,967	0,115	0,030
-704,831	-155,511	0,029	-0,001
-703,816	-200,000	-0,000	0,013
-702,802	25,854	-0,048	0,030
-701,787	131,188	-0,145	-0,139
-700,772	194,266	0,066	-0,074
-699,758	-200,000	-0,069	-0,000
-698,743	-84,943	-0,049	0,011
-697,729	-200,000	-0,000	-0,061
-696,714	-35,060	-0,045	0,018
-695,699	-200,000	0,015	-0,052
-694,685	800,000	0,010	-0,031
-693,670	-200,000	-0,013	-0,118
-692,656	105,035	-0,096	-0,084
-691,641	-102,724	-0,062	-0,011
-690,627	-200,000	-0,003	0,078
-689,612	-14,324	0,141	0,067
-688,597	-200,000	0,023	-0,182
-687,583	261,182	-0,064	-0,083
-686,568	-78,160	0,079	0,020
-685,554	800,000	0,021	-0,067
-684,539	-200,000	0,007	-0,072
-683,524	24,903	0,028	0,017
-682,510	48,622	-0,023	-0,016
-681,495	800,000	0,038	-0,118
-680,481	38,740	0,014	-0,009
-679,466	-200,000	-0,010	-0,190
-678,451	-29,755	0,059	-0,025
-677,437	-85,965	0,057	0,013
-676,422	138,085	0,142	-0,138
-675,408	-195,396	0,078	0,000
-674,393	315,217	-0,021	-0,029
-673,378	800,000	-0,037	-0,109
-672,364	104,480	-0,111	-0,097
-671,349	84,240	-0,095	-0,077
-670,335	-200,000	-0,002	0,018
-669,320	800,000	0,043	-0,091
-668,305	-200,000	-0,003	-0,032
-667,291	800,000	-0,021	-0,063
-666,276	-200,000	-0,005	-0,084
-665,262	140,603	-0,009	-0,009
-664,247	313,370	0,066	-0,093
-663,232	-200,000	-0,004	0,075
-662,218	-51,676	0,071	-0,024
-661,203	67,888	-0,126	-0,096
-660,189	531,853	-0,088	-0,155
-659,174	492,139	-0,052	-0,088
-658,159	99,554	-0,073	0,063
-657,145	53,801	-0,090	-0,064
-656,130	0,181	0,083	-0,044
-655,116	800,000	-0,032	-0,070
-654,101	-200,000	-0,009	0,078
-653,086	800,000	-0,034	0,078
-652,072	237,280	-0,076	0,093
-651,057	299,338	0,077	-0,106
-650,043	-134,598	-0,038	0,003
-649,028	-200,000	-0,010	-0,060
-648,014	161,034	0,044	0,046
-646,999	-200,000	-0,043	0,214
-645,984	-171,731	0,085	-0,002
-644,970	-91,013	-0,127	0,027
-643,955	-156,676	0,014	-0,001
-642,941	253,816	0,061	-0,077
-641,926	-80,822	0,036	0,009
-640,911	169,168	0,053	-0,056
-639,897	506,166	-0,026	-0,044
-638,882	22,603	0,105	-0,063
-637,868	-176,191	0,027	-0,001
-636,853	222,695	0,083	-0,099
-635,838	-109,096	-0,140	-0,022
-634,824	417,030	-0,019	0,029
-633,809	-179,541	0,105	0,002
-632,795	-200,000	-0,000	0,116
-631,780	800,000	-0,034	-0,109
-630,765	-84,565	0,023	-0,005
-629,751	-56,995	-0,091	0,030
-628,736	800,000	-0,071	0,161
-627,722	211,280	-0,065	-0,076
-626,707	107,236	-0,046	0,041
-625,692	-53,387	-0,034	0,011
-624,678	100,346	-0,018	-0,016
-623,663	754,359	0,020	0,040
-622,649	279,094	-0,060	-0,079
-621,634	35,973	-0,163	-0,106
-620,619	-19,404	-0,142	-0,065
-619,605	180,057	-0,110	0,120
-618,590	49,514	0,154	-0,107
-617,576	-11,927	0,069	-0,034
-616,561	203,177	0,107	0,123
-615,546	-19,932	0,056	0,026
-614,532	800,000	-0,046	-0,133
-613,517	260,997	-0,047	-0,060
-612,503	800,000	0,037	-0,089
-611,488	376,159	0,082	-0,124
-610,474	425,084	0,050	0,081
-609,459	-165,416	0,140	0,004
-608,444	103,336	-0,089	0,078
-607,430	-200,000	0,005	-0,148
-606,415	132,397	0,093	-0,089
-605,401	481,090	-0,021	0,036
-604,386	-70,403	-0,028	0,008
-603,371	800,000	-0,007	-0,018
-602,357	14,665	0,059	0,034
-601,342	125,715	-0,088	0,082
-600,328	572,932	0,028	0,051
-599,313	282,748	-0,024	0,032
-598,298	312,116	0,104	-0,145
-597,284	157,157	0,023	0,024
-596,269	-28,371	0,073	-0,031
-595,255	137,121	0,056	0,055
-594,240	-77,433	-0,175	-0,045
-593,225	223,752	-0,038	-0,045
-592,211	800,000	-0,066	-0,138
-591,196	129,439	-0,079	0,075
-590,182	-200,000	-0,022	0,108
-589,167	32,081	0,041	-0,026
-588,152	642,143	0,053	-0,101
-587,138	-90,899	-0,051	-0,011
-586,123	69,484	0,039	-0,030
-585,109	18,529	-0,064	-0,038
-584,094	153,800	0,109	-0,111
-583,079	-200,000	0,019	-0,204
-582,065	800,000	0,054	-0,132
-581,050	-200,000	0,020	-0,071
-580,036	68,687	0,042	0,032
-579,021	-24,759	-0,092	-0,040
-578,006	-200,000	-0,048	-0,180
-576,992	174,333	-0,086	0,092
-575,977	-200,000	0,030	0,113
-574,963	-200,000	0,014	0,052
-573,948	-200,000	-0,009	-0,078
-572,934	-200,000	-0,027	-0,138
-571,919	589,668	-0,060	-0,110
-570,904	-110,262	-0,076	-0,012
-569,890	151,262	-0,096	-0,097
-568,875	622,212	-0,007	-0,013
-567,861	-200,000	0,064	0,229
-566,846	-200,000	0,020	0,125
-565,831	337,268	-0,022	-0,032
-564,817	-139,571	-0,021	0,002
-563,802	-24,278	-0,041	-0,018
-562,788	42,858	-0,098	-0,066
-561,773	788,902	-0,026	-0,052
-560,758	-200,000	-0,008	-0,051
-559,744	31,674	-0,153	0,097
-558,729	-83,510	-0,081	0,019
-557,715	242,999	0,004	-0,005
-556,700	-151,352	-0,238	0,013
-555,685	423,626	0,095	-0,151
-554,671	800,000	0,045	-0,134
-553,656	766,074	-0,038	-0,077
-552,642	83,858	0,071	0,057
-551,627	800,000	0,014	0,037
-550,612	-23,995	-0,060	0,026
-549,598	149,083	-0,022	0,022
-548,583	-200,000	-0,002	0,047
-547,569	117,687	0,036	-0,033
-546,554	125,010	0,041	-0,038
-545,539	-64,522	-0,113	-0,034
-544,525	-64,716	0,059	-0,018
-543,510	-191,565	-0,118	0,001
-542,496	468,963	0,033	-0,054
-541,481	800,000	-0,017	-0,045
-540,466	142,931	-0,076	-0,075
-539,452	-200,000	0,018	0,115
-538,437	171,637	-0,058	0,062
-537,423	800,000	-0,075	-0,183
-536,408	791,255	-0,056	-0,113
-535,393	-200,000	0,022	-0,075
-534,379	412,728	0,065	-0,102
-533,364	-200,000	-0,030	-0,139
-532,350	-106,294	0,054	0,009
-531,335	95,248	-0,095	0,080
-530,321	800,000	0,017	0,054
-529,306	44,286	-0,065	-0,044
-528,291	168,746	0,076	-0,080
-527,277	107,393	-0,083	0,073
-526,262	336,388	0,042	0,061
-525,248	-123,871	-0,110	0,013
-524,233	565,989	0,075	0,135
-523,218	113,029	0,021	0,019
-522,204	-68,126	0,021	-0,006
-521,189	-200,000	-0,020	0,075
-520,175	800,000	-0,070	-0,145
-519,160	-148,683	-0,133	0,008
-518,145	800,000	0,026	-0,068
-517,131	800,000	0,022	-0,068
-516,116	-200,000	0,033	0,188
-515,102	-200,000	-0,037	0,153
-514,087	-142,458	0,099	0,007
-513,072	-109,619	-0,034	-0,005
-512,058	-111,528	0,060	-0,009
-511,043	298,533	0,031	-0,043
-510,029	-200,000	0,028	0,123
-509,014	-68,315	0,102	0,029
-507,999	129,304	-0,026	0,024
-506,985	-32,786	-0,129	-0,053
-505,970	-200,000	0,006	-0,233
-504,956	-200,000	0,041	-0,144
-503,941	520,892	-0,036	0,063
-502,926	-32,209	0,164	-0,067
-501,912	-200,000	-0,011	0,164
-500,897	-63,259	0,058	0,017
-499,883	-9,526	0,084	0,041
-498,868	88,156	-0,021	-0,017
-497,853	725,692	-0,041	-0,081
-496,839	164,408	0,111	0,116
-495,824	-17,443	0,089	-0,041
-494,810	-43,575	0,076	0,028
-493,795	531,948	0,078	0,137
-492,781	54,576	0,033	-0,024
-491,766	665,761	-0,038	-0,072
-490,751	-200,000	0,003	-0,182
-489,737	158,531	-0,084	-0,086
-488,722	0,853	0,064	-0,033
-487,708	800,000	0,042	0,087
-486,693	-59,614	0,118	0,037
-485,678	-123,588	-0,147	0,017
-484,664	-200,000	-0,040	0,193
-483,649	800,000	0,030	0,069
-482,635	66,324	-0,111	0,083
-481,620	-200,000	-0,001	0,128
-480,605	800,000	0,051	0,147
-479,591	-200,000	0,023	0,169
-478,576	800,000	-0,008	-0,018
-477,562	-86,494	-0,087	-0,019
-476,547	-200,000	0,009	0,110
-475,532	-184,510	-0,155	-0,002
-474,518	-200,000	-0,041	0,136
-473,503	-139,843	0,099	-0,008
-472,489	65,728	0,025	0,019
-471,474	800,000	0,060	0,153
-470,459	-81,886	0,029	0,007
-469,445	96,755	-0,026	-0,022
-468,430	84,302	-0,059	0,048
-467,416	-83,877	0,088	0,021
-466,401	122,778	0,026	-0,024
-465,386	150,891	0,038	-0,038
-464,372	-200,000	-0,022	-0,086
-463,357	-68,018	-0,109	-0,031
-462,343	376,853	0,026	0,040
-461,328	130,348	-0,073	-0,069
-460,313	-138,103	-0,115	-0,009
-459,299	-3,137	0,126	0,065
-458,284	-38,264	-0,176	0,068
-457,270	684,329	-0,060	0,115
-456,255	-163,973	-0,074	-0,002
-455,241	159,172	0,021	-0,021
-454,226	-126,397	-0,028	-0,003
-453,211	800,000	0,041	0,085
-452,197	-146,542	0,089	-0,006
-451,182	-81,275	0,101	0,024
-450,168	800,000	-0,012	-0,026
-449,153	-8,334	-0,079	-0,039
-448,138	-200,000	-0,007	0,089
-447,124	-31,606	-0,064	0,026
-446,109	120,757	0,074	0,068
-445,095	-142,023	0,077	0,006
-444,080	189,654	-0,098	-0,108
-443,065	800,000	0,047	-0,105
-442,051	-162,993	-0,040	0,001
-441,036	-66,679	0,132	-0,038
-440,022	-118,582	-0,217	0,028
-439,007	-200,000	0,012	-0,128
-437,992	800,000	0,047	0,142
-436,978	384,063	0,057	0,086
-435,963	800,000	0,029	0,072
-434,949	-52,979	0,149	0,050
-433,934	-200,000	-0,013	-0,087
-432,919	-200,000	0,017	-0,079
-431,905	-93,855	0,052	-0,010
-430,890	800,000	-0,024	-0,052
-429,876	-156,809	-0,109	0,005
-428,861	260,744	0,080	0,102
-427,846	78,922	0,086	0,067
-426,832	800,000	-0,032	-0,103
-425,817	17,161	-0,206	-0,120
-424,803	142,403	-0,071	-0,069
-423,788	-142,441	-0,033	0,002
-422,773	218,355	0,063	0,075
-421,759	-60,481	-0,027	0,008
-420,744	204,209	0,113	-0,129
-419,730	-200,000	0,005	-0,033
-418,715	30,998	0,072	-0,045
-417,701	-93,243	-0,079	-0,016
-416,686	800,000	0,028	0,078
-415,671	229,088	0,039	0,047
-414,657	16,074	0,004	-0,003
-413,642	29,400	0,046	-0,028
-412,628	-200,000	0,014	-0,102
-411,613	-104,669	-0,169	0,028
-410,598	104,587	-0,069	0,060
-409,584	800,000	0,040	0,128
-408,569	126,065	0,097	0,090
-407,555	475,534	-0,016	0,027
-406,540	87,137	0,081	0,065
-405,525	87,279	0,096	0,078
-404,511	-200,000	-0,012	0,042
-403,496	-18,756	0,084	0,038
-402,482	-200,000	0,022	-0,150
-401,467	-1,144	0,091	0,047
-400,452	-200,000	0,028	0,153
-399,438	800,000	0,056	0,130
-398,423	-200,000	-0,019	-0,088
-397,409	-55,631	-0,145	0,047
-396,394	16,738	-0,036	-0,021
-395,379	52,711	-0,049	0,035
-394,365	800,000	0,044	0,117
-393,350	-80,643	0,075	0,018
-392,336	800,000	-0,059	0,179
-391,321	372,059	0,042	-0,062
-390,306	129,714	-0,142	-0,134
-389,292	39,078	0,070	-0,046
-388,277	-70,509	-0,094	0,026
-387,263	547,210	-0,061	0,107
-386,248	59,701	0,098	0,071
-385,233	239,605	0,030	0,037
-384,219	172,764	0,012	-0,013
-383,204	-200,000	-0,007	-0,183
-382,190	537,946	-0,081	-0,142
-381,175	-200,000	0,025	0,090
-380,160	25,400	0,138	0,084
-379,146	-7,933	0,139	-0,069
-378,131	168,573	-0,109	0,114
-377,117	-103,692	-0,125	0,021
-376,102	-200,000	-0,000	-0,100
-375,088	-200,000	-0,003	-0,126
-374,073	800,000	0,021	0,045
-373,058	274,616	-0,009	0,012
-372,044	56,014	0,109	0,077
-371,029	-3,002	0,039	0,020
-370,015	412,705	0,061	-0,096
-369,000	-73,374	0,132	-0,035
-367,985	-200,000	0,006	-0,057
-366,971	-200,000	0,000	-0,102
-365,956	-200,000	0,031	0,102
-364,942	9,099	-0,194	-0,107
-363,927	800,000	0,033	0,080
-362,912	-200,000	-0,020	-0,108
-361,898	1,857	-0,112	-0,059
-360,883	800,000	-0,008	0,023
-359,869	778,696	-0,061	0,122
-358,854	29,483	0,067	-0,042
-357,839	66,459	0,021	-0,016
-356,825	226,067	0,088	0,105
-355,810	-42,666	-0,103	-0,038
-354,796	106,922	-0,048	-0,042
-353,781	-200,000	-0,025	-0,144
-352,766	206,471	-0,014	-0,016
-351,752	264,935	-0,050	0,064
-350,737	-200,000	-0,017	0,156
-349,723	-4,971	0,162	0,082
-348,708	-200,000	-0,002	0,044
-347,693	757,820	-0,053	0,106
-346,679	-59,190	-0,097	0,030
-345,664	-93,987	0,159	0,032
-344,650	800,000	-0,037	-0,109
-343,635	800,000	-0,018	0,050
-342,620	-200,000	-0,014	-0,052
-341,606	240,909	0,113	0,138
-340,591	-200,000	-0,016	-0,106
-339,577	-200,000	-0,018	0,070
-338,562	-200,000	0,014	-0,096
-337,548	800,000	-0,072	-0,208
-336,533	93,759	-0,049	-0,041
-335,518	284,734	-0,036	0,048
-334,504	-138,512	0,054	0,004
-333,489	179,912	-0,092	-0,099
-332,475	-120,783	-0,075	-0,009
-331,460	66,779	-0,117	-0,087
-330,445	223,698	-0,077	0,091
-329,431	-21,590	-0,053	0,024
-328,416	-200,000	0,018	0,084
-327,402	35,540	-0,134	-0,086
-326,387	-0,998	0,064	0,033
-325,372	16,297	-0,055	-0,031
-324,358	492,058	-0,078	-0,132
-323,343	-1,073	-0,041	-0,021
-322,329	-200,000	0,004	0,013
-321,314	129,264	0,090	0,084
-320,299	800,000	-0,019	0,039
-319,285	-200,000	-0,028	-0,092
-318,270	-200,000	-0,014	-0,142
-317,256	-200,000	-0,035	-0,164
-316,241	29,115	0,066	-0,041
-315,226	8,809	0,158	-0,087
-314,212	98,677	0,089	0,075
-313,197	399,925	-0,087	0,133
-312,183	-33,725	0,142	0,057
-311,168	-94,226	0,068	-0,013
-310,153	-200,000	0,009	-0,136
-309,139	-171,377	-0,138	-0,003
-308,124	-32,761	0,063	0,025
-307,110	-82,857	0,020	-0,005
-306,095	44,912	-0,054	0,036
-305,080	-54,740	0,178	-0,058
-304,066	110,293	0,080	-0,071
-303,051	-151,339	-0,116	-0,006
-302,037	49,106	-0,087	-0,060
-301,022	-50,439	0,043	0,015
-300,008	180,791	0,032	0,035
-298,993	724,795	-0,040	-0,079
-297,978	-44,141	-0,098	0,036
-296,964	-79,629	-0,092	-0,022
-295,949	800,000	-0,023	-0,075
-294,935	719,579	0,003	-0,006
-293,920	-64,984	0,007	-0,002
-292,905	-200,000	0,010	0,041
-291,891	800,000	0,034	0,075
-290,876	147,904	-0,019	-0,019
-289,862	-2,219	0,070	-0,036
-288,847	-200,000	0,011	-0,131
-287,832	800,000	0,045	-0,094
-286,818	381,535	-0,020	-0,029
-285,803	-200,000	0,010	0,036
-284,789	-79,641	0,101	0,025
-283,774	-200,000	0,024	0,201
-282,759	-200,000	-0,023	0,198
-281,745	119,544	-0,041	-0,037
-280,730	-14,097	-0,160	-0,075
-279,716	59,631	-0,108	-0,078
-278,701	-200,000	-0,059	-0,197
-277,686	292,542	0,041	-0,055
-276,672	-93,761	-0,119	-0,024
-275,657	614,876	0,098	0,180
-274,643	5,755	0,128	-0,069
-273,628	84,306	-0,090	-0,072
-272,613	379,770	0,052	-0,079
-271,599	40,646	0,098	0,065
-270,584	-200,000	0,039	-0,152
-269,570	-200,000	-0,017	-0,088
-268,555	-200,000	0,012	-0,063
-267,540	800,000	-0,003	0,008
-266,526	561,483	-0,064	0,113
-265,511	-126,703	-0,035	-0,004
-264,497	-33,874	0,064	0,026
-263,482	41,055	0,050	-0,033
-262,467	-200,000	0,027	0,097
-261,453	800,000	0,033	0,099
-260,438	800,000	-0,063	0,168
-259,424	-51,685	0,097	-0,033
-258,409	-103,907	0,040	0,007
-257,395	-200,000	0,045	-0,162
-256,380	605,043	-0,012	0,021
-255,365	66,419	0,016	-0,012
-254,351	87,122	0,078	0,063
-253,336	800,000	0,009	-0,025
-252,322	-72,454	-0,090	0,024
-251,307	654,505	0,025	-0,047
-250,292	-134,300	-0,138	0,012
-249,278	-74,711	0,032	-0,008
-248,263	278,130	0,051	0,066
-247,249	143,420	0,076	0,074
-246,234	5,982	0,086	0,047
-245,219	288,135	0,026	0,034
-244,205	-18,489	0,060	0,027
-243,190	269,531	0,030	0,038
-242,176	180,758	-0,035	-0,037
-241,161	21,819	0,146	-0,087
-240,146	800,000	-0,024	0,057
-239,132	-83,957	0,066	0,015
-238,117	-200,000	0,015	-0,100
-237,103	-164,105	-0,079	-0,003
-236,088	158,860	-0,041	-0,042
-235,073	697,341	0,063	0,121
-234,059	800,000	0,039	0,080
-233,044	-200,000	0,001	-0,011
-232,030	-81,619	0,087	-0,021
-231,015	17,714	0,016	-0,010
-230,000	98,462	-0,098	-0,082
-228,986	434,120	0,050	-0,080
-227,971	-106,009	-0,074	-0,012
-226,957	-200,000	0,023	0,107
-225,942	-32,128	0,102	0,042
-224,927	-81,405	0,088	-0,021
-223,913	-86,461	-0,070	0,015
-222,898	-2,209	0,087	0,044
-221,884	-85,634	0,102	-0,023
-220,869	3,806	0,112	0,059
-219,855	800,000	0,054	0,122
-218,840	305,263	-0,043	0,059
-217,825	800,000	0,021	-0,063
-216,811	96,419	0,080	-0,066
-215,796	-171,983	0,062	0,001
-214,782	41,826	-0,071	0,047
-213,767	-105,904	0,092	-0,015
-212,752	5,373	0,111	0,059
-211,738	-56,256	0,098	0,032
-210,723	-200,000	-0,008	0,080
-209,709	-200,000	-0,024	-0,171
-208,694	-200,000	-0,007	-0,030
-207,679	-60,175	-0,091	0,028
-206,665	-200,000	0,002	-0,152
-205,650	-67,687	-0,016	-0,005
-204,636	527,787	0,029	0,050
-203,621	-189,177	-0,107	0,001
-202,606	-200,000	0,014	-0,094
-201,592	222,814	-0,064	-0,075
-200,577	800,000	-0,006	0,014
-199,563	800,000	-0,058	0,118
-198,548	-61,128	-0,191	-0,058
-197,533	-83,315	0,137	-0,032
-196,519	-200,000	-0,006	0,056
-195,504	36,572	-0,063	-0,040
-194,490	692,595	-0,074	0,142
-193,475	-200,000	0,012	0,060
-192,460	800,000	0,070	0,185
-191,446	800,000	0,048	0,115
-190,431	-200,000	0,006	0,082
-189,417	800,000	0,027	0,069
-188,402	559,159	0,028	-0,049
-187,387	-200,000	0,005	0,097
-186,373	-107,085	-0,067	-0,011
-185,358	285,578	-0,057	0,075
-184,344	-44,071	0,108	0,039
-183,329	-200,000	-0,009	0,077
-182,315	83,562	0,025	0,020
-181,300	763,870	-0,020	-0,039
-180,285	203,603	0,043	-0,048
-179,271	-10,848	-0,081	-0,039
-178,256	-176,796	0,031	-0,001
-177,242	-200,000	0,021	0,068
-176,227	-110,665	0,132	0,020
-175,212	-169,502	0,068	0,002
-174,198	-18,437	-0,101	0,046
-173,183	67,097	-0,060	-0,044
-172,169	176,019	-0,022	0,024
-171,154	800,000	-0,026	0,067
-170,139	800,000	-0,024	0,057
-169,125	118,574	0,018	-0,017
-168,110	-113,544	-0,037	0,005
-167,096	800,000	0,009	0,028
-166,081	-95,007	-0,028	0,005
-165,066	524,132	-0,045	-0,077
-164,052	-42,877	-0,041	-0,015
-163,037	-136,915	0,072	-0,006
-162,023	-48,563	-0,046	0,016
-161,008	-98,245	-0,100	-0,018
-159,993	-200,000	0,004	-0,032
-158,979	-125,304	0,071	-0,008
-157,964	377,716	-0,046	0,069
-156,950	-111,286	0,016	0,002
-155,935	-35,288	-0,097	0,038
-154,920	84,812	0,058	0,046
-153,906	-200,000	-0,009	0,035
-152,891	-113,788	0,118	-0,017
-151,877	365,275	-0,032	0,046
-150,862	342,224	-0,081	-0,116
-149,847	-200,000	-0,019	-0,069
-148,833	-89,693	0,070	0,015
-147,818	38,264	0,071	0,046
-146,804	179,706	-0,058	-0,062
-145,789	299,549	0,028	-0,038
-144,775	309,976	-0,070	-0,095
-143,760	312,814	-0,010	-0,014
-142,745	158,589	-0,111	-0,112
-141,731	800,000	0,053	-0,137
-140,716	-79,838	-0,046	-0,011
-139,702	800,000	0,035	0,080
-138,687	49,260	0,014	-0,009
-137,672	800,000	-0,066	-0,187
-136,658	7,485	-0,116	-0,063
-135,643	43,127	0,048	0,032
-134,629	98,752	0,024	-0,020
-133,614	235,986	0,040	-0,048
-132,599	-145,065	-0,028	-0,002
-131,585	330,843	0,068	0,095
-130,570	708,797	-0,055	0,107
-129,556	800,000	0,048	-0,116
-128,541	-200,000	-0,004	0,057
-127,526	-200,000	-0,023	-0,079
-126,512	-158,117	-0,151	-0,006
-125,497	-38,261	-0,090	0,035
-124,483	-200,000	-0,010	-0,044
-123,468	420,591	-0,077	0,121
-122,453	-200,000	0,003	-0,013
-121,439	-200,000	-0,015	-0,160
-120,424	745,260	0,066	-0,129
-119,410	85,584	-0,105	-0,083
