DTS Sentinel unit serial number:	SN410029Multiplexer serial number:	ORYXHardware model number:	OX2-SRSoftware version number:	ORYX F/W v4,00 Oryx Data Collector v3.7.2.0data status	okinstallation	B4 Nyhavnadifferential loss correction	single-endedforward channel	channel 2reverse channel	N/Adate	2023/12/15time	23:25:13forward acquisition time	300,00reverse acquisition time	0,00gamma	499,1914k internal	0,3129k external	0,3129temperature offset calibration	1,0000default loss term (dB/km)	0,3820temperature slope calibration	1,0000multiplexer offset coefficient	1,0000multiplexer slope coefficient	1,0000fibre end	0,00T internal ref (°C)	21,69T ext. ref 1 (°C)	6,72T ext. ref 2 (°C)	6,89length (m)	temperature (°C)	Stokes	anti-Stokes-744,400	-17,030	0,143	0,067
-743,385	-97,173	-0,107	0,021
-742,371	125,511	0,049	0,046
-741,356	135,772	-0,106	0,103
-740,342	-200,000	0,001	0,161
-739,327	113,153	-0,197	0,178
-738,312	-200,000	0,004	-0,077
-737,298	-140,828	-0,284	-0,021
-736,283	87,076	0,002	0,002
-735,269	130,573	-0,075	0,072
-734,254	800,000	-0,046	-0,110
-733,239	-55,412	-0,370	-0,123
-732,225	188,182	0,032	-0,035
-731,210	221,750	0,119	-0,143
-730,196	-121,578	0,095	0,012
-729,181	-105,250	-0,168	0,028
-728,167	-200,000	0,008	0,080
-727,152	800,000	-0,019	0,052
-726,137	9,626	0,081	-0,045
-725,123	-70,781	-0,128	-0,036
-724,108	-200,000	0,039	-0,135
-723,094	324,218	-0,042	-0,060
-722,079	389,542	-0,096	-0,148
-721,064	168,720	-0,041	-0,043
-720,050	108,299	-0,054	0,048
-719,035	-153,297	-0,141	-0,007
-718,021	-200,000	-0,000	-0,064
-717,006	38,952	-0,059	0,039
-715,991	800,000	-0,015	-0,033
-714,977	179,284	-0,019	0,021
-713,962	-200,000	0,003	-0,062
-712,948	6,233	0,092	0,050
-711,933	-65,718	-0,129	-0,038
-710,918	171,393	-0,035	0,037
-709,904	137,093	-0,080	0,078
-708,889	800,000	0,088	-0,226
-707,875	-134,250	-0,180	0,016
-706,860	800,000	0,005	-0,016
-705,845	-200,000	0,039	-0,158
-704,831	64,107	0,140	0,105
-703,816	227,324	-0,091	-0,110
-702,802	319,925	-0,083	-0,117
-701,787	32,766	-0,238	-0,153
-700,772	-89,724	-0,177	-0,038
-699,758	110,435	0,075	-0,067
-698,743	-67,797	-0,053	0,015
-697,729	73,925	-0,199	0,155
-696,714	526,795	0,046	0,081
-695,699	-69,949	-0,145	-0,041
-694,685	470,761	0,053	-0,088
-693,670	-16,913	-0,111	-0,052
-692,656	14,277	-0,045	0,026
-691,641	399,900	0,023	0,036
-690,627	-200,000	-0,010	0,061
-689,612	-89,358	0,068	-0,015
-688,597	-200,000	-0,020	-0,073
-687,583	552,749	0,035	-0,062
-686,568	-103,355	-0,106	-0,018
-685,554	59,761	-0,037	-0,027
-684,539	379,964	-0,038	-0,057
-683,524	-42,213	-0,149	-0,056
-682,510	-200,000	0,002	0,144
-681,495	576,419	-0,005	-0,010
-680,481	-132,233	-0,092	0,009
-679,466	-178,230	-0,055	0,001
-678,451	800,000	0,014	-0,035
-677,437	731,139	-0,044	0,088
-676,422	-128,391	-0,068	-0,007
-675,408	-200,000	0,024	0,112
-674,393	-54,481	-0,007	-0,002
-673,378	87,707	-0,063	0,052
-672,364	212,961	-0,022	0,025
-671,349	94,450	-0,075	-0,063
-670,335	456,523	0,057	-0,095
-669,320	251,816	0,045	0,057
-668,305	-200,000	0,006	-0,025
-667,291	-117,807	0,046	0,006
-666,276	-140,299	-0,132	0,010
-665,262	789,225	-0,091	-0,187
-664,247	26,391	-0,039	-0,024
-663,232	800,000	0,015	-0,041
-662,218	213,888	0,056	-0,065
-661,203	155,595	0,123	0,126
-660,189	479,206	-0,036	0,061
-659,174	-200,000	-0,006	0,045
-658,159	-200,000	-0,007	-0,046
-657,145	166,773	0,049	-0,052
-656,130	-200,000	0,003	-0,135
-655,116	800,000	-0,027	0,058
-654,101	12,343	0,187	-0,107
-653,086	151,602	-0,020	0,020
-652,072	-154,971	-0,134	-0,006
-651,057	800,000	-0,011	0,034
-650,043	-23,860	0,056	0,025
-649,028	-200,000	-0,020	0,119
-648,014	-68,684	0,109	0,031
-646,999	175,871	0,072	-0,077
-645,984	800,000	0,028	-0,060
-644,970	-113,042	-0,040	0,006
-643,955	800,000	-0,039	0,123
-642,941	-99,311	0,054	-0,010
-641,926	-200,000	-0,015	0,109
-640,911	-38,675	0,072	-0,028
-639,897	-73,865	-0,077	0,020
-638,882	800,000	-0,046	-0,105
-637,868	130,855	-0,016	0,015
-636,853	-1,175	-0,076	-0,040
-635,838	800,000	0,018	-0,048
-634,824	-148,482	-0,035	-0,002
-633,809	26,356	0,082	0,051
-632,795	279,805	-0,090	0,120
-631,780	-168,433	0,071	0,002
-630,765	-157,684	0,061	0,003
-629,751	800,000	-0,045	-0,130
-628,736	23,874	-0,050	0,031
-627,722	449,811	0,057	0,093
-626,707	-154,554	-0,215	0,010
-625,692	-151,283	0,084	0,005
-624,678	16,503	-0,072	-0,042
-623,663	-37,281	-0,090	-0,035
-622,649	544,097	0,053	-0,093
-621,634	403,319	0,038	0,060
-620,619	35,968	-0,034	-0,022
-619,605	-158,242	0,134	-0,006
-618,590	69,936	-0,033	-0,026
-617,576	800,000	-0,011	0,024
-616,561	-152,574	0,013	-0,001
-615,546	269,210	0,035	-0,046
-614,532	49,894	0,034	-0,023
-613,517	206,366	0,065	-0,075
-612,503	44,278	-0,108	-0,073
-611,488	93,287	0,024	-0,020
-610,474	-12,597	0,097	0,047
-609,459	-129,128	0,111	0,011
-608,444	-151,106	-0,097	-0,005
-607,430	-200,000	-0,037	-0,268
-606,415	800,000	-0,021	0,049
-605,401	95,603	0,039	-0,033
-604,386	-200,000	-0,011	0,048
-603,371	-124,653	0,093	-0,011
-602,357	16,575	-0,030	-0,018
-601,342	-200,000	-0,005	-0,064
-600,328	-89,535	-0,118	0,025
-599,313	597,030	-0,050	-0,092
-598,298	800,000	-0,072	-0,153
-597,284	151,051	0,034	-0,035
-596,269	800,000	0,026	-0,063
-595,255	-92,518	0,136	-0,028
-594,240	-170,039	-0,074	0,002
-593,225	132,075	-0,041	-0,039
-592,211	77,505	-0,070	0,055
-591,196	-200,000	0,011	0,087
-590,182	800,000	0,043	0,120
-589,167	187,222	-0,100	0,111
-588,152	-22,103	-0,093	0,042
-587,138	-200,000	-0,061	0,216
-586,123	22,199	-0,095	-0,057
-585,109	55,030	-0,145	-0,104
-584,094	16,457	0,031	0,018
-583,079	288,475	0,070	-0,094
-582,065	31,635	-0,053	0,034
-581,050	29,095	-0,100	0,063
-580,036	105,776	-0,067	0,059
-579,021	-76,648	0,011	-0,003
-578,006	68,359	0,053	-0,040
-576,992	-200,000	0,040	-0,143
-575,977	-52,381	-0,049	0,017
-574,963	-91,489	-0,056	-0,012
-573,948	-200,000	0,002	-0,069
-572,934	-200,000	-0,009	0,036
-571,919	87,950	0,115	0,094
-570,904	84,532	-0,124	-0,101
-569,890	82,465	-0,049	-0,039
-568,875	266,421	0,088	0,114
-567,861	-83,697	0,038	0,009
-566,846	-200,000	0,001	0,116
-565,831	800,000	0,002	0,005
-564,817	-200,000	0,088	-0,000
-563,802	524,276	-0,071	-0,124
-562,788	190,118	-0,104	0,116
-561,773	516,708	-0,030	0,053
-560,758	800,000	0,010	0,029
-559,744	533,128	-0,028	-0,049
-558,729	-147,498	-0,159	0,010
-557,715	253,919	0,038	0,048
-556,700	271,099	0,039	-0,051
-555,685	800,000	-0,080	-0,166
-554,671	515,100	-0,059	0,101
-553,656	-200,000	0,029	0,101
-552,642	274,715	0,038	-0,050
-551,627	-103,067	0,153	0,026
-550,612	34,190	0,022	-0,014
-549,598	-84,265	-0,119	0,028
-548,583	-200,000	0,005	-0,036
-547,569	140,118	0,070	0,068
-546,554	687,835	0,013	-0,025
-545,539	-200,000	-0,025	-0,094
-544,525	-137,310	-0,045	-0,004
-543,510	-2,290	0,078	-0,040
-542,496	-123,636	0,051	0,006
-541,481	-200,000	0,009	-0,067
-540,466	-200,000	0,003	-0,128
-539,452	16,925	-0,060	0,035
-538,437	-24,482	0,047	-0,021
-537,423	-128,617	0,136	0,014
-536,408	251,592	0,008	-0,010
-535,393	282,069	0,061	-0,081
-534,379	-159,340	-0,095	-0,004
-533,364	24,990	0,060	-0,036
-532,350	-200,000	-0,020	-0,151
-531,335	38,259	0,079	-0,052
-530,321	318,440	0,062	0,088
-529,306	800,000	-0,008	0,016
-528,291	66,506	-0,095	-0,071
-527,277	337,118	-0,080	-0,115
-526,262	331,321	0,041	0,059
-525,248	-88,658	-0,058	0,013
-524,233	-119,580	-0,046	-0,006
-523,218	275,378	0,012	0,015
-522,204	221,720	-0,060	-0,071
-521,189	392,774	0,070	-0,108
-520,175	800,000	-0,035	0,112
-519,160	455,352	0,072	-0,118
-518,145	682,339	-0,023	0,045
-517,131	-200,000	-0,031	0,108
-516,116	800,000	-0,009	-0,025
-515,102	316,470	-0,099	0,138
-514,087	-194,361	0,030	-0,000
-513,072	180,449	0,072	0,078
-512,058	-200,000	-0,011	-0,071
-511,043	-200,000	-0,005	0,062
-510,029	-106,469	-0,091	-0,015
-509,014	176,526	-0,054	-0,058
-507,999	313,288	0,022	-0,031
-506,985	247,142	-0,057	-0,071
-505,970	-200,000	0,027	-0,110
-504,956	800,000	-0,047	-0,137
-503,941	191,432	-0,045	-0,050
-502,926	281,515	0,093	0,124
-501,912	800,000	-0,020	-0,056
-500,897	376,486	0,020	0,031
-499,883	86,903	-0,046	-0,037
-498,868	221,706	0,023	-0,027
-497,853	800,000	-0,054	-0,127
-496,839	-65,115	0,089	-0,026
-495,824	-200,000	0,018	0,222
-494,810	734,816	0,040	-0,078
-493,795	-123,790	-0,174	0,020
-492,781	-106,386	-0,292	-0,048
-491,766	-200,000	0,016	0,071
-490,751	3,373	0,124	-0,066
-489,737	-200,000	-0,014	-0,062
-488,722	-59,404	0,094	-0,030
-487,708	800,000	0,066	0,167
-486,693	152,534	-0,032	0,032
-485,678	408,893	-0,067	-0,105
-484,664	800,000	-0,028	-0,057
-483,649	-200,000	-0,006	0,062
-482,635	-47,921	0,148	0,052
-481,620	-200,000	-0,007	0,043
-480,605	268,023	0,029	0,037
-479,591	100,824	0,052	0,044
-478,576	307,104	-0,079	0,108
-477,562	40,777	0,076	-0,051
-476,547	183,226	-0,039	0,042
-475,532	800,000	0,032	-0,079
-474,518	596,361	0,086	0,158
-473,503	-123,839	0,136	-0,016
-472,489	158,435	-0,077	0,079
-471,474	-109,643	0,157	-0,024
-470,459	366,394	0,032	-0,047
-469,445	12,228	-0,061	-0,034
-468,430	111,650	0,023	0,020
-467,416	355,953	0,083	0,122
-466,401	-89,412	-0,054	-0,012
-465,386	280,229	0,023	-0,031
-464,372	-151,009	0,046	-0,003
-463,357	65,813	-0,075	-0,056
-462,343	-165,589	-0,109	0,003
-461,328	118,120	-0,026	0,023
-460,313	63,489	0,057	0,042
-459,299	239,273	0,023	-0,029
-458,284	-200,000	0,005	0,116
-457,270	158,020	0,022	-0,023
-456,255	-200,000	0,007	-0,042
-455,241	-200,000	0,043	-0,156
-454,226	306,550	-0,070	-0,096
-453,211	-172,441	0,219	0,005
-452,197	800,000	-0,054	0,118
-451,182	-138,149	-0,015	0,001
-450,168	-200,000	0,005	0,140
-449,153	213,966	-0,032	0,038
-448,138	-200,000	0,013	0,048
-447,124	206,264	-0,118	-0,135
-446,109	-95,899	-0,148	0,029
-445,095	-200,000	-0,005	0,101
-444,080	-39,112	-0,031	0,012
-443,065	308,380	0,055	-0,076
-442,051	-153,805	-0,121	-0,006
-441,036	108,472	0,013	0,012
-440,022	46,502	-0,036	-0,025
-439,007	218,347	0,093	0,109
-437,992	746,100	0,050	0,099
-436,978	-37,914	-0,072	-0,028
-435,963	-94,551	0,118	0,023
-434,949	-200,000	0,018	0,067
-433,934	-122,508	0,015	0,002
-432,919	57,674	-0,146	-0,105
-431,905	316,708	0,086	-0,120
-430,890	-46,909	-0,129	0,046
-429,876	800,000	-0,019	-0,050
-428,861	43,037	-0,091	-0,061
-427,846	115,818	0,094	0,084
-426,832	-200,000	0,011	-0,111
-425,817	-200,000	0,118	0,000
-424,803	-93,215	0,103	-0,021
-423,788	7,082	0,109	-0,059
-422,773	-200,000	-0,012	0,101
-421,759	-200,000	0,005	0,074
-420,744	66,793	0,144	-0,108
-419,730	-200,000	-0,009	-0,096
-418,715	140,837	-0,091	-0,088
-417,701	-200,000	-0,028	-0,121
-416,686	-200,000	-0,012	0,057
-415,671	48,795	-0,092	-0,063
-414,657	111,198	-0,134	0,118
-413,642	800,000	0,004	0,009
-412,628	-37,848	-0,083	-0,032
-411,613	-200,000	-0,028	0,127
-410,598	-153,367	-0,077	-0,004
-409,584	311,701	-0,057	-0,079
-408,569	-118,535	0,078	0,010
-407,555	711,589	0,064	0,126
-406,540	667,416	-0,034	0,064
-405,525	800,000	0,037	-0,101
-404,511	-28,090	0,072	-0,031
-403,496	227,256	-0,052	0,062
-402,482	-200,000	-0,004	0,057
-401,467	63,601	-0,023	-0,017
-400,452	21,478	0,054	0,032
-399,438	-4,339	0,118	-0,060
-398,423	-23,957	-0,055	0,024
-397,409	-48,432	-0,062	-0,022
-396,394	-200,000	0,015	0,068
-395,379	-54,291	0,175	-0,058
-394,365	608,120	-0,031	0,058
-393,350	-107,960	-0,124	-0,020
-392,336	-82,480	0,067	0,016
-391,321	800,000	0,028	-0,071
-390,306	203,942	-0,116	-0,132
-389,292	-79,372	0,085	-0,021
-388,277	-12,190	0,116	0,056
-387,263	-104,880	-0,067	0,011
-386,248	110,233	0,054	0,048
-385,233	-48,079	0,110	0,039
-384,219	349,330	-0,077	0,111
-383,204	800,000	-0,035	-0,081
-382,190	-123,245	0,115	0,013
-381,175	-200,000	0,011	-0,080
-380,160	-17,463	0,094	-0,043
-379,146	800,000	0,023	0,069
-378,131	690,383	0,048	0,092
-377,117	-200,000	0,009	-0,078
-376,102	84,263	-0,094	-0,075
-375,088	243,717	0,013	-0,016
-374,073	-200,000	0,024	-0,109
-373,058	265,591	0,025	0,032
-372,044	344,184	-0,039	0,057
-371,029	-200,000	0,002	-0,195
-370,015	59,692	0,051	-0,037
-369,000	-200,000	-0,011	0,043
-367,985	800,000	0,023	-0,048
-366,971	698,907	-0,024	-0,047
-365,956	101,504	-0,120	-0,102
-364,942	-74,095	0,051	-0,014
-363,927	-109,831	-0,153	-0,023
-362,912	335,264	0,064	0,092
-361,898	-200,000	-0,021	0,080
-360,883	-200,000	-0,025	0,160
-359,869	800,000	-0,037	-0,084
-358,854	253,705	-0,056	-0,070
-357,839	84,834	0,005	-0,004
-356,825	367,530	0,068	-0,101
-355,810	-200,000	0,017	-0,086
-354,796	49,155	-0,030	-0,021
-353,781	-149,780	-0,106	-0,006
-352,766	770,430	0,021	0,043
-351,752	273,560	-0,047	0,061
-350,737	-105,672	-0,122	0,020
-349,723	-200,000	-0,041	0,178
-348,708	800,000	-0,052	0,136
-347,693	-122,883	0,058	-0,007
-346,679	-109,521	0,071	-0,011
-345,664	-200,000	0,027	-0,123
-344,650	-154,981	0,122	-0,006
-343,635	43,003	0,075	0,050
-342,620	800,000	-0,014	0,040
-341,606	1,606	-0,052	-0,027
-340,591	-14,734	-0,134	-0,063
-339,577	410,248	-0,070	-0,108
-338,562	380,039	0,031	0,047
-337,548	-200,000	0,001	0,085
-336,533	-85,988	-0,120	-0,027
-335,518	-200,000	-0,025	0,093
-334,504	-200,000	-0,003	0,052
-333,489	23,207	0,019	-0,012
-332,475	8,114	-0,039	-0,022
-331,460	-200,000	-0,040	-0,143
-330,445	800,000	-0,040	-0,100
-329,431	-66,910	0,062	-0,018
-328,416	-200,000	-0,028	0,183
-327,402	-86,615	0,182	0,041
-326,387	-125,200	-0,133	0,015
-325,372	-123,818	-0,104	0,012
-324,358	-97,254	-0,091	0,017
-323,343	800,000	0,015	0,042
-322,329	-74,689	-0,052	-0,014
-321,314	83,374	0,016	-0,013
-320,299	268,719	-0,119	0,153
-319,285	800,000	0,007	0,021
-318,270	525,629	-0,060	-0,104
-317,256	-29,102	-0,066	0,028
-316,241	-70,608	-0,055	-0,015
-315,226	-31,077	-0,089	-0,036
-314,212	64,237	0,093	0,068
-313,197	-142,867	0,076	-0,005
-312,183	25,798	-0,072	-0,044
-311,168	49,996	0,145	0,100
-310,153	800,000	-0,038	-0,121
-309,139	-200,000	0,009	-0,071
-308,124	-100,150	0,072	0,013
-307,110	-84,360	0,039	0,009
-306,095	320,519	0,021	0,029
-305,080	51,289	0,097	-0,068
-304,066	570,443	-0,031	-0,055
-303,051	148,059	0,050	0,050
-302,037	-200,000	0,022	0,093
-301,022	-200,000	-0,015	0,132
-300,008	-47,809	0,172	0,061
-298,993	27,864	0,135	0,083
-297,978	-200,000	0,000	-0,016
-296,964	-172,388	-0,145	-0,003
-295,949	460,689	-0,023	-0,038
-294,935	-68,980	-0,077	0,021
-293,920	-28,000	0,055	-0,023
-292,905	49,917	-0,026	-0,018
-291,891	38,758	0,096	0,062
-290,876	74,970	0,037	0,028
-289,862	-200,000	-0,013	-0,167
-288,847	800,000	-0,055	-0,134
-287,832	-200,000	-0,020	-0,168
-286,818	129,801	-0,075	-0,070
-285,803	-81,449	0,139	-0,033
-284,789	155,602	0,075	0,075
-283,774	16,174	0,092	0,053
-282,759	800,000	0,035	-0,083
-281,745	-41,671	-0,030	-0,011
-280,730	800,000	0,052	0,115
-279,716	-70,724	-0,161	0,044
-278,701	-106,291	0,144	-0,023
-277,686	18,218	0,066	0,039
-276,672	800,000	0,026	-0,063
-275,657	687,574	0,029	0,056
-274,643	59,203	-0,029	0,021
-273,628	114,677	0,104	-0,093
-272,613	-35,813	0,023	-0,009
-271,599	-51,545	-0,046	0,016
-270,584	179,458	0,060	0,064
-269,570	-140,636	-0,034	-0,003
-268,555	-167,155	0,088	-0,003
-267,540	224,092	0,034	0,040
-266,526	259,756	0,106	0,134
-265,511	800,000	-0,100	0,221
-264,497	-189,834	-0,048	-0,000
-263,482	-108,004	0,098	0,015
-262,467	150,697	0,152	0,151
-261,453	800,000	0,021	-0,064
-260,438	-72,618	-0,049	-0,013
-259,424	-0,342	0,079	-0,041
-258,409	714,022	-0,040	0,078
-257,395	-200,000	-0,025	0,113
-256,380	77,139	0,027	0,021
-255,365	-38,210	0,087	-0,033
-254,351	176,178	-0,053	0,056
-253,336	800,000	0,028	-0,073
-252,322	-19,883	0,076	-0,034
-251,307	-200,000	-0,022	0,078
-250,292	382,220	-0,070	0,106
-249,278	2,137	0,080	0,042
-248,263	800,000	-0,052	-0,130
-247,249	36,811	0,100	-0,064
-246,234	-30,203	-0,074	0,030
-245,219	800,000	-0,041	-0,128
-244,205	325,448	-0,048	-0,067
-243,190	-200,000	-0,031	0,156
-242,176	800,000	0,101	0,225
-241,161	-200,000	-0,002	0,060
-240,146	-80,355	-0,103	-0,025
-239,132	-104,233	-0,072	-0,012
-238,117	194,150	-0,105	-0,116
-237,103	-105,943	0,051	0,008
-236,088	27,532	-0,037	0,023
-235,073	-41,448	-0,067	-0,025
-234,059	610,409	0,027	-0,050
-233,044	247,368	-0,054	0,067
-232,030	604,713	-0,005	0,009
-231,015	-200,000	-0,003	-0,010
-230,000	-200,000	0,008	0,056
-228,986	224,212	-0,116	0,137
-227,971	370,690	-0,048	0,071
-226,957	-200,000	0,003	-0,075
-225,942	-200,000	0,003	-0,051
-224,927	78,766	0,044	-0,034
-223,913	-200,000	0,023	-0,081
-222,898	767,934	-0,032	-0,063
-221,884	800,000	0,020	-0,044
-220,869	-95,378	0,162	-0,031
-219,855	370,352	-0,071	0,106
-218,840	-52,255	-0,045	-0,015
-217,825	800,000	0,035	-0,076
-216,811	2,211	-0,101	-0,053
-215,796	-125,906	0,031	-0,003
-214,782	-73,872	-0,061	0,016
-213,767	-80,514	-0,073	0,018
-212,752	427,385	0,041	0,065
-211,738	46,789	0,159	-0,107
-210,723	135,798	0,069	0,066
-209,709	62,372	-0,065	0,047
-208,694	103,003	0,045	0,039
-207,679	177,613	-0,008	0,009
-206,665	800,000	0,053	-0,138
-205,650	-200,000	0,021	-0,089
-204,636	-200,000	0,006	0,103
-203,621	-92,485	-0,090	0,018
-202,606	607,442	-0,037	-0,068
-201,592	-78,352	0,064	0,016
-200,577	-199,805	0,081	0,000
-199,563	-200,000	-0,011	0,044
-198,548	-200,000	0,025	0,107
-197,533	-95,231	-0,100	0,019
-196,519	-119,407	0,033	0,004
-195,504	800,000	-0,068	-0,159
-194,490	-200,000	-0,014	-0,071
-193,475	-200,000	-0,028	-0,123
-192,460	800,000	0,006	0,013
-191,446	-200,000	0,008	0,038
-190,431	800,000	0,104	0,220
-189,417	-53,909	-0,029	-0,010
-188,402	-200,000	0,001	0,098
-187,387	208,395	0,061	0,069
-186,373	85,038	-0,059	-0,047
-185,358	41,055	0,028	-0,018
-184,344	-166,994	0,123	-0,004
-183,329	-122,445	0,079	0,009
-182,315	-77,148	0,115	0,029
-181,300	-200,000	-0,004	0,022
-180,285	715,684	-0,031	-0,059
-179,271	-25,360	-0,085	-0,036
-178,256	166,298	0,061	-0,063
-177,242	-200,000	0,040	-0,167
-176,227	800,000	0,045	0,132
-175,212	800,000	-0,017	0,036
-174,198	330,943	-0,031	-0,043
-173,183	35,683	-0,012	-0,008
-172,169	-200,000	0,050	-0,195
-171,154	27,271	0,114	-0,070
-170,139	111,503	-0,097	-0,085
-169,125	90,897	-0,197	0,161
-168,110	-200,000	0,028	0,143
-167,096	-67,339	-0,047	-0,013
-166,081	800,000	-0,022	-0,055
-165,066	-148,044	0,128	-0,008
-164,052	-48,470	0,016	0,006
-163,037	-200,000	-0,006	0,155
-162,023	-87,874	0,138	0,030
-161,008	-200,000	-0,033	0,126
-159,993	-200,000	-0,102	0,000
-158,979	-200,000	-0,011	0,130
-157,964	-122,926	-0,083	-0,010
-156,950	36,858	-0,034	-0,022
-155,935	800,000	0,024	-0,069
-154,920	157,544	-0,014	-0,014
-153,906	140,365	0,091	0,087
-152,891	-14,433	0,071	0,033
-151,877	-83,419	-0,086	0,020
-150,862	-43,191	-0,148	-0,054
-149,847	82,450	0,103	-0,081
-148,833	45,628	-0,043	-0,029
-147,818	500,565	0,031	0,052
-146,804	-74,460	0,024	-0,006
-145,789	696,101	0,021	0,040
-144,775	-110,893	-0,162	0,024
-143,760	-200,000	0,011	-0,049
-142,745	-200,000	-0,010	0,055
-141,731	83,727	0,041	0,033
-140,716	-62,061	-0,051	-0,015
-139,702	-65,871	-0,091	0,026
-138,687	800,000	-0,009	0,026
-137,672	3,199	0,060	0,032
-136,658	800,000	-0,027	0,082
-135,643	-70,440	0,189	-0,052
-134,629	800,000	0,042	-0,108
-133,614	-200,000	0,024	0,112
-132,599	-43,677	0,135	0,049
-131,585	303,628	-0,064	0,086
-130,570	-200,000	0,012	0,113
-129,556	58,004	-0,097	0,069
-128,541	69,846	-0,052	0,039
-127,526	-41,466	-0,101	-0,038
-126,512	-117,205	0,149	-0,019
-125,497	226,603	0,032	0,038
-124,483	-132,833	0,175	0,016
-123,468	102,302	0,071	0,060
-122,453	-20,872	-0,123	0,054
-121,439	149,669	-0,070	0,069
-120,424	627,080	0,038	0,071
-119,410	800,000	-0,035	-0,070
