DTS Sentinel unit serial number:	SN410029Multiplexer serial number:	ORYXHardware model number:	OX2-SRSoftware version number:	ORYX F/W v4,00 Oryx Data Collector v3.7.2.0data status	okinstallation	B4 Nyhavnadifferential loss correction	single-endedforward channel	channel 2reverse channel	N/Adate	2023/12/18time	15:40:13forward acquisition time	300,00reverse acquisition time	0,00gamma	499,1914k internal	0,3145k external	0,3145temperature offset calibration	1,0000default loss term (dB/km)	0,3820temperature slope calibration	1,0000multiplexer offset coefficient	1,0000multiplexer slope coefficient	1,0000fibre end	0,00T internal ref (°C)	16,53T ext. ref 1 (°C)	7,26T ext. ref 2 (°C)	7,39length (m)	temperature (°C)	Stokes	anti-Stokes-744,400	162,402	0,017	0,017
-743,385	-123,592	-0,519	0,060
-742,371	101,810	0,073	0,063
-741,356	31,259	-0,154	0,097
-740,342	78,562	0,107	0,085
-739,327	13,543	-0,230	0,132
-738,312	143,083	0,064	0,063
-737,298	-180,640	-0,213	-0,003
-736,283	-200,000	0,010	-0,071
-735,269	-74,523	-0,287	0,076
-734,254	-200,000	0,002	0,023
-733,239	-111,579	-0,506	-0,075
-732,225	48,330	0,090	0,062
-731,210	-19,426	0,006	0,003
-730,196	324,295	-0,088	-0,125
-729,181	26,366	-0,052	0,032
-728,167	-200,000	0,026	0,113
-727,152	-95,516	-0,119	-0,023
-726,137	-45,484	-0,042	-0,015
-725,123	800,000	-0,023	0,066
-724,108	-200,000	0,001	-0,034
-723,094	-76,663	-0,103	0,027
-722,079	-36,822	0,086	-0,034
-721,064	-200,000	-0,016	-0,209
-720,050	358,717	0,069	-0,102
-719,035	-52,937	-0,089	0,030
-718,021	655,129	-0,103	-0,196
-717,006	55,542	-0,113	-0,081
-715,991	56,007	-0,082	-0,058
-714,977	-200,000	0,015	-0,122
-713,962	800,000	-0,033	0,070
-712,948	-17,293	0,018	-0,008
-711,933	-200,000	0,019	0,073
-710,918	73,184	-0,106	-0,082
-709,904	-148,888	-0,160	0,009
-708,889	597,344	-0,060	-0,111
-707,875	-200,000	0,003	0,039
-706,860	182,742	-0,023	-0,025
-705,845	245,503	0,025	-0,031
-704,831	130,732	0,101	0,096
-703,816	142,672	-0,111	-0,109
-702,802	369,125	-0,067	-0,101
-701,787	-200,000	0,006	-0,034
-700,772	713,124	0,025	0,050
-699,758	72,658	0,071	0,055
-698,743	218,422	0,123	0,145
-697,729	-173,841	-0,034	0,001
-696,714	66,903	0,129	-0,097
-695,699	452,517	0,057	-0,093
-694,685	1,711	-0,114	-0,060
-693,670	188,910	0,076	-0,084
-692,656	-200,000	0,024	-0,079
-691,641	275,607	0,061	-0,080
-690,627	-134,017	0,066	0,006
-689,612	361,334	-0,074	-0,110
-688,597	253,517	-0,119	0,150
-687,583	-21,760	0,053	-0,024
-686,568	800,000	-0,055	-0,172
-685,554	800,000	-0,069	0,149
-684,539	46,309	0,147	0,101
-683,524	238,095	0,113	-0,139
-682,510	800,000	0,046	-0,100
-681,495	48,078	-0,046	0,032
-680,481	281,776	-0,078	-0,103
-679,466	150,459	-0,061	-0,061
-678,451	-178,346	0,098	-0,002
-677,437	-200,000	-0,008	-0,047
-676,422	122,095	-0,031	-0,029
-675,408	-4,072	0,086	0,044
-674,393	290,863	-0,061	0,082
-673,378	331,586	-0,044	-0,062
-672,364	-146,720	-0,144	0,009
-671,349	372,690	-0,053	-0,080
-670,335	240,573	-0,063	0,078
-669,320	300,377	-0,087	0,119
-668,305	800,000	0,029	-0,060
-667,291	65,356	-0,138	0,103
-666,276	-138,134	-0,032	-0,003
-665,262	423,024	-0,118	-0,188
-664,247	-200,000	0,021	-0,147
-663,232	-200,000	0,043	-0,140
-662,218	37,051	-0,087	-0,056
-661,203	179,281	0,014	-0,015
-660,189	-133,047	0,083	0,008
-659,174	73,189	-0,031	-0,024
-658,159	72,481	-0,102	0,078
-657,145	100,253	-0,117	-0,100
-656,130	800,000	-0,009	-0,023
-655,116	331,443	-0,038	-0,055
-654,101	-135,887	-0,054	-0,005
-653,086	-132,024	-0,157	0,015
-652,072	-200,000	-0,009	0,059
-651,057	345,228	-0,044	-0,064
-650,043	-22,605	0,110	-0,049
-649,028	479,357	0,029	-0,049
-648,014	6,802	-0,108	-0,059
-646,999	281,616	-0,068	-0,090
-645,984	201,912	-0,041	0,047
-644,970	-200,000	-0,017	-0,054
-643,955	-200,000	-0,027	-0,137
-642,941	425,397	0,027	-0,042
-641,926	86,150	0,115	0,093
-640,911	-122,270	0,073	0,009
-639,897	73,853	0,056	-0,043
-638,882	100,764	-0,052	0,044
-637,868	19,569	0,058	0,034
-636,853	15,136	-0,063	-0,036
-635,838	273,087	0,037	-0,049
-634,824	-200,000	-0,024	-0,111
-633,809	82,599	0,047	-0,038
-632,795	800,000	0,030	0,083
-631,780	-200,000	0,003	-0,034
-630,765	-10,763	-0,104	-0,050
-629,751	225,247	-0,033	-0,040
-628,736	-200,000	0,027	-0,102
-627,722	-200,000	-0,010	-0,040
-626,707	637,988	-0,054	-0,101
-625,692	220,143	-0,062	-0,073
-624,678	146,605	0,109	-0,108
-623,663	-200,000	0,004	-0,025
-622,649	800,000	-0,060	-0,176
-621,634	-200,000	-0,051	-0,293
-620,619	-24,970	0,046	-0,020
-619,605	800,000	-0,009	0,024
-618,590	800,000	-0,064	0,158
-617,576	105,273	-0,069	-0,060
-616,561	-140,396	-0,060	-0,005
-615,546	353,537	0,057	0,083
-614,532	237,553	-0,006	0,007
-613,517	166,119	-0,124	-0,130
-612,503	346,877	0,042	0,061
-611,488	-61,200	0,079	-0,024
-610,474	800,000	-0,003	-0,008
-609,459	-200,000	-0,015	-0,180
-608,444	-33,024	-0,008	-0,003
-607,430	-200,000	-0,022	-0,084
-606,415	-73,581	-0,036	0,010
-605,401	-135,496	0,037	0,003
-604,386	57,030	-0,074	-0,053
-603,371	597,945	-0,050	0,091
-602,357	-33,803	0,093	0,038
-601,342	-200,000	0,005	0,021
-600,328	-200,000	0,008	0,036
-599,313	-52,141	0,037	-0,012
-598,298	25,698	0,014	0,009
-597,284	180,397	-0,091	-0,098
-596,269	297,983	-0,044	0,059
-595,255	-94,470	0,063	0,013
-594,240	415,223	-0,064	0,101
-593,225	95,271	-0,042	-0,036
-592,211	-139,927	-0,110	0,008
-591,196	166,381	0,027	-0,028
-590,182	6,551	0,058	0,032
-589,167	-67,778	0,117	0,033
-588,152	800,000	0,018	-0,045
-587,138	-16,904	-0,057	0,027
-586,123	-200,000	0,008	-0,063
-585,109	459,385	0,033	-0,055
-584,094	45,176	0,104	-0,071
-583,079	-200,000	-0,011	0,053
-582,065	170,548	0,032	0,034
-581,050	148,219	0,049	-0,049
-580,036	137,321	-0,081	-0,078
-579,021	-41,813	0,037	-0,014
-578,006	800,000	-0,019	-0,041
-576,992	-200,000	-0,011	0,060
-575,977	-66,456	0,048	-0,014
-574,963	116,670	-0,033	0,030
-573,948	-200,000	0,017	0,086
-572,934	159,750	-0,067	-0,069
-571,919	139,652	-0,066	-0,064
-570,904	-200,000	-0,042	-0,157
-569,890	13,706	-0,078	-0,044
-568,875	41,862	0,159	-0,106
-567,861	-88,514	0,040	0,009
-566,846	708,047	-0,024	0,047
-565,831	-131,788	-0,009	0,001
-564,817	10,202	-0,089	-0,050
-563,802	-200,000	0,004	-0,140
-562,788	543,788	-0,089	-0,157
-561,773	340,937	-0,053	-0,076
-560,758	648,787	0,013	-0,024
-559,744	-77,220	0,048	-0,012
-558,729	-200,000	-0,022	0,079
-557,715	-12,553	-0,014	-0,007
-556,700	298,071	0,018	0,024
-555,685	-100,051	-0,067	0,012
-554,671	246,888	0,069	-0,086
-553,656	410,002	0,017	-0,027
-552,642	800,000	-0,021	0,063
-551,627	126,061	0,067	0,062
-550,612	-200,000	-0,008	0,080
-549,598	34,417	-0,073	0,047
-548,583	-46,319	0,139	0,050
-547,569	-14,141	0,051	-0,024
-546,554	289,227	0,046	0,062
-545,539	800,000	0,049	-0,137
-544,525	78,728	0,098	-0,077
-543,510	512,985	-0,056	0,095
-542,496	213,973	0,039	0,046
-541,481	10,167	-0,191	-0,106
-540,466	-200,000	-0,017	-0,066
-539,452	186,682	0,049	-0,054
-538,437	-42,073	0,053	0,020
-537,423	107,098	-0,153	0,133
-536,408	-0,358	0,121	-0,063
-535,393	232,583	0,046	0,055
-534,379	114,639	-0,060	-0,054
-533,364	-200,000	-0,014	0,054
-532,350	-200,000	0,001	-0,053
-531,335	-200,000	0,021	-0,095
-530,321	136,270	0,029	0,028
-529,306	-200,000	0,010	-0,055
-528,291	-200,000	-0,005	-0,108
-527,277	-64,248	0,069	-0,020
-526,262	-139,114	-0,094	0,007
-525,248	-200,000	0,005	0,151
-524,233	91,633	-0,025	0,021
-523,218	-172,275	-0,085	-0,002
-522,204	-200,000	-0,003	-0,014
-521,189	104,870	0,056	0,048
-520,175	18,228	-0,079	-0,046
-519,160	-59,297	0,015	-0,005
-518,145	18,315	0,015	-0,009
-517,131	-115,276	0,087	0,012
-516,116	-70,921	0,107	0,029
-515,102	396,633	0,033	-0,051
-514,087	-91,053	0,104	-0,022
-513,072	-72,998	0,042	-0,011
-512,058	485,064	0,014	0,024
-511,043	51,106	-0,049	-0,034
-510,029	-200,000	-0,009	0,053
-509,014	-3,566	0,025	0,013
-507,999	128,578	-0,061	0,057
-506,985	113,165	-0,027	0,024
-505,970	-39,781	0,140	-0,053
-504,956	678,541	0,029	-0,055
-503,941	197,809	-0,073	0,081
-502,926	800,000	0,080	0,181
-501,912	-200,000	0,000	0,143
-500,897	-200,000	0,001	0,098
-499,883	-27,520	0,212	-0,090
-498,868	-157,919	-0,125	-0,005
-497,853	-200,000	-0,008	-0,063
-496,839	613,689	0,028	0,052
-495,824	340,154	0,045	0,064
-494,810	554,670	-0,035	0,062
-493,795	-23,051	0,089	-0,039
-492,781	89,421	-0,055	0,045
-491,766	524,313	-0,049	0,085
-490,751	-200,000	-0,018	-0,101
-489,737	687,420	0,070	0,135
-488,722	800,000	0,045	0,142
-487,708	800,000	-0,020	0,058
-486,693	-122,359	0,128	0,015
-485,678	-39,346	-0,158	0,061
-484,664	-121,888	-0,149	0,018
-483,649	800,000	0,038	0,095
-482,635	800,000	0,089	-0,197
-481,620	31,809	-0,106	0,067
-480,605	186,706	0,114	0,125
-479,591	-1,518	-0,089	-0,046
-478,576	-200,000	-0,026	0,093
-477,562	-79,425	-0,078	-0,019
-476,547	-65,785	0,100	0,029
-475,532	-150,634	-0,051	-0,003
-474,518	-54,545	0,072	0,024
-473,503	-80,121	0,115	-0,028
-472,489	800,000	0,028	0,077
-471,474	-92,258	-0,151	-0,031
-470,459	800,000	0,040	-0,089
-469,445	-116,987	0,019	0,002
-468,430	137,236	0,026	0,025
-467,416	71,901	-0,059	0,045
-466,401	-104,727	0,028	-0,005
-465,386	88,833	-0,023	-0,019
-464,372	-148,055	-0,132	-0,008
-463,357	128,479	0,021	-0,020
-462,343	-88,764	0,066	0,014
-461,328	82,298	0,093	0,074
-460,313	-200,000	0,003	0,167
-459,299	6,141	-0,055	-0,030
-458,284	-83,101	-0,074	-0,017
-457,270	39,985	0,060	0,039
-456,255	146,965	-0,039	0,039
-455,241	-200,000	0,014	-0,062
-454,226	76,791	-0,046	0,036
-453,211	-100,892	0,073	-0,013
-452,197	-200,000	-0,007	-0,094
-451,182	296,442	-0,032	-0,044
-450,168	-200,000	-0,012	0,057
-449,153	80,467	-0,087	-0,068
-448,138	-200,000	0,006	0,025
-447,124	-200,000	0,004	-0,051
-446,109	43,481	0,132	-0,088
-445,095	800,000	-0,036	-0,086
-444,080	150,591	-0,109	0,108
-443,065	-143,123	0,093	0,006
-442,051	69,355	-0,155	-0,116
-441,036	2,107	-0,034	-0,018
-440,022	-110,939	-0,041	-0,006
-439,007	-200,000	-0,000	0,188
-437,992	80,751	0,080	0,063
-436,978	-74,691	0,123	-0,032
-435,963	-94,108	0,149	0,030
-434,949	-54,544	-0,078	-0,026
-433,934	800,000	0,026	-0,073
-432,919	2,573	-0,080	-0,042
-431,905	800,000	-0,045	0,111
-430,890	162,467	0,049	-0,050
-429,876	-22,061	0,114	-0,051
-428,861	-200,000	-0,017	-0,089
-427,846	144,413	0,091	-0,089
-426,832	-110,663	-0,233	-0,035
-425,817	55,011	-0,124	-0,088
-424,803	-70,458	-0,052	-0,014
-423,788	-70,375	-0,009	0,002
-422,773	800,000	0,014	0,037
-421,759	250,128	0,082	-0,102
-420,744	800,000	-0,008	0,020
-419,730	324,919	-0,089	-0,125
-418,715	-200,000	0,038	-0,152
-417,701	122,254	0,090	-0,082
-416,686	144,235	-0,022	0,022
-415,671	4,632	0,033	-0,018
-414,657	230,766	-0,045	0,054
-413,642	800,000	-0,038	-0,078
-412,628	800,000	0,044	-0,132
-411,613	-89,595	-0,080	-0,017
-410,598	270,556	-0,030	0,039
-409,584	800,000	-0,039	0,083
-408,569	-103,810	-0,124	-0,021
-407,555	800,000	0,037	-0,102
-406,540	16,209	-0,126	-0,073
-405,525	106,034	0,059	0,051
-404,511	406,977	-0,052	0,080
-403,496	687,459	0,020	-0,039
-402,482	-179,820	-0,160	0,002
-401,467	148,080	0,170	0,167
-400,452	-200,000	0,003	-0,094
-399,438	-33,878	-0,094	0,037
-398,423	-136,988	0,164	-0,014
-397,409	-200,000	-0,024	-0,141
-396,394	800,000	-0,039	-0,080
-395,379	-91,272	0,108	0,022
-394,365	56,001	0,032	-0,022
-393,350	-76,467	-0,076	-0,019
-392,336	285,975	0,065	0,086
-391,321	-138,932	-0,133	-0,010
-390,306	-46,716	0,169	-0,060
-389,292	-87,272	0,054	-0,012
-388,277	214,854	-0,127	-0,147
-387,263	-119,511	-0,037	-0,005
-386,248	-200,000	-0,013	-0,099
-385,233	-70,866	0,051	0,014
-384,219	-65,026	0,098	0,029
-383,204	23,808	-0,090	-0,054
-382,190	-135,991	-0,129	-0,011
-381,175	-20,860	0,154	0,069
-380,160	114,683	0,115	0,102
-379,146	-100,808	0,120	0,021
-378,131	-200,000	0,013	-0,147
-377,117	77,464	-0,051	-0,040
-376,102	476,260	0,021	-0,034
-375,088	-109,182	-0,182	-0,028
-374,073	199,769	-0,054	0,061
-373,058	235,668	-0,131	-0,159
-372,044	-4,278	0,106	0,054
-371,029	20,056	-0,063	-0,037
-370,015	800,000	-0,024	0,074
-369,000	110,580	-0,038	0,033
-367,985	-200,000	0,007	0,232
-366,971	410,781	0,041	-0,064
-365,956	70,097	-0,059	0,045
-364,942	-200,000	0,010	-0,118
-363,927	214,046	0,081	0,093
-362,912	-200,000	0,012	0,074
-361,898	77,731	0,038	0,030
-360,883	800,000	-0,052	-0,132
-359,869	457,470	0,012	0,020
-358,854	-29,556	0,056	-0,023
-357,839	412,598	0,056	0,087
-356,825	602,170	0,075	0,136
-355,810	302,104	0,104	0,140
-354,796	-130,777	-0,062	-0,006
-353,781	-79,270	0,059	-0,014
-352,766	-165,173	0,085	0,003
-351,752	-22,243	0,051	-0,023
-350,737	-99,075	0,074	0,014
-349,723	124,576	-0,081	0,074
-348,708	800,000	0,067	0,194
-347,693	-200,000	0,020	-0,067
-346,679	100,521	-0,023	0,020
-345,664	-200,000	-0,019	-0,187
-344,650	-34,114	0,090	0,036
-343,635	-147,558	0,180	0,011
-342,620	162,353	0,045	-0,046
-341,606	26,136	0,029	-0,018
-340,591	-156,836	-0,169	0,007
-339,577	617,482	0,017	-0,032
-338,562	114,130	0,115	-0,102
-337,548	60,197	-0,118	-0,085
-336,533	510,512	0,023	0,040
-335,518	-200,000	0,004	-0,059
-334,504	-175,195	0,127	-0,003
-333,489	-3,024	-0,086	0,044
-332,475	800,000	-0,018	0,055
-331,460	-41,370	-0,074	-0,028
-330,445	-8,589	-0,047	-0,023
-329,431	616,647	0,027	0,050
-328,416	134,231	0,041	0,038
-327,402	800,000	-0,041	0,087
-326,387	-15,893	-0,114	0,053
-325,372	65,485	-0,091	0,067
-324,358	-1,374	0,083	0,042
-323,343	-44,419	-0,050	0,018
-322,329	183,950	0,165	-0,178
-321,314	-128,173	0,022	0,002
-320,299	5,723	0,088	-0,047
-319,285	-200,000	0,015	0,066
-318,270	33,467	-0,014	-0,009
-317,256	3,852	-0,035	0,019
-316,241	-32,814	-0,223	0,090
-315,226	-200,000	0,008	0,041
-314,212	-56,923	0,120	-0,038
-313,197	-200,000	-0,008	-0,030
-312,183	-200,000	0,034	0,220
-311,168	262,822	-0,113	-0,143
-310,153	-200,000	0,005	-0,036
-309,139	-95,814	0,104	-0,020
-308,124	194,241	-0,015	-0,017
-307,110	106,136	0,034	-0,029
-306,095	800,000	-0,007	-0,018
-305,080	-200,000	-0,029	0,127
-304,066	609,201	-0,089	-0,162
-303,051	263,695	0,084	-0,107
-302,037	24,541	-0,144	-0,087
-301,022	-41,035	0,146	-0,055
-300,008	-3,235	-0,141	-0,071
-298,993	-86,355	0,064	-0,014
-297,978	800,000	0,014	-0,037
-296,964	2,292	-0,019	-0,010
-295,949	-200,000	0,030	0,152
-294,935	131,161	-0,069	0,065
-293,920	127,929	0,046	0,043
-292,905	-146,707	-0,129	0,008
-291,891	-200,000	-0,003	-0,014
-290,876	-10,958	0,142	-0,068
-289,862	402,609	-0,047	0,073
-288,847	86,509	0,046	-0,037
-287,832	800,000	0,027	-0,066
-286,818	-121,753	-0,110	-0,013
-285,803	-100,736	0,124	-0,022
-284,789	298,879	-0,077	0,103
-283,774	800,000	-0,042	0,121
-282,759	574,887	-0,032	0,057
-281,745	257,768	-0,078	-0,098
-280,730	-200,000	0,039	-0,179
-279,716	302,418	0,075	-0,101
-278,701	800,000	0,011	0,030
-277,686	421,010	-0,059	0,093
-276,672	-152,297	-0,162	-0,008
-275,657	-86,556	-0,103	-0,023
-274,643	-49,727	-0,121	0,042
-273,628	-200,000	0,028	0,122
-272,613	-81,407	0,079	-0,019
-271,599	-33,142	-0,034	-0,014
-270,584	161,082	0,063	0,064
-269,570	800,000	-0,018	0,047
-268,555	-122,566	0,094	-0,011
-267,540	-50,321	-0,099	-0,034
-266,526	-195,491	-0,120	0,001
-265,511	-200,000	0,022	-0,101
-264,497	5,803	-0,024	-0,013
-263,482	205,658	-0,090	-0,102
-262,467	800,000	0,012	-0,033
-261,453	-115,351	-0,005	0,001
-260,438	-200,000	0,001	-0,022
-259,424	-200,000	0,032	-0,113
-258,409	-48,144	0,065	0,023
-257,395	13,449	-0,081	0,046
-256,380	-159,480	-0,020	-0,001
-255,365	723,597	0,075	-0,146
-254,351	-142,822	0,052	-0,004
-253,336	621,299	-0,044	0,080
-252,322	-145,507	-0,042	-0,003
-251,307	50,507	-0,053	0,036
-250,292	79,539	0,156	0,122
-249,278	148,040	0,081	0,079
-248,263	-30,632	-0,094	0,039
-247,249	-58,112	0,049	0,015
-246,234	-115,575	0,060	0,008
-245,219	240,273	-0,022	-0,026
-244,205	614,899	-0,008	-0,015
-243,190	-53,853	-0,081	-0,027
-242,176	-118,337	0,046	-0,006
-241,161	-21,225	-0,137	0,061
-240,146	-95,757	0,029	0,005
-239,132	526,766	-0,039	0,067
-238,117	-183,105	0,002	0,000
-237,103	-61,056	0,009	0,003
-236,088	-122,140	-0,040	-0,005
-235,073	15,727	-0,029	0,017
-234,059	-96,492	0,076	0,014
-233,044	-88,309	-0,068	-0,015
-232,030	-200,000	-0,028	0,129
-231,015	99,716	-0,055	-0,046
-230,000	323,096	0,041	-0,056
-228,986	-127,720	-0,154	-0,016
-227,971	800,000	0,028	0,075
-226,957	800,000	0,022	0,053
-225,942	-200,000	-0,013	0,159
-224,927	-18,516	0,261	0,118
-223,913	175,509	-0,127	0,134
-222,898	164,563	-0,072	-0,074
-221,884	-113,032	0,122	-0,017
-220,869	800,000	0,042	0,087
-219,855	46,942	-0,032	0,022
-218,840	-200,000	-0,009	-0,110
-217,825	-200,000	-0,008	-0,030
-216,811	275,096	0,046	-0,059
-215,796	199,092	0,037	0,041
-214,782	39,871	-0,130	-0,085
-213,767	-140,463	0,125	0,009
-212,752	-80,758	0,128	-0,031
-211,738	-125,636	-0,013	-0,001
-210,723	96,203	-0,043	0,036
-209,709	32,661	-0,075	-0,047
-208,694	-200,000	0,004	0,038
-207,679	193,856	-0,036	-0,040
-206,665	800,000	-0,057	-0,139
-205,650	-200,000	0,000	0,016
-204,636	62,862	0,123	0,089
-203,621	-200,000	-0,030	0,113
-202,606	800,000	0,038	0,102
-201,592	-63,957	-0,031	-0,009
-200,577	-154,016	-0,047	-0,002
-199,563	-200,000	0,002	-0,033
-198,548	-200,000	-0,015	0,121
-197,533	51,231	-0,047	0,032
-196,519	-171,147	0,113	-0,003
-195,504	-116,576	-0,098	0,013
-194,490	196,606	0,043	0,048
-193,475	-200,000	-0,059	0,218
-192,460	334,999	0,035	-0,049
-191,446	46,050	0,121	0,081
-190,431	800,000	-0,036	0,080
-189,417	117,769	0,034	-0,030
-188,402	800,000	-0,052	0,110
-187,387	-200,000	0,003	0,143
-186,373	-59,514	0,143	-0,044
-185,358	-28,218	-0,038	-0,016
-184,344	800,000	-0,029	0,078
-183,329	-200,000	0,035	0,121
-182,315	800,000	0,045	0,093
-181,300	9,097	-0,138	0,075
-180,285	565,301	-0,033	0,058
-179,271	393,560	-0,028	0,042
-178,256	-200,000	-0,011	-0,086
-177,242	46,123	-0,115	0,077
-176,227	-200,000	0,020	0,085
-175,212	-200,000	0,054	0,221
-174,198	-16,563	0,051	0,024
-173,183	-200,000	0,014	-0,066
-172,169	171,587	-0,026	0,027
-171,154	622,543	0,021	0,038
-170,139	1,818	0,125	0,065
-169,125	289,664	-0,078	0,103
-168,110	-200,000	0,005	0,040
-167,096	800,000	0,053	-0,111
-166,081	35,387	0,016	0,010
-165,066	-200,000	-0,016	-0,060
-164,052	-169,362	0,041	0,001
-163,037	14,287	0,116	0,065
-162,023	767,959	0,043	0,085
-161,008	800,000	0,021	0,060
-159,993	-200,000	-0,001	0,038
-158,979	-0,774	0,108	-0,055
-157,964	-33,291	-0,070	0,028
-156,950	93,059	-0,108	-0,089
-155,935	-100,106	0,075	0,013
-154,920	720,096	-0,014	0,027
-153,906	452,525	0,043	0,069
-152,891	363,248	0,013	-0,019
-151,877	-200,000	-0,007	0,029
-150,862	-116,808	-0,075	-0,010
-149,847	798,224	0,069	-0,138
-148,833	-200,000	0,001	-0,089
-147,818	-192,148	0,147	-0,001
-146,804	-96,217	-0,058	0,011
-145,789	20,007	-0,120	0,070
-144,775	-200,000	0,005	-0,114
-143,760	-200,000	0,015	0,077
-142,745	49,423	-0,122	0,083
-141,731	800,000	0,018	-0,052
-140,716	39,680	-0,080	0,052
-139,702	4,864	0,131	0,069
-138,687	-163,163	0,097	0,003
-137,672	156,109	0,094	0,094
-136,658	-15,466	-0,110	-0,050
-135,643	198,286	-0,086	0,096
-134,629	-200,000	0,009	-0,047
-133,614	93,447	0,068	-0,056
-132,599	-200,000	-0,012	0,094
-131,585	-81,729	-0,103	-0,024
-130,570	11,632	0,052	-0,029
-129,556	-4,040	0,084	0,042
-128,541	-200,000	0,004	0,057
-127,526	-200,000	-0,005	-0,043
-126,512	-200,000	0,007	0,077
-125,497	-200,000	-0,024	0,176
-124,483	614,818	-0,027	0,049
-123,468	174,565	0,064	-0,067
-122,453	800,000	-0,026	-0,056
-121,439	465,548	-0,064	-0,104
-120,424	15,282	-0,033	0,019
-119,410	-116,267	0,151	-0,020
-118,395	702,601	-0,058	0,110
