DTS Sentinel unit serial number:	SN410029Multiplexer serial number:	ORYXHardware model number:	OX2-SRSoftware version number:	ORYX F/W v4,00 Oryx Data Collector v3.7.2.0data status	okinstallation	B4 Nyhavnadifferential loss correction	single-endedforward channel	channel 2reverse channel	N/Adate	2023/12/16time	04:00:13forward acquisition time	300,00reverse acquisition time	0,00gamma	499,1914k internal	0,3128k external	0,3128temperature offset calibration	1,0000default loss term (dB/km)	0,3820temperature slope calibration	1,0000multiplexer offset coefficient	1,0000multiplexer slope coefficient	1,0000fibre end	0,00T internal ref (°C)	22,00T ext. ref 1 (°C)	7,02T ext. ref 2 (°C)	7,20length (m)	temperature (°C)	Stokes	anti-Stokes-744,400	-27,053	-0,020	0,008
-743,385	-84,176	-0,298	0,070
-742,371	-200,000	0,014	-0,215
-741,356	199,855	-0,204	0,233
-740,342	123,912	0,063	-0,059
-739,327	71,219	-0,211	0,163
-738,312	-84,845	0,050	0,012
-737,298	-163,754	-0,317	0,011
-736,283	-3,509	0,059	-0,031
-735,269	-106,142	-0,202	0,033
-734,254	195,679	-0,015	-0,017
-733,239	-141,471	-0,476	0,035
-732,225	366,557	0,036	0,054
-731,210	34,757	0,180	0,117
-730,196	155,915	-0,030	-0,030
-729,181	-121,974	-0,126	0,015
-728,167	-200,000	-0,014	-0,080
-727,152	-125,257	-0,048	-0,005
-726,137	77,150	-0,086	-0,068
-725,123	34,919	-0,105	-0,068
-724,108	-30,145	-0,069	0,029
-723,094	-10,998	-0,124	-0,061
-722,079	-200,000	-0,017	-0,106
-721,064	189,477	0,074	0,083
-720,050	652,446	-0,065	-0,125
-719,035	-200,000	0,010	0,035
-718,021	722,598	-0,060	0,119
-717,006	36,081	-0,061	0,040
-715,991	-87,810	-0,211	-0,047
-714,977	-200,000	-0,004	-0,118
-713,962	800,000	0,037	0,098
-712,948	-200,000	-0,012	0,087
-711,933	77,307	-0,113	0,090
-710,918	44,568	0,060	-0,041
-709,904	-200,000	0,002	-0,060
-708,889	195,305	-0,039	0,044
-707,875	10,038	0,021	0,012
-706,860	800,000	-0,074	0,157
-705,845	-200,000	0,006	0,089
-704,831	-72,646	0,117	-0,032
-703,816	95,907	-0,089	0,075
-702,802	-200,000	0,006	0,032
-701,787	800,000	-0,043	-0,121
-700,772	451,699	-0,052	-0,085
-699,758	-200,000	0,010	-0,079
-698,743	-138,334	0,119	-0,010
-697,729	586,281	-0,079	0,146
-696,714	245,986	-0,041	-0,052
-695,699	72,441	-0,103	-0,080
-694,685	21,022	-0,065	-0,039
-693,670	-200,000	0,008	0,045
-692,656	437,464	-0,010	-0,017
-691,641	-115,838	-0,061	0,008
-690,627	-61,666	0,065	-0,020
-689,612	389,034	-0,052	-0,080
-688,597	-134,012	0,086	-0,008
-687,583	175,301	0,127	-0,136
-686,568	479,028	-0,072	-0,122
-685,554	-200,000	-0,002	0,012
-684,539	383,856	0,072	-0,111
-683,524	-200,000	-0,014	0,077
-682,510	97,310	0,046	0,039
-681,495	-69,792	-0,072	-0,020
-680,481	-97,860	-0,113	0,022
-679,466	390,643	-0,039	-0,060
-678,451	-126,004	-0,068	-0,007
-677,437	800,000	0,038	-0,089
-676,422	-74,196	-0,106	0,028
-675,408	501,015	0,013	0,022
-674,393	348,864	-0,031	-0,045
-673,378	-139,081	0,146	-0,012
-672,364	-200,000	-0,000	0,037
-671,349	197,896	0,079	-0,089
-670,335	-77,664	0,022	-0,006
-669,320	465,182	-0,051	0,085
-668,305	507,119	0,053	0,092
-667,291	-38,479	0,063	0,025
-666,276	30,379	0,049	-0,031
-665,262	129,586	0,043	-0,041
-664,247	502,857	-0,065	-0,111
-663,232	-2,283	0,049	0,025
-662,218	24,112	0,154	0,094
-661,203	250,066	0,049	0,062
-660,189	-169,350	-0,143	-0,004
-659,174	-200,000	-0,011	-0,110
-658,159	21,455	-0,052	0,031
-657,145	398,337	-0,033	-0,051
-656,130	800,000	-0,035	0,082
-655,116	-200,000	0,003	-0,049
-654,101	-200,000	0,007	-0,033
-653,086	282,672	-0,049	-0,065
-652,072	800,000	0,045	-0,099
-651,057	6,361	-0,188	0,103
-650,043	-138,384	-0,126	-0,010
-649,028	58,667	0,104	-0,076
-648,014	-200,000	0,013	-0,111
-646,999	493,235	-0,079	-0,135
-645,984	161,953	-0,035	0,037
-644,970	185,654	-0,034	-0,037
-643,955	88,129	0,056	0,046
-642,941	82,527	-0,042	-0,034
-641,926	-74,519	0,034	-0,009
-640,911	154,275	-0,061	-0,062
-639,897	-103,309	0,079	-0,014
-638,882	-12,370	0,095	-0,046
-637,868	-97,382	-0,094	-0,018
-636,853	-96,595	0,071	-0,014
-635,838	51,377	-0,078	0,055
-634,824	-200,000	0,001	-0,054
-633,809	800,000	0,026	-0,057
-632,795	-62,514	0,049	-0,015
-631,780	-200,000	0,026	-0,111
-630,765	-200,000	0,013	-0,078
-629,751	800,000	-0,042	0,125
-628,736	-98,785	0,018	-0,003
-627,722	132,341	-0,134	-0,128
-626,707	-200,000	-0,010	-0,081
-625,692	-200,000	0,001	0,109
-624,678	200,206	0,045	-0,051
-623,663	93,774	-0,084	-0,070
-622,649	800,000	0,073	-0,213
-621,634	155,009	-0,081	-0,083
-620,619	-182,393	-0,144	-0,002
-619,605	759,695	0,038	-0,077
-618,590	-200,000	-0,002	0,156
-617,576	1,282	-0,099	-0,053
-616,561	585,039	0,083	-0,151
-615,546	245,118	-0,066	-0,082
-614,532	125,377	-0,107	-0,100
-613,517	17,294	0,049	-0,028
-612,503	-200,000	0,021	0,074
-611,488	183,226	0,047	0,052
-610,474	599,607	0,023	0,042
-609,459	-200,000	0,002	0,119
-608,444	172,463	-0,012	-0,012
-607,430	-95,901	0,081	-0,016
-606,415	-200,000	-0,010	-0,140
-605,401	800,000	0,051	-0,124
-604,386	-100,069	-0,099	0,018
-603,371	34,259	-0,067	0,043
-602,357	800,000	-0,017	0,037
-601,342	390,270	0,027	0,041
-600,328	800,000	0,043	-0,105
-599,313	4,099	0,046	0,025
-598,298	-26,380	-0,042	-0,018
-597,284	-200,000	0,014	0,084
-596,269	-142,559	0,121	0,009
-595,255	-130,160	-0,068	0,007
-594,240	4,069	0,117	0,063
-593,225	800,000	-0,078	0,187
-592,211	-52,522	-0,134	-0,046
-591,196	20,023	0,062	-0,037
-590,182	11,932	-0,120	0,068
-589,167	-94,073	-0,051	0,010
-588,152	63,837	0,088	-0,065
-587,138	175,879	-0,089	-0,096
-586,123	-200,000	-0,006	-0,035
-585,109	-200,000	0,003	-0,024
-584,094	-148,713	0,124	0,007
-583,079	-49,767	0,055	-0,019
-582,065	-200,000	0,005	0,076
-581,050	352,726	0,098	0,144
-580,036	-200,000	0,008	0,142
-579,021	-81,076	-0,090	0,022
-578,006	-63,236	-0,112	-0,034
-576,992	-78,025	-0,071	-0,018
-575,977	66,966	0,042	0,032
-574,963	112,283	-0,055	0,049
-573,948	-200,000	-0,022	0,135
-572,934	-200,000	-0,006	-0,116
-571,919	228,614	0,009	0,011
-570,904	-200,000	-0,030	-0,120
-569,890	291,963	-0,039	0,053
-568,875	693,303	0,030	0,058
-567,861	800,000	0,041	0,115
-566,846	87,252	0,059	0,048
-565,831	125,553	0,107	0,100
-564,817	43,917	0,084	-0,057
-563,802	-200,000	0,023	-0,095
-562,788	-200,000	-0,008	0,028
-561,773	-10,364	0,083	0,040
-560,758	-46,727	0,109	0,039
-559,744	-133,899	0,065	-0,006
-558,729	-92,562	-0,203	0,042
-557,715	24,197	-0,080	0,049
-556,700	-48,900	0,051	0,018
-555,685	-47,505	0,113	0,040
-554,671	-200,000	0,007	0,054
-553,656	800,000	0,056	0,161
-552,642	433,254	-0,060	0,096
-551,627	34,506	-0,135	-0,087
-550,612	19,552	-0,084	0,050
-549,598	-186,815	0,063	-0,001
-548,583	-119,743	-0,066	-0,008
-547,569	-107,679	0,015	-0,002
-546,554	83,096	-0,015	0,012
-545,539	607,679	-0,025	0,047
-544,525	-200,000	0,045	0,199
-543,510	-200,000	-0,014	0,079
-542,496	-200,000	-0,009	-0,064
-541,481	31,628	-0,036	-0,023
-540,466	800,000	0,026	0,058
-539,452	245,653	0,113	0,141
-538,437	-41,046	-0,073	-0,028
-537,423	312,065	0,046	0,064
-536,408	-28,621	-0,128	-0,054
-535,393	-200,000	-0,034	-0,120
-534,379	-200,000	0,020	0,123
-533,364	299,824	0,023	0,031
-532,350	-51,993	0,051	0,017
-531,335	-200,000	-0,031	0,113
-530,321	-17,900	0,112	0,052
-529,306	574,644	0,003	0,006
-528,291	51,914	-0,142	0,099
-527,277	800,000	0,034	0,090
-526,262	-200,000	0,008	0,046
-525,248	-68,960	0,084	0,024
-524,233	70,830	0,043	0,033
-523,218	-200,000	0,019	0,101
-522,204	232,254	0,092	-0,111
-521,189	-200,000	0,009	-0,091
-520,175	-123,011	-0,097	0,011
-519,160	71,437	-0,118	0,091
-518,145	-200,000	0,003	-0,022
-517,131	-136,833	0,035	-0,003
-516,116	-15,794	0,039	0,018
-515,102	-6,672	-0,003	-0,001
-514,087	-98,001	0,088	-0,017
-513,072	-119,825	-0,130	0,016
-512,058	-200,000	0,029	0,114
-511,043	-168,216	-0,042	-0,001
-510,029	329,173	-0,028	0,039
-509,014	-200,000	-0,002	0,049
-507,999	-83,387	0,067	0,016
-506,985	-109,647	0,123	0,019
-505,970	-107,808	-0,044	0,007
-504,956	-10,955	-0,041	0,020
-503,941	-45,009	0,165	-0,060
-502,926	-132,544	-0,090	0,008
-501,912	-143,568	0,098	0,007
-500,897	-89,898	0,123	-0,026
-499,883	114,067	-0,087	-0,078
-498,868	-21,875	-0,068	0,030
-497,853	-200,000	-0,002	0,052
-496,839	-200,000	-0,010	-0,086
-495,824	-117,698	-0,060	-0,008
-494,810	102,900	0,026	-0,022
-493,795	217,457	0,126	0,148
-492,781	-151,651	-0,115	-0,006
-491,766	-99,235	0,027	0,005
-490,751	-200,000	0,010	-0,056
-489,737	-200,000	0,007	0,087
-488,722	9,626	-0,024	0,014
-487,708	139,138	0,129	0,125
-486,693	800,000	0,046	0,101
-485,678	-200,000	0,008	0,043
-484,664	-200,000	0,008	-0,168
-483,649	79,154	-0,038	0,030
-482,635	261,858	0,090	-0,115
-481,620	131,215	0,101	-0,095
-480,605	-64,960	0,018	-0,005
-479,591	-200,000	0,011	0,104
-478,576	231,070	0,010	0,012
-477,562	9,568	-0,040	-0,022
-476,547	185,422	-0,087	0,095
-475,532	398,971	-0,040	0,062
-474,518	-200,000	-0,016	-0,078
-473,503	363,429	-0,018	0,026
-472,489	800,000	0,037	0,083
-471,474	-42,396	0,159	0,059
-470,459	-196,606	-0,138	0,001
-469,445	56,616	-0,140	-0,100
-468,430	124,117	-0,124	-0,115
-467,416	-200,000	-0,015	-0,123
-466,401	91,886	-0,036	-0,030
-465,386	-200,000	0,019	0,072
-464,372	113,796	-0,085	-0,076
-463,357	140,033	-0,082	0,080
-462,343	-23,007	-0,017	0,008
-461,328	-79,467	-0,106	0,026
-460,313	-107,918	-0,133	0,021
-459,299	-200,000	0,025	0,113
-458,284	242,256	0,038	0,047
-457,270	-26,378	-0,090	0,039
-456,255	-200,000	0,023	-0,074
-455,241	421,991	0,039	-0,062
-454,226	653,809	-0,069	-0,131
-453,211	-200,000	0,040	-0,136
-452,197	13,968	0,038	-0,021
-451,182	354,311	0,091	0,134
-450,168	558,725	-0,064	0,114
-449,153	-200,000	-0,003	0,068
-448,138	177,418	-0,085	0,091
-447,124	103,900	0,192	-0,166
-446,109	9,527	0,057	0,032
-445,095	-58,682	0,115	0,037
-444,080	800,000	-0,075	0,161
-443,065	-200,000	-0,040	0,153
-442,051	-200,000	-0,008	-0,096
-441,036	151,692	-0,130	-0,131
-440,022	275,795	0,053	-0,070
-439,007	-62,037	0,059	0,018
-437,992	-123,041	0,108	0,013
-436,978	800,000	0,048	-0,108
-435,963	156,348	-0,084	-0,086
-434,949	41,600	-0,070	-0,047
-433,934	29,461	-0,082	0,051
-432,919	24,248	0,065	-0,040
-431,905	67,938	-0,071	0,053
-430,890	50,452	0,021	0,014
-429,876	260,383	-0,064	-0,082
-428,861	800,000	-0,039	-0,088
-427,846	800,000	-0,017	-0,055
-426,832	73,896	-0,056	0,043
-425,817	61,430	-0,028	-0,020
-424,803	-200,000	-0,010	-0,092
-423,788	-44,952	0,049	0,018
-422,773	322,440	-0,065	-0,091
-421,759	-162,101	0,131	-0,005
-420,744	-26,916	0,054	-0,023
-419,730	-72,552	0,117	0,032
-418,715	411,382	0,116	-0,181
-417,701	-4,952	0,030	-0,015
-416,686	737,620	0,070	-0,139
-415,671	-25,531	-0,090	0,039
-414,657	800,000	-0,030	0,074
-413,642	-200,000	0,012	0,175
-412,628	-200,000	-0,023	0,121
-411,613	158,589	0,076	-0,078
-410,598	-184,823	-0,101	0,001
-409,584	11,334	0,064	0,036
-408,569	1,950	-0,052	0,028
-407,555	-44,642	-0,131	0,048
-406,540	148,445	0,093	0,093
-405,525	-200,000	-0,008	0,061
-404,511	-200,000	-0,012	-0,045
-403,496	594,448	0,046	-0,084
-402,482	-200,000	-0,007	-0,053
-401,467	49,788	-0,069	0,048
-400,452	-200,000	0,000	0,079
-399,438	800,000	0,019	0,046
-398,423	-200,000	0,013	0,087
-397,409	66,849	0,069	0,051
-396,394	563,267	0,051	-0,091
-395,379	-46,677	-0,101	0,036
-394,365	-175,707	-0,105	0,002
-393,350	800,000	-0,011	-0,031
-392,336	-200,000	-0,010	-0,136
-391,321	355,672	0,053	-0,078
-390,306	-200,000	-0,017	-0,078
-389,292	519,589	-0,062	-0,107
-388,277	-9,364	0,035	-0,017
-387,263	-200,000	-0,004	-0,086
-386,248	-119,071	-0,011	-0,001
-385,233	-200,000	-0,002	-0,026
-384,219	-197,351	-0,041	0,000
-383,204	-200,000	-0,008	-0,079
-382,190	-147,235	0,122	-0,007
-381,175	800,000	-0,044	-0,127
-380,160	800,000	0,019	0,050
-379,146	167,901	-0,061	-0,064
-378,131	-200,000	-0,007	0,157
-377,117	800,000	-0,047	0,114
-376,102	800,000	0,064	-0,142
-375,088	-200,000	0,016	-0,139
-374,073	265,691	-0,133	-0,170
-373,058	509,477	0,035	0,060
-372,044	148,064	-0,045	0,045
-371,029	800,000	0,028	0,060
-370,015	41,650	-0,111	0,073
-369,000	-200,000	0,010	-0,094
-367,985	800,000	0,021	-0,060
-366,971	-200,000	0,033	-0,153
-365,956	-200,000	0,010	-0,046
-364,942	-155,497	-0,104	-0,005
-363,927	-200,000	0,004	-0,035
-362,912	800,000	-0,016	-0,051
-361,898	-200,000	0,012	-0,058
-360,883	421,616	-0,037	-0,058
-359,869	75,806	0,015	-0,012
-358,854	136,725	0,049	0,047
-357,839	157,600	0,031	0,031
-356,825	-200,000	0,008	0,126
-355,810	800,000	-0,016	0,035
-354,796	-24,755	-0,117	0,051
-353,781	-200,000	0,002	0,012
-352,766	-200,000	-0,019	-0,143
-351,752	22,732	0,095	0,057
-350,737	68,312	-0,109	0,082
-349,723	-200,000	0,019	0,092
-348,708	-115,538	-0,028	0,004
-347,693	-52,704	-0,091	-0,031
-346,679	-9,566	-0,132	-0,064
-345,664	524,790	0,099	-0,172
-344,650	363,698	-0,104	-0,153
-343,635	-166,509	0,096	0,003
-342,620	800,000	0,033	-0,095
-341,606	800,000	0,040	-0,101
-340,591	800,000	0,011	0,034
-339,577	-114,111	-0,011	0,002
-338,562	800,000	-0,012	-0,029
-337,548	736,510	-0,025	-0,050
-336,533	203,193	-0,007	-0,007
-335,518	18,608	0,097	0,057
-334,504	800,000	-0,038	0,110
-333,489	639,042	-0,036	0,067
-332,475	289,679	0,074	0,099
-331,460	-3,953	-0,076	-0,039
-330,445	116,458	0,060	-0,054
-329,431	-50,773	-0,028	0,010
-328,416	161,973	0,068	0,070
-327,402	800,000	-0,073	0,216
-326,387	-6,676	0,064	0,032
-325,372	168,983	-0,073	-0,076
-324,358	-200,000	0,011	-0,113
-323,343	-200,000	-0,005	-0,026
-322,329	-93,369	0,132	0,027
-321,314	800,000	-0,020	-0,058
-320,299	-165,487	-0,062	0,002
-319,285	477,440	0,031	-0,051
-318,270	341,149	0,023	0,033
-317,256	-147,684	-0,013	-0,001
-316,241	75,793	0,031	0,024
-315,226	6,394	0,088	0,048
-314,212	5,096	0,092	-0,049
-313,197	-39,137	0,054	-0,021
-312,183	619,000	-0,026	0,047
-311,168	109,529	-0,105	-0,092
-310,153	-200,000	-0,043	-0,139
-309,139	-7,244	-0,042	0,021
-308,124	800,000	-0,012	0,034
-307,110	-38,132	0,122	-0,047
-306,095	800,000	0,044	0,135
-305,080	258,991	0,047	0,060
-304,066	41,316	0,110	0,073
-303,051	-21,671	-0,026	-0,012
-302,037	-200,000	-0,095	0,000
-301,022	58,846	-0,072	0,052
-300,008	-28,945	0,071	0,030
-298,993	-46,990	-0,071	0,025
-297,978	65,544	0,040	0,029
-296,964	-34,193	0,085	-0,034
-295,949	-3,217	0,087	0,044
-294,935	-14,507	-0,100	-0,047
-293,920	329,164	0,026	-0,036
-292,905	43,355	-0,041	-0,027
-291,891	-200,000	0,009	0,037
-290,876	46,299	-0,077	-0,052
-289,862	155,618	-0,058	-0,058
-288,847	-200,000	-0,003	-0,138
-287,832	-105,573	0,125	0,021
-286,818	75,885	0,020	0,015
-285,803	-200,000	-0,043	0,142
-284,789	-200,000	-0,038	0,149
-283,774	800,000	-0,013	0,041
-282,759	800,000	0,020	0,059
-281,745	800,000	0,031	0,064
-280,730	134,673	-0,088	-0,083
-279,716	-200,000	0,012	0,045
-278,701	-4,546	-0,014	-0,007
-277,686	246,733	-0,044	0,055
-276,672	596,922	0,046	-0,083
-275,657	46,169	-0,098	0,067
-274,643	-31,700	0,114	-0,047
-273,628	800,000	0,031	-0,090
-272,613	-20,143	0,106	-0,047
-271,599	-107,864	0,075	0,012
-270,584	-200,000	-0,002	0,038
-269,570	-109,186	0,112	-0,017
-268,555	6,886	-0,086	0,047
-267,540	-20,206	0,076	0,034
-266,526	-25,414	0,104	-0,045
-265,511	-165,722	-0,052	-0,002
-264,497	-76,469	0,031	0,008
-263,482	71,530	0,061	-0,046
-262,467	390,418	0,032	0,049
-261,453	-200,000	-0,052	0,210
-260,438	-51,086	0,064	0,022
-259,424	28,814	-0,077	0,047
-258,409	184,857	-0,107	-0,116
-257,395	97,704	0,024	-0,021
-256,380	351,471	0,040	0,058
-255,365	-200,000	0,023	-0,108
-254,351	193,697	0,112	-0,123
-253,336	117,080	-0,030	0,027
-252,322	-200,000	-0,026	-0,168
-251,307	351,731	-0,033	-0,048
-250,292	437,364	-0,044	-0,071
-249,278	186,485	0,056	0,061
-248,263	-97,198	0,058	0,011
-247,249	-200,000	-0,006	0,176
-246,234	-200,000	-0,006	-0,105
-245,219	666,229	-0,019	-0,036
-244,205	-29,797	-0,030	0,012
-243,190	800,000	-0,019	0,051
-242,176	800,000	0,065	-0,136
-241,161	83,346	0,078	0,062
-240,146	37,056	0,090	-0,058
-239,132	-200,000	-0,017	-0,107
-238,117	454,820	-0,066	-0,107
-237,103	800,000	0,073	-0,173
-236,088	249,840	0,018	-0,023
-235,073	173,943	0,025	-0,026
-234,059	-200,000	-0,019	0,068
-233,044	-94,464	-0,053	0,010
-232,030	-200,000	0,020	0,112
-231,015	-104,649	-0,094	0,016
-230,000	161,333	-0,087	0,089
-228,986	800,000	0,025	0,054
-227,971	230,418	-0,020	0,024
-226,957	-200,000	-0,014	0,085
-225,942	112,467	0,166	0,146
-224,927	387,027	-0,154	-0,233
-223,913	-200,000	0,034	-0,125
-222,898	95,364	-0,077	-0,064
-221,884	-133,217	-0,136	0,012
-220,869	602,036	-0,051	0,092
-219,855	-200,000	-0,003	0,032
-218,840	280,648	-0,010	0,014
-217,825	117,897	0,027	0,024
-216,811	170,915	-0,055	0,057
-215,796	164,648	-0,088	0,091
-214,782	-200,000	-0,008	-0,122
-213,767	30,609	0,120	-0,075
-212,752	214,539	0,018	0,021
-211,738	-98,042	0,194	0,036
-210,723	-31,709	-0,061	0,025
-209,709	310,064	-0,037	-0,050
-208,694	86,722	0,041	-0,033
-207,679	-200,000	-0,013	-0,135
-206,665	-115,566	0,093	0,013
-205,650	112,079	-0,082	0,072
-204,636	-200,000	-0,006	-0,042
-203,621	127,050	0,042	0,039
-202,606	-200,000	-0,007	0,055
-201,592	206,863	0,098	-0,112
-200,577	800,000	0,013	0,038
-199,563	800,000	0,015	-0,032
-198,548	314,691	-0,053	0,072
-197,533	61,804	0,068	0,049
-196,519	627,162	0,121	-0,223
-195,504	18,622	-0,137	-0,080
-194,490	-48,584	-0,081	-0,028
-193,475	251,804	0,011	0,014
-192,460	-109,821	-0,150	-0,023
-191,446	-200,000	-0,006	-0,050
-190,431	-178,094	0,142	0,002
-189,417	272,005	0,062	0,080
-188,402	-200,000	0,031	0,164
-187,387	775,945	-0,051	0,101
-186,373	179,776	-0,117	0,125
-185,358	-200,000	-0,011	0,094
-184,344	800,000	0,084	-0,172
-183,329	-3,608	-0,033	-0,017
-182,315	-200,000	-0,002	-0,058
-181,300	800,000	0,058	0,118
-180,285	181,705	-0,037	-0,040
-179,271	275,478	-0,059	-0,076
-178,256	168,447	-0,038	0,040
-177,242	-200,000	-0,026	0,085
-176,227	-200,000	0,157	0,000
-175,212	-183,950	-0,048	-0,001
-174,198	176,020	0,026	0,027
-173,183	537,123	-0,020	-0,034
-172,169	155,757	-0,074	0,074
-171,154	-200,000	0,021	0,101
-170,139	138,436	0,136	0,130
-169,125	-145,387	-0,108	0,007
-168,110	324,031	0,037	0,051
-167,096	470,177	-0,049	-0,080
-166,081	-104,557	-0,026	-0,004
-165,066	48,910	-0,029	-0,020
-164,052	244,780	-0,065	-0,079
-163,037	-87,390	-0,067	-0,015
-162,023	38,190	0,136	-0,088
-161,008	-200,000	0,050	0,201
-159,993	207,135	-0,034	0,038
-158,979	800,000	-0,037	-0,085
-157,964	-140,036	0,124	-0,009
-156,950	-200,000	-0,000	0,098
-155,935	195,514	-0,039	-0,043
-154,920	-18,819	0,140	0,063
-153,906	-52,693	0,132	0,044
-152,891	-176,461	-0,184	-0,003
-151,877	-200,000	0,009	0,069
-150,862	553,731	0,010	-0,017
-149,847	333,932	0,047	-0,066
-148,833	-81,788	0,026	-0,006
-147,818	-51,583	0,117	0,040
-146,804	11,864	0,051	0,029
-145,789	-200,000	-0,001	0,029
-144,775	800,000	-0,005	-0,014
-143,760	171,176	0,032	0,033
-142,745	401,645	0,128	-0,195
-141,731	755,696	0,020	0,039
-140,716	-163,138	0,111	-0,004
-139,702	124,590	-0,032	0,030
-138,687	-104,972	0,118	-0,019
-137,672	800,000	-0,028	-0,090
-136,658	119,168	-0,093	-0,083
-135,643	638,675	0,020	-0,037
-134,629	287,474	0,048	-0,064
-133,614	96,698	0,085	-0,071
-132,599	-9,356	0,072	0,035
-131,585	470,438	0,081	0,133
-130,570	-200,000	0,001	0,085
-129,556	-200,000	0,014	-0,113
-128,541	-89,618	-0,066	-0,014
-127,526	-200,000	-0,007	0,087
-126,512	800,000	-0,039	0,099
-125,497	3,253	0,143	-0,075
-124,483	177,127	-0,042	0,045
-123,468	241,815	-0,082	-0,100
-122,453	-89,936	0,022	-0,005
-121,439	141,256	0,021	-0,020
-120,424	0,523	-0,073	-0,038
-119,410	62,544	0,106	0,077
-118,395	800,000	-0,035	0,074
