DTS Sentinel unit serial number:	SN410029Multiplexer serial number:	ORYXHardware model number:	OX2-SRSoftware version number:	ORYX F/W v4,00 Oryx Data Collector v3.7.2.0data status	okinstallation	B4 Nyhavnadifferential loss correction	single-endedforward channel	channel 2reverse channel	N/Adate	2023/12/18time	23:10:13forward acquisition time	300,00reverse acquisition time	0,00gamma	499,1914k internal	0,3124k external	0,3124temperature offset calibration	1,0000default loss term (dB/km)	0,3820temperature slope calibration	1,0000multiplexer offset coefficient	1,0000multiplexer slope coefficient	1,0000fibre end	0,00T internal ref (°C)	22,09T ext. ref 1 (°C)	7,87T ext. ref 2 (°C)	7,90length (m)	temperature (°C)	Stokes	anti-Stokes-744,400	-50,772	0,111	-0,039
-743,385	-14,646	-0,224	0,107
-742,371	-99,140	0,142	-0,026
-741,356	-20,128	-0,267	0,122
-740,342	152,181	-0,132	0,134
-739,327	135,316	-0,163	0,158
-738,312	-200,000	-0,036	-0,138
-737,298	-95,371	-0,223	-0,044
-736,283	33,464	0,135	0,087
-735,269	-107,230	-0,297	0,048
-734,254	48,241	0,098	-0,068
-733,239	-158,505	-0,509	-0,022
-732,225	59,921	0,138	-0,101
-731,210	347,749	0,061	-0,089
-730,196	-49,690	0,061	0,022
-729,181	-200,000	0,030	-0,157
-728,167	335,590	-0,101	-0,146
-727,152	-200,000	-0,014	-0,132
-726,137	800,000	-0,027	-0,062
-725,123	502,458	-0,169	-0,293
-724,108	800,000	-0,100	-0,260
-723,094	427,748	-0,101	-0,163
-722,079	635,310	-0,010	0,019
-721,064	-200,000	-0,010	-0,068
-720,050	800,000	-0,022	-0,072
-719,035	-200,000	-0,004	-0,049
-718,021	138,122	0,075	-0,073
-717,006	-200,000	0,009	-0,097
-715,991	143,044	-0,108	-0,107
-714,977	26,822	-0,155	-0,096
-713,962	37,797	-0,041	0,027
-712,948	96,520	-0,090	0,077
-711,933	-125,820	0,055	0,006
-710,918	25,820	0,064	-0,039
-709,904	249,004	-0,127	-0,161
-708,889	185,766	0,067	0,075
-707,875	4,756	-0,041	-0,023
-706,860	-152,300	0,091	-0,005
-705,845	800,000	0,054	0,144
-704,831	-200,000	0,007	0,040
-703,816	-88,456	0,059	0,013
-702,802	-200,000	-0,011	-0,066
-701,787	6,644	0,030	-0,017
-700,772	-101,715	-0,124	-0,022
-699,758	-200,000	-0,015	0,055
-698,743	800,000	-0,015	-0,037
-697,729	-200,000	-0,010	-0,034
-696,714	-200,000	0,004	-0,107
-695,699	-104,357	0,052	-0,009
-694,685	222,566	-0,113	-0,136
-693,670	-200,000	-0,006	-0,157
-692,656	-200,000	-0,018	-0,095
-691,641	800,000	-0,026	0,068
-690,627	28,667	0,031	0,020
-689,612	-107,262	-0,029	0,005
-688,597	210,989	-0,032	-0,038
-687,583	156,781	-0,029	-0,030
-686,568	-85,888	-0,082	-0,019
-685,554	15,889	0,067	-0,039
-684,539	-154,336	-0,193	0,009
-683,524	286,475	-0,042	0,057
-682,510	-77,555	0,049	-0,013
-681,495	800,000	-0,049	-0,101
-680,481	800,000	0,045	-0,095
-679,466	70,152	0,033	0,025
-678,451	145,196	-0,046	-0,045
-677,437	108,633	-0,027	-0,024
-676,422	-200,000	-0,004	-0,056
-675,408	-200,000	0,004	0,091
-674,393	61,544	-0,199	0,147
-673,378	-200,000	-0,001	-0,074
-672,364	-63,281	-0,077	0,023
-671,349	-50,162	-0,101	0,035
-670,335	-17,717	0,051	0,024
-669,320	-200,000	-0,011	-0,067
-668,305	48,538	0,088	-0,061
-667,291	-200,000	0,010	-0,105
-666,276	-111,397	-0,061	0,009
-665,262	800,000	0,007	-0,022
-664,247	-151,251	-0,072	-0,004
-663,232	800,000	0,035	0,073
-662,218	-152,156	-0,036	0,002
-661,203	-200,000	0,011	0,070
-660,189	-132,697	0,106	-0,010
-659,174	-200,000	-0,036	-0,147
-658,159	221,157	0,078	0,093
-657,145	-200,000	0,003	0,054
-656,130	800,000	-0,044	0,124
-655,116	-44,227	0,125	0,046
-654,101	-200,000	-0,007	0,082
-653,086	112,400	-0,144	0,129
-652,072	800,000	-0,011	-0,031
-651,057	7,778	0,052	0,029
-650,043	40,823	-0,084	0,056
-649,028	445,943	-0,041	-0,068
-648,014	-78,128	0,163	0,041
-646,999	-200,000	0,025	0,089
-645,984	93,124	0,059	-0,050
-644,970	-104,944	-0,088	-0,015
-643,955	800,000	-0,036	-0,082
-642,941	800,000	-0,054	-0,162
-641,926	276,925	0,032	0,043
-640,911	-43,184	-0,099	0,037
-639,897	-49,162	0,094	-0,033
-638,882	-186,925	0,149	0,001
-637,868	249,716	0,053	0,067
-636,853	-183,621	-0,071	-0,001
-635,838	43,127	-0,056	0,038
-634,824	-96,667	0,095	0,018
-633,809	800,000	0,020	0,040
-632,795	-200,000	0,009	-0,095
-631,780	800,000	-0,022	-0,060
-630,765	-200,000	-0,009	0,056
-629,751	-84,338	-0,189	-0,044
-628,736	78,909	-0,022	-0,018
-627,722	-200,000	0,001	-0,065
-626,707	-200,000	-0,014	0,052
-625,692	-70,390	0,078	0,022
-624,678	175,449	0,039	-0,042
-623,663	113,217	-0,024	0,022
-622,649	204,775	-0,013	-0,015
-621,634	393,341	0,029	0,045
-620,619	800,000	-0,036	-0,109
-619,605	800,000	-0,044	-0,126
-618,590	-115,691	0,090	0,012
-617,576	54,943	0,050	0,036
-616,561	-200,000	0,005	-0,047
-615,546	800,000	0,049	-0,134
-614,532	-200,000	-0,005	-0,074
-613,517	-37,096	-0,122	0,048
-612,503	779,934	-0,019	0,039
-611,488	219,825	0,119	0,141
-610,474	800,000	0,031	-0,069
-609,459	-39,340	0,070	-0,027
-608,444	-69,809	-0,120	0,034
-607,430	130,410	-0,109	0,104
-606,415	-144,811	-0,039	-0,003
-605,401	620,597	0,041	0,077
-604,386	742,659	0,058	0,116
-603,371	59,508	-0,025	0,019
-602,357	-200,000	0,001	-0,119
-601,342	-200,000	0,019	-0,110
-600,328	634,156	-0,093	-0,176
-599,313	-200,000	-0,013	-0,086
-598,298	193,727	0,048	0,054
-597,284	17,799	-0,049	-0,029
-596,269	62,342	-0,105	0,078
-595,255	-74,178	-0,023	0,006
-594,240	800,000	-0,033	0,080
-593,225	-94,874	-0,095	-0,019
-592,211	800,000	-0,061	-0,151
-591,196	279,315	0,021	-0,028
-590,182	-2,606	-0,034	-0,018
-589,167	-200,000	0,033	-0,222
-588,152	-200,000	-0,041	0,140
-587,138	800,000	0,030	-0,077
-586,123	-102,422	-0,036	-0,006
-585,109	800,000	-0,003	0,007
-584,094	127,031	-0,017	0,016
-583,079	-200,000	0,013	-0,158
-582,065	-200,000	-0,006	-0,021
-581,050	-80,889	0,150	0,036
-580,036	800,000	-0,035	-0,083
-579,021	-99,642	-0,042	-0,008
-578,006	-106,531	-0,152	0,025
-576,992	9,324	-0,022	-0,012
-575,977	-185,073	0,085	0,001
-574,963	-34,406	0,072	0,029
-573,948	324,924	-0,062	0,089
-572,934	800,000	-0,022	0,052
-571,919	-59,562	0,067	-0,021
-570,904	-7,016	-0,081	-0,040
-569,890	-200,000	-0,016	0,131
-568,875	352,823	-0,067	0,098
-567,861	-108,387	0,077	-0,012
-566,846	-200,000	-0,011	-0,061
-565,831	403,347	-0,121	0,189
-564,817	-39,119	-0,032	0,012
-563,802	-2,580	-0,030	0,016
-562,788	-23,587	-0,060	0,026
-561,773	-200,000	-0,056	0,000
-560,758	310,727	0,058	0,081
-559,744	41,292	0,056	0,037
-558,729	-133,081	-0,123	0,011
-557,715	-171,467	-0,084	0,002
-556,700	-115,282	-0,076	0,010
-555,685	-200,000	-0,003	0,107
-554,671	34,168	0,061	0,039
-553,656	759,960	-0,036	-0,073
-552,642	-200,000	0,026	0,120
-551,627	-50,683	0,145	0,050
-550,612	118,643	0,065	-0,060
-549,598	-200,000	-0,030	-0,174
-548,583	-200,000	-0,023	0,100
-547,569	-73,495	0,008	0,002
-546,554	-200,000	0,002	0,089
-545,539	-200,000	-0,033	-0,141
-544,525	-9,620	0,069	0,034
-543,510	-114,879	-0,086	0,012
-542,496	442,206	-0,014	0,023
-541,481	118,286	-0,149	-0,136
-540,466	-200,000	-0,031	0,115
-539,452	-144,021	-0,027	0,002
-538,437	-200,000	-0,007	0,088
-537,423	254,205	0,093	0,118
-536,408	379,370	-0,054	-0,082
-535,393	-200,000	-0,022	-0,176
-534,379	103,748	0,076	-0,066
-533,364	-200,000	0,012	-0,084
-532,350	-200,000	-0,006	-0,061
-531,335	38,036	0,039	-0,025
-530,321	784,926	0,016	0,033
-529,306	800,000	-0,029	-0,091
-528,291	-200,000	0,014	-0,093
-527,277	-200,000	-0,012	-0,047
-526,262	58,050	-0,003	-0,002
-525,248	-101,065	-0,019	-0,003
-524,233	-109,097	0,051	0,008
-523,218	117,979	-0,018	0,016
-522,204	-200,000	0,020	0,092
-521,189	-200,000	0,033	-0,112
-520,175	-26,200	-0,150	-0,065
-519,160	261,724	-0,104	-0,134
-518,145	800,000	-0,024	-0,068
-517,131	762,424	0,026	-0,052
-516,116	800,000	0,022	0,065
-515,102	-52,797	0,149	0,050
-514,087	28,115	-0,061	0,038
-513,072	31,787	-0,106	0,067
-512,058	22,053	-0,094	0,056
-511,043	24,092	0,049	0,030
-510,029	45,759	0,067	-0,045
-509,014	220,898	0,029	-0,035
-507,999	-87,987	0,054	0,012
-506,985	266,435	-0,089	0,115
-505,970	-36,564	0,031	-0,012
-504,956	-17,188	-0,051	-0,024
-503,941	800,000	0,021	-0,055
-502,926	168,650	-0,041	0,043
-501,912	116,098	-0,049	0,044
-500,897	-200,000	-0,012	0,049
-499,883	-200,000	-0,007	0,054
-498,868	98,005	-0,046	0,039
-497,853	-200,000	0,002	-0,090
-496,839	187,431	0,151	0,167
-495,824	800,000	-0,020	0,057
-494,810	-61,041	0,088	-0,027
-493,795	-52,773	-0,033	-0,011
-492,781	-200,000	0,005	-0,081
-491,766	-146,423	-0,110	0,007
-490,751	-161,158	-0,085	0,003
-489,737	-49,909	-0,181	0,063
-488,722	800,000	0,025	0,071
-487,708	-44,039	0,100	-0,037
-486,693	-153,268	-0,128	-0,006
-485,678	-47,155	-0,007	-0,002
-484,664	25,766	-0,093	0,057
-483,649	795,683	-0,051	-0,104
-482,635	60,495	0,037	0,027
-481,620	-72,028	-0,068	-0,018
-480,605	-152,132	0,109	-0,006
-479,591	489,655	0,026	0,044
-478,576	68,252	-0,097	-0,074
-477,562	-200,000	0,006	-0,076
-476,547	469,035	-0,012	-0,021
-475,532	800,000	0,077	-0,215
-474,518	-43,896	0,207	-0,076
-473,503	-50,330	-0,202	0,070
-472,489	26,586	0,130	-0,080
-471,474	-200,000	-0,009	-0,038
-470,459	47,894	0,073	-0,050
-469,445	665,855	-0,018	0,035
-468,430	-54,094	0,078	-0,026
-467,416	-21,776	0,110	0,049
-466,401	-33,515	0,056	-0,023
-465,386	164,512	0,066	-0,068
-464,372	-30,936	0,055	0,023
-463,357	-35,342	-0,100	-0,040
-462,343	-200,000	-0,023	0,090
-461,328	-71,326	-0,036	0,010
-460,313	-200,000	0,016	-0,090
-459,299	-99,362	-0,076	0,014
-458,284	-67,252	0,054	-0,016
-457,270	800,000	0,006	-0,018
-456,255	-191,137	-0,086	0,001
-455,241	-67,702	-0,087	-0,025
-454,226	-31,643	-0,080	-0,033
-453,211	800,000	-0,061	-0,145
-452,197	2,305	0,071	-0,038
-451,182	-4,776	-0,019	-0,010
-450,168	800,000	-0,047	0,121
-449,153	-200,000	0,007	0,066
-448,138	-200,000	-0,004	0,035
-447,124	194,037	-0,053	-0,060
-446,109	-124,186	-0,128	-0,015
-445,095	-12,745	0,073	0,035
-444,080	-0,373	-0,071	-0,037
-443,065	542,414	-0,032	0,056
-442,051	-200,000	-0,011	-0,065
-441,036	-145,941	0,057	0,004
-440,022	-26,392	-0,127	0,055
-439,007	-13,423	0,147	-0,070
-437,992	-69,062	-0,105	0,029
-436,978	108,225	0,122	0,107
-435,963	-200,000	-0,036	-0,132
-434,949	-68,136	-0,060	-0,017
-433,934	-200,000	-0,007	0,041
-432,919	800,000	-0,016	-0,047
-431,905	687,843	-0,039	-0,076
-430,890	-80,750	-0,146	-0,035
-429,876	482,136	0,002	0,003
-428,861	189,497	0,043	0,048
-427,846	-53,266	-0,030	0,010
-426,832	-200,000	-0,020	0,102
-425,817	177,833	0,040	-0,043
-424,803	800,000	-0,009	-0,019
-423,788	648,329	0,033	0,063
-422,773	445,661	0,046	0,075
-421,759	-81,181	-0,090	-0,022
-420,744	-200,000	0,002	-0,030
-419,730	66,699	-0,043	0,032
-418,715	71,306	0,085	-0,065
-417,701	-24,995	-0,082	0,036
-416,686	429,492	0,073	0,116
-415,671	-74,850	-0,056	0,015
-414,657	36,711	-0,155	0,100
-413,642	-14,690	-0,135	0,063
-412,628	-200,000	-0,002	-0,067
-411,613	-41,430	-0,095	0,036
-410,598	115,664	-0,064	-0,058
-409,584	800,000	-0,023	0,052
-408,569	254,152	0,044	0,055
-407,555	-200,000	0,005	0,136
-406,540	-200,000	-0,005	0,050
-405,525	-105,413	0,037	0,006
-404,511	423,942	0,052	0,082
-403,496	-200,000	0,016	-0,134
-402,482	-200,000	-0,017	0,146
-401,467	46,117	0,076	0,052
-400,452	-25,654	0,054	-0,023
-399,438	584,131	0,040	-0,073
-398,423	800,000	0,052	-0,109
-397,409	-200,000	0,022	-0,091
-396,394	800,000	-0,056	-0,117
-395,379	13,739	0,068	0,039
-394,365	70,793	-0,006	-0,004
-393,350	19,293	0,031	0,018
-392,336	165,433	0,070	0,073
-391,321	-200,000	0,029	-0,129
-390,306	18,672	-0,039	-0,023
-389,292	-15,139	0,059	-0,028
-388,277	-200,000	-0,021	-0,158
-387,263	-125,557	0,064	0,007
-386,248	645,354	-0,138	0,260
-385,233	-97,264	0,034	-0,006
-384,219	152,797	-0,052	0,052
-383,204	355,173	0,084	-0,123
-382,190	800,000	-0,039	-0,105
-381,175	-46,313	-0,078	-0,028
-380,160	69,737	0,094	0,071
-379,146	-200,000	0,010	0,191
-378,131	800,000	0,034	0,086
-377,117	208,211	0,044	-0,050
-376,102	-200,000	-0,008	-0,103
-375,088	800,000	-0,024	0,048
-374,073	-40,239	0,054	-0,020
-373,058	318,919	-0,038	-0,053
-372,044	-77,342	0,161	0,041
-371,029	603,931	0,101	0,185
-370,015	5,547	-0,090	0,049
-369,000	-82,532	-0,091	0,022
-367,985	289,542	-0,138	-0,184
-366,971	800,000	-0,017	-0,040
-365,956	-97,652	0,127	-0,024
-364,942	800,000	-0,049	0,138
-363,927	800,000	0,039	0,079
-362,912	-200,000	-0,006	0,033
-361,898	126,053	0,122	0,113
-360,883	107,314	-0,119	-0,104
-359,869	-69,721	0,062	-0,017
-358,854	160,147	0,024	0,025
-357,839	-61,242	0,110	0,034
-356,825	385,109	0,015	-0,023
-355,810	-130,617	0,036	-0,003
-354,796	-200,000	0,028	0,132
-353,781	800,000	-0,014	0,033
-352,766	-1,199	-0,083	0,043
-351,752	-200,000	0,011	0,100
-350,737	800,000	-0,016	0,050
-349,723	-200,000	0,023	0,137
-348,708	-125,427	0,095	0,010
-347,693	-179,564	-0,071	-0,001
-346,679	209,236	-0,051	-0,059
-345,664	18,937	-0,058	0,034
-344,650	15,513	0,101	-0,058
-343,635	-86,890	0,067	-0,015
-342,620	-62,087	-0,035	0,011
-341,606	-22,831	-0,066	-0,029
-340,591	800,000	0,050	0,112
-339,577	-200,000	0,011	0,060
-338,562	-83,636	-0,125	-0,029
-337,548	41,085	0,065	-0,043
-336,533	-8,701	0,037	0,018
-335,518	221,508	-0,041	-0,049
-334,504	-3,521	0,031	-0,016
-333,489	-200,000	-0,013	0,088
-332,475	40,466	0,069	-0,045
-331,460	30,057	-0,091	-0,057
-330,445	-188,593	0,209	-0,002
-329,431	35,364	-0,092	0,059
-328,416	800,000	0,015	0,046
-327,402	-8,235	0,100	-0,049
-326,387	537,792	0,005	-0,009
-325,372	-52,772	-0,114	-0,038
-324,358	800,000	-0,030	-0,074
-323,343	459,692	0,028	0,046
-322,329	23,586	-0,075	0,045
-321,314	-11,770	0,077	0,037
-320,299	-143,858	-0,036	0,002
-319,285	-93,434	-0,107	-0,022
-318,270	294,263	0,077	-0,104
-317,256	703,294	-0,072	-0,139
-316,241	-200,000	-0,037	0,132
-315,226	-59,910	0,134	0,042
-314,212	237,379	0,068	0,083
-313,197	90,985	0,056	0,046
-312,183	4,681	-0,110	-0,059
-311,168	-200,000	-0,021	-0,069
-310,153	27,719	-0,030	-0,019
-309,139	24,518	0,121	-0,073
-308,124	66,540	-0,084	-0,062
-307,110	217,862	0,086	0,100
-306,095	-200,000	-0,014	0,073
-305,080	224,216	-0,074	0,087
-304,066	-200,000	-0,008	-0,039
-303,051	16,607	-0,083	-0,048
-302,037	-89,112	-0,086	0,019
-301,022	546,307	-0,037	0,064
-300,008	104,653	-0,020	0,017
-298,993	-10,142	0,068	0,033
-297,978	800,000	-0,037	-0,085
-296,964	-200,000	-0,005	0,067
-295,949	275,167	-0,019	0,024
-294,935	-124,610	0,020	-0,002
-293,920	-131,187	-0,044	0,004
-292,905	-151,573	-0,029	-0,002
-291,891	-140,950	-0,130	0,010
-290,876	-11,269	-0,066	0,032
-289,862	326,515	0,084	0,118
-288,847	-34,418	-0,078	-0,031
-287,832	167,373	0,018	-0,019
-286,818	800,000	0,013	-0,040
-285,803	-88,825	0,087	0,019
-284,789	142,918	0,041	0,040
-283,774	-200,000	0,007	0,058
-282,759	-106,308	0,072	-0,012
-281,745	336,187	-0,026	-0,037
-280,730	141,524	-0,153	-0,148
-279,716	-21,532	0,064	-0,029
-278,701	-200,000	-0,007	-0,028
-277,686	-200,000	-0,020	-0,082
-276,672	800,000	0,051	0,117
-275,657	-92,773	0,116	0,024
-274,643	-58,361	-0,038	0,012
-273,628	496,640	-0,047	-0,080
-272,613	19,574	-0,026	0,015
-271,599	-200,000	0,009	0,083
-270,584	-3,410	0,205	0,104
-269,570	358,936	0,065	0,095
-268,555	-175,041	-0,053	0,001
-267,540	-200,000	-0,003	0,056
-266,526	3,068	-0,121	-0,064
-265,511	441,514	0,069	-0,111
-264,497	-156,677	0,161	-0,007
-263,482	-58,225	0,105	-0,033
-262,467	800,000	-0,028	-0,060
-261,453	-94,955	0,045	0,009
-260,438	-129,102	0,075	0,008
-259,424	128,323	-0,045	-0,042
-258,409	-100,223	0,132	-0,024
-257,395	-200,000	-0,002	-0,110
-256,380	800,000	0,060	-0,149
-255,365	-200,000	-0,003	-0,084
-254,351	-200,000	0,004	-0,055
-253,336	-200,000	-0,010	0,068
-252,322	-12,669	0,112	-0,053
-251,307	-29,522	0,114	-0,047
-250,292	-200,000	-0,054	-0,259
-249,278	286,082	-0,031	0,041
-248,263	267,008	0,079	0,101
-247,249	-200,000	-0,014	0,061
-246,234	370,941	-0,034	-0,050
-245,219	-200,000	-0,038	0,145
-244,205	-105,002	-0,089	-0,015
-243,190	323,678	0,022	-0,030
-242,176	-200,000	0,052	0,179
-241,161	-94,432	0,190	-0,038
-240,146	66,025	0,031	-0,023
-239,132	-2,192	0,069	0,035
-238,117	26,892	0,188	-0,115
-237,103	593,742	0,040	-0,072
-236,088	-135,300	-0,065	0,006
-235,073	-15,411	-0,054	0,025
-234,059	-107,921	0,055	-0,009
-233,044	-51,637	0,068	0,023
-232,030	800,000	0,033	0,086
-231,015	-200,000	0,007	0,028
-230,000	20,298	-0,072	-0,042
-228,986	252,508	-0,120	0,150
-227,971	800,000	-0,021	0,047
-226,957	21,302	-0,080	-0,047
-225,942	-200,000	0,005	-0,079
-224,927	-16,334	0,112	0,052
-223,913	-200,000	-0,027	-0,131
-222,898	800,000	-0,053	-0,111
-221,884	-14,519	-0,144	0,068
-220,869	124,049	0,112	0,103
-219,855	-200,000	-0,008	-0,036
-218,840	-126,587	0,189	0,020
-217,825	-200,000	0,015	0,068
-216,811	184,259	-0,053	-0,058
-215,796	200,980	-0,019	-0,021
-214,782	377,345	0,063	0,094
-213,767	23,851	0,039	-0,023
-212,752	345,728	-0,014	-0,020
-211,738	34,870	0,083	-0,053
-210,723	774,915	0,027	-0,054
-209,709	138,798	-0,109	-0,104
-208,694	212,553	-0,119	0,138
-207,679	2,659	-0,046	-0,024
-206,665	800,000	0,026	-0,063
-205,650	800,000	-0,059	0,164
-204,636	434,631	0,078	0,124
-203,621	-101,489	-0,062	-0,011
-202,606	-41,950	0,142	0,053
-201,592	-200,000	0,023	0,148
-200,577	-200,000	0,006	0,025
-199,563	571,843	-0,029	0,052
-198,548	23,708	0,029	0,017
-197,533	-35,248	0,079	-0,031
-196,519	576,430	-0,050	-0,089
-195,504	800,000	-0,067	-0,137
-194,490	-200,000	0,002	-0,013
-193,475	699,414	-0,059	-0,113
-192,460	-100,941	0,145	0,026
-191,446	-200,000	0,016	0,123
-190,431	-94,731	0,086	0,017
-189,417	-185,426	-0,176	0,002
-188,402	-0,452	0,060	-0,031
-187,387	-129,699	-0,114	-0,011
-186,373	800,000	-0,021	-0,067
-185,358	55,387	0,043	-0,030
-184,344	-147,783	0,095	0,006
-183,329	-22,920	0,179	-0,078
-182,315	174,507	0,081	-0,086
-181,300	-47,845	-0,048	0,017
-180,285	210,777	-0,076	0,088
-179,271	321,194	0,007	-0,010
-178,256	155,505	0,037	0,037
-177,242	-110,745	0,130	0,019
-176,227	-200,000	0,019	-0,077
-175,212	348,097	0,009	0,013
-174,198	-9,815	0,067	0,032
-173,183	-53,090	-0,042	-0,014
-172,169	-133,860	0,024	-0,002
-171,154	146,049	-0,023	0,022
-170,139	-55,655	-0,114	0,037
-169,125	231,365	0,037	0,044
-168,110	-200,000	0,005	-0,052
-167,096	-200,000	0,010	0,089
-166,081	-8,794	-0,036	0,018
-165,066	241,400	0,025	0,031
-164,052	55,124	-0,089	0,063
-163,037	-4,217	0,097	0,049
-162,023	506,441	-0,057	-0,096
-161,008	-12,352	-0,105	0,050
-159,993	360,403	0,048	-0,070
-158,979	31,414	0,125	-0,078
-157,964	-200,000	0,004	0,127
-156,950	-153,598	0,027	-0,001
-155,935	-28,066	0,092	0,038
-154,920	76,384	-0,050	0,039
-153,906	-200,000	0,010	0,035
-152,891	502,329	0,004	-0,007
-151,877	-190,647	-0,098	0,001
-150,862	-158,571	-0,122	0,005
-149,847	-64,854	-0,159	-0,047
-148,833	-49,331	-0,079	0,027
-147,818	-200,000	0,002	0,112
-146,804	800,000	-0,005	0,015
-145,789	800,000	-0,025	0,051
-144,775	411,620	-0,085	-0,132
-143,760	-58,913	-0,112	-0,035
-142,745	-0,028	0,022	-0,011
-141,731	800,000	0,062	-0,157
-140,716	124,954	-0,078	-0,072
-139,702	800,000	0,024	-0,061
-138,687	-200,000	-0,007	0,040
-137,672	157,846	0,053	0,053
-136,658	800,000	-0,030	-0,081
-135,643	-200,000	-0,004	0,040
-134,629	3,762	-0,055	-0,029
-133,614	211,087	0,034	-0,039
-132,599	-124,450	0,190	-0,021
-131,585	456,634	-0,098	0,159
-130,570	-113,625	0,038	-0,005
-129,556	800,000	0,029	-0,070
-128,541	-200,000	0,001	-0,089
-127,526	57,880	0,089	-0,063
-126,512	800,000	0,031	-0,083
-125,497	389,260	-0,009	0,013
-124,483	0,072	0,142	-0,073
-123,468	-200,000	0,020	-0,107
-122,453	800,000	-0,028	0,075
-121,439	-40,015	-0,097	0,037
-120,424	-200,000	-0,054	0,183
-119,410	800,000	0,024	0,059
