DTS Sentinel unit serial number:	SN410029Multiplexer serial number:	ORYXHardware model number:	OX2-SRSoftware version number:	ORYX F/W v4,00 Oryx Data Collector v3.7.2.0data status	okinstallation	B4 Nyhavnadifferential loss correction	single-endedforward channel	channel 2reverse channel	N/Adate	2023/12/18time	21:25:13forward acquisition time	300,00reverse acquisition time	0,00gamma	499,1914k internal	0,3124k external	0,3124temperature offset calibration	1,0000default loss term (dB/km)	0,3820temperature slope calibration	1,0000multiplexer offset coefficient	1,0000multiplexer slope coefficient	1,0000fibre end	0,00T internal ref (°C)	21,84T ext. ref 1 (°C)	7,12T ext. ref 2 (°C)	7,09length (m)	temperature (°C)	Stokes	anti-Stokes-744,400	260,113	-0,126	-0,163
-743,385	292,049	-0,118	0,160
-742,371	-123,627	0,116	0,013
-741,356	72,426	-0,130	0,101
-740,342	518,496	0,075	-0,131
-739,327	75,301	-0,198	0,156
-738,312	76,128	-0,100	-0,079
-737,298	-5,352	-0,223	0,114
-736,283	223,161	0,050	-0,060
-735,269	-15,766	-0,199	-0,094
-734,254	-43,315	0,110	-0,041
-733,239	-95,775	-0,384	0,076
-732,225	-67,173	0,152	-0,044
-731,210	631,558	0,020	-0,038
-730,196	-145,638	0,109	-0,007
-729,181	434,225	0,065	-0,105
-728,167	800,000	0,028	0,076
-727,152	-200,000	0,000	-0,010
-726,137	-200,000	0,005	0,026
-725,123	800,000	-0,009	0,021
-724,108	-179,687	-0,049	-0,001
-723,094	229,839	-0,028	0,035
-722,079	-84,449	-0,124	0,029
-721,064	-200,000	0,005	0,087
-720,050	-200,000	0,010	-0,060
-719,035	-85,832	-0,051	-0,012
-718,021	-83,840	-0,086	-0,020
-717,006	-68,302	-0,147	-0,042
-715,991	-73,058	-0,170	0,046
-714,977	800,000	0,046	-0,137
-713,962	800,000	0,024	-0,064
-712,948	341,099	-0,089	-0,130
-711,933	-154,872	-0,183	0,009
-710,918	391,186	-0,085	0,132
-709,904	-113,207	0,037	-0,005
-708,889	-200,000	-0,018	-0,119
-707,875	800,000	0,034	-0,092
-706,860	-200,000	0,005	-0,065
-705,845	-100,550	-0,059	-0,011
-704,831	-200,000	-0,004	0,020
-703,816	-111,939	0,040	0,006
-702,802	-108,482	-0,062	-0,010
-701,787	-200,000	0,004	0,043
-700,772	-200,000	0,011	0,108
-699,758	-45,941	0,030	0,011
-698,743	-61,280	0,030	-0,009
-697,729	125,285	-0,035	-0,033
-696,714	-97,259	-0,132	0,025
-695,699	558,901	0,028	-0,051
-694,685	-200,000	-0,030	-0,146
-693,670	238,458	-0,078	-0,097
-692,656	-200,000	-0,001	0,030
-691,641	51,652	-0,010	0,007
-690,627	288,087	0,062	-0,083
-689,612	800,000	-0,024	0,053
-688,597	-200,000	-0,007	0,115
-687,583	-164,494	0,117	0,004
-686,568	-7,665	-0,077	-0,039
-685,554	31,214	0,076	-0,048
-684,539	-43,765	0,097	-0,036
-683,524	-200,000	-0,035	-0,120
-682,510	41,940	0,104	-0,070
-681,495	615,193	0,045	0,084
-680,481	-200,000	0,011	-0,067
-679,466	-73,600	0,040	0,011
-678,451	87,290	-0,086	-0,071
-677,437	64,292	-0,004	0,003
-676,422	534,020	0,039	-0,068
-675,408	464,085	0,109	0,182
-674,393	800,000	0,018	-0,044
-673,378	338,831	-0,086	-0,124
-672,364	-43,000	-0,128	-0,048
-671,349	-200,000	0,016	0,055
-670,335	-31,258	-0,169	0,070
-669,320	-83,008	0,054	0,013
-668,305	-200,000	0,010	-0,046
-667,291	136,162	0,030	-0,029
-666,276	71,190	-0,071	-0,054
-665,262	199,095	0,047	0,054
-664,247	-200,000	-0,009	0,065
-663,232	2,439	0,123	0,066
-662,218	800,000	0,014	0,045
-661,203	-53,578	0,137	-0,046
-660,189	-103,547	-0,041	-0,007
-659,174	-200,000	0,014	-0,091
-658,159	173,671	-0,030	-0,032
-657,145	-200,000	0,006	0,027
-656,130	-76,198	-0,167	-0,043
-655,116	800,000	0,051	-0,113
-654,101	-93,662	-0,080	0,016
-653,086	232,657	0,040	0,049
-652,072	800,000	0,008	-0,020
-651,057	67,426	-0,188	-0,142
-650,043	-95,589	-0,105	-0,021
-649,028	14,189	0,027	0,015
-648,014	37,109	-0,034	0,022
-646,999	800,000	0,043	-0,090
-645,984	-200,000	0,016	-0,139
-644,970	398,869	0,074	-0,115
-643,955	-200,000	0,004	0,014
-642,941	-113,210	0,045	-0,006
-641,926	223,811	0,088	-0,106
-640,911	439,396	-0,013	-0,021
-639,897	-71,175	0,140	0,039
-638,882	-200,000	0,010	0,196
-637,868	800,000	-0,015	-0,033
-636,853	329,331	-0,055	-0,078
-635,838	-200,000	-0,042	-0,160
-634,824	207,807	0,063	0,073
-633,809	136,862	-0,198	0,192
-632,795	-165,613	-0,069	-0,002
-631,780	-146,576	-0,116	0,007
-630,765	-33,081	-0,045	-0,018
-629,751	-30,731	-0,081	0,034
-628,736	-200,000	-0,015	-0,098
-627,722	16,603	-0,111	0,065
-626,707	134,416	0,094	0,091
-625,692	-200,000	0,009	0,095
-624,678	800,000	-0,015	0,034
-623,663	168,918	0,014	-0,015
-622,649	3,319	-0,105	0,056
-621,634	456,325	-0,102	-0,168
-620,619	-200,000	-0,007	-0,179
-619,605	-70,308	-0,047	-0,013
-618,590	165,811	0,050	-0,053
-617,576	-116,732	0,120	0,016
-616,561	-129,159	-0,180	0,018
-615,546	-200,000	0,004	0,014
-614,532	800,000	-0,033	-0,082
-613,517	434,678	0,037	0,060
-612,503	-51,158	-0,080	-0,028
-611,488	221,895	-0,035	-0,041
-610,474	800,000	-0,019	-0,044
-609,459	-34,721	0,062	0,025
-608,444	236,106	-0,027	0,033
-607,430	80,201	0,050	0,040
-606,415	-200,000	0,017	-0,070
-605,401	488,551	-0,030	-0,051
-604,386	-200,000	-0,004	0,052
-603,371	-59,865	0,126	0,040
-602,357	18,128	-0,055	0,032
-601,342	-6,525	-0,138	-0,070
-600,328	800,000	0,017	-0,046
-599,313	298,179	0,025	0,035
-598,298	-200,000	0,001	0,065
-597,284	800,000	0,009	0,025
-596,269	191,998	-0,116	0,130
-595,255	-101,235	0,027	0,005
-594,240	-71,641	-0,049	0,014
-593,225	-200,000	-0,021	0,074
-592,211	800,000	-0,064	0,149
-591,196	4,512	-0,040	-0,022
-590,182	-200,000	-0,005	-0,033
-589,167	-200,000	0,008	0,040
-588,152	-79,528	-0,074	0,018
-587,138	350,295	-0,044	0,065
-586,123	115,663	0,073	0,066
-585,109	776,779	-0,061	-0,125
-584,094	800,000	0,036	0,112
-583,079	800,000	0,060	0,178
-582,065	800,000	0,075	0,186
-581,050	-99,561	0,146	-0,027
-580,036	-200,000	0,002	-0,061
-579,021	800,000	-0,048	-0,123
-578,006	-120,465	-0,022	0,003
-576,992	257,898	-0,073	0,093
-575,977	-200,000	0,004	0,044
-574,963	-10,165	0,088	-0,043
-573,948	-93,673	-0,078	-0,016
-572,934	-91,664	-0,061	-0,013
-571,919	-200,000	-0,020	-0,100
-570,904	14,850	-0,086	0,050
-569,890	800,000	-0,025	-0,079
-568,875	160,756	-0,017	0,018
-567,861	595,360	0,030	0,055
-566,846	79,142	-0,065	0,051
-565,831	325,088	-0,054	-0,076
-564,817	-200,000	-0,015	-0,080
-563,802	173,685	-0,134	-0,143
-562,788	-53,626	-0,045	0,015
-561,773	-124,581	-0,109	-0,012
-560,758	745,680	0,012	-0,025
-559,744	-200,000	0,014	-0,056
-558,729	800,000	0,029	-0,088
-557,715	125,243	-0,068	0,064
-556,700	-83,607	-0,083	0,019
-555,685	-120,804	0,128	-0,016
-554,671	13,401	0,087	-0,050
-553,656	394,943	0,110	-0,170
-552,642	612,528	-0,074	0,138
-551,627	-200,000	0,004	0,154
-550,612	791,350	0,033	-0,067
-549,598	477,396	0,043	-0,071
-548,583	-87,979	-0,130	-0,029
-547,569	104,908	0,146	-0,128
-546,554	-200,000	-0,012	0,099
-545,539	-147,756	-0,134	0,008
-544,525	-200,000	-0,007	-0,058
-543,510	-154,213	0,039	0,002
-542,496	-78,894	-0,125	0,031
-541,481	-20,631	-0,102	0,046
-540,466	-200,000	0,017	0,061
-539,452	430,003	-0,055	-0,088
-538,437	-127,496	-0,062	-0,007
-537,423	800,000	0,043	0,094
-536,408	-41,512	-0,096	-0,036
-535,393	273,253	0,076	-0,100
-534,379	800,000	0,015	-0,044
-533,364	139,605	0,016	0,015
-532,350	243,560	-0,049	-0,061
-531,335	251,417	0,060	0,075
-530,321	176,053	0,090	0,097
-529,306	-24,400	-0,037	0,016
-528,291	-20,013	-0,095	-0,043
-527,277	691,805	-0,023	-0,044
-526,262	-200,000	0,003	-0,128
-525,248	751,946	-0,055	-0,110
-524,233	100,088	0,079	0,068
-523,218	-28,443	0,066	0,028
-522,204	194,074	-0,083	-0,094
-521,189	800,000	0,012	0,026
-520,175	-174,794	-0,058	-0,001
-519,160	340,516	0,091	-0,131
-518,145	-200,000	-0,004	0,057
-517,131	-160,162	0,008	-0,000
-516,116	116,391	-0,020	0,018
-515,102	-40,838	-0,133	-0,051
-514,087	63,868	0,068	-0,050
-513,072	-200,000	0,000	-0,114
-512,058	6,291	0,028	0,015
-511,043	-200,000	0,009	-0,060
-510,029	86,633	-0,014	-0,011
-509,014	242,176	0,039	-0,049
-507,999	197,732	-0,011	-0,013
-506,985	-53,827	-0,108	0,036
-505,970	465,879	0,036	0,060
-504,956	-44,678	0,065	0,024
-503,941	-16,163	-0,111	0,052
-502,926	-90,009	0,156	-0,033
-501,912	-200,000	0,004	0,089
-500,897	370,790	0,032	0,048
-499,883	38,345	-0,039	0,025
-498,868	2,887	-0,048	0,026
-497,853	800,000	0,056	-0,121
-496,839	-200,000	0,023	-0,083
-495,824	800,000	0,053	-0,121
-494,810	-200,000	0,023	-0,118
-493,795	-70,459	0,086	0,024
-492,781	-200,000	0,009	0,093
-491,766	27,265	-0,061	0,038
-490,751	-200,000	-0,007	0,031
-489,737	697,959	-0,034	0,066
-488,722	245,349	0,067	-0,084
-487,708	-200,000	-0,001	-0,043
-486,693	800,000	0,026	-0,072
-485,678	306,334	-0,070	0,096
-484,664	-82,337	-0,129	-0,031
-483,649	-200,000	-0,004	0,052
-482,635	112,377	0,129	-0,115
-481,620	614,023	0,030	0,055
-480,605	43,341	-0,048	0,032
-479,591	800,000	0,027	0,057
-478,576	-200,000	0,014	-0,067
-477,562	-200,000	0,008	0,147
-476,547	-200,000	0,008	0,043
-475,532	176,543	-0,055	0,059
-474,518	-39,763	-0,011	-0,004
-473,503	239,781	-0,023	-0,028
-472,489	55,273	0,107	0,076
-471,474	194,047	-0,060	-0,068
-470,459	800,000	0,009	-0,025
-469,445	-48,079	-0,069	-0,024
-468,430	-164,765	-0,070	-0,002
-467,416	-200,000	-0,002	0,244
-466,401	607,833	-0,055	0,101
-465,386	-200,000	0,050	0,172
-464,372	233,603	-0,036	0,044
-463,357	800,000	-0,013	0,030
-462,343	-200,000	-0,022	-0,078
-461,328	-56,779	0,062	0,020
-460,313	800,000	0,024	-0,078
-459,299	97,104	0,056	-0,047
-458,284	433,832	-0,039	0,062
-457,270	251,432	0,053	0,066
-456,255	-53,252	-0,129	-0,043
-455,241	-200,000	0,026	0,118
-454,226	-200,000	0,052	0,213
-453,211	800,000	-0,015	-0,042
-452,197	-200,000	0,008	-0,068
-451,182	-13,336	-0,067	0,032
-450,168	-200,000	0,004	0,137
-449,153	-10,528	-0,173	0,084
-448,138	800,000	0,019	-0,049
-447,124	654,123	-0,038	-0,071
-446,109	-200,000	-0,030	-0,105
-445,095	-200,000	0,014	0,062
-444,080	277,963	0,121	0,159
-443,065	664,059	0,021	0,040
-442,051	800,000	-0,041	-0,093
-441,036	10,620	0,099	-0,056
-440,022	-97,395	0,121	-0,023
-439,007	-200,000	-0,016	0,140
-437,992	-28,961	0,089	0,037
-436,978	789,279	0,065	0,131
-435,963	-200,000	0,008	0,105
-434,949	70,548	-0,106	0,081
-433,934	800,000	-0,040	-0,090
-432,919	-164,468	-0,135	0,004
-431,905	-200,000	0,001	0,020
-430,890	-74,683	-0,057	-0,015
-429,876	-200,000	0,017	0,111
-428,861	102,797	0,103	-0,089
-427,846	332,122	0,078	0,111
-426,832	-141,463	0,090	0,007
-425,817	31,802	-0,113	0,072
-424,803	-200,000	0,004	0,054
-423,788	-200,000	-0,004	0,040
-422,773	-200,000	0,012	0,052
-421,759	800,000	-0,032	0,089
-420,744	-8,476	-0,104	-0,051
-419,730	-200,000	0,003	-0,023
-418,715	-200,000	-0,004	-0,036
-417,701	-200,000	-0,001	0,073
-416,686	663,030	-0,046	-0,088
-415,671	-64,566	0,059	0,017
-414,657	-173,513	0,104	-0,002
-413,642	-200,000	0,009	0,174
-412,628	119,731	0,108	-0,099
-411,613	72,154	0,081	0,062
-410,598	-87,930	0,096	0,021
-409,584	478,249	-0,024	0,039
-408,569	663,079	0,057	-0,109
-407,555	-51,935	-0,034	0,012
-406,540	-200,000	0,000	-0,210
-405,525	-200,000	0,017	-0,174
-404,511	-54,062	0,135	-0,045
-403,496	-92,726	-0,006	0,001
-402,482	800,000	-0,033	0,083
-401,467	-200,000	0,017	0,134
-400,452	48,545	0,174	0,120
-399,438	-200,000	-0,014	-0,123
-398,423	-79,212	-0,053	-0,013
-397,409	262,435	0,056	-0,072
-396,394	-123,669	-0,071	-0,008
-395,379	298,361	0,041	0,056
-394,365	-150,948	0,012	0,001
-393,350	87,032	0,020	0,016
-392,336	312,016	-0,012	-0,017
-391,321	18,937	-0,044	-0,026
-390,306	-200,000	0,032	0,109
-389,292	-21,159	-0,043	-0,019
-388,277	191,762	0,030	-0,034
-387,263	94,808	0,025	-0,021
-386,248	-200,000	-0,001	0,132
-385,233	43,602	0,131	-0,088
-384,219	-200,000	0,001	0,110
-383,204	199,366	0,027	0,031
-382,190	-92,955	-0,058	0,012
-381,175	800,000	-0,008	-0,017
-380,160	256,634	0,091	0,115
-379,146	800,000	-0,030	0,081
-378,131	687,370	-0,011	-0,022
-377,117	633,608	-0,081	-0,152
-376,102	580,448	-0,011	-0,021
-375,088	-21,883	-0,026	0,012
-374,073	45,290	-0,026	0,018
-373,058	101,467	0,116	0,099
-372,044	108,373	-0,068	0,059
-371,029	-200,000	-0,009	-0,043
-370,015	-125,972	-0,117	-0,013
-369,000	-145,569	0,090	-0,006
-367,985	-62,900	0,052	0,016
-366,971	180,866	-0,035	0,037
-365,956	-200,000	-0,029	-0,201
-364,942	-19,578	0,151	0,068
-363,927	-156,876	-0,025	0,001
-362,912	-200,000	0,005	0,035
-361,898	800,000	-0,022	0,061
-360,883	-200,000	-0,011	0,168
-359,869	800,000	0,059	-0,120
-358,854	-200,000	0,015	0,223
-357,839	-126,528	0,110	0,012
-356,825	161,904	-0,062	0,064
-355,810	414,338	-0,038	-0,060
-354,796	645,462	-0,078	0,146
-353,781	800,000	0,022	-0,063
-352,766	-200,000	-0,013	-0,193
-351,752	325,393	-0,027	-0,038
-350,737	97,878	-0,053	-0,044
-349,723	71,087	-0,008	-0,006
-348,708	-18,940	-0,080	-0,036
-347,693	169,799	-0,073	0,076
-346,679	358,593	-0,053	0,078
-345,664	800,000	0,039	-0,085
-344,650	63,546	0,085	-0,063
-343,635	-169,877	0,160	0,004
-342,620	189,079	0,064	0,070
-341,606	-196,710	0,250	-0,001
-340,591	412,160	0,019	0,030
-339,577	-76,344	-0,054	0,014
-338,562	-200,000	0,010	-0,106
-337,548	800,000	-0,054	0,130
-336,533	401,359	0,083	-0,128
-335,518	-63,680	-0,027	0,008
-334,504	-174,177	0,077	0,002
-333,489	198,095	-0,041	0,046
-332,475	2,106	-0,104	-0,055
-331,460	800,000	-0,037	0,088
-330,445	127,436	0,040	0,038
-329,431	-200,000	-0,009	-0,218
-328,416	507,137	0,072	-0,123
-327,402	8,047	0,125	0,069
-326,387	380,169	0,130	0,196
-325,372	-132,589	0,074	-0,007
-324,358	-200,000	0,016	0,084
-323,343	-27,563	0,113	0,048
-322,329	-103,022	0,105	-0,018
-321,314	642,784	0,040	0,075
-320,299	-200,000	0,052	0,173
-319,285	66,626	-0,073	-0,054
-318,270	-200,000	0,005	0,051
-317,256	733,045	0,058	-0,114
-316,241	-200,000	-0,010	-0,161
-315,226	-200,000	0,005	-0,207
-314,212	-200,000	0,031	0,124
-313,197	-200,000	0,005	0,046
-312,183	-166,744	-0,080	-0,002
-311,168	-80,883	-0,015	-0,004
-310,153	-200,000	-0,015	-0,083
-309,139	800,000	0,028	-0,090
-308,124	107,681	0,057	-0,050
-307,110	-123,895	0,095	-0,011
-306,095	-24,572	0,021	-0,009
-305,080	-171,400	-0,054	0,001
-304,066	594,384	-0,048	0,087
-303,051	-200,000	-0,012	0,065
-302,037	162,556	0,066	-0,068
-301,022	-200,000	0,024	0,129
-300,008	203,874	0,085	-0,097
-298,993	110,055	0,030	-0,026
-297,978	395,199	-0,058	0,089
-296,964	739,207	-0,048	0,095
-295,949	-200,000	-0,008	-0,063
-294,935	-200,000	0,008	0,053
-293,920	-68,559	-0,048	-0,013
-292,905	78,249	0,097	0,076
-291,891	156,847	0,081	-0,082
-290,876	-67,997	-0,075	-0,021
-289,862	8,265	-0,039	-0,021
-288,847	-92,855	0,032	-0,007
-287,832	84,741	-0,089	-0,071
-286,818	800,000	-0,037	-0,092
-285,803	188,632	-0,030	-0,033
-284,789	102,528	0,127	0,109
-283,774	165,280	0,056	0,058
-282,759	98,535	-0,049	0,042
-281,745	125,684	-0,136	-0,126
-280,730	468,377	-0,015	-0,024
-279,716	3,717	0,126	0,067
-278,701	62,392	0,068	-0,049
-277,686	-75,017	0,018	-0,005
-276,672	-200,000	0,017	0,072
-275,657	138,302	0,083	-0,080
-274,643	800,000	0,035	-0,080
-273,628	-200,000	0,000	-0,137
-272,613	-89,478	-0,044	0,009
-271,599	-16,201	0,135	0,063
-270,584	620,990	-0,022	-0,041
-269,570	418,031	0,052	0,082
-268,555	-198,551	0,106	-0,000
-267,540	-49,332	-0,164	-0,057
-266,526	-151,986	-0,041	-0,002
-265,511	12,888	-0,055	-0,031
-264,497	-66,133	-0,122	0,035
-263,482	12,184	0,107	0,060
-262,467	28,957	0,105	0,065
-261,453	103,436	-0,016	-0,014
-260,438	219,355	-0,014	0,017
-259,424	317,992	-0,126	-0,175
-258,409	-200,000	0,044	-0,179
-257,395	375,480	-0,045	-0,067
-256,380	-113,024	0,016	-0,002
-255,365	449,977	-0,065	0,104
-254,351	-39,539	0,154	0,059
-253,336	104,480	-0,067	0,058
-252,322	-108,758	-0,058	-0,009
-251,307	25,428	-0,028	-0,017
-250,292	28,318	-0,019	0,012
-249,278	-200,000	0,021	0,084
-248,263	-87,248	0,083	-0,018
-247,249	74,774	0,056	0,043
-246,234	-93,935	0,048	0,010
-245,219	-89,150	-0,207	-0,044
-244,205	-64,279	-0,126	0,037
-243,190	-162,482	-0,134	-0,005
-242,176	800,000	0,034	-0,078
-241,161	180,055	0,020	0,021
-240,146	800,000	0,056	0,121
-239,132	50,981	-0,094	0,065
-238,117	-200,000	0,016	-0,097
-237,103	112,763	0,046	0,040
-236,088	82,525	-0,056	-0,044
-235,073	-55,472	-0,065	-0,021
-234,059	116,544	0,071	0,064
-233,044	800,000	-0,046	-0,124
-232,030	60,544	0,012	-0,009
-231,015	800,000	-0,056	-0,158
-230,000	427,410	-0,056	0,088
-228,986	77,298	0,117	0,090
-227,971	338,945	-0,072	-0,103
-226,957	-200,000	0,003	0,023
-225,942	-34,243	0,121	0,048
-224,927	800,000	-0,036	0,105
-223,913	-200,000	-0,009	-0,102
-222,898	38,891	-0,056	-0,037
-221,884	149,293	-0,025	0,025
-220,869	466,441	0,047	0,077
-219,855	360,693	0,045	0,066
-218,840	800,000	-0,025	-0,071
-217,825	123,272	-0,034	0,031
-216,811	800,000	-0,051	0,130
-215,796	40,812	-0,166	0,109
-214,782	800,000	0,041	0,111
-213,767	-200,000	0,004	-0,083
-212,752	-153,752	0,145	-0,007
-211,738	678,365	-0,057	-0,109
-210,723	75,217	0,028	0,021
-209,709	143,554	-0,078	-0,076
-208,694	-127,440	0,062	0,006
-207,679	-200,000	-0,006	-0,162
-206,665	45,603	0,036	0,024
-205,650	-88,696	-0,017	-0,004
-204,636	228,373	-0,046	0,054
-203,621	-41,960	0,053	0,020
-202,606	-200,000	0,001	0,149
-201,592	47,573	-0,120	-0,082
-200,577	-176,778	-0,101	0,002
-199,563	720,789	-0,041	-0,081
-198,548	800,000	-0,039	0,105
-197,533	-142,709	0,043	0,003
-196,519	-1,328	-0,046	0,024
-195,504	-200,000	-0,018	0,120
-194,490	-77,167	-0,013	-0,003
-193,475	-115,444	-0,018	-0,002
-192,460	-200,000	0,019	-0,079
-191,446	315,964	0,077	0,106
-190,431	142,570	0,020	-0,019
-189,417	-29,486	-0,046	0,019
-188,402	800,000	0,025	-0,066
-187,387	-81,430	-0,108	-0,026
-186,373	104,305	-0,155	-0,133
-185,358	-200,000	0,037	-0,120
-184,344	0,479	0,095	0,049
-183,329	-104,953	-0,080	0,013
-182,315	-138,757	0,066	0,005
-181,300	800,000	0,015	0,047
-180,285	675,201	-0,092	-0,174
-179,271	800,000	0,061	-0,166
-178,256	623,458	-0,018	-0,033
-177,242	-200,000	-0,054	-0,240
-176,227	-200,000	-0,002	0,063
-175,212	800,000	-0,022	0,054
-174,198	-8,942	0,167	0,081
-173,183	-200,000	-0,001	0,035
-172,169	-200,000	0,017	-0,197
-171,154	107,836	0,077	-0,067
-170,139	94,941	0,020	-0,017
-169,125	-104,504	0,045	-0,007
-168,110	-173,441	0,105	0,002
-167,096	-145,862	0,063	-0,004
-166,081	382,514	-0,070	-0,105
-165,066	-200,000	-0,004	-0,086
-164,052	336,349	-0,051	-0,073
-163,037	191,078	-0,005	0,005
-162,023	800,000	0,030	0,097
-161,008	800,000	0,014	-0,037
-159,993	214,761	-0,043	0,049
-158,979	504,654	0,096	-0,163
-157,964	-200,000	-0,028	-0,100
-156,950	-200,000	0,030	-0,099
-155,935	75,977	-0,063	0,048
-154,920	-110,936	0,044	-0,006
-153,906	-200,000	0,011	0,041
-152,891	-170,890	0,045	0,001
-151,877	307,445	-0,031	-0,043
-150,862	800,000	0,035	-0,091
-149,847	-85,713	0,084	-0,019
-148,833	-66,715	-0,052	0,015
-147,818	800,000	-0,044	0,106
-146,804	-200,000	0,003	0,087
-145,789	-172,850	-0,063	0,001
-144,775	-200,000	-0,023	-0,113
-143,760	-200,000	-0,035	-0,200
-142,745	-200,000	0,006	-0,091
-141,731	-200,000	-0,020	0,078
-140,716	56,437	0,221	0,156
-139,702	-172,227	0,109	-0,002
-138,687	-49,622	-0,047	0,016
-137,672	-200,000	-0,014	-0,055
-136,658	-200,000	0,002	-0,048
-135,643	495,275	-0,021	-0,035
-134,629	-46,524	0,151	0,053
-133,614	154,880	0,048	-0,048
-132,599	-103,218	-0,054	-0,009
-131,585	731,308	0,003	0,007
-130,570	247,984	0,114	-0,140
-129,556	-95,634	0,090	-0,017
-128,541	-100,498	0,078	0,014
-127,526	-200,000	0,004	0,015
-126,512	0,712	0,141	-0,073
-125,497	651,151	-0,054	0,102
-124,483	89,109	0,020	0,016
-123,468	-70,115	-0,077	-0,021
-122,453	-17,998	-0,036	-0,016
-121,439	-200,000	0,014	0,113
-120,424	284,489	0,058	-0,077
-119,410	-200,000	-0,002	0,028
