DTS Sentinel unit serial number:	SN410029Multiplexer serial number:	ORYXHardware model number:	OX2-SRSoftware version number:	ORYX F/W v4,00 Oryx Data Collector v3.7.2.0data status	okinstallation	B4 Nyhavnadifferential loss correction	single-endedforward channel	channel 2reverse channel	N/Adate	2023/12/15time	19:45:13forward acquisition time	300,00reverse acquisition time	0,00gamma	499,1914k internal	0,3137k external	0,3137temperature offset calibration	1,0000default loss term (dB/km)	0,3820temperature slope calibration	1,0000multiplexer offset coefficient	1,0000multiplexer slope coefficient	1,0000fibre end	0,00T internal ref (°C)	20,09T ext. ref 1 (°C)	5,68T ext. ref 2 (°C)	5,79length (m)	temperature (°C)	Stokes	anti-Stokes-744,400	41,872	-0,022	0,015
-743,385	-90,648	-0,236	0,050
-742,371	-140,528	0,107	0,008
-741,356	49,980	-0,135	0,094
-740,342	518,472	-0,055	0,096
-739,327	-45,452	-0,151	-0,055
-738,312	800,000	-0,038	-0,091
-737,298	-76,241	-0,224	0,058
-736,283	-61,617	-0,041	0,013
-735,269	79,648	-0,207	0,164
-734,254	-41,406	0,074	-0,028
-733,239	-72,153	-0,374	-0,102
-732,225	-174,248	0,143	0,003
-731,210	-118,224	-0,128	0,017
-730,196	800,000	-0,089	-0,203
-729,181	-39,123	0,035	-0,014
-728,167	-98,724	-0,115	0,022
-727,152	204,391	-0,081	0,093
-726,137	-57,356	-0,075	0,024
-725,123	-200,000	-0,004	0,043
-724,108	9,509	-0,138	-0,077
-723,094	-104,122	-0,176	-0,030
-722,079	158,734	-0,080	-0,083
-721,064	107,291	-0,070	0,062
-720,050	800,000	0,017	0,043
-719,035	-200,000	0,005	-0,054
-718,021	-77,337	-0,173	-0,044
-717,006	265,985	-0,116	-0,150
-715,991	-200,000	0,038	-0,145
-714,977	800,000	0,002	0,005
-713,962	800,000	-0,031	-0,075
-712,948	800,000	-0,023	0,053
-711,933	63,068	0,110	0,082
-710,918	103,925	0,003	0,002
-709,904	112,668	-0,133	0,119
-708,889	-101,901	-0,034	0,006
-707,875	240,858	-0,082	-0,101
-706,860	800,000	-0,029	0,061
-705,845	-200,000	0,008	0,031
-704,831	71,798	-0,022	0,017
-703,816	-153,499	-0,077	-0,004
-702,802	128,418	-0,059	-0,055
-701,787	-200,000	0,018	0,094
-700,772	-200,000	-0,003	0,079
-699,758	39,868	0,065	-0,043
-698,743	-200,000	0,049	0,181
-697,729	-91,668	0,079	-0,016
-696,714	419,991	0,051	-0,081
-695,699	-32,663	-0,095	-0,039
-694,685	492,592	0,007	0,012
-693,670	-41,124	-0,089	-0,034
-692,656	-61,451	-0,015	-0,005
-691,641	152,274	-0,082	-0,083
-690,627	12,207	-0,026	-0,015
-689,612	-4,020	-0,142	0,073
-688,597	180,636	-0,075	-0,082
-687,583	-91,200	-0,089	-0,019
-686,568	566,988	-0,041	-0,074
-685,554	800,000	-0,021	0,069
-684,539	499,884	-0,018	0,031
-683,524	-103,531	0,093	0,016
-682,510	-188,200	0,096	-0,001
-681,495	-75,524	0,045	0,012
-680,481	800,000	0,024	-0,073
-679,466	174,446	-0,045	0,048
-678,451	257,573	-0,038	0,048
-677,437	72,139	-0,064	0,049
-676,422	-29,885	-0,137	0,057
-675,408	-91,061	0,097	0,021
-674,393	-91,366	-0,108	0,023
-673,378	-144,302	-0,037	0,002
-672,364	800,000	0,031	-0,093
-671,349	173,309	0,066	-0,070
-670,335	391,638	-0,066	0,102
-669,320	496,466	-0,038	0,064
-668,305	-29,919	0,040	-0,017
-667,291	-91,138	-0,143	-0,030
-666,276	-80,268	-0,121	-0,030
-665,262	-134,014	-0,118	0,011
-664,247	224,610	0,060	0,072
-663,232	-200,000	0,026	0,093
-662,218	-200,000	-0,025	0,113
-661,203	-200,000	-0,018	0,145
-660,189	-30,461	-0,085	0,035
-659,174	-200,000	-0,019	-0,104
-658,159	48,069	-0,084	0,058
-657,145	-9,078	-0,049	-0,024
-656,130	130,934	-0,027	-0,026
-655,116	-200,000	0,000	0,212
-654,101	800,000	0,041	0,118
-653,086	133,986	0,092	0,088
-652,072	-185,327	-0,125	0,001
-651,057	-200,000	0,003	0,039
-650,043	-200,000	0,012	0,051
-649,028	554,295	-0,066	-0,118
-648,014	-200,000	0,025	0,115
-646,999	-121,652	-0,113	0,014
-645,984	524,723	-0,058	-0,102
-644,970	800,000	-0,003	0,008
-643,955	-200,000	-0,023	-0,093
-642,941	800,000	0,035	-0,078
-641,926	-200,000	-0,007	0,056
-640,911	71,516	-0,058	0,044
-639,897	-151,797	0,170	0,009
-638,882	-200,000	-0,039	0,151
-637,868	12,199	0,055	-0,031
-636,853	713,000	0,001	-0,001
-635,838	57,839	-0,049	0,036
-634,824	-200,000	0,008	-0,047
-633,809	800,000	-0,088	-0,184
-632,795	800,000	-0,024	-0,062
-631,780	261,892	-0,033	0,042
-630,765	800,000	0,042	-0,111
-629,751	13,725	0,079	-0,045
-628,736	126,355	-0,175	-0,163
-627,722	-200,000	-0,011	-0,146
-626,707	800,000	-0,018	-0,055
-625,692	101,997	-0,030	-0,026
-624,678	76,464	-0,025	0,020
-623,663	129,557	-0,060	0,056
-622,649	78,792	-0,036	-0,028
-621,634	-200,000	-0,003	-0,035
-620,619	-94,817	-0,072	-0,014
-619,605	42,314	0,033	-0,022
-618,590	1,036	-0,065	0,034
-617,576	194,674	0,097	0,109
-616,561	550,159	-0,026	-0,046
-615,546	-200,000	-0,025	0,160
-614,532	-200,000	-0,004	0,022
-613,517	57,651	0,047	0,034
-612,503	368,537	0,078	-0,116
-611,488	-125,538	0,025	-0,003
-610,474	-130,629	0,108	-0,011
-609,459	253,648	-0,059	0,074
-608,444	-92,179	0,050	0,010
-607,430	-2,978	-0,109	-0,056
-606,415	-122,519	-0,086	-0,010
-605,401	-200,000	0,000	-0,062
-604,386	268,010	-0,077	0,099
-603,371	-200,000	0,001	0,115
-602,357	-200,000	-0,006	0,055
-601,342	-15,604	0,073	-0,034
-600,328	-6,760	0,123	-0,061
-599,313	5,845	-0,062	-0,033
-598,298	-24,457	0,032	0,014
-597,284	-58,268	0,124	0,040
-596,269	-46,145	0,054	0,020
-595,255	800,000	-0,009	0,027
-594,240	800,000	-0,030	0,081
-593,225	52,657	0,083	-0,059
-592,211	-96,052	-0,124	-0,024
-591,196	513,297	0,049	-0,085
-590,182	-122,429	-0,066	-0,008
-589,167	4,764	-0,036	0,019
-588,152	-167,387	0,071	-0,002
-587,138	-200,000	-0,001	-0,068
-586,123	-200,000	0,033	-0,142
-585,109	-84,381	-0,028	-0,006
-584,094	670,288	-0,063	-0,121
-583,079	49,522	0,050	0,035
-582,065	-200,000	0,077	0,000
-581,050	-200,000	0,020	0,136
-580,036	142,122	-0,052	0,051
-579,021	-200,000	-0,003	-0,110
-578,006	-94,745	0,036	0,007
-576,992	800,000	-0,054	-0,126
-575,977	-200,000	0,035	0,117
-574,963	-200,000	-0,009	-0,106
-573,948	125,540	0,024	0,023
-572,934	-148,179	-0,183	0,011
-571,919	108,852	-0,116	0,102
-570,904	634,002	-0,045	0,084
-569,890	368,086	-0,046	-0,068
-568,875	195,271	0,109	0,123
-567,861	431,098	-0,037	0,059
-566,846	-95,487	-0,057	0,011
-565,831	-101,049	-0,164	-0,029
-564,817	-27,046	0,105	0,045
-563,802	800,000	-0,053	-0,138
-562,788	615,828	-0,028	-0,052
-561,773	69,839	-0,009	-0,007
-560,758	-51,006	-0,030	0,010
-559,744	800,000	0,028	0,075
-558,729	-151,313	-0,060	0,003
-557,715	406,717	-0,052	-0,082
-556,700	-57,091	0,084	-0,027
-555,685	-89,401	0,053	-0,011
-554,671	126,379	-0,110	0,103
-553,656	-200,000	0,020	0,102
-552,642	-24,611	-0,123	0,054
-551,627	-18,507	0,183	0,084
-550,612	-99,427	0,018	-0,003
-549,598	-66,998	-0,118	0,034
-548,583	-174,073	-0,081	0,002
-547,569	-156,772	0,124	-0,006
-546,554	621,796	-0,006	0,011
-545,539	-84,656	0,041	-0,010
-544,525	-62,468	0,156	-0,047
-543,510	565,312	-0,013	0,023
-542,496	85,980	0,094	-0,076
-541,481	-200,000	0,003	-0,123
-540,466	800,000	-0,011	-0,036
-539,452	197,476	0,068	-0,076
-538,437	103,972	-0,124	-0,107
-537,423	172,179	0,106	-0,112
-536,408	446,256	-0,042	-0,069
-535,393	26,508	-0,104	-0,064
-534,379	-84,896	-0,086	-0,020
-533,364	-37,830	-0,139	-0,054
-532,350	761,111	0,055	-0,110
-531,335	-78,831	-0,091	0,023
-530,321	-200,000	-0,020	0,119
-529,306	-135,242	-0,117	-0,010
-528,291	-33,973	-0,076	0,031
-527,277	418,004	-0,022	-0,035
-526,262	-200,000	-0,012	0,064
-525,248	316,472	0,018	0,025
-524,233	193,618	-0,086	0,095
-523,218	-60,440	0,132	0,041
-522,204	18,376	-0,093	-0,054
-521,189	-200,000	0,006	-0,037
-520,175	-200,000	-0,046	-0,178
-519,160	69,628	-0,114	0,086
-518,145	-200,000	0,019	0,176
-517,131	24,913	0,137	-0,083
-516,116	-63,784	-0,141	-0,042
-515,102	800,000	-0,019	0,045
-514,087	-184,557	0,020	-0,000
-513,072	800,000	-0,047	0,118
-512,058	800,000	0,021	0,062
-511,043	490,031	0,018	0,031
-510,029	-16,654	0,029	0,013
-509,014	-47,130	-0,021	0,007
-507,999	-200,000	-0,007	-0,083
-506,985	-99,716	-0,063	-0,012
-505,970	-200,000	-0,032	-0,112
-504,956	800,000	-0,022	-0,066
-503,941	-144,193	0,055	-0,004
-502,926	-163,646	0,098	0,003
-501,912	800,000	0,014	-0,032
-500,897	-200,000	-0,019	0,215
-499,883	-2,495	-0,135	0,069
-498,868	47,039	-0,053	-0,036
-497,853	-109,340	0,096	-0,015
-496,839	-111,471	-0,045	-0,007
-495,824	29,221	-0,086	0,053
-494,810	174,123	-0,065	-0,069
-493,795	800,000	-0,023	0,065
-492,781	70,712	0,084	-0,064
-491,766	-71,622	0,117	-0,032
-490,751	800,000	-0,035	0,100
-489,737	-70,957	0,057	0,016
-488,722	-200,000	-0,012	-0,097
-487,708	15,129	0,062	0,036
-486,693	-67,946	-0,068	0,019
-485,678	-74,601	-0,036	0,009
-484,664	355,510	-0,100	-0,147
-483,649	-200,000	-0,042	-0,157
-482,635	-200,000	0,001	-0,128
-481,620	179,544	0,020	-0,021
-480,605	106,364	0,089	0,077
-479,591	8,247	-0,028	-0,015
-478,576	246,287	0,047	-0,059
-477,562	-200,000	-0,021	-0,073
-476,547	-173,759	-0,091	-0,002
-475,532	-122,286	-0,132	-0,016
-474,518	-25,277	-0,151	0,065
-473,503	-20,056	0,121	0,055
-472,489	-26,798	0,083	-0,035
-471,474	74,005	0,084	-0,065
-470,459	381,188	0,038	-0,058
-469,445	-200,000	-0,021	-0,113
-468,430	800,000	0,042	-0,086
-467,416	-200,000	-0,030	0,109
-466,401	191,751	-0,061	0,067
-465,386	-57,889	0,064	-0,020
-464,372	-110,272	0,101	-0,015
-463,357	67,302	0,077	-0,058
-462,343	-200,000	-0,040	-0,159
-461,328	50,293	-0,122	0,084
-460,313	-27,073	-0,111	0,048
-459,299	330,786	0,060	0,086
-458,284	-4,161	0,210	0,106
-457,270	-200,000	0,014	0,117
-456,255	-103,136	-0,099	-0,017
-455,241	140,552	0,149	0,145
-454,226	-58,834	-0,160	0,050
-453,211	-37,613	0,051	-0,020
-452,197	800,000	0,035	0,071
-451,182	-131,819	-0,042	0,004
-450,168	800,000	-0,030	-0,083
-449,153	800,000	-0,009	-0,025
-448,138	800,000	-0,047	-0,104
-447,124	-163,005	0,143	-0,005
-446,109	-200,000	-0,020	-0,164
-445,095	183,504	-0,035	-0,038
-444,080	151,187	-0,026	-0,026
-443,065	800,000	-0,026	-0,069
-442,051	319,569	0,056	0,079
-441,036	-184,506	-0,026	0,000
-440,022	-20,536	-0,135	-0,061
-439,007	-200,000	0,019	-0,108
-437,992	-200,000	-0,001	-0,075
-436,978	177,538	0,049	0,053
-435,963	317,482	-0,042	0,058
-434,949	283,196	0,051	0,068
-433,934	103,041	-0,069	-0,059
-432,919	-200,000	0,008	-0,046
-431,905	118,881	-0,060	-0,054
-430,890	-119,084	0,011	0,001
-429,876	225,155	0,058	-0,068
-428,861	800,000	0,030	-0,065
-427,846	-200,000	-0,011	-0,081
-426,832	-31,984	0,082	0,033
-425,817	-97,154	-0,217	-0,041
-424,803	-149,222	0,023	-0,001
-423,788	164,371	0,094	0,097
-422,773	-200,000	-0,004	0,068
-421,759	85,539	-0,059	0,048
-420,744	3,765	-0,088	-0,047
-419,730	11,817	-0,114	0,064
-418,715	779,868	0,037	-0,075
-417,701	300,380	-0,073	0,099
-416,686	800,000	0,007	0,022
-415,671	-200,000	0,022	0,079
-414,657	-32,799	0,068	0,027
-413,642	-74,732	-0,051	0,013
-412,628	107,445	-0,047	-0,041
-411,613	800,000	-0,027	-0,083
-410,598	343,034	0,053	-0,076
-409,584	169,246	0,059	0,062
-408,569	685,443	-0,020	0,039
-407,555	-163,247	0,063	0,002
-406,540	-28,708	0,047	-0,020
-405,525	-200,000	0,003	0,113
-404,511	800,000	-0,021	0,061
-403,496	800,000	0,015	-0,031
-402,482	800,000	-0,044	0,132
-401,467	18,357	0,154	0,090
-400,452	800,000	-0,039	0,084
-399,438	-157,104	0,094	-0,004
-398,423	-200,000	-0,008	-0,115
-397,409	159,695	0,029	-0,030
-396,394	-56,602	0,107	0,035
-395,379	800,000	0,041	-0,086
-394,365	-200,000	-0,010	0,175
-393,350	-102,791	0,094	-0,016
-392,336	46,487	0,064	0,043
-391,321	0,137	0,057	0,030
-390,306	51,204	-0,020	0,014
-389,292	73,677	-0,097	0,074
-388,277	169,305	-0,033	0,035
-387,263	606,770	-0,044	-0,081
-386,248	-14,394	0,019	0,009
-385,233	800,000	-0,135	0,278
-384,219	-200,000	-0,005	0,033
-383,204	-18,058	-0,044	-0,020
-382,190	-11,950	-0,027	0,013
-381,175	800,000	0,063	0,132
-380,160	-28,805	0,119	0,050
-379,146	800,000	-0,030	0,077
-378,131	162,598	-0,028	0,029
-377,117	-200,000	-0,002	-0,131
-376,102	127,629	0,016	0,015
-375,088	375,902	-0,097	-0,146
-374,073	83,758	-0,112	-0,089
-373,058	257,862	0,087	0,110
-372,044	687,902	0,064	0,122
-371,029	-140,507	0,088	0,007
-370,015	184,504	0,070	-0,076
-369,000	199,457	0,089	-0,100
-367,985	-200,000	-0,005	-0,044
-366,971	-200,000	0,015	-0,117
-365,956	-200,000	0,012	-0,076
-364,942	-47,381	0,161	-0,057
-363,927	800,000	-0,091	0,205
-362,912	800,000	-0,034	-0,080
-361,898	-57,270	0,049	0,016
-360,883	454,456	-0,037	0,059
-359,869	-76,443	0,137	0,035
-358,854	800,000	-0,060	0,148
-357,839	41,635	-0,038	-0,025
-356,825	-165,697	0,115	0,004
-355,810	410,861	0,088	0,136
-354,796	-173,065	0,083	0,002
-353,781	800,000	-0,028	0,087
-352,766	569,285	0,096	-0,171
-351,752	58,807	-0,117	-0,084
-350,737	-23,198	0,051	0,022
-349,723	-200,000	0,009	0,031
-348,708	19,672	0,053	0,031
-347,693	101,092	0,007	0,006
-346,679	92,679	0,035	-0,029
-345,664	12,697	-0,013	0,007
-344,650	157,484	-0,006	-0,006
-343,635	686,668	-0,043	0,082
-342,620	-94,124	-0,058	-0,011
-341,606	-200,000	-0,004	-0,042
-340,591	-200,000	0,007	0,098
-339,577	800,000	-0,020	0,045
-338,562	742,938	0,009	-0,018
-337,548	800,000	0,022	-0,058
-336,533	-200,000	0,019	0,086
-335,518	210,671	0,048	-0,055
-334,504	800,000	-0,099	0,251
-333,489	-90,432	0,044	0,009
-332,475	403,745	-0,047	0,073
-331,460	-200,000	0,025	-0,142
-330,445	-11,722	0,021	0,010
-329,431	10,685	0,034	0,019
-328,416	-38,847	0,243	0,093
-327,402	-200,000	0,001	-0,072
-326,387	44,583	-0,013	0,009
-325,372	86,673	-0,029	-0,023
-324,358	528,682	-0,030	0,052
-323,343	189,504	-0,072	-0,078
-322,329	31,350	-0,035	-0,022
-321,314	-3,130	0,098	0,050
-320,299	800,000	0,030	-0,080
-319,285	-16,216	-0,020	-0,009
-318,270	467,231	0,058	-0,096
-317,256	716,712	-0,065	-0,126
-316,241	150,295	-0,030	0,029
-315,226	-38,248	-0,070	-0,027
-314,212	466,775	0,074	-0,122
-313,197	-200,000	0,010	-0,092
-312,183	-138,981	-0,008	-0,001
-311,168	-200,000	-0,014	-0,105
-310,153	-114,747	-0,019	-0,003
-309,139	102,030	-0,165	-0,140
-308,124	-184,821	-0,077	-0,001
-307,110	-200,000	-0,034	0,172
-306,095	25,271	0,116	0,070
-305,080	-200,000	0,027	0,092
-304,066	327,478	0,011	0,016
-303,051	136,364	0,069	-0,066
-302,037	-40,809	-0,093	0,035
-301,022	-85,691	-0,116	0,026
-300,008	165,456	0,056	-0,058
-298,993	-37,026	0,087	0,034
-297,978	-166,049	0,057	-0,002
-296,964	-200,000	-0,016	0,118
-295,949	125,565	-0,049	0,046
-294,935	44,661	-0,136	-0,091
-293,920	510,214	0,048	-0,081
-292,905	-200,000	-0,005	0,143
-291,891	800,000	-0,032	-0,086
-290,876	-200,000	0,021	0,091
-289,862	-39,748	-0,086	0,033
-288,847	129,612	0,045	-0,041
-287,832	-61,319	-0,057	-0,017
-286,818	800,000	-0,064	-0,155
-285,803	-127,210	-0,006	-0,001
-284,789	36,626	0,151	0,097
-283,774	800,000	0,058	0,121
-282,759	311,873	-0,052	0,071
-281,745	-200,000	0,034	0,150
-280,730	-200,000	-0,005	-0,025
-279,716	27,231	0,116	-0,071
-278,701	-131,040	-0,118	0,011
-277,686	-47,861	0,029	0,010
-276,672	144,777	0,018	0,018
-275,657	66,754	0,043	-0,032
-274,643	800,000	-0,036	0,075
-273,628	38,888	0,072	-0,047
-272,613	482,986	0,077	0,128
-271,599	99,063	-0,049	-0,041
-270,584	-200,000	-0,009	0,113
-269,570	800,000	-0,012	0,030
-268,555	249,327	0,031	0,038
-267,540	800,000	0,032	-0,102
-266,526	410,173	0,046	-0,071
-265,511	-39,281	-0,156	0,059
-264,497	-145,108	0,105	-0,007
-263,482	758,127	0,066	0,132
-262,467	290,018	0,063	0,084
-261,453	-200,000	0,005	0,270
-260,438	-200,000	-0,018	-0,063
-259,424	-200,000	-0,034	-0,124
-258,409	800,000	-0,010	0,028
-257,395	-27,545	0,215	-0,091
-256,380	800,000	0,054	-0,121
-255,365	65,541	0,059	0,043
-254,351	-97,176	0,093	0,018
-253,336	14,941	0,064	-0,037
-252,322	-104,415	-0,155	-0,026
-251,307	-106,335	-0,083	-0,013
-250,292	800,000	0,057	0,170
-249,278	241,272	0,090	-0,110
-248,263	800,000	0,014	0,040
-247,249	-200,000	0,004	0,110
-246,234	800,000	0,033	-0,069
-245,219	594,817	-0,018	0,032
-244,205	-163,100	0,084	0,003
-243,190	458,022	0,090	0,146
-242,176	-200,000	0,015	0,064
-241,161	-71,421	0,116	0,031
-240,146	-135,057	0,191	0,017
-239,132	-134,990	0,106	-0,009
-238,117	300,850	-0,060	-0,080
-237,103	299,185	0,044	-0,059
-236,088	262,475	-0,048	0,061
-235,073	548,553	-0,026	-0,046
-234,059	-200,000	-0,018	0,105
-233,044	-123,968	-0,006	-0,001
-232,030	696,966	-0,062	-0,120
-231,015	214,263	-0,039	-0,045
-230,000	446,451	-0,044	-0,070
-228,986	710,691	-0,069	0,134
-227,971	-138,655	0,073	0,006
-226,957	800,000	0,004	-0,009
-225,942	-0,253	0,112	-0,058
-224,927	-200,000	-0,005	-0,097
-223,913	-200,000	0,005	-0,082
-222,898	411,649	-0,091	-0,141
-221,884	-200,000	0,018	-0,115
-220,869	-200,000	-0,008	0,107
-219,855	770,156	0,033	-0,066
-218,840	46,253	0,096	0,064
-217,825	-68,807	-0,062	-0,017
-216,811	-91,881	-0,046	0,009
-215,796	67,860	0,021	-0,016
-214,782	92,386	0,043	0,036
-213,767	800,000	0,017	0,054
-212,752	20,178	0,079	0,046
-211,738	-200,000	-0,004	0,033
-210,723	263,958	0,078	0,099
-209,709	5,181	-0,018	-0,010
-208,694	-200,000	-0,029	-0,122
-207,679	-200,000	-0,018	-0,072
-206,665	-200,000	-0,030	0,105
-205,650	267,111	-0,071	0,090
-204,636	-200,000	-0,022	0,185
-203,621	17,044	0,087	-0,050
-202,606	27,199	-0,024	0,015
-201,592	212,895	0,039	-0,045
-200,577	800,000	0,033	-0,103
-199,563	-200,000	-0,001	-0,012
-198,548	588,369	0,046	0,082
-197,533	31,217	0,219	-0,137
-196,519	641,801	0,047	-0,088
-195,504	376,958	-0,099	-0,148
-194,490	292,836	-0,065	0,086
-193,475	49,015	-0,088	0,060
-192,460	800,000	-0,030	0,064
-191,446	-65,262	-0,115	-0,033
-190,431	-133,282	0,091	0,008
-189,417	475,122	0,033	0,054
-188,402	800,000	-0,011	-0,027
-187,387	-200,000	-0,027	-0,164
-186,373	427,748	-0,042	-0,065
-185,358	-8,521	-0,035	0,017
-184,344	800,000	0,030	0,080
-183,329	-144,543	-0,080	0,005
-182,315	-200,000	0,003	0,105
-181,300	18,403	-0,087	0,051
-180,285	196,546	-0,092	-0,102
-179,271	-15,674	-0,038	0,017
-178,256	-200,000	-0,008	-0,070
-177,242	520,224	-0,063	-0,108
-176,227	142,957	0,093	0,090
-175,212	-98,047	-0,129	0,024
-174,198	-200,000	0,024	-0,138
-173,183	-200,000	0,014	-0,091
-172,169	-200,000	0,018	0,074
-171,154	41,272	-0,128	-0,084
-170,139	50,309	-0,105	0,072
-169,125	147,507	0,080	0,078
-168,110	14,499	-0,009	0,005
-167,096	180,311	0,085	0,091
-166,081	199,396	-0,039	-0,043
-165,066	321,593	0,062	-0,086
-164,052	-200,000	0,012	-0,110
-163,037	-200,000	-0,018	0,195
-162,023	-131,144	-0,018	-0,002
-161,008	144,526	0,082	0,080
-159,993	518,646	0,022	-0,037
-158,979	317,808	0,028	-0,038
-157,964	23,015	0,056	-0,033
-156,950	80,040	-0,027	-0,021
-155,935	800,000	-0,006	0,017
-154,920	-200,000	-0,017	0,075
-153,906	335,100	0,072	0,101
-152,891	12,443	-0,144	0,081
-151,877	-22,989	-0,033	-0,014
-150,862	-112,098	-0,098	0,014
-149,847	-200,000	-0,007	-0,062
-148,833	-200,000	-0,018	0,073
-147,818	184,415	-0,027	0,029
-146,804	236,900	-0,026	0,031
-145,789	417,738	0,103	-0,160
-144,775	-142,325	0,080	-0,006
-143,760	800,000	-0,024	-0,055
-142,745	125,251	-0,027	-0,025
-141,731	-112,364	-0,058	0,008
-140,716	-187,320	0,077	0,001
-139,702	131,823	-0,068	0,064
-138,687	-200,000	0,137	0,000
-137,672	114,478	-0,051	0,045
-136,658	-200,000	0,004	0,085
-135,643	187,462	-0,062	0,067
-134,629	-200,000	0,007	0,028
-133,614	-200,000	-0,011	0,106
-132,599	-83,238	-0,050	-0,011
-131,585	-200,000	-0,018	0,101
-130,570	800,000	0,048	0,128
-129,556	-92,411	-0,103	-0,021
-128,541	440,454	-0,074	-0,118
-127,526	104,402	-0,020	-0,017
-126,512	-200,000	0,033	0,156
-125,497	168,989	0,106	0,109
-124,483	-143,808	0,013	-0,001
-123,468	-128,618	0,141	-0,014
-122,453	800,000	-0,053	0,120
-121,439	220,003	-0,007	0,008
-120,424	-40,255	-0,157	-0,059
-119,410	63,243	0,062	0,045
