DTS Sentinel unit serial number:	SN410029Multiplexer serial number:	ORYXHardware model number:	OX2-SRSoftware version number:	ORYX F/W v4,00 Oryx Data Collector v3.7.2.0data status	okinstallation	B4 Nyhavnadifferential loss correction	single-endedforward channel	channel 2reverse channel	N/Adate	2023/12/16time	11:15:13forward acquisition time	300,00reverse acquisition time	0,00gamma	499,1914k internal	0,3125k external	0,3125temperature offset calibration	1,0000default loss term (dB/km)	0,3820temperature slope calibration	1,0000multiplexer offset coefficient	1,0000multiplexer slope coefficient	1,0000fibre end	0,00T internal ref (°C)	23,59T ext. ref 1 (°C)	9,43T ext. ref 2 (°C)	9,59length (m)	temperature (°C)	Stokes	anti-Stokes-744,400	158,847	0,064	-0,066
-743,385	63,500	-0,195	0,145
-742,371	-174,247	0,129	0,003
-741,356	47,578	-0,222	0,154
-740,342	-94,818	0,151	0,030
-739,327	186,917	-0,198	0,220
-738,312	-200,000	-0,002	-0,031
-737,298	-14,428	-0,201	0,096
-736,283	800,000	-0,012	-0,035
-735,269	-92,597	-0,177	-0,037
-734,254	75,584	0,027	0,022
-733,239	-47,717	-0,319	-0,114
-732,225	-200,000	0,052	-0,217
-731,210	-123,355	0,148	0,017
-730,196	20,150	-0,142	-0,085
-729,181	-200,000	0,000	-0,049
-728,167	-200,000	-0,019	-0,070
-727,152	-38,220	0,083	-0,033
-726,137	31,486	-0,026	-0,017
-725,123	-75,543	-0,023	-0,006
-724,108	800,000	-0,090	-0,239
-723,094	800,000	-0,043	-0,099
-722,079	800,000	-0,037	0,112
-721,064	-200,000	-0,006	-0,096
-720,050	-200,000	0,039	0,131
-719,035	343,731	-0,014	0,020
-718,021	115,339	-0,058	0,053
-717,006	142,512	0,042	-0,042
-715,991	-69,127	0,074	0,021
-714,977	649,166	-0,075	-0,143
-713,962	-120,902	-0,139	-0,017
-712,948	800,000	-0,018	0,049
-711,933	630,815	0,035	0,066
-710,918	215,996	0,080	-0,094
-709,904	-10,912	-0,149	-0,073
-708,889	-94,614	-0,053	-0,011
-707,875	-59,279	-0,075	-0,024
-706,860	440,669	0,102	-0,167
-705,845	-200,000	-0,006	0,144
-704,831	-200,000	-0,008	0,123
-703,816	-151,854	-0,076	-0,004
-702,802	-85,356	-0,100	0,023
-701,787	28,970	-0,163	-0,102
-700,772	800,000	0,009	-0,023
-699,758	124,652	-0,113	-0,105
-698,743	-100,432	0,087	-0,016
-697,729	-200,000	0,004	0,030
-696,714	38,209	-0,044	-0,029
-695,699	-200,000	-0,013	0,304
-694,685	-55,346	0,185	0,061
-693,670	95,102	-0,082	-0,069
-692,656	146,182	0,098	0,098
-691,641	800,000	-0,021	-0,056
-690,627	369,829	0,043	0,065
-689,612	-155,516	-0,183	-0,009
-688,597	-82,146	-0,054	-0,013
-687,583	469,651	-0,072	0,121
-686,568	-92,513	-0,077	0,016
-685,554	56,182	0,063	-0,045
-684,539	-190,797	-0,083	0,001
-683,524	23,680	0,021	-0,013
-682,510	48,516	0,113	-0,079
-681,495	800,000	-0,058	-0,174
-680,481	223,135	-0,041	0,049
-679,466	-94,890	-0,070	-0,014
-678,451	64,005	-0,050	0,037
-677,437	-4,727	0,158	-0,081
-676,422	-63,236	-0,058	0,018
-675,408	-22,809	0,074	0,033
-674,393	294,844	-0,054	-0,073
-673,378	-200,000	0,024	-0,137
-672,364	680,972	-0,040	-0,077
-671,349	-147,303	0,046	-0,003
-670,335	-39,727	-0,069	-0,026
-669,320	296,797	-0,084	0,115
-668,305	-200,000	-0,014	0,078
-667,291	9,814	0,139	0,078
-666,276	800,000	0,023	0,067
-665,262	53,538	-0,060	0,043
-664,247	-45,176	-0,086	0,031
-663,232	-200,000	-0,002	-0,114
-662,218	800,000	-0,005	-0,012
-661,203	800,000	-0,038	0,109
-660,189	-110,758	0,103	-0,016
-659,174	-200,000	-0,011	-0,043
-658,159	1,273	0,102	-0,054
-657,145	-200,000	0,016	0,089
-656,130	-160,002	-0,146	0,006
-655,116	-142,338	0,160	-0,012
-654,101	800,000	0,039	-0,099
-653,086	462,721	0,035	0,058
-652,072	-200,000	-0,006	-0,060
-651,057	392,739	0,038	-0,059
-650,043	-200,000	-0,008	-0,055
-649,028	35,828	-0,036	-0,024
-648,014	800,000	-0,028	0,076
-646,999	-200,000	-0,015	0,107
-645,984	23,764	-0,077	0,047
-644,970	97,472	-0,098	-0,084
-643,955	-83,635	-0,058	0,014
-642,941	-2,926	0,036	0,019
-641,926	-8,497	-0,145	0,072
-640,911	-18,486	-0,107	-0,050
-639,897	-53,071	0,032	0,011
-638,882	-200,000	0,027	0,104
-637,868	386,073	0,032	-0,050
-636,853	-200,000	0,029	-0,118
-635,838	-200,000	-0,027	-0,102
-634,824	64,272	-0,074	-0,055
-633,809	800,000	-0,035	-0,076
-632,795	254,833	0,040	-0,051
-631,780	286,144	0,014	-0,019
-630,765	138,117	-0,074	-0,072
-629,751	-200,000	0,007	0,125
-628,736	800,000	-0,037	-0,088
-627,722	-127,636	-0,100	0,011
-626,707	48,255	-0,119	0,083
-625,692	800,000	-0,040	-0,098
-624,678	12,911	-0,156	-0,089
-623,663	-200,000	-0,012	-0,100
-622,649	62,680	-0,087	-0,065
-621,634	194,974	-0,047	-0,052
-620,619	225,089	-0,033	0,040
-619,605	531,822	0,012	-0,021
-618,590	-41,594	-0,096	-0,036
-617,576	295,738	0,015	0,020
-616,561	-200,000	-0,008	0,084
-615,546	-200,000	0,002	0,012
-614,532	-200,000	-0,003	-0,042
-613,517	800,000	-0,010	0,033
-612,503	-200,000	0,020	-0,112
-611,488	-120,722	-0,014	-0,002
-610,474	-156,530	0,121	-0,005
-609,459	-129,095	0,066	0,007
-608,444	-109,597	0,028	-0,004
-607,430	76,700	0,025	0,020
-606,415	-66,538	0,069	-0,020
-605,401	114,715	-0,092	-0,083
-604,386	-94,784	-0,075	-0,015
-603,371	143,384	0,117	-0,116
-602,357	800,000	-0,046	0,119
-601,342	302,602	-0,050	-0,068
-600,328	800,000	-0,032	0,082
-599,313	-200,000	0,005	-0,031
-598,298	-200,000	-0,020	-0,079
-597,284	-68,664	0,197	-0,056
-596,269	48,204	0,083	0,057
-595,255	-95,709	-0,198	-0,039
-594,240	413,259	-0,057	0,090
-593,225	38,989	-0,043	0,028
-592,211	-11,829	-0,165	-0,080
-591,196	300,191	0,011	-0,015
-590,182	800,000	0,030	-0,078
-589,167	299,283	-0,016	0,022
-588,152	-200,000	-0,002	-0,022
-587,138	-200,000	0,032	-0,122
-586,123	51,315	-0,126	-0,088
-585,109	106,069	-0,094	-0,082
-584,094	800,000	0,009	0,027
-583,079	40,567	0,027	-0,018
-582,065	418,004	0,088	0,139
-581,050	-200,000	-0,008	0,137
-580,036	575,541	0,047	0,086
-579,021	-45,228	0,113	-0,041
-578,006	-200,000	-0,008	0,098
-576,992	-176,499	0,092	0,002
-575,977	-129,274	-0,075	0,008
-574,963	440,953	-0,033	-0,053
-573,948	27,032	-0,043	0,027
-572,934	-200,000	0,000	-0,019
-571,919	-173,897	-0,094	-0,002
-570,904	-114,671	-0,094	0,013
-569,890	-18,983	0,010	0,005
-568,875	800,000	-0,049	0,110
-567,861	-53,550	-0,031	0,011
-566,846	140,200	0,066	-0,064
-565,831	-139,947	0,025	-0,002
-564,817	748,492	-0,069	-0,139
-563,802	800,000	-0,046	-0,096
-562,788	-121,760	-0,075	0,009
-561,773	422,461	-0,032	-0,051
-560,758	-200,000	0,033	0,141
-559,744	-200,000	0,013	0,052
-558,729	800,000	0,041	0,107
-557,715	374,839	-0,041	-0,062
-556,700	-200,000	-0,011	-0,097
-555,685	-40,594	-0,095	0,036
-554,671	-200,000	0,029	0,108
-553,656	-23,564	-0,087	0,038
-552,642	800,000	0,043	-0,100
-551,627	667,512	0,037	0,070
-550,612	-22,887	-0,052	-0,023
-549,598	-46,299	-0,153	0,055
-548,583	-55,649	-0,159	0,052
-547,569	-130,038	-0,168	0,017
-546,554	-43,888	0,033	-0,012
-545,539	-165,750	0,047	-0,001
-544,525	-200,000	0,029	0,160
-543,510	102,335	-0,032	0,028
-542,496	200,953	-0,109	-0,124
-541,481	-200,000	-0,011	-0,111
-540,466	-121,075	0,110	0,013
-539,452	429,567	-0,037	-0,060
-538,437	-69,268	0,112	-0,032
-537,423	231,714	-0,110	0,133
-536,408	800,000	0,020	0,059
-535,393	590,452	-0,073	-0,134
-534,379	-94,412	-0,074	-0,015
-533,364	-55,453	-0,048	0,016
-532,350	135,988	0,100	-0,096
-531,335	702,412	0,065	0,128
-530,321	-96,077	-0,047	-0,009
-529,306	164,733	-0,016	-0,017
-528,291	-200,000	0,037	-0,164
-527,277	800,000	-0,028	-0,081
-526,262	-200,000	-0,032	-0,120
-525,248	800,000	-0,091	-0,202
-524,233	-200,000	-0,001	-0,067
-523,218	800,000	-0,015	-0,039
-522,204	92,733	-0,042	-0,035
-521,189	800,000	-0,018	0,048
-520,175	9,117	0,028	-0,015
-519,160	-200,000	-0,006	-0,082
-518,145	340,524	0,065	0,094
-517,131	-169,061	0,138	0,004
-516,116	-0,102	0,170	0,089
-515,102	372,426	0,053	-0,080
-514,087	-16,981	0,090	-0,042
-513,072	155,643	0,086	-0,088
-512,058	10,408	-0,107	0,060
-511,043	-200,000	0,003	-0,068
-510,029	-200,000	0,018	0,169
-509,014	-170,546	0,062	0,002
-507,999	-200,000	-0,017	0,139
-506,985	85,833	0,096	-0,078
-505,970	785,589	-0,059	-0,120
-504,956	237,464	-0,023	-0,028
-503,941	-127,398	0,109	0,012
-502,926	-122,871	-0,120	0,014
-501,912	404,730	-0,016	0,024
-500,897	-200,000	0,010	-0,047
-499,883	260,721	-0,027	0,034
-498,868	800,000	0,023	0,050
-497,853	667,356	-0,023	-0,044
-496,839	-200,000	0,020	0,078
-495,824	-155,827	-0,035	0,002
-494,810	-158,298	0,153	-0,006
-493,795	800,000	-0,020	0,047
-492,781	734,006	0,048	0,094
-491,766	58,222	-0,026	-0,019
-490,751	-64,549	0,027	-0,008
-489,737	-150,877	0,057	0,003
-488,722	-8,451	-0,015	0,007
-487,708	40,454	-0,041	-0,027
-486,693	-77,993	-0,114	-0,029
-485,678	-200,000	-0,011	0,079
-484,664	-14,756	0,046	0,022
-483,649	-130,529	-0,056	0,005
-482,635	622,773	-0,045	0,084
-481,620	198,841	-0,057	0,064
-480,605	44,527	0,096	0,065
-479,591	800,000	-0,033	-0,106
-478,576	-200,000	0,021	-0,113
-477,562	800,000	-0,057	-0,126
-476,547	800,000	-0,040	-0,089
-475,532	-76,296	-0,094	0,024
-474,518	-35,120	0,121	-0,048
-473,503	-200,000	0,020	0,065
-472,489	505,173	-0,030	0,051
-471,474	425,288	0,032	0,050
-470,459	-105,416	-0,101	-0,017
-469,445	800,000	0,036	0,099
-468,430	800,000	0,015	-0,032
-467,416	-200,000	0,027	0,202
-466,401	-119,303	0,170	0,022
-465,386	-162,998	-0,018	0,001
-464,372	-115,263	0,146	-0,020
-463,357	646,286	-0,069	-0,129
-462,343	-200,000	0,012	-0,069
-461,328	22,219	0,080	0,048
-460,313	-52,447	-0,024	0,008
-459,299	800,000	0,030	-0,064
-458,284	-200,000	0,004	0,056
-457,270	-98,575	0,070	0,013
-456,255	-95,035	-0,093	-0,018
-455,241	363,776	0,085	-0,126
-454,226	-200,000	-0,018	0,106
-453,211	132,933	0,116	0,111
-452,197	403,175	0,048	0,075
-451,182	-148,231	0,186	0,011
-450,168	-200,000	0,008	0,126
-449,153	2,663	0,099	0,053
-448,138	-200,000	0,008	-0,081
-447,124	-33,327	-0,136	-0,055
-446,109	730,011	-0,009	-0,017
-445,095	800,000	0,039	0,100
-444,080	140,822	-0,065	0,063
-443,065	-101,161	0,071	-0,013
-442,051	164,473	-0,034	-0,036
-441,036	24,771	-0,141	0,086
-440,022	-169,291	-0,095	0,003
-439,007	-200,000	0,005	-0,054
-437,992	658,934	0,097	0,185
-436,978	-200,000	-0,005	0,122
-435,963	238,812	-0,069	0,084
-434,949	-17,879	0,054	-0,025
-433,934	296,176	-0,032	0,044
-432,919	-200,000	-0,001	0,026
-431,905	800,000	0,028	-0,065
-430,890	31,828	0,039	0,025
-429,876	88,110	0,020	0,016
-428,861	93,946	0,162	0,135
-427,846	-200,000	0,013	0,053
-426,832	254,458	0,021	0,026
-425,817	800,000	-0,022	-0,055
-424,803	147,467	0,067	-0,067
-423,788	202,704	0,013	0,015
-422,773	-79,423	0,132	0,032
-421,759	-128,178	-0,145	0,015
-420,744	-130,152	-0,102	0,010
-419,730	95,714	-0,090	-0,075
-418,715	-51,369	0,141	-0,048
-417,701	688,666	0,016	-0,030
-416,686	80,685	-0,037	0,029
-415,671	-200,000	0,003	-0,160
-414,657	566,843	0,052	0,092
-413,642	12,177	0,068	-0,039
-412,628	-200,000	-0,018	-0,085
-411,613	89,652	-0,120	-0,098
-410,598	-200,000	0,021	-0,172
-409,584	-137,456	-0,156	0,013
-408,569	-200,000	-0,010	0,096
-407,555	56,696	0,178	0,127
-406,540	89,268	0,044	0,036
-405,525	-129,813	0,033	-0,003
-404,511	800,000	0,057	-0,137
-403,496	-105,876	-0,088	0,015
-402,482	462,295	-0,031	-0,051
-401,467	-154,737	-0,038	-0,002
-400,452	214,596	-0,055	0,064
-399,438	172,248	0,057	0,060
-398,423	-169,503	0,153	-0,004
-397,409	28,712	-0,042	-0,026
-396,394	4,885	-0,104	-0,056
-395,379	-200,000	-0,006	-0,106
-394,365	-200,000	0,021	-0,069
-393,350	274,143	0,052	-0,068
-392,336	443,758	-0,024	0,039
-391,321	-103,517	0,150	0,026
-390,306	94,706	0,053	-0,045
-389,292	33,130	0,056	-0,036
-388,277	77,560	-0,102	-0,080
-387,263	-200,000	0,006	0,074
-386,248	437,153	0,135	0,217
-385,233	-200,000	0,002	0,070
-384,219	-47,750	-0,099	-0,035
-383,204	-118,277	-0,076	0,010
-382,190	-24,674	-0,145	-0,063
-381,175	300,727	0,041	0,056
-380,160	-200,000	0,031	0,115
-379,146	-200,000	-0,010	0,125
-378,131	-81,033	0,188	0,045
-377,117	-16,976	-0,007	0,003
-376,102	800,000	0,053	0,141
-375,088	202,290	-0,048	0,055
-374,073	339,803	-0,055	-0,080
-373,058	800,000	0,035	0,075
-372,044	108,833	0,062	0,055
-371,029	358,653	-0,025	-0,037
-370,015	164,317	-0,048	-0,050
-369,000	17,382	0,045	-0,026
-367,985	77,430	0,100	-0,078
-366,971	-200,000	-0,010	0,074
-365,956	-29,642	0,119	-0,050
-364,942	800,000	0,025	-0,065
-363,927	-69,046	-0,110	-0,031
-362,912	-200,000	0,006	0,050
-361,898	-92,790	0,035	0,007
-360,883	406,351	0,064	-0,100
-359,869	175,366	0,061	-0,065
-358,854	-56,838	-0,086	-0,028
-357,839	446,685	0,039	0,063
-356,825	193,136	0,058	-0,064
-355,810	-25,669	0,092	0,040
-354,796	800,000	0,008	-0,022
-353,781	-113,564	-0,101	0,014
-352,766	-200,000	0,010	-0,046
-351,752	476,539	0,004	0,007
-350,737	-105,293	0,090	0,015
-349,723	-9,045	-0,058	0,029
-348,708	-200,000	-0,017	0,057
-347,693	215,673	-0,056	-0,065
-346,679	84,198	0,059	-0,047
-345,664	-70,541	0,102	-0,028
-344,650	-200,000	0,001	-0,099
-343,635	-22,828	0,060	0,026
-342,620	800,000	-0,025	0,057
-341,606	174,463	-0,136	0,145
-340,591	-69,283	-0,092	0,026
-339,577	139,432	0,043	0,041
-338,562	-200,000	-0,003	0,034
-337,548	-185,425	-0,068	0,001
-336,533	509,254	-0,005	0,009
-335,518	115,004	-0,044	0,039
-334,504	-200,000	0,027	0,205
-333,489	-77,308	0,135	0,034
-332,475	-73,215	-0,092	-0,025
-331,460	-54,159	-0,134	-0,044
-330,445	22,528	0,169	0,101
-329,431	153,064	0,114	0,114
-328,416	-200,000	0,076	-0,000
-327,402	-11,397	-0,092	-0,044
-326,387	-18,633	-0,096	0,044
-325,372	-200,000	-0,015	-0,087
-324,358	-158,588	0,150	-0,006
-323,343	320,315	0,032	-0,045
-322,329	23,945	0,010	-0,006
-321,314	800,000	0,070	0,208
-320,299	-16,068	0,083	0,038
-319,285	-142,378	-0,035	0,002
-318,270	-150,120	0,126	0,007
-317,256	89,914	0,135	-0,110
-316,241	174,995	-0,054	0,058
-315,226	423,697	-0,080	0,126
-314,212	314,955	-0,088	0,122
-313,197	800,000	0,051	0,116
-312,183	96,239	0,031	-0,026
-311,168	-121,827	0,089	0,011
-310,153	-64,358	0,093	-0,028
-309,139	-200,000	0,018	-0,099
-308,124	7,409	0,064	0,035
-307,110	-123,600	0,080	-0,009
-306,095	-200,000	-0,011	0,066
-305,080	159,750	-0,050	0,051
-304,066	13,928	0,071	0,041
-303,051	184,609	-0,134	-0,145
-302,037	800,000	-0,026	-0,065
-301,022	373,879	0,119	-0,178
-300,008	620,289	-0,069	-0,128
-298,993	24,020	-0,035	0,021
-297,978	-200,000	-0,019	0,137
-296,964	800,000	0,024	-0,068
-295,949	437,758	0,081	0,130
-294,935	25,908	-0,048	-0,029
-293,920	-101,425	0,073	0,013
-292,905	60,869	0,035	-0,025
-291,891	689,931	0,076	0,146
-290,876	235,531	0,101	0,123
-289,862	-200,000	0,017	-0,073
-288,847	32,118	-0,120	0,076
-287,832	25,314	-0,048	0,029
-286,818	-200,000	-0,014	0,048
-285,803	625,446	0,044	-0,082
-284,789	-200,000	0,006	0,069
-283,774	729,505	-0,023	-0,046
-282,759	-25,228	-0,124	0,053
-281,745	-200,000	-0,011	-0,105
-280,730	15,005	0,022	0,013
-279,716	10,859	-0,135	-0,075
-278,701	-85,467	0,167	-0,038
-277,686	483,793	0,037	0,062
-276,672	180,668	0,021	0,022
-275,657	424,046	-0,041	0,065
-274,643	-200,000	0,008	0,029
-273,628	345,244	0,079	-0,114
-272,613	27,085	0,032	-0,019
-271,599	-82,680	0,152	0,036
-270,584	-200,000	-0,006	-0,142
-269,570	-200,000	0,003	0,034
-268,555	18,087	0,048	0,028
-267,540	-200,000	-0,004	-0,135
-266,526	800,000	-0,035	-0,080
-265,511	-109,960	0,040	0,006
-264,497	25,224	0,070	0,042
-263,482	800,000	-0,015	0,038
-262,467	216,257	-0,113	0,132
-261,453	610,400	0,022	0,040
-260,438	189,405	0,044	-0,048
-259,424	-143,246	-0,082	0,006
-258,409	-200,000	-0,001	-0,030
-257,395	239,783	0,116	0,141
-256,380	43,903	0,075	0,050
-255,365	-52,272	-0,071	0,024
-254,351	-137,963	-0,114	-0,009
-253,336	154,757	0,068	-0,068
-252,322	114,557	-0,086	-0,076
-251,307	-164,300	-0,119	0,004
-250,292	-200,000	0,010	-0,120
-249,278	35,224	-0,026	0,016
-248,263	-108,587	-0,053	0,008
-247,249	-200,000	0,034	-0,114
-246,234	145,792	0,066	-0,065
-245,219	-151,172	-0,147	0,008
-244,205	-200,000	-0,008	-0,109
-243,190	-143,379	0,117	-0,008
-242,176	150,073	0,047	0,047
-241,161	320,504	0,049	-0,068
-240,146	-200,000	0,007	0,143
-239,132	91,440	-0,083	-0,068
-238,117	-200,000	-0,001	-0,099
-237,103	-200,000	-0,003	0,108
-236,088	800,000	0,018	0,047
-235,073	-77,333	-0,013	0,003
-234,059	82,555	-0,023	-0,018
-233,044	327,731	-0,039	0,055
-232,030	602,582	-0,059	-0,108
-231,015	800,000	0,139	-0,281
-230,000	-71,985	-0,088	0,024
-228,986	-200,000	0,003	-0,028
-227,971	-77,080	0,089	0,023
-226,957	-42,127	0,122	-0,045
-225,942	-200,000	0,008	0,062
-224,927	-200,000	0,001	-0,051
-223,913	-200,000	-0,007	-0,074
-222,898	123,411	-0,133	-0,122
-221,884	800,000	-0,008	-0,022
-220,869	-51,158	0,109	-0,037
-219,855	-24,536	-0,105	-0,045
-218,840	254,469	0,081	0,102
-217,825	-200,000	0,010	0,159
-216,811	-32,044	-0,092	0,037
-215,796	800,000	-0,020	-0,061
-214,782	429,379	0,078	0,124
-213,767	-110,197	-0,005	-0,001
-212,752	-108,206	0,144	0,022
-211,738	518,339	0,039	0,067
-210,723	800,000	-0,030	-0,074
-209,709	235,091	-0,015	-0,018
-208,694	-44,769	0,037	-0,013
-207,679	80,744	-0,142	-0,111
-206,665	145,376	-0,055	-0,053
-205,650	-74,394	0,019	-0,005
-204,636	155,885	0,066	0,066
-203,621	-106,334	0,128	0,021
-202,606	-200,000	0,007	-0,063
-201,592	-41,395	-0,087	-0,032
-200,577	-200,000	-0,013	0,057
-199,563	-153,408	0,215	-0,011
-198,548	-200,000	-0,002	0,006
-197,533	800,000	0,026	-0,065
-196,519	310,367	0,041	0,056
-195,504	800,000	-0,031	-0,075
-194,490	708,778	-0,035	-0,068
-193,475	42,612	-0,029	-0,019
-192,460	-200,000	0,013	0,047
-191,446	249,309	0,077	-0,095
-190,431	262,984	0,065	-0,082
-189,417	-200,000	-0,010	-0,082
-188,402	800,000	0,073	-0,166
-187,387	-92,390	-0,118	-0,024
-186,373	800,000	-0,003	-0,009
-185,358	-200,000	-0,003	0,226
-184,344	-200,000	0,011	0,151
-183,329	-200,000	-0,004	0,081
-182,315	-200,000	0,002	-0,024
-181,300	-146,713	-0,080	-0,005
-180,285	-200,000	0,013	0,098
-179,271	-15,950	-0,122	-0,056
-178,256	-19,423	0,059	-0,027
-177,242	62,386	0,060	-0,044
-176,227	94,401	0,083	0,068
-175,212	-109,261	-0,224	-0,034
-174,198	-133,100	0,047	0,004
-173,183	92,743	0,058	-0,048
-172,169	-200,000	0,012	-0,109
-171,154	-200,000	-0,000	-0,018
-170,139	686,097	0,013	0,026
-169,125	144,489	-0,059	0,057
-168,110	175,489	0,060	0,063
-167,096	-75,200	-0,062	0,016
-166,081	197,474	-0,081	-0,091
-165,066	-43,392	-0,137	0,050
-164,052	-43,268	-0,109	0,040
-163,037	291,567	0,077	-0,102
-162,023	583,998	0,069	0,123
-161,008	-200,000	0,009	0,110
-159,993	296,089	-0,024	0,032
-158,979	-200,000	-0,001	-0,079
-157,964	-29,837	0,041	-0,017
-156,950	800,000	-0,066	0,153
-155,935	-126,749	-0,062	-0,007
-154,920	42,958	-0,124	0,082
-153,906	-14,758	0,051	-0,024
-152,891	17,442	-0,171	0,098
-151,877	377,533	-0,070	0,105
-150,862	-28,075	-0,100	-0,042
-149,847	-124,942	-0,123	-0,014
-148,833	100,862	-0,049	-0,041
-147,818	-200,000	0,001	-0,011
-146,804	319,594	0,052	-0,072
-145,789	24,859	-0,121	0,073
-144,775	-125,444	-0,101	-0,011
-143,760	-200,000	-0,005	-0,065
-142,745	800,000	0,040	-0,112
-141,731	-200,000	-0,014	-0,055
-140,716	46,349	0,056	0,038
-139,702	800,000	-0,060	-0,152
-138,687	-73,896	0,123	0,032
-137,672	-200,000	0,044	0,165
-136,658	-62,163	-0,084	-0,025
-135,643	124,224	-0,034	0,031
-134,629	422,476	-0,118	-0,185
-133,614	346,997	0,032	-0,046
-132,599	49,097	0,061	-0,042
-131,585	-180,589	0,249	-0,004
-130,570	220,647	0,033	0,038
-129,556	64,453	0,047	-0,034
-128,541	-104,941	-0,110	-0,018
-127,526	800,000	-0,038	-0,104
-126,512	800,000	-0,074	0,158
-125,497	-200,000	-0,027	-0,108
-124,483	-51,638	-0,170	-0,057
-123,468	-197,659	0,058	0,000
-122,453	-86,661	-0,080	-0,018
-121,439	589,838	-0,041	0,073
-120,424	156,637	-0,079	0,080
