DTS Sentinel unit serial number:	SN410029Multiplexer serial number:	ORYXHardware model number:	OX2-SRSoftware version number:	ORYX F/W v4,00 Oryx Data Collector v3.7.2.0data status	okinstallation	B4 Nyhavnadifferential loss correction	single-endedforward channel	channel 2reverse channel	N/Adate	2023/12/18time	19:10:13forward acquisition time	300,00reverse acquisition time	0,00gamma	499,1914k internal	0,3123k external	0,3123temperature offset calibration	1,0000default loss term (dB/km)	0,3820temperature slope calibration	1,0000multiplexer offset coefficient	1,0000multiplexer slope coefficient	1,0000fibre end	0,00T internal ref (°C)	21,88T ext. ref 1 (°C)	6,93T ext. ref 2 (°C)	6,97length (m)	temperature (°C)	Stokes	anti-Stokes-744,400	-200,000	0,026	-0,112
-743,385	23,064	-0,221	0,135
-742,371	64,521	0,101	-0,075
-741,356	74,095	-0,207	0,162
-740,342	386,840	0,094	-0,146
-739,327	24,891	-0,264	0,163
-738,312	800,000	0,032	0,072
-737,298	-92,140	-0,286	0,060
-736,283	-200,000	-0,001	-0,043
-735,269	152,725	-0,124	0,126
-734,254	57,143	0,095	0,069
-733,239	-160,602	-0,364	0,014
-732,225	121,780	0,070	0,065
-731,210	713,532	0,073	0,145
-730,196	-200,000	0,026	-0,269
-729,181	374,980	-0,039	-0,059
-728,167	115,514	-0,032	0,029
-727,152	-55,139	0,038	0,013
-726,137	-200,000	-0,001	-0,103
-725,123	-200,000	0,003	0,034
-724,108	800,000	-0,090	-0,204
-723,094	317,690	-0,067	-0,094
-722,079	280,215	-0,113	0,151
-721,064	365,723	-0,038	0,057
-720,050	-200,000	-0,046	-0,206
-719,035	-83,871	-0,072	0,017
-718,021	-200,000	0,021	-0,188
-717,006	-200,000	-0,002	-0,021
-715,991	735,758	-0,015	0,030
-714,977	-10,215	-0,124	-0,061
-713,962	-95,603	-0,055	-0,011
-712,948	336,473	0,034	0,050
-711,933	-200,000	-0,005	0,046
-710,918	-125,206	-0,132	-0,015
-709,904	-200,000	0,001	-0,182
-708,889	359,580	-0,066	0,098
-707,875	289,864	0,118	-0,160
-706,860	-84,328	-0,047	-0,011
-705,845	-200,000	-0,006	0,027
-704,831	18,064	-0,138	-0,082
-703,816	-86,646	0,141	-0,032
-702,802	220,069	-0,071	-0,085
-701,787	-200,000	0,000	-0,119
-700,772	20,726	-0,044	-0,026
-699,758	-54,229	0,104	0,035
-698,743	-132,726	-0,165	0,015
-697,729	223,371	-0,060	-0,072
-696,714	-85,078	0,080	-0,018
-695,699	800,000	0,066	-0,157
-694,685	-103,831	-0,134	0,023
-693,670	-32,892	-0,109	-0,045
-692,656	107,955	-0,170	-0,151
-691,641	161,610	0,066	-0,069
-690,627	-81,949	0,130	0,031
-689,612	-200,000	-0,024	-0,120
-688,597	28,983	-0,103	-0,065
-687,583	800,000	-0,063	-0,151
-686,568	-200,000	-0,005	-0,170
-685,554	800,000	0,037	-0,119
-684,539	222,363	0,016	-0,019
-683,524	-66,559	0,132	0,039
-682,510	800,000	-0,048	0,118
-681,495	-200,000	-0,006	0,036
-680,481	800,000	0,013	0,030
-679,466	-200,000	0,007	-0,055
-678,451	-51,732	0,132	-0,045
-677,437	-127,563	0,018	0,002
-676,422	-200,000	-0,014	0,125
-675,408	-100,681	0,122	0,022
-674,393	-200,000	0,020	-0,086
-673,378	800,000	-0,075	-0,193
-672,364	-26,276	-0,096	0,042
-671,349	-30,194	0,206	-0,086
-670,335	-58,683	0,153	-0,049
-669,320	-200,000	0,013	0,088
-668,305	-93,239	0,114	0,023
-667,291	-200,000	0,005	-0,238
-666,276	147,093	0,104	-0,104
-665,262	-28,422	-0,136	-0,058
-664,247	91,214	0,065	-0,054
-663,232	-57,880	0,194	-0,063
-662,218	102,668	-0,112	0,098
-661,203	-17,034	-0,048	-0,023
-660,189	695,937	-0,018	-0,035
-659,174	72,490	-0,020	0,015
-658,159	-200,000	0,002	0,028
-657,145	-200,000	-0,007	-0,088
-656,130	96,858	0,076	0,065
-655,116	-43,004	0,049	-0,019
-654,101	163,133	0,121	0,127
-653,086	800,000	-0,039	0,103
-652,072	116,888	-0,070	-0,064
-651,057	21,884	-0,113	-0,068
-650,043	-61,672	-0,090	0,028
-649,028	-144,175	-0,068	0,005
-648,014	-91,569	0,141	-0,030
-646,999	30,264	-0,172	0,109
-645,984	800,000	0,019	-0,053
-644,970	-200,000	-0,007	-0,124
-643,955	-95,126	-0,127	-0,025
-642,941	-200,000	-0,037	-0,139
-641,926	-128,759	0,075	-0,008
-640,911	274,464	0,043	0,056
-639,897	-109,077	0,057	-0,009
-638,882	-110,386	-0,054	-0,008
-637,868	563,704	0,010	-0,018
-636,853	-200,000	0,025	-0,087
-635,838	-200,000	-0,005	0,068
-634,824	800,000	-0,047	-0,147
-633,809	265,948	-0,103	-0,134
-632,795	-16,440	-0,070	0,033
-631,780	800,000	0,031	0,088
-630,765	94,415	-0,120	0,101
-629,751	45,910	-0,030	0,021
-628,736	-105,342	-0,138	0,023
-627,722	24,034	-0,054	-0,033
-626,707	-22,093	0,108	-0,048
-625,692	-166,614	0,087	0,003
-624,678	-41,853	-0,029	-0,011
-623,663	-33,724	0,070	0,028
-622,649	-136,458	-0,068	0,006
-621,634	-67,585	-0,081	0,023
-620,619	-200,000	-0,013	-0,086
-619,605	70,242	0,033	-0,025
-618,590	143,479	-0,051	0,050
-617,576	-200,000	-0,030	-0,115
-616,561	340,146	-0,052	0,075
-615,546	-150,554	-0,082	-0,005
-614,532	11,845	0,119	-0,068
-613,517	25,230	-0,131	-0,080
-612,503	231,482	-0,020	0,024
-611,488	519,588	0,013	-0,022
-610,474	63,380	0,073	-0,054
-609,459	800,000	0,091	-0,201
-608,444	-42,680	-0,074	0,028
-607,430	82,167	-0,106	0,085
-606,415	40,073	-0,032	-0,021
-605,401	-141,868	0,112	-0,008
-604,386	-31,033	0,029	0,012
-603,371	800,000	-0,063	0,137
-602,357	35,064	-0,032	-0,020
-601,342	154,038	-0,061	0,062
-600,328	52,270	-0,162	-0,115
-599,313	800,000	0,056	-0,124
-598,298	-63,687	-0,115	0,035
-597,284	-83,129	0,160	0,038
-596,269	-89,087	0,111	-0,024
-595,255	46,735	0,078	-0,053
-594,240	98,488	0,019	-0,016
-593,225	-150,256	-0,013	-0,001
-592,211	-135,601	-0,127	-0,011
-591,196	49,953	-0,005	0,004
-590,182	35,917	-0,010	-0,006
-589,167	-107,936	0,098	-0,016
-588,152	43,957	-0,128	0,087
-587,138	-67,675	0,083	0,024
-586,123	-3,427	-0,158	-0,081
-585,109	800,000	0,063	-0,136
-584,094	-200,000	-0,009	-0,052
-583,079	-84,193	-0,026	0,006
-582,065	326,185	0,016	0,023
-581,050	800,000	0,027	0,065
-580,036	-116,999	0,089	-0,012
-579,021	-200,000	-0,009	-0,113
-578,006	-90,405	-0,135	-0,029
-576,992	-200,000	0,003	-0,157
-575,977	-200,000	-0,003	0,145
-574,963	630,891	-0,104	0,197
-573,948	-26,518	0,024	0,011
-572,934	-113,582	-0,143	-0,020
-571,919	21,933	-0,078	0,047
-570,904	800,000	0,025	0,076
-569,890	-117,227	-0,136	-0,018
-568,875	-136,703	-0,077	0,007
-567,861	-149,929	-0,079	-0,005
-566,846	187,171	-0,076	0,084
-565,831	-170,288	-0,084	-0,002
-564,817	-139,240	0,038	0,003
-563,802	104,207	-0,047	0,041
-562,788	-200,000	0,016	-0,161
-561,773	163,544	0,026	0,027
-560,758	-31,649	0,153	0,063
-559,744	-17,578	0,178	0,082
-558,729	74,523	0,016	-0,013
-557,715	170,425	-0,015	0,016
-556,700	14,638	-0,101	-0,058
-555,685	800,000	-0,051	0,114
-554,671	800,000	0,039	-0,100
-553,656	-99,344	-0,103	-0,019
-552,642	420,576	0,018	0,028
-551,627	800,000	-0,021	-0,044
-550,612	-93,843	-0,065	-0,013
-549,598	25,171	-0,164	-0,100
-548,583	-108,655	-0,069	-0,011
-547,569	800,000	-0,041	-0,089
-546,554	-87,408	0,045	-0,010
-545,539	-181,217	-0,025	0,000
-544,525	-200,000	0,030	0,153
-543,510	-66,461	0,047	0,014
-542,496	800,000	-0,014	0,044
-541,481	-98,934	-0,039	-0,007
-540,466	-119,799	0,053	0,007
-539,452	800,000	-0,038	-0,098
-538,437	-43,597	0,041	0,015
-537,423	37,213	-0,055	0,036
-536,408	-113,006	0,084	0,012
-535,393	317,033	-0,078	-0,109
-534,379	-171,735	-0,074	0,002
-533,364	-1,425	-0,053	-0,028
-532,350	782,322	0,101	0,205
-531,335	-110,485	-0,028	0,004
-530,321	800,000	0,015	0,039
-529,306	800,000	-0,018	0,052
-528,291	304,819	-0,085	-0,117
-527,277	50,311	-0,150	-0,104
-526,262	198,501	0,037	-0,042
-525,248	-200,000	0,001	0,093
-524,233	-47,419	0,231	0,083
-523,218	-200,000	-0,015	0,106
-522,204	-4,830	0,136	0,069
-521,189	800,000	-0,032	0,092
-520,175	-127,822	-0,107	0,011
-519,160	137,712	0,030	0,029
-518,145	-38,219	-0,019	-0,008
-517,131	507,103	0,022	0,038
-516,116	-14,052	-0,045	0,022
-515,102	154,162	-0,019	0,019
-514,087	-78,232	0,132	0,033
-513,072	447,189	-0,036	-0,059
-512,058	-9,651	-0,108	0,053
-511,043	-166,661	0,174	0,005
-510,029	32,785	0,097	0,062
-509,014	800,000	0,011	0,034
-507,999	800,000	0,026	0,070
-506,985	465,383	0,044	-0,072
-505,970	-200,000	-0,004	-0,136
-504,956	404,796	-0,081	-0,126
-503,941	-87,900	0,031	-0,007
-502,926	60,355	0,057	0,041
-501,912	245,920	-0,063	0,078
-500,897	-104,600	0,048	-0,008
-499,883	207,929	0,040	0,046
-498,868	-84,470	0,156	0,036
-497,853	107,667	-0,015	-0,013
-496,839	342,806	0,069	-0,100
-495,824	286,773	-0,075	0,100
-494,810	-4,384	-0,165	-0,084
-493,795	540,015	0,051	0,090
-492,781	120,842	0,056	-0,051
-491,766	-168,960	-0,150	-0,004
-490,751	-200,000	-0,021	-0,124
-489,737	800,000	0,055	-0,122
-488,722	256,823	0,065	0,083
-487,708	800,000	0,054	0,139
-486,693	376,255	0,036	-0,054
-485,678	800,000	-0,018	-0,044
-484,664	101,684	-0,043	-0,037
-483,649	22,920	-0,061	0,037
-482,635	100,315	-0,050	0,043
-481,620	173,971	-0,082	0,088
-480,605	332,574	0,098	0,140
-479,591	-132,083	-0,030	0,003
-478,576	209,983	0,016	-0,019
-477,562	-158,170	-0,157	-0,007
-476,547	-164,912	0,114	0,004
-475,532	-178,220	0,093	-0,002
-474,518	-200,000	-0,002	-0,041
-473,503	106,396	0,018	0,016
-472,489	-51,950	-0,104	0,036
-471,474	-28,268	0,043	-0,018
-470,459	-200,000	-0,006	-0,025
-469,445	-95,821	-0,008	0,002
-468,430	-200,000	-0,005	0,072
-467,416	103,646	-0,028	-0,024
-466,401	263,890	-0,041	0,053
-465,386	75,494	0,049	-0,038
-464,372	-200,000	0,004	0,063
-463,357	82,154	-0,118	0,094
-462,343	528,170	0,073	0,127
-461,328	-23,116	0,053	-0,023
-460,313	-160,493	0,136	-0,005
-459,299	33,169	0,100	-0,064
-458,284	78,417	0,028	0,022
-457,270	60,234	-0,031	0,023
-456,255	-61,009	-0,075	-0,023
-455,241	-83,729	0,040	-0,009
-454,226	-200,000	0,004	0,086
-453,211	559,941	0,047	-0,083
-452,197	210,467	0,089	0,103
-451,182	-200,000	0,010	-0,038
-450,168	800,000	-0,007	-0,016
-449,153	365,012	0,046	0,068
-448,138	-200,000	-0,028	0,093
-447,124	58,116	0,138	0,100
-446,109	-76,936	0,112	-0,029
-445,095	-200,000	0,003	-0,010
-444,080	401,593	-0,058	0,090
-443,065	-200,000	-0,009	0,046
-442,051	800,000	-0,043	-0,134
-441,036	-77,938	-0,073	0,019
-440,022	763,323	0,034	0,069
-439,007	55,524	0,121	0,086
-437,992	-62,903	-0,028	-0,008
-436,978	-200,000	-0,022	0,100
-435,963	102,038	0,075	0,065
-434,949	57,755	0,051	-0,037
-433,934	-200,000	0,006	0,031
-432,919	800,000	-0,071	-0,162
-431,905	174,113	-0,046	-0,049
-430,890	113,524	0,068	-0,061
-429,876	223,001	-0,068	0,081
-428,861	-200,000	-0,029	-0,096
-427,846	299,078	-0,092	0,125
-426,832	800,000	0,065	-0,202
-425,817	78,156	-0,065	-0,051
-424,803	-9,262	0,116	-0,057
-423,788	75,186	0,014	0,011
-422,773	481,607	0,042	0,070
-421,759	-92,286	0,149	0,031
-420,744	237,487	0,057	0,070
-419,730	279,032	-0,079	0,105
-418,715	173,619	-0,099	-0,105
-417,701	800,000	0,024	-0,058
-416,686	-56,984	-0,095	-0,031
-415,671	-200,000	0,016	0,095
-414,657	287,534	0,070	0,093
-413,642	-200,000	0,006	0,102
-412,628	800,000	0,064	-0,139
-411,613	-108,426	-0,104	-0,016
-410,598	-93,750	0,209	-0,042
-409,584	27,018	0,071	-0,044
-408,569	294,122	0,012	-0,016
-407,555	-109,712	0,192	-0,029
-406,540	800,000	-0,036	-0,079
-405,525	-97,495	0,058	-0,011
-404,511	800,000	-0,042	-0,088
-403,496	-91,090	-0,085	0,018
-402,482	-200,000	0,012	-0,049
-401,467	-96,434	-0,027	-0,005
-400,452	800,000	0,003	-0,009
-399,438	390,584	0,081	0,124
-398,423	-200,000	-0,061	0,000
-397,409	-200,000	-0,015	-0,113
-396,394	-200,000	0,040	-0,257
-395,379	800,000	-0,011	0,024
-394,365	327,901	0,039	0,055
-393,350	800,000	0,013	-0,030
-392,336	-200,000	-0,006	0,161
-391,321	800,000	0,017	-0,035
-390,306	800,000	-0,026	-0,057
-389,292	-200,000	0,028	-0,139
-388,277	-110,708	0,042	-0,006
-387,263	-166,715	0,158	-0,005
-386,248	800,000	-0,034	0,101
-385,233	-14,869	0,060	0,028
-384,219	243,781	0,035	-0,044
-383,204	-200,000	-0,030	-0,097
-382,190	800,000	0,032	-0,080
-381,175	-200,000	0,009	-0,090
-380,160	213,754	0,019	0,022
-379,146	206,227	0,076	-0,087
-378,131	272,138	0,094	0,122
-377,117	10,759	-0,015	-0,009
-376,102	800,000	0,026	0,060
-375,088	77,584	-0,057	-0,044
-374,073	-200,000	-0,015	-0,060
-373,058	36,051	0,156	0,100
-372,044	34,353	0,029	0,018
-371,029	39,937	-0,006	-0,004
-370,015	-154,056	-0,137	0,007
-369,000	234,412	-0,094	0,114
-367,985	-123,418	-0,090	-0,010
-366,971	404,392	-0,043	-0,067
-365,956	-200,000	-0,032	0,129
-364,942	197,135	0,120	0,134
-363,927	-46,762	0,037	0,013
-362,912	146,564	0,058	0,057
-361,898	-42,961	0,069	-0,026
-360,883	800,000	-0,059	0,123
-359,869	-63,737	-0,043	0,013
-358,854	140,091	0,108	-0,105
-357,839	-200,000	-0,004	0,183
-356,825	-142,039	-0,105	-0,008
-355,810	-200,000	0,013	0,104
-354,796	-98,607	0,109	0,020
-353,781	-200,000	-0,016	-0,156
-352,766	800,000	-0,043	-0,107
-351,752	177,212	0,087	0,093
-350,737	273,132	0,041	0,054
-349,723	326,186	0,102	0,144
-348,708	-38,737	0,044	0,017
-347,693	495,856	0,029	0,050
-346,679	47,994	-0,047	-0,032
-345,664	81,083	-0,160	-0,127
-344,650	-200,000	0,014	0,173
-343,635	-200,000	-0,025	0,085
-342,620	-65,635	0,015	0,004
-341,606	68,903	0,062	0,047
-340,591	-117,518	-0,116	-0,015
-339,577	395,735	-0,027	-0,042
-338,562	32,130	-0,088	-0,056
-337,548	-134,498	0,111	-0,010
-336,533	-62,344	0,153	0,046
-335,518	-200,000	-0,042	0,194
-334,504	67,402	-0,177	0,132
-333,489	-95,826	0,077	0,015
-332,475	-200,000	-0,012	0,069
-331,460	-159,960	-0,070	0,003
-330,445	-109,447	0,042	0,006
-329,431	800,000	0,044	0,100
-328,416	800,000	0,042	0,089
-327,402	-200,000	0,013	0,218
-326,387	-200,000	-0,005	0,040
-325,372	-173,925	-0,114	0,002
-324,358	728,163	0,076	-0,150
-323,343	331,800	-0,039	0,055
-322,329	318,171	0,041	0,058
-321,314	332,091	-0,047	0,066
-320,299	-200,000	-0,005	0,035
-319,285	-200,000	0,008	-0,037
-318,270	-100,807	0,090	0,016
-317,256	60,688	-0,084	0,061
-316,241	-117,739	0,027	-0,004
-315,226	-83,286	0,086	0,020
-314,212	506,240	0,080	0,137
-313,197	1,299	0,175	-0,092
-312,183	-25,039	-0,099	-0,043
-311,168	230,643	-0,082	-0,099
-310,153	800,000	-0,039	-0,103
-309,139	41,387	-0,104	0,069
-308,124	137,620	-0,074	0,071
-307,110	10,137	0,118	0,066
-306,095	-200,000	-0,006	-0,122
-305,080	-200,000	0,007	0,058
-304,066	334,177	0,056	0,080
-303,051	-28,034	-0,053	0,022
-302,037	-185,956	0,064	0,001
-301,022	-68,064	0,059	0,017
-300,008	60,667	0,059	0,043
-298,993	-18,426	0,013	0,006
-297,978	302,110	-0,051	-0,069
-296,964	-200,000	-0,005	-0,113
-295,949	-200,000	-0,017	-0,139
-294,935	0,018	0,132	-0,068
-293,920	-52,923	0,051	0,017
-292,905	50,095	0,036	0,025
-291,891	-33,667	0,134	-0,054
-290,876	47,686	0,043	0,029
-289,862	314,606	0,007	-0,010
-288,847	46,648	-0,091	-0,062
-287,832	-90,336	0,039	-0,008
-286,818	3,478	-0,108	0,058
-285,803	-19,966	0,100	-0,045
-284,789	800,000	-0,005	0,011
-283,774	120,386	0,033	0,030
-282,759	-61,400	0,050	0,015
-281,745	376,501	-0,050	-0,075
-280,730	84,755	-0,062	-0,050
-279,716	800,000	-0,028	-0,070
-278,701	31,209	-0,049	0,031
-277,686	800,000	-0,076	0,182
-276,672	33,113	-0,021	0,013
-275,657	-200,000	0,021	0,101
-274,643	-200,000	0,001	-0,079
-273,628	-137,070	0,051	0,004
-272,613	-112,891	0,065	0,009
-271,599	12,257	-0,042	0,023
-270,584	473,924	-0,059	0,098
-269,570	79,801	0,087	-0,068
-268,555	800,000	-0,035	-0,077
-267,540	143,071	0,071	-0,069
-266,526	320,776	0,033	0,045
-265,511	-170,281	0,042	-0,001
-264,497	-11,451	-0,038	-0,018
-263,482	-81,373	0,165	-0,039
-262,467	800,000	-0,020	-0,041
-261,453	800,000	0,040	-0,117
-260,438	-54,860	-0,005	-0,002
-259,424	-200,000	-0,014	-0,097
-258,409	-47,334	-0,120	-0,043
-257,395	61,747	0,120	0,087
-256,380	341,297	0,050	-0,072
-255,365	800,000	0,018	-0,048
-254,351	217,813	-0,026	-0,031
-253,336	452,630	0,106	-0,172
-252,322	533,117	-0,040	0,069
-251,307	-200,000	-0,003	0,039
-250,292	5,306	0,088	-0,047
-249,278	85,249	0,082	0,066
-248,263	215,182	-0,043	0,049
-247,249	-34,502	-0,029	-0,012
-246,234	-200,000	-0,034	0,112
-245,219	-37,951	0,038	0,015
-244,205	800,000	0,040	-0,099
-243,190	-4,927	-0,050	0,025
-242,176	-200,000	0,207	-0,000
-241,161	-39,818	-0,035	0,013
-240,146	96,812	-0,070	0,059
-239,132	-200,000	-0,007	-0,081
-238,117	-3,078	-0,142	-0,072
-237,103	524,963	-0,079	-0,137
-236,088	788,355	0,075	-0,150
-235,073	-0,837	-0,063	0,033
-234,059	-100,272	0,092	0,017
-233,044	64,236	0,056	-0,041
-232,030	-175,075	0,079	-0,002
-231,015	-68,776	-0,046	0,013
-230,000	800,000	-0,017	-0,036
-228,986	-132,630	-0,132	-0,012
-227,971	-18,993	-0,020	0,009
-226,957	-146,331	0,142	-0,009
-225,942	3,035	-0,067	0,035
-224,927	34,225	-0,023	-0,014
-223,913	192,579	-0,109	0,120
-222,898	213,852	-0,075	-0,087
-221,884	800,000	0,080	-0,249
-220,869	800,000	0,009	-0,020
-219,855	-200,000	0,012	-0,053
-218,840	-89,242	0,065	0,014
-217,825	282,485	0,060	0,079
-216,811	339,874	-0,013	0,018
-215,796	88,697	0,085	-0,069
-214,782	800,000	-0,068	0,156
-213,767	-200,000	-0,020	-0,205
-212,752	557,025	0,045	0,079
-211,738	527,687	0,034	0,059
-210,723	402,737	-0,059	-0,091
-209,709	208,536	-0,058	-0,066
-208,694	-200,000	0,001	0,099
-207,679	80,949	-0,123	0,097
-206,665	800,000	0,059	0,125
-205,650	355,469	0,080	0,116
-204,636	111,119	-0,047	-0,042
-203,621	448,993	-0,031	0,050
-202,606	523,878	-0,052	-0,089
-201,592	-121,382	-0,041	0,005
-200,577	-200,000	-0,013	0,083
-199,563	95,403	-0,104	-0,086
-198,548	-200,000	0,016	0,077
-197,533	-200,000	-0,012	0,041
-196,519	-200,000	-0,030	-0,196
-195,504	88,447	-0,064	-0,052
-194,490	81,808	-0,046	0,037
-193,475	399,161	-0,131	-0,202
-192,460	11,315	0,004	0,002
-191,446	5,556	-0,044	0,023
-190,431	-5,325	0,154	0,077
-189,417	-27,420	0,108	-0,046
-188,402	232,783	-0,101	-0,121
-187,387	152,622	0,025	-0,025
-186,373	-71,395	-0,080	-0,022
-185,358	-200,000	-0,021	-0,185
-184,344	-116,781	0,128	-0,017
-183,329	726,744	0,029	0,057
-182,315	-65,284	-0,009	-0,003
-181,300	-40,883	0,048	-0,018
-180,285	800,000	-0,038	-0,082
-179,271	-132,984	-0,120	-0,011
-178,256	-200,000	0,005	-0,035
-177,242	-200,000	-0,037	0,157
-176,227	-24,470	0,107	-0,046
-175,212	-97,441	0,019	0,003
-174,198	-200,000	-0,007	0,090
-173,183	32,802	-0,120	-0,075
-172,169	-96,923	-0,101	0,019
-171,154	-49,591	-0,091	0,031
-170,139	-89,228	-0,079	0,017
-169,125	45,314	-0,127	0,085
-168,110	-43,885	0,121	0,044
-167,096	-200,000	-0,001	-0,054
-166,081	238,008	0,034	-0,042
-165,066	800,000	-0,031	0,067
-164,052	-200,000	0,001	-0,040
-163,037	-102,825	-0,083	-0,014
-162,023	-94,215	0,172	0,034
-161,008	-20,919	-0,218	-0,097
-159,993	-93,508	0,051	-0,010
-158,979	-68,119	-0,056	-0,016
-157,964	-149,616	-0,051	-0,003
-156,950	-70,234	-0,019	0,005
-155,935	312,917	0,044	-0,060
-154,920	-200,000	-0,018	-0,083
-153,906	-135,829	0,162	0,014
-152,891	800,000	-0,034	0,088
-151,877	90,616	0,046	0,038
-150,862	-11,972	-0,125	-0,059
-149,847	-200,000	-0,008	0,125
-148,833	-200,000	0,023	0,098
-147,818	276,751	0,051	-0,066
-146,804	-116,184	0,060	-0,008
-145,789	230,306	0,052	-0,062
-144,775	-200,000	0,006	-0,144
-143,760	213,955	-0,165	0,190
-142,745	184,581	0,081	-0,088
-141,731	800,000	-0,031	0,063
-140,716	227,812	-0,049	-0,058
-139,702	178,477	0,035	-0,037
-138,687	304,402	0,081	0,109
-137,672	-88,611	-0,002	0,000
-136,658	-200,000	0,017	0,067
-135,643	-156,278	-0,081	-0,004
-134,629	-19,514	0,093	0,042
-133,614	-111,343	0,127	0,019
-132,599	-200,000	-0,013	-0,058
-131,585	-38,865	0,091	0,035
-130,570	-200,000	0,004	-0,069
-129,556	800,000	-0,036	-0,101
-128,541	-45,369	-0,068	-0,024
-127,526	-62,237	-0,085	0,026
-126,512	-200,000	0,000	-0,067
-125,497	276,473	0,029	0,038
-124,483	39,769	-0,032	0,021
-123,468	800,000	0,076	-0,165
-122,453	800,000	-0,030	-0,068
-121,439	-200,000	0,001	-0,037
-120,424	-106,549	0,105	0,017
-119,410	-52,325	0,046	-0,015
-118,395	31,990	0,064	0,040
