DTS Sentinel unit serial number:	SN410029Multiplexer serial number:	ORYXHardware model number:	OX2-SRSoftware version number:	ORYX F/W v4,00 Oryx Data Collector v3.7.2.0data status	okinstallation	B4 Nyhavnadifferential loss correction	single-endedforward channel	channel 2reverse channel	N/Adate	2023/12/16time	04:40:13forward acquisition time	300,00reverse acquisition time	0,00gamma	499,1914k internal	0,3128k external	0,3128temperature offset calibration	1,0000default loss term (dB/km)	0,3820temperature slope calibration	1,0000multiplexer offset coefficient	1,0000multiplexer slope coefficient	1,0000fibre end	0,00T internal ref (°C)	22,00T ext. ref 1 (°C)	7,19T ext. ref 2 (°C)	7,39length (m)	temperature (°C)	Stokes	anti-Stokes-744,400	46,453	0,059	0,041
-743,385	-111,318	-0,205	-0,031
-742,371	-3,937	0,051	0,026
-741,356	277,475	-0,046	0,061
-740,342	800,000	0,039	-0,084
-739,327	-87,641	-0,182	0,041
-738,312	-200,000	-0,002	0,018
-737,298	-153,114	-0,198	0,010
-736,283	165,812	0,071	0,075
-735,269	9,630	-0,212	0,119
-734,254	74,793	0,083	-0,065
-733,239	-60,071	-0,319	-0,101
-732,225	-113,140	0,186	0,027
-731,210	-68,608	-0,109	0,031
-730,196	493,348	-0,048	-0,082
-729,181	152,024	-0,069	-0,070
-728,167	-25,584	0,147	-0,064
-727,152	-187,562	0,035	0,000
-726,137	342,443	-0,018	-0,026
-725,123	442,206	0,067	-0,109
-724,108	-42,099	-0,151	-0,057
-723,094	12,075	-0,093	0,053
-722,079	-76,150	-0,051	0,013
-721,064	-119,293	0,039	-0,005
-720,050	-200,000	-0,016	-0,095
-719,035	377,197	0,009	0,014
-718,021	143,384	-0,138	-0,136
-717,006	-200,000	-0,008	-0,031
-715,991	146,684	-0,092	-0,092
-714,977	-65,764	-0,147	-0,043
-713,962	800,000	0,026	-0,068
-712,948	-200,000	0,056	0,251
-711,933	701,054	-0,059	0,115
-710,918	-70,511	-0,113	-0,032
-709,904	-200,000	0,012	-0,079
-708,889	800,000	-0,081	-0,242
-707,875	-200,000	0,030	-0,191
-706,860	-158,012	0,032	-0,001
-705,845	-200,000	-0,009	-0,062
-704,831	508,847	0,025	0,044
-703,816	-3,421	0,118	-0,061
-702,802	-200,000	-0,011	0,086
-701,787	-51,647	-0,064	-0,022
-700,772	118,030	0,030	0,028
-699,758	800,000	-0,102	0,255
-698,743	-153,716	0,045	-0,002
-697,729	549,573	-0,022	-0,039
-696,714	-200,000	0,023	0,103
-695,699	-78,410	-0,087	0,022
-694,685	126,272	-0,094	-0,088
-693,670	139,078	-0,105	-0,103
-692,656	-128,302	0,119	-0,012
-691,641	800,000	-0,038	0,103
-690,627	167,957	-0,048	0,051
-689,612	-51,926	0,063	-0,022
-688,597	3,374	-0,101	-0,055
-687,583	-89,010	0,080	0,018
-686,568	195,469	-0,096	-0,109
-685,554	-111,825	-0,117	0,017
-684,539	-1,657	0,150	0,078
-683,524	800,000	-0,016	0,034
-682,510	800,000	0,011	0,025
-681,495	88,325	-0,040	-0,033
-680,481	541,719	-0,096	-0,171
-679,466	-145,207	0,032	0,002
-678,451	-72,829	0,093	-0,025
-677,437	633,388	-0,052	-0,099
-676,422	-127,820	-0,045	0,005
-675,408	-200,000	-0,035	0,148
-674,393	-71,223	0,085	0,023
-673,378	7,852	0,049	0,027
-672,364	-200,000	-0,120	0,000
-671,349	800,000	0,028	-0,067
-670,335	-67,397	0,020	0,006
-669,320	800,000	-0,028	0,064
-668,305	-200,000	0,006	0,121
-667,291	-200,000	0,016	-0,084
-666,276	-109,766	-0,076	-0,012
-665,262	69,103	-0,105	-0,080
-664,247	16,105	-0,080	-0,047
-663,232	-16,678	-0,065	0,031
-662,218	-167,823	0,154	-0,004
-661,203	124,458	0,045	-0,042
-660,189	725,316	0,045	-0,090
-659,174	800,000	-0,083	0,172
-658,159	21,094	-0,144	-0,087
-657,145	800,000	-0,031	0,069
-656,130	371,972	-0,082	-0,123
-655,116	800,000	0,034	-0,104
-654,101	-200,000	0,001	0,035
-653,086	22,419	0,074	0,045
-652,072	-56,825	-0,055	-0,018
-651,057	139,396	-0,056	-0,055
-650,043	-29,880	-0,184	-0,077
-649,028	-43,966	-0,119	-0,044
-648,014	67,136	0,093	-0,071
-646,999	122,322	-0,096	-0,089
-645,984	109,029	0,042	-0,037
-644,970	-77,185	-0,081	0,021
-643,955	-22,780	0,116	0,052
-642,941	-49,175	-0,064	-0,023
-641,926	-200,000	0,004	-0,084
-640,911	-1,545	-0,068	-0,035
-639,897	-119,273	0,105	-0,013
-638,882	-200,000	-0,006	-0,041
-637,868	-89,193	0,043	0,009
-636,853	-200,000	0,000	0,034
-635,838	221,974	-0,212	-0,254
-634,824	-140,710	-0,049	0,004
-633,809	10,748	-0,075	-0,042
-632,795	527,857	0,029	0,051
-631,780	800,000	0,024	-0,057
-630,765	116,030	-0,108	0,098
-629,751	64,980	-0,098	-0,073
-628,736	559,926	0,056	-0,100
-627,722	58,888	0,051	0,037
-626,707	-146,187	-0,130	0,008
-625,692	300,798	0,056	0,077
-624,678	393,821	0,021	-0,033
-623,663	12,596	-0,101	-0,057
-622,649	-119,562	-0,149	-0,019
-621,634	800,000	-0,011	-0,030
-620,619	-128,324	-0,213	-0,022
-619,605	800,000	-0,061	-0,170
-618,590	143,791	0,155	0,153
-617,576	-8,446	-0,043	0,021
-616,561	-200,000	-0,009	0,080
-615,546	80,489	-0,120	-0,096
-614,532	800,000	-0,040	-0,088
-613,517	15,059	-0,073	-0,042
-612,503	-200,000	-0,004	0,150
-611,488	-200,000	-0,019	0,140
-610,474	-200,000	0,004	0,147
-609,459	58,688	-0,039	-0,028
-608,444	741,104	0,040	-0,080
-607,430	-65,763	-0,076	0,022
-606,415	-200,000	-0,031	-0,251
-605,401	161,683	0,079	-0,082
-604,386	-200,000	-0,036	0,124
-603,371	-154,491	0,102	0,005
-602,357	159,670	0,084	0,086
-601,342	236,836	-0,106	0,131
-600,328	-200,000	-0,028	-0,102
-599,313	150,169	0,048	-0,049
-598,298	-200,000	-0,003	0,060
-597,284	63,631	-0,077	0,057
-596,269	800,000	0,028	0,077
-595,255	-83,258	0,044	0,010
-594,240	-200,000	0,017	-0,078
-593,225	-33,513	-0,082	-0,033
-592,211	-161,256	-0,124	0,005
-591,196	-93,919	-0,055	0,011
-590,182	27,396	0,108	-0,067
-589,167	389,777	0,045	0,069
-588,152	34,938	0,091	0,059
-587,138	12,160	-0,201	-0,114
-586,123	-200,000	0,003	0,023
-585,109	-61,107	0,121	-0,038
-584,094	-44,814	-0,145	-0,053
-583,079	-76,344	0,031	0,008
-582,065	-59,759	-0,170	0,053
-581,050	-83,360	0,131	0,031
-580,036	527,274	-0,030	-0,052
-579,021	137,090	-0,040	-0,039
-578,006	-200,000	0,022	-0,080
-576,992	-200,000	-0,001	0,109
-575,977	187,672	0,042	-0,046
-574,963	-200,000	0,009	0,058
-573,948	119,715	-0,163	-0,149
-572,934	416,569	0,078	0,124
-571,919	384,398	-0,061	-0,093
-570,904	146,090	-0,075	-0,074
-569,890	-120,493	0,063	-0,008
-568,875	-22,369	0,104	0,047
-567,861	-28,566	0,045	0,019
-566,846	-200,000	0,007	-0,069
-565,831	193,091	-0,013	-0,015
-564,817	-141,356	-0,083	0,006
-563,802	19,448	0,131	-0,078
-562,788	135,935	-0,094	0,091
-561,773	-200,000	-0,002	0,062
-560,758	-137,254	0,070	0,006
-559,744	-141,497	0,042	0,003
-558,729	-200,000	0,015	0,124
-557,715	71,119	-0,061	-0,047
-556,700	524,093	0,027	0,047
-555,685	442,101	0,025	0,041
-554,671	-7,843	-0,061	-0,030
-553,656	-83,946	0,085	-0,020
-552,642	-200,000	0,029	0,097
-551,627	-15,441	-0,028	-0,013
-550,612	53,309	0,044	-0,031
-549,598	-78,607	-0,107	-0,027
-548,583	-152,867	0,057	-0,003
-547,569	92,840	0,093	0,078
-546,554	144,629	0,065	0,064
-545,539	-200,000	0,002	0,029
-544,525	14,869	-0,072	0,042
-543,510	157,819	-0,103	-0,105
-542,496	-138,324	0,036	0,003
-541,481	217,220	0,068	-0,080
-540,466	35,127	0,056	-0,036
-539,452	145,583	-0,026	0,026
-538,437	18,784	0,171	0,101
-537,423	-200,000	-0,005	0,082
-536,408	212,635	-0,041	-0,047
-535,393	-71,349	0,121	0,033
-534,379	800,000	0,039	0,091
-533,364	107,990	-0,052	0,046
-532,350	-48,209	-0,057	0,020
-531,335	-141,496	-0,125	0,009
-530,321	191,206	-0,071	-0,079
-529,306	325,174	-0,061	-0,086
-528,291	61,643	0,062	-0,045
-527,277	-15,408	-0,132	0,062
-526,262	176,439	0,044	-0,048
-525,248	-200,000	0,016	0,073
-524,233	-104,653	0,226	0,038
-523,218	301,672	0,056	0,077
-522,204	-66,431	-0,048	0,014
-521,189	94,647	0,077	-0,065
-520,175	151,137	-0,088	-0,089
-519,160	800,000	-0,035	-0,090
-518,145	51,423	0,075	-0,053
-517,131	143,730	0,024	0,024
-516,116	-200,000	-0,004	0,043
-515,102	-33,387	0,074	-0,030
-514,087	-200,000	-0,013	-0,093
-513,072	-200,000	-0,017	-0,174
-512,058	-200,000	-0,033	-0,139
-511,043	-126,547	0,152	-0,016
-510,029	339,686	-0,055	-0,079
-509,014	-200,000	0,000	-0,011
-507,999	0,893	0,136	0,072
-506,985	-49,687	-0,069	0,024
-505,970	32,195	-0,062	-0,039
-504,956	592,776	-0,108	-0,197
-503,941	571,379	0,024	-0,043
-502,926	-71,173	0,089	-0,024
-501,912	209,198	0,019	-0,022
-500,897	265,008	-0,099	-0,128
-499,883	675,221	0,023	0,044
-498,868	800,000	0,029	-0,070
-497,853	200,277	-0,051	-0,058
-496,839	66,791	-0,051	0,039
-495,824	144,750	-0,137	0,135
-494,810	-68,039	0,125	0,036
-493,795	393,918	0,065	0,100
-492,781	45,371	-0,057	0,039
-491,766	-200,000	0,026	0,183
-490,751	-141,672	-0,069	-0,005
-489,737	-200,000	-0,023	-0,098
-488,722	12,838	-0,015	-0,009
-487,708	-91,513	0,168	-0,035
-486,693	-29,842	0,108	-0,045
-485,678	216,959	-0,160	-0,188
-484,664	-10,319	0,051	0,025
-483,649	588,284	-0,054	0,099
-482,635	-111,037	-0,046	0,007
-481,620	-200,000	0,013	0,183
-480,605	800,000	-0,055	0,127
-479,591	-163,210	0,106	-0,004
-478,576	278,480	-0,069	-0,091
-477,562	-200,000	0,050	0,000
-476,547	-200,000	-0,009	-0,104
-475,532	800,000	-0,022	-0,057
-474,518	389,190	-0,000	0,000
-473,503	50,000	0,008	0,005
-472,489	90,608	0,154	0,127
-471,474	73,495	0,028	0,022
-470,459	-200,000	-0,015	-0,065
-469,445	13,104	0,049	-0,028
-468,430	-200,000	0,027	0,109
-467,416	-200,000	-0,004	0,105
-466,401	-200,000	0,000	-0,059
-465,386	-200,000	-0,018	0,111
-464,372	37,595	0,047	0,030
-463,357	36,149	0,036	-0,024
-462,343	800,000	-0,062	0,135
-461,328	-200,000	-0,040	0,186
-460,313	-200,000	0,007	-0,061
-459,299	-200,000	0,004	-0,045
-458,284	539,052	0,074	0,130
-457,270	79,581	0,089	0,071
-456,255	-200,000	-0,004	-0,060
-455,241	335,866	0,011	-0,015
-454,226	14,308	-0,084	-0,048
-453,211	-200,000	0,004	-0,209
-452,197	-122,452	-0,029	-0,003
-451,182	-122,321	-0,042	0,005
-450,168	800,000	0,058	0,133
-449,153	800,000	0,048	-0,118
-448,138	800,000	-0,016	-0,038
-447,124	74,742	-0,037	0,029
-446,109	341,629	0,056	0,080
-445,095	113,051	-0,093	0,083
-444,080	-61,883	0,009	0,003
-443,065	-200,000	0,007	-0,048
-442,051	-200,000	-0,034	-0,158
-441,036	42,386	-0,132	-0,088
-440,022	800,000	-0,017	-0,039
-439,007	-130,689	0,150	-0,015
-437,992	146,998	-0,026	0,026
-436,978	108,442	0,097	0,085
-435,963	-19,553	0,085	0,039
-434,949	800,000	-0,030	-0,080
-433,934	3,100	0,105	-0,056
-432,919	-200,000	0,012	0,064
-431,905	163,720	-0,075	0,077
-430,890	25,759	0,112	0,068
-429,876	1,720	-0,040	0,021
-428,861	-37,899	-0,056	-0,022
-427,846	788,547	-0,041	-0,084
-426,832	-200,000	0,016	-0,059
-425,817	800,000	-0,037	-0,082
-424,803	199,665	0,070	-0,079
-423,788	-149,158	-0,147	-0,008
-422,773	-200,000	-0,013	0,090
-421,759	723,334	0,054	0,106
-420,744	800,000	-0,032	-0,079
-419,730	800,000	0,020	-0,060
-418,715	800,000	-0,018	-0,045
-417,701	-71,557	0,066	-0,018
-416,686	-72,771	0,082	-0,022
-415,671	-8,988	0,101	0,050
-414,657	290,908	0,028	0,037
-413,642	220,936	-0,061	-0,072
-412,628	-109,753	0,071	0,011
-411,613	22,674	-0,082	-0,049
-410,598	170,049	0,113	-0,119
-409,584	0,495	0,069	0,036
-408,569	-50,535	0,129	-0,045
-407,555	800,000	0,008	-0,023
-406,540	-200,000	0,008	-0,153
-405,525	568,225	-0,036	0,065
-404,511	57,161	-0,042	0,030
-403,496	-200,000	-0,012	0,048
-402,482	-200,000	-0,016	0,069
-401,467	33,758	0,048	-0,030
-400,452	621,852	0,037	-0,069
-399,438	-200,000	0,011	-0,094
-398,423	-12,584	-0,103	-0,049
-397,409	114,923	0,035	0,031
-396,394	-51,991	0,085	-0,029
-395,379	-77,059	-0,178	0,045
-394,365	-11,113	0,075	0,036
-393,350	-0,363	0,137	0,071
-392,336	72,360	-0,089	-0,068
-391,321	-200,000	0,014	0,104
-390,306	-200,000	-0,016	0,078
-389,292	-20,497	0,108	0,049
-388,277	221,968	0,053	-0,062
-387,263	-19,531	0,190	-0,086
-386,248	-10,344	-0,108	0,052
-385,233	-28,705	-0,058	0,025
-384,219	99,358	-0,034	-0,029
-383,204	-124,386	-0,092	0,010
-382,190	-200,000	-0,015	-0,125
-381,175	29,463	0,075	-0,046
-380,160	238,735	-0,016	-0,019
-379,146	625,591	-0,036	0,067
-378,131	800,000	-0,041	-0,115
-377,117	-119,606	-0,071	0,009
-376,102	-42,100	0,038	0,014
-375,088	-200,000	0,017	-0,057
-374,073	380,437	-0,024	-0,036
-373,058	2,611	0,119	-0,063
-372,044	177,078	-0,048	-0,051
-371,029	181,198	-0,052	0,057
-370,015	-90,837	0,165	0,035
-369,000	135,168	0,041	-0,039
-367,985	-80,599	0,079	0,019
-366,971	-200,000	0,092	0,000
-365,956	67,450	0,091	-0,068
-364,942	-104,716	0,087	0,015
-363,927	-78,829	0,085	-0,021
-362,912	119,311	-0,122	0,111
-361,898	84,663	-0,082	-0,065
-360,883	587,694	0,044	-0,079
-359,869	800,000	-0,029	-0,076
-358,854	-200,000	-0,012	0,101
-357,839	-3,930	-0,036	-0,018
-356,825	178,693	0,080	0,085
-355,810	487,495	-0,056	-0,094
-354,796	105,099	0,025	0,021
-353,781	-13,488	0,081	-0,038
-352,766	472,281	-0,070	-0,117
-351,752	-16,194	0,054	-0,025
-350,737	800,000	0,045	0,104
-349,723	-84,350	0,099	0,023
-348,708	590,225	0,030	0,055
-347,693	213,520	0,024	-0,028
-346,679	562,753	-0,102	-0,182
-345,664	800,000	0,083	-0,188
-344,650	-166,876	0,024	-0,001
-343,635	-198,427	0,162	0,001
-342,620	251,294	-0,048	-0,060
-341,606	244,075	-0,081	0,100
-340,591	800,000	0,043	-0,130
-339,577	-123,921	-0,092	0,010
-338,562	-200,000	0,022	-0,100
-337,548	-26,748	0,112	-0,048
-336,533	39,665	0,018	-0,012
-335,518	-200,000	0,048	0,178
-334,504	-124,477	0,086	0,010
-333,489	70,230	-0,089	-0,067
-332,475	260,760	-0,068	0,086
-331,460	-135,791	0,177	-0,015
-330,445	240,750	-0,064	0,079
-329,431	-25,776	0,178	-0,077
-328,416	-200,000	-0,003	-0,064
-327,402	-200,000	-0,007	0,144
-326,387	800,000	0,054	0,115
-325,372	627,810	-0,097	0,180
-324,358	-111,089	-0,085	-0,013
-323,343	162,312	-0,122	0,125
-322,329	-102,173	0,145	0,025
-321,314	193,963	-0,078	0,087
-320,299	-8,724	0,098	0,048
-319,285	800,000	-0,029	0,086
-318,270	122,186	-0,037	-0,034
-317,256	-53,246	-0,167	-0,056
-316,241	-140,153	0,138	-0,010
-315,226	229,661	0,110	0,131
-314,212	583,098	0,067	0,121
-313,197	128,981	-0,124	0,116
-312,183	225,785	-0,044	0,052
-311,168	-200,000	0,010	-0,050
-310,153	36,958	0,073	0,047
-309,139	231,362	-0,057	-0,068
-308,124	93,075	0,027	-0,022
-307,110	-17,880	0,062	0,029
-306,095	-200,000	0,039	0,185
-305,080	-112,692	-0,047	0,007
-304,066	-200,000	0,012	0,060
-303,051	-143,374	-0,120	-0,008
-302,037	-54,674	0,042	-0,014
-301,022	488,248	0,040	-0,067
-300,008	-200,000	0,002	0,134
-298,993	207,643	-0,036	0,041
-297,978	726,037	-0,028	0,054
-296,964	664,213	-0,053	-0,100
-295,949	94,075	-0,085	0,071
-294,935	-80,888	-0,139	0,033
-293,920	-55,078	-0,028	0,009
-292,905	800,000	-0,015	0,039
-291,891	50,833	-0,090	0,062
-290,876	-200,000	0,009	0,051
-289,862	-25,112	-0,065	0,028
-288,847	687,588	-0,040	-0,077
-287,832	-96,393	0,083	0,016
-286,818	800,000	0,038	-0,078
-285,803	150,746	-0,046	0,046
-284,789	-19,566	-0,166	0,075
-283,774	-102,038	0,083	0,015
-282,759	251,308	-0,024	-0,030
-281,745	-85,412	0,166	-0,038
-280,730	-200,000	-0,028	-0,091
-279,716	-8,539	-0,104	-0,051
-278,701	-200,000	0,002	-0,012
-277,686	36,581	-0,013	0,009
-276,672	-4,326	0,104	0,052
-275,657	276,313	0,065	-0,084
-274,643	104,898	-0,067	-0,057
-273,628	202,728	-0,062	-0,070
-272,613	354,405	0,083	-0,121
-271,599	-200,000	0,016	0,124
-270,584	-134,453	-0,084	-0,007
-269,570	86,900	0,057	0,046
-268,555	-150,075	-0,104	-0,006
-267,540	107,426	0,032	0,028
-266,526	800,000	0,044	-0,090
-265,511	-200,000	-0,028	-0,097
-264,497	-140,948	-0,014	-0,001
-263,482	79,084	0,039	0,031
-262,467	93,807	0,101	0,084
-261,453	334,845	-0,058	-0,083
-260,438	378,539	-0,036	0,054
-259,424	-68,694	0,146	-0,041
-258,409	800,000	0,010	-0,032
-257,395	-200,000	-0,001	-0,021
-256,380	800,000	0,090	0,183
-255,365	-200,000	-0,026	0,111
-254,351	422,042	0,043	0,068
-253,336	502,436	-0,012	-0,021
-252,322	-200,000	0,005	0,113
-251,307	207,535	0,059	-0,068
-250,292	-200,000	0,027	0,115
-249,278	800,000	-0,069	-0,163
-248,263	800,000	0,015	0,042
-247,249	-200,000	-0,035	0,140
-246,234	-200,000	0,011	0,069
-245,219	137,081	0,030	-0,028
-244,205	-166,825	-0,092	0,003
-243,190	732,100	-0,059	0,117
-242,176	3,162	0,125	0,066
-241,161	-200,000	-0,012	-0,095
-240,146	503,695	0,032	0,054
-239,132	-5,465	-0,130	0,065
-238,117	93,035	0,034	0,028
-237,103	-200,000	0,001	0,064
-236,088	-200,000	0,002	-0,155
-235,073	-51,628	-0,063	-0,021
-234,059	-45,582	-0,058	0,021
-233,044	-55,639	0,170	-0,055
-232,030	-163,398	-0,019	0,001
-231,015	-200,000	0,029	-0,197
-230,000	569,483	-0,008	-0,014
-228,986	-199,167	0,012	0,000
-227,971	-51,994	0,078	-0,026
-226,957	-54,194	0,045	0,015
-225,942	-39,825	0,073	-0,028
-224,927	50,937	-0,071	0,049
-223,913	800,000	-0,013	-0,040
-222,898	-200,000	-0,006	-0,090
-221,884	-69,831	-0,121	-0,033
-220,869	28,640	0,108	0,066
-219,855	-128,141	-0,040	-0,004
-218,840	-200,000	0,002	0,016
-217,825	-149,295	0,047	-0,003
-216,811	-200,000	0,000	-0,072
-215,796	800,000	-0,034	-0,097
-214,782	-54,740	-0,098	-0,032
-213,767	250,864	0,022	-0,028
-212,752	58,060	-0,093	0,067
-211,738	800,000	0,041	0,114
-210,723	105,360	-0,088	0,076
-209,709	-52,394	-0,069	0,023
-208,694	-142,403	-0,011	0,001
-207,679	686,470	-0,054	0,103
-206,665	-200,000	0,029	-0,182
-205,650	124,518	0,044	0,040
-204,636	-93,384	0,178	0,036
-203,621	-106,487	-0,113	-0,018
-202,606	-200,000	-0,004	0,058
-201,592	-9,184	-0,113	-0,055
-200,577	-37,367	0,100	0,039
-199,563	257,565	-0,069	0,086
-198,548	679,216	-0,043	0,083
-197,533	178,521	-0,046	-0,049
-196,519	10,999	0,074	-0,041
-195,504	-200,000	0,008	0,044
-194,490	419,970	0,050	-0,079
-193,475	800,000	0,060	0,146
-192,460	120,175	-0,035	-0,032
-191,446	-31,529	-0,034	0,014
-190,431	800,000	-0,046	0,094
-189,417	107,342	-0,033	0,029
-188,402	619,866	0,018	-0,033
-187,387	-80,874	0,088	0,021
-186,373	143,616	-0,133	-0,129
-185,358	800,000	0,019	0,044
-184,344	-74,935	0,061	0,016
-183,329	97,900	-0,019	0,016
-182,315	-83,383	-0,088	0,020
-181,300	-55,407	-0,150	0,049
-180,285	-80,597	-0,055	0,013
-179,271	-104,280	-0,170	-0,028
-178,256	-200,000	-0,030	-0,099
-177,242	-200,000	0,017	0,132
-176,227	-200,000	0,043	0,150
-175,212	168,127	-0,049	-0,051
-174,198	-70,169	-0,082	0,022
-173,183	-200,000	-0,003	-0,030
-172,169	220,350	0,025	0,029
-171,154	345,398	-0,018	0,025
-170,139	-200,000	0,003	-0,042
-169,125	-184,274	-0,075	0,001
-168,110	33,368	0,080	-0,050
-167,096	-200,000	-0,007	0,041
-166,081	157,438	-0,037	-0,037
-165,066	234,698	-0,040	-0,048
-164,052	-107,907	0,159	0,025
-163,037	-25,071	0,057	0,025
-162,023	54,650	0,084	0,059
-161,008	137,247	0,044	0,042
-159,993	231,332	0,068	0,081
-158,979	-68,281	-0,199	-0,056
-157,964	-36,077	-0,074	0,029
-156,950	-34,626	0,066	-0,026
-155,935	800,000	0,027	-0,063
-154,920	-76,089	0,135	-0,034
-153,906	194,029	-0,026	0,028
-152,891	438,409	-0,054	0,086
-151,877	354,118	-0,103	-0,149
-150,862	-38,928	0,096	-0,036
-149,847	166,347	-0,020	-0,020
-148,833	-118,005	0,060	0,008
-147,818	32,526	0,078	-0,049
-146,804	187,775	-0,082	-0,089
-145,789	446,273	-0,044	0,070
-144,775	-200,000	0,002	0,012
-143,760	-60,117	0,113	0,035
-142,745	-200,000	-0,013	0,154
-141,731	-69,612	0,119	-0,033
-140,716	-169,013	0,109	-0,003
-139,702	-142,886	0,098	0,007
-138,687	-103,264	-0,090	-0,015
-137,672	118,863	-0,054	-0,049
-136,658	-200,000	0,003	-0,042
-135,643	134,801	-0,064	0,061
-134,629	-28,277	0,087	-0,036
-133,614	-106,745	-0,038	-0,006
-132,599	3,410	-0,048	-0,025
-131,585	800,000	0,017	0,053
-130,570	641,614	-0,042	0,079
-129,556	-60,636	0,153	0,047
-128,541	90,243	0,008	0,006
-127,526	-200,000	0,026	-0,116
-126,512	434,124	0,019	0,031
-125,497	394,831	-0,068	0,103
-124,483	36,961	-0,058	-0,037
-123,468	-94,975	-0,065	0,013
-122,453	-77,188	-0,110	-0,028
-121,439	-122,967	0,030	-0,004
-120,424	285,356	0,037	-0,049
-119,410	800,000	-0,017	0,042
-118,395	436,799	-0,072	0,114
