DTS Sentinel unit serial number:	SN410029Multiplexer serial number:	ORYXHardware model number:	OX2-SRSoftware version number:	ORYX F/W v4,00 Oryx Data Collector v3.7.2.0data status	okinstallation	B4 Nyhavnadifferential loss correction	single-endedforward channel	channel 2reverse channel	N/Adate	2023/12/18time	18:15:13forward acquisition time	300,00reverse acquisition time	0,00gamma	499,1914k internal	0,3124k external	0,3124temperature offset calibration	1,0000default loss term (dB/km)	0,3820temperature slope calibration	1,0000multiplexer offset coefficient	1,0000multiplexer slope coefficient	1,0000fibre end	0,00T internal ref (°C)	21,92T ext. ref 1 (°C)	7,18T ext. ref 2 (°C)	7,20length (m)	temperature (°C)	Stokes	anti-Stokes-744,400	-46,116	-0,164	-0,060
-743,385	39,140	-0,232	0,154
-742,371	-200,000	-0,003	-0,042
-741,356	-103,657	-0,167	0,029
-740,342	-200,000	0,001	-0,014
-739,327	0,659	-0,167	0,089
-738,312	380,022	0,058	-0,090
-737,298	-86,113	-0,288	0,066
-736,283	34,738	0,181	-0,117
-735,269	162,548	-0,130	0,136
-734,254	11,644	0,103	-0,059
-733,239	-133,197	-0,239	0,022
-732,225	223,735	0,047	-0,057
-731,210	-45,088	-0,030	0,011
-730,196	-200,000	0,007	0,063
-729,181	399,657	-0,078	-0,122
-728,167	-200,000	-0,004	-0,049
-727,152	-200,000	-0,011	0,175
-726,137	-25,928	-0,105	0,046
-725,123	800,000	0,033	-0,070
-724,108	800,000	0,064	-0,162
-723,094	-200,000	-0,005	0,022
-722,079	623,545	-0,073	-0,138
-721,064	-200,000	0,037	-0,166
-720,050	800,000	-0,048	0,142
-719,035	-162,215	0,056	0,002
-718,021	-63,031	0,098	0,030
-717,006	207,174	-0,072	-0,084
-715,991	-200,000	-0,004	-0,064
-714,977	-65,775	-0,178	-0,053
-713,962	800,000	-0,050	0,108
-712,948	-200,000	0,005	-0,055
-711,933	258,685	-0,032	0,041
-710,918	-153,528	0,085	-0,004
-709,904	-200,000	0,020	-0,175
-708,889	80,323	0,048	0,039
-707,875	539,169	-0,032	0,058
-706,860	223,516	-0,033	0,039
-705,845	-200,000	0,002	0,074
-704,831	-60,174	0,034	-0,011
-703,816	-187,657	0,077	0,001
-702,802	-200,000	-0,008	-0,211
-701,787	587,063	-0,075	-0,137
-700,772	157,327	-0,130	-0,134
-699,758	800,000	-0,019	0,043
-698,743	19,076	0,040	-0,024
-697,729	800,000	0,019	-0,057
-696,714	50,431	0,113	0,080
-695,699	800,000	0,004	0,011
-694,685	259,452	-0,065	0,084
-693,670	-200,000	0,020	0,078
-692,656	-200,000	-0,011	-0,229
-691,641	460,379	-0,051	0,084
-690,627	68,181	-0,113	0,086
-689,612	-17,884	0,019	0,009
-688,597	23,604	0,082	0,050
-687,583	-78,022	0,092	-0,023
-686,568	-200,000	-0,009	-0,060
-685,554	232,851	0,063	-0,077
-684,539	800,000	0,035	-0,081
-683,524	2,147	0,017	0,009
-682,510	-160,654	0,164	-0,006
-681,495	139,715	-0,128	0,125
-680,481	-200,000	-0,012	-0,062
-679,466	10,997	-0,070	0,040
-678,451	174,301	0,042	-0,046
-677,437	241,391	-0,032	-0,039
-676,422	147,072	0,112	0,112
-675,408	-56,548	-0,045	0,015
-674,393	-77,185	-0,030	-0,008
-673,378	129,232	-0,056	-0,053
-672,364	254,250	0,066	-0,084
-671,349	25,552	-0,118	0,073
-670,335	-200,000	0,000	-0,034
-669,320	-113,426	0,042	0,006
-668,305	438,604	-0,024	0,039
-667,291	-122,998	-0,092	0,011
-666,276	-51,324	-0,100	0,035
-665,262	800,000	-0,029	0,064
-664,247	-99,581	0,157	-0,029
-663,232	103,428	-0,070	-0,061
-662,218	800,000	-0,012	0,032
-661,203	800,000	0,061	0,151
-660,189	800,000	-0,070	0,146
-659,174	224,734	-0,041	0,049
-658,159	223,067	0,063	-0,075
-657,145	477,679	0,004	0,007
-656,130	-69,118	-0,171	0,049
-655,116	335,109	-0,028	0,041
-654,101	-11,802	0,107	0,052
-653,086	800,000	-0,043	-0,091
-652,072	-45,730	-0,085	0,031
-651,057	-77,600	-0,138	-0,035
-650,043	-1,231	0,044	-0,023
-649,028	-94,974	-0,195	-0,039
-648,014	222,092	0,095	0,114
-646,999	-155,745	0,077	-0,004
-645,984	800,000	0,015	0,048
-644,970	327,961	-0,086	-0,122
-643,955	-200,000	0,019	-0,136
-642,941	800,000	-0,016	-0,050
-641,926	38,116	-0,133	0,088
-640,911	-200,000	0,029	0,149
-639,897	61,358	-0,029	0,021
-638,882	800,000	-0,007	-0,017
-637,868	-200,000	0,014	-0,086
-636,853	79,100	-0,134	-0,106
-635,838	316,646	0,068	-0,095
-634,824	800,000	0,016	-0,038
-633,809	800,000	0,043	0,093
-632,795	282,240	0,074	-0,098
-631,780	-200,000	-0,039	0,150
-630,765	-200,000	0,004	0,178
-629,751	-26,640	-0,019	-0,008
-628,736	-200,000	-0,021	-0,156
-627,722	76,122	-0,016	0,013
-626,707	-93,772	-0,093	0,019
-625,692	2,465	-0,011	0,006
-624,678	190,129	-0,041	0,046
-623,663	-74,010	-0,070	0,019
-622,649	-200,000	-0,004	-0,040
-621,634	-38,188	-0,126	-0,049
-620,619	96,234	-0,068	-0,057
-619,605	2,705	0,002	0,001
-618,590	55,316	0,078	0,056
-617,576	105,475	0,071	0,062
-616,561	-92,998	-0,070	0,014
-615,546	471,960	0,078	-0,131
-614,532	30,164	-0,056	-0,035
-613,517	-147,837	-0,099	0,006
-612,503	-200,000	0,003	-0,112
-611,488	-66,126	-0,039	-0,012
-610,474	-29,509	0,047	-0,020
-609,459	326,060	0,012	0,017
-608,444	68,766	-0,037	0,028
-607,430	800,000	0,050	-0,161
-606,415	800,000	-0,062	0,140
-605,401	-150,428	-0,071	-0,004
-604,386	68,528	-0,075	0,057
-603,371	800,000	0,014	-0,035
-602,357	341,083	0,024	-0,035
-601,342	-200,000	-0,000	-0,018
-600,328	-10,214	-0,084	-0,041
-599,313	332,966	0,062	-0,088
-598,298	6,328	-0,075	-0,041
-597,284	-200,000	-0,006	-0,049
-596,269	263,855	0,080	0,104
-595,255	-73,675	-0,058	0,015
-594,240	332,135	0,085	-0,121
-593,225	-200,000	0,016	-0,090
-592,211	226,076	-0,064	-0,078
-591,196	237,375	-0,031	0,038
-590,182	46,018	0,165	0,113
-589,167	800,000	0,058	0,168
-588,152	-88,875	0,188	-0,041
-587,138	-200,000	-0,033	0,139
-586,123	800,000	-0,068	-0,187
-585,109	800,000	-0,033	0,081
-584,094	-141,650	-0,115	-0,008
-583,079	116,780	0,024	-0,022
-582,065	-62,789	0,139	-0,042
-581,050	187,916	-0,051	0,056
-580,036	-200,000	-0,002	0,048
-579,021	124,570	0,044	0,041
-578,006	306,220	-0,048	0,066
-576,992	-200,000	-0,025	-0,084
-575,977	31,826	-0,025	0,016
-574,963	-84,539	-0,061	-0,014
-573,948	-200,000	0,016	-0,150
-572,934	285,818	-0,025	0,033
-571,919	800,000	-0,057	0,126
-570,904	-200,000	-0,022	-0,148
-569,890	6,101	-0,042	-0,023
-568,875	-76,603	0,081	0,021
-567,861	-200,000	-0,003	-0,101
-566,846	20,471	0,039	0,023
-565,831	-85,874	-0,057	-0,013
-564,817	800,000	-0,016	-0,042
-563,802	261,968	-0,045	-0,058
-562,788	621,339	0,017	0,032
-561,773	800,000	-0,026	0,082
-560,758	-200,000	-0,021	0,085
-559,744	-34,361	0,059	0,024
-558,729	-24,905	0,030	-0,013
-557,715	49,742	-0,079	0,055
-556,700	-200,000	0,002	-0,041
-555,685	-6,954	-0,111	-0,055
-554,671	135,798	-0,064	0,062
-553,656	800,000	0,021	-0,062
-552,642	-200,000	-0,027	-0,134
-551,627	-90,812	-0,056	0,012
-550,612	-200,000	-0,020	0,141
-549,598	800,000	0,047	-0,121
-548,583	-200,000	0,016	-0,096
-547,569	351,030	0,044	-0,064
-546,554	60,750	0,054	0,039
-545,539	-6,748	0,088	-0,044
-544,525	-166,197	0,067	-0,002
-543,510	270,098	-0,131	0,170
-542,496	-200,000	0,010	0,069
-541,481	388,099	-0,091	0,140
-540,466	-168,329	0,131	0,004
-539,452	800,000	-0,027	0,060
-538,437	-20,257	-0,083	-0,038
-537,423	-8,526	0,115	-0,057
-536,408	269,252	-0,025	-0,033
-535,393	-102,790	-0,048	-0,008
-534,379	-79,771	-0,092	-0,023
-533,364	-200,000	0,000	-0,005
-532,350	272,014	0,087	0,114
-531,335	120,683	0,066	0,060
-530,321	-67,039	-0,060	-0,018
-529,306	-89,031	-0,037	-0,008
-528,291	94,506	-0,121	-0,101
-527,277	497,373	0,071	-0,121
-526,262	-200,000	0,030	-0,214
-525,248	-113,259	-0,061	-0,009
-524,233	-63,265	0,179	0,054
-523,218	-89,979	0,075	-0,016
-522,204	596,739	-0,064	-0,118
-521,189	30,885	-0,067	0,042
-520,175	-47,928	-0,091	0,032
-519,160	-200,000	-0,003	0,039
-518,145	-200,000	-0,006	0,030
-517,131	-32,630	0,099	0,040
-516,116	-36,956	0,058	0,023
-515,102	-57,203	0,077	0,025
-514,087	192,761	0,054	-0,060
-513,072	787,952	-0,095	-0,193
-512,058	-200,000	0,008	-0,139
-511,043	-200,000	-0,004	-0,021
-510,029	-0,850	0,090	-0,047
-509,014	322,012	0,091	-0,128
-507,999	31,288	0,008	-0,005
-506,985	242,175	-0,126	-0,156
-505,970	250,022	0,047	0,059
-504,956	110,019	-0,111	0,098
-503,941	-159,220	-0,090	-0,004
-502,926	500,340	-0,052	0,088
-501,912	-32,352	-0,071	-0,029
-500,897	800,000	0,057	-0,168
-499,883	163,155	-0,100	-0,104
-498,868	257,582	-0,051	-0,064
-497,853	800,000	-0,041	-0,130
-496,839	800,000	-0,041	0,102
-495,824	4,275	0,169	0,091
-494,810	32,770	0,122	0,078
-493,795	-68,690	-0,027	0,008
-492,781	-58,202	-0,120	0,038
-491,766	86,289	-0,034	-0,028
-490,751	-200,000	-0,008	-0,090
-489,737	800,000	0,052	0,112
-488,722	-61,644	0,030	0,009
-487,708	109,211	-0,041	0,036
-486,693	-89,774	-0,074	-0,016
-485,678	-200,000	0,005	-0,045
-484,664	98,140	0,025	-0,021
-483,649	-50,159	-0,076	0,026
-482,635	695,059	-0,038	-0,074
-481,620	55,710	-0,049	0,035
-480,605	-155,894	0,070	0,003
-479,591	-200,000	-0,002	0,064
-478,576	-200,000	0,002	0,071
-477,562	-200,000	-0,041	0,184
-476,547	55,830	-0,033	-0,024
-475,532	247,097	0,018	-0,022
-474,518	-81,890	0,057	-0,014
-473,503	-200,000	0,011	0,045
-472,489	513,578	-0,089	-0,154
-471,474	52,638	-0,042	0,029
-470,459	22,942	0,084	0,051
-469,445	800,000	0,041	-0,091
-468,430	-136,062	0,032	-0,003
-467,416	800,000	-0,016	0,035
-466,401	-200,000	0,001	-0,058
-465,386	312,464	0,087	0,121
-464,372	800,000	-0,014	-0,033
-463,357	-200,000	-0,019	-0,088
-462,343	-200,000	-0,008	-0,049
-461,328	-132,938	0,108	0,010
-460,313	-168,500	-0,028	-0,001
-459,299	-4,729	0,022	-0,011
-458,284	-165,481	0,133	0,004
-457,270	19,081	-0,057	-0,034
-456,255	-200,000	-0,004	0,036
-455,241	800,000	0,024	0,059
-454,226	-200,000	0,003	-0,072
-453,211	0,903	-0,052	-0,028
-452,197	-200,000	0,005	0,102
-451,182	58,133	0,066	0,048
-450,168	331,170	-0,038	0,054
-449,153	65,828	0,100	-0,074
-448,138	207,086	-0,005	-0,005
-447,124	-102,270	-0,073	-0,013
-446,109	-200,000	-0,003	-0,069
-445,095	114,389	0,033	0,030
-444,080	266,926	0,063	0,081
-443,065	-200,000	-0,012	0,054
-442,051	-169,630	-0,065	0,002
-441,036	-83,896	-0,182	-0,042
-440,022	13,061	0,078	0,044
-439,007	800,000	-0,021	-0,056
-437,992	-49,557	-0,107	0,037
-436,978	317,211	0,073	0,102
-435,963	-13,003	0,035	-0,017
-434,949	-10,348	-0,086	-0,042
-433,934	634,357	0,055	-0,103
-432,919	-114,735	-0,067	0,009
-431,905	65,684	0,016	-0,012
-430,890	-102,362	0,088	-0,015
-429,876	554,476	0,064	0,113
-428,861	464,444	0,081	0,134
-427,846	12,025	-0,147	-0,083
-426,832	-30,067	-0,085	0,035
-425,817	-200,000	-0,010	-0,069
-424,803	-149,915	-0,177	0,010
-423,788	459,838	0,097	-0,160
-422,773	-108,134	0,066	0,010
-421,759	-59,253	-0,105	0,033
-420,744	800,000	-0,020	0,041
-419,730	-200,000	-0,013	-0,056
-418,715	103,494	0,043	-0,037
-417,701	6,029	0,063	0,034
-416,686	-200,000	0,011	-0,101
-415,671	-200,000	-0,029	0,220
-414,657	61,098	-0,015	0,011
-413,642	800,000	0,009	-0,028
-412,628	800,000	0,035	-0,088
-411,613	-8,178	-0,063	-0,031
-410,598	-45,600	-0,109	-0,040
-409,584	800,000	0,048	-0,128
-408,569	800,000	0,034	-0,072
-407,555	80,798	0,052	0,041
-406,540	-24,491	0,061	0,027
-405,525	-40,383	-0,018	0,007
-404,511	-200,000	0,006	-0,071
-403,496	1,276	-0,087	0,046
-402,482	-200,000	-0,002	0,072
-401,467	135,448	0,064	0,061
-400,452	-200,000	0,045	0,150
-399,438	48,808	0,116	0,080
-398,423	96,521	-0,049	0,041
-397,409	110,473	0,147	0,130
-396,394	-200,000	0,002	-0,036
-395,379	-81,941	0,068	0,016
-394,365	-200,000	-0,011	0,048
-393,350	275,348	0,022	0,029
-392,336	-158,405	-0,149	0,006
-391,321	-40,464	0,067	-0,025
-390,306	800,000	0,036	-0,104
-389,292	-200,000	0,001	-0,023
-388,277	105,052	-0,121	0,105
-387,263	175,141	0,096	0,103
-386,248	-60,802	0,195	0,060
-385,233	-200,000	-0,012	-0,046
-384,219	800,000	0,032	0,094
-383,204	107,026	-0,072	0,063
-382,190	-85,564	0,037	0,008
-381,175	-200,000	-0,016	-0,125
-380,160	-84,015	-0,112	-0,026
-379,146	-92,393	0,094	-0,019
-378,131	638,482	-0,018	0,033
-377,117	-200,000	-0,003	0,108
-376,102	272,893	0,034	-0,044
-375,088	193,161	-0,036	0,040
-374,073	176,921	0,052	-0,056
-373,058	-7,935	-0,029	-0,014
-372,044	-88,647	0,125	-0,027
-371,029	25,095	-0,076	-0,046
-370,015	418,706	0,014	0,022
-369,000	-200,000	-0,043	-0,243
-367,985	145,988	-0,086	-0,085
-366,971	-139,511	0,024	-0,002
-365,956	100,599	-0,084	-0,072
-364,942	29,000	0,135	-0,084
-363,927	-28,753	0,055	0,023
-362,912	-200,000	0,034	0,134
-361,898	-198,124	-0,105	-0,000
-360,883	-7,061	-0,146	0,073
-359,869	120,820	0,075	-0,068
-358,854	229,131	0,042	0,051
-357,839	368,002	-0,031	0,046
-356,825	-49,747	-0,068	-0,024
-355,810	636,928	0,067	-0,125
-354,796	-46,594	-0,098	0,035
-353,781	-200,000	0,004	-0,051
-352,766	-126,662	0,017	-0,002
-351,752	87,567	0,100	0,081
-350,737	132,964	0,048	-0,045
-349,723	-134,559	0,062	0,006
-348,708	-43,491	0,032	-0,012
-347,693	-173,613	-0,066	-0,001
-346,679	170,723	0,061	0,064
-345,664	-95,161	0,070	0,014
-344,650	-200,000	0,035	-0,146
-343,635	-136,604	0,081	-0,007
-342,620	62,035	0,074	0,054
-341,606	319,765	-0,065	-0,091
-340,591	-200,000	0,035	-0,125
-339,577	82,914	0,093	-0,074
-338,562	-200,000	-0,043	0,151
-337,548	178,360	-0,073	-0,078
-336,533	-200,000	0,001	0,095
-335,518	-48,756	0,130	-0,046
-334,504	-101,274	0,108	0,019
-333,489	800,000	0,049	0,109
-332,475	-200,000	-0,005	0,076
-331,460	-104,885	0,073	-0,012
-330,445	800,000	0,006	0,013
-329,431	-200,000	-0,159	-0,001
-328,416	366,629	0,020	0,030
-327,402	-123,820	-0,065	0,007
-326,387	-200,000	-0,012	0,040
-325,372	800,000	0,041	0,092
-324,358	462,294	0,075	-0,123
-323,343	136,467	0,159	0,152
-322,329	216,000	-0,031	-0,036
-321,314	66,054	0,163	0,121
-320,299	-200,000	-0,003	0,144
-319,285	-117,340	0,025	0,003
-318,270	260,567	-0,055	-0,070
-317,256	-44,656	0,120	0,044
-316,241	284,425	-0,027	-0,035
-315,226	-200,000	0,003	-0,198
-314,212	-23,837	-0,026	-0,011
-313,197	695,926	0,064	0,124
-312,183	-147,062	0,125	-0,008
-311,168	98,833	-0,023	-0,019
-310,153	150,733	-0,109	-0,108
-309,139	800,000	0,059	-0,129
-308,124	104,851	0,079	0,068
-307,110	-153,680	0,109	0,005
-306,095	-106,376	-0,123	0,020
-305,080	413,712	0,016	-0,025
-304,066	-141,661	-0,110	-0,008
-303,051	-200,000	-0,016	-0,056
-302,037	-75,910	-0,107	0,028
-301,022	31,350	0,037	0,023
-300,008	800,000	-0,053	0,122
-298,993	148,668	0,027	0,027
-297,978	800,000	0,036	0,112
-296,964	32,190	-0,028	0,018
-295,949	-126,731	-0,013	0,001
-294,935	-200,000	0,014	0,117
-293,920	-200,000	0,004	-0,208
-292,905	139,965	0,049	0,047
-291,891	-100,006	0,112	-0,020
-290,876	800,000	0,061	0,139
-289,862	800,000	0,050	-0,122
-288,847	157,802	0,083	0,084
-287,832	114,399	0,087	-0,077
-286,818	749,705	-0,048	-0,096
-285,803	800,000	0,024	0,074
-284,789	-110,779	-0,004	-0,001
-283,774	-200,000	0,109	0,000
-282,759	269,932	-0,081	0,104
-281,745	37,936	-0,056	-0,037
-280,730	-200,000	-0,008	-0,034
-279,716	-200,000	0,019	-0,068
-278,701	800,000	0,036	0,098
-277,686	-200,000	0,020	0,095
-276,672	-79,989	-0,112	0,027
-275,657	800,000	0,060	-0,135
-274,643	-200,000	0,000	-0,030
-273,628	-200,000	-0,008	0,083
-272,613	27,319	-0,046	-0,028
-271,599	800,000	-0,004	-0,008
-270,584	-200,000	-0,003	0,113
-269,570	-8,093	0,041	0,020
-268,555	449,072	-0,028	0,046
-267,540	-163,367	-0,105	-0,004
-266,526	800,000	-0,070	-0,179
-265,511	-96,084	-0,076	-0,015
-264,497	164,160	0,082	-0,084
-263,482	-72,418	0,139	-0,037
-262,467	-42,514	0,168	-0,062
-261,453	-54,146	-0,104	-0,034
-260,438	-38,125	0,058	-0,022
-259,424	-174,650	-0,086	-0,002
-258,409	67,628	-0,071	0,053
-257,395	-200,000	0,034	0,170
-256,380	672,592	-0,036	0,069
-255,365	128,752	0,098	0,091
-254,351	-107,110	-0,181	0,029
-253,336	239,527	-0,068	0,083
-252,322	-200,000	0,003	-0,077
-251,307	243,985	0,019	-0,023
-250,292	-64,836	-0,133	-0,039
-249,278	746,888	-0,022	-0,043
-248,263	47,522	-0,023	-0,016
-247,249	-200,000	-0,021	0,110
-246,234	-66,837	-0,093	-0,027
-245,219	-69,355	0,074	0,020
-244,205	800,000	0,013	-0,031
-243,190	-200,000	0,004	0,139
-242,176	-43,853	-0,033	-0,012
-241,161	-117,272	-0,063	-0,008
-240,146	723,268	-0,029	0,058
-239,132	-11,018	-0,161	0,077
-238,117	800,000	0,049	-0,101
-237,103	800,000	0,025	0,069
-236,088	-200,000	0,021	0,070
-235,073	-200,000	-0,016	-0,127
-234,059	788,315	0,037	-0,074
-233,044	-135,473	0,074	-0,006
-232,030	-38,239	-0,054	-0,021
-231,015	-17,867	-0,098	-0,045
-230,000	-200,000	-0,008	-0,131
-228,986	309,915	-0,059	-0,080
-227,971	-200,000	-0,004	-0,038
-226,957	700,131	-0,050	0,096
-225,942	-200,000	0,014	-0,071
-224,927	-12,168	0,140	0,067
-223,913	-34,335	-0,064	-0,026
-222,898	-94,719	-0,011	-0,002
-221,884	-146,242	0,029	-0,002
-220,869	800,000	-0,012	-0,031
-219,855	-200,000	-0,013	0,047
-218,840	93,286	0,040	0,033
-217,825	361,790	0,050	0,074
-216,811	800,000	0,044	0,097
-215,796	-200,000	0,015	0,059
-214,782	303,558	0,073	-0,099
-213,767	-30,653	0,015	0,006
-212,752	418,895	-0,009	0,014
-211,738	800,000	-0,073	0,200
-210,723	-200,000	-0,016	0,153
-209,709	-200,000	-0,008	0,210
-208,694	800,000	-0,041	0,097
-207,679	-103,996	-0,038	-0,006
-206,665	328,706	-0,039	0,055
-205,650	163,847	-0,063	0,065
-204,636	800,000	-0,004	0,013
-203,621	123,059	-0,087	0,080
-202,606	-122,799	-0,143	0,017
-201,592	-200,000	-0,002	-0,106
-200,577	694,701	0,027	-0,052
-199,563	276,644	0,027	0,035
-198,548	-46,699	0,212	-0,075
-197,533	173,213	-0,074	0,078
-196,519	312,834	0,074	0,101
-195,504	58,671	0,058	0,042
-194,490	-200,000	0,003	-0,053
-193,475	417,838	0,048	-0,075
-192,460	593,013	0,053	0,096
-191,446	800,000	-0,029	-0,064
-190,431	-200,000	0,041	0,152
-189,417	-200,000	0,011	0,073
-188,402	-145,127	0,091	-0,006
-187,387	3,767	0,035	-0,018
-186,373	37,591	0,038	-0,024
-185,358	-200,000	-0,007	-0,051
-184,344	202,128	-0,041	-0,046
-183,329	-39,706	0,044	0,017
-182,315	-18,897	0,135	0,061
-181,300	-74,317	-0,196	0,051
-180,285	-92,663	-0,112	-0,023
-179,271	800,000	0,034	-0,096
-178,256	61,922	-0,041	0,030
-177,242	-73,949	0,081	-0,021
-176,227	780,724	0,046	-0,092
-175,212	265,572	0,065	0,083
-174,198	-200,000	-0,008	-0,082
-173,183	800,000	0,037	-0,098
-172,169	138,238	0,064	-0,061
-171,154	60,011	0,084	-0,060
-170,139	-65,160	0,090	-0,026
-169,125	-39,486	0,094	-0,036
-168,110	87,463	0,040	0,032
-167,096	-2,795	-0,116	-0,059
-166,081	31,794	-0,141	0,088
-165,066	655,738	-0,052	-0,098
-164,052	139,689	-0,078	0,075
-163,037	193,647	0,016	0,018
-162,023	80,461	0,081	0,063
-161,008	-40,240	-0,078	0,029
-159,993	196,488	-0,076	0,084
-158,979	658,810	0,052	-0,098
-157,964	800,000	0,010	0,029
-156,950	-119,416	0,020	0,002
-155,935	-200,000	-0,023	-0,101
-154,920	-138,674	-0,136	0,011
-153,906	-81,800	0,043	0,010
-152,891	-152,107	-0,031	-0,002
-151,877	-49,006	-0,016	-0,005
-150,862	116,457	-0,119	0,106
-149,847	-63,720	0,100	0,030
-148,833	-200,000	-0,016	0,118
-147,818	86,420	0,136	0,109
-146,804	800,000	0,051	0,117
-145,789	4,701	-0,044	0,023
-144,775	254,133	-0,080	0,100
-143,760	-200,000	0,008	0,063
-142,745	193,875	-0,025	0,028
-141,731	115,167	0,064	-0,057
-140,716	-22,925	0,053	0,023
-139,702	-56,591	0,025	0,008
-138,687	800,000	-0,011	-0,024
-137,672	-200,000	-0,018	0,080
-136,658	151,188	-0,044	0,043
-135,643	-35,675	-0,057	0,023
-134,629	-106,647	0,079	-0,013
-133,614	-134,557	-0,084	0,007
-132,599	325,582	0,051	0,071
-131,585	-77,690	0,094	-0,023
-130,570	-154,026	0,062	0,003
-129,556	334,769	0,022	0,031
-128,541	213,261	0,055	-0,063
-127,526	-200,000	-0,014	-0,065
-126,512	70,290	0,035	-0,026
-125,497	106,475	0,062	-0,053
-124,483	800,000	-0,027	0,057
-123,468	127,301	-0,042	0,039
-122,453	800,000	-0,048	-0,122
-121,439	151,152	0,023	-0,022
-120,424	-171,295	-0,086	0,002
-119,410	-85,852	0,076	0,017
-118,395	800,000	0,015	0,032
