DTS Sentinel unit serial number:	SN410029Multiplexer serial number:	ORYXHardware model number:	OX2-SRSoftware version number:	ORYX F/W v4,00 Oryx Data Collector v3.7.2.0data status	okinstallation	B4 Nyhavnadifferential loss correction	single-endedforward channel	channel 2reverse channel	N/Adate	2023/12/15time	21:00:13forward acquisition time	300,00reverse acquisition time	0,00gamma	499,1914k internal	0,3134k external	0,3134temperature offset calibration	1,0000default loss term (dB/km)	0,3820temperature slope calibration	1,0000multiplexer offset coefficient	1,0000multiplexer slope coefficient	1,0000fibre end	0,00T internal ref (°C)	20,81T ext. ref 1 (°C)	6,14T ext. ref 2 (°C)	6,33length (m)	temperature (°C)	Stokes	anti-Stokes-744,400	45,963	0,117	0,080
-743,385	-133,166	-0,282	0,026
-742,371	139,436	0,071	-0,070
-741,356	63,252	-0,184	0,137
-740,342	-200,000	-0,010	0,041
-739,327	49,945	-0,224	0,156
-738,312	-77,739	0,138	0,035
-737,298	118,815	-0,127	-0,117
-736,283	92,383	0,096	-0,080
-735,269	-200,000	-0,074	0,292
-734,254	-200,000	-0,006	-0,128
-733,239	-89,556	-0,399	-0,086
-732,225	249,051	0,100	-0,126
-731,210	19,771	-0,033	0,020
-730,196	41,416	-0,015	0,010
-729,181	86,215	-0,108	-0,088
-728,167	-200,000	-0,026	-0,091
-727,152	-1,267	-0,071	0,037
-726,137	800,000	0,022	-0,061
-725,123	800,000	-0,033	-0,081
-724,108	79,910	-0,102	0,081
-723,094	800,000	0,018	-0,050
-722,079	-200,000	-0,021	-0,165
-721,064	273,082	0,056	-0,074
-720,050	-200,000	-0,021	-0,086
-719,035	20,578	-0,051	0,030
-718,021	-92,629	0,123	0,025
-717,006	-16,592	0,067	0,031
-715,991	-200,000	0,021	-0,147
-714,977	-119,884	-0,098	-0,012
-713,962	-200,000	0,001	-0,123
-712,948	-200,000	0,012	-0,060
-711,933	-200,000	-0,014	-0,174
-710,918	-9,586	0,058	0,029
-709,904	800,000	0,032	0,087
-708,889	15,398	-0,064	-0,037
-707,875	324,519	0,049	-0,069
-706,860	-24,286	-0,147	0,065
-705,845	-200,000	-0,008	-0,104
-704,831	800,000	0,010	-0,030
-703,816	-150,415	-0,091	-0,005
-702,802	800,000	-0,034	-0,086
-701,787	87,448	-0,083	-0,068
-700,772	27,093	0,090	0,056
-699,758	324,280	0,092	-0,131
-698,743	262,099	0,038	-0,049
-697,729	-31,167	-0,059	-0,025
-696,714	-37,807	0,124	0,049
-695,699	-89,791	-0,140	-0,030
-694,685	-181,692	-0,206	-0,003
-693,670	-126,944	0,027	-0,003
-692,656	800,000	0,028	0,061
-691,641	-2,204	-0,138	-0,071
-690,627	230,641	0,086	0,105
-689,612	-200,000	0,017	-0,136
-688,597	-36,399	-0,170	-0,068
-687,583	556,042	0,065	-0,116
-686,568	-90,586	-0,120	-0,025
-685,554	-200,000	-0,003	0,069
-684,539	-151,415	-0,170	0,009
-683,524	-200,000	0,022	0,092
-682,510	-200,000	-0,011	0,038
-681,495	800,000	-0,017	0,048
-680,481	-131,228	-0,060	0,006
-679,466	29,096	-0,124	-0,078
-678,451	129,709	-0,058	-0,055
-677,437	83,399	0,028	0,022
-676,422	-108,777	-0,096	0,015
-675,408	-59,494	-0,017	-0,006
-674,393	40,295	0,042	0,028
-673,378	-200,000	-0,016	0,075
-672,364	-101,330	0,080	0,014
-671,349	334,230	0,065	-0,094
-670,335	800,000	0,027	-0,087
-669,320	439,950	0,024	-0,039
-668,305	28,521	0,044	0,027
-667,291	565,183	-0,047	-0,085
-666,276	-200,000	-0,005	-0,103
-665,262	-88,987	-0,089	-0,019
-664,247	489,179	-0,019	-0,033
-663,232	682,506	0,046	-0,090
-662,218	102,122	-0,025	0,022
-661,203	-200,000	0,002	0,072
-660,189	-200,000	-0,039	0,163
-659,174	-30,431	-0,128	-0,054
-658,159	100,372	-0,087	-0,075
-657,145	-200,000	-0,021	-0,166
-656,130	-58,594	-0,070	0,022
-655,116	-200,000	0,004	-0,015
-654,101	51,877	-0,072	0,050
-653,086	-49,401	-0,131	-0,046
-652,072	13,722	-0,102	-0,059
-651,057	16,886	-0,066	0,039
-650,043	800,000	-0,046	0,110
-649,028	214,241	-0,102	-0,119
-648,014	-66,587	0,116	-0,034
-646,999	202,880	0,040	-0,046
-645,984	-200,000	0,029	0,168
-644,970	-98,520	-0,067	0,013
-643,955	35,005	-0,068	-0,044
-642,941	-29,323	0,104	-0,044
-641,926	-44,632	-0,068	-0,025
-640,911	34,205	-0,049	-0,031
-639,897	102,026	0,105	0,091
-638,882	800,000	-0,073	0,158
-637,868	172,835	-0,045	0,048
-636,853	-129,657	-0,062	-0,006
-635,838	13,447	-0,133	-0,076
-634,824	800,000	-0,030	0,077
-633,809	160,446	0,046	0,048
-632,795	-4,338	-0,123	-0,063
-631,780	-96,731	0,089	0,017
-630,765	22,747	-0,127	-0,077
-629,751	177,884	0,071	0,076
-628,736	-104,109	0,092	-0,016
-627,722	800,000	0,086	-0,196
-626,707	357,499	0,057	0,085
-625,692	-200,000	0,011	0,059
-624,678	-200,000	-0,005	0,017
-623,663	-200,000	0,034	-0,124
-622,649	-200,000	0,019	-0,123
-621,634	-70,635	-0,124	-0,035
-620,619	-200,000	-0,004	0,053
-619,605	-73,050	-0,047	-0,013
-618,590	204,094	0,025	0,029
-617,576	327,103	-0,042	-0,060
-616,561	-29,435	-0,026	-0,011
-615,546	-200,000	-0,021	-0,129
-614,532	259,772	0,079	-0,101
-613,517	-200,000	-0,002	-0,020
-612,503	800,000	-0,023	0,064
-611,488	218,889	-0,026	-0,031
-610,474	-65,065	-0,105	-0,031
-609,459	-200,000	-0,033	-0,119
-608,444	1,334	-0,155	-0,082
-607,430	-33,857	-0,146	-0,059
-606,415	83,016	0,049	-0,039
-605,401	158,099	-0,041	0,042
-604,386	800,000	0,019	0,062
-603,371	-200,000	-0,006	0,083
-602,357	-131,160	-0,138	-0,013
-601,342	131,572	-0,050	-0,048
-600,328	12,845	-0,104	-0,059
-599,313	445,974	-0,037	-0,061
-598,298	-200,000	0,021	-0,103
-597,284	-166,545	0,098	0,003
-596,269	-56,334	0,092	-0,030
-595,255	800,000	-0,012	0,034
-594,240	297,823	-0,079	0,108
-593,225	7,521	0,075	0,041
-592,211	-133,726	-0,133	-0,012
-591,196	34,539	0,081	0,052
-590,182	83,923	-0,017	0,014
-589,167	-115,677	-0,097	0,013
-588,152	-43,610	-0,063	-0,023
-587,138	-73,243	0,068	0,018
-586,123	69,290	-0,088	-0,067
-585,109	536,687	-0,088	-0,154
-584,094	-70,292	0,072	0,020
-583,079	13,748	-0,095	0,054
-582,065	300,104	0,121	0,165
-581,050	-123,103	0,057	0,007
-580,036	-200,000	-0,012	-0,055
-579,021	-37,614	-0,115	0,045
-578,006	-62,539	-0,062	0,019
-576,992	-62,840	-0,171	0,052
-575,977	457,103	-0,020	0,033
-574,963	-152,281	0,102	-0,005
-573,948	52,745	0,160	-0,113
-572,934	381,301	0,067	-0,102
-571,919	800,000	-0,016	-0,043
-570,904	-75,549	-0,056	0,015
-569,890	771,017	-0,049	-0,099
-568,875	-121,023	0,086	0,011
-567,861	800,000	-0,010	-0,026
-566,846	102,570	0,085	-0,073
-565,831	800,000	0,023	0,048
-564,817	800,000	-0,011	0,028
-563,802	-200,000	0,002	-0,051
-562,788	342,738	0,109	-0,158
-561,773	-200,000	-0,014	0,055
-560,758	59,141	-0,114	-0,083
-559,744	100,681	-0,070	0,060
-558,729	-115,321	0,078	-0,011
-557,715	-91,747	-0,038	-0,008
-556,700	219,587	-0,030	-0,035
-555,685	303,459	0,095	0,130
-554,671	-92,370	-0,054	-0,011
-553,656	792,802	-0,070	0,142
-552,642	97,519	0,070	0,060
-551,627	-116,671	0,035	-0,005
-550,612	-33,712	-0,144	-0,058
-549,598	9,918	-0,068	0,038
-548,583	800,000	0,042	0,089
-547,569	626,054	-0,032	0,060
-546,554	132,753	-0,126	0,120
-545,539	214,200	-0,078	0,092
-544,525	-151,665	0,114	0,006
-543,510	800,000	0,094	0,224
-542,496	-31,046	0,135	-0,056
-541,481	800,000	0,046	-0,134
-540,466	133,213	0,179	-0,171
-539,452	800,000	0,043	-0,130
-538,437	-18,861	-0,050	0,023
-537,423	-200,000	0,033	0,162
-536,408	38,407	0,073	-0,048
-535,393	-93,051	0,128	-0,026
-534,379	414,544	-0,024	0,037
-533,364	-200,000	-0,009	-0,061
-532,350	-200,000	0,020	0,072
-531,335	380,764	-0,051	0,077
-530,321	-2,935	0,069	0,035
-529,306	200,361	-0,120	0,136
-528,291	800,000	0,013	-0,033
-527,277	204,488	-0,020	0,023
-526,262	-200,000	-0,001	-0,055
-525,248	-179,364	0,048	-0,001
-524,233	800,000	0,031	0,069
-523,218	132,350	0,059	0,056
-522,204	-6,219	-0,026	-0,013
-521,189	-99,328	-0,088	-0,016
-520,175	14,629	0,145	-0,083
-519,160	163,890	-0,047	0,049
-518,145	-200,000	-0,025	-0,120
-517,131	661,801	-0,035	0,066
-516,116	-200,000	0,030	0,113
-515,102	-200,000	-0,003	-0,042
-514,087	60,866	-0,081	-0,059
-513,072	148,792	-0,115	-0,115
-512,058	95,910	0,036	-0,031
-511,043	120,913	-0,082	0,075
-510,029	800,000	0,035	0,075
-509,014	-149,905	0,028	0,002
-507,999	-127,688	0,086	0,009
-506,985	204,422	0,123	-0,141
-505,970	81,493	-0,106	-0,084
-504,956	-38,182	-0,034	0,013
-503,941	-200,000	-0,014	0,093
-502,926	615,702	-0,041	0,075
-501,912	44,684	0,046	-0,031
-500,897	178,361	0,069	-0,075
-499,883	-200,000	0,022	0,150
-498,868	-114,931	0,035	-0,005
-497,853	43,707	-0,087	-0,058
-496,839	297,440	0,094	-0,128
-495,824	800,000	0,101	0,267
-494,810	109,229	0,016	-0,014
-493,795	-77,893	0,057	0,014
-492,781	800,000	-0,009	0,025
-491,766	-127,690	-0,082	0,009
-490,751	-200,000	-0,028	-0,250
-489,737	311,250	0,013	-0,018
-488,722	-200,000	0,020	-0,072
-487,708	-149,574	0,086	0,005
-486,693	-154,644	0,126	0,006
-485,678	-136,430	-0,167	-0,014
-484,664	-6,850	0,049	0,025
-483,649	-200,000	0,001	-0,026
-482,635	493,408	0,056	-0,095
-481,620	-157,328	0,132	0,006
-480,605	203,338	-0,063	-0,072
-479,591	-200,000	0,016	-0,210
-478,576	-134,104	-0,078	-0,007
-477,562	-200,000	0,007	0,113
-476,547	-169,895	-0,113	-0,003
-475,532	52,937	-0,054	0,038
-474,518	7,818	-0,041	-0,023
-473,503	-67,955	-0,061	0,017
-472,489	-200,000	0,011	-0,071
-471,474	-200,000	0,017	0,101
-470,459	245,519	-0,079	-0,097
-469,445	800,000	-0,013	0,028
-468,430	800,000	-0,067	-0,162
-467,416	199,821	-0,044	0,050
-466,401	-200,000	0,000	-0,049
-465,386	-200,000	-0,002	0,058
-464,372	-200,000	-0,002	-0,124
-463,357	-114,469	-0,115	-0,016
-462,343	-6,749	0,152	-0,076
-461,328	800,000	0,076	-0,189
-460,313	-200,000	-0,012	-0,248
-459,299	-200,000	0,025	0,080
-458,284	263,804	0,039	0,051
-457,270	-181,784	0,081	0,001
-456,255	303,911	-0,025	0,034
-455,241	-200,000	0,005	-0,083
-454,226	301,801	-0,040	-0,055
-453,211	601,190	-0,022	-0,040
-452,197	-99,506	0,126	0,023
-451,182	-63,202	-0,212	0,064
-450,168	73,138	0,145	0,112
-449,153	81,890	-0,041	-0,032
-448,138	800,000	0,057	-0,133
-447,124	-200,000	-0,041	-0,138
-446,109	800,000	0,020	-0,054
-445,095	17,681	-0,089	0,052
-444,080	-200,000	0,003	0,112
-443,065	-200,000	-0,008	0,065
-442,051	-200,000	-0,016	-0,145
-441,036	-200,000	0,013	-0,074
-440,022	366,363	-0,104	0,154
-439,007	165,160	0,052	0,054
-437,992	33,512	0,075	-0,048
-436,978	-200,000	-0,041	0,155
-435,963	240,042	0,071	0,087
-434,949	363,624	-0,023	0,034
-433,934	-50,343	-0,048	0,016
-432,919	-83,989	-0,117	-0,027
-431,905	-98,064	0,096	0,018
-430,890	141,244	0,072	0,070
-429,876	-120,419	0,091	0,011
-428,861	349,852	0,067	0,098
-427,846	82,879	0,066	0,053
-426,832	158,109	-0,071	-0,072
-425,817	23,458	-0,063	-0,038
-424,803	75,621	-0,117	-0,091
-423,788	-148,923	0,089	-0,005
-422,773	61,233	-0,044	0,032
-421,759	79,523	0,081	0,063
-420,744	-48,920	0,110	-0,038
-419,730	126,453	-0,020	-0,019
-418,715	800,000	-0,037	-0,088
-417,701	-77,432	-0,057	-0,014
-416,686	-138,383	0,174	-0,014
-415,671	-108,914	0,065	0,010
-414,657	70,213	0,095	0,072
-413,642	800,000	-0,045	-0,093
-412,628	-8,012	-0,018	-0,009
-411,613	594,340	-0,054	0,098
-410,598	-200,000	-0,052	0,000
-409,584	161,067	0,036	0,037
-408,569	-37,317	0,058	-0,023
-407,555	586,139	-0,069	-0,124
-406,540	-200,000	-0,036	-0,155
-405,525	77,804	-0,036	0,028
-404,511	261,113	0,026	0,033
-403,496	-116,172	-0,043	0,006
-402,482	-200,000	0,004	-0,156
-401,467	240,857	-0,056	0,069
-400,452	-153,671	-0,105	0,005
-399,438	-84,228	0,079	-0,018
-398,423	800,000	-0,047	-0,130
-397,409	-90,358	-0,161	-0,034
-396,394	212,802	-0,132	-0,153
-395,379	50,411	0,018	-0,012
-394,365	-85,808	0,143	0,032
-393,350	167,727	-0,057	-0,059
-392,336	800,000	-0,016	0,045
-391,321	764,817	-0,028	-0,055
-390,306	165,015	-0,042	-0,044
-389,292	-110,212	0,064	-0,010
-388,277	-53,135	-0,096	0,032
-387,263	-200,000	-0,008	0,069
-386,248	800,000	0,007	0,021
-385,233	-200,000	0,011	0,103
-384,219	199,301	0,061	0,068
-383,204	-200,000	0,003	-0,083
-382,190	563,986	-0,026	-0,046
-381,175	18,443	0,090	0,053
-380,160	436,998	-0,070	0,112
-379,146	54,918	-0,105	0,074
-378,131	-125,345	0,168	0,018
-377,117	26,463	-0,045	-0,027
-376,102	-8,325	-0,066	0,032
-375,088	222,003	0,025	0,029
-374,073	-200,000	-0,001	-0,054
-373,058	108,676	0,097	-0,085
-372,044	-88,683	0,131	-0,028
-371,029	-106,168	0,157	-0,025
-370,015	800,000	0,081	-0,172
-369,000	-200,000	0,009	0,109
-367,985	-200,000	0,005	0,044
-366,971	-197,472	0,120	0,001
-365,956	5,757	0,030	0,016
-364,942	-200,000	-0,004	-0,124
-363,927	-200,000	0,025	0,088
-362,912	-200,000	0,010	-0,043
-361,898	88,141	-0,061	0,049
-360,883	-98,685	-0,101	0,019
-359,869	-150,066	-0,151	0,008
-358,854	-8,530	-0,121	0,059
-357,839	275,581	-0,079	0,102
-356,825	43,902	0,104	-0,070
-355,810	800,000	0,032	0,095
-354,796	800,000	-0,045	0,135
-353,781	-64,009	-0,066	0,020
-352,766	800,000	-0,006	-0,016
-351,752	-200,000	-0,063	0,211
-350,737	47,511	-0,036	-0,024
-349,723	0,995	-0,103	-0,054
-348,708	-89,117	0,068	-0,014
-347,693	44,805	-0,024	-0,016
-346,679	42,519	0,019	0,012
-345,664	-200,000	0,005	0,108
-344,650	-36,066	0,056	-0,022
-343,635	800,000	0,019	-0,042
-342,620	-7,312	0,102	0,050
-341,606	800,000	-0,015	0,035
-340,591	-1,618	-0,049	0,025
-339,577	38,835	-0,045	-0,029
-338,562	-98,174	-0,089	0,017
-337,548	800,000	-0,012	-0,039
-336,533	800,000	0,037	0,079
-335,518	665,287	0,036	-0,069
-334,504	200,742	0,023	-0,026
-333,489	55,072	0,092	0,065
-332,475	351,790	-0,113	-0,165
-331,460	-200,000	0,007	-0,089
-330,445	800,000	-0,024	-0,051
-329,431	800,000	-0,019	-0,039
-328,416	293,555	0,042	0,056
-327,402	-200,000	-0,017	0,060
-326,387	-200,000	0,003	-0,090
-325,372	171,027	-0,073	-0,076
-324,358	212,441	-0,161	-0,185
-323,343	-54,195	0,081	-0,027
-322,329	-200,000	-0,005	-0,128
-321,314	-90,234	0,094	0,020
-320,299	-38,603	0,022	0,009
-319,285	-0,889	0,072	-0,037
-318,270	800,000	-0,032	0,076
-317,256	7,471	-0,015	-0,008
-316,241	-7,075	-0,080	0,040
-315,226	800,000	-0,035	0,083
-314,212	58,767	0,054	0,038
-313,197	800,000	0,038	-0,094
-312,183	27,343	0,117	-0,072
-311,168	44,836	-0,135	0,091
-310,153	371,061	-0,030	0,044
-309,139	800,000	0,003	0,006
-308,124	800,000	0,057	0,151
-307,110	-150,122	-0,085	-0,005
-306,095	-58,364	0,068	0,022
-305,080	-99,768	0,144	0,026
-304,066	-172,624	-0,163	0,004
-303,051	-200,000	-0,025	-0,237
-302,037	-200,000	-0,001	-0,084
-301,022	-200,000	-0,003	0,036
-300,008	365,060	-0,059	0,087
-298,993	-200,000	-0,007	0,175
-297,978	-177,565	-0,056	-0,001
-296,964	449,247	-0,023	0,037
-295,949	75,942	0,062	0,048
-294,935	44,031	0,122	0,081
-293,920	41,400	-0,050	0,033
-292,905	-68,697	0,074	0,021
-291,891	291,694	0,003	0,005
-290,876	800,000	0,018	0,048
-289,862	3,067	0,107	0,057
-288,847	390,229	-0,031	0,047
-287,832	334,872	-0,098	0,139
-286,818	621,297	-0,031	0,056
-285,803	-135,759	0,111	0,009
-284,789	216,481	-0,029	0,034
-283,774	59,788	0,076	0,055
-282,759	-156,477	-0,061	0,003
-281,745	549,127	-0,039	0,068
-280,730	432,345	-0,068	0,108
-279,716	717,474	0,010	0,020
-278,701	122,612	0,126	0,115
-277,686	-147,620	0,146	0,009
-276,672	-200,000	-0,012	0,071
-275,657	305,413	-0,041	-0,055
-274,643	-113,191	-0,170	0,024
-273,628	-84,363	-0,129	0,029
-272,613	3,556	0,088	-0,046
-271,599	-200,000	0,022	0,138
-270,584	-112,445	0,086	-0,012
-269,570	-200,000	-0,031	0,112
-268,555	100,303	0,045	0,038
-267,540	-53,645	-0,117	0,039
-266,526	-200,000	0,028	0,202
-265,511	-200,000	-0,008	-0,060
-264,497	-200,000	0,020	0,079
-263,482	9,966	0,073	0,040
-262,467	102,299	0,089	0,076
-261,453	61,318	-0,028	0,020
-260,438	800,000	0,020	-0,054
-259,424	-200,000	-0,026	0,146
-258,409	8,228	0,155	-0,085
-257,395	-31,031	-0,067	0,028
-256,380	25,591	0,121	-0,073
-255,365	514,358	0,056	-0,095
-254,351	134,904	0,056	-0,053
-253,336	-200,000	-0,002	0,084
-252,322	30,020	-0,123	-0,076
-251,307	375,265	0,099	-0,147
-250,292	263,205	0,054	-0,069
-249,278	-169,973	0,050	0,001
-248,263	77,790	0,019	-0,014
-247,249	-113,303	0,113	-0,016
-246,234	-200,000	-0,022	0,157
-245,219	-200,000	-0,008	-0,126
-244,205	-200,000	0,044	0,225
-243,190	275,632	0,084	0,109
-242,176	800,000	-0,035	-0,080
-241,161	123,193	-0,021	0,019
-240,146	38,223	0,029	0,019
-239,132	200,645	0,079	0,088
-238,117	-200,000	0,027	-0,115
-237,103	44,305	-0,109	-0,073
-236,088	-63,606	0,026	-0,008
-235,073	-200,000	-0,013	0,131
-234,059	-77,514	0,053	-0,013
-233,044	148,400	0,029	-0,029
-232,030	217,094	0,052	-0,060
-231,015	63,898	-0,140	-0,103
-230,000	29,968	0,061	-0,038
-228,986	51,266	0,176	-0,121
-227,971	265,814	-0,015	0,019
-226,957	39,199	0,167	0,108
-225,942	102,557	-0,094	-0,080
-224,927	243,047	-0,057	0,070
-223,913	82,200	-0,037	0,029
-222,898	244,666	0,047	-0,057
-221,884	-193,650	-0,060	0,000
-220,869	16,294	0,083	0,048
-219,855	-23,815	0,135	-0,059
-218,840	-77,047	-0,015	0,004
-217,825	85,222	0,087	-0,069
-216,811	109,099	-0,092	0,080
-215,796	622,627	0,066	-0,121
-214,782	133,400	0,016	0,015
-213,767	-200,000	0,011	-0,067
-212,752	-182,324	0,124	-0,002
-211,738	-54,463	-0,293	0,096
-210,723	800,000	0,047	0,095
-209,709	-78,838	-0,098	-0,024
-208,694	-10,942	-0,077	-0,037
-207,679	-200,000	-0,010	0,045
-206,665	-200,000	0,007	-0,055
-205,650	103,850	-0,028	-0,024
-204,636	-165,987	0,099	0,003
-203,621	-127,620	-0,089	0,009
-202,606	-45,606	-0,077	0,028
-201,592	-128,251	0,103	0,011
-200,577	53,486	0,064	-0,045
-199,563	81,651	0,046	0,037
-198,548	50,307	-0,110	-0,075
-197,533	25,857	0,082	0,049
-196,519	-126,124	0,053	0,006
-195,504	-153,390	-0,029	0,001
-194,490	-98,349	-0,142	-0,026
-193,475	280,404	-0,085	-0,111
-192,460	590,207	0,074	0,134
-191,446	153,024	0,106	0,106
-190,431	-200,000	-0,014	0,145
-189,417	-200,000	0,008	-0,053
-188,402	-159,890	0,027	0,001
-187,387	800,000	-0,059	-0,119
-186,373	9,430	0,098	0,054
-185,358	20,762	-0,108	-0,063
-184,344	129,341	0,105	0,097
-183,329	-86,772	0,094	0,021
-182,315	-126,789	-0,095	-0,010
-181,300	-158,831	-0,126	-0,005
-180,285	63,393	-0,074	-0,054
-179,271	-200,000	0,015	-0,090
-178,256	168,651	-0,075	0,078
-177,242	4,395	-0,096	-0,051
-176,227	182,031	0,122	0,130
-175,212	182,321	0,070	0,076
-174,198	343,483	-0,016	0,023
-173,183	800,000	0,010	0,025
-172,169	186,599	-0,087	-0,094
-171,154	-200,000	0,009	-0,066
-170,139	800,000	-0,029	0,061
-169,125	247,445	0,098	0,121
-168,110	-28,722	0,066	-0,028
-167,096	164,720	-0,063	-0,064
-166,081	613,750	-0,033	-0,060
-165,066	34,386	-0,006	0,004
-164,052	330,619	0,018	0,025
-163,037	122,279	-0,094	0,085
-162,023	800,000	-0,016	0,035
-161,008	295,896	-0,021	0,028
-159,993	234,149	0,092	-0,111
-158,979	-200,000	-0,005	-0,103
-157,964	408,381	0,032	-0,050
-156,950	46,535	0,038	-0,026
-155,935	81,446	-0,062	-0,048
-154,920	-200,000	0,017	0,182
-153,906	-153,931	0,013	0,001
-152,891	370,285	-0,030	0,044
-151,877	181,755	-0,049	-0,052
-150,862	800,000	-0,025	0,054
-149,847	800,000	-0,049	0,130
-148,833	-17,642	0,087	0,039
-147,818	307,616	-0,132	0,179
-146,804	97,219	0,075	0,063
-145,789	-66,697	0,029	-0,008
-144,775	-69,135	-0,107	-0,030
-143,760	800,000	-0,046	-0,132
-142,745	390,792	-0,084	0,126
-141,731	657,099	-0,038	0,072
-140,716	27,694	-0,089	0,054
-139,702	800,000	0,062	0,143
-138,687	23,467	0,092	0,055
-137,672	-136,742	0,026	0,002
-136,658	-42,063	0,079	0,029
-135,643	800,000	-0,003	0,009
-134,629	-200,000	0,002	0,086
-133,614	74,850	0,065	0,049
-132,599	-145,865	-0,062	-0,004
-131,585	-25,281	-0,108	-0,046
-130,570	-200,000	0,004	-0,134
-129,556	800,000	0,045	-0,095
-128,541	7,471	-0,078	-0,042
-127,526	800,000	0,033	-0,091
-126,512	130,607	-0,074	-0,069
-125,497	-22,251	0,198	0,087
-124,483	488,724	-0,071	-0,118
-123,468	336,593	0,042	0,059
-122,453	-200,000	0,012	-0,075
-121,439	215,539	0,037	0,043
-120,424	-19,815	-0,094	-0,042
-119,410	53,181	0,046	-0,032
-118,395	-199,944	0,073	0,000
-117,380	-200,000	0,045	0,147
