DTS Sentinel unit serial number:	SN410029Multiplexer serial number:	ORYXHardware model number:	OX2-SRSoftware version number:	ORYX F/W v4,00 Oryx Data Collector v3.7.2.0data status	okinstallation	B4 Nyhavnadifferential loss correction	single-endedforward channel	channel 2reverse channel	N/Adate	2023/12/16time	00:20:13forward acquisition time	300,00reverse acquisition time	0,00gamma	499,1914k internal	0,3128k external	0,3128temperature offset calibration	1,0000default loss term (dB/km)	0,3820temperature slope calibration	1,0000multiplexer offset coefficient	1,0000multiplexer slope coefficient	1,0000fibre end	0,00T internal ref (°C)	21,99T ext. ref 1 (°C)	6,73T ext. ref 2 (°C)	6,94length (m)	temperature (°C)	Stokes	anti-Stokes-744,400	-5,482	0,019	-0,010
-743,385	-75,684	-0,137	0,036
-742,371	82,765	0,019	-0,015
-741,356	-9,714	-0,242	0,120
-740,342	-60,557	0,026	0,008
-739,327	8,034	-0,243	0,135
-738,312	-111,285	-0,083	-0,012
-737,298	-143,130	-0,250	0,018
-736,283	261,451	0,097	-0,125
-735,269	8,960	-0,103	0,058
-734,254	-200,000	0,037	-0,156
-733,239	-85,200	-0,398	-0,092
-732,225	800,000	0,050	-0,115
-731,210	800,000	0,051	0,136
-730,196	800,000	0,032	0,084
-729,181	621,266	-0,058	-0,109
-728,167	-200,000	0,014	-0,060
-727,152	800,000	-0,041	-0,096
-726,137	69,388	0,026	-0,020
-725,123	-69,608	-0,081	-0,023
-724,108	144,783	-0,162	-0,161
-723,094	134,528	-0,149	-0,144
-722,079	-200,000	-0,010	-0,049
-721,064	677,205	-0,030	-0,059
-720,050	35,711	0,021	0,013
-719,035	-104,999	-0,048	0,008
-718,021	-200,000	-0,030	0,102
-717,006	462,502	0,037	-0,062
-715,991	-45,717	-0,079	0,029
-714,977	-136,761	-0,055	0,005
-713,962	490,668	-0,075	-0,127
-712,948	-200,000	-0,018	-0,113
-711,933	-200,000	0,004	-0,084
-710,918	-150,857	-0,039	-0,002
-709,904	-34,593	-0,106	-0,043
-708,889	-200,000	-0,023	-0,193
-707,875	-200,000	0,044	-0,186
-706,860	-129,603	0,071	0,007
-705,845	27,580	-0,108	0,068
-704,831	-200,000	0,028	0,094
-703,816	-200,000	-0,034	-0,200
-702,802	-200,000	0,004	-0,106
-701,787	135,373	-0,052	-0,050
-700,772	800,000	-0,072	-0,151
-699,758	119,325	-0,054	0,050
-698,743	327,783	0,086	0,124
-697,729	-200,000	-0,005	-0,018
-696,714	-200,000	-0,013	0,077
-695,699	-200,000	0,006	0,155
-694,685	-38,804	-0,067	0,026
-693,670	-7,976	0,064	-0,032
-692,656	117,704	0,068	0,062
-691,641	-10,430	0,068	-0,033
-690,627	-200,000	0,021	-0,140
-689,612	140,922	0,042	-0,042
-688,597	-59,817	-0,194	-0,061
-687,583	754,113	-0,018	0,037
-686,568	96,563	0,011	0,009
-685,554	71,651	-0,048	-0,037
-684,539	6,989	0,072	0,039
-683,524	208,289	0,082	-0,095
-682,510	-34,250	-0,223	0,091
-681,495	-153,899	0,169	0,008
-680,481	125,277	-0,043	0,041
-679,466	-200,000	0,022	-0,085
-678,451	-109,890	0,020	-0,003
-677,437	-113,709	-0,070	-0,010
-676,422	363,811	-0,025	-0,038
-675,408	425,919	0,046	0,074
-674,393	-200,000	-0,006	0,077
-673,378	-91,899	-0,063	-0,013
-672,364	-200,000	-0,013	-0,087
-671,349	-159,965	-0,165	0,007
-670,335	5,090	0,110	-0,060
-669,320	-125,577	-0,046	-0,005
-668,305	-194,054	-0,059	-0,000
-667,291	200,093	-0,015	-0,017
-666,276	-130,198	-0,124	-0,012
-665,262	388,439	-0,039	-0,059
-664,247	-86,061	-0,093	-0,021
-663,232	150,312	0,042	-0,042
-662,218	-200,000	-0,002	-0,068
-661,203	800,000	-0,042	-0,130
-660,189	76,758	0,071	-0,056
-659,174	-93,959	-0,035	-0,007
-658,159	800,000	0,029	0,083
-657,145	-200,000	0,007	-0,065
-656,130	-78,862	-0,120	0,030
-655,116	14,473	0,122	-0,071
-654,101	683,025	0,016	-0,030
-653,086	-24,265	-0,147	0,065
-652,072	-200,000	0,002	-0,008
-651,057	-65,797	-0,068	-0,020
-650,043	-166,312	-0,084	0,003
-649,028	800,000	0,050	0,128
-648,014	283,785	-0,041	0,054
-646,999	83,237	-0,121	0,098
-645,984	-135,672	-0,079	0,007
-644,970	800,000	0,034	-0,076
-643,955	310,061	-0,091	-0,126
-642,941	-125,876	0,023	-0,002
-641,926	110,877	-0,081	0,072
-640,911	680,751	-0,036	-0,069
-639,897	430,329	0,016	-0,026
-638,882	516,557	-0,041	-0,071
-637,868	800,000	0,035	0,100
-636,853	86,491	0,066	-0,054
-635,838	162,639	-0,095	-0,099
-634,824	460,818	-0,101	-0,167
-633,809	800,000	-0,060	0,137
-632,795	800,000	0,021	0,051
-631,780	-88,035	-0,065	-0,014
-630,765	218,608	-0,034	-0,041
-629,751	-58,975	0,091	0,029
-628,736	-10,153	-0,111	-0,054
-627,722	-62,888	0,101	-0,031
-626,707	800,000	-0,017	-0,044
-625,692	-200,000	-0,005	0,042
-624,678	-17,339	0,133	-0,062
-623,663	296,933	0,053	0,072
-622,649	-200,000	0,000	-0,051
-621,634	-200,000	0,008	0,095
-620,619	-157,103	0,083	-0,004
-619,605	200,685	0,035	-0,040
-618,590	72,246	0,083	-0,064
-617,576	800,000	-0,020	0,052
-616,561	156,461	-0,041	0,042
-615,546	-78,124	0,105	0,027
-614,532	-13,955	0,072	0,034
-613,517	486,065	0,070	0,118
-612,503	745,751	0,035	-0,071
-611,488	-30,139	-0,081	-0,034
-610,474	-136,900	-0,128	-0,011
-609,459	16,433	-0,007	-0,004
-608,444	800,000	-0,056	-0,134
-607,430	-114,423	0,093	0,013
-606,415	33,726	0,136	-0,087
-605,401	-15,643	-0,053	-0,025
-604,386	455,761	0,091	0,150
-603,371	150,317	0,048	-0,049
-602,357	263,943	-0,021	0,027
-601,342	-84,633	0,024	0,006
-600,328	175,376	-0,086	0,092
-599,313	800,000	0,049	-0,159
-598,298	76,302	-0,047	-0,037
-597,284	-163,696	0,105	-0,004
-596,269	539,152	-0,040	-0,071
-595,255	6,583	0,066	0,036
-594,240	-186,124	-0,122	0,001
-593,225	-200,000	-0,011	-0,079
-592,211	-65,834	-0,125	-0,037
-591,196	425,136	-0,028	-0,044
-590,182	-78,609	0,070	0,018
-589,167	364,412	-0,065	0,097
-588,152	800,000	0,050	-0,150
-587,138	800,000	0,038	0,115
-586,123	416,464	0,038	-0,060
-585,109	44,378	-0,098	-0,066
-584,094	-18,606	-0,059	0,027
-583,079	128,925	0,116	-0,110
-582,065	-200,000	-0,013	-0,045
-581,050	-103,252	0,031	0,005
-580,036	-200,000	0,006	0,036
-579,021	-76,979	-0,067	-0,017
-578,006	-46,763	0,162	0,058
-576,992	55,055	0,019	-0,014
-575,977	-168,245	0,031	0,001
-574,963	-160,851	-0,034	-0,001
-573,948	800,000	0,050	0,112
-572,934	-200,000	-0,009	0,102
-571,919	302,617	-0,037	-0,050
-570,904	206,829	-0,073	0,085
-569,890	136,909	0,102	-0,099
-568,875	800,000	0,048	-0,121
-567,861	-41,733	0,157	0,059
-566,846	276,106	0,129	0,170
-565,831	79,239	0,058	0,046
-564,817	800,000	-0,068	-0,177
-563,802	-200,000	-0,003	-0,054
-562,788	98,962	-0,135	-0,115
-561,773	-122,923	0,129	0,015
-560,758	-143,365	0,080	0,006
-559,744	-92,841	-0,088	-0,018
-558,729	37,789	0,150	-0,098
-557,715	49,363	0,086	0,060
-556,700	10,218	-0,056	0,031
-555,685	-200,000	0,004	0,129
-554,671	-144,663	-0,145	0,010
-553,656	-200,000	-0,001	-0,160
-552,642	800,000	0,015	-0,037
-551,627	78,599	0,095	-0,075
-550,612	-200,000	-0,033	-0,132
-549,598	800,000	-0,021	-0,059
-548,583	800,000	-0,023	0,048
-547,569	-176,085	-0,102	0,002
-546,554	-200,000	0,011	0,063
-545,539	92,514	0,133	0,111
-544,525	693,327	-0,027	0,053
-543,510	-200,000	-0,030	0,158
-542,496	-200,000	0,002	0,063
-541,481	-41,166	-0,021	-0,008
-540,466	-68,920	-0,029	0,008
-539,452	-200,000	0,006	-0,047
-538,437	-50,659	0,125	0,043
-537,423	800,000	0,060	0,162
-536,408	-200,000	-0,018	-0,129
-535,393	76,647	-0,193	-0,151
-534,379	-200,000	0,008	-0,061
-533,364	-78,943	-0,075	-0,019
-532,350	-200,000	0,022	0,127
-531,335	-200,000	0,022	0,084
-530,321	35,559	-0,052	0,033
-529,306	556,577	-0,074	-0,132
-528,291	579,758	-0,071	-0,129
-527,277	-200,000	0,008	0,158
-526,262	539,227	-0,060	0,105
-525,248	-200,000	-0,010	0,047
-524,233	137,245	0,058	-0,056
-523,218	36,353	-0,105	0,068
-522,204	800,000	0,047	0,098
-521,189	134,632	-0,072	-0,069
-520,175	303,655	-0,068	-0,093
-519,160	96,753	0,070	0,059
-518,145	22,515	0,017	0,010
-517,131	137,131	0,031	0,030
-516,116	218,211	-0,029	0,034
-515,102	17,926	-0,121	0,071
-514,087	-31,801	0,008	0,003
-513,072	13,674	-0,189	0,108
-512,058	521,578	-0,013	-0,023
-511,043	-200,000	-0,020	0,116
-510,029	47,939	0,108	0,074
-509,014	102,929	0,040	0,034
-507,999	-182,601	-0,109	-0,001
-506,985	-200,000	0,022	-0,113
-505,970	437,790	0,037	-0,060
-504,956	-200,000	0,015	-0,088
-503,941	800,000	-0,025	0,061
-502,926	-1,548	0,096	-0,050
-501,912	-200,000	0,029	0,114
-500,897	800,000	0,024	-0,050
-499,883	120,359	0,047	0,043
-498,868	-59,084	0,082	0,026
-497,853	800,000	0,016	-0,042
-496,839	-55,368	0,112	-0,037
-495,824	-45,380	-0,074	0,027
-494,810	-4,844	-0,035	-0,018
-493,795	-27,669	0,040	0,017
-492,781	2,812	-0,112	-0,060
-491,766	327,900	-0,014	0,020
-490,751	385,852	0,063	-0,097
-489,737	633,674	0,041	-0,078
-488,722	-14,673	0,044	0,021
-487,708	-70,550	0,040	0,011
-486,693	-200,000	-0,002	-0,035
-485,678	195,689	0,015	0,017
-484,664	-76,468	-0,105	0,027
-483,649	17,241	-0,032	0,019
-482,635	-200,000	0,028	0,103
-481,620	-82,534	-0,160	-0,038
-480,605	166,229	0,063	0,066
-479,591	17,077	-0,102	0,060
-478,576	76,691	0,019	-0,015
-477,562	85,317	0,061	0,050
-476,547	190,590	0,042	-0,046
-475,532	66,489	-0,065	-0,049
-474,518	800,000	-0,012	0,032
-473,503	-123,128	0,205	-0,024
-472,489	800,000	-0,034	-0,084
-471,474	-200,000	-0,014	-0,143
-470,459	-200,000	0,006	-0,086
-469,445	97,968	-0,196	-0,166
-468,430	-200,000	0,054	-0,208
-467,416	-200,000	0,038	-0,134
-466,401	800,000	0,015	-0,039
-465,386	-200,000	-0,027	-0,113
-464,372	366,598	0,022	0,032
-463,357	-167,397	-0,066	0,002
-462,343	-200,000	-0,003	-0,070
-461,328	184,784	-0,084	0,092
-460,313	73,701	0,067	-0,052
-459,299	-200,000	0,015	-0,055
-458,284	-107,483	-0,097	0,015
-457,270	800,000	0,058	0,122
-456,255	243,236	-0,045	0,056
-455,241	387,208	-0,041	0,062
-454,226	-141,295	-0,023	0,002
-453,211	18,741	0,188	-0,111
-452,197	104,728	-0,015	-0,013
-451,182	800,000	0,020	-0,045
-450,168	106,105	0,027	0,023
-449,153	31,868	-0,093	0,059
-448,138	-8,276	-0,142	0,070
-447,124	-200,000	0,004	-0,109
-446,109	210,693	0,074	-0,086
-445,095	800,000	0,024	0,076
-444,080	-10,135	-0,020	-0,010
-443,065	162,463	0,076	0,079
-442,051	800,000	0,044	-0,134
-441,036	565,002	-0,062	0,111
-440,022	269,180	0,051	0,066
-439,007	-200,000	0,010	0,055
-437,992	-67,219	-0,085	0,025
-436,978	-200,000	0,011	-0,059
-435,963	-200,000	0,003	0,032
-434,949	116,407	-0,034	-0,031
-433,934	145,397	0,050	-0,050
-432,919	-135,797	-0,022	0,002
-431,905	800,000	0,042	-0,105
-430,890	262,025	0,019	0,024
-429,876	170,281	-0,032	0,034
-428,861	36,544	0,009	-0,006
-427,846	-28,080	-0,034	-0,015
-426,832	29,794	-0,102	-0,064
-425,817	-100,051	-0,105	-0,019
-424,803	-58,124	-0,078	0,025
-423,788	-200,000	0,038	-0,226
-422,773	800,000	0,036	0,077
-421,759	125,401	0,073	0,068
-420,744	-200,000	0,001	0,004
-419,730	-200,000	0,002	-0,039
-418,715	800,000	-0,076	0,181
-417,701	-200,000	0,000	0,014
-416,686	800,000	0,043	-0,105
-415,671	458,639	0,075	0,124
-414,657	-200,000	-0,022	0,087
-413,642	-200,000	-0,135	0,000
-412,628	20,317	-0,056	-0,033
-411,613	800,000	0,056	-0,156
-410,598	800,000	-0,024	0,060
-409,584	136,161	-0,085	0,082
-408,569	-200,000	-0,035	0,139
-407,555	-77,318	0,136	0,035
-406,540	-108,588	0,055	-0,009
-405,525	800,000	-0,024	0,068
-404,511	-200,000	0,004	-0,030
-403,496	294,693	-0,064	-0,086
-402,482	195,190	0,058	0,065
-401,467	-6,634	0,059	-0,029
-400,452	-87,645	0,152	-0,033
-399,438	83,765	0,078	0,063
-398,423	81,208	0,043	-0,034
-397,409	99,619	-0,124	-0,106
-396,394	161,339	-0,074	-0,076
-395,379	-34,385	0,041	-0,017
-394,365	-122,440	-0,034	0,004
-393,350	-114,172	0,106	-0,015
-392,336	673,468	0,090	0,173
-391,321	51,517	0,044	0,031
-390,306	203,306	-0,098	-0,111
-389,292	800,000	-0,015	-0,034
-388,277	-200,000	-0,020	0,141
-387,263	-200,000	-0,034	-0,128
-386,248	-84,449	0,184	-0,042
-385,233	337,788	-0,038	0,054
-384,219	-96,203	0,144	0,028
-383,204	16,443	-0,080	-0,046
-382,190	9,429	0,168	-0,093
-381,175	99,986	-0,022	0,018
-380,160	-159,630	-0,055	-0,002
-379,146	-141,259	0,082	0,006
-378,131	176,077	0,116	-0,124
-377,117	44,359	0,118	-0,079
-376,102	800,000	-0,014	0,041
-375,088	127,614	-0,062	0,058
-374,073	42,731	-0,073	0,049
-373,058	-200,000	0,006	0,046
-372,044	-12,182	0,065	0,031
-371,029	-125,044	0,072	0,008
-370,015	374,533	0,063	0,095
-369,000	800,000	0,014	0,029
-367,985	354,564	0,054	-0,079
-366,971	-200,000	0,023	-0,082
-365,956	800,000	0,055	0,137
-364,942	-33,725	-0,112	-0,045
-363,927	-86,954	0,124	-0,028
-362,912	-133,095	0,040	0,004
-361,898	-46,640	-0,057	-0,021
-360,883	-200,000	0,011	-0,216
-359,869	-200,000	0,018	-0,060
-358,854	-28,336	0,027	-0,011
-357,839	-200,000	0,013	-0,071
-356,825	98,619	-0,136	0,115
-355,810	33,291	0,058	0,037
-354,796	-200,000	0,001	-0,097
-353,781	44,739	-0,095	-0,064
-352,766	-1,131	-0,068	0,035
-351,752	113,510	-0,093	-0,083
-350,737	354,778	0,048	0,070
-349,723	558,881	0,115	0,205
-348,708	557,078	0,047	0,084
-347,693	301,545	-0,054	0,073
-346,679	800,000	-0,062	0,153
-345,664	648,592	-0,054	-0,101
-344,650	-200,000	-0,031	-0,133
-343,635	-200,000	0,026	0,089
-342,620	800,000	0,023	-0,051
-341,606	-200,000	0,008	0,054
-340,591	49,762	-0,210	-0,145
-339,577	-150,203	0,037	-0,002
-338,562	68,479	0,053	0,040
-337,548	562,073	0,051	0,091
-336,533	13,011	-0,086	-0,049
-335,518	800,000	-0,017	0,040
-334,504	-106,545	0,138	0,022
-333,489	800,000	-0,007	0,022
-332,475	-200,000	-0,043	-0,177
-331,460	305,467	0,029	0,040
-330,445	-40,392	0,042	-0,016
-329,431	-200,000	-0,021	0,077
-328,416	-128,923	-0,069	-0,007
-327,402	-4,853	0,241	-0,121
-326,387	136,758	0,015	0,014
-325,372	103,349	-0,038	0,032
-324,358	-32,965	-0,196	0,079
-323,343	-200,000	0,004	-0,158
-322,329	-38,825	-0,062	-0,024
-321,314	-53,370	0,097	0,032
-320,299	548,880	0,026	0,045
-319,285	-200,000	0,017	0,085
-318,270	-200,000	0,001	-0,012
-317,256	-200,000	-0,001	-0,096
-316,241	215,558	0,097	0,113
-315,226	-33,991	0,043	-0,017
-314,212	-176,725	0,094	0,002
-313,197	302,857	0,083	0,113
-312,183	-11,125	0,039	-0,019
-311,168	6,430	-0,121	-0,066
-310,153	322,697	-0,077	-0,108
-309,139	-107,581	0,013	0,002
-308,124	-200,000	-0,018	0,073
-307,110	171,715	0,150	0,157
-306,095	240,533	-0,106	0,129
-305,080	358,233	0,079	0,116
-304,066	193,624	-0,050	0,055
-303,051	800,000	0,015	0,039
-302,037	-20,094	-0,028	0,013
-301,022	108,730	-0,024	0,021
-300,008	800,000	0,021	0,065
-298,993	-149,717	-0,078	0,004
-297,978	333,521	0,085	0,120
-296,964	-78,815	-0,069	-0,017
-295,949	-200,000	0,010	0,061
-294,935	800,000	-0,049	-0,129
-293,920	-200,000	-0,037	0,167
-292,905	64,839	-0,155	-0,115
-291,891	238,090	0,029	-0,035
-290,876	730,503	0,061	0,121
-289,862	84,918	-0,079	-0,063
-288,847	717,593	0,029	-0,057
-287,832	-70,773	-0,017	0,005
-286,818	295,913	0,077	0,104
-285,803	65,895	-0,024	0,018
-284,789	494,923	0,069	0,116
-283,774	65,785	0,102	0,075
-282,759	-68,860	0,057	-0,016
-281,745	800,000	0,022	0,047
-280,730	196,831	-0,011	-0,012
-279,716	-200,000	-0,004	0,084
-278,701	-200,000	-0,036	0,133
-277,686	-53,350	0,026	0,009
-276,672	168,586	-0,101	0,105
-275,657	-167,251	-0,044	0,001
-274,643	196,810	0,084	-0,093
-273,628	-200,000	-0,002	0,050
-272,613	65,120	0,064	-0,047
-271,599	162,476	-0,104	0,107
-270,584	189,828	0,024	0,027
-269,570	-81,772	0,059	0,014
-268,555	-52,716	0,052	0,017
-267,540	-127,449	-0,055	-0,006
-266,526	-86,896	-0,029	0,006
-265,511	71,555	-0,022	0,017
-264,497	-200,000	0,022	-0,095
-263,482	-200,000	-0,020	0,092
-262,467	-200,000	0,042	0,181
-261,453	124,880	-0,111	-0,102
-260,438	-116,199	0,051	-0,007
-259,424	-64,731	-0,066	0,019
-258,409	800,000	-0,045	-0,119
-257,395	-136,266	0,131	-0,011
-256,380	93,429	0,093	0,077
-255,365	104,215	0,065	0,056
-254,351	-200,000	-0,013	0,097
-253,336	190,454	-0,099	0,108
-252,322	800,000	-0,103	-0,209
-251,307	57,399	-0,046	0,033
-250,292	-200,000	0,011	-0,055
-249,278	534,897	0,047	-0,081
-248,263	385,856	0,049	0,074
-247,249	-200,000	0,019	-0,121
-246,234	-200,000	-0,010	-0,133
-245,219	-14,002	0,109	0,051
-244,205	-22,610	-0,104	-0,046
-243,190	800,000	0,044	-0,111
-242,176	-66,668	0,049	0,014
-241,161	-15,662	0,081	0,037
-240,146	375,116	-0,029	-0,044
-239,132	11,162	-0,084	0,047
-238,117	-200,000	0,004	-0,029
-237,103	74,891	-0,013	-0,010
-236,088	45,191	-0,023	-0,015
-235,073	-47,137	0,143	0,051
-234,059	-70,269	-0,089	0,024
-233,044	207,131	0,051	-0,058
-232,030	-70,643	0,064	0,017
-231,015	569,282	0,032	-0,056
-230,000	-200,000	0,013	-0,054
-228,986	-200,000	-0,011	-0,100
-227,971	574,388	-0,075	-0,135
-226,957	-113,000	0,186	0,027
-225,942	800,000	-0,049	0,149
-224,927	129,634	-0,082	0,076
-223,913	109,627	-0,113	0,099
-222,898	-138,456	0,034	0,003
-221,884	234,727	0,040	0,048
-220,869	-20,267	0,078	0,035
-219,855	426,812	0,029	0,045
-218,840	298,879	0,077	0,104
-217,825	800,000	-0,054	-0,117
-216,811	-200,000	0,030	-0,112
-215,796	800,000	-0,064	-0,132
-214,782	54,679	-0,096	-0,068
-213,767	-200,000	-0,002	-0,118
-212,752	-200,000	0,016	0,121
-211,738	-200,000	0,014	0,071
-210,723	112,775	0,072	0,064
-209,709	-200,000	0,023	-0,103
-208,694	800,000	-0,022	-0,069
-207,679	88,693	-0,086	0,069
-206,665	531,122	-0,041	0,071
-205,650	-67,963	0,126	0,036
-204,636	464,127	-0,055	0,090
-203,621	-166,302	-0,064	0,002
-202,606	-115,724	-0,135	0,018
-201,592	264,048	-0,036	-0,046
-200,577	800,000	-0,020	0,059
-199,563	163,202	-0,039	-0,040
-198,548	-200,000	-0,013	0,054
-197,533	-87,999	0,110	0,024
-196,519	34,111	-0,143	0,091
-195,504	-59,669	-0,172	-0,053
-194,490	800,000	0,059	0,142
-193,475	701,415	-0,055	-0,107
-192,460	-200,000	-0,013	-0,178
-191,446	-70,358	-0,083	-0,023
-190,431	-169,356	0,095	-0,002
-189,417	89,491	-0,096	0,078
-188,402	143,138	0,075	0,072
-187,387	192,511	-0,083	0,091
-186,373	-200,000	0,006	-0,163
-185,358	613,697	-0,016	-0,029
-184,344	161,278	-0,067	0,069
-183,329	-94,857	-0,122	-0,024
-182,315	-200,000	-0,006	0,036
-181,300	185,446	0,028	0,030
-180,285	163,258	-0,049	-0,050
-179,271	-200,000	-0,036	-0,180
-178,256	-2,415	-0,074	0,038
-177,242	122,698	-0,065	-0,060
-176,227	-200,000	0,025	0,100
-175,212	-23,953	-0,079	-0,034
-174,198	0,495	-0,046	0,024
-173,183	-200,000	0,014	0,061
-172,169	800,000	-0,023	0,051
-171,154	113,700	0,084	-0,074
-170,139	800,000	0,012	-0,027
-169,125	-200,000	-0,003	-0,164
-168,110	-36,756	-0,073	0,028
-167,096	-79,742	0,110	0,027
-166,081	82,786	0,059	0,047
-165,066	-200,000	-0,053	-0,225
-164,052	-42,989	0,036	0,013
-163,037	200,219	0,087	0,097
-162,023	-70,211	0,092	-0,025
-161,008	169,648	-0,040	-0,041
-159,993	87,880	0,084	-0,068
-158,979	-103,982	-0,059	0,010
-157,964	14,156	-0,113	0,064
-156,950	-183,031	-0,070	-0,001
-155,935	-200,000	0,003	-0,041
-154,920	89,229	0,101	0,082
-153,906	292,268	0,066	0,088
-152,891	-21,240	-0,165	-0,073
-151,877	-200,000	0,010	-0,037
-150,862	-200,000	0,040	0,209
-149,847	0,171	-0,029	-0,015
-148,833	-200,000	-0,016	0,130
-147,818	60,480	0,173	-0,124
-146,804	-200,000	0,015	0,079
-145,789	800,000	0,056	0,178
-144,775	15,209	0,007	-0,004
-143,760	-200,000	-0,014	-0,096
-142,745	-29,774	-0,164	0,068
-141,731	-42,677	0,018	0,007
-140,716	-34,347	0,088	0,035
-139,702	-50,869	-0,040	-0,014
-138,687	120,329	0,081	-0,074
-137,672	319,193	-0,007	-0,009
-136,658	-200,000	-0,002	0,135
-135,643	-142,579	0,066	-0,005
-134,629	182,565	-0,060	0,064
-133,614	-200,000	-0,002	0,006
-132,599	-200,000	-0,002	-0,060
-131,585	-156,857	-0,044	-0,002
-130,570	-159,681	-0,003	-0,000
-129,556	85,802	-0,058	-0,047
-128,541	-200,000	-0,019	-0,294
-127,526	800,000	-0,042	-0,122
-126,512	-200,000	-0,006	0,060
-125,497	472,386	0,025	0,042
-124,483	7,708	-0,078	0,042
-123,468	-200,000	0,015	0,093
-122,453	800,000	-0,027	0,056
-121,439	-73,340	0,093	-0,025
-120,424	800,000	0,036	-0,083
-119,410	322,621	-0,027	-0,038
-118,395	-62,883	0,076	-0,023
