DTS Sentinel unit serial number:	SN410029Multiplexer serial number:	ORYXHardware model number:	OX2-SRSoftware version number:	ORYX F/W v4,00 Oryx Data Collector v3.7.2.0data status	okinstallation	B4 Nyhavnadifferential loss correction	single-endedforward channel	channel 2reverse channel	N/Adate	2023/12/18time	19:35:13forward acquisition time	300,00reverse acquisition time	0,00gamma	499,1914k internal	0,3124k external	0,3124temperature offset calibration	1,0000default loss term (dB/km)	0,3820temperature slope calibration	1,0000multiplexer offset coefficient	1,0000multiplexer slope coefficient	1,0000fibre end	0,00T internal ref (°C)	21,87T ext. ref 1 (°C)	7,03T ext. ref 2 (°C)	7,04length (m)	temperature (°C)	Stokes	anti-Stokes-744,400	-200,000	0,014	-0,128
-743,385	800,000	-0,051	0,118
-742,371	-91,996	0,072	0,015
-741,356	478,142	-0,104	0,177
-740,342	19,802	0,053	-0,032
-739,327	54,921	-0,132	0,095
-738,312	-135,761	-0,073	0,006
-737,298	94,855	-0,240	0,203
-736,283	53,437	-0,157	-0,112
-735,269	33,047	-0,091	0,059
-734,254	-200,000	0,011	-0,102
-733,239	-25,137	-0,399	-0,175
-732,225	42,472	0,057	0,039
-731,210	280,583	0,066	0,088
-730,196	800,000	-0,032	-0,096
-729,181	642,914	-0,045	0,085
-728,167	-54,813	0,123	0,041
-727,152	-200,000	-0,002	0,023
-726,137	109,077	-0,032	0,029
-725,123	-200,000	-0,013	0,066
-724,108	-111,081	0,065	-0,010
-723,094	557,558	-0,011	-0,020
-722,079	-87,478	-0,110	-0,025
-721,064	-147,807	0,041	0,003
-720,050	800,000	0,016	-0,050
-719,035	800,000	0,032	-0,081
-718,021	381,983	0,055	0,085
-717,006	121,118	-0,167	-0,155
-715,991	713,880	-0,075	-0,148
-714,977	800,000	0,043	-0,094
-713,962	750,052	0,006	-0,012
-712,948	204,367	0,055	-0,064
-711,933	252,197	-0,087	-0,110
-710,918	800,000	-0,038	-0,103
-709,904	800,000	-0,052	-0,127
-708,889	-39,382	-0,044	-0,017
-707,875	435,150	-0,041	-0,066
-706,860	-200,000	0,004	-0,057
-705,845	-91,407	-0,042	0,009
-704,831	800,000	0,032	0,073
-703,816	800,000	-0,022	-0,059
-702,802	-200,000	-0,009	0,111
-701,787	417,188	0,110	-0,176
-700,772	161,141	-0,157	-0,164
-699,758	-68,285	0,081	-0,023
-698,743	-26,665	0,109	0,047
-697,729	341,469	0,064	-0,093
-696,714	800,000	-0,021	-0,065
-695,699	-200,000	0,004	-0,055
-694,685	800,000	-0,038	-0,107
-693,670	201,870	-0,120	-0,138
-692,656	269,866	-0,071	-0,093
-691,641	-12,701	0,083	-0,040
-690,627	-67,409	-0,009	0,003
-689,612	-132,124	0,039	-0,004
-688,597	338,216	-0,097	-0,141
-687,583	119,896	-0,079	-0,073
-686,568	-200,000	0,002	-0,015
-685,554	-174,247	0,053	-0,001
-684,539	800,000	0,043	-0,106
-683,524	1,528	0,055	-0,029
-682,510	800,000	0,026	0,081
-681,495	800,000	-0,026	-0,071
-680,481	41,184	0,066	-0,044
-679,466	-200,000	0,002	0,030
-678,451	-200,000	-0,027	-0,170
-677,437	-187,780	0,073	-0,001
-676,422	231,835	0,109	-0,133
-675,408	45,221	0,093	0,064
-674,393	-129,566	-0,132	-0,013
-673,378	70,752	0,067	-0,052
-672,364	103,140	-0,140	-0,122
-671,349	758,286	-0,047	-0,095
-670,335	574,354	0,064	0,117
-669,320	-103,709	-0,136	0,023
-668,305	169,699	-0,016	-0,017
-667,291	440,050	0,018	0,029
-666,276	-65,645	-0,080	-0,024
-665,262	800,000	-0,015	-0,031
-664,247	-8,574	-0,056	0,028
-663,232	-10,122	-0,062	-0,030
-662,218	-168,099	-0,120	-0,003
-661,203	510,755	-0,059	0,103
-660,189	380,496	-0,059	-0,090
-659,174	-200,000	0,031	-0,153
-658,159	18,940	-0,075	-0,044
-657,145	800,000	-0,044	-0,123
-656,130	800,000	0,022	0,070
-655,116	-200,000	-0,002	0,039
-654,101	129,651	-0,100	0,095
-653,086	18,653	-0,100	-0,059
-652,072	-92,789	-0,141	0,029
-651,057	-60,354	-0,106	-0,033
-650,043	229,224	0,046	-0,055
-649,028	390,151	-0,027	0,042
-648,014	246,673	-0,016	-0,020
-646,999	-186,940	0,198	-0,002
-645,984	-200,000	0,005	0,070
-644,970	-103,693	-0,101	0,017
-643,955	800,000	-0,039	-0,084
-642,941	-136,842	-0,079	-0,007
-641,926	-151,345	0,092	-0,005
-640,911	-17,081	-0,104	-0,049
-639,897	800,000	-0,022	0,050
-638,882	229,698	0,013	-0,016
-637,868	13,448	-0,060	0,035
-636,853	800,000	0,021	-0,056
-635,838	22,362	-0,103	-0,062
-634,824	457,810	-0,098	-0,163
-633,809	-200,000	-0,018	-0,117
-632,795	800,000	0,016	-0,052
-631,780	166,320	0,075	-0,079
-630,765	-28,721	-0,080	-0,034
-629,751	116,570	-0,085	-0,077
-628,736	-154,219	0,088	-0,004
-627,722	-200,000	0,003	0,019
-626,707	-63,189	-0,062	0,019
-625,692	-200,000	0,015	0,119
-624,678	-200,000	-0,017	0,106
-623,663	-200,000	0,023	-0,105
-622,649	-151,889	-0,090	-0,005
-621,634	398,197	-0,058	0,090
-620,619	-13,822	-0,092	0,044
-619,605	-71,586	0,101	-0,028
-618,590	-9,514	-0,054	0,027
-617,576	-29,835	-0,087	-0,037
-616,561	126,085	-0,038	0,035
-615,546	95,459	-0,086	-0,073
-614,532	-34,922	-0,150	-0,061
-613,517	90,142	-0,034	-0,028
-612,503	67,015	0,107	-0,081
-611,488	284,905	-0,084	0,113
-610,474	64,131	0,065	0,048
-609,459	25,086	0,022	-0,014
-608,444	191,586	0,050	-0,056
-607,430	-200,000	-0,014	-0,109
-606,415	-139,985	-0,044	0,003
-605,401	45,358	-0,059	-0,040
-604,386	800,000	-0,020	-0,047
-603,371	-137,100	-0,030	0,003
-602,357	18,255	-0,118	-0,069
-601,342	747,135	-0,026	-0,052
-600,328	-166,617	0,152	-0,005
-599,313	-200,000	-0,007	-0,044
-598,298	96,707	-0,042	0,035
-597,284	440,923	0,032	0,051
-596,269	257,552	-0,006	0,008
-595,255	25,475	-0,114	0,070
-594,240	24,398	-0,093	-0,057
-593,225	-200,000	-0,007	-0,047
-592,211	187,243	-0,118	-0,131
-591,196	-127,449	0,078	-0,008
-590,182	65,133	-0,105	-0,078
-589,167	800,000	0,016	-0,048
-588,152	-164,649	0,074	0,002
-587,138	122,219	0,018	-0,017
-586,123	-99,204	-0,020	0,004
-585,109	-147,754	-0,165	-0,010
-584,094	-89,561	0,067	0,014
-583,079	318,512	-0,009	0,013
-582,065	-122,778	0,075	0,009
-581,050	-84,554	0,050	0,012
-580,036	422,841	0,031	-0,049
-579,021	82,547	-0,060	0,048
-578,006	-46,866	0,101	-0,037
-576,992	800,000	-0,016	-0,045
-575,977	160,056	-0,021	0,022
-574,963	-200,000	0,027	0,092
-573,948	-32,193	0,098	-0,040
-572,934	177,939	-0,015	-0,017
-571,919	-139,136	0,124	0,010
-570,904	-65,419	0,115	0,034
-569,890	673,961	-0,050	0,097
-568,875	-171,250	0,082	-0,002
-567,861	35,723	-0,088	0,057
-566,846	77,325	0,050	0,040
-565,831	-81,055	-0,123	0,030
-564,817	-200,000	-0,012	0,200
-563,802	-57,002	0,068	-0,022
-562,788	235,410	-0,074	-0,090
-561,773	-200,000	0,010	0,071
-560,758	268,802	-0,067	-0,087
-559,744	366,004	0,012	0,018
-558,729	-40,661	-0,158	-0,060
-557,715	-177,260	-0,056	-0,001
-556,700	287,950	-0,006	-0,008
-555,685	138,987	0,012	0,012
-554,671	483,608	0,039	-0,067
-553,656	531,496	-0,027	0,047
-552,642	-200,000	0,004	-0,020
-551,627	-109,148	-0,025	-0,004
-550,612	81,771	-0,053	-0,043
-549,598	-94,506	0,046	0,009
-548,583	396,771	-0,096	-0,149
-547,569	800,000	0,029	0,064
-546,554	36,703	-0,050	0,033
-545,539	-200,000	-0,030	-0,183
-544,525	-194,845	0,127	0,001
-543,510	-139,524	-0,125	-0,010
-542,496	-200,000	-0,017	-0,115
-541,481	108,538	-0,128	-0,113
-540,466	800,000	0,030	-0,080
-539,452	-118,964	-0,067	0,009
-538,437	-77,615	0,195	-0,049
-537,423	71,241	0,135	0,103
-536,408	800,000	-0,011	0,023
-535,393	-75,936	-0,053	0,014
-534,379	-200,000	0,001	0,036
-533,364	155,609	-0,069	-0,071
-532,350	-55,705	0,102	0,034
-531,335	800,000	-0,040	0,114
-530,321	214,821	-0,005	-0,006
-529,306	-60,735	0,070	0,022
-528,291	-2,487	-0,061	0,031
-527,277	-121,474	0,025	-0,003
-526,262	800,000	0,074	-0,181
-525,248	-2,831	-0,082	-0,042
-524,233	-149,862	0,221	0,013
-523,218	72,276	-0,073	-0,056
-522,204	114,361	-0,107	0,096
-521,189	800,000	-0,020	-0,045
-520,175	-200,000	-0,003	-0,053
-519,160	-29,584	-0,034	0,014
-518,145	675,388	0,109	0,210
-517,131	-200,000	0,004	0,149
-516,116	800,000	-0,055	0,124
-515,102	-116,089	0,115	-0,016
-514,087	608,187	0,042	-0,079
-513,072	-74,907	-0,095	-0,025
-512,058	25,991	-0,033	0,021
-511,043	7,143	-0,050	0,028
-510,029	150,249	-0,056	0,057
-509,014	-186,432	-0,109	-0,001
-507,999	62,292	0,027	0,020
-506,985	-1,215	-0,094	0,049
-505,970	179,697	0,084	0,091
-504,956	58,726	-0,026	0,019
-503,941	800,000	-0,035	-0,111
-502,926	800,000	0,003	-0,009
-501,912	-30,380	0,081	0,034
-500,897	321,556	0,051	-0,071
-499,883	-200,000	-0,025	0,083
-498,868	-4,831	-0,105	0,053
-497,853	800,000	-0,060	-0,155
-496,839	667,244	0,044	-0,085
-495,824	-98,815	-0,038	-0,007
-494,810	-200,000	-0,004	0,041
-493,795	800,000	0,019	0,041
-492,781	-30,891	-0,096	-0,040
-491,766	65,592	0,015	0,011
-490,751	86,944	0,083	0,068
-489,737	-121,112	-0,042	0,005
-488,722	-200,000	-0,021	0,090
-487,708	-200,000	-0,006	0,041
-486,693	416,763	-0,031	-0,049
-485,678	800,000	0,040	-0,083
-484,664	285,651	-0,036	-0,048
-483,649	765,199	-0,066	0,132
-482,635	314,749	-0,046	0,064
-481,620	-200,000	0,003	0,055
-480,605	-200,000	0,056	0,197
-479,591	-200,000	0,021	0,122
-478,576	-200,000	-0,011	0,052
-477,562	430,175	-0,055	0,088
-476,547	-200,000	-0,012	0,057
-475,532	64,117	0,135	-0,100
-474,518	562,682	-0,018	-0,033
-473,503	800,000	-0,030	0,089
-472,489	-200,000	-0,021	0,194
-471,474	800,000	-0,020	-0,042
-470,459	-200,000	0,000	-0,138
-469,445	167,197	-0,136	-0,143
-468,430	186,027	-0,056	0,061
-467,416	-108,694	0,090	-0,014
-466,401	218,157	-0,076	0,089
-465,386	-200,000	0,010	0,180
-464,372	-35,071	-0,090	0,036
-463,357	-200,000	0,009	-0,101
-462,343	800,000	-0,023	-0,060
-461,328	-200,000	-0,025	0,184
-460,313	287,038	0,051	-0,068
-459,299	-158,989	0,117	-0,005
-458,284	-6,096	0,100	0,050
-457,270	-91,020	0,125	0,026
-456,255	60,431	-0,055	0,040
-455,241	22,190	0,111	-0,067
-454,226	171,173	-0,110	-0,117
-453,211	182,085	0,069	0,075
-452,197	28,751	0,060	0,037
-451,182	-158,257	0,119	-0,005
-450,168	89,621	-0,046	0,038
-449,153	129,076	-0,037	-0,035
-448,138	198,916	-0,026	0,029
-447,124	102,592	0,069	0,059
-446,109	-200,000	0,006	-0,025
-445,095	205,981	0,104	-0,120
-444,080	456,986	0,044	-0,072
-443,065	800,000	-0,004	0,011
-442,051	214,783	0,076	-0,089
-441,036	78,815	-0,100	-0,079
-440,022	-87,486	0,061	-0,013
-439,007	-150,814	-0,064	0,004
-437,992	470,152	0,057	0,095
-436,978	-200,000	-0,016	0,077
-435,963	228,401	-0,026	-0,032
-434,949	84,604	0,131	-0,106
-433,934	59,224	0,035	-0,025
-432,919	-121,302	-0,135	0,016
-431,905	7,591	0,152	0,083
-430,890	-27,364	-0,065	-0,028
-429,876	-158,697	-0,053	-0,002
-428,861	-200,000	-0,005	0,036
-427,846	554,877	-0,009	-0,016
-426,832	115,985	-0,104	-0,094
-425,817	254,921	-0,103	-0,130
-424,803	-198,227	-0,168	-0,001
-423,788	-200,000	0,027	-0,097
-422,773	-130,807	0,162	-0,016
-421,759	-200,000	0,003	-0,030
-420,744	800,000	0,032	0,094
-419,730	800,000	-0,017	-0,036
-418,715	59,749	-0,044	-0,032
-417,701	629,366	-0,082	0,154
-416,686	-200,000	0,004	-0,039
-415,671	152,708	-0,055	-0,055
-414,657	-200,000	-0,006	-0,023
-413,642	-200,000	-0,009	0,081
-412,628	10,239	-0,031	-0,017
-411,613	-200,000	0,007	-0,111
-410,598	-98,296	-0,031	-0,006
-409,584	800,000	0,035	0,074
-408,569	256,618	0,044	-0,056
-407,555	533,322	0,082	0,144
-406,540	57,476	0,060	0,043
-405,525	-24,148	-0,076	0,033
-404,511	140,070	-0,067	-0,065
-403,496	0,503	-0,077	0,040
-402,482	303,608	0,051	-0,070
-401,467	800,000	-0,027	-0,074
-400,452	-110,072	0,154	-0,023
-399,438	-200,000	-0,002	0,023
-398,423	416,501	0,069	0,109
-397,409	-200,000	0,015	-0,157
-396,394	133,609	-0,028	-0,027
-395,379	-200,000	-0,011	0,153
-394,365	-95,554	0,120	0,023
-393,350	-200,000	-0,008	-0,171
-392,336	62,252	-0,034	0,025
-391,321	-200,000	-0,002	-0,096
-390,306	-79,382	0,121	-0,030
-389,292	-55,125	-0,059	0,019
-388,277	724,457	0,058	0,115
-387,263	-200,000	0,011	-0,052
-386,248	-148,651	0,150	0,009
-385,233	800,000	0,072	0,182
-384,219	-200,000	-0,014	0,048
-383,204	53,466	-0,144	-0,102
-382,190	800,000	-0,014	0,041
-381,175	-115,826	-0,051	0,007
-380,160	-72,139	-0,099	-0,027
-379,146	394,803	-0,075	0,115
-378,131	-200,000	-0,002	0,050
-377,117	130,214	-0,121	-0,114
-376,102	-92,629	0,109	-0,022
-375,088	800,000	-0,061	-0,138
-374,073	230,730	-0,024	0,028
-373,058	266,942	0,039	-0,050
-372,044	-200,000	0,007	0,093
-371,029	-68,828	-0,066	-0,019
-370,015	6,890	-0,098	-0,054
-369,000	224,229	-0,104	-0,124
-367,985	569,253	-0,046	0,083
-366,971	-200,000	0,023	0,110
-365,956	169,908	0,037	-0,039
-364,942	73,140	0,105	-0,081
-363,927	253,039	0,078	0,098
-362,912	23,755	0,088	0,053
-361,898	435,325	0,054	-0,086
-360,883	-5,447	-0,094	0,047
-359,869	800,000	0,014	-0,035
-358,854	-200,000	0,012	-0,044
-357,839	-23,948	0,118	0,052
-356,825	-200,000	-0,036	-0,131
-355,810	-60,587	0,101	-0,031
-354,796	-200,000	-0,050	0,215
-353,781	800,000	0,032	0,096
-352,766	277,771	-0,123	-0,161
-351,752	-200,000	0,011	-0,067
-350,737	-200,000	-0,001	0,154
-349,723	-200,000	0,017	-0,099
-348,708	800,000	-0,003	0,007
-347,693	303,178	-0,071	0,096
-346,679	-200,000	0,004	-0,071
-345,664	-145,097	-0,052	0,003
-344,650	314,976	-0,045	-0,062
-343,635	786,081	-0,032	0,065
-342,620	-76,651	-0,046	-0,012
-341,606	800,000	-0,014	0,036
-340,591	331,122	0,072	0,103
-339,577	-200,000	0,006	-0,099
-338,562	-2,902	0,083	0,042
-337,548	-162,722	0,148	-0,005
-336,533	-200,000	0,045	0,169
-335,518	-200,000	0,003	0,040
-334,504	800,000	0,081	0,168
-333,489	451,696	0,015	-0,024
-332,475	-200,000	-0,000	0,059
-331,460	-33,765	-0,051	0,021
-330,445	138,738	0,028	-0,027
-329,431	-200,000	-0,008	-0,046
-328,416	100,723	-0,054	0,046
-327,402	415,654	0,091	0,142
-326,387	800,000	0,045	-0,115
-325,372	800,000	-0,027	-0,083
-324,358	800,000	-0,014	0,043
-323,343	-140,304	-0,061	0,005
-322,329	-200,000	0,011	0,114
-321,314	175,356	-0,093	0,099
-320,299	800,000	0,032	0,099
-319,285	800,000	0,015	-0,037
-318,270	800,000	0,045	-0,116
-317,256	-82,262	-0,112	-0,027
-316,241	-200,000	-0,016	0,133
-315,226	179,471	-0,066	0,071
-314,212	-51,819	0,070	-0,024
-313,197	-19,839	0,093	-0,042
-312,183	-131,075	0,131	-0,013
-311,168	-58,767	-0,074	0,023
-310,153	-200,000	-0,042	-0,167
-309,139	-127,781	-0,063	0,007
-308,124	-200,000	-0,002	0,047
-307,110	-200,000	-0,003	0,078
-306,095	274,276	0,090	0,117
-305,080	-40,602	0,113	-0,043
-304,066	800,000	0,034	0,079
-303,051	-123,909	0,076	0,009
-302,037	50,613	0,091	0,063
-301,022	31,240	-0,047	0,030
-300,008	-51,498	0,128	0,043
-298,993	-200,000	0,008	0,075
-297,978	-200,000	0,016	-0,072
-296,964	-200,000	0,004	-0,057
-295,949	-200,000	0,019	-0,082
-294,935	-48,124	-0,128	-0,045
-293,920	15,664	-0,088	-0,051
-292,905	86,584	0,062	0,050
-291,891	-200,000	-0,006	0,039
-290,876	-200,000	-0,012	0,056
-289,862	-200,000	-0,005	0,087
-288,847	63,037	-0,188	-0,137
-287,832	290,283	-0,021	0,027
-286,818	24,281	-0,028	-0,017
-285,803	777,169	0,056	-0,113
-284,789	103,165	0,098	-0,084
-283,774	95,960	0,041	-0,034
-282,759	20,915	0,052	-0,031
-281,745	800,000	0,016	-0,043
-280,730	90,874	-0,191	-0,156
-279,716	467,921	0,018	-0,029
-278,701	379,608	0,038	-0,058
-277,686	224,470	-0,023	-0,027
-276,672	-82,973	-0,058	-0,014
-275,657	166,679	-0,063	0,065
-274,643	115,311	-0,082	-0,073
-273,628	186,194	-0,081	-0,088
-272,613	-200,000	-0,008	0,069
-271,599	-200,000	-0,002	-0,096
-270,584	129,352	0,044	0,041
-269,570	-105,149	-0,055	0,009
-268,555	2,216	-0,072	0,038
-267,540	-200,000	-0,022	-0,091
-266,526	-16,094	-0,050	-0,023
-265,511	-37,965	0,143	0,055
-264,497	-76,717	-0,136	0,035
-263,482	-97,526	0,100	0,019
-262,467	-10,677	0,078	0,038
-261,453	-17,626	0,096	-0,044
-260,438	26,473	-0,108	-0,066
-259,424	-200,000	0,018	-0,091
-258,409	-139,228	-0,044	0,003
-257,395	-200,000	-0,002	0,014
-256,380	800,000	-0,016	0,049
-255,365	211,357	0,100	-0,116
-254,351	-130,589	0,015	0,001
-253,336	-200,000	0,007	0,024
-252,322	-66,433	-0,123	-0,035
-251,307	-184,976	0,032	-0,000
-250,292	-11,502	-0,051	-0,025
-249,278	800,000	-0,040	0,119
-248,263	90,945	-0,062	0,051
-247,249	-200,000	-0,005	0,054
-246,234	58,205	0,030	-0,021
-245,219	520,325	0,020	0,035
-244,205	-160,316	-0,063	-0,002
-243,190	142,557	-0,018	-0,018
-242,176	-120,499	0,154	-0,019
-241,161	-200,000	0,018	0,145
-240,146	-143,741	-0,116	0,008
-239,132	381,965	0,029	0,043
-238,117	-200,000	0,002	0,019
-237,103	-200,000	0,025	-0,084
-236,088	-35,348	-0,169	0,067
-235,073	288,347	-0,147	-0,195
-234,059	199,343	0,094	-0,105
-233,044	481,712	0,079	0,131
-232,030	391,442	0,066	-0,101
-231,015	-200,000	0,034	-0,112
-230,000	543,920	-0,044	0,077
-228,986	128,969	0,067	0,062
-227,971	800,000	-0,061	0,148
-226,957	13,261	0,049	0,028
-225,942	-200,000	0,011	0,077
-224,927	-110,445	0,136	-0,020
-223,913	-5,675	-0,137	-0,068
-222,898	337,272	0,039	-0,055
-221,884	-75,037	0,125	0,033
-220,869	307,226	-0,014	-0,019
-219,855	164,656	0,100	-0,103
-218,840	800,000	0,020	-0,041
-217,825	90,589	0,053	0,044
-216,811	453,326	-0,061	-0,099
-215,796	221,067	-0,067	0,079
-214,782	20,115	0,091	-0,053
-213,767	0,566	0,085	-0,044
-212,752	-43,823	0,127	-0,046
-211,738	384,528	0,050	0,075
-210,723	428,165	0,052	0,083
-209,709	-200,000	-0,004	-0,027
-208,694	216,879	0,033	-0,038
-207,679	-200,000	0,009	0,078
-206,665	352,881	0,062	0,091
-205,650	441,111	0,100	0,160
-204,636	-200,000	0,011	0,149
-203,621	-200,000	-0,009	0,031
-202,606	318,564	-0,075	0,103
-201,592	-200,000	-0,006	-0,179
-200,577	800,000	0,093	-0,194
-199,563	-112,997	0,064	-0,009
-198,548	-126,634	0,094	0,010
-197,533	24,999	-0,084	0,051
-196,519	426,616	-0,041	0,065
-195,504	800,000	-0,082	-0,211
-194,490	-200,000	0,024	-0,131
-193,475	-200,000	-0,010	-0,103
-192,460	-54,561	0,109	-0,036
-191,446	800,000	-0,018	-0,044
-190,431	392,237	0,120	0,182
-189,417	-200,000	-0,006	0,038
-188,402	12,757	-0,150	-0,084
-187,387	166,415	0,064	-0,067
-186,373	17,554	-0,081	-0,047
-185,358	107,628	0,053	0,046
-184,344	41,361	0,075	-0,049
-183,329	37,110	0,135	0,087
-182,315	501,326	-0,027	0,046
-181,300	-77,692	-0,162	0,040
-180,285	23,027	-0,110	-0,066
-179,271	800,000	-0,011	-0,024
-178,256	217,522	0,056	0,065
-177,242	128,156	0,046	0,042
-176,227	546,892	0,044	-0,077
-175,212	75,484	0,039	0,030
-174,198	-200,000	0,012	0,082
-173,183	262,572	0,036	0,045
-172,169	-46,257	0,182	0,065
-171,154	-200,000	-0,027	0,197
-170,139	137,937	0,041	0,039
-169,125	334,124	-0,098	0,139
-168,110	800,000	0,036	0,081
-167,096	230,354	0,099	-0,119
-166,081	-118,786	0,040	-0,005
-165,066	459,738	0,043	-0,071
-164,052	-200,000	0,031	-0,127
-163,037	15,676	0,061	-0,035
-162,023	225,017	-0,021	0,025
-161,008	-101,161	0,080	0,014
-159,993	91,819	0,087	0,071
-158,979	-106,947	-0,112	-0,018
-157,964	-131,536	-0,136	-0,013
-156,950	-200,000	0,010	-0,108
-155,935	-112,810	0,104	0,015
-154,920	-151,584	0,068	-0,004
-153,906	-28,261	0,089	0,037
-152,891	-10,901	-0,096	0,046
-151,877	25,226	0,017	-0,010
-150,862	332,998	-0,071	-0,100
-149,847	151,129	0,104	-0,103
-148,833	268,104	-0,067	0,086
-147,818	159,138	0,024	0,024
-146,804	108,481	-0,069	-0,060
-145,789	39,629	-0,181	0,118
-144,775	-200,000	-0,037	0,119
-143,760	-200,000	-0,018	-0,178
-142,745	677,321	0,032	0,061
-141,731	-81,485	0,077	-0,018
-140,716	-87,587	-0,043	-0,009
-139,702	800,000	0,059	0,126
-138,687	-58,387	-0,110	-0,034
-137,672	-113,239	0,017	0,002
-136,658	800,000	-0,047	-0,103
-135,643	339,420	-0,049	-0,069
-134,629	14,555	-0,044	0,025
-133,614	-64,571	0,122	0,036
-132,599	83,829	-0,021	0,017
-131,585	-51,956	0,074	0,025
-130,570	22,863	0,024	-0,015
-129,556	32,565	-0,085	0,053
-128,541	-200,000	-0,003	0,023
-127,526	800,000	-0,008	-0,021
-126,512	344,669	-0,037	0,053
-125,497	166,275	0,093	0,096
-124,483	155,490	-0,073	0,073
-123,468	-200,000	0,030	0,115
-122,453	-99,732	-0,164	0,030
-121,439	147,873	0,048	-0,047
-120,424	131,847	-0,018	0,017
-119,410	171,135	0,048	-0,050
