DTS Sentinel unit serial number:	SN410029Multiplexer serial number:	ORYXHardware model number:	OX2-SRSoftware version number:	ORYX F/W v4,00 Oryx Data Collector v3.7.2.0data status	okinstallation	B4 Nyhavnadifferential loss correction	single-endedforward channel	channel 2reverse channel	N/Adate	2023/12/19time	13:00:13forward acquisition time	300,00reverse acquisition time	0,00gamma	499,1914k internal	0,3128k external	0,3128temperature offset calibration	1,0000default loss term (dB/km)	0,3820temperature slope calibration	1,0000multiplexer offset coefficient	1,0000multiplexer slope coefficient	1,0000fibre end	0,00T internal ref (°C)	19,43T ext. ref 1 (°C)	4,44T ext. ref 2 (°C)	4,42length (m)	temperature (°C)	Stokes	anti-Stokes-744,400	-112,576	0,133	-0,020
-743,385	90,480	-0,236	0,196
-742,371	187,634	0,042	-0,046
-741,356	-10,335	-0,130	-0,064
-740,342	800,000	0,011	0,028
-739,327	-29,399	-0,279	0,118
-738,312	-200,000	-0,016	-0,123
-737,298	-100,955	-0,251	0,045
-736,283	24,949	0,158	-0,098
-735,269	-84,320	-0,270	0,063
-734,254	800,000	0,081	-0,185
-733,239	-47,674	-0,442	-0,159
-732,225	-110,089	0,140	0,022
-731,210	275,143	-0,033	-0,043
-730,196	-200,000	0,003	-0,100
-729,181	33,595	-0,022	0,014
-728,167	-200,000	-0,006	-0,052
-727,152	60,221	-0,038	0,028
-726,137	317,137	-0,092	-0,129
-725,123	-74,977	-0,065	-0,017
-724,108	5,639	-0,101	0,055
-723,094	6,430	0,065	-0,036
-722,079	-200,000	0,011	-0,080
-721,064	-200,000	0,017	-0,090
-720,050	-58,279	0,068	0,022
-719,035	-53,964	0,015	-0,005
-718,021	151,740	-0,058	0,059
-717,006	68,419	-0,074	-0,057
-715,991	-200,000	-0,011	-0,115
-714,977	-200,000	-0,058	-0,192
-713,962	-102,428	-0,026	-0,005
-712,948	-19,540	0,117	-0,054
-711,933	628,022	0,083	-0,156
-710,918	764,273	0,016	-0,031
-709,904	-200,000	0,005	-0,194
-708,889	-200,000	0,001	-0,126
-707,875	-149,931	-0,091	0,005
-706,860	800,000	0,035	-0,094
-705,845	491,236	0,104	-0,178
-704,831	-200,000	-0,017	0,069
-703,816	-144,029	-0,154	-0,011
-702,802	-200,000	-0,011	-0,171
-701,787	-200,000	0,006	0,053
-700,772	-81,363	0,089	0,022
-699,758	-81,572	-0,039	0,009
-698,743	-200,000	0,011	0,163
-697,729	-58,482	0,046	0,015
-696,714	57,301	-0,032	0,023
-695,699	-82,891	-0,094	-0,022
-694,685	334,681	-0,103	0,149
-693,670	-13,504	-0,076	-0,037
-692,656	246,354	-0,021	0,026
-691,641	4,955	0,230	-0,125
-690,627	-200,000	-0,020	0,080
-689,612	272,335	0,047	-0,062
-688,597	-122,989	-0,070	0,008
-687,583	-81,997	-0,240	-0,058
-686,568	41,454	-0,028	-0,019
-685,554	220,461	-0,026	-0,031
-684,539	-39,417	0,031	0,012
-683,524	125,269	0,096	-0,090
-682,510	-200,000	-0,027	-0,104
-681,495	250,095	-0,073	-0,093
-680,481	800,000	-0,013	-0,042
-679,466	356,028	-0,018	-0,027
-678,451	-49,791	0,046	-0,016
-677,437	24,199	-0,172	-0,105
-676,422	-200,000	-0,058	0,191
-675,408	205,480	0,073	0,084
-674,393	543,474	-0,026	-0,046
-673,378	800,000	-0,029	-0,087
-672,364	98,489	0,046	0,039
-671,349	800,000	-0,031	-0,083
-670,335	800,000	-0,056	-0,119
-669,320	7,403	-0,116	-0,064
-668,305	-144,206	-0,031	-0,002
-667,291	-64,231	0,111	-0,033
-666,276	551,049	0,039	0,069
-665,262	-39,472	-0,089	0,034
-664,247	3,392	-0,019	0,010
-663,232	337,447	-0,030	-0,044
-662,218	86,714	-0,054	0,044
-661,203	-65,697	0,102	0,030
-660,189	102,048	-0,086	0,074
-659,174	-49,866	-0,024	-0,008
-658,159	230,449	-0,082	-0,100
-657,145	40,886	-0,037	-0,025
-656,130	122,571	-0,037	-0,035
-655,116	-75,032	0,048	0,013
-654,101	301,429	-0,076	0,105
-653,086	-200,000	0,024	-0,099
-652,072	159,090	0,065	0,067
-651,057	-63,610	-0,112	0,034
-650,043	800,000	0,041	0,126
-649,028	271,326	0,063	-0,082
-648,014	800,000	0,036	0,084
-646,999	-39,212	-0,156	0,060
-645,984	800,000	0,036	0,088
-644,970	-164,414	-0,150	0,005
-643,955	331,066	-0,079	-0,113
-642,941	-118,434	-0,187	-0,024
-641,926	-145,193	0,022	-0,001
-640,911	374,788	0,093	0,141
-639,897	131,885	0,078	0,074
-638,882	-63,963	-0,080	0,024
-637,868	436,033	0,075	-0,121
-636,853	508,695	-0,104	-0,179
-635,838	-200,000	0,008	-0,157
-634,824	800,000	-0,057	0,121
-633,809	800,000	-0,010	-0,024
-632,795	-124,932	0,091	0,010
-631,780	-200,000	0,075	-0,000
-630,765	32,185	-0,114	0,073
-629,751	-200,000	0,005	-0,117
-628,736	800,000	-0,035	-0,071
-627,722	366,150	-0,053	-0,080
-626,707	-200,000	-0,017	-0,131
-625,692	800,000	-0,040	0,094
-624,678	126,931	0,010	0,009
-623,663	-200,000	0,004	0,085
-622,649	-200,000	0,008	0,055
-621,634	-90,575	-0,047	-0,010
-620,619	450,708	0,039	-0,064
-619,605	-81,190	-0,105	-0,026
-618,590	108,323	0,032	0,028
-617,576	-200,000	0,032	-0,121
-616,561	-200,000	0,021	-0,093
-615,546	194,705	-0,042	-0,048
-614,532	-200,000	-0,010	-0,154
-613,517	-68,638	-0,038	-0,011
-612,503	-139,771	0,169	0,013
-611,488	-200,000	-0,012	0,122
-610,474	800,000	0,044	-0,097
-609,459	2,493	0,069	-0,037
-608,444	-200,000	-0,007	0,031
-607,430	44,379	0,128	0,087
-606,415	6,332	-0,191	-0,105
-605,401	-26,872	0,034	-0,015
-604,386	-85,944	-0,046	-0,010
-603,371	-200,000	-0,006	-0,061
-602,357	30,496	-0,028	-0,018
-601,342	760,799	0,014	-0,028
-600,328	-200,000	0,018	-0,063
-599,313	800,000	0,049	-0,153
-598,298	-30,775	0,111	-0,046
-597,284	58,118	-0,025	0,018
-596,269	800,000	-0,047	-0,149
-595,255	-27,674	0,088	-0,038
-594,240	-98,766	-0,123	0,023
-593,225	800,000	0,018	0,037
-592,211	-45,803	-0,178	-0,065
-591,196	-200,000	0,011	-0,133
-590,182	800,000	0,013	0,029
-589,167	394,885	0,043	-0,067
-588,152	-73,864	-0,027	0,007
-587,138	-45,639	-0,210	-0,077
-586,123	-200,000	0,011	-0,048
-585,109	800,000	0,046	-0,109
-584,094	-200,000	-0,024	-0,114
-583,079	111,738	-0,055	-0,049
-582,065	-200,000	0,003	0,016
-581,050	-186,217	0,182	0,002
-580,036	-200,000	-0,027	0,101
-579,021	-200,000	0,001	-0,026
-578,006	275,793	0,050	-0,066
-576,992	-12,705	0,075	0,036
-575,977	403,815	-0,068	0,106
-574,963	-56,383	0,107	0,035
-573,948	38,973	-0,063	-0,042
-572,934	-165,095	-0,031	-0,001
-571,919	61,028	0,108	0,079
-570,904	280,180	-0,058	-0,077
-569,890	110,684	-0,086	0,077
-568,875	-200,000	0,002	0,083
-567,861	-99,407	0,065	-0,012
-566,846	329,780	0,131	0,187
-565,831	800,000	-0,032	0,077
-564,817	37,865	-0,022	-0,014
-563,802	-40,822	0,061	0,023
-562,788	-37,871	-0,029	-0,011
-561,773	-64,258	-0,117	-0,035
-560,758	696,309	0,036	0,070
-559,744	-80,639	-0,100	0,024
-558,729	157,705	0,049	0,050
-557,715	-19,568	0,064	-0,029
-556,700	-200,000	0,038	-0,123
-555,685	800,000	-0,056	-0,152
-554,671	15,113	0,044	-0,025
-553,656	123,078	0,027	-0,025
-552,642	-79,961	-0,112	0,028
-551,627	800,000	0,025	0,077
-550,612	-27,085	0,031	0,013
-549,598	104,383	-0,042	0,037
-548,583	460,535	-0,092	0,151
-547,569	-200,000	-0,026	0,099
-546,554	-200,000	0,018	0,103
-545,539	-96,266	0,154	0,030
-544,525	-200,000	0,011	-0,087
-543,510	-200,000	-0,009	-0,145
-542,496	36,340	-0,008	-0,005
-541,481	64,036	-0,080	-0,059
-540,466	150,621	-0,145	0,145
-539,452	-52,919	0,087	-0,029
-538,437	-200,000	-0,030	-0,108
-537,423	-65,859	-0,096	0,028
-536,408	88,291	-0,105	-0,086
-535,393	-135,046	0,095	0,008
-534,379	-159,662	-0,125	-0,005
-533,364	-200,000	-0,002	0,053
-532,350	454,871	-0,058	0,096
-531,335	279,843	0,038	0,051
-530,321	22,840	-0,053	-0,032
-529,306	-11,962	0,035	-0,017
-528,291	305,857	-0,102	-0,141
-527,277	427,548	0,031	-0,049
-526,262	800,000	0,012	0,026
-525,248	108,474	0,068	-0,060
-524,233	80,433	0,034	0,027
-523,218	800,000	0,046	0,097
-522,204	117,946	-0,095	-0,087
-521,189	800,000	-0,040	0,117
-520,175	141,696	-0,108	-0,106
-519,160	598,481	0,005	-0,009
-518,145	60,119	0,003	0,002
-517,131	800,000	0,047	-0,098
-516,116	415,570	0,039	-0,062
-515,102	-44,208	-0,075	-0,028
-514,087	19,845	-0,076	-0,045
-513,072	-126,584	0,065	-0,007
-512,058	-200,000	0,020	-0,186
-511,043	-200,000	-0,001	-0,023
-510,029	24,608	-0,065	-0,040
-509,014	-14,590	0,097	-0,046
-507,999	47,927	0,047	0,032
-506,985	-9,704	0,089	0,044
-505,970	-200,000	-0,008	0,047
-504,956	-28,159	0,075	-0,032
-503,941	-63,136	-0,083	-0,025
-502,926	146,363	0,084	0,083
-501,912	800,000	0,033	0,072
-500,897	32,321	-0,045	0,029
-499,883	235,802	0,047	-0,057
-498,868	800,000	-0,063	-0,139
-497,853	800,000	-0,010	0,027
-496,839	244,036	0,045	-0,055
-495,824	689,759	0,069	0,134
-494,810	-166,395	0,054	0,002
-493,795	800,000	-0,026	0,063
-492,781	-200,000	-0,013	-0,074
-491,766	-196,042	-0,029	-0,000
-490,751	-29,070	-0,074	-0,031
-489,737	111,100	-0,049	0,043
-488,722	659,565	-0,032	-0,061
-487,708	-93,243	0,104	-0,021
-486,693	-200,000	-0,042	-0,153
-485,678	-200,000	0,057	-0,189
-484,664	174,705	-0,086	-0,091
-483,649	-62,511	0,059	-0,018
-482,635	66,634	-0,081	0,061
-481,620	-50,684	0,078	0,027
-480,605	97,408	0,163	0,138
-479,591	800,000	0,033	0,084
-478,576	565,468	-0,078	0,140
-477,562	117,269	-0,077	0,070
-476,547	334,424	0,024	-0,034
-475,532	-200,000	0,007	-0,065
-474,518	154,930	-0,062	0,063
-473,503	438,572	0,077	0,125
-472,489	105,683	-0,008	-0,007
-471,474	-7,986	0,077	0,038
-470,459	-200,000	-0,003	0,123
-469,445	542,900	-0,066	-0,117
-468,430	-124,652	-0,032	-0,004
-467,416	-36,010	0,098	-0,039
-466,401	-99,215	-0,172	0,032
-465,386	-200,000	-0,030	0,159
-464,372	519,855	-0,012	0,022
-463,357	800,000	0,028	-0,077
-462,343	335,998	-0,069	-0,098
-461,328	-146,747	-0,054	-0,003
-460,313	-200,000	-0,004	-0,104
-459,299	66,554	0,169	-0,126
-458,284	-200,000	0,037	-0,123
-457,270	-9,042	0,079	0,039
-456,255	132,860	0,062	0,059
-455,241	-200,000	-0,017	0,063
-454,226	-33,304	-0,113	0,046
-453,211	312,298	0,084	0,117
-452,197	53,949	0,046	0,032
-451,182	-200,000	0,008	-0,050
-450,168	-101,844	-0,021	0,004
-449,153	53,481	-0,062	0,043
-448,138	37,521	0,065	-0,042
-447,124	-200,000	-0,025	0,158
-446,109	684,171	0,050	0,096
-445,095	800,000	-0,023	0,065
-444,080	-200,000	0,009	-0,061
-443,065	724,132	0,058	0,114
-442,051	-10,375	-0,093	0,045
-441,036	787,953	-0,037	0,075
-440,022	-57,712	-0,136	-0,043
-439,007	155,571	0,061	-0,062
-437,992	-200,000	-0,050	0,181
-436,978	-200,000	-0,007	-0,024
-435,963	-19,848	-0,043	-0,019
-434,949	48,487	-0,143	0,099
-433,934	800,000	0,037	-0,105
-432,919	-200,000	0,023	-0,088
-431,905	-200,000	-0,006	-0,194
-430,890	-104,809	-0,069	0,012
-429,876	-200,000	0,007	0,139
-428,861	64,719	0,116	0,086
-427,846	-200,000	0,023	0,112
-426,832	30,085	0,064	-0,040
-425,817	49,439	-0,125	-0,086
-424,803	58,185	0,159	-0,114
-423,788	280,955	0,076	0,100
-422,773	-200,000	-0,017	-0,129
-421,759	-29,179	0,059	-0,025
-420,744	-175,767	0,071	0,001
-419,730	-13,346	-0,073	-0,035
-418,715	-124,798	-0,065	-0,007
-417,701	86,739	0,126	0,102
-416,686	800,000	-0,025	0,060
-415,671	-200,000	-0,007	-0,041
-414,657	115,816	-0,091	0,081
-413,642	-200,000	0,015	0,061
-412,628	-30,648	-0,154	-0,064
-411,613	472,244	0,046	-0,076
-410,598	-33,442	0,119	-0,048
-409,584	416,997	0,070	0,110
-408,569	111,473	0,048	-0,042
-407,555	353,076	-0,055	-0,080
-406,540	244,950	-0,120	0,149
-405,525	75,280	-0,035	-0,027
-404,511	800,000	-0,028	-0,071
-403,496	-200,000	0,006	-0,112
-402,482	-37,154	-0,132	0,052
-401,467	-51,082	0,209	-0,071
-400,452	201,595	-0,098	0,112
-399,438	8,955	0,107	0,059
-398,423	-39,763	0,069	0,026
-397,409	146,949	-0,087	-0,086
-396,394	-200,000	0,022	-0,103
-395,379	-200,000	-0,009	0,082
-394,365	39,096	-0,028	-0,018
-393,350	-200,000	0,025	-0,182
-392,336	800,000	-0,022	0,057
-391,321	108,572	-0,035	0,031
-390,306	-200,000	-0,011	0,073
-389,292	-113,312	-0,064	0,009
-388,277	800,000	0,025	-0,051
-387,263	-200,000	0,011	0,145
-386,248	676,564	-0,027	0,052
-385,233	98,611	-0,074	0,063
-384,219	-53,280	0,091	0,030
-383,204	32,752	0,075	0,048
-382,190	278,024	-0,090	-0,118
-381,175	-200,000	0,008	-0,053
-380,160	-197,507	0,106	-0,000
-379,146	-2,285	0,152	0,078
-378,131	-200,000	0,002	0,201
-377,117	-200,000	-0,010	0,079
-376,102	800,000	-0,058	-0,127
-375,088	800,000	0,006	0,015
-374,073	-200,000	-0,006	-0,095
-373,058	-151,728	0,222	0,012
-372,044	800,000	0,027	0,055
-371,029	800,000	-0,028	0,089
-370,015	-6,371	0,074	-0,037
-369,000	800,000	0,061	-0,127
-367,985	-200,000	0,011	-0,148
-366,971	-161,275	-0,055	0,002
-365,956	-200,000	-0,003	0,054
-364,942	489,595	-0,018	-0,030
-363,927	800,000	0,082	0,231
-362,912	108,081	-0,094	0,082
-361,898	-130,340	-0,078	-0,008
-360,883	-200,000	0,008	0,079
-359,869	-94,560	-0,120	0,024
-358,854	36,780	-0,048	-0,031
-357,839	125,598	0,081	0,075
-356,825	-17,991	0,103	-0,047
-355,810	-84,483	0,121	-0,028
-354,796	800,000	-0,005	-0,016
-353,781	-104,806	-0,057	0,010
-352,766	72,532	-0,045	0,034
-351,752	392,268	0,030	-0,046
-350,737	-13,245	0,105	0,050
-349,723	111,017	0,079	0,070
-348,708	-200,000	-0,009	0,053
-347,693	160,120	0,068	0,069
-346,679	-200,000	-0,026	-0,127
-345,664	-42,609	-0,053	0,020
-344,650	-73,933	0,071	-0,019
-343,635	-94,758	-0,045	0,009
-342,620	711,233	-0,023	-0,046
-341,606	800,000	-0,020	-0,059
-340,591	-200,000	0,023	-0,094
-339,577	-200,000	-0,023	-0,149
-338,562	669,308	-0,040	0,075
-337,548	76,647	-0,125	0,097
-336,533	800,000	0,031	0,099
-335,518	722,479	0,017	0,034
-334,504	-129,031	0,020	-0,002
-333,489	28,415	-0,096	-0,060
-332,475	-79,726	-0,052	-0,013
-331,460	800,000	0,061	0,127
-330,445	-200,000	-0,008	-0,057
-329,431	-1,037	0,147	0,076
-328,416	47,562	0,122	0,083
-327,402	165,262	-0,062	0,064
-326,387	768,671	-0,047	0,095
-325,372	-43,967	-0,102	-0,037
-324,358	114,410	0,051	-0,046
-323,343	-192,683	-0,093	0,001
-322,329	-200,000	0,015	0,111
-321,314	76,865	0,092	0,072
-320,299	-62,082	-0,196	0,059
-319,285	156,051	0,071	-0,072
-318,270	83,472	0,026	0,021
-317,256	-82,888	-0,080	-0,019
-316,241	-96,417	-0,184	-0,035
-315,226	70,098	-0,057	-0,043
-314,212	342,532	0,079	0,114
-313,197	364,604	0,051	0,076
-312,183	-31,889	-0,006	-0,003
-311,168	-173,218	-0,076	-0,002
-310,153	800,000	-0,054	0,133
-309,139	-26,136	-0,074	0,032
-308,124	-18,753	0,090	0,041
-307,110	-71,612	0,156	-0,042
-306,095	800,000	0,046	-0,121
-305,080	43,369	0,040	0,026
-304,066	54,786	0,091	0,064
-303,051	-1,354	0,134	0,069
-302,037	-200,000	-0,006	0,071
-301,022	364,769	-0,074	-0,109
-300,008	-133,119	0,132	0,012
-298,993	-15,484	0,175	0,081
-297,978	268,756	-0,124	0,160
-296,964	-200,000	0,007	-0,064
-295,949	207,826	0,035	-0,040
-294,935	-200,000	0,012	0,071
-293,920	-200,000	-0,016	-0,177
-292,905	-24,745	0,061	0,026
-291,891	800,000	-0,023	-0,063
-290,876	-48,884	-0,112	0,039
-289,862	336,468	0,046	-0,065
-288,847	3,892	-0,067	-0,035
-287,832	57,213	-0,063	-0,045
-286,818	-10,777	-0,088	0,043
-285,803	128,756	0,068	0,063
-284,789	-200,000	-0,027	0,245
-283,774	98,724	0,175	0,148
-282,759	800,000	-0,054	-0,150
-281,745	800,000	-0,015	-0,047
-280,730	800,000	-0,050	0,110
-279,716	160,524	-0,055	0,056
-278,701	-200,000	0,020	-0,110
-277,686	214,707	0,059	-0,068
-276,672	64,323	-0,068	0,050
-275,657	20,705	0,020	0,012
-274,643	40,554	-0,151	-0,099
-273,628	-200,000	0,027	-0,160
-272,613	800,000	-0,055	0,153
-271,599	-44,318	0,114	0,042
-270,584	-164,646	-0,115	0,004
-269,570	-200,000	0,005	-0,067
-268,555	560,199	0,024	0,042
-267,540	-72,853	-0,122	-0,032
-266,526	129,666	0,081	-0,076
-265,511	-200,000	0,006	-0,111
-264,497	-200,000	0,040	-0,153
-263,482	283,074	0,096	0,126
-262,467	229,066	-0,064	-0,076
-261,453	198,847	-0,029	0,033
-260,438	-200,000	0,008	-0,031
-259,424	-170,457	-0,008	-0,000
-258,409	-37,349	0,038	-0,015
-257,395	-135,012	0,056	-0,005
-256,380	800,000	-0,010	-0,031
-255,365	271,463	-0,119	0,154
-254,351	-31,947	-0,114	-0,046
-253,336	186,005	-0,128	-0,139
-252,322	-200,000	0,002	0,045
-251,307	800,000	-0,044	-0,112
-250,292	81,847	0,061	0,048
-249,278	-49,312	0,125	0,043
-248,263	95,285	-0,009	-0,007
-247,249	280,671	-0,013	0,017
-246,234	32,631	-0,073	-0,046
-245,219	800,000	-0,018	-0,041
-244,205	-200,000	-0,042	-0,201
-243,190	14,671	0,112	-0,064
-242,176	800,000	-0,026	-0,057
-241,161	28,582	0,103	0,064
-240,146	11,935	0,102	0,057
-239,132	102,888	-0,094	-0,080
-238,117	254,778	-0,043	0,054
-237,103	800,000	-0,028	-0,087
-236,088	-200,000	0,018	0,156
-235,073	-200,000	-0,010	0,162
-234,059	800,000	0,033	0,104
-233,044	-82,461	0,074	-0,017
-232,030	-69,310	0,080	0,022
-231,015	800,000	0,046	-0,138
-230,000	-143,457	-0,051	-0,003
-228,986	218,399	-0,084	0,098
-227,971	-200,000	0,002	-0,016
-226,957	630,475	0,095	-0,175
-225,942	-200,000	0,006	0,039
-224,927	125,237	0,050	0,046
-223,913	124,526	-0,070	-0,064
-222,898	-57,714	-0,228	-0,072
-221,884	-175,493	0,043	0,001
-220,869	-200,000	0,014	0,129
-219,855	35,146	-0,022	-0,014
-218,840	243,446	-0,077	0,094
-217,825	64,825	0,033	0,024
-216,811	-116,981	0,126	-0,017
-215,796	-7,796	-0,085	-0,042
-214,782	62,794	0,024	-0,017
-213,767	75,302	0,102	-0,079
-212,752	122,576	-0,074	0,067
-211,738	209,532	0,068	-0,078
-210,723	-200,000	-0,005	-0,048
-209,709	800,000	-0,054	0,141
-208,694	-200,000	0,009	-0,071
-207,679	-5,189	-0,128	0,064
-206,665	43,841	0,068	0,045
-205,650	-0,094	0,115	0,060
-204,636	109,752	0,057	-0,050
-203,621	-200,000	-0,011	-0,092
-202,606	520,526	-0,024	-0,042
-201,592	711,811	-0,062	-0,120
-200,577	800,000	0,025	-0,076
-199,563	-200,000	-0,005	-0,018
-198,548	-23,446	0,083	-0,036
-197,533	-200,000	0,010	0,080
-196,519	-194,805	-0,042	0,000
-195,504	319,292	0,025	0,034
-194,490	-66,467	-0,089	0,026
-193,475	-45,382	-0,127	-0,046
-192,460	394,568	0,030	0,046
-191,446	374,655	0,019	-0,029
-190,431	19,856	0,044	0,026
-189,417	-20,683	-0,064	0,029
-188,402	487,916	0,046	0,077
-187,387	205,091	0,037	-0,042
-186,373	18,048	-0,013	0,008
-185,358	269,618	-0,012	-0,016
-184,344	420,428	0,098	0,153
-183,329	800,000	-0,018	0,045
-182,315	-15,175	-0,037	0,017
-181,300	-200,000	0,022	0,103
-180,285	-200,000	-0,007	0,080
-179,271	-109,674	-0,148	-0,022
-178,256	252,633	0,018	0,022
-177,242	-64,359	0,078	0,023
-176,227	800,000	0,060	0,133
-175,212	-130,269	0,112	-0,011
-174,198	42,883	-0,053	-0,035
-173,183	371,089	0,055	0,082
-172,169	-200,000	-0,027	-0,096
-171,154	263,209	-0,029	-0,037
-170,139	-15,817	0,066	-0,031
-169,125	233,551	0,049	0,059
-168,110	-200,000	-0,023	0,080
-167,096	348,411	-0,059	0,084
-166,081	118,624	0,070	0,063
-165,066	800,000	0,064	-0,136
-164,052	166,854	-0,112	-0,116
-163,037	-78,178	0,062	0,016
-162,023	663,418	0,084	0,158
-161,008	-200,000	0,009	0,061
-159,993	-158,882	-0,083	0,003
-158,979	17,374	0,142	-0,082
-157,964	104,165	-0,050	0,042
-156,950	-200,000	-0,000	0,009
-155,935	731,905	-0,024	0,046
-154,920	9,972	0,061	-0,033
-153,906	122,648	0,038	-0,034
-152,891	717,479	0,070	-0,136
-151,877	244,434	-0,065	-0,079
-150,862	78,529	-0,203	-0,158
-149,847	187,662	-0,048	-0,052
-148,833	-200,000	0,002	0,132
-147,818	82,531	0,089	0,070
-146,804	-200,000	-0,012	0,065
-145,789	542,695	0,030	-0,052
-144,775	800,000	-0,033	-0,105
-143,760	69,156	-0,085	-0,063
-142,745	103,810	0,059	-0,050
-141,731	284,100	0,116	-0,152
-140,716	800,000	-0,016	0,037
-139,702	800,000	0,059	0,121
-138,687	158,245	0,056	-0,057
-137,672	-200,000	0,002	-0,120
-136,658	-77,681	-0,057	0,014
-135,643	-200,000	0,007	-0,053
-134,629	692,347	-0,026	0,051
-133,614	800,000	-0,013	-0,040
-132,599	504,231	0,074	0,126
-131,585	183,446	-0,107	-0,115
-130,570	-81,619	-0,152	-0,036
-129,556	-200,000	0,005	-0,022
-128,541	531,545	-0,036	0,062
-127,526	81,577	0,078	-0,061
-126,512	532,702	0,081	0,140
-125,497	-84,731	0,040	0,009
-124,483	-46,833	0,162	-0,057
-123,468	494,971	-0,056	0,095
-122,453	-158,391	0,092	-0,004
-121,439	-200,000	0,011	-0,068
-120,424	-200,000	0,008	-0,053
-119,410	285,239	0,043	0,056
-118,395	342,917	0,087	-0,123
