DTS Sentinel unit serial number:	SN410029Multiplexer serial number:	ORYXHardware model number:	OX2-SRSoftware version number:	ORYX F/W v4,00 Oryx Data Collector v3.7.2.0data status	okinstallation	B4 Nyhavnadifferential loss correction	single-endedforward channel	channel 2reverse channel	N/Adate	2023/12/15time	21:40:13forward acquisition time	300,00reverse acquisition time	0,00gamma	499,1914k internal	0,3133k external	0,3133temperature offset calibration	1,0000default loss term (dB/km)	0,3820temperature slope calibration	1,0000multiplexer offset coefficient	1,0000multiplexer slope coefficient	1,0000fibre end	0,00T internal ref (°C)	21,05T ext. ref 1 (°C)	6,43T ext. ref 2 (°C)	6,59length (m)	temperature (°C)	Stokes	anti-Stokes-744,400	800,000	-0,040	-0,089
-743,385	-77,675	-0,166	-0,042
-742,371	-200,000	0,018	0,169
-741,356	222,044	-0,162	0,193
-740,342	10,881	0,074	0,042
-739,327	-138,539	-0,265	-0,021
-738,312	800,000	-0,024	-0,053
-737,298	-35,207	-0,266	0,107
-736,283	-200,000	-0,009	0,034
-735,269	-44,245	-0,169	-0,063
-734,254	-200,000	0,005	0,091
-733,239	-55,661	-0,413	-0,137
-732,225	-200,000	-0,001	-0,046
-731,210	-3,555	-0,077	0,039
-730,196	-90,870	0,067	0,014
-729,181	-200,000	-0,070	-0,303
-728,167	58,550	-0,045	0,033
-727,152	800,000	0,044	0,105
-726,137	80,292	-0,153	-0,122
-725,123	127,058	-0,033	0,031
-724,108	278,131	0,072	-0,096
-723,094	-118,592	-0,057	0,007
-722,079	589,255	0,064	-0,118
-721,064	-174,124	-0,025	0,001
-720,050	337,632	0,058	-0,084
-719,035	-34,571	-0,146	-0,059
-718,021	-147,610	-0,225	-0,014
-717,006	61,515	-0,120	-0,089
-715,991	-115,612	0,152	-0,021
-714,977	-200,000	0,038	-0,138
-713,962	574,468	0,022	0,039
-712,948	158,725	0,058	0,059
-711,933	-139,666	0,033	-0,003
-710,918	-200,000	0,022	-0,099
-709,904	-57,442	-0,138	0,045
-708,889	114,736	-0,053	-0,048
-707,875	-73,048	-0,092	-0,025
-706,860	16,016	0,055	0,032
-705,845	-200,000	-0,001	-0,007
-704,831	-163,102	0,064	0,002
-703,816	371,137	-0,034	0,051
-702,802	-200,000	0,016	-0,097
-701,787	-138,329	-0,048	-0,004
-700,772	-61,658	-0,105	-0,033
-699,758	-200,000	-0,023	-0,130
-698,743	39,767	0,064	-0,043
-697,729	-200,000	0,001	0,024
-696,714	-200,000	0,008	0,055
-695,699	-40,761	-0,058	0,022
-694,685	-165,016	-0,023	0,001
-693,670	-102,910	0,142	0,025
-692,656	-8,385	-0,068	-0,034
-691,641	83,666	0,066	-0,053
-690,627	800,000	0,009	-0,023
-689,612	194,317	0,090	0,102
-688,597	-200,000	-0,004	-0,028
-687,583	-200,000	-0,000	-0,017
-686,568	127,868	0,030	0,029
-685,554	-41,502	-0,003	0,001
-684,539	-200,000	-0,005	0,108
-683,524	800,000	0,016	-0,049
-682,510	345,956	0,052	0,077
-681,495	800,000	-0,042	0,093
-680,481	-200,000	-0,019	0,093
-679,466	-200,000	0,016	0,079
-678,451	-27,257	-0,097	-0,042
-677,437	-150,138	0,042	-0,002
-676,422	364,509	0,028	-0,042
-675,408	800,000	0,006	0,013
-674,393	800,000	-0,056	-0,141
-673,378	781,633	0,030	0,061
-672,364	-7,010	0,151	-0,075
-671,349	-50,300	0,046	0,016
-670,335	-200,000	-0,003	-0,088
-669,320	800,000	0,067	-0,142
-668,305	506,437	0,049	-0,085
-667,291	300,733	0,039	0,053
-666,276	800,000	-0,022	0,072
-665,262	24,246	-0,125	-0,076
-664,247	-98,800	0,131	0,024
-663,232	-200,000	-0,056	-0,190
-662,218	155,201	0,070	0,072
-661,203	624,758	0,022	-0,042
-660,189	706,496	0,047	0,091
-659,174	-18,332	-0,237	0,109
-658,159	26,051	-0,044	-0,027
-657,145	63,799	-0,068	-0,050
-656,130	-138,508	0,089	-0,007
-655,116	135,205	0,024	0,023
-654,101	800,000	-0,014	0,039
-653,086	216,923	-0,094	-0,111
-652,072	196,760	-0,075	-0,085
-651,057	-200,000	-0,166	0,000
-650,043	301,526	0,071	-0,097
-649,028	-200,000	0,008	0,068
-648,014	329,012	0,062	0,089
-646,999	375,770	0,065	0,099
-645,984	93,249	0,068	0,057
-644,970	-93,995	0,052	0,010
-643,955	800,000	0,031	0,072
-642,941	-200,000	0,012	-0,041
-641,926	-49,848	-0,090	-0,031
-640,911	800,000	-0,091	-0,203
-639,897	165,504	0,068	0,072
-638,882	273,883	0,070	-0,092
-637,868	5,956	-0,034	0,018
-636,853	-200,000	-0,027	-0,096
-635,838	-200,000	0,004	-0,070
-634,824	-200,000	-0,003	-0,048
-633,809	-183,620	0,009	-0,000
-632,795	56,054	-0,034	0,025
-631,780	-200,000	-0,020	0,124
-630,765	528,917	0,017	0,030
-629,751	800,000	-0,061	-0,153
-628,736	-200,000	0,013	-0,087
-627,722	66,437	0,097	0,073
-626,707	800,000	-0,062	-0,147
-625,692	-6,545	-0,025	0,013
-624,678	800,000	0,019	0,048
-623,663	701,749	0,056	0,109
-622,649	-152,903	-0,143	0,007
-621,634	-6,454	0,109	0,055
-620,619	-74,943	0,142	-0,037
-619,605	-56,477	-0,149	0,049
-618,590	368,033	0,069	0,103
-617,576	-200,000	0,008	0,081
-616,561	85,543	0,015	-0,012
-615,546	177,630	-0,096	0,104
-614,532	-176,935	0,214	0,004
-613,517	-153,970	-0,057	-0,003
-612,503	-76,202	-0,168	0,043
-611,488	791,310	-0,026	0,053
-610,474	-12,513	0,168	0,081
-609,459	-85,185	0,126	-0,029
-608,444	-141,021	0,055	0,004
-607,430	13,773	-0,224	0,128
-606,415	-57,726	-0,041	-0,013
-605,401	-97,450	0,032	0,006
-604,386	398,380	0,062	0,097
-603,371	435,830	-0,030	-0,048
-602,357	91,254	0,045	-0,037
-601,342	70,626	0,092	-0,070
-600,328	-123,960	-0,012	-0,001
-599,313	-43,507	0,066	-0,024
-598,298	-12,184	-0,102	0,049
-597,284	-124,506	0,071	-0,008
-596,269	511,434	0,070	0,122
-595,255	-103,254	0,026	0,004
-594,240	-104,501	-0,101	-0,017
-593,225	570,258	-0,036	-0,066
-592,211	800,000	0,055	-0,114
-591,196	-200,000	-0,009	0,141
-590,182	64,327	-0,031	-0,023
-589,167	730,615	0,007	-0,015
-588,152	-133,516	0,053	0,005
-587,138	-200,000	0,019	-0,171
-586,123	59,273	0,036	0,026
-585,109	-200,000	0,023	-0,092
-584,094	65,948	-0,038	0,029
-583,079	-200,000	0,012	0,068
-582,065	-120,924	0,130	-0,016
-581,050	800,000	0,034	-0,079
-580,036	15,826	-0,029	0,017
-579,021	8,510	0,155	-0,086
-578,006	-200,000	-0,024	-0,099
-576,992	309,950	0,042	0,059
-575,977	-200,000	0,002	0,042
-574,963	-200,000	0,011	-0,060
-573,948	800,000	-0,017	0,047
-572,934	105,907	-0,087	0,076
-571,919	4,583	-0,102	-0,055
-570,904	-200,000	0,012	-0,086
-569,890	-200,000	-0,017	-0,059
-568,875	-72,055	0,097	0,026
-567,861	800,000	0,040	-0,130
-566,846	-9,354	0,092	0,045
-565,831	-200,000	0,010	0,070
-564,817	113,747	-0,077	-0,069
-563,802	23,054	-0,037	-0,023
-562,788	-200,000	-0,022	0,101
-561,773	-10,485	-0,118	0,058
-560,758	-110,972	-0,029	-0,004
-559,744	-57,918	0,049	0,016
-558,729	373,990	-0,073	-0,110
-557,715	-78,056	0,053	-0,013
-556,700	-200,000	-0,007	-0,139
-555,685	125,501	-0,046	0,043
-554,671	34,931	-0,069	0,045
-553,656	800,000	-0,027	-0,072
-552,642	420,071	-0,043	-0,069
-551,627	67,381	-0,035	0,026
-550,612	-75,342	0,108	-0,028
-549,598	-122,373	-0,146	-0,017
-548,583	170,210	0,017	0,018
-547,569	-22,660	0,082	-0,036
-546,554	-40,187	-0,092	0,035
-545,539	240,983	-0,069	0,085
-544,525	74,278	0,025	-0,019
-543,510	-116,087	-0,064	-0,009
-542,496	4,388	-0,024	0,013
-541,481	-165,790	-0,053	0,002
-540,466	378,567	0,048	0,072
-539,452	105,497	0,105	0,091
-538,437	13,715	-0,063	0,036
-537,423	-3,090	0,114	-0,058
-536,408	-85,329	0,060	0,014
-535,393	-60,190	0,040	-0,013
-534,379	-31,189	-0,071	-0,029
-533,364	52,811	-0,072	0,051
-532,350	800,000	0,068	-0,160
-531,335	-200,000	-0,008	0,035
-530,321	131,793	0,051	0,048
-529,306	800,000	-0,066	0,158
-528,291	508,199	-0,016	-0,027
-527,277	50,115	0,081	-0,057
-526,262	109,568	0,064	-0,056
-525,248	-117,786	0,091	-0,012
-524,233	-151,117	-0,070	-0,004
-523,218	-47,991	0,141	-0,050
-522,204	-200,000	0,010	-0,037
-521,189	-6,748	-0,096	-0,048
-520,175	-200,000	0,011	-0,232
-519,160	800,000	-0,020	-0,051
-518,145	-200,000	0,028	0,134
-517,131	800,000	0,033	0,092
-516,116	172,165	0,057	0,061
-515,102	62,367	-0,119	0,088
-514,087	-12,773	-0,074	0,035
-513,072	-200,000	0,005	-0,049
-512,058	800,000	0,040	-0,101
-511,043	800,000	0,020	-0,058
-510,029	-121,300	0,029	-0,004
-509,014	-30,924	0,112	-0,046
-507,999	-90,060	0,086	0,018
-506,985	-200,000	-0,000	0,054
-505,970	12,527	-0,074	-0,042
-504,956	-58,774	-0,150	-0,047
-503,941	74,159	0,097	-0,075
-502,926	35,087	-0,022	-0,014
-501,912	232,395	0,037	-0,045
-500,897	-126,233	-0,011	-0,001
-499,883	800,000	-0,047	0,129
-498,868	-92,704	-0,069	0,014
-497,853	442,496	-0,051	-0,083
-496,839	-200,000	-0,034	0,114
-495,824	-200,000	0,010	0,125
-494,810	-87,003	0,062	0,014
-493,795	82,039	0,073	0,059
-492,781	-112,262	-0,105	-0,015
-491,766	-200,000	-0,016	-0,127
-490,751	29,663	0,040	-0,025
-489,737	-80,584	0,102	-0,025
-488,722	-137,447	0,106	-0,009
-487,708	-190,998	-0,101	0,001
-486,693	583,912	0,052	0,095
-485,678	201,674	-0,031	0,035
-484,664	-125,017	0,068	-0,008
-483,649	188,003	0,071	-0,078
-482,635	-115,955	-0,096	0,013
-481,620	800,000	-0,028	0,061
-480,605	49,223	-0,041	0,028
-479,591	629,214	0,032	0,060
-478,576	451,147	-0,064	-0,104
-477,562	21,679	0,051	0,030
-476,547	-15,755	-0,078	-0,037
-475,532	63,879	0,067	-0,049
-474,518	800,000	-0,021	-0,062
-473,503	-200,000	-0,027	-0,098
-472,489	800,000	0,036	-0,075
-471,474	-9,901	-0,110	-0,054
-470,459	-113,241	-0,150	0,022
-469,445	52,504	-0,113	-0,079
-468,430	-58,350	-0,095	0,030
-467,416	800,000	0,048	0,103
-466,401	-49,598	-0,016	0,006
-465,386	-32,553	-0,043	0,017
-464,372	531,214	0,094	0,163
-463,357	-81,698	-0,085	-0,020
-462,343	28,523	-0,103	-0,064
-461,328	-133,355	-0,121	0,011
-460,313	141,585	0,029	0,028
-459,299	765,812	0,044	0,088
-458,284	12,532	0,106	-0,060
-457,270	-61,030	0,072	0,022
-456,255	757,414	-0,033	0,066
-455,241	-104,799	-0,057	0,010
-454,226	-200,000	-0,024	0,251
-453,211	-200,000	0,043	0,187
-452,197	-62,172	-0,005	-0,002
-451,182	-200,000	0,002	0,052
-450,168	-102,111	-0,142	0,025
-449,153	-9,320	-0,107	-0,052
-448,138	-200,000	-0,007	-0,072
-447,124	-109,518	0,061	-0,009
-446,109	798,617	0,026	0,054
-445,095	-86,565	0,065	-0,014
-444,080	103,749	0,104	-0,090
-443,065	380,670	-0,049	0,074
-442,051	116,086	-0,133	-0,119
-441,036	-200,000	0,010	-0,057
-440,022	-19,850	-0,042	-0,019
-439,007	-41,911	-0,137	-0,051
-437,992	330,879	-0,031	-0,044
-436,978	-19,620	-0,025	0,011
-435,963	43,334	0,064	-0,043
-434,949	-139,692	0,070	0,005
-433,934	128,035	0,086	-0,080
-432,919	482,325	0,072	-0,120
-431,905	-104,362	0,072	-0,012
-430,890	21,976	-0,066	-0,039
-429,876	800,000	-0,069	0,193
-428,861	233,795	-0,038	-0,046
-427,846	-11,822	-0,086	-0,041
-426,832	176,367	0,021	-0,022
-425,817	-83,747	0,035	-0,008
-424,803	75,042	-0,116	-0,090
-423,788	93,718	0,113	-0,094
-422,773	5,742	0,078	-0,042
-421,759	800,000	-0,044	-0,121
-420,744	-200,000	0,027	-0,127
-419,730	-51,322	-0,075	0,026
-418,715	217,729	0,018	0,021
-417,701	-80,638	0,049	-0,012
-416,686	-200,000	-0,024	-0,103
-415,671	-28,226	0,130	0,055
-414,657	800,000	-0,029	-0,073
-413,642	76,611	-0,087	-0,068
-412,628	13,989	-0,103	0,059
-411,613	-200,000	-0,043	-0,146
-410,598	8,062	0,114	-0,063
-409,584	-101,555	0,041	-0,007
-408,569	185,111	0,033	-0,035
-407,555	735,111	0,031	-0,062
-406,540	-41,850	0,029	-0,011
-405,525	-11,078	0,086	-0,041
-404,511	623,045	0,028	-0,051
-403,496	-19,298	-0,010	-0,005
-402,482	-200,000	0,043	-0,201
-401,467	-107,917	0,051	0,008
-400,452	800,000	0,029	-0,066
-399,438	-200,000	0,009	0,109
-398,423	340,863	0,021	0,031
-397,409	154,963	-0,064	-0,064
-396,394	800,000	0,078	-0,164
-395,379	-12,119	0,042	0,020
-394,365	800,000	-0,032	0,099
-393,350	-53,024	0,126	0,042
-392,336	133,444	0,029	0,028
-391,321	-93,002	0,084	-0,017
-390,306	-96,651	-0,060	0,011
-389,292	800,000	-0,043	-0,107
-388,277	105,985	0,086	0,074
-387,263	70,668	-0,018	-0,014
-386,248	106,353	0,067	0,058
-385,233	800,000	0,040	-0,117
-384,219	-11,925	0,119	-0,057
-383,204	-71,261	-0,116	0,032
-382,190	-200,000	0,001	-0,007
-381,175	599,710	0,043	-0,078
-380,160	-124,766	0,112	-0,013
-379,146	-140,439	0,073	0,006
-378,131	27,981	-0,091	0,056
-377,117	-40,312	0,070	-0,027
-376,102	-130,780	-0,057	-0,006
-375,088	-99,340	-0,057	-0,010
-374,073	-25,350	0,085	0,037
-373,058	81,945	0,056	-0,045
-372,044	397,889	0,057	-0,087
-371,029	-200,000	-0,006	0,022
-370,015	-91,722	0,162	-0,033
-369,000	775,751	0,045	0,090
-367,985	268,833	-0,081	0,104
-366,971	575,234	0,039	-0,070
-365,956	-200,000	-0,024	-0,093
-364,942	109,314	0,161	0,141
-363,927	-200,000	0,012	0,073
-362,912	-200,000	-0,012	0,086
-361,898	768,290	-0,086	-0,173
-360,883	147,221	0,069	0,068
-359,869	-200,000	-0,010	0,078
-358,854	800,000	-0,017	-0,037
-357,839	174,376	-0,075	0,079
-356,825	800,000	0,007	0,020
-355,810	155,991	0,077	-0,077
-354,796	60,489	-0,081	-0,059
-353,781	186,507	0,050	-0,054
-352,766	-200,000	0,012	0,042
-351,752	-200,000	0,004	0,054
-350,737	353,737	0,048	0,071
-349,723	25,196	-0,038	0,023
-348,708	-54,793	-0,178	-0,058
-347,693	-124,174	-0,126	-0,014
-346,679	81,008	-0,035	-0,028
-345,664	30,606	0,057	-0,036
-344,650	-168,507	0,111	0,003
-343,635	106,630	-0,177	0,154
-342,620	-200,000	-0,011	0,170
-341,606	130,643	-0,059	-0,055
-340,591	176,724	-0,034	0,036
-339,577	-102,282	-0,142	-0,025
-338,562	-200,000	-0,016	-0,076
-337,548	-1,712	0,040	0,020
-336,533	800,000	-0,045	0,105
-335,518	800,000	0,048	0,128
-334,504	1,185	-0,088	-0,046
-333,489	800,000	0,034	0,104
-332,475	342,482	-0,053	0,076
-331,460	-16,864	-0,126	-0,058
-330,445	800,000	0,031	-0,072
-329,431	84,322	0,091	0,073
-328,416	751,999	0,042	0,083
-327,402	800,000	0,016	0,046
-326,387	12,155	0,061	-0,034
-325,372	-132,256	0,105	-0,010
-324,358	281,241	-0,064	-0,084
-323,343	-65,897	0,051	-0,015
-322,329	-68,592	0,091	-0,026
-321,314	800,000	0,013	0,038
-320,299	-33,778	-0,103	-0,041
-319,285	47,162	-0,122	-0,083
-318,270	213,482	0,051	-0,059
-317,256	800,000	0,024	-0,051
-316,241	473,721	0,010	0,017
-315,226	-85,360	0,063	0,014
-314,212	-200,000	-0,015	0,144
-313,197	158,179	-0,069	0,070
-312,183	-82,365	0,075	0,018
-311,168	552,556	-0,041	-0,072
-310,153	70,650	-0,073	-0,055
-309,139	378,264	-0,048	0,072
-308,124	-200,000	-0,010	-0,034
-307,110	-200,000	-0,023	-0,075
-306,095	800,000	-0,014	0,040
-305,080	140,518	-0,064	0,062
-304,066	800,000	0,038	-0,100
-303,051	-57,849	0,047	-0,015
-302,037	119,803	0,039	-0,036
-301,022	800,000	-0,045	0,097
-300,008	44,765	0,097	0,065
-298,993	7,908	-0,067	-0,037
-297,978	-102,533	-0,137	-0,024
-296,964	-19,705	0,130	0,059
-295,949	800,000	-0,029	-0,064
-294,935	1,473	0,160	-0,084
-293,920	800,000	0,021	0,047
-292,905	27,626	0,094	-0,057
-291,891	-49,503	0,072	0,025
-290,876	800,000	-0,040	0,108
-289,862	68,200	0,028	-0,021
-288,847	-200,000	0,006	-0,165
-287,832	137,564	0,114	-0,109
-286,818	800,000	-0,019	-0,041
-285,803	-200,000	0,003	0,063
-284,789	-155,850	-0,116	-0,005
-283,774	49,180	-0,061	-0,042
-282,759	-43,192	-0,110	0,040
-281,745	475,149	0,049	0,081
-280,730	392,406	0,036	-0,055
-279,716	107,524	-0,058	0,050
-278,701	-35,067	0,073	-0,029
-277,686	-200,000	0,001	0,063
-276,672	-200,000	-0,026	0,136
-275,657	230,941	-0,029	-0,034
-274,643	-64,104	-0,142	-0,042
-273,628	197,853	-0,030	0,034
-272,613	-116,172	0,052	-0,007
-271,599	-134,684	-0,070	0,006
-270,584	13,271	0,097	0,055
-269,570	-200,000	0,003	-0,038
-268,555	-48,185	-0,064	0,022
-267,540	-200,000	-0,005	-0,100
-266,526	477,103	0,040	-0,066
-265,511	-142,712	-0,129	-0,009
-264,497	-126,089	-0,076	0,008
-263,482	174,199	0,062	-0,066
-262,467	-200,000	-0,018	0,059
-261,453	173,551	0,164	0,173
-260,438	-158,059	-0,185	0,008
-259,424	800,000	-0,054	0,146
-258,409	800,000	-0,011	-0,028
-257,395	4,573	-0,054	0,029
-256,380	189,784	0,020	0,022
-255,365	-87,571	0,100	-0,022
-254,351	-100,966	0,165	-0,029
-253,336	95,156	-0,041	-0,034
-252,322	142,729	-0,115	-0,111
-251,307	150,456	-0,075	0,075
-250,292	-200,000	0,004	0,132
-249,278	-200,000	0,001	0,023
-248,263	483,797	0,047	-0,078
-247,249	-82,214	0,059	0,014
-246,234	93,589	0,084	-0,069
-245,219	31,117	0,049	-0,030
-244,205	-185,128	0,068	0,001
-243,190	-200,000	-0,009	0,101
-242,176	360,108	-0,075	0,110
-241,161	-62,100	0,119	0,036
-240,146	-200,000	0,019	0,146
-239,132	-136,691	0,025	-0,002
-238,117	-143,546	-0,063	-0,004
-237,103	-200,000	0,011	-0,137
-236,088	-147,551	0,068	0,004
-235,073	-200,000	-0,006	0,132
-234,059	394,331	0,043	-0,065
-233,044	-71,564	-0,223	0,060
-232,030	800,000	-0,045	-0,112
-231,015	-200,000	-0,001	0,069
-230,000	163,171	-0,045	0,046
-228,986	42,404	-0,020	0,013
-227,971	-200,000	0,004	0,121
-226,957	381,321	0,056	0,085
-225,942	-200,000	-0,017	0,119
-224,927	2,768	-0,068	0,036
-223,913	-33,632	-0,055	0,022
-222,898	-181,340	-0,140	0,002
-221,884	71,537	0,063	0,047
-220,869	-116,231	-0,145	0,019
-219,855	800,000	0,053	0,140
-218,840	536,996	-0,060	0,105
-217,825	-200,000	-0,032	-0,102
-216,811	95,485	-0,135	-0,112
-215,796	1,637	-0,142	-0,074
-214,782	377,811	0,060	-0,089
-213,767	-200,000	-0,021	-0,095
-212,752	-200,000	-0,001	0,045
-211,738	-200,000	0,001	-0,111
-210,723	800,000	0,018	-0,036
-209,709	-200,000	0,005	-0,028
-208,694	-200,000	-0,008	-0,077
-207,679	-200,000	-0,003	0,070
-206,665	800,000	-0,032	-0,091
-205,650	-200,000	0,019	0,066
-204,636	800,000	0,034	0,107
-203,621	2,731	-0,095	0,050
-202,606	-200,000	-0,015	-0,119
-201,592	342,711	-0,034	-0,048
-200,577	-200,000	-0,009	-0,077
-199,563	-200,000	0,001	0,104
-198,548	703,202	0,040	0,077
-197,533	5,854	0,028	-0,015
-196,519	-200,000	0,015	-0,056
-195,504	323,803	-0,066	0,092
-194,490	542,253	0,037	-0,064
-193,475	87,850	-0,062	0,050
-192,460	87,108	-0,057	0,046
-191,446	-200,000	0,002	0,069
-190,431	775,257	-0,046	0,092
-189,417	692,522	0,047	0,090
-188,402	474,371	-0,042	0,069
-187,387	174,125	0,098	0,103
-186,373	-109,947	-0,044	0,007
-185,358	-200,000	0,003	-0,070
-184,344	-18,541	-0,118	0,053
-183,329	800,000	0,022	0,067
-182,315	206,420	0,084	-0,095
-181,300	115,647	-0,107	-0,095
-180,285	-105,732	0,107	0,017
-179,271	-200,000	0,032	-0,107
-178,256	551,896	-0,034	-0,059
-177,242	-50,951	0,066	-0,022
-176,227	-200,000	-0,011	0,120
-175,212	282,950	-0,113	0,148
-174,198	39,352	0,059	-0,038
-173,183	160,794	0,097	-0,098
-172,169	-132,620	0,150	-0,014
-171,154	693,364	-0,066	0,127
-170,139	-200,000	0,004	-0,095
-169,125	-41,263	0,058	-0,021
-168,110	137,844	-0,052	-0,049
-167,096	800,000	-0,048	-0,139
-166,081	390,447	0,080	0,121
-165,066	13,406	0,130	0,073
-164,052	16,555	0,107	-0,062
-163,037	490,434	-0,014	-0,023
-162,023	286,305	0,007	0,009
-161,008	-200,000	-0,015	0,106
-159,993	7,870	-0,093	-0,051
-158,979	-45,333	-0,128	-0,046
-157,964	763,084	0,020	-0,040
-156,950	16,672	-0,067	0,039
-155,935	365,566	-0,020	0,029
-154,920	80,792	0,030	-0,023
-153,906	322,710	0,059	0,082
-152,891	35,630	0,079	0,051
-151,877	108,396	0,064	0,055
-150,862	13,500	-0,017	-0,009
-149,847	-200,000	-0,000	0,079
-148,833	26,884	-0,160	-0,097
-147,818	-19,004	-0,115	-0,052
-146,804	43,190	0,149	0,099
-145,789	800,000	-0,028	0,064
-144,775	-19,086	0,073	0,033
-143,760	-174,681	-0,135	0,003
-142,745	-13,958	-0,041	-0,019
-141,731	-117,280	0,009	-0,001
-140,716	-33,213	0,095	0,038
-139,702	79,799	0,089	0,070
-138,687	800,000	-0,031	0,069
-137,672	110,020	-0,081	0,070
-136,658	-200,000	0,012	-0,082
-135,643	-200,000	-0,017	-0,118
-134,629	-200,000	-0,010	0,041
-133,614	28,012	0,010	0,006
-132,599	364,052	0,054	0,079
-131,585	162,792	0,110	-0,112
-130,570	-98,686	-0,068	-0,012
-129,556	-19,858	-0,072	0,032
-128,541	372,913	-0,028	0,041
-127,526	545,065	0,019	0,033
-126,512	800,000	-0,038	0,080
-125,497	-100,459	0,154	0,027
-124,483	800,000	0,018	0,041
-123,468	800,000	0,034	0,084
-122,453	-122,303	-0,168	0,020
-121,439	33,964	-0,061	-0,039
-120,424	-200,000	-0,008	0,060
-119,410	182,640	-0,055	-0,059
-118,395	-11,181	0,030	0,014
