DTS Sentinel unit serial number:	SN410029Multiplexer serial number:	ORYXHardware model number:	OX2-SRSoftware version number:	ORYX F/W v4,00 Oryx Data Collector v3.7.2.0data status	okinstallation	B4 Nyhavnadifferential loss correction	single-endedforward channel	channel 2reverse channel	N/Adate	2023/12/19time	13:20:13forward acquisition time	300,00reverse acquisition time	0,00gamma	499,1914k internal	0,3127k external	0,3127temperature offset calibration	1,0000default loss term (dB/km)	0,3820temperature slope calibration	1,0000multiplexer offset coefficient	1,0000multiplexer slope coefficient	1,0000fibre end	0,00T internal ref (°C)	19,40T ext. ref 1 (°C)	4,52T ext. ref 2 (°C)	4,47length (m)	temperature (°C)	Stokes	anti-Stokes-744,400	224,706	0,103	-0,124
-743,385	238,280	-0,190	0,236
-742,371	-124,773	0,046	0,005
-741,356	-188,467	-0,339	0,003
-740,342	-117,175	0,118	-0,016
-739,327	-63,969	-0,191	0,058
-738,312	-148,642	0,049	0,003
-737,298	-117,714	-0,234	0,031
-736,283	-101,764	-0,168	-0,030
-735,269	25,550	-0,221	0,136
-734,254	-200,000	-0,011	-0,044
-733,239	-15,447	-0,440	-0,208
-732,225	-80,898	0,143	0,035
-731,210	-27,110	0,028	-0,012
-730,196	800,000	-0,066	0,145
-729,181	28,819	-0,099	-0,062
-728,167	151,265	-0,009	0,009
-727,152	-200,000	-0,010	0,036
-726,137	-200,000	-0,011	-0,139
-725,123	-14,922	0,127	0,060
-724,108	-200,000	0,012	-0,074
-723,094	351,946	-0,143	-0,211
-722,079	-200,000	-0,017	-0,067
-721,064	559,824	-0,026	-0,047
-720,050	289,291	0,077	0,105
-719,035	313,688	-0,035	0,049
-718,021	-120,076	0,082	0,010
-717,006	20,544	-0,079	-0,048
-715,991	246,533	-0,128	-0,161
-714,977	-23,248	-0,058	0,026
-713,962	189,949	-0,088	0,098
-712,948	800,000	-0,042	-0,087
-711,933	100,491	-0,139	-0,120
-710,918	-200,000	0,025	-0,122
-709,904	-200,000	-0,006	-0,035
-708,889	179,757	-0,089	-0,097
-707,875	18,100	-0,127	-0,075
-706,860	288,340	-0,012	0,016
-705,845	174,041	-0,027	-0,029
-704,831	174,860	0,018	-0,019
-703,816	50,459	0,070	0,049
-702,802	-29,140	-0,074	-0,031
-701,787	23,114	0,046	-0,028
-700,772	-200,000	-0,029	-0,100
-699,758	348,746	-0,056	-0,082
-698,743	-16,315	-0,065	0,030
-697,729	-92,998	0,020	0,004
-696,714	93,011	0,061	-0,052
-695,699	-200,000	0,003	-0,086
-694,685	280,008	0,057	-0,076
-693,670	-39,690	-0,086	-0,033
-692,656	-200,000	0,018	-0,101
-691,641	-78,765	0,049	0,012
-690,627	-50,815	0,118	0,041
-689,612	217,453	-0,010	0,012
-688,597	-40,124	-0,136	-0,052
-687,583	-4,626	-0,086	-0,044
-686,568	470,987	-0,131	-0,220
-685,554	151,571	-0,119	-0,121
-684,539	-173,002	-0,166	0,004
-683,524	-162,291	-0,118	-0,004
-682,510	-10,634	0,048	0,024
-681,495	-46,651	0,044	-0,016
-680,481	-106,433	-0,126	-0,021
-679,466	429,135	-0,106	-0,171
-678,451	-63,638	0,143	0,043
-677,437	54,933	0,119	0,085
-676,422	350,474	-0,058	-0,085
-675,408	800,000	-0,032	-0,072
-674,393	-126,817	-0,067	-0,007
-673,378	-8,369	-0,032	-0,016
-672,364	-137,606	-0,078	-0,006
-671,349	267,273	-0,070	-0,091
-670,335	361,124	0,066	-0,099
-669,320	-200,000	-0,017	0,094
-668,305	171,781	0,030	-0,032
-667,291	-200,000	-0,012	-0,062
-666,276	237,264	-0,076	-0,093
-665,262	315,284	-0,077	-0,108
-664,247	104,289	-0,032	0,028
-663,232	129,513	-0,051	-0,048
-662,218	800,000	-0,039	-0,105
-661,203	-200,000	0,017	-0,114
-660,189	-132,337	0,066	-0,006
-659,174	247,636	-0,060	-0,075
-658,159	-200,000	-0,093	0,000
-657,145	-21,926	-0,090	-0,040
-656,130	115,760	-0,071	0,064
-655,116	63,398	0,143	0,106
-654,101	173,588	-0,026	0,028
-653,086	-17,647	-0,095	0,044
-652,072	-142,208	-0,093	-0,007
-651,057	800,000	-0,016	0,045
-650,043	-200,000	-0,027	-0,167
-649,028	362,703	-0,124	-0,185
-648,014	-113,981	0,207	-0,029
-646,999	385,925	-0,028	0,042
-645,984	-200,000	0,014	-0,064
-644,970	507,769	-0,060	0,103
-643,955	-2,552	-0,083	0,043
-642,941	354,210	-0,066	-0,098
-641,926	599,293	-0,033	0,061
-640,911	-200,000	0,008	0,174
-639,897	68,442	0,004	0,003
-638,882	-5,210	0,043	0,022
-637,868	-200,000	0,005	0,065
-636,853	-51,745	-0,105	-0,036
-635,838	50,030	-0,089	-0,062
-634,824	0,232	0,029	-0,015
-633,809	-200,000	-0,003	0,103
-632,795	640,077	-0,027	-0,051
-631,780	300,490	0,047	-0,064
-630,765	98,059	-0,051	0,043
-629,751	800,000	0,021	-0,055
-628,736	-200,000	0,001	-0,071
-627,722	-92,439	-0,079	0,016
-626,707	115,825	0,066	0,060
-625,692	183,532	0,092	0,101
-624,678	540,599	0,040	0,072
-623,663	-151,470	-0,127	-0,007
-622,649	17,544	-0,037	0,022
-621,634	-115,629	-0,052	-0,007
-620,619	-49,318	-0,009	-0,003
-619,605	-47,034	-0,048	-0,017
-618,590	189,676	0,128	0,142
-617,576	800,000	-0,023	-0,070
-616,561	-26,701	0,026	-0,011
-615,546	88,374	0,015	-0,013
-614,532	242,870	-0,047	-0,058
-613,517	-40,430	-0,087	0,033
-612,503	169,178	-0,128	-0,136
-611,488	298,225	0,035	0,048
-610,474	-200,000	-0,004	0,036
-609,459	-158,648	0,089	0,004
-608,444	304,218	-0,088	-0,121
-607,430	184,470	-0,114	-0,125
-606,415	-123,012	-0,091	-0,011
-605,401	685,279	-0,051	-0,099
-604,386	112,055	0,080	-0,072
-603,371	-200,000	0,004	-0,164
-602,357	32,738	-0,056	-0,036
-601,342	43,412	-0,062	-0,042
-600,328	118,689	0,175	-0,160
-599,313	163,621	-0,027	0,028
-598,298	208,943	-0,068	0,079
-597,284	-200,000	0,027	-0,112
-596,269	-41,368	-0,045	0,017
-595,255	671,727	-0,018	0,036
-594,240	-200,000	-0,007	-0,036
-593,225	-200,000	-0,003	0,097
-592,211	-89,239	-0,037	0,008
-591,196	800,000	0,019	0,054
-590,182	27,679	0,044	-0,028
-589,167	690,739	0,033	-0,065
-588,152	-104,781	-0,018	-0,003
-587,138	-200,000	-0,031	-0,127
-586,123	381,856	-0,073	-0,112
-585,109	436,900	-0,043	-0,069
-584,094	-200,000	-0,009	-0,040
-583,079	72,770	0,032	0,025
-582,065	142,096	-0,041	0,040
-581,050	-128,386	0,120	-0,012
-580,036	-200,000	-0,000	-0,057
-579,021	212,974	-0,029	0,034
-578,006	433,469	0,070	-0,113
-576,992	715,019	-0,020	0,040
-575,977	175,883	-0,009	0,010
-574,963	308,563	-0,045	-0,062
-573,948	800,000	0,065	0,140
-572,934	-200,000	-0,007	0,084
-571,919	800,000	-0,005	-0,012
-570,904	800,000	-0,059	-0,127
-569,890	-11,056	-0,076	0,037
-568,875	386,359	-0,081	0,123
-567,861	227,229	0,048	0,058
-566,846	-200,000	-0,011	0,057
-565,831	234,794	-0,037	-0,046
-564,817	126,399	0,046	-0,043
-563,802	800,000	-0,011	0,024
-562,788	-78,622	-0,087	-0,022
-561,773	-5,682	0,016	0,008
-560,758	-71,474	0,080	0,022
-559,744	81,488	-0,068	-0,055
-558,729	-86,085	0,077	-0,017
-557,715	117,984	0,049	0,045
-556,700	2,591	0,025	0,013
-555,685	-200,000	-0,007	-0,091
-554,671	542,001	-0,094	-0,166
-553,656	224,215	-0,092	0,110
-552,642	575,150	0,053	-0,096
-551,627	-200,000	0,011	-0,062
-550,612	-21,557	0,092	0,041
-549,598	-25,146	-0,043	-0,019
-548,583	62,270	-0,040	0,030
-547,569	54,072	-0,060	-0,043
-546,554	-200,000	0,012	0,047
-545,539	-200,000	0,013	-0,051
-544,525	202,622	0,082	0,094
-543,510	93,720	0,066	0,055
-542,496	-200,000	-0,009	-0,084
-541,481	304,563	-0,050	-0,069
-540,466	-143,126	0,058	-0,004
-539,452	-82,067	-0,058	0,014
-538,437	-200,000	0,039	-0,187
-537,423	-12,016	0,115	-0,055
-536,408	-169,469	-0,096	0,003
-535,393	-86,833	-0,069	0,015
-534,379	800,000	0,033	-0,098
-533,364	-52,987	0,096	0,033
-532,350	101,962	-0,113	0,098
-531,335	20,536	0,104	0,062
-530,321	117,353	-0,071	0,064
-529,306	-10,477	0,069	-0,034
-528,291	612,154	0,053	0,099
-527,277	2,344	0,011	0,006
-526,262	235,814	0,052	-0,064
-525,248	800,000	0,011	0,027
-524,233	800,000	0,044	0,104
-523,218	-200,000	0,006	0,057
-522,204	51,442	-0,059	-0,041
-521,189	800,000	-0,028	-0,076
-520,175	287,236	-0,039	-0,052
-519,160	-65,491	-0,098	0,029
-518,145	-100,720	-0,098	0,018
-517,131	-92,461	0,107	0,022
-516,116	168,658	0,116	-0,122
-515,102	-23,155	-0,032	0,014
-514,087	-121,312	-0,071	0,009
-513,072	800,000	-0,027	0,066
-512,058	800,000	0,059	0,124
-511,043	38,561	0,073	0,048
-510,029	-200,000	0,013	0,087
-509,014	59,768	0,150	0,109
-507,999	-8,266	-0,052	0,026
-506,985	-23,640	-0,072	-0,032
-505,970	-200,000	0,034	-0,153
-504,956	-200,000	-0,009	-0,041
-503,941	-200,000	-0,026	0,120
-502,926	-200,000	-0,029	0,134
-501,912	82,468	0,056	0,045
-500,897	-200,000	0,018	0,096
-499,883	-200,000	0,003	0,024
-498,868	262,600	-0,105	0,134
-497,853	-200,000	0,000	-0,016
-496,839	-78,338	0,022	0,005
-495,824	50,627	0,059	-0,041
-494,810	800,000	-0,022	0,065
-493,795	396,080	0,069	0,106
-492,781	251,209	-0,090	-0,113
-491,766	115,274	-0,015	0,013
-490,751	22,593	-0,020	0,012
-489,737	-131,090	0,130	0,013
-488,722	-66,443	0,038	0,011
-487,708	800,000	0,026	-0,055
-486,693	-37,738	0,139	0,054
-485,678	416,834	-0,004	-0,006
-484,664	26,810	-0,056	0,034
-483,649	-86,831	-0,098	-0,022
-482,635	800,000	0,023	0,069
-481,620	-61,147	0,186	-0,057
-480,605	27,487	-0,028	-0,017
-479,591	800,000	0,043	0,110
-478,576	32,914	-0,062	-0,040
-477,562	-200,000	-0,009	0,105
-476,547	-14,731	-0,061	-0,029
-475,532	-174,499	-0,082	-0,002
-474,518	-83,851	0,151	0,035
-473,503	800,000	0,065	0,142
-472,489	-23,609	0,073	-0,032
-471,474	-78,159	-0,125	-0,031
-470,459	800,000	-0,037	0,100
-469,445	800,000	-0,026	0,057
-468,430	-32,617	0,109	-0,045
-467,416	297,236	-0,064	-0,087
-466,401	210,739	-0,031	0,036
-465,386	-200,000	-0,007	0,156
-464,372	800,000	-0,038	0,108
-463,357	-200,000	-0,027	-0,119
-462,343	132,482	0,030	-0,029
-461,328	800,000	0,047	0,124
-460,313	-0,919	-0,082	-0,042
-459,299	788,577	0,047	-0,095
-458,284	502,424	0,044	0,075
-457,270	-200,000	0,003	0,038
-456,255	-180,544	0,082	0,001
-455,241	241,267	-0,062	0,076
-454,226	-31,900	-0,099	-0,041
-453,211	-108,663	0,183	0,029
-452,197	761,056	0,059	-0,118
-451,182	328,097	-0,159	-0,225
-450,168	18,351	-0,079	0,046
-449,153	-58,730	-0,065	0,020
-448,138	257,020	-0,033	-0,041
-447,124	576,050	-0,072	-0,129
-446,109	-90,235	-0,073	-0,016
-445,095	-200,000	-0,022	0,075
-444,080	-32,264	-0,031	0,013
-443,065	-200,000	0,031	0,144
-442,051	-200,000	0,014	-0,061
-441,036	-109,170	-0,031	0,005
-440,022	800,000	0,017	0,040
-439,007	-55,991	-0,073	0,024
-437,992	800,000	-0,022	-0,068
-436,978	-177,287	0,119	-0,002
-435,963	65,647	-0,072	0,053
-434,949	-145,686	0,079	-0,005
-433,934	-161,469	0,088	0,003
-432,919	-7,182	0,150	0,075
-431,905	800,000	-0,079	-0,179
-430,890	320,024	0,014	-0,020
-429,876	800,000	-0,037	0,090
-428,861	-133,470	0,035	-0,003
-427,846	-200,000	0,028	0,097
-426,832	66,918	-0,125	0,094
-425,817	-111,745	0,065	-0,010
-424,803	800,000	0,014	-0,033
-423,788	10,143	0,015	0,008
-422,773	-129,025	-0,059	-0,006
-421,759	-45,621	-0,007	0,003
-420,744	298,163	0,048	-0,065
-419,730	-118,322	-0,246	0,032
-418,715	-78,333	0,123	-0,031
-417,701	-109,530	0,040	0,006
-416,686	-200,000	-0,008	-0,033
-415,671	238,697	-0,097	0,119
-414,657	1,490	0,123	0,065
-413,642	-95,694	-0,087	0,017
-412,628	800,000	0,006	-0,018
-411,613	150,317	0,123	-0,123
-410,598	-3,388	0,061	-0,031
-409,584	800,000	0,024	-0,058
-408,569	142,742	0,086	-0,084
-407,555	-200,000	0,016	0,082
-406,540	32,568	-0,031	0,020
-405,525	-200,000	-0,034	0,118
-404,511	7,276	-0,078	-0,043
-403,496	-95,704	0,084	-0,016
-402,482	800,000	-0,043	-0,132
-401,467	-125,130	-0,098	-0,011
-400,452	139,188	0,060	0,058
-399,438	390,775	-0,038	-0,058
-398,423	-200,000	0,016	-0,075
-397,409	-49,674	0,084	0,029
-396,394	800,000	0,037	0,078
-395,379	-200,000	-0,011	0,155
-394,365	184,263	0,123	0,134
-393,350	232,608	-0,038	-0,046
-392,336	-53,154	-0,222	-0,074
-391,321	78,590	0,104	-0,081
-390,306	-143,855	-0,064	-0,004
-389,292	338,535	0,028	-0,040
-388,277	800,000	-0,053	0,119
-387,263	-29,415	0,090	-0,038
-386,248	-25,081	0,162	0,070
-385,233	-47,148	0,149	-0,053
-384,219	800,000	-0,022	0,070
-383,204	-4,690	-0,051	-0,026
-382,190	294,915	0,145	-0,195
-381,175	147,956	0,024	-0,023
-380,160	800,000	0,019	-0,050
-379,146	464,958	0,006	0,009
-378,131	37,376	-0,159	0,103
-377,117	-200,000	0,029	-0,131
-376,102	800,000	-0,065	-0,177
-375,088	165,287	-0,048	-0,050
-374,073	-141,543	-0,032	-0,002
-373,058	-0,252	0,021	-0,011
-372,044	153,642	-0,124	-0,124
-371,029	-200,000	0,008	0,081
-370,015	446,513	0,023	0,037
-369,000	9,064	-0,076	-0,042
-367,985	800,000	0,034	0,073
-366,971	-200,000	0,006	-0,104
-365,956	154,765	-0,055	0,056
-364,942	33,661	-0,072	0,046
-363,927	-97,176	0,132	-0,025
-362,912	-31,844	-0,160	0,065
-361,898	277,295	-0,057	0,074
-360,883	21,640	-0,053	-0,032
-359,869	-200,000	-0,010	0,083
-358,854	800,000	-0,030	0,069
-357,839	-200,000	0,014	0,124
-356,825	800,000	0,038	-0,117
-355,810	-42,287	0,061	-0,023
-354,796	168,780	-0,091	0,096
-353,781	-200,000	0,007	-0,047
-352,766	9,641	0,022	0,012
-351,752	-15,251	0,102	0,048
-350,737	78,307	0,020	0,016
-349,723	194,529	0,102	0,114
-348,708	800,000	-0,048	0,142
-347,693	-51,446	-0,056	0,019
-346,679	-89,265	0,119	-0,026
-345,664	35,926	-0,116	-0,074
-344,650	-131,453	0,022	0,002
-343,635	689,192	0,012	-0,024
-342,620	800,000	-0,013	-0,033
-341,606	-124,822	0,010	0,001
-340,591	436,832	0,008	0,012
-339,577	-200,000	-0,012	-0,139
-338,562	175,005	-0,088	-0,094
-337,548	249,324	-0,026	-0,032
-336,533	-101,776	0,090	0,016
-335,518	681,926	0,034	-0,064
-334,504	714,021	-0,012	-0,023
-333,489	6,651	-0,037	0,020
-332,475	175,711	0,059	-0,063
-331,460	-106,985	0,156	0,025
-330,445	160,289	-0,010	0,010
-329,431	-60,824	0,121	0,037
-328,416	220,043	0,092	-0,108
-327,402	-126,939	0,062	0,007
-326,387	-200,000	-0,001	0,015
-325,372	800,000	0,025	-0,069
-324,358	248,760	0,037	-0,046
-323,343	243,992	-0,017	-0,020
-322,329	31,247	-0,086	-0,054
-321,314	41,538	0,072	0,048
-320,299	-200,000	-0,003	0,049
-319,285	-200,000	-0,008	0,048
-318,270	14,928	0,173	0,099
-317,256	165,588	0,103	0,106
-316,241	66,109	-0,062	-0,046
-315,226	174,296	-0,099	0,105
-314,212	-137,992	-0,083	0,007
-313,197	20,868	0,016	-0,009
-312,183	64,808	0,038	0,028
-311,168	219,272	-0,107	-0,126
-310,153	604,476	0,051	0,092
-309,139	458,853	0,063	0,103
-308,124	753,260	0,005	0,010
-307,110	-92,521	-0,138	-0,028
-306,095	-200,000	0,003	0,035
-305,080	800,000	0,044	0,141
-304,066	6,399	-0,020	0,011
-303,051	19,510	0,056	-0,033
-302,037	304,285	0,039	0,053
-301,022	59,626	0,109	0,078
-300,008	-200,000	0,002	0,043
-298,993	-200,000	0,007	0,061
-297,978	-77,118	0,072	-0,018
-296,964	279,800	-0,048	0,063
-295,949	406,275	-0,009	-0,014
-294,935	-12,884	-0,035	-0,017
-293,920	49,932	0,134	0,092
-292,905	206,234	0,030	0,034
-291,891	-200,000	0,001	-0,009
-290,876	800,000	0,001	-0,004
-289,862	-200,000	-0,023	0,128
-288,847	-26,078	-0,063	-0,027
-287,832	5,706	-0,088	0,047
-286,818	171,971	0,099	-0,104
-285,803	-160,600	0,101	-0,004
-284,789	-82,230	0,080	0,019
-283,774	736,592	0,039	-0,076
-282,759	-200,000	-0,004	0,034
-281,745	-68,374	-0,136	0,038
-280,730	65,403	-0,045	-0,033
-279,716	345,655	-0,043	0,061
-278,701	-129,538	0,070	0,007
-277,686	40,831	0,023	-0,015
-276,672	118,797	0,100	0,090
-275,657	0,224	-0,105	-0,055
-274,643	-89,135	-0,064	0,014
-273,628	-200,000	0,002	-0,108
-272,613	320,624	-0,024	-0,033
-271,599	-69,721	0,077	0,021
-270,584	74,172	-0,096	0,073
-269,570	-10,857	0,075	-0,036
-268,555	-19,698	0,102	-0,046
-267,540	550,881	-0,038	-0,067
-266,526	800,000	-0,043	-0,125
-265,511	-75,788	0,039	-0,010
-264,497	-15,407	-0,021	-0,010
-263,482	-68,685	0,131	-0,037
-262,467	468,011	-0,021	-0,035
-261,453	-3,053	0,078	-0,040
-260,438	-20,997	-0,042	-0,019
-259,424	247,659	0,066	-0,082
-258,409	71,922	-0,141	-0,107
-257,395	63,725	0,083	0,061
-256,380	278,646	-0,085	0,111
-255,365	-49,628	0,016	-0,006
-254,351	97,331	-0,074	0,062
-253,336	208,353	-0,043	0,049
-252,322	800,000	-0,086	-0,176
-251,307	-200,000	0,002	-0,046
-250,292	-41,498	-0,186	0,069
-249,278	-56,088	-0,081	0,026
-248,263	44,614	0,065	0,043
-247,249	800,000	-0,035	0,081
-246,234	-200,000	0,036	-0,202
-245,219	24,492	-0,041	0,025
-244,205	117,266	0,027	0,024
-243,190	158,127	0,044	0,044
-242,176	115,169	0,007	0,006
-241,161	10,429	-0,075	0,041
-240,146	48,408	0,022	-0,015
-239,132	-184,551	-0,133	0,002
-238,117	-59,894	-0,114	-0,035
-237,103	-42,606	-0,068	0,025
-236,088	-14,619	0,053	0,025
-235,073	19,548	-0,123	0,072
-234,059	357,865	0,081	-0,118
-233,044	367,454	0,057	-0,084
-232,030	-36,205	0,032	0,013
-231,015	454,995	0,095	-0,154
-230,000	-200,000	0,050	-0,176
-228,986	129,460	-0,089	0,083
-227,971	800,000	-0,052	0,120
-226,957	-200,000	-0,009	0,056
-225,942	-200,000	-0,012	0,063
-224,927	-200,000	0,006	0,096
-223,913	-14,750	-0,126	-0,059
-222,898	132,965	-0,005	0,005
-221,884	-200,000	0,015	0,106
-220,869	-154,847	-0,059	-0,003
-219,855	7,206	0,086	-0,047
-218,840	171,641	0,048	0,050
-217,825	57,596	0,009	0,006
-216,811	488,109	-0,039	-0,065
-215,796	91,830	-0,121	0,099
-214,782	178,799	-0,049	0,052
-213,767	800,000	0,074	0,167
-212,752	-200,000	-0,022	-0,195
-211,738	563,707	0,050	0,088
-210,723	427,096	0,048	-0,075
-209,709	106,079	-0,095	-0,082
-208,694	100,393	0,124	0,105
-207,679	85,732	-0,073	-0,058
-206,665	183,881	-0,010	0,010
-205,650	468,949	0,031	0,051
-204,636	-160,956	0,077	-0,003
-203,621	-135,045	0,078	0,007
-202,606	-200,000	-0,006	-0,196
-201,592	800,000	0,048	-0,114
-200,577	800,000	-0,040	-0,127
-199,563	-15,834	-0,116	-0,054
-198,548	-90,262	0,230	0,048
-197,533	364,896	0,014	0,020
-196,519	-200,000	-0,028	-0,102
-195,504	-46,057	-0,178	-0,064
-194,490	130,773	0,045	-0,042
-193,475	800,000	-0,032	-0,101
-192,460	62,845	0,114	-0,083
-191,446	-147,805	0,052	-0,003
-190,431	-71,714	-0,063	-0,017
-189,417	6,411	-0,041	0,022
-188,402	-45,675	-0,051	-0,018
-187,387	30,052	-0,078	0,049
-186,373	241,567	-0,026	0,032
-185,358	-16,467	0,104	0,048
-184,344	-85,962	0,039	0,009
-183,329	266,519	0,065	0,083
-182,315	88,882	0,036	-0,029
-181,300	-91,074	-0,146	0,030
-180,285	-114,658	-0,106	-0,015
-179,271	-115,088	0,199	0,027
-178,256	800,000	0,039	0,107
-177,242	33,283	-0,021	0,013
-176,227	18,334	0,145	-0,084
-175,212	-78,665	0,081	0,020
-174,198	-64,146	-0,024	-0,007
-173,183	-200,000	-0,044	-0,151
-172,169	800,000	0,031	-0,098
-171,154	800,000	-0,023	-0,057
-170,139	-70,382	0,060	-0,016
-169,125	-1,483	0,050	0,025
-168,110	-200,000	0,006	0,082
-167,096	-47,943	0,066	0,023
-166,081	-50,065	-0,099	-0,034
-165,066	131,337	0,111	-0,104
-164,052	-200,000	-0,005	0,068
-163,037	-200,000	0,009	-0,042
-162,023	-36,476	-0,105	0,041
-161,008	800,000	0,039	0,114
-159,993	526,339	-0,016	-0,028
-158,979	118,366	0,067	-0,060
-157,964	800,000	0,045	0,107
-156,950	119,764	-0,155	-0,140
-155,935	-5,800	0,146	0,073
-154,920	389,486	-0,159	0,240
-153,906	450,512	0,047	0,075
-152,891	-108,953	-0,060	0,009
-151,877	83,353	-0,093	-0,074
-150,862	800,000	-0,057	-0,142
-149,847	100,068	0,166	-0,140
-148,833	17,156	0,131	-0,076
-147,818	800,000	-0,017	-0,048
-146,804	-200,000	-0,032	0,159
-145,789	79,733	0,032	-0,025
-144,775	-44,644	-0,051	-0,019
-143,760	442,445	-0,032	-0,051
-142,745	151,509	-0,174	0,173
-141,731	800,000	-0,042	0,087
-140,716	59,812	-0,044	-0,032
-139,702	800,000	0,031	-0,080
-138,687	51,013	-0,149	0,103
-137,672	-200,000	0,004	0,014
-136,658	-68,193	-0,053	0,015
-135,643	800,000	-0,052	-0,120
-134,629	800,000	-0,026	-0,068
-133,614	227,767	-0,026	-0,031
-132,599	-200,000	0,008	0,064
-131,585	-18,594	-0,087	-0,039
-130,570	-160,426	-0,063	0,002
-129,556	-200,000	0,008	-0,063
-128,541	73,198	-0,077	-0,059
-127,526	-99,287	0,085	-0,015
-126,512	-200,000	0,004	-0,016
-125,497	-200,000	0,010	-0,060
-124,483	-13,499	0,178	-0,084
-123,468	204,444	0,046	0,052
-122,453	330,283	-0,042	0,059
-121,439	-200,000	0,031	0,104
-120,424	-200,000	0,009	-0,058
-119,410	181,299	0,046	0,049
-118,395	-59,775	0,018	0,005
