DTS Sentinel unit serial number:	SN410029Multiplexer serial number:	ORYXHardware model number:	OX2-SRSoftware version number:	ORYX F/W v4,00 Oryx Data Collector v3.7.2.0data status	okinstallation	B4 Nyhavnadifferential loss correction	single-endedforward channel	channel 2reverse channel	N/Adate	2023/12/19time	09:25:13forward acquisition time	300,00reverse acquisition time	0,00gamma	499,1914k internal	0,3128k external	0,3128temperature offset calibration	1,0000default loss term (dB/km)	0,3820temperature slope calibration	1,0000multiplexer offset coefficient	1,0000multiplexer slope coefficient	1,0000fibre end	0,00T internal ref (°C)	20,47T ext. ref 1 (°C)	5,18T ext. ref 2 (°C)	5,17length (m)	temperature (°C)	Stokes	anti-Stokes-744,400	-95,104	-0,102	-0,020
-743,385	99,857	-0,171	0,148
-742,371	-200,000	0,003	0,137
-741,356	-200,000	-0,077	0,322
-740,342	800,000	-0,011	0,035
-739,327	-6,583	-0,240	0,121
-738,312	295,175	-0,046	-0,063
-737,298	-107,192	-0,310	0,050
-736,283	800,000	-0,010	-0,026
-735,269	15,193	-0,123	0,071
-734,254	14,456	0,066	0,038
-733,239	-143,815	-0,519	0,036
-732,225	-141,302	0,147	0,011
-731,210	-25,608	-0,104	0,045
-730,196	25,746	-0,061	-0,037
-729,181	6,821	0,074	-0,041
-728,167	781,249	-0,052	-0,107
-727,152	-185,639	-0,015	-0,000
-726,137	-200,000	0,025	0,099
-725,123	626,942	-0,017	-0,033
-724,108	45,485	-0,055	-0,037
-723,094	-187,046	0,038	-0,000
-722,079	-51,541	-0,131	0,045
-721,064	-200,000	0,016	-0,099
-720,050	800,000	0,017	-0,038
-719,035	-200,000	-0,015	-0,121
-718,021	-127,163	-0,129	-0,014
-717,006	800,000	-0,029	-0,093
-715,991	-200,000	0,012	-0,099
-714,977	-200,000	0,033	-0,135
-713,962	-125,990	-0,056	0,006
-712,948	-137,132	-0,086	-0,007
-711,933	800,000	-0,017	-0,049
-710,918	-200,000	-0,020	-0,154
-709,904	69,021	-0,117	-0,089
-708,889	-55,206	-0,091	-0,030
-707,875	383,189	0,071	-0,109
-706,860	-200,000	-0,014	0,064
-705,845	726,624	-0,030	0,060
-704,831	-200,000	0,057	0,213
-703,816	309,134	0,014	-0,019
-702,802	800,000	0,017	-0,053
-701,787	585,238	-0,072	-0,132
-700,772	78,649	-0,028	-0,022
-699,758	249,008	-0,075	0,095
-698,743	32,707	0,095	0,061
-697,729	-200,000	0,026	0,120
-696,714	474,474	0,040	0,067
-695,699	-200,000	-0,049	-0,164
-694,685	-189,359	-0,032	-0,000
-693,670	340,838	-0,066	-0,095
-692,656	-200,000	0,035	-0,135
-691,641	-200,000	-0,013	-0,153
-690,627	-118,535	0,144	-0,019
-689,612	-200,000	-0,010	0,112
-688,597	-8,449	-0,052	0,026
-687,583	7,215	0,028	-0,015
-686,568	50,893	-0,083	0,058
-685,554	689,416	-0,074	-0,145
-684,539	7,505	0,092	-0,051
-683,524	-167,678	0,010	-0,000
-682,510	-26,737	-0,102	0,044
-681,495	133,801	-0,073	-0,070
-680,481	560,512	0,066	-0,118
-679,466	-75,957	0,107	-0,028
-678,451	800,000	0,043	-0,118
-677,437	800,000	0,019	0,059
-676,422	-200,000	-0,017	-0,127
-675,408	88,397	-0,094	-0,077
-674,393	72,950	0,093	-0,072
-673,378	6,584	-0,077	0,042
-672,364	-6,259	0,070	0,035
-671,349	298,762	-0,033	0,045
-670,335	121,151	-0,042	0,039
-669,320	287,016	0,053	0,072
-668,305	-45,504	0,081	0,030
-667,291	-103,831	-0,108	0,019
-666,276	-200,000	-0,004	-0,077
-665,262	18,429	-0,077	-0,046
-664,247	110,870	0,055	0,049
-663,232	-200,000	0,020	0,162
-662,218	-40,938	0,129	-0,049
-661,203	532,733	-0,026	0,045
-660,189	-5,066	0,179	-0,091
-659,174	-200,000	-0,062	0,000
-658,159	-200,000	-0,001	-0,049
-657,145	315,898	-0,074	-0,104
-656,130	285,873	-0,066	-0,088
-655,116	-200,000	0,002	-0,033
-654,101	449,750	0,040	-0,065
-653,086	-200,000	-0,012	0,072
-652,072	-6,533	-0,070	0,035
-651,057	-76,370	0,091	-0,024
-650,043	800,000	0,024	0,072
-649,028	800,000	0,024	-0,058
-648,014	-49,187	0,096	0,034
-646,999	635,099	0,061	0,115
-645,984	159,946	0,082	0,085
-644,970	383,171	-0,072	0,110
-643,955	-200,000	-0,007	-0,101
-642,941	-200,000	0,017	-0,121
-641,926	-200,000	-0,027	-0,111
-640,911	-200,000	0,010	-0,102
-639,897	-77,518	0,123	0,031
-638,882	-200,000	-0,025	0,118
-637,868	-5,793	0,041	-0,021
-636,853	800,000	-0,036	-0,084
-635,838	776,308	0,004	-0,008
-634,824	46,123	-0,183	-0,126
-633,809	-67,205	-0,099	0,029
-632,795	-200,000	-0,022	-0,098
-631,780	-36,391	0,118	-0,047
-630,765	-200,000	-0,029	-0,099
-629,751	1,564	-0,143	-0,076
-628,736	-158,140	-0,063	-0,003
-627,722	-47,754	-0,030	-0,011
-626,707	9,187	-0,189	-0,106
-625,692	195,309	0,018	-0,020
-624,678	22,664	-0,059	0,036
-623,663	416,488	0,021	0,033
-622,649	-200,000	0,020	-0,074
-621,634	23,677	0,035	0,021
-620,619	-200,000	-0,008	0,027
-619,605	-32,419	0,155	0,064
-618,590	-143,395	0,053	0,004
-617,576	120,398	-0,126	0,116
-616,561	174,222	-0,043	0,046
-615,546	800,000	-0,054	-0,129
-614,532	377,679	-0,033	0,049
-613,517	800,000	-0,060	-0,140
-612,503	-200,000	-0,008	0,034
-611,488	800,000	0,024	0,062
-610,474	-200,000	0,021	0,123
-609,459	6,494	-0,064	0,035
-608,444	-151,924	-0,066	-0,004
-607,430	144,949	-0,090	-0,089
-606,415	-200,000	-0,020	-0,073
-605,401	-200,000	0,005	-0,126
-604,386	-124,562	0,069	-0,008
-603,371	-200,000	-0,130	0,000
-602,357	13,334	0,041	0,023
-601,342	800,000	-0,048	-0,137
-600,328	245,993	0,049	-0,061
-599,313	-82,718	-0,053	-0,013
-598,298	-158,509	0,091	0,004
-597,284	233,690	-0,031	-0,038
-596,269	-64,645	-0,127	0,038
-595,255	69,608	0,115	-0,088
-594,240	-129,468	-0,175	0,018
-593,225	-79,705	-0,140	-0,035
-592,211	413,057	-0,096	-0,151
-591,196	76,251	0,022	-0,018
-590,182	-158,973	-0,032	0,001
-589,167	-200,000	0,005	-0,072
-588,152	-200,000	-0,007	-0,050
-587,138	94,085	-0,145	-0,122
-586,123	370,199	-0,049	-0,074
-585,109	800,000	-0,037	-0,082
-584,094	210,409	-0,033	-0,038
-583,079	100,444	0,048	-0,041
-582,065	-75,203	-0,126	0,033
-581,050	-143,601	0,147	-0,010
-580,036	1,001	-0,024	-0,013
-579,021	-200,000	0,000	-0,048
-578,006	-200,000	0,009	-0,060
-576,992	506,754	0,017	0,030
-575,977	29,630	-0,058	0,037
-574,963	325,387	0,057	-0,081
-573,948	28,549	0,095	-0,059
-572,934	-200,000	0,015	0,157
-571,919	251,808	0,035	-0,045
-570,904	-200,000	-0,009	0,097
-569,890	-136,629	-0,130	-0,011
-568,875	29,389	0,130	0,081
-567,861	465,236	0,016	-0,026
-566,846	147,088	0,068	0,067
-565,831	-124,319	0,108	-0,012
-564,817	-163,840	-0,069	-0,002
-563,802	-137,067	-0,074	0,006
-562,788	-200,000	0,011	-0,146
-561,773	42,065	0,089	0,060
-560,758	-24,567	0,104	-0,046
-559,744	704,874	0,042	0,082
-558,729	42,224	-0,017	0,012
-557,715	-200,000	-0,002	-0,017
-556,700	-86,019	-0,168	0,038
-555,685	396,316	0,050	0,077
-554,671	-0,483	-0,046	0,024
-553,656	-147,689	-0,079	-0,005
-552,642	116,640	-0,038	0,034
-551,627	800,000	-0,023	-0,069
-550,612	-0,045	0,030	-0,016
-549,598	-200,000	-0,006	0,051
-548,583	-200,000	-0,009	0,056
-547,569	-200,000	-0,021	-0,156
-546,554	-200,000	0,018	0,078
-545,539	98,137	0,064	-0,054
-544,525	-41,299	0,034	-0,013
-543,510	-105,498	-0,088	0,015
-542,496	26,588	-0,068	0,042
-541,481	-40,954	-0,104	-0,039
-540,466	273,447	-0,118	-0,155
-539,452	-129,157	0,162	0,016
-538,437	-167,407	0,035	-0,001
-537,423	-169,847	-0,068	0,002
-536,408	-71,213	0,087	-0,024
-535,393	108,562	0,052	-0,046
-534,379	-67,227	-0,172	0,050
-533,364	-121,074	0,152	0,019
-532,350	-200,000	0,014	-0,120
-531,335	-200,000	0,002	0,028
-530,321	492,895	0,034	0,058
-529,306	225,962	0,011	-0,013
-528,291	-200,000	0,021	-0,102
-527,277	3,007	0,085	0,045
-526,262	-200,000	-0,009	-0,037
-525,248	-200,000	0,022	-0,070
-524,233	-74,141	0,019	-0,005
-523,218	-200,000	0,011	0,110
-522,204	151,455	-0,080	0,081
-521,189	-98,299	-0,035	-0,007
-520,175	-39,693	0,035	0,013
-519,160	-200,000	0,007	0,068
-518,145	235,032	-0,088	0,108
-517,131	800,000	0,009	-0,027
-516,116	-167,619	0,043	-0,001
-515,102	-200,000	-0,007	0,044
-514,087	199,760	0,107	-0,121
-513,072	80,335	-0,130	-0,103
-512,058	800,000	0,067	-0,160
-511,043	122,431	0,053	0,048
-510,029	220,243	-0,063	0,075
-509,014	-200,000	0,035	0,133
-507,999	-143,810	-0,098	0,007
-506,985	121,506	-0,035	0,033
-505,970	-200,000	-0,014	-0,053
-504,956	800,000	-0,029	-0,071
-503,941	-200,000	-0,006	-0,077
-502,926	-116,092	-0,170	0,023
-501,912	-83,435	0,085	-0,020
-500,897	-39,213	0,037	-0,014
-499,883	-200,000	0,032	0,139
-498,868	382,714	-0,042	-0,064
-497,853	-200,000	-0,002	-0,028
-496,839	319,769	0,072	-0,100
-495,824	10,336	0,076	-0,042
-494,810	191,847	0,124	0,138
-493,795	292,604	0,075	0,101
-492,781	-138,220	-0,128	0,010
-491,766	-200,000	-0,033	0,145
-490,751	-18,543	-0,034	0,015
-489,737	-52,815	-0,101	-0,034
-488,722	94,046	0,075	-0,062
-487,708	131,059	-0,042	0,040
-486,693	56,869	-0,018	-0,013
-485,678	-103,469	-0,075	-0,013
-484,664	-48,593	-0,120	-0,042
-483,649	61,901	-0,057	-0,042
-482,635	75,580	0,112	-0,087
-481,620	-200,000	-0,003	-0,019
-480,605	-200,000	-0,006	0,079
-479,591	319,848	0,108	-0,151
-478,576	-120,613	0,091	-0,011
-477,562	-200,000	0,010	-0,068
-476,547	707,565	-0,082	0,161
-475,532	-89,781	0,093	-0,020
-474,518	-200,000	0,014	-0,186
-473,503	-26,936	-0,061	-0,026
-472,489	-86,132	-0,030	0,007
-471,474	-200,000	0,005	0,043
-470,459	66,123	-0,083	-0,062
-469,445	800,000	-0,021	-0,047
-468,430	-200,000	-0,010	-0,084
-467,416	362,912	0,118	-0,175
-466,401	-135,644	-0,037	0,003
-465,386	89,226	0,064	0,053
-464,372	98,648	0,061	0,052
-463,357	-200,000	-0,026	-0,119
-462,343	135,360	-0,113	-0,108
-461,328	-63,610	-0,058	0,018
-460,313	392,038	-0,003	-0,005
-459,299	-200,000	0,022	0,098
-458,284	177,282	-0,067	0,072
-457,270	50,204	0,067	-0,047
-456,255	166,292	-0,069	-0,072
-455,241	-84,756	-0,085	-0,020
-454,226	363,180	-0,022	-0,032
-453,211	-169,731	0,102	0,003
-452,197	800,000	0,046	0,108
-451,182	219,131	0,108	0,127
-450,168	800,000	0,044	0,108
-449,153	32,657	-0,125	-0,080
-448,138	-29,649	-0,057	-0,024
-447,124	-31,471	-0,036	-0,015
-446,109	17,410	0,090	0,052
-445,095	132,505	0,074	-0,070
-444,080	57,902	0,123	0,088
-443,065	-200,000	-0,019	0,130
-442,051	-200,000	-0,035	-0,179
-441,036	-19,271	-0,088	-0,040
-440,022	99,537	0,050	-0,042
-439,007	-139,300	0,081	-0,006
-437,992	368,198	-0,102	0,152
-436,978	-200,000	-0,009	0,063
-435,963	-9,539	0,051	0,025
-434,949	800,000	-0,030	0,091
-433,934	-200,000	-0,013	0,099
-432,919	470,933	0,035	-0,057
-431,905	-200,000	-0,030	-0,159
-430,890	-200,000	0,010	-0,059
-429,876	259,939	0,131	0,167
-428,861	-86,044	0,073	-0,016
-427,846	121,877	-0,059	0,055
-426,832	-167,469	-0,159	0,005
-425,817	89,841	-0,051	0,042
-424,803	800,000	0,048	0,106
-423,788	-190,307	-0,065	-0,001
-422,773	-43,505	0,080	-0,030
-421,759	-200,000	-0,010	0,065
-420,744	43,373	-0,114	0,076
-419,730	-37,870	-0,074	0,029
-418,715	-191,791	0,100	-0,001
-417,701	19,794	-0,074	0,044
-416,686	-190,193	0,021	-0,000
-415,671	800,000	0,021	-0,060
-414,657	-200,000	0,050	0,181
-413,642	800,000	0,016	0,049
-412,628	27,574	-0,023	0,014
-411,613	-200,000	-0,066	-0,250
-410,598	-24,139	-0,069	-0,030
-409,584	153,832	-0,041	-0,042
-408,569	800,000	0,029	-0,086
-407,555	192,211	0,012	0,013
-406,540	-200,000	0,023	0,078
-405,525	469,760	-0,027	-0,045
-404,511	797,433	0,042	-0,085
-403,496	13,308	-0,079	-0,045
-402,482	182,622	0,068	-0,073
-401,467	-25,067	-0,073	0,032
-400,452	-200,000	-0,023	0,112
-399,438	-200,000	0,032	0,130
-398,423	-180,394	-0,119	0,002
-397,409	800,000	-0,027	-0,083
-396,394	232,059	0,074	-0,089
-395,379	208,780	0,054	0,062
-394,365	333,662	0,067	0,095
-393,350	613,183	-0,090	0,166
-392,336	-147,930	0,048	-0,003
-391,321	-170,231	-0,018	0,000
-390,306	800,000	0,014	0,041
-389,292	800,000	0,016	0,035
-388,277	645,544	-0,055	-0,104
-387,263	-7,130	0,038	0,019
-386,248	-97,653	-0,067	-0,013
-385,233	745,188	0,080	0,158
-384,219	291,706	-0,019	-0,025
-383,204	-30,813	-0,197	-0,081
-382,190	319,152	0,098	0,136
-381,175	-124,487	0,181	-0,020
-380,160	-200,000	0,004	-0,059
-379,146	93,934	0,061	-0,051
-378,131	800,000	0,059	0,165
-377,117	-200,000	-0,004	0,059
-376,102	800,000	-0,040	-0,098
-375,088	129,322	0,103	0,096
-374,073	279,196	-0,051	0,067
-373,058	-200,000	0,000	-0,009
-372,044	-200,000	-0,003	0,144
-371,029	-200,000	-0,006	0,024
-370,015	800,000	0,033	0,069
-369,000	800,000	0,009	0,019
-367,985	-200,000	-0,000	-0,028
-366,971	-156,000	-0,074	0,003
-365,956	7,638	0,042	0,023
-364,942	-115,215	-0,104	-0,014
-363,927	170,708	-0,027	-0,029
-362,912	-200,000	-0,004	-0,109
-361,898	387,639	-0,007	-0,011
-360,883	800,000	-0,047	-0,107
-359,869	117,851	-0,088	0,079
-358,854	123,985	0,021	-0,020
-357,839	-200,000	-0,020	0,069
-356,825	22,648	0,072	0,043
-355,810	583,390	-0,095	-0,171
-354,796	2,142	-0,109	-0,058
-353,781	27,861	0,044	0,027
-352,766	800,000	-0,079	0,186
-351,752	-100,792	-0,101	0,018
-350,737	11,758	0,105	0,059
-349,723	32,588	0,107	0,067
-348,708	-200,000	0,012	0,201
-347,693	-93,221	0,057	-0,012
-346,679	-200,000	0,011	0,080
-345,664	176,607	0,042	0,045
-344,650	-200,000	-0,004	-0,030
-343,635	800,000	-0,028	-0,083
-342,620	-76,893	0,082	0,021
-341,606	-113,339	-0,266	0,038
-340,591	-200,000	-0,040	-0,160
-339,577	800,000	0,038	0,116
-338,562	142,316	-0,139	-0,135
-337,548	93,338	0,100	-0,082
-336,533	349,839	0,030	-0,044
-335,518	-120,622	-0,103	0,013
-334,504	-200,000	0,003	0,077
-333,489	-3,946	-0,116	-0,059
-332,475	414,921	-0,015	0,023
-331,460	-161,607	0,028	0,001
-330,445	332,033	-0,040	0,056
-329,431	70,384	0,058	0,044
-328,416	139,566	0,104	0,100
-327,402	-200,000	-0,035	0,136
-326,387	-200,000	0,035	0,122
-325,372	252,698	-0,021	0,026
-324,358	-85,772	0,129	0,029
-323,343	544,346	0,018	0,032
-322,329	-132,255	0,079	0,007
-321,314	242,411	0,052	-0,063
-320,299	27,617	-0,064	0,040
-319,285	-114,301	0,289	-0,040
-318,270	-200,000	-0,023	-0,097
-317,256	-200,000	0,064	0,223
-316,241	168,892	0,104	0,109
-315,226	-200,000	-0,002	-0,071
-314,212	393,935	-0,119	0,182
-313,197	-200,000	0,003	0,016
-312,183	-200,000	0,015	0,054
-311,168	-200,000	0,005	0,106
-310,153	800,000	0,038	-0,104
-309,139	800,000	0,050	-0,145
-308,124	-108,304	0,102	0,016
-307,110	-66,624	-0,056	-0,016
-306,095	-200,000	0,021	0,067
-305,080	614,620	-0,053	0,097
-304,066	-12,747	-0,092	-0,043
-303,051	77,709	0,047	-0,037
-302,037	-59,805	0,179	0,056
-301,022	14,229	-0,027	-0,015
-300,008	-200,000	0,013	0,055
-298,993	-27,796	-0,075	-0,031
-297,978	800,000	0,057	-0,182
-296,964	-23,205	-0,111	0,049
-295,949	-200,000	0,017	-0,070
-294,935	-200,000	0,007	-0,046
-293,920	-11,301	0,058	-0,028
-292,905	69,808	0,127	-0,096
-291,891	-16,226	0,132	0,061
-290,876	-200,000	-0,035	0,117
-289,862	771,092	0,019	-0,038
-288,847	74,808	-0,052	-0,040
-287,832	770,197	0,044	-0,089
-286,818	186,839	0,046	-0,051
-285,803	-103,060	0,056	-0,010
-284,789	-200,000	0,017	0,166
-283,774	-6,752	0,083	-0,041
-282,759	-200,000	-0,024	-0,117
-281,745	9,613	0,101	-0,056
-280,730	-91,894	-0,122	0,025
-279,716	-32,842	-0,019	0,008
-278,701	-195,152	0,131	0,001
-277,686	111,034	0,048	0,042
-276,672	-75,649	0,054	-0,014
-275,657	306,528	-0,080	-0,109
-274,643	-200,000	0,003	0,031
-273,628	800,000	0,047	0,116
-272,613	2,259	-0,052	0,027
-271,599	161,038	0,067	-0,068
-270,584	-200,000	0,000	0,014
-269,570	-200,000	-0,015	0,117
-268,555	-158,327	0,063	0,003
-267,540	343,551	0,017	-0,024
-266,526	-15,261	-0,035	0,016
-265,511	-78,613	0,051	0,013
-264,497	800,000	0,032	0,077
-263,482	461,120	0,021	0,035
-262,467	-77,901	0,085	-0,021
-261,453	-200,000	-0,001	-0,038
-260,438	-130,076	-0,149	-0,015
-259,424	800,000	-0,037	0,116
-258,409	-200,000	0,011	0,111
-257,395	-27,940	0,098	-0,041
-256,380	-200,000	0,013	0,051
-255,365	175,522	-0,013	-0,013
-254,351	800,000	0,035	0,089
-253,336	29,523	0,031	-0,019
-252,322	-200,000	0,002	0,011
-251,307	0,430	-0,056	-0,029
-250,292	91,485	0,055	0,045
-249,278	676,382	-0,010	-0,019
-248,263	-200,000	0,001	0,069
-247,249	800,000	0,053	-0,133
-246,234	-200,000	0,023	-0,207
-245,219	-200,000	0,001	0,031
-244,205	29,219	0,012	0,008
-243,190	-200,000	0,011	0,043
-242,176	515,274	-0,020	0,034
-241,161	-200,000	-0,011	0,048
-240,146	800,000	-0,055	0,118
-239,132	-200,000	-0,024	0,119
-238,117	-100,907	-0,162	0,029
-237,103	-94,681	0,067	0,013
-236,088	142,026	0,027	-0,027
-235,073	-172,679	0,127	0,003
-234,059	-200,000	-0,033	0,139
-233,044	226,946	0,115	0,136
-232,030	-55,100	-0,124	-0,041
-231,015	-46,491	0,043	-0,015
-230,000	-113,739	-0,048	0,007
-228,986	-86,872	0,106	0,023
-227,971	800,000	0,002	-0,006
-226,957	-200,000	0,001	0,050
-225,942	106,948	-0,030	-0,026
-224,927	555,056	-0,044	0,078
-223,913	363,492	0,048	-0,071
-222,898	91,518	-0,038	-0,031
-221,884	-200,000	0,001	-0,108
-220,869	800,000	-0,007	0,016
-219,855	-155,986	0,111	-0,005
-218,840	800,000	0,064	0,137
-217,825	-107,504	-0,064	-0,010
-216,811	800,000	-0,016	-0,051
-215,796	800,000	-0,033	0,100
-214,782	342,507	0,040	-0,057
-213,767	153,689	0,022	-0,022
-212,752	-129,371	0,127	0,013
-211,738	-200,000	-0,034	0,177
-210,723	800,000	-0,011	-0,023
-209,709	-156,990	-0,105	0,005
-208,694	94,302	0,035	-0,029
-207,679	261,448	0,097	-0,123
-206,665	-200,000	0,023	-0,092
-205,650	-43,708	0,103	0,038
-204,636	-200,000	0,005	-0,072
-203,621	29,052	-0,061	-0,038
-202,606	4,343	0,047	-0,025
-201,592	-200,000	-0,010	-0,048
-200,577	800,000	0,035	0,079
-199,563	-182,880	-0,097	-0,001
-198,548	-126,158	0,031	0,003
-197,533	151,884	0,020	0,020
-196,519	-200,000	0,022	0,155
-195,504	800,000	-0,045	0,128
-194,490	800,000	0,053	-0,124
-193,475	-200,000	0,004	0,050
-192,460	534,650	-0,041	-0,071
-191,446	13,466	0,088	-0,050
-190,431	559,137	-0,032	-0,057
-189,417	-11,167	0,041	-0,020
-188,402	-162,049	-0,140	-0,005
-187,387	-200,000	0,008	-0,125
-186,373	-200,000	-0,025	-0,095
-185,358	800,000	-0,044	0,118
-184,344	-74,111	-0,048	-0,013
-183,329	92,197	0,007	-0,005
-182,315	442,979	0,049	0,078
-181,300	-106,934	-0,042	0,007
-180,285	-200,000	-0,009	-0,084
-179,271	687,190	0,011	0,020
-178,256	716,161	0,027	-0,052
-177,242	209,217	0,043	0,049
-176,227	172,631	0,122	0,127
-175,212	43,219	-0,081	-0,054
-174,198	-81,218	-0,051	-0,012
-173,183	9,714	-0,053	-0,029
-172,169	800,000	0,086	-0,176
-171,154	22,108	-0,031	0,019
-170,139	800,000	-0,028	0,074
-169,125	-61,556	0,036	-0,011
-168,110	-200,000	-0,008	-0,134
-167,096	-151,302	0,088	-0,005
-166,081	-87,142	-0,193	0,042
-165,066	-200,000	-0,015	-0,052
-164,052	76,408	-0,185	-0,143
-163,037	357,159	0,066	-0,096
-162,023	42,117	0,031	-0,021
-161,008	336,042	0,027	-0,038
-159,993	-42,840	-0,038	-0,014
-158,979	-72,034	0,127	0,034
-157,964	-200,000	0,019	0,091
-156,950	-200,000	0,022	0,076
-155,935	-56,557	0,049	0,016
-154,920	-15,139	-0,072	0,034
-153,906	-200,000	-0,005	0,018
-152,891	241,549	0,071	-0,087
-151,877	245,485	-0,019	0,024
-150,862	800,000	0,035	-0,073
-149,847	800,000	0,015	0,047
-148,833	57,485	-0,132	-0,094
-147,818	-102,961	0,094	-0,016
-146,804	-17,644	-0,044	0,020
-145,789	-74,228	0,090	-0,023
-144,775	86,222	-0,051	0,041
-143,760	-126,930	0,048	-0,005
-142,745	362,244	-0,109	-0,159
-141,731	800,000	0,042	-0,085
-140,716	-2,649	0,057	-0,029
-139,702	16,745	0,093	-0,054
-138,687	-40,981	0,065	-0,024
-137,672	3,075	-0,082	-0,043
-136,658	194,149	-0,094	-0,103
-135,643	-67,809	0,104	-0,029
-134,629	-200,000	-0,009	-0,127
-133,614	-11,232	0,148	0,071
-132,599	116,158	0,091	0,081
-131,585	37,657	0,184	0,118
-130,570	800,000	0,038	0,100
-129,556	101,633	-0,055	0,047
-128,541	-63,977	-0,102	0,030
-127,526	-200,000	-0,005	0,104
-126,512	200,726	-0,095	0,106
-125,497	-87,926	0,099	0,021
-124,483	-200,000	-0,002	0,045
-123,468	-80,584	-0,070	0,017
-122,453	-14,447	0,012	-0,006
-121,439	-139,396	0,053	-0,004
-120,424	-64,932	0,016	-0,005
-119,410	24,469	0,068	-0,040
