DTS Sentinel unit serial number:	SN410029Multiplexer serial number:	ORYXHardware model number:	OX2-SRSoftware version number:	ORYX F/W v4,00 Oryx Data Collector v3.7.2.0data status	okinstallation	B4 Nyhavnadifferential loss correction	single-endedforward channel	channel 2reverse channel	N/Adate	2023/12/19time	00:15:13forward acquisition time	300,00reverse acquisition time	0,00gamma	499,1914k internal	0,3122k external	0,3122temperature offset calibration	1,0000default loss term (dB/km)	0,3820temperature slope calibration	1,0000multiplexer offset coefficient	1,0000multiplexer slope coefficient	1,0000fibre end	0,00T internal ref (°C)	22,18T ext. ref 1 (°C)	6,93T ext. ref 2 (°C)	6,97length (m)	temperature (°C)	Stokes	anti-Stokes-744,400	799,637	-0,036	-0,075
-743,385	-120,786	-0,241	0,030
-742,371	69,060	0,136	-0,104
-741,356	-50,972	-0,192	0,067
-740,342	-16,531	0,164	-0,077
-739,327	173,090	-0,252	0,271
-738,312	64,494	-0,093	-0,069
-737,298	-18,875	-0,147	0,068
-736,283	-200,000	0,004	0,107
-735,269	-156,097	-0,296	-0,014
-734,254	290,595	0,041	-0,056
-733,239	-59,756	-0,345	-0,109
-732,225	-180,146	0,013	-0,000
-731,210	800,000	-0,053	0,111
-730,196	153,797	0,062	-0,063
-729,181	323,926	-0,064	0,091
-728,167	-27,140	0,076	-0,033
-727,152	-200,000	-0,001	-0,012
-726,137	75,207	-0,114	-0,089
-725,123	73,205	-0,107	-0,083
-724,108	-200,000	-0,004	-0,043
-723,094	-89,821	-0,048	-0,010
-722,079	430,933	-0,038	-0,061
-721,064	-130,711	-0,117	0,012
-720,050	-144,185	-0,063	-0,004
-719,035	800,000	-0,031	0,076
-718,021	-138,559	-0,092	-0,007
-717,006	-200,000	-0,023	-0,184
-715,991	50,641	-0,051	-0,036
-714,977	357,358	0,084	0,126
-713,962	0,447	-0,084	-0,044
-712,948	261,114	0,118	0,152
-711,933	-200,000	-0,007	0,057
-710,918	800,000	-0,069	-0,179
-709,904	380,364	-0,096	0,147
-708,889	48,469	-0,062	0,043
-707,875	-200,000	-0,003	0,018
-706,860	-103,487	-0,132	0,023
-705,845	93,708	0,088	-0,075
-704,831	24,813	-0,086	-0,053
-703,816	-200,000	-0,031	0,127
-702,802	42,701	-0,101	0,068
-701,787	-15,958	-0,066	0,031
-700,772	-0,876	-0,093	-0,049
-699,758	98,871	0,018	0,016
-698,743	-200,000	0,180	0,000
-697,729	-31,727	-0,069	-0,029
-696,714	191,461	0,058	-0,065
-695,699	108,527	-0,109	-0,097
-694,685	-46,349	-0,080	-0,029
-693,670	-200,000	0,003	-0,148
-692,656	77,844	-0,038	-0,030
-691,641	789,813	0,005	0,010
-690,627	-200,000	0,007	0,024
-689,612	800,000	0,066	0,142
-688,597	-107,700	-0,057	0,009
-687,583	-104,416	-0,189	0,032
-686,568	-124,336	-0,055	-0,006
-685,554	-200,000	0,008	-0,234
-684,539	-200,000	0,038	0,132
-683,524	210,938	-0,017	-0,020
-682,510	435,304	0,050	0,082
-681,495	-200,000	0,006	-0,048
-680,481	-105,728	0,078	0,013
-679,466	-12,746	-0,077	0,037
-678,451	322,404	-0,095	0,134
-677,437	-200,000	0,023	0,095
-676,422	49,892	-0,024	-0,017
-675,408	800,000	-0,058	-0,133
-674,393	61,192	0,081	-0,059
-673,378	-140,632	-0,124	0,009
-672,364	-85,908	-0,133	0,030
-671,349	53,679	-0,043	-0,031
-670,335	86,725	-0,077	0,064
-669,320	-200,000	0,019	0,194
-668,305	-200,000	0,036	0,118
-667,291	403,893	0,016	0,025
-666,276	-200,000	-0,002	-0,099
-665,262	-153,779	-0,039	-0,002
-664,247	100,850	0,005	0,004
-663,232	-72,650	0,026	0,007
-662,218	169,594	-0,052	-0,055
-661,203	490,317	0,072	-0,122
-660,189	152,213	-0,118	-0,120
-659,174	10,790	-0,069	0,039
-658,159	-77,404	-0,096	0,025
-657,145	-200,000	-0,022	-0,218
-656,130	-123,010	0,039	0,005
-655,116	59,518	0,034	0,025
-654,101	143,014	-0,087	0,086
-653,086	-103,832	0,079	0,014
-652,072	-200,000	-0,012	0,134
-651,057	98,507	-0,148	-0,127
-650,043	-200,000	0,003	0,111
-649,028	-128,458	0,120	0,013
-648,014	23,186	-0,137	-0,084
-646,999	238,804	0,035	0,043
-645,984	56,055	-0,066	0,047
-644,970	365,029	0,103	-0,154
-643,955	800,000	0,035	-0,108
-642,941	67,028	-0,075	0,057
-641,926	-72,522	0,163	-0,044
-640,911	125,680	-0,080	-0,075
-639,897	-200,000	-0,039	0,162
-638,882	27,996	0,134	0,084
-637,868	-150,283	-0,135	-0,008
-636,853	252,617	-0,058	0,074
-635,838	122,429	0,049	-0,046
-634,824	-20,433	-0,094	0,043
-633,809	-173,795	0,037	0,001
-632,795	-51,070	0,163	-0,056
-631,780	539,791	0,025	0,044
-630,765	-200,000	-0,025	0,122
-629,751	-200,000	0,081	-0,271
-628,736	-33,316	-0,066	-0,027
-627,722	382,678	-0,053	0,081
-626,707	60,494	0,076	-0,056
-625,692	-137,584	0,142	0,012
-624,678	-34,321	-0,186	-0,075
-623,663	-101,927	-0,031	-0,005
-622,649	-200,000	-0,010	-0,120
-621,634	-127,749	0,134	0,014
-620,619	95,666	-0,066	0,056
-619,605	37,929	-0,112	0,074
-618,590	-4,584	0,114	-0,058
-617,576	2,953	-0,010	-0,005
-616,561	-65,574	0,125	0,037
-615,546	-200,000	0,015	0,056
-614,532	169,545	-0,111	-0,117
-613,517	800,000	-0,022	-0,056
-612,503	-200,000	-0,015	0,100
-611,488	266,732	-0,031	-0,041
-610,474	-200,000	-0,013	-0,121
-609,459	-160,401	0,081	0,003
-608,444	-153,625	-0,174	-0,009
-607,430	191,481	0,046	0,052
-606,415	-120,195	-0,073	-0,009
-605,401	713,153	0,047	-0,092
-604,386	-200,000	-0,012	-0,086
-603,371	-98,346	0,070	-0,013
-602,357	-27,702	-0,070	-0,030
-601,342	-200,000	-0,013	-0,045
-600,328	-118,102	-0,091	-0,012
-599,313	800,000	-0,027	0,062
-598,298	43,984	0,103	-0,070
-597,284	800,000	-0,027	0,070
-596,269	352,979	0,057	0,084
-595,255	-200,000	0,042	0,144
-594,240	219,695	0,065	-0,077
-593,225	-200,000	-0,039	-0,135
-592,211	-22,627	-0,062	-0,028
-591,196	-200,000	-0,009	0,126
-590,182	-200,000	0,009	-0,087
-589,167	-41,753	-0,100	-0,038
-588,152	71,184	-0,064	0,049
-587,138	800,000	0,029	-0,068
-586,123	118,495	-0,045	-0,041
-585,109	-190,475	-0,115	0,001
-584,094	641,978	-0,038	-0,072
-583,079	-31,251	0,138	0,057
-582,065	193,663	0,010	0,011
-581,050	-51,754	-0,064	-0,022
-580,036	-200,000	-0,017	0,076
-579,021	-200,000	0,022	-0,093
-578,006	-200,000	0,012	-0,182
-576,992	-63,701	0,145	0,044
-575,977	-3,321	-0,068	-0,035
-574,963	2,887	0,036	0,019
-573,948	800,000	0,023	-0,049
-572,934	780,613	-0,077	-0,156
-571,919	-200,000	-0,003	-0,126
-570,904	-200,000	0,015	-0,087
-569,890	-200,000	0,065	0,241
-568,875	383,519	-0,043	0,066
-567,861	-4,412	0,135	-0,069
-566,846	178,498	-0,098	0,106
-565,831	363,805	0,067	0,100
-564,817	53,323	-0,085	-0,060
-563,802	568,896	0,052	-0,095
-562,788	-200,000	-0,018	-0,177
-561,773	-200,000	-0,008	-0,079
-560,758	739,401	-0,020	0,039
-559,744	-39,526	0,169	0,065
-558,729	210,410	0,067	-0,078
-557,715	-7,746	-0,077	0,038
-556,700	-129,816	-0,098	0,010
-555,685	36,719	0,023	-0,015
-554,671	-55,357	0,135	0,044
-553,656	-30,586	0,056	0,023
-552,642	-200,000	-0,005	-0,066
-551,627	-200,000	0,033	0,115
-550,612	-200,000	0,020	-0,067
-549,598	695,618	-0,082	-0,159
-548,583	-173,472	0,051	0,001
-547,569	18,157	0,029	0,017
-546,554	-45,495	0,035	-0,013
-545,539	-147,154	-0,131	0,008
-544,525	87,427	0,041	0,034
-543,510	-200,000	0,001	-0,030
-542,496	-200,000	-0,022	-0,118
-541,481	-3,584	0,032	-0,016
-540,466	-200,000	0,020	0,067
-539,452	32,517	-0,054	0,034
-538,437	-61,070	0,119	0,037
-537,423	108,144	0,109	0,096
-536,408	-197,065	0,156	-0,001
-535,393	-200,000	-0,006	0,023
-534,379	-171,578	-0,071	-0,002
-533,364	53,425	-0,031	-0,022
-532,350	202,264	0,126	0,144
-531,335	148,223	-0,043	0,043
-530,321	674,197	0,017	0,034
-529,306	800,000	-0,034	0,100
-528,291	632,182	0,065	0,122
-527,277	-55,219	0,093	-0,031
-526,262	-200,000	0,010	0,081
-525,248	163,665	-0,059	0,061
-524,233	-137,012	0,071	-0,006
-523,218	533,500	0,051	0,089
-522,204	77,352	-0,081	-0,064
-521,189	98,663	-0,103	-0,088
-520,175	-200,000	0,008	-0,070
-519,160	-200,000	0,006	-0,038
-518,145	-146,454	-0,138	0,009
-517,131	-70,939	-0,006	0,002
-516,116	577,728	-0,015	-0,027
-515,102	-150,875	0,051	-0,003
-514,087	31,085	0,135	-0,086
-513,072	-31,069	-0,131	-0,055
-512,058	-200,000	0,004	-0,117
-511,043	-200,000	-0,029	-0,108
-510,029	-18,132	0,093	0,043
-509,014	165,471	-0,039	0,041
-507,999	-200,000	-0,006	0,039
-506,985	-163,043	0,089	-0,003
-505,970	95,671	0,067	-0,057
-504,956	-200,000	0,031	-0,123
-503,941	473,710	0,047	0,079
-502,926	800,000	-0,026	-0,077
-501,912	135,337	0,075	0,072
-500,897	390,663	0,036	-0,055
-499,883	-200,000	-0,055	0,000
-498,868	-200,000	-0,035	-0,113
-497,853	800,000	-0,015	-0,042
-496,839	71,439	-0,060	-0,046
-495,824	-200,000	0,058	0,195
-494,810	226,876	-0,102	0,122
-493,795	95,942	0,036	0,030
-492,781	-200,000	-0,029	-0,168
-491,766	-74,407	-0,103	-0,027
-490,751	-200,000	-0,007	-0,038
-489,737	-68,456	0,047	0,013
-488,722	-104,678	-0,053	0,009
-487,708	440,546	-0,043	-0,070
-486,693	100,671	-0,066	-0,057
-485,678	800,000	0,017	-0,041
-484,664	-200,000	-0,020	-0,151
-483,649	130,135	0,033	-0,031
-482,635	29,941	0,033	-0,021
-481,620	-200,000	-0,001	-0,012
-480,605	51,018	0,044	0,031
-479,591	86,234	0,024	0,019
-478,576	-174,887	0,139	0,003
-477,562	800,000	-0,008	-0,019
-476,547	797,069	0,063	-0,129
-475,532	682,734	-0,019	0,036
-474,518	-200,000	-0,006	0,047
-473,503	-78,609	0,067	0,017
-472,489	800,000	-0,043	-0,111
-471,474	220,407	-0,060	-0,071
-470,459	4,866	-0,073	-0,039
-469,445	800,000	0,019	-0,051
-468,430	-200,000	0,020	-0,078
-467,416	800,000	-0,050	0,145
-466,401	-200,000	-0,005	0,054
-465,386	800,000	0,016	-0,034
-464,372	-44,663	-0,017	-0,006
-463,357	344,514	0,051	-0,074
-462,343	158,073	-0,019	-0,020
-461,328	370,332	-0,004	-0,007
-460,313	197,072	-0,053	-0,060
-459,299	-177,819	0,120	0,002
-458,284	-200,000	-0,042	0,168
-457,270	82,021	0,101	-0,080
-456,255	-200,000	-0,003	-0,066
-455,241	308,681	-0,096	0,132
-454,226	6,820	0,031	0,017
-453,211	800,000	-0,054	0,111
-452,197	540,800	-0,042	-0,073
-451,182	19,012	-0,065	0,038
-450,168	-126,212	0,170	0,018
-449,153	-14,461	-0,079	-0,037
-448,138	129,827	0,057	-0,054
-447,124	3,845	-0,025	0,014
-446,109	137,564	0,183	0,176
-445,095	-111,544	-0,030	-0,004
-444,080	107,434	0,047	-0,041
-443,065	-200,000	-0,009	-0,054
-442,051	800,000	0,010	-0,029
-441,036	-92,913	-0,077	0,016
-440,022	-200,000	-0,007	-0,039
-439,007	57,197	0,018	-0,013
-437,992	-200,000	-0,032	0,138
-436,978	-66,575	-0,072	0,021
-435,963	-200,000	0,027	0,104
-434,949	502,009	-0,009	0,016
-433,934	2,968	-0,053	-0,028
-432,919	-200,000	0,015	-0,106
-431,905	800,000	-0,019	0,058
-430,890	181,948	0,032	0,035
-429,876	-200,000	-0,000	-0,050
-428,861	-156,099	0,029	0,001
-427,846	57,734	-0,036	-0,026
-426,832	-200,000	0,002	0,012
-425,817	141,516	0,077	-0,075
-424,803	56,214	-0,116	-0,083
-423,788	137,382	0,054	0,052
-422,773	-200,000	-0,003	0,112
-421,759	-200,000	0,013	-0,124
-420,744	-45,832	0,086	0,031
-419,730	800,000	0,032	-0,087
-418,715	446,904	-0,089	-0,145
-417,701	51,851	-0,092	-0,064
-416,686	359,221	0,029	0,043
-415,671	133,476	0,061	0,058
-414,657	-60,677	0,072	0,022
-413,642	378,295	-0,042	0,064
-412,628	665,060	-0,025	-0,048
-411,613	-81,221	-0,220	-0,053
-410,598	-200,000	-0,014	0,071
-409,584	267,154	0,103	-0,133
-408,569	-200,000	-0,018	0,082
-407,555	192,527	0,077	0,085
-406,540	36,720	-0,034	-0,022
-405,525	800,000	0,017	0,052
-404,511	9,387	-0,070	0,039
-403,496	199,249	-0,070	0,079
-402,482	201,092	-0,049	-0,056
-401,467	-58,336	-0,099	-0,031
-400,452	76,656	0,054	0,042
-399,438	317,757	-0,046	-0,064
-398,423	-136,680	0,036	-0,003
-397,409	-200,000	-0,003	-0,069
-396,394	-112,783	0,100	-0,014
-395,379	191,952	0,079	0,088
-394,365	-200,000	0,005	-0,020
-393,350	59,008	-0,035	-0,025
-392,336	-16,158	-0,034	0,016
-391,321	197,441	0,036	0,041
-390,306	-146,912	-0,147	-0,009
-389,292	179,875	0,051	0,055
-388,277	-28,545	0,037	0,016
-387,263	274,013	-0,056	-0,073
-386,248	71,252	0,068	-0,052
-385,233	-99,072	0,044	-0,008
-384,219	-152,164	-0,116	0,006
-383,204	449,991	-0,072	-0,117
-382,190	671,633	0,058	-0,111
-381,175	800,000	-0,031	0,083
-380,160	703,465	-0,009	-0,017
-379,146	-200,000	0,013	0,043
-378,131	-200,000	-0,008	0,031
-377,117	-200,000	-0,008	0,034
-376,102	-131,178	-0,085	0,008
-375,088	254,824	-0,048	-0,061
-374,073	-146,576	-0,068	0,004
-373,058	108,768	0,036	0,031
-372,044	-200,000	-0,004	0,050
-371,029	75,335	0,073	-0,057
-370,015	-200,000	-0,021	0,189
-369,000	-46,287	-0,010	-0,003
-367,985	104,967	-0,058	-0,050
-366,971	-200,000	-0,024	0,087
-365,956	-73,962	-0,199	0,053
-364,942	-145,101	0,033	-0,002
-363,927	-133,499	0,066	-0,006
-362,912	-21,231	-0,051	0,023
-361,898	394,639	-0,012	-0,018
-360,883	-68,947	0,063	0,018
-359,869	416,674	-0,074	-0,117
-358,854	177,488	0,112	0,120
-357,839	-200,000	-0,017	-0,150
-356,825	-200,000	0,004	-0,018
-355,810	800,000	0,013	-0,036
-354,796	-121,880	0,093	-0,011
-353,781	-200,000	0,018	-0,127
-352,766	-200,000	0,009	0,117
-351,752	800,000	0,022	0,045
-350,737	-154,969	-0,005	0,000
-349,723	16,907	-0,022	0,013
-348,708	-186,396	-0,051	-0,001
-347,693	-138,289	-0,017	-0,001
-346,679	-200,000	0,028	-0,232
-345,664	-200,000	-0,012	-0,105
-344,650	239,890	0,111	0,136
-343,635	422,334	-0,061	0,096
-342,620	104,035	0,092	-0,080
-341,606	-38,073	0,079	0,031
-340,591	800,000	-0,020	-0,041
-339,577	-200,000	-0,018	-0,125
-338,562	-200,000	0,003	-0,066
-337,548	-200,000	-0,007	0,038
-336,533	223,866	-0,049	-0,058
-335,518	86,702	0,069	0,056
-334,504	-200,000	0,008	-0,052
-333,489	158,676	-0,120	0,122
-332,475	-38,767	-0,113	-0,043
-331,460	503,819	-0,030	-0,051
-330,445	-200,000	-0,005	-0,147
-329,431	47,345	0,053	0,036
-328,416	-200,000	-0,052	0,237
-327,402	-200,000	-0,001	0,077
-326,387	18,454	-0,050	0,029
-325,372	394,175	-0,045	0,069
-324,358	-76,931	-0,060	0,015
-323,343	150,541	0,007	0,007
-322,329	-123,109	0,057	-0,007
-321,314	-37,570	-0,115	0,045
-320,299	800,000	-0,046	0,132
-319,285	233,011	0,021	0,026
-318,270	-163,747	0,125	0,004
-317,256	-200,000	-0,007	0,064
-316,241	-32,354	-0,042	0,017
-315,226	-156,828	-0,045	0,002
-314,212	82,844	0,058	0,047
-313,197	528,649	-0,037	0,065
-312,183	-166,545	0,116	0,003
-311,168	-200,000	-0,011	-0,043
-310,153	-68,496	-0,052	-0,015
-309,139	-58,523	-0,123	-0,039
-308,124	206,922	-0,026	0,029
-307,110	-111,198	-0,077	0,011
-306,095	310,349	-0,073	0,100
-305,080	-200,000	0,028	0,132
-304,066	800,000	-0,063	0,131
-303,051	-200,000	0,022	-0,229
-302,037	-200,000	-0,014	0,116
-301,022	234,715	-0,065	0,079
-300,008	-200,000	0,001	0,032
-298,993	-200,000	-0,000	0,005
-297,978	-111,971	0,110	0,016
-296,964	640,015	0,048	-0,089
-295,949	-200,000	0,002	0,022
-294,935	271,226	0,015	-0,020
-293,920	-50,998	-0,074	0,025
-292,905	-116,122	0,070	0,009
-291,891	-110,323	0,095	0,014
-290,876	-81,644	-0,018	-0,004
-289,862	99,227	0,052	-0,044
-288,847	27,901	-0,093	0,057
-287,832	207,112	-0,096	0,110
-286,818	800,000	-0,048	-0,151
-285,803	-200,000	-0,013	-0,090
-284,789	-6,764	0,047	-0,023
-283,774	-200,000	0,034	0,134
-282,759	-141,515	0,053	-0,004
-281,745	-35,002	-0,059	-0,024
-280,730	468,466	0,055	-0,090
-279,716	800,000	-0,043	-0,110
-278,701	-89,235	0,073	-0,016
-277,686	800,000	-0,011	0,026
-276,672	-92,487	-0,055	0,011
-275,657	19,327	-0,041	-0,024
-274,643	-200,000	-0,009	-0,059
-273,628	-46,229	0,025	0,009
-272,613	343,243	0,047	-0,068
-271,599	-200,000	-0,021	0,119
-270,584	-11,028	-0,075	-0,036
-269,570	-13,246	0,075	0,036
-268,555	-200,000	-0,039	-0,127
-267,540	71,729	0,056	0,043
-266,526	97,715	0,102	0,086
-265,511	800,000	-0,009	0,027
-264,497	-10,399	0,059	-0,028
-263,482	-200,000	-0,011	0,139
-262,467	515,415	0,037	-0,063
-261,453	-200,000	-0,009	0,088
-260,438	-8,090	-0,100	-0,049
-259,424	-200,000	-0,006	-0,037
-258,409	-200,000	-0,003	-0,098
-257,395	-87,008	-0,026	-0,006
-256,380	800,000	0,014	0,040
-255,365	800,000	0,012	0,032
-254,351	78,738	-0,071	0,056
-253,336	-169,249	0,081	-0,002
-252,322	-200,000	0,003	-0,127
-251,307	48,009	-0,110	-0,075
-250,292	-200,000	0,004	0,087
-249,278	411,613	-0,024	0,037
-248,263	233,820	0,155	0,188
-247,249	679,515	-0,043	0,083
-246,234	-200,000	0,012	-0,053
-245,219	-153,619	-0,091	-0,005
-244,205	110,597	-0,027	0,024
-243,190	-200,000	-0,025	0,093
-242,176	-115,256	0,150	0,020
-241,161	-200,000	0,049	0,162
-240,146	-21,666	-0,085	0,038
-239,132	406,497	0,026	-0,040
-238,117	7,427	-0,102	-0,056
-237,103	800,000	0,058	-0,137
-236,088	-200,000	0,021	-0,148
-235,073	-200,000	0,014	0,055
-234,059	369,371	0,097	0,143
-233,044	-98,554	0,074	0,014
-232,030	-72,164	-0,039	0,011
-231,015	-141,181	-0,037	-0,003
-230,000	-200,000	0,006	0,099
-228,986	22,478	-0,112	-0,067
-227,971	379,963	-0,045	-0,067
-226,957	10,717	0,101	-0,056
-225,942	-85,751	0,106	0,024
-224,927	-131,555	-0,128	0,012
-223,913	-58,031	-0,071	-0,022
-222,898	-24,629	-0,059	-0,025
-221,884	79,684	-0,050	0,039
-220,869	-73,934	-0,059	0,015
-219,855	517,551	-0,085	0,145
-218,840	605,959	0,040	0,074
-217,825	547,674	0,074	-0,130
-216,811	-177,816	0,026	0,000
-215,796	-47,754	-0,091	-0,032
-214,782	-36,922	0,134	0,052
-213,767	441,426	-0,016	-0,025
-212,752	26,896	0,056	0,034
-211,738	409,278	0,013	0,020
-210,723	-200,000	-0,002	0,098
-209,709	42,932	0,083	-0,055
-208,694	-200,000	0,024	-0,080
-207,679	-104,300	0,209	0,035
-206,665	75,764	0,028	-0,022
-205,650	-200,000	0,013	0,059
-204,636	800,000	0,025	0,059
-203,621	154,046	0,047	0,047
-202,606	397,861	0,030	0,045
-201,592	-200,000	-0,009	-0,058
-200,577	-200,000	0,014	-0,103
-199,563	-178,384	-0,056	-0,001
-198,548	-79,626	0,046	0,011
-197,533	-200,000	-0,002	0,112
-196,519	696,094	0,036	-0,069
-195,504	737,061	-0,014	-0,027
-194,490	57,186	-0,082	0,058
-193,475	59,715	-0,058	-0,042
-192,460	744,719	-0,037	0,073
-191,446	49,639	0,055	-0,038
-190,431	-114,924	0,051	-0,007
-189,417	-200,000	-0,011	0,075
-188,402	-29,932	0,093	-0,038
-187,387	-66,652	-0,019	-0,005
-186,373	-200,000	-0,001	0,089
-185,358	-200,000	-0,029	-0,112
-184,344	-96,090	0,033	-0,006
-183,329	-52,245	-0,122	-0,041
-182,315	-200,000	-0,011	-0,038
-181,300	-200,000	-0,032	-0,104
-180,285	67,790	-0,101	-0,075
-179,271	320,819	-0,037	-0,052
-178,256	-200,000	0,013	-0,073
-177,242	-162,339	-0,083	0,003
-176,227	-138,040	0,065	-0,005
-175,212	41,079	0,157	0,103
-174,198	-45,950	-0,053	0,019
-173,183	-176,576	0,057	-0,001
-172,169	-49,568	-0,097	-0,033
-171,154	-200,000	-0,016	0,054
-170,139	31,666	-0,100	-0,063
-169,125	-111,782	0,108	0,016
-168,110	-200,000	0,033	0,112
-167,096	63,582	-0,124	0,091
-166,081	800,000	-0,035	0,090
-165,066	614,341	-0,061	0,113
-164,052	800,000	-0,024	0,053
-163,037	800,000	-0,016	-0,047
-162,023	-200,000	0,007	0,160
-161,008	56,427	0,134	0,095
-159,993	162,020	-0,035	-0,036
-158,979	-200,000	0,005	0,021
-157,964	-49,616	-0,124	0,043
-156,950	-84,535	0,051	-0,012
-155,935	0,031	0,108	0,056
-154,920	-200,000	0,013	0,257
-153,906	-166,002	0,121	0,004
-152,891	800,000	0,045	0,095
-151,877	31,641	0,104	0,065
-150,862	489,388	-0,027	0,045
-149,847	800,000	0,047	0,123
-148,833	-200,000	0,019	-0,127
-147,818	28,968	0,013	0,008
-146,804	762,816	0,045	0,090
-145,789	800,000	0,030	-0,089
-144,775	-200,000	-0,009	0,131
-143,760	-116,681	-0,041	0,005
-142,745	800,000	-0,017	0,044
-141,731	14,421	0,081	-0,046
-140,716	-5,646	0,104	0,052
-139,702	-200,000	-0,004	0,067
-138,687	-200,000	-0,003	0,104
-137,672	228,880	0,031	0,037
-136,658	78,733	-0,026	-0,020
-135,643	131,601	-0,085	-0,079
-134,629	-172,582	0,069	0,002
-133,614	-200,000	0,036	-0,148
-132,599	203,410	-0,037	0,042
-131,585	-200,000	-0,040	0,143
-130,570	67,331	-0,047	0,035
-129,556	-200,000	0,008	-0,071
-128,541	-200,000	-0,021	0,101
-127,526	94,016	-0,043	-0,035
-126,512	-135,808	-0,118	0,010
-125,497	-200,000	0,007	0,056
-124,483	-52,928	0,058	-0,019
-123,468	572,051	0,063	0,111
-122,453	43,842	-0,100	-0,067
-121,439	78,496	-0,040	0,031
-120,424	-124,444	0,164	0,018
