DTS Sentinel unit serial number:	SN410029Multiplexer serial number:	ORYXHardware model number:	OX2-SRSoftware version number:	ORYX F/W v4,00 Oryx Data Collector v3.7.2.0data status	okinstallation	B4 Nyhavnadifferential loss correction	single-endedforward channel	channel 2reverse channel	N/Adate	2023/12/16time	10:05:13forward acquisition time	300,00reverse acquisition time	0,00gamma	499,1914k internal	0,3126k external	0,3126temperature offset calibration	1,0000default loss term (dB/km)	0,3820temperature slope calibration	1,0000multiplexer offset coefficient	1,0000multiplexer slope coefficient	1,0000fibre end	0,00T internal ref (°C)	23,21T ext. ref 1 (°C)	8,89T ext. ref 2 (°C)	9,06length (m)	temperature (°C)	Stokes	anti-Stokes-744,400	-200,000	0,009	-0,067
-743,385	-67,502	-0,307	0,089
-742,371	-71,638	0,224	0,062
-741,356	102,784	-0,121	0,105
-740,342	-200,000	-0,018	-0,080
-739,327	70,958	-0,226	0,174
-738,312	76,234	-0,066	0,052
-737,298	100,609	-0,212	0,184
-736,283	-200,000	-0,011	0,083
-735,269	311,437	-0,195	0,273
-734,254	-200,000	0,024	-0,255
-733,239	-78,487	-0,336	-0,085
-732,225	-200,000	-0,039	-0,133
-731,210	30,522	0,092	-0,059
-730,196	-21,879	-0,087	-0,039
-729,181	-200,000	-0,020	0,082
-728,167	-7,678	0,092	0,046
-727,152	-200,000	0,006	-0,026
-726,137	54,439	-0,083	-0,060
-725,123	-200,000	-0,039	-0,190
-724,108	250,033	-0,055	0,070
-723,094	237,974	-0,070	0,086
-722,079	-200,000	0,010	-0,119
-721,064	192,280	-0,113	-0,127
-720,050	-16,451	0,092	-0,043
-719,035	-44,862	0,196	0,072
-718,021	-200,000	-0,003	0,087
-717,006	50,954	0,095	-0,067
-715,991	-141,882	-0,176	-0,013
-714,977	-200,000	-0,184	0,000
-713,962	-200,000	0,029	-0,126
-712,948	-200,000	0,001	-0,062
-711,933	-200,000	0,005	-0,055
-710,918	505,938	0,020	0,035
-709,904	1,807	0,205	0,110
-708,889	-67,545	-0,033	0,010
-707,875	783,515	-0,043	-0,089
-706,860	-145,900	-0,087	-0,006
-705,845	-200,000	0,006	0,019
-704,831	800,000	0,047	0,102
-703,816	406,029	0,073	0,116
-702,802	-200,000	-0,012	0,103
-701,787	39,868	-0,071	-0,048
-700,772	86,595	0,053	-0,043
-699,758	-48,003	-0,022	-0,008
-698,743	-19,558	-0,073	0,034
-697,729	-89,161	0,064	0,014
-696,714	-78,590	0,018	0,005
-695,699	-200,000	0,011	-0,090
-694,685	226,816	-0,034	0,041
-693,670	495,400	-0,013	-0,022
-692,656	800,000	0,058	-0,128
-691,641	100,529	-0,033	0,028
-690,627	-163,681	0,105	-0,004
-689,612	58,373	0,007	0,005
-688,597	293,775	-0,122	-0,167
-687,583	-69,211	-0,098	-0,028
-686,568	-200,000	0,004	0,198
-685,554	-200,000	0,015	0,078
-684,539	97,813	0,129	0,110
-683,524	-200,000	-0,019	0,082
-682,510	197,288	0,080	-0,091
-681,495	-50,616	0,009	-0,003
-680,481	488,536	-0,033	-0,056
-679,466	56,324	-0,116	-0,084
-678,451	-200,000	0,013	-0,067
-677,437	-95,462	-0,082	0,016
-676,422	748,126	0,055	0,111
-675,408	108,522	0,059	-0,052
-674,393	-200,000	0,010	-0,106
-673,378	-200,000	0,004	-0,048
-672,364	181,190	-0,032	-0,035
-671,349	-97,008	-0,137	0,026
-670,335	-200,000	-0,001	0,070
-669,320	358,131	-0,045	0,066
-668,305	362,815	0,082	0,123
-667,291	350,269	-0,059	-0,086
-666,276	70,476	-0,041	-0,032
-665,262	185,217	-0,034	0,037
-664,247	800,000	-0,044	-0,136
-663,232	-200,000	-0,016	-0,100
-662,218	267,936	-0,097	0,126
-661,203	-97,168	-0,047	0,009
-660,189	-200,000	0,019	-0,140
-659,174	704,701	-0,033	-0,064
-658,159	236,143	-0,072	-0,088
-657,145	-81,510	-0,157	-0,038
-656,130	-69,105	-0,101	-0,029
-655,116	-29,181	0,065	0,028
-654,101	800,000	-0,045	0,123
-653,086	-200,000	0,004	-0,053
-652,072	-200,000	0,016	-0,109
-651,057	-26,443	0,059	0,025
-650,043	-200,000	0,024	-0,098
-649,028	430,579	-0,030	-0,049
-648,014	-144,245	-0,034	0,002
-646,999	-200,000	0,008	-0,085
-645,984	-200,000	0,008	-0,051
-644,970	800,000	-0,035	-0,081
-643,955	-200,000	0,008	0,225
-642,941	26,191	0,050	0,031
-641,926	231,711	0,017	0,021
-640,911	-107,677	0,117	-0,019
-639,897	-200,000	-0,005	-0,071
-638,882	-15,075	-0,088	-0,041
-637,868	12,056	-0,079	0,045
-636,853	800,000	-0,036	-0,091
-635,838	-131,284	0,055	0,005
-634,824	-18,942	-0,064	-0,030
-633,809	158,306	0,095	-0,097
-632,795	129,567	0,032	0,031
-631,780	152,970	0,029	-0,029
-630,765	800,000	-0,045	0,112
-629,751	-200,000	-0,016	-0,153
-628,736	535,776	-0,066	-0,117
-627,722	-200,000	0,009	-0,082
-626,707	56,701	0,052	0,037
-625,692	137,804	-0,057	0,055
-624,678	-200,000	0,039	0,142
-623,663	-41,896	0,041	-0,016
-622,649	259,535	-0,060	-0,077
-621,634	53,343	-0,100	-0,071
-620,619	575,545	-0,095	-0,173
-619,605	-23,944	-0,075	-0,033
-618,590	5,135	0,050	-0,027
-617,576	770,003	-0,021	0,042
-616,561	144,436	-0,050	0,050
-615,546	800,000	-0,027	0,069
-614,532	82,251	-0,072	-0,058
-613,517	-110,888	-0,187	0,028
-612,503	323,800	0,070	0,099
-611,488	-72,232	-0,037	-0,010
-610,474	322,022	-0,038	0,054
-609,459	58,847	0,077	-0,056
-608,444	650,769	-0,041	-0,078
-607,430	-117,192	-0,155	-0,021
-606,415	-200,000	-0,036	-0,166
-605,401	-200,000	0,050	-0,183
-604,386	5,884	0,047	0,025
-603,371	34,899	-0,161	0,104
-602,357	-200,000	-0,019	-0,066
-601,342	214,165	-0,046	-0,054
-600,328	-200,000	-0,007	-0,043
-599,313	-200,000	0,015	0,086
-598,298	-54,711	-0,066	-0,022
-597,284	-200,000	0,002	-0,101
-596,269	-43,017	-0,034	0,013
-595,255	800,000	0,009	-0,025
-594,240	-200,000	-0,023	-0,098
-593,225	-15,003	-0,097	-0,046
-592,211	375,547	0,078	-0,117
-591,196	-200,000	-0,012	-0,069
-590,182	-200,000	0,000	-0,070
-589,167	184,628	0,046	0,051
-588,152	29,853	0,076	-0,048
-587,138	-127,208	-0,153	0,016
-586,123	-200,000	0,023	-0,094
-585,109	33,200	0,049	0,031
-584,094	120,205	-0,036	-0,033
-583,079	-200,000	-0,053	0,197
-582,065	534,479	0,117	-0,205
-581,050	32,509	0,030	0,019
-580,036	-111,668	-0,010	0,001
-579,021	251,873	0,084	0,106
-578,006	800,000	0,037	-0,082
-576,992	-102,792	0,047	-0,008
-575,977	56,618	-0,061	0,044
-574,963	337,627	0,063	0,091
-573,948	153,266	-0,068	0,069
-572,934	426,203	-0,049	-0,079
-571,919	-200,000	0,018	-0,111
-570,904	-15,587	0,123	-0,058
-569,890	258,103	-0,112	-0,142
-568,875	-60,568	0,061	0,019
-567,861	535,509	-0,039	0,070
-566,846	-8,580	-0,195	-0,096
-565,831	286,983	-0,016	0,021
-564,817	800,000	-0,048	-0,124
-563,802	-200,000	-0,005	-0,036
-562,788	-121,590	0,151	0,018
-561,773	314,795	0,059	0,082
-560,758	-148,412	0,091	-0,005
-559,744	800,000	0,004	-0,010
-558,729	800,000	0,007	0,016
-557,715	0,651	-0,037	-0,020
-556,700	434,797	-0,059	-0,095
-555,685	89,103	-0,060	-0,049
-554,671	800,000	0,059	-0,127
-553,656	327,703	-0,070	0,099
-552,642	-200,000	-0,027	0,165
-551,627	-200,000	-0,003	-0,138
-550,612	800,000	-0,055	-0,120
-549,598	800,000	0,015	0,045
-548,583	-56,922	-0,111	0,036
-547,569	496,841	0,046	0,079
-546,554	-200,000	-0,003	-0,070
-545,539	-200,000	-0,015	0,088
-544,525	800,000	0,017	0,037
-543,510	140,493	-0,030	0,029
-542,496	-60,820	0,058	0,018
-541,481	265,873	0,066	-0,085
-540,466	-200,000	-0,007	-0,169
-539,452	-200,000	-0,031	-0,183
-538,437	800,000	0,022	-0,060
-537,423	800,000	-0,048	0,102
-536,408	517,942	0,014	0,024
-535,393	-67,346	-0,063	0,018
-534,379	-200,000	0,004	-0,091
-533,364	-56,708	-0,094	0,030
-532,350	-200,000	0,010	0,063
-531,335	18,992	0,111	0,066
-530,321	-153,537	-0,069	-0,003
-529,306	117,934	-0,050	-0,045
-528,291	58,864	-0,091	-0,066
-527,277	7,181	-0,134	-0,074
-526,262	-200,000	-0,028	-0,109
-525,248	12,725	0,028	0,016
-524,233	97,165	0,125	0,106
-523,218	-57,628	0,058	0,019
-522,204	49,604	0,064	0,045
-521,189	-51,158	-0,090	-0,031
-520,175	-142,475	-0,071	0,005
-519,160	800,000	0,032	0,086
-518,145	190,031	0,058	0,064
-517,131	-8,239	-0,031	0,015
-516,116	159,916	0,053	0,055
-515,102	-77,135	-0,081	0,021
-514,087	99,527	0,080	0,068
-513,072	308,173	0,042	-0,058
-512,058	364,834	-0,080	-0,120
-511,043	68,257	-0,032	0,024
-510,029	-115,064	0,062	0,009
-509,014	29,365	0,156	-0,098
-507,999	-64,260	-0,058	-0,017
-506,985	130,480	0,045	-0,042
-505,970	134,402	0,020	-0,019
-504,956	-200,000	-0,001	-0,016
-503,941	-200,000	-0,013	-0,071
-502,926	424,772	-0,036	-0,058
-501,912	406,131	0,045	0,070
-500,897	-117,008	-0,128	0,017
-499,883	403,234	0,057	0,089
-498,868	51,116	-0,070	0,049
-497,853	386,756	0,024	-0,036
-496,839	-19,384	-0,009	-0,004
-495,824	360,245	0,067	0,099
-494,810	-126,004	0,176	0,019
-493,795	13,203	0,084	0,048
-492,781	661,744	0,062	0,118
-491,766	554,488	-0,057	-0,101
-490,751	-200,000	-0,031	0,103
-489,737	800,000	-0,016	0,052
-488,722	83,595	-0,077	0,062
-487,708	235,762	-0,035	-0,042
-486,693	204,606	0,034	0,039
-485,678	800,000	0,045	-0,093
-484,664	-200,000	-0,011	0,073
-483,649	-200,000	-0,019	0,104
-482,635	112,538	0,090	-0,080
-481,620	40,973	0,101	0,067
-480,605	496,633	0,072	0,122
-479,591	-200,000	-0,006	0,086
-478,576	35,952	-0,059	-0,038
-477,562	-101,624	-0,129	-0,023
-476,547	-69,064	-0,197	0,055
-475,532	179,080	0,106	-0,115
-474,518	554,078	-0,061	0,108
-473,503	-50,744	0,076	-0,026
-472,489	-30,018	-0,050	-0,021
-471,474	122,660	-0,046	0,042
-470,459	48,803	-0,064	0,044
-469,445	-49,505	-0,070	0,024
-468,430	-200,000	0,012	0,150
-467,416	149,211	0,051	-0,050
-466,401	10,631	-0,066	-0,037
-465,386	772,188	0,082	-0,166
-464,372	140,075	0,118	0,114
-463,357	-200,000	-0,001	-0,088
-462,343	800,000	0,021	-0,064
-461,328	18,304	-0,056	-0,033
-460,313	-200,000	-0,029	-0,140
-459,299	-200,000	0,005	-0,056
-458,284	-6,454	0,039	0,019
-457,270	-200,000	0,006	-0,065
-456,255	334,329	-0,026	-0,038
-455,241	-200,000	0,006	-0,083
-454,226	36,882	-0,029	0,019
-453,211	-200,000	0,016	0,175
-452,197	-200,000	0,017	0,057
-451,182	-200,000	-0,021	0,092
-450,168	-200,000	0,008	0,053
-449,153	-200,000	0,006	-0,079
-448,138	97,063	0,085	-0,072
-447,124	-200,000	-0,015	-0,131
-446,109	391,298	-0,077	-0,118
-445,095	-200,000	-0,004	0,018
-444,080	13,245	0,156	0,089
-443,065	800,000	-0,058	0,120
-442,051	800,000	0,047	-0,100
-441,036	800,000	-0,031	-0,099
-440,022	269,227	-0,080	-0,104
-439,007	-200,000	-0,004	-0,116
-437,992	-57,194	0,103	-0,033
-436,978	77,625	-0,078	-0,061
-435,963	-83,578	0,062	0,014
-434,949	-25,046	0,084	0,036
-433,934	157,836	-0,115	-0,117
-432,919	-200,000	-0,012	-0,143
-431,905	-182,573	0,073	0,001
-430,890	-80,835	-0,076	-0,018
-429,876	594,488	-0,030	0,055
-428,861	313,632	-0,076	0,105
-427,846	127,901	0,093	0,087
-426,832	751,894	0,024	0,049
-425,817	333,849	-0,007	0,010
-424,803	64,672	0,063	-0,047
-423,788	-200,000	0,028	-0,173
-422,773	800,000	0,047	0,125
-421,759	118,248	-0,050	0,045
-420,744	-161,744	0,149	0,005
-419,730	800,000	-0,040	-0,090
-418,715	-200,000	-0,035	-0,127
-417,701	99,215	-0,104	-0,088
-416,686	215,261	0,032	0,038
-415,671	61,914	0,091	-0,066
-414,657	626,223	0,054	0,100
-413,642	-93,613	-0,051	-0,010
-412,628	8,587	-0,109	-0,060
-411,613	127,929	-0,039	0,037
-410,598	704,593	0,048	0,093
-409,584	164,911	0,037	0,039
-408,569	800,000	0,049	0,154
-407,555	-92,632	0,044	0,009
-406,540	10,559	-0,078	-0,044
-405,525	667,756	0,037	-0,070
-404,511	-119,392	0,112	0,014
-403,496	800,000	0,044	-0,141
-402,482	-200,000	-0,003	-0,045
-401,467	261,463	-0,035	0,045
-400,452	800,000	0,082	0,227
-399,438	-100,622	-0,101	-0,018
-398,423	637,113	-0,047	0,088
-397,409	-200,000	0,022	-0,096
-396,394	-41,708	-0,094	-0,035
-395,379	-168,280	-0,101	0,003
-394,365	-200,000	0,020	0,079
-393,350	800,000	0,049	0,158
-392,336	-200,000	-0,005	0,081
-391,321	1,894	-0,028	-0,015
-390,306	85,617	0,068	-0,055
-389,292	-200,000	-0,014	-0,135
-388,277	274,888	0,082	0,107
-387,263	-200,000	-0,013	0,045
-386,248	87,245	0,122	0,099
-385,233	800,000	-0,053	0,111
-384,219	-33,118	-0,050	-0,020
-383,204	-107,379	0,057	0,009
-382,190	-200,000	-0,014	-0,091
-381,175	152,712	0,062	0,063
-380,160	-60,453	0,038	0,012
-379,146	-200,000	-0,005	0,076
-378,131	-132,921	0,140	0,013
-377,117	800,000	0,063	-0,144
-376,102	673,094	-0,051	-0,097
-375,088	-47,682	-0,160	-0,057
-374,073	-200,000	-0,011	-0,064
-373,058	-64,988	0,097	-0,029
-372,044	-200,000	0,000	0,066
-371,029	271,206	0,108	-0,140
-370,015	-48,812	-0,088	-0,031
-369,000	-103,790	0,036	0,006
-367,985	800,000	-0,044	-0,107
-366,971	-200,000	0,001	-0,033
-365,956	-171,147	0,046	-0,001
-364,942	-125,837	0,142	0,016
-363,927	242,144	-0,090	0,111
-362,912	-80,304	0,012	-0,003
-361,898	639,516	0,024	0,045
-360,883	-200,000	0,005	-0,094
-359,869	-200,000	0,006	-0,064
-358,854	228,677	0,060	-0,072
-357,839	-200,000	0,001	-0,073
-356,825	26,442	-0,134	0,082
-355,810	228,697	0,027	-0,032
-354,796	800,000	-0,044	-0,131
-353,781	800,000	-0,032	-0,087
-352,766	87,305	-0,053	0,043
-351,752	-98,177	-0,098	0,018
-350,737	327,589	-0,106	0,150
-349,723	247,513	0,050	0,062
-348,708	-200,000	-0,001	0,080
-347,693	38,815	0,126	0,082
-346,679	-83,021	-0,161	0,038
-345,664	-52,651	-0,073	0,024
-344,650	-200,000	0,004	-0,015
-343,635	-33,350	-0,019	0,008
-342,620	800,000	0,030	0,085
-341,606	194,870	0,051	0,057
-340,591	-200,000	0,012	0,067
-339,577	411,521	0,124	-0,193
-338,562	612,071	0,049	0,089
-337,548	800,000	0,026	0,074
-336,533	-200,000	-0,008	0,067
-335,518	13,893	0,024	-0,014
-334,504	-133,140	-0,019	0,002
-333,489	-13,052	0,034	0,016
-332,475	56,196	0,015	0,011
-331,460	-99,015	-0,029	0,005
-330,445	306,722	0,078	-0,107
-329,431	1,224	0,093	-0,049
-328,416	285,923	0,100	0,132
-327,402	91,475	0,078	0,065
-326,387	-63,184	-0,078	0,023
-325,372	149,101	-0,085	-0,085
-324,358	-85,205	0,111	-0,025
-323,343	120,309	-0,021	0,020
-322,329	655,349	0,056	0,106
-321,314	537,253	0,048	-0,085
-320,299	155,916	0,037	-0,037
-319,285	-134,839	0,069	0,006
-318,270	-47,807	-0,044	0,016
-317,256	-200,000	0,006	-0,105
-316,241	-200,000	0,025	-0,090
-315,226	71,983	0,083	0,063
-314,212	235,232	0,003	-0,003
-313,197	-200,000	0,022	-0,095
-312,183	191,750	0,061	0,067
-311,168	75,708	0,104	0,080
-310,153	-38,558	-0,255	0,098
-309,139	-77,399	-0,014	0,003
-308,124	74,102	0,115	-0,088
-307,110	-200,000	-0,003	-0,014
-306,095	800,000	-0,075	0,153
-305,080	-200,000	0,007	0,116
-304,066	-200,000	-0,001	-0,056
-303,051	-187,946	-0,085	-0,001
-302,037	-200,000	0,006	-0,067
-301,022	-37,051	-0,114	-0,045
-300,008	-103,168	-0,033	0,006
-298,993	246,609	0,034	-0,042
-297,978	-200,000	-0,020	0,101
-296,964	-23,466	-0,112	-0,049
-295,949	-200,000	0,022	0,206
-294,935	-200,000	-0,006	-0,051
-293,920	188,876	0,063	-0,069
-292,905	32,795	-0,070	0,044
-291,891	-87,738	0,119	-0,026
-290,876	92,689	0,071	-0,059
-289,862	261,146	-0,032	-0,041
-288,847	-74,840	0,029	0,008
-287,832	-200,000	-0,010	0,106
-286,818	26,209	0,062	0,038
-285,803	-143,490	-0,140	-0,010
-284,789	17,873	-0,018	-0,010
-283,774	800,000	-0,050	0,148
-282,759	-200,000	0,011	0,183
-281,745	92,679	-0,174	-0,143
-280,730	-18,629	0,026	-0,012
-279,716	800,000	0,056	-0,142
-278,701	-81,145	-0,071	0,017
-277,686	97,636	-0,015	0,013
-276,672	564,368	0,019	-0,034
-275,657	-200,000	-0,001	-0,073
-274,643	128,315	0,058	-0,054
-273,628	-200,000	0,015	-0,051
-272,613	1,466	-0,075	0,039
-271,599	800,000	-0,029	0,062
-270,584	-45,828	0,082	-0,029
-269,570	-200,000	-0,019	0,071
-268,555	-200,000	0,003	0,087
-267,540	132,559	-0,126	-0,119
-266,526	52,172	0,084	-0,059
-265,511	800,000	0,024	-0,071
-264,497	-104,465	-0,069	0,012
-263,482	386,049	0,101	0,153
-262,467	-200,000	-0,020	-0,082
-261,453	-161,831	0,092	-0,003
-260,438	-5,606	0,074	-0,037
-259,424	-19,983	-0,101	0,045
-258,409	65,090	-0,067	-0,050
-257,395	-123,188	0,057	0,007
-256,380	191,303	0,054	-0,060
-255,365	-200,000	0,015	-0,070
-254,351	4,165	-0,048	0,026
-253,336	-200,000	0,009	-0,041
-252,322	-200,000	-0,027	-0,140
-251,307	800,000	-0,038	0,079
-250,292	-200,000	0,045	0,177
-249,278	-200,000	0,035	0,136
-248,263	800,000	-0,007	0,016
-247,249	-200,000	-0,017	0,127
-246,234	-173,650	-0,087	-0,002
-245,219	546,849	0,047	-0,083
-244,205	-200,000	-0,001	0,053
-243,190	-200,000	-0,012	0,070
-242,176	-87,992	0,068	-0,015
-241,161	-200,000	-0,015	0,053
-240,146	-122,349	-0,091	0,011
-239,132	-200,000	0,010	0,063
-238,117	647,667	-0,060	0,113
-237,103	-1,000	0,121	-0,063
-236,088	135,817	-0,070	-0,066
-235,073	145,630	0,105	0,103
-234,059	143,373	-0,074	0,072
-233,044	-91,955	0,120	-0,025
-232,030	800,000	0,052	0,119
-231,015	-110,397	-0,189	-0,028
-230,000	-200,000	-0,043	-0,139
-228,986	-200,000	0,018	-0,072
-227,971	-200,000	-0,002	0,137
-226,957	800,000	0,070	0,181
-225,942	-200,000	-0,007	-0,049
-224,927	-200,000	0,019	-0,070
-223,913	237,311	0,032	-0,038
-222,898	485,110	0,048	0,080
-221,884	100,369	-0,093	-0,079
-220,869	-9,866	0,143	0,069
-219,855	180,545	0,084	0,090
-218,840	-200,000	0,002	0,084
-217,825	-31,827	0,042	-0,017
-216,811	-115,883	-0,098	0,013
-215,796	800,000	-0,016	0,045
-214,782	-51,122	-0,118	0,040
-213,767	379,679	-0,053	0,080
-212,752	-200,000	0,024	-0,095
-211,738	800,000	-0,026	0,077
-210,723	72,140	-0,028	0,021
-209,709	-93,650	-0,123	-0,025
-208,694	64,129	0,092	0,068
-207,679	-200,000	0,005	0,160
-206,665	-149,113	0,152	-0,009
-205,650	-200,000	0,012	-0,042
-204,636	-200,000	0,011	-0,064
-203,621	159,340	-0,004	-0,004
-202,606	218,708	-0,123	0,144
-201,592	237,151	-0,040	-0,048
-200,577	242,863	0,019	0,024
-199,563	442,911	-0,028	0,045
-198,548	241,654	0,022	0,027
-197,533	531,936	0,015	0,026
-196,519	343,621	0,046	0,067
-195,504	800,000	0,038	0,095
-194,490	-182,621	-0,184	-0,002
-193,475	-162,220	-0,010	-0,000
-192,460	-138,521	0,082	0,006
-191,446	67,840	0,113	0,084
-190,431	800,000	0,086	0,211
-189,417	-200,000	0,020	0,142
-188,402	55,221	-0,037	0,026
-187,387	-200,000	0,033	-0,108
-186,373	31,522	0,049	0,031
-185,358	59,682	0,018	-0,013
-184,344	-100,724	0,126	0,022
-183,329	-200,000	-0,003	0,046
-182,315	24,827	-0,063	-0,038
-181,300	-52,714	-0,135	-0,045
-180,285	800,000	0,026	-0,070
-179,271	540,399	-0,038	0,066
-178,256	-97,500	-0,064	0,012
-177,242	73,128	-0,104	-0,080
-176,227	43,988	0,065	0,043
-175,212	476,255	0,036	0,059
-174,198	184,852	0,065	0,071
-173,183	800,000	0,047	0,103
-172,169	-200,000	-0,010	-0,162
-171,154	-54,336	-0,117	-0,039
-170,139	73,745	0,060	0,046
-169,125	-122,922	0,143	-0,017
-168,110	-121,365	0,031	0,004
-167,096	-159,822	0,068	0,003
-166,081	-173,308	-0,100	-0,002
-165,066	59,370	0,051	-0,037
-164,052	285,337	0,051	-0,067
-163,037	52,930	-0,127	-0,088
-162,023	-65,502	0,110	-0,032
-161,008	515,975	-0,044	0,075
-159,993	405,103	0,109	0,168
-158,979	53,976	-0,017	-0,012
-157,964	-200,000	-0,026	-0,102
-156,950	-116,986	-0,043	-0,006
-155,935	-3,860	0,035	0,018
-154,920	100,910	0,054	0,046
-153,906	661,507	0,011	-0,021
-152,891	-200,000	-0,010	0,034
-151,877	92,135	-0,028	0,023
-150,862	-200,000	-0,001	-0,064
-149,847	69,321	0,028	-0,021
-148,833	-200,000	-0,002	-0,069
-147,818	-200,000	0,018	-0,079
-146,804	800,000	0,044	0,128
-145,789	547,929	-0,028	-0,049
-144,775	110,258	0,038	0,033
-143,760	-118,861	0,044	0,006
-142,745	79,662	-0,072	-0,056
-141,731	800,000	0,010	0,029
-140,716	-200,000	0,012	0,095
-139,702	-200,000	-0,020	0,077
-138,687	-92,471	0,058	0,012
-137,672	298,534	0,021	0,028
-136,658	177,901	-0,050	-0,053
-135,643	136,656	0,055	-0,052
-134,629	-28,355	-0,127	-0,053
-133,614	800,000	0,029	0,084
-132,599	800,000	-0,048	0,115
-131,585	582,797	0,011	-0,019
-130,570	-200,000	0,012	-0,050
-129,556	114,265	-0,053	-0,047
-128,541	-48,677	-0,039	-0,014
-127,526	-200,000	0,010	0,062
-126,512	-200,000	-0,006	0,063
-125,497	800,000	-0,021	-0,056
-124,483	9,918	0,016	-0,009
-123,468	-200,000	-0,027	0,096
-122,453	-200,000	-0,001	-0,008
-121,439	101,342	0,041	0,035
-120,424	-18,898	0,085	-0,038
-119,410	707,946	0,066	0,127
