DTS Sentinel unit serial number:	SN410029Multiplexer serial number:	ORYXHardware model number:	OX2-SRSoftware version number:	ORYX F/W v4,00 Oryx Data Collector v3.7.2.0data status	okinstallation	B4 Nyhavnadifferential loss correction	single-endedforward channel	channel 2reverse channel	N/Adate	2023/12/15time	20:40:13forward acquisition time	300,00reverse acquisition time	0,00gamma	499,1914k internal	0,3134k external	0,3134temperature offset calibration	1,0000default loss term (dB/km)	0,3820temperature slope calibration	1,0000multiplexer offset coefficient	1,0000multiplexer slope coefficient	1,0000fibre end	0,00T internal ref (°C)	20,67T ext. ref 1 (°C)	6,04T ext. ref 2 (°C)	6,17length (m)	temperature (°C)	Stokes	anti-Stokes-744,400	-200,000	0,009	-0,147
-743,385	-40,441	-0,244	0,094
-742,371	-179,587	0,109	-0,002
-741,356	142,392	-0,150	0,148
-740,342	-200,000	-0,007	-0,033
-739,327	-131,932	-0,186	-0,018
-738,312	-200,000	-0,001	0,019
-737,298	-142,245	-0,232	-0,017
-736,283	216,161	0,064	-0,075
-735,269	-70,694	-0,099	-0,027
-734,254	-200,000	0,037	0,130
-733,239	-96,476	-0,413	0,080
-732,225	-200,000	0,013	-0,057
-731,210	800,000	0,025	0,058
-730,196	339,874	-0,108	-0,157
-729,181	41,364	-0,122	-0,082
-728,167	-85,254	0,041	0,010
-727,152	-95,020	-0,084	0,017
-726,137	-200,000	-0,015	-0,053
-725,123	-28,417	-0,116	-0,049
-724,108	-89,962	-0,139	0,030
-723,094	-36,149	-0,138	-0,055
-722,079	-79,646	-0,170	-0,042
-721,064	800,000	-0,019	-0,059
-720,050	-200,000	0,014	0,058
-719,035	800,000	0,040	0,110
-718,021	-31,574	-0,064	0,026
-717,006	-76,155	-0,180	-0,047
-715,991	19,639	-0,100	-0,059
-714,977	168,668	-0,032	0,033
-713,962	-200,000	-0,000	-0,018
-712,948	-200,000	0,009	-0,061
-711,933	-200,000	-0,003	0,046
-710,918	-4,565	-0,037	-0,019
-709,904	91,894	-0,067	-0,056
-708,889	561,573	-0,034	-0,061
-707,875	72,690	0,077	-0,060
-706,860	-82,940	-0,166	-0,039
-705,845	211,846	-0,024	-0,028
-704,831	467,311	-0,095	0,158
-703,816	182,979	-0,021	0,023
-702,802	402,290	-0,063	-0,099
-701,787	-120,256	-0,090	-0,011
-700,772	102,862	-0,129	-0,112
-699,758	800,000	0,025	0,078
-698,743	417,244	0,034	-0,054
-697,729	-200,000	0,015	0,093
-696,714	800,000	-0,005	0,011
-695,699	62,946	-0,049	-0,036
-694,685	558,277	0,071	-0,127
-693,670	431,444	-0,023	0,038
-692,656	800,000	-0,015	0,039
-691,641	-200,000	-0,013	0,118
-690,627	-133,693	-0,056	-0,005
-689,612	-106,749	0,092	-0,015
-688,597	222,770	-0,080	-0,095
-687,583	800,000	0,046	-0,121
-686,568	529,168	0,031	-0,054
-685,554	-200,000	0,005	-0,033
-684,539	-64,517	-0,159	0,048
-683,524	-88,931	-0,120	-0,026
-682,510	226,633	0,017	0,021
-681,495	182,129	-0,066	-0,072
-680,481	-138,273	-0,090	0,007
-679,466	-6,198	-0,125	-0,063
-678,451	-200,000	0,003	-0,057
-677,437	105,771	-0,063	0,055
-676,422	800,000	-0,002	0,008
-675,408	-132,832	-0,174	0,016
-674,393	-80,008	-0,091	0,023
-673,378	521,404	-0,050	-0,087
-672,364	-17,480	-0,027	-0,012
-671,349	273,196	-0,053	-0,069
-670,335	-115,937	0,158	-0,022
-669,320	-0,465	-0,051	-0,027
-668,305	96,721	-0,063	-0,053
-667,291	140,094	0,004	0,003
-666,276	88,863	0,042	-0,034
-665,262	-20,101	-0,090	-0,041
-664,247	15,942	0,026	-0,015
-663,232	683,278	-0,058	-0,113
-662,218	-200,000	-0,027	-0,101
-661,203	800,000	-0,040	-0,085
-660,189	56,291	0,013	-0,010
-659,174	-200,000	0,033	-0,179
-658,159	58,032	-0,128	-0,092
-657,145	-111,067	0,108	-0,016
-656,130	-200,000	0,005	0,035
-655,116	614,135	-0,038	0,070
-654,101	-135,471	0,033	0,003
-653,086	-69,803	-0,040	0,011
-652,072	-62,529	-0,098	-0,030
-651,057	800,000	0,048	-0,112
-650,043	-45,569	-0,056	-0,021
-649,028	-133,266	-0,164	0,015
-648,014	6,574	0,097	0,053
-646,999	135,106	0,025	0,024
-645,984	315,428	0,047	-0,066
-644,970	-57,299	-0,172	-0,055
-643,955	21,059	0,023	-0,014
-642,941	-40,946	0,088	-0,033
-641,926	-104,204	0,057	0,010
-640,911	-37,498	-0,155	0,061
-639,897	-114,709	0,060	-0,008
-638,882	471,036	-0,056	0,094
-637,868	-74,298	0,025	-0,007
-636,853	-200,000	-0,202	-0,000
-635,838	438,844	-0,061	0,098
-634,824	23,678	-0,028	0,017
-633,809	7,148	-0,091	-0,050
-632,795	274,733	0,072	0,095
-631,780	-1,673	0,115	0,059
-630,765	244,927	-0,024	0,030
-629,751	373,568	-0,124	-0,187
-628,736	344,375	-0,017	0,025
-627,722	-200,000	0,042	-0,156
-626,707	800,000	-0,010	-0,030
-625,692	34,470	0,089	0,057
-624,678	800,000	-0,024	0,069
-623,663	338,419	-0,063	0,091
-622,649	800,000	-0,039	0,120
-621,634	80,567	0,010	-0,008
-620,619	-200,000	-0,001	-0,012
-619,605	-200,000	-0,031	-0,172
-618,590	-101,014	0,040	0,007
-617,576	-200,000	-0,014	-0,081
-616,561	800,000	-0,029	0,066
-615,546	507,054	0,038	0,065
-614,532	-76,142	-0,102	-0,026
-613,517	-56,429	-0,137	0,045
-612,503	-200,000	-0,006	-0,061
-611,488	-69,007	-0,075	0,021
-610,474	-118,139	0,121	0,016
-609,459	-200,000	-0,014	-0,053
-608,444	157,948	-0,112	-0,115
-607,430	573,974	-0,019	-0,034
-606,415	294,502	0,047	0,064
-605,401	-200,000	-0,024	0,104
-604,386	10,634	0,111	0,062
-603,371	6,910	-0,038	-0,021
-602,357	-187,066	-0,044	0,000
-601,342	-200,000	-0,007	-0,055
-600,328	-200,000	-0,035	-0,212
-599,313	-61,655	-0,093	-0,029
-598,298	135,197	-0,030	0,029
-597,284	423,526	0,094	0,150
-596,269	-156,543	-0,165	0,007
-595,255	-200,000	-0,026	0,113
-594,240	12,027	-0,067	-0,038
-593,225	-94,787	-0,079	-0,016
-592,211	-138,511	-0,107	0,009
-591,196	51,092	0,046	0,032
-590,182	53,782	0,078	-0,055
-589,167	800,000	0,034	0,102
-588,152	108,585	0,029	-0,026
-587,138	-60,746	0,149	-0,046
-586,123	-200,000	-0,064	-0,265
-585,109	-198,232	-0,145	0,001
-584,094	-200,000	0,002	-0,052
-583,079	800,000	0,035	0,096
-582,065	800,000	-0,022	0,047
-581,050	340,546	-0,025	0,036
-580,036	800,000	-0,042	0,132
-579,021	353,027	0,048	0,070
-578,006	800,000	-0,029	-0,086
-576,992	-49,193	-0,074	-0,026
-575,977	68,130	-0,037	-0,028
-574,963	-200,000	0,005	0,095
-573,948	-33,511	-0,086	0,035
-572,934	-200,000	-0,010	-0,058
-571,919	184,293	0,016	0,018
-570,904	-200,000	0,007	0,025
-569,890	800,000	-0,058	-0,164
-568,875	-152,644	0,072	0,004
-567,861	468,729	0,014	0,023
-566,846	800,000	-0,031	0,089
-565,831	-45,812	-0,088	-0,032
-564,817	74,268	0,045	0,035
-563,802	800,000	-0,084	-0,188
-562,788	32,926	-0,073	0,046
-561,773	-121,834	-0,143	-0,017
-560,758	432,245	0,029	0,046
-559,744	-39,949	-0,012	-0,005
-558,729	57,869	0,018	-0,013
-557,715	114,353	-0,089	-0,080
-556,700	59,012	-0,056	0,041
-555,685	-200,000	0,007	0,052
-554,671	494,753	0,046	-0,078
-553,656	114,871	0,023	0,021
-552,642	346,823	0,015	0,021
-551,627	-200,000	-0,018	-0,079
-550,612	771,629	0,027	0,055
-549,598	-102,568	0,082	0,014
-548,583	-156,436	-0,085	0,004
-547,569	490,921	0,032	-0,055
-546,554	-200,000	-0,001	0,057
-545,539	145,688	0,034	0,034
-544,525	450,980	-0,061	0,100
-543,510	-104,233	-0,033	0,006
-542,496	97,128	0,060	-0,051
-541,481	800,000	-0,025	-0,070
-540,466	38,640	0,085	-0,056
-539,452	-32,241	0,067	-0,028
-538,437	800,000	-0,015	-0,037
-537,423	-200,000	0,005	0,102
-536,408	175,302	0,143	0,153
-535,393	-200,000	-0,026	-0,125
-534,379	797,183	0,012	-0,024
-533,364	-200,000	0,016	0,088
-532,350	104,909	-0,043	0,038
-531,335	800,000	-0,032	0,066
-530,321	800,000	0,029	0,093
-529,306	-31,936	0,052	0,021
-528,291	221,424	-0,037	0,044
-527,277	800,000	0,048	-0,107
-526,262	-200,000	0,027	-0,093
-525,248	443,768	-0,010	0,016
-524,233	-200,000	-0,016	0,151
-523,218	15,211	-0,134	0,077
-522,204	800,000	-0,049	-0,108
-521,189	-200,000	-0,043	-0,208
-520,175	-67,461	0,045	-0,013
-519,160	534,228	0,025	0,043
-518,145	800,000	0,061	-0,141
-517,131	134,310	0,081	-0,077
-516,116	-200,000	0,018	0,060
-515,102	57,855	0,066	-0,047
-514,087	52,959	0,202	0,142
-513,072	-200,000	-0,039	-0,171
-512,058	-200,000	0,009	-0,060
-511,043	51,552	0,066	0,046
-510,029	7,006	-0,098	-0,054
-509,014	-200,000	-0,002	0,131
-507,999	463,657	-0,011	0,018
-506,985	110,767	-0,127	0,113
-505,970	202,251	0,044	-0,050
-504,956	43,431	-0,021	0,014
-503,941	29,132	-0,111	0,069
-502,926	-27,303	0,034	-0,015
-501,912	195,347	-0,073	0,082
-500,897	99,285	-0,085	-0,072
-499,883	75,308	0,095	0,073
-498,868	-105,374	-0,068	-0,011
-497,853	-114,418	-0,075	0,011
-496,839	429,888	0,071	-0,113
-495,824	-200,000	-0,002	-0,138
-494,810	800,000	0,025	0,062
-493,795	-200,000	0,005	0,133
-492,781	-200,000	-0,007	0,055
-491,766	-145,857	-0,110	0,007
-490,751	-200,000	-0,019	-0,079
-489,737	-40,055	0,031	-0,012
-488,722	280,513	-0,018	0,024
-487,708	-200,000	0,027	0,098
-486,693	86,419	-0,046	0,037
-485,678	-181,254	0,119	0,002
-484,664	800,000	0,034	-0,070
-483,649	53,704	-0,057	-0,040
-482,635	130,169	0,079	-0,074
-481,620	-149,360	0,111	-0,006
-480,605	-41,909	-0,133	-0,050
-479,591	182,704	-0,068	-0,074
-478,576	800,000	-0,030	-0,076
-477,562	-104,626	-0,047	-0,008
-476,547	-25,218	0,043	-0,019
-475,532	305,578	0,089	0,122
-474,518	-200,000	0,009	0,034
-473,503	162,670	-0,101	0,104
-472,489	-200,000	0,027	0,207
-471,474	60,977	-0,030	0,022
-470,459	75,402	-0,091	-0,070
-469,445	68,188	-0,217	-0,163
-468,430	-200,000	-0,006	-0,115
-467,416	-144,066	0,044	0,003
-466,401	800,000	0,092	0,187
-465,386	-113,903	-0,105	-0,015
-464,372	800,000	-0,038	0,086
-463,357	-45,261	-0,106	0,039
-462,343	-99,763	0,021	-0,004
-461,328	-200,000	-0,005	0,109
-460,313	-200,000	-0,023	0,087
-459,299	-200,000	-0,009	-0,043
-458,284	-200,000	-0,023	0,082
-457,270	9,930	0,061	-0,034
-456,255	288,308	-0,072	-0,096
-455,241	282,028	0,103	-0,136
-454,226	-73,242	0,030	-0,008
-453,211	27,086	-0,121	0,074
-452,197	-74,018	0,048	0,013
-451,182	-200,000	0,025	0,145
-450,168	-57,898	0,079	0,025
-449,153	-200,000	0,045	-0,185
-448,138	97,819	0,097	-0,082
-447,124	-71,216	-0,107	0,029
-446,109	516,058	0,054	-0,093
-445,095	800,000	-0,021	-0,044
-444,080	432,285	-0,059	0,094
-443,065	114,589	-0,040	-0,036
-442,051	772,759	0,024	0,049
-441,036	-122,499	-0,135	0,016
-440,022	-111,420	-0,044	-0,006
-439,007	463,358	0,005	-0,009
-437,992	600,014	0,058	0,106
-436,978	96,557	0,092	-0,077
-435,963	5,807	-0,116	0,063
-434,949	-200,000	0,037	0,152
-433,934	-101,125	-0,035	0,006
-432,919	-200,000	0,018	-0,143
-431,905	-74,999	-0,092	0,024
-430,890	-86,531	0,150	-0,034
-429,876	-117,144	0,079	0,010
-428,861	-150,136	0,084	-0,005
-427,846	201,972	0,037	0,042
-426,832	800,000	-0,018	0,054
-425,817	-200,000	0,011	0,125
-424,803	-108,660	-0,107	-0,017
-423,788	131,078	0,074	-0,070
-422,773	182,217	-0,055	0,060
-421,759	-200,000	-0,007	0,125
-420,744	-200,000	0,005	-0,028
-419,730	155,394	0,119	0,120
-418,715	800,000	0,023	-0,049
-417,701	27,188	0,073	-0,045
-416,686	800,000	0,021	0,061
-415,671	335,737	-0,041	-0,058
-414,657	67,427	0,023	0,018
-413,642	800,000	0,011	-0,030
-412,628	54,680	0,008	-0,006
-411,613	-46,440	-0,164	-0,059
-410,598	800,000	-0,046	-0,101
-409,584	20,781	0,079	0,047
-408,569	-162,921	0,061	0,002
-407,555	-115,820	0,148	-0,020
-406,540	-58,122	-0,085	-0,027
-405,525	-200,000	-0,006	-0,053
-404,511	800,000	-0,038	-0,085
-403,496	-60,932	-0,093	-0,029
-402,482	492,197	0,049	-0,083
-401,467	-110,972	0,112	0,017
-400,452	-200,000	-0,008	-0,070
-399,438	-136,660	-0,082	0,007
-398,423	-135,096	-0,124	0,011
-397,409	-95,568	-0,133	-0,026
-396,394	-200,000	-0,005	0,076
-395,379	-200,000	-0,015	0,107
-394,365	-62,790	0,075	0,023
-393,350	-7,830	0,022	-0,011
-392,336	-77,876	-0,060	-0,015
-391,321	42,863	-0,047	0,032
-390,306	382,987	0,063	-0,096
-389,292	-200,000	-0,026	0,116
-388,277	-69,983	-0,121	-0,033
-387,263	142,781	-0,071	0,069
-386,248	-158,278	0,132	-0,006
-385,233	-85,727	0,056	0,013
-384,219	-200,000	0,001	0,005
-383,204	-200,000	-0,009	0,051
-382,190	545,118	0,049	-0,086
-381,175	219,465	-0,087	0,102
-380,160	36,440	-0,069	0,045
-379,146	103,675	0,041	0,036
-378,131	-200,000	0,008	0,080
-377,117	-45,546	0,055	0,020
-376,102	-167,460	-0,175	0,005
-375,088	-10,440	-0,040	-0,019
-374,073	59,372	-0,148	-0,107
-373,058	-84,974	0,054	0,012
-372,044	112,873	-0,014	-0,013
-371,029	-85,823	0,073	0,016
-370,015	688,592	-0,025	-0,048
-369,000	-2,497	0,031	0,016
-367,985	800,000	0,035	-0,111
-366,971	-40,584	-0,038	0,014
-365,956	100,418	0,014	-0,012
-364,942	166,244	0,081	-0,084
-363,927	290,764	0,052	0,069
-362,912	463,372	0,062	0,101
-361,898	-112,626	0,042	-0,006
-360,883	800,000	-0,035	-0,101
-359,869	-77,692	-0,133	-0,033
-358,854	-131,064	0,032	-0,003
-357,839	283,312	-0,045	0,060
-356,825	-200,000	-0,016	-0,060
-355,810	198,622	-0,040	-0,045
-354,796	104,121	0,072	-0,062
-353,781	352,694	-0,020	-0,029
-352,766	56,371	-0,083	-0,059
-351,752	-200,000	-0,001	0,033
-350,737	253,808	0,045	-0,056
-349,723	103,802	-0,049	-0,042
-348,708	403,856	0,086	-0,133
-347,693	-22,152	-0,160	0,071
-346,679	350,475	-0,044	-0,064
-345,664	-200,000	-0,026	-0,116
-344,650	-21,467	0,051	0,023
-343,635	-147,474	-0,011	-0,001
-342,620	-8,269	0,083	-0,041
-341,606	775,172	-0,049	-0,098
-340,591	21,478	0,019	0,011
-339,577	83,260	0,048	-0,038
-338,562	292,830	-0,026	-0,035
-337,548	-200,000	-0,002	-0,065
-336,533	108,930	0,091	0,079
-335,518	18,293	0,046	-0,027
-334,504	-200,000	-0,009	-0,032
-333,489	-200,000	0,005	-0,075
-332,475	800,000	-0,048	-0,121
-331,460	-97,224	0,113	-0,021
-330,445	-154,640	-0,081	-0,004
-329,431	222,462	-0,042	0,050
-328,416	800,000	0,019	-0,046
-327,402	602,998	0,065	0,119
-326,387	800,000	-0,008	0,020
-325,372	-89,684	0,029	0,006
-324,358	337,104	-0,085	0,120
-323,343	-44,124	-0,004	-0,002
-322,329	-200,000	0,005	0,059
-321,314	-200,000	0,002	0,033
-320,299	-200,000	0,020	0,117
-319,285	-48,420	0,027	0,009
-318,270	150,396	-0,147	-0,146
-317,256	-200,000	0,023	-0,172
-316,241	-200,000	0,002	0,020
-315,226	-40,927	-0,070	0,026
-314,212	234,929	0,043	0,052
-313,197	-118,861	0,225	0,029
-312,183	733,484	-0,043	-0,085
-311,168	179,569	0,089	0,095
-310,153	-140,262	-0,125	-0,009
-309,139	218,048	-0,054	-0,063
-308,124	-128,568	0,071	0,007
-307,110	-85,508	0,095	0,021
-306,095	3,764	0,064	0,034
-305,080	-42,189	0,144	0,053
-304,066	37,323	0,082	0,053
-303,051	800,000	-0,043	0,116
-302,037	-200,000	-0,023	-0,077
-301,022	800,000	-0,065	-0,140
-300,008	-113,427	0,108	-0,015
-298,993	-40,770	0,145	-0,055
-297,978	31,205	0,098	0,061
-296,964	589,853	0,014	-0,026
-295,949	-200,000	0,003	-0,023
-294,935	96,197	-0,095	-0,079
-293,920	800,000	0,044	0,100
-292,905	-113,455	0,137	-0,019
-291,891	-200,000	0,030	0,126
-290,876	800,000	0,033	0,088
-289,862	-200,000	0,016	-0,060
-288,847	14,485	-0,064	-0,036
-287,832	767,204	-0,042	-0,084
-286,818	52,567	0,112	-0,078
-285,803	-54,563	0,106	-0,035
-284,789	9,500	0,159	0,088
-283,774	66,211	0,028	-0,021
-282,759	-60,545	-0,115	-0,035
-281,745	-43,747	-0,040	0,015
-280,730	122,855	0,077	-0,070
-279,716	800,000	0,045	-0,092
-278,701	-94,463	0,181	0,036
-277,686	30,719	0,112	-0,070
-276,672	-200,000	-0,002	-0,045
-275,657	-170,610	-0,022	-0,001
-274,643	91,088	-0,052	0,043
-273,628	276,653	-0,017	-0,021
-272,613	13,941	0,011	-0,006
-271,599	27,539	0,052	0,032
-270,584	800,000	-0,031	-0,074
-269,570	-117,174	-0,073	-0,010
-268,555	76,144	-0,077	0,059
-267,540	-123,460	-0,106	0,012
-266,526	-200,000	0,003	-0,024
-265,511	11,291	0,140	0,078
-264,497	394,410	-0,015	0,023
-263,482	36,692	0,175	-0,112
-262,467	800,000	0,012	-0,034
-261,453	-200,000	-0,022	0,152
-260,438	244,909	0,009	0,011
-259,424	166,523	0,048	-0,050
-258,409	800,000	0,041	-0,099
-257,395	-137,203	0,049	0,004
-256,380	89,784	-0,108	0,088
-255,365	689,820	0,067	0,129
-254,351	-200,000	-0,001	0,033
-253,336	39,713	0,039	0,025
-252,322	800,000	-0,020	-0,060
-251,307	590,111	-0,041	-0,073
-250,292	9,656	0,114	0,063
-249,278	800,000	0,014	0,043
-248,263	-200,000	-0,012	0,062
-247,249	800,000	-0,013	0,026
-246,234	221,035	0,024	0,028
-245,219	-48,513	-0,056	-0,020
-244,205	-200,000	0,009	0,157
-243,190	-200,000	-0,024	0,222
-242,176	-200,000	0,002	-0,009
-241,161	-86,834	-0,038	0,008
-240,146	800,000	0,041	0,122
-239,132	800,000	0,044	0,110
-238,117	-43,701	-0,009	0,003
-237,103	24,870	0,053	-0,032
-236,088	-200,000	0,001	-0,039
-235,073	-63,461	-0,065	-0,019
-234,059	-47,756	0,084	0,030
-233,044	-200,000	0,004	-0,022
-232,030	-2,528	-0,035	-0,018
-231,015	800,000	-0,072	-0,169
-230,000	6,018	0,058	0,031
-228,986	432,273	-0,123	-0,195
-227,971	157,805	0,058	-0,058
-226,957	436,456	0,057	0,090
-225,942	-200,000	0,010	0,047
-224,927	-82,083	0,075	0,018
-223,913	153,508	-0,045	-0,045
-222,898	248,094	0,082	0,101
-221,884	-144,610	-0,069	-0,005
-220,869	-54,915	-0,107	0,035
-219,855	-200,000	-0,005	0,130
-218,840	392,045	0,072	0,110
-217,825	259,382	0,049	0,062
-216,811	509,268	0,093	-0,157
-215,796	393,545	-0,032	0,049
-214,782	508,920	0,039	-0,067
-213,767	-154,493	0,092	0,004
-212,752	532,234	-0,018	-0,031
-211,738	-114,689	-0,102	-0,014
-210,723	324,150	0,038	0,053
-209,709	-91,762	-0,069	-0,014
-208,694	-200,000	0,018	0,066
-207,679	149,821	-0,048	0,047
-206,665	221,730	0,090	-0,105
-205,650	180,283	-0,061	0,065
-204,636	260,363	0,139	0,175
-203,621	800,000	-0,054	-0,137
-202,606	-143,979	-0,124	0,008
-201,592	106,250	-0,040	-0,034
-200,577	224,963	0,080	0,094
-199,563	-176,993	0,070	0,001
-198,548	47,474	0,106	0,072
-197,533	800,000	0,043	0,111
-196,519	-195,215	0,143	0,001
-195,504	-2,954	-0,069	0,035
-194,490	-200,000	-0,004	0,014
-193,475	-76,112	-0,046	-0,012
-192,460	-43,086	0,106	-0,039
-191,446	800,000	0,028	-0,058
-190,431	285,446	0,105	0,138
-189,417	29,461	0,099	0,061
-188,402	146,489	-0,061	-0,060
-187,387	-13,713	0,078	-0,037
-186,373	142,408	0,027	0,026
-185,358	47,553	-0,110	-0,074
-184,344	800,000	0,027	0,072
-183,329	126,936	0,100	-0,092
-182,315	-75,013	-0,078	0,020
-181,300	-200,000	-0,002	-0,035
-180,285	390,550	-0,109	-0,164
-179,271	10,860	-0,012	0,007
-178,256	800,000	0,071	-0,193
-177,242	641,837	0,045	0,083
-176,227	73,928	0,038	0,029
-175,212	115,501	-0,049	-0,044
-174,198	76,919	0,070	0,054
-173,183	40,784	-0,056	-0,037
-172,169	-200,000	-0,012	-0,065
-171,154	-4,426	-0,090	0,045
-170,139	46,416	0,060	0,040
-169,125	88,830	0,156	0,126
-168,110	789,121	-0,017	0,034
-167,096	800,000	0,011	0,032
-166,081	800,000	-0,071	-0,182
-165,066	800,000	0,073	-0,149
-164,052	182,172	0,034	-0,036
-163,037	388,508	-0,012	0,017
-162,023	35,812	-0,053	-0,034
-161,008	-200,000	-0,001	0,011
-159,993	160,914	-0,108	0,109
-158,979	-130,553	-0,098	0,009
-157,964	148,651	0,057	-0,056
-156,950	395,537	-0,029	-0,044
-155,935	98,923	-0,071	-0,060
-154,920	-200,000	-0,004	-0,113
-153,906	501,833	0,096	0,162
-152,891	-200,000	0,018	-0,107
-151,877	661,882	-0,016	-0,031
-150,862	59,881	-0,100	-0,072
-149,847	-4,733	-0,064	-0,032
-148,833	-67,975	-0,045	-0,013
-147,818	-26,898	-0,057	0,024
-146,804	407,843	0,062	-0,096
-145,789	-17,223	-0,044	0,020
-144,775	76,562	0,029	0,022
-143,760	24,610	-0,094	-0,056
-142,745	-130,063	0,101	-0,010
-141,731	-90,703	-0,033	-0,007
-140,716	-200,000	-0,014	-0,125
-139,702	-200,000	0,009	0,062
-138,687	-200,000	0,003	0,060
-137,672	612,976	0,013	-0,023
-136,658	636,730	0,025	0,046
-135,643	4,500	-0,058	-0,031
-134,629	-182,968	-0,073	0,001
-133,614	-63,118	0,064	-0,019
-132,599	-200,000	-0,001	-0,027
-131,585	238,072	0,045	0,055
-130,570	402,441	-0,060	-0,091
-129,556	471,899	-0,015	0,025
-128,541	-200,000	-0,019	-0,103
-127,526	-200,000	-0,018	-0,070
-126,512	551,133	-0,045	-0,079
-125,497	48,046	0,102	-0,069
-124,483	119,363	-0,046	-0,042
-123,468	-42,515	0,034	-0,012
-122,453	679,462	-0,060	-0,114
-121,439	-200,000	-0,013	-0,117
-120,424	131,128	-0,147	0,137
-119,410	-144,817	-0,035	-0,002
