DTS Sentinel unit serial number:	SN410029Multiplexer serial number:	ORYXHardware model number:	OX2-SRSoftware version number:	ORYX F/W v4,00 Oryx Data Collector v3.7.2.0data status	okinstallation	B4 Nyhavnadifferential loss correction	single-endedforward channel	channel 2reverse channel	N/Adate	2023/12/15time	20:35:13forward acquisition time	300,00reverse acquisition time	0,00gamma	499,1914k internal	0,3135k external	0,3135temperature offset calibration	1,0000default loss term (dB/km)	0,3820temperature slope calibration	1,0000multiplexer offset coefficient	1,0000multiplexer slope coefficient	1,0000fibre end	0,00T internal ref (°C)	20,62T ext. ref 1 (°C)	5,95T ext. ref 2 (°C)	6,08length (m)	temperature (°C)	Stokes	anti-Stokes-744,400	282,260	-0,031	-0,041
-743,385	-64,013	-0,206	0,062
-742,371	161,110	0,146	0,151
-741,356	33,336	-0,159	0,103
-740,342	-200,000	0,007	-0,120
-739,327	-66,920	-0,206	0,060
-738,312	104,544	0,065	-0,057
-737,298	-104,317	-0,244	-0,042
-736,283	-54,698	0,046	0,015
-735,269	68,984	-0,260	0,198
-734,254	111,519	0,161	-0,144
-733,239	-93,992	-0,497	-0,100
-732,225	-200,000	-0,001	-0,027
-731,210	442,270	0,090	0,146
-730,196	77,790	-0,127	0,100
-729,181	-200,000	0,025	-0,088
-728,167	213,685	0,040	0,047
-727,152	-200,000	-0,006	-0,031
-726,137	400,612	-0,022	0,034
-725,123	81,583	0,021	-0,017
-724,108	386,146	0,051	-0,078
-723,094	-119,946	-0,116	-0,015
-722,079	-113,515	-0,102	0,015
-721,064	800,000	0,036	-0,104
-720,050	-42,729	-0,072	0,027
-719,035	-200,000	0,021	-0,153
-718,021	800,000	-0,023	0,057
-717,006	-162,676	-0,143	0,005
-715,991	41,005	-0,053	0,036
-714,977	47,503	0,125	-0,087
-713,962	52,277	-0,102	0,072
-712,948	-122,437	-0,070	-0,008
-711,933	15,430	0,022	0,013
-710,918	47,827	0,061	0,042
-709,904	78,486	-0,181	0,143
-708,889	427,623	-0,045	-0,072
-707,875	-138,097	-0,073	-0,006
-706,860	91,378	-0,039	0,033
-705,845	322,934	-0,047	0,067
-704,831	-3,799	-0,035	-0,018
-703,816	-200,000	0,012	-0,078
-702,802	-200,000	-0,016	-0,054
-701,787	138,575	0,024	-0,024
-700,772	-200,000	-0,028	-0,104
-699,758	-200,000	-0,006	0,070
-698,743	-200,000	0,053	0,191
-697,729	141,370	0,076	-0,075
-696,714	-129,757	-0,105	-0,011
-695,699	-18,653	-0,069	0,032
-694,685	398,127	-0,034	0,052
-693,670	-138,627	0,077	0,006
-692,656	277,059	0,079	0,104
-691,641	-200,000	-0,011	0,128
-690,627	800,000	-0,063	0,156
-689,612	-72,832	-0,029	0,008
-688,597	502,864	-0,043	0,074
-687,583	-39,313	-0,075	0,029
-686,568	-200,000	0,007	0,034
-685,554	800,000	-0,077	-0,168
-684,539	337,192	0,060	0,087
-683,524	-200,000	-0,001	0,041
-682,510	-50,585	0,096	0,033
-681,495	65,515	-0,036	0,027
-680,481	-97,008	-0,149	-0,029
-679,466	-200,000	0,009	-0,055
-678,451	162,969	0,067	-0,070
-677,437	-200,000	0,004	-0,129
-676,422	14,028	0,095	0,054
-675,408	-184,406	-0,120	0,001
-674,393	-200,000	0,001	-0,104
-673,378	-200,000	0,007	-0,066
-672,364	319,786	-0,087	0,122
-671,349	-200,000	0,017	-0,061
-670,335	-109,488	-0,079	0,012
-669,320	-200,000	-0,001	0,030
-668,305	-200,000	0,014	-0,071
-667,291	-64,463	-0,071	-0,021
-666,276	38,948	-0,051	-0,033
-665,262	156,434	-0,066	-0,067
-664,247	164,225	-0,107	-0,112
-663,232	34,659	-0,051	-0,033
-662,218	377,514	0,124	0,188
-661,203	800,000	-0,034	0,080
-660,189	142,911	-0,109	0,108
-659,174	152,934	0,069	-0,069
-658,159	2,745	0,085	-0,045
-657,145	-126,775	-0,029	-0,003
-656,130	-200,000	-0,006	0,039
-655,116	-126,470	0,091	-0,010
-654,101	800,000	0,049	0,109
-653,086	-59,001	-0,195	-0,062
-652,072	3,694	-0,082	-0,044
-651,057	800,000	-0,030	-0,096
-650,043	121,490	-0,059	-0,054
-649,028	101,659	-0,137	-0,118
-648,014	361,915	0,012	0,018
-646,999	-159,523	0,110	0,004
-645,984	-200,000	-0,019	-0,083
-644,970	800,000	-0,026	0,055
-643,955	-110,572	0,099	-0,015
-642,941	98,208	0,085	-0,072
-641,926	-136,820	-0,078	0,007
-640,911	224,404	-0,122	-0,146
-639,897	-200,000	-0,006	0,040
-638,882	99,289	0,038	0,032
-637,868	225,407	0,066	0,079
-636,853	68,967	0,038	0,029
-635,838	-200,000	0,003	-0,088
-634,824	-72,872	0,132	-0,036
-633,809	37,138	-0,157	0,103
-632,795	165,475	-0,077	0,081
-631,780	-82,799	0,089	0,021
-630,765	-200,000	-0,009	-0,030
-629,751	56,929	-0,136	0,098
-628,736	-200,000	-0,015	-0,146
-627,722	27,286	-0,097	-0,060
-626,707	-200,000	-0,036	-0,131
-625,692	800,000	0,054	0,125
-624,678	281,805	0,077	0,102
-623,663	120,823	-0,093	0,086
-622,649	-117,476	-0,056	-0,007
-621,634	-200,000	0,017	-0,058
-620,619	-147,890	-0,117	-0,007
-619,605	149,073	0,074	0,074
-618,590	-144,889	0,083	0,006
-617,576	-27,071	0,084	0,036
-616,561	249,561	0,061	-0,076
-615,546	7,886	0,038	0,021
-614,532	753,619	0,021	-0,042
-613,517	-93,336	-0,153	-0,031
-612,503	2,439	0,067	-0,036
-611,488	-158,219	-0,121	-0,005
-610,474	-110,624	-0,093	0,014
-609,459	800,000	0,028	-0,079
-608,444	-200,000	-0,004	-0,243
-607,430	-200,000	-0,025	-0,105
-606,415	-200,000	-0,009	-0,106
-605,401	-70,088	0,131	-0,037
-604,386	258,166	-0,035	-0,045
-603,371	24,628	-0,067	0,041
-602,357	515,405	0,005	0,010
-601,342	-49,069	-0,030	-0,011
-600,328	-200,000	-0,015	0,181
-599,313	-74,543	-0,097	0,026
-598,298	-200,000	0,005	-0,044
-597,284	210,466	-0,118	0,137
-596,269	253,909	0,102	-0,129
-595,255	800,000	-0,018	0,043
-594,240	-10,173	0,093	-0,046
-593,225	800,000	-0,038	-0,086
-592,211	800,000	0,028	-0,086
-591,196	-200,000	-0,019	-0,091
-590,182	-200,000	0,009	0,120
-589,167	-31,527	0,023	0,009
-588,152	14,676	0,249	-0,143
-587,138	302,254	-0,045	-0,062
-586,123	-138,093	-0,139	-0,011
-585,109	70,874	0,036	0,027
-584,094	-28,916	-0,090	0,038
-583,079	-9,749	0,145	-0,071
-582,065	151,418	-0,038	0,038
-581,050	283,490	-0,039	-0,052
-580,036	-122,594	-0,104	-0,012
-579,021	224,752	0,022	0,027
-578,006	34,790	-0,039	-0,025
-576,992	-200,000	-0,004	0,065
-575,977	337,287	0,003	0,004
-574,963	800,000	-0,043	0,114
-573,948	800,000	-0,003	-0,008
-572,934	82,661	-0,100	0,080
-571,919	-18,361	-0,128	0,059
-570,904	487,600	0,023	0,039
-569,890	-200,000	0,007	-0,073
-568,875	95,315	0,054	-0,046
-567,861	131,668	-0,032	0,030
-566,846	184,960	0,082	0,090
-565,831	-200,000	0,002	0,014
-564,817	129,464	-0,070	-0,066
-563,802	-46,656	-0,128	-0,046
-562,788	95,630	0,051	-0,043
-561,773	125,940	-0,045	0,042
-560,758	-141,955	-0,138	0,010
-559,744	-96,859	0,129	-0,025
-558,729	-200,000	0,002	-0,042
-557,715	800,000	-0,026	0,080
-556,700	-12,732	-0,085	-0,041
-555,685	800,000	-0,022	0,051
-554,671	-78,338	0,286	-0,072
-553,656	757,867	0,026	0,052
-552,642	-200,000	-0,003	0,089
-551,627	191,184	-0,104	0,116
-550,612	144,332	0,033	0,032
-549,598	-200,000	0,001	0,055
-548,583	104,012	0,106	0,091
-547,569	-200,000	-0,014	-0,077
-546,554	-135,256	0,139	0,012
-545,539	-200,000	0,005	0,126
-544,525	-62,739	-0,124	-0,038
-543,510	3,784	-0,068	-0,036
-542,496	800,000	0,014	0,038
-541,481	-28,371	-0,061	-0,026
-540,466	-200,000	-0,021	-0,096
-539,452	-200,000	-0,029	-0,096
-538,437	-153,434	0,128	-0,006
-537,423	297,280	-0,011	0,014
-536,408	-200,000	0,024	0,156
-535,393	618,408	0,046	-0,086
-534,379	79,774	-0,076	-0,060
-533,364	-2,972	-0,012	-0,006
-532,350	-97,306	0,069	0,013
-531,335	-200,000	-0,030	-0,098
-530,321	771,146	-0,059	-0,119
-529,306	800,000	0,034	-0,094
-528,291	184,774	-0,082	-0,090
-527,277	-50,564	-0,108	-0,037
-526,262	378,331	-0,086	-0,130
-525,248	112,830	0,100	0,089
-524,233	-200,000	0,000	0,047
-523,218	64,934	-0,099	0,074
-522,204	-200,000	0,005	0,113
-521,189	-18,513	-0,055	-0,025
-520,175	-71,428	0,108	-0,030
-519,160	78,530	0,050	0,039
-518,145	125,499	0,078	-0,073
-517,131	-18,561	0,105	-0,048
-516,116	10,772	0,070	0,039
-515,102	271,071	-0,035	0,045
-514,087	722,251	0,101	0,198
-513,072	-32,170	-0,101	0,041
-512,058	396,451	-0,088	-0,136
-511,043	-66,794	0,150	-0,043
-510,029	6,867	0,061	-0,033
-509,014	109,439	-0,018	0,016
-507,999	-200,000	-0,002	-0,063
-506,985	289,467	-0,132	-0,176
-505,970	800,000	-0,088	-0,188
-504,956	-200,000	-0,101	0,000
-503,941	144,709	0,082	-0,080
-502,926	-122,221	0,056	0,007
-501,912	800,000	0,024	-0,062
-500,897	800,000	0,043	-0,089
-499,883	108,249	-0,073	-0,064
-498,868	800,000	-0,081	-0,243
-497,853	627,857	-0,024	0,045
-496,839	306,268	-0,051	-0,070
-495,824	-200,000	-0,006	-0,019
-494,810	800,000	0,032	-0,077
-493,795	277,512	-0,049	0,065
-492,781	-200,000	-0,004	0,030
-491,766	-200,000	-0,003	-0,075
-490,751	-105,065	-0,110	-0,018
-489,737	456,864	0,071	-0,116
-488,722	779,481	-0,072	-0,146
-487,708	-53,642	0,104	0,035
-486,693	-200,000	-0,017	0,096
-485,678	-109,279	-0,052	-0,008
-484,664	630,512	0,047	-0,087
-483,649	288,012	-0,058	-0,077
-482,635	210,046	0,041	-0,048
-481,620	652,619	-0,021	-0,040
-480,605	-30,708	0,078	0,032
-479,591	-14,182	-0,088	0,041
-478,576	118,626	-0,013	-0,012
-477,562	-179,869	-0,079	0,001
-476,547	218,332	0,035	0,041
-475,532	613,966	-0,022	-0,041
-474,518	-200,000	-0,039	-0,189
-473,503	16,767	0,086	0,050
-472,489	-1,086	-0,099	0,051
-471,474	-65,844	-0,024	-0,007
-470,459	-123,341	-0,044	0,005
-469,445	531,339	0,017	-0,030
-468,430	800,000	-0,048	0,146
-467,416	295,610	-0,019	0,026
-466,401	-95,383	0,092	0,018
-465,386	341,852	0,020	0,029
-464,372	313,014	-0,108	0,149
-463,357	800,000	0,049	-0,102
-462,343	-79,763	0,101	-0,025
-461,328	-94,143	-0,101	-0,020
-460,313	-163,067	0,009	0,000
-459,299	-119,865	0,088	-0,011
-458,284	-200,000	0,015	0,154
-457,270	188,747	-0,013	-0,014
-456,255	-200,000	-0,003	0,021
-455,241	250,386	0,109	0,136
-454,226	-200,000	-0,010	0,156
-453,211	-200,000	-0,006	-0,050
-452,197	735,711	0,054	-0,107
-451,182	-137,192	-0,039	-0,003
-450,168	258,718	-0,043	-0,055
-449,153	163,271	-0,052	-0,054
-448,138	-24,952	-0,090	-0,039
-447,124	491,295	0,069	-0,116
-446,109	112,927	0,110	0,098
-445,095	1,425	0,045	0,023
-444,080	35,542	-0,157	-0,101
-443,065	81,155	-0,047	0,037
-442,051	403,003	-0,050	-0,078
-441,036	-7,051	-0,142	0,070
-440,022	-117,065	-0,008	-0,001
-439,007	800,000	0,033	0,081
-437,992	-200,000	0,011	0,115
-436,978	705,311	0,072	0,141
-435,963	14,233	0,057	0,033
-434,949	-200,000	-0,004	0,055
-433,934	-49,474	-0,085	0,030
-432,919	-16,051	0,027	-0,013
-431,905	156,628	0,055	-0,056
-430,890	75,442	0,081	0,063
-429,876	642,277	0,041	-0,077
-428,861	-200,000	-0,022	0,092
-427,846	-200,000	-0,002	-0,104
-426,832	61,413	-0,114	-0,083
-425,817	332,152	-0,024	-0,034
-424,803	76,532	-0,046	-0,036
-423,788	-35,046	0,139	0,056
-422,773	800,000	-0,108	0,235
-421,759	220,430	-0,036	0,043
-420,744	800,000	0,064	-0,160
-419,730	654,537	-0,042	-0,079
-418,715	-200,000	-0,009	-0,079
-417,701	-122,148	0,121	0,014
-416,686	68,717	-0,039	0,030
-415,671	229,622	0,067	0,081
-414,657	-118,463	0,030	0,004
-413,642	800,000	0,039	0,103
-412,628	-200,000	0,016	-0,136
-411,613	228,505	-0,102	-0,121
-410,598	-200,000	-0,014	-0,064
-409,584	301,874	0,035	-0,048
-408,569	651,156	0,027	0,051
-407,555	-87,612	0,051	-0,011
-406,540	87,726	0,138	0,112
-405,525	-24,151	0,170	-0,074
-404,511	103,124	-0,088	0,076
-403,496	-200,000	0,013	-0,103
-402,482	-102,798	0,069	-0,012
-401,467	-37,420	-0,064	-0,025
-400,452	-41,407	-0,024	-0,009
-399,438	-200,000	-0,003	0,035
-398,423	-200,000	0,012	0,144
-397,409	-200,000	0,007	0,055
-396,394	-78,808	-0,107	-0,026
-395,379	-131,092	0,110	-0,011
-394,365	800,000	0,004	0,010
-393,350	-45,984	0,025	-0,009
-392,336	800,000	0,031	0,091
-391,321	-200,000	0,023	0,147
-390,306	29,000	0,098	-0,060
-389,292	-200,000	0,030	-0,180
-388,277	-200,000	-0,015	-0,057
-387,263	31,038	0,045	-0,028
-386,248	-18,427	-0,064	-0,029
-385,233	171,437	-0,079	0,083
-384,219	-127,287	0,084	-0,009
-383,204	-200,000	0,005	0,089
-382,190	98,465	0,046	0,039
-381,175	225,078	0,045	0,053
-380,160	33,652	0,129	-0,082
-379,146	800,000	-0,029	-0,074
-378,131	40,573	0,114	0,075
-377,117	260,913	0,050	0,064
-376,102	16,006	-0,151	-0,087
-375,088	111,150	-0,149	0,131
-374,073	-134,911	-0,155	0,014
-373,058	249,239	0,061	0,076
-372,044	133,672	0,092	0,087
-371,029	96,018	-0,040	0,033
-370,015	255,891	-0,023	0,029
-369,000	372,774	0,031	-0,047
-367,985	106,325	0,063	-0,054
-366,971	-200,000	0,021	0,114
-365,956	-127,222	-0,082	-0,009
-364,942	-63,114	0,058	0,017
-363,927	-200,000	-0,002	0,062
-362,912	525,299	-0,042	-0,073
-361,898	783,562	-0,011	0,022
-360,883	-200,000	0,006	-0,132
-359,869	-95,757	0,043	-0,008
-358,854	-200,000	-0,004	-0,027
-357,839	110,657	-0,052	0,045
-356,825	-200,000	-0,004	-0,043
-355,810	-8,710	-0,091	-0,045
-354,796	-200,000	0,003	0,065
-353,781	-111,904	-0,025	0,004
-352,766	-86,698	-0,097	-0,021
-351,752	253,137	0,058	-0,072
-350,737	-114,192	-0,100	-0,014
-349,723	-200,000	0,009	-0,096
-348,708	-31,898	-0,011	0,005
-347,693	-200,000	-0,001	0,180
-346,679	-200,000	0,016	0,065
-345,664	394,610	-0,018	0,028
-344,650	-200,000	0,005	-0,073
-343,635	-24,054	0,098	-0,043
-342,620	28,101	0,088	0,054
-341,606	111,274	-0,099	-0,087
-340,591	-58,364	0,159	-0,050
-339,577	-137,180	0,036	-0,003
-338,562	-33,672	-0,093	0,037
-337,548	261,054	-0,144	-0,182
-336,533	538,267	0,042	0,073
-335,518	-110,945	0,154	0,023
-334,504	12,478	0,069	-0,039
-333,489	363,022	0,035	-0,051
-332,475	82,078	0,073	-0,058
-331,460	-129,395	0,052	-0,005
-330,445	-200,000	0,024	0,127
-329,431	800,000	-0,026	0,060
-328,416	285,594	0,097	0,129
-327,402	37,183	-0,064	0,041
-326,387	-200,000	0,015	0,130
-325,372	-85,468	-0,167	-0,038
-324,358	78,770	0,111	0,086
-323,343	455,643	-0,081	-0,132
-322,329	-12,080	0,039	-0,019
-321,314	25,727	0,084	-0,051
-320,299	-200,000	0,000	0,087
-319,285	102,933	0,072	0,062
-318,270	-84,549	-0,144	-0,033
-317,256	800,000	-0,043	-0,122
-316,241	-163,451	-0,085	-0,003
-315,226	-200,000	-0,030	0,108
-314,212	-173,466	0,211	0,005
-313,197	-200,000	0,017	0,057
-312,183	-113,042	-0,063	0,009
-311,168	514,187	-0,049	0,084
-310,153	800,000	0,035	-0,081
-309,139	-98,856	0,121	-0,022
-308,124	110,082	0,017	-0,014
-307,110	-31,224	-0,118	0,048
-306,095	181,184	-0,090	0,097
-305,080	-93,786	0,087	-0,017
-304,066	-200,000	-0,000	0,087
-303,051	-115,605	0,113	-0,015
-302,037	144,369	-0,087	0,084
-301,022	246,328	0,047	0,058
-300,008	-20,604	0,193	0,086
-298,993	-200,000	-0,006	0,032
-297,978	-32,899	-0,069	0,028
-296,964	-200,000	-0,007	0,125
-295,949	800,000	0,011	0,029
-294,935	347,975	-0,007	-0,010
-293,920	-56,304	-0,139	-0,045
-292,905	34,821	0,081	0,052
-291,891	172,571	0,066	0,069
-290,876	96,184	-0,048	0,040
-289,862	800,000	-0,040	-0,108
-288,847	800,000	-0,046	-0,098
-287,832	446,028	0,047	0,075
-286,818	-200,000	0,008	0,167
-285,803	-200,000	0,049	-0,205
-284,789	496,322	-0,091	-0,153
-283,774	252,593	0,011	-0,013
-282,759	800,000	0,030	-0,094
-281,745	-155,650	-0,103	-0,005
-280,730	-200,000	-0,023	0,132
-279,716	-112,124	-0,136	0,020
-278,701	-13,816	-0,106	-0,050
-277,686	265,310	0,149	0,190
-276,672	662,109	0,040	0,076
-275,657	-31,286	-0,088	-0,036
-274,643	-35,266	-0,073	-0,029
-273,628	12,062	-0,106	0,059
-272,613	-112,042	-0,102	-0,015
-271,599	800,000	0,028	-0,082
-270,584	194,281	0,107	-0,119
-269,570	-66,608	-0,057	0,016
-268,555	800,000	-0,001	0,003
-267,540	800,000	0,023	0,061
-266,526	-30,715	-0,171	-0,070
-265,511	140,324	-0,135	0,130
-264,497	31,040	-0,049	0,031
-263,482	101,644	0,162	0,138
-262,467	123,071	-0,063	0,057
-261,453	-200,000	-0,001	-0,020
-260,438	65,376	-0,092	0,068
-259,424	-200,000	-0,003	-0,059
-258,409	-200,000	-0,030	-0,167
-257,395	71,917	0,020	-0,015
-256,380	-200,000	0,047	0,196
-255,365	157,119	0,159	0,160
-254,351	-43,001	0,084	0,031
-253,336	800,000	0,052	-0,117
-252,322	538,749	-0,058	-0,100
-251,307	-200,000	-0,004	-0,092
-250,292	-3,537	0,159	0,080
-249,278	36,996	0,037	-0,024
-248,263	91,737	-0,096	0,079
-247,249	-139,320	0,067	0,005
-246,234	-69,868	-0,054	-0,015
-245,219	132,052	0,120	-0,113
-244,205	-200,000	-0,030	-0,178
-243,190	-61,553	-0,050	-0,015
-242,176	-200,000	0,021	0,083
-241,161	-200,000	-0,017	-0,099
-240,146	-60,745	0,083	-0,026
-239,132	70,764	-0,107	0,080
-238,117	-37,052	0,084	0,033
-237,103	521,473	-0,069	-0,119
-236,088	4,568	0,188	0,100
-235,073	-109,824	0,144	0,022
-234,059	-200,000	0,010	-0,065
-233,044	103,909	0,113	0,096
-232,030	-49,315	-0,115	0,040
-231,015	-200,000	0,021	-0,100
-230,000	21,385	0,030	-0,018
-228,986	-200,000	0,009	0,072
-227,971	-63,220	-0,050	-0,015
-226,957	-25,370	0,140	0,060
-225,942	-39,708	0,064	0,024
-224,927	800,000	-0,038	-0,082
-223,913	800,000	0,037	-0,105
-222,898	419,884	-0,117	-0,183
-221,884	-200,000	-0,017	0,064
-220,869	-92,917	-0,065	0,013
-219,855	-200,000	0,022	-0,101
-218,840	-61,640	0,062	-0,019
-217,825	-92,708	-0,102	-0,021
-216,811	-30,128	0,004	-0,002
-215,796	-126,039	-0,086	-0,009
-214,782	259,386	-0,031	-0,039
-213,767	-94,066	-0,023	0,004
-212,752	270,910	0,082	0,106
-211,738	-200,000	0,016	0,079
-210,723	2,011	-0,099	-0,052
-209,709	219,842	0,056	-0,065
-208,694	246,418	-0,091	0,112
-207,679	-200,000	-0,052	-0,204
-206,665	712,943	0,086	-0,167
-205,650	-34,611	0,037	-0,015
-204,636	-53,864	0,169	0,056
-203,621	-65,287	0,070	0,020
-202,606	-32,635	-0,098	0,039
-201,592	62,363	0,021	0,016
-200,577	193,404	-0,047	-0,052
-199,563	0,282	-0,071	-0,036
-198,548	-105,245	0,052	-0,009
-197,533	-169,363	0,168	-0,004
-196,519	28,495	-0,147	0,090
-195,504	69,924	-0,115	-0,086
-194,490	460,757	-0,063	-0,102
-193,475	-200,000	0,010	0,089
-192,460	88,005	-0,018	0,015
-191,446	58,296	0,111	0,079
-190,431	-200,000	0,015	0,070
-189,417	-39,177	-0,059	-0,022
-188,402	122,453	0,236	0,214
-187,387	-200,000	0,009	0,031
-186,373	44,958	-0,071	-0,047
-185,358	-58,696	-0,067	0,021
-184,344	-200,000	-0,007	0,151
-183,329	-72,102	0,156	0,042
-182,315	-81,728	0,112	0,027
-181,300	42,179	-0,049	-0,032
-180,285	110,344	-0,032	-0,028
-179,271	140,935	0,035	0,034
-178,256	800,000	0,017	0,050
-177,242	-49,913	0,130	-0,045
-176,227	172,851	0,051	0,053
-175,212	358,629	-0,050	0,072
-174,198	-109,451	-0,046	0,007
-173,183	-61,071	0,097	-0,029
-172,169	-200,000	0,013	-0,053
-171,154	-61,791	0,126	-0,038
-170,139	345,069	-0,011	0,016
-169,125	-79,426	0,066	-0,016
-168,110	546,700	-0,030	0,052
-167,096	-38,496	0,049	-0,019
-166,081	-200,000	-0,004	0,071
-165,066	-48,582	-0,070	0,024
-164,052	-200,000	-0,004	-0,138
-163,037	800,000	-0,026	0,064
-162,023	-200,000	0,026	0,142
-161,008	37,289	-0,058	0,037
-159,993	800,000	-0,015	0,033
-158,979	57,636	0,030	0,021
-157,964	-145,128	-0,186	0,012
-156,950	-125,240	-0,108	0,012
-155,935	404,130	-0,069	0,106
-154,920	800,000	0,034	0,096
-153,906	-200,000	0,013	0,114
-152,891	75,919	0,009	-0,007
-151,877	800,000	-0,027	-0,059
-150,862	321,240	-0,021	-0,029
-149,847	401,480	-0,044	-0,068
-148,833	800,000	0,045	-0,126
-147,818	32,264	-0,107	0,067
-146,804	-200,000	-0,020	0,104
-145,789	800,000	-0,034	0,070
-144,775	-200,000	-0,037	0,131
-143,760	-71,735	-0,125	0,033
-142,745	563,389	0,011	-0,019
-141,731	-200,000	0,006	-0,025
-140,716	-200,000	-0,021	-0,165
-139,702	26,161	-0,126	-0,076
-138,687	195,219	0,061	-0,068
-137,672	-146,960	0,101	0,006
-136,658	214,444	-0,053	0,061
-135,643	19,722	-0,056	0,033
-134,629	-9,248	-0,023	0,011
-133,614	453,849	-0,074	-0,119
-132,599	-59,738	-0,020	0,006
-131,585	-70,788	0,145	0,039
-130,570	-8,514	0,099	-0,048
-129,556	800,000	-0,047	0,106
-128,541	-184,246	-0,105	0,001
-127,526	-200,000	0,009	-0,043
-126,512	800,000	0,031	0,070
-125,497	-115,814	-0,094	0,013
-124,483	-93,766	0,029	-0,006
-123,468	-145,667	0,086	-0,006
-122,453	-200,000	0,023	-0,118
-121,439	214,986	-0,070	-0,081
-120,424	59,838	-0,111	0,079
-119,410	-200,000	0,002	0,142
