DTS Sentinel unit serial number:	SN410029Multiplexer serial number:	ORYXHardware model number:	OX2-SRSoftware version number:	ORYX F/W v4,00 Oryx Data Collector v3.7.2.0data status	okinstallation	B4 Nyhavnadifferential loss correction	single-endedforward channel	channel 2reverse channel	N/Adate	2023/12/16time	08:55:13forward acquisition time	300,00reverse acquisition time	0,00gamma	499,1914k internal	0,3127k external	0,3127temperature offset calibration	1,0000default loss term (dB/km)	0,3820temperature slope calibration	1,0000multiplexer offset coefficient	1,0000multiplexer slope coefficient	1,0000fibre end	0,00T internal ref (°C)	22,78T ext. ref 1 (°C)	8,79T ext. ref 2 (°C)	8,94length (m)	temperature (°C)	Stokes	anti-Stokes-744,400	157,680	0,085	0,088
-743,385	501,777	-0,076	0,131
-742,371	372,222	0,067	-0,102
-741,356	-200,000	-0,032	0,246
-740,342	-77,017	-0,073	0,019
-739,327	-71,889	-0,258	0,071
-738,312	-67,771	0,049	-0,014
-737,298	27,064	-0,192	0,119
-736,283	-111,350	0,116	-0,017
-735,269	188,217	-0,180	0,201
-734,254	-93,227	-0,113	-0,023
-733,239	-45,222	-0,440	-0,162
-732,225	-147,684	0,121	-0,007
-731,210	800,000	-0,052	0,111
-730,196	800,000	-0,017	-0,037
-729,181	-55,578	0,068	0,023
-728,167	800,000	-0,003	0,008
-727,152	-200,000	-0,001	-0,053
-726,137	800,000	-0,032	-0,075
-725,123	17,482	0,091	-0,054
-724,108	-57,427	0,113	0,037
-723,094	-200,000	-0,003	-0,135
-722,079	-94,666	-0,072	-0,014
-721,064	143,736	0,068	-0,067
-720,050	800,000	-0,042	-0,129
-719,035	800,000	-0,016	-0,049
-718,021	74,691	-0,053	-0,041
-717,006	-155,071	-0,232	-0,011
-715,991	-200,000	0,017	-0,112
-714,977	-112,714	-0,154	-0,022
-713,962	800,000	-0,045	-0,129
-712,948	203,109	0,037	-0,043
-711,933	-47,370	0,122	-0,044
-710,918	-9,240	0,093	-0,046
-709,904	-121,954	-0,029	0,004
-708,889	-200,000	-0,008	0,047
-707,875	-122,021	0,091	-0,011
-706,860	-200,000	0,004	-0,027
-705,845	-200,000	0,010	0,000
-704,831	-200,000	-0,006	0,091
-703,816	20,220	-0,051	0,030
-702,802	54,594	-0,164	-0,117
-701,787	800,000	0,027	-0,059
-700,772	-20,418	-0,100	-0,046
-699,758	800,000	0,038	-0,110
-698,743	20,565	0,049	-0,029
-697,729	-184,343	-0,037	-0,000
-696,714	400,383	0,104	0,163
-695,699	326,420	-0,048	-0,068
-694,685	-82,500	-0,029	0,007
-693,670	-170,826	-0,117	-0,003
-692,656	-142,153	-0,100	-0,007
-691,641	-93,158	0,127	0,026
-690,627	-200,000	-0,010	-0,035
-689,612	-200,000	-0,008	-0,074
-688,597	-200,000	0,007	-0,041
-687,583	800,000	-0,018	-0,056
-686,568	-110,729	-0,140	-0,021
-685,554	-38,399	0,063	0,025
-684,539	-7,741	0,025	0,012
-683,524	201,834	-0,102	0,117
-682,510	800,000	-0,009	0,021
-681,495	-200,000	0,008	0,056
-680,481	267,818	0,101	-0,132
-679,466	-51,187	-0,128	-0,044
-678,451	-141,038	0,098	0,007
-677,437	-200,000	-0,002	-0,032
-676,422	-35,612	-0,070	-0,028
-675,408	43,928	-0,063	-0,043
-674,393	800,000	-0,025	0,065
-673,378	-200,000	0,004	-0,058
-672,364	-126,927	-0,147	-0,016
-671,349	222,747	0,097	-0,117
-670,335	249,270	-0,062	0,078
-669,320	-42,490	0,122	0,046
-668,305	-200,000	-0,005	-0,021
-667,291	-136,643	-0,049	-0,004
-666,276	25,530	-0,070	0,043
-665,262	-55,527	-0,026	-0,009
-664,247	141,333	-0,044	-0,043
-663,232	-200,000	-0,005	0,056
-662,218	147,068	-0,089	0,089
-661,203	-200,000	0,078	0,000
-660,189	800,000	-0,028	-0,082
-659,174	800,000	-0,063	-0,163
-658,159	-200,000	-0,009	0,043
-657,145	800,000	0,037	-0,105
-656,130	-136,905	-0,104	-0,009
-655,116	37,932	-0,052	-0,035
-654,101	658,334	-0,045	0,086
-653,086	-24,185	0,128	0,057
-652,072	81,163	-0,003	-0,003
-651,057	414,126	-0,027	-0,042
-650,043	-44,369	-0,116	-0,043
-649,028	163,399	0,087	-0,091
-648,014	-200,000	0,020	-0,104
-646,999	-188,058	0,139	0,001
-645,984	-200,000	-0,005	0,160
-644,970	-200,000	0,006	0,065
-643,955	104,726	-0,068	-0,059
-642,941	-59,079	-0,040	-0,013
-641,926	800,000	-0,017	-0,053
-640,911	-115,616	-0,068	-0,009
-639,897	-200,000	-0,010	0,164
-638,882	253,898	-0,017	0,022
-637,868	800,000	0,013	-0,028
-636,853	781,901	0,009	0,019
-635,838	44,308	-0,041	0,028
-634,824	-172,449	0,136	0,003
-633,809	-85,684	-0,086	-0,020
-632,795	-200,000	-0,037	-0,124
-631,780	298,153	-0,032	0,044
-630,765	-200,000	0,004	0,082
-629,751	-12,860	-0,034	-0,016
-628,736	55,548	0,016	0,011
-627,722	-4,399	-0,105	-0,054
-626,707	-54,438	0,094	-0,031
-625,692	-200,000	-0,029	0,216
-624,678	800,000	-0,025	0,078
-623,663	253,759	0,060	0,076
-622,649	800,000	0,025	0,067
-621,634	-200,000	-0,022	-0,168
-620,619	-21,438	-0,156	-0,070
-619,605	-39,677	0,047	-0,018
-618,590	417,398	-0,069	-0,110
-617,576	-134,189	0,067	-0,006
-616,561	-81,352	0,057	0,014
-615,546	-200,000	0,001	-0,027
-614,532	-121,389	-0,191	-0,023
-613,517	-62,487	0,019	-0,006
-612,503	-122,455	-0,169	-0,020
-611,488	-200,000	-0,023	0,083
-610,474	273,031	-0,036	0,047
-609,459	-66,258	-0,023	-0,007
-608,444	800,000	0,002	-0,004
-607,430	-53,607	-0,167	-0,056
-606,415	195,754	0,037	0,042
-605,401	12,810	-0,040	-0,023
-604,386	403,825	0,086	0,134
-603,371	-200,000	-0,008	0,051
-602,357	-45,304	-0,026	0,010
-601,342	-200,000	-0,008	0,068
-600,328	-200,000	-0,032	0,136
-599,313	221,896	-0,028	-0,033
-598,298	-200,000	0,018	0,078
-597,284	-200,000	-0,003	0,013
-596,269	175,768	0,013	0,014
-595,255	-200,000	-0,001	0,059
-594,240	201,791	-0,094	0,107
-593,225	589,202	-0,040	-0,074
-592,211	-101,503	-0,142	-0,025
-591,196	-22,181	0,117	0,052
-590,182	800,000	-0,022	0,048
-589,167	-95,346	-0,082	0,016
-588,152	-200,000	0,009	0,169
-587,138	171,995	-0,035	-0,037
-586,123	-200,000	0,014	-0,119
-585,109	2,626	0,196	-0,105
-584,094	-113,970	-0,114	-0,016
-583,079	-200,000	0,009	-0,053
-582,065	-25,396	0,174	0,076
-581,050	-200,000	-0,003	0,179
-580,036	61,021	0,061	0,045
-579,021	800,000	-0,020	-0,063
-578,006	800,000	-0,024	-0,071
-576,992	-78,592	-0,023	-0,006
-575,977	-200,000	-0,008	0,068
-574,963	-15,354	0,127	0,060
-573,948	743,317	0,043	0,086
-572,934	14,186	0,086	-0,049
-571,919	114,139	-0,053	0,048
-570,904	-200,000	0,002	-0,056
-569,890	-94,549	-0,037	-0,007
-568,875	800,000	0,020	0,056
-567,861	-156,738	0,053	0,002
-566,846	800,000	0,020	0,052
-565,831	194,152	-0,065	0,073
-564,817	63,226	-0,134	-0,099
-563,802	800,000	-0,035	-0,104
-562,788	37,050	0,038	-0,025
-561,773	238,573	0,009	-0,011
-560,758	800,000	0,045	-0,116
-559,744	-60,023	-0,070	-0,022
-558,729	-200,000	0,018	0,072
-557,715	-88,829	0,075	0,016
-556,700	201,250	-0,039	-0,044
-555,685	-182,851	-0,151	-0,002
-554,671	-41,566	-0,174	0,066
-553,656	560,820	-0,011	0,020
-552,642	158,109	0,115	0,117
-551,627	800,000	0,022	-0,066
-550,612	-113,924	0,024	-0,003
-549,598	-200,000	0,038	0,133
-548,583	-132,487	0,092	-0,009
-547,569	-129,084	0,049	-0,005
-546,554	-200,000	0,022	0,197
-545,539	800,000	-0,054	-0,112
-544,525	-153,421	-0,077	0,004
-543,510	800,000	-0,026	0,082
-542,496	-57,373	0,124	0,040
-541,481	-154,115	-0,083	0,004
-540,466	-200,000	0,021	0,143
-539,452	-110,522	0,051	0,008
-538,437	-200,000	0,013	0,071
-537,423	42,176	0,137	0,092
-536,408	366,369	-0,052	-0,077
-535,393	-200,000	-0,020	0,102
-534,379	-53,694	-0,091	-0,030
-533,364	43,647	-0,078	-0,053
-532,350	-72,893	-0,112	0,030
-531,335	-121,705	0,046	0,005
-530,321	-56,892	0,052	-0,017
-529,306	737,802	-0,087	-0,172
-528,291	86,890	0,085	-0,069
-527,277	-4,781	-0,080	-0,041
-526,262	-189,054	-0,038	0,000
-525,248	74,044	-0,009	-0,007
-524,233	-91,094	0,224	0,047
-523,218	273,213	0,059	0,078
-522,204	-58,589	-0,099	0,032
-521,189	-200,000	-0,007	0,052
-520,175	-200,000	-0,010	-0,088
-519,160	132,212	0,081	-0,077
-518,145	800,000	0,032	0,081
-517,131	-200,000	0,011	0,045
-516,116	-63,920	-0,118	-0,035
-515,102	146,712	0,037	-0,037
-514,087	-200,000	-0,010	0,049
-513,072	-26,003	0,081	-0,035
-512,058	22,384	-0,105	-0,063
-511,043	800,000	-0,015	0,036
-510,029	-200,000	0,002	0,085
-509,014	448,555	-0,050	0,081
-507,999	743,696	0,038	-0,076
-506,985	-103,297	0,021	-0,004
-505,970	39,759	-0,048	-0,032
-504,956	78,293	-0,109	-0,086
-503,941	183,185	0,144	0,157
-502,926	-155,362	0,099	0,005
-501,912	800,000	-0,030	-0,082
-500,897	-38,820	-0,021	0,008
-499,883	702,736	-0,034	-0,066
-498,868	800,000	-0,062	-0,168
-497,853	-65,451	0,095	-0,028
-496,839	17,984	-0,069	0,040
-495,824	-82,390	0,089	-0,021
-494,810	-200,000	0,057	0,192
-493,795	113,894	0,030	0,027
-492,781	30,653	-0,113	-0,071
-491,766	-171,189	-0,115	-0,003
-490,751	-125,902	-0,174	-0,019
-489,737	-200,000	0,004	-0,055
-488,722	-200,000	-0,045	0,193
-487,708	111,237	0,154	0,136
-486,693	-200,000	-0,008	0,042
-485,678	187,885	0,094	-0,104
-484,664	-200,000	0,033	-0,108
-483,649	23,687	-0,123	-0,074
-482,635	30,461	-0,103	0,065
-481,620	-200,000	-0,018	0,138
-480,605	-200,000	-0,001	-0,138
-479,591	-56,244	0,132	0,043
-478,576	23,058	-0,047	0,028
-477,562	66,440	0,097	0,072
-476,547	-190,646	0,100	-0,001
-475,532	157,905	0,025	0,025
-474,518	-200,000	0,014	-0,105
-473,503	-112,132	0,163	-0,024
-472,489	-200,000	-0,012	0,063
-471,474	800,000	-0,013	-0,029
-470,459	230,745	0,097	-0,118
-469,445	-200,000	0,003	0,113
-468,430	800,000	0,064	-0,167
-467,416	-30,161	-0,046	-0,019
-466,401	800,000	-0,033	0,086
-465,386	800,000	0,054	-0,155
-464,372	-200,000	0,032	-0,141
-463,357	-53,648	-0,161	0,054
-462,343	245,252	0,011	-0,014
-461,328	800,000	-0,016	-0,039
-460,313	43,443	-0,079	0,053
-459,299	-17,607	-0,161	0,074
-458,284	800,000	0,042	0,104
-457,270	163,531	0,104	0,108
-456,255	-118,716	-0,091	0,012
-455,241	800,000	-0,009	-0,027
-454,226	-200,000	0,012	-0,177
-453,211	331,270	-0,035	-0,050
-452,197	39,226	0,038	0,025
-451,182	-200,000	-0,019	0,121
-450,168	-64,821	0,078	-0,023
-449,153	-71,692	-0,061	0,017
-448,138	-90,201	-0,128	0,027
-447,124	29,986	0,037	0,023
-446,109	-162,661	0,019	-0,001
-445,095	800,000	0,056	0,136
-444,080	156,489	0,059	0,060
-443,065	-200,000	0,015	0,077
-442,051	-76,133	-0,118	-0,030
-441,036	21,877	-0,098	-0,059
-440,022	521,819	-0,053	0,092
-439,007	-167,962	-0,061	0,002
-437,992	10,603	0,081	-0,045
-436,978	154,722	0,160	0,162
-435,963	-200,000	0,003	-0,047
-434,949	101,704	-0,076	0,066
-433,934	642,384	-0,074	-0,139
-432,919	800,000	0,021	-0,045
-431,905	510,746	0,014	-0,025
-430,890	-200,000	-0,012	0,095
-429,876	-141,973	0,122	0,009
-428,861	-11,871	0,234	-0,112
-427,846	229,716	-0,074	0,089
-426,832	-200,000	0,010	-0,033
-425,817	43,679	-0,073	0,049
-424,803	-200,000	-0,038	-0,131
-423,788	770,027	-0,022	0,045
-422,773	60,475	-0,127	0,092
-421,759	-200,000	0,009	0,097
-420,744	176,223	-0,025	-0,027
-419,730	-13,200	0,029	0,014
-418,715	796,292	0,082	-0,167
-417,701	-31,069	-0,084	-0,035
-416,686	74,176	0,051	-0,039
-415,671	157,771	0,143	0,146
-414,657	446,025	0,106	0,172
-413,642	4,049	0,042	0,023
-412,628	115,692	-0,127	-0,114
-411,613	-55,879	-0,145	-0,047
-410,598	800,000	-0,023	-0,051
-409,584	-200,000	0,007	0,105
-408,569	-200,000	0,010	-0,046
-407,555	-109,892	0,215	-0,033
-406,540	-84,327	0,079	-0,018
-405,525	81,248	0,027	0,021
-404,511	-98,514	-0,041	-0,008
-403,496	800,000	0,025	-0,055
-402,482	-200,000	-0,007	0,064
-401,467	373,366	0,006	-0,009
-400,452	800,000	0,035	0,077
-399,438	-104,768	-0,064	0,011
-398,423	-200,000	-0,013	-0,046
-397,409	-106,025	-0,127	-0,021
-396,394	-200,000	-0,027	-0,142
-395,379	800,000	0,052	-0,112
-394,365	-200,000	0,006	0,052
-393,350	164,973	-0,063	-0,065
-392,336	800,000	-0,009	0,022
-391,321	-200,000	0,017	-0,141
-390,306	232,839	-0,116	0,141
-389,292	113,245	-0,093	0,083
-388,277	-49,137	-0,093	-0,032
-387,263	-37,327	-0,045	-0,017
-386,248	291,012	-0,034	0,046
-385,233	-200,000	0,007	0,040
-384,219	800,000	0,017	0,047
-383,204	763,767	-0,024	-0,049
-382,190	695,663	-0,044	-0,085
-381,175	-200,000	-0,043	0,164
-380,160	46,286	0,106	0,072
-379,146	599,989	0,063	0,116
-378,131	502,334	0,035	-0,059
-377,117	-148,762	0,085	0,005
-376,102	800,000	0,048	-0,120
-375,088	496,434	-0,039	-0,065
-374,073	-79,056	-0,045	-0,011
-373,058	800,000	-0,024	0,052
-372,044	-200,000	0,016	0,101
-371,029	-200,000	0,001	0,041
-370,015	-13,514	0,121	0,057
-369,000	-200,000	-0,005	0,093
-367,985	247,396	-0,065	0,081
-366,971	800,000	0,026	-0,069
-365,956	535,907	0,034	-0,059
-364,942	165,677	0,034	0,035
-363,927	125,638	-0,072	0,066
-362,912	54,209	0,050	-0,035
-361,898	163,792	-0,108	0,111
-360,883	-130,926	-0,127	-0,012
-359,869	-74,376	0,074	0,019
-358,854	160,943	0,091	-0,093
-357,839	800,000	0,033	-0,084
-356,825	-22,248	-0,085	0,038
-355,810	291,797	0,033	-0,044
-354,796	800,000	0,008	-0,020
-353,781	43,332	-0,036	-0,024
-352,766	-200,000	-0,007	-0,081
-351,752	800,000	0,035	-0,074
-350,737	-77,486	0,142	0,036
-349,723	538,181	0,062	-0,109
-348,708	-200,000	-0,001	-0,133
-347,693	433,348	-0,024	-0,038
-346,679	-22,114	0,047	-0,021
-345,664	639,932	-0,028	0,052
-344,650	-200,000	-0,027	-0,175
-343,635	16,128	-0,038	0,022
-342,620	800,000	0,037	0,116
-341,606	65,658	0,118	0,088
-340,591	-195,946	0,084	0,000
-339,577	-20,160	0,116	0,052
-338,562	800,000	0,042	0,101
-337,548	179,058	0,026	-0,028
-336,533	-200,000	0,011	-0,068
-335,518	-200,000	-0,043	0,200
-334,504	-200,000	0,014	0,083
-333,489	326,289	-0,024	-0,033
-332,475	-62,958	-0,050	-0,015
-331,460	-200,000	0,033	-0,136
-330,445	-88,961	0,030	0,006
-329,431	-145,702	-0,015	-0,001
-328,416	-200,000	0,083	-0,000
-327,402	-200,000	-0,013	-0,110
-326,387	-109,792	0,078	0,012
-325,372	103,904	-0,078	-0,067
-324,358	307,089	-0,035	0,048
-323,343	-200,000	0,042	-0,174
-322,329	-200,000	-0,006	-0,085
-321,314	-163,026	0,131	0,005
-320,299	-70,611	0,007	0,002
-319,285	800,000	-0,059	-0,145
-318,270	14,379	0,065	-0,037
-317,256	313,596	0,013	0,018
-316,241	-115,004	-0,144	0,020
-315,226	800,000	0,032	0,071
-314,212	-52,358	0,205	0,069
-313,197	286,919	0,026	-0,035
-312,183	84,770	0,040	0,032
-311,168	147,003	-0,101	0,099
-310,153	800,000	0,028	-0,067
-309,139	-200,000	-0,027	0,098
-308,124	-67,511	0,220	-0,063
-307,110	50,314	-0,073	0,050
-306,095	0,131	0,097	0,050
-305,080	-58,382	0,061	-0,019
-304,066	120,282	-0,057	-0,052
-303,051	4,285	-0,113	-0,060
-302,037	661,298	-0,095	-0,180
-301,022	800,000	0,050	0,124
-300,008	-200,000	0,004	-0,144
-298,993	-106,591	0,046	0,007
-297,978	800,000	-0,052	0,112
-296,964	-137,827	0,047	0,004
-295,949	37,484	0,112	-0,073
-294,935	202,899	-0,083	-0,094
-293,920	66,512	0,044	0,033
-292,905	-160,838	-0,057	-0,002
-291,891	-195,325	-0,165	-0,001
-290,876	-200,000	0,015	0,116
-289,862	-200,000	0,001	-0,129
-288,847	197,155	-0,067	0,075
-287,832	673,626	0,054	-0,104
-286,818	-200,000	-0,014	-0,059
-285,803	-200,000	0,009	-0,073
-284,789	-155,748	0,141	-0,006
-283,774	800,000	-0,033	0,084
-282,759	8,115	-0,154	-0,084
-281,745	-106,583	-0,019	-0,003
-280,730	36,787	-0,147	-0,095
-279,716	-145,610	0,034	-0,002
-278,701	-200,000	0,014	-0,063
-277,686	800,000	-0,031	0,072
-276,672	800,000	-0,007	0,018
-275,657	356,425	0,024	-0,034
-274,643	83,430	0,089	-0,071
-273,628	92,940	0,005	0,005
-272,613	-200,000	-0,041	0,136
-271,599	423,327	-0,051	0,080
-270,584	-58,664	0,072	0,023
-269,570	614,933	-0,036	-0,066
-268,555	149,821	-0,123	0,122
-267,540	800,000	0,062	0,157
-266,526	-75,423	-0,093	-0,024
-265,511	-79,040	-0,167	0,041
-264,497	-65,387	-0,064	-0,019
-263,482	-200,000	0,006	0,051
-262,467	-200,000	0,005	0,097
-261,453	49,583	0,057	0,039
-260,438	-77,343	-0,098	0,025
-259,424	-200,000	0,002	-0,085
-258,409	98,334	-0,005	-0,004
-257,395	2,146	0,030	-0,016
-256,380	-18,728	0,040	0,018
-255,365	-38,815	0,069	0,027
-254,351	-93,149	0,109	0,022
-253,336	-200,000	-0,034	-0,163
-252,322	60,808	0,037	0,027
-251,307	800,000	-0,061	-0,142
-250,292	-115,855	0,070	0,009
-249,278	35,001	-0,053	0,034
-248,263	159,256	0,046	0,047
-247,249	453,120	-0,014	0,022
-246,234	103,716	-0,016	-0,014
-245,219	290,877	-0,083	-0,111
-244,205	800,000	0,047	0,127
-243,190	83,707	-0,033	0,026
-242,176	-200,000	0,020	-0,067
-241,161	-3,361	0,114	0,058
-240,146	800,000	0,054	0,122
-239,132	94,218	-0,037	-0,031
-238,117	-200,000	0,008	0,103
-237,103	-200,000	0,010	0,052
-236,088	-122,235	0,039	-0,005
-235,073	308,611	-0,035	-0,048
-234,059	-185,813	-0,060	-0,001
-233,044	128,557	0,085	0,079
-232,030	101,409	0,058	0,049
-231,015	800,000	-0,065	-0,137
-230,000	800,000	-0,003	0,011
-228,986	-104,473	0,085	-0,014
-227,971	-87,413	0,118	0,026
-226,957	800,000	-0,025	0,060
-225,942	367,902	0,069	-0,102
-224,927	198,643	0,044	-0,049
-223,913	321,448	0,027	-0,038
-222,898	-200,000	-0,023	0,099
-221,884	734,174	0,038	-0,074
-220,869	218,855	0,108	-0,127
-219,855	502,639	0,030	-0,051
-218,840	-200,000	0,035	0,113
-217,825	800,000	0,020	-0,048
-216,811	-49,078	-0,063	-0,022
-215,796	60,051	-0,095	-0,068
-214,782	358,908	-0,046	-0,067
-213,767	109,529	-0,076	-0,066
-212,752	-86,945	-0,031	0,007
-211,738	-200,000	-0,005	-0,126
-210,723	168,155	0,043	-0,044
-209,709	800,000	-0,035	0,096
-208,694	-112,424	-0,121	-0,017
-207,679	-114,391	-0,065	0,009
-206,665	-38,711	0,147	0,056
-205,650	-69,495	0,081	-0,023
-204,636	220,168	0,037	0,043
-203,621	-75,818	-0,083	-0,021
-202,606	10,221	-0,114	0,063
-201,592	342,682	-0,091	-0,131
-200,577	-200,000	0,001	-0,047
-199,563	-188,952	-0,039	0,000
-198,548	-62,642	-0,059	-0,018
-197,533	-200,000	0,002	0,038
-196,519	130,152	0,042	-0,039
-195,504	44,081	0,068	-0,045
-194,490	127,281	-0,101	-0,093
-193,475	277,795	0,023	0,030
-192,460	103,777	-0,008	-0,006
-191,446	-157,728	0,013	-0,001
-190,431	-0,036	-0,056	-0,029
-189,417	-200,000	0,006	-0,027
-188,402	183,951	-0,031	0,033
-187,387	7,934	0,026	-0,014
-186,373	48,992	0,140	0,095
-185,358	-185,769	0,062	0,001
-184,344	-192,001	0,046	0,000
-183,329	-200,000	0,004	-0,054
-182,315	45,429	-0,031	-0,021
-181,300	91,250	-0,154	-0,126
-180,285	39,650	0,101	-0,066
-179,271	84,227	-0,109	-0,087
-178,256	69,678	0,076	-0,057
-177,242	800,000	0,034	-0,099
-176,227	56,726	0,093	-0,066
-175,212	33,071	0,106	0,067
-174,198	83,843	-0,064	-0,051
-173,183	-200,000	-0,005	-0,077
-172,169	152,681	-0,031	0,031
-171,154	297,880	0,039	-0,053
-170,139	-87,418	0,105	-0,023
-169,125	39,277	0,078	-0,051
-168,110	107,872	-0,043	0,038
-167,096	-134,544	-0,160	-0,014
-166,081	-152,758	-0,153	0,008
-165,066	-85,901	-0,064	-0,014
-164,052	-200,000	0,012	0,160
-163,037	800,000	-0,078	-0,242
-162,023	800,000	0,024	0,065
-161,008	-200,000	0,005	0,032
-159,993	-107,478	0,021	0,003
-158,979	800,000	0,009	-0,021
-157,964	-200,000	0,024	-0,082
-156,950	-200,000	0,003	-0,042
-155,935	-200,000	0,030	0,183
-154,920	231,743	-0,023	0,028
-153,906	-133,507	0,196	-0,018
-152,891	744,971	0,027	-0,054
-151,877	137,784	-0,061	0,058
-150,862	246,489	-0,059	-0,072
-149,847	398,120	-0,057	-0,088
-148,833	441,486	0,019	0,031
-147,818	40,490	0,073	0,047
-146,804	28,794	-0,026	-0,016
-145,789	-200,000	-0,037	0,118
-144,775	178,155	-0,024	-0,026
-143,760	-175,833	0,029	-0,001
-142,745	15,110	-0,118	0,067
-141,731	-200,000	0,010	0,089
-140,716	800,000	0,028	-0,059
-139,702	21,636	0,078	-0,046
-138,687	70,003	-0,054	-0,041
-137,672	93,353	0,048	0,039
-136,658	-13,065	0,058	-0,027
-135,643	72,613	-0,105	0,079
-134,629	289,017	-0,100	-0,132
-133,614	800,000	-0,040	0,109
-132,599	508,268	-0,035	0,059
-131,585	-200,000	0,030	0,138
-130,570	12,079	-0,011	0,006
-129,556	180,301	0,052	-0,055
-128,541	-35,737	-0,074	0,029
-127,526	252,909	0,115	-0,143
-126,512	-200,000	0,012	0,044
-125,497	5,887	0,113	0,061
-124,483	-76,055	0,053	-0,014
-123,468	-48,513	-0,068	-0,024
-122,453	23,692	-0,046	0,027
-121,439	130,266	-0,138	-0,128
-120,424	-200,000	0,030	0,114
