DTS Sentinel unit serial number:	SN410029Multiplexer serial number:	ORYXHardware model number:	OX2-SRSoftware version number:	ORYX F/W v4,00 Oryx Data Collector v3.7.2.0data status	okinstallation	B4 Nyhavnadifferential loss correction	single-endedforward channel	channel 2reverse channel	N/Adate	2023/12/16time	13:40:13forward acquisition time	300,00reverse acquisition time	0,00gamma	499,1914k internal	0,3125k external	0,3125temperature offset calibration	1,0000default loss term (dB/km)	0,3820temperature slope calibration	1,0000multiplexer offset coefficient	1,0000multiplexer slope coefficient	1,0000fibre end	0,00T internal ref (°C)	24,95T ext. ref 1 (°C)	11,25T ext. ref 2 (°C)	11,45length (m)	temperature (°C)	Stokes	anti-Stokes-744,400	456,901	0,039	0,065
-743,385	-200,000	-0,055	0,182
-742,371	-55,589	0,067	-0,022
-741,356	464,697	-0,158	0,264
-740,342	330,552	0,080	-0,115
-739,327	-105,798	-0,221	0,037
-738,312	-145,788	-0,104	-0,007
-737,298	800,000	-0,105	0,296
-736,283	800,000	0,047	-0,151
-735,269	672,662	-0,017	0,033
-734,254	248,514	-0,063	-0,080
-733,239	-127,533	-0,312	-0,033
-732,225	-200,000	0,003	-0,013
-731,210	-125,815	0,080	0,009
-730,196	-200,000	-0,030	-0,132
-729,181	21,102	-0,050	-0,030
-728,167	800,000	0,016	0,034
-727,152	248,400	-0,019	-0,024
-726,137	454,571	-0,024	-0,040
-725,123	-198,311	-0,095	-0,000
-724,108	-85,834	0,032	-0,007
-723,094	-64,889	-0,085	-0,026
-722,079	206,807	-0,060	-0,069
-721,064	-191,614	0,080	0,001
-720,050	54,869	0,049	0,035
-719,035	800,000	-0,034	-0,095
-718,021	60,441	-0,150	0,111
-717,006	800,000	0,022	0,067
-715,991	294,327	-0,088	-0,119
-714,977	-200,000	-0,036	0,124
-713,962	800,000	-0,042	-0,124
-712,948	93,289	0,121	-0,102
-711,933	-200,000	0,006	-0,043
-710,918	-200,000	0,004	0,087
-709,904	271,280	-0,074	0,098
-708,889	-67,590	0,125	-0,036
-707,875	800,000	-0,039	-0,088
-706,860	-200,000	-0,010	-0,105
-705,845	111,583	0,023	0,021
-704,831	109,696	-0,021	0,019
-703,816	-97,422	-0,096	-0,018
-702,802	-200,000	-0,027	-0,105
-701,787	-200,000	-0,004	-0,049
-700,772	-107,213	0,018	0,003
-699,758	8,872	0,042	-0,023
-698,743	109,493	0,042	-0,038
-697,729	199,631	-0,058	0,067
-696,714	-200,000	0,005	0,030
-695,699	121,030	0,079	-0,073
-694,685	-73,350	-0,030	0,008
-693,670	445,408	-0,067	0,110
-692,656	0,797	-0,050	0,026
-691,641	800,000	0,016	0,035
-690,627	-200,000	-0,036	0,141
-689,612	464,882	-0,046	0,076
-688,597	-200,000	-0,010	-0,155
-687,583	203,667	0,040	-0,046
-686,568	47,830	0,034	-0,024
-685,554	-142,654	-0,012	-0,001
-684,539	388,169	-0,043	-0,067
-683,524	141,009	0,120	-0,118
-682,510	-67,893	-0,131	-0,038
-681,495	-153,927	-0,089	0,004
-680,481	-146,082	-0,120	-0,008
-679,466	-2,223	0,027	-0,014
-678,451	-200,000	-0,012	0,114
-677,437	-200,000	-0,016	0,084
-676,422	447,336	0,041	0,068
-675,408	11,929	-0,023	0,013
-674,393	-101,954	-0,259	0,046
-673,378	-45,522	0,067	-0,024
-672,364	-24,598	0,074	0,033
-671,349	-89,706	-0,221	0,048
-670,335	800,000	-0,011	0,024
-669,320	198,772	0,069	-0,078
-668,305	17,669	-0,117	-0,069
-667,291	179,440	-0,073	0,080
-666,276	800,000	-0,047	0,122
-665,262	-200,000	-0,009	0,081
-664,247	258,768	-0,063	-0,081
-663,232	117,220	-0,076	-0,070
-662,218	-200,000	0,024	0,091
-661,203	-3,821	0,055	0,028
-660,189	38,119	0,065	-0,043
-659,174	800,000	0,028	-0,080
-658,159	-37,357	0,055	-0,022
-657,145	158,821	0,031	-0,032
-656,130	96,398	-0,055	-0,047
-655,116	800,000	-0,036	0,089
-654,101	-200,000	-0,009	0,087
-653,086	21,409	-0,109	-0,065
-652,072	-200,000	0,002	-0,010
-651,057	163,895	0,045	-0,047
-650,043	163,859	-0,040	0,042
-649,028	-101,905	0,069	0,012
-648,014	-159,172	0,130	0,005
-646,999	229,270	-0,080	0,097
-645,984	67,740	-0,094	-0,071
-644,970	-200,000	0,035	-0,139
-643,955	-200,000	-0,002	-0,043
-642,941	-200,000	-0,028	-0,100
-641,926	333,328	0,023	0,033
-640,911	649,292	-0,022	-0,042
-639,897	-200,000	0,081	0,000
-638,882	-200,000	0,003	0,021
-637,868	53,990	-0,090	-0,064
-636,853	100,531	-0,051	0,044
-635,838	62,347	-0,182	-0,135
-634,824	71,349	-0,071	-0,055
-633,809	252,361	0,031	0,040
-632,795	421,977	0,018	0,029
-631,780	98,543	-0,067	-0,057
-630,765	127,201	0,030	0,028
-629,751	-43,439	-0,156	0,058
-628,736	-55,327	-0,165	0,055
-627,722	412,793	-0,074	-0,118
-626,707	-14,720	0,114	0,054
-625,692	305,863	0,095	0,131
-624,678	-37,638	-0,080	0,032
-623,663	-200,000	-0,038	-0,173
-622,649	131,855	0,021	-0,020
-621,634	3,445	-0,068	0,036
-620,619	-200,000	0,015	0,066
-619,605	-200,000	0,014	0,125
-618,590	3,863	0,050	-0,027
-617,576	-200,000	0,005	0,073
-616,561	20,082	0,064	0,038
-615,546	59,731	-0,085	-0,062
-614,532	800,000	-0,051	0,117
-613,517	800,000	-0,026	0,073
-612,503	461,367	0,058	0,095
-611,488	36,974	0,027	0,017
-610,474	-26,815	0,075	0,032
-609,459	51,871	-0,080	-0,056
-608,444	-200,000	0,006	0,049
-607,430	-60,822	-0,119	-0,037
-606,415	270,423	-0,087	-0,114
-605,401	-200,000	0,008	-0,075
-604,386	-162,278	-0,045	0,002
-603,371	-112,596	-0,151	0,022
-602,357	-147,603	0,109	-0,007
-601,342	196,315	-0,090	-0,102
-600,328	-156,805	-0,050	-0,002
-599,313	-200,000	0,031	-0,114
-598,298	210,112	-0,037	-0,043
-597,284	86,195	-0,057	0,046
-596,269	285,847	0,022	0,029
-595,255	800,000	0,027	0,084
-594,240	-146,790	-0,075	-0,005
-593,225	800,000	-0,009	-0,023
-592,211	-176,119	-0,123	-0,002
-591,196	-39,260	0,125	-0,048
-590,182	180,799	-0,049	0,053
-589,167	9,785	-0,080	0,045
-588,152	255,839	-0,025	0,032
-587,138	-200,000	0,011	0,079
-586,123	-179,103	-0,165	-0,003
-585,109	739,602	-0,017	0,033
-584,094	-131,931	0,178	-0,017
-583,079	-120,127	-0,086	0,011
-582,065	800,000	-0,063	-0,184
-581,050	135,403	0,070	-0,067
-580,036	637,241	-0,056	-0,106
-579,021	99,601	0,075	-0,064
-578,006	-110,570	-0,116	-0,018
-576,992	151,941	-0,047	-0,047
-575,977	800,000	0,066	0,164
-574,963	244,366	-0,033	0,042
-573,948	555,663	-0,099	0,177
-572,934	-200,000	0,004	-0,027
-571,919	-71,168	-0,139	0,038
-570,904	-200,000	0,001	-0,049
-569,890	195,196	-0,112	-0,127
-568,875	-200,000	0,013	-0,113
-567,861	-200,000	0,034	0,110
-566,846	-200,000	-0,007	0,058
-565,831	-200,000	-0,021	-0,111
-564,817	800,000	-0,014	0,029
-563,802	667,022	-0,069	-0,133
-562,788	141,881	-0,061	-0,060
-561,773	5,508	0,159	0,087
-560,758	-200,000	-0,007	0,064
-559,744	85,927	-0,089	-0,072
-558,729	-164,774	0,154	-0,005
-557,715	-28,546	-0,099	-0,042
-556,700	-179,127	0,085	-0,001
-555,685	-200,000	-0,019	-0,143
-554,671	-200,000	-0,020	0,091
-553,656	127,047	-0,103	0,096
-552,642	42,132	0,060	0,040
-551,627	800,000	0,025	-0,079
-550,612	800,000	-0,040	0,086
-549,598	-200,000	-0,038	-0,144
-548,583	290,418	-0,066	-0,089
-547,569	-68,072	0,040	-0,011
-546,554	800,000	0,024	0,057
-545,539	-153,793	0,109	0,005
-544,525	1,999	-0,116	0,062
-543,510	-123,429	-0,018	0,002
-542,496	-79,465	-0,132	0,033
-541,481	-92,965	0,075	-0,015
-540,466	91,028	0,033	-0,028
-539,452	-49,113	0,046	0,016
-538,437	-67,722	0,113	0,032
-537,423	93,161	0,139	0,116
-536,408	300,390	0,098	-0,134
-535,393	800,000	0,021	-0,046
-534,379	24,280	-0,121	0,074
-533,364	253,703	0,130	-0,165
-532,350	148,009	-0,003	0,003
-531,335	-200,000	0,039	0,144
-530,321	95,210	0,110	-0,093
-529,306	220,359	0,015	-0,018
-528,291	-49,415	-0,084	-0,029
-527,277	4,082	-0,151	0,081
-526,262	-129,601	0,077	-0,008
-525,248	266,625	-0,042	-0,054
-524,233	-200,000	0,007	0,160
-523,218	-27,692	0,147	0,063
-522,204	249,326	-0,066	0,083
-521,189	567,295	-0,046	0,082
-520,175	523,376	0,050	-0,086
-519,160	-200,000	-0,010	-0,078
-518,145	-200,000	-0,023	0,084
-517,131	-200,000	-0,011	0,087
-516,116	422,832	-0,104	0,165
-515,102	-200,000	0,023	0,152
-514,087	181,761	-0,130	-0,142
-513,072	46,492	-0,135	0,092
-512,058	800,000	-0,038	-0,078
-511,043	-200,000	0,012	0,077
-510,029	-15,544	-0,067	0,031
-509,014	6,872	0,071	0,039
-507,999	-200,000	0,005	0,067
-506,985	56,957	-0,147	-0,106
-505,970	-200,000	0,000	0,103
-504,956	-81,837	0,147	0,035
-503,941	174,696	0,096	-0,102
-502,926	-200,000	0,011	-0,040
-501,912	-169,093	0,090	0,002
-500,897	-20,023	0,073	-0,033
-499,883	760,336	0,035	0,070
-498,868	-12,835	-0,071	-0,034
-497,853	-20,520	-0,211	-0,095
-496,839	3,841	0,051	-0,027
-495,824	-200,000	0,003	0,043
-494,810	-200,000	0,017	0,081
-493,795	538,524	0,026	-0,047
-492,781	315,640	-0,035	-0,049
-491,766	703,518	0,089	-0,175
-490,751	116,078	-0,088	-0,079
-489,737	800,000	-0,053	-0,131
-488,722	-200,000	0,001	0,054
-487,708	38,999	0,054	-0,036
-486,693	1,540	-0,106	-0,056
-485,678	-200,000	-0,012	0,102
-484,664	181,995	-0,061	-0,066
-483,649	-60,452	0,049	0,015
-482,635	145,936	0,074	0,073
-481,620	800,000	0,035	0,103
-480,605	800,000	0,062	-0,132
-479,591	-200,000	0,022	0,121
-478,576	-200,000	0,038	-0,140
-477,562	-90,488	0,037	-0,008
-476,547	800,000	-0,035	-0,077
-475,532	62,998	-0,059	0,043
-474,518	-200,000	0,012	-0,088
-473,503	-189,420	-0,082	0,001
-472,489	-200,000	-0,013	0,133
-471,474	621,081	0,034	0,062
-470,459	174,719	0,104	-0,111
-469,445	-200,000	-0,017	-0,076
-468,430	371,053	-0,047	-0,070
-467,416	52,845	0,057	0,040
-466,401	-200,000	0,006	-0,027
-465,386	-20,961	0,026	0,011
-464,372	800,000	0,023	0,075
-463,357	-119,108	-0,117	0,015
-462,343	800,000	0,054	-0,116
-461,328	-83,787	-0,081	0,019
-460,313	553,343	0,105	-0,186
-459,299	-3,136	0,120	-0,061
-458,284	-33,353	0,127	0,051
-457,270	-60,893	-0,042	0,013
-456,255	713,905	0,033	0,065
-455,241	800,000	-0,028	-0,084
-454,226	362,960	-0,068	-0,101
-453,211	-200,000	-0,018	0,061
-452,197	-96,312	0,075	0,014
-451,182	534,043	0,032	0,056
-450,168	800,000	-0,030	0,086
-449,153	-97,101	0,088	-0,017
-448,138	-200,000	-0,011	0,055
-447,124	-152,479	0,153	-0,008
-446,109	-200,000	-0,003	-0,088
-445,095	-57,975	0,046	0,015
-444,080	-33,539	0,071	-0,029
-443,065	-20,572	-0,033	-0,015
-442,051	800,000	-0,037	-0,076
-441,036	-162,473	-0,056	-0,002
-440,022	393,753	0,027	-0,041
-439,007	-200,000	-0,019	0,070
-437,992	-200,000	0,020	-0,218
-436,978	521,856	-0,033	-0,058
-435,963	-40,957	0,133	-0,051
-434,949	56,724	-0,083	-0,060
-433,934	800,000	-0,019	-0,047
-432,919	153,305	0,056	-0,056
-431,905	-200,000	0,004	0,093
-430,890	-83,729	0,054	-0,012
-429,876	197,602	-0,041	-0,046
-428,861	-28,974	0,161	0,068
-427,846	-86,517	-0,095	0,021
-426,832	800,000	-0,014	0,030
-425,817	34,132	0,105	-0,067
-424,803	90,224	-0,018	-0,015
-423,788	-200,000	-0,025	0,119
-422,773	88,090	0,089	0,073
-421,759	-72,012	0,120	0,033
-420,744	238,756	0,077	0,094
-419,730	800,000	-0,063	-0,148
-418,715	800,000	-0,075	-0,159
-417,701	44,132	-0,056	-0,038
-416,686	137,481	-0,153	-0,148
-415,671	345,403	-0,013	0,019
-414,657	-200,000	0,007	0,050
-413,642	-56,060	0,089	0,029
-412,628	-200,000	0,014	0,073
-411,613	-200,000	0,012	-0,087
-410,598	-114,556	-0,080	-0,011
-409,584	-200,000	-0,040	0,144
-408,569	-200,000	0,006	0,100
-407,555	27,191	-0,014	0,008
-406,540	28,853	-0,100	0,062
-405,525	-142,995	-0,064	0,004
-404,511	175,340	0,031	-0,033
-403,496	15,337	0,029	-0,016
-402,482	258,700	-0,063	-0,080
-401,467	-69,616	-0,056	0,016
-400,452	9,695	0,049	-0,027
-399,438	-20,610	-0,044	0,020
-398,423	18,192	-0,053	-0,031
-397,409	-200,000	-0,009	-0,032
-396,394	-57,150	-0,125	0,040
-395,379	-200,000	-0,019	-0,078
-394,365	76,607	-0,095	0,074
-393,350	800,000	0,021	-0,053
-392,336	52,379	0,096	0,067
-391,321	800,000	0,013	0,039
-390,306	-149,965	-0,135	-0,008
-389,292	-200,000	-0,008	-0,035
-388,277	730,896	-0,037	-0,072
-387,263	230,496	0,030	-0,036
-386,248	-200,000	-0,006	-0,025
-385,233	122,650	-0,064	0,059
-384,219	258,136	0,041	0,052
-383,204	342,511	0,034	0,050
-382,190	-200,000	-0,054	-0,200
-381,175	221,330	-0,078	0,092
-380,160	728,991	-0,016	0,032
-379,146	172,681	0,064	0,068
-378,131	-20,859	0,152	0,068
-377,117	-144,762	0,034	-0,002
-376,102	59,148	-0,088	-0,063
-375,088	-99,814	-0,045	0,008
-374,073	72,259	0,092	-0,070
-373,058	-41,983	0,039	-0,014
-372,044	-200,000	-0,024	0,186
-371,029	-88,246	-0,088	0,019
-370,015	399,270	-0,054	-0,084
-369,000	-200,000	-0,005	0,033
-367,985	-18,382	0,098	-0,045
-366,971	-96,011	-0,094	0,018
-365,956	567,767	0,031	0,056
-364,942	581,767	0,044	0,079
-363,927	186,411	0,071	0,078
-362,912	441,562	0,049	0,079
-361,898	66,048	0,052	-0,039
-360,883	-45,291	-0,093	-0,034
-359,869	-43,437	-0,043	-0,016
-358,854	-114,499	0,167	-0,023
-357,839	535,091	-0,041	0,071
-356,825	-13,387	0,117	0,056
-355,810	800,000	-0,026	0,079
-354,796	62,658	-0,106	0,078
-353,781	-112,970	0,084	0,012
-352,766	-95,805	-0,020	-0,004
-351,752	800,000	-0,023	0,062
-350,737	-200,000	-0,001	0,084
-349,723	800,000	-0,050	0,108
-348,708	-200,000	0,012	-0,082
-347,693	800,000	-0,055	-0,126
-346,679	-200,000	-0,017	-0,087
-345,664	-200,000	0,003	0,014
-344,650	-200,000	0,000	0,009
-343,635	58,460	0,098	0,070
-342,620	800,000	-0,053	0,146
-341,606	28,894	0,166	0,103
-340,591	361,559	0,109	-0,160
-339,577	-134,291	-0,064	-0,006
-338,562	-200,000	0,008	-0,034
-337,548	800,000	0,043	0,121
-336,533	800,000	0,016	0,051
-335,518	432,857	0,073	-0,117
-334,504	-100,391	0,116	-0,021
-333,489	121,111	0,071	-0,065
-332,475	-6,560	-0,109	-0,054
-331,460	-200,000	0,023	-0,211
-330,445	-117,740	0,059	-0,008
-329,431	-126,712	0,078	-0,008
-328,416	139,713	0,074	0,071
-327,402	800,000	0,048	-0,112
-326,387	800,000	-0,021	-0,051
-325,372	-200,000	-0,018	0,078
-324,358	-29,254	-0,089	-0,037
-323,343	-2,358	0,112	0,057
-322,329	258,392	0,027	-0,035
-321,314	25,526	0,068	0,042
-320,299	38,828	-0,023	-0,015
-319,285	800,000	0,054	-0,111
-318,270	268,222	0,066	-0,085
-317,256	-69,396	0,049	0,014
-316,241	582,804	-0,075	-0,136
-315,226	649,085	-0,032	0,060
-314,212	-200,000	0,028	0,102
-313,197	113,317	0,054	-0,048
-312,183	390,332	0,065	0,099
-311,168	41,458	-0,042	0,028
-310,153	-3,592	-0,044	-0,022
-309,139	-112,237	-0,074	0,011
-308,124	71,936	-0,053	-0,040
-307,110	-200,000	0,005	-0,096
-306,095	195,036	0,087	0,097
-305,080	207,247	0,012	0,014
-304,066	-32,955	0,118	0,048
-303,051	80,176	-0,069	-0,054
-302,037	-150,760	0,065	-0,004
-301,022	-70,104	0,180	0,050
-300,008	746,301	-0,020	0,040
-298,993	-120,768	0,056	0,007
-297,978	-200,000	0,020	0,119
-296,964	-128,246	0,138	0,014
-295,949	-200,000	-0,004	-0,059
-294,935	800,000	0,049	0,129
-293,920	-200,000	-0,008	-0,053
-292,905	122,113	0,038	-0,034
-291,891	104,916	0,078	0,068
-290,876	-77,473	-0,097	-0,024
-289,862	269,896	-0,095	0,122
-288,847	329,194	0,139	-0,196
-287,832	188,495	-0,048	-0,052
-286,818	-67,080	-0,086	-0,025
-285,803	-200,000	-0,003	0,130
-284,789	689,499	-0,023	0,045
-283,774	-200,000	0,002	0,044
-282,759	-56,571	-0,184	0,059
-281,745	-20,260	-0,125	-0,056
-280,730	78,056	-0,058	-0,045
-279,716	-94,418	0,106	-0,021
-278,701	-200,000	0,011	0,128
-277,686	-200,000	0,006	-0,104
-276,672	-200,000	0,019	0,187
-275,657	-84,981	-0,123	-0,028
-274,643	800,000	-0,057	-0,129
-273,628	-200,000	-0,029	0,123
-272,613	93,886	0,019	0,016
-271,599	800,000	0,035	0,080
-270,584	800,000	-0,033	0,088
-269,570	-200,000	0,007	0,039
-268,555	-117,063	0,179	-0,024
-267,540	-143,464	-0,066	0,005
-266,526	493,926	-0,016	-0,028
-265,511	245,452	0,019	0,023
-264,497	309,548	-0,101	0,139
-263,482	208,367	-0,064	0,073
-262,467	-200,000	0,028	0,173
-261,453	800,000	0,043	0,125
-260,438	152,864	-0,104	0,104
-259,424	-200,000	0,038	-0,128
-258,409	-200,000	0,017	-0,056
-257,395	435,792	0,050	0,080
-256,380	-64,700	0,062	-0,018
-255,365	273,013	0,087	-0,113
-254,351	223,040	0,041	-0,048
-253,336	199,925	-0,042	-0,048
-252,322	162,848	-0,037	-0,038
-251,307	18,494	-0,020	-0,012
-250,292	407,534	0,109	-0,168
-249,278	6,805	0,176	0,095
-248,263	-200,000	-0,004	0,023
-247,249	517,107	-0,033	0,057
-246,234	28,231	-0,110	-0,068
-245,219	230,903	0,031	-0,037
-244,205	11,999	-0,115	0,064
-243,190	-200,000	0,006	-0,039
-242,176	-156,517	0,153	0,007
-241,161	59,712	-0,007	0,005
-240,146	-75,285	0,173	0,045
-239,132	-44,798	-0,062	-0,022
-238,117	-50,291	0,038	-0,013
-237,103	-200,000	0,014	-0,079
-236,088	-200,000	-0,001	-0,049
-235,073	72,346	0,016	0,012
-234,059	0,291	0,105	-0,054
-233,044	-200,000	-0,026	-0,174
-232,030	800,000	0,005	-0,012
-231,015	-200,000	0,015	-0,156
-230,000	-191,250	-0,050	0,000
-228,986	-128,989	0,010	-0,001
-227,971	16,814	-0,032	-0,018
-226,957	800,000	-0,012	0,030
-225,942	-200,000	0,016	-0,063
-224,927	-58,954	0,021	0,007
-223,913	800,000	-0,033	-0,080
-222,898	-200,000	-0,005	0,138
-221,884	-129,785	0,140	-0,014
-220,869	233,349	0,078	0,093
-219,855	-106,831	-0,001	-0,000
-218,840	-200,000	-0,019	0,111
-217,825	-200,000	0,030	-0,149
-216,811	323,527	0,096	-0,134
-215,796	170,518	-0,057	-0,060
-214,782	800,000	-0,019	0,051
-213,767	800,000	-0,030	0,091
-212,752	12,833	0,074	-0,042
-211,738	160,385	0,076	-0,078
-210,723	242,236	0,094	0,115
-209,709	800,000	-0,012	-0,031
-208,694	109,554	-0,114	-0,099
-207,679	-200,000	0,039	-0,140
-206,665	245,463	-0,081	0,100
-205,650	-125,851	0,106	-0,012
-204,636	279,012	-0,035	0,046
-203,621	-39,019	0,063	0,024
-202,606	-135,421	-0,070	-0,006
-201,592	189,020	-0,085	-0,093
-200,577	157,816	0,031	-0,031
-199,563	-48,740	0,057	-0,020
-198,548	103,982	-0,084	-0,072
-197,533	-129,953	0,121	-0,012
-196,519	800,000	-0,039	0,091
-195,504	-200,000	0,008	0,037
-194,490	105,017	-0,083	-0,071
-193,475	575,185	-0,076	0,136
-192,460	-31,006	-0,061	0,025
-191,446	800,000	-0,027	0,061
-190,431	387,356	0,096	0,146
-189,417	-200,000	-0,004	-0,119
-188,402	457,313	-0,051	-0,082
-187,387	-113,505	-0,108	0,015
-186,373	-94,616	0,054	-0,011
-185,358	800,000	0,041	0,086
-184,344	49,644	-0,098	0,067
-183,329	800,000	0,015	-0,040
-182,315	36,344	0,165	0,106
-181,300	-200,000	0,022	0,073
-180,285	800,000	-0,028	-0,058
-179,271	-200,000	-0,058	-0,000
-178,256	119,743	-0,025	0,022
-177,242	-92,356	-0,104	0,021
-176,227	-200,000	0,010	0,038
-175,212	-158,151	0,048	-0,002
-174,198	-200,000	-0,017	-0,073
-173,183	781,570	-0,084	-0,168
-172,169	9,477	0,068	-0,037
-171,154	-200,000	-0,004	-0,051
-170,139	3,268	0,097	-0,051
-169,125	800,000	-0,017	0,044
-168,110	-137,595	-0,087	0,007
-167,096	-63,356	-0,131	0,039
-166,081	108,542	0,022	-0,019
-165,066	-188,562	0,070	-0,001
-164,052	38,971	0,044	-0,029
-163,037	800,000	-0,007	0,021
-162,023	478,633	-0,041	0,068
-161,008	-75,520	0,154	0,040
-159,993	-127,442	0,076	-0,008
-158,979	595,271	-0,016	0,029
-157,964	800,000	-0,055	0,130
-156,950	314,907	0,042	0,058
-155,935	-61,216	-0,102	0,031
-154,920	-200,000	-0,010	0,216
-153,906	-104,938	0,054	0,009
-152,891	-33,544	-0,117	0,047
-151,877	-200,000	0,027	0,123
-150,862	747,671	-0,085	-0,168
-149,847	-94,798	0,022	0,004
-148,833	304,710	0,073	-0,098
-147,818	8,636	0,142	-0,077
-146,804	-42,802	-0,110	0,040
-145,789	-200,000	-0,017	0,135
-144,775	-31,307	-0,113	0,046
-143,760	-200,000	0,002	-0,066
-142,745	-83,332	-0,081	0,019
-141,731	107,628	-0,068	-0,059
-140,716	342,582	-0,076	0,109
-139,702	2,837	-0,064	-0,034
-138,687	614,600	-0,011	0,019
-137,672	-111,571	-0,123	-0,018
-136,658	800,000	0,010	-0,026
-135,643	143,350	-0,046	0,044
-134,629	-143,899	0,063	-0,004
-133,614	-154,147	0,185	-0,009
-132,599	-200,000	-0,012	0,159
-131,585	-22,953	0,041	-0,018
-130,570	-200,000	-0,002	-0,027
-129,556	-200,000	0,015	-0,134
-128,541	-7,209	-0,138	-0,068
-127,526	800,000	0,046	0,112
-126,512	-132,863	0,194	-0,018
-125,497	-69,198	-0,058	0,016
-124,483	-165,797	0,171	-0,005
-123,468	-0,429	0,175	0,090
-122,453	688,816	0,044	-0,084
-121,439	-200,000	-0,025	0,119
-120,424	-200,000	-0,019	0,068
-119,410	130,031	0,062	-0,058
