DTS Sentinel unit serial number:	SN410029Multiplexer serial number:	ORYXHardware model number:	OX2-SRSoftware version number:	ORYX F/W v4,00 Oryx Data Collector v3.7.2.0data status	okinstallation	B4 Nyhavnadifferential loss correction	single-endedforward channel	channel 2reverse channel	N/Adate	2023/12/16time	01:35:13forward acquisition time	300,00reverse acquisition time	0,00gamma	499,1914k internal	0,3129k external	0,3129temperature offset calibration	1,0000default loss term (dB/km)	0,3820temperature slope calibration	1,0000multiplexer offset coefficient	1,0000multiplexer slope coefficient	1,0000fibre end	0,00T internal ref (°C)	21,92T ext. ref 1 (°C)	7,06T ext. ref 2 (°C)	7,23length (m)	temperature (°C)	Stokes	anti-Stokes-744,400	783,664	0,032	-0,065
-743,385	-166,185	-0,202	0,006
-742,371	-87,795	-0,086	-0,019
-741,356	-71,325	-0,173	0,048
-740,342	800,000	0,010	-0,030
-739,327	104,390	-0,195	0,171
-738,312	-14,186	0,157	-0,075
-737,298	-109,801	-0,294	-0,045
-736,283	-200,000	-0,001	-0,196
-735,269	104,644	-0,160	0,140
-734,254	92,709	0,062	0,052
-733,239	-150,951	-0,534	-0,029
-732,225	-200,000	0,013	-0,169
-731,210	-142,942	0,082	0,006
-730,196	301,626	-0,031	0,043
-729,181	170,859	-0,100	-0,107
-728,167	-73,242	-0,093	-0,025
-727,152	12,594	-0,044	0,025
-726,137	-32,164	-0,164	-0,068
-725,123	800,000	0,023	-0,062
-724,108	201,463	-0,061	-0,070
-723,094	-59,852	-0,031	-0,010
-722,079	-60,145	-0,131	-0,041
-721,064	800,000	-0,019	0,043
-720,050	-46,871	-0,057	-0,021
-719,035	-108,416	-0,134	-0,021
-718,021	-62,197	-0,122	-0,038
-717,006	186,976	-0,055	-0,061
-715,991	247,919	-0,101	-0,127
-714,977	-200,000	0,007	-0,046
-713,962	323,969	-0,102	-0,145
-712,948	-29,876	-0,073	-0,031
-711,933	-75,364	0,156	-0,041
-710,918	-200,000	-0,027	-0,100
-709,904	15,125	0,027	-0,015
-708,889	-200,000	-0,009	-0,096
-707,875	-200,000	-0,000	-0,064
-706,860	-54,402	-0,118	-0,039
-705,845	-59,658	-0,081	0,026
-704,831	-36,507	0,180	-0,072
-703,816	274,970	-0,013	-0,018
-702,802	-200,000	-0,009	-0,032
-701,787	800,000	0,060	-0,184
-700,772	-141,114	-0,046	-0,003
-699,758	208,895	-0,040	0,046
-698,743	-200,000	-0,023	0,095
-697,729	-181,033	-0,045	-0,001
-696,714	27,800	-0,067	-0,042
-695,699	201,108	0,039	-0,044
-694,685	-113,487	-0,093	0,013
-693,670	-200,000	0,008	0,120
-692,656	-200,000	0,034	0,117
-691,641	-24,767	0,131	0,057
-690,627	422,594	0,034	0,054
-689,612	-200,000	0,004	-0,105
-688,597	196,413	0,033	0,037
-687,583	800,000	0,053	-0,130
-686,568	161,051	-0,101	-0,105
-685,554	-200,000	-0,005	-0,177
-684,539	-200,000	0,017	-0,100
-683,524	37,628	0,108	0,071
-682,510	-2,603	0,049	-0,026
-681,495	388,986	0,014	-0,022
-680,481	-90,902	-0,119	-0,025
-679,466	-36,192	0,005	0,002
-678,451	540,782	-0,016	-0,029
-677,437	146,828	0,032	0,032
-676,422	800,000	0,054	0,125
-675,408	-98,943	-0,087	-0,016
-674,393	800,000	0,024	0,055
-673,378	-200,000	-0,005	-0,097
-672,364	-99,847	-0,033	-0,006
-671,349	-90,908	-0,059	-0,012
-670,335	81,623	0,032	-0,026
-669,320	363,221	-0,011	0,017
-668,305	214,174	-0,040	-0,048
-667,291	40,780	-0,144	-0,096
-666,276	141,392	-0,031	-0,031
-665,262	26,410	-0,066	-0,041
-664,247	800,000	-0,064	-0,148
-663,232	130,233	-0,131	-0,125
-662,218	800,000	0,043	0,089
-661,203	-88,876	-0,083	-0,018
-660,189	-200,000	0,005	-0,022
-659,174	800,000	-0,024	-0,068
-658,159	-200,000	-0,032	0,111
-657,145	641,642	0,040	-0,075
-656,130	34,928	-0,015	-0,010
-655,116	-111,606	-0,104	-0,015
-654,101	-200,000	0,013	0,100
-653,086	-200,000	-0,011	0,164
-652,072	-38,488	-0,140	-0,054
-651,057	234,165	-0,102	-0,124
-650,043	105,528	0,045	0,040
-649,028	395,528	0,035	0,055
-648,014	-200,000	0,006	0,107
-646,999	-200,000	0,001	0,028
-645,984	-200,000	0,024	-0,118
-644,970	73,887	0,020	-0,016
-643,955	21,349	-0,100	-0,060
-642,941	-174,518	-0,083	0,002
-641,926	800,000	-0,019	-0,059
-640,911	-69,524	0,101	0,028
-639,897	-200,000	0,018	0,184
-638,882	-200,000	-0,004	0,143
-637,868	247,753	0,101	0,127
-636,853	-188,356	-0,073	-0,001
-635,838	-200,000	-0,011	-0,049
-634,824	-65,309	-0,069	0,020
-633,809	201,886	-0,004	-0,004
-632,795	456,872	-0,066	-0,109
-631,780	161,399	-0,060	0,063
-630,765	-200,000	0,039	-0,128
-629,751	-200,000	-0,033	-0,124
-628,736	511,327	-0,035	-0,061
-627,722	-200,000	0,012	-0,112
-626,707	144,327	0,033	-0,033
-625,692	800,000	0,029	0,067
-624,678	800,000	0,019	-0,044
-623,663	203,765	-0,039	-0,044
-622,649	800,000	0,047	-0,120
-621,634	689,164	-0,033	0,065
-620,619	-70,447	-0,052	0,014
-619,605	200,377	-0,070	-0,080
-618,590	-141,462	-0,073	-0,005
-617,576	-157,763	0,095	-0,004
-616,561	800,000	0,028	0,078
-615,546	111,137	-0,018	-0,016
-614,532	800,000	-0,033	-0,074
-613,517	-40,962	0,078	-0,030
-612,503	173,837	0,024	-0,026
-611,488	-200,000	-0,011	0,086
-610,474	800,000	0,050	-0,109
-609,459	0,660	-0,050	-0,027
-608,444	-127,005	-0,134	-0,014
-607,430	800,000	-0,025	-0,071
-606,415	-200,000	-0,001	0,025
-605,401	513,817	0,070	0,121
-604,386	1,219	0,084	0,045
-603,371	-200,000	0,020	0,103
-602,357	-72,529	0,067	-0,018
-601,342	-200,000	0,014	-0,049
-600,328	609,305	-0,023	-0,043
-599,313	489,360	0,073	0,124
-598,298	-70,350	-0,109	-0,030
-597,284	-15,749	-0,029	-0,013
-596,269	-130,083	-0,100	-0,010
-595,255	800,000	0,052	0,161
-594,240	320,927	-0,182	-0,256
-593,225	-200,000	-0,018	-0,089
-592,211	28,420	-0,093	-0,058
-591,196	-200,000	0,013	0,082
-590,182	800,000	0,018	-0,043
-589,167	198,512	0,147	0,167
-588,152	800,000	-0,083	0,198
-587,138	309,781	-0,076	-0,105
-586,123	67,188	-0,171	-0,129
-585,109	800,000	0,038	-0,110
-584,094	238,168	0,056	-0,069
-583,079	-200,000	0,004	0,110
-582,065	406,006	-0,023	-0,037
-581,050	-121,626	0,224	-0,027
-580,036	209,954	-0,039	0,045
-579,021	-200,000	0,013	-0,079
-578,006	-36,577	-0,039	-0,015
-576,992	229,905	0,038	0,045
-575,977	-124,302	-0,098	-0,011
-574,963	-3,276	0,030	-0,015
-573,948	69,978	-0,099	-0,075
-572,934	145,386	0,041	-0,041
-571,919	-200,000	-0,008	-0,037
-570,904	800,000	-0,033	-0,089
-569,890	261,854	0,069	0,088
-568,875	232,613	0,048	-0,058
-567,861	113,941	-0,057	0,051
-566,846	68,615	-0,100	0,076
-565,831	-58,100	-0,085	0,027
-564,817	441,493	-0,070	0,113
-563,802	-200,000	-0,015	-0,077
-562,788	-200,000	-0,018	-0,136
-561,773	-200,000	-0,001	-0,011
-560,758	192,691	-0,052	-0,058
-559,744	-200,000	0,025	0,120
-558,729	118,459	-0,066	0,061
-557,715	-132,965	-0,081	-0,007
-556,700	454,003	-0,033	-0,054
-555,685	82,369	0,086	-0,069
-554,671	-110,228	-0,047	0,007
-553,656	325,666	0,049	-0,070
-552,642	302,062	0,049	0,067
-551,627	-200,000	-0,007	-0,027
-550,612	-200,000	-0,007	0,028
-549,598	-200,000	0,002	0,044
-548,583	625,845	-0,033	-0,062
-547,569	404,490	-0,051	-0,079
-546,554	71,950	0,078	0,059
-545,539	66,985	0,163	0,122
-544,525	32,116	0,087	-0,055
-543,510	441,035	-0,064	-0,103
-542,496	-90,287	-0,084	0,018
-541,481	89,758	-0,082	0,067
-540,466	-168,315	-0,220	0,006
-539,452	-122,876	0,101	0,012
-538,437	586,909	0,103	0,188
-537,423	211,851	0,075	0,088
-536,408	800,000	0,042	-0,108
-535,393	-118,018	-0,159	0,021
-534,379	545,408	-0,049	0,087
-533,364	608,376	-0,030	-0,055
-532,350	-26,129	0,066	-0,029
-531,335	36,887	0,085	-0,056
-530,321	216,652	0,034	0,040
-529,306	60,464	-0,061	0,045
-528,291	-200,000	0,016	-0,098
-527,277	-200,000	-0,010	-0,070
-526,262	92,840	0,016	-0,013
-525,248	348,613	0,025	0,036
-524,233	588,408	0,057	0,104
-523,218	100,198	0,109	0,094
-522,204	-131,611	0,122	0,012
-521,189	800,000	0,044	-0,097
-520,175	800,000	0,022	-0,049
-519,160	81,219	-0,068	0,054
-518,145	222,302	0,076	0,090
-517,131	113,914	0,078	0,070
-516,116	-155,205	0,069	-0,003
-515,102	261,765	-0,076	-0,097
-514,087	11,672	-0,011	-0,006
-513,072	222,189	-0,057	-0,068
-512,058	-200,000	0,035	-0,124
-511,043	541,204	-0,010	-0,018
-510,029	-53,184	-0,084	0,028
-509,014	-9,683	0,022	-0,011
-507,999	-200,000	0,003	0,012
-506,985	94,566	0,062	-0,052
-505,970	-92,301	-0,045	-0,009
-504,956	800,000	0,073	-0,188
-503,941	537,139	0,068	-0,119
-502,926	-21,333	0,131	0,059
-501,912	-200,000	0,026	0,136
-500,897	800,000	-0,030	0,079
-499,883	-200,000	-0,005	-0,039
-498,868	-200,000	-0,023	-0,112
-497,853	244,484	0,111	-0,137
-496,839	75,108	-0,043	0,034
-495,824	-40,414	-0,060	0,023
-494,810	-183,482	0,053	-0,001
-493,795	11,684	-0,185	0,104
-492,781	-62,249	0,055	-0,017
-491,766	-110,592	-0,220	-0,033
-490,751	-200,000	0,008	-0,075
-489,737	231,014	-0,079	-0,095
-488,722	-200,000	0,023	0,123
-487,708	0,385	-0,066	-0,035
-486,693	-200,000	-0,007	0,090
-485,678	280,485	-0,067	-0,089
-484,664	128,581	-0,029	-0,027
-483,649	-200,000	-0,024	-0,086
-482,635	-97,862	-0,017	0,003
-481,620	-200,000	-0,010	-0,049
-480,605	512,832	-0,056	0,096
-479,591	32,019	-0,066	0,042
-478,576	-41,189	-0,099	-0,037
-477,562	446,373	0,024	0,038
-476,547	-79,267	0,047	-0,012
-475,532	388,645	-0,024	0,037
-474,518	1,156	0,115	0,061
-473,503	-59,080	0,064	-0,020
-472,489	214,050	0,054	0,063
-471,474	-76,230	-0,086	0,022
-470,459	146,028	0,104	0,103
-469,445	482,483	-0,020	0,033
-468,430	-200,000	-0,029	-0,094
-467,416	-200,000	-0,004	0,022
-466,401	160,678	-0,073	0,075
-465,386	-200,000	-0,010	0,000
-464,372	-13,144	-0,133	0,063
-463,357	800,000	-0,050	0,136
-462,343	476,422	-0,058	0,096
-461,328	-54,042	-0,080	-0,027
-460,313	39,810	-0,027	0,018
-459,299	-97,578	0,101	0,019
-458,284	-145,499	0,045	0,003
-457,270	-200,000	0,005	0,067
-456,255	-105,015	-0,098	-0,016
-455,241	-146,066	-0,110	-0,007
-454,226	800,000	0,019	-0,057
-453,211	65,693	0,058	0,043
-452,197	60,593	-0,081	-0,059
-451,182	-110,774	0,178	-0,027
-450,168	-200,000	0,005	-0,051
-449,153	180,118	0,010	0,010
-448,138	800,000	-0,057	-0,124
-447,124	-150,752	0,106	-0,006
-446,109	-200,000	0,021	0,093
-445,095	-200,000	-0,011	0,055
-444,080	-200,000	0,001	-0,016
-443,065	188,578	0,117	-0,129
-442,051	-200,000	-0,011	0,053
-441,036	-70,594	-0,056	-0,015
-440,022	-17,324	-0,098	-0,045
-439,007	-91,621	0,156	-0,032
-437,992	550,040	0,053	-0,093
-436,978	349,266	0,023	0,033
-435,963	-200,000	0,024	0,179
-434,949	285,198	-0,060	-0,080
-433,934	-21,999	-0,125	-0,055
-432,919	800,000	-0,032	0,065
-431,905	-200,000	0,008	-0,029
-430,890	-149,727	0,042	-0,002
-429,876	250,920	0,073	-0,091
-428,861	-106,132	0,057	0,009
-427,846	92,254	-0,113	0,094
-426,832	-200,000	-0,005	0,063
-425,817	197,360	-0,138	-0,155
-424,803	18,329	-0,035	-0,021
-423,788	15,623	0,144	0,083
-422,773	92,909	0,098	0,081
-421,759	800,000	-0,022	0,046
-420,744	800,000	-0,030	0,068
-419,730	143,579	0,070	0,069
-418,715	152,252	-0,157	-0,157
-417,701	-3,797	-0,091	0,046
-416,686	-61,542	0,027	0,008
-415,671	-0,019	0,076	0,040
-414,657	313,738	0,044	0,061
-413,642	132,885	-0,085	0,081
-412,628	701,591	-0,035	-0,068
-411,613	-200,000	0,005	0,051
-410,598	17,879	-0,085	0,050
-409,584	-133,136	0,079	-0,007
-408,569	-200,000	0,001	0,011
-407,555	800,000	0,063	-0,155
-406,540	64,283	0,106	0,078
-405,525	-200,000	-0,008	-0,091
-404,511	-88,295	-0,085	-0,019
-403,496	42,917	-0,048	-0,032
-402,482	88,332	0,031	0,025
-401,467	212,234	0,063	0,074
-400,452	-200,000	-0,026	0,160
-399,438	-63,670	0,075	0,023
-398,423	800,000	0,030	-0,076
-397,409	-200,000	-0,010	-0,035
-396,394	-200,000	0,004	0,069
-395,379	315,136	0,046	-0,064
-394,365	-126,815	0,267	0,029
-393,350	-200,000	0,026	-0,170
-392,336	282,680	0,023	0,031
-391,321	277,125	0,029	-0,038
-390,306	-15,514	-0,124	-0,058
-389,292	31,267	0,080	-0,050
-388,277	-200,000	0,005	-0,139
-387,263	800,000	-0,066	0,162
-386,248	-127,995	0,182	0,019
-385,233	457,654	0,017	-0,029
-384,219	599,811	-0,081	-0,148
-383,204	800,000	-0,019	0,055
-382,190	596,605	-0,045	-0,082
-381,175	145,104	0,069	0,068
-380,160	-50,371	0,046	-0,016
-379,146	2,252	0,054	-0,029
-378,131	-61,105	-0,013	0,004
-377,117	-40,813	0,046	-0,017
-376,102	89,185	0,124	-0,101
-375,088	-200,000	0,017	-0,081
-374,073	472,890	-0,025	-0,042
-373,058	-43,407	0,028	0,010
-372,044	7,589	0,065	0,036
-371,029	101,457	-0,049	0,042
-370,015	-200,000	0,027	0,122
-369,000	57,441	-0,083	0,060
-367,985	-17,457	0,082	0,037
-366,971	57,698	0,015	-0,011
-365,956	-94,585	-0,054	-0,011
-364,942	186,976	0,083	0,091
-363,927	54,986	0,142	-0,101
-362,912	-8,422	-0,102	0,050
-361,898	-89,159	0,057	-0,012
-360,883	800,000	0,037	-0,093
-359,869	180,570	-0,064	-0,069
-358,854	-13,156	-0,024	-0,011
-357,839	800,000	-0,047	0,122
-356,825	-99,989	0,102	0,018
-355,810	564,902	-0,052	-0,093
-354,796	120,161	-0,094	0,085
-353,781	-161,341	-0,073	-0,003
-352,766	-71,333	-0,077	0,021
-351,752	16,086	-0,100	0,058
-350,737	-200,000	-0,007	-0,109
-349,723	490,435	0,052	-0,088
-348,708	-162,387	0,027	0,001
-347,693	800,000	-0,058	-0,124
-346,679	104,004	-0,042	0,036
-345,664	800,000	-0,038	0,111
-344,650	148,568	0,161	0,159
-343,635	-65,832	-0,049	-0,014
-342,620	13,650	0,051	0,029
-341,606	-100,362	-0,029	0,005
-340,591	-200,000	0,000	-0,034
-339,577	-32,071	0,088	0,036
-338,562	90,496	0,032	0,026
-337,548	-4,011	0,044	0,022
-336,533	-127,891	0,079	-0,008
-335,518	308,935	0,076	-0,105
-334,504	265,563	0,054	-0,069
-333,489	-200,000	0,006	0,054
-332,475	-93,260	-0,094	0,019
-331,460	213,115	-0,038	0,044
-330,445	-15,091	0,052	0,024
-329,431	-200,000	0,014	0,126
-328,416	653,887	0,058	0,109
-327,402	-200,000	-0,001	0,072
-326,387	90,751	-0,049	-0,040
-325,372	-48,399	-0,101	0,035
-324,358	61,848	-0,093	0,067
-323,343	-200,000	0,002	0,064
-322,329	458,354	0,053	0,087
-321,314	405,761	0,071	0,109
-320,299	-200,000	0,020	0,074
-319,285	-47,169	-0,049	-0,017
-318,270	800,000	0,041	0,096
-317,256	153,938	-0,078	-0,078
-316,241	800,000	0,017	-0,054
-315,226	-200,000	0,009	-0,082
-314,212	200,419	0,134	0,151
-313,197	-200,000	-0,028	0,093
-312,183	-200,000	0,022	-0,199
-311,168	12,615	-0,063	-0,036
-310,153	-26,672	-0,074	-0,032
-309,139	800,000	0,001	0,004
-308,124	800,000	-0,008	-0,022
-307,110	-200,000	-0,018	-0,092
-306,095	16,374	-0,041	0,023
-305,080	41,476	0,099	0,065
-304,066	-200,000	-0,001	-0,038
-303,051	107,712	-0,049	-0,043
-302,037	108,321	0,064	0,056
-301,022	800,000	-0,057	0,177
-300,008	-62,185	-0,026	0,008
-298,993	800,000	0,036	0,082
-297,978	-94,306	0,246	0,049
-296,964	-120,230	-0,059	0,007
-295,949	-200,000	-0,010	0,101
-294,935	800,000	0,019	0,041
-293,920	-151,577	-0,016	0,001
-292,905	-200,000	0,013	-0,046
-291,891	170,067	-0,128	0,134
-290,876	87,194	0,148	-0,120
-289,862	800,000	0,029	-0,089
-288,847	-63,454	0,086	0,026
-287,832	-36,405	0,035	0,014
-286,818	-129,355	0,124	0,012
-285,803	-20,829	-0,101	0,045
-284,789	800,000	0,041	0,105
-283,774	-84,704	-0,021	-0,005
-282,759	-42,813	0,045	-0,017
-281,745	-200,000	0,000	-0,143
-280,730	-49,488	-0,046	0,016
-279,716	-200,000	-0,011	-0,073
-278,701	800,000	0,054	0,128
-277,686	-200,000	0,000	0,077
-276,672	15,392	-0,063	-0,036
-275,657	-200,000	0,002	-0,160
-274,643	199,530	-0,139	-0,156
-273,628	-78,699	0,178	-0,044
-272,613	800,000	-0,027	-0,060
-271,599	152,921	-0,102	-0,102
-270,584	-131,098	0,144	0,014
-269,570	348,277	0,012	0,017
-268,555	156,871	-0,084	-0,085
-267,540	-79,442	-0,128	-0,031
-266,526	251,798	-0,051	-0,063
-265,511	-200,000	-0,009	0,083
-264,497	-200,000	0,022	-0,083
-263,482	36,598	0,134	0,086
-262,467	-164,570	0,073	0,002
-261,453	-55,247	-0,082	-0,027
-260,438	36,289	-0,101	-0,065
-259,424	367,435	0,029	0,043
-258,409	290,538	0,039	-0,052
-257,395	800,000	-0,025	0,067
-256,380	346,527	-0,060	0,087
-255,365	-200,000	0,028	0,161
-254,351	-172,478	0,058	-0,001
-253,336	-200,000	0,007	-0,051
-252,322	57,165	-0,166	-0,118
-251,307	75,750	-0,041	-0,032
-250,292	-200,000	-0,017	0,177
-249,278	-67,595	0,099	-0,028
-248,263	312,888	-0,023	-0,032
-247,249	99,590	0,043	-0,037
-246,234	-200,000	-0,002	0,057
-245,219	95,594	-0,165	0,137
-244,205	137,675	0,095	0,091
-243,190	4,075	-0,080	-0,042
-242,176	14,914	0,152	0,087
-241,161	-200,000	-0,004	0,075
-240,146	-88,157	-0,114	0,025
-239,132	800,000	0,016	0,052
-238,117	153,049	-0,078	-0,078
-237,103	800,000	0,067	-0,164
-236,088	690,193	-0,056	-0,107
-235,073	800,000	0,037	-0,076
-234,059	-37,985	0,057	-0,022
-233,044	-200,000	0,011	0,038
-232,030	406,041	-0,025	-0,039
-231,015	31,573	-0,052	0,033
-230,000	-200,000	0,016	0,125
-228,986	525,394	0,044	-0,076
-227,971	590,709	0,081	0,146
-226,957	182,483	0,100	0,107
-225,942	235,337	0,067	-0,081
-224,927	-200,000	-0,010	-0,091
-223,913	-53,204	-0,152	0,051
-222,898	-81,858	0,073	0,017
-221,884	-43,774	-0,049	0,018
-220,869	-128,050	0,043	0,004
-219,855	-101,330	0,123	-0,022
-218,840	-198,952	-0,053	0,000
-217,825	226,567	-0,029	0,034
-216,811	110,115	-0,118	0,103
-215,796	246,425	-0,033	-0,040
-214,782	167,519	-0,069	0,071
-213,767	-81,752	-0,050	-0,012
-212,752	800,000	-0,008	-0,021
-211,738	800,000	-0,014	0,028
-210,723	-200,000	0,011	0,060
-209,709	800,000	0,030	-0,081
-208,694	-200,000	-0,012	-0,065
-207,679	390,746	-0,056	-0,086
-206,665	422,428	-0,047	0,074
-205,650	-19,131	0,056	0,025
-204,636	-91,954	0,112	0,023
-203,621	-200,000	-0,002	0,029
-202,606	229,598	-0,050	0,060
-201,592	-115,751	-0,051	-0,007
-200,577	-200,000	0,015	-0,066
-199,563	515,452	-0,061	-0,105
-198,548	800,000	-0,027	0,069
-197,533	524,037	0,108	-0,186
-196,519	262,116	0,041	-0,051
-195,504	173,021	-0,098	-0,103
-194,490	-94,775	-0,052	-0,010
-193,475	-69,171	-0,051	-0,014
-192,460	36,250	0,143	0,092
-191,446	15,666	0,128	0,073
-190,431	609,504	-0,013	-0,024
-189,417	128,435	0,077	0,072
-188,402	-200,000	0,019	0,063
-187,387	-200,000	-0,019	0,068
-186,373	20,932	0,173	-0,102
-185,358	800,000	0,025	-0,053
-184,344	-146,680	0,047	0,003
-183,329	-52,669	-0,108	-0,036
-182,315	-63,042	0,068	0,020
-181,300	-101,028	-0,042	-0,007
-180,285	-16,276	-0,160	-0,074
-179,271	5,673	-0,080	-0,043
-178,256	-10,077	0,088	0,042
-177,242	-101,878	-0,038	0,007
-176,227	-125,269	0,074	-0,008
-175,212	800,000	-0,020	-0,048
-174,198	-68,204	-0,134	-0,038
-173,183	139,213	-0,072	-0,068
-172,169	143,669	-0,049	-0,047
-171,154	-200,000	-0,024	-0,104
-170,139	-98,921	0,058	-0,011
-169,125	104,033	-0,035	-0,030
-168,110	37,951	0,079	0,051
-167,096	800,000	-0,044	0,134
-166,081	800,000	-0,003	-0,009
-165,066	245,095	0,066	0,080
-164,052	18,916	0,064	-0,037
-163,037	-123,314	-0,085	0,010
-162,023	12,078	0,059	0,033
-161,008	-200,000	0,008	0,091
-159,993	78,650	0,064	-0,050
-158,979	-200,000	-0,042	-0,145
-157,964	-200,000	-0,033	-0,127
-156,950	105,699	0,066	0,057
-155,935	-200,000	-0,014	0,131
-154,920	146,120	-0,051	0,050
-153,906	800,000	0,019	0,042
-152,891	-200,000	-0,005	-0,059
-151,877	800,000	-0,062	-0,125
-150,862	-200,000	0,028	-0,125
-149,847	800,000	0,051	-0,127
-148,833	-200,000	0,000	-0,060
-147,818	-103,957	0,145	-0,024
-146,804	-200,000	-0,034	0,134
-145,789	-200,000	-0,010	-0,050
-144,775	-172,695	-0,049	-0,001
-143,760	108,064	0,019	-0,016
-142,745	-80,655	-0,126	0,030
-141,731	-61,016	0,087	-0,026
-140,716	-200,000	-0,008	-0,055
-139,702	-119,838	0,205	0,025
-138,687	-69,577	-0,073	-0,020
-137,672	-200,000	0,004	0,075
-136,658	16,653	-0,065	-0,037
-135,643	-100,562	-0,058	-0,010
-134,629	-114,195	0,008	-0,001
-133,614	129,206	0,083	-0,077
-132,599	777,995	0,039	0,078
-131,585	-49,758	0,055	0,019
-130,570	583,436	-0,104	0,186
-129,556	-200,000	0,011	-0,126
-128,541	12,527	-0,033	-0,018
-127,526	24,017	0,068	0,040
-126,512	-123,989	0,048	-0,005
-125,497	-200,000	-0,043	-0,145
-124,483	23,756	0,056	0,033
-123,468	225,103	0,039	0,046
-122,453	800,000	-0,035	0,101
-121,439	-128,151	0,045	0,005
-120,424	-200,000	-0,030	-0,185
