DTS Sentinel unit serial number:	SN410029Multiplexer serial number:	ORYXHardware model number:	OX2-SRSoftware version number:	ORYX F/W v4,00 Oryx Data Collector v3.7.2.0data status	okinstallation	B4 Nyhavnadifferential loss correction	single-endedforward channel	channel 2reverse channel	N/Adate	2023/12/19time	01:40:13forward acquisition time	300,00reverse acquisition time	0,00gamma	499,1914k internal	0,3124k external	0,3124temperature offset calibration	1,0000default loss term (dB/km)	0,3820temperature slope calibration	1,0000multiplexer offset coefficient	1,0000multiplexer slope coefficient	1,0000fibre end	0,00T internal ref (°C)	21,55T ext. ref 1 (°C)	6,01T ext. ref 2 (°C)	6,10length (m)	temperature (°C)	Stokes	anti-Stokes-744,400	268,802	0,125	-0,163
-743,385	12,455	-0,155	0,089
-742,371	273,164	0,070	0,092
-741,356	-91,121	-0,239	0,051
-740,342	-160,392	-0,120	0,005
-739,327	17,820	-0,199	0,117
-738,312	-8,674	0,120	-0,060
-737,298	5,063	-0,270	0,148
-736,283	-12,638	0,032	0,015
-735,269	-17,087	-0,186	0,087
-734,254	257,293	0,113	-0,145
-733,239	-72,072	-0,394	-0,108
-732,225	-90,848	0,213	-0,045
-731,210	336,405	-0,067	0,097
-730,196	39,903	-0,063	-0,042
-729,181	800,000	-0,009	0,020
-728,167	-200,000	-0,000	-0,068
-727,152	-45,631	-0,042	0,015
-726,137	-147,119	-0,053	0,003
-725,123	-200,000	-0,012	-0,090
-724,108	-66,953	-0,114	-0,033
-723,094	-200,000	-0,012	-0,159
-722,079	524,602	-0,131	-0,231
-721,064	144,010	-0,043	-0,042
-720,050	-128,619	-0,110	-0,011
-719,035	100,004	-0,010	0,009
-718,021	-30,840	-0,044	0,018
-717,006	597,692	0,007	-0,013
-715,991	-54,476	-0,047	-0,016
-714,977	-200,000	0,007	-0,172
-713,962	-40,090	-0,063	-0,024
-712,948	237,312	0,061	0,075
-711,933	-149,861	0,056	0,003
-710,918	687,843	0,076	-0,149
-709,904	-34,183	-0,140	0,057
-708,889	738,402	0,056	-0,113
-707,875	-69,958	-0,189	-0,053
-706,860	120,337	0,053	-0,049
-705,845	-200,000	-0,002	0,006
-704,831	-200,000	0,003	-0,009
-703,816	78,904	0,041	0,033
-702,802	308,924	-0,074	0,103
-701,787	447,581	0,016	-0,026
-700,772	800,000	0,060	-0,162
-699,758	-9,216	0,078	0,039
-698,743	588,035	0,001	0,003
-697,729	-65,173	0,098	-0,029
-696,714	-93,513	-0,110	0,022
-695,699	-200,000	-0,016	0,066
-694,685	-200,000	-0,002	0,014
-693,670	124,826	-0,108	0,101
-692,656	800,000	0,039	0,108
-691,641	-110,721	-0,141	0,021
-690,627	84,782	0,060	-0,049
-689,612	461,795	-0,055	0,091
-688,597	644,747	-0,057	-0,109
-687,583	238,685	0,061	-0,076
-686,568	466,719	-0,025	-0,042
-685,554	-200,000	0,010	-0,112
-684,539	15,571	0,087	-0,050
-683,524	-45,830	0,094	0,034
-682,510	33,809	-0,045	0,029
-681,495	-18,084	0,046	-0,021
-680,481	-132,939	0,035	0,003
-679,466	-70,608	0,057	-0,016
-678,451	333,101	-0,050	-0,073
-677,437	-67,951	-0,064	-0,018
-676,422	-50,217	-0,046	-0,016
-675,408	-181,907	0,101	0,001
-674,393	424,391	-0,013	0,021
-673,378	-33,114	-0,112	0,046
-672,364	102,137	-0,147	-0,127
-671,349	-200,000	0,019	0,071
-670,335	124,919	0,100	-0,094
-669,320	26,068	-0,024	-0,015
-668,305	356,348	0,051	0,076
-667,291	-172,738	0,018	0,000
-666,276	-200,000	0,000	-0,062
-665,262	-200,000	0,002	-0,040
-664,247	610,080	0,021	0,039
-663,232	-7,066	0,155	-0,078
-662,218	29,066	0,095	-0,059
-661,203	2,929	0,078	0,042
-660,189	-200,000	0,025	-0,119
-659,174	415,041	-0,027	-0,044
-658,159	55,147	-0,051	-0,037
-657,145	-200,000	-0,014	0,112
-656,130	-51,611	-0,083	-0,029
-655,116	589,081	-0,073	0,133
-654,101	-85,071	-0,097	0,022
-653,086	-32,476	-0,046	-0,019
-652,072	-200,000	0,021	-0,106
-651,057	8,323	-0,047	-0,026
-650,043	103,357	-0,091	-0,080
-649,028	800,000	0,059	-0,142
-648,014	800,000	-0,027	-0,062
-646,999	16,416	0,045	-0,026
-645,984	-200,000	0,038	0,133
-644,970	800,000	0,008	-0,020
-643,955	295,171	-0,063	-0,086
-642,941	109,348	-0,065	-0,058
-641,926	-28,547	0,141	0,060
-640,911	-120,948	0,115	-0,014
-639,897	-200,000	0,032	0,117
-638,882	59,260	-0,012	-0,009
-637,868	44,465	0,061	-0,041
-636,853	-200,000	0,009	-0,235
-635,838	-93,817	-0,137	-0,028
-634,824	800,000	-0,069	-0,149
-633,809	-63,455	0,034	-0,010
-632,795	-50,206	0,099	0,035
-631,780	800,000	0,038	-0,088
-630,765	388,862	0,052	-0,081
-629,751	-19,233	0,063	0,029
-628,736	646,896	0,099	-0,189
-627,722	525,836	0,047	-0,083
-626,707	-170,827	0,131	-0,003
-625,692	412,915	-0,050	-0,080
-624,678	409,251	-0,086	0,136
-623,663	-200,000	-0,009	0,053
-622,649	-26,967	-0,149	0,064
-621,634	186,837	-0,086	-0,095
-620,619	0,430	-0,078	-0,041
-619,605	-200,000	-0,000	-0,116
-618,590	800,000	0,056	0,163
-617,576	165,990	-0,062	0,065
-616,561	333,347	0,014	0,019
-615,546	-127,438	-0,128	0,014
-614,532	597,892	0,089	-0,164
-613,517	22,525	-0,054	0,033
-612,503	114,630	-0,050	0,046
-611,488	67,859	0,070	0,053
-610,474	158,024	-0,053	0,055
-609,459	-200,000	-0,026	0,116
-608,444	604,853	-0,066	-0,123
-607,430	-55,300	0,132	-0,044
-606,415	155,461	-0,030	0,031
-605,401	-123,891	0,150	-0,017
-604,386	147,871	-0,025	0,025
-603,371	39,130	0,068	-0,045
-602,357	-141,157	0,089	-0,007
-601,342	-200,000	0,005	-0,046
-600,328	-103,749	-0,106	0,018
-599,313	-200,000	0,042	-0,179
-598,298	-101,096	-0,074	-0,013
-597,284	800,000	0,026	-0,078
-596,269	-200,000	-0,026	0,085
-595,255	-200,000	-0,017	0,107
-594,240	216,529	-0,072	-0,085
-593,225	-200,000	0,092	-0,000
-592,211	471,952	-0,055	-0,091
-591,196	-114,618	0,059	0,008
-590,182	800,000	-0,007	0,020
-589,167	-179,856	-0,060	-0,001
-588,152	219,780	-0,029	0,034
-587,138	-22,488	-0,107	-0,048
-586,123	-200,000	0,012	-0,040
-585,109	-200,000	-0,015	-0,055
-584,094	36,582	0,081	0,053
-583,079	800,000	-0,029	0,086
-582,065	800,000	-0,032	0,067
-581,050	60,055	-0,039	0,028
-580,036	-174,072	-0,152	0,003
-579,021	405,723	-0,053	0,083
-578,006	285,337	-0,069	-0,093
-576,992	-200,000	0,007	0,028
-575,977	424,853	-0,028	-0,045
-574,963	-91,968	0,065	0,014
-573,948	299,915	0,043	-0,058
-572,934	219,786	-0,058	0,068
-571,919	-13,747	-0,111	0,053
-570,904	-138,181	0,084	-0,007
-569,890	-164,989	-0,114	-0,004
-568,875	-200,000	-0,001	-0,085
-567,861	438,478	-0,069	-0,112
-566,846	199,525	-0,025	-0,028
-565,831	-62,947	-0,003	0,001
-564,817	160,916	0,047	-0,048
-563,802	800,000	-0,074	-0,222
-562,788	800,000	-0,038	-0,082
-561,773	94,392	0,099	-0,083
-560,758	451,718	0,078	0,128
-559,744	-200,000	0,004	0,100
-558,729	317,526	0,057	0,080
-557,715	-200,000	0,012	-0,101
-556,700	-97,731	-0,147	-0,028
-555,685	40,486	-0,074	-0,049
-554,671	-111,854	-0,100	-0,015
-553,656	34,328	-0,118	0,076
-552,642	-95,170	0,021	-0,004
-551,627	45,846	0,036	-0,024
-550,612	-3,922	0,017	-0,009
-549,598	-200,000	-0,007	0,046
-548,583	-200,000	-0,023	0,089
-547,569	-49,555	0,118	-0,041
-546,554	-129,708	-0,034	0,003
-545,539	-116,604	-0,041	-0,006
-544,525	-200,000	-0,011	-0,039
-543,510	-137,473	-0,110	-0,009
-542,496	-200,000	0,032	-0,115
-541,481	617,074	-0,041	0,076
-540,466	-46,964	-0,122	-0,044
-539,452	-200,000	-0,006	-0,132
-538,437	113,438	-0,046	0,041
-537,423	-154,672	0,179	-0,009
-536,408	800,000	-0,072	-0,193
-535,393	800,000	-0,017	0,047
-534,379	396,827	0,062	-0,095
-533,364	-200,000	-0,009	-0,060
-532,350	-67,792	-0,179	0,051
-531,335	363,412	-0,049	-0,073
-530,321	800,000	0,024	0,062
-529,306	-200,000	0,025	0,089
-528,291	-200,000	0,014	-0,184
-527,277	-200,000	-0,013	0,046
-526,262	-92,345	-0,097	-0,020
-525,248	-200,000	-0,023	-0,095
-524,233	-200,000	0,016	0,212
-523,218	-200,000	0,021	0,096
-522,204	-200,000	-0,012	0,076
-521,189	-73,083	0,109	0,029
-520,175	800,000	0,042	-0,096
-519,160	-200,000	-0,038	-0,127
-518,145	-200,000	-0,022	-0,115
-517,131	232,558	0,078	0,095
-516,116	-93,783	-0,219	0,044
-515,102	-99,298	0,122	-0,022
-514,087	243,019	0,024	-0,030
-513,072	133,077	0,026	-0,025
-512,058	89,702	0,051	0,042
-511,043	22,718	-0,101	0,061
-510,029	-183,846	0,077	-0,001
-509,014	77,143	0,087	0,068
-507,999	150,383	-0,036	0,036
-506,985	-89,446	0,095	0,020
-505,970	-18,288	0,031	-0,014
-504,956	800,000	-0,046	-0,119
-503,941	289,412	-0,032	0,043
-502,926	665,702	-0,034	-0,065
-501,912	355,683	0,085	0,126
-500,897	554,105	-0,046	0,081
-499,883	-47,078	-0,072	0,026
-498,868	66,129	-0,085	-0,063
-497,853	-9,942	-0,039	-0,019
-496,839	-0,745	-0,075	0,039
-495,824	800,000	0,039	0,119
-494,810	-200,000	-0,011	-0,039
-493,795	-200,000	0,006	0,110
-492,781	800,000	-0,032	0,084
-491,766	-200,000	-0,012	-0,074
-490,751	-99,995	0,058	-0,011
-489,737	751,823	-0,069	-0,139
-488,722	363,739	-0,026	0,039
-487,708	-62,568	0,118	-0,036
-486,693	436,288	0,018	-0,029
-485,678	320,857	0,155	-0,217
-484,664	504,317	-0,088	0,151
-483,649	-60,711	-0,113	0,035
-482,635	72,618	0,113	-0,087
-481,620	-200,000	-0,010	-0,036
-480,605	166,837	-0,071	-0,075
-479,591	246,379	-0,053	0,066
-478,576	800,000	-0,034	0,080
-477,562	658,231	0,029	-0,056
-476,547	-7,488	0,038	-0,019
-475,532	-88,640	-0,053	-0,012
-474,518	423,903	0,041	-0,066
-473,503	309,933	0,082	-0,113
-472,489	-90,231	0,107	0,023
-471,474	-161,901	-0,089	0,003
-470,459	88,332	-0,103	0,084
-469,445	-109,122	-0,150	0,023
-468,430	-57,936	-0,012	-0,004
-467,416	39,585	-0,034	0,022
-466,401	620,674	0,060	-0,112
-465,386	-200,000	-0,020	0,107
-464,372	-200,000	-0,002	-0,035
-463,357	5,271	0,096	-0,052
-462,343	-92,339	-0,113	0,023
-461,328	67,873	-0,075	-0,056
-460,313	51,064	-0,119	0,083
-459,299	196,364	-0,053	0,060
-458,284	-200,000	0,005	-0,050
-457,270	-132,125	-0,090	0,008
-456,255	-124,788	-0,060	0,007
-455,241	800,000	-0,027	-0,069
-454,226	800,000	-0,021	0,047
-453,211	-200,000	0,040	0,198
-452,197	-200,000	-0,002	0,095
-451,182	-200,000	-0,045	0,170
-450,168	110,345	-0,050	-0,044
-449,153	215,622	-0,112	-0,131
-448,138	-64,691	-0,117	-0,035
-447,124	800,000	-0,050	-0,124
-446,109	-192,112	0,175	-0,001
-445,095	-26,653	0,085	-0,036
-444,080	177,931	0,071	0,077
-443,065	-70,224	0,144	-0,040
-442,051	-136,029	-0,097	0,008
-441,036	-200,000	-0,021	-0,092
-440,022	-200,000	0,018	-0,110
-439,007	800,000	0,051	-0,142
-437,992	-200,000	0,050	-0,000
-436,978	-200,000	0,032	0,133
-435,963	-32,576	-0,109	0,045
-434,949	343,623	-0,058	-0,083
-433,934	-31,894	0,080	0,033
-432,919	89,655	0,072	-0,059
-431,905	778,434	0,034	-0,068
-430,890	0,460	0,104	-0,054
-429,876	307,876	-0,095	0,131
-428,861	-37,706	0,048	0,019
-427,846	800,000	-0,010	0,031
-426,832	800,000	-0,023	0,059
-425,817	-81,142	0,106	-0,025
-424,803	-27,323	0,041	-0,017
-423,788	479,916	-0,031	-0,052
-422,773	200,260	0,007	0,008
-421,759	-200,000	0,010	0,038
-420,744	-200,000	0,008	0,061
-419,730	800,000	0,024	-0,053
-418,715	-200,000	0,004	-0,094
-417,701	-95,389	-0,008	0,002
-416,686	205,280	0,039	-0,044
-415,671	42,982	0,072	-0,048
-414,657	-126,473	0,116	-0,012
-413,642	-200,000	-0,006	0,053
-412,628	117,792	0,059	-0,053
-411,613	-68,642	-0,036	0,010
-410,598	800,000	0,018	-0,038
-409,584	-34,824	0,101	-0,040
-408,569	-30,455	0,119	0,049
-407,555	800,000	0,016	-0,036
-406,540	61,470	0,064	0,047
-405,525	-89,195	0,194	0,042
-404,511	738,431	-0,054	-0,107
-403,496	223,630	0,033	-0,039
-402,482	-8,905	-0,135	0,066
-401,467	297,044	-0,074	0,100
-400,452	-200,000	0,031	0,136
-399,438	-200,000	0,028	-0,103
-398,423	-200,000	-0,001	-0,063
-397,409	-200,000	0,048	-0,175
-396,394	-200,000	-0,019	-0,080
-395,379	141,526	0,029	-0,028
-394,365	270,273	0,076	0,098
-393,350	557,510	0,066	0,118
-392,336	-65,419	0,060	0,018
-391,321	-97,970	-0,159	0,030
-390,306	-200,000	-0,005	-0,084
-389,292	77,708	-0,089	-0,069
-388,277	232,067	-0,037	0,045
-387,263	-200,000	-0,032	-0,166
-386,248	-200,000	-0,003	0,032
-385,233	800,000	0,052	0,138
-384,219	-200,000	0,005	-0,055
-383,204	194,490	-0,026	0,029
-382,190	-200,000	0,012	-0,084
-381,175	36,942	0,095	-0,062
-380,160	31,030	0,135	-0,085
-379,146	-200,000	0,019	0,099
-378,131	-200,000	0,018	0,116
-377,117	406,628	0,047	0,074
-376,102	800,000	0,083	-0,174
-375,088	522,655	-0,018	0,031
-374,073	-157,659	-0,172	-0,007
-373,058	-200,000	0,022	0,102
-372,044	-48,480	0,148	0,052
-371,029	-200,000	0,019	-0,132
-370,015	-43,246	-0,127	0,047
-369,000	75,842	-0,117	0,091
-367,985	-67,229	0,124	-0,036
-366,971	800,000	0,033	-0,104
-365,956	69,958	-0,026	0,019
-364,942	-127,713	0,142	0,015
-363,927	421,807	0,068	0,107
-362,912	-200,000	0,022	0,092
-361,898	-200,000	-0,016	-0,060
-360,883	-136,911	0,124	-0,010
-359,869	27,570	0,069	0,043
-358,854	63,329	0,098	0,072
-357,839	-34,949	0,110	0,044
-356,825	663,903	0,109	0,207
-355,810	-200,000	0,035	0,178
-354,796	-194,858	-0,081	-0,000
-353,781	-26,983	-0,105	-0,045
-352,766	-200,000	-0,015	0,184
-351,752	-140,723	-0,236	0,018
-350,737	-200,000	0,012	0,117
-349,723	281,315	-0,057	0,075
-348,708	34,790	0,053	-0,034
-347,693	-200,000	0,013	-0,139
-346,679	-200,000	0,020	0,096
-345,664	456,995	-0,041	-0,068
-344,650	-60,035	0,026	-0,008
-343,635	-177,204	-0,056	0,001
-342,620	-200,000	0,011	0,126
-341,606	63,217	-0,111	0,082
-340,591	221,958	-0,023	-0,028
-339,577	738,921	-0,023	-0,046
-338,562	125,061	-0,074	0,069
-337,548	84,232	-0,064	0,051
-336,533	16,215	-0,071	0,041
-335,518	273,953	0,066	0,085
-334,504	12,131	-0,040	0,023
-333,489	800,000	-0,012	-0,027
-332,475	-23,125	-0,093	0,041
-331,460	221,110	-0,136	-0,160
-330,445	-200,000	-0,041	-0,170
-329,431	-200,000	-0,029	0,144
-328,416	208,727	-0,073	0,084
-327,402	-200,000	-0,006	0,147
-326,387	800,000	-0,034	0,077
-325,372	364,957	0,038	-0,057
-324,358	-200,000	0,014	0,056
-323,343	-110,479	0,094	0,014
-322,329	10,673	0,099	0,055
-321,314	800,000	0,050	0,126
-320,299	-73,352	-0,006	0,002
-319,285	-200,000	-0,009	-0,035
-318,270	-123,507	0,050	0,006
-317,256	-200,000	-0,003	-0,136
-316,241	216,949	0,143	-0,167
-315,226	800,000	0,064	0,179
-314,212	521,020	-0,029	-0,049
-313,197	800,000	0,035	0,107
-312,183	305,048	-0,046	-0,063
-311,168	-200,000	-0,002	0,036
-310,153	-122,937	-0,117	-0,014
-309,139	-200,000	-0,016	-0,071
-308,124	-128,360	-0,176	0,018
-307,110	213,048	0,048	0,056
-306,095	800,000	0,036	0,100
-305,080	800,000	-0,041	0,103
-304,066	41,714	-0,099	0,066
-303,051	132,623	0,057	-0,054
-302,037	-73,683	-0,112	0,030
-301,022	800,000	0,034	-0,100
-300,008	36,184	-0,067	-0,043
-298,993	-153,975	0,071	0,003
-297,978	450,506	0,032	0,051
-296,964	145,487	-0,119	-0,117
-295,949	-90,881	0,080	-0,017
-294,935	-200,000	-0,036	0,161
-293,920	413,189	-0,058	0,091
-292,905	800,000	-0,045	0,103
-291,891	-200,000	0,044	0,151
-290,876	171,770	0,073	0,077
-289,862	-200,000	-0,002	0,099
-288,847	225,520	0,025	0,030
-287,832	42,880	-0,083	-0,056
-286,818	800,000	0,027	0,056
-285,803	-146,130	0,095	-0,006
-284,789	-74,265	-0,035	-0,009
-283,774	-200,000	0,034	0,200
-282,759	-145,091	0,085	-0,006
-281,745	800,000	-0,055	-0,150
-280,730	168,131	-0,036	0,037
-279,716	-89,394	-0,009	-0,002
-278,701	-95,000	0,067	0,013
-277,686	318,322	-0,020	0,028
-276,672	593,396	0,065	0,119
-275,657	382,585	-0,048	0,073
-274,643	145,718	-0,083	-0,082
-273,628	800,000	-0,034	-0,094
-272,613	-39,907	-0,088	0,034
-271,599	800,000	0,045	-0,144
-270,584	347,100	0,034	0,049
-269,570	49,966	0,124	0,086
-268,555	-200,000	-0,016	-0,064
-267,540	-49,426	0,105	0,036
-266,526	45,893	-0,063	-0,043
-265,511	-19,255	0,037	0,017
-264,497	757,189	0,099	-0,198
-263,482	-200,000	0,005	0,066
-262,467	48,624	-0,050	-0,034
-261,453	800,000	-0,015	-0,044
-260,438	800,000	0,029	-0,082
-259,424	800,000	-0,036	-0,110
-258,409	187,535	-0,066	-0,072
-257,395	-200,000	0,014	-0,053
-256,380	800,000	0,069	0,141
-255,365	-200,000	-0,003	0,165
-254,351	-166,156	-0,033	0,001
-253,336	116,658	-0,104	0,093
-252,322	201,850	-0,105	0,119
-251,307	-43,226	0,101	0,037
-250,292	-7,802	0,101	0,049
-249,278	-200,000	-0,010	-0,047
-248,263	207,627	0,014	-0,016
-247,249	-200,000	-0,030	0,106
-246,234	-119,452	0,058	0,007
-245,219	444,732	0,015	-0,024
-244,205	-200,000	-0,017	-0,162
-243,190	8,631	0,151	-0,083
-242,176	401,843	-0,045	-0,070
-241,161	112,382	0,063	0,055
-240,146	-159,661	-0,033	0,001
-239,132	322,025	-0,075	0,104
-238,117	-15,188	-0,047	-0,022
-237,103	-200,000	0,005	-0,137
-236,088	-31,280	-0,027	0,011
-235,073	277,265	-0,107	-0,140
-234,059	341,219	0,019	-0,027
-233,044	42,193	0,015	-0,010
-232,030	-113,340	-0,055	-0,008
-231,015	-200,000	-0,017	-0,129
-230,000	800,000	-0,029	-0,074
-228,986	776,625	-0,002	0,005
-227,971	-41,936	0,044	0,016
-226,957	0,415	0,138	-0,072
-225,942	-200,000	0,013	-0,086
-224,927	-77,894	0,101	-0,025
-223,913	-200,000	-0,019	0,103
-222,898	-200,000	-0,035	-0,124
-221,884	-159,176	-0,105	0,004
-220,869	-127,990	0,143	-0,015
-219,855	199,866	0,081	0,091
-218,840	800,000	0,028	-0,058
-217,825	55,480	0,126	-0,089
-216,811	800,000	-0,012	-0,033
-215,796	-200,000	-0,006	0,035
-214,782	-159,517	-0,046	-0,002
-213,767	193,530	0,012	-0,013
-212,752	94,330	0,072	0,060
-211,738	73,746	-0,093	0,071
-210,723	-200,000	-0,006	-0,096
-209,709	-94,901	-0,103	0,020
-208,694	-192,161	-0,141	0,001
-207,679	-200,000	-0,013	-0,106
-206,665	-87,578	-0,037	0,008
-205,650	-116,933	0,194	0,026
-204,636	-5,857	0,154	0,077
-203,621	28,429	-0,005	-0,003
-202,606	0,844	-0,097	0,051
-201,592	-200,000	-0,004	-0,040
-200,577	-200,000	-0,007	-0,038
-199,563	-200,000	0,042	0,194
-198,548	-99,175	0,107	-0,020
-197,533	90,984	-0,120	-0,098
-196,519	-200,000	-0,039	0,140
-195,504	800,000	-0,016	-0,049
-194,490	-149,076	0,079	-0,005
-193,475	336,406	0,141	-0,201
-192,460	251,149	-0,123	-0,153
-191,446	800,000	0,012	0,029
-190,431	595,140	0,040	0,072
-189,417	-200,000	0,005	0,033
-188,402	399,790	0,030	0,046
-187,387	800,000	0,049	0,110
-186,373	-118,054	-0,188	0,024
-185,358	800,000	-0,038	0,081
-184,344	-200,000	0,002	0,116
-183,329	-200,000	0,002	0,123
-182,315	-90,698	-0,086	-0,018
-181,300	-200,000	-0,002	-0,006
-180,285	-200,000	-0,022	-0,166
-179,271	-16,174	0,112	0,052
-178,256	-38,898	0,062	-0,024
-177,242	-200,000	0,005	-0,113
-176,227	-49,630	0,098	0,034
-175,212	-50,956	0,058	-0,020
-174,198	-200,000	0,014	0,082
-173,183	182,665	-0,062	0,067
-172,169	-152,473	0,105	-0,005
-171,154	-200,000	0,019	0,076
-170,139	299,538	-0,073	0,098
-169,125	800,000	0,022	-0,060
-168,110	-24,691	0,068	-0,029
-167,096	-200,000	0,024	-0,137
-166,081	-48,220	0,076	-0,026
-165,066	-48,692	-0,147	0,051
-164,052	440,681	-0,049	-0,078
-163,037	270,162	0,025	0,032
-162,023	-200,000	0,005	0,062
-161,008	391,824	-0,083	0,125
-159,993	-200,000	-0,016	0,169
-158,979	27,432	0,073	0,045
-157,964	-200,000	0,003	-0,026
-156,950	55,930	-0,036	-0,025
-155,935	-77,652	0,049	-0,012
-154,920	-20,185	-0,042	0,019
-153,906	0,819	0,103	-0,054
-152,891	584,760	0,092	0,165
-151,877	-130,631	0,098	-0,010
-150,862	-18,928	0,010	0,005
-149,847	-200,000	-0,164	0,000
-148,833	-128,630	0,108	0,011
-147,818	137,771	-0,078	0,074
-146,804	24,827	0,069	-0,041
-145,789	-200,000	-0,006	-0,025
-144,775	-40,003	-0,057	0,022
-143,760	413,538	-0,071	-0,110
-142,745	26,396	-0,066	-0,040
-141,731	8,392	0,060	0,033
-140,716	90,934	0,066	0,054
-139,702	-114,823	0,070	-0,010
-138,687	45,104	-0,045	-0,030
-137,672	173,825	0,033	0,035
-136,658	-117,808	-0,045	0,006
-135,643	413,844	0,066	-0,103
-134,629	-200,000	-0,020	0,072
-133,614	-200,000	-0,002	0,023
-132,599	142,106	0,111	0,107
-131,585	151,685	-0,069	0,068
-130,570	121,393	0,049	-0,044
-129,556	800,000	-0,067	-0,143
-128,541	-200,000	-0,015	-0,048
-127,526	800,000	0,038	0,094
-126,512	-53,899	0,122	-0,040
-125,497	-17,284	0,130	0,059
-124,483	-139,542	-0,127	0,010
-123,468	-87,223	-0,077	0,017
-122,453	41,923	-0,149	-0,098
-121,439	-200,000	-0,012	-0,101
-120,424	56,907	0,111	0,079
