DTS Sentinel unit serial number:	SN410029Multiplexer serial number:	ORYXHardware model number:	OX2-SRSoftware version number:	ORYX F/W v4,00 Oryx Data Collector v3.7.2.0data status	okinstallation	B4 Nyhavnadifferential loss correction	single-endedforward channel	channel 2reverse channel	N/Adate	2023/12/16time	03:15:14forward acquisition time	300,00reverse acquisition time	0,00gamma	499,1914k internal	0,3128k external	0,3128temperature offset calibration	1,0000default loss term (dB/km)	0,3820temperature slope calibration	1,0000multiplexer offset coefficient	1,0000multiplexer slope coefficient	1,0000fibre end	0,00T internal ref (°C)	21,97T ext. ref 1 (°C)	6,98T ext. ref 2 (°C)	7,17length (m)	temperature (°C)	Stokes	anti-Stokes-744,400	-200,000	-0,001	-0,103
-743,385	-24,168	-0,191	0,085
-742,371	172,045	0,046	0,049
-741,356	82,109	-0,186	0,150
-740,342	154,167	0,096	0,098
-739,327	-71,337	-0,332	-0,092
-738,312	325,492	0,089	-0,127
-737,298	2,073	-0,248	0,133
-736,283	-200,000	0,004	0,037
-735,269	-97,717	-0,184	0,035
-734,254	280,203	0,096	0,129
-733,239	-84,643	-0,407	-0,095
-732,225	-200,000	0,012	0,110
-731,210	764,779	-0,088	0,179
-730,196	46,275	-0,088	0,061
-729,181	605,416	0,041	0,076
-728,167	-45,820	-0,113	-0,041
-727,152	-65,483	0,079	0,024
-726,137	-200,000	-0,022	-0,151
-725,123	-23,766	-0,124	-0,055
-724,108	758,753	0,071	-0,143
-723,094	70,697	-0,075	0,058
-722,079	255,117	-0,089	-0,113
-721,064	56,966	-0,084	-0,061
-720,050	-200,000	-0,011	0,046
-719,035	800,000	-0,021	-0,045
-718,021	-200,000	0,001	-0,100
-717,006	-200,000	0,028	-0,106
-715,991	-200,000	-0,036	-0,151
-714,977	-200,000	-0,017	-0,115
-713,962	800,000	-0,035	-0,104
-712,948	599,546	0,044	-0,081
-711,933	40,050	-0,035	0,023
-710,918	398,123	-0,033	0,051
-709,904	-152,994	-0,079	-0,004
-708,889	-36,183	0,083	-0,033
-707,875	0,504	-0,085	0,045
-706,860	220,114	-0,027	-0,032
-705,845	-21,222	-0,106	-0,048
-704,831	-85,706	0,060	-0,014
-703,816	-200,000	-0,014	-0,053
-702,802	-200,000	-0,007	0,056
-701,787	-200,000	0,022	-0,102
-700,772	561,712	0,034	-0,062
-699,758	-48,482	0,036	0,013
-698,743	-200,000	0,008	0,029
-697,729	-42,839	0,092	0,034
-696,714	193,122	0,058	-0,065
-695,699	-26,693	-0,130	-0,056
-694,685	67,163	-0,022	0,017
-693,670	670,785	-0,090	-0,174
-692,656	225,405	-0,043	-0,052
-691,641	-39,142	0,032	-0,012
-690,627	13,012	-0,131	0,075
-689,612	-27,868	0,025	0,011
-688,597	-200,000	0,002	-0,051
-687,583	130,472	-0,057	-0,054
-686,568	-200,000	0,030	-0,213
-685,554	-200,000	-0,002	-0,063
-684,539	149,346	0,046	-0,046
-683,524	-38,477	-0,093	0,036
-682,510	-200,000	0,001	0,092
-681,495	-200,000	-0,003	-0,069
-680,481	-200,000	0,009	0,069
-679,466	-29,002	-0,078	-0,033
-678,451	-140,698	-0,061	-0,005
-677,437	157,248	-0,069	-0,071
-676,422	800,000	-0,045	0,121
-675,408	-131,042	-0,074	0,007
-674,393	-34,902	-0,067	-0,027
-673,378	53,503	-0,101	0,072
-672,364	38,349	-0,081	-0,053
-671,349	-200,000	-0,009	-0,072
-670,335	-78,118	-0,066	0,017
-669,320	800,000	0,020	-0,062
-668,305	19,058	-0,049	0,029
-667,291	94,790	0,038	0,032
-666,276	800,000	-0,046	-0,106
-665,262	188,553	-0,086	-0,096
-664,247	-200,000	0,001	0,107
-663,232	800,000	-0,041	-0,090
-662,218	46,362	0,048	0,033
-661,203	250,031	-0,043	0,054
-660,189	539,330	-0,021	0,038
-659,174	800,000	0,041	-0,120
-658,159	-200,000	-0,008	-0,031
-657,145	-175,214	-0,030	-0,001
-656,130	638,985	0,043	0,082
-655,116	-103,974	-0,091	0,016
-654,101	-200,000	0,000	-0,112
-653,086	-143,467	0,075	-0,005
-652,072	-117,967	-0,122	0,016
-651,057	83,536	-0,092	-0,075
-650,043	68,418	-0,118	-0,089
-649,028	261,665	-0,027	0,035
-648,014	-200,000	0,011	0,093
-646,999	406,750	-0,061	0,096
-645,984	800,000	-0,012	0,031
-644,970	-45,296	-0,022	-0,008
-643,955	64,979	-0,097	0,073
-642,941	355,679	-0,009	0,013
-641,926	322,818	0,086	-0,122
-640,911	-148,906	0,091	-0,005
-639,897	-200,000	0,010	0,116
-638,882	302,476	0,032	-0,044
-637,868	87,107	-0,066	-0,054
-636,853	-3,300	-0,127	0,065
-635,838	53,310	0,151	-0,107
-634,824	513,404	0,028	-0,049
-633,809	163,268	-0,065	0,067
-632,795	-84,425	-0,129	-0,030
-631,780	-24,695	-0,030	-0,013
-630,765	196,608	-0,160	0,181
-629,751	-200,000	-0,002	-0,109
-628,736	-71,663	-0,036	-0,010
-627,722	204,030	-0,068	-0,078
-626,707	800,000	0,039	-0,090
-625,692	-200,000	0,003	-0,169
-624,678	217,909	0,041	0,048
-623,663	593,356	-0,084	0,155
-622,649	-200,000	0,010	-0,042
-621,634	50,089	-0,095	-0,066
-620,619	-200,000	-0,026	-0,109
-619,605	800,000	0,018	0,038
-618,590	647,709	-0,070	0,134
-617,576	224,015	-0,059	0,070
-616,561	800,000	0,050	-0,104
-615,546	-68,986	-0,029	-0,008
-614,532	-61,672	-0,088	-0,027
-613,517	45,474	0,107	-0,073
-612,503	715,143	-0,040	-0,079
-611,488	-8,820	0,085	-0,042
-610,474	800,000	0,049	0,106
-609,459	-16,114	-0,144	-0,068
-608,444	-82,156	-0,064	-0,015
-607,430	-132,490	-0,078	-0,007
-606,415	-181,800	-0,043	0,001
-605,401	-200,000	0,010	0,041
-604,386	-153,022	-0,085	0,004
-603,371	687,165	-0,040	-0,078
-602,357	653,466	-0,028	-0,053
-601,342	-32,624	0,087	-0,036
-600,328	-24,583	-0,019	0,008
-599,313	129,612	-0,101	-0,096
-598,298	-200,000	0,002	-0,099
-597,284	-200,000	0,015	0,054
-596,269	-200,000	0,012	0,196
-595,255	9,020	-0,044	0,025
-594,240	25,265	0,089	0,055
-593,225	800,000	-0,025	0,067
-592,211	-200,000	-0,008	0,065
-591,196	-63,347	-0,019	-0,006
-590,182	-77,713	0,126	-0,032
-589,167	-200,000	0,012	-0,144
-588,152	-63,000	0,056	-0,017
-587,138	660,107	-0,068	0,131
-586,123	-116,635	0,087	-0,012
-585,109	-57,027	-0,042	-0,013
-584,094	-79,986	-0,133	0,033
-583,079	44,122	0,038	0,026
-582,065	-76,272	0,077	-0,020
-581,050	-200,000	0,013	0,099
-580,036	-59,139	-0,040	-0,013
-579,021	-136,622	-0,177	-0,015
-578,006	107,772	0,041	-0,036
-576,992	-200,000	0,010	-0,136
-575,977	275,353	-0,068	-0,089
-574,963	671,389	-0,066	0,127
-573,948	-105,744	-0,028	-0,005
-572,934	-121,516	0,076	-0,009
-571,919	-200,000	-0,045	0,161
-570,904	-200,000	-0,006	-0,054
-569,890	-200,000	0,027	-0,145
-568,875	281,547	0,045	-0,060
-567,861	-200,000	0,013	0,071
-566,846	800,000	0,057	0,147
-565,831	59,053	0,036	-0,026
-564,817	36,476	-0,048	-0,031
-563,802	-200,000	-0,024	-0,081
-562,788	-59,699	-0,034	0,011
-561,773	306,732	0,074	0,103
-560,758	223,847	-0,022	0,027
-559,744	9,485	0,080	0,045
-558,729	480,637	-0,012	0,021
-557,715	-200,000	-0,016	-0,077
-556,700	-14,938	0,084	-0,040
-555,685	-200,000	0,011	-0,106
-554,671	312,661	-0,051	-0,071
-553,656	84,854	0,149	0,121
-552,642	-46,273	-0,073	0,026
-551,627	-119,204	0,116	-0,015
-550,612	144,135	-0,035	0,034
-549,598	-124,875	-0,075	0,008
-548,583	-94,815	-0,051	0,010
-547,569	9,475	0,026	0,015
-546,554	-87,457	0,102	0,023
-545,539	455,759	-0,078	-0,129
-544,525	-17,013	-0,072	-0,033
-543,510	800,000	0,070	-0,147
-542,496	-148,778	0,029	0,002
-541,481	-154,325	0,079	0,004
-540,466	-200,000	-0,018	-0,169
-539,452	268,140	0,108	-0,139
-538,437	285,231	0,036	0,048
-537,423	16,920	0,037	0,022
-536,408	77,801	-0,077	0,061
-535,393	800,000	0,041	-0,107
-534,379	211,082	0,024	-0,027
-533,364	-160,820	-0,055	-0,002
-532,350	114,100	0,024	0,021
-531,335	-200,000	-0,003	0,115
-530,321	800,000	-0,034	-0,080
-529,306	-17,724	0,150	-0,069
-528,291	-23,478	0,121	-0,053
-527,277	-200,000	-0,003	-0,068
-526,262	800,000	0,043	-0,094
-525,248	-104,716	-0,074	0,012
-524,233	-148,185	-0,079	-0,005
-523,218	3,455	0,121	-0,065
-522,204	53,311	0,074	-0,052
-521,189	-200,000	-0,023	-0,101
-520,175	-31,650	0,058	-0,024
-519,160	605,139	-0,017	0,031
-518,145	11,195	0,043	0,024
-517,131	-200,000	-0,023	-0,106
-516,116	124,135	-0,041	-0,038
-515,102	-200,000	0,022	-0,090
-514,087	39,163	-0,072	-0,047
-513,072	449,032	0,005	-0,008
-512,058	202,407	0,089	-0,102
-511,043	-200,000	-0,044	0,150
-510,029	800,000	0,022	0,048
-509,014	800,000	0,037	-0,105
-507,999	122,937	0,039	0,036
-506,985	-175,811	-0,042	-0,001
-505,970	800,000	-0,044	0,108
-504,956	104,299	0,032	-0,028
-503,941	-44,286	-0,087	0,032
-502,926	383,954	-0,122	0,186
-501,912	800,000	0,013	0,028
-500,897	6,286	-0,045	-0,025
-499,883	181,926	0,084	0,091
-498,868	-58,638	-0,030	-0,010
-497,853	-20,396	-0,073	0,033
-496,839	800,000	-0,043	0,135
-495,824	-200,000	0,018	-0,107
-494,810	134,421	-0,047	0,045
-493,795	-200,000	0,031	-0,139
-492,781	-67,138	-0,078	-0,023
-491,766	-200,000	0,006	-0,039
-490,751	241,813	0,095	-0,117
-489,737	479,275	-0,025	-0,042
-488,722	268,758	0,038	0,049
-487,708	-200,000	-0,019	0,088
-486,693	-162,070	0,019	-0,001
-485,678	800,000	0,044	0,106
-484,664	-200,000	-0,015	0,066
-483,649	800,000	0,033	-0,074
-482,635	-96,492	-0,051	0,010
-481,620	-63,701	-0,115	0,035
-480,605	-5,935	0,091	0,046
-479,591	-3,192	0,043	-0,022
-478,576	-200,000	-0,026	0,146
-477,562	-147,206	-0,108	0,007
-476,547	171,402	0,062	0,065
-475,532	-76,839	0,097	-0,025
-474,518	359,083	0,071	0,104
-473,503	-81,023	0,069	0,017
-472,489	-200,000	0,026	-0,104
-471,474	38,240	-0,094	0,062
-470,459	23,843	-0,048	-0,029
-469,445	-89,173	-0,033	-0,007
-468,430	-200,000	-0,037	0,178
-467,416	-200,000	-0,028	0,121
-466,401	3,428	0,014	0,007
-465,386	-200,000	0,029	0,135
-464,372	444,536	-0,053	0,086
-463,357	-116,115	0,105	-0,014
-462,343	-200,000	-0,004	-0,035
-461,328	-200,000	0,020	0,137
-460,313	800,000	0,031	0,080
-459,299	-106,203	-0,053	0,009
-458,284	800,000	-0,078	0,176
-457,270	-200,000	-0,035	0,181
-456,255	800,000	0,060	-0,138
-455,241	-108,641	-0,044	-0,007
-454,226	19,856	-0,140	0,083
-453,211	800,000	0,039	-0,124
-452,197	-200,000	-0,014	0,159
-451,182	712,215	0,028	0,055
-450,168	800,000	0,018	0,052
-449,153	800,000	-0,032	0,091
-448,138	484,115	-0,044	-0,074
-447,124	-62,259	-0,106	-0,032
-446,109	633,255	0,028	0,052
-445,095	117,445	0,081	0,073
-444,080	800,000	0,066	0,194
-443,065	800,000	0,037	0,090
-442,051	-95,848	-0,044	-0,009
-441,036	-1,026	-0,059	-0,031
-440,022	345,047	0,063	0,092
-439,007	-48,348	0,052	-0,018
-437,992	-200,000	0,019	0,111
-436,978	220,175	-0,053	-0,063
-435,963	-200,000	0,004	-0,067
-434,949	-200,000	0,014	-0,080
-433,934	-200,000	0,023	-0,092
-432,919	-4,977	-0,075	0,038
-431,905	117,413	0,070	0,063
-430,890	-9,419	0,027	-0,013
-429,876	-200,000	-0,016	0,129
-428,861	166,846	0,063	-0,066
-427,846	30,363	-0,082	-0,051
-426,832	-129,690	-0,159	0,016
-425,817	305,725	-0,029	-0,039
-424,803	-200,000	0,006	-0,107
-423,788	-200,000	0,004	0,103
-422,773	45,603	0,068	0,046
-421,759	-144,390	-0,084	-0,006
-420,744	511,594	-0,035	0,060
-419,730	-200,000	-0,035	-0,199
-418,715	-200,000	-0,011	-0,049
-417,701	-200,000	0,010	0,067
-416,686	298,877	0,110	0,149
-415,671	-27,452	0,036	-0,015
-414,657	702,264	0,076	0,148
-413,642	-43,882	0,068	-0,025
-412,628	800,000	0,015	-0,046
-411,613	151,808	-0,039	-0,039
-410,598	800,000	-0,017	0,039
-409,584	-59,408	-0,043	0,013
-408,569	180,310	0,135	-0,146
-407,555	261,565	0,019	-0,024
-406,540	-200,000	-0,001	0,142
-405,525	14,105	-0,042	-0,024
-404,511	800,000	-0,023	-0,053
-403,496	-200,000	-0,008	-0,177
-402,482	154,266	-0,044	-0,045
-401,467	-200,000	-0,004	0,024
-400,452	501,702	0,056	0,095
-399,438	-121,441	0,090	-0,011
-398,423	-200,000	-0,004	0,070
-397,409	629,596	-0,020	0,037
-396,394	402,435	-0,021	-0,032
-395,379	-98,535	-0,153	0,028
-394,365	800,000	-0,036	0,114
-393,350	-200,000	0,009	-0,035
-392,336	-154,570	-0,063	0,003
-391,321	723,788	-0,039	0,077
-390,306	110,774	0,108	0,095
-389,292	-71,524	-0,049	-0,013
-388,277	-200,000	0,004	-0,016
-387,263	-35,090	0,089	0,035
-386,248	528,190	0,031	0,053
-385,233	-200,000	0,018	0,066
-384,219	692,494	0,051	0,099
-383,204	-134,845	-0,047	-0,004
-382,190	98,870	0,082	-0,070
-381,175	-200,000	0,030	-0,105
-380,160	800,000	0,082	0,171
-379,146	107,708	0,034	0,030
-378,131	-200,000	0,033	0,135
-377,117	-65,013	-0,057	0,017
-376,102	148,454	0,043	-0,043
-375,088	69,806	-0,076	-0,057
-374,073	800,000	-0,029	-0,075
-373,058	-180,032	0,131	0,002
-372,044	-200,000	-0,007	-0,022
-371,029	800,000	0,034	0,082
-370,015	-200,000	-0,012	-0,108
-369,000	24,582	-0,025	0,015
-367,985	-54,133	-0,029	-0,010
-366,971	243,654	0,093	-0,115
-365,956	800,000	-0,014	-0,033
-364,942	800,000	-0,040	-0,127
-363,927	800,000	0,024	-0,055
-362,912	26,360	0,084	0,051
-361,898	-200,000	-0,000	0,031
-360,883	-200,000	0,009	0,038
-359,869	-52,899	-0,086	-0,029
-358,854	-152,143	0,077	0,004
-357,839	2,213	-0,031	0,017
-356,825	40,943	0,042	-0,027
-355,810	-63,156	-0,092	-0,028
-354,796	53,837	-0,047	0,033
-353,781	-200,000	-0,000	0,033
-352,766	70,601	-0,050	0,038
-351,752	-200,000	0,020	-0,083
-350,737	-125,790	-0,023	-0,003
-349,723	-200,000	0,004	0,016
-348,708	-200,000	0,001	0,029
-347,693	-53,024	0,033	-0,011
-346,679	192,233	-0,100	-0,110
-345,664	-9,358	0,019	-0,010
-344,650	-114,334	-0,043	0,006
-343,635	800,000	0,053	0,171
-342,620	135,649	0,030	0,029
-341,606	41,453	0,037	-0,024
-340,591	237,906	0,068	0,083
-339,577	218,867	0,076	-0,089
-338,562	-15,598	0,082	-0,038
-337,548	-80,108	0,062	0,015
-336,533	-200,000	-0,009	0,084
-335,518	-200,000	-0,000	0,028
-334,504	-114,664	0,167	-0,023
-333,489	-59,856	-0,114	0,036
-332,475	7,216	-0,104	-0,057
-331,460	-200,000	-0,011	-0,092
-330,445	-148,981	-0,101	-0,006
-329,431	201,647	0,087	-0,098
-328,416	-200,000	-0,020	0,097
-327,402	-200,000	-0,026	0,138
-326,387	-86,755	-0,011	-0,003
-325,372	26,747	0,066	-0,041
-324,358	90,335	-0,122	-0,100
-323,343	478,242	-0,018	-0,030
-322,329	800,000	-0,021	0,060
-321,314	-200,000	0,028	0,100
-320,299	-200,000	0,007	0,053
-319,285	-84,850	0,055	0,013
-318,270	800,000	-0,096	-0,261
-317,256	36,791	0,080	-0,052
-316,241	-163,109	0,076	0,003
-315,226	-200,000	0,009	0,036
-314,212	-200,000	0,006	0,079
-313,197	-49,710	-0,016	-0,005
-312,183	-200,000	0,017	0,063
-311,168	-200,000	-0,023	-0,083
-310,153	800,000	0,082	-0,181
-309,139	-200,000	-0,012	0,057
-308,124	-200,000	-0,024	0,096
-307,110	11,978	0,094	0,053
-306,095	-200,000	-0,005	-0,025
-305,080	-137,077	-0,142	-0,012
-304,066	800,000	0,017	-0,045
-303,051	-200,000	0,018	-0,101
-302,037	80,454	-0,050	-0,039
-301,022	-45,381	-0,025	0,009
-300,008	-158,113	-0,086	-0,004
-298,993	-200,000	0,020	0,071
-297,978	-91,837	0,042	0,009
-296,964	176,564	0,008	-0,008
-295,949	-67,557	-0,138	0,039
-294,935	-28,197	0,088	-0,037
-293,920	-77,471	0,012	0,003
-292,905	-56,985	0,038	-0,012
-291,891	800,000	-0,010	-0,021
-290,876	-200,000	0,026	0,091
-289,862	73,771	0,098	-0,075
-288,847	-200,000	0,021	-0,165
-287,832	144,881	-0,036	-0,035
-286,818	-200,000	-0,005	-0,072
-285,803	36,398	0,110	-0,071
-284,789	1,771	-0,037	0,020
-283,774	800,000	0,019	-0,042
-282,759	183,788	0,074	-0,080
-281,745	-40,941	-0,091	0,034
-280,730	-200,000	-0,022	-0,108
-279,716	800,000	0,063	-0,133
-278,701	47,183	-0,112	0,076
-277,686	800,000	-0,074	0,181
-276,672	800,000	0,003	-0,009
-275,657	-37,751	-0,065	0,025
-274,643	-184,481	0,047	-0,001
-273,628	-6,175	-0,097	-0,048
-272,613	58,343	0,007	-0,005
-271,599	-49,429	-0,071	-0,024
-270,584	67,465	0,062	-0,046
-269,570	800,000	0,044	0,092
-268,555	-78,267	0,121	0,030
-267,540	-200,000	0,003	-0,083
-266,526	473,015	-0,051	-0,084
-265,511	-15,314	0,083	-0,039
-264,497	-21,650	-0,046	-0,020
-263,482	197,434	0,119	0,133
-262,467	55,336	0,112	-0,079
-261,453	-122,355	0,028	0,003
-260,438	-86,587	0,002	0,001
-259,424	289,746	-0,017	0,023
-258,409	-200,000	-0,009	-0,034
-257,395	-127,883	-0,164	-0,017
-256,380	226,209	-0,007	0,008
-255,365	4,146	0,069	-0,037
-254,351	800,000	-0,022	0,049
-253,336	800,000	-0,032	-0,091
-252,322	800,000	0,051	-0,145
-251,307	-200,000	0,025	0,080
-250,292	-88,281	-0,025	-0,006
-249,278	-92,438	0,123	-0,025
-248,263	-82,869	0,115	0,027
-247,249	-56,937	0,041	-0,013
-246,234	800,000	-0,015	-0,032
-245,219	-162,324	-0,074	-0,003
-244,205	-200,000	0,003	0,039
-243,190	284,981	0,031	-0,041
-242,176	425,031	0,046	0,072
-241,161	179,303	0,032	0,034
-240,146	-200,000	0,000	0,055
-239,132	-14,546	0,110	0,051
-238,117	-102,988	0,047	0,008
-237,103	12,244	0,028	0,016
-236,088	-200,000	-0,011	-0,128
-235,073	800,000	0,018	-0,052
-234,059	-11,410	0,076	0,036
-233,044	-53,878	0,169	-0,056
-232,030	-8,052	-0,030	-0,015
-231,015	354,777	0,060	-0,088
-230,000	106,162	-0,141	0,122
-228,986	800,000	0,036	0,106
-227,971	598,327	0,048	-0,086
-226,957	800,000	0,061	-0,162
-225,942	-200,000	-0,002	0,094
-224,927	-75,846	0,123	-0,032
-223,913	535,625	0,063	-0,110
-222,898	-83,771	0,009	0,002
-221,884	800,000	0,013	0,027
-220,869	563,917	0,007	0,013
-219,855	-200,000	0,018	0,093
-218,840	204,788	-0,145	0,165
-217,825	558,200	-0,051	0,090
-216,811	-15,020	-0,079	0,037
-215,796	-200,000	-0,016	0,111
-214,782	-145,178	0,104	0,007
-213,767	800,000	0,032	-0,078
-212,752	33,998	-0,113	0,072
-211,738	-200,000	0,005	0,101
-210,723	800,000	-0,061	-0,153
-209,709	189,413	0,025	-0,027
-208,694	15,934	-0,111	0,064
-207,679	-110,220	-0,204	-0,031
-206,665	-68,384	-0,156	0,044
-205,650	-110,177	-0,029	0,004
-204,636	-200,000	0,004	0,096
-203,621	-30,084	0,104	-0,043
-202,606	168,017	-0,054	-0,056
-201,592	-200,000	0,009	0,092
-200,577	32,425	-0,080	-0,050
-199,563	4,853	-0,132	-0,071
-198,548	800,000	0,062	0,146
-197,533	800,000	-0,012	0,032
-196,519	-103,931	0,115	0,019
-195,504	800,000	-0,053	0,130
-194,490	312,357	-0,093	-0,127
-193,475	266,801	-0,039	-0,050
-192,460	-144,540	0,105	-0,007
-191,446	800,000	-0,048	0,102
-190,431	454,906	0,031	0,050
-189,417	-105,623	0,036	0,006
-188,402	169,083	-0,110	-0,114
-187,387	54,120	-0,128	-0,090
-186,373	-200,000	0,023	-0,122
-185,358	-10,941	-0,037	-0,018
-184,344	300,934	-0,052	-0,070
-183,329	463,981	-0,023	-0,038
-182,315	93,337	0,089	0,073
-181,300	-200,000	0,000	-0,066
-180,285	20,618	-0,105	-0,062
-179,271	-13,451	-0,023	0,011
-178,256	-200,000	0,008	-0,109
-177,242	-44,022	-0,043	0,016
-176,227	552,379	0,053	0,094
-175,212	12,225	0,052	0,029
-174,198	-83,248	-0,057	-0,013
-173,183	61,311	-0,063	-0,046
-172,169	800,000	0,050	-0,115
-171,154	233,991	0,030	-0,036
-170,139	-200,000	0,041	-0,179
-169,125	-0,711	0,169	0,087
-168,110	86,707	-0,099	0,080
-167,096	316,552	0,034	0,047
-166,081	62,432	0,072	0,053
-165,066	479,230	-0,068	-0,112
-164,052	-18,550	0,055	-0,025
-163,037	244,884	0,042	-0,052
-162,023	-200,000	-0,010	0,116
-161,008	349,491	-0,032	0,047
-159,993	101,222	-0,066	0,056
-158,979	800,000	-0,044	-0,093
-157,964	-200,000	0,015	0,061
-156,950	-22,294	-0,225	0,099
-155,935	-97,685	0,120	-0,022
-154,920	56,075	0,213	-0,150
-153,906	-13,198	0,008	-0,004
-152,891	527,050	0,046	-0,079
-151,877	638,479	0,018	-0,034
-150,862	-200,000	0,018	-0,153
-149,847	0,570	0,082	0,042
-148,833	65,323	0,043	-0,032
-147,818	-156,840	0,114	0,005
-146,804	191,737	0,019	0,021
-145,789	122,202	-0,192	0,174
-144,775	113,895	0,117	-0,103
-143,760	-92,009	-0,134	0,027
-142,745	800,000	-0,027	0,065
-141,731	-122,333	-0,157	0,018
-140,716	151,863	-0,097	0,097
-139,702	8,971	-0,161	0,088
-138,687	328,085	0,030	-0,042
-137,672	40,434	0,136	0,089
-136,658	125,096	0,029	0,027
-135,643	800,000	-0,024	-0,074
-134,629	564,771	0,061	-0,107
-133,614	-35,401	0,087	0,034
-132,599	800,000	0,059	-0,148
-131,585	-200,000	-0,021	-0,118
-130,570	296,191	-0,041	-0,055
-129,556	-194,029	-0,121	0,001
-128,541	-140,255	-0,125	-0,009
-127,526	11,935	-0,078	-0,043
-126,512	-48,406	0,203	-0,071
-125,497	-200,000	0,009	0,074
-124,483	800,000	0,040	-0,128
-123,468	-13,532	0,032	0,015
-122,453	38,053	-0,080	0,051
-121,439	-44,625	-0,061	-0,022
-120,424	21,832	0,071	-0,042
-119,410	-176,529	0,091	-0,002
