DTS Sentinel unit serial number:	SN410029Multiplexer serial number:	ORYXHardware model number:	OX2-SRSoftware version number:	ORYX F/W v4,00 Oryx Data Collector v3.7.2.0data status	okinstallation	B4 Nyhavnadifferential loss correction	single-endedforward channel	channel 2reverse channel	N/Adate	2023/12/19time	12:00:13forward acquisition time	300,00reverse acquisition time	0,00gamma	499,1914k internal	0,3128k external	0,3128temperature offset calibration	1,0000default loss term (dB/km)	0,3820temperature slope calibration	1,0000multiplexer offset coefficient	1,0000multiplexer slope coefficient	1,0000fibre end	0,00T internal ref (°C)	19,68T ext. ref 1 (°C)	4,45T ext. ref 2 (°C)	4,38length (m)	temperature (°C)	Stokes	anti-Stokes-744,400	-134,011	-0,020	-0,002
-743,385	-90,120	-0,230	-0,049
-742,371	-60,079	0,142	-0,045
-741,356	-68,947	-0,229	0,065
-740,342	-38,421	0,072	0,028
-739,327	-123,038	-0,313	0,037
-738,312	100,284	0,119	-0,103
-737,298	-60,459	-0,190	0,060
-736,283	800,000	0,017	0,048
-735,269	-58,612	-0,268	0,086
-734,254	-7,375	0,097	-0,049
-733,239	-162,772	-0,452	-0,016
-732,225	-200,000	0,202	-0,001
-731,210	-33,822	0,048	-0,020
-730,196	800,000	-0,024	0,050
-729,181	-200,000	-0,003	0,083
-728,167	800,000	-0,037	-0,081
-727,152	610,196	0,018	-0,033
-726,137	769,473	0,026	0,053
-725,123	58,185	0,108	-0,078
-724,108	483,590	0,071	-0,120
-723,094	504,587	-0,049	-0,085
-722,079	59,052	-0,060	-0,044
-721,064	67,947	0,156	-0,119
-720,050	-82,581	0,149	0,036
-719,035	800,000	0,038	0,095
-718,021	-200,000	0,002	0,064
-717,006	124,541	-0,087	0,081
-715,991	21,288	-0,120	-0,072
-714,977	-72,200	-0,075	0,021
-713,962	21,754	-0,076	0,046
-712,948	-93,005	-0,088	-0,018
-711,933	636,158	0,010	0,019
-710,918	-200,000	0,006	0,046
-709,904	800,000	-0,080	-0,199
-708,889	76,405	-0,103	-0,081
-707,875	-200,000	0,002	-0,118
-706,860	-30,922	-0,108	0,045
-705,845	-105,648	-0,115	-0,019
-704,831	16,196	-0,132	0,077
-703,816	407,928	-0,027	0,043
-702,802	325,486	-0,057	-0,082
-701,787	82,505	-0,062	-0,050
-700,772	199,623	-0,069	0,079
-699,758	-200,000	-0,016	0,134
-698,743	-75,693	0,048	0,013
-697,729	67,137	-0,139	0,105
-696,714	83,258	0,109	0,088
-695,699	-168,946	-0,074	0,002
-694,685	-200,000	-0,053	-0,176
-693,670	-68,660	0,024	0,007
-692,656	-158,806	-0,105	-0,004
-691,641	-200,000	-0,006	0,062
-690,627	192,890	-0,039	-0,044
-689,612	-200,000	0,026	-0,111
-688,597	-25,171	0,103	-0,045
-687,583	-200,000	-0,011	-0,139
-686,568	-200,000	-0,027	-0,088
-685,554	93,553	-0,107	-0,090
-684,539	-8,054	-0,050	0,025
-683,524	800,000	-0,034	0,108
-682,510	-63,059	0,063	-0,019
-681,495	-200,000	-0,035	-0,124
-680,481	-200,000	-0,041	-0,136
-679,466	24,764	-0,102	0,062
-678,451	204,598	0,016	0,018
-677,437	800,000	0,013	-0,032
-676,422	295,973	0,078	-0,106
-675,408	-200,000	-0,003	0,074
-674,393	-10,209	0,118	-0,058
-673,378	457,183	-0,056	-0,093
-672,364	109,142	-0,030	-0,027
-671,349	-200,000	-0,013	-0,071
-670,335	147,837	-0,019	0,020
-669,320	800,000	0,060	-0,129
-668,305	-109,127	0,182	0,028
-667,291	-200,000	-0,032	-0,219
-666,276	-67,746	-0,156	-0,045
-665,262	-200,000	0,033	-0,151
-664,247	41,206	-0,095	-0,063
-663,232	-108,186	-0,123	-0,020
-662,218	120,247	0,080	0,074
-661,203	-44,428	0,092	-0,034
-660,189	-4,498	-0,109	0,056
-659,174	-102,572	-0,179	-0,031
-658,159	800,000	0,033	-0,073
-657,145	247,747	-0,081	-0,102
-656,130	187,106	-0,036	-0,040
-655,116	407,419	0,093	-0,146
-654,101	800,000	-0,019	-0,042
-653,086	177,088	-0,065	-0,070
-652,072	-104,620	0,105	-0,018
-651,057	90,936	-0,010	0,008
-650,043	305,970	-0,112	-0,154
-649,028	125,167	0,091	-0,085
-648,014	-200,000	0,000	-0,044
-646,999	752,918	0,028	-0,057
-645,984	299,396	-0,030	0,042
-644,970	219,082	-0,125	0,149
-643,955	-137,161	-0,183	-0,015
-642,941	27,731	0,109	-0,068
-641,926	168,892	-0,084	0,089
-640,911	53,911	0,045	0,032
-639,897	33,250	0,123	0,079
-638,882	-200,000	-0,008	-0,051
-637,868	-200,000	0,002	-0,127
-636,853	509,733	0,069	-0,119
-635,838	-200,000	-0,020	-0,095
-634,824	800,000	-0,017	-0,044
-633,809	2,604	0,120	0,064
-632,795	-188,610	0,030	-0,000
-631,780	-200,000	-0,004	0,039
-630,765	222,859	0,030	0,036
-629,751	-200,000	-0,017	-0,179
-628,736	-88,896	-0,196	0,043
-627,722	-50,893	-0,091	-0,032
-626,707	143,317	-0,075	0,074
-625,692	-42,347	0,084	-0,032
-624,678	215,322	0,045	-0,053
-623,663	331,566	-0,049	-0,071
-622,649	265,533	-0,017	-0,022
-621,634	-41,316	0,083	-0,032
-620,619	477,819	0,083	0,140
-619,605	513,861	-0,037	-0,064
-618,590	-148,017	-0,102	-0,006
-617,576	-104,316	0,056	0,009
-616,561	34,228	-0,036	0,023
-615,546	-63,071	-0,098	0,030
-614,532	-7,444	0,023	-0,011
-613,517	621,823	0,061	0,114
-612,503	353,607	-0,047	0,070
-611,488	-78,533	-0,058	0,015
-610,474	-48,350	-0,091	-0,032
-609,459	-36,306	0,143	-0,057
-608,444	-200,000	-0,020	-0,134
-607,430	81,874	-0,131	-0,105
-606,415	-37,712	-0,075	0,029
-605,401	-36,141	-0,045	0,018
-604,386	-24,400	0,038	0,017
-603,371	-37,071	-0,069	0,027
-602,357	-200,000	0,006	0,044
-601,342	563,525	-0,053	-0,095
-600,328	-200,000	-0,018	-0,098
-599,313	800,000	0,041	0,123
-598,298	-200,000	0,012	0,081
-597,284	-120,927	0,078	0,010
-596,269	392,746	-0,051	0,079
-595,255	-200,000	0,011	-0,131
-594,240	-200,000	-0,019	-0,141
-593,225	311,318	0,092	-0,128
-592,211	-200,000	0,002	-0,043
-591,196	388,806	-0,034	-0,053
-590,182	32,263	0,094	-0,060
-589,167	461,229	-0,095	0,157
-588,152	-144,925	0,058	0,004
-587,138	-200,000	-0,007	0,210
-586,123	-200,000	0,005	-0,082
-585,109	129,481	0,025	0,024
-584,094	-97,775	-0,122	-0,023
-583,079	-35,838	-0,010	0,004
-582,065	-76,195	0,032	-0,008
-581,050	-43,804	0,112	0,042
-580,036	-45,807	-0,023	-0,008
-579,021	10,476	-0,105	-0,059
-578,006	-11,510	0,035	0,017
-576,992	72,523	-0,075	0,058
-575,977	699,964	0,025	-0,050
-574,963	-76,865	-0,082	0,021
-573,948	21,878	0,057	-0,034
-572,934	-101,478	-0,108	0,019
-571,919	-82,511	0,100	-0,024
-570,904	-200,000	0,021	-0,145
-569,890	800,000	0,054	-0,118
-568,875	-200,000	-0,004	0,088
-567,861	-4,910	-0,044	0,023
-566,846	-168,024	0,158	-0,004
-565,831	-200,000	0,010	-0,071
-564,817	-70,432	-0,159	0,044
-563,802	-67,623	-0,139	0,040
-562,788	-200,000	-0,021	-0,074
-561,773	-103,108	0,108	0,019
-560,758	13,421	0,039	-0,022
-559,744	406,151	-0,039	0,061
-558,729	75,974	-0,074	-0,058
-557,715	-200,000	-0,002	0,052
-556,700	-110,196	-0,019	-0,003
-555,685	-200,000	-0,002	0,054
-554,671	318,052	0,057	0,080
-553,656	800,000	0,039	-0,122
-552,642	-58,463	0,029	-0,009
-551,627	87,860	0,041	0,033
-550,612	238,270	-0,102	0,125
-549,598	-164,368	-0,197	0,007
-548,583	-91,092	0,007	-0,001
-547,569	230,844	-0,062	-0,075
-546,554	57,179	0,023	0,017
-545,539	614,682	0,051	-0,095
-544,525	-200,000	0,001	-0,100
-543,510	719,838	0,038	-0,075
-542,496	592,065	0,048	0,087
-541,481	-200,000	-0,003	-0,176
-540,466	494,979	0,099	-0,168
-539,452	800,000	-0,038	0,086
-538,437	53,318	-0,085	0,060
-537,423	-122,394	0,136	-0,016
-536,408	-200,000	0,009	0,083
-535,393	-200,000	0,036	-0,206
-534,379	79,441	-0,078	-0,062
-533,364	800,000	0,033	-0,080
-532,350	45,416	0,110	-0,075
-531,335	85,683	-0,065	-0,053
-530,321	-200,000	0,011	0,098
-529,306	800,000	0,034	0,088
-528,291	-200,000	-0,013	-0,103
-527,277	800,000	-0,034	-0,085
-526,262	25,907	-0,039	0,024
-525,248	20,103	0,002	0,001
-524,233	800,000	-0,058	-0,127
-523,218	-200,000	0,002	-0,026
-522,204	-158,196	0,142	0,006
-521,189	92,612	-0,144	-0,120
-520,175	229,624	0,075	0,090
-519,160	21,126	0,074	0,044
-518,145	-200,000	-0,022	0,121
-517,131	63,443	-0,046	0,034
-516,116	-200,000	-0,015	0,122
-515,102	-0,306	0,083	-0,043
-514,087	-128,563	-0,242	-0,025
-513,072	426,584	0,054	0,086
-512,058	-20,712	0,079	0,036
-511,043	47,058	-0,093	-0,064
-510,029	672,129	0,063	0,121
-509,014	-10,519	-0,093	-0,045
-507,999	800,000	0,055	0,165
-506,985	-103,965	0,052	-0,009
-505,970	-37,296	-0,167	0,065
-504,956	1,935	-0,089	-0,047
-503,941	-200,000	0,012	0,102
-502,926	800,000	-0,094	0,221
-501,912	-94,627	0,088	0,017
-500,897	-104,534	-0,026	-0,004
-499,883	800,000	-0,035	-0,098
-498,868	231,981	-0,020	-0,024
-497,853	-187,958	-0,283	-0,003
-496,839	360,120	-0,047	-0,070
-495,824	-88,556	0,074	0,016
-494,810	-8,788	-0,050	-0,025
-493,795	-104,382	-0,067	-0,011
-492,781	4,805	0,027	-0,014
-491,766	800,000	0,002	0,003
-490,751	-200,000	-0,008	-0,049
-489,737	270,581	-0,029	0,038
-488,722	-15,289	0,085	-0,040
-487,708	220,732	0,115	0,136
-486,693	-104,013	0,099	-0,017
-485,678	26,702	-0,076	0,047
-484,664	-124,364	0,078	-0,009
-483,649	255,346	0,047	0,059
-482,635	800,000	0,004	-0,010
-481,620	176,680	0,058	-0,062
-480,605	53,005	0,091	0,064
-479,591	-171,357	0,069	-0,002
-478,576	-80,994	0,093	-0,023
-477,562	-200,000	-0,012	-0,172
-476,547	93,328	0,042	0,035
-475,532	-0,150	0,023	0,012
-474,518	108,132	0,048	0,042
-473,503	800,000	-0,028	-0,063
-472,489	-17,787	0,136	0,063
-471,474	-200,000	-0,023	-0,150
-470,459	100,981	-0,106	0,091
-469,445	-21,592	-0,132	0,059
-468,430	-46,083	-0,078	-0,028
-467,416	38,814	0,010	-0,007
-466,401	-200,000	-0,022	0,078
-465,386	98,508	0,103	0,087
-464,372	-3,117	-0,069	-0,035
-463,357	364,083	-0,085	-0,126
-462,343	-200,000	-0,007	0,041
-461,328	112,782	0,031	-0,028
-460,313	51,203	0,099	0,069
-459,299	800,000	0,034	0,104
-458,284	27,792	-0,157	-0,097
-457,270	461,037	0,030	-0,049
-456,255	81,516	0,145	0,115
-455,241	-29,603	-0,033	0,014
-454,226	619,893	0,041	0,076
-453,211	-84,034	0,048	0,011
-452,197	-200,000	0,020	0,075
-451,182	-200,000	-0,002	-0,024
-450,168	-90,671	0,150	-0,032
-449,153	-200,000	-0,002	-0,033
-448,138	-164,955	-0,109	0,004
-447,124	-75,494	-0,109	-0,028
-446,109	800,000	0,054	-0,138
-445,095	-200,000	0,007	-0,038
-444,080	140,161	0,079	0,077
-443,065	86,657	-0,071	0,058
-442,051	-200,000	0,001	0,097
-441,036	-138,165	0,040	0,003
-440,022	167,995	-0,040	0,042
-439,007	-7,450	0,155	0,077
-437,992	800,000	-0,015	0,039
-436,978	688,995	0,070	0,134
-435,963	114,051	0,090	0,080
-434,949	52,160	0,089	-0,062
-433,934	800,000	0,011	-0,031
-432,919	800,000	0,017	-0,052
-431,905	-165,499	0,170	0,005
-430,890	-200,000	-0,009	0,045
-429,876	528,854	0,010	-0,017
-428,861	21,125	0,064	0,038
-427,846	355,187	-0,014	-0,021
-426,832	800,000	0,070	-0,150
-425,817	144,564	-0,063	0,062
-424,803	-200,000	-0,034	-0,119
-423,788	145,524	-0,054	-0,053
-422,773	-200,000	0,036	-0,122
-421,759	199,063	0,053	0,060
-420,744	-200,000	-0,010	0,034
-419,730	596,696	0,047	-0,086
-418,715	5,443	0,084	-0,045
-417,701	-155,729	0,071	0,003
-416,686	696,288	0,057	0,111
-415,671	225,820	0,018	0,021
-414,657	454,783	-0,043	-0,071
-413,642	215,469	-0,036	-0,042
-412,628	416,259	-0,081	-0,127
-411,613	52,693	-0,046	-0,032
-410,598	-84,178	-0,131	0,030
-409,584	423,066	-0,025	0,040
-408,569	-153,680	-0,042	-0,002
-407,555	800,000	0,016	0,036
-406,540	402,738	0,031	-0,047
-405,525	0,698	-0,077	0,040
-404,511	26,580	-0,084	-0,052
-403,496	-80,900	0,019	0,005
-402,482	-101,150	0,122	-0,022
-401,467	-73,372	0,148	-0,040
-400,452	800,000	0,052	0,115
-399,438	-200,000	-0,030	-0,124
-398,423	727,493	-0,018	0,036
-397,409	-200,000	0,004	-0,065
-396,394	800,000	-0,012	-0,027
-395,379	-200,000	0,022	-0,116
-394,365	155,060	-0,009	-0,010
-393,350	33,096	0,124	0,078
-392,336	229,063	0,025	-0,030
-391,321	800,000	0,046	0,126
-390,306	-100,642	-0,074	0,013
-389,292	800,000	-0,060	0,138
-388,277	117,649	0,087	-0,079
-387,263	-5,189	-0,054	-0,027
-386,248	10,808	0,103	-0,058
-385,233	422,438	0,054	-0,085
-384,219	-200,000	0,003	0,012
-383,204	546,675	-0,047	-0,082
-382,190	-161,326	-0,132	0,005
-381,175	458,370	-0,033	-0,055
-380,160	418,041	0,066	0,104
-379,146	-159,059	0,213	0,009
-378,131	15,664	-0,031	0,018
-377,117	103,243	-0,092	-0,079
-376,102	-60,580	-0,124	-0,038
-375,088	-200,000	0,008	-0,150
-374,073	800,000	0,041	-0,122
-373,058	-96,973	0,009	-0,002
-372,044	-200,000	0,021	0,108
-371,029	14,802	-0,082	-0,047
-370,015	68,197	0,083	-0,062
-369,000	-62,167	-0,220	-0,067
-367,985	37,920	0,063	0,041
-366,971	196,734	0,033	-0,037
-365,956	44,469	0,049	-0,033
-364,942	-200,000	0,003	0,031
-363,927	-15,483	0,021	-0,010
-362,912	-200,000	0,024	0,093
-361,898	-67,653	-0,046	-0,013
-360,883	73,029	-0,117	-0,090
-359,869	6,883	-0,078	-0,042
-358,854	-200,000	0,038	0,175
-357,839	527,432	0,067	0,117
-356,825	-200,000	-0,003	0,059
-355,810	44,431	0,006	0,004
-354,796	800,000	-0,005	-0,014
-353,781	-72,031	0,037	0,010
-352,766	800,000	-0,043	-0,102
-351,752	-200,000	-0,000	0,065
-350,737	95,917	0,105	0,088
-349,723	35,434	-0,039	-0,025
-348,708	154,804	-0,078	0,079
-347,693	434,793	-0,064	0,102
-346,679	29,351	0,100	0,062
-345,664	156,818	0,025	0,026
-344,650	800,000	0,044	-0,122
-343,635	800,000	-0,050	0,121
-342,620	48,945	-0,088	0,060
-341,606	-52,593	0,157	-0,053
-340,591	-4,795	-0,031	-0,016
-339,577	-56,412	0,070	0,023
-338,562	-139,046	-0,074	0,006
-337,548	-200,000	0,005	-0,021
-336,533	-3,337	-0,052	0,027
-335,518	155,326	-0,064	0,065
-334,504	-200,000	0,012	0,046
-333,489	27,757	-0,140	-0,086
-332,475	0,031	-0,054	-0,028
-331,460	-157,609	-0,079	-0,003
-330,445	-200,000	-0,048	0,160
-329,431	800,000	-0,026	-0,071
-328,416	-107,166	0,079	-0,013
-327,402	-93,937	-0,051	0,010
-326,387	-67,648	-0,121	-0,034
-325,372	800,000	0,042	-0,105
-324,358	116,496	-0,119	0,107
-323,343	92,922	-0,028	0,023
-322,329	4,614	0,084	-0,045
-321,314	-37,467	0,149	0,058
-320,299	-44,485	-0,053	-0,019
-319,285	-200,000	-0,018	-0,085
-318,270	-148,471	0,104	0,006
-317,256	-97,582	-0,188	-0,035
-316,241	-200,000	-0,002	-0,045
-315,226	-200,000	-0,014	-0,127
-314,212	761,471	0,032	0,064
-313,197	-72,631	-0,045	-0,012
-312,183	308,487	-0,031	-0,043
-311,168	800,000	-0,015	0,045
-310,153	55,822	0,036	0,025
-309,139	800,000	-0,010	-0,021
-308,124	800,000	-0,021	-0,059
-307,110	-200,000	-0,007	0,046
-306,095	67,683	0,058	0,043
-305,080	-55,806	-0,044	-0,014
-304,066	-54,128	0,064	-0,021
-303,051	-83,682	-0,090	-0,021
-302,037	-200,000	0,013	0,078
-301,022	-22,216	-0,081	0,036
-300,008	243,674	0,103	0,127
-298,993	-82,014	-0,094	0,022
-297,978	-89,920	-0,121	0,026
-296,964	-200,000	0,012	0,114
-295,949	-200,000	0,036	-0,122
-294,935	53,532	0,139	-0,098
-293,920	800,000	-0,024	0,060
-292,905	-200,000	0,024	0,086
-291,891	-126,882	-0,076	0,008
-290,876	-200,000	-0,085	-0,000
-289,862	800,000	-0,003	0,009
-288,847	800,000	-0,011	0,027
-287,832	-200,000	-0,013	-0,071
-286,818	800,000	-0,015	0,038
-285,803	-200,000	-0,026	0,087
-284,789	186,166	-0,057	0,063
-283,774	-30,865	0,082	0,034
-282,759	-175,083	-0,052	0,001
-281,745	-200,000	-0,021	-0,100
-280,730	-200,000	-0,002	-0,076
-279,716	-80,318	-0,190	0,046
-278,701	-200,000	0,025	-0,132
-277,686	458,509	-0,026	-0,043
-276,672	463,677	0,022	0,035
-275,657	-200,000	0,007	0,116
-274,643	-147,750	0,110	-0,007
-273,628	211,300	-0,080	-0,092
-272,613	800,000	-0,008	-0,020
-271,599	800,000	0,056	0,119
-270,584	-123,475	0,055	0,006
-269,570	317,731	0,024	0,034
-268,555	17,608	0,078	0,045
-267,540	257,722	0,029	-0,037
-266,526	-120,552	-0,029	-0,004
-265,511	80,667	-0,118	-0,093
-264,497	-96,306	0,136	0,026
-263,482	800,000	0,057	0,181
-262,467	-24,725	0,143	0,062
-261,453	21,005	0,026	-0,015
-260,438	800,000	-0,033	-0,067
-259,424	390,300	-0,048	-0,072
-258,409	800,000	0,056	-0,126
-257,395	79,521	-0,108	-0,084
-256,380	-33,997	-0,088	0,035
-255,365	-200,000	-0,001	-0,041
-254,351	612,087	-0,042	-0,077
-253,336	26,875	-0,104	0,064
-252,322	800,000	0,039	0,080
-251,307	305,208	0,003	0,004
-250,292	-117,150	0,096	-0,013
-249,278	418,460	0,081	0,126
-248,263	-200,000	-0,015	0,103
-247,249	-16,442	-0,131	0,061
-246,234	-123,398	0,076	0,009
-245,219	710,986	0,032	-0,062
-244,205	-154,467	-0,026	0,001
-243,190	-169,683	-0,148	-0,004
-242,176	-200,000	-0,008	0,044
-241,161	800,000	0,032	-0,085
-240,146	485,242	-0,015	0,026
-239,132	48,116	-0,080	-0,055
-238,117	800,000	0,043	-0,094
-237,103	-110,589	-0,188	-0,028
-236,088	332,239	-0,024	-0,034
-235,073	-200,000	0,026	0,089
-234,059	800,000	0,019	-0,040
-233,044	-200,000	0,033	0,137
-232,030	-124,583	-0,027	-0,003
-231,015	166,608	-0,103	-0,107
-230,000	-106,127	0,149	-0,024
-228,986	-200,000	-0,009	-0,032
-227,971	140,644	0,087	-0,084
-226,957	-99,061	-0,082	0,015
-225,942	-200,000	0,004	0,089
-224,927	-52,037	-0,049	0,017
-223,913	662,851	-0,078	-0,148
-222,898	-200,000	0,003	0,151
-221,884	-96,216	-0,130	0,025
-220,869	66,439	0,098	-0,073
-219,855	77,750	0,089	0,069
-218,840	-96,878	0,131	-0,025
-217,825	363,048	0,028	-0,041
-216,811	800,000	-0,009	-0,023
-215,796	219,981	0,073	-0,085
-214,782	-200,000	-0,023	-0,184
-213,767	-102,573	0,166	-0,029
-212,752	800,000	0,026	0,063
-211,738	-200,000	0,015	-0,157
-210,723	165,927	0,045	0,046
-209,709	437,332	-0,033	0,053
-208,694	163,934	-0,058	-0,060
-207,679	-200,000	0,039	-0,134
-206,665	510,174	-0,033	0,057
-205,650	523,720	0,087	0,149
-204,636	-200,000	0,007	0,054
-203,621	431,351	-0,052	0,082
-202,606	18,766	0,085	0,050
-201,592	135,594	0,080	-0,076
-200,577	15,095	-0,047	-0,027
-199,563	-1,697	-0,051	0,026
-198,548	800,000	0,071	0,150
-197,533	-200,000	0,040	0,153
-196,519	178,798	0,078	0,083
-195,504	147,903	-0,093	0,091
-194,490	130,647	0,060	-0,056
-193,475	-36,673	-0,085	-0,033
-192,460	-94,046	-0,042	-0,008
-191,446	-99,855	-0,140	-0,025
-190,431	297,224	0,054	0,072
-189,417	235,359	0,049	0,059
-188,402	-131,512	-0,034	0,003
-187,387	-69,890	-0,085	0,023
-186,373	-131,021	0,149	0,014
-185,358	-200,000	-0,005	0,018
-184,344	351,440	0,008	0,012
-183,329	311,159	0,037	0,051
-182,315	74,250	-0,064	-0,049
-181,300	-200,000	0,055	0,000
-180,285	12,666	0,064	0,036
-179,271	800,000	-0,018	0,045
-178,256	800,000	0,020	-0,064
-177,242	-200,000	0,003	0,045
-176,227	175,586	0,094	0,100
-175,212	614,380	0,059	-0,109
-174,198	40,623	-0,080	-0,052
-173,183	-200,000	0,110	0,000
-172,169	140,246	0,029	-0,028
-171,154	-74,799	0,078	0,020
-170,139	193,937	0,100	0,110
-169,125	-200,000	0,011	0,212
-168,110	183,608	0,026	-0,028
-167,096	327,351	-0,058	-0,081
-166,081	-152,062	0,144	-0,007
-165,066	800,000	-0,031	-0,089
-164,052	293,558	0,018	-0,024
-163,037	318,132	0,094	-0,129
-162,023	800,000	0,014	0,031
-161,008	-200,000	-0,004	0,158
-159,993	-84,351	0,138	-0,032
-158,979	-172,908	-0,194	0,004
-157,964	-104,466	-0,033	-0,005
-156,950	72,331	0,019	0,014
-155,935	197,126	-0,077	0,085
-154,920	129,207	0,082	0,076
-153,906	167,580	-0,102	0,106
-152,891	83,320	-0,064	-0,050
-151,877	105,098	-0,013	-0,011
-150,862	-200,000	-0,012	0,070
-149,847	-14,073	0,044	-0,020
-148,833	-109,846	0,136	-0,021
-147,818	-55,826	0,073	0,024
-146,804	-49,044	0,120	-0,042
-145,789	-85,294	-0,181	-0,041
-144,775	486,472	-0,053	-0,087
-143,760	395,609	-0,098	-0,149
-142,745	63,329	-0,068	-0,049
-141,731	588,893	0,017	0,031
-140,716	163,581	0,074	0,076
-139,702	227,671	-0,104	0,123
-138,687	800,000	0,017	-0,055
-137,672	-200,000	-0,018	-0,080
-136,658	-66,321	0,035	-0,010
-135,643	231,607	0,049	0,059
-134,629	-42,778	-0,120	-0,044
-133,614	-68,765	-0,032	0,009
-132,599	772,814	-0,038	0,076
-131,585	-63,494	-0,116	-0,034
-130,570	-32,609	0,129	0,052
-129,556	36,825	-0,059	0,038
-128,541	800,000	0,013	-0,027
-127,526	-182,736	-0,038	0,000
-126,512	-26,346	0,097	0,041
-125,497	352,817	0,023	0,033
-124,483	800,000	0,040	-0,083
-123,468	760,503	0,029	0,057
-122,453	125,023	0,039	0,036
-121,439	-2,204	-0,120	-0,061
-120,424	502,266	-0,062	-0,104
-119,410	124,823	-0,102	0,093
-118,395	317,469	0,093	-0,128
