DTS Sentinel unit serial number:	SN410029Multiplexer serial number:	ORYXHardware model number:	OX2-SRSoftware version number:	ORYX F/W v4,00 Oryx Data Collector v3.7.2.0data status	okinstallation	B4 Nyhavnadifferential loss correction	single-endedforward channel	channel 2reverse channel	N/Adate	2023/12/16time	13:10:13forward acquisition time	300,00reverse acquisition time	0,00gamma	499,1914k internal	0,3126k external	0,3126temperature offset calibration	1,0000default loss term (dB/km)	0,3820temperature slope calibration	1,0000multiplexer offset coefficient	1,0000multiplexer slope coefficient	1,0000fibre end	0,00T internal ref (°C)	24,55T ext. ref 1 (°C)	11,08T ext. ref 2 (°C)	11,26length (m)	temperature (°C)	Stokes	anti-Stokes-744,400	-71,030	0,101	-0,028
-743,385	35,922	-0,168	0,110
-742,371	-13,025	-0,047	0,023
-741,356	318,596	-0,190	0,269
-740,342	-2,362	0,084	0,044
-739,327	-100,347	-0,159	0,029
-738,312	204,893	0,048	0,056
-737,298	108,781	-0,144	0,128
-736,283	182,237	0,118	-0,129
-735,269	274,350	-0,109	0,143
-734,254	15,102	-0,043	0,025
-733,239	-159,066	-0,353	-0,015
-732,225	256,483	-0,045	-0,057
-731,210	162,756	-0,094	0,098
-730,196	800,000	0,024	0,076
-729,181	-172,308	-0,140	-0,003
-728,167	-200,000	0,004	-0,028
-727,152	-30,938	-0,111	-0,046
-726,137	-200,000	-0,044	-0,180
-725,123	-71,732	-0,169	-0,047
-724,108	67,750	0,018	0,014
-723,094	161,487	-0,041	-0,043
-722,079	462,425	-0,067	0,112
-721,064	78,936	-0,096	-0,077
-720,050	201,009	0,134	0,154
-719,035	-113,121	-0,156	-0,023
-718,021	-97,956	-0,067	-0,013
-717,006	-200,000	0,006	-0,118
-715,991	622,122	-0,080	-0,151
-714,977	-146,921	-0,125	0,008
-713,962	215,159	-0,060	0,071
-712,948	66,151	-0,073	-0,055
-711,933	311,973	0,072	0,101
-710,918	-200,000	-0,004	0,016
-709,904	336,558	-0,038	-0,055
-708,889	200,738	0,071	-0,081
-707,875	9,513	-0,069	0,039
-706,860	-70,265	-0,033	0,009
-705,845	-200,000	0,032	0,139
-704,831	24,468	0,102	0,062
-703,816	-168,402	-0,112	-0,003
-702,802	800,000	0,005	-0,012
-701,787	121,589	-0,067	0,062
-700,772	-200,000	0,002	-0,010
-699,758	800,000	0,040	0,087
-698,743	-120,031	-0,035	0,004
-697,729	-66,243	-0,088	0,026
-696,714	470,115	-0,060	0,101
-695,699	-54,642	-0,119	0,040
-694,685	-113,206	-0,136	0,020
-693,670	60,199	0,043	-0,032
-692,656	-25,336	0,068	0,030
-691,641	178,640	-0,036	0,039
-690,627	271,165	0,051	0,066
-689,612	-200,000	-0,002	-0,052
-688,597	-200,000	-0,010	-0,052
-687,583	-6,491	0,061	-0,031
-686,568	-20,245	-0,171	-0,078
-685,554	-200,000	0,012	-0,101
-684,539	800,000	0,017	0,039
-683,524	-76,755	0,100	-0,026
-682,510	-16,948	-0,033	-0,015
-681,495	-200,000	0,009	0,165
-680,481	-85,403	-0,140	-0,032
-679,466	800,000	-0,021	-0,045
-678,451	97,682	-0,076	0,065
-677,437	202,338	0,041	0,047
-676,422	248,248	-0,060	0,075
-675,408	-200,000	-0,003	0,075
-674,393	-55,591	0,057	-0,019
-673,378	800,000	-0,050	-0,155
-672,364	150,001	-0,083	-0,084
-671,349	133,757	0,017	0,017
-670,335	-200,000	0,002	-0,144
-669,320	18,357	0,083	-0,049
-668,305	-200,000	0,018	-0,099
-667,291	75,500	0,067	-0,053
-666,276	178,275	-0,079	0,085
-665,262	778,113	-0,076	-0,154
-664,247	15,368	-0,065	-0,038
-663,232	304,507	0,061	0,084
-662,218	-200,000	-0,002	0,033
-661,203	-200,000	0,004	-0,073
-660,189	184,877	-0,065	-0,071
-659,174	-50,831	0,096	-0,033
-658,159	-15,626	-0,024	0,011
-657,145	800,000	0,036	0,085
-656,130	37,508	-0,163	-0,107
-655,116	800,000	0,021	0,070
-654,101	-19,867	0,102	-0,047
-653,086	-106,999	-0,104	0,017
-652,072	231,392	-0,091	-0,110
-651,057	-200,000	0,004	-0,021
-650,043	124,840	-0,043	0,041
-649,028	9,117	0,044	0,024
-648,014	-102,318	0,170	-0,030
-646,999	-71,307	-0,120	-0,033
-645,984	-200,000	0,035	0,134
-644,970	-117,787	-0,062	-0,008
-643,955	800,000	-0,042	-0,114
-642,941	-84,096	-0,328	0,077
-641,926	91,397	0,094	-0,078
-640,911	800,000	-0,039	0,083
-639,897	-113,491	0,123	-0,018
-638,882	-101,511	0,113	0,020
-637,868	-10,287	-0,148	-0,072
-636,853	334,623	-0,027	-0,039
-635,838	104,960	-0,056	0,049
-634,824	800,000	0,043	0,103
-633,809	37,954	0,050	-0,033
-632,795	-200,000	0,013	-0,072
-631,780	-166,628	-0,071	0,002
-630,765	312,652	0,054	0,076
-629,751	-123,919	-0,051	0,006
-628,736	-9,925	-0,088	0,043
-627,722	-200,000	-0,004	-0,076
-626,707	-73,115	-0,098	-0,027
-625,692	-26,586	0,104	0,045
-624,678	-200,000	-0,002	0,028
-623,663	-200,000	-0,008	0,156
-622,649	800,000	0,023	0,053
-621,634	552,905	0,072	0,128
-620,619	-22,916	0,033	-0,015
-619,605	-136,294	0,015	0,001
-618,590	-54,236	0,195	0,065
-617,576	19,011	0,173	-0,103
-616,561	-46,819	-0,124	-0,045
-615,546	252,890	-0,083	-0,105
-614,532	-200,000	-0,005	-0,036
-613,517	-78,673	0,105	0,026
-612,503	-200,000	-0,002	-0,044
-611,488	-200,000	-0,022	0,149
-610,474	-200,000	-0,019	0,149
-609,459	541,677	0,029	0,052
-608,444	-138,205	-0,055	-0,004
-607,430	-95,080	0,109	-0,022
-606,415	140,833	0,027	0,026
-605,401	-138,589	-0,108	0,009
-604,386	38,663	0,089	0,058
-603,371	-0,512	-0,111	0,058
-602,357	800,000	0,045	0,108
-601,342	-45,449	-0,031	0,011
-600,328	-200,000	-0,003	0,087
-599,313	66,451	-0,079	-0,060
-598,298	484,088	0,042	-0,070
-597,284	-72,070	0,064	-0,018
-596,269	236,901	-0,083	0,102
-595,255	237,158	-0,079	-0,097
-594,240	421,554	-0,050	0,079
-593,225	800,000	-0,033	0,070
-592,211	-200,000	0,008	-0,063
-591,196	-136,800	-0,157	-0,013
-590,182	37,078	0,055	-0,036
-589,167	144,893	0,044	0,043
-588,152	-151,783	-0,097	0,005
-587,138	224,389	-0,073	-0,087
-586,123	-200,000	0,021	-0,109
-585,109	800,000	-0,045	-0,108
-584,094	800,000	-0,028	-0,082
-583,079	800,000	-0,006	-0,020
-582,065	-200,000	-0,003	0,083
-581,050	-134,262	0,088	-0,008
-580,036	39,898	-0,105	0,070
-579,021	-161,552	-0,089	0,003
-578,006	-200,000	0,017	-0,126
-576,992	-3,553	0,150	-0,077
-575,977	31,001	0,067	-0,042
-574,963	800,000	0,040	0,087
-573,948	800,000	0,031	0,099
-572,934	-91,453	0,098	0,020
-571,919	-124,910	-0,024	-0,003
-570,904	-134,145	-0,055	0,005
-569,890	145,962	0,056	-0,056
-568,875	-200,000	0,018	0,068
-567,861	275,435	0,071	0,094
-566,846	-200,000	0,002	0,033
-565,831	-70,329	-0,088	0,025
-564,817	-51,479	0,145	0,050
-563,802	800,000	-0,005	0,017
-562,788	-109,793	-0,075	-0,012
-561,773	-37,841	-0,142	-0,056
-560,758	90,580	0,056	0,047
-559,744	541,174	0,077	0,136
-558,729	-200,000	-0,046	0,166
-557,715	-109,070	-0,045	-0,007
-556,700	-200,000	-0,049	0,000
-555,685	743,838	-0,041	-0,082
-554,671	6,183	-0,027	-0,015
-553,656	-200,000	-0,037	0,121
-552,642	-27,024	-0,084	0,036
-551,627	14,955	0,109	0,063
-550,612	437,654	-0,004	0,006
-549,598	236,829	-0,097	-0,120
-548,583	215,831	0,043	-0,050
-547,569	46,888	0,093	-0,064
-546,554	-200,000	0,004	0,052
-545,539	800,000	0,023	-0,060
-544,525	-200,000	-0,006	0,082
-543,510	-200,000	0,008	0,075
-542,496	-55,819	-0,141	0,046
-541,481	-56,445	-0,066	-0,021
-540,466	-109,309	-0,065	-0,010
-539,452	-174,651	0,173	0,004
-538,437	34,301	-0,038	0,024
-537,423	37,737	0,057	-0,037
-536,408	45,996	-0,053	-0,036
-535,393	-200,000	-0,014	0,065
-534,379	800,000	-0,068	-0,174
-533,364	112,557	-0,049	0,044
-532,350	-78,239	0,068	0,017
-531,335	-134,098	-0,019	-0,002
-530,321	-3,443	0,189	0,097
-529,306	200,044	-0,047	-0,054
-528,291	-6,483	0,137	0,069
-527,277	173,553	-0,083	0,088
-526,262	243,364	-0,044	-0,055
-525,248	-109,212	0,021	-0,003
-524,233	-144,587	0,183	0,012
-523,218	-74,796	0,083	-0,022
-522,204	-200,000	-0,003	0,074
-521,189	-77,632	0,121	0,031
-520,175	-200,000	-0,014	0,049
-519,160	35,139	-0,058	0,038
-518,145	-101,618	-0,084	0,015
-517,131	-132,656	-0,073	0,007
-516,116	28,823	0,094	0,058
-515,102	-81,678	-0,062	0,015
-514,087	-147,693	-0,060	0,004
-513,072	-85,965	0,075	-0,017
-512,058	-200,000	0,002	-0,092
-511,043	-200,000	-0,013	-0,059
-510,029	-100,016	0,065	-0,012
-509,014	-200,000	-0,028	-0,091
-507,999	-200,000	0,003	-0,052
-506,985	100,583	-0,035	-0,030
-505,970	-200,000	-0,032	0,138
-504,956	-200,000	0,035	0,142
-503,941	-8,364	0,015	-0,007
-502,926	-200,000	-0,018	-0,094
-501,912	-200,000	0,003	0,051
-500,897	-51,500	0,010	0,004
-499,883	-200,000	-0,025	0,000
-498,868	86,431	0,037	-0,030
-497,853	648,537	-0,031	-0,059
-496,839	-15,482	-0,045	-0,021
-495,824	800,000	-0,007	0,018
-494,810	8,062	0,114	0,063
-493,795	-19,700	-0,153	0,069
-492,781	211,633	-0,100	-0,116
-491,766	800,000	0,053	-0,130
-490,751	-200,000	0,003	-0,132
-489,737	80,315	-0,100	0,079
-488,722	-200,000	-0,001	0,129
-487,708	800,000	-0,023	0,053
-486,693	-156,379	-0,038	0,002
-485,678	-171,334	-0,093	0,002
-484,664	561,942	-0,023	0,041
-483,649	-56,083	-0,144	-0,047
-482,635	33,465	-0,051	0,032
-481,620	-79,549	-0,159	0,039
-480,605	265,189	0,048	-0,061
-479,591	-44,374	0,143	0,053
-478,576	262,810	-0,040	0,051
-477,562	-200,000	-0,022	-0,118
-476,547	-200,000	-0,016	-0,070
-475,532	800,000	0,031	0,087
-474,518	-200,000	-0,026	-0,129
-473,503	-200,000	-0,017	0,101
-472,489	-200,000	-0,014	0,124
-471,474	34,427	-0,156	-0,100
-470,459	-200,000	0,017	0,112
-469,445	800,000	-0,054	0,134
-468,430	800,000	-0,022	-0,065
-467,416	295,360	0,069	0,093
-466,401	111,558	-0,061	-0,054
-465,386	437,067	-0,057	-0,092
-464,372	-119,165	0,049	-0,006
-463,357	465,302	0,065	-0,108
-462,343	800,000	-0,022	-0,052
-461,328	-200,000	0,010	-0,100
-460,313	464,038	-0,048	-0,079
-459,299	79,836	-0,047	0,037
-458,284	218,555	0,030	0,036
-457,270	-81,685	0,020	0,005
-456,255	125,704	0,091	0,085
-455,241	-50,700	-0,080	-0,028
-454,226	-200,000	0,012	-0,086
-453,211	-2,581	0,027	0,014
-452,197	800,000	-0,075	0,177
-451,182	88,610	0,053	-0,043
-450,168	-24,160	-0,145	0,063
-449,153	129,053	-0,112	-0,106
-448,138	414,233	-0,082	-0,130
-447,124	56,947	-0,010	-0,007
-446,109	225,516	0,025	0,030
-445,095	-13,923	0,061	-0,029
-444,080	3,860	0,030	0,016
-443,065	120,688	0,066	-0,060
-442,051	402,835	0,052	-0,081
-441,036	24,422	-0,047	-0,029
-440,022	475,618	0,054	-0,090
-439,007	128,502	-0,071	-0,066
-437,992	-109,889	0,048	-0,007
-436,978	-112,554	-0,032	0,005
-435,963	-200,000	0,016	-0,063
-434,949	167,166	0,058	-0,060
-433,934	751,917	-0,022	-0,045
-432,919	800,000	-0,004	0,012
-431,905	178,857	-0,034	0,036
-430,890	-8,539	0,117	-0,058
-429,876	352,998	0,031	-0,045
-428,861	308,192	0,030	0,041
-427,846	800,000	-0,067	0,140
-426,832	-146,368	-0,053	-0,003
-425,817	-200,000	0,003	0,072
-424,803	16,895	0,071	0,041
-423,788	-200,000	0,008	0,095
-422,773	-200,000	0,000	0,103
-421,759	-27,986	-0,141	0,060
-420,744	800,000	-0,068	0,173
-419,730	14,213	0,063	0,036
-418,715	163,830	-0,048	-0,050
-417,701	267,228	-0,058	0,074
-416,686	506,460	0,039	-0,067
-415,671	-200,000	0,017	-0,171
-414,657	-72,285	-0,052	0,014
-413,642	67,111	-0,093	0,070
-412,628	45,415	0,105	-0,071
-411,613	-85,873	-0,125	-0,028
-410,598	-116,458	0,101	0,014
-409,584	-121,616	-0,073	0,009
-408,569	-200,000	-0,011	0,035
-407,555	-166,098	0,045	0,001
-406,540	330,413	0,036	-0,051
-405,525	800,000	0,028	0,071
-404,511	-127,633	0,015	-0,002
-403,496	6,880	0,066	0,036
-402,482	58,469	0,120	-0,086
-401,467	-200,000	0,013	0,086
-400,452	-127,941	0,100	0,010
-399,438	-39,409	0,082	-0,032
-398,423	56,447	0,038	0,027
-397,409	80,191	-0,123	-0,097
-396,394	212,742	-0,058	-0,067
-395,379	-26,006	-0,087	-0,037
-394,365	224,388	0,078	0,092
-393,350	96,831	-0,093	0,078
-392,336	770,372	-0,031	-0,062
-391,321	-3,402	0,080	-0,041
-390,306	180,120	-0,137	-0,148
-389,292	66,999	0,059	-0,044
-388,277	-200,000	0,003	-0,100
-387,263	800,000	-0,067	-0,139
-386,248	99,104	0,028	0,024
-385,233	-110,087	0,125	-0,019
-384,219	186,617	0,034	0,037
-383,204	488,489	-0,060	-0,100
-382,190	-16,001	-0,080	0,037
-381,175	196,597	0,108	-0,121
-380,160	-2,641	-0,034	0,017
-379,146	147,917	0,124	-0,123
-378,131	-104,052	0,083	0,014
-377,117	107,322	0,044	-0,038
-376,102	180,165	-0,040	-0,044
-375,088	21,336	-0,057	0,034
-374,073	724,029	0,035	-0,069
-373,058	201,983	0,139	-0,158
-372,044	185,078	0,025	0,027
-371,029	-93,768	-0,074	-0,015
-370,015	784,093	0,053	0,107
-369,000	800,000	-0,052	0,112
-367,985	800,000	-0,040	-0,084
-366,971	800,000	-0,027	-0,080
-365,956	68,532	-0,130	0,098
-364,942	-133,948	0,257	0,023
-363,927	800,000	0,027	0,081
-362,912	800,000	-0,034	0,092
-361,898	800,000	-0,040	0,103
-360,883	800,000	0,022	-0,065
-359,869	66,114	0,063	-0,047
-358,854	-200,000	-0,010	0,074
-357,839	-200,000	0,046	0,207
-356,825	-124,524	0,071	0,008
-355,810	-200,000	-0,009	0,103
-354,796	-44,113	-0,137	-0,050
-353,781	501,034	-0,034	0,058
-352,766	-200,000	-0,010	-0,060
-351,752	77,688	-0,111	-0,087
-350,737	-109,221	0,154	-0,024
-349,723	262,636	0,091	0,116
-348,708	92,666	-0,050	-0,041
-347,693	173,436	-0,049	0,052
-346,679	160,931	0,034	0,035
-345,664	-13,901	0,108	0,051
-344,650	800,000	-0,025	-0,065
-343,635	-8,662	0,136	-0,067
-342,620	800,000	0,045	0,110
-341,606	-115,500	-0,068	0,009
-340,591	-130,165	0,078	0,008
-339,577	800,000	0,022	-0,058
-338,562	114,791	0,014	-0,013
-337,548	370,756	-0,018	-0,027
-336,533	-52,887	-0,159	0,053
-335,518	-42,410	0,069	0,026
-334,504	46,313	0,083	0,056
-333,489	150,490	-0,061	0,060
-332,475	695,336	-0,054	-0,104
-331,460	800,000	-0,046	-0,120
-330,445	41,836	-0,075	0,050
-329,431	86,691	-0,098	-0,079
-328,416	-200,000	0,020	-0,090
-327,402	-149,472	-0,037	0,002
-326,387	-81,715	0,048	-0,011
-325,372	-53,843	0,098	-0,032
-324,358	581,173	0,029	0,052
-323,343	132,928	-0,104	-0,098
-322,329	2,920	0,050	-0,027
-321,314	38,102	0,087	-0,057
-320,299	-63,754	0,098	0,029
-319,285	52,645	0,067	-0,047
-318,270	-200,000	-0,005	-0,067
-317,256	-42,758	0,103	0,038
-316,241	-85,440	-0,059	-0,013
-315,226	-112,815	0,059	-0,009
-314,212	-200,000	-0,052	0,243
-313,197	-79,694	0,170	-0,042
-312,183	-9,633	-0,119	0,058
-311,168	800,000	-0,023	-0,070
-310,153	198,691	-0,053	-0,060
-309,139	54,290	0,062	-0,044
-308,124	800,000	-0,013	-0,040
-307,110	120,025	-0,007	-0,006
-306,095	202,839	0,067	0,076
-305,080	-200,000	0,011	-0,067
-304,066	-90,938	0,087	0,018
-303,051	-200,000	0,007	-0,055
-302,037	800,000	-0,026	-0,076
-301,022	124,553	0,086	-0,079
-300,008	5,345	0,076	0,041
-298,993	185,568	0,013	-0,014
-297,978	-51,872	-0,175	-0,059
-296,964	154,990	0,100	-0,100
-295,949	116,878	0,096	-0,086
-294,935	-21,532	-0,105	-0,046
-293,920	800,000	-0,046	-0,098
-292,905	197,385	0,095	0,106
-291,891	-85,606	0,122	0,028
-290,876	-200,000	0,131	0,000
-289,862	628,458	-0,033	-0,061
-288,847	-136,668	-0,110	-0,009
-287,832	562,164	-0,067	-0,119
-286,818	-14,707	-0,074	-0,035
-285,803	-85,449	0,085	-0,019
-284,789	290,475	0,047	0,063
-283,774	-200,000	0,006	-0,053
-282,759	-48,469	-0,069	-0,024
-281,745	38,003	0,058	0,038
-280,730	-200,000	0,029	0,105
-279,716	-200,000	0,025	0,144
-278,701	72,891	-0,077	0,059
-277,686	150,833	-0,017	-0,017
-276,672	192,242	-0,038	0,042
-275,657	-132,237	0,077	0,007
-274,643	-92,557	-0,148	-0,030
-273,628	-200,000	-0,017	0,058
-272,613	-200,000	-0,039	-0,148
-271,599	-200,000	0,007	0,033
-270,584	278,329	-0,013	-0,017
-269,570	-68,548	0,125	-0,035
-268,555	-200,000	0,020	0,081
-267,540	174,835	-0,051	-0,055
-266,526	80,843	0,084	-0,066
-265,511	-149,940	-0,198	0,011
-264,497	332,523	-0,100	-0,142
-263,482	-3,491	0,078	0,040
-262,467	67,534	0,165	0,123
-261,453	-200,000	0,011	-0,088
-260,438	-102,865	-0,104	-0,018
-259,424	-47,058	-0,044	-0,016
-258,409	-200,000	0,039	0,131
-257,395	800,000	0,104	0,219
-256,380	-200,000	0,003	-0,026
-255,365	-200,000	-0,003	-0,021
-254,351	125,884	0,059	-0,054
-253,336	295,569	0,041	0,055
-252,322	800,000	-0,040	-0,085
-251,307	-115,334	-0,053	-0,007
-250,292	-107,586	0,055	-0,009
-249,278	457,262	-0,015	0,025
-248,263	-200,000	0,034	0,128
-247,249	242,412	-0,053	0,065
-246,234	175,912	-0,079	0,084
-245,219	-200,000	-0,009	-0,065
-244,205	40,765	-0,077	0,050
-243,190	-62,023	-0,049	0,015
-242,176	-200,000	-0,001	-0,133
-241,161	-132,051	0,110	0,010
-240,146	-200,000	0,016	0,127
-239,132	-48,281	0,098	0,034
-238,117	-12,110	-0,117	0,056
-237,103	657,634	-0,019	-0,035
-236,088	441,717	-0,036	-0,058
-235,073	800,000	-0,055	-0,137
-234,059	784,099	0,055	0,111
-233,044	-19,460	0,123	-0,055
-232,030	144,620	0,078	-0,076
-231,015	-12,710	0,047	-0,022
-230,000	-50,616	-0,056	-0,019
-228,986	-200,000	-0,006	-0,077
-227,971	-25,464	-0,044	0,019
-226,957	-200,000	-0,015	0,194
-225,942	800,000	-0,049	0,137
-224,927	800,000	0,037	0,102
-223,913	35,790	0,063	-0,040
-222,898	-200,000	0,003	0,041
-221,884	-200,000	-0,002	0,072
-220,869	190,708	-0,086	0,094
-219,855	-178,535	0,073	-0,001
-218,840	-200,000	0,014	0,098
-217,825	109,393	0,065	0,057
-216,811	-136,449	0,064	0,005
-215,796	-70,276	-0,123	-0,034
-214,782	404,706	-0,117	-0,181
-213,767	-12,586	0,032	-0,015
-212,752	-200,000	-0,022	0,103
-211,738	800,000	0,038	0,090
-210,723	335,518	0,058	-0,082
-209,709	800,000	-0,032	-0,086
-208,694	-200,000	-0,011	-0,083
-207,679	800,000	0,018	0,050
-206,665	54,331	0,065	0,046
-205,650	134,922	0,028	-0,027
-204,636	-200,000	-0,040	0,148
-203,621	-8,806	0,047	0,023
-202,606	2,080	-0,065	0,034
-201,592	800,000	-0,037	-0,100
-200,577	-112,121	-0,078	-0,011
-199,563	-200,000	0,010	-0,035
-198,548	800,000	0,022	-0,058
-197,533	-21,778	-0,050	0,022
-196,519	-200,000	-0,010	-0,068
-195,504	-109,240	-0,024	-0,004
-194,490	-149,498	-0,112	0,006
-193,475	-200,000	-0,001	-0,090
-192,460	25,232	0,063	-0,038
-191,446	8,840	0,126	-0,069
-190,431	-61,613	-0,031	-0,010
-189,417	106,825	-0,054	0,047
-188,402	32,331	-0,010	-0,006
-187,387	281,319	-0,039	-0,051
-186,373	-200,000	0,006	-0,143
-185,358	-200,000	-0,000	0,067
-184,344	94,350	0,041	-0,034
-183,329	-200,000	0,025	-0,132
-182,315	142,757	-0,090	0,087
-181,300	-200,000	0,000	0,137
-180,285	-200,000	-0,011	0,076
-179,271	-200,000	-0,000	-0,056
-178,256	278,094	0,071	-0,092
-177,242	-200,000	0,010	0,045
-176,227	-200,000	0,029	-0,119
-175,212	-104,157	-0,053	0,009
-174,198	-49,602	0,072	0,025
-173,183	460,005	-0,055	-0,090
-172,169	-200,000	0,030	-0,102
-171,154	19,155	0,082	-0,048
-170,139	-36,755	-0,060	0,024
-169,125	-34,266	-0,049	0,020
-168,110	37,490	0,056	-0,036
-167,096	-103,420	-0,174	-0,029
-166,081	-50,881	0,145	0,049
-165,066	800,000	-0,065	-0,202
-164,052	800,000	0,017	-0,049
-163,037	800,000	-0,062	0,146
-162,023	231,064	0,081	0,096
-161,008	-100,770	0,080	0,014
-159,993	320,821	-0,032	0,044
-158,979	-143,240	0,099	-0,007
-157,964	339,987	-0,049	-0,070
-156,950	-200,000	-0,016	-0,108
-155,935	-126,535	0,046	0,005
-154,920	287,655	-0,031	0,041
-153,906	-136,341	0,107	-0,009
-152,891	247,805	-0,071	0,087
-151,877	-200,000	0,011	0,069
-150,862	158,836	-0,025	0,025
-149,847	-200,000	0,011	0,114
-148,833	-34,943	0,149	-0,059
-147,818	-200,000	-0,001	0,100
-146,804	-63,652	0,100	-0,030
-145,789	-200,000	-0,020	-0,074
-144,775	800,000	-0,031	-0,078
-143,760	-87,481	0,068	-0,015
-142,745	-59,931	-0,047	0,014
-141,731	-172,665	0,112	-0,002
-140,716	-200,000	0,001	0,119
-139,702	-200,000	0,023	0,083
-138,687	689,109	-0,043	0,083
-137,672	800,000	-0,056	0,124
-136,658	-165,161	-0,124	-0,004
-135,643	-127,925	0,097	-0,010
-134,629	323,369	0,040	0,055
-133,614	800,000	0,044	0,100
-132,599	128,072	0,053	-0,049
-131,585	100,133	-0,067	0,057
-130,570	-2,243	0,041	-0,021
-129,556	-200,000	-0,014	0,079
-128,541	-112,158	-0,123	-0,018
-127,526	19,439	0,141	-0,082
-126,512	800,000	-0,029	0,091
-125,497	800,000	-0,027	0,070
-124,483	-200,000	-0,021	0,107
-123,468	664,366	-0,040	-0,075
-122,453	-14,488	-0,125	-0,058
-121,439	-68,979	0,091	0,025
-120,424	-54,689	0,055	-0,018
