DTS Sentinel unit serial number:	SN410029Multiplexer serial number:	ORYXHardware model number:	OX2-SRSoftware version number:	ORYX F/W v4,00 Oryx Data Collector v3.7.2.0data status	okinstallation	B4 Nyhavnadifferential loss correction	single-endedforward channel	channel 2reverse channel	N/Adate	2023/12/19time	12:20:13forward acquisition time	300,00reverse acquisition time	0,00gamma	499,1914k internal	0,3128k external	0,3128temperature offset calibration	1,0000default loss term (dB/km)	0,3820temperature slope calibration	1,0000multiplexer offset coefficient	1,0000multiplexer slope coefficient	1,0000fibre end	0,00T internal ref (°C)	19,61T ext. ref 1 (°C)	4,52T ext. ref 2 (°C)	4,54length (m)	temperature (°C)	Stokes	anti-Stokes-744,400	1,821	-0,044	-0,023
-743,385	-138,072	-0,234	0,019
-742,371	-111,339	0,058	0,009
-741,356	27,885	-0,222	0,139
-740,342	126,467	0,082	0,077
-739,327	45,723	-0,209	0,144
-738,312	-4,612	-0,128	-0,065
-737,298	56,197	-0,189	0,137
-736,283	108,857	0,128	0,114
-735,269	-106,646	-0,247	0,040
-734,254	204,490	0,068	0,078
-733,239	-111,019	-0,632	-0,096
-732,225	125,623	0,137	0,129
-731,210	59,470	0,004	-0,003
-730,196	48,677	0,086	-0,060
-729,181	172,704	0,031	0,033
-728,167	158,338	0,036	-0,037
-727,152	800,000	0,001	0,004
-726,137	800,000	-0,047	0,109
-725,123	800,000	-0,012	0,035
-724,108	186,758	0,071	0,079
-723,094	551,673	-0,077	-0,139
-722,079	-115,702	-0,132	0,018
-721,064	314,020	-0,009	-0,012
-720,050	-141,911	-0,065	-0,005
-719,035	-64,761	0,055	0,017
-718,021	-104,408	0,035	0,006
-717,006	-74,629	-0,254	-0,068
-715,991	63,628	-0,028	-0,021
-714,977	800,000	-0,026	0,067
-713,962	-35,604	0,080	0,032
-712,948	681,777	0,034	-0,066
-711,933	254,906	0,091	-0,115
-710,918	-146,615	0,152	-0,010
-709,904	563,189	-0,072	-0,131
-708,889	-200,000	0,010	-0,122
-707,875	-200,000	0,016	-0,053
-706,860	800,000	0,014	-0,038
-705,845	75,120	-0,131	-0,103
-704,831	800,000	0,022	-0,060
-703,816	-63,842	-0,184	-0,056
-702,802	-48,761	-0,153	-0,054
-701,787	96,307	-0,034	0,029
-700,772	800,000	0,044	-0,100
-699,758	-200,000	-0,029	-0,134
-698,743	367,916	0,024	0,036
-697,729	-125,998	-0,026	0,003
-696,714	-108,694	-0,053	0,008
-695,699	-28,381	-0,188	-0,080
-694,685	326,323	0,029	-0,041
-693,670	-200,000	-0,002	-0,110
-692,656	800,000	0,022	0,069
-691,641	800,000	-0,008	-0,019
-690,627	800,000	-0,063	0,136
-689,612	235,440	-0,052	0,063
-688,597	-174,179	-0,128	-0,003
-687,583	-125,350	-0,222	-0,025
-686,568	800,000	-0,055	-0,162
-685,554	462,282	-0,087	-0,145
-684,539	-200,000	0,017	0,059
-683,524	-125,271	0,094	-0,011
-682,510	-200,000	0,007	-0,043
-681,495	-78,763	-0,138	-0,035
-680,481	116,823	-0,137	-0,125
-679,466	-200,000	-0,035	-0,142
-678,451	25,459	-0,097	0,060
-677,437	-98,017	0,067	-0,013
-676,422	-84,737	0,082	-0,019
-675,408	73,654	-0,044	0,035
-674,393	-104,441	0,013	-0,002
-673,378	137,689	0,050	0,049
-672,364	123,576	-0,119	0,111
-671,349	-23,472	0,070	-0,031
-670,335	524,440	-0,060	-0,105
-669,320	565,260	0,038	-0,069
-668,305	765,968	0,019	0,039
-667,291	-147,464	0,075	0,005
-666,276	800,000	-0,043	-0,117
-665,262	-9,115	-0,106	-0,053
-664,247	-200,000	-0,001	-0,012
-663,232	147,761	-0,045	0,045
-662,218	-87,424	-0,006	0,001
-661,203	608,927	-0,035	0,065
-660,189	72,113	-0,109	0,084
-659,174	718,070	0,072	-0,143
-658,159	53,834	-0,094	-0,067
-657,145	463,024	-0,048	-0,080
-656,130	143,780	0,059	-0,058
-655,116	-200,000	-0,001	0,092
-654,101	-200,000	0,007	0,156
-653,086	800,000	-0,013	-0,040
-652,072	800,000	-0,055	-0,143
-651,057	800,000	0,029	-0,090
-650,043	-48,028	-0,046	0,017
-649,028	6,328	0,079	0,044
-648,014	800,000	0,032	0,076
-646,999	800,000	0,042	-0,092
-645,984	800,000	-0,014	-0,041
-644,970	-51,363	-0,166	0,057
-643,955	-200,000	-0,026	-0,143
-642,941	-95,904	-0,099	0,019
-641,926	788,302	-0,068	-0,139
-640,911	138,241	0,059	0,057
-639,897	-28,607	0,110	-0,047
-638,882	7,388	-0,076	0,042
-637,868	-200,000	0,015	0,059
-636,853	213,620	-0,058	0,068
-635,838	269,424	0,114	0,148
-634,824	-200,000	0,008	0,079
-633,809	260,583	-0,047	0,060
-632,795	58,274	-0,097	0,070
-631,780	44,092	-0,021	0,015
-630,765	568,165	-0,018	-0,033
-629,751	420,952	-0,029	0,047
-628,736	-200,000	-0,013	-0,046
-627,722	-24,454	-0,135	-0,060
-626,707	-93,532	0,088	0,018
-625,692	229,268	-0,028	0,033
-624,678	204,326	-0,054	0,062
-623,663	-89,452	-0,035	-0,007
-622,649	-74,066	-0,144	-0,038
-621,634	228,424	0,034	0,041
-620,619	273,514	-0,118	-0,155
-619,605	33,582	0,184	0,118
-618,590	800,000	-0,026	0,067
-617,576	-134,359	-0,060	-0,005
-616,561	-100,829	0,082	0,015
-615,546	-200,000	-0,001	0,119
-614,532	-93,301	-0,062	0,013
-613,517	142,563	0,047	-0,046
-612,503	96,670	0,018	-0,015
-611,488	325,890	0,016	-0,023
-610,474	-200,000	-0,003	0,085
-609,459	91,179	0,094	-0,078
-608,444	-52,809	-0,109	-0,037
-607,430	-31,459	-0,109	-0,045
-606,415	-200,000	-0,028	-0,162
-605,401	-101,974	-0,050	0,009
-604,386	230,488	-0,061	-0,074
-603,371	114,569	-0,070	0,063
-602,357	-200,000	0,012	-0,044
-601,342	-70,884	0,027	-0,008
-600,328	290,550	-0,073	-0,099
-599,313	-72,452	-0,043	0,012
-598,298	-200,000	-0,004	-0,122
-597,284	-200,000	0,013	0,051
-596,269	-200,000	0,024	0,080
-595,255	-200,000	0,004	0,143
-594,240	-81,519	-0,148	0,036
-593,225	-20,495	0,052	-0,023
-592,211	-104,851	0,053	-0,009
-591,196	-77,904	-0,061	-0,015
-590,182	-34,072	-0,073	0,030
-589,167	-200,000	0,002	-0,115
-588,152	695,589	0,050	0,097
-587,138	800,000	-0,032	0,097
-586,123	36,808	0,026	-0,017
-585,109	134,842	-0,071	-0,068
-584,094	-86,040	0,159	0,036
-583,079	63,578	-0,061	0,045
-582,065	-200,000	0,012	-0,050
-581,050	-47,067	0,104	-0,037
-580,036	46,057	-0,191	-0,131
-579,021	-200,000	0,016	-0,093
-578,006	-200,000	0,001	0,020
-576,992	-11,864	0,033	0,016
-575,977	11,292	-0,066	-0,038
-574,963	21,056	0,099	0,059
-573,948	-89,994	-0,132	0,028
-572,934	-200,000	-0,016	-0,074
-571,919	800,000	-0,064	-0,202
-570,904	-17,580	-0,071	0,033
-569,890	25,517	-0,033	-0,020
-568,875	21,871	0,095	0,057
-567,861	-83,425	-0,055	0,013
-566,846	-37,002	-0,071	-0,028
-565,831	800,000	0,035	-0,107
-564,817	-200,000	-0,051	-0,174
-563,802	647,327	-0,062	-0,118
-562,788	-44,763	0,047	-0,017
-561,773	56,984	-0,026	0,019
-560,758	800,000	-0,031	0,075
-559,744	-200,000	-0,029	0,141
-558,729	42,335	0,072	0,048
-557,715	-200,000	-0,029	-0,102
-556,700	-200,000	0,001	-0,156
-555,685	7,075	-0,126	-0,069
-554,671	53,272	0,086	-0,061
-553,656	-200,000	-0,018	0,061
-552,642	-91,637	0,095	-0,020
-551,627	-200,000	-0,007	-0,028
-550,612	800,000	-0,020	0,052
-549,598	439,383	0,033	-0,053
-548,583	-66,009	0,089	-0,026
-547,569	-105,737	-0,103	0,017
-546,554	-8,676	-0,010	0,005
-545,539	-82,977	-0,021	0,005
-544,525	34,033	-0,040	0,025
-543,510	800,000	-0,014	-0,046
-542,496	-51,045	-0,095	-0,033
-541,481	24,134	0,078	0,048
-540,466	127,405	0,040	-0,037
-539,452	171,302	0,079	0,084
-538,437	-200,000	-0,030	0,147
-537,423	-200,000	0,020	0,072
-536,408	-45,232	0,153	-0,056
-535,393	123,177	0,110	-0,101
-534,379	-23,189	-0,074	-0,033
-533,364	800,000	0,021	-0,063
-532,350	-200,000	-0,019	0,100
-531,335	-200,000	-0,003	-0,052
-530,321	11,285	-0,118	0,067
-529,306	232,094	-0,057	0,069
-528,291	-130,992	-0,122	-0,012
-527,277	287,473	0,067	-0,090
-526,262	422,085	0,022	-0,036
-525,248	-160,053	0,062	0,002
-524,233	-52,340	0,029	-0,010
-523,218	7,616	-0,077	0,042
-522,204	679,203	0,043	-0,082
-521,189	800,000	-0,055	-0,133
-520,175	-200,000	0,041	-0,142
-519,160	-34,051	-0,180	0,073
-518,145	-92,012	0,088	0,018
-517,131	107,153	0,096	-0,084
-516,116	499,183	-0,040	-0,068
-515,102	249,715	0,079	-0,099
-514,087	-200,000	-0,012	-0,064
-513,072	314,700	-0,046	-0,064
-512,058	-200,000	0,004	-0,106
-511,043	-200,000	-0,002	-0,015
-510,029	82,178	0,110	0,088
-509,014	169,016	-0,073	-0,077
-507,999	131,225	-0,110	-0,105
-506,985	-200,000	0,015	-0,118
-505,970	161,893	0,025	0,026
-504,956	-200,000	-0,001	-0,029
-503,941	-102,324	-0,130	0,023
-502,926	292,365	0,015	0,020
-501,912	-104,004	-0,065	-0,011
-500,897	800,000	0,019	-0,051
-499,883	268,196	0,041	-0,053
-498,868	365,458	-0,015	0,022
-497,853	800,000	-0,027	0,080
-496,839	321,760	-0,014	-0,020
-495,824	800,000	0,006	-0,018
-494,810	800,000	0,050	0,106
-493,795	244,521	-0,020	0,025
-492,781	-108,545	-0,069	0,011
-491,766	114,046	-0,074	0,066
-490,751	-77,022	-0,011	0,003
-489,737	-200,000	-0,015	-0,110
-488,722	281,250	-0,076	-0,100
-487,708	55,908	0,076	0,054
-486,693	-110,513	-0,152	-0,023
-485,678	195,081	0,116	0,130
-484,664	573,477	-0,064	-0,115
-483,649	-17,099	-0,138	-0,064
-482,635	198,756	0,129	-0,146
-481,620	-32,442	0,118	0,048
-480,605	33,289	-0,061	-0,039
-479,591	-200,000	0,007	0,061
-478,576	-91,569	-0,069	0,014
-477,562	280,974	-0,086	-0,113
-476,547	-147,860	0,110	0,007
-475,532	30,626	-0,067	-0,042
-474,518	74,134	0,071	-0,055
-473,503	-64,257	0,034	-0,010
-472,489	133,237	0,061	0,058
-471,474	131,063	-0,087	-0,082
-470,459	-87,150	0,131	-0,029
-469,445	200,270	0,031	0,035
-468,430	403,238	0,073	-0,113
-467,416	-200,000	0,012	0,120
-466,401	-62,808	0,082	-0,025
-465,386	-200,000	0,013	0,087
-464,372	800,000	0,054	-0,110
-463,357	61,705	-0,048	-0,035
-462,343	-58,735	-0,105	-0,033
-461,328	-47,941	-0,005	0,002
-460,313	-49,477	0,117	0,041
-459,299	786,797	0,032	0,066
-458,284	800,000	-0,036	0,088
-457,270	215,919	0,084	0,098
-456,255	446,672	0,040	0,065
-455,241	-64,891	-0,034	-0,010
-454,226	-174,362	-0,097	0,002
-453,211	755,159	0,020	-0,039
-452,197	-200,000	0,012	0,086
-451,182	-30,448	-0,067	0,028
-450,168	0,771	0,009	-0,005
-449,153	72,394	-0,027	0,021
-448,138	-29,000	0,061	0,026
-447,124	-38,002	-0,110	-0,043
-446,109	148,567	-0,077	-0,076
-445,095	599,248	0,020	0,036
-444,080	23,355	0,099	0,060
-443,065	-200,000	-0,009	0,042
-442,051	-200,000	0,003	0,117
-441,036	550,453	0,076	-0,134
-440,022	-200,000	0,025	0,085
-439,007	321,274	0,039	0,055
-437,992	322,573	0,122	0,171
-436,978	64,962	-0,106	-0,078
-435,963	800,000	-0,043	0,095
-434,949	-54,394	0,072	-0,024
-433,934	-46,171	-0,192	-0,069
-432,919	800,000	-0,015	-0,047
-431,905	800,000	0,039	0,092
-430,890	-39,090	0,087	-0,033
-429,876	29,502	0,173	0,108
-428,861	800,000	-0,029	0,074
-427,846	139,545	0,095	0,092
-426,832	-103,087	0,039	0,007
-425,817	-51,804	-0,087	-0,030
-424,803	-200,000	0,005	0,045
-423,788	-151,635	0,043	-0,002
-422,773	-109,633	0,048	0,007
-421,759	-200,000	0,014	0,081
-420,744	-47,456	-0,105	-0,037
-419,730	-41,630	-0,038	-0,014
-418,715	-200,000	-0,013	-0,042
-417,701	-113,994	-0,096	0,013
-416,686	700,100	0,083	0,162
-415,671	800,000	-0,017	-0,042
-414,657	56,179	0,088	0,062
-413,642	-14,120	0,104	0,049
-412,628	583,771	0,039	0,070
-411,613	108,560	0,024	-0,021
-410,598	103,871	0,048	-0,041
-409,584	-200,000	0,011	0,082
-408,569	-13,523	0,118	0,056
-407,555	-6,689	0,111	-0,055
-406,540	-200,000	-0,007	-0,161
-405,525	-7,159	0,043	-0,022
-404,511	-93,676	-0,039	-0,008
-403,496	-7,371	0,060	-0,030
-402,482	38,031	0,013	0,009
-401,467	14,490	0,065	0,037
-400,452	143,651	0,057	0,056
-399,438	-200,000	-0,000	0,030
-398,423	-116,814	0,099	0,013
-397,409	800,000	-0,015	-0,040
-396,394	375,887	0,070	-0,105
-395,379	-125,899	0,058	0,006
-394,365	307,913	-0,055	0,075
-393,350	-200,000	-0,014	-0,103
-392,336	-200,000	0,015	0,082
-391,321	506,229	-0,048	-0,082
-390,306	18,877	0,017	0,010
-389,292	424,158	-0,087	-0,137
-388,277	800,000	0,106	-0,255
-387,263	800,000	-0,068	0,148
-386,248	457,832	-0,058	-0,095
-385,233	-200,000	-0,009	0,112
-384,219	23,116	0,126	-0,076
-383,204	222,765	0,022	0,026
-382,190	-200,000	0,001	-0,095
-381,175	609,610	-0,024	0,044
-380,160	295,876	-0,071	-0,096
-379,146	-170,045	-0,036	0,001
-378,131	177,133	-0,083	0,089
-377,117	-200,000	0,006	-0,059
-376,102	-200,000	0,015	0,058
-375,088	-151,482	-0,176	-0,009
-374,073	1,197	-0,100	-0,052
-373,058	13,204	0,182	0,103
-372,044	52,510	0,039	0,027
-371,029	-200,000	-0,037	-0,156
-370,015	73,616	-0,021	0,016
-369,000	800,000	-0,016	0,042
-367,985	615,952	-0,030	-0,056
-366,971	220,320	-0,141	-0,166
-365,956	-28,386	0,035	-0,015
-364,942	-200,000	-0,001	0,136
-363,927	283,378	0,052	0,068
-362,912	800,000	0,062	0,129
-361,898	-200,000	0,030	-0,114
-360,883	175,928	0,089	-0,095
-359,869	312,522	0,047	-0,065
-358,854	-200,000	-0,013	0,063
-357,839	74,950	0,096	0,074
-356,825	-49,558	-0,059	0,020
-355,810	-200,000	-0,009	0,060
-354,796	-107,544	-0,059	0,009
-353,781	205,403	-0,057	-0,065
-352,766	55,596	0,092	-0,065
-351,752	292,138	-0,051	-0,068
-350,737	-85,707	0,071	-0,016
-349,723	370,745	-0,033	0,049
-348,708	-52,228	-0,135	-0,046
-347,693	-97,630	0,073	-0,014
-346,679	-200,000	-0,028	0,111
-345,664	-22,613	-0,097	-0,043
-344,650	-200,000	0,006	0,066
-343,635	-200,000	-0,005	0,079
-342,620	-65,950	0,136	-0,039
-341,606	56,645	-0,088	0,063
-340,591	-200,000	-0,043	0,000
-339,577	-45,086	-0,046	0,017
-338,562	177,724	-0,055	-0,059
-337,548	-200,000	0,023	-0,140
-336,533	123,010	0,071	-0,065
-335,518	231,102	0,050	0,060
-334,504	800,000	-0,016	-0,035
-333,489	-200,000	-0,050	-0,169
-332,475	58,964	-0,088	0,063
-331,460	-200,000	0,023	0,092
-330,445	800,000	0,025	0,063
-329,431	20,987	0,129	0,076
-328,416	59,140	0,103	0,074
-327,402	-127,278	-0,065	-0,007
-326,387	800,000	0,057	0,124
-325,372	-32,186	0,135	-0,055
-324,358	-200,000	-0,027	-0,219
-323,343	-29,398	-0,020	-0,008
-322,329	-200,000	-0,011	-0,047
-321,314	800,000	-0,070	0,167
-320,299	43,359	0,222	0,148
-319,285	-13,297	-0,091	0,043
-318,270	103,271	-0,039	-0,033
-317,256	44,358	0,070	-0,047
-316,241	-200,000	0,025	-0,098
-315,226	122,605	0,094	-0,086
-314,212	800,000	0,085	0,183
-313,197	800,000	0,024	-0,065
-312,183	203,139	-0,060	0,067
-311,168	-30,097	-0,098	-0,040
-310,153	-200,000	0,008	0,074
-309,139	-200,000	0,004	-0,038
-308,124	-200,000	0,003	-0,101
-307,110	11,564	0,084	0,047
-306,095	-200,000	0,088	0,000
-305,080	-93,198	0,168	-0,034
-304,066	350,320	-0,095	0,137
-303,051	99,146	-0,062	-0,052
-302,037	-200,000	-0,008	-0,085
-301,022	-200,000	0,002	0,016
-300,008	-183,669	-0,050	0,001
-298,993	-200,000	0,001	-0,117
-297,978	-100,030	-0,047	-0,009
-296,964	-200,000	-0,027	-0,098
-295,949	37,213	0,107	-0,069
-294,935	638,505	-0,054	0,100
-293,920	0,898	0,092	-0,048
-292,905	781,500	0,026	0,053
-291,891	-85,042	0,120	-0,027
-290,876	800,000	0,058	0,157
-289,862	-88,032	-0,088	-0,019
-288,847	-130,234	-0,135	-0,013
-287,832	-200,000	0,010	-0,036
-286,818	800,000	0,027	-0,083
-285,803	-143,005	0,077	-0,005
-284,789	-96,007	0,109	0,021
-283,774	-200,000	0,019	0,141
-282,759	314,064	-0,054	-0,074
-281,745	524,832	0,036	-0,063
-280,730	-167,234	0,089	0,003
-279,716	476,340	-0,024	-0,039
-278,701	-200,000	-0,011	-0,045
-277,686	-1,371	0,048	0,025
-276,672	-132,038	-0,044	0,004
-275,657	-21,295	0,031	0,014
-274,643	-48,058	-0,057	-0,020
-273,628	367,745	0,044	-0,066
-272,613	64,769	-0,106	-0,078
-271,599	2,013	0,117	0,061
-270,584	-200,000	-0,018	0,257
-269,570	-200,000	-0,048	0,175
-268,555	-36,970	-0,024	0,009
-267,540	800,000	0,012	-0,026
-266,526	-8,250	-0,097	0,048
-265,511	-200,000	-0,053	0,172
-264,497	-75,064	-0,027	-0,007
-263,482	-200,000	-0,027	0,093
-262,467	280,563	0,046	-0,060
-261,453	-33,425	0,030	-0,012
-260,438	-178,545	-0,130	0,002
-259,424	32,642	-0,081	-0,051
-258,409	-79,264	-0,059	-0,014
-257,395	279,752	-0,039	-0,051
-256,380	-200,000	0,013	-0,056
-255,365	74,695	0,046	-0,035
-254,351	-112,581	-0,097	-0,014
-253,336	-64,797	-0,097	0,028
-252,322	800,000	-0,062	-0,174
-251,307	5,706	0,089	0,048
-250,292	-20,433	-0,056	0,025
-249,278	432,926	0,040	-0,064
-248,263	-23,397	-0,094	0,041
-247,249	73,189	0,053	0,041
-246,234	-7,201	-0,117	-0,058
-245,219	183,650	-0,055	-0,059
-244,205	627,160	0,089	0,164
-243,190	221,702	0,084	-0,098
-242,176	-60,089	0,098	-0,030
-241,161	-165,451	0,046	-0,001
-240,146	-200,000	0,009	0,032
-239,132	133,291	-0,063	-0,059
-238,117	128,467	-0,046	-0,042
-237,103	514,835	0,040	0,068
-236,088	33,226	0,139	0,088
-235,073	-88,421	0,129	-0,028
-234,059	-200,000	-0,031	-0,112
-233,044	-185,041	0,054	0,001
-232,030	-200,000	-0,010	0,068
-231,015	243,444	-0,108	-0,133
-230,000	-200,000	0,015	0,132
-228,986	-145,031	-0,052	0,003
-227,971	337,282	-0,057	-0,082
-226,957	800,000	-0,059	0,145
-225,942	-200,000	0,014	-0,058
-224,927	800,000	0,040	0,107
-223,913	-29,357	0,013	0,005
-222,898	65,291	0,110	-0,081
-221,884	-186,756	-0,021	0,000
-220,869	-166,882	0,112	-0,003
-219,855	-108,124	-0,065	-0,010
-218,840	275,442	-0,065	0,084
-217,825	-200,000	0,005	-0,032
-216,811	-185,093	0,045	0,000
-215,796	156,069	-0,058	-0,058
-214,782	72,072	0,009	-0,007
-213,767	-12,312	0,078	0,037
-212,752	240,958	0,096	0,117
-211,738	-28,785	-0,038	-0,016
-210,723	-56,013	-0,057	-0,018
-209,709	312,219	0,041	-0,057
-208,694	107,614	-0,033	0,029
-207,679	327,024	0,026	0,036
-206,665	-54,676	-0,070	-0,023
-205,650	179,105	-0,050	0,053
-204,636	241,967	0,066	0,081
-203,621	40,604	-0,080	0,053
-202,606	-165,119	-0,166	0,005
-201,592	800,000	0,047	-0,106
-200,577	-198,586	-0,071	0,000
-199,563	800,000	-0,019	-0,059
-198,548	-117,344	0,189	-0,025
-197,533	-53,993	0,124	0,041
-196,519	800,000	0,044	0,091
-195,504	-105,111	-0,096	0,016
-194,490	-83,421	-0,038	-0,009
-193,475	800,000	-0,051	0,129
-192,460	-200,000	-0,024	0,094
-191,446	137,622	0,132	0,126
-190,431	47,053	-0,027	-0,018
-189,417	9,885	0,064	-0,036
-188,402	57,768	0,071	-0,050
-187,387	24,681	-0,106	-0,064
-186,373	381,654	-0,051	0,077
-185,358	-200,000	-0,019	0,095
-184,344	627,358	-0,049	0,090
-183,329	-200,000	-0,035	0,149
-182,315	120,032	0,149	0,135
-181,300	-200,000	0,008	-0,057
-180,285	341,411	-0,011	-0,016
-179,271	141,757	-0,052	-0,050
-178,256	-131,056	-0,056	-0,005
-177,242	-200,000	0,002	0,034
-176,227	256,426	0,044	-0,056
-175,212	-200,000	0,050	0,164
-174,198	-162,114	-0,170	-0,006
-173,183	800,000	0,065	0,142
-172,169	-144,731	-0,081	-0,005
-171,154	800,000	0,064	-0,142
-170,139	128,316	0,114	-0,105
-169,125	-76,587	0,151	0,038
-168,110	-16,439	-0,088	-0,040
-167,096	-200,000	-0,002	0,035
-166,081	-200,000	0,011	-0,068
-165,066	25,334	-0,032	0,019
-164,052	800,000	-0,020	0,044
-163,037	-200,000	0,002	0,062
-162,023	800,000	0,017	0,044
-161,008	441,983	-0,065	0,104
-159,993	-19,294	0,109	-0,049
-158,979	28,146	0,023	-0,014
-157,964	32,007	0,097	0,060
-156,950	-25,475	-0,096	-0,041
-155,935	-11,887	0,051	0,024
-154,920	-200,000	0,004	0,063
-153,906	405,002	0,015	0,023
-152,891	80,274	0,055	0,043
-151,877	-95,125	0,107	0,021
-150,862	-131,412	-0,077	0,007
-149,847	-200,000	-0,012	0,054
-148,833	0,170	0,060	0,031
-147,818	-103,423	0,200	-0,034
-146,804	129,423	-0,074	-0,069
-145,789	800,000	-0,018	-0,037
-144,775	142,625	-0,067	0,065
-143,760	108,904	-0,029	-0,025
-142,745	83,828	-0,093	0,074
-141,731	13,661	0,153	-0,086
-140,716	-49,359	-0,012	0,004
-139,702	-141,769	-0,074	-0,005
-138,687	-143,574	0,101	0,007
-137,672	107,294	-0,048	-0,041
-136,658	-200,000	0,004	0,078
-135,643	800,000	-0,075	-0,174
-134,629	421,119	0,066	-0,102
-133,614	165,433	0,103	-0,106
-132,599	800,000	0,037	0,089
-131,585	800,000	-0,092	0,194
-130,570	-124,160	0,033	-0,004
-129,556	-29,160	-0,065	-0,027
-128,541	182,555	0,079	-0,084
-127,526	605,647	0,066	-0,119
-126,512	-200,000	-0,018	-0,071
-125,497	150,177	0,095	0,093
-124,483	141,937	-0,017	-0,017
-123,468	800,000	-0,017	-0,034
-122,453	696,441	-0,049	0,094
-121,439	-84,920	-0,064	0,015
-120,424	800,000	-0,019	0,042
-119,410	195,747	0,079	0,087
