DTS Sentinel unit serial number:	SN410029Multiplexer serial number:	ORYXHardware model number:	OX2-SRSoftware version number:	ORYX F/W v4,00 Oryx Data Collector v3.7.2.0data status	okinstallation	B4 Nyhavnadifferential loss correction	single-endedforward channel	channel 2reverse channel	N/Adate	2023/12/15time	21:20:13forward acquisition time	300,00reverse acquisition time	0,00gamma	499,1914k internal	0,3134k external	0,3134temperature offset calibration	1,0000default loss term (dB/km)	0,3820temperature slope calibration	1,0000multiplexer offset coefficient	1,0000multiplexer slope coefficient	1,0000fibre end	0,00T internal ref (°C)	20,93T ext. ref 1 (°C)	6,17T ext. ref 2 (°C)	6,39length (m)	temperature (°C)	Stokes	anti-Stokes-744,400	-119,529	0,105	-0,013
-743,385	-27,927	-0,141	0,060
-742,371	37,117	0,091	-0,060
-741,356	-10,672	-0,155	0,076
-740,342	-200,000	-0,028	0,118
-739,327	17,202	-0,301	0,177
-738,312	147,019	-0,023	-0,023
-737,298	40,228	-0,153	0,102
-736,283	800,000	-0,025	0,068
-735,269	114,706	-0,182	0,165
-734,254	-22,462	0,046	0,020
-733,239	2,506	-0,544	-0,291
-732,225	-88,889	0,132	-0,029
-731,210	-68,220	-0,053	0,015
-730,196	800,000	-0,019	-0,061
-729,181	21,880	-0,087	0,053
-728,167	-200,000	0,015	0,082
-727,152	800,000	-0,078	-0,212
-726,137	435,784	-0,055	-0,090
-725,123	-200,000	0,002	-0,060
-724,108	105,320	-0,192	-0,168
-723,094	0,304	-0,119	-0,063
-722,079	-200,000	-0,006	-0,029
-721,064	800,000	0,014	-0,032
-720,050	346,654	-0,072	0,106
-719,035	-123,611	-0,215	-0,025
-718,021	243,420	-0,074	-0,093
-717,006	800,000	0,052	-0,161
-715,991	239,084	0,059	0,073
-714,977	-200,000	-0,012	0,072
-713,962	-185,030	-0,194	-0,002
-712,948	246,992	-0,094	-0,119
-711,933	-200,000	-0,009	0,029
-710,918	-200,000	0,002	-0,069
-709,904	-158,561	-0,178	-0,007
-708,889	800,000	0,040	-0,097
-707,875	-200,000	0,037	-0,125
-706,860	55,761	-0,052	0,037
-705,845	-200,000	0,009	-0,060
-704,831	8,997	0,107	0,060
-703,816	-200,000	-0,011	0,059
-702,802	-200,000	0,011	-0,042
-701,787	162,458	-0,152	-0,158
-700,772	-200,000	0,004	-0,157
-699,758	-200,000	-0,036	0,155
-698,743	230,794	0,041	0,050
-697,729	60,362	-0,040	0,029
-696,714	254,953	-0,015	0,019
-695,699	212,551	-0,024	0,028
-694,685	153,970	0,048	-0,049
-693,670	110,466	-0,090	-0,080
-692,656	800,000	0,030	0,089
-691,641	609,721	0,009	-0,017
-690,627	-3,606	0,061	-0,032
-689,612	393,171	-0,049	-0,076
-688,597	262,868	0,014	0,018
-687,583	-54,668	-0,156	0,052
-686,568	800,000	-0,036	-0,113
-685,554	-200,000	-0,030	-0,107
-684,539	64,055	0,081	0,060
-683,524	-123,497	0,020	0,002
-682,510	800,000	-0,037	0,121
-681,495	581,939	-0,013	-0,023
-680,481	-17,552	0,080	-0,037
-679,466	-83,241	-0,047	0,011
-678,451	102,269	0,028	-0,024
-677,437	205,086	-0,092	-0,106
-676,422	-123,155	0,058	0,007
-675,408	-200,000	-0,002	-0,031
-674,393	-103,812	-0,091	0,016
-673,378	267,566	-0,119	-0,155
-672,364	-200,000	-0,014	-0,082
-671,349	-200,000	0,001	0,021
-670,335	35,015	-0,129	-0,084
-669,320	296,723	0,037	0,050
-668,305	-10,705	-0,138	-0,067
-667,291	-159,967	0,119	0,005
-666,276	-71,582	-0,083	-0,023
-665,262	-23,981	-0,055	-0,024
-664,247	138,741	-0,011	0,011
-663,232	129,621	-0,140	-0,133
-662,218	17,908	0,104	0,061
-661,203	-69,709	-0,183	0,051
-660,189	92,349	-0,027	0,022
-659,174	191,864	-0,096	-0,108
-658,159	504,714	0,022	0,037
-657,145	-102,166	-0,083	-0,015
-656,130	-200,000	0,018	-0,132
-655,116	-192,489	-0,074	0,000
-654,101	800,000	-0,072	0,169
-653,086	222,295	-0,075	-0,090
-652,072	-122,791	0,052	-0,006
-651,057	8,088	-0,074	-0,041
-650,043	-124,178	-0,126	0,014
-649,028	800,000	0,009	0,024
-648,014	85,711	-0,065	-0,053
-646,999	-45,123	-0,044	0,016
-645,984	-88,841	-0,078	-0,017
-644,970	-200,000	-0,004	-0,038
-643,955	26,602	-0,064	-0,040
-642,941	-200,000	-0,029	-0,121
-641,926	727,298	-0,066	-0,131
-640,911	37,312	-0,036	0,023
-639,897	-113,670	0,049	-0,007
-638,882	5,251	0,080	0,043
-637,868	-200,000	0,015	-0,075
-636,853	85,553	-0,062	-0,050
-635,838	800,000	-0,031	-0,076
-634,824	-200,000	0,010	-0,126
-633,809	103,375	-0,022	-0,019
-632,795	-5,364	0,116	0,059
-631,780	-200,000	-0,000	-0,044
-630,765	800,000	0,009	-0,021
-629,751	800,000	-0,030	-0,068
-628,736	34,477	-0,044	0,028
-627,722	-200,000	0,029	-0,099
-626,707	179,612	0,023	0,025
-625,692	618,669	-0,036	0,067
-624,678	84,023	-0,046	0,037
-623,663	-96,296	0,098	-0,019
-622,649	800,000	-0,047	-0,118
-621,634	-154,091	0,018	0,001
-620,619	163,225	-0,021	-0,022
-619,605	-200,000	-0,001	0,094
-618,590	800,000	-0,066	0,137
-617,576	-65,284	0,032	-0,009
-616,561	2,459	-0,007	-0,004
-615,546	-49,496	-0,054	0,019
-614,532	13,076	-0,109	-0,062
-613,517	-200,000	0,004	-0,082
-612,503	-200,000	0,008	0,076
-611,488	552,238	0,008	0,014
-610,474	151,049	0,087	-0,088
-609,459	-54,466	-0,112	0,037
-608,444	20,606	-0,089	-0,053
-607,430	141,206	0,090	-0,088
-606,415	-88,129	0,094	0,021
-605,401	-134,012	-0,021	-0,002
-604,386	72,049	0,084	-0,065
-603,371	-66,162	0,156	-0,046
-602,357	800,000	0,043	-0,128
-601,342	554,655	-0,044	0,079
-600,328	-91,450	0,039	-0,008
-599,313	-11,082	-0,066	0,032
-598,298	800,000	-0,007	-0,017
-597,284	800,000	-0,053	-0,113
-596,269	706,063	-0,015	-0,028
-595,255	26,153	0,094	0,058
-594,240	453,803	-0,079	-0,130
-593,225	159,928	0,024	-0,025
-592,211	-33,469	-0,059	0,024
-591,196	114,883	0,085	-0,077
-590,182	155,729	-0,041	-0,042
-589,167	-2,668	0,092	-0,047
-588,152	-27,677	0,040	-0,017
-587,138	212,496	0,084	0,098
-586,123	-200,000	-0,019	-0,068
-585,109	-200,000	0,010	-0,068
-584,094	800,000	-0,013	-0,033
-583,079	-200,000	0,004	-0,140
-582,065	-131,595	0,083	-0,008
-581,050	28,883	-0,115	0,072
-580,036	-108,347	0,133	0,021
-579,021	60,772	-0,135	-0,099
-578,006	-200,000	-0,001	-0,050
-576,992	48,262	0,088	-0,061
-575,977	-112,927	0,062	0,009
-574,963	-88,163	0,060	-0,013
-573,948	-200,000	0,013	0,048
-572,934	166,631	0,121	0,127
-571,919	688,785	-0,028	-0,053
-570,904	-200,000	-0,037	-0,129
-569,890	-147,542	0,077	-0,005
-568,875	57,473	0,081	-0,059
-567,861	800,000	0,016	-0,048
-566,846	-80,728	0,051	0,012
-565,831	-200,000	0,012	0,064
-564,817	433,043	-0,059	0,094
-563,802	-50,513	-0,127	-0,044
-562,788	195,225	-0,031	-0,035
-561,773	-200,000	0,011	0,118
-560,758	-200,000	-0,056	0,204
-559,744	-103,649	0,069	-0,012
-558,729	-28,000	0,050	-0,021
-557,715	-166,433	-0,137	-0,004
-556,700	701,589	-0,057	-0,112
-555,685	-200,000	-0,025	-0,108
-554,671	800,000	0,018	-0,055
-553,656	-200,000	-0,014	0,127
-552,642	-10,230	-0,077	0,037
-551,627	-5,694	0,064	-0,032
-550,612	-126,967	-0,154	-0,017
-549,598	-55,469	0,079	-0,026
-548,583	-124,347	-0,175	0,020
-547,569	-200,000	-0,007	-0,109
-546,554	758,077	0,046	-0,092
-545,539	-57,779	0,095	0,031
-544,525	-200,000	-0,005	0,044
-543,510	294,676	-0,073	-0,099
-542,496	18,133	0,070	-0,041
-541,481	539,592	-0,048	0,084
-540,466	587,167	-0,067	-0,122
-539,452	-62,845	0,015	-0,004
-538,437	-200,000	0,004	0,087
-537,423	-200,000	-0,005	0,109
-536,408	115,148	-0,076	0,068
-535,393	-196,166	0,052	-0,000
-534,379	40,260	-0,067	0,044
-533,364	615,932	-0,077	-0,144
-532,350	109,097	0,097	0,086
-531,335	208,574	0,091	0,105
-530,321	-110,450	0,049	-0,007
-529,306	25,398	0,055	-0,034
-528,291	-88,847	-0,151	-0,033
-527,277	210,657	-0,064	-0,075
-526,262	-5,209	-0,039	0,019
-525,248	800,000	0,033	-0,085
-524,233	-1,452	0,088	0,045
-523,218	800,000	-0,031	0,075
-522,204	800,000	0,026	0,084
-521,189	681,568	-0,048	0,093
-520,175	-200,000	0,026	-0,150
-519,160	-200,000	-0,005	0,061
-518,145	123,388	-0,101	0,093
-517,131	29,236	-0,079	0,049
-516,116	44,145	0,082	0,055
-515,102	800,000	-0,029	0,075
-514,087	-22,419	-0,109	0,049
-513,072	31,063	-0,088	0,055
-512,058	-35,314	-0,094	-0,038
-511,043	130,260	0,042	-0,040
-510,029	-40,585	-0,031	0,012
-509,014	380,936	-0,058	-0,088
-507,999	-45,635	0,050	0,018
-506,985	-200,000	0,002	-0,142
-505,970	593,747	0,028	-0,051
-504,956	-200,000	-0,000	-0,095
-503,941	-60,199	0,044	-0,014
-502,926	-169,377	-0,072	0,002
-501,912	52,767	-0,054	0,038
-500,897	70,610	-0,187	0,142
-499,883	440,469	-0,016	-0,025
-498,868	-200,000	0,018	0,087
-497,853	-200,000	0,003	-0,060
-496,839	-191,740	-0,116	0,001
-495,824	182,446	-0,109	0,119
-494,810	71,435	0,052	-0,039
-493,795	-200,000	0,024	0,119
-492,781	-81,197	-0,115	-0,028
-491,766	19,028	-0,142	-0,083
-490,751	-46,990	-0,106	-0,038
-489,737	-13,219	0,134	0,064
-488,722	-200,000	0,010	0,047
-487,708	-200,000	0,024	0,163
-486,693	245,240	-0,050	-0,061
-485,678	9,363	-0,017	0,010
-484,664	94,080	0,096	-0,080
-483,649	-200,000	-0,014	-0,092
-482,635	-20,153	0,083	-0,038
-481,620	-67,381	-0,039	0,011
-480,605	54,777	0,102	-0,072
-479,591	-50,968	0,037	0,013
-478,576	-12,385	-0,171	-0,082
-477,562	166,620	-0,053	0,055
-476,547	-200,000	-0,013	-0,108
-475,532	-200,000	0,004	0,029
-474,518	-112,249	0,114	-0,017
-473,503	7,737	-0,083	0,046
-472,489	-61,614	0,122	0,037
-471,474	21,550	-0,102	-0,061
-470,459	193,077	-0,071	-0,079
-469,445	-77,197	-0,078	0,020
-468,430	-200,000	0,007	-0,064
-467,416	65,407	0,101	-0,075
-466,401	-49,001	0,010	-0,003
-465,386	-200,000	-0,003	-0,026
-464,372	-86,487	-0,068	0,015
-463,357	-6,180	0,054	0,027
-462,343	-37,637	0,035	0,014
-461,328	474,371	-0,060	-0,100
-460,313	56,878	0,098	0,070
-459,299	433,179	-0,052	-0,083
-458,284	191,349	0,076	0,085
-457,270	316,698	0,031	0,044
-456,255	-200,000	0,030	-0,165
-455,241	-55,974	0,036	0,012
-454,226	-77,523	-0,126	-0,032
-453,211	-145,927	-0,104	-0,007
-452,197	-142,905	0,032	0,002
-451,182	-35,854	0,080	-0,032
-450,168	-200,000	0,006	0,199
-449,153	-200,000	-0,041	0,198
-448,138	215,326	-0,025	0,029
-447,124	-111,747	-0,073	0,011
-446,109	370,184	-0,047	-0,070
-445,095	-200,000	0,009	0,235
-444,080	95,295	-0,047	-0,039
-443,065	-142,120	0,154	0,011
-442,051	234,547	-0,058	-0,070
-441,036	404,787	0,125	-0,194
-440,022	-132,776	-0,050	0,005
-439,007	129,477	0,089	0,084
-437,992	48,813	0,032	0,022
-436,978	-37,606	0,078	0,030
-435,963	800,000	-0,033	0,102
-434,949	50,600	0,140	-0,097
-433,934	-200,000	-0,032	0,145
-432,919	-137,943	-0,117	-0,009
-431,905	-130,723	0,031	0,003
-430,890	-111,760	-0,060	-0,009
-429,876	-71,542	-0,054	0,015
-428,861	-200,000	0,016	0,110
-427,846	77,243	0,079	-0,062
-426,832	746,147	-0,073	-0,145
-425,817	288,333	0,067	-0,090
-424,803	-200,000	-0,001	-0,038
-423,788	-130,989	-0,080	0,008
-422,773	162,429	0,058	0,060
-421,759	231,724	0,082	-0,099
-420,744	142,135	-0,036	0,035
-419,730	-13,384	0,095	-0,045
-418,715	-75,096	-0,066	-0,017
-417,701	-200,000	-0,000	0,017
-416,686	126,107	0,022	0,021
-415,671	41,407	0,101	-0,067
-414,657	-185,127	0,086	-0,001
-413,642	-119,619	-0,156	0,020
-412,628	637,550	-0,091	0,170
-411,613	-11,497	-0,141	-0,068
-410,598	-36,071	-0,023	0,009
-409,584	-59,945	0,156	0,049
-408,569	-200,000	0,004	0,139
-407,555	-36,742	0,144	0,056
-406,540	-200,000	-0,004	-0,040
-405,525	-103,227	0,067	0,012
-404,511	-200,000	0,056	-0,225
-403,496	4,380	0,120	0,064
-402,482	-50,564	-0,040	0,014
-401,467	800,000	0,017	0,041
-400,452	-72,348	0,113	-0,030
-399,438	144,832	-0,131	0,129
-398,423	-177,508	0,073	-0,001
-397,409	-200,000	0,013	-0,111
-396,394	119,134	-0,119	-0,108
-395,379	-130,214	0,145	-0,014
-394,365	164,108	-0,055	-0,057
-393,350	13,374	0,048	0,027
-392,336	513,446	0,051	0,087
-391,321	-200,000	0,010	0,040
-390,306	-43,875	-0,067	-0,024
-389,292	-47,393	0,108	-0,038
-388,277	-130,610	0,118	-0,012
-387,263	-200,000	0,037	0,176
-386,248	-145,976	-0,017	0,001
-385,233	-105,125	0,046	-0,008
-384,219	72,402	0,021	0,016
-383,204	-133,445	-0,130	0,012
-382,190	16,903	-0,135	-0,078
-381,175	-36,640	-0,050	-0,020
-380,160	45,822	0,095	-0,065
-379,146	-110,418	0,139	0,021
-378,131	101,340	0,114	0,098
-377,117	167,699	-0,056	-0,059
-376,102	-150,587	0,055	0,003
-375,088	173,261	0,154	-0,162
-374,073	-200,000	0,021	-0,074
-373,058	145,385	-0,063	-0,061
-372,044	-200,000	0,003	0,039
-371,029	-95,732	-0,141	-0,027
-370,015	800,000	-0,033	-0,088
-369,000	-200,000	-0,011	-0,079
-367,985	-62,275	-0,086	-0,026
-366,971	207,034	0,041	-0,047
-365,956	-200,000	-0,012	0,089
-364,942	190,708	0,100	-0,110
-363,927	210,438	-0,066	-0,076
-362,912	190,282	0,018	0,020
-361,898	-25,571	-0,013	-0,005
-360,883	184,311	-0,172	-0,187
-359,869	201,700	0,083	0,093
-358,854	30,120	0,027	0,017
-357,839	46,685	-0,057	0,039
-356,825	87,566	-0,011	-0,009
-355,810	488,998	-0,028	-0,048
-354,796	-164,821	0,042	-0,001
-353,781	-72,803	-0,111	0,030
-352,766	-200,000	0,011	-0,060
-351,752	131,104	0,070	-0,066
-350,737	278,387	0,019	0,025
-349,723	-74,611	0,091	-0,024
-348,708	614,740	-0,017	-0,032
-347,693	-38,234	-0,099	-0,038
-346,679	-118,865	-0,063	-0,008
-345,664	90,074	0,045	-0,037
-344,650	288,263	0,020	0,027
-343,635	-139,335	0,079	-0,006
-342,620	608,287	-0,015	0,028
-341,606	-200,000	0,002	0,104
-340,591	25,088	-0,135	0,082
-339,577	-16,696	-0,078	-0,036
-338,562	-200,000	-0,040	-0,143
-337,548	-200,000	0,009	-0,086
-336,533	121,182	-0,100	0,091
-335,518	-39,254	0,114	-0,044
-334,504	-33,229	0,134	-0,054
-333,489	133,118	-0,031	-0,030
-332,475	-70,972	-0,085	-0,023
-331,460	-200,000	0,006	0,061
-330,445	800,000	0,028	-0,081
-329,431	800,000	-0,005	0,010
-328,416	-19,176	0,036	0,016
-327,402	44,122	0,004	-0,003
-326,387	-120,382	0,109	0,013
-325,372	-27,437	0,141	-0,060
-324,358	513,310	-0,059	0,100
-323,343	-106,797	-0,123	0,020
-322,329	-55,588	0,066	0,021
-321,314	21,540	-0,083	0,049
-320,299	-160,703	0,084	0,003
-319,285	382,207	0,025	0,037
-318,270	127,050	-0,122	0,113
-317,256	231,112	0,093	0,111
-316,241	524,877	0,042	-0,072
-315,226	-200,000	-0,006	-0,131
-314,212	320,766	0,053	-0,074
-313,197	-111,888	0,109	-0,016
-312,183	-154,373	-0,062	0,003
-311,168	-200,000	0,004	-0,118
-310,153	-200,000	0,003	-0,032
-309,139	-35,097	0,048	0,019
-308,124	-19,870	-0,100	-0,045
-307,110	-101,553	0,190	0,033
-306,095	-138,315	0,036	0,003
-305,080	101,673	0,044	0,038
-304,066	-95,732	0,090	0,017
-303,051	-200,000	0,018	-0,133
-302,037	401,669	-0,101	-0,155
-301,022	352,356	-0,039	0,057
-300,008	-200,000	0,008	0,056
-298,993	45,574	0,149	0,100
-297,978	800,000	0,042	0,121
-296,964	800,000	0,032	-0,065
-295,949	800,000	0,004	0,008
-294,935	53,231	-0,061	-0,043
-293,920	-142,621	0,174	0,012
-292,905	631,914	0,054	0,101
-291,891	-200,000	0,021	0,149
-290,876	734,192	-0,034	0,067
-289,862	800,000	-0,039	0,120
-288,847	-200,000	-0,013	-0,071
-287,832	-163,342	-0,109	0,004
-286,818	-200,000	0,003	-0,029
-285,803	-75,641	-0,022	0,006
-284,789	331,063	-0,037	0,052
-283,774	800,000	-0,031	0,088
-282,759	129,783	0,078	0,073
-281,745	65,840	0,036	-0,027
-280,730	50,334	-0,077	0,053
-279,716	341,730	0,044	-0,063
-278,701	-200,000	-0,005	-0,043
-277,686	-200,000	0,027	0,178
-276,672	451,132	-0,073	0,118
-275,657	-200,000	0,024	0,168
-274,643	-118,246	-0,062	0,008
-273,628	-200,000	-0,017	0,153
-272,613	51,690	0,021	-0,015
-271,599	-200,000	0,006	0,101
-270,584	-155,263	0,176	0,008
-269,570	-200,000	0,040	0,148
-268,555	800,000	-0,026	-0,052
-267,540	-200,000	0,033	0,142
-266,526	800,000	-0,018	0,038
-265,511	397,119	0,009	0,013
-264,497	-200,000	0,030	0,101
-263,482	-184,316	0,152	-0,002
-262,467	169,385	0,064	-0,066
-261,453	5,965	-0,010	0,005
-260,438	800,000	-0,048	0,141
-259,424	-200,000	0,018	0,111
-258,409	-42,895	-0,011	0,004
-257,395	-89,502	-0,081	0,017
-256,380	-200,000	-0,007	0,044
-255,365	99,422	0,100	-0,084
-254,351	-200,000	-0,008	-0,142
-253,336	-143,062	-0,071	-0,005
-252,322	-186,342	-0,107	0,001
-251,307	-129,059	-0,136	0,014
-250,292	-107,089	0,068	-0,011
-249,278	-200,000	-0,018	0,100
-248,263	-200,000	-0,010	0,059
-247,249	313,372	-0,039	0,054
-246,234	-200,000	-0,089	0,000
-245,219	-200,000	0,011	0,047
-244,205	322,944	-0,087	-0,121
-243,190	-200,000	0,006	0,021
-242,176	63,561	-0,069	0,050
-241,161	403,416	-0,035	-0,053
-240,146	-200,000	0,020	-0,092
-239,132	213,818	-0,067	0,077
-238,117	99,513	-0,019	-0,016
-237,103	215,452	0,014	0,017
-236,088	104,351	0,138	0,118
-235,073	101,103	-0,130	0,110
-234,059	-200,000	-0,001	-0,006
-233,044	-200,000	0,009	0,116
-232,030	48,177	-0,074	0,051
-231,015	11,198	-0,042	0,024
-230,000	501,475	-0,063	0,107
-228,986	-50,474	0,115	-0,039
-227,971	42,549	-0,015	-0,010
-226,957	-109,738	0,068	-0,010
-225,942	-200,000	-0,016	-0,134
-224,927	63,990	0,049	-0,036
-223,913	748,148	0,013	-0,026
-222,898	16,814	-0,133	-0,077
-221,884	475,886	-0,053	0,088
-220,869	26,185	0,078	-0,047
-219,855	45,891	-0,057	0,038
-218,840	800,000	0,042	0,109
-217,825	-78,237	0,140	0,035
-216,811	-200,000	0,012	-0,110
-215,796	-200,000	-0,031	-0,170
-214,782	78,425	-0,092	-0,071
-213,767	162,244	-0,021	-0,021
-212,752	172,217	0,050	-0,052
-211,738	-200,000	-0,020	0,113
-210,723	333,330	-0,122	0,172
-209,709	-200,000	-0,040	-0,136
-208,694	-7,294	-0,085	-0,042
-207,679	-64,860	-0,058	-0,017
-206,665	662,144	0,082	-0,155
-205,650	173,672	0,035	-0,037
-204,636	320,265	-0,073	0,101
-203,621	46,695	0,121	0,082
-202,606	40,919	0,036	0,023
-201,592	-200,000	0,010	-0,209
-200,577	-200,000	0,019	-0,164
-199,563	519,817	0,052	-0,089
-198,548	-200,000	0,002	-0,150
-197,533	639,085	-0,093	0,173
-196,519	655,995	0,039	0,073
-195,504	-26,814	0,167	0,071
-194,490	-55,751	-0,100	-0,032
-193,475	-200,000	-0,010	-0,063
-192,460	-200,000	0,016	-0,061
-191,446	1,793	0,028	-0,015
-190,431	44,393	0,052	0,035
-189,417	-7,168	-0,007	-0,004
-188,402	-142,176	0,002	-0,000
-187,387	18,870	0,002	-0,001
-186,373	-200,000	-0,040	0,187
-185,358	385,627	0,073	0,110
-184,344	-200,000	0,031	0,101
-183,329	-200,000	-0,022	0,182
-182,315	-200,000	-0,025	0,085
-181,300	-16,771	-0,021	0,010
-180,285	236,978	-0,029	-0,035
-179,271	735,447	-0,070	0,137
-178,256	781,564	-0,046	-0,092
-177,242	-200,000	-0,018	0,077
-176,227	-200,000	-0,019	0,063
-175,212	-100,590	0,053	0,009
-174,198	-200,000	0,003	-0,015
-173,183	22,774	0,111	-0,066
-172,169	800,000	-0,023	-0,069
-171,154	73,515	-0,057	0,043
-170,139	-200,000	0,043	0,146
-169,125	800,000	0,066	0,146
-168,110	-18,274	-0,037	-0,017
-167,096	91,254	0,062	0,050
-166,081	-200,000	0,021	-0,095
-165,066	75,514	-0,055	-0,042
-164,052	62,393	-0,056	-0,040
-163,037	-57,736	-0,049	0,015
-162,023	369,207	0,078	0,115
-161,008	-200,000	0,016	0,081
-159,993	11,227	0,089	0,050
-158,979	800,000	0,013	-0,028
-157,964	800,000	0,055	0,121
-156,950	-200,000	-0,025	-0,132
-155,935	-200,000	0,019	-0,070
-154,920	800,000	-0,014	0,045
-153,906	104,002	0,020	0,017
-152,891	-200,000	-0,028	-0,097
-151,877	134,022	0,040	0,038
-150,862	121,127	-0,071	-0,064
-149,847	-24,017	-0,077	0,033
-148,833	290,187	0,036	0,048
-147,818	220,425	-0,096	0,112
-146,804	800,000	0,032	0,066
-145,789	301,482	0,111	0,149
-144,775	800,000	-0,081	0,174
-143,760	-26,633	-0,036	0,015
-142,745	-200,000	0,015	-0,053
-141,731	800,000	-0,006	-0,012
-140,716	-153,294	0,096	0,005
-139,702	208,003	-0,069	-0,078
-138,687	384,477	0,017	0,025
-137,672	63,347	-0,101	0,073
-136,658	-200,000	-0,014	0,081
-135,643	41,393	0,072	-0,047
-134,629	-200,000	0,014	-0,067
-133,614	125,910	0,126	0,115
-132,599	-83,912	0,006	-0,001
-131,585	-200,000	-0,019	0,076
-130,570	-200,000	-0,012	0,072
-129,556	-200,000	-0,004	0,056
-128,541	-74,042	-0,115	0,030
-127,526	-200,000	0,008	-0,069
-126,512	-131,520	-0,050	-0,005
-125,497	-200,000	0,038	0,161
-124,483	115,962	-0,061	-0,054
-123,468	22,793	0,076	0,045
-122,453	31,446	0,057	-0,036
-121,439	-28,612	0,067	-0,028
-120,424	86,070	0,035	0,028
-119,410	223,911	-0,041	0,048
