DTS Sentinel unit serial number:	SN410029Multiplexer serial number:	ORYXHardware model number:	OX2-SRSoftware version number:	ORYX F/W v4,00 Oryx Data Collector v3.7.2.0data status	okinstallation	B4 Nyhavnadifferential loss correction	single-endedforward channel	channel 2reverse channel	N/Adate	2023/12/16time	02:20:13forward acquisition time	300,00reverse acquisition time	0,00gamma	499,1914k internal	0,3128k external	0,3128temperature offset calibration	1,0000default loss term (dB/km)	0,3820temperature slope calibration	1,0000multiplexer offset coefficient	1,0000multiplexer slope coefficient	1,0000fibre end	0,00T internal ref (°C)	21,94T ext. ref 1 (°C)	7,11T ext. ref 2 (°C)	7,31length (m)	temperature (°C)	Stokes	anti-Stokes-744,400	282,461	0,083	-0,111
-743,385	-82,392	-0,171	0,041
-742,371	800,000	0,041	-0,084
-741,356	151,828	-0,165	0,168
-740,342	-117,249	0,112	0,015
-739,327	174,142	-0,235	0,253
-738,312	800,000	-0,069	0,143
-737,298	-61,032	-0,198	0,062
-736,283	-45,664	0,113	-0,041
-735,269	7,143	-0,204	0,113
-734,254	112,834	0,044	-0,040
-733,239	82,942	-0,372	-0,300
-732,225	800,000	0,039	-0,082
-731,210	336,368	0,052	0,076
-730,196	-12,470	-0,135	-0,065
-729,181	-22,932	-0,061	-0,027
-728,167	800,000	0,054	-0,145
-727,152	-136,336	-0,026	-0,002
-726,137	-169,311	-0,217	-0,006
-725,123	-71,466	-0,083	0,023
-724,108	-153,977	-0,172	0,009
-723,094	-154,793	-0,081	0,004
-722,079	79,664	-0,067	-0,053
-721,064	-200,000	-0,112	0,000
-720,050	-142,921	0,078	0,006
-719,035	146,856	-0,026	0,026
-718,021	-200,000	0,022	0,155
-717,006	-200,000	0,002	-0,030
-715,991	-200,000	-0,028	-0,120
-714,977	16,644	-0,166	-0,097
-713,962	-200,000	0,011	-0,124
-712,948	165,566	0,037	-0,039
-711,933	-200,000	0,008	0,086
-710,918	-200,000	-0,011	0,089
-709,904	-12,956	-0,040	0,019
-708,889	-31,835	-0,130	-0,054
-707,875	174,450	-0,070	-0,075
-706,860	-74,136	0,021	-0,006
-705,845	390,529	0,059	-0,092
-704,831	-104,880	0,169	0,029
-703,816	-200,000	0,021	-0,091
-702,802	137,197	-0,073	0,071
-701,787	-200,000	0,006	-0,213
-700,772	109,122	-0,085	0,076
-699,758	51,331	0,023	-0,016
-698,743	88,809	0,076	-0,063
-697,729	-200,000	-0,041	-0,145
-696,714	-98,938	0,164	0,031
-695,699	227,196	-0,032	-0,039
-694,685	455,716	-0,019	-0,031
-693,670	2,570	-0,120	-0,064
-692,656	-106,246	0,054	-0,009
-691,641	599,741	-0,048	-0,090
-690,627	-189,900	0,161	0,001
-689,612	104,094	-0,108	-0,094
-688,597	800,000	0,016	-0,044
-687,583	-58,588	-0,121	-0,039
-686,568	-200,000	-0,030	-0,111
-685,554	27,625	-0,034	-0,021
-684,539	800,000	0,012	-0,037
-683,524	-71,415	-0,039	0,011
-682,510	-15,799	-0,088	0,041
-681,495	191,017	0,055	-0,062
-680,481	-200,000	-0,013	-0,045
-679,466	-200,000	0,025	-0,181
-678,451	-94,893	-0,107	-0,021
-677,437	-159,404	-0,199	0,008
-676,422	-106,407	-0,038	0,006
-675,408	99,300	0,047	0,040
-674,393	-104,450	0,105	-0,018
-673,378	-200,000	-0,014	-0,097
-672,364	-6,302	-0,076	-0,039
-671,349	-200,000	0,010	0,046
-670,335	55,786	0,044	-0,031
-669,320	15,019	0,033	0,019
-668,305	-200,000	-0,018	-0,069
-667,291	4,891	0,040	-0,022
-666,276	800,000	-0,032	0,078
-665,262	-80,295	-0,039	-0,009
-664,247	-200,000	-0,012	-0,057
-663,232	2,509	-0,041	-0,022
-662,218	-123,886	-0,069	-0,008
-661,203	92,601	0,106	-0,089
-660,189	-200,000	0,017	-0,077
-659,174	93,011	-0,047	0,039
-658,159	183,594	-0,048	-0,053
-657,145	-90,918	-0,161	-0,034
-656,130	260,645	-0,041	-0,053
-655,116	542,132	-0,061	0,108
-654,101	-200,000	0,010	0,041
-653,086	23,485	0,129	-0,078
-652,072	-200,000	0,009	-0,045
-651,057	20,821	0,019	0,011
-650,043	153,248	-0,056	0,057
-649,028	724,160	0,045	-0,090
-648,014	-200,000	-0,026	0,126
-646,999	-200,000	0,021	-0,071
-645,984	800,000	-0,043	0,105
-644,970	-86,101	0,069	-0,016
-643,955	-73,731	-0,117	0,031
-642,941	-116,882	0,080	0,011
-641,926	190,714	-0,089	0,099
-640,911	-7,512	0,121	-0,060
-639,897	-200,000	0,017	0,128
-638,882	800,000	0,037	-0,086
-637,868	-200,000	-0,006	-0,031
-636,853	-134,097	-0,050	0,005
-635,838	800,000	0,045	-0,116
-634,824	-200,000	-0,020	-0,148
-633,809	800,000	0,032	0,092
-632,795	-150,998	0,080	-0,004
-631,780	-78,660	-0,117	-0,029
-630,765	100,433	0,090	-0,078
-629,751	-169,496	-0,073	-0,002
-628,736	-200,000	0,018	-0,069
-627,722	-200,000	-0,029	-0,126
-626,707	-81,441	0,076	0,018
-625,692	-200,000	0,016	-0,125
-624,678	800,000	-0,036	-0,094
-623,663	-123,770	0,132	0,015
-622,649	-200,000	-0,008	-0,070
-621,634	-200,000	0,013	-0,080
-620,619	194,021	-0,040	-0,045
-619,605	90,243	-0,084	-0,069
-618,590	800,000	-0,049	0,111
-617,576	721,702	0,064	-0,126
-616,561	-200,000	0,011	-0,052
-615,546	-200,000	-0,004	-0,098
-614,532	-79,327	-0,200	-0,050
-613,517	-200,000	0,011	0,094
-612,503	117,885	-0,145	-0,132
-611,488	-43,415	0,151	0,056
-610,474	-86,364	-0,030	-0,007
-609,459	539,552	-0,039	-0,069
-608,444	423,903	-0,058	-0,092
-607,430	-200,000	-0,029	-0,139
-606,415	-62,064	-0,204	-0,063
-605,401	95,525	0,035	-0,030
-604,386	-200,000	0,002	-0,037
-603,371	-200,000	0,016	0,070
-602,357	793,950	0,030	0,061
-601,342	-21,724	0,069	0,031
-600,328	-34,892	-0,161	-0,065
-599,313	-200,000	0,038	-0,159
-598,298	61,793	0,055	-0,040
-597,284	165,650	0,160	0,168
-596,269	-42,919	0,018	-0,007
-595,255	-200,000	-0,017	-0,081
-594,240	-200,000	0,006	0,069
-593,225	800,000	0,014	-0,044
-592,211	641,661	0,043	-0,081
-591,196	-200,000	0,014	0,078
-590,182	-22,881	0,113	0,050
-589,167	-94,235	-0,117	-0,024
-588,152	52,555	-0,052	0,037
-587,138	-149,728	0,097	0,006
-586,123	-200,000	-0,008	-0,069
-585,109	-22,035	0,055	-0,024
-584,094	-146,307	-0,124	0,008
-583,079	-200,000	0,019	0,111
-582,065	800,000	0,021	-0,062
-581,050	271,451	0,026	0,034
-580,036	-111,724	-0,141	-0,021
-579,021	-152,766	-0,142	-0,007
-578,006	800,000	-0,046	-0,135
-576,992	800,000	-0,069	-0,174
-575,977	17,808	-0,134	-0,079
-574,963	-200,000	-0,004	-0,017
-573,948	-79,123	-0,202	-0,050
-572,934	461,185	-0,059	-0,098
-571,919	-27,036	0,081	-0,035
-570,904	235,205	-0,026	-0,031
-569,890	-200,000	0,000	-0,103
-568,875	-192,313	0,125	-0,001
-567,861	89,039	0,023	-0,019
-566,846	-154,290	-0,050	-0,002
-565,831	-115,211	0,015	-0,002
-564,817	-200,000	0,005	0,165
-563,802	800,000	-0,033	-0,081
-562,788	800,000	0,041	-0,090
-561,773	-59,222	0,061	-0,019
-560,758	-22,890	0,137	0,061
-559,744	-200,000	0,005	0,072
-558,729	-200,000	-0,001	0,222
-557,715	-159,805	-0,035	-0,001
-556,700	-153,866	0,066	0,003
-555,685	-157,884	-0,151	0,006
-554,671	114,376	-0,029	-0,026
-553,656	-7,408	0,086	-0,043
-552,642	-200,000	0,024	0,110
-551,627	-6,192	-0,077	-0,039
-550,612	-77,360	-0,082	-0,021
-549,598	-54,886	-0,040	0,013
-548,583	800,000	-0,027	0,064
-547,569	-1,282	0,101	0,052
-546,554	-45,238	-0,075	-0,027
-545,539	93,831	-0,020	0,017
-544,525	-106,763	0,180	-0,029
-543,510	245,402	-0,081	-0,101
-542,496	-18,591	-0,058	-0,027
-541,481	39,006	0,054	-0,035
-540,466	-168,911	-0,051	-0,001
-539,452	-72,332	-0,047	-0,013
-538,437	269,453	0,061	0,079
-537,423	-200,000	-0,015	0,065
-536,408	800,000	0,020	0,051
-535,393	-200,000	0,017	-0,223
-534,379	2,147	-0,097	-0,051
-533,364	-200,000	-0,009	-0,032
-532,350	-71,970	-0,103	-0,028
-531,335	800,000	0,025	0,063
-530,321	18,115	0,082	0,048
-529,306	-110,806	-0,069	0,010
-528,291	-67,187	0,100	-0,029
-527,277	223,925	0,130	-0,155
-526,262	28,904	-0,063	0,039
-525,248	-200,000	0,018	0,064
-524,233	-3,808	0,071	-0,036
-523,218	143,309	0,142	0,140
-522,204	-200,000	-0,021	-0,217
-521,189	-75,869	-0,223	-0,058
-520,175	174,893	0,053	-0,057
-519,160	-6,578	0,091	0,046
-518,145	464,637	0,046	0,077
-517,131	182,885	0,011	0,012
-516,116	-93,093	-0,079	-0,016
-515,102	-73,296	0,085	0,023
-514,087	-200,000	0,017	-0,058
-513,072	-200,000	-0,016	-0,161
-512,058	111,556	-0,042	0,037
-511,043	779,588	-0,013	-0,026
-510,029	-200,000	0,017	0,081
-509,014	43,148	0,071	-0,048
-507,999	-200,000	0,003	0,076
-506,985	-200,000	0,011	-0,044
-505,970	98,613	-0,063	0,053
-504,956	-85,783	0,122	0,028
-503,941	-200,000	-0,007	-0,097
-502,926	800,000	-0,003	0,009
-501,912	-147,614	0,111	-0,007
-500,897	-200,000	0,021	-0,126
-499,883	205,970	-0,052	-0,060
-498,868	139,218	-0,126	-0,122
-497,853	63,945	-0,054	0,040
-496,839	-200,000	-0,048	0,179
-495,824	800,000	-0,047	0,137
-494,810	-200,000	-0,015	-0,092
-493,795	138,218	0,101	0,097
-492,781	-200,000	-0,006	-0,094
-491,766	124,407	-0,111	-0,103
-490,751	140,451	-0,099	0,097
-489,737	113,582	0,012	0,011
-488,722	289,338	0,083	-0,111
-487,708	-200,000	0,018	0,146
-486,693	365,941	0,105	0,156
-485,678	-200,000	0,003	-0,099
-484,664	64,093	0,023	-0,017
-483,649	16,935	0,011	0,006
-482,635	439,306	0,059	0,095
-481,620	-113,574	-0,076	-0,011
-480,605	-132,836	0,124	0,011
-479,591	-200,000	0,036	-0,126
-478,576	800,000	-0,023	-0,067
-477,562	226,946	-0,033	-0,039
-476,547	-200,000	0,016	-0,081
-475,532	-200,000	0,005	-0,066
-474,518	800,000	0,032	0,069
-473,503	379,571	-0,054	-0,082
-472,489	42,145	-0,077	0,051
-471,474	114,160	0,085	0,076
-470,459	-134,346	0,028	-0,002
-469,445	132,569	-0,073	0,069
-468,430	565,216	0,045	-0,081
-467,416	-200,000	0,013	0,046
-466,401	-200,000	0,006	0,089
-465,386	-43,515	0,076	-0,028
-464,372	-174,224	0,113	-0,002
-463,357	-92,868	0,030	-0,006
-462,343	-150,905	-0,172	0,009
-461,328	-159,188	-0,177	-0,007
-460,313	-200,000	0,008	0,101
-459,299	800,000	0,046	0,113
-458,284	-185,396	0,126	-0,001
-457,270	-12,178	0,145	-0,070
-456,255	800,000	-0,036	-0,113
-455,241	800,000	-0,004	-0,009
-454,226	-182,586	-0,155	-0,002
-453,211	223,746	-0,035	0,042
-452,197	379,764	0,056	0,085
-451,182	64,511	0,073	-0,054
-450,168	-59,391	0,077	-0,024
-449,153	-63,834	0,040	-0,012
-448,138	-87,357	-0,165	-0,037
-447,124	-200,000	0,009	0,052
-446,109	363,966	0,014	0,020
-445,095	-98,814	-0,092	0,017
-444,080	30,168	0,119	-0,074
-443,065	22,824	-0,058	0,035
-442,051	-127,544	0,056	0,006
-441,036	-200,000	0,021	0,121
-440,022	180,399	0,043	0,047
-439,007	178,865	-0,058	0,063
-437,992	800,000	-0,015	0,042
-436,978	796,300	0,022	0,045
-435,963	-200,000	0,026	-0,098
-434,949	-72,654	-0,106	0,029
-433,934	-11,900	-0,132	-0,064
-432,919	657,270	0,042	-0,081
-431,905	90,119	-0,025	0,020
-430,890	-14,931	0,079	0,037
-429,876	800,000	-0,054	0,131
-428,861	-161,751	-0,052	-0,002
-427,846	-60,517	0,067	0,021
-426,832	120,343	-0,192	-0,175
-425,817	-186,791	0,084	-0,001
-424,803	-200,000	0,007	0,025
-423,788	446,976	0,083	0,135
-422,773	47,023	0,056	0,038
-421,759	31,018	-0,146	0,092
-420,744	-171,769	0,091	-0,002
-419,730	27,469	-0,078	0,048
-418,715	-0,572	-0,045	-0,024
-417,701	9,921	-0,075	0,042
-416,686	-183,140	0,041	-0,001
-415,671	398,147	0,071	0,110
-414,657	-200,000	0,025	0,225
-413,642	-200,000	0,010	-0,073
-412,628	-200,000	0,036	-0,129
-411,613	800,000	-0,029	0,084
-410,598	-53,854	-0,150	-0,050
-409,584	18,473	0,089	-0,052
-408,569	-200,000	0,014	0,087
-407,555	800,000	0,083	-0,195
-406,540	-200,000	0,022	0,156
-405,525	800,000	0,064	0,169
-404,511	-160,217	-0,064	0,002
-403,496	800,000	-0,042	0,106
-402,482	619,410	0,057	-0,105
-401,467	15,489	-0,098	-0,057
-400,452	-200,000	0,003	0,179
-399,438	-17,746	0,098	-0,045
-398,423	180,983	-0,026	0,028
-397,409	800,000	0,058	-0,158
-396,394	-200,000	0,004	0,085
-395,379	-200,000	0,018	0,186
-394,365	-61,949	-0,155	-0,047
-393,350	-50,533	0,087	0,030
-392,336	72,860	0,088	0,068
-391,321	120,117	-0,022	-0,020
-390,306	-200,000	-0,029	0,140
-389,292	-200,000	0,008	-0,058
-388,277	538,110	0,079	-0,138
-387,263	111,611	0,169	0,149
-386,248	-200,000	0,010	-0,035
-385,233	-130,848	0,124	-0,012
-384,219	622,163	-0,060	-0,111
-383,204	-42,509	-0,158	-0,059
-382,190	50,354	0,122	0,085
-381,175	151,174	-0,077	0,077
-380,160	800,000	-0,047	0,120
-379,146	-91,970	-0,062	-0,013
-378,131	346,689	0,013	0,019
-377,117	240,433	0,128	0,157
-376,102	41,288	-0,108	-0,072
-375,088	495,439	-0,036	0,061
-374,073	11,309	-0,063	0,035
-373,058	-200,000	0,013	0,051
-372,044	-65,354	0,159	0,047
-371,029	9,612	0,112	-0,062
-370,015	-200,000	0,017	0,152
-369,000	-200,000	-0,016	0,135
-367,985	-46,602	0,108	-0,039
-366,971	-140,156	0,058	-0,004
-365,956	236,451	0,026	-0,032
-364,942	800,000	0,024	-0,068
-363,927	76,275	-0,120	0,093
-362,912	800,000	-0,051	0,143
-361,898	-174,292	0,046	-0,001
-360,883	11,218	-0,129	0,072
-359,869	308,022	-0,069	-0,094
-358,854	196,090	-0,062	-0,069
-357,839	800,000	-0,010	0,023
-356,825	57,115	0,115	0,082
-355,810	800,000	0,060	-0,140
-354,796	-200,000	0,002	-0,012
-353,781	-60,185	-0,130	-0,040
-352,766	-118,130	0,064	0,008
-351,752	-200,000	0,012	0,197
-350,737	-12,310	0,093	0,044
-349,723	-10,406	0,085	-0,041
-348,708	353,868	-0,069	-0,101
-347,693	168,451	-0,036	-0,037
-346,679	-200,000	0,003	0,021
-345,664	800,000	-0,013	-0,035
-344,650	154,400	0,028	-0,028
-343,635	390,294	-0,045	-0,069
-342,620	-114,619	-0,037	0,005
-341,606	-200,000	-0,027	-0,137
-340,591	-200,000	-0,011	0,041
-339,577	146,656	-0,052	-0,051
-338,562	-50,094	0,063	0,022
-337,548	35,709	-0,090	-0,058
-336,533	139,815	0,094	0,091
-335,518	-200,000	0,018	0,098
-334,504	353,637	0,057	0,083
-333,489	-24,116	0,112	-0,049
-332,475	-136,697	-0,090	0,007
-331,460	800,000	-0,051	0,110
-330,445	501,909	-0,009	0,016
-329,431	-38,388	0,106	-0,041
-328,416	726,121	0,026	0,051
-327,402	384,935	-0,067	-0,101
-326,387	-200,000	0,000	-0,014
-325,372	91,688	0,076	-0,063
-324,358	515,280	-0,040	0,069
-323,343	651,150	-0,047	-0,088
-322,329	-200,000	0,021	-0,068
-321,314	-168,584	0,151	0,004
-320,299	-9,958	0,122	0,059
-319,285	13,251	-0,114	-0,065
-318,270	-200,000	-0,035	-0,145
-317,256	620,215	0,006	-0,012
-316,241	127,051	0,045	0,042
-315,226	98,858	-0,113	0,096
-314,212	-200,000	-0,011	0,051
-313,197	614,139	0,084	0,154
-312,183	-41,456	0,122	0,046
-311,168	-200,000	-0,016	-0,069
-310,153	-53,249	-0,058	-0,019
-309,139	-123,589	0,118	-0,014
-308,124	58,158	-0,079	-0,056
-307,110	24,598	0,040	-0,024
-306,095	-200,000	0,013	0,060
-305,080	-50,814	0,051	0,018
-304,066	800,000	0,007	0,015
-303,051	459,777	-0,048	0,079
-302,037	-200,000	-0,028	-0,135
-301,022	7,374	-0,143	-0,078
-300,008	26,537	-0,087	-0,053
-298,993	-67,961	0,096	-0,027
-297,978	106,707	0,054	-0,047
-296,964	217,027	-0,065	-0,076
-295,949	800,000	-0,042	0,087
-294,935	103,630	-0,032	-0,028
-293,920	-101,569	-0,137	-0,024
-292,905	271,799	0,107	-0,139
-291,891	-75,399	0,073	-0,019
-290,876	-200,000	0,005	0,036
-289,862	-43,313	0,082	0,030
-288,847	127,841	-0,091	-0,084
-287,832	589,402	-0,042	-0,076
-286,818	-148,015	0,086	-0,005
-285,803	-8,075	-0,132	-0,065
-284,789	195,772	-0,068	0,075
-283,774	-200,000	-0,005	0,117
-282,759	379,465	0,045	0,068
-281,745	-104,622	-0,099	-0,017
-280,730	-200,000	0,004	0,021
-279,716	800,000	0,042	0,094
-278,701	-75,764	-0,149	-0,038
-277,686	800,000	0,060	0,129
-276,672	800,000	0,039	0,103
-275,657	-54,196	0,105	-0,035
-274,643	467,730	0,036	-0,059
-273,628	800,000	-0,025	-0,056
-272,613	125,240	-0,072	-0,066
-271,599	102,258	0,015	0,013
-270,584	345,425	0,102	-0,147
-269,570	-85,335	0,022	-0,005
-268,555	6,558	-0,058	-0,032
-267,540	231,464	-0,096	-0,115
-266,526	-200,000	0,002	-0,082
-265,511	58,589	0,076	0,055
-264,497	-133,928	0,022	0,002
-263,482	-77,305	-0,059	-0,015
-262,467	800,000	0,036	0,085
-261,453	-200,000	0,014	0,131
-260,438	-148,271	-0,173	-0,010
-259,424	553,690	-0,026	-0,046
-258,409	-200,000	0,001	0,048
-257,395	-200,000	0,002	-0,014
-256,380	800,000	0,036	-0,091
-255,365	109,776	0,143	0,125
-254,351	531,695	0,083	0,143
-253,336	-9,134	-0,085	-0,042
-252,322	-90,623	-0,094	-0,020
-251,307	-4,651	-0,095	-0,048
-250,292	-24,917	0,066	-0,029
-249,278	-200,000	0,012	0,045
-248,263	-200,000	0,005	-0,019
-247,249	-169,553	-0,041	-0,001
-246,234	119,676	0,026	0,023
-245,219	-192,412	-0,176	-0,001
-244,205	-90,333	0,047	0,010
-243,190	-200,000	0,016	0,087
-242,176	-155,623	0,103	-0,005
-241,161	296,772	0,054	0,072
-240,146	336,467	-0,080	0,113
-239,132	-200,000	0,004	0,127
-238,117	140,157	-0,076	-0,073
-237,103	96,600	-0,070	0,058
-236,088	-200,000	-0,008	0,056
-235,073	249,197	0,077	0,095
-234,059	-89,414	0,042	0,009
-233,044	61,875	-0,050	0,037
-232,030	-79,043	0,009	0,002
-231,015	471,704	0,023	0,038
-230,000	217,910	-0,034	-0,039
-228,986	115,905	0,113	0,101
-227,971	-171,567	-0,051	0,001
-226,957	518,184	0,040	0,068
-225,942	-44,605	-0,033	0,012
-224,927	189,180	-0,084	0,092
-223,913	-200,000	0,020	0,074
-222,898	155,998	0,083	-0,084
-221,884	537,481	-0,048	-0,084
-220,869	78,890	-0,083	0,064
-219,855	-94,051	0,065	0,013
-218,840	129,963	0,023	0,021
-217,825	136,003	0,020	-0,019
-216,811	-88,500	-0,123	0,027
-215,796	-169,995	-0,122	-0,003
-214,782	-18,866	-0,061	-0,028
-213,767	-135,255	0,074	-0,006
-212,752	324,822	0,006	-0,008
-211,738	-166,214	0,175	-0,005
-210,723	800,000	-0,020	-0,052
-209,709	-103,132	-0,079	-0,013
-208,694	60,013	-0,099	-0,071
-207,679	-200,000	-0,016	-0,103
-206,665	-34,109	0,056	0,022
-205,650	-200,000	-0,010	0,093
-204,636	-62,744	-0,107	0,032
-203,621	-22,855	-0,186	0,081
-202,606	339,166	-0,020	0,028
-201,592	-24,255	-0,119	-0,052
-200,577	-101,078	0,088	-0,016
-199,563	-100,480	0,065	0,012
-198,548	-14,252	0,095	0,045
-197,533	800,000	-0,010	0,027
-196,519	20,507	-0,065	-0,038
-195,504	-144,367	0,068	-0,005
-194,490	-59,697	-0,144	0,045
-193,475	-164,309	-0,070	0,002
-192,460	-149,090	0,152	0,009
-191,446	-200,000	0,013	0,131
-190,431	169,654	0,109	0,114
-189,417	-52,602	0,086	0,029
-188,402	148,718	-0,092	-0,091
-187,387	57,491	0,114	-0,081
-186,373	157,174	-0,041	-0,041
-185,358	800,000	-0,024	-0,053
-184,344	800,000	-0,052	0,130
-183,329	-56,669	0,135	0,043
-182,315	530,206	0,041	-0,070
-181,300	368,773	0,091	-0,135
-180,285	-200,000	0,005	-0,078
-179,271	-135,502	-0,161	-0,014
-178,256	-182,730	0,192	-0,002
-177,242	-200,000	0,021	-0,080
-176,227	-200,000	-0,008	0,110
-175,212	800,000	0,018	-0,046
-174,198	537,594	-0,078	0,136
-173,183	206,797	-0,090	0,102
-172,169	155,264	-0,051	-0,051
-171,154	-154,809	0,148	-0,007
-170,139	-163,881	0,132	-0,004
-169,125	-200,000	-0,008	0,053
-168,110	136,808	-0,083	0,079
-167,096	-200,000	0,017	-0,066
-166,081	-200,000	-0,015	-0,105
-165,066	-67,392	-0,121	-0,034
-164,052	99,376	0,128	-0,108
-163,037	-107,739	0,092	0,014
-162,023	800,000	0,010	-0,021
-161,008	-200,000	0,050	0,000
-159,993	148,652	-0,057	0,056
-158,979	77,743	0,092	0,071
-157,964	-200,000	-0,003	0,060
-156,950	53,386	-0,081	-0,056
-155,935	160,076	0,042	-0,043
-154,920	-200,000	-0,006	0,094
-153,906	295,549	0,022	-0,029
-152,891	108,605	0,034	-0,029
-151,877	-37,407	-0,089	-0,035
-150,862	-142,898	-0,045	0,003
-149,847	107,735	-0,050	0,044
-148,833	-200,000	0,050	0,178
-147,818	-200,000	0,020	0,140
-146,804	187,525	0,074	-0,080
-145,789	-71,565	0,177	0,048
-144,775	800,000	0,024	-0,057
-143,760	120,522	-0,089	0,080
-142,745	-102,033	0,040	-0,007
-141,731	800,000	-0,050	-0,119
-140,716	800,000	0,021	-0,054
-139,702	800,000	0,040	0,127
-138,687	800,000	0,027	0,055
-137,672	-200,000	-0,009	-0,031
-136,658	800,000	-0,028	0,063
-135,643	61,776	-0,050	-0,036
-134,629	157,955	-0,055	0,056
-133,614	6,817	0,139	0,075
-132,599	-150,636	0,026	0,001
-131,585	256,986	0,044	0,055
-130,570	128,740	0,031	-0,029
-129,556	391,684	0,082	-0,124
-128,541	-80,069	-0,208	0,050
-127,526	800,000	-0,086	-0,195
-126,512	-200,000	0,009	-0,172
-125,497	0,490	0,072	0,037
-124,483	64,553	-0,061	-0,044
-123,468	138,603	-0,097	-0,092
-122,453	425,097	-0,013	0,021
-121,439	201,456	-0,071	0,080
-120,424	-43,253	-0,089	-0,032
