DTS Sentinel unit serial number:	SN410029Multiplexer serial number:	ORYXHardware model number:	OX2-SRSoftware version number:	ORYX F/W v4,00 Oryx Data Collector v3.7.2.0data status	okinstallation	B4 Nyhavnadifferential loss correction	single-endedforward channel	channel 2reverse channel	N/Adate	2023/12/19time	03:50:13forward acquisition time	300,00reverse acquisition time	0,00gamma	499,1914k internal	0,3125k external	0,3125temperature offset calibration	1,0000default loss term (dB/km)	0,3820temperature slope calibration	1,0000multiplexer offset coefficient	1,0000multiplexer slope coefficient	1,0000fibre end	0,00T internal ref (°C)	21,01T ext. ref 1 (°C)	5,76T ext. ref 2 (°C)	5,76length (m)	temperature (°C)	Stokes	anti-Stokes-744,400	-37,248	0,116	-0,046
-743,385	25,426	-0,298	0,184
-742,371	-9,267	0,055	-0,027
-741,356	800,000	-0,082	0,224
-740,342	-132,725	0,013	0,001
-739,327	388,332	-0,197	0,304
-738,312	368,688	0,036	0,055
-737,298	-69,608	-0,193	0,055
-736,283	76,406	0,098	-0,077
-735,269	-39,593	-0,133	0,052
-734,254	247,660	0,073	-0,092
-733,239	-150,926	-0,441	-0,024
-732,225	-107,296	0,167	0,027
-731,210	186,190	0,040	0,044
-730,196	-172,392	-0,138	0,003
-729,181	461,339	0,088	0,147
-728,167	-200,000	0,032	0,126
-727,152	-97,476	-0,052	0,010
-726,137	800,000	0,019	-0,041
-725,123	36,247	-0,060	-0,039
-724,108	800,000	-0,033	-0,077
-723,094	-113,935	-0,109	-0,016
-722,079	354,410	-0,078	-0,116
-721,064	588,701	-0,107	-0,196
-720,050	400,746	-0,045	-0,071
-719,035	-139,894	-0,038	0,003
-718,021	6,084	-0,078	-0,043
-717,006	317,382	0,067	-0,094
-715,991	-200,000	-0,014	0,084
-714,977	-200,000	-0,036	-0,126
-713,962	-200,000	-0,005	-0,031
-712,948	-14,346	-0,063	0,030
-711,933	310,720	-0,007	-0,010
-710,918	701,264	0,035	0,069
-709,904	390,140	-0,078	-0,121
-708,889	97,395	-0,063	-0,054
-707,875	53,407	-0,079	-0,057
-706,860	-120,475	-0,070	0,009
-705,845	800,000	-0,034	-0,096
-704,831	602,463	-0,052	0,096
-703,816	755,261	0,028	-0,057
-702,802	-8,270	-0,151	0,075
-701,787	800,000	-0,044	0,139
-700,772	800,000	-0,022	-0,068
-699,758	-200,000	0,025	-0,101
-698,743	-200,000	-0,000	-0,020
-697,729	348,364	0,034	0,050
-696,714	-200,000	0,019	0,082
-695,699	554,087	0,078	-0,140
-694,685	648,071	-0,117	-0,224
-693,670	148,677	-0,091	-0,092
-692,656	8,991	-0,059	0,033
-691,641	23,806	-0,105	0,064
-690,627	336,879	0,038	-0,056
-689,612	800,000	-0,022	-0,057
-688,597	-200,000	-0,010	-0,174
-687,583	-200,000	0,025	-0,117
-686,568	394,650	-0,102	-0,158
-685,554	-200,000	-0,030	-0,162
-684,539	11,116	-0,135	0,077
-683,524	-89,146	0,097	0,021
-682,510	312,534	0,054	0,076
-681,495	203,742	-0,032	-0,037
-680,481	591,051	0,039	-0,072
-679,466	639,621	-0,042	-0,080
-678,451	-200,000	-0,007	-0,057
-677,437	-200,000	0,008	-0,027
-676,422	-17,335	0,046	0,021
-675,408	78,605	-0,043	-0,034
-674,393	9,816	-0,046	0,026
-673,378	456,312	-0,047	-0,077
-672,364	-150,985	-0,153	0,008
-671,349	54,917	-0,191	-0,137
-670,335	-200,000	0,020	0,070
-669,320	17,236	0,016	0,009
-668,305	-200,000	-0,021	0,157
-667,291	190,903	-0,063	0,070
-666,276	-200,000	0,004	0,075
-665,262	637,907	-0,063	-0,119
-664,247	-200,000	-0,020	0,080
-663,232	-136,357	0,025	-0,002
-662,218	-200,000	-0,004	-0,105
-661,203	-157,833	-0,039	0,002
-660,189	-158,579	-0,054	-0,002
-659,174	-6,525	-0,090	-0,046
-658,159	759,173	-0,070	0,141
-657,145	312,670	-0,048	0,067
-656,130	800,000	-0,019	-0,060
-655,116	644,442	-0,032	-0,060
-654,101	4,724	0,017	-0,009
-653,086	11,902	-0,065	-0,037
-652,072	-200,000	0,009	0,110
-651,057	-60,910	0,031	-0,010
-650,043	-200,000	-0,011	0,143
-649,028	310,108	-0,080	0,112
-648,014	-111,864	0,050	-0,007
-646,999	-200,000	0,022	0,126
-645,984	-9,255	-0,180	0,089
-644,970	25,262	-0,033	-0,020
-643,955	-55,203	-0,133	0,044
-642,941	362,781	-0,115	-0,172
-641,926	-62,033	-0,029	0,009
-640,911	-200,000	-0,007	0,088
-639,897	-200,000	0,035	0,138
-638,882	222,176	-0,029	-0,035
-637,868	-200,000	-0,003	0,073
-636,853	-200,000	-0,002	-0,026
-635,838	150,108	-0,064	-0,065
-634,824	-200,000	-0,033	-0,142
-633,809	195,007	0,014	-0,016
-632,795	-200,000	0,022	0,120
-631,780	59,874	-0,056	-0,041
-630,765	-200,000	-0,002	-0,084
-629,751	19,526	-0,036	0,021
-628,736	147,429	0,067	-0,067
-627,722	-200,000	0,011	-0,072
-626,707	-74,635	0,057	0,015
-625,692	-200,000	0,021	0,077
-624,678	-200,000	-0,011	-0,068
-623,663	800,000	-0,011	0,028
-622,649	-200,000	-0,010	-0,062
-621,634	-200,000	-0,043	0,158
-620,619	148,857	-0,053	-0,053
-619,605	-200,000	-0,006	0,085
-618,590	715,819	-0,065	-0,128
-617,576	172,648	-0,062	0,067
-616,561	26,568	0,029	-0,018
-615,546	-200,000	-0,002	-0,043
-614,532	800,000	-0,028	-0,072
-613,517	800,000	-0,026	0,080
-612,503	106,123	0,098	0,086
-611,488	-64,429	-0,077	0,023
-610,474	-124,256	0,011	0,001
-609,459	468,183	-0,033	0,056
-608,444	271,863	-0,057	0,075
-607,430	219,593	-0,096	-0,114
-606,415	62,617	-0,070	0,052
-605,401	-177,773	-0,063	0,001
-604,386	86,993	0,033	-0,027
-603,371	236,758	0,022	-0,026
-602,357	54,623	-0,089	-0,064
-601,342	506,314	-0,065	0,111
-600,328	800,000	-0,014	-0,035
-599,313	-92,019	0,031	-0,006
-598,298	-172,868	-0,069	-0,002
-597,284	683,729	-0,044	0,086
-596,269	-200,000	0,025	0,088
-595,255	9,256	0,056	0,032
-594,240	-200,000	-0,002	0,073
-593,225	129,557	0,023	-0,022
-592,211	55,100	-0,048	0,034
-591,196	14,587	0,103	0,060
-590,182	-5,762	-0,090	0,046
-589,167	-200,000	0,004	-0,128
-588,152	240,843	0,061	0,075
-587,138	800,000	-0,004	0,010
-586,123	800,000	-0,027	-0,075
-585,109	-108,710	0,159	-0,025
-584,094	-200,000	0,009	0,035
-583,079	368,617	0,054	0,081
-582,065	-14,008	-0,043	0,020
-581,050	83,777	0,109	0,088
-580,036	-200,000	-0,003	-0,026
-579,021	-50,037	-0,097	-0,034
-578,006	800,000	0,014	0,036
-576,992	-200,000	0,000	-0,010
-575,977	163,239	-0,025	-0,026
-574,963	226,019	0,065	-0,078
-573,948	-100,420	-0,117	0,021
-572,934	-55,913	-0,031	0,010
-571,919	-65,438	-0,041	-0,012
-570,904	260,742	-0,079	-0,101
-569,890	120,415	0,027	-0,025
-568,875	406,004	0,042	0,066
-567,861	100,400	0,110	0,095
-566,846	356,795	-0,019	-0,028
-565,831	-200,000	-0,009	-0,050
-564,817	363,218	-0,082	-0,123
-563,802	-31,426	-0,044	0,018
-562,788	315,695	-0,058	-0,082
-561,773	800,000	0,040	-0,091
-560,758	7,195	0,108	0,060
-559,744	-41,144	-0,038	-0,015
-558,729	71,599	-0,014	-0,011
-557,715	-200,000	0,041	-0,164
-556,700	74,162	0,056	-0,044
-555,685	-200,000	-0,040	-0,132
-554,671	-72,731	-0,112	-0,030
-553,656	206,452	0,037	0,043
-552,642	173,570	0,036	-0,038
-551,627	-105,424	-0,128	0,021
-550,612	200,507	0,015	-0,017
-549,598	48,810	-0,055	0,038
-548,583	800,000	0,018	0,057
-547,569	115,863	-0,074	-0,067
-546,554	-142,458	-0,051	0,004
-545,539	358,396	0,080	0,118
-544,525	-124,529	0,010	0,001
-543,510	-97,218	-0,031	-0,006
-542,496	-200,000	0,033	0,122
-541,481	-200,000	-0,016	-0,093
-540,466	126,483	-0,080	0,075
-539,452	-200,000	-0,001	-0,017
-538,437	-74,561	0,153	-0,040
-537,423	-46,595	-0,108	0,039
-536,408	-200,000	-0,002	0,039
-535,393	32,379	-0,047	-0,030
-534,379	-89,261	-0,166	-0,036
-533,364	422,794	-0,090	-0,144
-532,350	-48,063	0,050	0,018
-531,335	-200,000	-0,019	-0,151
-530,321	-63,210	0,072	-0,022
-529,306	213,725	0,078	-0,092
-528,291	121,007	-0,108	-0,099
-527,277	-200,000	0,010	0,095
-526,262	-111,369	-0,151	-0,022
-525,248	-101,555	0,137	-0,024
-524,233	540,362	0,008	-0,014
-523,218	87,634	-0,072	0,059
-522,204	368,255	-0,048	-0,072
-521,189	69,171	0,082	-0,062
-520,175	392,348	-0,041	0,063
-519,160	800,000	0,033	-0,107
-518,145	-56,156	-0,051	0,017
-517,131	-200,000	-0,040	0,149
-516,116	-72,033	0,074	0,020
-515,102	-96,537	0,049	-0,009
-514,087	-200,000	-0,024	-0,110
-513,072	43,753	-0,101	-0,068
-512,058	-200,000	0,049	0,193
-511,043	-200,000	0,017	0,119
-510,029	11,238	0,063	0,036
-509,014	-53,207	0,080	0,027
-507,999	-200,000	-0,001	0,096
-506,985	-200,000	0,015	-0,096
-505,970	800,000	0,033	-0,095
-504,956	148,710	-0,031	-0,030
-503,941	-200,000	0,014	0,078
-502,926	-58,124	-0,130	0,042
-501,912	-200,000	0,006	0,090
-500,897	112,157	-0,093	-0,083
-499,883	-45,409	0,058	-0,021
-498,868	-200,000	-0,157	0,000
-497,853	1,366	-0,075	0,039
-496,839	-21,682	-0,123	-0,055
-495,824	51,985	0,153	-0,107
-494,810	-200,000	-0,017	0,165
-493,795	374,392	0,101	0,153
-492,781	-78,994	0,086	-0,021
-491,766	-3,947	-0,151	0,077
-490,751	-116,883	-0,066	0,009
-489,737	311,107	0,057	-0,079
-488,722	-200,000	-0,022	0,106
-487,708	800,000	-0,041	0,098
-486,693	33,493	0,116	0,074
-485,678	16,357	0,171	-0,099
-484,664	374,874	-0,060	-0,091
-483,649	-10,414	-0,035	0,017
-482,635	-156,330	0,077	-0,004
-481,620	-200,000	0,022	-0,089
-480,605	230,119	0,062	0,075
-479,591	-200,000	0,014	-0,139
-478,576	-200,000	0,041	0,172
-477,562	-84,656	-0,037	-0,009
-476,547	-200,000	0,006	-0,144
-475,532	-78,100	-0,133	-0,034
-474,518	-68,608	0,111	-0,031
-473,503	-200,000	-0,012	0,109
-472,489	-200,000	0,006	-0,023
-471,474	32,212	-0,122	-0,077
-470,459	-200,000	0,002	-0,044
-469,445	-200,000	0,003	0,029
-468,430	-200,000	0,013	0,053
-467,416	800,000	-0,042	-0,101
-466,401	-57,773	0,119	-0,038
-465,386	70,051	-0,079	0,060
-464,372	279,874	0,029	-0,039
-463,357	800,000	0,012	0,032
-462,343	-45,586	-0,134	-0,049
-461,328	800,000	-0,023	-0,065
-460,313	71,850	0,103	0,079
-459,299	-200,000	-0,050	0,203
-458,284	149,118	0,094	0,094
-457,270	-200,000	-0,018	0,149
-456,255	-164,487	0,090	0,003
-455,241	52,592	-0,065	-0,045
-454,226	-54,847	0,106	-0,035
-453,211	228,741	-0,103	-0,124
-452,197	-89,371	0,075	0,016
-451,182	376,911	-0,060	-0,090
-450,168	-119,855	0,131	-0,016
-449,153	-200,000	-0,012	-0,066
-448,138	224,096	-0,080	-0,095
-447,124	21,004	-0,019	-0,011
-446,109	-63,698	-0,125	0,038
-445,095	209,771	0,087	-0,101
-444,080	-120,945	0,074	0,009
-443,065	-200,000	0,014	0,129
-442,051	62,277	0,068	0,050
-441,036	524,292	-0,026	0,045
-440,022	27,342	-0,096	0,059
-439,007	125,986	-0,041	0,038
-437,992	-14,111	0,160	0,076
-436,978	-200,000	0,007	-0,041
-435,963	-200,000	0,021	0,073
-434,949	800,000	-0,047	-0,120
-433,934	41,121	-0,153	-0,102
-432,919	113,561	-0,062	0,055
-431,905	-200,000	0,005	0,178
-430,890	-120,837	0,107	0,013
-429,876	-200,000	0,001	-0,042
-428,861	-200,000	0,028	0,121
-427,846	337,855	0,039	-0,056
-426,832	-107,612	0,016	0,002
-425,817	315,507	-0,071	-0,098
-424,803	0,165	-0,073	-0,038
-423,788	-66,480	0,081	-0,023
-422,773	-200,000	-0,007	-0,195
-421,759	28,354	0,043	-0,027
-420,744	496,893	0,045	-0,076
-419,730	-82,873	0,137	-0,032
-418,715	-28,315	0,073	-0,031
-417,701	-51,562	-0,087	-0,030
-416,686	-200,000	-0,026	0,109
-415,671	-200,000	-0,000	-0,091
-414,657	20,345	0,019	-0,011
-413,642	-200,000	-0,007	0,122
-412,628	472,865	0,054	0,090
-411,613	122,742	-0,075	-0,069
-410,598	-66,539	0,063	-0,018
-409,584	69,918	0,042	-0,032
-408,569	800,000	-0,026	-0,080
-407,555	145,874	-0,082	0,081
-406,540	-200,000	-0,016	-0,072
-405,525	-200,000	-0,012	0,053
-404,511	720,762	-0,016	0,032
-403,496	800,000	0,041	-0,108
-402,482	-152,778	0,055	0,003
-401,467	111,292	-0,032	-0,028
-400,452	-200,000	-0,005	0,052
-399,438	34,565	0,081	-0,052
-398,423	58,631	-0,013	0,009
-397,409	-200,000	-0,020	0,097
-396,394	-200,000	0,007	-0,164
-395,379	-78,786	0,037	0,009
-394,365	-200,000	0,015	0,161
-393,350	-55,018	-0,053	0,017
-392,336	-200,000	0,002	-0,026
-391,321	-109,942	0,114	-0,017
-390,306	630,432	-0,048	-0,090
-389,292	-114,758	0,075	-0,010
-388,277	177,434	0,027	-0,029
-387,263	-200,000	-0,003	-0,026
-386,248	-23,120	-0,121	-0,053
-385,233	-200,000	-0,033	0,113
-384,219	-104,646	-0,084	-0,014
-383,204	-61,480	-0,112	-0,034
-382,190	250,688	0,078	-0,097
-381,175	-43,680	0,134	-0,049
-380,160	24,184	-0,050	0,030
-379,146	75,020	0,067	0,052
-378,131	-53,734	-0,061	-0,020
-377,117	-61,038	-0,078	0,024
-376,102	-187,642	-0,158	-0,001
-375,088	-118,920	0,026	-0,003
-374,073	-200,000	-0,001	-0,177
-373,058	-200,000	0,045	0,166
-372,044	-118,867	0,085	0,011
-371,029	-119,166	0,059	0,008
-370,015	565,970	-0,088	-0,157
-369,000	46,330	-0,177	-0,120
-367,985	-149,226	0,054	-0,003
-366,971	-42,784	0,047	-0,017
-365,956	800,000	0,022	0,063
-364,942	-1,737	0,094	0,048
-363,927	-61,635	0,077	0,024
-362,912	74,741	0,068	0,052
-361,898	-65,649	-0,051	-0,015
-360,883	-57,356	-0,060	0,019
-359,869	-200,000	-0,054	-0,250
-358,854	-152,499	0,084	-0,004
-357,839	-91,640	0,237	0,049
-356,825	135,605	0,033	-0,031
-355,810	-200,000	0,031	-0,104
-354,796	-49,857	-0,043	0,015
-353,781	140,913	0,135	-0,131
-352,766	-164,275	-0,054	0,002
-351,752	-101,236	0,053	-0,009
-350,737	-200,000	0,184	-0,000
-349,723	-79,688	0,068	0,017
-348,708	-200,000	0,005	0,090
-347,693	139,266	0,094	-0,091
-346,679	9,941	-0,161	0,090
-345,664	215,944	-0,053	0,061
-344,650	442,732	-0,005	-0,008
-343,635	61,296	0,111	0,081
-342,620	-109,836	0,080	0,012
-341,606	228,879	0,061	-0,073
-340,591	-9,154	0,034	-0,016
-339,577	-97,710	0,014	0,003
-338,562	-200,000	0,015	-0,115
-337,548	203,156	-0,020	0,022
-336,533	32,694	0,055	0,035
-335,518	800,000	0,040	-0,120
-334,504	-88,946	-0,051	-0,011
-333,489	64,567	-0,045	0,033
-332,475	-200,000	-0,013	-0,072
-331,460	-200,000	-0,014	-0,080
-330,445	110,284	-0,110	0,097
-329,431	-200,000	-0,046	0,164
-328,416	800,000	0,019	0,044
-327,402	-200,000	-0,008	0,194
-326,387	2,616	-0,127	0,067
-325,372	800,000	0,027	-0,063
-324,358	80,433	0,052	-0,041
-323,343	503,714	-0,015	-0,026
-322,329	-136,943	0,168	0,014
-321,314	39,108	-0,051	-0,033
-320,299	39,729	0,045	0,030
-319,285	-200,000	0,021	0,087
-318,270	-15,790	0,065	-0,030
-317,256	652,946	-0,043	-0,080
-316,241	57,816	-0,063	-0,045
-315,226	22,494	-0,036	-0,021
-314,212	-153,295	0,100	0,005
-313,197	359,571	0,059	0,086
-312,183	-53,330	-0,023	-0,008
-311,168	56,035	0,004	-0,003
-310,153	133,558	0,090	-0,085
-309,139	61,732	-0,196	-0,143
-308,124	204,424	0,064	0,072
-307,110	800,000	0,031	0,067
-306,095	-80,111	-0,045	0,011
-305,080	800,000	0,031	0,094
-304,066	-200,000	-0,011	0,050
-303,051	21,528	-0,076	-0,045
-302,037	-200,000	-0,015	0,153
-301,022	-96,714	0,090	-0,017
-300,008	53,645	0,124	0,087
-298,993	-64,637	-0,049	0,014
-297,978	-86,652	0,110	0,024
-296,964	-48,635	0,096	0,034
-295,949	-200,000	0,020	-0,152
-294,935	106,789	-0,028	0,024
-293,920	27,147	-0,033	-0,020
-292,905	-21,528	-0,064	-0,028
-291,891	-60,395	0,092	-0,029
-290,876	-200,000	-0,016	0,120
-289,862	-200,000	0,006	0,066
-288,847	-200,000	-0,016	-0,079
-287,832	-200,000	-0,026	0,093
-286,818	-200,000	-0,009	0,044
-285,803	800,000	-0,009	-0,020
-284,789	114,574	0,061	0,054
-283,774	342,582	0,076	0,109
-282,759	-70,162	-0,069	0,019
-281,745	-122,134	0,104	0,012
-280,730	329,402	0,043	0,060
-279,716	800,000	0,028	-0,085
-278,701	-181,591	0,093	-0,001
-277,686	-200,000	-0,022	-0,141
-276,672	-103,192	-0,040	0,007
-275,657	-200,000	0,011	-0,043
-274,643	-200,000	-0,003	0,066
-273,628	-200,000	0,022	-0,172
-272,613	800,000	0,026	-0,077
-271,599	419,103	-0,101	0,159
-270,584	107,038	0,095	0,083
-269,570	800,000	0,017	0,037
-268,555	166,073	-0,033	-0,035
-267,540	-200,000	0,007	0,076
-266,526	-200,000	0,030	-0,132
-265,511	483,122	-0,049	-0,082
-264,497	680,510	0,027	-0,051
-263,482	-200,000	-0,017	-0,059
-262,467	-200,000	-0,009	-0,075
-261,453	565,445	0,074	-0,131
-260,438	-200,000	0,055	0,000
-259,424	-83,591	-0,105	0,024
-258,409	688,086	0,069	0,133
-257,395	-200,000	0,019	0,113
-256,380	275,578	-0,059	0,076
-255,365	-86,554	0,019	0,004
-254,351	323,880	-0,010	-0,014
-253,336	-140,609	-0,167	0,012
-252,322	537,510	-0,056	-0,097
-251,307	-148,586	0,161	-0,009
-250,292	-200,000	-0,007	-0,032
-249,278	-112,609	0,097	0,014
-248,263	313,247	0,117	0,162
-247,249	-200,000	0,016	0,162
-246,234	-135,099	0,053	-0,005
-245,219	150,815	0,043	-0,043
-244,205	-155,351	-0,044	0,002
-243,190	76,089	-0,081	0,063
-242,176	-109,568	-0,074	-0,011
-241,161	-200,000	-0,055	0,232
-240,146	-200,000	-0,003	-0,059
-239,132	229,974	-0,065	0,078
-238,117	-150,693	0,134	0,007
-237,103	-121,934	0,042	-0,005
-236,088	362,792	-0,027	-0,039
-235,073	-116,705	0,036	0,005
-234,059	-200,000	0,006	-0,038
-233,044	126,086	-0,032	0,029
-232,030	158,879	-0,017	0,017
-231,015	-200,000	-0,032	-0,265
-230,000	151,660	0,096	0,096
-228,986	800,000	0,047	-0,107
-227,971	-200,000	0,001	0,053
-226,957	-200,000	-0,002	0,157
-225,942	-200,000	0,002	0,175
-224,927	6,868	-0,140	0,076
-223,913	-141,326	-0,145	-0,011
-222,898	800,000	-0,067	0,162
-221,884	800,000	0,039	0,080
-220,869	298,703	-0,023	-0,031
-219,855	96,134	0,161	0,134
-218,840	800,000	-0,068	0,178
-217,825	52,488	0,104	0,073
-216,811	322,489	0,044	0,061
-215,796	-123,865	0,096	0,011
-214,782	-200,000	-0,013	-0,046
-213,767	78,695	0,087	0,068
-212,752	89,801	0,107	-0,087
-211,738	110,553	0,129	0,113
-210,723	-31,817	-0,027	0,011
-209,709	-131,690	0,047	0,004
-208,694	-135,015	-0,095	0,008
-207,679	69,060	0,032	-0,024
-206,665	-200,000	0,006	-0,110
-205,650	773,062	0,027	0,055
-204,636	-95,761	-0,066	0,013
-203,621	800,000	0,061	-0,154
-202,606	-112,746	0,071	-0,010
-201,592	-200,000	-0,009	-0,045
-200,577	50,573	-0,073	-0,051
-199,563	-200,000	0,014	-0,132
-198,548	-200,000	-0,035	-0,129
-197,533	51,477	0,045	-0,031
-196,519	208,036	0,081	0,092
-195,504	-147,308	-0,126	-0,008
-194,490	-200,000	0,013	0,080
-193,475	-68,195	-0,053	0,015
-192,460	789,847	-0,029	-0,059
-191,446	-200,000	0,036	-0,139
-190,431	537,196	-0,049	-0,086
-189,417	247,488	0,114	-0,141
-188,402	-96,636	-0,131	-0,025
-187,387	185,055	0,104	0,113
-186,373	519,667	0,025	0,044
-185,358	-23,654	-0,009	0,004
-184,344	-200,000	0,007	0,162
-183,329	-200,000	0,002	0,119
-182,315	-200,000	0,012	0,137
-181,300	-6,407	-0,106	0,052
-180,285	-200,000	0,003	0,093
-179,271	-66,027	-0,075	-0,022
-178,256	-68,272	-0,047	0,013
-177,242	-81,114	0,056	0,013
-176,227	-97,737	-0,052	-0,010
-175,212	4,646	0,041	0,022
-174,198	496,799	0,051	-0,085
-173,183	17,063	-0,153	-0,088
-172,169	-142,323	-0,101	-0,007
-171,154	-126,564	0,073	-0,008
-170,139	-28,863	-0,023	-0,010
-169,125	-200,000	-0,009	0,082
-168,110	-200,000	0,010	-0,077
-167,096	-200,000	-0,029	-0,116
-166,081	29,255	-0,101	-0,063
-165,066	-140,558	-0,094	-0,007
-164,052	800,000	0,113	-0,234
-163,037	-150,371	-0,063	0,003
-162,023	-35,988	0,094	-0,037
-161,008	-100,918	0,108	-0,019
-159,993	72,685	-0,140	-0,106
-158,979	800,000	0,022	-0,053
-157,964	-200,000	0,024	-0,097
-156,950	362,216	0,040	-0,059
-155,935	-200,000	0,008	-0,041
-154,920	-178,586	-0,157	-0,003
-153,906	-200,000	0,026	0,124
-152,891	-33,157	-0,017	0,007
-151,877	-200,000	0,003	-0,062
-150,862	-150,772	0,131	-0,007
-149,847	264,836	-0,021	-0,026
-148,833	-54,708	0,060	-0,020
-147,818	75,770	0,034	0,026
-146,804	-200,000	0,011	0,082
-145,789	249,032	0,076	0,093
-144,775	-103,241	0,102	-0,017
-143,760	107,641	-0,031	-0,027
-142,745	-54,185	-0,232	-0,076
-141,731	800,000	-0,020	0,049
-140,716	-97,530	-0,078	-0,015
-139,702	14,623	0,103	-0,058
-138,687	248,627	-0,050	0,062
-137,672	-200,000	0,030	-0,104
-136,658	-7,339	0,079	0,039
-135,643	-18,871	-0,088	-0,040
-134,629	-170,026	0,064	0,002
-133,614	123,192	0,119	0,108
-132,599	-200,000	-0,013	0,086
-131,585	-71,543	0,038	0,010
-130,570	574,529	-0,066	0,117
-129,556	-200,000	0,007	-0,108
-128,541	-54,024	-0,068	-0,022
-127,526	405,772	0,040	0,062
-126,512	42,591	-0,142	-0,093
-125,497	-87,223	-0,046	-0,010
-124,483	-44,444	-0,059	-0,021
-123,468	800,000	-0,044	-0,093
-122,453	617,647	0,095	-0,175
-121,439	-200,000	-0,000	-0,027
