DTS Sentinel unit serial number:	SN410029Multiplexer serial number:	ORYXHardware model number:	OX2-SRSoftware version number:	ORYX F/W v4,00 Oryx Data Collector v3.7.2.0data status	okinstallation	B4 Nyhavnadifferential loss correction	single-endedforward channel	channel 2reverse channel	N/Adate	2023/12/15time	20:15:13forward acquisition time	300,00reverse acquisition time	0,00gamma	499,1914k internal	0,3136k external	0,3136temperature offset calibration	1,0000default loss term (dB/km)	0,3820temperature slope calibration	1,0000multiplexer offset coefficient	1,0000multiplexer slope coefficient	1,0000fibre end	0,00T internal ref (°C)	20,43T ext. ref 1 (°C)	5,84T ext. ref 2 (°C)	6,02length (m)	temperature (°C)	Stokes	anti-Stokes-744,400	-90,502	0,195	-0,041
-743,385	109,645	-0,199	0,177
-742,371	257,047	0,023	0,029
-741,356	-97,023	-0,276	0,053
-740,342	-73,868	0,236	0,063
-739,327	-131,136	-0,246	-0,024
-738,312	-62,310	-0,101	-0,031
-737,298	-35,309	-0,277	0,111
-736,283	97,581	0,051	0,044
-735,269	-136,169	-0,341	0,029
-734,254	276,521	0,085	-0,112
-733,239	-8,747	-0,313	-0,155
-732,225	-142,652	0,149	0,011
-731,210	-200,000	-0,002	0,104
-730,196	-66,835	0,067	-0,020
-729,181	152,488	0,021	-0,022
-728,167	-59,678	-0,112	0,035
-727,152	22,558	-0,036	0,022
-726,137	-13,055	-0,136	-0,065
-725,123	67,897	-0,087	-0,066
-724,108	-71,662	-0,089	-0,025
-723,094	157,315	-0,031	-0,032
-722,079	157,800	0,031	0,032
-721,064	232,369	-0,092	-0,112
-720,050	-121,290	-0,029	-0,004
-719,035	285,558	-0,015	0,020
-718,021	-11,827	0,057	0,028
-717,006	-4,516	-0,079	0,040
-715,991	350,269	-0,060	-0,089
-714,977	-200,000	0,007	-0,063
-713,962	48,510	-0,196	-0,136
-712,948	-55,827	-0,058	-0,019
-711,933	495,801	-0,020	-0,034
-710,918	-44,737	0,037	0,014
-709,904	-100,763	0,066	-0,012
-708,889	-200,000	-0,006	-0,113
-707,875	135,570	-0,047	-0,045
-706,860	115,856	-0,140	0,127
-705,845	-200,000	0,023	0,125
-704,831	-200,000	0,046	0,225
-703,816	800,000	-0,031	-0,085
-702,802	-200,000	-0,014	-0,116
-701,787	800,000	-0,063	-0,131
-700,772	-200,000	-0,023	0,085
-699,758	-64,847	-0,060	0,018
-698,743	65,598	0,069	0,052
-697,729	231,559	-0,057	-0,069
-696,714	6,596	-0,105	0,057
-695,699	800,000	0,011	-0,037
-694,685	800,000	0,051	-0,155
-693,670	45,564	-0,125	-0,085
-692,656	-6,939	-0,123	-0,062
-691,641	327,250	0,043	-0,061
-690,627	222,416	0,114	0,136
-689,612	16,836	0,103	-0,060
-688,597	44,970	-0,129	-0,088
-687,583	-104,863	0,105	0,018
-686,568	113,033	-0,109	0,098
-685,554	-200,000	0,009	0,057
-684,539	-200,000	-0,006	-0,030
-683,524	-200,000	0,004	0,117
-682,510	654,797	0,071	0,136
-681,495	-200,000	-0,028	-0,096
-680,481	-53,374	-0,057	-0,019
-679,466	118,494	-0,148	-0,135
-678,451	-200,000	-0,041	-0,167
-677,437	-200,000	-0,004	-0,060
-676,422	800,000	0,049	-0,105
-675,408	-100,862	-0,168	-0,030
-674,393	439,719	0,032	-0,052
-673,378	272,870	0,112	-0,147
-672,364	84,317	-0,090	-0,073
-671,349	-181,192	-0,089	0,001
-670,335	425,725	-0,012	-0,020
-669,320	141,129	0,113	-0,111
-668,305	-102,181	0,149	-0,026
-667,291	800,000	0,042	0,113
-666,276	222,681	-0,033	-0,039
-665,262	-15,869	-0,062	-0,029
-664,247	-49,757	0,101	-0,035
-663,232	-200,000	-0,021	0,072
-662,218	-200,000	0,002	0,023
-661,203	183,934	0,050	0,054
-660,189	330,992	-0,030	-0,043
-659,174	-200,000	-0,002	0,047
-658,159	94,212	-0,082	-0,069
-657,145	-200,000	0,000	0,136
-656,130	-46,941	-0,049	-0,017
-655,116	-43,866	0,088	-0,032
-654,101	48,640	-0,024	-0,017
-653,086	800,000	-0,060	0,158
-652,072	46,596	0,147	0,101
-651,057	800,000	-0,069	-0,173
-650,043	-200,000	0,022	-0,139
-649,028	-200,000	-0,000	0,015
-648,014	646,387	0,037	-0,070
-646,999	-200,000	-0,001	-0,142
-645,984	7,610	-0,125	0,069
-644,970	-16,466	-0,068	-0,032
-643,955	800,000	-0,033	-0,101
-642,941	15,255	-0,006	0,003
-641,926	192,077	-0,050	0,056
-640,911	42,743	-0,084	-0,056
-639,897	63,899	0,046	0,034
-638,882	-80,004	-0,104	-0,026
-637,868	-69,411	-0,138	-0,039
-636,853	65,842	0,026	-0,019
-635,838	-200,000	0,004	-0,067
-634,824	19,852	-0,108	-0,064
-633,809	752,751	0,100	-0,200
-632,795	-200,000	-0,001	0,038
-631,780	687,718	0,035	-0,069
-630,765	84,436	0,033	-0,027
-629,751	-200,000	-0,026	-0,109
-628,736	800,000	-0,043	-0,089
-627,722	458,192	-0,039	-0,065
-626,707	123,681	-0,129	-0,120
-625,692	-200,000	0,004	-0,128
-624,678	455,820	-0,030	0,049
-623,663	235,112	-0,023	-0,028
-622,649	528,645	0,060	-0,105
-621,634	-60,300	0,065	0,020
-620,619	-200,000	0,039	-0,131
-619,605	800,000	0,048	-0,101
-618,590	-200,000	0,016	0,063
-617,576	-1,228	-0,130	0,068
-616,561	-200,000	0,020	0,082
-615,546	133,256	0,059	0,057
-614,532	60,680	-0,085	0,062
-613,517	-200,000	0,019	0,081
-612,503	-200,000	0,010	-0,103
-611,488	-134,730	0,106	-0,009
-610,474	295,703	0,019	0,025
-609,459	773,313	-0,061	0,123
-608,444	25,310	-0,085	-0,052
-607,430	-200,000	0,001	0,041
-606,415	-200,000	-0,004	-0,064
-605,401	221,243	0,099	-0,117
-604,386	328,424	0,093	0,133
-603,371	72,306	0,045	-0,035
-602,357	769,228	-0,024	0,048
-601,342	800,000	0,052	-0,124
-600,328	-200,000	0,018	-0,072
-599,313	-73,172	-0,090	-0,024
-598,298	726,187	0,051	0,102
-597,284	97,884	-0,074	-0,063
-596,269	124,611	0,090	0,083
-595,255	695,432	-0,026	0,050
-594,240	-112,114	-0,087	0,013
-593,225	311,683	-0,041	-0,056
-592,211	685,950	0,048	-0,093
-591,196	800,000	0,019	0,055
-590,182	-17,980	0,070	0,032
-589,167	-76,079	-0,078	-0,020
-588,152	-200,000	-0,012	0,075
-587,138	97,209	-0,056	-0,048
-586,123	188,332	-0,027	-0,030
-585,109	-153,215	0,031	-0,002
-584,094	72,341	-0,069	-0,053
-583,079	136,161	0,012	-0,012
-582,065	709,560	0,037	0,072
-581,050	-55,229	0,041	0,014
-580,036	-191,773	-0,018	-0,000
-579,021	412,827	-0,006	-0,009
-578,006	800,000	0,025	0,053
-576,992	782,873	-0,086	-0,176
-575,977	110,992	-0,018	-0,016
-574,963	-168,674	0,214	0,006
-573,948	-86,547	-0,136	0,030
-572,934	215,575	-0,043	0,050
-571,919	-86,764	-0,010	-0,002
-570,904	-200,000	-0,023	-0,126
-569,890	37,012	-0,118	0,077
-568,875	128,648	0,038	-0,036
-567,861	-80,603	-0,082	-0,020
-566,846	-200,000	-0,003	-0,148
-565,831	800,000	0,016	-0,050
-564,817	699,512	-0,063	-0,123
-563,802	33,697	-0,018	0,011
-562,788	800,000	0,023	-0,058
-561,773	-140,879	0,084	0,006
-560,758	-2,808	0,134	0,069
-559,744	210,657	0,079	-0,092
-558,729	-53,187	0,039	-0,013
-557,715	207,486	0,009	0,010
-556,700	652,322	0,031	-0,058
-555,685	260,247	-0,116	-0,148
-554,671	-200,000	-0,010	-0,126
-553,656	-200,000	0,002	0,045
-552,642	-200,000	0,006	0,064
-551,627	-200,000	0,006	0,059
-550,612	32,700	0,072	-0,046
-549,598	-200,000	0,001	0,056
-548,583	-9,477	-0,108	-0,053
-547,569	-24,524	0,065	0,028
-546,554	-91,602	0,091	-0,019
-545,539	469,651	-0,043	0,072
-544,525	-200,000	0,021	-0,114
-543,510	800,000	0,055	-0,114
-542,496	5,830	0,075	0,041
-541,481	93,066	-0,007	0,006
-540,466	12,741	-0,102	-0,058
-539,452	184,246	0,052	0,057
-538,437	-158,316	0,039	0,002
-537,423	36,987	0,111	-0,072
-536,408	-200,000	0,008	0,074
-535,393	-200,000	-0,121	0,000
-534,379	-117,108	-0,097	0,013
-533,364	-200,000	0,036	-0,176
-532,350	-80,519	0,167	0,041
-531,335	-103,176	-0,093	0,016
-530,321	800,000	-0,006	-0,017
-529,306	-55,933	-0,246	0,080
-528,291	33,407	-0,111	-0,071
-527,277	67,324	0,019	0,015
-526,262	-200,000	0,025	-0,082
-525,248	-56,418	-0,079	-0,025
-524,233	158,120	0,065	-0,066
-523,218	7,264	0,132	0,072
-522,204	-74,568	-0,095	0,025
-521,189	-137,397	0,137	-0,011
-520,175	17,444	0,044	0,026
-519,160	-200,000	-0,005	0,057
-518,145	-56,242	0,052	-0,017
-517,131	-200,000	-0,003	0,022
-516,116	-92,453	0,131	-0,027
-515,102	294,159	-0,059	0,080
-514,087	-200,000	-0,017	0,074
-513,072	-101,859	0,053	0,009
-512,058	-200,000	-0,031	0,114
-511,043	129,778	0,059	-0,056
-510,029	-111,585	-0,117	0,017
-509,014	800,000	0,050	-0,116
-507,999	-127,552	-0,046	-0,005
-506,985	800,000	0,007	0,024
-505,970	668,130	0,066	0,127
-504,956	-38,385	0,096	0,037
-503,941	800,000	0,029	0,085
-502,926	42,475	0,103	0,069
-501,912	575,811	-0,079	0,142
-500,897	-85,497	-0,075	-0,017
-499,883	338,601	-0,076	-0,109
-498,868	-92,460	-0,064	-0,013
-497,853	209,412	0,051	-0,059
-496,839	519,368	-0,009	-0,016
-495,824	-200,000	-0,005	-0,060
-494,810	103,808	0,158	-0,136
-493,795	-200,000	0,002	-0,141
-492,781	61,497	-0,019	-0,014
-491,766	-200,000	0,010	-0,143
-490,751	540,390	-0,091	-0,160
-489,737	800,000	0,021	-0,047
-488,722	74,385	-0,082	0,063
-487,708	-15,908	0,114	0,053
-486,693	-200,000	-0,002	-0,041
-485,678	88,341	-0,064	0,052
-484,664	-200,000	-0,006	0,073
-483,649	175,722	-0,038	-0,041
-482,635	24,726	-0,042	-0,026
-481,620	85,950	0,090	0,073
-480,605	-200,000	0,047	0,195
-479,591	800,000	0,020	0,051
-478,576	-0,014	0,155	0,081
-477,562	-27,860	-0,119	-0,051
-476,547	-43,773	-0,064	0,024
-475,532	82,252	0,041	-0,033
-474,518	800,000	0,003	0,008
-473,503	57,607	0,100	0,072
-472,489	-16,737	0,045	0,021
-471,474	-15,076	0,047	-0,022
-470,459	205,485	0,019	0,022
-469,445	332,134	-0,044	-0,063
-468,430	800,000	0,046	-0,121
-467,416	800,000	0,054	0,147
-466,401	-154,215	-0,031	0,001
-465,386	-89,165	-0,028	-0,006
-464,372	164,514	-0,025	0,026
-463,357	7,607	-0,142	0,078
-462,343	372,323	-0,072	-0,108
-461,328	367,803	0,068	-0,102
-460,313	-51,852	0,056	-0,019
-459,299	68,987	-0,054	0,041
-458,284	144,690	0,104	0,102
-457,270	639,512	-0,087	0,162
-456,255	9,656	-0,016	0,009
-455,241	800,000	-0,027	-0,078
-454,226	-130,596	-0,127	0,012
-453,211	800,000	-0,097	0,199
-452,197	497,750	0,042	0,071
-451,182	93,788	-0,039	-0,032
-450,168	800,000	0,047	0,124
-449,153	290,795	0,022	-0,029
-448,138	616,763	0,084	0,155
-447,124	-142,454	0,139	-0,010
-446,109	296,018	0,052	-0,070
-445,095	-52,398	0,056	0,019
-444,080	-200,000	-0,016	-0,062
-443,065	58,965	-0,107	0,077
-442,051	-105,328	0,056	0,009
-441,036	534,018	-0,082	-0,144
-440,022	-200,000	-0,007	-0,177
-439,007	160,556	-0,114	-0,116
-437,992	-17,639	0,010	-0,004
-436,978	159,753	-0,064	0,066
-435,963	800,000	0,022	0,065
-434,949	-200,000	0,000	0,028
-433,934	-72,832	0,132	0,035
-432,919	-91,897	-0,143	-0,030
-431,905	378,731	0,034	0,051
-430,890	33,918	0,080	-0,051
-429,876	-59,450	0,036	-0,011
-428,861	800,000	0,048	0,104
-427,846	800,000	0,048	-0,110
-426,832	738,484	0,065	-0,129
-425,817	237,319	-0,024	-0,029
-424,803	800,000	-0,030	-0,079
-423,788	283,764	-0,065	-0,086
-422,773	-110,901	0,139	0,021
-421,759	-93,208	0,081	0,016
-420,744	563,619	-0,027	-0,048
-419,730	-200,000	-0,014	-0,084
-418,715	-102,125	-0,132	0,023
-417,701	800,000	0,046	0,124
-416,686	-200,000	0,004	0,056
-415,671	-55,234	0,057	0,019
-414,657	-55,557	0,029	-0,010
-413,642	216,201	0,049	0,058
-412,628	800,000	-0,016	-0,047
-411,613	-200,000	-0,019	-0,155
-410,598	28,311	-0,077	-0,047
-409,584	119,057	0,064	0,058
-408,569	199,573	0,036	0,040
-407,555	782,426	0,064	0,128
-406,540	-16,926	-0,028	0,013
-405,525	146,255	0,090	-0,089
-404,511	-103,574	-0,018	-0,003
-403,496	-83,292	0,034	-0,008
-402,482	68,275	0,064	0,048
-401,467	800,000	0,041	0,122
-400,452	217,155	-0,062	-0,073
-399,438	287,567	-0,030	0,039
-398,423	-34,185	-0,071	0,028
-397,409	294,278	0,060	-0,080
-396,394	26,553	-0,074	-0,045
-395,379	488,756	0,031	0,052
-394,365	79,796	0,078	0,061
-393,350	-186,896	0,122	-0,001
-392,336	-200,000	-0,038	-0,130
-391,321	330,677	0,045	-0,064
-390,306	81,428	-0,038	-0,030
-389,292	716,248	-0,037	-0,071
-388,277	-69,220	0,047	-0,013
-387,263	206,984	0,019	0,022
-386,248	800,000	0,082	0,205
-385,233	-89,225	-0,030	0,006
-384,219	-89,700	-0,121	0,026
-383,204	-96,626	0,041	-0,008
-382,190	-10,777	0,107	-0,052
-381,175	-15,893	-0,116	-0,054
-380,160	476,666	0,079	0,131
-379,146	633,508	-0,038	0,072
-378,131	107,993	0,032	-0,028
-377,117	-200,000	-0,011	-0,071
-376,102	-200,000	-0,007	-0,122
-375,088	-176,093	-0,096	0,002
-374,073	-200,000	-0,004	-0,124
-373,058	-200,000	-0,026	0,098
-372,044	487,689	-0,034	0,056
-371,029	-200,000	-0,009	-0,058
-370,015	-200,000	0,020	0,112
-369,000	71,216	-0,105	-0,079
-367,985	182,573	-0,082	-0,089
-366,971	-135,206	0,063	0,005
-365,956	415,962	0,089	0,139
-364,942	751,025	0,017	0,034
-363,927	301,291	0,050	-0,068
-362,912	800,000	0,009	-0,025
-361,898	800,000	-0,029	0,093
-360,883	-33,281	0,033	-0,013
-359,869	122,922	-0,092	-0,085
-358,854	77,288	-0,052	0,040
-357,839	800,000	-0,044	0,106
-356,825	343,305	-0,044	-0,063
-355,810	390,968	-0,129	0,196
-354,796	165,717	0,097	-0,100
-353,781	-200,000	0,020	-0,134
-352,766	16,519	0,064	-0,037
-351,752	235,041	0,103	0,124
-350,737	-125,930	0,097	0,011
-349,723	-200,000	-0,012	0,120
-348,708	734,258	0,046	-0,090
-347,693	76,972	-0,033	-0,025
-346,679	-43,232	-0,167	-0,062
-345,664	7,009	0,152	-0,082
-344,650	29,450	0,080	-0,050
-343,635	-58,379	0,075	-0,024
-342,620	199,988	0,152	0,171
-341,606	74,752	-0,028	-0,022
-340,591	502,508	0,052	0,087
-339,577	-77,963	0,035	-0,009
-338,562	-200,000	-0,009	-0,068
-337,548	64,344	-0,093	-0,069
-336,533	-73,856	-0,078	0,020
-335,518	-200,000	0,004	0,080
-334,504	70,095	-0,039	-0,030
-333,489	800,000	-0,071	-0,149
-332,475	283,304	-0,092	0,121
-331,460	-200,000	0,022	0,122
-330,445	800,000	0,040	0,116
-329,431	653,982	-0,034	0,063
-328,416	129,252	0,115	0,108
-327,402	181,416	-0,148	0,159
-326,387	59,065	-0,094	0,067
-325,372	-200,000	0,003	-0,118
-324,358	-200,000	0,003	-0,098
-323,343	-122,627	0,096	0,011
-322,329	-200,000	-0,022	-0,097
-321,314	800,000	-0,024	0,063
-320,299	47,313	0,114	0,077
-319,285	36,821	-0,087	-0,056
-318,270	-31,289	0,086	0,035
-317,256	62,774	0,054	0,039
-316,241	-200,000	-0,023	-0,114
-315,226	-176,177	0,053	0,001
-314,212	-103,895	0,096	-0,016
-313,197	-200,000	-0,007	-0,050
-312,183	195,214	-0,063	0,070
-311,168	-84,686	0,015	0,003
-310,153	-22,035	-0,077	-0,034
-309,139	12,026	-0,056	0,031
-308,124	-19,286	-0,012	-0,005
-307,110	730,566	-0,037	0,072
-306,095	118,283	-0,057	-0,052
-305,080	51,788	0,083	0,058
-304,066	158,037	0,045	0,045
-303,051	-102,890	-0,045	-0,008
-302,037	143,168	0,041	0,040
-301,022	13,729	0,071	-0,040
-300,008	34,854	0,046	-0,029
-298,993	-103,617	0,116	0,020
-297,978	-157,657	-0,076	-0,003
-296,964	-129,009	-0,076	0,008
-295,949	129,652	-0,079	-0,073
-294,935	800,000	0,013	0,040
-293,920	180,733	-0,164	0,176
-292,905	-200,000	-0,011	0,126
-291,891	564,974	-0,019	0,033
-290,876	800,000	0,057	0,145
-289,862	80,815	0,099	0,078
-288,847	508,415	-0,014	-0,025
-287,832	81,642	-0,021	0,016
-286,818	-128,371	0,195	-0,020
-285,803	274,581	-0,022	-0,028
-284,789	-200,000	0,009	0,089
-283,774	-161,663	0,083	-0,003
-282,759	58,227	0,011	0,008
-281,745	-200,000	0,009	-0,036
-280,730	19,376	0,102	-0,059
-279,716	76,633	0,111	-0,086
-278,701	-200,000	-0,041	0,205
-277,686	-12,349	0,094	0,045
-276,672	-200,000	-0,051	0,186
-275,657	206,499	-0,071	0,080
-274,643	-200,000	0,038	-0,125
-273,628	-76,507	-0,107	-0,027
-272,613	10,090	0,094	0,052
-271,599	-200,000	0,004	0,128
-270,584	800,000	-0,021	0,055
-269,570	506,038	-0,049	-0,083
-268,555	4,991	-0,105	0,056
-267,540	-88,888	-0,086	0,018
-266,526	46,586	-0,035	-0,024
-265,511	-18,486	-0,022	-0,010
-264,497	-200,000	0,022	0,110
-263,482	-38,136	-0,073	0,028
-262,467	137,958	0,013	-0,012
-261,453	-200,000	-0,036	-0,183
-260,438	-133,434	-0,117	0,011
-259,424	271,686	-0,003	0,004
-258,409	457,459	-0,075	-0,121
-257,395	-138,950	0,054	-0,004
-256,380	113,045	-0,026	-0,023
-255,365	800,000	-0,045	0,138
-254,351	-200,000	0,010	0,149
-253,336	-44,628	-0,089	-0,032
-252,322	-200,000	-0,048	-0,178
-251,307	-153,157	0,033	-0,002
-250,292	689,900	0,036	0,070
-249,278	-200,000	-0,026	0,090
-248,263	-200,000	-0,035	0,128
-247,249	800,000	0,015	0,031
-246,234	435,134	-0,058	0,092
-245,219	-200,000	-0,025	-0,083
-244,205	800,000	-0,017	-0,054
-243,190	-71,588	0,089	0,024
-242,176	11,802	0,069	0,038
-241,161	335,879	0,038	-0,053
-240,146	-43,805	0,026	-0,009
-239,132	-106,523	-0,069	-0,011
-238,117	60,012	-0,129	0,093
-237,103	800,000	0,055	0,117
-236,088	-110,654	0,037	-0,005
-235,073	479,444	0,094	-0,156
-234,059	800,000	0,032	-0,079
-233,044	-25,898	-0,052	-0,022
-232,030	-133,469	-0,066	0,006
-231,015	800,000	-0,057	-0,152
-230,000	800,000	-0,018	-0,055
-228,986	-49,732	-0,038	0,013
-227,971	74,037	0,061	0,047
-226,957	-200,000	-0,035	0,231
-225,942	24,031	-0,054	-0,033
-224,927	-200,000	0,030	0,110
-223,913	800,000	0,039	0,082
-222,898	-200,000	-0,001	-0,141
-221,884	49,687	0,094	0,064
-220,869	-3,784	0,015	0,007
-219,855	86,844	0,062	0,049
-218,840	79,872	-0,057	0,045
-217,825	155,828	0,046	0,046
-216,811	284,591	-0,045	-0,059
-215,796	-153,196	0,113	0,006
-214,782	-200,000	0,003	0,130
-213,767	-6,156	0,080	-0,040
-212,752	800,000	0,063	0,135
-211,738	179,177	0,084	0,089
-210,723	452,358	-0,058	-0,094
-209,709	800,000	-0,073	-0,149
-208,694	-200,000	-0,024	-0,120
-207,679	-200,000	-0,014	-0,124
-206,665	800,000	-0,007	-0,016
-205,650	-147,417	0,081	0,005
-204,636	800,000	-0,044	0,113
-203,621	-200,000	-0,005	-0,051
-202,606	-200,000	-0,010	-0,092
-201,592	-85,196	-0,092	0,021
-200,577	-200,000	-0,015	0,067
-199,563	-4,177	0,121	0,061
-198,548	-62,700	-0,124	0,037
-197,533	48,275	-0,022	-0,015
-196,519	-200,000	-0,021	0,110
-195,504	800,000	-0,022	0,058
-194,490	-102,270	-0,149	0,026
-193,475	800,000	-0,059	-0,167
-192,460	-110,405	-0,055	-0,008
-191,446	800,000	-0,041	0,127
-190,431	-200,000	0,023	0,117
-189,417	628,640	-0,042	0,077
-188,402	800,000	0,059	-0,121
-187,387	-74,073	-0,053	0,014
-186,373	-200,000	0,007	-0,055
-185,358	800,000	-0,014	-0,036
-184,344	205,124	0,023	0,026
-183,329	-111,326	0,082	-0,012
-182,315	155,776	-0,073	-0,073
-181,300	-200,000	-0,022	0,074
-180,285	28,631	0,062	-0,038
-179,271	-200,000	-0,010	0,048
-178,256	-200,000	0,001	-0,073
-177,242	80,546	0,093	-0,073
-176,227	172,152	0,114	-0,119
-175,212	191,915	-0,093	-0,102
-174,198	-19,905	0,050	0,022
-173,183	800,000	-0,019	-0,054
-172,169	181,668	-0,019	0,021
-171,154	368,802	-0,040	0,060
-170,139	-25,922	0,108	0,046
-169,125	800,000	0,019	0,042
-168,110	491,467	-0,048	0,080
-167,096	-200,000	0,007	-0,073
-166,081	284,367	-0,020	0,026
-165,066	-141,759	0,067	-0,005
-164,052	-200,000	-0,003	-0,063
-163,037	-200,000	-0,010	-0,079
-162,023	-200,000	0,007	0,029
-161,008	800,000	0,067	0,166
-159,993	-161,051	-0,058	-0,002
-158,979	800,000	0,014	0,041
-157,964	18,653	-0,131	-0,076
-156,950	258,718	-0,036	0,045
-155,935	95,772	-0,083	0,069
-154,920	-31,045	-0,057	-0,023
-153,906	-71,512	0,144	0,039
-152,891	474,604	0,038	0,063
-151,877	-59,862	0,034	0,010
-150,862	-117,811	0,090	-0,012
-149,847	127,192	-0,109	-0,100
-148,833	74,188	0,092	-0,070
-147,818	82,213	-0,054	0,042
-146,804	172,316	-0,074	0,077
-145,789	-200,000	-0,005	0,130
-144,775	182,357	0,125	0,134
-143,760	-28,696	-0,111	-0,046
-142,745	723,097	-0,058	-0,112
-141,731	565,342	0,079	0,139
-140,716	-200,000	0,007	-0,066
-139,702	800,000	0,020	0,052
-138,687	-110,929	-0,035	0,005
-137,672	-200,000	-0,012	0,133
-136,658	-152,513	-0,165	0,008
-135,643	-200,000	0,000	0,031
-134,629	-83,408	-0,029	-0,007
-133,614	169,256	0,040	0,041
-132,599	800,000	0,028	0,059
-131,585	-200,000	0,053	0,216
-130,570	500,345	-0,043	0,072
-129,556	800,000	-0,090	0,189
-128,541	123,075	0,078	-0,070
-127,526	-170,612	-0,144	0,004
-126,512	-9,114	0,046	0,022
-125,497	-36,795	0,128	0,049
-124,483	800,000	-0,050	0,123
-123,468	-64,952	0,199	-0,058
-122,453	490,782	0,056	-0,094
-121,439	-45,132	0,069	-0,025
-120,424	66,101	-0,135	0,099
-119,410	75,741	0,043	-0,033
-118,395	800,000	0,025	-0,054
