DTS Sentinel unit serial number:	SN410029Multiplexer serial number:	ORYXHardware model number:	OX2-SRSoftware version number:	ORYX F/W v4,00 Oryx Data Collector v3.7.2.0data status	okinstallation	B4 Nyhavnadifferential loss correction	single-endedforward channel	channel 2reverse channel	N/Adate	2023/12/16time	04:45:13forward acquisition time	300,00reverse acquisition time	0,00gamma	499,1914k internal	0,3128k external	0,3128temperature offset calibration	1,0000default loss term (dB/km)	0,3820temperature slope calibration	1,0000multiplexer offset coefficient	1,0000multiplexer slope coefficient	1,0000fibre end	0,00T internal ref (°C)	22,00T ext. ref 1 (°C)	7,22T ext. ref 2 (°C)	7,39length (m)	temperature (°C)	Stokes	anti-Stokes-744,400	-200,000	-0,032	-0,148
-743,385	26,853	-0,173	0,108
-742,371	-60,055	0,140	-0,044
-741,356	-44,329	-0,168	0,062
-740,342	-200,000	0,025	0,104
-739,327	-136,114	-0,225	-0,019
-738,312	800,000	0,024	-0,077
-737,298	-32,933	-0,281	0,116
-736,283	-74,217	0,183	0,049
-735,269	-10,580	-0,225	0,111
-734,254	-200,000	-0,001	-0,062
-733,239	-72,328	-0,433	-0,118
-732,225	-144,541	0,062	0,004
-731,210	-48,879	-0,110	0,039
-730,196	-200,000	-0,010	-0,046
-729,181	-82,451	-0,022	0,005
-728,167	70,854	-0,028	0,022
-727,152	-200,000	-0,001	0,069
-726,137	86,294	-0,112	0,091
-725,123	37,402	-0,140	-0,092
-724,108	800,000	-0,046	-0,097
-723,094	50,712	-0,086	-0,060
-722,079	-88,392	-0,185	-0,041
-721,064	58,710	0,063	-0,046
-720,050	-200,000	0,001	-0,011
-719,035	-128,909	-0,023	0,002
-718,021	-92,132	-0,060	-0,013
-717,006	800,000	-0,013	0,039
-715,991	800,000	0,044	-0,142
-714,977	32,920	-0,064	-0,041
-713,962	800,000	0,031	-0,066
-712,948	29,291	-0,072	0,045
-711,933	-200,000	0,013	-0,078
-710,918	49,495	0,117	-0,082
-709,904	398,526	-0,096	-0,150
-708,889	195,406	-0,045	-0,051
-707,875	-200,000	0,026	-0,101
-706,860	800,000	0,028	-0,060
-705,845	-113,901	-0,076	0,011
-704,831	-200,000	-0,006	0,076
-703,816	252,918	0,036	0,045
-702,802	-99,917	0,075	-0,014
-701,787	-13,073	0,054	-0,026
-700,772	-106,989	-0,154	-0,025
-699,758	-200,000	-0,007	0,038
-698,743	-115,461	-0,040	-0,006
-697,729	-200,000	0,010	-0,055
-696,714	124,624	-0,033	0,031
-695,699	-200,000	-0,002	0,147
-694,685	-200,000	-0,008	0,043
-693,670	-107,613	-0,151	-0,024
-692,656	289,799	0,058	0,079
-691,641	90,215	0,096	-0,080
-690,627	132,779	0,098	-0,094
-689,612	-24,153	0,123	-0,054
-688,597	-200,000	-0,000	-0,006
-687,583	-200,000	0,076	-0,254
-686,568	44,061	-0,157	-0,107
-685,554	398,107	0,034	-0,053
-684,539	201,943	0,026	-0,030
-683,524	-116,270	0,084	-0,011
-682,510	-4,052	-0,137	0,070
-681,495	116,539	0,031	0,028
-680,481	-181,921	0,152	0,002
-679,466	-200,000	0,029	-0,212
-678,451	95,430	-0,054	0,046
-677,437	800,000	-0,027	-0,074
-676,422	72,051	0,089	0,069
-675,408	-200,000	0,027	-0,177
-674,393	587,883	-0,038	-0,069
-673,378	592,521	-0,095	-0,174
-672,364	69,841	0,054	0,042
-671,349	-200,000	0,020	-0,141
-670,335	-200,000	-0,002	0,073
-669,320	424,004	-0,024	0,039
-668,305	-128,532	-0,103	0,011
-667,291	800,000	-0,036	0,076
-666,276	26,631	-0,070	-0,043
-665,262	187,483	0,077	0,085
-664,247	800,000	-0,042	-0,088
-663,232	-200,000	0,028	-0,106
-662,218	-176,926	-0,145	-0,003
-661,203	563,389	-0,049	-0,088
-660,189	192,760	0,086	-0,097
-659,174	75,546	-0,085	-0,066
-658,159	800,000	0,024	-0,060
-657,145	-200,000	0,006	-0,132
-656,130	36,709	-0,029	-0,019
-655,116	-200,000	0,002	0,127
-654,101	547,726	0,051	0,090
-653,086	161,300	0,049	0,051
-652,072	9,867	0,022	0,012
-651,057	-156,888	-0,045	0,002
-650,043	155,780	-0,011	0,012
-649,028	285,611	-0,034	-0,045
-648,014	34,221	-0,221	0,143
-646,999	-83,201	0,087	-0,021
-645,984	-108,496	-0,061	0,010
-644,970	-117,812	0,099	-0,013
-643,955	-190,377	0,046	0,000
-642,941	94,504	-0,049	-0,041
-641,926	-57,053	0,137	-0,045
-640,911	122,273	-0,081	0,075
-639,897	-68,856	0,029	-0,008
-638,882	43,365	-0,013	0,009
-637,868	234,983	0,006	-0,007
-636,853	728,804	-0,076	-0,152
-635,838	800,000	0,017	0,049
-634,824	129,247	-0,030	0,029
-633,809	151,073	-0,126	0,128
-632,795	491,951	0,097	0,166
-631,780	104,030	-0,134	-0,117
-630,765	-112,715	0,135	0,020
-629,751	263,140	-0,046	-0,059
-628,736	800,000	-0,036	-0,087
-627,722	800,000	0,027	-0,077
-626,707	-74,729	-0,100	0,026
-625,692	22,599	0,093	-0,056
-624,678	36,169	-0,071	-0,046
-623,663	1,062	-0,096	0,051
-622,649	308,586	-0,054	-0,075
-621,634	-9,778	0,056	-0,027
-620,619	41,916	0,128	-0,086
-619,605	464,612	0,071	-0,118
-618,590	-200,000	0,009	0,106
-617,576	241,934	0,040	0,049
-616,561	-171,842	-0,135	0,003
-615,546	113,776	0,071	-0,064
-614,532	-61,770	-0,144	-0,045
-613,517	-200,000	0,004	0,040
-612,503	-200,000	-0,006	-0,060
-611,488	60,139	0,008	0,006
-610,474	-200,000	0,009	-0,071
-609,459	19,874	0,089	0,053
-608,444	800,000	-0,022	-0,050
-607,430	-27,901	-0,063	0,027
-606,415	800,000	0,023	0,048
-605,401	239,221	0,069	0,086
-604,386	-200,000	0,011	-0,096
-603,371	-119,236	0,083	-0,011
-602,357	800,000	0,013	0,028
-601,342	144,604	-0,034	-0,034
-600,328	800,000	-0,055	-0,146
-599,313	292,476	0,064	0,086
-598,298	-200,000	0,012	-0,052
-597,284	72,167	0,039	-0,030
-596,269	101,916	-0,092	0,079
-595,255	-102,612	0,099	-0,017
-594,240	38,543	0,043	-0,028
-593,225	128,706	0,027	-0,026
-592,211	92,305	-0,053	-0,045
-591,196	-33,392	0,125	-0,051
-590,182	-90,204	-0,024	-0,005
-589,167	770,892	0,058	-0,118
-588,152	-19,556	-0,136	-0,062
-587,138	557,330	-0,010	0,017
-586,123	152,028	0,037	0,038
-585,109	-3,990	-0,187	0,095
-584,094	579,502	0,036	-0,065
-583,079	-134,897	-0,108	0,010
-582,065	-185,371	-0,113	0,001
-581,050	521,607	-0,078	0,136
-580,036	-200,000	-0,000	0,033
-579,021	138,828	-0,110	-0,107
-578,006	40,590	-0,126	-0,084
-576,992	3,977	-0,090	-0,049
-575,977	-124,877	-0,047	0,005
-574,963	-200,000	-0,006	0,030
-573,948	800,000	-0,005	-0,010
-572,934	663,449	-0,017	-0,033
-571,919	-62,155	-0,076	0,023
-570,904	800,000	0,037	-0,094
-569,890	481,770	-0,018	0,031
-568,875	-9,792	0,001	0,001
-567,861	-52,470	0,103	-0,035
-566,846	-39,128	0,044	0,017
-565,831	64,016	0,067	0,049
-564,817	-134,351	0,077	-0,007
-563,802	-85,706	-0,059	0,013
-562,788	-32,300	-0,159	-0,066
-561,773	-200,000	0,011	-0,092
-560,758	340,319	0,049	0,072
-559,744	-187,723	0,153	-0,001
-558,729	-37,075	-0,052	-0,020
-557,715	16,661	-0,110	-0,064
-556,700	-68,564	-0,084	0,024
-555,685	135,274	-0,089	0,085
-554,671	-200,000	0,036	0,155
-553,656	-131,006	0,065	0,006
-552,642	123,316	0,017	-0,015
-551,627	103,108	-0,023	-0,020
-550,612	800,000	0,040	-0,126
-549,598	344,988	-0,041	-0,059
-548,583	229,042	0,070	0,085
-547,569	-200,000	0,020	-0,070
-546,554	263,566	0,027	0,035
-545,539	73,329	-0,029	-0,022
-544,525	800,000	-0,027	-0,058
-543,510	-190,166	-0,158	0,001
-542,496	284,439	-0,113	-0,151
-541,481	-89,828	-0,107	-0,023
-540,466	-132,741	-0,139	-0,013
-539,452	-75,391	-0,072	0,019
-538,437	-96,452	0,140	0,027
-537,423	800,000	-0,040	0,088
-536,408	-120,152	-0,070	-0,009
-535,393	161,680	-0,057	0,058
-534,379	-80,928	-0,074	-0,018
-533,364	800,000	0,004	0,009
-532,350	-99,961	0,178	0,033
-531,335	32,275	0,087	-0,055
-530,321	-107,533	0,176	-0,028
-529,306	-106,516	-0,097	0,016
-528,291	-136,648	-0,098	-0,008
-527,277	800,000	0,031	-0,089
-526,262	-75,136	0,103	-0,027
-525,248	335,573	0,070	0,100
-524,233	243,065	-0,013	-0,017
-523,218	291,699	-0,017	-0,023
-522,204	-26,785	-0,138	0,059
-521,189	-113,126	-0,084	-0,012
-520,175	32,059	-0,044	-0,028
-519,160	-200,000	0,031	-0,139
-518,145	65,505	0,037	-0,028
-517,131	-200,000	-0,007	-0,046
-516,116	165,749	0,033	-0,035
-515,102	22,090	-0,120	0,072
-514,087	210,668	0,111	-0,128
-513,072	-200,000	0,033	-0,127
-512,058	-76,835	0,024	0,006
-511,043	260,326	0,092	-0,117
-510,029	1,429	-0,102	-0,054
-509,014	657,997	0,058	0,111
-507,999	4,705	-0,014	0,008
-506,985	-102,229	0,001	0,000
-505,970	81,976	-0,107	-0,085
-504,956	391,431	-0,050	-0,077
-503,941	-200,000	0,017	0,064
-502,926	-8,597	-0,028	0,014
-501,912	227,793	-0,091	0,110
-500,897	-200,000	-0,004	0,073
-499,883	-74,926	-0,080	-0,021
-498,868	-200,000	-0,029	-0,119
-497,853	170,491	-0,032	-0,034
-496,839	-200,000	0,022	-0,079
-495,824	403,069	0,108	0,168
-494,810	-38,217	0,043	0,017
-493,795	17,551	-0,029	-0,017
-492,781	800,000	-0,006	-0,013
-491,766	800,000	0,031	-0,073
-490,751	149,935	0,126	-0,126
-489,737	-200,000	-0,004	-0,179
-488,722	-200,000	0,010	0,096
-487,708	81,606	0,163	0,130
-486,693	-152,385	0,200	0,010
-485,678	-200,000	-0,043	-0,163
-484,664	-200,000	-0,013	0,153
-483,649	238,752	0,096	-0,118
-482,635	-39,438	-0,062	0,024
-481,620	-35,614	0,106	0,042
-480,605	241,992	0,081	0,100
-479,591	166,273	0,060	-0,062
-478,576	247,722	0,073	0,092
-477,562	-200,000	-0,021	-0,074
-476,547	481,367	-0,036	-0,060
-475,532	800,000	0,025	-0,056
-474,518	-63,497	-0,073	-0,022
-473,503	-51,583	-0,085	-0,029
-472,489	-113,867	-0,087	-0,012
-471,474	109,080	0,011	0,010
-470,459	800,000	0,056	-0,149
-469,445	-1,754	0,015	0,008
-468,430	-5,673	-0,047	0,024
-467,416	461,837	0,062	-0,101
-466,401	-14,357	-0,050	0,024
-465,386	-143,076	-0,087	0,006
-464,372	55,214	0,094	0,067
-463,357	373,974	-0,031	0,047
-462,343	800,000	-0,033	0,070
-461,328	125,151	-0,057	0,053
-460,313	-133,143	0,123	-0,011
-459,299	-200,000	-0,016	0,088
-458,284	800,000	-0,056	-0,158
-457,270	-200,000	0,005	0,090
-456,255	800,000	0,059	-0,187
-455,241	-26,188	-0,074	-0,032
-454,226	66,750	-0,038	0,028
-453,211	-200,000	-0,009	0,119
-452,197	800,000	-0,048	0,111
-451,182	-124,415	-0,024	0,003
-450,168	-113,868	0,065	0,009
-449,153	126,899	-0,039	-0,037
-448,138	800,000	0,028	-0,071
-447,124	33,254	0,028	-0,018
-446,109	-128,886	-0,104	-0,011
-445,095	-200,000	-0,003	0,027
-444,080	215,904	0,079	0,093
-443,065	800,000	-0,054	0,144
-442,051	-37,238	0,030	-0,012
-441,036	-141,861	-0,045	0,003
-440,022	674,427	-0,020	-0,038
-439,007	31,922	-0,140	-0,089
-437,992	-13,937	-0,056	0,026
-436,978	800,000	0,054	0,166
-435,963	136,678	0,076	0,073
-434,949	-50,002	0,043	0,015
-433,934	79,557	-0,122	-0,096
-432,919	174,814	-0,096	0,103
-431,905	75,193	0,088	0,069
-430,890	21,617	0,022	0,013
-429,876	-200,000	-0,004	0,018
-428,861	800,000	0,065	0,148
-427,846	476,815	0,029	0,048
-426,832	78,002	-0,063	-0,050
-425,817	800,000	0,026	0,070
-424,803	305,142	0,050	-0,069
-423,788	67,896	0,071	-0,053
-422,773	27,171	0,048	-0,030
-421,759	96,733	0,132	0,111
-420,744	190,979	-0,013	0,015
-419,730	800,000	-0,043	0,108
-418,715	-200,000	0,011	-0,072
-417,701	-200,000	-0,001	0,038
-416,686	-87,612	-0,056	0,012
-415,671	-131,536	0,082	-0,008
-414,657	-119,764	0,056	-0,007
-413,642	-10,550	0,057	0,028
-412,628	800,000	0,061	0,144
-411,613	-200,000	0,037	-0,152
-410,598	-200,000	-0,004	0,028
-409,584	-102,182	-0,047	-0,008
-408,569	-147,030	0,049	0,003
-407,555	-200,000	-0,033	-0,117
-406,540	78,371	0,124	0,097
-405,525	-153,952	-0,086	-0,004
-404,511	189,013	-0,054	-0,059
-403,496	-29,282	-0,051	-0,021
-402,482	-37,503	-0,188	-0,073
-401,467	-80,855	0,013	-0,003
-400,452	-96,733	-0,058	0,011
-399,438	-200,000	-0,024	-0,187
-398,423	-52,128	-0,065	-0,022
-397,409	-200,000	-0,001	-0,029
-396,394	-200,000	-0,016	0,082
-395,379	134,952	-0,071	-0,068
-394,365	45,437	-0,124	0,084
-393,350	800,000	0,009	-0,024
-392,336	-200,000	0,017	0,094
-391,321	-200,000	0,028	0,210
-390,306	-162,700	-0,091	-0,003
-389,292	800,000	0,030	-0,070
-388,277	39,127	-0,022	0,014
-387,263	-200,000	-0,011	-0,081
-386,248	-15,672	0,047	0,022
-385,233	800,000	0,026	0,063
-384,219	800,000	0,076	0,209
-383,204	5,780	-0,093	-0,050
-382,190	235,272	0,098	0,118
-381,175	304,502	0,160	0,218
-380,160	-131,713	0,180	0,017
-379,146	800,000	0,048	0,106
-378,131	127,168	-0,106	-0,098
-377,117	-170,649	-0,019	-0,000
-376,102	419,511	-0,040	-0,063
-375,088	277,563	-0,084	0,110
-374,073	13,604	0,043	0,025
-373,058	-105,516	0,106	0,017
-372,044	-200,000	0,036	-0,152
-371,029	-66,389	0,207	0,060
-370,015	-123,056	0,080	0,009
-369,000	71,247	-0,113	-0,086
-367,985	-200,000	-0,021	0,090
-366,971	-200,000	0,028	-0,100
-365,956	-200,000	-0,003	0,051
-364,942	-200,000	-0,017	-0,127
-363,927	-97,018	0,140	0,027
-362,912	-200,000	0,006	0,027
-361,898	-200,000	0,056	-0,193
-360,883	-200,000	0,003	0,150
-359,869	109,797	-0,096	0,085
-358,854	97,278	0,020	-0,017
-357,839	-16,682	0,131	-0,061
-356,825	-200,000	-0,000	0,044
-355,810	-200,000	-0,017	-0,094
-354,796	50,885	-0,086	0,060
-353,781	-27,538	-0,026	-0,011
-352,766	800,000	-0,037	0,085
-351,752	-200,000	0,009	-0,051
-350,737	800,000	0,071	0,181
-349,723	-149,981	-0,043	0,002
-348,708	800,000	-0,035	0,081
-347,693	-120,362	0,081	0,010
-346,679	-200,000	-0,033	-0,154
-345,664	800,000	-0,080	-0,179
-344,650	-200,000	-0,025	-0,089
-343,635	-200,000	0,002	0,039
-342,620	391,386	-0,028	-0,042
-341,606	381,145	0,024	0,036
-340,591	-6,375	0,069	-0,035
-339,577	800,000	0,030	0,072
-338,562	114,114	-0,102	-0,091
-337,548	-200,000	-0,019	-0,225
-336,533	-37,810	0,054	0,021
-335,518	-68,704	0,052	0,015
-334,504	800,000	-0,011	0,025
-333,489	-162,392	-0,053	-0,002
-332,475	800,000	-0,033	-0,098
-331,460	-200,000	0,005	-0,112
-330,445	800,000	-0,052	-0,135
-329,431	-200,000	-0,007	0,026
-328,416	-23,257	0,074	-0,033
-327,402	41,005	-0,037	0,025
-326,387	389,304	-0,092	0,139
-325,372	-80,410	-0,082	0,020
-324,358	145,493	-0,064	0,062
-323,343	800,000	0,051	0,147
-322,329	213,877	0,045	-0,053
-321,314	-112,672	0,071	0,010
-320,299	106,763	-0,026	0,022
-319,285	-200,000	-0,007	0,066
-318,270	39,058	-0,125	-0,081
-317,256	259,144	-0,112	-0,141
-316,241	-200,000	0,017	-0,067
-315,226	107,163	0,093	-0,081
-314,212	-174,512	-0,035	0,001
-313,197	646,667	-0,039	0,073
-312,183	-200,000	0,001	-0,017
-311,168	-0,651	0,060	-0,031
-310,153	-114,237	-0,064	-0,009
-309,139	534,797	0,082	-0,142
-308,124	-200,000	-0,021	0,104
-307,110	-200,000	0,002	0,060
-306,095	167,523	0,059	0,062
-305,080	197,491	-0,090	0,100
-304,066	37,241	0,112	0,073
-303,051	-84,786	-0,081	0,019
-302,037	-200,000	0,034	-0,116
-301,022	-7,282	-0,052	-0,026
-300,008	-200,000	-0,004	-0,039
-298,993	-200,000	-0,004	0,029
-297,978	-200,000	-0,007	0,119
-296,964	-159,405	0,026	-0,001
-295,949	-200,000	-0,002	0,051
-294,935	-200,000	-0,004	-0,038
-293,920	104,793	0,147	0,127
-292,905	152,299	0,036	-0,036
-291,891	-172,140	0,064	0,001
-290,876	-200,000	-0,020	-0,099
-289,862	-34,341	0,076	-0,030
-288,847	378,893	0,027	0,041
-287,832	-200,000	-0,005	0,098
-286,818	363,515	0,059	-0,088
-285,803	-200,000	0,039	-0,138
-284,789	-93,351	0,134	-0,027
-283,774	800,000	-0,010	-0,026
-282,759	59,496	-0,205	-0,147
-281,745	800,000	0,042	-0,095
-280,730	-200,000	0,006	-0,048
-279,716	-89,873	-0,062	-0,013
-278,701	118,905	0,059	-0,053
-277,686	-139,435	0,048	-0,004
-276,672	-200,000	0,045	0,167
-275,657	54,358	-0,076	-0,054
-274,643	45,114	-0,018	-0,012
-273,628	-200,000	-0,016	-0,092
-272,613	-151,600	-0,178	-0,009
-271,599	-200,000	-0,009	0,034
-270,584	-200,000	-0,008	0,030
-269,570	-200,000	-0,014	0,145
-268,555	251,332	0,015	0,018
-267,540	-200,000	-0,015	0,062
-266,526	119,984	0,089	-0,081
-265,511	-119,447	-0,124	-0,016
-264,497	-84,550	0,146	-0,033
-263,482	290,651	0,070	0,094
-262,467	-117,567	0,078	0,010
-261,453	-17,542	-0,062	0,028
-260,438	800,000	0,026	-0,061
-259,424	-1,873	-0,087	0,045
-258,409	686,303	-0,085	-0,162
-257,395	-43,605	-0,144	-0,053
-256,380	-200,000	0,052	0,230
-255,365	-200,000	-0,003	0,168
-254,351	657,407	0,075	0,142
-253,336	121,946	0,030	0,027
-252,322	436,781	0,059	0,094
-251,307	-69,217	0,036	-0,010
-250,292	651,271	-0,075	-0,141
-249,278	-51,998	0,105	0,035
-248,263	177,295	0,083	0,088
-247,249	29,758	-0,101	0,063
-246,234	138,140	0,030	0,028
-245,219	578,952	0,091	-0,163
-244,205	327,851	-0,039	-0,055
-243,190	-113,919	0,098	0,014
-242,176	-200,000	-0,004	0,062
-241,161	641,381	0,112	0,209
-240,146	-76,870	0,077	-0,020
-239,132	-70,315	-0,090	-0,025
-238,117	800,000	-0,026	-0,058
-237,103	-200,000	0,017	-0,135
-236,088	-107,004	-0,060	-0,010
-235,073	263,200	-0,055	0,070
-234,059	161,518	0,072	0,073
-233,044	-200,000	-0,019	0,149
-232,030	35,745	-0,054	0,034
-231,015	-118,954	0,115	-0,015
-230,000	800,000	-0,025	0,055
-228,986	94,209	0,086	-0,072
-227,971	36,374	-0,101	0,065
-226,957	-200,000	-0,041	0,140
-225,942	183,881	-0,072	-0,078
-224,927	-103,035	-0,073	-0,013
-223,913	-172,814	-0,099	0,002
-222,898	483,708	0,056	-0,094
-221,884	217,952	0,048	0,056
-220,869	-200,000	-0,013	-0,083
-219,855	667,974	0,016	0,030
-218,840	-67,053	0,158	0,045
-217,825	-31,518	0,100	0,041
-216,811	550,274	-0,030	0,053
-215,796	-119,065	-0,036	0,005
-214,782	-70,915	0,037	0,010
-213,767	-200,000	0,012	0,083
-212,752	111,449	0,013	0,012
-211,738	235,278	0,132	0,160
-210,723	46,711	0,126	0,085
-209,709	137,441	-0,020	-0,019
-208,694	-99,564	-0,086	-0,016
-207,679	-80,427	-0,042	-0,010
-206,665	-200,000	0,007	0,145
-205,650	-76,989	0,141	0,036
-204,636	478,733	0,064	0,105
-203,621	-58,712	-0,033	0,010
-202,606	800,000	0,041	-0,094
-201,592	-200,000	0,012	-0,039
-200,577	800,000	-0,059	-0,135
-199,563	256,785	-0,041	-0,051
-198,548	-33,905	0,138	0,055
-197,533	-200,000	0,011	0,052
-196,519	-100,966	0,153	-0,027
-195,504	800,000	0,034	0,091
-194,490	56,816	-0,135	-0,095
-193,475	-158,750	-0,070	0,003
-192,460	-200,000	0,003	0,035
-191,446	-187,744	-0,051	0,000
-190,431	-200,000	-0,011	0,042
-189,417	51,517	0,028	-0,019
-188,402	-22,986	-0,063	0,028
-187,387	-47,776	-0,144	-0,051
-186,373	-129,343	0,104	-0,010
-185,358	800,000	-0,025	-0,059
-184,344	-200,000	0,016	0,073
-183,329	79,323	-0,044	0,034
-182,315	-200,000	-0,014	-0,066
-181,300	-179,542	-0,142	0,002
-180,285	-200,000	0,012	-0,075
-179,271	463,073	0,041	-0,068
-178,256	-200,000	0,004	-0,028
-177,242	-160,789	0,107	-0,004
-176,227	40,020	-0,087	0,057
-175,212	-29,600	0,051	0,021
-174,198	-25,719	-0,075	-0,032
-173,183	217,351	-0,107	-0,125
-172,169	-113,899	0,086	-0,012
-171,154	192,840	-0,070	-0,077
-170,139	19,208	0,065	0,038
-169,125	21,698	0,110	0,065
-168,110	3,824	0,085	0,045
-167,096	800,000	0,099	0,218
-166,081	-200,000	-0,018	0,074
-165,066	-98,508	-0,008	0,002
-164,052	106,381	0,092	-0,079
-163,037	-200,000	0,035	0,158
-162,023	-142,310	-0,054	-0,004
-161,008	204,242	0,110	-0,124
-159,993	800,000	-0,046	0,104
-158,979	171,266	-0,139	-0,146
-157,964	41,666	0,064	0,042
-156,950	359,219	-0,067	-0,098
-155,935	-52,951	-0,125	0,042
-154,920	-92,565	0,098	0,020
-153,906	19,460	0,097	0,057
-152,891	287,412	-0,049	0,065
-151,877	86,020	0,046	0,037
-150,862	381,941	0,053	0,080
-149,847	800,000	-0,020	0,044
-148,833	413,162	0,046	0,071
-147,818	355,111	0,094	0,136
-146,804	753,377	0,082	0,162
-145,789	69,738	-0,033	0,024
-144,775	164,399	0,144	0,147
-143,760	669,710	0,107	0,202
-142,745	448,805	-0,060	0,097
-141,731	287,940	0,045	0,059
-140,716	597,621	0,032	0,058
-139,702	309,201	0,053	0,073
-138,687	800,000	0,043	0,105
-137,672	342,662	0,059	-0,084
-136,658	800,000	0,038	0,087
-135,643	215,297	0,086	-0,099
-134,629	-77,469	0,043	-0,011
-133,614	343,590	0,055	0,078
-132,599	411,666	0,100	0,154
-131,585	800,000	-0,052	0,116
-130,570	157,265	0,060	0,060
-129,556	-51,896	-0,107	0,036
-128,541	800,000	0,009	-0,023
-127,526	-57,827	0,050	-0,016
-126,512	72,980	0,130	0,099
-125,497	217,279	-0,078	0,090
-124,483	-200,000	-0,011	0,079
-123,468	-149,570	0,221	0,012
-122,453	67,358	-0,030	-0,022
-121,439	400,894	-0,040	-0,061
-120,424	488,845	0,050	-0,083
-119,410	-141,605	0,110	-0,008
