DTS Sentinel unit serial number:	SN410029Multiplexer serial number:	ORYXHardware model number:	OX2-SRSoftware version number:	ORYX F/W v4,00 Oryx Data Collector v3.7.2.0data status	okinstallation	B4 Nyhavnadifferential loss correction	single-endedforward channel	channel 2reverse channel	N/Adate	2023/12/16time	13:00:13forward acquisition time	300,00reverse acquisition time	0,00gamma	499,1914k internal	0,3126k external	0,3126temperature offset calibration	1,0000default loss term (dB/km)	0,3820temperature slope calibration	1,0000multiplexer offset coefficient	1,0000multiplexer slope coefficient	1,0000fibre end	0,00T internal ref (°C)	24,41T ext. ref 1 (°C)	10,91T ext. ref 2 (°C)	11,05length (m)	temperature (°C)	Stokes	anti-Stokes-744,400	-114,740	-0,051	0,007
-743,385	561,407	-0,142	0,257
-742,371	-135,786	0,160	-0,014
-741,356	406,395	-0,076	0,120
-740,342	-127,880	0,071	0,008
-739,327	276,770	-0,076	0,100
-738,312	710,747	0,043	-0,086
-737,298	33,631	-0,232	0,150
-736,283	-200,000	-0,037	-0,155
-735,269	800,000	-0,107	0,248
-734,254	-13,616	-0,139	-0,067
-733,239	-119,823	-0,343	0,043
-732,225	-200,000	-0,017	0,169
-731,210	-88,547	0,105	0,023
-730,196	234,697	0,126	-0,155
-729,181	-200,000	-0,010	0,091
-728,167	-98,853	0,093	-0,017
-727,152	93,443	-0,086	0,073
-726,137	64,965	-0,151	-0,113
-725,123	800,000	-0,043	0,100
-724,108	132,198	-0,036	0,035
-723,094	-29,427	-0,063	-0,026
-722,079	-32,552	-0,087	-0,036
-721,064	-200,000	0,005	0,080
-720,050	81,396	0,060	0,048
-719,035	438,306	0,104	-0,169
-718,021	105,965	0,084	0,074
-717,006	-79,069	-0,072	-0,018
-715,991	-75,915	-0,136	-0,036
-714,977	192,390	-0,070	-0,079
-713,962	131,768	0,043	-0,041
-712,948	800,000	0,045	0,107
-711,933	-200,000	0,021	0,148
-710,918	103,371	-0,111	0,097
-709,904	112,383	0,058	-0,052
-708,889	-200,000	-0,006	0,022
-707,875	48,930	-0,061	0,042
-706,860	800,000	0,052	0,148
-705,845	96,391	0,077	0,065
-704,831	105,037	0,055	-0,048
-703,816	210,889	-0,069	-0,080
-702,802	385,981	0,035	-0,054
-701,787	-122,581	-0,187	0,022
-700,772	-200,000	0,006	-0,068
-699,758	800,000	0,011	-0,030
-698,743	-123,093	0,128	0,015
-697,729	-200,000	-0,011	0,108
-696,714	-33,610	0,073	0,030
-695,699	800,000	-0,020	0,059
-694,685	-200,000	-0,010	0,070
-693,670	800,000	-0,030	0,075
-692,656	800,000	-0,015	0,042
-691,641	-200,000	-0,028	0,120
-690,627	-4,766	0,132	0,067
-689,612	166,151	0,048	-0,051
-688,597	358,668	0,086	0,128
-687,583	-80,390	-0,026	-0,006
-686,568	-89,504	0,130	-0,028
-685,554	77,735	0,053	-0,042
-684,539	17,145	0,040	0,023
-683,524	-200,000	-0,002	0,107
-682,510	185,777	-0,037	-0,041
-681,495	-51,900	-0,029	-0,010
-680,481	280,940	-0,033	-0,043
-679,466	-200,000	-0,010	-0,086
-678,451	-94,465	0,043	0,009
-677,437	-127,664	-0,132	-0,014
-676,422	-106,566	0,077	-0,013
-675,408	-22,600	0,161	0,072
-674,393	-200,000	0,038	0,143
-673,378	655,880	0,062	-0,119
-672,364	-118,420	-0,111	-0,014
-671,349	55,924	0,087	-0,063
-670,335	800,000	-0,022	0,070
-669,320	161,558	0,024	0,025
-668,305	-200,000	0,001	0,114
-667,291	800,000	-0,078	0,164
-666,276	-13,936	-0,106	0,051
-665,262	189,544	-0,128	-0,142
-664,247	-67,543	-0,121	-0,035
-663,232	421,855	0,057	0,092
-662,218	-82,325	0,146	0,035
-661,203	125,144	-0,128	-0,119
-660,189	126,718	0,108	0,101
-659,174	50,141	-0,152	-0,106
-658,159	8,743	-0,028	-0,015
-657,145	369,407	-0,076	-0,115
-656,130	-112,101	-0,129	-0,019
-655,116	800,000	-0,028	0,091
-654,101	800,000	-0,039	0,110
-653,086	22,398	-0,121	-0,073
-652,072	-200,000	0,001	0,023
-651,057	96,715	0,162	0,138
-650,043	470,712	-0,064	-0,108
-649,028	6,905	-0,050	-0,028
-648,014	800,000	-0,029	0,075
-646,999	-32,547	0,099	0,041
-645,984	-137,170	0,054	0,005
-644,970	-37,546	-0,086	-0,034
-643,955	-200,000	0,010	0,045
-642,941	236,117	0,021	0,025
-641,926	800,000	0,022	0,066
-640,911	78,124	0,107	0,085
-639,897	-200,000	0,010	0,132
-638,882	-31,989	-0,150	0,062
-637,868	236,265	-0,036	-0,044
-636,853	25,236	0,080	0,049
-635,838	-32,312	-0,137	0,057
-634,824	670,006	-0,039	-0,075
-633,809	-200,000	-0,000	-0,068
-632,795	-175,892	-0,078	-0,002
-631,780	169,739	0,077	-0,082
-630,765	-200,000	0,003	-0,053
-629,751	70,693	-0,140	-0,107
-628,736	68,314	-0,052	-0,039
-627,722	-28,205	0,021	-0,009
-626,707	-87,152	-0,088	-0,020
-625,692	44,294	0,034	-0,023
-624,678	800,000	0,011	0,032
-623,663	800,000	-0,023	-0,062
-622,649	-200,000	-0,016	-0,123
-621,634	-200,000	-0,024	-0,114
-620,619	595,897	-0,110	-0,203
-619,605	272,063	0,046	0,060
-618,590	-200,000	-0,032	0,130
-617,576	-149,465	-0,047	-0,003
-616,561	800,000	-0,026	0,061
-615,546	-119,910	-0,069	-0,009
-614,532	-79,455	-0,152	0,038
-613,517	800,000	-0,054	-0,132
-612,503	-106,988	-0,150	-0,024
-611,488	28,597	0,037	0,023
-610,474	-200,000	0,020	-0,095
-609,459	137,876	0,092	-0,089
-608,444	628,861	-0,045	0,084
-607,430	42,030	0,033	0,022
-606,415	-200,000	-0,011	0,061
-605,401	-40,730	0,138	0,053
-604,386	-200,000	0,007	0,054
-603,371	311,316	0,080	0,111
-602,357	800,000	-0,042	-0,092
-601,342	-49,807	-0,013	-0,005
-600,328	-200,000	-0,010	0,038
-599,313	16,854	-0,056	0,033
-598,298	148,684	-0,021	-0,021
-597,284	-200,000	0,002	0,012
-596,269	368,500	0,050	-0,076
-595,255	-114,372	0,094	-0,013
-594,240	60,617	0,026	0,019
-593,225	222,454	0,037	-0,044
-592,211	798,561	-0,024	-0,049
-591,196	655,235	0,029	-0,056
-590,182	68,481	0,082	-0,062
-589,167	-129,848	0,058	0,006
-588,152	486,096	0,065	-0,110
-587,138	-200,000	0,006	0,045
-586,123	-200,000	0,004	-0,064
-585,109	94,632	-0,151	-0,127
-584,094	800,000	0,023	-0,066
-583,079	-5,953	-0,008	-0,004
-582,065	664,753	0,046	0,088
-581,050	-126,893	0,041	0,004
-580,036	800,000	0,056	-0,124
-579,021	-200,000	-0,040	-0,169
-578,006	800,000	-0,017	-0,041
-576,992	800,000	0,016	-0,033
-575,977	728,321	0,044	-0,087
-574,963	115,271	-0,100	-0,091
-573,948	-148,559	0,194	-0,012
-572,934	800,000	0,030	-0,078
-571,919	-200,000	-0,021	-0,133
-570,904	-31,275	0,086	-0,036
-569,890	-28,863	-0,133	0,056
-568,875	-200,000	-0,023	-0,198
-567,861	185,540	0,075	0,083
-566,846	-0,958	-0,026	0,013
-565,831	-200,000	-0,018	0,092
-564,817	-185,495	-0,131	-0,001
-563,802	252,156	-0,053	-0,067
-562,788	-200,000	-0,001	0,029
-561,773	800,000	0,038	-0,102
-560,758	100,996	0,059	-0,051
-559,744	253,107	0,013	0,016
-558,729	-200,000	-0,010	-0,063
-557,715	800,000	-0,050	-0,129
-556,700	-200,000	0,015	0,051
-555,685	-101,383	-0,080	-0,014
-554,671	-147,747	0,092	0,006
-553,656	74,951	0,035	0,027
-552,642	755,508	-0,021	0,043
-551,627	21,144	0,087	-0,052
-550,612	429,832	-0,009	-0,015
-549,598	-200,000	0,002	-0,030
-548,583	266,855	-0,108	-0,140
-547,569	-114,647	0,052	-0,007
-546,554	-156,060	0,114	0,005
-545,539	-79,533	-0,046	0,011
-544,525	-153,354	0,025	0,001
-543,510	47,733	-0,056	0,039
-542,496	115,401	-0,045	-0,041
-541,481	-200,000	0,000	0,042
-540,466	-200,000	-0,002	0,019
-539,452	-200,000	-0,000	-0,114
-538,437	364,272	-0,106	0,157
-537,423	-200,000	0,006	0,126
-536,408	-200,000	-0,014	-0,095
-535,393	238,560	-0,016	-0,019
-534,379	-200,000	0,002	-0,069
-533,364	-200,000	0,031	-0,110
-532,350	287,637	0,083	-0,111
-531,335	800,000	0,035	0,090
-530,321	-111,890	0,169	-0,025
-529,306	-200,000	-0,013	-0,141
-528,291	-108,052	-0,053	0,008
-527,277	102,726	-0,061	0,053
-526,262	800,000	0,056	0,124
-525,248	202,006	0,045	0,051
-524,233	-72,773	-0,093	0,025
-523,218	-42,786	0,088	0,033
-522,204	-157,795	0,081	-0,003
-521,189	-123,634	0,053	-0,006
-520,175	608,815	0,047	0,086
-519,160	-200,000	0,005	-0,118
-518,145	800,000	-0,022	0,070
-517,131	800,000	0,016	0,036
-516,116	104,479	0,083	0,073
-515,102	-167,229	-0,030	-0,001
-514,087	-200,000	0,002	-0,014
-513,072	230,514	-0,056	-0,067
-512,058	64,269	-0,179	0,133
-511,043	61,268	0,046	-0,034
-510,029	-54,123	0,176	0,059
-509,014	-72,688	-0,136	0,037
-507,999	-200,000	0,034	0,119
-506,985	33,560	-0,104	0,067
-505,970	161,355	-0,138	0,142
-504,956	-200,000	0,001	-0,056
-503,941	214,555	-0,072	-0,085
-502,926	-11,845	0,058	-0,028
-501,912	800,000	0,029	-0,072
-500,897	99,081	-0,118	0,101
-499,883	800,000	0,006	0,013
-498,868	406,830	-0,036	-0,056
-497,853	-101,478	-0,094	-0,017
-496,839	-59,551	0,079	-0,025
-495,824	97,521	0,049	0,041
-494,810	-200,000	0,003	-0,062
-493,795	56,088	-0,148	-0,106
-492,781	145,330	-0,033	-0,033
-491,766	-30,220	-0,112	0,047
-490,751	148,062	-0,111	0,110
-489,737	-127,681	-0,099	-0,010
-488,722	800,000	0,048	0,127
-487,708	-200,000	-0,006	-0,123
-486,693	73,125	-0,080	0,062
-485,678	92,715	-0,034	-0,028
-484,664	97,520	-0,032	0,027
-483,649	-122,377	-0,113	0,013
-482,635	-200,000	0,029	-0,141
-481,620	736,541	0,034	-0,068
-480,605	-91,768	-0,080	0,017
-479,591	200,086	-0,042	0,047
-478,576	-132,855	-0,085	-0,008
-477,562	-200,000	0,006	-0,124
-476,547	-200,000	-0,020	-0,072
-475,532	-122,808	0,048	0,006
-474,518	-200,000	0,032	-0,130
-473,503	-24,413	0,099	0,043
-472,489	-77,269	0,047	0,012
-471,474	-63,469	0,113	-0,034
-470,459	11,904	0,088	0,050
-469,445	-200,000	0,001	-0,096
-468,430	52,319	0,051	-0,036
-467,416	136,937	0,016	0,015
-466,401	-200,000	-0,038	0,123
-465,386	475,024	0,078	0,130
-464,372	-81,770	-0,074	-0,018
-463,357	88,710	-0,018	-0,015
-462,343	-128,950	-0,153	0,016
-461,328	-18,903	-0,013	0,006
-460,313	93,779	-0,065	-0,054
-459,299	27,644	0,158	0,098
-458,284	49,245	0,064	-0,044
-457,270	298,859	0,063	0,085
-456,255	-200,000	0,005	-0,019
-455,241	800,000	-0,013	-0,035
-454,226	-17,040	0,044	-0,020
-453,211	-4,043	-0,061	-0,031
-452,197	332,555	0,009	-0,013
-451,182	800,000	-0,043	0,115
-450,168	77,760	0,139	0,109
-449,153	-109,493	0,014	-0,002
-448,138	-200,000	0,010	0,127
-447,124	0,907	0,072	0,038
-446,109	147,951	0,130	-0,129
-445,095	113,172	0,048	0,043
-444,080	312,475	-0,024	0,033
-443,065	-200,000	-0,008	-0,086
-442,051	151,601	-0,072	0,072
-441,036	-200,000	-0,007	-0,175
-440,022	-127,768	0,049	-0,005
-439,007	-11,736	-0,109	0,052
-437,992	-200,000	0,004	0,080
-436,978	158,553	0,144	0,147
-435,963	-45,286	-0,084	-0,031
-434,949	315,156	-0,078	-0,109
-433,934	77,276	-0,133	0,104
-432,919	800,000	-0,044	-0,123
-431,905	-95,441	0,056	-0,011
-430,890	-83,511	-0,086	0,020
-429,876	800,000	0,075	0,176
-428,861	-38,804	0,050	0,019
-427,846	88,761	-0,062	0,051
-426,832	222,774	0,047	0,056
-425,817	800,000	-0,054	-0,161
-424,803	800,000	-0,008	0,020
-423,788	286,934	0,043	0,057
-422,773	-200,000	0,006	0,069
-421,759	800,000	0,022	0,064
-420,744	-200,000	0,002	0,025
-419,730	152,236	0,046	0,047
-418,715	-116,704	0,089	-0,012
-417,701	447,452	-0,079	0,128
-416,686	800,000	-0,044	0,105
-415,671	111,171	-0,066	0,058
-414,657	-58,201	-0,102	0,033
-413,642	-74,633	-0,119	-0,031
-412,628	800,000	-0,029	-0,080
-411,613	-108,771	-0,096	0,015
-410,598	156,523	-0,079	-0,080
-409,584	-140,404	0,153	0,012
-408,569	197,053	0,009	0,011
-407,555	800,000	-0,039	-0,093
-406,540	800,000	-0,017	0,044
-405,525	800,000	0,025	-0,059
-404,511	296,107	0,021	0,029
-403,496	-97,183	-0,083	0,016
-402,482	-200,000	-0,004	0,101
-401,467	-4,392	-0,060	0,031
-400,452	307,548	-0,105	0,145
-399,438	-200,000	-0,010	0,035
-398,423	135,671	0,049	-0,047
-397,409	470,372	-0,056	0,093
-396,394	-200,000	0,016	-0,074
-395,379	-119,270	-0,040	-0,005
-394,365	-30,969	0,111	0,046
-393,350	88,874	0,177	0,145
-392,336	32,857	0,026	-0,016
-391,321	215,319	0,055	0,064
-390,306	-200,000	-0,019	-0,139
-389,292	-78,252	0,149	-0,037
-388,277	-32,520	-0,105	-0,043
-387,263	-200,000	-0,002	0,151
-386,248	-200,000	0,021	0,078
-385,233	-200,000	0,019	0,129
-384,219	-200,000	-0,008	0,033
-383,204	-200,000	0,016	-0,104
-382,190	-200,000	-0,005	-0,147
-381,175	430,126	0,016	-0,025
-380,160	-200,000	-0,020	0,076
-379,146	507,037	0,060	0,102
-378,131	565,415	0,054	-0,096
-377,117	-200,000	-0,010	-0,109
-376,102	84,098	-0,102	0,082
-375,088	-23,231	-0,068	0,030
-374,073	-160,357	-0,049	0,002
-373,058	-65,731	-0,066	0,019
-372,044	512,856	0,013	0,023
-371,029	-200,000	0,013	-0,061
-370,015	-82,696	0,129	-0,030
-369,000	77,794	0,062	0,049
-367,985	-69,387	-0,127	0,036
-366,971	800,000	-0,006	-0,019
-365,956	-200,000	0,026	0,138
-364,942	282,611	0,073	0,096
-363,927	-200,000	-0,003	-0,044
-362,912	260,908	-0,061	-0,078
-361,898	76,074	-0,099	0,077
-360,883	54,789	-0,049	0,034
-359,869	-75,445	-0,044	-0,011
-358,854	-200,000	0,012	-0,082
-357,839	-72,899	0,132	0,035
-356,825	148,715	0,095	-0,094
-355,810	-200,000	-0,002	0,065
-354,796	-200,000	-0,003	0,014
-353,781	-200,000	-0,031	-0,190
-352,766	-200,000	-0,008	-0,040
-351,752	247,418	-0,092	0,114
-350,737	-200,000	0,016	-0,060
-349,723	26,078	0,107	0,065
-348,708	800,000	-0,097	0,199
-347,693	800,000	0,054	-0,137
-346,679	-200,000	0,009	-0,126
-345,664	-200,000	0,002	-0,020
-344,650	-200,000	-0,001	-0,013
-343,635	-59,998	-0,046	-0,014
-342,620	344,471	0,025	-0,036
-341,606	-200,000	-0,011	0,148
-340,591	-12,494	-0,146	-0,070
-339,577	63,732	0,033	-0,024
-338,562	119,903	-0,023	-0,021
-337,548	110,047	-0,067	0,059
-336,533	-104,729	0,102	-0,017
-335,518	-11,742	0,056	-0,027
-334,504	70,241	0,079	0,060
-333,489	-145,731	0,080	0,005
-332,475	457,852	-0,073	-0,119
-331,460	-200,000	-0,011	-0,063
-330,445	417,215	0,050	-0,078
-329,431	-73,260	0,060	-0,016
-328,416	738,826	-0,055	0,110
-327,402	192,087	-0,069	0,076
-326,387	-200,000	0,001	-0,108
-325,372	-0,425	-0,097	-0,050
-324,358	-105,971	0,069	-0,011
-323,343	204,584	-0,022	-0,025
-322,329	-200,000	0,005	-0,027
-321,314	-38,349	0,047	-0,018
-320,299	-108,552	0,169	-0,026
-319,285	-92,540	-0,098	-0,020
-318,270	300,795	0,046	0,063
-317,256	270,904	0,017	0,021
-316,241	117,066	0,011	-0,010
-315,226	-114,512	0,083	-0,012
-314,212	800,000	0,047	0,137
-313,197	-200,000	0,012	-0,121
-312,183	104,914	-0,122	0,106
-311,168	-14,694	-0,083	-0,039
-310,153	-93,094	0,042	-0,008
-309,139	800,000	0,050	0,160
-308,124	174,480	-0,132	0,140
-307,110	126,978	0,117	0,108
-306,095	414,948	-0,065	0,101
-305,080	98,964	0,003	0,003
-304,066	-54,171	-0,013	0,004
-303,051	-59,376	-0,021	0,007
-302,037	386,709	0,106	-0,160
-301,022	-87,395	-0,100	-0,022
-300,008	86,123	0,038	-0,031
-298,993	-3,848	0,161	-0,082
-297,978	800,000	-0,028	0,077
-296,964	155,758	0,112	-0,113
-295,949	-180,575	-0,110	-0,002
-294,935	-77,183	-0,053	0,013
-293,920	234,374	0,098	-0,118
-292,905	-99,572	0,196	-0,036
-291,891	219,076	0,019	0,023
-290,876	-200,000	-0,023	-0,089
-289,862	-48,830	0,064	-0,022
-288,847	-200,000	-0,025	-0,093
-287,832	-200,000	0,013	-0,085
-286,818	198,609	-0,127	-0,142
-285,803	32,674	-0,069	-0,043
-284,789	762,243	-0,078	0,156
-283,774	-197,636	-0,098	0,000
-282,759	-191,928	0,114	-0,001
-281,745	-17,796	-0,050	-0,023
-280,730	193,640	-0,045	-0,050
-279,716	-200,000	0,028	-0,197
-278,701	319,340	0,062	-0,086
-277,686	-20,657	0,048	-0,021
-276,672	747,724	-0,055	0,109
-275,657	47,880	-0,070	0,047
-274,643	796,240	-0,037	-0,076
-273,628	-200,000	-0,007	-0,029
-272,613	-125,527	0,086	0,009
-271,599	-97,741	0,106	0,020
-270,584	800,000	0,031	0,065
-269,570	-9,147	-0,080	0,039
-268,555	193,292	0,031	0,034
-267,540	-79,509	-0,129	-0,032
-266,526	-30,523	0,077	0,032
-265,511	800,000	-0,036	-0,078
-264,497	-126,715	-0,066	-0,007
-263,482	-78,019	0,087	0,022
-262,467	-200,000	0,010	-0,055
-261,453	57,182	-0,042	0,030
-260,438	-200,000	-0,021	0,109
-259,424	27,163	-0,108	0,066
-258,409	630,100	0,032	0,059
-257,395	-200,000	0,041	0,199
-256,380	82,852	0,071	0,057
-255,365	209,640	0,063	0,072
-254,351	-7,710	-0,117	0,058
-253,336	780,337	-0,031	0,062
-252,322	800,000	0,008	-0,018
-251,307	660,064	0,062	-0,117
-250,292	-200,000	0,005	-0,027
-249,278	-200,000	-0,021	0,140
-248,263	64,586	0,132	-0,097
-247,249	777,633	0,032	0,064
-246,234	800,000	0,049	0,103
-245,219	234,856	-0,112	-0,136
-244,205	-81,339	-0,077	-0,018
-243,190	-44,012	0,063	0,023
-242,176	180,050	0,084	0,090
-241,161	-200,000	-0,021	0,079
-240,146	217,323	0,047	0,055
-239,132	36,984	-0,053	-0,034
-238,117	-200,000	0,018	0,224
-237,103	141,067	0,083	-0,080
-236,088	-93,250	-0,035	-0,007
-235,073	212,450	0,025	0,028
-234,059	-200,000	0,027	0,101
-233,044	-200,000	0,015	0,240
-232,030	123,488	-0,020	0,018
-231,015	800,000	0,025	-0,075
-230,000	-53,876	-0,083	0,027
-228,986	-200,000	-0,005	0,061
-227,971	23,158	-0,032	-0,019
-226,957	-200,000	0,003	0,019
-225,942	107,023	0,120	0,104
-224,927	-200,000	0,009	0,049
-223,913	-141,196	0,039	-0,003
-222,898	373,669	-0,072	0,107
-221,884	12,513	-0,057	-0,032
-220,869	60,361	0,102	-0,074
-219,855	-200,000	0,026	-0,092
-218,840	-101,661	0,034	0,006
-217,825	394,486	-0,027	-0,042
-216,811	-200,000	0,025	-0,095
-215,796	-200,000	0,011	-0,148
-214,782	-16,640	0,096	-0,044
-213,767	-200,000	-0,004	-0,116
-212,752	323,083	0,050	0,069
-211,738	800,000	0,010	0,027
-210,723	85,847	0,079	0,063
-209,709	233,069	0,043	0,051
-208,694	33,062	-0,044	0,028
-207,679	105,156	-0,208	-0,179
-206,665	-200,000	-0,038	0,128
-205,650	-137,359	-0,006	-0,000
-204,636	248,265	0,048	-0,059
-203,621	22,803	0,013	-0,008
-202,606	-99,764	-0,073	0,013
-201,592	-136,503	-0,155	0,013
-200,577	263,382	0,086	-0,109
-199,563	-52,206	-0,066	0,022
-198,548	800,000	0,051	-0,105
-197,533	800,000	0,052	0,139
-196,519	-62,813	0,161	0,048
-195,504	-200,000	0,007	0,082
-194,490	46,607	0,085	-0,057
-193,475	85,643	-0,123	-0,098
-192,460	-126,489	0,011	-0,001
-191,446	-200,000	-0,001	-0,051
-190,431	363,242	0,017	0,024
-189,417	256,448	0,027	0,034
-188,402	-57,700	-0,088	-0,028
-187,387	1,126	-0,101	-0,053
-186,373	-71,948	0,052	-0,014
-185,358	414,620	0,015	-0,023
-184,344	58,683	0,055	-0,039
-183,329	36,610	-0,047	0,030
-182,315	800,000	-0,030	0,073
-181,300	-200,000	-0,002	-0,059
-180,285	109,344	0,084	-0,073
-179,271	-120,740	-0,136	-0,017
-178,256	-200,000	0,005	-0,116
-177,242	6,714	0,101	0,054
-176,227	488,996	0,056	0,094
-175,212	262,213	-0,089	0,113
-174,198	-53,149	-0,031	-0,010
-173,183	-200,000	-0,011	0,072
-172,169	-200,000	-0,012	-0,148
-171,154	-200,000	-0,018	0,172
-170,139	88,069	0,113	0,091
-169,125	-40,477	0,039	-0,015
-168,110	75,620	0,078	0,060
-167,096	800,000	-0,017	-0,050
-166,081	-86,859	0,053	0,012
-165,066	-135,399	0,144	-0,012
-164,052	-200,000	-0,003	-0,057
-163,037	-200,000	-0,004	-0,024
-162,023	173,789	0,029	0,030
-161,008	800,000	0,010	0,032
-159,993	605,714	0,036	0,065
-158,979	-43,923	0,029	0,011
-157,964	-89,148	-0,182	0,039
-156,950	456,738	0,015	0,025
-155,935	-200,000	-0,013	-0,065
-154,920	-144,855	0,196	-0,013
-153,906	-200,000	-0,001	-0,004
-152,891	186,534	-0,050	-0,054
-151,877	-199,148	-0,087	-0,000
-150,862	-76,824	-0,053	-0,013
-149,847	-28,736	0,097	-0,040
-148,833	-200,000	-0,028	-0,145
-147,818	255,073	0,073	0,092
-146,804	125,299	-0,075	0,069
-145,789	156,233	-0,104	0,104
-144,775	399,417	-0,098	-0,150
-143,760	-128,954	0,046	-0,005
-142,745	449,789	-0,023	0,037
-141,731	-200,000	0,016	0,092
-140,716	128,158	0,037	0,034
-139,702	-38,235	0,110	-0,042
-138,687	332,983	-0,098	-0,138
-137,672	50,384	-0,044	0,030
-136,658	117,783	-0,087	-0,078
-135,643	800,000	0,048	-0,151
-134,629	7,374	0,046	-0,025
-133,614	423,407	0,043	-0,068
-132,599	-200,000	-0,011	0,078
-131,585	14,876	0,043	-0,025
-130,570	7,671	-0,106	0,057
-129,556	-200,000	-0,001	-0,089
-128,541	800,000	-0,056	-0,119
-127,526	-1,254	0,127	-0,065
-126,512	-105,268	0,083	0,014
-125,497	-131,638	-0,078	0,007
-124,483	-200,000	0,013	-0,124
-123,468	62,315	-0,041	0,030
-122,453	-102,328	0,051	0,009
-121,439	-200,000	-0,006	0,045
-120,424	800,000	-0,006	-0,017
-119,410	-77,679	-0,042	-0,011
