DTS Sentinel unit serial number:	SN410029Multiplexer serial number:	ORYXHardware model number:	OX2-SRSoftware version number:	ORYX F/W v4,00 Oryx Data Collector v3.7.2.0data status	okinstallation	B4 Nyhavnadifferential loss correction	single-endedforward channel	channel 2reverse channel	N/Adate	2023/12/19time	03:15:13forward acquisition time	300,00reverse acquisition time	0,00gamma	499,1914k internal	0,3125k external	0,3125temperature offset calibration	1,0000default loss term (dB/km)	0,3820temperature slope calibration	1,0000multiplexer offset coefficient	1,0000multiplexer slope coefficient	1,0000fibre end	0,00T internal ref (°C)	21,17T ext. ref 1 (°C)	5,84T ext. ref 2 (°C)	5,83length (m)	temperature (°C)	Stokes	anti-Stokes-744,400	-141,296	0,110	-0,008
-743,385	51,136	-0,212	0,150
-742,371	-46,389	0,104	-0,038
-741,356	-39,315	-0,203	0,079
-740,342	-200,000	0,033	0,125
-739,327	-196,337	-0,237	0,001
-738,312	23,627	0,096	-0,059
-737,298	-41,031	-0,367	0,140
-736,283	800,000	-0,019	-0,048
-735,269	-119,681	-0,065	0,008
-734,254	258,469	-0,033	-0,042
-733,239	-92,719	-0,393	-0,081
-732,225	112,823	0,055	-0,050
-731,210	37,291	0,032	-0,021
-730,196	-80,758	-0,024	0,006
-729,181	31,992	0,045	0,029
-728,167	-200,000	0,001	-0,028
-727,152	800,000	-0,031	-0,082
-726,137	7,178	-0,119	0,066
-725,123	-26,663	0,080	-0,035
-724,108	800,000	-0,067	-0,187
-723,094	-200,000	-0,027	-0,108
-722,079	-200,000	0,034	-0,118
-721,064	106,135	0,027	-0,023
-720,050	12,801	-0,098	-0,056
-719,035	-200,000	-0,004	0,021
-718,021	-0,111	-0,110	-0,058
-717,006	-200,000	0,005	-0,042
-715,991	-200,000	-0,046	-0,155
-714,977	274,156	-0,045	-0,060
-713,962	800,000	0,034	-0,095
-712,948	169,701	-0,022	0,024
-711,933	363,127	0,021	-0,031
-710,918	-200,000	-0,023	0,139
-709,904	-200,000	0,038	0,185
-708,889	616,058	-0,080	0,149
-707,875	-200,000	-0,026	-0,098
-706,860	-61,774	-0,009	-0,003
-705,845	-31,885	0,090	0,037
-704,831	307,648	-0,094	-0,131
-703,816	221,161	0,067	-0,080
-702,802	-29,020	0,039	0,016
-701,787	-131,365	-0,121	-0,012
-700,772	118,335	-0,176	-0,161
-699,758	18,258	0,077	-0,045
-698,743	-169,210	0,101	-0,003
-697,729	-200,000	0,016	-0,105
-696,714	800,000	-0,015	0,048
-695,699	211,840	0,025	0,029
-694,685	73,907	-0,061	0,048
-693,670	-64,650	0,114	0,034
-692,656	-200,000	0,001	-0,126
-691,641	78,120	-0,096	-0,076
-690,627	-200,000	0,016	0,083
-689,612	81,065	-0,039	0,031
-688,597	6,645	0,006	0,003
-687,583	129,542	0,068	0,064
-686,568	800,000	0,034	0,100
-685,554	-55,711	-0,119	-0,039
-684,539	-200,000	0,033	0,117
-683,524	151,380	-0,036	-0,037
-682,510	-200,000	0,004	-0,018
-681,495	800,000	0,041	0,108
-680,481	-200,000	-0,007	0,039
-679,466	-44,260	-0,178	-0,066
-678,451	107,092	-0,161	-0,142
-677,437	-104,394	0,129	-0,022
-676,422	-147,534	0,060	-0,004
-675,408	800,000	-0,024	-0,051
-674,393	-2,477	-0,051	-0,026
-673,378	800,000	-0,034	0,075
-672,364	77,133	-0,111	-0,088
-671,349	-84,635	-0,105	0,024
-670,335	678,043	-0,029	-0,057
-669,320	800,000	-0,055	0,126
-668,305	-6,719	0,073	-0,037
-667,291	-18,258	0,109	0,050
-666,276	-200,000	0,008	-0,191
-665,262	120,140	0,087	-0,080
-664,247	-200,000	0,010	-0,040
-663,232	800,000	0,015	-0,048
-662,218	-200,000	0,008	0,071
-661,203	-200,000	-0,011	0,121
-660,189	86,184	-0,122	-0,100
-659,174	46,824	-0,050	-0,034
-658,159	-86,778	0,147	-0,033
-657,145	-15,484	0,080	-0,038
-656,130	5,809	0,099	-0,054
-655,116	121,867	0,072	-0,067
-654,101	-200,000	-0,003	-0,020
-653,086	95,950	-0,138	-0,117
-652,072	-200,000	-0,003	-0,011
-651,057	-119,213	-0,179	-0,023
-650,043	-131,464	0,084	0,008
-649,028	-200,000	0,007	-0,089
-648,014	-200,000	-0,001	-0,083
-646,999	-55,754	-0,077	-0,025
-645,984	-47,317	-0,022	0,008
-644,970	800,000	-0,059	-0,132
-643,955	-200,000	0,000	-0,021
-642,941	116,218	-0,121	-0,110
-641,926	-200,000	0,061	0,207
-640,911	246,957	0,053	0,066
-639,897	-0,949	0,048	-0,025
-638,882	100,670	0,053	0,046
-637,868	800,000	-0,009	-0,024
-636,853	-63,828	-0,058	-0,017
-635,838	-200,000	-0,009	0,113
-634,824	-81,253	0,088	-0,021
-633,809	-200,000	0,001	0,011
-632,795	99,891	0,069	0,059
-631,780	21,043	0,072	-0,043
-630,765	-115,792	0,059	0,008
-629,751	0,257	-0,031	-0,016
-628,736	-103,977	-0,015	0,003
-627,722	84,035	-0,095	-0,077
-626,707	285,911	-0,057	0,076
-625,692	-200,000	0,010	0,042
-624,678	297,844	-0,110	0,151
-623,663	-42,558	-0,097	-0,036
-622,649	439,743	-0,030	-0,049
-621,634	372,883	0,047	-0,071
-620,619	-200,000	0,011	0,052
-619,605	629,774	0,032	0,061
-618,590	-132,156	0,082	-0,008
-617,576	-200,000	0,006	0,051
-616,561	-88,957	0,098	0,021
-615,546	-200,000	-0,007	0,048
-614,532	-152,077	-0,173	0,009
-613,517	127,886	0,068	-0,064
-612,503	-200,000	0,003	-0,022
-611,488	-24,679	-0,114	-0,050
-610,474	230,970	0,047	0,057
-609,459	-200,000	0,011	-0,106
-608,444	-126,366	0,081	0,009
-607,430	-148,941	-0,107	-0,006
-606,415	-52,529	0,101	-0,034
-605,401	800,000	-0,040	0,123
-604,386	-61,736	-0,123	0,038
-603,371	-184,186	0,028	-0,000
-602,357	21,511	-0,065	0,039
-601,342	-122,652	-0,111	-0,013
-600,328	800,000	-0,024	0,078
-599,313	-58,523	-0,130	0,042
-598,298	-146,390	0,066	0,004
-597,284	556,781	0,104	0,187
-596,269	-11,723	0,078	0,038
-595,255	-95,812	0,016	0,003
-594,240	-200,000	-0,016	-0,077
-593,225	-52,077	-0,113	-0,039
-592,211	258,488	0,043	0,054
-591,196	277,072	-0,111	-0,146
-590,182	800,000	0,007	0,018
-589,167	-200,000	-0,021	0,092
-588,152	696,629	-0,048	0,095
-587,138	-89,968	-0,121	0,026
-586,123	800,000	0,050	0,134
-585,109	685,094	-0,010	0,019
-584,094	800,000	-0,051	-0,117
-583,079	-83,232	-0,062	0,015
-582,065	-96,654	0,173	0,033
-581,050	-6,754	0,042	0,021
-580,036	-186,106	-0,041	-0,000
-579,021	208,278	0,029	-0,034
-578,006	-107,247	0,013	-0,002
-576,992	-200,000	-0,021	-0,079
-575,977	264,472	-0,059	-0,076
-574,963	-162,017	0,197	0,007
-573,948	-200,000	0,011	-0,066
-572,934	59,264	0,047	-0,034
-571,919	208,939	-0,039	-0,046
-570,904	4,878	-0,089	0,048
-569,890	-200,000	-0,026	0,087
-568,875	7,125	0,043	-0,024
-567,861	211,674	-0,060	0,070
-566,846	-132,311	-0,034	0,003
-565,831	459,229	-0,050	-0,082
-564,817	-85,710	-0,130	0,030
-563,802	-65,354	0,010	0,003
-562,788	-28,146	-0,102	0,043
-561,773	474,223	0,043	-0,071
-560,758	-166,578	0,068	0,002
-559,744	196,869	0,054	0,061
-558,729	223,962	0,050	-0,060
-557,715	-200,000	0,023	-0,133
-556,700	81,232	-0,047	-0,038
-555,685	621,972	-0,007	0,013
-554,671	-200,000	0,140	-0,000
-553,656	800,000	-0,026	0,077
-552,642	-117,327	0,104	0,014
-551,627	163,378	0,045	0,047
-550,612	-31,622	-0,064	-0,027
-549,598	672,223	0,048	-0,092
-548,583	501,604	0,072	-0,123
-547,569	800,000	-0,008	0,023
-546,554	-44,532	-0,051	-0,019
-545,539	297,892	-0,010	-0,014
-544,525	-101,670	0,057	-0,010
-543,510	-15,436	-0,025	-0,012
-542,496	38,679	0,066	-0,044
-541,481	-72,949	-0,091	-0,025
-540,466	650,004	0,042	0,080
-539,452	-20,097	0,100	0,045
-538,437	-71,201	0,051	-0,014
-537,423	25,885	0,104	0,064
-536,408	-86,714	0,044	-0,010
-535,393	2,281	-0,060	-0,032
-534,379	-60,133	-0,039	0,012
-533,364	232,394	-0,036	-0,043
-532,350	141,809	0,050	0,049
-531,335	-143,814	0,047	-0,003
-530,321	50,386	-0,049	0,034
-529,306	152,177	-0,052	0,052
-528,291	-80,652	-0,067	0,016
-527,277	-200,000	0,009	0,088
-526,262	411,624	0,032	-0,050
-525,248	800,000	0,066	-0,146
-524,233	11,419	0,096	0,054
-523,218	-200,000	0,020	0,071
-522,204	800,000	0,006	-0,018
-521,189	29,619	-0,105	0,066
-520,175	199,324	0,056	-0,064
-519,160	-200,000	-0,018	-0,063
-518,145	-200,000	0,041	-0,213
-517,131	800,000	0,017	-0,049
-516,116	383,595	0,112	0,171
-515,102	616,286	0,033	0,062
-514,087	-200,000	0,009	0,068
-513,072	-137,762	-0,135	0,011
-512,058	-72,755	0,123	-0,033
-511,043	-49,224	-0,083	0,029
-510,029	161,220	0,068	0,070
-509,014	98,766	-0,083	-0,071
-507,999	800,000	0,021	0,052
-506,985	-200,000	0,023	-0,094
-505,970	-200,000	-0,007	-0,026
-504,956	-200,000	-0,002	0,062
-503,941	427,203	0,067	0,108
-502,926	800,000	0,091	-0,195
-501,912	-165,501	0,095	0,003
-500,897	215,633	-0,075	0,089
-499,883	293,076	0,036	-0,049
-498,868	224,555	-0,069	0,082
-497,853	29,672	-0,144	0,090
-496,839	-200,000	-0,017	0,059
-495,824	431,092	0,015	0,024
-494,810	54,836	0,061	0,044
-493,795	135,984	-0,117	0,113
-492,781	-62,660	0,043	0,013
-491,766	0,227	0,080	0,042
-490,751	-147,193	0,033	0,002
-489,737	800,000	0,028	0,059
-488,722	-200,000	0,020	0,174
-487,708	-200,000	-0,002	-0,141
-486,693	800,000	-0,025	-0,073
-485,678	-200,000	0,017	0,126
-484,664	-44,946	0,093	-0,034
-483,649	-70,876	-0,096	-0,026
-482,635	-200,000	-0,010	-0,134
-481,620	325,009	-0,071	-0,101
-480,605	800,000	0,015	0,037
-479,591	-200,000	-0,031	0,102
-478,576	419,888	0,060	0,095
-477,562	-151,428	-0,068	0,004
-476,547	800,000	0,059	-0,126
-475,532	355,814	0,135	-0,199
-474,518	-29,844	0,072	-0,030
-473,503	39,617	0,048	-0,032
-472,489	89,450	-0,091	-0,074
-471,474	-110,614	-0,097	-0,015
-470,459	800,000	0,041	-0,117
-469,445	-104,672	-0,113	-0,019
-468,430	800,000	-0,031	-0,082
-467,416	800,000	-0,020	-0,059
-466,401	-156,658	0,060	-0,003
-465,386	-200,000	-0,002	0,018
-464,372	-200,000	-0,037	0,142
-463,357	6,173	0,104	-0,056
-462,343	-138,769	-0,173	0,014
-461,328	-145,986	-0,086	0,005
-460,313	-16,223	0,053	-0,025
-459,299	-93,633	0,122	-0,025
-458,284	-12,453	0,071	0,034
-457,270	-200,000	-0,021	-0,097
-456,255	-175,756	0,118	-0,002
-455,241	0,653	0,050	0,026
-454,226	-86,619	-0,059	0,013
-453,211	318,892	0,051	0,072
-452,197	-200,000	-0,005	0,041
-451,182	81,506	0,053	0,042
-450,168	800,000	0,039	-0,113
-449,153	41,483	0,110	0,073
-448,138	-93,019	-0,133	-0,027
-447,124	800,000	-0,014	-0,044
-446,109	119,991	-0,140	0,128
-445,095	-118,925	-0,012	0,001
-444,080	-181,514	-0,138	0,002
-443,065	108,967	-0,071	0,063
-442,051	155,782	-0,144	-0,147
-441,036	-200,000	0,030	-0,194
-440,022	253,256	-0,071	-0,089
-439,007	403,730	0,018	0,029
-437,992	519,760	0,026	0,044
-436,978	-200,000	0,003	-0,101
-435,963	270,912	0,010	0,013
-434,949	800,000	-0,057	-0,159
-433,934	356,688	-0,083	-0,121
-432,919	-200,000	-0,004	-0,059
-431,905	-200,000	-0,167	-0,000
-430,890	-200,000	-0,010	-0,104
-429,876	-200,000	-0,020	0,108
-428,861	-103,325	0,067	-0,012
-427,846	-200,000	-0,001	-0,032
-426,832	-200,000	0,006	0,136
-425,817	-200,000	0,006	-0,093
-424,803	-69,589	0,046	-0,013
-423,788	51,636	-0,079	0,056
-422,773	72,419	-0,089	0,068
-421,759	21,904	0,021	0,012
-420,744	-154,386	0,074	-0,004
-419,730	-125,486	0,133	-0,015
-418,715	30,842	0,071	0,045
-417,701	800,000	-0,027	0,070
-416,686	-200,000	0,020	0,086
-415,671	800,000	0,051	0,123
-414,657	-128,881	-0,160	0,016
-413,642	-200,000	0,015	0,106
-412,628	-68,327	0,103	-0,029
-411,613	-160,276	0,083	-0,003
-410,598	-150,281	-0,014	-0,001
-409,584	800,000	0,063	0,147
-408,569	-39,370	0,021	-0,008
-407,555	-135,185	0,051	0,004
-406,540	-81,764	0,156	0,037
-405,525	73,214	-0,160	0,123
-404,511	-200,000	-0,031	0,141
-403,496	-200,000	0,000	0,022
-402,482	800,000	0,002	-0,006
-401,467	-200,000	-0,022	-0,122
-400,452	-200,000	-0,018	0,115
-399,438	28,935	0,083	-0,051
-398,423	283,466	0,066	-0,088
-397,409	800,000	-0,028	-0,082
-396,394	-43,873	-0,052	0,019
-395,379	198,408	0,100	-0,113
-394,365	199,501	-0,074	-0,083
-393,350	-25,095	-0,143	0,062
-392,336	800,000	-0,077	0,203
-391,321	-200,000	-0,021	-0,099
-390,306	800,000	0,058	-0,145
-389,292	-138,697	-0,091	-0,007
-388,277	82,879	-0,061	0,049
-387,263	90,853	0,109	0,090
-386,248	8,522	0,183	0,101
-385,233	-200,000	-0,015	0,097
-384,219	151,643	0,057	-0,057
-383,204	-17,088	-0,147	-0,068
-382,190	-39,957	-0,073	-0,028
-381,175	-116,887	-0,092	0,012
-380,160	-111,267	-0,037	0,005
-379,146	4,106	0,026	-0,014
-378,131	-39,755	-0,092	0,035
-377,117	4,671	0,080	0,043
-376,102	-200,000	0,002	0,057
-375,088	-200,000	-0,011	-0,053
-374,073	-72,328	0,087	-0,023
-373,058	14,784	0,090	-0,052
-372,044	-200,000	0,009	0,137
-371,029	-34,978	0,099	0,039
-370,015	-80,607	-0,102	-0,025
-369,000	-200,000	-0,021	-0,068
-367,985	-86,028	0,102	-0,023
-366,971	-200,000	-0,006	-0,044
-365,956	-59,859	-0,031	-0,010
-364,942	800,000	0,034	0,090
-363,927	-59,006	-0,041	0,013
-362,912	651,279	0,050	0,094
-361,898	-88,969	-0,071	0,015
-360,883	103,409	-0,049	-0,043
-359,869	234,558	0,063	-0,076
-358,854	-200,000	0,018	0,074
-357,839	-91,802	0,089	0,018
-356,825	-77,980	0,081	-0,020
-355,810	-200,000	-0,018	0,090
-354,796	22,097	0,026	-0,015
-353,781	800,000	-0,020	-0,054
-352,766	319,744	0,061	0,086
-351,752	631,716	-0,057	0,105
-350,737	138,727	-0,033	0,031
-349,723	639,448	-0,022	0,041
-348,708	-200,000	-0,005	0,016
-347,693	-200,000	-0,036	-0,139
-346,679	93,714	-0,089	0,074
-345,664	800,000	-0,068	-0,199
-344,650	8,662	0,049	-0,027
-343,635	800,000	0,053	0,110
-342,620	200,588	0,092	0,104
-341,606	394,260	0,042	0,065
-340,591	-45,452	-0,132	-0,048
-339,577	349,086	0,039	0,057
-338,562	-200,000	-0,004	-0,136
-337,548	197,422	-0,026	-0,030
-336,533	685,894	-0,059	0,113
-335,518	-200,000	0,021	0,134
-334,504	300,679	0,062	0,084
-333,489	-30,489	-0,117	-0,049
-332,475	-200,000	-0,013	-0,171
-331,460	-70,774	-0,089	-0,024
-330,445	-200,000	0,006	-0,079
-329,431	331,940	0,040	-0,057
-328,416	800,000	0,002	0,007
-327,402	89,438	0,081	0,066
-326,387	-200,000	0,026	-0,093
-325,372	108,239	0,079	-0,069
-324,358	800,000	-0,017	-0,042
-323,343	-3,268	-0,104	0,053
-322,329	-10,138	0,076	0,037
-321,314	606,452	-0,046	-0,084
-320,299	287,366	-0,035	0,047
-319,285	-200,000	0,005	-0,079
-318,270	30,368	0,071	-0,044
-317,256	-200,000	-0,048	-0,161
-316,241	422,409	0,095	0,150
-315,226	-45,295	-0,165	0,060
-314,212	-200,000	0,011	-0,051
-313,197	594,087	0,081	-0,147
-312,183	282,483	-0,085	0,111
-311,168	-57,948	-0,085	-0,027
-310,153	-100,675	0,129	-0,023
-309,139	-200,000	-0,022	0,106
-308,124	-80,692	0,071	-0,017
-307,110	-103,735	0,076	-0,013
-306,095	112,248	0,057	0,050
-305,080	-90,970	-0,054	0,011
-304,066	800,000	0,067	0,136
-303,051	-2,824	-0,192	-0,098
-302,037	86,746	-0,188	-0,152
-301,022	-11,412	0,125	-0,060
-300,008	-200,000	-0,009	-0,084
-298,993	717,944	0,069	0,135
-297,978	-200,000	-0,013	0,085
-296,964	-200,000	-0,013	0,071
-295,949	42,093	-0,093	-0,062
-294,935	-200,000	-0,003	-0,107
-293,920	145,007	0,085	-0,083
-292,905	800,000	0,031	0,065
-291,891	780,818	0,067	0,134
-290,876	-200,000	0,004	-0,046
-289,862	-200,000	-0,037	0,138
-288,847	-200,000	0,002	-0,080
-287,832	-27,300	0,046	-0,019
-286,818	147,961	-0,049	0,049
-285,803	481,165	0,011	0,019
-284,789	83,502	0,099	0,079
-283,774	-200,000	-0,009	-0,037
-282,759	800,000	-0,009	0,027
-281,745	-42,068	0,031	0,012
-280,730	134,311	-0,039	-0,037
-279,716	97,909	0,010	-0,009
-278,701	60,454	0,100	0,072
-277,686	141,483	-0,031	-0,030
-276,672	198,087	0,072	0,080
-275,657	308,106	-0,067	0,091
-274,643	-12,464	-0,132	0,063
-273,628	800,000	-0,073	-0,151
-272,613	8,195	-0,049	0,027
-271,599	294,897	-0,074	0,099
-270,584	-57,948	0,137	0,044
-269,570	-40,947	0,128	-0,048
-268,555	800,000	-0,023	0,049
-267,540	-67,055	-0,035	-0,010
-266,526	-148,956	-0,074	0,004
-265,511	206,211	-0,141	-0,161
-264,497	274,233	-0,023	-0,029
-263,482	386,006	0,033	0,051
-262,467	-121,351	0,031	-0,004
-261,453	565,809	0,035	0,062
-260,438	-135,007	-0,081	-0,007
-259,424	800,000	0,030	-0,062
-258,409	161,518	-0,044	-0,045
-257,395	800,000	-0,004	-0,008
-256,380	-106,105	0,073	-0,012
-255,365	-200,000	0,018	-0,160
-254,351	-200,000	0,012	-0,050
-253,336	-154,091	0,120	-0,006
-252,322	-18,032	-0,119	-0,054
-251,307	-200,000	-0,007	-0,069
-250,292	238,875	0,009	-0,011
-249,278	6,602	0,068	0,037
-248,263	-34,455	0,006	0,002
-247,249	182,785	-0,061	0,066
-246,234	635,713	0,064	0,120
-245,219	-68,581	-0,078	-0,022
-244,205	125,442	0,042	-0,039
-243,190	-200,000	0,007	0,186
-242,176	-112,506	0,179	0,026
-241,161	-200,000	0,010	-0,051
-240,146	251,579	-0,052	0,065
-239,132	-166,139	-0,146	0,004
-238,117	-200,000	-0,034	-0,134
-237,103	429,152	-0,045	-0,072
-236,088	289,376	-0,057	-0,075
-235,073	44,093	0,052	0,034
-234,059	-99,103	0,168	-0,031
-233,044	232,820	-0,055	-0,066
-232,030	-114,561	-0,076	0,010
-231,015	277,728	0,060	0,078
-230,000	66,239	-0,061	0,045
-228,986	-24,689	-0,070	-0,030
-227,971	8,004	0,087	-0,047
-226,957	-200,000	-0,006	0,076
-225,942	561,164	0,012	-0,022
-224,927	800,000	0,021	0,062
-223,913	-200,000	-0,002	-0,111
-222,898	-200,000	-0,013	-0,106
-221,884	29,198	-0,144	-0,089
-220,869	-32,101	0,074	0,030
-219,855	327,740	0,078	0,110
-218,840	800,000	0,050	0,126
-217,825	94,746	-0,104	0,087
-216,811	800,000	0,023	-0,071
-215,796	254,248	-0,106	-0,133
-214,782	-105,385	-0,111	0,018
-213,767	800,000	0,037	-0,106
-212,752	800,000	-0,059	0,125
-211,738	-200,000	-0,006	0,103
-210,723	-200,000	0,037	0,162
-209,709	800,000	-0,024	-0,068
-208,694	71,397	-0,083	-0,063
-207,679	-93,195	0,069	-0,014
-206,665	-6,814	0,160	-0,079
-205,650	-200,000	-0,018	-0,059
-204,636	63,257	0,100	-0,073
-203,621	415,858	-0,028	0,043
-202,606	495,664	0,067	0,113
-201,592	800,000	-0,017	0,048
-200,577	-200,000	0,031	-0,132
-199,563	-78,399	0,070	0,017
-198,548	340,792	0,043	0,062
-197,533	-200,000	-0,024	0,120
-196,519	800,000	-0,012	0,034
-195,504	193,930	-0,042	0,047
-194,490	133,057	0,045	0,042
-193,475	-14,344	-0,081	-0,038
-192,460	6,284	0,184	-0,099
-191,446	-200,000	-0,023	-0,075
-190,431	299,421	-0,064	0,086
-189,417	-10,141	-0,030	0,015
-188,402	800,000	-0,042	0,113
-187,387	344,882	-0,045	-0,065
-186,373	579,885	-0,055	-0,099
-185,358	-165,214	-0,117	-0,004
-184,344	54,973	0,063	-0,044
-183,329	391,876	-0,028	0,043
-182,315	-200,000	0,024	0,107
-181,300	172,521	0,029	0,031
-180,285	5,519	-0,083	-0,045
-179,271	306,613	-0,067	-0,092
-178,256	-200,000	0,014	-0,119
-177,242	-93,020	0,151	-0,030
-176,227	800,000	0,049	-0,098
-175,212	-24,284	0,127	-0,055
-174,198	-200,000	0,014	-0,089
-173,183	215,816	0,065	0,075
-172,169	800,000	0,017	-0,042
-171,154	-200,000	-0,025	-0,091
-170,139	-26,258	0,034	-0,015
-169,125	3,806	0,088	0,047
-168,110	-200,000	0,013	-0,101
-167,096	-200,000	0,016	-0,062
-166,081	-200,000	0,003	0,040
-165,066	-63,115	-0,129	0,039
-164,052	-200,000	-0,017	-0,063
-163,037	-127,327	-0,101	0,011
-162,023	-113,318	0,112	-0,016
-161,008	132,133	0,093	0,088
-159,993	168,509	-0,139	-0,144
-158,979	-200,000	0,007	-0,071
-157,964	-200,000	0,005	-0,095
-156,950	-32,002	0,056	0,023
-155,935	113,244	-0,021	0,019
-154,920	-200,000	0,014	0,050
-153,906	-200,000	-0,027	0,150
-152,891	-200,000	-0,020	0,089
-151,877	237,491	-0,005	-0,006
-150,862	340,067	-0,079	-0,113
-149,847	607,257	-0,027	-0,050
-148,833	274,280	0,057	0,074
-147,818	-200,000	-0,009	0,040
-146,804	-31,635	0,067	-0,027
-145,789	-144,043	-0,066	0,004
-144,775	-120,370	0,012	-0,002
-143,760	530,681	-0,058	-0,101
-142,745	248,629	-0,073	0,090
-141,731	-60,568	-0,033	0,010
-140,716	73,647	0,186	-0,141
-139,702	800,000	-0,044	0,092
-138,687	-62,638	0,077	-0,023
-137,672	290,101	-0,089	-0,118
-136,658	286,670	-0,104	0,137
-135,643	-200,000	-0,012	-0,111
-134,629	119,578	0,158	-0,143
-133,614	-44,008	0,177	0,064
-132,599	-157,825	0,030	0,001
-131,585	-63,134	0,040	-0,012
-130,570	425,229	-0,042	0,065
-129,556	-200,000	0,029	-0,111
-128,541	-200,000	0,006	-0,048
-127,526	99,095	0,105	0,088
-126,512	-200,000	0,044	0,219
-125,497	59,094	0,098	0,070
-124,483	23,488	-0,098	-0,058
-123,468	-130,753	-0,100	-0,010
-122,453	-200,000	0,009	-0,085
-121,439	800,000	-0,015	-0,040
-120,424	152,737	0,046	0,046
-119,410	14,130	0,017	-0,009
