DTS Sentinel unit serial number:	SN410029Multiplexer serial number:	ORYXHardware model number:	OX2-SRSoftware version number:	ORYX F/W v4,00 Oryx Data Collector v3.7.2.0data status	okinstallation	B4 Nyhavnadifferential loss correction	single-endedforward channel	channel 2reverse channel	N/Adate	2023/12/19time	01:30:13forward acquisition time	300,00reverse acquisition time	0,00gamma	499,1914k internal	0,3123k external	0,3123temperature offset calibration	1,0000default loss term (dB/km)	0,3820temperature slope calibration	1,0000multiplexer offset coefficient	1,0000multiplexer slope coefficient	1,0000fibre end	0,00T internal ref (°C)	21,62T ext. ref 1 (°C)	6,00T ext. ref 2 (°C)	6,08length (m)	temperature (°C)	Stokes	anti-Stokes-744,400	-139,532	0,036	-0,003
-743,385	37,053	-0,180	0,119
-742,371	392,020	0,064	-0,100
-741,356	-60,455	-0,285	0,090
-740,342	-95,224	0,191	-0,038
-739,327	628,346	-0,126	0,239
-738,312	-139,945	0,049	-0,004
-737,298	-148,120	-0,041	-0,002
-736,283	658,617	0,030	0,057
-735,269	-71,352	-0,228	0,063
-734,254	-140,042	-0,136	-0,011
-733,239	73,659	-0,246	-0,192
-732,225	-200,000	-0,010	0,089
-731,210	127,165	-0,014	-0,013
-730,196	334,319	0,056	-0,081
-729,181	111,318	-0,059	-0,053
-728,167	40,467	-0,186	0,124
-727,152	800,000	0,032	-0,076
-726,137	24,955	-0,063	-0,039
-725,123	497,046	-0,032	-0,054
-724,108	800,000	-0,047	-0,128
-723,094	-23,714	-0,061	-0,027
-722,079	-200,000	-0,010	0,111
-721,064	147,851	-0,074	0,074
-720,050	68,598	-0,054	-0,041
-719,035	-10,560	-0,079	0,039
-718,021	-27,910	-0,144	-0,062
-717,006	-123,773	-0,174	0,020
-715,991	-54,387	-0,103	-0,035
-714,977	-155,959	-0,067	-0,003
-713,962	-18,321	-0,132	0,061
-712,948	-135,640	-0,166	0,014
-711,933	16,806	0,056	-0,033
-710,918	360,432	-0,017	0,025
-709,904	516,842	-0,015	-0,026
-708,889	13,251	-0,078	0,045
-707,875	-130,345	-0,102	-0,010
-706,860	300,701	0,095	0,131
-705,845	-76,351	0,016	-0,004
-704,831	50,167	-0,090	-0,063
-703,816	178,764	0,067	-0,072
-702,802	-148,932	-0,077	0,005
-701,787	302,047	-0,066	-0,091
-700,772	-200,000	0,010	-0,129
-699,758	17,334	-0,032	0,019
-698,743	-200,000	0,049	0,185
-697,729	800,000	0,073	0,159
-696,714	163,794	-0,045	-0,047
-695,699	8,657	0,027	-0,015
-694,685	351,292	0,026	0,038
-693,670	196,311	-0,102	-0,116
-692,656	41,364	0,075	-0,050
-691,641	800,000	-0,015	0,038
-690,627	-200,000	-0,008	0,121
-689,612	288,041	-0,061	-0,083
-688,597	7,241	-0,067	0,037
-687,583	-44,893	-0,114	-0,042
-686,568	168,680	-0,039	-0,041
-685,554	53,597	-0,044	-0,031
-684,539	-37,832	-0,039	-0,015
-683,524	707,135	0,056	-0,110
-682,510	31,425	-0,105	0,067
-681,495	506,308	-0,095	-0,164
-680,481	-79,709	-0,167	0,041
-679,466	-200,000	-0,004	0,038
-678,451	-22,617	-0,110	-0,049
-677,437	331,458	-0,036	-0,052
-676,422	800,000	0,028	-0,069
-675,408	141,270	0,070	-0,069
-674,393	51,951	-0,032	-0,023
-673,378	28,620	-0,088	-0,056
-672,364	101,676	-0,107	-0,093
-671,349	-200,000	0,019	-0,071
-670,335	133,023	-0,032	0,031
-669,320	170,496	0,059	-0,063
-668,305	99,038	-0,120	0,103
-667,291	-200,000	-0,020	-0,073
-666,276	617,767	-0,022	0,041
-665,262	-200,000	-0,001	-0,020
-664,247	39,355	-0,175	-0,116
-663,232	-200,000	0,005	0,109
-662,218	-200,000	0,020	0,068
-661,203	-200,000	-0,004	0,027
-660,189	800,000	-0,032	0,068
-659,174	-70,322	0,101	-0,028
-658,159	-44,528	-0,007	-0,002
-657,145	-87,830	-0,092	0,020
-656,130	800,000	0,011	-0,028
-655,116	288,965	0,039	0,053
-654,101	800,000	-0,017	0,042
-653,086	-200,000	0,009	0,125
-652,072	-49,694	-0,051	0,018
-651,057	16,774	-0,090	-0,053
-650,043	373,419	0,109	-0,165
-649,028	-200,000	-0,009	-0,119
-648,014	-86,595	0,064	-0,014
-646,999	-89,954	-0,090	-0,019
-645,984	-200,000	0,024	-0,123
-644,970	81,879	0,080	-0,065
-643,955	800,000	-0,018	-0,048
-642,941	-161,781	0,088	-0,003
-641,926	406,879	-0,015	-0,024
-640,911	-200,000	0,008	0,119
-639,897	13,793	0,142	0,082
-638,882	-121,223	0,028	-0,003
-637,868	295,629	-0,055	-0,075
-636,853	-200,000	0,010	-0,046
-635,838	-19,961	-0,078	-0,036
-634,824	184,693	0,022	0,025
-633,809	-79,405	-0,049	0,012
-632,795	800,000	0,007	-0,021
-631,780	258,368	-0,052	0,067
-630,765	-121,814	-0,060	-0,007
-629,751	-10,911	-0,040	0,020
-628,736	73,401	-0,031	-0,024
-627,722	78,872	0,023	-0,018
-626,707	18,308	-0,027	-0,016
-625,692	-19,729	0,132	-0,060
-624,678	-200,000	0,008	0,139
-623,663	-92,651	-0,128	-0,026
-622,649	56,851	0,031	0,022
-621,634	151,043	-0,099	-0,100
-620,619	-77,078	0,122	-0,031
-619,605	280,803	-0,060	0,080
-618,590	-85,925	-0,055	0,013
-617,576	189,669	0,038	0,042
-616,561	-24,830	0,042	0,019
-615,546	75,857	-0,077	-0,061
-614,532	-200,000	-0,054	-0,189
-613,517	-200,000	0,013	0,134
-612,503	415,808	-0,051	-0,081
-611,488	8,505	-0,076	0,042
-610,474	53,506	0,101	0,071
-609,459	19,175	-0,055	-0,032
-608,444	25,977	-0,072	0,045
-607,430	644,016	0,039	-0,074
-606,415	-64,087	-0,057	0,017
-605,401	308,106	0,046	0,063
-604,386	527,440	0,061	0,107
-603,371	-200,000	-0,031	-0,177
-602,357	104,449	-0,161	0,140
-601,342	11,159	-0,106	0,060
-600,328	-200,000	-0,027	-0,162
-599,313	800,000	0,037	0,107
-598,298	142,119	0,013	0,012
-597,284	53,082	0,101	-0,072
-596,269	-57,298	0,052	0,017
-595,255	-200,000	0,000	0,076
-594,240	788,514	-0,054	-0,111
-593,225	469,990	0,110	-0,184
-592,211	-200,000	-0,043	-0,183
-591,196	-137,932	-0,119	0,010
-590,182	800,000	-0,038	-0,101
-589,167	-114,764	-0,083	-0,012
-588,152	-54,850	-0,051	-0,017
-587,138	497,734	-0,025	-0,044
-586,123	559,658	-0,052	-0,093
-585,109	329,314	-0,029	0,041
-584,094	183,043	-0,031	-0,034
-583,079	-138,503	0,098	-0,008
-582,065	-86,810	0,031	0,007
-581,050	55,735	-0,068	0,049
-580,036	-200,000	0,007	0,055
-579,021	800,000	-0,034	0,093
-578,006	-49,844	0,166	-0,058
-576,992	37,476	-0,240	-0,157
-575,977	-50,976	0,097	-0,034
-574,963	-200,000	0,002	0,092
-573,948	259,360	0,061	-0,078
-572,934	-142,857	0,092	0,006
-571,919	-15,773	-0,178	0,084
-570,904	-133,994	-0,125	0,011
-569,890	502,655	-0,056	0,097
-568,875	134,781	0,095	0,091
-567,861	-200,000	0,016	0,142
-566,846	-200,000	-0,022	0,145
-565,831	25,586	-0,043	-0,027
-564,817	76,734	0,055	-0,043
-563,802	-200,000	-0,020	-0,103
-562,788	533,389	-0,038	-0,067
-561,773	51,967	-0,064	-0,045
-560,758	-3,596	0,075	-0,038
-559,744	-140,565	-0,040	-0,003
-558,729	-27,106	-0,088	0,038
-557,715	-200,000	-0,018	0,089
-556,700	188,426	-0,020	-0,022
-555,685	-200,000	0,019	-0,161
-554,671	652,327	0,041	0,078
-553,656	275,367	-0,056	0,074
-552,642	800,000	-0,026	0,072
-551,627	222,241	0,054	-0,065
-550,612	-200,000	-0,005	-0,054
-549,598	-18,526	0,099	0,045
-548,583	-10,553	-0,112	0,054
-547,569	-200,000	0,002	-0,028
-546,554	-200,000	0,021	-0,095
-545,539	-183,655	0,195	-0,002
-544,525	-43,070	-0,080	0,030
-543,510	36,048	-0,104	0,068
-542,496	-9,836	-0,063	-0,031
-541,481	-200,000	0,006	-0,127
-540,466	-147,084	-0,142	0,009
-539,452	196,901	0,106	0,120
-538,437	-34,215	0,127	-0,051
-537,423	-121,050	0,033	-0,004
-536,408	11,073	0,095	0,054
-535,393	69,472	-0,037	-0,028
-534,379	-140,726	-0,144	0,011
-533,364	372,323	-0,021	-0,031
-532,350	-115,576	-0,061	-0,008
-531,335	414,049	-0,032	0,051
-530,321	800,000	0,030	0,086
-529,306	719,547	-0,038	0,075
-528,291	-11,144	0,065	-0,031
-527,277	-4,948	-0,104	-0,053
-526,262	142,288	0,081	0,079
-525,248	-200,000	-0,028	0,168
-524,233	-101,726	-0,111	-0,020
-523,218	199,110	-0,015	-0,017
-522,204	-200,000	0,015	0,070
-521,189	-200,000	-0,005	0,114
-520,175	-121,443	-0,115	-0,014
-519,160	175,002	-0,061	-0,065
-518,145	159,838	0,050	-0,051
-517,131	-151,020	0,078	-0,004
-516,116	-22,119	-0,070	-0,031
-515,102	-200,000	0,006	0,032
-514,087	-121,592	-0,054	-0,007
-513,072	-200,000	-0,021	0,087
-512,058	130,248	0,057	-0,054
-511,043	800,000	-0,039	0,103
-510,029	-120,690	-0,043	0,005
-509,014	-200,000	0,012	0,111
-507,999	-141,654	0,071	0,005
-506,985	630,764	-0,057	0,107
-505,970	201,187	0,052	-0,059
-504,956	-178,254	-0,021	-0,000
-503,941	287,804	0,051	0,068
-502,926	800,000	-0,011	-0,023
-501,912	800,000	-0,022	0,057
-500,897	-200,000	-0,026	0,174
-499,883	800,000	-0,027	-0,070
-498,868	-106,736	0,081	-0,013
-497,853	84,046	0,167	-0,135
-496,839	-200,000	0,030	-0,103
-495,824	800,000	-0,044	-0,094
-494,810	-200,000	0,002	0,023
-493,795	3,505	-0,064	0,034
-492,781	335,431	0,016	0,023
-491,766	154,352	-0,093	-0,095
-490,751	800,000	-0,030	0,078
-489,737	259,922	-0,049	-0,063
-488,722	-164,988	0,071	-0,002
-487,708	432,132	0,047	0,076
-486,693	65,127	0,112	0,084
-485,678	166,720	0,068	0,072
-484,664	-200,000	0,005	0,087
-483,649	200,164	-0,075	0,086
-482,635	121,542	0,070	0,064
-481,620	-74,665	0,083	0,022
-480,605	-163,025	-0,088	0,003
-479,591	39,922	-0,070	0,047
-478,576	143,924	-0,089	-0,087
-477,562	800,000	0,021	-0,055
-476,547	127,180	-0,124	0,116
-475,532	-200,000	-0,017	-0,154
-474,518	-168,899	0,069	-0,002
-473,503	-20,337	0,018	-0,008
-472,489	-200,000	0,045	0,159
-471,474	325,857	0,100	0,141
-470,459	31,943	-0,102	-0,065
-469,445	465,805	-0,004	-0,006
-468,430	124,617	0,051	0,047
-467,416	590,691	-0,073	0,134
-466,401	60,073	0,087	-0,063
-465,386	471,426	-0,049	-0,081
-464,372	-23,155	-0,067	0,030
-463,357	-198,318	0,049	-0,000
-462,343	330,586	0,021	-0,030
-461,328	-200,000	-0,001	0,039
-460,313	-200,000	-0,002	0,018
-459,299	33,818	0,025	0,016
-458,284	-200,000	0,040	0,156
-457,270	-200,000	-0,025	0,104
-456,255	-200,000	0,017	0,144
-455,241	-118,605	-0,047	0,006
-454,226	209,092	-0,069	-0,080
-453,211	-84,225	0,094	-0,022
-452,197	214,780	-0,065	-0,077
-451,182	-109,032	0,088	0,014
-450,168	-200,000	-0,038	0,228
-449,153	-200,000	0,017	-0,120
-448,138	-200,000	-0,012	-0,057
-447,124	-200,000	0,002	-0,061
-446,109	-88,349	-0,170	0,037
-445,095	362,303	-0,052	0,078
-444,080	274,809	-0,082	0,107
-443,065	-60,015	0,064	0,020
-442,051	-200,000	-0,014	-0,050
-441,036	239,689	-0,069	0,085
-440,022	800,000	-0,073	-0,176
-439,007	230,736	0,052	0,062
-437,992	84,136	-0,123	-0,099
-436,978	-200,000	0,042	0,144
-435,963	84,918	0,101	0,081
-434,949	-200,000	0,006	0,061
-433,934	-200,000	-0,000	0,039
-432,919	-169,240	-0,114	0,003
-431,905	740,261	0,039	-0,078
-430,890	64,149	0,035	-0,026
-429,876	-30,497	0,078	0,032
-428,861	-200,000	-0,003	-0,025
-427,846	234,226	-0,071	-0,086
-426,832	190,536	-0,054	-0,060
-425,817	800,000	-0,028	-0,081
-424,803	-200,000	-0,011	-0,067
-423,788	800,000	0,048	-0,130
-422,773	36,392	0,192	0,124
-421,759	800,000	-0,024	0,072
-420,744	800,000	-0,033	0,085
-419,730	420,534	0,029	-0,047
-418,715	-200,000	0,010	-0,068
-417,701	-151,838	0,039	-0,002
-416,686	800,000	0,018	0,050
-415,671	405,848	0,043	0,066
-414,657	524,918	0,048	0,084
-413,642	566,725	0,047	0,085
-412,628	-200,000	0,008	0,084
-411,613	-42,221	0,056	-0,021
-410,598	-65,176	-0,116	-0,034
-409,584	340,323	0,114	0,164
-408,569	-200,000	0,029	-0,108
-407,555	-53,793	0,041	0,014
-406,540	-58,201	0,112	-0,036
-405,525	110,102	-0,081	-0,072
-404,511	-200,000	-0,030	0,115
-403,496	11,134	-0,101	0,057
-402,482	134,530	0,104	0,100
-401,467	-150,363	0,088	0,005
-400,452	106,350	0,032	-0,028
-399,438	-187,516	-0,072	-0,001
-398,423	636,533	-0,035	0,066
-397,409	-42,440	-0,122	-0,045
-396,394	224,169	-0,065	-0,077
-395,379	-200,000	0,003	-0,039
-394,365	162,464	0,047	0,049
-393,350	259,026	0,038	0,048
-392,336	-135,106	-0,099	0,009
-391,321	-200,000	-0,007	-0,079
-390,306	-74,140	-0,049	-0,013
-389,292	800,000	0,036	-0,077
-388,277	-200,000	0,015	-0,081
-387,263	173,733	0,042	0,044
-386,248	-200,000	0,022	0,171
-385,233	-128,644	0,033	-0,003
-384,219	13,206	-0,025	0,014
-383,204	-200,000	-0,007	0,069
-382,190	-79,521	-0,167	0,041
-381,175	30,604	0,084	0,053
-380,160	157,038	0,103	0,105
-379,146	363,508	0,033	0,049
-378,131	52,307	0,049	-0,035
-377,117	-117,756	0,062	0,008
-376,102	-200,000	-0,025	-0,086
-375,088	96,205	-0,141	-0,118
-374,073	21,779	-0,105	-0,062
-373,058	663,532	0,068	0,129
-372,044	178,760	0,078	0,084
-371,029	800,000	0,044	0,123
-370,015	-200,000	0,009	0,087
-369,000	369,177	0,054	-0,081
-367,985	97,810	-0,108	-0,091
-366,971	-40,382	-0,070	0,027
-365,956	800,000	-0,033	-0,079
-364,942	-200,000	0,001	-0,016
-363,927	147,679	0,046	-0,046
-362,912	116,771	-0,046	-0,041
-361,898	31,298	-0,069	0,043
-360,883	252,767	0,052	-0,065
-359,869	223,457	0,045	0,053
-358,854	-140,307	0,053	-0,004
-357,839	-177,643	0,137	0,002
-356,825	-157,385	0,147	-0,006
-355,810	249,820	0,012	0,015
-354,796	-77,590	-0,080	0,020
-353,781	119,711	-0,122	-0,111
-352,766	144,225	-0,158	-0,155
-351,752	398,467	-0,025	0,039
-350,737	-116,501	0,066	-0,009
-349,723	248,968	-0,026	-0,033
-348,708	-200,000	0,013	-0,082
-347,693	14,067	-0,087	-0,050
-346,679	11,351	-0,031	-0,018
-345,664	469,652	-0,088	-0,145
-344,650	-14,935	-0,062	-0,029
-343,635	-47,034	0,114	-0,041
-342,620	13,393	0,128	0,073
-341,606	-155,934	0,047	-0,002
-340,591	-200,000	0,005	0,042
-339,577	-150,132	0,081	0,005
-338,562	-146,870	0,087	-0,005
-337,548	800,000	0,016	-0,033
-336,533	90,146	0,056	0,046
-335,518	0,617	0,112	-0,059
-334,504	76,200	-0,025	-0,019
-333,489	7,294	0,093	0,051
-332,475	199,341	-0,021	0,023
-331,460	-6,883	-0,012	0,006
-330,445	77,997	0,067	-0,053
-329,431	-200,000	0,016	0,140
-328,416	-26,254	0,070	0,030
-327,402	-200,000	0,002	-0,021
-326,387	198,724	0,056	-0,063
-325,372	-200,000	-0,010	0,070
-324,358	-42,456	0,117	0,043
-323,343	-200,000	0,005	0,176
-322,329	-200,000	-0,034	0,150
-321,314	28,106	0,071	0,044
-320,299	23,280	0,023	-0,014
-319,285	800,000	0,059	-0,138
-318,270	229,203	-0,035	-0,042
-317,256	250,803	-0,004	0,004
-316,241	-200,000	-0,012	-0,080
-315,226	-89,070	0,117	-0,025
-314,212	800,000	0,040	0,097
-313,197	-200,000	0,002	0,098
-312,183	-5,824	0,065	-0,033
-311,168	800,000	0,034	0,073
-310,153	-42,481	-0,179	-0,067
-309,139	215,112	-0,116	-0,136
-308,124	31,459	0,121	0,076
-307,110	-106,502	0,081	-0,013
-306,095	88,257	-0,049	-0,039
-305,080	-102,758	0,174	-0,030
-304,066	-106,354	-0,038	0,006
-303,051	-200,000	-0,008	0,047
-302,037	-200,000	-0,012	0,088
-301,022	-88,639	0,054	0,012
-300,008	121,173	0,049	-0,045
-298,993	410,206	-0,055	0,086
-297,978	70,891	0,163	0,123
-296,964	-173,595	0,081	0,002
-295,949	-27,361	0,019	0,008
-294,935	-160,692	0,152	-0,006
-293,920	231,779	-0,041	-0,050
-292,905	-111,095	0,086	0,013
-291,891	-200,000	0,023	0,079
-290,876	-200,000	0,006	-0,074
-289,862	-101,464	-0,112	-0,020
-288,847	347,646	-0,086	-0,125
-287,832	336,358	-0,084	0,119
-286,818	800,000	0,049	0,133
-285,803	-9,204	-0,016	-0,008
-284,789	-200,000	-0,000	-0,044
-283,774	-151,366	0,051	-0,003
-282,759	-66,352	0,043	0,012
-281,745	-121,688	0,048	-0,006
-280,730	-159,494	-0,079	0,003
-279,716	-200,000	-0,004	-0,039
-278,701	75,921	0,148	0,115
-277,686	7,293	-0,100	-0,054
-276,672	24,118	-0,140	0,085
-275,657	185,951	-0,063	0,069
-274,643	293,566	0,039	-0,053
-273,628	-200,000	0,036	-0,135
-272,613	35,717	0,062	0,040
-271,599	800,000	-0,022	0,056
-270,584	452,975	0,068	0,110
-269,570	10,112	-0,048	-0,026
-268,555	281,217	-0,070	-0,092
-267,540	34,343	-0,115	-0,074
-266,526	296,832	-0,103	-0,139
-265,511	272,653	0,126	-0,164
-264,497	-23,525	0,087	-0,038
-263,482	6,870	0,109	-0,059
-262,467	800,000	0,028	-0,070
-261,453	206,506	-0,028	-0,032
-260,438	-25,388	-0,082	0,035
-259,424	800,000	-0,031	0,063
-258,409	-51,485	-0,110	0,037
-257,395	800,000	-0,060	-0,132
-256,380	47,413	0,110	0,075
-255,365	227,456	-0,068	-0,081
-254,351	-162,520	-0,097	-0,003
-253,336	68,433	0,068	0,051
-252,322	-200,000	-0,009	-0,172
-251,307	800,000	0,040	-0,097
-250,292	199,230	-0,006	-0,007
-249,278	49,840	0,065	-0,045
-248,263	-53,645	0,021	0,007
-247,249	-57,706	-0,082	-0,026
-246,234	-156,980	0,098	-0,004
-245,219	97,226	0,042	-0,035
-244,205	-200,000	-0,009	-0,144
-243,190	384,321	-0,021	0,032
-242,176	1,220	0,028	0,015
-241,161	-200,000	0,002	-0,069
-240,146	58,070	-0,027	0,019
-239,132	350,272	-0,047	0,069
-238,117	-200,000	-0,008	-0,120
-237,103	406,546	-0,150	-0,232
-236,088	800,000	-0,071	-0,226
-235,073	-200,000	-0,014	0,069
-234,059	800,000	-0,039	0,095
-233,044	242,972	0,096	0,118
-232,030	-35,242	-0,028	-0,011
-231,015	523,375	-0,069	-0,120
-230,000	-136,722	-0,057	0,005
-228,986	-200,000	0,011	0,069
-227,971	39,270	0,089	0,058
-226,957	265,959	0,027	-0,034
-225,942	48,890	-0,064	0,044
-224,927	-200,000	0,020	-0,125
-223,913	-200,000	0,020	-0,066
-222,898	-9,321	-0,139	-0,068
-221,884	306,050	-0,020	-0,027
-220,869	-67,780	-0,163	-0,046
-219,855	800,000	-0,035	-0,082
-218,840	800,000	0,100	0,217
-217,825	178,162	-0,101	0,107
-216,811	101,387	-0,034	-0,029
-215,796	-200,000	0,003	-0,067
-214,782	-83,305	0,114	-0,027
-213,767	800,000	0,019	-0,050
-212,752	335,522	0,096	0,137
-211,738	-146,731	0,208	-0,013
-210,723	-22,321	-0,097	-0,043
-209,709	41,105	-0,097	0,064
-208,694	62,062	-0,019	-0,014
-207,679	40,416	0,050	0,033
-206,665	137,895	0,045	0,043
-205,650	-133,415	0,108	-0,010
-204,636	800,000	-0,060	0,124
-203,621	1,323	-0,079	0,041
-202,606	-8,196	-0,016	0,008
-201,592	-200,000	-0,021	-0,127
-200,577	-87,911	-0,068	-0,015
-199,563	221,635	0,027	0,032
-198,548	-200,000	0,012	0,063
-197,533	-200,000	0,002	0,051
-196,519	-200,000	-0,006	-0,038
-195,504	-200,000	0,008	0,054
-194,490	-200,000	0,021	-0,107
-193,475	41,125	-0,133	-0,087
-192,460	410,437	0,061	-0,095
-191,446	157,810	-0,049	0,050
-190,431	-82,218	0,118	0,028
-189,417	30,964	-0,109	-0,068
-188,402	-200,000	0,006	-0,054
-187,387	800,000	-0,064	-0,135
-186,373	-200,000	0,008	-0,070
-185,358	-200,000	-0,025	-0,130
-184,344	-200,000	-0,049	-0,177
-183,329	115,115	0,100	0,089
-182,315	-6,443	-0,067	-0,033
-181,300	800,000	0,025	0,052
-180,285	-123,671	0,050	-0,006
-179,271	270,328	0,033	0,042
-178,256	-200,000	-0,046	-0,149
-177,242	491,972	-0,021	0,035
-176,227	-64,962	0,130	0,038
-175,212	82,247	-0,070	-0,056
-174,198	10,433	-0,087	0,048
-173,183	368,749	0,034	-0,051
-172,169	-25,363	-0,031	0,013
-171,154	127,387	-0,029	0,027
-170,139	-200,000	0,005	-0,022
-169,125	800,000	0,038	-0,081
-168,110	-110,171	0,238	0,036
-167,096	-32,793	0,202	0,081
-166,081	-200,000	-0,034	0,111
-165,066	77,213	0,040	-0,031
-164,052	116,461	-0,055	-0,049
-163,037	-28,929	-0,058	-0,024
-162,023	-86,444	0,062	0,014
-161,008	-200,000	-0,016	0,069
-159,993	49,199	0,025	0,017
-158,979	-93,080	0,010	0,002
-157,964	104,920	-0,060	0,052
-156,950	-108,908	-0,048	-0,007
-155,935	458,077	0,018	-0,029
-154,920	-200,000	0,020	0,088
-153,906	522,407	0,051	0,087
-152,891	-41,885	0,137	-0,051
-151,877	386,889	0,085	-0,128
-150,862	436,726	-0,010	0,016
-149,847	144,445	-0,100	-0,098
-148,833	245,872	0,017	0,020
-147,818	-200,000	0,009	-0,087
-146,804	123,862	-0,051	-0,046
-145,789	-15,618	-0,053	-0,025
-144,775	-123,556	0,064	0,007
-143,760	367,874	0,040	-0,059
-142,745	-200,000	-0,021	0,135
-141,731	572,661	-0,023	0,041
-140,716	392,028	-0,074	0,113
-139,702	-169,837	0,204	-0,005
-138,687	254,141	0,017	-0,021
-137,672	51,949	0,185	0,128
-136,658	-25,414	-0,270	-0,116
-135,643	30,139	0,107	0,066
-134,629	264,748	0,033	0,042
-133,614	-200,000	0,012	0,041
-132,599	-200,000	-0,028	0,135
-131,585	-200,000	0,022	-0,080
-130,570	-111,300	-0,112	-0,016
-129,556	-25,713	-0,047	-0,020
-128,541	-96,603	-0,116	-0,022
-127,526	-200,000	0,013	-0,107
-126,512	102,435	0,027	0,023
-125,497	800,000	0,042	0,121
-124,483	-33,356	-0,088	-0,035
-123,468	-38,614	-0,024	0,009
-122,453	-16,117	-0,046	0,021
-121,439	122,811	-0,079	0,072
-120,424	-135,818	-0,054	0,005
-119,410	-200,000	-0,032	0,144
