DTS Sentinel unit serial number:	SN410029Multiplexer serial number:	ORYXHardware model number:	OX2-SRSoftware version number:	ORYX F/W v4,00 Oryx Data Collector v3.7.2.0data status	okinstallation	B4 Nyhavnadifferential loss correction	single-endedforward channel	channel 2reverse channel	N/Adate	2023/12/18time	18:55:14forward acquisition time	300,00reverse acquisition time	0,00gamma	499,1914k internal	0,3123k external	0,3123temperature offset calibration	1,0000default loss term (dB/km)	0,3820temperature slope calibration	1,0000multiplexer offset coefficient	1,0000multiplexer slope coefficient	1,0000fibre end	0,00T internal ref (°C)	21,91T ext. ref 1 (°C)	6,95T ext. ref 2 (°C)	6,96length (m)	temperature (°C)	Stokes	anti-Stokes-744,400	-67,303	-0,195	-0,057
-743,385	-39,847	-0,272	0,106
-742,371	-96,292	0,108	0,021
-741,356	76,226	-0,157	0,124
-740,342	48,374	0,051	-0,036
-739,327	-64,661	-0,313	0,094
-738,312	117,661	-0,067	-0,062
-737,298	-5,491	-0,220	0,112
-736,283	-11,047	0,193	-0,095
-735,269	-59,336	-0,145	0,046
-734,254	6,111	-0,022	0,012
-733,239	-83,899	-0,493	-0,116
-732,225	-200,000	0,012	-0,076
-731,210	169,229	-0,064	0,068
-730,196	-139,953	0,149	0,012
-729,181	-3,092	-0,115	-0,060
-728,167	-200,000	0,001	0,058
-727,152	-45,608	0,020	0,007
-726,137	800,000	0,053	0,160
-725,123	800,000	-0,010	0,026
-724,108	-59,342	-0,118	-0,038
-723,094	-178,781	-0,114	-0,002
-722,079	608,193	-0,046	0,086
-721,064	-200,000	-0,008	-0,071
-720,050	-130,279	-0,099	0,010
-719,035	-37,373	0,113	-0,045
-718,021	-28,924	-0,173	0,074
-717,006	13,127	-0,173	-0,100
-715,991	-59,410	-0,049	-0,016
-714,977	138,012	0,022	0,022
-713,962	800,000	0,021	-0,061
-712,948	800,000	-0,003	-0,007
-711,933	800,000	-0,047	0,114
-710,918	130,192	-0,037	-0,036
-709,904	460,941	-0,078	-0,130
-708,889	-18,473	-0,065	-0,030
-707,875	195,778	-0,067	-0,076
-706,860	-200,000	0,017	0,095
-705,845	-200,000	0,005	0,022
-704,831	114,061	0,041	-0,037
-703,816	-200,000	0,002	-0,013
-702,802	48,337	-0,106	-0,074
-701,787	41,989	-0,098	-0,066
-700,772	-7,828	0,059	-0,030
-699,758	-200,000	-0,007	0,026
-698,743	800,000	0,042	0,128
-697,729	-200,000	0,004	0,118
-696,714	182,843	0,012	0,013
-695,699	131,967	-0,123	0,118
-694,685	630,418	-0,033	-0,063
-693,670	79,571	-0,091	-0,073
-692,656	-119,435	-0,062	0,008
-691,641	587,847	0,027	0,050
-690,627	-72,561	0,100	0,027
-689,612	-67,897	-0,056	0,016
-688,597	130,642	-0,043	-0,041
-687,583	-15,091	-0,182	0,086
-686,568	-73,066	-0,111	0,030
-685,554	-200,000	0,056	-0,199
-684,539	-35,399	0,114	0,046
-683,524	-118,597	0,127	0,016
-682,510	-200,000	-0,008	0,053
-681,495	-164,795	-0,029	-0,001
-680,481	495,996	-0,083	-0,143
-679,466	274,131	-0,032	-0,043
-678,451	375,486	-0,055	-0,084
-677,437	-200,000	0,015	-0,132
-676,422	190,462	-0,095	-0,106
-675,408	244,685	-0,047	0,059
-674,393	378,044	-0,030	0,046
-673,378	43,888	-0,075	-0,051
-672,364	73,566	-0,060	0,047
-671,349	127,283	-0,108	-0,101
-670,335	-200,000	-0,005	-0,112
-669,320	-27,969	0,087	-0,037
-668,305	-200,000	-0,025	0,084
-667,291	800,000	0,042	-0,134
-666,276	70,887	-0,127	0,098
-665,262	185,040	-0,127	0,140
-664,247	-146,392	-0,068	-0,004
-663,232	70,138	0,021	-0,016
-662,218	-56,781	0,095	0,031
-661,203	46,706	-0,072	0,049
-660,189	-134,635	0,090	0,008
-659,174	800,000	-0,059	-0,127
-658,159	-200,000	0,010	-0,171
-657,145	-10,625	0,114	0,056
-656,130	-161,814	0,025	0,001
-655,116	-144,516	0,123	0,008
-654,101	-200,000	0,009	0,076
-653,086	-147,178	0,151	0,009
-652,072	236,963	0,049	-0,060
-651,057	201,611	0,098	-0,112
-650,043	800,000	-0,057	-0,131
-649,028	-200,000	0,020	-0,170
-648,014	235,821	0,049	-0,060
-646,999	-177,415	-0,019	0,000
-645,984	-54,841	0,147	0,049
-644,970	-200,000	0,028	0,122
-643,955	344,944	-0,059	0,087
-642,941	-200,000	-0,020	-0,120
-641,926	-119,605	0,060	-0,008
-640,911	-100,257	0,162	-0,030
-639,897	800,000	-0,034	0,079
-638,882	800,000	0,014	-0,036
-637,868	298,842	-0,058	-0,079
-636,853	-200,000	-0,008	0,065
-635,838	144,371	-0,077	-0,077
-634,824	800,000	-0,041	0,114
-633,809	-117,868	0,101	-0,013
-632,795	800,000	0,002	-0,004
-631,780	-79,540	-0,117	-0,029
-630,765	-17,147	0,047	-0,022
-629,751	36,258	-0,095	-0,062
-628,736	-200,000	-0,017	-0,194
-627,722	719,406	0,018	0,036
-626,707	-200,000	0,026	-0,127
-625,692	75,769	0,053	0,042
-624,678	24,883	0,086	-0,053
-623,663	-200,000	0,014	-0,056
-622,649	-64,607	-0,125	0,037
-621,634	-200,000	0,006	-0,100
-620,619	373,582	-0,048	-0,072
-619,605	326,454	0,034	-0,048
-618,590	11,648	0,149	-0,085
-617,576	507,340	0,042	-0,073
-616,561	-134,889	-0,028	0,003
-615,546	-166,168	-0,149	-0,005
-614,532	197,798	-0,007	-0,008
-613,517	705,391	0,131	-0,257
-612,503	371,661	-0,040	-0,060
-611,488	448,327	0,073	0,120
-610,474	-200,000	0,006	0,062
-609,459	393,899	0,066	-0,102
-608,444	-86,396	0,026	0,006
-607,430	-200,000	-0,028	-0,123
-606,415	477,711	-0,060	-0,101
-605,401	619,435	0,035	0,066
-604,386	142,228	0,065	0,064
-603,371	-28,362	0,152	-0,065
-602,357	-50,947	0,058	0,020
-601,342	120,491	-0,067	-0,062
-600,328	518,601	-0,051	-0,089
-599,313	-200,000	-0,015	-0,112
-598,298	-70,755	-0,017	0,005
-597,284	-77,596	0,133	-0,034
-596,269	-49,812	0,045	0,016
-595,255	-2,371	0,184	0,095
-594,240	-171,124	0,078	-0,002
-593,225	335,252	-0,100	-0,144
-592,211	756,665	-0,033	-0,066
-591,196	-200,000	-0,021	-0,112
-590,182	-200,000	-0,019	-0,071
-589,167	581,841	0,044	0,081
-588,152	-164,473	0,115	0,004
-587,138	151,003	-0,130	0,131
-586,123	23,411	-0,069	-0,042
-585,109	655,978	-0,138	-0,264
-584,094	-200,000	-0,025	-0,142
-583,079	382,430	0,069	0,106
-582,065	-200,000	-0,001	-0,054
-581,050	-7,761	-0,096	0,048
-580,036	-200,000	-0,016	-0,126
-579,021	-69,264	0,091	-0,026
-578,006	-109,359	-0,107	0,017
-576,992	270,849	-0,035	-0,045
-575,977	155,049	-0,046	0,047
-574,963	-46,445	0,032	-0,012
-573,948	451,425	0,031	0,051
-572,934	41,346	-0,023	0,015
-571,919	-79,399	-0,095	-0,024
-570,904	16,825	-0,147	-0,086
-569,890	9,719	0,046	-0,026
-568,875	691,286	-0,051	0,100
-567,861	-140,464	-0,075	-0,006
-566,846	52,488	-0,133	0,094
-565,831	-63,104	-0,057	0,017
-564,817	574,539	0,048	0,087
-563,802	-200,000	-0,005	-0,103
-562,788	-200,000	-0,014	-0,098
-561,773	800,000	0,030	0,074
-560,758	69,772	0,069	0,053
-559,744	800,000	0,066	0,185
-558,729	-4,043	-0,069	0,035
-557,715	800,000	0,040	-0,087
-556,700	245,994	-0,087	0,109
-555,685	-7,281	0,049	-0,024
-554,671	295,296	0,034	-0,047
-553,656	-77,911	-0,062	0,016
-552,642	-79,686	-0,102	-0,025
-551,627	-105,600	0,071	0,012
-550,612	-2,999	-0,111	-0,057
-549,598	90,613	-0,106	-0,088
-548,583	589,748	0,053	-0,096
-547,569	-87,638	-0,152	-0,034
-546,554	234,272	-0,089	-0,108
-545,539	206,226	0,069	-0,079
-544,525	600,810	0,020	0,036
-543,510	-200,000	0,021	0,162
-542,496	89,711	0,055	-0,046
-541,481	-76,611	-0,025	-0,006
-540,466	800,000	0,028	0,076
-539,452	231,976	0,037	0,045
-538,437	51,331	0,127	-0,089
-537,423	56,303	0,060	0,043
-536,408	-115,470	0,062	0,009
-535,393	-200,000	0,022	0,084
-534,379	-96,535	-0,139	-0,027
-533,364	-200,000	0,006	-0,084
-532,350	599,968	0,028	-0,051
-531,335	-120,246	-0,066	0,008
-530,321	800,000	0,063	0,190
-529,306	-47,539	-0,090	-0,032
-528,291	800,000	-0,036	-0,077
-527,277	638,979	-0,067	-0,126
-526,262	800,000	-0,015	-0,041
-525,248	151,035	0,036	-0,036
-524,233	800,000	0,045	0,100
-523,218	371,296	0,072	-0,109
-522,204	-200,000	0,049	0,161
-521,189	23,806	-0,086	0,052
-520,175	-200,000	-0,023	-0,089
-519,160	512,089	0,049	0,085
-518,145	-69,280	0,094	-0,026
-517,131	-115,686	0,048	0,007
-516,116	420,865	0,082	0,130
-515,102	-83,649	-0,082	-0,019
-514,087	-83,363	0,042	-0,010
-513,072	-121,588	0,072	0,009
-512,058	71,488	-0,033	0,026
-511,043	443,428	-0,081	0,132
-510,029	800,000	0,010	-0,028
-509,014	800,000	-0,036	0,114
-507,999	695,920	-0,010	-0,019
-506,985	-82,055	0,083	0,020
-505,970	-50,220	0,046	0,016
-504,956	76,219	-0,045	0,035
-503,941	566,346	-0,049	0,089
-502,926	800,000	0,066	-0,151
-501,912	-200,000	0,031	0,104
-500,897	-200,000	0,003	-0,172
-499,883	183,443	-0,024	-0,027
-498,868	315,073	-0,063	-0,088
-497,853	-93,381	-0,180	0,037
-496,839	530,498	0,065	-0,114
-495,824	-2,795	-0,050	0,026
-494,810	-200,000	-0,060	-0,212
-493,795	-80,426	0,055	-0,013
-492,781	-170,508	-0,052	0,001
-491,766	-86,150	-0,084	0,019
-490,751	108,478	-0,044	0,039
-489,737	269,969	-0,095	-0,124
-488,722	633,063	0,035	-0,066
-487,708	-89,738	0,067	0,014
-486,693	577,244	-0,028	0,050
-485,678	800,000	0,076	-0,156
-484,664	-200,000	-0,003	-0,148
-483,649	-21,656	0,050	0,022
-482,635	-109,801	-0,103	-0,016
-481,620	-89,903	0,172	0,037
-480,605	-200,000	0,026	-0,109
-479,591	264,182	0,053	0,068
-478,576	800,000	0,127	0,323
-477,562	-68,521	-0,072	0,020
-476,547	48,499	0,159	-0,110
-475,532	800,000	-0,041	0,087
-474,518	800,000	0,043	0,135
-473,503	800,000	0,036	-0,098
-472,489	480,262	-0,044	0,075
-471,474	-111,777	-0,215	0,032
-470,459	27,436	-0,072	0,045
-469,445	-120,239	-0,132	0,016
-468,430	800,000	-0,029	0,064
-467,416	112,823	0,124	0,111
-466,401	800,000	0,028	0,072
-465,386	-93,778	0,067	-0,013
-464,372	800,000	-0,033	-0,073
-463,357	-200,000	-0,025	0,113
-462,343	-200,000	-0,010	-0,091
-461,328	293,184	0,032	-0,043
-460,313	52,272	-0,075	-0,053
-459,299	17,576	0,080	0,047
-458,284	481,118	0,080	0,134
-457,270	-200,000	0,017	0,188
-456,255	800,000	0,015	0,042
-455,241	-97,707	-0,034	-0,006
-454,226	238,069	-0,051	0,062
-453,211	800,000	0,059	-0,120
-452,197	-103,789	0,060	0,010
-451,182	-200,000	-0,007	0,136
-450,168	-126,527	0,130	-0,014
-449,153	800,000	0,049	-0,107
-448,138	-94,390	-0,101	-0,020
-447,124	95,714	0,026	0,022
-446,109	-200,000	-0,013	-0,099
-445,095	793,587	0,046	0,094
-444,080	-104,659	-0,077	0,013
-443,065	-28,405	0,111	0,047
-442,051	-81,545	-0,020	0,005
-441,036	800,000	-0,076	-0,203
-440,022	800,000	-0,031	0,075
-439,007	-75,834	0,127	-0,033
-437,992	800,000	0,059	-0,132
-436,978	800,000	0,031	0,078
-435,963	800,000	0,021	-0,049
-434,949	739,186	0,017	-0,033
-433,934	-200,000	-0,003	-0,174
-432,919	-200,000	-0,005	0,054
-431,905	-200,000	-0,008	-0,081
-430,890	350,525	0,043	0,063
-429,876	-95,723	0,104	-0,020
-428,861	138,467	0,032	-0,031
-427,846	457,550	-0,029	0,048
-426,832	386,909	0,040	0,061
-425,817	-112,879	-0,143	0,021
-424,803	800,000	0,037	-0,083
-423,788	239,172	0,053	-0,065
-422,773	9,222	0,050	0,028
-421,759	85,372	-0,053	0,043
-420,744	144,082	0,023	0,023
-419,730	-200,000	-0,018	0,070
-418,715	746,007	-0,010	-0,019
-417,701	81,877	-0,071	-0,056
-416,686	-200,000	0,001	-0,140
-415,671	-45,748	0,161	0,058
-414,657	-1,436	-0,122	0,063
-413,642	255,504	-0,146	0,185
-412,628	800,000	-0,036	-0,075
-411,613	-62,591	-0,156	0,047
-410,598	616,447	-0,087	-0,161
-409,584	800,000	0,014	-0,032
-408,569	-200,000	-0,016	0,070
-407,555	-146,935	0,084	0,005
-406,540	217,041	-0,054	0,064
-405,525	800,000	-0,077	-0,190
-404,511	800,000	0,039	-0,119
-403,496	239,654	-0,097	0,119
-402,482	214,993	-0,193	0,225
-401,467	262,607	0,087	0,112
-400,452	-200,000	-0,003	0,066
-399,438	150,962	-0,008	0,008
-398,423	108,796	0,038	0,034
-397,409	17,320	-0,183	-0,106
-396,394	-200,000	0,003	-0,091
-395,379	354,444	0,038	0,055
-394,365	-200,000	0,022	0,099
-393,350	100,516	0,070	0,060
-392,336	728,445	0,032	-0,062
-391,321	-4,868	0,128	-0,065
-390,306	-200,000	-0,001	-0,054
-389,292	-23,282	-0,098	-0,043
-388,277	-24,320	0,096	0,042
-387,263	-200,000	0,031	0,135
-386,248	800,000	0,018	0,039
-385,233	-25,792	0,084	-0,036
-384,219	11,267	-0,104	-0,058
-383,204	-200,000	0,016	-0,058
-382,190	647,059	0,060	-0,113
-381,175	150,843	0,017	-0,017
-380,160	395,630	-0,065	0,100
-379,146	-200,000	0,013	-0,048
-378,131	14,155	-0,057	-0,033
-377,117	56,972	-0,031	0,022
-376,102	-41,038	-0,066	0,025
-375,088	-200,000	0,015	0,117
-374,073	-70,310	-0,042	0,011
-373,058	-108,786	0,069	-0,011
-372,044	63,122	-0,135	0,099
-371,029	329,899	0,122	0,172
-370,015	-33,670	0,146	0,059
-369,000	-144,200	-0,056	0,004
-367,985	-200,000	-0,027	-0,154
-366,971	-200,000	0,034	-0,145
-365,956	166,462	-0,142	0,148
-364,942	7,962	0,060	-0,033
-363,927	-111,403	-0,097	0,014
-362,912	800,000	-0,031	0,076
-361,898	299,473	-0,035	-0,047
-360,883	177,074	0,022	-0,023
-359,869	-200,000	-0,017	0,157
-358,854	197,879	0,049	0,055
-357,839	-119,586	0,171	-0,022
-356,825	-123,063	-0,060	-0,007
-355,810	38,969	0,022	-0,014
-354,796	-98,974	0,047	-0,009
-353,781	-10,650	-0,161	0,078
-352,766	-44,696	-0,108	0,039
-351,752	-200,000	0,020	-0,094
-350,737	-200,000	-0,006	-0,027
-349,723	127,233	-0,025	-0,024
-348,708	384,299	-0,107	0,163
-347,693	249,999	-0,109	-0,136
-346,679	-112,018	0,089	-0,013
-345,664	113,716	0,095	0,085
-344,650	-200,000	-0,008	-0,038
-343,635	800,000	0,039	0,114
-342,620	127,097	0,141	0,132
-341,606	64,536	0,115	0,085
-340,591	566,386	-0,021	0,038
-339,577	60,501	0,042	-0,031
-338,562	556,115	0,073	0,130
-337,548	-98,558	0,022	0,004
-336,533	54,643	0,072	0,051
-335,518	20,286	-0,037	-0,022
-334,504	8,854	0,034	0,019
-333,489	30,724	-0,033	0,021
-332,475	-200,000	0,001	0,059
-331,460	-11,617	0,170	0,081
-330,445	-50,171	0,072	0,025
-329,431	-76,593	-0,021	0,005
-328,416	800,000	0,046	0,125
-327,402	800,000	0,040	-0,105
-326,387	-79,740	0,060	0,015
-325,372	18,375	-0,088	-0,051
-324,358	44,208	-0,157	0,106
-323,343	-70,376	-0,075	-0,021
-322,329	-200,000	0,014	0,119
-321,314	145,558	0,024	0,023
-320,299	800,000	0,025	0,070
-319,285	-200,000	0,003	-0,019
-318,270	-6,756	-0,168	-0,083
-317,256	800,000	0,032	-0,089
-316,241	198,868	0,017	-0,020
-315,226	800,000	0,049	0,113
-314,212	31,211	-0,045	0,028
-313,197	800,000	0,091	0,196
-312,183	71,973	0,079	-0,060
-311,168	-200,000	0,002	-0,150
-310,153	696,934	-0,102	-0,198
-309,139	165,051	-0,139	-0,144
-308,124	-200,000	-0,015	0,113
-307,110	-131,278	0,154	0,015
-306,095	-200,000	0,007	0,056
-305,080	261,456	-0,068	0,087
-304,066	62,538	-0,063	0,046
-303,051	68,524	-0,058	0,043
-302,037	100,258	0,024	-0,020
-301,022	-200,000	0,060	0,197
-300,008	122,309	0,073	-0,067
-298,993	131,197	0,055	0,051
-297,978	494,351	-0,082	0,138
-296,964	-200,000	-0,026	-0,092
-295,949	61,158	0,089	-0,065
-294,935	-200,000	0,015	0,069
-293,920	800,000	0,062	0,131
-292,905	-200,000	0,002	0,029
-291,891	506,204	-0,052	0,088
-290,876	-200,000	0,017	0,170
-289,862	800,000	0,048	0,105
-288,847	10,771	0,064	-0,036
-287,832	800,000	-0,017	0,050
-286,818	171,143	0,093	0,098
-285,803	214,886	0,098	0,114
-284,789	-200,000	0,057	0,232
-283,774	92,641	0,054	0,045
-282,759	45,295	-0,020	0,014
-281,745	800,000	0,044	-0,093
-280,730	216,286	-0,025	0,030
-279,716	-24,499	0,056	0,024
-278,701	-189,347	0,097	-0,001
-277,686	800,000	-0,040	0,086
-276,672	-75,187	-0,077	-0,020
-275,657	110,703	0,084	-0,074
-274,643	39,861	-0,125	0,082
-273,628	-93,958	-0,037	-0,007
-272,613	-2,866	0,077	0,039
-271,599	43,152	0,149	0,099
-270,584	57,171	-0,091	-0,065
-269,570	-200,000	0,015	0,147
-268,555	7,046	-0,091	-0,050
-267,540	800,000	-0,013	0,033
-266,526	130,447	0,026	0,024
-265,511	442,027	-0,059	-0,095
-264,497	800,000	-0,044	0,119
-263,482	6,003	-0,037	0,020
-262,467	482,024	0,034	-0,056
-261,453	321,793	0,023	0,033
-260,438	159,366	0,060	-0,061
-259,424	130,685	-0,100	-0,094
-258,409	83,636	0,106	-0,085
-257,395	237,672	0,014	-0,017
-256,380	295,166	-0,083	0,112
-255,365	-200,000	-0,030	0,155
-254,351	673,219	-0,051	0,097
-253,336	-200,000	-0,009	0,047
-252,322	154,020	0,069	0,069
-251,307	-200,000	-0,025	0,122
-250,292	-140,220	0,082	0,006
-249,278	-49,707	0,115	-0,040
-248,263	800,000	0,025	0,055
-247,249	729,960	0,087	0,171
-246,234	170,443	-0,116	-0,121
-245,219	-200,000	-0,006	-0,079
-244,205	108,258	-0,028	-0,024
-243,190	-200,000	0,029	-0,131
-242,176	149,591	0,057	-0,056
-241,161	-200,000	-0,001	0,063
-240,146	800,000	0,026	-0,066
-239,132	455,443	0,014	-0,023
-238,117	800,000	0,074	-0,167
-237,103	-200,000	-0,002	-0,008
-236,088	689,991	0,050	0,095
-235,073	-152,664	0,111	-0,006
-234,059	-148,850	0,122	0,007
-233,044	50,092	-0,060	0,041
-232,030	-200,000	0,009	0,038
-231,015	-200,000	0,062	-0,261
-230,000	-84,892	-0,139	-0,032
-228,986	259,560	0,035	0,044
-227,971	-148,405	0,045	0,003
-226,957	-135,156	-0,119	-0,010
-225,942	192,606	0,049	0,054
-224,927	-43,591	-0,031	-0,011
-223,913	-76,365	-0,038	0,010
-222,898	81,223	0,023	0,018
-221,884	426,878	-0,007	-0,012
-220,869	89,336	0,038	-0,031
-219,855	800,000	-0,050	-0,120
-218,840	-200,000	-0,030	0,123
-217,825	-77,692	-0,050	-0,012
-216,811	-200,000	0,006	0,090
-215,796	-75,362	-0,104	-0,027
-214,782	538,068	-0,052	-0,090
-213,767	536,587	0,059	-0,102
-212,752	430,384	-0,036	0,057
-211,738	-200,000	-0,004	0,078
-210,723	-200,000	-0,026	-0,129
-209,709	133,024	-0,108	0,102
-208,694	-200,000	-0,003	0,150
-207,679	-43,726	0,140	0,051
-206,665	-6,069	-0,087	-0,043
-205,650	61,322	0,036	0,026
-204,636	-200,000	-0,003	-0,051
-203,621	-96,447	0,084	-0,016
-202,606	274,874	-0,064	0,083
-201,592	-200,000	0,038	-0,278
-200,577	160,765	-0,108	-0,110
-199,563	-5,963	0,068	-0,034
-198,548	800,000	-0,022	0,060
-197,533	-33,089	-0,026	-0,010
-196,519	122,118	-0,005	-0,005
-195,504	-200,000	-0,005	0,057
-194,490	452,449	-0,092	-0,149
-193,475	227,230	-0,046	-0,055
-192,460	-87,534	0,061	-0,013
-191,446	52,924	0,055	0,038
-190,431	-200,000	-0,004	-0,087
-189,417	-171,766	0,053	-0,001
-188,402	-46,774	0,051	-0,018
-187,387	27,602	-0,125	0,076
-186,373	800,000	-0,057	-0,137
-185,358	-109,787	0,060	-0,009
-184,344	-200,000	0,002	-0,016
-183,329	800,000	0,032	-0,076
-182,315	167,063	0,079	0,082
-181,300	2,179	-0,069	-0,036
-180,285	722,021	-0,033	-0,065
-179,271	-200,000	0,009	-0,173
-178,256	800,000	-0,040	-0,097
-177,242	177,027	0,051	-0,054
-176,227	46,567	-0,112	0,075
-175,212	66,276	-0,119	0,088
-174,198	800,000	-0,022	-0,049
-173,183	800,000	-0,073	-0,190
-172,169	-53,047	-0,158	-0,053
-171,154	-200,000	-0,027	0,103
-170,139	78,903	0,123	0,096
-169,125	2,251	-0,069	-0,036
-168,110	800,000	-0,040	-0,095
-167,096	-45,535	-0,095	0,034
-166,081	-146,818	0,079	0,005
-165,066	720,274	-0,040	-0,078
-164,052	17,798	0,018	0,010
-163,037	18,708	0,044	-0,026
-162,023	288,014	0,033	0,044
-161,008	21,010	-0,091	-0,053
-159,993	-56,274	0,153	-0,049
-158,979	44,144	-0,128	-0,085
-157,964	-60,357	-0,107	0,033
-156,950	456,919	0,061	0,099
-155,935	-20,480	0,052	-0,023
-154,920	131,959	-0,079	0,074
-153,906	-14,150	-0,081	0,038
-152,891	353,578	0,043	-0,063
-151,877	10,023	-0,048	-0,027
-150,862	258,677	-0,106	-0,134
-149,847	-68,034	0,076	-0,021
-148,833	30,261	0,094	-0,058
-147,818	-99,578	-0,075	-0,014
-146,804	461,459	-0,034	0,055
-145,789	77,445	-0,062	-0,048
-144,775	800,000	0,055	0,121
-143,760	-200,000	-0,035	-0,147
-142,745	-61,809	0,097	-0,029
-141,731	-200,000	-0,014	0,107
-140,716	-177,041	0,100	-0,002
-139,702	-35,181	0,053	0,021
-138,687	800,000	-0,039	-0,100
-137,672	-90,852	0,088	0,018
-136,658	-200,000	-0,027	-0,141
-135,643	78,892	-0,083	-0,065
-134,629	800,000	-0,042	0,088
-133,614	-200,000	0,002	0,098
-132,599	-200,000	-0,008	0,059
-131,585	-200,000	0,002	0,010
-130,570	640,361	-0,082	0,152
-129,556	56,976	-0,044	-0,031
-128,541	262,810	0,079	0,100
-127,526	-121,774	0,203	-0,024
-126,512	89,432	-0,094	-0,076
-125,497	-200,000	-0,034	0,130
-124,483	800,000	0,044	0,119
-123,468	-200,000	0,005	-0,081
-122,453	345,846	-0,046	-0,066
-121,439	-119,851	-0,102	0,013
-120,424	-200,000	0,009	0,131
-119,410	364,024	0,025	0,036
-118,395	-139,807	-0,119	-0,009
