DTS Sentinel unit serial number:	SN410029Multiplexer serial number:	ORYXHardware model number:	OX2-SRSoftware version number:	ORYX F/W v4,00 Oryx Data Collector v3.7.2.0data status	okinstallation	B4 Nyhavnadifferential loss correction	single-endedforward channel	channel 2reverse channel	N/Adate	2023/12/16time	00:05:13forward acquisition time	300,00reverse acquisition time	0,00gamma	499,1914k internal	0,3127k external	0,3127temperature offset calibration	1,0000default loss term (dB/km)	0,3820temperature slope calibration	1,0000multiplexer offset coefficient	1,0000multiplexer slope coefficient	1,0000fibre end	0,00T internal ref (°C)	21,88T ext. ref 1 (°C)	6,76T ext. ref 2 (°C)	6,91length (m)	temperature (°C)	Stokes	anti-Stokes-744,400	48,709	-0,067	-0,047
-743,385	-78,645	-0,141	0,036
-742,371	-35,614	0,057	0,023
-741,356	800,000	-0,064	0,188
-740,342	71,969	0,123	-0,095
-739,327	-100,861	-0,329	0,060
-738,312	-27,054	0,037	0,016
-737,298	-12,807	-0,177	0,085
-736,283	-7,084	0,049	0,025
-735,269	-58,748	-0,236	0,076
-734,254	800,000	0,019	-0,052
-733,239	-88,852	-0,434	-0,095
-732,225	-75,466	0,142	-0,037
-731,210	-16,907	-0,045	0,021
-730,196	-8,648	-0,141	-0,070
-729,181	-200,000	0,040	-0,157
-728,167	-101,074	-0,055	0,010
-727,152	-96,746	0,115	-0,022
-726,137	-16,579	-0,210	-0,099
-725,123	800,000	-0,045	-0,103
-724,108	669,347	-0,046	-0,089
-723,094	207,620	-0,092	-0,107
-722,079	-151,887	-0,119	-0,006
-721,064	-47,606	0,061	-0,022
-720,050	-200,000	0,019	-0,135
-719,035	800,000	0,026	0,065
-718,021	104,954	-0,076	-0,067
-717,006	446,179	-0,039	-0,064
-715,991	-200,000	-0,013	-0,179
-714,977	180,599	-0,118	-0,129
-713,962	20,909	0,054	0,033
-712,948	45,087	-0,127	-0,087
-711,933	-147,701	-0,049	0,003
-710,918	800,000	0,030	-0,068
-709,904	-49,329	-0,099	0,035
-708,889	484,227	0,084	-0,142
-707,875	341,183	-0,106	-0,154
-706,860	104,962	-0,094	0,082
-705,845	52,227	-0,095	-0,068
-704,831	81,878	-0,043	-0,035
-703,816	-55,444	-0,079	0,026
-702,802	161,511	-0,044	-0,045
-701,787	93,948	-0,181	-0,152
-700,772	362,537	-0,075	-0,113
-699,758	-200,000	0,009	0,062
-698,743	-16,320	0,150	0,070
-697,729	334,011	0,013	-0,018
-696,714	304,310	-0,041	0,057
-695,699	142,710	0,026	0,025
-694,685	52,065	-0,072	-0,051
-693,670	45,363	-0,144	-0,098
-692,656	-200,000	0,049	-0,164
-691,641	-200,000	0,016	0,098
-690,627	800,000	0,037	-0,079
-689,612	-138,555	-0,001	-0,000
-688,597	800,000	-0,051	-0,156
-687,583	140,284	-0,134	-0,131
-686,568	-48,879	-0,142	-0,050
-685,554	-40,063	-0,067	-0,026
-684,539	-150,977	-0,017	0,001
-683,524	-81,416	-0,068	0,017
-682,510	-37,813	0,106	0,042
-681,495	-86,394	-0,141	-0,032
-680,481	800,000	-0,022	0,070
-679,466	24,249	-0,043	-0,026
-678,451	-200,000	-0,018	0,139
-677,437	-200,000	0,054	-0,185
-676,422	44,553	-0,062	-0,042
-675,408	-200,000	0,005	0,092
-674,393	119,920	-0,108	-0,100
-673,378	68,662	0,112	-0,086
-672,364	649,536	-0,050	-0,095
-671,349	-200,000	-0,009	-0,036
-670,335	-41,940	-0,051	-0,019
-669,320	-200,000	-0,002	-0,027
-668,305	800,000	-0,066	-0,157
-667,291	-200,000	0,018	-0,061
-666,276	12,540	-0,129	-0,074
-665,262	-200,000	-0,025	-0,093
-664,247	355,924	0,056	-0,083
-663,232	171,800	-0,117	-0,125
-662,218	25,821	-0,082	0,051
-661,203	-200,000	0,005	-0,063
-660,189	591,017	-0,027	-0,050
-659,174	240,456	-0,149	-0,185
-658,159	-140,311	-0,139	-0,011
-657,145	-63,858	-0,079	0,024
-656,130	64,302	-0,104	-0,077
-655,116	-187,860	-0,045	0,000
-654,101	-200,000	-0,003	0,022
-653,086	-200,000	0,032	0,135
-652,072	172,382	0,072	-0,076
-651,057	62,572	-0,033	0,024
-650,043	-136,805	0,100	0,008
-649,028	82,406	0,098	-0,079
-648,014	-108,272	-0,046	0,007
-646,999	-200,000	0,009	0,179
-645,984	-69,188	0,047	0,013
-644,970	362,811	0,031	0,046
-643,955	169,784	-0,143	-0,151
-642,941	-153,205	0,146	-0,007
-641,926	-200,000	-0,001	0,062
-640,911	259,216	0,061	-0,078
-639,897	-11,616	-0,108	-0,053
-638,882	-200,000	-0,018	-0,062
-637,868	800,000	0,038	-0,099
-636,853	-200,000	0,020	-0,105
-635,838	484,988	-0,023	0,039
-634,824	800,000	-0,010	0,031
-633,809	-200,000	-0,007	0,042
-632,795	800,000	-0,026	0,064
-631,780	800,000	-0,004	-0,013
-630,765	-200,000	-0,007	0,036
-629,751	35,296	-0,018	-0,011
-628,736	300,752	-0,122	-0,168
-627,722	-106,150	0,040	-0,007
-626,707	-3,975	0,077	-0,039
-625,692	-200,000	-0,005	-0,054
-624,678	-83,947	0,166	0,039
-623,663	-126,738	0,028	0,003
-622,649	800,000	-0,022	0,047
-621,634	238,118	-0,121	-0,149
-620,619	800,000	-0,044	-0,094
-619,605	53,495	-0,054	0,038
-618,590	-8,844	0,135	0,067
-617,576	-112,002	0,048	-0,007
-616,561	75,167	0,084	-0,066
-615,546	-51,473	-0,060	-0,021
-614,532	582,570	-0,039	0,071
-613,517	800,000	-0,028	0,076
-612,503	-97,214	0,147	0,028
-611,488	105,143	-0,035	-0,030
-610,474	-167,945	0,019	-0,001
-609,459	372,125	0,071	-0,107
-608,444	26,931	-0,062	0,039
-607,430	54,409	-0,048	-0,034
-606,415	-42,615	-0,028	0,011
-605,401	-152,245	-0,188	0,010
-604,386	-200,000	-0,010	0,081
-603,371	45,470	0,078	0,053
-602,357	-200,000	-0,014	-0,067
-601,342	-200,000	-0,010	-0,126
-600,328	431,676	0,027	-0,044
-599,313	-131,022	-0,056	-0,005
-598,298	-28,790	0,036	-0,015
-597,284	-36,610	0,115	0,045
-596,269	-92,295	0,082	0,017
-595,255	-92,740	-0,134	0,028
-594,240	-87,187	0,053	-0,012
-593,225	302,159	0,024	-0,034
-592,211	200,149	-0,107	-0,122
-591,196	494,681	0,059	-0,101
-590,182	369,223	-0,066	-0,100
-589,167	195,995	-0,087	-0,098
-588,152	-53,097	0,064	-0,021
-587,138	-200,000	-0,002	-0,050
-586,123	96,962	-0,103	0,087
-585,109	-155,541	0,026	-0,001
-584,094	270,247	0,113	-0,147
-583,079	97,238	0,090	0,076
-582,065	-78,462	-0,120	0,030
-581,050	-78,515	-0,061	0,015
-580,036	213,497	-0,076	-0,089
-579,021	-200,000	0,045	-0,161
-578,006	-200,000	-0,029	-0,124
-576,992	-127,674	-0,079	-0,008
-575,977	-200,000	0,033	-0,132
-574,963	195,595	0,061	0,069
-573,948	800,000	0,026	0,057
-572,934	-142,109	-0,074	0,005
-571,919	37,454	-0,125	-0,082
-570,904	-200,000	0,021	-0,159
-569,890	800,000	0,026	0,057
-568,875	-200,000	-0,006	0,085
-567,861	-200,000	0,000	0,113
-566,846	129,125	0,053	0,050
-565,831	134,403	-0,122	-0,117
-564,817	-200,000	-0,003	0,082
-563,802	44,841	-0,134	0,091
-562,788	236,376	-0,026	0,032
-561,773	56,565	0,094	0,067
-560,758	-41,494	0,135	0,051
-559,744	32,698	-0,102	-0,065
-558,729	800,000	0,034	0,073
-557,715	-36,142	0,041	-0,016
-556,700	-200,000	0,014	-0,099
-555,685	-136,202	-0,060	-0,005
-554,671	733,045	0,029	0,058
-553,656	78,590	0,081	-0,064
-552,642	645,484	-0,102	0,193
-551,627	-20,354	0,116	0,052
-550,612	-124,138	0,108	0,012
-549,598	214,472	0,062	-0,073
-548,583	-200,000	-0,021	-0,129
-547,569	323,323	0,057	-0,081
-546,554	422,881	0,073	0,117
-545,539	800,000	-0,013	0,027
-544,525	34,521	0,013	0,008
-543,510	800,000	0,022	-0,051
-542,496	-26,684	-0,137	-0,059
-541,481	-59,911	-0,032	0,010
-540,466	-72,331	0,046	0,012
-539,452	-200,000	0,006	0,079
-538,437	16,220	0,077	0,045
-537,423	-200,000	0,030	0,111
-536,408	800,000	0,024	-0,078
-535,393	55,947	0,060	-0,043
-534,379	-200,000	-0,002	-0,078
-533,364	800,000	0,016	-0,034
-532,350	386,541	-0,058	0,089
-531,335	154,828	-0,027	-0,028
-530,321	-200,000	-0,004	0,147
-529,306	-200,000	0,022	-0,111
-528,291	445,580	0,080	-0,130
-527,277	281,480	-0,138	-0,183
-526,262	800,000	0,009	-0,020
-525,248	800,000	-0,033	0,075
-524,233	334,619	0,053	0,076
-523,218	212,604	0,120	0,140
-522,204	-105,581	0,153	-0,025
-521,189	-200,000	0,009	-0,058
-520,175	-10,092	0,054	-0,026
-519,160	800,000	0,023	-0,046
-518,145	-200,000	-0,001	-0,042
-517,131	-200,000	-0,018	-0,092
-516,116	-200,000	0,140	0,000
-515,102	-8,127	-0,131	0,065
-514,087	51,054	-0,061	0,043
-513,072	-200,000	0,012	-0,070
-512,058	-136,269	0,058	0,005
-511,043	93,756	-0,055	0,046
-510,029	-200,000	0,012	0,096
-509,014	121,903	0,107	-0,099
-507,999	800,000	-0,043	0,092
-506,985	5,252	-0,048	0,026
-505,970	-59,584	-0,103	0,032
-504,956	-12,271	-0,083	-0,040
-503,941	318,536	0,083	0,116
-502,926	-17,726	0,151	0,069
-501,912	-200,000	-0,002	0,019
-500,897	109,315	0,122	-0,108
-499,883	800,000	-0,054	0,116
-498,868	-200,000	-0,005	0,107
-497,853	-44,460	0,029	-0,011
-496,839	1,996	0,089	-0,047
-495,824	-20,540	0,026	0,012
-494,810	-102,699	-0,120	-0,021
-493,795	800,000	0,006	-0,017
-492,781	429,097	-0,060	-0,097
-491,766	-200,000	0,011	-0,067
-490,751	-67,319	-0,087	0,025
-489,737	-200,000	-0,007	0,086
-488,722	-200,000	0,011	0,183
-487,708	585,393	-0,032	0,058
-486,693	-200,000	-0,008	0,088
-485,678	145,720	-0,042	-0,042
-484,664	70,668	-0,091	-0,069
-483,649	358,860	0,042	-0,062
-482,635	-200,000	0,023	-0,085
-481,620	-73,217	0,102	-0,027
-480,605	291,304	0,089	0,120
-479,591	-200,000	0,010	0,070
-478,576	6,000	-0,055	0,030
-477,562	479,482	0,044	-0,074
-476,547	-117,053	-0,085	-0,011
-475,532	-149,510	0,067	0,004
-474,518	-143,009	0,051	-0,004
-473,503	-200,000	0,006	-0,108
-472,489	-200,000	-0,100	-0,000
-471,474	-96,036	0,150	0,029
-470,459	-152,596	-0,090	-0,005
-469,445	-111,729	-0,062	-0,009
-468,430	432,136	-0,014	0,022
-467,416	103,018	0,046	0,040
-466,401	673,367	-0,043	0,083
-465,386	124,103	0,143	0,132
-464,372	800,000	-0,018	-0,038
-463,357	-85,911	-0,103	-0,023
-462,343	141,258	0,050	-0,049
-461,328	178,389	-0,073	-0,078
-460,313	-200,000	0,023	-0,106
-459,299	226,955	0,070	0,084
-458,284	-200,000	0,034	0,202
-457,270	365,516	-0,106	0,157
-456,255	-127,394	0,014	-0,002
-455,241	800,000	-0,009	0,028
-454,226	631,256	0,020	0,037
-453,211	252,029	0,046	-0,057
-452,197	115,297	0,088	0,079
-451,182	25,947	-0,129	0,079
-450,168	-28,079	0,023	0,010
-449,153	-80,504	-0,040	-0,010
-448,138	-40,962	-0,161	0,061
-447,124	169,435	0,022	0,023
-446,109	498,222	0,043	0,072
-445,095	197,635	0,014	-0,016
-444,080	178,710	-0,032	-0,035
-443,065	-41,804	0,116	0,044
-442,051	-97,682	0,017	-0,003
-441,036	663,324	0,024	0,045
-440,022	-132,880	0,103	0,009
-439,007	447,176	0,084	-0,136
-437,992	-200,000	0,000	-0,055
-436,978	645,091	-0,022	0,041
-435,963	-22,763	-0,057	0,025
-434,949	-45,819	-0,112	-0,040
-433,934	276,226	0,038	0,049
-432,919	-200,000	0,013	-0,071
-431,905	-200,000	-0,006	-0,043
-430,890	-200,000	0,003	0,010
-429,876	800,000	0,023	0,064
-428,861	557,613	0,029	0,052
-427,846	-181,717	-0,148	0,002
-426,832	-74,464	0,098	0,026
-425,817	-81,864	-0,118	-0,028
-424,803	-111,193	-0,103	-0,015
-423,788	-200,000	0,006	-0,026
-422,773	-5,633	0,011	-0,006
-421,759	751,292	-0,024	0,049
-420,744	-200,000	0,038	-0,190
-419,730	70,755	-0,017	0,013
-418,715	-4,597	0,067	0,034
-417,701	800,000	-0,058	0,126
-416,686	126,912	0,036	0,033
-415,671	800,000	0,027	0,061
-414,657	-94,380	0,161	-0,032
-413,642	800,000	-0,002	0,005
-412,628	79,412	-0,035	0,027
-411,613	-28,692	-0,113	-0,048
-410,598	800,000	0,032	-0,087
-409,584	-75,460	0,067	0,017
-408,569	800,000	0,039	-0,100
-407,555	-200,000	0,005	-0,029
-406,540	410,126	-0,006	-0,009
-405,525	82,294	-0,023	0,019
-404,511	-200,000	-0,021	-0,102
-403,496	80,557	-0,047	0,037
-402,482	59,105	-0,041	0,030
-401,467	-95,220	-0,053	0,010
-400,452	386,675	0,029	0,045
-399,438	325,579	0,128	0,181
-398,423	-200,000	0,019	-0,081
-397,409	422,209	-0,055	-0,086
-396,394	-200,000	0,007	-0,223
-395,379	495,743	-0,046	0,078
-394,365	-55,316	0,100	-0,033
-393,350	1,526	0,091	-0,048
-392,336	404,299	0,052	0,081
-391,321	201,527	-0,041	-0,046
-390,306	-35,877	-0,049	0,019
-389,292	222,665	-0,092	0,109
-388,277	-99,748	0,065	0,012
-387,263	172,456	-0,088	0,093
-386,248	141,755	0,026	0,025
-385,233	113,421	-0,101	-0,090
-384,219	-200,000	-0,040	0,139
-383,204	-200,000	-0,026	-0,094
-382,190	176,789	0,088	-0,094
-381,175	-200,000	0,015	0,132
-380,160	-200,000	0,005	0,025
-379,146	414,686	-0,035	0,055
-378,131	-49,200	0,030	0,011
-377,117	-200,000	0,015	-0,052
-376,102	289,104	-0,098	-0,131
-375,088	-45,235	0,104	-0,038
-374,073	-61,168	0,015	0,005
-373,058	800,000	-0,019	-0,053
-372,044	-59,450	0,077	0,024
-371,029	-89,926	0,052	0,011
-370,015	102,577	0,121	-0,104
-369,000	-66,355	-0,201	-0,058
-367,985	-200,000	0,020	-0,134
-366,971	398,245	-0,048	-0,074
-365,956	800,000	-0,020	-0,061
-364,942	-36,981	0,166	-0,065
-363,927	22,219	-0,134	0,080
-362,912	346,061	0,031	-0,044
-361,898	-200,000	0,008	-0,060
-360,883	400,205	0,046	-0,071
-359,869	-200,000	0,009	0,032
-358,854	-102,705	0,075	0,013
-357,839	38,631	0,093	0,060
-356,825	672,286	-0,030	-0,058
-355,810	99,175	-0,107	0,090
-354,796	-200,000	0,015	-0,064
-353,781	800,000	0,028	-0,074
-352,766	161,991	-0,058	-0,059
-351,752	-183,610	0,041	0,001
-350,737	118,996	0,054	0,049
-349,723	681,781	0,035	0,068
-348,708	-200,000	-0,018	0,208
-347,693	-101,472	-0,165	-0,029
-346,679	800,000	0,009	0,027
-345,664	-15,882	-0,093	-0,043
-344,650	-128,375	-0,057	-0,006
-343,635	-107,118	-0,074	-0,012
-342,620	74,544	0,104	-0,080
-341,606	-200,000	0,012	0,055
-340,591	173,819	-0,055	-0,058
-339,577	-142,260	-0,135	-0,010
-338,562	13,391	-0,059	-0,033
-337,548	-200,000	0,018	-0,072
-336,533	-200,000	0,018	-0,106
-335,518	-200,000	0,013	0,118
-334,504	93,022	-0,050	0,042
-333,489	800,000	-0,040	-0,096
-332,475	800,000	0,022	-0,063
-331,460	-21,490	0,107	0,047
-330,445	800,000	-0,032	0,083
-329,431	683,724	0,017	-0,033
-328,416	-50,072	0,121	-0,042
-327,402	-123,417	-0,073	0,008
-326,387	-99,952	-0,096	-0,017
-325,372	-200,000	0,015	-0,112
-324,358	-170,157	-0,022	-0,001
-323,343	800,000	-0,012	-0,030
-322,329	-25,923	0,109	0,047
-321,314	-200,000	0,013	0,094
-320,299	800,000	0,029	-0,079
-319,285	-163,357	0,068	0,002
-318,270	158,795	0,025	-0,026
-317,256	-174,837	0,041	0,001
-316,241	-200,000	-0,030	0,120
-315,226	800,000	-0,054	0,145
-314,212	-200,000	0,016	0,072
-313,197	-115,643	0,183	0,025
-312,183	613,684	0,017	0,032
-311,168	-200,000	0,002	0,151
-310,153	88,147	0,103	-0,084
-309,139	-69,675	-0,035	-0,010
-308,124	-165,093	0,197	-0,006
-307,110	423,524	0,014	0,023
-306,095	222,788	-0,027	-0,032
-305,080	174,834	-0,036	0,038
-304,066	-193,954	0,038	-0,000
-303,051	-129,032	-0,048	0,005
-302,037	800,000	0,036	0,105
-301,022	454,263	0,053	0,087
-300,008	461,207	-0,024	0,040
-298,993	800,000	-0,026	-0,084
-297,978	214,274	-0,069	0,080
-296,964	-47,475	0,011	0,004
-295,949	334,721	-0,103	-0,146
-294,935	112,638	-0,092	-0,082
-293,920	800,000	-0,050	-0,114
-292,905	-55,992	-0,188	0,061
-291,891	-200,000	0,013	0,072
-290,876	218,763	-0,037	0,044
-289,862	-200,000	-0,014	0,053
-288,847	125,971	-0,086	0,080
-287,832	-200,000	-0,007	-0,084
-286,818	385,060	-0,022	-0,033
-285,803	800,000	-0,013	0,032
-284,789	267,372	0,074	0,095
-283,774	-54,034	-0,090	0,030
-282,759	-200,000	0,001	-0,059
-281,745	39,546	-0,107	0,070
-280,730	54,364	-0,087	0,061
-279,716	-200,000	0,004	0,075
-278,701	800,000	0,015	0,038
-277,686	800,000	0,048	-0,108
-276,672	162,018	0,044	-0,045
-275,657	-200,000	0,007	-0,109
-274,643	-200,000	-0,017	0,137
-273,628	131,415	-0,116	-0,109
-272,613	-200,000	-0,005	-0,058
-271,599	54,710	0,129	0,091
-270,584	259,825	0,128	0,162
-269,570	-200,000	0,006	0,121
-268,555	-112,610	-0,030	-0,004
-267,540	-200,000	-0,013	-0,117
-266,526	298,341	0,022	-0,030
-265,511	-55,078	0,015	-0,005
-264,497	-200,000	0,042	-0,164
-263,482	-62,738	0,105	-0,032
-262,467	202,191	-0,129	0,146
-261,453	-200,000	0,013	-0,136
-260,438	-6,054	-0,052	-0,026
-259,424	-76,079	-0,237	-0,061
-258,409	361,420	-0,072	-0,106
-257,395	-200,000	0,010	-0,098
-256,380	800,000	-0,061	0,129
-255,365	-48,420	0,057	0,020
-254,351	-120,420	-0,105	-0,013
-253,336	-30,486	-0,014	-0,006
-252,322	385,406	0,075	-0,113
-251,307	-200,000	-0,004	-0,184
-250,292	-200,000	-0,005	-0,020
-249,278	800,000	0,033	0,085
-248,263	-61,214	-0,047	-0,014
-247,249	-161,771	-0,053	-0,002
-246,234	790,755	0,046	-0,093
-245,219	-200,000	0,049	-0,000
-244,205	70,390	-0,008	0,006
-243,190	233,170	0,112	0,135
-242,176	-104,310	0,090	-0,015
-241,161	-69,608	0,075	0,021
-240,146	-26,389	-0,079	0,034
-239,132	-200,000	-0,003	-0,043
-238,117	800,000	-0,035	-0,077
-237,103	37,004	0,050	0,032
-236,088	59,771	0,076	-0,055
-235,073	800,000	0,048	0,145
-234,059	800,000	0,047	0,118
-233,044	-200,000	0,010	0,057
-232,030	-167,636	0,067	0,002
-231,015	800,000	-0,025	-0,068
-230,000	164,752	-0,168	-0,174
-228,986	582,700	0,064	-0,116
-227,971	68,262	0,028	0,021
-226,957	-200,000	0,002	0,113
-225,942	239,862	-0,070	0,085
-224,927	800,000	0,029	-0,069
-223,913	-200,000	0,002	-0,027
-222,898	91,584	-0,096	-0,079
-221,884	-200,000	0,050	-0,257
-220,869	113,471	-0,010	-0,008
-219,855	800,000	-0,021	0,055
-218,840	368,124	0,107	0,159
-217,825	-129,601	-0,097	-0,010
-216,811	800,000	0,033	-0,084
-215,796	-200,000	-0,004	-0,128
-214,782	-200,000	-0,025	-0,125
-213,767	472,928	-0,066	0,109
-212,752	276,887	0,092	0,120
-211,738	-86,023	-0,226	0,051
-210,723	9,933	0,056	0,031
-209,709	-200,000	0,007	-0,036
-208,694	-200,000	-0,005	0,053
-207,679	-165,362	0,073	-0,002
-206,665	18,102	0,090	0,052
-205,650	256,652	0,049	0,062
-204,636	-46,946	-0,086	-0,031
-203,621	-36,770	-0,113	-0,044
-202,606	-64,959	-0,041	0,012
-201,592	-150,737	-0,113	-0,006
-200,577	-73,916	0,040	0,011
-199,563	97,329	-0,130	0,109
-198,548	-200,000	0,003	-0,074
-197,533	51,433	0,076	0,053
-196,519	800,000	0,023	0,067
-195,504	-101,013	0,109	-0,019
-194,490	171,167	-0,093	0,098
-193,475	800,000	0,028	0,076
-192,460	-47,115	0,049	-0,017
-191,446	89,819	0,102	-0,083
-190,431	-200,000	0,006	0,167
-189,417	800,000	-0,029	0,063
-188,402	-17,240	-0,147	0,067
-187,387	77,278	-0,121	0,094
-186,373	-200,000	0,013	0,062
-185,358	39,228	0,076	0,050
-184,344	508,726	0,020	0,034
-183,329	195,050	-0,072	-0,080
-182,315	-200,000	0,016	-0,065
-181,300	73,399	0,081	0,062
-180,285	-28,668	-0,143	0,059
-179,271	311,609	0,056	0,076
-178,256	14,082	0,088	-0,050
-177,242	304,451	-0,028	0,038
-176,227	-200,000	0,015	0,060
-175,212	41,988	-0,065	-0,043
-174,198	-117,714	0,100	-0,013
-173,183	385,989	0,052	0,078
-172,169	-200,000	-0,006	0,024
-171,154	-200,000	-0,017	-0,071
-170,139	154,695	-0,105	0,106
-169,125	-171,356	0,033	-0,001
-168,110	-42,376	-0,068	0,025
-167,096	15,798	0,078	0,045
-166,081	600,548	-0,063	0,114
-165,066	89,477	0,023	0,019
-164,052	67,928	-0,054	0,040
-163,037	105,586	0,096	0,083
-162,023	800,000	0,057	0,155
-161,008	-200,000	0,011	0,049
-159,993	800,000	0,049	0,102
-158,979	-174,263	-0,124	0,003
-157,964	-200,000	0,045	-0,206
-156,950	800,000	-0,025	-0,066
-155,935	165,751	-0,050	-0,051
-154,920	-36,804	0,028	0,011
-153,906	549,134	0,018	-0,032
-152,891	-200,000	-0,002	-0,159
-151,877	272,686	-0,051	0,066
-150,862	-200,000	0,002	0,075
-149,847	422,313	0,098	-0,154
-148,833	-200,000	0,024	0,117
-147,818	68,677	0,113	0,084
-146,804	800,000	0,012	-0,031
-145,789	65,454	0,136	0,100
-144,775	-200,000	0,010	-0,085
-143,760	232,197	0,052	0,062
-142,745	-184,733	-0,089	-0,001
-141,731	265,739	0,100	0,128
-140,716	73,648	0,036	-0,027
-139,702	153,576	0,028	0,028
-138,687	160,593	0,066	0,067
-137,672	-92,122	0,079	-0,016
-136,658	63,879	-0,073	-0,053
-135,643	800,000	0,013	-0,026
-134,629	108,399	-0,115	-0,099
-133,614	-82,568	0,119	0,028
-132,599	47,851	0,096	-0,065
-131,585	-106,682	-0,053	-0,009
-130,570	-63,335	0,092	0,027
-129,556	-200,000	-0,008	0,026
-128,541	158,653	-0,081	-0,082
-127,526	-181,078	0,190	0,003
-126,512	-200,000	0,006	-0,078
-125,497	-124,528	0,093	-0,010
-124,483	-200,000	-0,024	-0,169
-123,468	638,714	0,018	-0,034
-122,453	-75,967	0,182	0,046
-121,439	17,559	-0,059	-0,034
-120,424	-107,803	-0,144	0,023
-119,410	-200,000	-0,044	0,240
