DTS Sentinel unit serial number:	SN410029Multiplexer serial number:	ORYXHardware model number:	OX2-SRSoftware version number:	ORYX F/W v4,00 Oryx Data Collector v3.7.2.0data status	okinstallation	B4 Nyhavnadifferential loss correction	single-endedforward channel	channel 2reverse channel	N/Adate	2023/12/15time	16:40:13forward acquisition time	300,00reverse acquisition time	0,00gamma	499,1914k internal	0,3144k external	0,3144temperature offset calibration	1,0000default loss term (dB/km)	0,3820temperature slope calibration	1,0000multiplexer offset coefficient	1,0000multiplexer slope coefficient	1,0000fibre end	0,00T internal ref (°C)	17,66T ext. ref 1 (°C)	3,54T ext. ref 2 (°C)	3,69length (m)	temperature (°C)	Stokes	anti-Stokes-744,400	532,178	-0,057	0,100
-743,385	101,847	-0,131	0,113
-742,371	-200,000	0,007	0,128
-741,356	-100,412	-0,124	0,022
-740,342	-200,000	-0,004	-0,058
-739,327	213,196	-0,109	0,127
-738,312	800,000	-0,030	-0,084
-737,298	-69,245	-0,258	-0,073
-736,283	-21,461	0,088	-0,040
-735,269	-113,904	-0,182	0,026
-734,254	193,081	-0,078	0,087
-733,239	-62,730	-0,380	-0,116
-732,225	-138,953	0,215	-0,017
-731,210	-200,000	-0,016	0,096
-730,196	-200,000	0,000	-0,100
-729,181	-200,000	0,011	-0,049
-728,167	-200,000	-0,019	0,079
-727,152	-200,000	0,006	0,061
-726,137	405,588	-0,023	-0,036
-725,123	-200,000	-0,034	-0,123
-724,108	800,000	-0,086	-0,191
-723,094	-57,812	-0,123	-0,039
-722,079	234,768	-0,132	-0,161
-721,064	-35,616	0,038	-0,015
-720,050	432,240	0,107	0,172
-719,035	-200,000	0,012	0,044
-718,021	800,000	0,043	-0,134
-717,006	-200,000	-0,036	-0,141
-715,991	719,446	-0,066	-0,130
-714,977	800,000	-0,040	-0,118
-713,962	399,112	0,067	-0,104
-712,948	-200,000	-0,001	-0,057
-711,933	800,000	-0,048	0,147
-710,918	-200,000	0,002	0,101
-709,904	-200,000	0,034	-0,112
-708,889	800,000	-0,050	-0,136
-707,875	520,344	-0,070	-0,122
-706,860	133,721	-0,045	0,043
-705,845	-200,000	0,002	0,085
-704,831	-200,000	-0,015	-0,187
-703,816	100,044	0,094	-0,081
-702,802	-102,849	0,042	0,007
-701,787	-45,680	-0,026	-0,009
-700,772	-167,527	-0,030	-0,001
-699,758	-63,309	0,047	0,014
-698,743	224,347	0,031	0,037
-697,729	411,381	-0,023	-0,037
-696,714	-200,000	-0,003	-0,012
-695,699	-200,000	-0,006	-0,041
-694,685	800,000	-0,044	-0,131
-693,670	-71,624	-0,102	-0,028
-692,656	-187,447	-0,045	-0,000
-691,641	116,380	0,060	0,054
-690,627	-200,000	0,016	-0,139
-689,612	-134,419	0,185	-0,016
-688,597	249,964	0,082	-0,103
-687,583	96,997	-0,067	-0,057
-686,568	80,289	0,013	-0,010
-685,554	367,374	-0,070	-0,105
-684,539	-200,000	0,012	0,151
-683,524	-26,846	-0,032	0,014
-682,510	-16,006	0,039	-0,018
-681,495	94,871	0,046	-0,038
-680,481	-37,345	-0,119	0,047
-679,466	-84,516	-0,071	-0,016
-678,451	33,235	-0,074	-0,047
-677,437	33,880	0,053	0,034
-676,422	-24,870	0,042	-0,018
-675,408	-200,000	0,003	-0,014
-674,393	118,780	-0,075	0,068
-673,378	-94,610	-0,161	0,032
-672,364	-78,767	-0,042	-0,010
-671,349	-165,020	-0,126	-0,004
-670,335	175,638	-0,032	-0,034
-669,320	-142,538	-0,113	-0,008
-668,305	800,000	-0,057	0,144
-667,291	-135,734	-0,064	-0,005
-666,276	-178,174	0,171	-0,003
-665,262	302,463	-0,101	-0,138
-664,247	-7,048	-0,152	-0,076
-663,232	-200,000	0,008	-0,059
-662,218	-89,085	0,100	0,022
-661,203	21,087	0,168	-0,100
-660,189	184,265	-0,079	-0,087
-659,174	-152,767	-0,053	0,003
-658,159	800,000	-0,065	-0,162
-657,145	92,181	-0,081	-0,067
-656,130	-200,000	-0,003	-0,030
-655,116	-60,817	0,069	-0,022
-654,101	-79,537	0,128	0,032
-653,086	-45,066	-0,104	0,038
-652,072	-42,311	-0,093	-0,035
-651,057	-200,000	-0,016	-0,074
-650,043	474,483	-0,048	-0,081
-649,028	-200,000	-0,019	-0,139
-648,014	132,927	0,068	-0,065
-646,999	800,000	0,048	0,122
-645,984	-107,557	0,094	0,015
-644,970	-104,293	-0,114	0,019
-643,955	-200,000	0,009	-0,076
-642,941	-200,000	-0,034	-0,114
-641,926	-200,000	0,012	0,103
-640,911	-88,601	0,111	-0,024
-639,897	72,910	0,033	0,026
-638,882	-173,904	0,088	0,002
-637,868	-67,017	-0,084	-0,024
-636,853	800,000	-0,095	-0,232
-635,838	60,283	-0,035	-0,025
-634,824	561,973	-0,034	0,062
-633,809	-200,000	-0,016	-0,104
-632,795	44,686	0,061	-0,042
-631,780	800,000	-0,013	0,036
-630,765	-71,425	-0,079	-0,022
-629,751	401,917	-0,037	0,058
-628,736	-29,544	0,100	-0,042
-627,722	44,058	-0,147	-0,099
-626,707	-200,000	0,004	-0,127
-625,692	748,701	-0,058	-0,116
-624,678	156,906	-0,088	0,090
-623,663	154,696	0,049	-0,050
-622,649	-17,314	0,102	0,047
-621,634	-145,515	-0,048	-0,003
-620,619	-200,000	-0,008	-0,067
-619,605	81,450	0,033	0,026
-618,590	-200,000	0,013	-0,071
-617,576	-83,993	-0,070	0,016
-616,561	-69,620	-0,040	-0,011
-615,546	-35,909	-0,123	-0,049
-614,532	-32,089	-0,081	-0,033
-613,517	138,800	0,068	0,066
-612,503	51,313	0,032	-0,022
-611,488	-11,091	0,061	0,029
-610,474	133,603	0,064	-0,061
-609,459	251,764	0,080	0,101
-608,444	4,171	-0,187	-0,101
-607,430	179,947	-0,077	0,083
-606,415	-90,473	0,145	-0,031
-605,401	53,708	0,130	0,092
-604,386	131,672	-0,121	-0,114
-603,371	242,108	-0,067	0,082
-602,357	143,727	-0,078	0,076
-601,342	130,035	-0,021	-0,019
-600,328	-200,000	-0,011	-0,055
-599,313	466,891	-0,045	0,075
-598,298	-76,732	-0,119	-0,031
-597,284	-142,974	0,060	-0,004
-596,269	-14,047	0,123	0,058
-595,255	-200,000	-0,005	0,024
-594,240	800,000	-0,054	0,112
-593,225	19,915	-0,124	0,074
-592,211	-200,000	0,007	-0,092
-591,196	26,437	0,088	-0,054
-590,182	-101,684	-0,045	0,008
-589,167	-200,000	0,005	-0,162
-588,152	192,497	0,050	-0,056
-587,138	-200,000	-0,016	-0,108
-586,123	-106,344	-0,135	0,022
-585,109	158,422	-0,109	0,112
-584,094	-75,603	-0,038	-0,010
-583,079	-120,916	0,026	-0,003
-582,065	334,376	0,044	-0,063
-581,050	-200,000	0,033	0,187
-580,036	404,961	-0,032	-0,050
-579,021	189,065	0,016	-0,017
-578,006	-200,000	0,047	-0,180
-576,992	-200,000	0,019	0,134
-575,977	800,000	0,053	0,169
-574,963	800,000	-0,037	0,111
-573,948	-200,000	0,034	0,136
-572,934	7,797	0,116	0,064
-571,919	-127,491	-0,104	-0,011
-570,904	121,849	-0,096	-0,088
-569,890	519,904	0,019	0,034
-568,875	-200,000	0,022	0,109
-567,861	177,084	0,077	0,082
-566,846	757,526	-0,046	-0,092
-565,831	-114,667	-0,102	0,014
-564,817	-139,036	0,028	0,002
-563,802	-128,536	-0,097	-0,010
-562,788	3,757	0,134	-0,072
-561,773	-56,189	-0,098	-0,032
-560,758	800,000	-0,049	0,147
-559,744	125,464	-0,067	-0,062
-558,729	-16,686	0,158	0,073
-557,715	-0,587	-0,016	0,009
-556,700	800,000	-0,032	-0,073
-555,685	199,708	-0,035	0,039
-554,671	234,207	-0,017	-0,020
-553,656	800,000	-0,044	-0,114
-552,642	374,302	-0,011	0,017
-551,627	-8,835	0,070	0,034
-550,612	-3,017	0,038	-0,020
-549,598	800,000	0,058	-0,162
-548,583	-163,113	0,165	0,006
-547,569	-107,047	0,026	0,004
-546,554	211,448	-0,034	0,040
-545,539	347,270	0,096	0,140
-544,525	271,357	-0,046	-0,060
-543,510	109,940	-0,093	-0,082
-542,496	497,482	-0,058	-0,099
-541,481	591,997	0,007	0,013
-540,466	800,000	0,020	-0,065
-539,452	-200,000	0,012	0,109
-538,437	92,038	0,202	0,167
-537,423	-200,000	-0,103	-0,000
-536,408	128,274	-0,048	-0,045
-535,393	51,712	0,116	-0,081
-534,379	341,600	-0,047	-0,068
-533,364	85,229	0,010	0,008
-532,350	-200,000	0,023	-0,099
-531,335	25,146	-0,040	-0,024
-530,321	-28,766	-0,062	-0,026
-529,306	-26,829	-0,140	-0,060
-528,291	-81,808	-0,114	-0,027
-527,277	434,720	-0,039	0,062
-526,262	15,563	-0,083	0,048
-525,248	-70,058	0,146	-0,040
-524,233	800,000	0,014	-0,043
-523,218	-40,157	0,179	0,068
-522,204	-48,035	0,070	0,025
-521,189	-4,666	-0,055	-0,028
-520,175	-200,000	-0,038	-0,153
-519,160	568,359	0,029	-0,052
-518,145	-51,623	0,056	0,019
-517,131	-72,883	-0,147	-0,039
-516,116	800,000	0,029	0,074
-515,102	800,000	0,057	-0,155
-514,087	-200,000	-0,004	-0,110
-513,072	-113,182	-0,060	0,009
-512,058	-24,170	0,119	0,052
-511,043	14,965	0,079	0,045
-510,029	-70,144	-0,177	0,049
-509,014	-100,530	-0,037	-0,007
-507,999	800,000	-0,036	-0,115
-506,985	291,807	-0,083	-0,111
-505,970	401,907	0,053	-0,081
-504,956	800,000	-0,026	-0,074
-503,941	-114,208	0,084	-0,012
-502,926	-111,628	0,075	0,011
-501,912	-45,898	0,097	0,035
-500,897	-200,000	0,030	0,170
-499,883	63,180	-0,059	-0,043
-498,868	-200,000	0,002	-0,022
-497,853	-200,000	-0,005	0,078
-496,839	182,801	-0,039	0,042
-495,824	-103,915	-0,082	-0,014
-494,810	-127,785	0,052	0,005
-493,795	9,005	-0,115	0,063
-492,781	119,112	0,037	-0,033
-491,766	495,805	-0,032	-0,055
-490,751	-126,297	-0,116	-0,012
-489,737	189,472	0,042	0,046
-488,722	-200,000	0,014	-0,072
-487,708	544,895	-0,011	-0,019
-486,693	800,000	-0,038	0,086
-485,678	-40,991	-0,060	0,022
-484,664	472,971	0,042	0,069
-483,649	-200,000	-0,001	0,008
-482,635	-134,495	0,084	-0,007
-481,620	350,353	-0,071	-0,103
-480,605	47,839	0,128	0,088
-479,591	180,154	0,073	0,078
-478,576	-57,423	0,054	-0,017
-477,562	66,863	-0,090	-0,067
-476,547	800,000	-0,046	-0,099
-475,532	-27,079	-0,111	0,047
-474,518	800,000	-0,013	0,029
-473,503	-139,945	0,060	0,005
-472,489	8,472	-0,092	0,050
-471,474	364,485	-0,082	-0,121
-470,459	-16,588	0,137	0,063
-469,445	59,230	-0,067	-0,048
-468,430	-200,000	-0,029	0,172
-467,416	24,091	-0,030	0,018
-466,401	314,727	0,078	0,107
-465,386	-5,429	0,148	-0,074
-464,372	21,845	0,069	-0,041
-463,357	114,816	-0,074	-0,066
-462,343	203,179	0,039	0,044
-461,328	-200,000	0,010	0,044
-460,313	-200,000	0,007	0,126
-459,299	-113,247	0,121	0,017
-458,284	397,269	-0,028	0,042
-457,270	800,000	-0,030	-0,093
-456,255	124,269	0,123	0,113
-455,241	-200,000	-0,030	-0,123
-454,226	-97,663	-0,085	0,016
-453,211	-200,000	0,018	-0,090
-452,197	698,662	0,024	0,046
-451,182	513,399	0,019	0,033
-450,168	-62,006	-0,077	0,023
-449,153	51,281	0,089	0,062
-448,138	-102,357	-0,106	0,018
-447,124	-200,000	-0,040	-0,156
-446,109	-122,044	0,146	-0,017
-445,095	800,000	-0,014	0,041
-444,080	-121,986	0,045	0,005
-443,065	751,433	-0,056	0,111
-442,051	800,000	0,030	-0,084
-441,036	787,148	0,049	-0,099
-440,022	671,812	0,061	0,116
-439,007	65,505	0,095	0,070
-437,992	-92,355	-0,025	0,005
-436,978	-10,692	0,187	0,090
-435,963	66,051	0,017	0,012
-434,949	-159,517	0,033	0,001
-433,934	-200,000	-0,012	-0,081
-432,919	-151,970	0,189	0,010
-431,905	-200,000	0,008	0,030
-430,890	395,471	-0,081	-0,125
-429,876	55,217	0,046	-0,032
-428,861	157,560	0,073	-0,074
-427,846	47,601	-0,010	-0,007
-426,832	800,000	0,022	0,053
-425,817	395,645	-0,025	0,038
-424,803	265,169	-0,047	-0,060
-423,788	-63,766	-0,052	0,015
-422,773	107,798	-0,064	0,056
-421,759	231,552	0,017	0,021
-420,744	129,788	0,058	0,055
-419,730	41,925	-0,121	-0,080
-418,715	-11,362	0,016	-0,008
-417,701	700,106	0,012	-0,022
-416,686	-114,100	0,141	-0,020
-415,671	800,000	-0,010	-0,021
-414,657	-200,000	-0,015	0,066
-413,642	-141,457	0,232	0,017
-412,628	429,222	-0,041	0,064
-411,613	335,271	-0,077	0,109
-410,598	-59,706	0,039	-0,012
-409,584	-200,000	0,024	0,103
-408,569	5,883	0,066	0,036
-407,555	236,222	0,057	0,069
-406,540	-62,435	-0,057	-0,017
-405,525	-200,000	-0,002	-0,012
-404,511	800,000	-0,044	0,136
-403,496	-200,000	-0,005	-0,077
-402,482	-200,000	-0,017	-0,132
-401,467	800,000	0,027	0,069
-400,452	-200,000	-0,026	0,235
-399,438	275,617	-0,060	-0,078
-398,423	-200,000	-0,013	0,163
-397,409	471,690	0,044	-0,072
-396,394	-70,089	-0,098	0,027
-395,379	-67,831	-0,085	0,024
-394,365	-200,000	0,023	-0,078
-393,350	-46,175	0,131	0,047
-392,336	456,826	0,032	-0,052
-391,321	-82,127	-0,039	-0,009
-390,306	-200,000	-0,018	-0,073
-389,292	-10,721	0,069	-0,033
-388,277	-31,043	-0,128	-0,052
-387,263	349,944	0,081	0,117
-386,248	800,000	0,068	0,214
-385,233	-135,812	-0,118	0,010
-384,219	-92,735	-0,043	0,009
-383,204	-190,165	-0,092	-0,001
-382,190	85,901	-0,145	-0,117
-381,175	-200,000	0,003	-0,101
-380,160	-200,000	0,006	-0,021
-379,146	-171,482	0,042	0,001
-378,131	-46,919	-0,106	-0,038
-377,117	800,000	0,028	-0,087
-376,102	-200,000	0,027	0,092
-375,088	-21,857	-0,022	0,010
-374,073	445,807	0,056	0,091
-373,058	48,272	-0,035	0,024
-372,044	176,630	0,096	0,102
-371,029	424,779	0,058	-0,091
-370,015	-200,000	0,002	0,047
-369,000	62,877	-0,094	-0,069
-367,985	172,506	-0,051	-0,054
-366,971	-200,000	0,002	-0,026
-365,956	-31,822	-0,067	-0,027
-364,942	-200,000	0,005	0,149
-363,927	-200,000	0,023	0,084
-362,912	-86,455	0,141	-0,031
-361,898	470,533	-0,105	-0,174
-360,883	-200,000	0,009	-0,079
-359,869	-200,000	-0,001	-0,113
-358,854	-7,457	0,100	0,049
-357,839	800,000	0,041	-0,102
-356,825	354,212	0,094	0,137
-355,810	-35,949	-0,054	0,021
-354,796	-200,000	0,002	-0,008
-353,781	-86,001	0,034	-0,008
-352,766	-100,373	0,042	0,008
-351,752	205,817	-0,073	0,083
-350,737	-200,000	0,006	0,175
-349,723	-5,140	0,023	-0,011
-348,708	75,381	-0,103	0,079
-347,693	446,513	0,063	0,101
-346,679	267,190	-0,100	-0,127
-345,664	800,000	0,027	-0,073
-344,650	0,304	0,096	0,050
-343,635	118,277	-0,041	-0,036
-342,620	-13,357	-0,047	0,022
-341,606	336,668	0,050	0,071
-340,591	-19,756	0,094	-0,042
-339,577	712,760	-0,041	-0,079
-338,562	800,000	-0,030	-0,072
-337,548	-14,892	-0,080	0,037
-336,533	800,000	-0,017	0,044
-335,518	-33,459	0,046	-0,018
-334,504	800,000	-0,019	0,046
-333,489	-98,624	-0,132	-0,024
-332,475	64,777	-0,039	-0,029
-331,460	-40,529	-0,022	-0,008
-330,445	65,679	-0,031	-0,023
-329,431	-174,267	-0,110	-0,002
-328,416	448,142	0,058	0,093
-327,402	46,238	-0,076	0,051
-326,387	-73,189	-0,070	0,018
-325,372	55,848	-0,078	-0,055
-324,358	-200,000	-0,001	-0,028
-323,343	249,148	-0,030	-0,037
-322,329	68,793	-0,066	-0,049
-321,314	-200,000	-0,004	0,088
-320,299	-96,434	0,079	0,015
-319,285	21,586	0,032	-0,019
-318,270	152,441	-0,059	-0,059
-317,256	-142,517	-0,095	0,007
-316,241	-200,000	0,009	0,030
-315,226	-200,000	0,020	-0,101
-314,212	-45,221	0,020	-0,007
-313,197	-200,000	0,000	0,048
-312,183	-200,000	0,000	0,204
-311,168	304,729	-0,030	0,041
-310,153	308,000	0,028	-0,039
-309,139	158,999	-0,061	-0,062
-308,124	318,258	0,045	-0,062
-307,110	-89,533	0,083	0,018
-306,095	9,089	-0,093	-0,051
-305,080	800,000	0,037	0,098
-304,066	682,789	0,044	-0,084
-303,051	661,061	0,038	0,071
-302,037	14,134	-0,058	0,033
-301,022	-30,481	-0,071	-0,029
-300,008	115,327	-0,075	0,067
-298,993	127,592	-0,139	-0,128
-297,978	-59,059	0,114	-0,035
-296,964	364,514	-0,032	-0,047
-295,949	800,000	-0,026	-0,084
-294,935	-7,124	0,033	0,016
-293,920	-200,000	-0,007	0,067
-292,905	-173,547	0,061	0,001
-291,891	-200,000	0,035	0,192
-290,876	53,699	0,056	0,039
-289,862	-200,000	0,000	0,006
-288,847	144,764	-0,079	0,076
-287,832	137,055	-0,062	0,059
-286,818	461,114	-0,036	-0,059
-285,803	-200,000	0,002	-0,012
-284,789	695,452	-0,031	-0,060
-283,774	800,000	-0,017	0,047
-282,759	-169,884	0,114	0,003
-281,745	788,942	-0,045	-0,090
-280,730	248,947	0,144	-0,177
-279,716	124,846	0,060	-0,055
-278,701	97,375	0,047	0,039
-277,686	267,093	0,067	0,085
-276,672	-76,103	0,100	-0,025
-275,657	-6,733	0,045	0,022
-274,643	800,000	0,029	0,070
-273,628	-111,348	-0,137	-0,020
-272,613	-200,000	0,008	-0,093
-271,599	-200,000	-0,028	0,106
-270,584	66,745	0,123	0,091
-269,570	-16,544	0,013	-0,006
-268,555	44,875	-0,101	0,067
-267,540	277,671	0,072	-0,093
-266,526	-120,958	-0,069	0,008
-265,511	126,361	0,081	0,074
-264,497	93,201	0,063	0,052
-263,482	362,509	0,065	-0,096
-262,467	189,219	0,042	-0,046
-261,453	-200,000	-0,012	-0,104
-260,438	12,826	-0,037	0,021
-259,424	87,698	0,080	-0,064
-258,409	-89,717	0,102	-0,021
-257,395	-200,000	-0,001	-0,114
-256,380	519,544	0,034	-0,058
-255,365	-107,454	-0,126	0,020
-254,351	201,280	0,070	0,079
-253,336	8,653	-0,080	0,043
-252,322	800,000	0,064	0,184
-251,307	66,804	0,067	-0,049
-250,292	-27,291	0,111	0,047
-249,278	445,167	0,037	0,059
-248,263	-200,000	-0,018	0,080
-247,249	152,050	-0,124	0,123
-246,234	137,157	-0,062	-0,059
-245,219	100,610	-0,047	-0,040
-244,205	69,526	0,087	0,065
-243,190	179,415	0,052	0,055
-242,176	-200,000	-0,015	-0,110
-241,161	-200,000	-0,027	0,161
-240,146	-200,000	-0,004	0,284
-239,132	800,000	-0,065	0,139
-238,117	358,779	-0,067	-0,097
-237,103	800,000	-0,031	-0,065
-236,088	153,907	-0,075	-0,075
-235,073	-129,761	-0,086	-0,009
-234,059	1,076	0,065	0,034
-233,044	800,000	0,047	0,098
-232,030	800,000	-0,016	0,042
-231,015	-200,000	-0,014	-0,080
-230,000	739,451	-0,048	-0,093
-228,986	-108,326	0,039	-0,006
-227,971	-33,605	-0,049	-0,020
-226,957	-200,000	0,034	-0,193
-225,942	-29,136	0,105	-0,044
-224,927	254,657	-0,089	-0,111
-223,913	-200,000	0,029	-0,109
-222,898	134,988	-0,071	-0,067
-221,884	-184,127	0,110	-0,001
-220,869	-200,000	-0,007	-0,119
-219,855	28,487	-0,018	0,011
-218,840	-200,000	0,033	0,211
-217,825	126,811	0,031	0,028
-216,811	191,670	-0,136	0,149
-215,796	-104,954	-0,062	-0,010
-214,782	-70,464	-0,109	0,030
-213,767	-126,356	-0,103	-0,011
-212,752	-200,000	-0,004	0,098
-211,738	-200,000	0,001	0,029
-210,723	247,550	-0,106	0,130
-209,709	19,044	0,036	-0,021
-208,694	-200,000	0,009	-0,064
-207,679	597,730	-0,049	-0,089
-206,665	9,561	0,135	-0,074
-205,650	-87,776	0,151	0,033
-204,636	-14,037	0,124	0,058
-203,621	-200,000	0,001	-0,091
-202,606	-200,000	-0,018	-0,120
-201,592	-67,064	-0,059	0,017
-200,577	-39,172	0,083	-0,031
-199,563	800,000	-0,060	-0,123
-198,548	-200,000	0,029	-0,132
-197,533	-17,030	0,104	0,047
-196,519	18,754	0,088	-0,051
-195,504	86,795	-0,037	-0,029
-194,490	316,451	-0,016	0,021
-193,475	-1,003	-0,177	0,090
-192,460	-99,717	0,051	0,009
-191,446	-200,000	0,038	-0,157
-190,431	-200,000	0,021	0,073
-189,417	-200,000	-0,001	0,162
-188,402	800,000	-0,018	0,039
-187,387	-200,000	-0,000	0,065
-186,373	-8,857	0,070	0,034
-185,358	41,198	-0,046	0,030
-184,344	123,469	0,059	-0,053
-183,329	-88,258	0,107	0,023
-182,315	-84,314	-0,050	-0,011
-181,300	-140,453	0,039	-0,003
-180,285	8,010	-0,107	-0,058
-179,271	345,128	-0,050	-0,071
-178,256	-200,000	0,009	0,036
-177,242	81,632	0,043	-0,034
-176,227	165,413	-0,035	0,035
-175,212	-200,000	-0,007	-0,067
-174,198	-200,000	-0,029	0,099
-173,183	-200,000	-0,030	-0,153
-172,169	-74,181	0,074	0,019
-171,154	173,304	-0,051	-0,053
-170,139	-87,976	-0,014	-0,003
-169,125	-200,000	0,019	0,177
-168,110	14,996	-0,100	0,057
-167,096	-200,000	0,006	-0,031
-166,081	305,065	0,017	0,023
-165,066	-40,396	0,017	0,006
-164,052	431,195	0,043	-0,067
-163,037	-8,924	0,051	-0,025
-162,023	-200,000	0,033	-0,139
-161,008	73,016	-0,094	0,071
-159,993	-200,000	0,008	-0,090
-158,979	-200,000	-0,009	0,143
-157,964	155,361	0,056	-0,056
-156,950	42,311	-0,003	-0,002
-155,935	-152,808	-0,023	-0,001
-154,920	-200,000	0,010	-0,070
-153,906	694,489	0,019	0,037
-152,891	-1,143	0,155	0,079
-151,877	-100,094	0,144	-0,026
-150,862	193,156	-0,073	-0,080
-149,847	-111,897	-0,052	-0,008
-148,833	800,000	0,051	0,106
-147,818	-94,428	0,146	0,029
-146,804	-111,553	-0,101	-0,015
-145,789	-46,129	0,149	-0,053
-144,775	-58,611	-0,095	0,029
-143,760	55,250	-0,054	-0,037
-142,745	-50,055	0,053	-0,018
-141,731	17,234	-0,054	0,031
-140,716	45,528	0,074	-0,049
-139,702	-200,000	-0,015	-0,108
-138,687	29,987	0,121	0,075
-137,672	261,569	0,018	-0,023
-136,658	800,000	-0,084	-0,248
-135,643	493,556	0,028	0,047
-134,629	800,000	0,026	0,072
-133,614	73,053	-0,060	0,045
-132,599	-0,827	-0,032	0,016
-131,585	-37,451	-0,113	0,044
-130,570	800,000	0,051	0,106
-129,556	437,579	0,043	0,068
-128,541	-170,569	-0,101	-0,002
-127,526	-111,471	-0,042	0,006
-126,512	-200,000	-0,007	-0,026
-125,497	-26,532	0,141	-0,059
-124,483	22,206	0,092	-0,054
-123,468	-120,563	-0,070	0,008
-122,453	-16,657	0,113	-0,052
-121,439	712,234	0,020	-0,038
-120,424	-22,991	-0,069	-0,030
