DTS Sentinel unit serial number:	SN410029Multiplexer serial number:	ORYXHardware model number:	OX2-SRSoftware version number:	ORYX F/W v4,00 Oryx Data Collector v3.7.2.0data status	okinstallation	B4 Nyhavnadifferential loss correction	single-endedforward channel	channel 2reverse channel	N/Adate	2023/12/18time	19:20:13forward acquisition time	300,00reverse acquisition time	0,00gamma	499,1914k internal	0,3124k external	0,3124temperature offset calibration	1,0000default loss term (dB/km)	0,3820temperature slope calibration	1,0000multiplexer offset coefficient	1,0000multiplexer slope coefficient	1,0000fibre end	0,00T internal ref (°C)	21,87T ext. ref 1 (°C)	6,93T ext. ref 2 (°C)	6,97length (m)	temperature (°C)	Stokes	anti-Stokes-744,400	-200,000	-0,000	-0,170
-743,385	-170,478	-0,310	-0,008
-742,371	85,033	-0,004	0,004
-741,356	385,804	-0,135	0,209
-740,342	-4,340	0,053	0,027
-739,327	237,477	-0,217	0,268
-738,312	93,168	-0,103	-0,087
-737,298	-117,707	-0,242	-0,032
-736,283	322,151	-0,055	-0,079
-735,269	800,000	-0,097	0,229
-734,254	596,459	0,072	-0,134
-733,239	-66,381	-0,258	-0,076
-732,225	-200,000	0,023	-0,121
-731,210	-200,000	-0,031	0,171
-730,196	231,302	0,051	0,062
-729,181	800,000	0,112	0,270
-728,167	16,879	0,043	0,025
-727,152	376,221	0,044	-0,067
-726,137	635,750	0,050	0,095
-725,123	-35,410	-0,086	0,035
-724,108	-200,000	0,000	-0,037
-723,094	83,872	-0,124	-0,101
-722,079	-26,249	-0,176	-0,077
-721,064	-200,000	0,005	0,029
-720,050	285,179	-0,018	0,024
-719,035	-200,000	-0,026	-0,117
-718,021	-2,422	-0,157	0,082
-717,006	800,000	-0,065	-0,148
-715,991	-48,524	-0,111	0,039
-714,977	666,341	0,066	0,127
-713,962	5,743	-0,058	-0,032
-712,948	-143,143	0,063	0,004
-711,933	800,000	-0,008	-0,021
-710,918	-148,220	-0,145	0,009
-709,904	-114,989	-0,133	0,019
-708,889	-96,666	-0,187	-0,036
-707,875	140,332	-0,047	-0,046
-706,860	-127,264	-0,024	0,003
-705,845	-145,940	-0,121	0,008
-704,831	-173,258	0,034	0,001
-703,816	800,000	-0,021	0,047
-702,802	473,879	0,022	-0,037
-701,787	-4,739	0,041	-0,021
-700,772	13,733	-0,051	-0,029
-699,758	-200,000	-0,020	-0,091
-698,743	-200,000	0,000	-0,095
-697,729	257,661	0,150	0,193
-696,714	452,303	0,087	0,143
-695,699	-200,000	-0,005	0,061
-694,685	-150,870	-0,103	-0,006
-693,670	-93,992	-0,032	-0,006
-692,656	800,000	-0,044	-0,134
-691,641	407,109	0,041	-0,064
-690,627	800,000	0,033	0,090
-689,612	611,716	-0,033	0,061
-688,597	-200,000	0,002	0,044
-687,583	155,902	-0,148	0,152
-686,568	-200,000	0,057	-0,190
-685,554	-143,645	-0,067	0,005
-684,539	800,000	-0,023	0,071
-683,524	127,043	0,156	-0,147
-682,510	800,000	-0,070	0,155
-681,495	-140,599	-0,122	-0,009
-680,481	-200,000	0,003	-0,160
-679,466	-200,000	0,024	-0,091
-678,451	351,801	-0,088	-0,130
-677,437	-200,000	-0,026	-0,094
-676,422	110,500	-0,103	0,092
-675,408	493,931	-0,057	0,098
-674,393	-183,423	-0,086	-0,001
-673,378	-67,996	-0,069	-0,020
-672,364	-38,581	-0,024	-0,010
-671,349	58,692	-0,038	-0,028
-670,335	180,425	0,096	-0,105
-669,320	172,892	-0,065	0,070
-668,305	-200,000	0,020	0,111
-667,291	-77,205	0,055	-0,014
-666,276	-42,299	-0,172	-0,065
-665,262	-66,129	0,122	0,036
-664,247	291,104	-0,071	0,096
-663,232	121,747	-0,082	-0,076
-662,218	23,241	-0,067	-0,041
-661,203	-121,437	-0,066	0,008
-660,189	-200,000	0,014	-0,064
-659,174	3,380	-0,061	-0,033
-658,159	685,781	-0,033	0,064
-657,145	800,000	-0,013	-0,038
-656,130	-114,071	0,097	0,014
-655,116	14,678	0,046	0,026
-654,101	-117,192	-0,153	-0,020
-653,086	800,000	-0,019	-0,046
-652,072	-151,493	-0,175	-0,010
-651,057	-200,000	0,010	-0,044
-650,043	-82,396	-0,284	-0,068
-649,028	-200,000	-0,038	-0,133
-648,014	46,929	0,090	0,062
-646,999	428,558	0,039	0,063
-645,984	800,000	-0,038	-0,113
-644,970	-200,000	-0,025	-0,095
-643,955	310,856	-0,089	-0,124
-642,941	800,000	0,004	0,009
-641,926	-110,593	-0,046	0,007
-640,911	-143,424	0,100	0,007
-639,897	66,965	0,035	0,026
-638,882	-85,699	0,088	-0,020
-637,868	169,233	-0,025	-0,026
-636,853	166,144	-0,028	-0,029
-635,838	34,803	-0,022	0,015
-634,824	-77,050	0,071	0,018
-633,809	-150,112	-0,139	0,008
-632,795	-82,079	0,023	-0,006
-631,780	-93,793	0,054	-0,011
-630,765	800,000	-0,063	0,193
-629,751	-149,824	-0,098	0,006
-628,736	51,781	-0,084	0,059
-627,722	-81,809	0,146	0,035
-626,707	-55,550	0,040	-0,013
-625,692	-150,142	0,084	0,005
-624,678	-200,000	0,030	-0,162
-623,663	-200,000	-0,004	-0,035
-622,649	114,229	-0,005	-0,005
-621,634	-200,000	-0,001	-0,013
-620,619	-90,552	0,102	0,022
-619,605	-85,966	-0,088	-0,020
-618,590	171,403	-0,022	0,024
-617,576	-200,000	0,000	-0,016
-616,561	346,291	-0,032	0,046
-615,546	112,686	-0,086	-0,077
-614,532	-200,000	0,027	-0,167
-613,517	-187,139	-0,066	-0,001
-612,503	-200,000	-0,010	-0,040
-611,488	-200,000	0,035	-0,125
-610,474	-200,000	0,000	0,046
-609,459	-19,819	0,029	0,013
-608,444	-82,532	-0,164	-0,039
-607,430	102,246	-0,025	-0,022
-606,415	-196,881	-0,114	0,001
-605,401	-143,664	-0,097	-0,007
-604,386	-179,882	-0,077	-0,001
-603,371	-200,000	-0,019	0,097
-602,357	-64,594	0,052	-0,016
-601,342	473,814	-0,014	0,024
-600,328	34,259	0,061	-0,040
-599,313	-200,000	0,004	0,033
-598,298	-200,000	-0,012	0,076
-597,284	800,000	0,026	0,056
-596,269	11,586	-0,098	0,056
-595,255	440,227	-0,072	0,116
-594,240	59,042	0,080	0,059
-593,225	-142,277	-0,099	0,007
-592,211	-93,807	-0,059	0,012
-591,196	141,086	0,031	0,031
-590,182	364,930	0,097	-0,145
-589,167	-18,481	0,053	0,025
-588,152	-101,633	-0,150	0,027
-587,138	-96,092	0,118	0,023
-586,123	134,463	-0,024	0,023
-585,109	-137,221	-0,156	0,013
-584,094	115,903	-0,109	-0,099
-583,079	-34,670	0,026	-0,010
-582,065	800,000	0,066	0,215
-581,050	-200,000	-0,006	0,150
-580,036	71,479	-0,042	0,032
-579,021	230,387	-0,061	-0,074
-578,006	800,000	-0,036	0,107
-576,992	-200,000	-0,010	0,125
-575,977	-62,343	-0,038	-0,012
-574,963	92,081	0,118	0,098
-573,948	228,882	0,055	0,067
-572,934	-122,368	-0,043	-0,005
-571,919	-200,000	-0,016	-0,097
-570,904	-200,000	0,032	-0,120
-569,890	-200,000	0,010	-0,118
-568,875	20,147	0,038	0,023
-567,861	611,370	0,040	0,075
-566,846	-200,000	0,003	0,053
-565,831	-200,000	-0,035	0,142
-564,817	270,662	0,086	-0,112
-563,802	-200,000	0,016	-0,185
-562,788	800,000	0,014	-0,034
-561,773	-12,111	0,142	0,069
-560,758	107,348	-0,073	0,064
-559,744	-130,874	0,034	-0,003
-558,729	-22,777	-0,062	0,028
-557,715	8,652	0,032	-0,018
-556,700	-200,000	-0,028	-0,111
-555,685	255,838	0,040	0,051
-554,671	-184,900	0,227	-0,003
-553,656	765,677	0,092	0,185
-552,642	-73,305	-0,047	-0,013
-551,627	-36,078	-0,122	-0,048
-550,612	-200,000	-0,043	-0,199
-549,598	-31,139	-0,090	-0,037
-548,583	800,000	-0,095	-0,201
-547,569	74,722	-0,042	-0,033
-546,554	236,653	0,082	-0,101
-545,539	80,934	-0,050	-0,040
-544,525	-200,000	0,006	-0,113
-543,510	147,479	-0,051	0,050
-542,496	800,000	-0,059	-0,147
-541,481	-16,813	-0,044	0,020
-540,466	-200,000	0,008	-0,029
-539,452	800,000	-0,016	0,043
-538,437	35,032	-0,122	0,079
-537,423	-74,089	-0,102	0,027
-536,408	-200,000	-0,018	-0,072
-535,393	321,424	0,083	-0,117
-534,379	93,718	0,042	-0,035
-533,364	-153,835	-0,032	0,002
-532,350	-200,000	-0,001	0,019
-531,335	-53,559	0,115	-0,039
-530,321	800,000	-0,003	0,010
-529,306	188,946	0,074	0,082
-528,291	-104,685	-0,028	-0,005
-527,277	49,655	-0,019	0,013
-526,262	-27,326	-0,127	-0,055
-525,248	463,940	0,024	-0,039
-524,233	305,135	0,032	-0,044
-523,218	-116,632	0,076	0,010
-522,204	800,000	0,029	0,069
-521,189	-108,302	-0,107	-0,017
-520,175	-126,233	-0,100	0,011
-519,160	-86,046	-0,155	0,035
-518,145	-200,000	0,035	0,205
-517,131	194,234	-0,040	-0,044
-516,116	-102,560	0,075	0,013
-515,102	30,201	-0,090	0,057
-514,087	148,036	0,058	-0,058
-513,072	-200,000	-0,047	-0,230
-512,058	-34,540	-0,039	-0,016
-511,043	-116,694	-0,073	-0,010
-510,029	-147,456	0,123	-0,008
-509,014	299,951	0,077	-0,106
-507,999	-200,000	-0,005	0,046
-506,985	800,000	-0,039	-0,121
-505,970	800,000	-0,022	-0,072
-504,956	-51,659	0,107	-0,037
-503,941	182,691	0,064	0,069
-502,926	399,608	0,103	0,160
-501,912	149,498	0,054	0,055
-500,897	-131,325	-0,081	-0,008
-499,883	60,014	0,087	-0,063
-498,868	-5,992	0,026	0,013
-497,853	-200,000	0,001	-0,013
-496,839	642,045	0,060	0,114
-495,824	-200,000	-0,007	0,047
-494,810	264,703	-0,056	-0,072
-493,795	341,982	-0,060	-0,086
-492,781	-8,660	0,072	0,035
-491,766	-113,470	-0,046	0,007
-490,751	91,776	-0,100	0,083
-489,737	-200,000	-0,014	-0,174
-488,722	-45,563	0,089	-0,033
-487,708	-169,734	0,017	-0,000
-486,693	35,925	0,050	0,032
-485,678	44,242	0,097	-0,065
-484,664	-68,601	-0,077	0,022
-483,649	-200,000	-0,010	-0,157
-482,635	-145,124	0,061	-0,004
-481,620	580,310	0,050	-0,090
-480,605	-9,566	0,068	-0,033
-479,591	18,079	-0,116	-0,068
-478,576	43,821	-0,065	0,044
-477,562	-65,794	0,043	-0,013
-476,547	10,105	0,121	-0,067
-475,532	800,000	0,082	-0,192
-474,518	198,168	-0,043	-0,049
-473,503	553,448	-0,050	0,089
-472,489	-32,361	0,093	-0,038
-471,474	-96,982	0,108	0,021
-470,459	-90,893	0,048	0,010
-469,445	-37,618	-0,108	0,042
-468,430	-71,593	-0,106	0,029
-467,416	196,191	0,020	-0,023
-466,401	-200,000	0,009	-0,091
-465,386	51,492	0,111	-0,077
-464,372	143,045	0,071	0,069
-463,357	-16,690	0,090	-0,042
-462,343	-200,000	-0,040	0,159
-461,328	148,993	-0,102	-0,101
-460,313	-73,854	0,031	0,008
-459,299	-60,178	0,138	0,043
-458,284	-100,807	0,099	0,018
-457,270	26,223	0,039	0,024
-456,255	-200,000	-0,027	0,095
-455,241	800,000	0,025	-0,079
-454,226	-110,951	-0,136	0,020
-453,211	-200,000	-0,000	0,040
-452,197	562,731	-0,024	0,043
-451,182	-200,000	0,031	0,127
-450,168	3,346	-0,077	-0,041
-449,153	800,000	0,021	0,057
-448,138	-133,145	-0,072	-0,007
-447,124	-61,974	-0,047	0,014
-446,109	-15,570	0,050	-0,023
-445,095	800,000	-0,038	-0,079
-444,080	-1,456	-0,070	0,036
-443,065	-200,000	0,023	0,122
-442,051	-3,457	-0,106	0,054
-441,036	-91,795	0,095	-0,020
-440,022	103,912	-0,087	0,075
-439,007	800,000	0,014	-0,041
-437,992	57,133	0,171	0,122
-436,978	800,000	0,075	0,196
-435,963	-68,244	0,056	-0,016
-434,949	-95,923	0,054	0,010
-433,934	-200,000	-0,006	-0,035
-432,919	391,462	0,043	0,066
-431,905	800,000	-0,020	0,053
-430,890	514,016	0,064	0,110
-429,876	312,779	-0,033	0,045
-428,861	-200,000	0,013	0,050
-427,846	800,000	0,040	0,105
-426,832	-115,009	0,106	0,015
-425,817	222,293	-0,033	-0,039
-424,803	296,726	0,081	-0,110
-423,788	193,974	0,082	-0,092
-422,773	653,126	0,068	0,128
-421,759	800,000	-0,070	0,162
-420,744	-32,929	-0,058	0,024
-419,730	320,647	0,062	-0,087
-418,715	263,470	-0,056	-0,072
-417,701	-200,000	-0,012	-0,058
-416,686	-5,887	-0,018	0,009
-415,671	-161,073	-0,123	0,005
-414,657	47,187	0,106	0,073
-413,642	176,326	0,089	0,095
-412,628	-156,294	-0,062	-0,003
-411,613	138,687	-0,008	0,008
-410,598	-53,770	-0,136	0,045
-409,584	525,324	-0,052	-0,091
-408,569	800,000	0,026	-0,055
-407,555	-93,451	-0,121	-0,024
-406,540	162,807	-0,038	-0,039
-405,525	177,761	0,051	0,055
-404,511	135,535	-0,079	-0,076
-403,496	-96,757	-0,034	-0,007
-402,482	-86,991	0,162	-0,036
-401,467	285,943	0,034	-0,046
-400,452	645,901	-0,087	0,164
-399,438	-200,000	-0,016	0,128
-398,423	-84,280	-0,022	0,005
-397,409	-95,204	-0,041	0,008
-396,394	149,328	-0,063	0,063
-395,379	-44,903	-0,122	-0,045
-394,365	-16,556	-0,037	0,017
-393,350	7,752	0,025	-0,014
-392,336	-142,131	-0,189	-0,014
-391,321	532,651	-0,068	-0,119
-390,306	242,885	0,063	0,078
-389,292	-200,000	-0,011	0,077
-388,277	-200,000	-0,005	-0,142
-387,263	800,000	-0,013	0,037
-386,248	643,674	-0,031	-0,058
-385,233	-118,629	-0,074	0,009
-384,219	788,869	0,056	0,114
-383,204	-98,740	0,073	-0,014
-382,190	212,137	-0,061	-0,071
-381,175	800,000	-0,029	-0,075
-380,160	85,508	0,028	-0,022
-379,146	195,042	-0,091	-0,102
-378,131	-121,570	0,102	-0,012
-377,117	24,297	0,055	0,034
-376,102	-34,731	-0,109	-0,044
-375,088	6,120	-0,077	-0,042
-374,073	-200,000	0,001	-0,182
-373,058	-137,564	0,059	0,005
-372,044	199,393	-0,088	0,100
-371,029	-200,000	0,020	0,073
-370,015	-200,000	0,027	-0,126
-369,000	94,815	-0,098	0,082
-367,985	-118,420	0,075	0,010
-366,971	21,091	-0,033	-0,020
-365,956	255,501	0,016	-0,021
-364,942	-177,314	0,146	-0,003
-363,927	-200,000	0,026	0,084
-362,912	190,894	0,013	-0,014
-361,898	800,000	-0,021	0,064
-360,883	582,214	-0,038	-0,068
-359,869	-200,000	0,001	0,047
-358,854	-200,000	-0,013	0,087
-357,839	99,728	-0,038	0,033
-356,825	-28,940	0,045	0,019
-355,810	654,502	0,007	0,014
-354,796	11,906	0,160	-0,090
-353,781	9,784	-0,030	0,017
-352,766	404,541	-0,026	-0,040
-351,752	-200,000	0,045	0,164
-350,737	-200,000	-0,021	-0,071
-349,723	-200,000	-0,003	0,087
-348,708	-200,000	0,002	-0,050
-347,693	4,614	-0,042	-0,022
-346,679	-170,625	-0,013	0,000
-345,664	800,000	0,004	-0,011
-344,650	463,630	0,027	-0,044
-343,635	-41,235	0,143	-0,054
-342,620	800,000	-0,005	-0,013
-341,606	-11,208	-0,043	0,021
-340,591	800,000	-0,048	0,109
-339,577	800,000	-0,003	0,008
-338,562	-128,688	-0,047	0,005
-337,548	800,000	-0,017	-0,039
-336,533	-135,826	0,142	-0,012
-335,518	20,503	0,013	-0,007
-334,504	-200,000	0,019	0,000
-333,489	146,930	0,046	-0,046
-332,475	-3,911	-0,019	-0,010
-331,460	132,469	-0,074	-0,070
-330,445	505,253	-0,060	-0,102
-329,431	-200,000	0,032	-0,120
-328,416	-103,884	-0,115	-0,019
-327,402	-200,000	0,004	0,017
-326,387	13,362	-0,062	-0,035
-325,372	284,044	-0,081	0,107
-324,358	724,552	-0,032	-0,063
-323,343	-33,560	0,076	0,030
-322,329	404,675	0,056	-0,087
-321,314	-67,584	0,140	0,040
-320,299	800,000	-0,051	0,118
-319,285	-200,000	-0,017	0,172
-318,270	-80,363	-0,116	-0,028
-317,256	-200,000	-0,001	-0,084
-316,241	-124,641	0,116	0,013
-315,226	-57,516	0,096	-0,031
-314,212	-19,724	-0,039	0,017
-313,197	23,272	-0,076	-0,045
-312,183	58,028	-0,011	0,008
-311,168	-42,726	-0,069	-0,026
-310,153	-200,000	0,017	0,087
-309,139	502,519	0,015	-0,025
-308,124	-95,889	0,093	0,018
-307,110	800,000	-0,068	-0,182
-306,095	87,620	-0,044	-0,035
-305,080	-126,388	-0,087	-0,009
-304,066	42,950	0,093	-0,062
-303,051	-200,000	-0,019	-0,101
-302,037	-1,260	0,047	-0,024
-301,022	-4,490	-0,104	0,053
-300,008	-64,370	0,158	0,047
-298,993	-91,221	0,063	-0,013
-297,978	-139,016	-0,101	-0,008
-296,964	-107,839	-0,101	0,016
-295,949	61,040	-0,098	-0,071
-294,935	75,241	-0,095	-0,073
-293,920	800,000	-0,055	0,120
-292,905	108,589	-0,036	0,032
-291,891	-200,000	0,001	0,015
-290,876	-200,000	0,007	0,030
-289,862	586,094	-0,034	-0,061
-288,847	416,202	-0,068	-0,106
-287,832	-200,000	-0,031	0,112
-286,818	112,635	0,100	0,089
-285,803	-113,347	0,134	0,019
-284,789	-200,000	0,025	0,117
-283,774	-200,000	-0,019	0,078
-282,759	546,006	0,012	0,021
-281,745	-200,000	-0,015	-0,103
-280,730	-77,103	-0,139	-0,035
-279,716	-200,000	0,008	-0,035
-278,701	-73,800	0,047	-0,012
-277,686	-73,776	0,126	0,033
-276,672	-62,702	-0,056	-0,017
-275,657	-186,081	-0,020	0,000
-274,643	468,435	0,022	-0,036
-273,628	296,234	0,056	-0,076
-272,613	-143,416	-0,088	-0,006
-271,599	161,859	0,054	-0,055
-270,584	-200,000	0,012	0,117
-269,570	-96,216	0,183	-0,035
-268,555	84,693	-0,100	0,080
-267,540	-200,000	-0,010	-0,031
-266,526	-146,514	-0,038	0,002
-265,511	5,469	0,025	-0,013
-264,497	445,386	0,055	0,089
-263,482	-200,000	-0,008	0,170
-262,467	441,937	0,104	0,166
-261,453	-6,179	-0,061	-0,030
-260,438	-200,000	0,006	0,052
-259,424	-46,559	-0,079	0,028
-258,409	153,137	-0,062	0,062
-257,395	356,561	0,080	0,117
-256,380	57,829	0,025	0,018
-255,365	124,822	0,077	-0,071
-254,351	-85,513	0,083	0,019
-253,336	152,015	-0,081	0,081
-252,322	21,688	-0,105	0,062
-251,307	800,000	-0,004	0,011
-250,292	-59,235	0,035	-0,011
-249,278	-17,156	0,114	-0,052
-248,263	-200,000	-0,017	0,056
-247,249	152,612	0,053	-0,053
-246,234	-23,934	0,092	-0,040
-245,219	-133,076	0,094	0,009
-244,205	-14,497	-0,083	0,039
-243,190	513,914	-0,035	-0,060
-242,176	-4,545	0,074	0,037
-241,161	129,124	0,044	0,041
-240,146	-200,000	0,024	-0,099
-239,132	150,936	-0,086	-0,085
-238,117	-200,000	0,017	-0,133
-237,103	-200,000	-0,009	0,035
-236,088	8,764	0,050	0,027
-235,073	58,332	-0,083	0,059
-234,059	-200,000	-0,010	0,042
-233,044	129,986	0,059	0,055
-232,030	-200,000	-0,051	0,181
-231,015	-132,263	-0,161	0,015
-230,000	79,486	0,086	0,068
-228,986	-200,000	-0,043	0,166
-227,971	-97,263	0,209	-0,039
-226,957	-200,000	0,008	-0,053
-225,942	800,000	-0,071	0,147
-224,927	-200,000	0,035	0,175
-223,913	182,032	-0,091	-0,098
-222,898	800,000	0,042	-0,087
-221,884	207,910	0,044	0,051
-220,869	183,809	-0,111	-0,120
-219,855	167,083	-0,068	0,071
-218,840	38,279	0,155	0,101
-217,825	20,045	0,070	-0,041
-216,811	-16,688	0,119	0,055
-215,796	-97,541	-0,052	-0,010
-214,782	333,011	-0,037	-0,052
-213,767	704,936	-0,034	0,066
-212,752	140,607	-0,035	0,034
-211,738	47,617	0,105	0,072
-210,723	-200,000	-0,010	-0,067
-209,709	-200,000	-0,002	-0,026
-208,694	-106,130	-0,046	-0,007
-207,679	800,000	-0,028	-0,088
-206,665	-108,198	0,214	0,033
-205,650	89,691	0,080	0,065
-204,636	62,957	-0,070	-0,051
-203,621	159,201	0,099	0,101
-202,606	-200,000	-0,015	0,102
-201,592	160,994	-0,062	-0,064
-200,577	79,976	-0,078	-0,061
-199,563	174,401	-0,067	-0,071
-198,548	800,000	0,040	0,097
-197,533	-94,708	-0,084	-0,017
-196,519	548,413	-0,063	-0,110
-195,504	350,724	0,071	-0,103
-194,490	465,844	0,003	0,005
-193,475	2,935	-0,045	0,024
-192,460	165,436	0,073	0,075
-191,446	110,967	-0,038	0,033
-190,431	-188,923	-0,114	-0,001
-189,417	-15,273	-0,125	0,058
-188,402	-200,000	0,023	0,092
-187,387	800,000	-0,031	-0,094
-186,373	-200,000	0,014	-0,151
-185,358	170,719	0,088	0,092
-184,344	-135,598	0,099	-0,008
-183,329	-200,000	0,027	0,120
-182,315	35,060	-0,026	-0,016
-181,300	-161,116	-0,078	0,003
-180,285	456,754	0,052	-0,084
-179,271	-81,521	-0,034	0,008
-178,256	-150,313	0,037	-0,002
-177,242	19,162	0,056	0,033
-176,227	-200,000	0,007	-0,113
-175,212	-48,746	0,089	0,031
-174,198	92,583	0,106	-0,087
-173,183	72,463	-0,127	0,096
-172,169	-112,423	0,133	-0,019
-171,154	-200,000	0,001	0,029
-170,139	37,588	0,046	0,030
-169,125	602,788	0,082	-0,149
-168,110	-200,000	0,001	0,086
-167,096	-127,840	-0,075	0,008
-166,081	-200,000	0,002	-0,009
-165,066	-200,000	0,025	-0,138
-164,052	81,995	-0,091	-0,072
-163,037	800,000	-0,086	0,181
-162,023	26,325	0,029	-0,018
-161,008	-5,138	0,074	0,037
-159,993	10,268	0,044	0,024
-158,979	91,555	-0,036	-0,030
-157,964	77,630	-0,046	-0,036
-156,950	-200,000	0,002	-0,096
-155,935	91,558	-0,073	-0,060
-154,920	28,814	0,093	-0,057
-153,906	422,866	0,063	-0,098
-152,891	129,536	0,070	-0,065
-151,877	-9,171	-0,072	0,035
-150,862	45,237	0,085	-0,057
-149,847	-125,876	-0,032	-0,003
-148,833	253,390	0,036	0,044
-147,818	-200,000	-0,042	0,136
-146,804	-200,000	-0,011	-0,091
-145,789	-200,000	0,025	0,101
-144,775	-100,871	-0,096	-0,017
-143,760	800,000	-0,029	-0,082
-142,745	-22,603	-0,076	-0,033
-141,731	25,361	-0,091	-0,055
-140,716	-200,000	0,027	0,101
-139,702	800,000	-0,030	0,084
-138,687	201,597	0,108	0,122
-137,672	-200,000	0,002	0,142
-136,658	-133,748	-0,179	0,016
-135,643	-121,544	-0,120	0,014
-134,629	31,648	-0,041	0,026
-133,614	146,817	-0,126	0,123
-132,599	-122,159	0,104	-0,012
-131,585	-73,391	-0,034	-0,009
-130,570	800,000	-0,050	0,109
-129,556	731,395	-0,077	0,150
-128,541	800,000	0,042	-0,109
-127,526	535,136	0,019	0,032
-126,512	-200,000	0,016	0,052
-125,497	120,928	0,057	0,052
-124,483	-86,809	0,034	-0,008
-123,468	800,000	0,047	-0,120
-122,453	-65,852	-0,101	-0,029
-121,439	-200,000	0,008	0,058
-120,424	-16,949	-0,169	0,077
-119,410	-200,000	0,009	0,196
