DTS Sentinel unit serial number:	SN410029Multiplexer serial number:	ORYXHardware model number:	OX2-SRSoftware version number:	ORYX F/W v4,00 Oryx Data Collector v3.7.2.0data status	okinstallation	B4 Nyhavnadifferential loss correction	single-endedforward channel	channel 2reverse channel	N/Adate	2023/12/19time	05:15:13forward acquisition time	300,00reverse acquisition time	0,00gamma	499,1914k internal	0,3127k external	0,3127temperature offset calibration	1,0000default loss term (dB/km)	0,3820temperature slope calibration	1,0000multiplexer offset coefficient	1,0000multiplexer slope coefficient	1,0000fibre end	0,00T internal ref (°C)	20,99T ext. ref 1 (°C)	6,28T ext. ref 2 (°C)	6,34length (m)	temperature (°C)	Stokes	anti-Stokes-744,400	41,352	-0,105	-0,071
-743,385	168,718	-0,084	0,089
-742,371	-85,659	0,109	-0,025
-741,356	-16,007	-0,119	0,056
-740,342	-84,956	0,072	0,017
-739,327	-57,226	-0,214	0,070
-738,312	280,069	-0,128	-0,171
-737,298	-12,919	-0,240	0,116
-736,283	68,366	0,123	-0,094
-735,269	152,265	-0,121	0,123
-734,254	800,000	-0,031	0,070
-733,239	-60,700	-0,399	-0,125
-732,225	102,799	0,064	0,055
-731,210	-31,455	-0,021	-0,009
-730,196	-143,457	-0,070	-0,005
-729,181	268,010	0,100	0,130
-728,167	-200,000	0,008	-0,046
-727,152	-38,947	-0,191	-0,074
-726,137	317,242	0,145	-0,204
-725,123	-200,000	-0,010	-0,084
-724,108	123,538	0,094	-0,088
-723,094	395,053	-0,038	-0,059
-722,079	159,299	-0,143	-0,148
-721,064	205,088	-0,086	-0,100
-720,050	-200,000	-0,034	-0,131
-719,035	157,470	0,054	0,056
-718,021	800,000	-0,026	0,079
-717,006	292,244	-0,041	-0,056
-715,991	147,953	-0,089	-0,089
-714,977	-83,471	-0,087	0,021
-713,962	800,000	0,025	0,058
-712,948	-200,000	-0,014	-0,168
-711,933	-200,000	-0,024	-0,117
-710,918	590,425	-0,017	-0,030
-709,904	510,805	-0,115	-0,201
-708,889	-200,000	0,003	-0,169
-707,875	39,322	-0,137	-0,091
-706,860	800,000	-0,058	-0,180
-705,845	50,538	0,021	-0,015
-704,831	-48,356	0,192	0,068
-703,816	-53,837	0,057	-0,019
-702,802	-54,800	-0,108	-0,036
-701,787	2,339	-0,080	0,043
-700,772	800,000	-0,022	-0,068
-699,758	800,000	0,041	-0,089
-698,743	-83,063	0,137	0,032
-697,729	90,752	0,088	-0,073
-696,714	-46,968	-0,159	0,057
-695,699	9,946	-0,035	-0,020
-694,685	800,000	0,028	-0,085
-693,670	800,000	-0,019	0,041
-692,656	-200,000	0,006	0,079
-691,641	800,000	-0,013	0,042
-690,627	-38,708	0,057	-0,022
-689,612	-200,000	-0,009	0,043
-688,597	84,756	0,071	0,058
-687,583	-33,292	-0,101	0,042
-686,568	-161,870	-0,235	-0,009
-685,554	253,628	-0,103	-0,131
-684,539	800,000	0,031	0,063
-683,524	-46,650	0,123	-0,045
-682,510	790,461	-0,018	0,037
-681,495	-69,190	-0,083	-0,023
-680,481	339,099	-0,021	-0,031
-679,466	-44,710	-0,048	0,018
-678,451	-200,000	0,001	0,026
-677,437	421,875	-0,025	0,040
-676,422	-123,857	-0,131	0,015
-675,408	-94,634	0,169	-0,034
-674,393	46,023	0,024	0,016
-673,378	-55,259	0,018	0,006
-672,364	461,025	-0,039	0,065
-671,349	-63,475	-0,110	-0,033
-670,335	76,749	-0,051	0,040
-669,320	525,236	-0,097	0,171
-668,305	-185,202	0,044	-0,000
-667,291	122,009	0,093	-0,086
-666,276	180,054	0,018	-0,019
-665,262	690,903	-0,058	-0,114
-664,247	-200,000	0,002	-0,006
-663,232	292,814	-0,038	0,052
-662,218	-200,000	0,003	0,014
-661,203	-58,040	0,028	0,009
-660,189	-128,984	-0,040	0,004
-659,174	-44,340	-0,077	-0,028
-658,159	800,000	-0,034	-0,085
-657,145	800,000	0,015	-0,042
-656,130	-200,000	-0,028	-0,131
-655,116	36,796	0,011	-0,007
-654,101	800,000	0,019	0,046
-653,086	-200,000	0,005	-0,026
-652,072	-130,472	-0,146	-0,014
-651,057	-200,000	0,006	-0,050
-650,043	376,418	0,117	-0,178
-649,028	500,684	-0,035	-0,061
-648,014	247,966	-0,036	-0,046
-646,999	78,927	0,054	-0,043
-645,984	-200,000	-0,022	-0,100
-644,970	-200,000	0,008	-0,036
-643,955	537,715	-0,098	-0,174
-642,941	-200,000	0,007	-0,032
-641,926	38,194	0,125	0,082
-640,911	495,824	0,042	-0,071
-639,897	-21,891	-0,135	0,060
-638,882	511,658	0,062	-0,107
-637,868	-165,408	-0,134	-0,004
-636,853	-69,849	-0,165	-0,046
-635,838	63,977	0,049	0,036
-634,824	43,303	0,091	-0,061
-633,809	-45,011	0,098	0,036
-632,795	800,000	-0,026	-0,082
-631,780	-68,227	0,108	-0,031
-630,765	-45,814	-0,037	-0,014
-629,751	800,000	-0,035	-0,098
-628,736	-18,846	-0,121	-0,056
-627,722	-200,000	-0,011	-0,052
-626,707	-45,492	-0,049	0,018
-625,692	-198,623	0,096	-0,000
-624,678	-148,505	0,033	-0,002
-623,663	275,490	-0,116	-0,152
-622,649	-42,861	0,027	0,010
-621,634	-200,000	0,006	-0,071
-620,619	-200,000	0,005	-0,058
-619,605	-64,512	-0,049	0,015
-618,590	-200,000	-0,109	-0,000
-617,576	766,925	-0,026	-0,052
-616,561	800,000	-0,019	0,048
-615,546	-200,000	0,001	-0,082
-614,532	-88,675	-0,106	-0,023
-613,517	-200,000	0,001	-0,110
-612,503	46,422	0,101	0,069
-611,488	366,097	-0,037	-0,055
-610,474	66,075	0,061	0,046
-609,459	353,151	0,039	-0,058
-608,444	-58,544	0,126	0,040
-607,430	58,619	0,033	0,024
-606,415	-200,000	-0,015	-0,179
-605,401	139,119	0,061	-0,059
-604,386	-56,845	-0,116	-0,038
-603,371	-47,316	-0,155	0,056
-602,357	-61,311	0,096	0,030
-601,342	364,328	-0,022	-0,033
-600,328	192,170	-0,026	-0,029
-599,313	800,000	0,061	-0,136
-598,298	-15,986	0,055	-0,026
-597,284	219,822	-0,127	-0,151
-596,269	-200,000	-0,001	-0,006
-595,255	-57,183	0,082	-0,027
-594,240	124,441	0,063	0,058
-593,225	15,089	-0,109	-0,063
-592,211	13,877	-0,092	0,053
-591,196	-200,000	0,004	0,017
-590,182	28,138	0,126	0,078
-589,167	-106,324	0,150	0,025
-588,152	143,722	-0,049	-0,048
-587,138	-116,502	0,061	0,008
-586,123	800,000	0,019	0,040
-585,109	35,471	-0,111	-0,072
-584,094	-181,611	-0,096	-0,001
-583,079	-21,304	0,073	0,033
-582,065	-200,000	0,003	0,066
-581,050	-78,478	-0,103	-0,026
-580,036	-200,000	0,000	0,074
-579,021	56,839	0,039	0,028
-578,006	800,000	0,063	0,136
-576,992	-7,642	-0,054	-0,027
-575,977	100,719	0,173	0,149
-574,963	328,007	-0,048	-0,068
-573,948	800,000	-0,060	0,138
-572,934	389,458	0,086	0,132
-571,919	792,822	-0,052	0,107
-570,904	183,153	0,109	-0,119
-569,890	65,386	0,067	-0,050
-568,875	71,522	0,098	-0,075
-567,861	170,335	-0,158	-0,168
-566,846	800,000	-0,029	0,076
-565,831	800,000	0,055	0,134
-564,817	-44,733	0,212	-0,078
-563,802	-200,000	-0,003	-0,052
-562,788	13,251	-0,055	0,032
-561,773	-200,000	0,004	-0,062
-560,758	800,000	0,038	0,118
-559,744	-200,000	-0,007	0,051
-558,729	-166,155	-0,128	0,004
-557,715	70,320	0,038	-0,029
-556,700	299,261	-0,069	0,094
-555,685	27,977	-0,082	-0,051
-554,671	409,790	0,084	-0,132
-553,656	242,339	-0,055	0,068
-552,642	800,000	-0,019	-0,047
-551,627	88,379	-0,085	-0,069
-550,612	-200,000	0,010	0,097
-549,598	54,434	0,056	0,040
-548,583	-45,462	0,050	0,018
-547,569	-138,048	-0,075	0,006
-546,554	391,518	0,005	-0,008
-545,539	-200,000	0,013	0,074
-544,525	800,000	-0,029	-0,084
-543,510	5,730	-0,147	-0,080
-542,496	-200,000	0,024	0,128
-541,481	-110,832	0,015	-0,002
-540,466	613,722	0,051	0,094
-539,452	800,000	-0,038	0,114
-538,437	36,960	0,076	0,050
-537,423	298,954	0,035	0,048
-536,408	-168,877	0,018	-0,000
-535,393	-56,513	-0,032	0,010
-534,379	191,154	0,064	-0,071
-533,364	-122,957	-0,056	0,007
-532,350	800,000	-0,013	0,039
-531,335	314,933	0,069	0,096
-530,321	382,649	0,056	0,085
-529,306	-200,000	-0,008	-0,044
-528,291	238,616	-0,050	-0,062
-527,277	246,528	0,068	-0,085
-526,262	-200,000	-0,036	0,122
-525,248	800,000	0,016	0,038
-524,233	261,924	0,092	0,118
-523,218	544,809	0,021	0,037
-522,204	208,549	-0,039	0,045
-521,189	451,899	-0,042	-0,068
-520,175	13,960	-0,078	-0,045
-519,160	-63,397	-0,086	0,026
-518,145	800,000	0,035	0,109
-517,131	-48,011	0,129	-0,046
-516,116	321,730	0,086	0,122
-515,102	268,747	-0,017	-0,023
-514,087	-200,000	-0,004	0,017
-513,072	92,023	-0,041	-0,034
-512,058	-200,000	0,003	-0,098
-511,043	204,267	0,075	-0,086
-510,029	-99,932	0,059	0,011
-509,014	11,044	-0,092	0,052
-507,999	-200,000	-0,012	0,083
-506,985	-200,000	-0,019	-0,103
-505,970	-200,000	-0,006	-0,023
-504,956	-200,000	-0,034	-0,169
-503,941	-184,171	-0,096	-0,001
-502,926	29,703	0,026	0,016
-501,912	-200,000	-0,020	0,097
-500,897	240,415	-0,092	-0,114
-499,883	-0,307	0,072	-0,038
-498,868	266,233	-0,030	0,038
-497,853	-126,433	-0,135	-0,015
-496,839	224,019	0,087	-0,103
-495,824	446,980	0,031	-0,051
-494,810	-44,480	0,045	0,017
-493,795	-122,496	0,085	-0,010
-492,781	-29,185	0,034	-0,014
-491,766	800,000	-0,005	0,010
-490,751	487,166	-0,078	-0,132
-489,737	-200,000	0,011	0,056
-488,722	114,401	-0,052	0,046
-487,708	662,396	0,028	-0,053
-486,693	-160,919	0,140	-0,005
-485,678	98,316	-0,072	0,061
-484,664	168,514	0,078	-0,082
-483,649	-150,998	-0,064	0,003
-482,635	722,712	0,039	0,077
-481,620	-107,170	0,124	-0,020
-480,605	-159,739	0,039	-0,002
-479,591	-100,426	-0,070	-0,013
-478,576	-98,755	-0,053	0,010
-477,562	59,365	0,062	0,045
-476,547	-200,000	0,045	-0,188
-475,532	-107,524	-0,022	0,003
-474,518	132,678	0,092	-0,088
-473,503	-10,991	-0,089	-0,043
-472,489	-149,970	0,110	-0,006
-471,474	433,042	0,032	0,052
-470,459	800,000	-0,023	-0,074
-469,445	126,226	0,076	0,070
-468,430	81,166	-0,028	-0,023
-467,416	189,982	-0,037	-0,041
-466,401	53,949	-0,092	-0,065
-465,386	800,000	0,010	-0,025
-464,372	351,074	0,044	0,064
-463,357	-200,000	0,018	-0,089
-462,343	711,485	0,006	0,012
-461,328	7,833	-0,080	0,044
-460,313	431,279	0,070	0,111
-459,299	-65,183	0,086	-0,025
-458,284	-200,000	-0,006	0,023
-457,270	-74,570	-0,061	0,016
-456,255	467,115	0,082	-0,137
-455,241	200,160	-0,141	-0,160
-454,226	117,236	-0,075	0,068
-453,211	-77,159	-0,093	0,024
-452,197	422,126	-0,014	0,022
-451,182	311,747	-0,066	0,092
-450,168	-75,459	-0,107	-0,028
-449,153	255,673	-0,057	0,072
-448,138	131,527	0,034	0,032
-447,124	-24,684	-0,070	-0,030
-446,109	-200,000	-0,016	-0,076
-445,095	-7,952	0,043	0,021
-444,080	85,518	0,030	0,024
-443,065	154,787	0,030	0,030
-442,051	-200,000	0,035	-0,150
-441,036	800,000	-0,064	-0,140
-440,022	-106,178	-0,109	-0,018
-439,007	176,669	0,016	-0,017
-437,992	-91,316	-0,142	-0,030
-436,978	198,307	0,108	0,121
-435,963	7,248	0,093	0,051
-434,949	-55,169	-0,146	-0,048
-433,934	791,246	-0,079	-0,161
-432,919	-53,444	-0,119	-0,040
-431,905	800,000	0,076	0,157
-430,890	138,025	-0,043	-0,042
-429,876	-200,000	0,009	-0,094
-428,861	-80,823	0,166	0,040
-427,846	56,778	0,025	0,018
-426,832	-134,674	-0,039	-0,003
-425,817	800,000	-0,025	-0,072
-424,803	-200,000	-0,007	-0,140
-423,788	-11,379	0,050	-0,024
-422,773	800,000	0,006	-0,017
-421,759	-70,015	-0,135	0,038
-420,744	-50,542	-0,126	-0,043
-419,730	-93,193	-0,148	-0,030
-418,715	-200,000	-0,035	-0,126
-417,701	182,514	-0,075	-0,081
-416,686	-200,000	-0,216	0,001
-415,671	-112,271	-0,023	0,003
-414,657	800,000	0,023	0,073
-413,642	57,757	0,086	0,062
-412,628	115,903	0,059	0,053
-411,613	3,903	-0,059	0,031
-410,598	-121,151	0,037	-0,004
-409,584	-142,980	-0,093	-0,007
-408,569	556,810	-0,006	-0,011
-407,555	114,803	0,111	0,099
-406,540	800,000	-0,042	0,130
-405,525	6,999	0,082	0,045
-404,511	-17,755	-0,199	-0,092
-403,496	-200,000	0,001	0,008
-402,482	115,627	0,057	-0,051
-401,467	800,000	0,048	0,111
-400,452	405,875	-0,019	0,029
-399,438	-200,000	-0,030	-0,100
-398,423	-83,680	0,115	-0,027
-397,409	358,039	0,043	0,063
-396,394	25,295	0,031	-0,019
-395,379	-124,011	-0,050	0,006
-394,365	800,000	0,022	0,059
-393,350	162,331	0,032	0,033
-392,336	-200,000	-0,040	0,154
-391,321	-77,400	-0,080	-0,020
-390,306	-200,000	0,030	0,137
-389,292	170,179	-0,094	0,099
-388,277	-200,000	-0,003	0,081
-387,263	73,414	-0,052	-0,040
-386,248	-118,997	0,131	0,017
-385,233	207,641	-0,050	0,057
-384,219	-200,000	-0,001	0,038
-383,204	46,167	-0,137	0,093
-382,190	310,306	0,064	-0,089
-381,175	-200,000	-0,008	-0,113
-380,160	100,394	0,190	0,162
-379,146	55,169	0,108	0,077
-378,131	245,107	0,051	0,063
-377,117	-109,540	0,122	-0,019
-376,102	290,988	-0,019	-0,026
-375,088	-191,370	0,053	0,000
-374,073	-200,000	-0,053	-0,203
-373,058	-73,733	-0,032	0,008
-372,044	243,192	0,009	0,011
-371,029	247,661	0,061	0,076
-370,015	163,152	-0,039	0,040
-369,000	334,062	0,057	-0,081
-367,985	-200,000	-0,046	-0,211
-366,971	242,199	-0,080	-0,099
-365,956	311,457	-0,036	-0,050
-364,942	-200,000	0,005	-0,068
-363,927	-136,961	0,162	-0,013
-362,912	-200,000	0,033	-0,112
-361,898	481,207	0,044	-0,073
-360,883	-200,000	0,022	-0,156
-359,869	-51,275	-0,026	-0,009
-358,854	800,000	-0,060	-0,164
-357,839	-146,205	0,101	0,006
-356,825	-200,000	-0,004	-0,040
-355,810	-97,934	-0,040	-0,007
-354,796	600,780	0,008	0,015
-353,781	-161,790	-0,170	-0,006
-352,766	-200,000	-0,025	-0,142
-351,752	-81,295	-0,150	-0,036
-350,737	800,000	-0,007	-0,018
-349,723	800,000	-0,036	0,097
-348,708	100,235	-0,065	0,055
-347,693	118,400	0,062	-0,056
-346,679	-61,726	0,021	-0,006
-345,664	18,114	-0,181	0,106
-344,650	800,000	-0,051	0,122
-343,635	800,000	-0,058	0,153
-342,620	-89,114	0,135	-0,029
-341,606	351,872	0,046	0,067
-340,591	-71,496	-0,048	-0,013
-339,577	30,736	-0,073	-0,045
-338,562	297,341	0,045	-0,061
-337,548	-98,185	0,131	-0,024
-336,533	183,264	0,111	0,120
-335,518	800,000	-0,030	-0,083
-334,504	-63,061	-0,035	0,011
-333,489	240,208	-0,037	-0,045
-332,475	-1,469	-0,134	0,069
-331,460	-39,565	-0,023	0,009
-330,445	277,040	0,063	-0,082
-329,431	782,858	0,036	-0,073
-328,416	42,529	0,089	0,059
-327,402	800,000	0,030	0,069
-326,387	-90,552	-0,165	0,035
-325,372	402,946	-0,050	-0,078
-324,358	-9,714	-0,052	0,025
-323,343	-24,495	-0,081	0,035
-322,329	800,000	0,007	-0,018
-321,314	800,000	0,044	0,089
-320,299	525,116	0,103	0,179
-319,285	89,112	-0,177	0,144
-318,270	-90,275	-0,094	-0,020
-317,256	150,500	0,016	0,015
-316,241	-4,488	-0,071	0,036
-315,226	800,000	0,023	0,061
-314,212	-200,000	0,009	-0,045
-313,197	-200,000	-0,008	0,144
-312,183	285,396	-0,038	-0,051
-311,168	-55,301	-0,098	0,032
-310,153	-58,297	0,055	0,018
-309,139	162,682	-0,044	0,045
-308,124	506,720	0,069	0,117
-307,110	91,208	0,025	-0,021
-306,095	-124,361	0,075	-0,008
-305,080	743,123	-0,087	0,173
-304,066	-143,659	-0,192	0,013
-303,051	437,039	-0,022	0,035
-302,037	-163,457	-0,134	-0,005
-301,022	-91,648	0,056	-0,012
-300,008	-200,000	0,015	-0,061
-298,993	112,564	-0,061	-0,054
-297,978	49,803	0,140	0,097
-296,964	3,778	-0,050	-0,027
-295,949	-200,000	-0,026	-0,135
-294,935	800,000	-0,014	0,033
-293,920	-62,103	0,109	-0,033
-292,905	-200,000	0,022	0,101
-291,891	-43,250	0,066	-0,024
-290,876	-200,000	-0,006	0,174
-289,862	-10,760	0,079	-0,038
-288,847	36,949	0,073	-0,047
-287,832	-200,000	0,004	-0,171
-286,818	138,279	-0,119	-0,114
-285,803	380,267	0,074	0,111
-284,789	800,000	-0,030	-0,063
-283,774	800,000	0,057	0,179
-282,759	-169,711	-0,082	-0,002
-281,745	-100,540	-0,135	-0,024
-280,730	525,839	0,039	-0,068
-279,716	800,000	0,009	-0,025
-278,701	-47,429	-0,048	-0,017
-277,686	68,569	0,064	0,048
-276,672	181,035	0,032	-0,035
-275,657	-200,000	0,005	0,022
-274,643	72,301	-0,082	0,062
-273,628	407,555	0,075	-0,116
-272,613	449,580	0,026	0,042
-271,599	800,000	-0,030	0,073
-270,584	13,607	-0,030	0,017
-269,570	-200,000	0,034	0,127
-268,555	-140,849	-0,069	-0,005
-267,540	-11,548	-0,057	-0,027
-266,526	29,215	0,014	0,009
-265,511	50,143	0,064	-0,044
-264,497	-138,816	-0,094	-0,007
-263,482	650,472	0,023	0,043
-262,467	-34,382	0,107	-0,043
-261,453	-200,000	-0,029	0,124
-260,438	330,382	-0,105	-0,148
-259,424	-47,077	0,153	0,054
-258,409	-22,943	0,062	0,027
-257,395	228,674	-0,028	0,033
-256,380	-17,903	0,120	0,055
-255,365	-89,363	0,092	-0,020
-254,351	-153,406	0,103	0,005
-253,336	90,009	-0,018	-0,015
-252,322	-84,761	-0,046	-0,010
-251,307	616,398	0,040	-0,074
-250,292	-114,455	0,091	-0,013
-249,278	104,168	0,056	0,048
-248,263	-200,000	-0,009	0,046
-247,249	0,333	0,158	0,082
-246,234	217,888	0,039	0,046
-245,219	327,542	-0,104	-0,145
-244,205	259,938	-0,070	-0,089
-243,190	375,080	-0,046	0,069
-242,176	16,015	-0,059	0,034
-241,161	78,431	0,134	0,105
-240,146	800,000	-0,064	0,171
-239,132	-113,972	0,095	-0,013
-238,117	117,467	-0,136	0,122
-237,103	-200,000	0,018	-0,069
-236,088	163,274	0,054	-0,056
-235,073	-83,216	0,124	0,029
-234,059	-43,688	0,112	-0,041
-233,044	800,000	-0,008	-0,023
-232,030	-118,415	0,110	0,014
-231,015	-200,000	-0,030	0,112
-230,000	360,076	0,038	-0,056
-228,986	146,925	-0,018	-0,018
-227,971	264,343	0,108	-0,137
-226,957	238,616	-0,044	0,053
-225,942	800,000	0,009	0,028
-224,927	-138,362	-0,179	0,014
-223,913	322,959	-0,101	0,141
-222,898	407,751	-0,068	-0,105
-221,884	800,000	0,007	-0,020
-220,869	-137,756	0,054	-0,004
-219,855	241,250	0,062	0,076
-218,840	-200,000	0,017	0,086
-217,825	800,000	0,028	0,082
-216,811	-200,000	0,008	-0,271
-215,796	-200,000	0,012	-0,103
-214,782	-200,000	0,006	0,033
-213,767	188,036	-0,015	-0,016
-212,752	232,093	0,108	0,130
-211,738	15,997	-0,051	-0,029
-210,723	-200,000	0,038	0,137
-209,709	126,937	0,094	0,087
-208,694	-200,000	-0,007	-0,070
-207,679	41,161	-0,054	0,036
-206,665	800,000	0,072	0,205
-205,650	492,013	0,080	0,135
-204,636	678,943	-0,042	0,079
-203,621	-23,362	0,105	0,046
-202,606	-46,726	-0,067	0,024
-201,592	35,769	0,121	-0,077
-200,577	655,528	-0,045	0,084
-199,563	196,094	-0,043	-0,047
-198,548	-89,974	0,091	-0,019
-197,533	-200,000	-0,009	0,095
-196,519	481,679	0,050	-0,083
-195,504	-37,916	-0,046	-0,018
-194,490	256,470	-0,121	-0,152
-193,475	-8,942	0,019	-0,009
-192,460	5,549	-0,187	0,100
-191,446	-76,084	0,070	-0,018
-190,431	-164,664	0,149	0,005
-189,417	-19,893	0,138	0,062
-188,402	-125,345	-0,022	-0,002
-187,387	-200,000	-0,004	-0,078
-186,373	95,432	0,073	-0,061
-185,358	175,261	-0,091	-0,096
-184,344	-116,986	-0,084	0,011
-183,329	-2,916	0,069	-0,035
-182,315	403,675	0,069	0,106
-181,300	332,623	-0,105	-0,149
-180,285	-200,000	-0,014	0,064
-179,271	-200,000	-0,005	0,040
-178,256	111,547	-0,130	0,115
-177,242	-98,468	0,252	0,046
-176,227	345,180	0,019	0,027
-175,212	35,086	0,039	-0,025
-174,198	-176,362	-0,161	0,003
-173,183	800,000	0,054	-0,112
-172,169	-45,518	-0,157	-0,056
-171,154	-155,714	0,067	-0,003
-170,139	-67,058	0,145	-0,041
-169,125	800,000	0,011	-0,024
-168,110	-200,000	0,007	0,087
-167,096	-38,798	0,062	0,024
-166,081	800,000	0,011	-0,032
-165,066	21,169	-0,054	0,032
-164,052	800,000	-0,023	0,056
-163,037	-90,451	0,163	-0,034
-162,023	-110,919	0,254	-0,038
-161,008	-5,099	-0,040	-0,020
-159,993	701,155	-0,055	0,107
-158,979	108,697	0,024	-0,020
-157,964	-100,962	-0,125	-0,022
-156,950	-119,702	-0,011	0,001
-155,935	-200,000	-0,016	0,230
-154,920	74,613	0,102	0,078
-153,906	-200,000	-0,012	-0,057
-152,891	124,132	-0,022	-0,020
-151,877	575,504	0,014	0,025
-150,862	800,000	-0,066	-0,179
-149,847	-200,000	-0,019	-0,072
-148,833	-161,085	0,039	-0,001
-147,818	-37,590	-0,065	-0,025
-146,804	-200,000	-0,011	0,096
-145,789	-200,000	-0,008	0,057
-144,775	254,499	0,069	-0,086
-143,760	116,015	-0,065	-0,058
-142,745	800,000	-0,057	-0,121
-141,731	-118,907	0,193	-0,024
-140,716	800,000	-0,044	0,100
-139,702	120,896	0,017	0,015
-138,687	-48,070	0,045	0,016
-137,672	-59,033	0,136	0,042
-136,658	800,000	-0,039	-0,096
-135,643	158,609	0,032	0,033
-134,629	-200,000	0,015	-0,179
-133,614	800,000	-0,016	0,050
-132,599	800,000	0,106	0,218
-131,585	50,637	0,120	-0,082
-130,570	-200,000	0,009	0,066
-129,556	28,208	-0,108	-0,066
-128,541	-30,429	-0,131	0,054
-127,526	75,996	0,091	-0,070
-126,512	-200,000	0,029	-0,114
-125,497	176,807	0,084	0,089
-124,483	-25,776	0,116	0,050
-123,468	800,000	0,030	-0,087
-122,453	59,898	-0,123	0,088
-121,439	800,000	0,003	0,007
-120,424	-200,000	-0,003	0,046
-119,410	-200,000	0,002	-0,040
