DTS Sentinel unit serial number:	SN410029Multiplexer serial number:	ORYXHardware model number:	OX2-SRSoftware version number:	ORYX F/W v4,00 Oryx Data Collector v3.7.2.0data status	okinstallation	B4 Nyhavnadifferential loss correction	single-endedforward channel	channel 2reverse channel	N/Adate	2023/12/16time	05:30:13forward acquisition time	300,00reverse acquisition time	0,00gamma	499,1914k internal	0,3128k external	0,3128temperature offset calibration	1,0000default loss term (dB/km)	0,3820temperature slope calibration	1,0000multiplexer offset coefficient	1,0000multiplexer slope coefficient	1,0000fibre end	0,00T internal ref (°C)	22,16T ext. ref 1 (°C)	7,37T ext. ref 2 (°C)	7,57length (m)	temperature (°C)	Stokes	anti-Stokes-744,400	-200,000	-0,007	-0,065
-743,385	241,528	-0,100	0,124
-742,371	-8,114	0,130	0,065
-741,356	139,430	-0,191	0,187
-740,342	517,636	0,064	-0,111
-739,327	790,262	-0,065	0,133
-738,312	-114,955	0,025	0,003
-737,298	-41,785	-0,183	-0,070
-736,283	-83,539	0,060	-0,014
-735,269	-108,178	-0,321	0,051
-734,254	240,035	-0,089	-0,111
-733,239	-66,678	-0,408	-0,119
-732,225	627,142	0,022	-0,041
-731,210	800,000	-0,015	0,047
-730,196	-200,000	0,013	0,140
-729,181	-200,000	0,001	0,029
-728,167	90,245	-0,082	0,068
-727,152	800,000	0,030	-0,095
-726,137	-83,917	-0,025	-0,006
-725,123	-84,096	-0,089	0,021
-724,108	147,077	-0,144	-0,144
-723,094	-200,000	-0,049	-0,187
-722,079	14,620	0,096	-0,056
-721,064	155,151	-0,067	-0,069
-720,050	27,042	-0,024	0,015
-719,035	-157,540	-0,011	-0,000
-718,021	168,947	0,118	0,126
-717,006	187,848	-0,088	-0,097
-715,991	800,000	-0,035	-0,094
-714,977	-5,585	-0,101	0,051
-713,962	-67,768	-0,133	-0,038
-712,948	184,847	0,069	0,076
-711,933	-90,421	0,073	-0,016
-710,918	217,646	-0,122	0,144
-709,904	-75,008	-0,140	-0,037
-708,889	163,241	-0,087	-0,091
-707,875	-19,395	0,093	-0,043
-706,860	129,569	0,190	0,180
-705,845	397,273	-0,047	-0,072
-704,831	-200,000	0,004	0,076
-703,816	0,744	-0,061	0,032
-702,802	433,895	-0,016	0,025
-701,787	-115,854	-0,125	0,017
-700,772	-149,604	-0,109	0,006
-699,758	800,000	0,016	0,043
-698,743	-143,892	0,032	0,002
-697,729	246,234	0,049	0,061
-696,714	-41,142	0,044	-0,017
-695,699	385,508	-0,027	-0,041
-694,685	114,371	-0,108	0,098
-693,670	20,810	-0,062	-0,037
-692,656	583,902	0,017	-0,032
-691,641	-50,877	0,068	-0,024
-690,627	-14,399	0,033	-0,015
-689,612	-200,000	-0,012	0,062
-688,597	1,986	-0,113	0,061
-687,583	-96,656	-0,159	0,031
-686,568	455,792	-0,036	0,060
-685,554	-114,087	-0,078	-0,011
-684,539	35,896	0,086	-0,056
-683,524	-200,000	-0,012	-0,047
-682,510	-200,000	0,016	0,052
-681,495	800,000	0,030	0,079
-680,481	164,333	-0,040	-0,042
-679,466	-9,264	-0,058	0,028
-678,451	-200,000	-0,020	-0,065
-677,437	-200,000	0,001	0,038
-676,422	132,948	0,039	0,037
-675,408	428,666	0,002	-0,003
-674,393	-184,443	0,188	-0,002
-673,378	-18,491	-0,201	-0,093
-672,364	512,718	-0,073	-0,126
-671,349	800,000	-0,024	0,070
-670,335	-104,032	-0,080	-0,014
-669,320	-45,607	0,065	-0,024
-668,305	73,722	0,032	0,025
-667,291	-123,281	-0,130	-0,015
-666,276	103,069	-0,108	0,094
-665,262	800,000	-0,016	-0,036
-664,247	8,313	-0,127	-0,071
-663,232	145,475	0,079	-0,078
-662,218	-200,000	-0,013	0,146
-661,203	-53,617	0,039	-0,013
-660,189	-18,658	-0,174	0,080
-659,174	340,345	-0,083	0,121
-658,159	194,965	0,058	0,065
-657,145	-69,738	-0,077	-0,022
-656,130	800,000	-0,047	-0,138
-655,116	-200,000	0,013	-0,085
-654,101	-200,000	-0,004	0,248
-653,086	289,797	-0,020	-0,027
-652,072	159,002	0,117	-0,121
-651,057	381,498	0,040	-0,061
-650,043	-95,259	0,048	0,010
-649,028	800,000	-0,021	-0,043
-648,014	-200,000	-0,019	-0,112
-646,999	193,519	-0,104	-0,117
-645,984	154,245	0,055	0,056
-644,970	-165,527	0,068	0,002
-643,955	-12,465	-0,116	0,056
-642,941	394,453	-0,045	-0,070
-641,926	54,892	0,016	-0,011
-640,911	-200,000	0,021	-0,087
-639,897	-19,698	-0,040	-0,018
-638,882	184,176	-0,092	0,101
-637,868	4,749	-0,109	-0,059
-636,853	-67,722	-0,061	0,018
-635,838	-200,000	0,013	-0,057
-634,824	24,681	-0,186	-0,114
-633,809	-131,340	-0,051	-0,005
-632,795	-67,601	0,079	0,023
-631,780	-200,000	0,016	0,061
-630,765	-200,000	-0,002	-0,086
-629,751	-83,724	-0,096	-0,023
-628,736	-200,000	-0,014	-0,052
-627,722	-200,000	0,039	0,133
-626,707	800,000	0,013	-0,033
-625,692	800,000	-0,093	0,201
-624,678	-200,000	-0,029	0,184
-623,663	280,289	-0,010	0,013
-622,649	-2,856	-0,002	-0,001
-621,634	116,011	0,094	-0,085
-620,619	800,000	0,031	-0,100
-619,605	800,000	0,047	0,123
-618,590	-200,000	-0,030	0,109
-617,576	717,840	0,040	0,080
-616,561	-171,347	0,044	0,001
-615,546	667,497	-0,064	-0,122
-614,532	230,366	0,055	-0,066
-613,517	496,446	0,025	0,042
-612,503	-65,760	-0,084	-0,025
-611,488	-200,000	0,000	0,003
-610,474	-57,748	0,012	0,004
-609,459	177,360	0,047	-0,050
-608,444	140,623	-0,102	-0,100
-607,430	-147,832	-0,107	-0,007
-606,415	-200,000	0,009	-0,097
-605,401	75,008	-0,073	0,057
-604,386	28,356	0,187	0,116
-603,371	-200,000	-0,003	-0,116
-602,357	-200,000	0,036	0,221
-601,342	800,000	-0,023	-0,070
-600,328	14,115	-0,100	-0,057
-599,313	-200,000	-0,003	-0,128
-598,298	37,045	-0,096	0,063
-597,284	800,000	0,020	0,053
-596,269	800,000	-0,026	0,073
-595,255	565,648	-0,015	-0,028
-594,240	759,542	0,059	0,118
-593,225	218,927	0,026	-0,031
-592,211	-200,000	0,017	0,095
-591,196	-55,120	-0,157	0,052
-590,182	121,185	0,032	-0,029
-589,167	66,272	0,115	0,086
-588,152	-147,140	-0,084	-0,005
-587,138	-112,336	0,068	-0,010
-586,123	-200,000	-0,006	-0,095
-585,109	-200,000	-0,023	-0,103
-584,094	576,150	-0,109	-0,198
-583,079	800,000	-0,049	-0,146
-582,065	335,351	0,109	-0,157
-581,050	133,021	0,067	-0,064
-580,036	14,792	0,045	-0,026
-579,021	-137,360	-0,066	-0,005
-578,006	800,000	0,014	-0,044
-576,992	113,421	-0,104	0,093
-575,977	272,716	-0,039	0,051
-574,963	89,321	0,064	-0,052
-573,948	-37,147	0,079	-0,031
-572,934	482,502	0,037	-0,063
-571,919	-18,137	0,063	0,029
-570,904	420,847	0,042	0,066
-569,890	-200,000	0,010	-0,135
-568,875	-200,000	0,021	0,108
-567,861	316,892	-0,096	0,134
-566,846	-136,017	0,130	0,011
-565,831	-42,768	-0,026	0,010
-564,817	-104,099	-0,050	0,009
-563,802	-25,586	0,118	-0,051
-562,788	-200,000	-0,002	-0,046
-561,773	-13,108	0,103	-0,049
-560,758	800,000	-0,046	-0,106
-559,744	-113,531	-0,048	-0,007
-558,729	712,443	-0,070	-0,139
-557,715	17,595	0,119	0,070
-556,700	98,913	0,100	-0,085
-555,685	-200,000	0,014	0,081
-554,671	-200,000	0,017	-0,076
-553,656	-67,598	-0,078	0,022
-552,642	-200,000	-0,021	0,151
-551,627	176,228	-0,040	-0,043
-550,612	180,448	-0,038	-0,041
-549,598	-200,000	0,008	0,054
-548,583	-79,701	-0,116	0,029
-547,569	332,040	0,074	0,105
-546,554	-200,000	0,037	0,124
-545,539	800,000	0,072	0,225
-544,525	186,489	-0,049	-0,054
-543,510	394,534	-0,052	-0,080
-542,496	-200,000	0,029	-0,146
-541,481	-200,000	0,037	-0,245
-540,466	-117,588	0,062	0,008
-539,452	167,350	0,023	0,024
-538,437	-29,081	0,034	-0,014
-537,423	278,701	-0,021	-0,027
-536,408	156,032	-0,096	-0,098
-535,393	-140,147	-0,094	0,007
-534,379	141,371	0,090	-0,088
-533,364	-69,912	0,136	-0,038
-532,350	142,080	0,046	-0,045
-531,335	800,000	0,010	-0,024
-530,321	638,838	0,021	-0,039
-529,306	-200,000	0,009	-0,086
-528,291	800,000	0,037	0,098
-527,277	-200,000	0,004	-0,070
-526,262	-135,396	-0,053	-0,005
-525,248	422,401	0,035	0,056
-524,233	-200,000	-0,022	-0,086
-523,218	334,889	0,056	0,080
-522,204	-10,408	-0,093	0,045
-521,189	-63,729	-0,044	-0,013
-520,175	263,201	-0,057	0,073
-519,160	-47,423	-0,038	0,014
-518,145	580,960	0,032	-0,058
-517,131	-200,000	-0,006	-0,129
-516,116	800,000	-0,022	0,053
-515,102	-200,000	-0,001	0,064
-514,087	800,000	-0,046	-0,104
-513,072	-200,000	0,028	-0,219
-512,058	-200,000	0,014	-0,108
-511,043	800,000	-0,006	-0,020
-510,029	-39,937	0,028	0,011
-509,014	-127,365	0,119	0,013
-507,999	800,000	0,040	0,089
-506,985	56,468	-0,142	-0,102
-505,970	633,175	-0,014	0,027
-504,956	-122,558	-0,056	0,007
-503,941	-43,710	0,057	0,021
-502,926	-165,639	0,123	0,004
-501,912	-160,508	0,077	0,003
-500,897	-98,817	-0,061	-0,011
-499,883	109,735	0,074	-0,065
-498,868	195,646	-0,035	0,040
-497,853	35,679	-0,068	0,044
-496,839	-187,279	0,054	0,001
-495,824	800,000	-0,017	0,042
-494,810	144,469	-0,070	0,069
-493,795	-88,298	0,186	-0,041
-492,781	14,849	-0,053	0,030
-491,766	-0,254	-0,082	-0,043
-490,751	-77,085	-0,094	0,024
-489,737	-107,366	0,054	0,009
-488,722	-122,978	-0,083	-0,010
-487,708	309,170	0,045	0,062
-486,693	-200,000	-0,006	0,129
-485,678	-200,000	0,030	0,186
-484,664	800,000	0,016	-0,044
-483,649	-29,367	-0,110	-0,046
-482,635	411,200	0,049	0,077
-481,620	800,000	-0,047	0,103
-480,605	-37,264	0,112	-0,044
-479,591	17,654	0,053	-0,031
-478,576	-27,174	-0,041	0,017
-477,562	-103,466	0,068	-0,012
-476,547	-127,930	-0,104	-0,011
-475,532	800,000	-0,023	-0,062
-474,518	-101,040	-0,045	-0,008
-473,503	-200,000	-0,014	0,134
-472,489	-200,000	0,018	-0,101
-471,474	-200,000	-0,006	-0,093
-470,459	-144,902	-0,023	0,001
-469,445	-38,402	0,070	0,027
-468,430	-103,200	-0,052	0,009
-467,416	-46,122	0,186	0,067
-466,401	-154,076	0,140	0,007
-465,386	115,160	0,037	0,033
-464,372	-200,000	0,004	-0,052
-463,357	-44,106	-0,030	-0,011
-462,343	-200,000	0,008	-0,046
-461,328	53,422	-0,041	0,029
-460,313	800,000	-0,030	0,082
-459,299	82,243	-0,045	0,036
-458,284	210,904	-0,051	-0,060
-457,270	-77,208	0,148	-0,038
-456,255	800,000	-0,055	-0,117
-455,241	-200,000	0,028	-0,141
-454,226	-38,942	-0,124	-0,048
-453,211	-162,569	0,038	-0,001
-452,197	-200,000	0,015	0,059
-451,182	-200,000	-0,030	0,118
-450,168	118,073	0,059	-0,054
-449,153	-143,288	-0,089	0,006
-448,138	-77,100	-0,082	-0,021
-447,124	347,195	-0,075	0,109
-446,109	275,372	-0,068	-0,089
-445,095	-189,163	0,158	-0,001
-444,080	116,989	-0,099	0,090
-443,065	106,006	0,097	-0,085
-442,051	-200,000	-0,029	-0,144
-441,036	214,936	-0,079	-0,092
-440,022	-200,000	0,001	-0,033
-439,007	-7,772	0,154	0,076
-437,992	-128,812	-0,146	-0,015
-436,978	-200,000	-0,019	-0,082
-435,963	345,311	-0,047	0,067
-434,949	-61,255	-0,065	-0,020
-433,934	230,164	-0,037	0,045
-432,919	-114,762	-0,071	0,010
-431,905	-200,000	0,011	-0,122
-430,890	-84,718	-0,095	0,022
-429,876	220,586	0,052	0,061
-428,861	552,662	0,060	-0,107
-427,846	-59,776	-0,048	-0,015
-426,832	-200,000	-0,001	0,049
-425,817	-155,323	-0,023	0,001
-424,803	-70,958	0,041	-0,011
-423,788	122,639	0,051	-0,047
-422,773	7,337	-0,048	0,026
-421,759	66,338	-0,023	0,017
-420,744	13,502	-0,097	-0,055
-419,730	-44,427	0,042	0,015
-418,715	-156,603	-0,006	-0,000
-417,701	800,000	0,080	0,171
-416,686	-200,000	-0,017	0,057
-415,671	319,507	0,024	-0,033
-414,657	182,251	0,138	0,149
-413,642	-95,372	-0,154	0,030
-412,628	-200,000	0,007	-0,058
-411,613	775,897	0,035	0,071
-410,598	435,416	-0,078	0,126
-409,584	-200,000	-0,029	0,110
-408,569	-69,215	0,140	-0,039
-407,555	168,277	-0,037	0,039
-406,540	5,205	0,134	0,073
-405,525	35,880	0,131	0,084
-404,511	202,401	-0,080	0,091
-403,496	-36,392	-0,085	-0,033
-402,482	-44,793	0,075	0,027
-401,467	242,541	0,052	0,065
-400,452	124,105	0,056	-0,051
-399,438	674,362	0,092	0,176
-398,423	-101,634	-0,090	-0,016
-397,409	-200,000	-0,039	-0,142
-396,394	502,382	0,114	-0,193
-395,379	-87,780	-0,145	-0,032
-394,365	-140,887	0,072	0,005
-393,350	60,865	0,091	0,066
-392,336	20,039	-0,110	0,065
-391,321	88,555	-0,072	0,059
-390,306	123,358	-0,052	0,048
-389,292	-200,000	-0,022	0,111
-388,277	89,225	0,091	-0,075
-387,263	-200,000	-0,013	-0,141
-386,248	-200,000	0,008	0,086
-385,233	82,758	-0,025	0,020
-384,219	678,975	0,038	-0,073
-383,204	-200,000	0,000	0,069
-382,190	-200,000	0,004	0,035
-381,175	-10,374	-0,090	-0,044
-380,160	-87,897	0,029	-0,006
-379,146	60,191	0,102	0,074
-378,131	-200,000	0,010	0,084
-377,117	390,185	-0,079	0,121
-376,102	433,660	0,068	0,109
-375,088	-141,476	-0,058	-0,004
-374,073	-200,000	-0,009	-0,141
-373,058	75,454	-0,069	-0,054
-372,044	-103,301	0,094	-0,016
-371,029	18,992	-0,016	0,009
-370,015	117,163	0,091	0,082
-369,000	273,881	-0,081	-0,105
-367,985	-200,000	0,003	-0,078
-366,971	252,335	0,039	0,048
-365,956	17,146	-0,068	-0,040
-364,942	-200,000	0,016	-0,064
-363,927	-44,127	0,100	0,037
-362,912	604,509	0,066	0,121
-361,898	227,872	-0,039	0,047
-360,883	162,302	-0,039	-0,041
-359,869	422,748	-0,060	-0,096
-358,854	691,947	-0,039	-0,075
-357,839	800,000	-0,064	0,207
-356,825	-200,000	0,029	0,164
-355,810	800,000	0,015	-0,044
-354,796	-200,000	-0,016	-0,062
-353,781	-29,882	-0,086	0,036
-352,766	-200,000	0,004	-0,088
-351,752	156,128	-0,053	-0,053
-350,737	800,000	-0,011	-0,024
-349,723	530,676	0,019	-0,032
-348,708	309,383	0,041	0,057
-347,693	268,166	-0,035	0,045
-346,679	-92,345	-0,095	-0,019
-345,664	-200,000	0,005	-0,091
-344,650	-200,000	-0,008	0,059
-343,635	-49,822	0,049	0,017
-342,620	-20,298	0,089	-0,040
-341,606	800,000	0,052	0,117
-340,591	-133,935	0,099	-0,009
-339,577	-64,938	-0,296	0,087
-338,562	-161,358	0,050	-0,002
-337,548	-200,000	0,030	-0,114
-336,533	-80,736	-0,014	0,003
-335,518	94,232	0,025	-0,021
-334,504	-200,000	0,007	-0,060
-333,489	59,617	-0,090	0,065
-332,475	54,603	-0,051	-0,036
-331,460	-43,410	0,168	0,062
-330,445	-63,971	0,167	0,050
-329,431	423,973	0,043	0,067
-328,416	-33,421	0,046	0,019
-327,402	399,472	-0,080	-0,124
-326,387	-28,789	0,099	0,042
-325,372	800,000	-0,035	0,112
-324,358	403,414	0,040	-0,062
-323,343	685,012	-0,031	0,060
-322,329	-200,000	-0,007	0,166
-321,314	-83,915	0,191	0,044
-320,299	94,883	0,128	0,107
-319,285	288,830	-0,065	0,087
-318,270	-138,564	-0,034	0,003
-317,256	800,000	0,078	-0,181
-316,241	-200,000	-0,016	-0,077
-315,226	296,296	-0,050	0,068
-314,212	145,717	-0,061	-0,060
-313,197	413,892	-0,014	0,022
-312,183	-3,572	0,047	0,024
-311,168	-200,000	-0,003	-0,018
-310,153	-11,495	-0,104	-0,050
-309,139	-200,000	0,013	0,090
-308,124	-200,000	0,017	-0,094
-307,110	370,334	0,045	-0,067
-306,095	-200,000	-0,024	-0,159
-305,080	88,180	-0,055	-0,045
-304,066	-39,413	0,031	-0,012
-303,051	227,591	-0,101	-0,120
-302,037	-200,000	-0,020	-0,065
-301,022	800,000	0,042	-0,091
-300,008	-61,342	-0,055	0,017
-298,993	-39,629	0,086	0,033
-297,978	77,231	0,015	0,012
-296,964	-200,000	-0,012	0,115
-295,949	-200,000	0,014	-0,120
-294,935	114,478	-0,050	0,044
-293,920	244,806	0,070	-0,086
-292,905	-144,171	0,036	0,002
-291,891	-131,251	-0,042	0,004
-290,876	130,876	0,038	-0,036
-289,862	-200,000	0,010	0,198
-288,847	-200,000	-0,025	-0,111
-287,832	-200,000	-0,038	0,134
-286,818	-85,030	0,010	0,002
-285,803	659,017	0,006	0,011
-284,789	-200,000	0,037	0,132
-283,774	-168,529	0,157	0,004
-282,759	12,092	-0,103	0,058
-281,745	639,570	-0,045	0,085
-280,730	-112,223	-0,142	-0,021
-279,716	-77,797	-0,124	-0,031
-278,701	-54,911	-0,224	0,073
-277,686	6,848	-0,120	-0,065
-276,672	-137,259	0,072	-0,006
-275,657	-200,000	-0,012	0,042
-274,643	483,312	-0,046	-0,077
-273,628	41,398	-0,208	-0,137
-272,613	289,101	0,028	-0,038
-271,599	-55,844	0,084	0,027
-270,584	58,442	-0,005	-0,004
-269,570	117,860	-0,024	-0,022
-268,555	193,316	-0,094	0,104
-267,540	-200,000	0,027	-0,104
-266,526	151,398	-0,099	-0,099
-265,511	-44,552	-0,020	-0,007
-264,497	800,000	-0,038	0,120
-263,482	-81,225	0,116	0,028
-262,467	20,234	0,032	-0,019
-261,453	201,518	-0,072	0,081
-260,438	800,000	0,040	0,101
-259,424	228,755	-0,091	0,109
-258,409	-200,000	0,026	-0,186
-257,395	-84,626	0,138	-0,031
-256,380	-8,975	0,082	0,040
-255,365	-200,000	0,012	0,065
-254,351	-56,416	0,060	0,019
-253,336	800,000	-0,011	0,030
-252,322	37,638	-0,167	-0,108
-251,307	137,477	0,092	0,088
-250,292	-20,309	0,074	0,033
-249,278	-108,279	0,130	0,020
-248,263	135,446	-0,037	-0,035
-247,249	11,997	0,105	-0,059
-246,234	-34,667	0,107	-0,042
-245,219	511,645	0,006	-0,010
-244,205	-200,000	0,029	-0,130
-243,190	115,825	0,112	0,100
-242,176	207,911	0,134	0,153
-241,161	429,296	-0,026	-0,041
-240,146	-200,000	0,001	-0,085
-239,132	783,341	0,054	-0,109
-238,117	-200,000	-0,002	-0,081
-237,103	-3,092	-0,059	0,030
-236,088	-99,299	-0,047	-0,009
-235,073	182,613	0,116	0,125
-234,059	800,000	-0,011	0,035
-233,044	29,397	-0,085	0,052
-232,030	543,590	-0,068	-0,119
-231,015	277,860	-0,047	0,061
-230,000	518,162	0,077	-0,132
-228,986	800,000	-0,010	-0,024
-227,971	-157,893	-0,111	-0,005
-226,957	-177,623	0,101	-0,002
-225,942	800,000	0,020	0,040
-224,927	-107,700	-0,079	0,012
-223,913	-168,073	-0,014	0,000
-222,898	79,920	0,053	-0,042
-221,884	-200,000	0,012	-0,087
-220,869	68,027	0,081	0,061
-219,855	-200,000	0,011	-0,093
-218,840	605,586	0,008	0,014
-217,825	-200,000	0,017	0,124
-216,811	800,000	0,013	-0,028
-215,796	-200,000	-0,005	0,065
-214,782	-200,000	-0,019	0,120
-213,767	400,143	0,036	0,055
-212,752	-99,473	0,061	0,011
-211,738	-200,000	0,025	-0,147
-210,723	166,911	0,075	0,078
-209,709	-19,829	-0,126	-0,056
-208,694	60,952	0,058	-0,042
-207,679	-109,904	-0,114	-0,017
-206,665	91,374	-0,022	-0,018
-205,650	-200,000	0,009	0,063
-204,636	-35,595	0,086	-0,034
-203,621	-200,000	0,006	-0,027
-202,606	-28,077	-0,050	0,021
-201,592	225,439	0,068	0,080
-200,577	-200,000	-0,012	-0,103
-199,563	-200,000	0,018	0,066
-198,548	-200,000	0,006	0,043
-197,533	-106,480	0,171	-0,027
-196,519	-19,974	0,103	-0,046
-195,504	47,199	0,045	0,031
-194,490	-9,344	0,100	-0,048
-193,475	-185,442	-0,075	-0,001
-192,460	-45,965	0,072	0,026
-191,446	398,367	-0,001	-0,002
-190,431	150,848	0,053	0,053
-189,417	153,061	-0,045	-0,045
-188,402	-165,390	-0,045	-0,001
-187,387	-165,187	-0,056	0,002
-186,373	-48,621	-0,219	-0,076
-185,358	-200,000	-0,017	0,057
-184,344	720,672	0,053	-0,103
-183,329	-200,000	0,005	0,096
-182,315	-200,000	0,049	0,223
-181,300	12,628	-0,087	0,049
-180,285	77,407	0,117	-0,090
-179,271	-200,000	-0,001	0,054
-178,256	129,035	-0,042	-0,039
-177,242	-200,000	0,026	0,138
-176,227	-200,000	0,019	0,063
-175,212	786,177	-0,033	0,065
-174,198	-200,000	-0,002	0,037
-173,183	107,761	-0,035	0,030
-172,169	-131,768	0,106	-0,010
-171,154	218,242	-0,133	-0,155
-170,139	-200,000	0,032	-0,104
-169,125	240,466	-0,058	-0,071
-168,110	-200,000	-0,005	0,083
-167,096	-149,695	-0,047	-0,003
-166,081	-138,356	-0,105	-0,008
-165,066	-200,000	0,004	-0,144
-164,052	-200,000	0,017	0,076
-163,037	-51,698	0,040	-0,013
-162,023	-200,000	0,010	0,065
-161,008	32,427	0,082	0,051
-159,993	8,929	-0,065	0,036
-158,979	-155,097	0,068	0,003
-157,964	-200,000	-0,016	-0,094
-156,950	800,000	-0,026	0,075
-155,935	-200,000	-0,001	-0,046
-154,920	-25,988	0,091	-0,039
-153,906	161,239	-0,032	0,032
-152,891	-200,000	-0,001	0,156
-151,877	-70,295	-0,147	-0,040
-150,862	105,181	-0,066	0,056
-149,847	132,867	0,133	-0,125
-148,833	-200,000	-0,008	-0,059
-147,818	800,000	0,036	-0,084
-146,804	-47,998	0,152	0,053
-145,789	800,000	0,048	-0,118
-144,775	-17,807	-0,061	0,028
-143,760	800,000	0,024	-0,068
-142,745	-200,000	-0,000	-0,045
-141,731	89,643	0,053	-0,043
-140,716	-77,566	-0,108	-0,027
-139,702	-200,000	-0,019	-0,132
-138,687	800,000	-0,021	-0,048
-137,672	270,765	-0,071	-0,091
-136,658	126,836	-0,084	0,077
-135,643	754,528	0,019	-0,038
-134,629	800,000	0,002	-0,007
-133,614	22,765	0,083	-0,049
-132,599	726,244	-0,068	-0,132
-131,585	308,077	0,008	-0,011
-130,570	-40,263	-0,075	-0,028
-129,556	-200,000	0,006	-0,140
-128,541	-200,000	0,007	-0,066
-127,526	800,000	0,030	-0,077
-126,512	-200,000	-0,021	0,122
-125,497	-105,022	0,225	0,037
-124,483	162,916	0,027	-0,028
-123,468	-26,650	0,130	-0,055
-122,453	-58,060	0,019	-0,006
-121,439	-76,543	-0,090	0,023
-120,424	800,000	-0,027	0,058
