DTS Sentinel unit serial number:	SN410029Multiplexer serial number:	ORYXHardware model number:	OX2-SRSoftware version number:	ORYX F/W v4,00 Oryx Data Collector v3.7.2.0data status	okinstallation	B4 Nyhavnadifferential loss correction	single-endedforward channel	channel 2reverse channel	N/Adate	2023/12/16time	01:10:13forward acquisition time	300,00reverse acquisition time	0,00gamma	499,1914k internal	0,3128k external	0,3128temperature offset calibration	1,0000default loss term (dB/km)	0,3820temperature slope calibration	1,0000multiplexer offset coefficient	1,0000multiplexer slope coefficient	1,0000fibre end	0,00T internal ref (°C)	21,92T ext. ref 1 (°C)	6,99T ext. ref 2 (°C)	7,18length (m)	temperature (°C)	Stokes	anti-Stokes-744,400	800,000	-0,034	-0,080
-743,385	-144,006	-0,232	-0,016
-742,371	1,999	0,115	0,061
-741,356	59,510	-0,250	0,183
-740,342	-75,789	0,043	0,011
-739,327	477,190	-0,113	0,190
-738,312	800,000	0,045	-0,109
-737,298	159,216	-0,192	0,199
-736,283	176,855	0,058	-0,063
-735,269	24,420	-0,272	0,167
-734,254	-2,490	-0,066	-0,034
-733,239	-13,861	-0,432	-0,207
-732,225	-115,867	-0,009	0,001
-731,210	3,938	0,037	-0,020
-730,196	-126,567	0,139	-0,015
-729,181	-200,000	-0,027	0,120
-728,167	800,000	-0,007	0,015
-727,152	-200,000	0,015	-0,103
-726,137	-200,000	0,025	-0,114
-725,123	391,862	-0,030	-0,047
-724,108	-183,111	-0,110	-0,001
-723,094	1,136	-0,194	0,103
-722,079	85,430	0,072	-0,059
-721,064	-28,989	0,064	-0,027
-720,050	146,378	0,055	0,055
-719,035	47,190	0,037	0,026
-718,021	41,086	-0,102	-0,068
-717,006	71,859	0,035	-0,027
-715,991	-108,830	-0,285	-0,045
-714,977	800,000	0,028	-0,092
-713,962	65,271	-0,068	-0,051
-712,948	-33,801	0,064	-0,026
-711,933	328,547	-0,044	0,063
-710,918	-65,548	-0,041	0,012
-709,904	800,000	0,027	-0,063
-708,889	31,721	-0,054	0,035
-707,875	-29,986	-0,088	0,037
-706,860	800,000	-0,034	-0,109
-705,845	-200,000	0,026	0,096
-704,831	-29,226	-0,070	-0,029
-703,816	36,560	0,059	-0,038
-702,802	769,141	-0,006	0,013
-701,787	438,265	0,036	-0,058
-700,772	-200,000	0,057	0,202
-699,758	-200,000	-0,026	-0,095
-698,743	-130,241	0,052	-0,005
-697,729	173,123	-0,065	0,070
-696,714	75,815	-0,070	0,055
-695,699	114,486	-0,031	-0,028
-694,685	-116,023	-0,180	0,025
-693,670	-91,893	-0,042	-0,009
-692,656	342,287	-0,067	-0,098
-691,641	-59,471	0,084	-0,027
-690,627	645,946	-0,017	-0,033
-689,612	800,000	0,011	-0,036
-688,597	800,000	0,025	0,062
-687,583	-200,000	0,018	-0,100
-686,568	52,860	-0,076	0,054
-685,554	145,771	0,060	-0,060
-684,539	-200,000	0,006	-0,024
-683,524	52,080	0,011	-0,008
-682,510	-200,000	0,010	-0,064
-681,495	-125,855	-0,058	0,006
-680,481	-200,000	-0,013	-0,088
-679,466	551,225	-0,021	-0,037
-678,451	104,717	0,042	0,037
-677,437	-147,685	-0,047	0,003
-676,422	26,551	-0,051	-0,032
-675,408	-165,497	-0,088	0,003
-674,393	800,000	-0,026	-0,071
-673,378	-200,000	-0,027	-0,104
-672,364	12,503	-0,059	-0,033
-671,349	800,000	0,020	-0,053
-670,335	-141,296	-0,028	0,002
-669,320	63,076	-0,032	-0,023
-668,305	-200,000	0,000	-0,069
-667,291	72,215	-0,111	-0,085
-666,276	311,931	0,103	-0,144
-665,262	-5,860	-0,051	-0,026
-664,247	-81,601	-0,040	-0,010
-663,232	-62,667	-0,080	0,025
-662,218	-200,000	-0,005	-0,098
-661,203	800,000	-0,023	0,071
-660,189	54,457	-0,069	0,049
-659,174	-200,000	0,009	-0,091
-658,159	800,000	0,067	-0,167
-657,145	-12,116	-0,061	-0,029
-656,130	-45,020	-0,111	-0,041
-655,116	-74,598	0,144	-0,038
-654,101	-200,000	-0,015	0,080
-653,086	-200,000	-0,013	0,071
-652,072	374,701	0,015	0,023
-651,057	105,271	-0,150	-0,131
-650,043	248,412	-0,067	-0,084
-649,028	-57,825	-0,163	-0,052
-648,014	282,861	-0,051	-0,069
-646,999	15,400	-0,066	-0,038
-645,984	94,960	-0,099	-0,084
-644,970	-200,000	-0,001	-0,048
-643,955	31,052	0,039	0,025
-642,941	-136,866	-0,072	0,006
-641,926	800,000	0,068	-0,174
-640,911	183,530	-0,023	0,025
-639,897	800,000	-0,021	0,059
-638,882	-140,320	0,085	0,006
-637,868	-200,000	-0,010	-0,035
-636,853	-200,000	-0,018	-0,080
-635,838	-84,726	-0,108	0,025
-634,824	800,000	-0,034	-0,110
-633,809	-79,171	-0,054	0,014
-632,795	338,839	-0,025	0,036
-631,780	-8,412	-0,075	0,037
-630,765	-144,441	0,064	0,004
-629,751	-54,817	-0,130	-0,043
-628,736	-200,000	-0,022	-0,107
-627,722	220,403	0,078	0,093
-626,707	347,670	0,086	0,126
-625,692	-200,000	0,035	0,130
-624,678	800,000	-0,035	-0,074
-623,663	452,468	-0,021	0,034
-622,649	77,299	-0,057	-0,045
-621,634	-47,822	-0,063	0,022
-620,619	800,000	-0,054	-0,127
-619,605	-200,000	-0,011	-0,043
-618,590	51,074	0,059	-0,041
-617,576	-113,211	-0,070	0,010
-616,561	-19,004	-0,114	0,052
-615,546	265,512	-0,050	-0,065
-614,532	352,665	0,100	-0,148
-613,517	333,368	-0,048	-0,069
-612,503	544,744	-0,027	0,047
-611,488	10,558	0,044	-0,025
-610,474	329,406	0,062	-0,089
-609,459	-16,740	-0,079	0,037
-608,444	-43,852	-0,129	-0,048
-607,430	77,196	-0,102	-0,080
-606,415	145,504	-0,018	-0,018
-605,401	800,000	0,045	0,105
-604,386	-200,000	0,014	-0,150
-603,371	-112,421	-0,047	-0,007
-602,357	800,000	0,027	0,088
-601,342	398,450	-0,106	-0,165
-600,328	800,000	0,060	-0,144
-599,313	504,696	0,070	0,121
-598,298	503,575	-0,012	-0,020
-597,284	-64,900	-0,092	-0,027
-596,269	-65,840	0,095	0,028
-595,255	-59,988	-0,056	0,018
-594,240	160,311	0,067	0,070
-593,225	-79,373	0,019	-0,005
-592,211	328,638	0,068	0,097
-591,196	373,016	-0,056	-0,085
-590,182	256,038	-0,031	-0,040
-589,167	589,677	-0,038	0,069
-588,152	-142,155	-0,045	0,003
-587,138	800,000	-0,034	0,103
-586,123	53,418	0,114	-0,081
-585,109	588,917	-0,059	-0,107
-584,094	235,711	0,032	-0,039
-583,079	-200,000	-0,002	-0,057
-582,065	800,000	0,032	-0,095
-581,050	-200,000	-0,019	0,135
-580,036	-200,000	-0,031	-0,136
-579,021	-45,818	-0,086	-0,031
-578,006	2,232	0,065	0,034
-576,992	110,343	-0,140	-0,124
-575,977	800,000	-0,011	-0,033
-574,963	-29,720	0,113	-0,047
-573,948	-20,164	0,022	0,010
-572,934	-200,000	0,021	-0,121
-571,919	216,631	0,056	0,066
-570,904	424,489	-0,043	-0,068
-569,890	271,109	-0,107	-0,140
-568,875	-200,000	0,002	0,094
-567,861	800,000	0,052	0,155
-566,846	55,943	0,062	0,044
-565,831	62,303	-0,057	-0,042
-564,817	-100,375	0,100	0,018
-563,802	-179,140	-0,161	-0,003
-562,788	-122,958	-0,082	-0,010
-561,773	-200,000	-0,041	-0,148
-560,758	-85,391	0,107	-0,024
-559,744	81,359	0,131	-0,104
-558,729	-105,397	-0,056	0,009
-557,715	-200,000	0,003	-0,088
-556,700	93,266	0,033	0,028
-555,685	-85,078	-0,031	0,007
-554,671	-13,279	-0,094	0,045
-553,656	-126,939	0,061	-0,007
-552,642	70,049	-0,051	-0,039
-551,627	-200,000	-0,010	-0,080
-550,612	-155,358	-0,055	-0,003
-549,598	-11,489	0,041	-0,020
-548,583	-120,971	0,062	0,008
-547,569	394,018	-0,051	-0,079
-546,554	-200,000	-0,005	0,067
-545,539	-200,000	0,014	-0,118
-544,525	-118,041	0,092	0,012
-543,510	-200,000	0,000	0,067
-542,496	800,000	0,024	-0,063
-541,481	74,829	0,106	0,082
-540,466	27,991	0,106	0,066
-539,452	-130,661	-0,047	-0,005
-538,437	1,443	0,192	-0,102
-537,423	-77,581	-0,119	-0,030
-536,408	-200,000	0,006	0,024
-535,393	800,000	0,022	0,047
-534,379	-12,038	0,109	0,052
-533,364	-37,070	0,047	-0,018
-532,350	800,000	-0,062	0,154
-531,335	-26,425	0,045	0,019
-530,321	-64,922	0,111	-0,033
-529,306	202,111	-0,056	-0,064
-528,291	348,092	0,093	-0,136
-527,277	-140,309	-0,092	-0,007
-526,262	59,790	-0,015	-0,011
-525,248	170,239	-0,109	0,115
-524,233	-4,821	0,055	0,028
-523,218	-200,000	-0,010	-0,084
-522,204	465,976	-0,111	0,185
-521,189	776,041	-0,023	-0,047
-520,175	-200,000	-0,019	0,070
-519,160	-119,243	0,087	0,011
-518,145	681,340	0,056	0,108
-517,131	-104,958	-0,092	0,015
-516,116	-197,263	0,118	-0,001
-515,102	-200,000	-0,015	0,117
-514,087	-30,321	0,041	0,017
-513,072	181,649	-0,060	0,066
-512,058	-200,000	-0,013	-0,091
-511,043	-200,000	-0,020	-0,162
-510,029	-49,081	0,076	0,027
-509,014	87,677	0,120	0,098
-507,999	-200,000	0,016	0,078
-506,985	355,312	-0,068	-0,100
-505,970	53,027	-0,050	-0,035
-504,956	-200,000	-0,014	-0,152
-503,941	800,000	0,033	0,090
-502,926	-20,135	0,106	-0,048
-501,912	614,780	0,068	0,127
-500,897	362,763	0,032	-0,048
-499,883	178,009	-0,092	-0,099
-498,868	92,823	-0,023	-0,019
-497,853	-200,000	-0,032	-0,106
-496,839	7,525	0,119	-0,066
-495,824	-200,000	0,002	-0,025
-494,810	-200,000	0,005	0,035
-493,795	-200,000	-0,013	-0,060
-492,781	106,326	-0,082	-0,072
-491,766	759,448	0,002	0,005
-490,751	-200,000	-0,009	-0,032
-489,737	-138,126	0,096	0,008
-488,722	800,000	-0,044	0,120
-487,708	-157,408	0,067	-0,003
-486,693	-200,000	-0,021	-0,085
-485,678	-200,000	0,017	-0,095
-484,664	-114,031	-0,061	-0,009
-483,649	800,000	0,044	-0,098
-482,635	-134,363	-0,029	-0,003
-481,620	-55,190	-0,105	0,035
-480,605	-200,000	0,034	-0,145
-479,591	336,767	0,054	0,078
-478,576	-200,000	-0,031	-0,146
-477,562	40,776	0,078	-0,052
-476,547	800,000	0,059	-0,165
-475,532	-32,681	0,047	0,019
-474,518	-200,000	0,012	-0,060
-473,503	800,000	-0,020	0,054
-472,489	520,799	0,032	-0,055
-471,474	-200,000	-0,000	0,038
-470,459	-45,321	-0,127	-0,046
-469,445	-95,631	0,082	0,016
-468,430	-200,000	-0,010	0,083
-467,416	-152,408	-0,004	0,000
-466,401	-21,612	0,110	0,049
-465,386	149,967	0,090	0,090
-464,372	-200,000	-0,036	-0,135
-463,357	800,000	-0,027	-0,067
-462,343	800,000	-0,025	0,054
-461,328	45,119	0,045	-0,030
-460,313	-151,473	-0,002	0,000
-459,299	36,816	-0,021	0,013
-458,284	183,906	0,132	0,144
-457,270	252,496	-0,061	0,077
-456,255	-71,590	-0,155	0,042
-455,241	-200,000	-0,010	-0,064
-454,226	360,195	-0,042	0,062
-453,211	2,709	0,104	0,055
-452,197	545,392	-0,034	-0,059
-451,182	-200,000	-0,002	0,017
-450,168	-61,565	0,080	0,025
-449,153	-121,162	-0,146	0,018
-448,138	3,257	-0,050	0,027
-447,124	-53,009	-0,034	-0,011
-446,109	56,220	-0,078	0,056
-445,095	75,347	0,036	0,028
-444,080	-200,000	-0,006	0,104
-443,065	14,106	-0,034	-0,019
-442,051	-200,000	-0,024	0,094
-441,036	-200,000	0,027	-0,095
-440,022	67,016	-0,052	-0,039
-439,007	-200,000	0,031	-0,102
-437,992	104,606	-0,080	0,070
-436,978	132,118	0,088	0,083
-435,963	-6,410	-0,103	0,051
-434,949	-18,027	-0,036	-0,016
-433,934	-130,620	0,075	-0,007
-432,919	-200,000	-0,019	0,068
-431,905	-200,000	0,019	0,080
-430,890	-200,000	0,036	-0,139
-429,876	-200,000	0,003	-0,028
-428,861	-200,000	-0,016	-0,089
-427,846	297,808	-0,041	-0,056
-426,832	800,000	-0,039	-0,123
-425,817	-200,000	-0,011	0,068
-424,803	800,000	-0,075	0,155
-423,788	213,246	-0,063	-0,073
-422,773	503,632	0,085	0,144
-421,759	300,373	0,087	0,118
-420,744	-200,000	0,004	-0,041
-419,730	123,842	-0,045	-0,042
-418,715	692,218	-0,007	-0,013
-417,701	-200,000	0,043	0,169
-416,686	-41,922	0,017	0,006
-415,671	505,476	-0,047	0,081
-414,657	23,053	0,053	0,032
-413,642	362,591	-0,030	0,045
-412,628	57,430	0,064	-0,046
-411,613	-58,411	-0,148	-0,047
-410,598	-40,210	0,082	-0,031
-409,584	-200,000	-0,015	0,111
-408,569	91,723	-0,027	-0,022
-407,555	43,743	0,100	-0,067
-406,540	8,989	-0,105	0,058
-405,525	-90,360	0,100	-0,021
-404,511	65,747	0,016	-0,012
-403,496	800,000	0,010	0,023
-402,482	800,000	-0,035	-0,076
-401,467	800,000	-0,057	-0,119
-400,452	-200,000	0,003	0,033
-399,438	78,918	0,033	-0,026
-398,423	341,689	0,076	-0,110
-397,409	-47,190	-0,074	0,026
-396,394	-29,978	-0,106	-0,044
-395,379	161,542	0,048	0,049
-394,365	-200,000	-0,008	0,078
-393,350	-200,000	0,001	0,086
-392,336	-117,813	-0,037	-0,005
-391,321	-200,000	-0,011	-0,075
-390,306	212,278	-0,105	-0,121
-389,292	-200,000	0,004	0,017
-388,277	-35,982	-0,110	0,043
-387,263	-200,000	0,042	0,138
-386,248	595,001	0,038	-0,070
-385,233	166,889	0,088	0,092
-384,219	-110,842	-0,059	-0,009
-383,204	-200,000	-0,004	-0,027
-382,190	134,752	0,096	0,091
-381,175	800,000	0,030	-0,068
-380,160	-130,196	0,067	0,007
-379,146	-46,292	0,057	0,020
-378,131	164,170	0,135	0,140
-377,117	-163,889	-0,013	-0,000
-376,102	-200,000	0,007	0,063
-375,088	-1,587	0,080	-0,041
-374,073	298,848	-0,043	-0,058
-373,058	-200,000	-0,001	0,003
-372,044	800,000	0,021	-0,059
-371,029	800,000	0,014	-0,033
-370,015	-200,000	0,022	-0,076
-369,000	298,233	-0,086	-0,116
-367,985	192,967	-0,112	-0,125
-366,971	419,708	0,021	-0,034
-365,956	472,205	-0,020	-0,033
-364,942	-200,000	0,022	0,081
-363,927	250,725	-0,036	0,044
-362,912	-200,000	0,013	0,057
-361,898	170,504	-0,100	-0,105
-360,883	-164,715	0,044	-0,001
-359,869	71,866	0,121	0,092
-358,854	-7,442	-0,115	0,057
-357,839	-68,533	0,016	0,005
-356,825	197,297	0,129	0,144
-355,810	233,870	0,029	-0,035
-354,796	-200,000	-0,024	0,111
-353,781	26,667	0,103	0,063
-352,766	-200,000	0,008	-0,139
-351,752	-200,000	0,009	-0,122
-350,737	30,516	0,023	-0,014
-349,723	-28,825	-0,040	0,017
-348,708	-200,000	0,000	-0,074
-347,693	520,549	0,014	-0,024
-346,679	-126,800	0,146	-0,016
-345,664	8,307	-0,075	-0,041
-344,650	-64,608	-0,120	-0,036
-343,635	-200,000	0,001	0,081
-342,620	-44,117	0,101	-0,037
-341,606	-79,190	-0,144	0,036
-340,591	28,436	0,037	-0,023
-339,577	7,339	-0,029	-0,016
-338,562	-200,000	0,012	0,046
-337,548	800,000	0,048	0,142
-336,533	130,762	-0,037	0,035
-335,518	-135,256	0,120	0,010
-334,504	225,321	0,129	0,153
-333,489	-200,000	0,008	-0,034
-332,475	-200,000	-0,037	-0,163
-331,460	-161,367	-0,212	-0,008
-330,445	-38,931	-0,027	-0,010
-329,431	24,718	-0,034	0,021
-328,416	540,259	-0,019	-0,033
-327,402	119,088	0,141	0,128
-326,387	15,138	-0,026	0,015
-325,372	41,191	-0,152	-0,100
-324,358	-200,000	0,043	-0,246
-323,343	-200,000	-0,022	-0,126
-322,329	-17,015	0,085	0,039
-321,314	800,000	-0,028	0,072
-320,299	-47,695	0,160	-0,057
-319,285	609,194	-0,014	0,027
-318,270	-200,000	0,032	-0,119
-317,256	-87,582	-0,114	-0,025
-316,241	-200,000	-0,011	0,090
-315,226	800,000	0,030	0,089
-314,212	-200,000	0,015	0,068
-313,197	-40,764	0,101	0,038
-312,183	229,907	-0,041	-0,049
-311,168	70,958	-0,059	0,045
-310,153	-23,051	-0,205	-0,090
-309,139	800,000	-0,080	-0,187
-308,124	180,965	0,072	0,077
-307,110	-200,000	0,018	-0,081
-306,095	800,000	-0,022	0,069
-305,080	-29,777	0,094	-0,039
-304,066	253,390	-0,020	0,025
-303,051	-69,683	-0,104	0,029
-302,037	-124,078	-0,100	-0,011
-301,022	800,000	0,042	-0,088
-300,008	-14,780	-0,049	-0,023
-298,993	800,000	-0,006	-0,014
-297,978	-58,242	-0,061	0,019
-296,964	-6,893	0,068	-0,034
-295,949	-117,549	-0,084	0,011
-294,935	-72,915	-0,081	-0,022
-293,920	140,167	-0,047	-0,046
-292,905	-200,000	0,003	0,032
-291,891	-200,000	-0,027	0,214
-290,876	174,600	0,017	0,018
-289,862	88,087	0,122	0,099
-288,847	73,372	-0,066	0,050
-287,832	41,669	-0,088	-0,058
-286,818	-126,556	0,056	0,006
-285,803	175,283	-0,064	-0,068
-284,789	81,680	0,058	0,046
-283,774	-200,000	0,010	0,140
-282,759	-200,000	-0,006	0,078
-281,745	16,734	-0,171	-0,099
-280,730	194,873	-0,063	-0,070
-279,716	-15,842	0,084	0,039
-278,701	-63,572	-0,049	0,015
-277,686	170,188	0,050	0,052
-276,672	111,095	-0,033	-0,029
-275,657	77,966	-0,028	0,021
-274,643	61,535	0,097	0,071
-273,628	-184,035	0,028	-0,000
-272,613	-189,175	-0,076	-0,001
-271,599	800,000	0,040	0,118
-270,584	58,189	0,056	0,040
-269,570	179,205	0,064	0,068
-268,555	-82,277	-0,086	0,020
-267,540	-62,168	-0,090	0,027
-266,526	594,805	0,028	0,051
-265,511	-84,800	-0,061	0,014
-264,497	-106,703	0,150	0,024
-263,482	-101,861	0,115	0,020
-262,467	372,582	0,092	0,137
-261,453	649,453	-0,040	0,074
-260,438	-71,802	-0,108	0,029
-259,424	167,141	0,045	-0,047
-258,409	-34,957	0,121	0,048
-257,395	-78,442	-0,030	0,008
-256,380	-84,683	0,050	0,011
-255,365	-180,074	0,106	0,002
-254,351	192,664	0,045	0,049
-253,336	157,233	0,118	-0,120
-252,322	54,549	0,025	-0,018
-251,307	800,000	-0,041	0,099
-250,292	-200,000	-0,001	0,017
-249,278	800,000	-0,018	0,048
-248,263	94,866	0,138	-0,114
-247,249	-200,000	0,007	0,135
-246,234	57,236	-0,050	0,036
-245,219	95,034	-0,096	0,080
-244,205	-74,374	-0,047	0,012
-243,190	-92,889	-0,022	-0,004
-242,176	-200,000	0,011	-0,114
-241,161	-200,000	0,017	0,115
-240,146	800,000	-0,043	0,091
-239,132	230,975	0,024	0,029
-238,117	134,085	0,067	-0,064
-237,103	297,374	-0,018	0,024
-236,088	68,969	0,015	0,011
-235,073	-9,087	0,074	0,036
-234,059	-162,806	0,148	0,005
-233,044	-19,682	-0,082	-0,037
-232,030	-200,000	0,010	-0,143
-231,015	-45,064	-0,041	0,015
-230,000	75,434	0,109	0,084
-228,986	800,000	0,009	0,027
-227,971	323,885	-0,017	-0,024
-226,957	97,193	0,101	0,085
-225,942	236,372	0,069	-0,084
-224,927	119,479	0,067	0,061
-223,913	-200,000	-0,007	-0,049
-222,898	-146,600	-0,102	-0,006
-221,884	114,602	-0,052	-0,047
-220,869	28,017	0,176	0,108
-219,855	-43,068	0,140	-0,052
-218,840	2,139	-0,092	-0,048
-217,825	106,648	0,051	-0,044
-216,811	301,139	-0,043	-0,058
-215,796	-200,000	0,009	-0,094
-214,782	-200,000	0,006	-0,055
-213,767	118,260	-0,064	0,058
-212,752	-51,969	0,135	0,045
-211,738	317,468	0,015	0,021
-210,723	323,190	0,051	-0,071
-209,709	-67,358	0,072	0,021
-208,694	800,000	-0,040	-0,108
-207,679	343,897	0,030	-0,044
-206,665	34,326	0,078	0,049
-205,650	-200,000	-0,029	0,105
-204,636	165,288	0,037	0,038
-203,621	-200,000	-0,018	0,102
-202,606	-124,506	-0,198	0,022
-201,592	293,705	0,050	-0,067
-200,577	787,606	0,025	-0,049
-199,563	-200,000	0,010	-0,118
-198,548	153,619	-0,045	0,045
-197,533	125,108	-0,070	0,064
-196,519	800,000	0,043	-0,126
-195,504	-200,000	-0,004	-0,055
-194,490	-109,435	-0,085	0,013
-193,475	145,855	-0,061	0,060
-192,460	-200,000	0,001	0,098
-191,446	800,000	-0,036	-0,090
-190,431	-41,115	0,228	0,085
-189,417	-200,000	0,020	0,127
-188,402	31,311	0,096	-0,060
-187,387	-191,350	-0,181	0,001
-186,373	116,770	-0,008	0,007
-185,358	135,208	-0,022	0,021
-184,344	164,285	0,063	-0,064
-183,329	-136,899	0,122	0,010
-182,315	-200,000	-0,007	-0,084
-181,300	36,742	-0,125	0,080
-180,285	800,000	-0,021	-0,053
-179,271	458,540	-0,065	-0,106
-178,256	539,837	0,045	0,079
-177,242	-64,926	-0,076	-0,022
-176,227	107,436	-0,022	0,019
-175,212	57,157	-0,045	-0,032
-174,198	800,000	-0,009	0,023
-173,183	108,800	-0,126	0,109
-172,169	591,126	-0,058	0,105
-171,154	-200,000	0,001	0,081
-170,139	117,443	-0,103	0,093
-169,125	9,139	0,106	0,058
-168,110	-200,000	-0,005	0,070
-167,096	-200,000	0,025	0,144
-166,081	-200,000	0,002	0,253
-165,066	-200,000	0,006	0,039
-164,052	-83,677	0,079	0,018
-163,037	-147,851	-0,056	-0,003
-162,023	-200,000	0,014	0,114
-161,008	117,247	0,129	0,116
-159,993	365,861	0,109	0,160
-158,979	800,000	0,071	-0,153
-157,964	-200,000	0,019	-0,088
-156,950	-200,000	-0,003	-0,068
-155,935	-200,000	0,013	0,114
-154,920	-152,541	0,044	0,002
-153,906	771,272	-0,046	-0,091
-152,891	-10,177	-0,100	0,048
-151,877	800,000	-0,047	-0,111
-150,862	800,000	-0,056	-0,136
-149,847	-46,408	-0,070	0,025
-148,833	92,930	-0,065	-0,053
-147,818	800,000	-0,031	0,075
-146,804	-143,940	-0,074	-0,005
-145,789	800,000	0,049	0,155
-144,775	-200,000	-0,013	0,149
-143,760	-92,836	0,077	-0,015
-142,745	259,577	-0,061	-0,076
-141,731	-190,669	0,084	0,001
-140,716	-7,513	-0,077	-0,038
-139,702	800,000	-0,023	0,063
-138,687	45,803	0,139	0,093
-137,672	-92,531	-0,057	-0,011
-136,658	8,911	-0,143	-0,078
-135,643	159,973	0,076	0,077
-134,629	49,895	-0,106	-0,073
-133,614	-200,000	-0,018	-0,082
-132,599	-116,635	0,039	-0,005
-131,585	-106,460	-0,038	-0,006
-130,570	-200,000	0,042	0,138
-129,556	570,927	-0,038	-0,067
-128,541	215,866	-0,012	-0,014
-127,526	-147,543	0,063	-0,004
-126,512	-172,151	0,113	0,003
-125,497	179,030	0,043	0,046
-124,483	126,633	0,058	0,053
-123,468	127,682	-0,144	-0,133
-122,453	248,264	-0,071	-0,087
-121,439	118,781	0,076	-0,068
-120,424	371,626	0,040	0,058
-119,410	-8,540	-0,111	0,054
