DTS Sentinel unit serial number:	SN410029Multiplexer serial number:	ORYXHardware model number:	OX2-SRSoftware version number:	ORYX F/W v4,00 Oryx Data Collector v3.7.2.0data status	okinstallation	B4 Nyhavnadifferential loss correction	single-endedforward channel	channel 2reverse channel	N/Adate	2023/12/16time	04:20:13forward acquisition time	300,00reverse acquisition time	0,00gamma	499,1914k internal	0,3128k external	0,3128temperature offset calibration	1,0000default loss term (dB/km)	0,3820temperature slope calibration	1,0000multiplexer offset coefficient	1,0000multiplexer slope coefficient	1,0000fibre end	0,00T internal ref (°C)	22,00T ext. ref 1 (°C)	7,16T ext. ref 2 (°C)	7,33length (m)	temperature (°C)	Stokes	anti-Stokes-744,400	61,796	-0,059	-0,044
-743,385	407,031	-0,162	0,256
-742,371	-200,000	-0,014	-0,158
-741,356	-69,920	-0,199	0,056
-740,342	-43,267	0,061	-0,023
-739,327	-25,920	-0,121	0,053
-738,312	-200,000	-0,013	-0,096
-737,298	165,692	-0,153	0,161
-736,283	5,643	0,230	-0,126
-735,269	-97,927	-0,222	-0,042
-734,254	61,685	-0,079	-0,058
-733,239	-109,215	-0,381	-0,060
-732,225	318,755	-0,059	-0,084
-731,210	800,000	0,053	0,137
-730,196	-53,691	-0,152	0,051
-729,181	-112,868	-0,131	0,019
-728,167	144,493	0,051	0,051
-727,152	-6,390	0,021	-0,011
-726,137	511,065	-0,038	0,065
-725,123	-63,242	-0,201	-0,061
-724,108	-200,000	-0,030	-0,152
-723,094	-124,317	-0,116	0,013
-722,079	38,524	-0,089	-0,059
-721,064	47,272	0,081	0,056
-720,050	-4,150	-0,101	0,052
-719,035	604,855	-0,062	0,115
-718,021	7,186	-0,062	-0,034
-717,006	-57,783	-0,145	-0,047
-715,991	272,108	0,043	-0,057
-714,977	273,386	-0,062	-0,082
-713,962	-200,000	0,005	0,106
-712,948	-200,000	-0,009	-0,113
-711,933	-200,000	-0,009	0,091
-710,918	18,540	-0,110	0,065
-709,904	92,392	-0,084	-0,070
-708,889	800,000	0,028	-0,069
-707,875	-56,553	-0,061	-0,020
-706,860	-92,781	0,072	0,015
-705,845	-76,884	0,157	0,040
-704,831	-25,099	-0,125	-0,055
-703,816	-66,270	0,059	-0,017
-702,802	60,724	-0,083	0,061
-701,787	-200,000	-0,021	-0,072
-700,772	567,833	0,048	0,088
-699,758	97,142	-0,077	0,065
-698,743	-94,045	-0,049	-0,010
-697,729	665,050	0,011	0,022
-696,714	152,711	0,059	-0,060
-695,699	-200,000	-0,029	-0,173
-694,685	-40,091	-0,187	-0,072
-693,670	417,889	-0,081	-0,129
-692,656	84,105	0,067	0,054
-691,641	11,600	0,111	0,063
-690,627	-200,000	0,013	0,095
-689,612	800,000	-0,026	-0,058
-688,597	200,015	-0,036	-0,041
-687,583	753,512	-0,058	-0,117
-686,568	-200,000	0,020	-0,139
-685,554	-200,000	0,001	-0,052
-684,539	800,000	-0,009	0,020
-683,524	-200,000	-0,011	0,042
-682,510	-200,000	-0,015	0,061
-681,495	433,454	-0,041	-0,067
-680,481	215,056	0,110	-0,130
-679,466	-152,983	-0,105	-0,005
-678,451	-200,000	-0,000	0,136
-677,437	-96,321	0,027	-0,005
-676,422	52,005	0,083	-0,059
-675,408	173,142	-0,090	0,096
-674,393	526,989	-0,061	-0,107
-673,378	-94,967	-0,120	-0,024
-672,364	493,174	-0,038	-0,065
-671,349	64,666	-0,059	-0,044
-670,335	0,458	0,047	0,025
-669,320	200,902	0,048	0,055
-668,305	-124,441	0,070	-0,008
-667,291	-200,000	-0,014	-0,049
-666,276	-118,405	-0,194	0,025
-665,262	16,263	-0,097	-0,057
-664,247	-200,000	-0,041	-0,167
-663,232	122,056	0,080	0,074
-662,218	55,391	-0,078	0,056
-661,203	-200,000	0,003	-0,039
-660,189	207,477	0,061	-0,071
-659,174	-200,000	0,013	0,046
-658,159	50,191	-0,037	-0,026
-657,145	800,000	-0,058	-0,136
-656,130	800,000	-0,015	0,040
-655,116	155,337	0,142	-0,145
-654,101	800,000	-0,017	0,038
-653,086	174,071	0,103	0,110
-652,072	11,266	-0,026	0,015
-651,057	-145,827	-0,148	-0,010
-650,043	37,173	-0,148	-0,097
-649,028	-44,659	-0,042	-0,016
-648,014	800,000	-0,067	0,187
-646,999	492,095	-0,085	0,146
-645,984	532,051	-0,074	0,131
-644,970	144,256	-0,129	-0,128
-643,955	47,047	0,009	-0,007
-642,941	-200,000	0,012	0,051
-641,926	-73,454	-0,052	-0,014
-640,911	-77,660	-0,050	0,013
-639,897	-82,214	-0,104	0,025
-638,882	-146,243	-0,059	0,004
-637,868	274,334	0,031	-0,041
-636,853	520,322	0,010	0,018
-635,838	800,000	-0,023	-0,049
-634,824	116,060	-0,014	0,013
-633,809	17,182	0,031	0,018
-632,795	-200,000	0,000	-0,109
-631,780	-138,913	0,129	-0,010
-630,765	-131,625	-0,103	0,010
-629,751	-200,000	-0,013	0,061
-628,736	-43,782	-0,055	-0,021
-627,722	-35,777	0,075	-0,030
-626,707	151,502	0,091	0,092
-625,692	-105,899	-0,115	0,019
-624,678	-200,000	-0,010	0,035
-623,663	800,000	0,023	-0,052
-622,649	476,879	-0,050	0,084
-621,634	99,147	-0,066	-0,057
-620,619	-200,000	0,017	0,064
-619,605	-108,445	0,025	0,004
-618,590	48,886	-0,058	-0,040
-617,576	-200,000	0,005	-0,243
-616,561	-54,313	-0,128	0,043
-615,546	-92,070	-0,095	-0,020
-614,532	168,363	-0,177	-0,187
-613,517	62,429	-0,079	0,058
-612,503	231,418	0,096	-0,117
-611,488	36,798	0,128	-0,083
-610,474	800,000	0,019	-0,039
-609,459	215,832	-0,045	0,053
-608,444	-200,000	0,010	0,094
-607,430	-200,000	-0,039	0,130
-606,415	-133,222	0,066	-0,006
-605,401	194,703	-0,101	-0,114
-604,386	341,884	0,030	0,043
-603,371	-200,000	0,003	0,069
-602,357	13,876	0,066	-0,038
-601,342	-33,862	-0,062	-0,025
-600,328	722,680	-0,017	-0,034
-599,313	-89,063	0,055	-0,012
-598,298	-48,031	0,057	-0,020
-597,284	-2,662	0,081	-0,042
-596,269	131,965	-0,119	-0,114
-595,255	-200,000	-0,026	-0,237
-594,240	63,121	-0,165	-0,122
-593,225	-200,000	0,002	-0,041
-592,211	-183,144	0,128	-0,002
-591,196	-26,127	-0,129	-0,056
-590,182	-200,000	0,001	0,025
-589,167	-200,000	0,000	-0,055
-588,152	800,000	0,017	0,052
-587,138	81,392	-0,074	-0,059
-586,123	-10,634	-0,107	0,052
-585,109	37,951	-0,076	0,050
-584,094	-70,758	-0,087	-0,024
-583,079	85,059	0,054	-0,044
-582,065	-200,000	0,013	0,055
-581,050	786,741	-0,085	0,172
-580,036	800,000	0,053	-0,125
-579,021	6,824	0,159	0,087
-578,006	-179,906	-0,076	0,001
-576,992	160,894	0,082	-0,085
-575,977	-121,597	0,043	-0,005
-574,963	-28,444	-0,069	-0,029
-573,948	-61,067	-0,096	-0,030
-572,934	39,232	0,075	-0,050
-571,919	62,347	-0,097	-0,071
-570,904	171,672	-0,127	0,135
-569,890	800,000	-0,028	-0,067
-568,875	800,000	-0,042	-0,119
-567,861	564,014	0,009	0,016
-566,846	-20,212	0,107	0,048
-565,831	236,893	-0,055	0,067
-564,817	-101,705	-0,106	0,019
-563,802	383,823	0,123	-0,187
-562,788	293,933	0,036	0,049
-561,773	27,080	0,096	0,059
-560,758	158,004	0,050	-0,051
-559,744	-200,000	0,008	0,036
-558,729	45,211	-0,031	-0,021
-557,715	-200,000	0,013	0,088
-556,700	-106,652	-0,051	0,008
-555,685	-200,000	-0,032	-0,161
-554,671	653,676	0,074	0,141
-553,656	-200,000	0,054	0,237
-552,642	-25,946	0,114	0,049
-551,627	-104,641	0,053	0,009
-550,612	800,000	-0,008	0,020
-549,598	-200,000	0,006	0,061
-548,583	-183,330	-0,108	-0,001
-547,569	229,671	0,038	0,046
-546,554	-36,282	0,051	0,020
-545,539	-21,006	0,056	-0,025
-544,525	428,247	0,100	-0,161
-543,510	-200,000	0,023	-0,125
-542,496	126,154	-0,063	-0,059
-541,481	-200,000	-0,002	-0,042
-540,466	-200,000	-0,028	-0,109
-539,452	582,528	-0,008	-0,014
-538,437	-200,000	0,004	0,064
-537,423	-200,000	0,036	0,187
-536,408	-200,000	0,032	0,143
-535,393	-200,000	0,006	0,060
-534,379	-200,000	-0,002	-0,153
-533,364	800,000	0,041	-0,087
-532,350	-32,051	0,011	-0,005
-531,335	43,750	-0,109	0,073
-530,321	271,536	0,028	-0,036
-529,306	-78,779	-0,138	-0,034
-528,291	-200,000	0,032	-0,105
-527,277	-200,000	-0,009	-0,101
-526,262	-136,807	-0,167	0,014
-525,248	-31,320	-0,085	-0,035
-524,233	544,234	-0,015	0,026
-523,218	401,690	-0,014	0,022
-522,204	-64,046	-0,183	-0,055
-521,189	-69,801	0,081	0,023
-520,175	-134,485	0,201	-0,018
-519,160	-200,000	-0,007	-0,075
-518,145	-200,000	0,011	-0,134
-517,131	-73,363	0,154	0,041
-516,116	-200,000	0,004	-0,030
-515,102	-200,000	0,016	-0,115
-514,087	-57,308	-0,088	0,028
-513,072	48,345	-0,090	0,062
-512,058	-33,063	0,084	-0,034
-511,043	-144,616	0,029	-0,002
-510,029	-200,000	0,014	0,132
-509,014	91,569	0,120	0,100
-507,999	341,778	-0,018	-0,026
-506,985	800,000	-0,045	-0,131
-505,970	-108,716	0,125	0,019
-504,956	-200,000	-0,007	-0,034
-503,941	-200,000	0,022	0,130
-502,926	236,817	0,075	-0,092
-501,912	256,212	-0,088	0,111
-500,897	-100,371	-0,066	0,012
-499,883	319,146	0,021	-0,030
-498,868	800,000	-0,018	-0,055
-497,853	-200,000	-0,016	-0,175
-496,839	-200,000	-0,015	0,164
-495,824	508,254	0,088	0,152
-494,810	800,000	0,054	0,112
-493,795	165,916	-0,033	-0,035
-492,781	-56,383	0,112	0,036
-491,766	-124,269	-0,061	-0,007
-490,751	800,000	-0,032	-0,089
-489,737	-71,716	0,183	0,050
-488,722	470,829	-0,057	-0,095
-487,708	-200,000	0,020	0,069
-486,693	-200,000	-0,014	0,083
-485,678	137,122	0,043	0,041
-484,664	1,360	0,078	-0,041
-483,649	115,777	0,018	-0,016
-482,635	800,000	0,011	-0,025
-481,620	10,665	0,109	0,061
-480,605	142,918	0,036	-0,035
-479,591	-22,960	0,037	-0,016
-478,576	-54,702	0,114	-0,038
-477,562	-122,680	-0,033	-0,004
-476,547	9,773	-0,107	-0,060
-475,532	132,892	-0,010	0,010
-474,518	436,656	-0,039	-0,063
-473,503	-42,291	-0,028	-0,010
-472,489	436,021	-0,066	-0,106
-471,474	-200,000	0,007	-0,029
-470,459	-59,534	-0,102	0,032
-469,445	-19,697	-0,113	0,051
-468,430	163,406	0,027	0,028
-467,416	-97,645	-0,156	0,030
-466,401	800,000	-0,022	-0,070
-465,386	121,664	0,036	-0,033
-464,372	-126,276	0,098	0,011
-463,357	139,514	-0,151	-0,146
-462,343	-111,033	-0,201	0,030
-461,328	563,770	-0,033	0,059
-460,313	-200,000	-0,012	0,086
-459,299	800,000	0,051	-0,122
-458,284	183,965	-0,077	0,084
-457,270	-16,445	0,087	0,041
-456,255	-200,000	-0,006	0,124
-455,241	800,000	0,078	-0,216
-454,226	800,000	0,045	-0,105
-453,211	-82,616	0,056	0,013
-452,197	-50,607	0,047	0,016
-451,182	-48,076	0,173	0,061
-450,168	800,000	-0,053	0,142
-449,153	263,089	-0,049	-0,063
-448,138	-129,804	0,129	-0,013
-447,124	-18,902	-0,095	0,043
-446,109	-30,833	-0,022	0,009
-445,095	800,000	0,033	0,087
-444,080	242,895	0,051	0,063
-443,065	1,151	0,107	-0,056
-442,051	180,504	-0,020	-0,022
-441,036	-60,340	-0,037	0,011
-440,022	7,776	-0,106	0,058
-439,007	740,747	0,044	-0,088
-437,992	101,203	0,073	0,063
-436,978	-200,000	0,003	0,028
-435,963	-200,000	0,001	0,080
-434,949	-91,920	-0,069	0,014
-433,934	-200,000	0,001	-0,151
-432,919	246,757	0,095	-0,119
-431,905	-22,355	-0,191	0,085
-430,890	-69,881	0,068	-0,019
-429,876	800,000	0,023	-0,054
-428,861	543,387	-0,067	-0,118
-427,846	-136,054	0,052	0,004
-426,832	316,826	0,017	-0,024
-425,817	-41,326	-0,083	0,031
-424,803	251,934	-0,055	0,068
-423,788	191,978	0,053	0,059
-422,773	-200,000	-0,023	-0,112
-421,759	-41,814	0,088	-0,033
-420,744	422,456	0,012	0,019
-419,730	287,698	-0,067	0,089
-418,715	-200,000	0,024	0,121
-417,701	-140,768	-0,114	0,009
-416,686	83,384	0,118	0,094
-415,671	259,713	0,045	0,057
-414,657	-200,000	-0,019	-0,067
-413,642	-45,374	0,155	-0,056
-412,628	-58,831	0,064	-0,020
-411,613	221,841	-0,049	-0,059
-410,598	-200,000	0,001	-0,080
-409,584	751,910	0,040	-0,079
-408,569	-94,552	-0,076	-0,015
-407,555	117,866	-0,044	-0,040
-406,540	800,000	-0,016	-0,045
-405,525	72,435	-0,047	-0,036
-404,511	-183,750	-0,085	-0,001
-403,496	-200,000	0,010	-0,105
-402,482	17,762	-0,072	-0,042
-401,467	-130,665	0,127	0,012
-400,452	635,130	-0,021	-0,039
-399,438	800,000	-0,007	-0,014
-398,423	114,483	-0,069	0,062
-397,409	-50,899	-0,080	0,028
-396,394	1,356	-0,037	0,019
-395,379	-200,000	0,008	-0,063
-394,365	-116,057	0,085	0,011
-393,350	-126,714	-0,079	0,009
-392,336	-200,000	-0,000	-0,053
-391,321	43,969	-0,104	-0,070
-390,306	125,702	-0,053	-0,049
-389,292	800,000	-0,046	0,135
-388,277	733,034	-0,035	-0,068
-387,263	-32,666	0,210	-0,085
-386,248	-200,000	0,022	0,139
-385,233	94,811	-0,093	0,078
-384,219	-107,412	-0,113	-0,018
-383,204	-23,278	0,074	-0,032
-382,190	179,106	-0,088	-0,094
-381,175	-200,000	-0,022	-0,116
-380,160	-200,000	-0,012	-0,119
-379,146	230,227	-0,008	0,010
-378,131	-200,000	-0,002	-0,043
-377,117	-8,659	-0,052	-0,025
-376,102	664,764	0,027	-0,051
-375,088	800,000	-0,029	-0,063
-374,073	-145,910	0,038	-0,002
-373,058	480,009	0,098	-0,164
-372,044	-200,000	0,030	-0,121
-371,029	800,000	-0,047	-0,101
-370,015	-200,000	-0,008	0,027
-369,000	-8,184	0,156	-0,077
-367,985	119,839	-0,093	-0,085
-366,971	30,666	0,016	-0,010
-365,956	305,767	0,062	0,084
-364,942	-75,935	-0,013	0,003
-363,927	217,376	0,094	0,110
-362,912	-82,378	0,050	0,012
-361,898	195,311	-0,044	-0,049
-360,883	767,911	0,010	-0,021
-359,869	-79,528	-0,132	-0,032
-358,854	150,473	-0,088	-0,088
-357,839	101,096	0,093	0,079
-356,825	800,000	-0,011	0,028
-355,810	-37,214	0,123	-0,048
-354,796	-200,000	-0,001	-0,053
-353,781	800,000	-0,092	-0,225
-352,766	800,000	-0,015	-0,048
-351,752	61,994	0,076	0,055
-350,737	-64,547	0,073	-0,022
-349,723	-160,511	0,181	0,007
-348,708	88,313	-0,057	0,047
-347,693	-200,000	-0,036	0,117
-346,679	-200,000	0,025	-0,094
-345,664	105,243	-0,077	0,067
-344,650	279,211	0,033	-0,043
-343,635	-106,355	0,126	0,020
-342,620	54,232	-0,098	0,069
-341,606	72,817	-0,074	0,056
-340,591	-200,000	0,001	-0,093
-339,577	46,488	-0,248	-0,168
-338,562	692,401	0,042	-0,081
-337,548	657,851	0,056	0,107
-336,533	161,251	0,065	0,067
-335,518	481,448	-0,065	0,109
-334,504	800,000	-0,040	0,126
-333,489	-200,000	0,005	-0,141
-332,475	451,292	-0,062	-0,101
-331,460	82,800	0,049	0,039
-330,445	-200,000	0,026	0,165
-329,431	16,332	0,064	0,037
-328,416	319,183	0,079	-0,109
-327,402	242,770	0,066	-0,081
-326,387	18,124	0,009	0,005
-325,372	-200,000	-0,026	-0,092
-324,358	16,151	-0,083	0,048
-323,343	800,000	0,060	0,132
-322,329	6,794	0,121	0,066
-321,314	66,130	-0,101	0,075
-320,299	343,388	0,092	0,133
-319,285	501,777	0,027	-0,046
-318,270	-200,000	-0,023	0,099
-317,256	86,332	-0,070	-0,056
-316,241	-116,696	-0,124	0,017
-315,226	800,000	0,003	-0,006
-314,212	-25,746	0,131	0,056
-313,197	327,528	0,080	0,113
-312,183	-101,402	0,092	0,016
-311,168	289,587	-0,102	-0,136
-310,153	-10,400	0,054	-0,026
-309,139	800,000	0,066	-0,136
-308,124	-49,559	-0,021	0,007
-307,110	202,126	0,059	0,067
-306,095	800,000	0,074	0,202
-305,080	-61,935	0,035	0,011
-304,066	-56,791	-0,022	0,007
-303,051	-165,505	0,061	-0,002
-302,037	-200,000	0,007	0,037
-301,022	-200,000	0,038	0,130
-300,008	-57,868	0,134	0,043
-298,993	-200,000	-0,000	-0,055
-297,978	-156,899	-0,083	-0,004
-296,964	-1,404	-0,090	0,046
-295,949	123,615	-0,128	-0,118
-294,935	-200,000	0,017	-0,058
-293,920	-48,689	-0,079	-0,028
-292,905	279,047	-0,054	-0,070
-291,891	249,124	0,087	-0,108
-290,876	331,727	0,033	0,046
-289,862	-41,153	-0,075	-0,028
-288,847	33,182	-0,063	0,040
-287,832	800,000	-0,035	0,075
-286,818	-141,644	-0,133	-0,010
-285,803	-9,695	0,092	0,044
-284,789	800,000	0,057	0,136
-283,774	-119,624	-0,144	-0,018
-282,759	196,869	0,069	0,076
-281,745	-200,000	-0,004	-0,071
-280,730	66,721	-0,137	-0,102
-279,716	6,220	0,071	-0,038
-278,701	-140,955	-0,147	-0,011
-277,686	34,499	-0,033	-0,021
-276,672	800,000	0,019	0,060
-275,657	127,954	-0,071	0,066
-274,643	-200,000	-0,049	0,183
-273,628	105,083	-0,031	-0,026
-272,613	-97,216	0,131	0,025
-271,599	-78,321	0,058	-0,014
-270,584	494,047	0,059	0,100
-269,570	393,541	0,096	-0,147
-268,555	800,000	0,041	0,097
-267,540	386,078	0,049	0,074
-266,526	-200,000	-0,007	-0,071
-265,511	-80,737	0,039	0,009
-264,497	764,053	-0,072	0,143
-263,482	165,786	0,054	0,056
-262,467	4,689	-0,183	0,098
-261,453	133,066	0,047	-0,045
-260,438	-200,000	-0,006	0,053
-259,424	30,926	0,065	0,040
-258,409	-200,000	-0,026	-0,135
-257,395	-24,709	0,112	0,048
-256,380	45,186	0,112	0,075
-255,365	800,000	0,025	0,051
-254,351	87,741	-0,104	-0,084
-253,336	-160,931	-0,249	0,009
-252,322	-154,203	-0,072	-0,004
-251,307	334,210	0,021	-0,030
-250,292	-23,128	0,106	-0,047
-249,278	531,507	0,042	0,073
-248,263	-35,567	0,092	0,036
-247,249	-29,943	0,064	0,026
-246,234	800,000	0,017	0,038
-245,219	442,070	-0,082	0,131
-244,205	86,939	0,035	-0,028
-243,190	39,675	0,035	0,023
-242,176	18,377	0,146	0,085
-241,161	127,570	0,025	-0,023
-240,146	182,297	-0,122	0,131
-239,132	-200,000	0,027	0,172
-238,117	-130,301	0,057	-0,006
-237,103	731,840	-0,015	0,029
-236,088	-119,136	0,036	0,005
-235,073	53,040	0,059	-0,041
-234,059	-146,004	0,128	0,008
-233,044	-100,259	0,078	0,014
-232,030	-200,000	0,014	0,103
-231,015	252,322	0,055	-0,068
-230,000	-103,210	0,019	-0,003
-228,986	-7,934	-0,095	-0,047
-227,971	-200,000	0,025	0,184
-226,957	-46,686	0,151	0,054
-225,942	-200,000	0,003	0,138
-224,927	175,867	-0,049	0,052
-223,913	-200,000	-0,020	-0,074
-222,898	-22,788	0,121	-0,053
-221,884	800,000	-0,021	-0,050
-220,869	95,159	-0,098	-0,081
-219,855	307,599	-0,078	0,106
-218,840	281,169	0,074	0,096
-217,825	669,235	-0,029	-0,056
-216,811	276,229	-0,022	-0,029
-215,796	425,247	0,099	0,157
-214,782	-200,000	-0,030	0,112
-213,767	512,045	-0,048	-0,082
-212,752	290,152	0,050	-0,066
-211,738	15,604	0,135	0,077
-210,723	133,042	-0,094	-0,089
-209,709	399,335	-0,118	0,181
-208,694	132,430	-0,027	0,026
-207,679	-200,000	0,011	-0,254
-206,665	30,792	-0,113	0,070
-205,650	-200,000	0,014	0,049
-204,636	-167,667	-0,011	0,000
-203,621	-64,504	-0,056	0,016
-202,606	140,952	-0,066	-0,063
-201,592	-200,000	-0,006	0,021
-200,577	-200,000	-0,014	0,077
-199,563	-82,229	0,086	0,020
-198,548	800,000	0,020	0,059
-197,533	223,625	0,115	-0,136
-196,519	-26,443	-0,028	0,012
-195,504	-200,000	-0,008	-0,046
-194,490	-35,123	-0,106	-0,042
-193,475	197,377	0,026	-0,029
-192,460	146,325	0,044	-0,043
-191,446	-200,000	-0,002	-0,054
-190,431	-187,883	0,188	-0,002
-189,417	-200,000	-0,002	-0,045
-188,402	609,770	0,013	0,024
-187,387	209,041	-0,072	-0,082
-186,373	-200,000	-0,001	-0,058
-185,358	-188,063	0,100	0,001
-184,344	-33,868	-0,069	0,027
-183,329	-200,000	-0,002	0,080
-182,315	8,620	0,066	0,036
-181,300	1,055	-0,013	-0,007
-180,285	-65,067	0,060	-0,017
-179,271	-200,000	-0,011	-0,064
-178,256	289,463	0,015	-0,020
-177,242	-71,843	-0,135	0,036
-176,227	-200,000	-0,006	0,059
-175,212	-200,000	-0,023	0,160
-174,198	-139,682	-0,030	-0,002
-173,183	-200,000	-0,003	-0,019
-172,169	-13,388	-0,033	0,016
-171,154	275,187	-0,051	0,065
-170,139	521,783	-0,053	0,091
-169,125	800,000	0,008	0,019
-168,110	-200,000	-0,003	0,067
-167,096	800,000	0,073	-0,152
-166,081	800,000	0,057	0,135
-165,066	-37,569	0,033	-0,013
-164,052	800,000	0,037	-0,076
-163,037	79,127	0,045	0,035
-162,023	-200,000	0,038	-0,129
-161,008	-49,854	0,112	0,038
-159,993	454,693	0,045	0,073
-158,979	-200,000	-0,013	0,059
-157,964	800,000	0,010	0,027
-156,950	800,000	0,058	-0,156
-155,935	7,178	0,044	-0,024
-154,920	288,315	0,052	0,068
-153,906	243,105	0,038	0,046
-152,891	445,385	-0,080	0,128
-151,877	284,630	-0,068	-0,089
-150,862	-87,170	0,043	0,009
-149,847	-200,000	0,008	0,097
-148,833	543,469	-0,012	0,022
-147,818	-200,000	-0,002	0,045
-146,804	623,850	-0,039	-0,072
-145,789	-200,000	0,003	0,146
-144,775	253,417	-0,071	-0,088
-143,760	17,720	-0,106	0,061
-142,745	-200,000	-0,001	0,160
-141,731	179,231	-0,010	0,010
-140,716	800,000	-0,020	0,045
-139,702	800,000	0,058	0,145
-138,687	-84,070	0,064	-0,015
-137,672	10,993	0,066	-0,037
-136,658	-5,900	-0,049	-0,024
-135,643	-200,000	0,041	-0,174
-134,629	157,793	0,066	-0,067
-133,614	698,982	0,093	0,178
-132,599	350,801	-0,057	0,082
-131,585	-200,000	-0,023	-0,121
-130,570	424,262	0,054	-0,085
-129,556	-200,000	-0,011	0,043
-128,541	-65,546	0,040	0,012
-127,526	-28,796	-0,079	-0,033
-126,512	-40,872	-0,102	-0,038
-125,497	515,705	-0,022	-0,037
-124,483	16,408	0,087	0,050
-123,468	-95,009	-0,151	-0,029
-122,453	800,000	-0,039	-0,087
-121,439	800,000	-0,051	-0,135
-120,424	-38,588	0,043	-0,016
-119,410	800,000	0,078	0,168
