DTS Sentinel unit serial number:	SN410029Multiplexer serial number:	ORYXHardware model number:	OX2-SRSoftware version number:	ORYX F/W v4,00 Oryx Data Collector v3.7.2.0data status	okinstallation	B4 Nyhavnadifferential loss correction	single-endedforward channel	channel 2reverse channel	N/Adate	2023/12/15time	14:55:13forward acquisition time	300,00reverse acquisition time	0,00gamma	499,1914k internal	0,3158k external	0,3158temperature offset calibration	1,0000default loss term (dB/km)	0,3820temperature slope calibration	1,0000multiplexer offset coefficient	1,0000multiplexer slope coefficient	1,0000fibre end	0,00T internal ref (°C)	15,64T ext. ref 1 (°C)	2,09T ext. ref 2 (°C)	2,23length (m)	temperature (°C)	Stokes	anti-Stokes-744,400	800,000	-0,022	0,061
-743,385	-136,530	-0,135	-0,011
-742,371	-52,756	0,232	0,079
-741,356	-41,796	-0,177	-0,067
-740,342	443,393	0,078	0,126
-739,327	-123,424	-0,293	0,034
-738,312	-200,000	-0,013	-0,059
-737,298	-52,250	-0,446	0,152
-736,283	-87,565	0,088	0,019
-735,269	-93,102	-0,310	0,063
-734,254	144,545	0,110	0,108
-733,239	-132,823	-0,526	-0,049
-732,225	-85,120	0,191	-0,044
-731,210	89,074	0,076	0,062
-730,196	-74,392	0,175	-0,046
-729,181	711,494	-0,063	0,123
-728,167	-129,678	-0,156	0,016
-727,152	374,398	-0,100	0,150
-726,137	247,175	-0,093	-0,115
-725,123	-9,474	-0,139	-0,068
-724,108	-110,309	-0,103	0,016
-723,094	-108,488	-0,093	0,015
-722,079	76,216	-0,054	0,042
-721,064	-200,000	0,027	0,131
-720,050	408,557	-0,055	-0,086
-719,035	329,442	0,029	-0,041
-718,021	-200,000	0,001	-0,074
-717,006	-124,146	-0,052	-0,006
-715,991	79,541	-0,075	-0,059
-714,977	-141,065	-0,145	-0,011
-713,962	800,000	-0,051	-0,107
-712,948	-200,000	0,023	-0,082
-711,933	135,324	-0,032	0,030
-710,918	60,770	0,040	-0,030
-709,904	800,000	0,038	-0,115
-708,889	298,303	-0,117	-0,159
-707,875	26,225	-0,125	0,077
-706,860	-142,478	-0,052	0,004
-705,845	-134,414	-0,094	-0,008
-704,831	-200,000	0,012	-0,049
-703,816	-6,699	-0,080	0,040
-702,802	-200,000	-0,036	-0,166
-701,787	-200,000	0,004	-0,058
-700,772	96,124	0,015	-0,013
-699,758	12,946	-0,104	-0,059
-698,743	182,077	0,038	-0,042
-697,729	28,559	-0,054	-0,034
-696,714	-200,000	-0,017	0,144
-695,699	-200,000	0,001	-0,037
-694,685	-60,708	-0,047	-0,015
-693,670	22,210	-0,106	0,063
-692,656	401,266	-0,018	-0,028
-691,641	-200,000	-0,024	-0,119
-690,627	800,000	0,045	0,094
-689,612	83,984	-0,036	0,029
-688,597	800,000	-0,039	0,103
-687,583	-200,000	0,000	-0,051
-686,568	-107,145	-0,099	0,016
-685,554	-200,000	0,006	0,045
-684,539	123,500	0,112	0,104
-683,524	-112,328	0,096	0,014
-682,510	-59,836	-0,027	0,008
-681,495	-157,684	-0,095	-0,004
-680,481	-200,000	0,015	-0,066
-679,466	-200,000	-0,004	-0,165
-678,451	-17,205	-0,184	-0,085
-677,437	800,000	-0,035	0,075
-676,422	2,631	-0,079	-0,042
-675,408	113,748	-0,068	0,061
-674,393	-0,344	0,121	-0,063
-673,378	403,658	-0,097	-0,151
-672,364	-200,000	-0,002	-0,023
-671,349	431,528	0,056	0,089
-670,335	415,341	0,017	0,027
-669,320	-139,764	-0,191	0,015
-668,305	93,519	0,059	0,049
-667,291	118,067	-0,030	0,027
-666,276	141,065	0,081	-0,079
-665,262	599,837	-0,109	0,199
-664,247	-83,212	-0,136	0,032
-663,232	-117,088	0,178	-0,024
-662,218	-122,671	0,166	0,019
-661,203	436,596	-0,028	-0,045
-660,189	800,000	0,009	0,018
-659,174	101,344	0,089	-0,077
-658,159	28,679	-0,076	-0,047
-657,145	800,000	0,032	-0,101
-656,130	17,799	-0,094	0,055
-655,116	57,558	-0,065	0,046
-654,101	106,314	0,044	0,038
-653,086	-60,538	-0,019	0,006
-652,072	-200,000	-0,025	-0,129
-651,057	154,000	-0,138	-0,139
-650,043	800,000	-0,058	-0,130
-649,028	-88,227	0,118	-0,026
-648,014	324,044	-0,049	-0,069
-646,999	-200,000	0,052	0,175
-645,984	-14,103	0,072	-0,034
-644,970	83,864	-0,099	-0,079
-643,955	38,148	0,019	-0,013
-642,941	-200,000	0,012	-0,144
-641,926	158,348	0,041	0,042
-640,911	800,000	-0,024	-0,052
-639,897	182,842	-0,085	0,092
-638,882	-125,514	-0,082	0,009
-637,868	157,691	-0,082	-0,084
-636,853	-200,000	0,019	-0,088
-635,838	-38,491	-0,077	0,030
-634,824	163,761	-0,140	-0,145
-633,809	-51,996	-0,041	0,014
-632,795	94,992	0,081	0,068
-631,780	-200,000	0,002	0,050
-630,765	280,434	-0,044	-0,057
-629,751	14,810	-0,084	0,048
-628,736	-10,169	-0,098	0,048
-627,722	-17,585	-0,080	-0,037
-626,707	102,494	0,063	0,054
-625,692	-200,000	0,021	0,145
-624,678	-74,100	0,087	-0,023
-623,663	-66,698	0,062	-0,018
-622,649	-6,206	0,068	-0,034
-621,634	106,672	-0,013	-0,011
-620,619	274,836	-0,037	0,049
-619,605	142,013	0,047	0,045
-618,590	-140,391	-0,139	0,010
-617,576	250,202	0,106	0,132
-616,561	10,853	-0,198	0,111
-615,546	404,258	-0,024	0,037
-614,532	-200,000	0,009	-0,041
-613,517	-1,868	0,071	-0,037
-612,503	800,000	-0,025	0,065
-611,488	-200,000	0,019	0,084
-610,474	139,461	0,106	-0,103
-609,459	240,954	0,028	0,035
-608,444	18,410	-0,099	-0,058
-607,430	294,695	0,066	-0,089
-606,415	3,259	0,058	-0,031
-605,401	800,000	-0,048	0,113
-604,386	800,000	-0,028	0,072
-603,371	-31,149	0,206	0,085
-602,357	51,009	0,073	-0,051
-601,342	158,436	-0,051	0,052
-600,328	-25,650	-0,111	0,048
-599,313	-200,000	-0,025	-0,090
-598,298	-200,000	0,015	-0,101
-597,284	-87,163	-0,142	-0,031
-596,269	800,000	0,074	0,208
-595,255	-52,406	0,048	-0,016
-594,240	-102,311	-0,161	0,028
-593,225	-26,971	-0,089	-0,038
-592,211	800,000	0,023	0,065
-591,196	-163,330	0,121	-0,004
-590,182	-200,000	0,021	-0,093
-589,167	800,000	0,013	0,037
-588,152	-200,000	-0,002	-0,149
-587,138	200,970	0,072	0,082
-586,123	-200,000	0,002	0,010
-585,109	-64,217	-0,079	0,023
-584,094	800,000	-0,031	-0,071
-583,079	800,000	0,007	0,017
-582,065	83,853	0,088	-0,070
-581,050	-48,954	0,027	0,009
-580,036	128,400	-0,084	0,079
-579,021	-110,265	-0,101	-0,015
-578,006	-200,000	-0,001	-0,097
-576,992	178,662	0,020	-0,022
-575,977	-132,932	-0,144	-0,013
-574,963	492,825	0,162	0,274
-573,948	670,250	-0,011	-0,020
-572,934	800,000	-0,042	0,117
-571,919	-200,000	0,003	0,010
-570,904	132,450	-0,139	-0,131
-569,890	-200,000	0,015	0,089
-568,875	800,000	-0,048	0,125
-567,861	222,230	0,063	0,075
-566,846	22,796	-0,087	0,052
-565,831	-200,000	-0,001	-0,125
-564,817	-156,481	-0,095	0,004
-563,802	-200,000	0,002	0,071
-562,788	574,880	-0,034	0,061
-561,773	800,000	0,036	-0,099
-560,758	800,000	0,033	0,091
-559,744	-200,000	0,010	-0,134
-558,729	252,077	-0,028	0,035
-557,715	800,000	0,042	0,102
-556,700	108,198	-0,101	-0,089
-555,685	118,745	-0,038	-0,034
-554,671	800,000	-0,029	-0,061
-553,656	-200,000	-0,007	0,116
-552,642	151,800	0,026	0,026
-551,627	-90,485	0,078	0,016
-550,612	29,294	-0,071	-0,044
-549,598	414,912	0,039	0,061
-548,583	381,650	0,028	-0,042
-547,569	134,964	-0,121	0,115
-546,554	800,000	0,006	0,019
-545,539	107,167	-0,058	0,051
-544,525	-121,108	0,026	0,003
-543,510	515,273	0,020	0,034
-542,496	-86,535	0,036	0,008
-541,481	-200,000	0,021	0,072
-540,466	-187,187	-0,038	-0,000
-539,452	-200,000	-0,008	-0,090
-538,437	260,823	0,034	-0,043
-537,423	-200,000	0,012	-0,044
-536,408	-93,459	-0,085	0,017
-535,393	162,555	-0,103	0,106
-534,379	490,056	0,048	-0,081
-533,364	-200,000	-0,061	-0,000
-532,350	800,000	0,071	0,190
-531,335	216,887	-0,106	0,124
-530,321	-122,645	0,064	-0,007
-529,306	-17,462	-0,097	0,045
-528,291	199,393	-0,133	-0,149
-527,277	209,033	0,018	-0,021
-526,262	-65,933	0,044	0,013
-525,248	306,213	-0,036	-0,049
-524,233	-1,605	0,065	0,033
-523,218	368,613	-0,096	-0,143
-522,204	-66,210	-0,057	0,017
-521,189	59,446	0,060	0,043
-520,175	-200,000	-0,053	0,000
-519,160	-200,000	0,001	0,032
-518,145	376,360	-0,029	-0,044
-517,131	800,000	-0,032	-0,087
-516,116	800,000	0,005	-0,015
-515,102	35,730	-0,026	-0,017
-514,087	-200,000	-0,003	0,095
-513,072	-200,000	-0,008	0,027
-512,058	-200,000	-0,005	-0,071
-511,043	10,469	0,038	-0,021
-510,029	281,013	0,057	0,075
-509,014	-200,000	-0,015	0,121
-507,999	-59,526	-0,008	-0,002
-506,985	800,000	0,029	-0,087
-505,970	18,899	-0,040	0,023
-504,956	-82,316	-0,050	-0,012
-503,941	380,317	-0,051	0,076
-502,926	800,000	-0,027	-0,064
-501,912	-72,549	0,061	0,016
-500,897	69,769	0,050	-0,038
-499,883	411,923	-0,035	-0,054
-498,868	-200,000	0,001	-0,056
-497,853	-119,091	-0,093	-0,012
-496,839	-106,879	0,103	0,017
-495,824	81,525	0,072	0,057
-494,810	260,377	0,035	0,045
-493,795	169,902	-0,083	0,087
-492,781	56,047	0,118	0,083
-491,766	61,954	0,078	-0,057
-490,751	247,092	-0,135	-0,167
-489,737	-83,598	-0,061	0,014
-488,722	-26,062	0,103	-0,044
-487,708	-200,000	-0,044	0,186
-486,693	176,500	0,090	-0,095
-485,678	-108,490	0,064	0,010
-484,664	700,956	0,017	-0,033
-483,649	38,934	-0,039	0,026
-482,635	499,155	0,080	-0,135
-481,620	40,331	0,011	0,007
-480,605	584,166	0,074	0,133
-479,591	48,950	0,064	0,044
-478,576	-200,000	0,002	-0,073
-477,562	463,217	-0,047	-0,077
-476,547	800,000	0,010	0,027
-475,532	-106,980	-0,092	0,015
-474,518	190,318	0,009	0,009
-473,503	327,119	0,034	0,048
-472,489	-200,000	0,021	-0,076
-471,474	800,000	0,024	-0,052
-470,459	-67,258	-0,034	-0,010
-469,445	-139,346	0,037	0,003
-468,430	41,044	0,037	0,024
-467,416	-200,000	0,001	-0,021
-466,401	-28,585	0,153	0,064
-465,386	115,356	-0,060	0,053
-464,372	111,556	-0,083	0,073
-463,357	163,875	-0,053	-0,054
-462,343	-200,000	0,013	0,087
-461,328	800,000	0,019	0,042
-460,313	-116,755	0,081	-0,011
-459,299	-200,000	0,016	-0,094
-458,284	110,811	-0,046	0,040
-457,270	-200,000	-0,010	-0,034
-456,255	-112,225	-0,142	-0,021
-455,241	-200,000	-0,007	-0,166
-454,226	687,648	0,056	-0,107
-453,211	73,499	0,102	0,077
-452,197	130,649	-0,059	-0,055
-451,182	-45,286	0,014	-0,005
-450,168	70,522	-0,078	-0,059
-449,153	437,884	0,047	0,075
-448,138	-111,481	-0,092	-0,013
-447,124	136,901	-0,029	-0,027
-446,109	800,000	0,026	0,067
-445,095	-137,244	0,032	-0,003
-444,080	237,362	0,051	0,062
-443,065	-200,000	-0,006	-0,030
-442,051	311,795	-0,022	-0,030
-441,036	95,868	-0,146	-0,121
-440,022	-200,000	0,013	-0,142
-439,007	-200,000	0,003	-0,116
-437,992	800,000	0,020	0,055
-436,978	-97,904	0,087	0,016
-435,963	-136,599	0,111	-0,009
-434,949	-200,000	-0,014	-0,057
-433,934	-41,457	0,144	0,054
-432,919	242,017	0,060	-0,074
-431,905	800,000	-0,032	0,083
-430,890	-145,764	0,141	-0,009
-429,876	229,004	0,038	0,046
-428,861	-110,298	-0,037	-0,006
-427,846	165,585	-0,080	0,082
-426,832	-200,000	-0,007	-0,075
-425,817	369,434	0,085	-0,125
-424,803	800,000	-0,052	-0,107
-423,788	-200,000	0,005	0,234
-422,773	13,832	-0,157	0,089
-421,759	322,975	0,016	0,022
-420,744	-200,000	0,021	0,092
-419,730	578,826	-0,014	0,025
-418,715	800,000	0,013	-0,030
-417,701	800,000	-0,013	-0,032
-416,686	800,000	0,011	-0,033
-415,671	-200,000	-0,002	0,036
-414,657	-200,000	0,038	0,000
-413,642	800,000	0,054	-0,124
-412,628	171,873	0,059	0,062
-411,613	-167,776	0,135	0,004
-410,598	32,557	0,071	-0,045
-409,584	-200,000	0,007	-0,034
-408,569	800,000	0,060	0,167
-407,555	49,002	-0,096	-0,065
-406,540	-13,064	-0,040	-0,019
-405,525	-127,015	-0,030	0,003
-404,511	694,318	-0,032	0,061
-403,496	539,411	0,046	0,079
-402,482	-176,920	0,099	-0,002
-401,467	99,924	0,028	0,024
-400,452	-200,000	-0,006	0,067
-399,438	-67,163	-0,026	0,007
-398,423	137,000	0,087	-0,083
-397,409	800,000	-0,023	0,055
-396,394	800,000	0,034	-0,076
-395,379	-34,111	0,018	-0,007
-394,365	-106,758	-0,089	0,014
-393,350	-134,986	0,156	0,014
-392,336	-200,000	-0,019	0,068
-391,321	-131,445	-0,088	-0,008
-390,306	800,000	0,044	-0,111
-389,292	-77,524	-0,130	0,033
-388,277	-134,910	0,026	0,002
-387,263	-200,000	0,005	0,085
-386,248	716,006	0,058	0,113
-385,233	800,000	0,039	0,111
-384,219	-200,000	-0,018	0,088
-383,204	243,153	-0,100	-0,123
-382,190	245,332	-0,120	-0,148
-381,175	200,395	0,064	0,071
-380,160	48,045	-0,033	0,022
-379,146	-128,421	0,064	-0,007
-378,131	-21,335	0,085	0,037
-377,117	-200,000	-0,015	0,084
-376,102	-103,843	0,077	-0,013
-375,088	445,263	-0,034	0,054
-374,073	-200,000	0,014	-0,104
-373,058	-200,000	0,002	-0,013
-372,044	204,582	-0,065	0,074
-371,029	-124,542	0,201	0,022
-370,015	205,028	-0,050	-0,057
-369,000	123,341	-0,020	-0,018
-367,985	-200,000	-0,001	-0,108
-366,971	-200,000	0,001	-0,012
-365,956	800,000	0,061	-0,130
-364,942	-57,543	0,024	-0,008
-363,927	-181,026	0,102	-0,001
-362,912	43,164	0,070	-0,047
-361,898	800,000	-0,017	-0,045
-360,883	649,125	-0,036	-0,067
-359,869	185,346	0,071	-0,077
-358,854	-31,944	-0,017	0,007
-357,839	17,769	0,120	-0,069
-356,825	-171,150	-0,122	0,003
-355,810	10,461	0,016	-0,009
-354,796	160,840	0,104	-0,105
-353,781	128,893	-0,020	0,018
-352,766	800,000	-0,061	-0,136
-351,752	-42,648	0,056	-0,021
-350,737	-155,809	0,091	0,004
-349,723	-78,558	0,079	-0,019
-348,708	800,000	-0,029	0,091
-347,693	800,000	-0,057	-0,133
-346,679	-200,000	-0,016	0,129
-345,664	-200,000	-0,005	-0,157
-344,650	-200,000	0,010	-0,053
-343,635	170,410	0,153	0,159
-342,620	108,558	0,160	0,139
-341,606	-200,000	-0,005	-0,050
-340,591	-200,000	0,021	-0,095
-339,577	-200,000	0,003	0,091
-338,562	187,038	0,020	0,022
-337,548	573,897	0,079	0,141
-336,533	800,000	0,029	0,077
-335,518	-200,000	-0,010	0,122
-334,504	-200,000	-0,005	0,095
-333,489	62,882	0,111	-0,081
-332,475	800,000	-0,043	-0,107
-331,460	9,509	-0,111	0,061
-330,445	148,200	0,009	-0,009
-329,431	-4,937	0,025	0,012
-328,416	588,292	0,027	0,049
-327,402	-81,221	0,154	-0,037
-326,387	-60,534	0,008	0,002
-325,372	254,257	-0,016	-0,020
-324,358	-106,210	-0,243	-0,039
-323,343	800,000	-0,019	0,043
-322,329	-200,000	0,027	-0,093
-321,314	-96,439	-0,072	-0,014
-320,299	-163,096	0,073	0,003
-319,285	-200,000	-0,006	0,058
-318,270	-200,000	-0,014	-0,141
-317,256	59,609	0,015	-0,011
-316,241	21,702	-0,087	-0,051
-315,226	-48,535	0,106	0,037
-314,212	-135,055	0,049	-0,004
-313,197	326,846	0,034	-0,047
-312,183	800,000	0,036	-0,110
-311,168	-174,086	0,143	0,003
-310,153	356,960	-0,035	-0,051
-309,139	100,250	0,149	-0,125
-308,124	128,305	0,116	-0,107
-307,110	-200,000	-0,025	0,095
-306,095	-200,000	0,009	0,125
-305,080	-183,982	-0,042	0,000
-304,066	-97,116	-0,179	-0,034
-303,051	-148,818	-0,091	-0,005
-302,037	724,447	0,056	-0,108
-301,022	268,117	-0,044	0,056
-300,008	-200,000	0,008	0,126
-298,993	242,116	0,029	-0,035
-297,978	-34,523	-0,047	-0,018
-296,964	152,182	0,026	-0,026
-295,949	492,748	0,018	-0,029
-294,935	90,900	-0,087	0,071
-293,920	303,376	-0,063	0,084
-292,905	54,193	0,087	-0,061
-291,891	800,000	-0,020	-0,059
-290,876	351,409	0,029	0,041
-289,862	15,864	-0,171	0,097
-288,847	-119,475	-0,008	-0,001
-287,832	-45,405	0,125	0,045
-286,818	-69,371	0,076	-0,021
-285,803	158,566	-0,023	-0,023
-284,789	411,228	-0,047	0,072
-283,774	-200,000	0,018	0,151
-282,759	210,528	-0,056	0,064
-281,745	291,483	-0,050	-0,066
-280,730	-70,904	-0,049	-0,013
-279,716	-57,188	0,078	0,025
-278,701	-200,000	0,022	-0,104
-277,686	61,320	0,122	-0,088
-276,672	-101,919	0,034	0,006
-275,657	7,942	-0,087	-0,047
-274,643	44,075	0,024	-0,016
-273,628	800,000	0,027	0,079
-272,613	-200,000	-0,030	-0,118
-271,599	76,337	-0,004	-0,003
-270,584	-101,063	0,087	-0,015
-269,570	-29,463	0,104	0,043
-268,555	26,756	-0,055	-0,033
-267,540	110,217	-0,037	0,032
-266,526	-200,000	0,055	-0,215
-265,511	800,000	-0,048	-0,098
-264,497	-9,007	-0,181	0,087
-263,482	85,576	-0,064	0,051
-262,467	433,511	0,047	0,074
-261,453	-85,467	-0,099	0,022
-260,438	800,000	-0,021	-0,062
-259,424	485,275	-0,088	-0,146
-258,409	-200,000	0,009	0,052
-257,395	800,000	-0,069	0,140
-256,380	-54,867	0,066	0,021
-255,365	7,796	0,110	-0,059
-254,351	-200,000	-0,121	0,000
-253,336	11,594	-0,048	-0,026
-252,322	-59,565	-0,072	-0,022
-251,307	-62,092	0,039	-0,012
-250,292	-36,171	0,030	0,012
-249,278	206,252	-0,023	0,025
-248,263	286,675	-0,037	0,049
-247,249	-186,951	0,098	-0,001
-246,234	10,837	0,050	-0,028
-245,219	-20,330	-0,037	-0,016
-244,205	598,658	0,031	-0,056
-243,190	-200,000	-0,015	-0,088
-242,176	-42,401	-0,114	-0,042
-241,161	378,024	0,079	0,118
-240,146	-200,000	0,020	-0,063
-239,132	800,000	0,038	0,083
-238,117	119,154	-0,120	-0,107
-237,103	-165,305	-0,138	-0,004
-236,088	-200,000	0,022	0,122
-235,073	-200,000	-0,002	-0,052
-234,059	-168,389	-0,205	0,006
-233,044	171,140	0,082	-0,085
-232,030	460,724	-0,052	-0,085
-231,015	-133,328	-0,059	0,005
-230,000	-200,000	0,021	-0,102
-228,986	161,539	0,076	-0,077
-227,971	-26,628	-0,105	-0,044
-226,957	-77,089	0,099	0,025
-225,942	-200,000	0,052	0,191
-224,927	-61,800	-0,073	0,022
-223,913	-176,215	0,061	-0,001
-222,898	800,000	-0,071	-0,153
-221,884	-200,000	-0,001	-0,114
-220,869	-200,000	0,005	-0,023
-219,855	800,000	-0,053	0,123
-218,840	445,040	-0,024	0,038
-217,825	67,256	0,124	0,091
-216,811	800,000	0,036	0,098
-215,796	65,056	-0,083	-0,061
-214,782	341,300	0,046	-0,065
-213,767	13,229	-0,026	0,015
-212,752	78,635	0,057	-0,044
-211,738	800,000	-0,034	0,089
-210,723	271,290	0,102	0,130
-209,709	203,348	-0,069	-0,077
-208,694	800,000	-0,025	-0,066
-207,679	332,348	-0,046	-0,064
-206,665	-134,361	0,124	0,011
-205,650	-80,977	-0,064	-0,015
-204,636	-48,918	0,121	-0,042
-203,621	-87,644	-0,041	0,009
-202,606	224,078	-0,079	0,092
-201,592	-97,649	-0,134	-0,025
-200,577	508,683	0,038	-0,064
-199,563	800,000	-0,058	0,165
-198,548	-55,598	-0,149	0,048
-197,533	660,220	0,090	-0,167
-196,519	597,710	0,034	-0,062
-195,504	-200,000	-0,004	0,018
-194,490	-2,033	-0,161	-0,081
-193,475	-45,691	0,146	-0,052
-192,460	-73,839	0,068	-0,018
-191,446	800,000	-0,032	-0,092
-190,431	800,000	0,044	0,110
-189,417	800,000	0,025	-0,058
-188,402	84,871	-0,145	0,115
-187,387	-200,000	0,011	-0,060
-186,373	800,000	-0,047	0,106
-185,358	-187,364	0,063	0,001
-184,344	145,600	0,034	0,032
-183,329	-96,114	0,147	-0,028
-182,315	15,061	-0,066	-0,037
-181,300	-164,740	0,022	-0,001
-180,285	68,603	0,080	0,059
-179,271	-154,976	-0,189	0,009
-178,256	-22,967	0,117	-0,051
-177,242	-200,000	-0,003	-0,062
-176,227	-200,000	0,014	0,093
-175,212	-132,303	0,080	-0,007
-174,198	800,000	-0,030	0,060
-173,183	-200,000	-0,009	-0,055
-172,169	194,292	-0,040	-0,044
-171,154	-200,000	-0,008	-0,025
-170,139	-200,000	-0,026	0,201
-169,125	800,000	0,051	0,115
-168,110	800,000	0,022	0,050
-167,096	666,552	-0,018	0,034
-166,081	243,727	-0,093	-0,113
-165,066	-29,628	-0,118	-0,048
-164,052	-98,340	0,088	-0,016
-163,037	588,545	-0,024	0,043
-162,023	800,000	0,032	0,073
-161,008	-84,727	-0,022	0,005
-159,993	79,041	0,172	-0,133
-158,979	800,000	0,014	0,033
-157,964	-52,648	-0,084	-0,028
-156,950	309,930	0,040	-0,054
-155,935	361,447	-0,055	0,080
-154,920	501,617	0,077	0,128
-153,906	-18,276	-0,040	-0,018
-152,891	88,906	-0,056	-0,045
-151,877	800,000	-0,025	-0,054
-150,862	-200,000	0,069	0,000
-149,847	-200,000	-0,033	-0,114
-148,833	107,749	-0,063	-0,054
-147,818	114,611	-0,062	-0,055
-146,804	-74,940	0,212	0,054
-145,789	800,000	-0,005	0,011
-144,775	-34,541	-0,060	-0,023
-143,760	-200,000	-0,018	0,091
-142,745	210,681	0,150	-0,170
-141,731	-35,392	0,127	-0,050
-140,716	800,000	-0,110	0,237
-139,702	-147,657	0,165	-0,010
-138,687	-10,049	0,058	0,028
-137,672	400,772	0,049	-0,074
-136,658	452,213	-0,038	-0,061
-135,643	-55,841	0,047	0,015
-134,629	800,000	-0,050	0,105
-133,614	413,090	0,051	0,079
-132,599	451,139	0,072	-0,114
-131,585	20,674	-0,110	0,064
-130,570	800,000	0,051	-0,139
-129,556	97,111	0,030	0,025
-128,541	800,000	-0,032	0,075
-127,526	-99,194	-0,063	0,011
-126,512	615,078	0,051	-0,092
-125,497	-0,547	0,088	0,045
-124,483	-127,301	-0,076	0,008
-123,468	800,000	-0,034	-0,079
-122,453	325,040	-0,076	-0,105
-121,439	376,823	0,103	-0,152
-120,424	189,362	-0,052	-0,056
-119,410	-200,000	0,035	0,166
