DTS Sentinel unit serial number:	SN410029Multiplexer serial number:	ORYXHardware model number:	OX2-SRSoftware version number:	ORYX F/W v4,00 Oryx Data Collector v3.7.2.0data status	okinstallation	B4 Nyhavnadifferential loss correction	single-endedforward channel	channel 2reverse channel	N/Adate	2023/12/18time	22:00:13forward acquisition time	300,00reverse acquisition time	0,00gamma	499,1914k internal	0,3124k external	0,3124temperature offset calibration	1,0000default loss term (dB/km)	0,3820temperature slope calibration	1,0000multiplexer offset coefficient	1,0000multiplexer slope coefficient	1,0000fibre end	0,00T internal ref (°C)	21,85T ext. ref 1 (°C)	7,21T ext. ref 2 (°C)	7,14length (m)	temperature (°C)	Stokes	anti-Stokes-744,400	-10,950	0,082	0,040
-743,385	-138,871	-0,295	0,024
-742,371	-70,539	0,092	0,026
-741,356	37,749	-0,233	0,154
-740,342	205,841	0,077	0,089
-739,327	59,437	-0,234	0,171
-738,312	-200,000	-0,019	-0,097
-737,298	10,840	-0,308	0,175
-736,283	345,732	-0,027	-0,040
-735,269	-37,745	-0,239	0,094
-734,254	-26,803	-0,013	-0,006
-733,239	-121,708	-0,378	0,046
-732,225	258,350	0,074	0,096
-731,210	120,547	0,075	-0,070
-730,196	-200,000	0,007	-0,046
-729,181	511,562	-0,054	-0,093
-728,167	21,527	-0,047	0,029
-727,152	238,920	-0,109	-0,135
-726,137	-200,000	-0,034	-0,174
-725,123	525,836	-0,059	-0,104
-724,108	-200,000	0,029	-0,221
-723,094	24,270	-0,144	-0,088
-722,079	-200,000	-0,043	-0,199
-721,064	280,963	0,017	0,023
-720,050	800,000	-0,026	-0,082
-719,035	-200,000	0,004	-0,049
-718,021	195,005	-0,051	-0,058
-717,006	-200,000	0,038	-0,141
-715,991	-200,000	0,001	-0,129
-714,977	155,949	-0,036	-0,037
-713,962	729,658	0,040	0,080
-712,948	183,521	0,007	0,007
-711,933	-149,031	-0,053	-0,003
-710,918	800,000	0,070	0,150
-709,904	-200,000	-0,017	-0,112
-708,889	800,000	-0,035	-0,094
-707,875	-113,170	-0,057	-0,008
-706,860	-200,000	-0,018	-0,097
-705,845	-200,000	-0,000	-0,037
-704,831	-32,986	0,109	-0,045
-703,816	-200,000	0,009	-0,159
-702,802	-200,000	-0,011	0,168
-701,787	-200,000	0,072	-0,255
-700,772	64,528	-0,080	0,060
-699,758	-81,282	-0,176	0,043
-698,743	46,695	0,009	0,006
-697,729	800,000	-0,007	0,020
-696,714	-200,000	-0,008	0,154
-695,699	9,677	-0,109	-0,061
-694,685	70,922	0,130	-0,100
-693,670	-200,000	-0,010	-0,036
-692,656	-44,567	-0,038	0,014
-691,641	80,778	-0,040	-0,032
-690,627	-200,000	0,048	-0,182
-689,612	-93,943	-0,133	-0,027
-688,597	-18,211	0,060	-0,028
-687,583	-34,524	0,015	0,006
-686,568	-140,587	0,109	-0,008
-685,554	-200,000	0,000	0,073
-684,539	-127,802	-0,130	0,014
-683,524	-106,214	0,063	-0,010
-682,510	-59,424	-0,126	-0,040
-681,495	-191,047	0,034	0,000
-680,481	30,479	-0,139	-0,088
-679,466	-200,000	0,006	-0,234
-678,451	276,194	-0,069	-0,091
-677,437	37,113	-0,075	0,049
-676,422	800,000	0,016	0,049
-675,408	-30,287	-0,117	-0,049
-674,393	800,000	-0,040	0,127
-673,378	37,811	0,081	-0,053
-672,364	383,964	0,100	-0,153
-671,349	-156,278	-0,100	0,005
-670,335	800,000	-0,033	-0,104
-669,320	75,679	0,024	0,019
-668,305	-123,703	-0,098	-0,011
-667,291	-19,915	-0,049	0,022
-666,276	-41,020	-0,049	-0,019
-665,262	800,000	0,045	-0,123
-664,247	800,000	-0,076	-0,181
-663,232	15,606	0,096	0,056
-662,218	72,073	0,120	0,093
-661,203	477,973	-0,068	0,114
-660,189	800,000	-0,043	-0,112
-659,174	-134,566	-0,109	0,010
-658,159	-114,510	-0,067	0,009
-657,145	147,565	-0,022	-0,022
-656,130	-25,339	0,065	0,028
-655,116	64,026	0,035	-0,026
-654,101	-200,000	0,017	-0,056
-653,086	160,744	-0,041	-0,042
-652,072	-131,415	0,098	-0,009
-651,057	800,000	-0,053	-0,120
-650,043	-200,000	0,002	-0,042
-649,028	94,673	0,049	0,041
-648,014	247,414	-0,062	0,078
-646,999	800,000	-0,070	0,183
-645,984	-200,000	-0,053	0,176
-644,970	-200,000	0,012	0,060
-643,955	328,784	-0,040	-0,057
-642,941	758,682	-0,066	0,134
-641,926	-88,571	0,062	0,014
-640,911	-73,261	0,048	-0,013
-639,897	-200,000	-0,002	-0,021
-638,882	-116,644	-0,113	-0,015
-637,868	-146,791	0,093	0,006
-636,853	233,920	-0,098	-0,120
-635,838	8,635	0,068	-0,038
-634,824	336,363	-0,064	-0,093
-633,809	-200,000	0,012	0,042
-632,795	800,000	0,044	0,097
-631,780	-200,000	-0,027	0,216
-630,765	-200,000	0,019	-0,123
-629,751	329,143	-0,032	-0,046
-628,736	458,832	0,068	0,113
-627,722	76,864	-0,089	-0,070
-626,707	-54,887	-0,019	0,006
-625,692	-87,464	0,122	0,027
-624,678	161,453	-0,124	-0,129
-623,663	301,977	-0,094	-0,130
-622,649	18,361	-0,059	-0,035
-621,634	2,351	0,040	0,021
-620,619	-200,000	0,011	-0,101
-619,605	42,843	-0,019	0,013
-618,590	25,854	0,070	0,043
-617,576	53,750	0,084	-0,060
-616,561	-200,000	0,022	-0,114
-615,546	135,844	0,060	-0,058
-614,532	-176,496	-0,067	-0,001
-613,517	504,011	-0,125	-0,215
-612,503	611,595	0,038	-0,071
-611,488	-200,000	-0,014	0,174
-610,474	-108,922	0,204	0,032
-609,459	-200,000	-0,043	-0,172
-608,444	-13,140	-0,056	0,027
-607,430	58,927	-0,051	-0,037
-606,415	-152,350	-0,149	-0,008
-605,401	745,418	0,017	-0,034
-604,386	-200,000	0,013	0,143
-603,371	-153,655	0,079	0,004
-602,357	112,967	0,082	0,074
-601,342	71,156	-0,074	-0,056
-600,328	247,892	-0,079	-0,099
-599,313	109,310	-0,089	-0,079
-598,298	800,000	0,036	-0,093
-597,284	-56,570	0,176	0,058
-596,269	296,013	0,028	0,039
-595,255	223,348	0,119	0,142
-594,240	24,648	-0,114	-0,070
-593,225	-200,000	-0,001	-0,139
-592,211	-76,076	0,104	0,027
-591,196	-200,000	-0,009	-0,039
-590,182	99,807	-0,050	0,043
-589,167	-104,557	-0,023	-0,004
-588,152	800,000	0,010	-0,027
-587,138	-200,000	0,010	-0,171
-586,123	-200,000	-0,032	0,162
-585,109	-115,889	-0,109	-0,015
-584,094	800,000	-0,035	-0,088
-583,079	125,899	-0,041	-0,038
-582,065	800,000	-0,025	0,059
-581,050	234,279	-0,075	0,091
-580,036	420,611	-0,033	-0,053
-579,021	287,112	-0,050	0,067
-578,006	-122,183	-0,087	0,010
-576,992	-200,000	-0,014	-0,105
-575,977	-133,864	-0,173	0,016
-574,963	108,955	-0,098	-0,087
-573,948	292,183	0,131	0,177
-572,934	-90,036	-0,102	0,022
-571,919	-200,000	0,011	-0,110
-570,904	-70,922	-0,141	-0,039
-569,890	-46,139	-0,108	-0,039
-568,875	-74,759	-0,074	-0,020
-567,861	800,000	0,049	-0,114
-566,846	-136,513	0,155	-0,013
-565,831	154,416	0,078	-0,079
-564,817	372,588	0,058	-0,087
-563,802	-69,690	0,080	0,023
-562,788	800,000	0,040	-0,109
-561,773	88,396	0,108	0,088
-560,758	305,742	-0,020	0,027
-559,744	439,189	-0,110	0,179
-558,729	753,705	0,033	0,066
-557,715	800,000	-0,064	-0,179
-556,700	-35,659	0,034	0,014
-555,685	-69,873	-0,100	0,028
-554,671	-98,990	-0,049	0,009
-553,656	-152,461	0,104	0,005
-552,642	785,249	-0,006	0,013
-551,627	-200,000	-0,006	-0,031
-550,612	-200,000	0,016	-0,096
-549,598	-163,387	-0,185	0,006
-548,583	800,000	-0,019	-0,049
-547,569	-14,076	-0,082	-0,039
-546,554	-37,899	-0,063	0,025
-545,539	-200,000	0,002	0,087
-544,525	397,890	-0,074	0,115
-543,510	800,000	-0,062	-0,129
-542,496	170,333	-0,034	-0,036
-541,481	-108,198	-0,135	-0,021
-540,466	468,061	-0,011	-0,019
-539,452	7,597	0,069	-0,038
-538,437	-200,000	-0,020	0,086
-537,423	429,014	0,075	0,120
-536,408	-200,000	-0,012	0,143
-535,393	-200,000	-0,011	-0,081
-534,379	21,656	-0,058	-0,035
-533,364	-200,000	0,003	0,127
-532,350	431,121	0,005	-0,008
-531,335	-103,848	0,137	-0,023
-530,321	-200,000	-0,025	-0,106
-529,306	9,773	0,084	0,047
-528,291	-78,075	-0,200	0,050
-527,277	800,000	-0,021	-0,064
-526,262	-200,000	0,041	-0,162
-525,248	-176,470	0,096	-0,002
-524,233	-200,000	0,006	-0,020
-523,218	667,428	-0,063	0,121
-522,204	551,470	0,039	-0,069
-521,189	290,783	-0,072	-0,097
-520,175	36,164	-0,043	-0,028
-519,160	-19,570	-0,132	-0,060
-518,145	-200,000	-0,036	-0,128
-517,131	110,884	0,035	-0,031
-516,116	81,054	0,073	-0,058
-515,102	354,536	-0,097	-0,143
-514,087	-200,000	0,000	-0,162
-513,072	-75,660	0,067	0,018
-512,058	-40,457	-0,043	0,016
-511,043	-200,000	-0,021	0,121
-510,029	442,939	0,043	0,070
-509,014	-200,000	-0,020	0,095
-507,999	131,581	-0,090	0,086
-506,985	-123,149	-0,195	-0,023
-505,970	196,748	0,080	0,090
-504,956	-54,651	0,112	0,037
-503,941	36,024	0,156	0,101
-502,926	-200,000	0,002	0,039
-501,912	369,073	-0,086	0,130
-500,897	-128,214	0,111	0,012
-499,883	68,952	-0,076	-0,057
-498,868	366,116	0,062	-0,093
-497,853	418,356	0,016	0,026
-496,839	142,786	0,087	-0,085
-495,824	2,893	-0,092	0,049
-494,810	800,000	-0,043	0,091
-493,795	-162,688	0,087	-0,003
-492,781	-200,000	0,029	-0,105
-491,766	762,239	0,053	-0,106
-490,751	-113,831	-0,120	-0,017
-489,737	800,000	0,042	0,098
-488,722	69,342	0,063	-0,048
-487,708	114,874	-0,051	0,046
-486,693	-104,429	0,124	-0,021
-485,678	800,000	0,042	0,101
-484,664	-123,044	-0,057	-0,007
-483,649	46,326	0,040	-0,027
-482,635	-25,107	0,073	-0,032
-481,620	131,655	-0,026	-0,024
-480,605	-38,407	-0,038	-0,015
-479,591	-200,000	-0,031	0,140
-478,576	87,126	0,037	0,030
-477,562	91,196	-0,118	-0,098
-476,547	-200,000	-0,024	-0,149
-475,532	505,228	0,045	0,077
-474,518	718,549	0,022	-0,043
-473,503	-6,488	-0,026	0,013
-472,489	19,200	0,096	0,057
-471,474	-69,275	0,061	0,017
-470,459	-200,000	-0,016	0,080
-469,445	7,590	-0,099	-0,054
-468,430	18,270	0,035	0,020
-467,416	800,000	0,019	0,051
-466,401	-133,507	0,082	-0,008
-465,386	-200,000	-0,000	0,036
-464,372	-2,979	-0,154	-0,079
-463,357	-200,000	-0,008	-0,055
-462,343	-132,663	-0,168	-0,016
-461,328	-200,000	-0,001	-0,077
-460,313	23,708	0,088	-0,053
-459,299	800,000	0,013	-0,038
-458,284	-200,000	0,001	0,129
-457,270	-88,934	-0,134	0,029
-456,255	182,194	0,020	-0,022
-455,241	800,000	-0,024	0,064
-454,226	800,000	-0,019	-0,056
-453,211	-116,617	0,028	0,004
-452,197	-200,000	0,002	0,040
-451,182	555,442	-0,017	-0,031
-450,168	-36,789	0,035	0,014
-449,153	-200,000	-0,009	0,119
-448,138	800,000	0,031	-0,078
-447,124	400,557	-0,044	-0,068
-446,109	-30,815	-0,198	-0,082
-445,095	466,532	-0,063	0,105
-444,080	431,246	0,014	-0,022
-443,065	-200,000	0,043	0,175
-442,051	484,853	0,114	0,192
-441,036	-200,000	-0,001	-0,103
-440,022	478,482	-0,025	-0,042
-439,007	800,000	0,019	-0,051
-437,992	-8,533	0,075	0,037
-436,978	800,000	-0,026	0,065
-435,963	31,974	0,070	-0,044
-434,949	-200,000	-0,022	-0,072
-433,934	31,516	-0,055	0,035
-432,919	-52,659	0,096	-0,033
-431,905	117,423	-0,102	0,092
-430,890	87,574	0,062	0,051
-429,876	33,037	0,043	-0,028
-428,861	-200,000	-0,007	0,075
-427,846	-69,689	-0,075	0,021
-426,832	-200,000	-0,023	-0,083
-425,817	-200,000	0,011	-0,093
-424,803	-72,851	0,070	-0,019
-423,788	-200,000	-0,036	0,130
-422,773	-200,000	0,012	0,216
-421,759	-200,000	-0,005	0,044
-420,744	-200,000	-0,002	0,074
-419,730	138,361	-0,026	0,025
-418,715	30,179	-0,116	0,073
-417,701	800,000	0,028	0,090
-416,686	-200,000	0,034	0,160
-415,671	-200,000	-0,005	0,062
-414,657	-59,188	0,069	0,022
-413,642	-11,977	0,089	-0,043
-412,628	-200,000	-0,038	-0,137
-411,613	-59,511	0,059	-0,018
-410,598	617,930	0,035	0,065
-409,584	313,122	0,013	0,018
-408,569	-200,000	0,000	0,055
-407,555	36,456	0,125	0,081
-406,540	85,175	-0,113	0,091
-405,525	117,471	0,031	-0,028
-404,511	-200,000	0,007	-0,050
-403,496	-86,282	0,189	-0,042
-402,482	-200,000	-0,021	-0,088
-401,467	-179,585	0,143	-0,002
-400,452	152,401	0,050	-0,050
-399,438	-92,583	0,141	-0,029
-398,423	-200,000	-0,019	-0,088
-397,409	-200,000	0,035	-0,153
-396,394	-200,000	-0,015	-0,080
-395,379	-200,000	-0,043	0,153
-394,365	600,733	0,049	0,089
-393,350	29,307	0,129	-0,080
-392,336	13,181	-0,062	-0,035
-391,321	645,987	-0,066	-0,125
-390,306	800,000	0,076	-0,161
-389,292	-200,000	-0,051	-0,200
-388,277	154,485	-0,043	-0,043
-387,263	774,048	0,031	0,063
-386,248	-87,593	0,203	0,045
-385,233	499,835	0,076	0,129
-384,219	-200,000	0,008	-0,027
-383,204	10,098	-0,066	0,037
-382,190	-200,000	0,029	0,100
-381,175	-52,355	-0,078	0,026
-380,160	168,867	0,054	-0,056
-379,146	180,209	0,057	0,062
-378,131	157,279	0,121	0,123
-377,117	41,755	0,092	-0,061
-376,102	-63,085	0,142	-0,043
-375,088	-200,000	-0,022	-0,148
-374,073	800,000	-0,077	-0,158
-373,058	65,070	0,087	0,065
-372,044	600,839	0,026	-0,047
-371,029	-200,000	0,026	0,092
-370,015	175,688	0,070	0,075
-369,000	-200,000	0,023	-0,149
-367,985	56,036	-0,081	-0,058
-366,971	51,851	0,029	-0,020
-365,956	-200,000	-0,022	0,093
-364,942	-200,000	0,003	0,059
-363,927	-200,000	-0,022	-0,110
-362,912	800,000	0,044	-0,121
-361,898	631,236	-0,099	-0,184
-360,883	175,050	-0,066	-0,070
-359,869	-166,393	-0,123	0,004
-358,854	-13,239	0,069	0,033
-357,839	40,756	0,014	0,009
-356,825	-200,000	0,013	-0,110
-355,810	-48,455	-0,155	-0,054
-354,796	477,087	-0,064	-0,106
-353,781	32,899	-0,055	-0,035
-352,766	-200,000	0,003	-0,073
-351,752	529,547	0,031	0,054
-350,737	-58,592	-0,128	0,040
-349,723	-200,000	0,030	0,156
-348,708	80,033	0,046	-0,037
-347,693	16,109	0,095	0,055
-346,679	-66,175	0,053	-0,016
-345,664	10,358	-0,090	-0,050
-344,650	118,251	-0,091	-0,082
-343,635	395,821	0,063	0,097
-342,620	289,860	0,044	-0,059
-341,606	800,000	0,028	-0,081
-340,591	-160,912	0,086	0,003
-339,577	766,578	-0,062	-0,125
-338,562	115,233	-0,076	-0,068
-337,548	800,000	0,025	0,058
-336,533	-200,000	0,004	0,134
-335,518	-131,588	-0,061	-0,006
-334,504	-200,000	0,002	-0,034
-333,489	-124,147	-0,082	0,009
-332,475	-104,254	-0,055	0,009
-331,460	110,653	-0,009	0,008
-330,445	-200,000	0,000	-0,079
-329,431	394,622	-0,020	0,030
-328,416	800,000	0,035	-0,073
-327,402	-158,198	0,040	0,002
-326,387	-146,031	0,100	0,006
-325,372	800,000	0,016	-0,035
-324,358	-57,083	0,019	0,006
-323,343	58,429	-0,079	-0,057
-322,329	418,101	0,055	-0,087
-321,314	-200,000	0,013	0,119
-320,299	632,122	-0,039	0,074
-319,285	10,114	0,111	-0,061
-318,270	54,197	-0,032	0,022
-317,256	-200,000	0,007	-0,036
-316,241	-200,000	-0,021	-0,101
-315,226	-200,000	-0,001	-0,067
-314,212	-42,454	-0,099	-0,037
-313,197	-131,964	0,056	-0,005
-312,183	15,792	-0,127	0,073
-311,168	-200,000	0,005	0,024
-310,153	-200,000	-0,014	0,115
-309,139	-36,827	-0,081	-0,032
-308,124	-108,027	0,011	0,002
-307,110	-200,000	0,023	0,078
-306,095	795,803	-0,049	0,099
-305,080	-200,000	-0,026	0,118
-304,066	-200,000	-0,005	0,112
-303,051	9,145	0,014	-0,008
-302,037	-24,519	-0,049	0,021
-301,022	-102,132	0,115	-0,020
-300,008	563,726	-0,035	0,063
-298,993	137,461	-0,040	0,038
-297,978	-11,094	0,058	-0,028
-296,964	-122,111	-0,065	0,008
-295,949	166,028	-0,046	0,048
-294,935	-80,838	-0,029	0,007
-293,920	800,000	-0,057	-0,138
-292,905	-200,000	0,002	0,019
-291,891	800,000	-0,042	0,093
-290,876	28,283	0,076	0,047
-289,862	249,288	-0,043	0,053
-288,847	-34,391	0,052	0,021
-287,832	267,017	0,056	0,072
-286,818	-2,380	-0,049	0,025
-285,803	800,000	-0,029	0,090
-284,789	800,000	-0,053	0,154
-283,774	-200,000	0,026	0,228
-282,759	-200,000	-0,003	-0,082
-281,745	124,842	-0,101	0,093
-280,730	124,751	-0,061	0,056
-279,716	-32,179	0,037	-0,015
-278,701	800,000	0,017	0,053
-277,686	-3,895	0,100	0,051
-276,672	271,025	-0,088	0,113
-275,657	-68,579	-0,068	-0,019
-274,643	-37,782	-0,140	0,054
-273,628	583,024	-0,043	-0,077
-272,613	94,271	0,115	0,096
-271,599	-200,000	-0,011	0,088
-270,584	26,921	0,152	-0,093
-269,570	800,000	0,037	0,087
-268,555	238,688	-0,029	0,035
-267,540	81,611	0,094	-0,074
-266,526	-200,000	-0,007	0,032
-265,511	146,817	0,139	-0,137
-264,497	-175,040	0,106	-0,002
-263,482	-80,415	0,042	-0,010
-262,467	431,944	0,064	0,102
-261,453	88,662	-0,077	-0,062
-260,438	-25,803	-0,108	0,046
-259,424	-62,577	0,031	-0,009
-258,409	220,120	-0,028	0,033
-257,395	-15,333	0,108	0,050
-256,380	-200,000	0,011	0,056
-255,365	-200,000	-0,006	-0,123
-254,351	70,389	0,094	0,071
-253,336	-43,953	-0,075	0,028
-252,322	-66,979	0,126	-0,036
-251,307	30,797	-0,034	-0,021
-250,292	136,460	-0,101	-0,097
-249,278	172,537	-0,045	-0,048
-248,263	-200,000	-0,008	0,033
-247,249	800,000	0,017	0,054
-246,234	-59,066	-0,029	0,009
-245,219	96,984	0,055	0,046
-244,205	-200,000	0,001	-0,057
-243,190	800,000	-0,029	0,069
-242,176	207,260	-0,104	-0,119
-241,161	-200,000	-0,004	-0,037
-240,146	800,000	0,017	-0,035
-239,132	-200,000	-0,001	-0,012
-238,117	50,853	-0,042	0,029
-237,103	-200,000	-0,030	-0,123
-236,088	-200,000	0,010	0,037
-235,073	800,000	0,036	0,113
-234,059	-86,082	0,071	0,016
-233,044	43,730	0,082	-0,055
-232,030	-200,000	0,028	-0,092
-231,015	-25,910	0,054	-0,023
-230,000	151,930	0,059	-0,059
-228,986	-11,854	-0,037	0,018
-227,971	-7,147	-0,117	-0,058
-226,957	-120,289	0,052	-0,006
-225,942	-66,796	0,057	-0,016
-224,927	498,761	-0,037	0,063
-223,913	-128,840	-0,071	-0,007
-222,898	-200,000	-0,000	0,148
-221,884	800,000	0,012	-0,031
-220,869	800,000	-0,018	0,047
-219,855	-200,000	-0,006	0,063
-218,840	225,045	-0,055	0,065
-217,825	-44,788	-0,068	0,025
-216,811	398,745	-0,088	-0,134
-215,796	104,512	0,101	-0,086
-214,782	147,961	0,079	-0,078
-213,767	-14,310	0,124	0,058
-212,752	-19,634	0,224	0,101
-211,738	227,366	0,051	0,061
-210,723	77,187	-0,108	0,083
-209,709	445,236	0,073	-0,118
-208,694	24,024	0,034	0,020
-207,679	324,870	-0,051	-0,072
-206,665	-36,192	0,156	0,061
-205,650	-200,000	0,022	0,184
-204,636	800,000	-0,062	0,162
-203,621	110,883	-0,033	-0,029
-202,606	96,465	-0,091	-0,076
-201,592	444,664	0,020	0,032
-200,577	-200,000	0,005	-0,040
-199,563	-67,836	0,026	0,007
-198,548	-134,330	0,107	0,009
-197,533	-200,000	0,021	0,110
-196,519	187,335	0,049	0,054
-195,504	-200,000	-0,018	0,144
-194,490	566,278	-0,065	-0,115
-193,475	574,771	-0,079	-0,141
-192,460	500,129	0,087	0,147
-191,446	-49,203	0,125	0,043
-190,431	455,336	0,050	-0,081
-189,417	-0,634	0,078	0,040
-188,402	800,000	-0,072	0,156
-187,387	41,078	-0,128	-0,084
-186,373	275,605	-0,094	-0,122
-185,358	640,005	0,052	-0,096
-184,344	31,730	-0,033	0,020
-183,329	34,430	0,041	0,026
-182,315	95,062	-0,030	0,025
-181,300	131,047	0,111	-0,104
-180,285	267,709	-0,026	-0,033
-179,271	-200,000	0,002	-0,079
-178,256	71,790	-0,055	-0,041
-177,242	-42,098	0,004	-0,001
-176,227	-57,243	0,162	0,052
-175,212	18,788	0,119	0,069
-174,198	-142,555	0,079	0,006
-173,183	232,393	-0,037	0,045
-172,169	231,285	0,031	0,037
-171,154	-200,000	0,016	-0,063
-170,139	-27,131	-0,175	0,074
-169,125	-120,279	0,083	0,010
-168,110	-86,315	-0,070	-0,016
-167,096	-200,000	0,000	0,152
-166,081	-163,087	-0,146	-0,005
-165,066	-200,000	-0,000	-0,008
-164,052	-104,484	-0,171	0,029
-163,037	-58,138	0,097	-0,031
-162,023	440,354	0,043	-0,068
-161,008	-64,611	0,080	-0,023
-159,993	-200,000	0,000	-0,062
-158,979	-200,000	-0,050	-0,232
-157,964	-62,900	-0,079	-0,024
-156,950	800,000	0,045	-0,136
-155,935	320,067	0,104	-0,144
-154,920	800,000	0,046	0,132
-153,906	186,874	0,039	0,042
-152,891	800,000	0,023	0,068
-151,877	-57,931	-0,045	-0,014
-150,862	800,000	0,015	0,038
-149,847	-95,102	0,047	-0,009
-148,833	800,000	-0,011	-0,029
-147,818	656,787	0,020	0,037
-146,804	71,713	-0,028	-0,021
-145,789	-130,970	-0,051	0,005
-144,775	-124,979	-0,210	-0,023
-143,760	-89,915	-0,041	0,009
-142,745	787,599	-0,018	-0,036
-141,731	-200,000	-0,010	0,095
-140,716	-200,000	0,017	0,134
-139,702	288,167	0,037	0,049
-138,687	-156,607	0,121	-0,005
-137,672	126,762	-0,054	0,050
-136,658	800,000	0,053	0,125
-135,643	330,156	0,078	0,109
-134,629	40,707	0,022	-0,015
-133,614	-110,430	0,119	0,018
-132,599	-99,353	0,170	-0,031
-131,585	-160,528	-0,143	-0,005
-130,570	-200,000	-0,010	-0,059
-129,556	-200,000	-0,005	0,030
-128,541	-42,148	-0,090	0,033
-127,526	-53,139	0,115	-0,038
-126,512	-46,374	-0,091	0,032
-125,497	-159,770	0,035	-0,001
-124,483	-200,000	0,003	0,044
-123,468	-56,874	-0,143	0,046
-122,453	29,014	0,048	0,030
-121,439	800,000	-0,056	-0,147
-120,424	800,000	0,018	0,039
-119,410	-200,000	-0,032	-0,154
