DTS Sentinel unit serial number:	SN410029Multiplexer serial number:	ORYXHardware model number:	OX2-SRSoftware version number:	ORYX F/W v4,00 Oryx Data Collector v3.7.2.0data status	okinstallation	B4 Nyhavnadifferential loss correction	single-endedforward channel	channel 2reverse channel	N/Adate	2023/12/16time	03:00:13forward acquisition time	300,00reverse acquisition time	0,00gamma	499,1914k internal	0,3128k external	0,3128temperature offset calibration	1,0000default loss term (dB/km)	0,3820temperature slope calibration	1,0000multiplexer offset coefficient	1,0000multiplexer slope coefficient	1,0000fibre end	0,00T internal ref (°C)	21,94T ext. ref 1 (°C)	7,03T ext. ref 2 (°C)	7,24length (m)	temperature (°C)	Stokes	anti-Stokes-744,400	48,287	0,097	-0,067
-743,385	-97,516	-0,171	0,033
-742,371	-200,000	-0,038	0,134
-741,356	-200,000	-0,023	0,096
-740,342	800,000	0,048	0,099
-739,327	78,974	-0,256	0,204
-738,312	-200,000	0,008	-0,057
-737,298	-62,891	-0,251	0,077
-736,283	-42,876	0,042	-0,016
-735,269	116,827	-0,223	0,203
-734,254	-79,068	0,115	-0,029
-733,239	-116,247	-0,317	-0,043
-732,225	224,620	-0,054	0,065
-731,210	-128,554	0,079	-0,008
-730,196	-75,030	-0,157	-0,042
-729,181	177,664	-0,133	-0,145
-728,167	92,793	0,060	-0,050
-727,152	30,522	0,077	-0,049
-726,137	591,588	-0,006	0,011
-725,123	-119,754	0,084	0,011
-724,108	-26,019	0,033	0,014
-723,094	135,707	0,043	-0,042
-722,079	-200,000	-0,012	-0,075
-721,064	-27,610	0,091	-0,039
-720,050	-123,728	-0,094	0,011
-719,035	-200,000	-0,024	0,083
-718,021	-200,000	0,008	-0,071
-717,006	800,000	-0,059	-0,142
-715,991	121,950	-0,093	0,086
-714,977	-44,607	0,027	0,010
-713,962	-89,282	-0,100	-0,022
-712,948	-23,647	-0,032	-0,014
-711,933	148,053	-0,020	-0,020
-710,918	-167,430	-0,078	0,002
-709,904	-144,131	-0,111	-0,008
-708,889	309,403	-0,087	-0,122
-707,875	116,964	0,013	-0,012
-706,860	113,957	0,030	-0,027
-705,845	216,430	0,084	-0,099
-704,831	3,797	-0,077	-0,042
-703,816	43,199	0,085	0,057
-702,802	133,988	-0,062	-0,060
-701,787	580,980	-0,036	-0,066
-700,772	800,000	0,067	-0,161
-699,758	-158,016	-0,130	-0,006
-698,743	-6,042	0,107	0,054
-697,729	-32,652	0,140	0,058
-696,714	-150,842	0,068	0,004
-695,699	-36,994	-0,054	-0,022
-694,685	-200,000	0,007	-0,126
-693,670	165,810	0,053	0,055
-692,656	310,898	0,066	-0,093
-691,641	-38,284	-0,046	0,018
-690,627	479,138	-0,008	-0,014
-689,612	-200,000	-0,002	0,030
-688,597	-200,000	-0,155	0,000
-687,583	369,414	-0,035	-0,052
-686,568	-69,058	-0,077	0,022
-685,554	-0,763	-0,051	-0,027
-684,539	0,536	0,038	-0,020
-683,524	227,922	0,042	-0,051
-682,510	92,228	-0,012	0,010
-681,495	-200,000	-0,003	0,096
-680,481	-200,000	0,004	-0,177
-679,466	162,721	-0,100	-0,104
-678,451	-17,222	0,066	0,031
-677,437	96,630	-0,037	0,032
-676,422	-126,808	0,110	0,012
-675,408	-200,000	0,005	-0,024
-674,393	30,087	0,035	-0,022
-673,378	559,092	0,062	-0,112
-672,364	-10,085	-0,027	-0,013
-671,349	361,558	0,046	-0,069
-670,335	-122,837	0,067	0,008
-669,320	-70,481	0,070	-0,019
-668,305	-96,207	-0,120	-0,023
-667,291	-200,000	0,015	0,102
-666,276	116,664	-0,079	-0,072
-665,262	140,287	0,038	-0,037
-664,247	-200,000	-0,003	-0,028
-663,232	-51,999	-0,087	-0,030
-662,218	-162,587	0,081	0,003
-661,203	-46,178	0,087	0,031
-660,189	171,395	0,071	0,076
-659,174	506,019	-0,068	-0,117
-658,159	-81,721	-0,071	0,017
-657,145	210,712	0,071	-0,083
-656,130	242,925	0,006	0,008
-655,116	22,152	-0,038	0,023
-654,101	-200,000	0,004	0,052
-653,086	18,928	0,073	-0,043
-652,072	-111,350	-0,134	-0,020
-651,057	221,779	-0,092	-0,110
-650,043	800,000	-0,050	0,104
-649,028	-200,000	0,004	0,026
-648,014	728,559	0,043	-0,085
-646,999	114,033	-0,125	-0,113
-645,984	-17,663	-0,062	0,029
-644,970	-7,099	0,058	-0,029
-643,955	-8,532	0,083	0,041
-642,941	74,654	-0,093	-0,072
-641,926	109,857	-0,047	-0,042
-640,911	164,240	-0,048	0,050
-639,897	749,551	-0,050	-0,101
-638,882	133,503	0,059	-0,056
-637,868	657,211	-0,035	-0,067
-636,853	800,000	0,054	-0,119
-635,838	-96,429	-0,064	0,013
-634,824	221,186	0,028	0,033
-633,809	71,478	0,122	0,094
-632,795	800,000	-0,025	-0,067
-631,780	-68,932	0,133	-0,038
-630,765	800,000	-0,040	-0,126
-629,751	-200,000	-0,015	0,105
-628,736	522,227	0,043	0,076
-627,722	-178,347	0,064	0,001
-626,707	800,000	0,063	-0,131
-625,692	152,260	-0,097	-0,098
-624,678	272,367	-0,098	-0,128
-623,663	-173,209	0,049	0,001
-622,649	-128,312	0,051	0,005
-621,634	-200,000	-0,013	0,074
-620,619	-19,228	-0,101	0,046
-619,605	235,684	0,039	0,048
-618,590	800,000	0,024	-0,054
-617,576	164,078	0,074	0,078
-616,561	-200,000	0,015	0,125
-615,546	-200,000	-0,001	-0,108
-614,532	-200,000	-0,014	-0,086
-613,517	409,253	-0,077	-0,121
-612,503	9,903	0,084	-0,047
-611,488	-114,104	-0,138	-0,020
-610,474	367,995	0,044	-0,066
-609,459	-200,000	0,009	0,058
-608,444	-200,000	0,022	0,103
-607,430	392,638	-0,082	-0,127
-606,415	257,780	-0,056	-0,072
-605,401	-22,588	-0,075	-0,033
-604,386	7,935	-0,029	0,016
-603,371	41,073	0,078	0,052
-602,357	527,155	0,009	-0,015
-601,342	-200,000	0,028	-0,111
-600,328	-200,000	0,018	0,101
-599,313	-129,667	-0,020	0,002
-598,298	-127,063	0,214	0,023
-597,284	750,726	-0,051	0,101
-596,269	37,412	-0,116	-0,076
-595,255	262,550	-0,023	-0,029
-594,240	-169,158	0,114	0,003
-593,225	-17,095	-0,047	-0,022
-592,211	368,777	0,036	0,055
-591,196	207,673	0,077	-0,089
-590,182	-147,414	0,170	0,011
-589,167	512,164	0,102	0,177
-588,152	576,500	0,017	0,031
-587,138	92,275	-0,044	0,037
-586,123	276,144	-0,027	0,035
-585,109	110,411	-0,102	0,091
-584,094	-39,009	0,111	-0,043
-583,079	800,000	-0,061	0,136
-582,065	-24,908	0,040	-0,017
-581,050	800,000	-0,069	0,192
-580,036	-117,571	-0,080	0,011
-579,021	386,476	-0,067	-0,103
-578,006	-58,788	-0,054	-0,017
-576,992	161,138	0,029	0,030
-575,977	-34,230	0,051	-0,021
-574,963	98,812	-0,060	0,051
-573,948	33,315	-0,059	-0,038
-572,934	-71,466	0,094	-0,026
-571,919	155,057	-0,050	0,051
-570,904	-200,000	-0,005	0,092
-569,890	800,000	0,019	0,045
-568,875	800,000	-0,050	0,123
-567,861	16,070	-0,027	-0,016
-566,846	181,243	-0,023	0,025
-565,831	-87,599	-0,044	0,010
-564,817	422,007	0,018	-0,028
-563,802	15,803	-0,089	0,052
-562,788	-67,706	-0,088	-0,025
-561,773	619,243	0,025	0,047
-560,758	-19,446	-0,093	-0,042
-559,744	446,632	-0,014	0,022
-558,729	204,962	-0,051	-0,059
-557,715	-170,951	0,117	-0,003
-556,700	-169,923	-0,192	-0,005
-555,685	-200,000	-0,003	0,065
-554,671	-33,752	-0,036	0,015
-553,656	-200,000	0,018	-0,155
-552,642	266,270	-0,060	0,078
-551,627	-200,000	-0,004	-0,027
-550,612	294,651	0,131	-0,177
-549,598	-200,000	0,012	-0,139
-548,583	-22,251	0,089	-0,040
-547,569	85,881	0,050	0,040
-546,554	132,621	0,045	-0,043
-545,539	800,000	-0,034	0,108
-544,525	-53,693	0,149	0,050
-543,510	-200,000	0,024	0,083
-542,496	315,162	-0,060	-0,083
-541,481	20,739	-0,191	-0,114
-540,466	471,197	-0,052	0,086
-539,452	91,244	0,020	-0,016
-538,437	3,841	0,065	0,035
-537,423	405,842	0,011	0,017
-536,408	-200,000	-0,035	-0,178
-535,393	44,138	-0,062	-0,042
-534,379	-200,000	0,006	0,151
-533,364	-113,579	-0,141	-0,020
-532,350	260,170	0,041	-0,052
-531,335	-159,516	-0,144	-0,006
-530,321	-129,101	0,146	-0,015
-529,306	60,165	0,075	-0,055
-528,291	74,987	-0,141	-0,110
-527,277	800,000	-0,016	-0,036
-526,262	-29,218	0,099	-0,042
-525,248	-18,969	0,142	0,065
-524,233	-200,000	-0,013	-0,082
-523,218	684,945	0,048	-0,094
-522,204	-89,197	0,153	0,033
-521,189	791,720	-0,014	0,029
-520,175	-155,352	-0,115	0,005
-519,160	109,741	-0,070	0,062
-518,145	-5,429	0,072	-0,036
-517,131	-41,080	0,123	-0,047
-516,116	-200,000	-0,015	-0,069
-515,102	37,137	-0,110	-0,071
-514,087	286,307	-0,045	-0,060
-513,072	299,505	-0,017	-0,023
-512,058	-59,622	0,064	-0,020
-511,043	800,000	-0,020	-0,062
-510,029	375,261	0,074	0,112
-509,014	777,206	-0,033	-0,067
-507,999	800,000	-0,018	-0,040
-506,985	459,496	0,014	-0,023
-505,970	184,815	0,039	0,043
-504,956	-42,320	0,114	-0,043
-503,941	-200,000	0,108	-0,000
-502,926	-200,000	0,002	0,094
-501,912	720,921	-0,032	0,063
-500,897	19,606	-0,061	-0,036
-499,883	143,266	-0,097	0,095
-498,868	-57,008	0,103	-0,033
-497,853	-200,000	-0,001	-0,035
-496,839	610,342	-0,018	-0,033
-495,824	-200,000	-0,003	-0,043
-494,810	496,637	-0,060	-0,103
-493,795	-62,554	0,108	-0,033
-492,781	-57,697	-0,107	0,034
-491,766	176,014	-0,057	0,061
-490,751	-200,000	-0,003	-0,174
-489,737	-200,000	-0,000	-0,068
-488,722	338,478	0,079	-0,114
-487,708	-125,470	0,026	0,003
-486,693	54,267	-0,035	0,025
-485,678	-11,198	-0,139	-0,067
-484,664	-57,631	0,086	-0,028
-483,649	202,352	-0,085	-0,096
-482,635	771,275	-0,066	-0,134
-481,620	-84,089	0,073	-0,017
-480,605	10,037	-0,127	0,071
-479,591	-200,000	-0,030	0,152
-478,576	-190,427	-0,129	0,001
-477,562	-155,613	0,063	-0,003
-476,547	-200,000	0,009	-0,063
-475,532	754,805	0,066	0,133
-474,518	480,713	0,069	0,116
-473,503	-46,353	0,109	0,039
-472,489	800,000	-0,053	0,112
-471,474	-200,000	0,010	0,114
-470,459	82,842	-0,111	-0,089
-469,445	800,000	0,054	-0,141
-468,430	96,811	0,007	0,006
-467,416	288,868	0,064	0,085
-466,401	192,285	-0,034	-0,038
-465,386	37,972	0,041	-0,027
-464,372	66,958	-0,133	0,100
-463,357	-65,869	-0,060	-0,018
-462,343	-33,028	0,058	0,024
-461,328	39,109	0,076	-0,050
-460,313	62,206	-0,079	0,058
-459,299	203,387	0,028	-0,032
-458,284	40,495	-0,134	0,089
-457,270	800,000	-0,031	-0,078
-456,255	800,000	0,042	-0,111
-455,241	-200,000	-0,005	-0,025
-454,226	-200,000	-0,003	-0,070
-453,211	800,000	0,009	0,027
-452,197	-200,000	0,014	0,082
-451,182	-136,452	-0,119	-0,010
-450,168	-60,597	0,013	0,004
-449,153	417,290	0,070	0,111
-448,138	101,061	-0,088	-0,075
-447,124	800,000	-0,029	-0,079
-446,109	433,167	-0,063	-0,102
-445,095	-200,000	0,010	0,039
-444,080	292,573	0,028	-0,038
-443,065	-27,836	0,046	0,019
-442,051	-200,000	0,001	0,053
-441,036	-182,251	-0,097	0,001
-440,022	-41,781	-0,072	-0,027
-439,007	-200,000	-0,008	-0,057
-437,992	182,629	0,047	-0,051
-436,978	626,376	-0,021	0,040
-435,963	-50,912	-0,112	0,038
-434,949	255,232	-0,057	0,071
-433,934	-200,000	0,013	0,046
-432,919	80,585	-0,070	0,055
-431,905	53,019	0,047	-0,033
-430,890	800,000	-0,008	-0,018
-429,876	-200,000	0,013	0,105
-428,861	-200,000	0,008	0,178
-427,846	32,128	-0,045	0,028
-426,832	-200,000	0,003	0,023
-425,817	-140,259	-0,021	-0,002
-424,803	48,116	0,141	0,097
-423,788	-163,232	0,107	0,004
-422,773	800,000	0,034	0,092
-421,759	-200,000	0,008	0,212
-420,744	800,000	-0,013	-0,038
-419,730	-101,818	-0,080	-0,014
-418,715	235,031	0,072	-0,087
-417,701	-57,285	0,093	0,030
-416,686	-93,104	0,064	0,013
-415,671	-147,738	-0,045	0,003
-414,657	-200,000	0,008	0,088
-413,642	345,292	-0,034	0,049
-412,628	170,146	0,019	0,020
-411,613	-200,000	0,003	0,025
-410,598	-72,430	-0,159	-0,043
-409,584	415,325	-0,036	-0,056
-408,569	186,532	0,044	0,048
-407,555	33,559	-0,171	0,109
-406,540	-200,000	-0,045	0,157
-405,525	-178,331	0,098	0,002
-404,511	746,357	-0,042	0,083
-403,496	-95,534	0,113	-0,022
-402,482	800,000	0,012	-0,030
-401,467	730,230	0,033	0,064
-400,452	-200,000	0,028	0,105
-399,438	-200,000	-0,009	0,061
-398,423	180,108	0,064	-0,069
-397,409	-200,000	-0,040	-0,171
-396,394	494,262	0,039	-0,065
-395,379	-103,317	0,185	0,032
-394,365	-200,000	-0,014	0,066
-393,350	-75,420	0,076	-0,020
-392,336	55,242	-0,009	0,006
-391,321	312,600	0,033	0,046
-390,306	-46,780	-0,112	-0,040
-389,292	454,007	-0,042	0,068
-388,277	-23,268	-0,099	-0,043
-387,263	78,993	0,094	-0,074
-386,248	271,971	0,064	0,083
-385,233	-26,264	0,098	0,042
-384,219	-88,671	0,066	0,014
-383,204	-151,381	-0,086	-0,005
-382,190	-200,000	0,000	0,149
-381,175	-69,170	0,141	-0,040
-380,160	-4,336	0,095	-0,048
-379,146	-21,666	-0,194	0,087
-378,131	495,930	0,027	0,046
-377,117	-200,000	-0,023	0,127
-376,102	-200,000	-0,005	-0,041
-375,088	108,696	-0,089	0,078
-374,073	215,098	0,032	0,038
-373,058	-200,000	-0,030	0,111
-372,044	96,624	-0,070	0,059
-371,029	298,529	-0,101	0,137
-370,015	208,697	-0,031	-0,035
-369,000	-106,543	0,098	0,016
-367,985	-200,000	-0,021	-0,134
-366,971	93,657	-0,067	0,056
-365,956	-200,000	-0,000	0,023
-364,942	201,671	-0,087	-0,098
-363,927	468,702	0,015	0,025
-362,912	-200,000	0,005	-0,026
-361,898	-35,458	0,116	-0,046
-360,883	800,000	0,026	0,063
-359,869	800,000	-0,033	0,082
-358,854	-17,294	-0,089	-0,041
-357,839	99,752	0,070	-0,059
-356,825	-13,433	0,085	0,040
-355,810	800,000	0,047	0,132
-354,796	-200,000	0,010	0,092
-353,781	-50,789	0,115	-0,039
-352,766	316,578	-0,076	-0,105
-351,752	-39,280	-0,164	-0,063
-350,737	-106,888	0,101	0,016
-349,723	191,335	0,033	0,037
-348,708	-200,000	0,016	-0,232
-347,693	-115,366	-0,077	0,011
-346,679	-200,000	-0,002	-0,033
-345,664	448,234	0,065	-0,105
-344,650	70,046	-0,091	0,069
-343,635	-200,000	0,006	0,039
-342,620	-200,000	-0,006	0,104
-341,606	172,849	0,093	0,098
-340,591	291,608	-0,037	0,050
-339,577	49,402	0,088	0,060
-338,562	-42,239	-0,098	0,037
-337,548	37,551	-0,120	-0,078
-336,533	-127,066	0,099	-0,011
-335,518	-200,000	0,014	-0,123
-334,504	35,920	0,038	0,025
-333,489	-200,000	0,012	-0,099
-332,475	429,742	0,016	-0,026
-331,460	800,000	-0,007	0,022
-330,445	800,000	0,010	0,029
-329,431	16,206	0,145	-0,084
-328,416	55,053	-0,025	0,018
-327,402	-124,428	-0,041	0,005
-326,387	-97,925	0,111	-0,021
-325,372	-200,000	0,052	-0,203
-324,358	138,837	0,123	0,118
-323,343	-128,409	-0,057	0,006
-322,329	-38,443	-0,034	0,013
-321,314	-86,253	-0,078	-0,017
-320,299	-200,000	0,017	0,171
-319,285	527,689	-0,052	-0,090
-318,270	-25,246	-0,182	-0,078
-317,256	-200,000	0,006	-0,102
-316,241	800,000	-0,052	-0,137
-315,226	270,218	0,137	0,177
-314,212	-59,108	-0,151	0,047
-313,197	-200,000	0,006	0,023
-312,183	-200,000	0,022	0,084
-311,168	800,000	0,039	0,086
-310,153	-109,361	-0,063	0,010
-309,139	800,000	-0,027	-0,065
-308,124	-200,000	0,026	-0,100
-307,110	420,931	0,081	0,128
-306,095	169,491	-0,026	0,027
-305,080	-200,000	0,003	-0,139
-304,066	-200,000	0,016	-0,105
-303,051	170,412	-0,086	-0,090
-302,037	-200,000	0,031	-0,116
-301,022	234,828	0,065	-0,079
-300,008	329,103	0,067	0,094
-298,993	-200,000	0,007	0,045
-297,978	-137,581	0,071	-0,006
-296,964	-200,000	0,002	-0,056
-295,949	800,000	0,010	-0,024
-294,935	154,669	-0,150	0,150
-293,920	-27,385	-0,101	0,043
-292,905	-200,000	-0,017	0,064
-291,891	800,000	0,037	0,118
-290,876	81,418	0,094	0,074
-289,862	800,000	-0,060	0,138
-288,847	-125,175	0,167	-0,018
-287,832	-92,878	-0,013	-0,003
-286,818	-200,000	-0,002	0,056
-285,803	110,998	-0,096	0,085
-284,789	-35,198	0,075	0,030
-283,774	-42,288	0,017	0,006
-282,759	100,911	0,031	0,027
-281,745	-9,100	-0,182	-0,089
-280,730	-200,000	-0,001	0,015
-279,716	324,192	0,032	0,045
-278,701	124,338	-0,058	0,053
-277,686	164,004	0,037	0,038
-276,672	-200,000	0,037	0,146
-275,657	59,378	-0,030	0,022
-274,643	800,000	-0,025	-0,058
-273,628	140,986	-0,116	0,112
-272,613	-200,000	0,017	-0,094
-271,599	-98,272	0,052	0,010
-270,584	605,654	0,017	0,031
-269,570	800,000	0,032	0,068
-268,555	-200,000	0,000	-0,041
-267,540	460,992	-0,073	-0,119
-266,526	193,582	0,042	0,046
-265,511	263,585	0,073	0,093
-264,497	-200,000	-0,001	-0,017
-263,482	-55,825	-0,056	-0,018
-262,467	138,263	0,043	-0,041
-261,453	-74,407	-0,114	0,030
-260,438	430,051	-0,058	0,092
-259,424	714,897	0,054	-0,105
-258,409	22,886	-0,056	-0,033
-257,395	-23,526	0,061	0,026
-256,380	800,000	-0,040	0,087
-255,365	-6,979	0,097	0,048
-254,351	-59,310	-0,064	-0,020
-253,336	-70,069	0,145	-0,040
-252,322	22,455	0,128	-0,076
-251,307	800,000	-0,054	-0,131
-250,292	-27,809	-0,160	-0,067
-249,278	75,629	-0,064	0,050
-248,263	19,652	-0,057	0,034
-247,249	179,981	0,016	-0,018
-246,234	-108,267	0,040	-0,006
-245,219	-200,000	-0,017	0,057
-244,205	198,096	0,067	-0,074
-243,190	-61,014	0,155	-0,047
-242,176	-109,576	0,064	0,010
-241,161	185,675	0,090	0,098
-240,146	-3,048	-0,090	-0,045
-239,132	-22,174	0,089	0,039
-238,117	-200,000	-0,039	-0,179
-237,103	-200,000	-0,022	-0,121
-236,088	399,881	-0,053	-0,081
-235,073	-138,922	0,112	0,009
-234,059	-200,000	-0,010	0,041
-233,044	800,000	-0,019	0,042
-232,030	-99,154	-0,077	0,014
-231,015	-49,524	0,033	-0,011
-230,000	-13,693	-0,097	0,046
-228,986	242,077	0,031	0,038
-227,971	-56,492	0,039	0,013
-226,957	800,000	0,046	0,132
-225,942	55,870	0,062	-0,044
-224,927	-43,392	0,020	0,007
-223,913	-88,218	-0,100	0,022
-222,898	-155,717	0,089	-0,004
-221,884	800,000	-0,047	-0,097
-220,869	331,457	0,108	0,152
-219,855	313,142	0,013	-0,018
-218,840	-200,000	-0,017	-0,066
-217,825	-200,000	-0,055	-0,201
-216,811	-200,000	0,005	-0,161
-215,796	-200,000	0,010	-0,097
-214,782	-200,000	-0,003	-0,116
-213,767	-118,699	0,036	-0,005
-212,752	-50,293	0,084	0,029
-211,738	-153,846	0,086	-0,004
-210,723	191,023	-0,033	-0,036
-209,709	-200,000	0,011	-0,124
-208,694	-200,000	-0,003	-0,072
-207,679	207,028	-0,041	-0,047
-206,665	269,484	0,081	0,104
-205,650	404,520	-0,125	0,192
-204,636	-132,274	0,065	-0,006
-203,621	479,829	0,043	-0,071
-202,606	-104,766	0,189	0,031
-201,592	-200,000	0,008	-0,110
-200,577	236,820	0,070	0,085
-199,563	800,000	-0,019	-0,055
-198,548	-200,000	-0,008	-0,036
-197,533	95,889	0,060	0,050
-196,519	100,867	-0,076	-0,064
-195,504	151,644	-0,071	0,070
-194,490	44,581	0,086	-0,058
-193,475	-150,214	0,053	0,003
-192,460	-200,000	-0,004	-0,050
-191,446	-200,000	-0,029	0,171
-190,431	105,206	0,118	-0,101
-189,417	468,062	-0,052	-0,086
-188,402	619,795	-0,019	0,034
-187,387	73,690	-0,099	-0,076
-186,373	-111,637	-0,109	0,016
-185,358	-141,477	-0,060	-0,004
-184,344	-27,014	0,042	0,018
-183,329	239,830	0,060	0,073
-182,315	-147,416	0,160	-0,010
-181,300	91,077	0,105	0,086
-180,285	-119,946	-0,150	-0,019
-179,271	40,783	-0,093	0,061
-178,256	245,719	-0,099	-0,122
-177,242	361,824	0,048	-0,071
-176,227	-129,759	-0,038	-0,004
-175,212	2,353	0,074	-0,039
-174,198	44,375	0,061	0,041
-173,183	-104,946	-0,080	-0,013
-172,169	800,000	0,013	0,031
-171,154	-95,453	0,070	-0,013
-170,139	-76,876	0,052	-0,013
-169,125	-167,838	0,058	0,002
-168,110	-2,494	0,224	0,114
-167,096	-200,000	0,018	-0,126
-166,081	-149,081	-0,158	0,009
-165,066	-146,348	-0,084	0,005
-164,052	-200,000	-0,010	-0,139
-163,037	-200,000	-0,015	-0,084
-162,023	-64,138	-0,143	-0,042
-161,008	270,901	-0,049	-0,062
-159,993	-46,246	0,125	-0,044
-158,979	179,510	-0,063	0,067
-157,964	78,237	-0,053	0,041
-156,950	-200,000	-0,016	0,128
-155,935	800,000	-0,054	0,115
-154,920	132,434	-0,039	0,037
-153,906	-200,000	0,007	0,065
-152,891	-200,000	0,006	0,113
-151,877	-200,000	0,014	-0,104
-150,862	-200,000	0,001	-0,013
-149,847	-200,000	-0,002	0,062
-148,833	-200,000	-0,011	0,101
-147,818	272,727	0,045	0,057
-146,804	1,111	0,071	0,037
-145,789	254,601	0,079	0,099
-144,775	800,000	0,030	-0,062
-143,760	243,252	-0,067	-0,081
-142,745	672,964	0,005	0,010
-141,731	-200,000	0,002	-0,148
-140,716	61,846	-0,040	-0,029
-139,702	-35,143	0,049	0,019
-138,687	191,965	0,031	-0,035
-137,672	800,000	-0,022	-0,057
-136,658	112,769	-0,139	-0,123
-135,643	800,000	0,038	-0,095
-134,629	-62,420	-0,022	0,007
-133,614	5,398	0,030	-0,016
-132,599	-200,000	-0,014	-0,064
-131,585	472,791	-0,017	-0,029
-130,570	-72,714	0,128	0,034
-129,556	-200,000	-0,006	-0,068
-128,541	-140,194	-0,053	0,004
-127,526	56,386	-0,021	-0,015
-126,512	800,000	-0,048	0,127
-125,497	-200,000	0,007	0,067
-124,483	-46,785	0,079	0,028
-123,468	62,810	0,099	-0,072
-122,453	35,725	-0,118	-0,075
-121,439	53,203	0,090	-0,062
-120,424	-63,859	-0,060	-0,018
-119,410	131,603	-0,062	0,058
