DTS Sentinel unit serial number:	SN410029Multiplexer serial number:	ORYXHardware model number:	OX2-SRSoftware version number:	ORYX F/W v4,00 Oryx Data Collector v3.7.2.0data status	okinstallation	B4 Nyhavnadifferential loss correction	single-endedforward channel	channel 2reverse channel	N/Adate	2023/12/18time	19:55:13forward acquisition time	300,00reverse acquisition time	0,00gamma	499,1914k internal	0,3124k external	0,3124temperature offset calibration	1,0000default loss term (dB/km)	0,3820temperature slope calibration	1,0000multiplexer offset coefficient	1,0000multiplexer slope coefficient	1,0000fibre end	0,00T internal ref (°C)	21,87T ext. ref 1 (°C)	7,09T ext. ref 2 (°C)	7,12length (m)	temperature (°C)	Stokes	anti-Stokes-744,400	-116,807	0,091	0,012
-743,385	-165,526	-0,256	-0,008
-742,371	66,508	-0,044	-0,033
-741,356	346,697	-0,104	0,152
-740,342	800,000	-0,051	-0,107
-739,327	10,725	-0,162	0,092
-738,312	-27,284	0,136	-0,059
-737,298	94,216	-0,192	0,163
-736,283	800,000	-0,020	-0,054
-735,269	150,908	-0,129	0,131
-734,254	800,000	0,065	-0,139
-733,239	96,927	-0,229	-0,196
-732,225	800,000	0,037	-0,119
-731,210	25,576	-0,113	0,070
-730,196	361,351	-0,065	0,098
-729,181	-200,000	0,006	-0,039
-728,167	-57,796	-0,025	0,008
-727,152	800,000	-0,031	-0,068
-726,137	-120,222	-0,138	-0,017
-725,123	-200,000	-0,050	-0,170
-724,108	-200,000	0,013	-0,058
-723,094	61,667	-0,165	-0,122
-722,079	-38,867	-0,130	-0,051
-721,064	-34,859	-0,039	-0,016
-720,050	-27,072	0,055	-0,024
-719,035	-97,848	0,078	-0,015
-718,021	-200,000	-0,007	0,040
-717,006	800,000	-0,072	-0,152
-715,991	800,000	-0,057	-0,143
-714,977	207,923	-0,110	-0,129
-713,962	-200,000	-0,002	-0,065
-712,948	-87,375	-0,141	0,031
-711,933	800,000	-0,068	0,152
-710,918	51,084	-0,019	-0,013
-709,904	-200,000	0,017	-0,150
-708,889	800,000	0,015	0,048
-707,875	43,063	-0,057	-0,039
-706,860	98,163	-0,049	-0,042
-705,845	295,618	-0,054	0,074
-704,831	-113,449	-0,150	-0,022
-703,816	-200,000	-0,013	0,106
-702,802	800,000	0,024	-0,062
-701,787	564,523	0,028	-0,051
-700,772	-58,398	0,096	0,031
-699,758	259,060	-0,059	0,077
-698,743	-81,792	0,078	0,019
-697,729	579,328	-0,024	0,044
-696,714	363,684	0,042	0,063
-695,699	147,996	0,041	0,041
-694,685	-200,000	-0,002	-0,051
-693,670	512,978	-0,016	-0,029
-692,656	118,664	0,130	-0,120
-691,641	336,896	0,004	-0,006
-690,627	-131,135	0,040	0,004
-689,612	57,054	0,023	-0,017
-688,597	122,786	0,072	0,067
-687,583	39,992	-0,115	0,077
-686,568	155,327	-0,042	0,043
-685,554	100,081	-0,031	0,027
-684,539	225,190	0,092	-0,111
-683,524	800,000	-0,040	-0,102
-682,510	513,891	0,026	-0,046
-681,495	17,545	-0,065	0,038
-680,481	800,000	-0,029	-0,062
-679,466	-39,023	-0,184	0,072
-678,451	61,921	-0,051	0,038
-677,437	-144,953	0,117	-0,008
-676,422	-200,000	0,032	-0,188
-675,408	800,000	-0,014	0,030
-674,393	142,563	-0,110	0,109
-673,378	375,411	-0,024	0,037
-672,364	-200,000	0,031	-0,157
-671,349	234,510	-0,052	-0,064
-670,335	586,206	-0,059	0,108
-669,320	-86,619	0,029	-0,007
-668,305	-17,473	0,045	0,021
-667,291	800,000	0,054	0,163
-666,276	800,000	-0,051	-0,110
-665,262	105,985	0,075	0,066
-664,247	-76,283	0,035	0,009
-663,232	266,977	-0,048	0,063
-662,218	-129,423	0,082	0,008
-661,203	155,307	-0,087	-0,089
-660,189	294,541	0,038	0,052
-659,174	800,000	-0,024	0,077
-658,159	-200,000	-0,002	-0,206
-657,145	670,087	-0,013	-0,026
-656,130	-111,607	0,070	-0,011
-655,116	-182,566	0,118	0,002
-654,101	106,257	0,110	0,096
-653,086	-111,217	0,008	-0,001
-652,072	-11,327	-0,110	0,053
-651,057	92,058	-0,036	0,031
-650,043	56,180	-0,045	0,033
-649,028	-200,000	-0,004	-0,060
-648,014	800,000	0,019	-0,061
-646,999	-7,287	-0,040	-0,020
-645,984	-138,850	0,091	-0,007
-644,970	293,031	-0,056	-0,077
-643,955	103,610	-0,107	-0,093
-642,941	-154,806	0,111	-0,005
-641,926	-64,465	-0,099	-0,030
-640,911	-200,000	0,012	0,044
-639,897	198,498	0,077	0,088
-638,882	-136,087	-0,124	0,011
-637,868	-200,000	0,004	-0,037
-636,853	-200,000	-0,011	-0,136
-635,838	-19,959	0,043	-0,020
-634,824	39,143	0,100	-0,066
-633,809	206,119	-0,094	-0,109
-632,795	58,888	0,035	-0,026
-631,780	22,590	0,111	-0,067
-630,765	-200,000	0,003	-0,154
-629,751	381,590	-0,074	-0,114
-628,736	88,542	0,181	-0,149
-627,722	13,414	0,108	-0,062
-626,707	-200,000	0,013	0,135
-625,692	-70,044	0,092	0,026
-624,678	-200,000	-0,002	-0,032
-623,663	-19,306	-0,051	0,023
-622,649	23,079	-0,159	0,097
-621,634	240,202	-0,069	-0,086
-620,619	592,014	-0,026	-0,047
-619,605	-200,000	0,021	-0,078
-618,590	-24,348	-0,077	-0,034
-617,576	307,127	0,091	0,127
-616,561	110,418	0,095	0,084
-615,546	83,731	-0,049	-0,040
-614,532	-200,000	0,005	-0,060
-613,517	2,546	-0,202	-0,108
-612,503	800,000	-0,033	-0,082
-611,488	528,158	0,024	-0,042
-610,474	402,315	0,087	-0,136
-609,459	509,760	0,034	0,059
-608,444	414,855	-0,061	-0,097
-607,430	800,000	0,019	0,059
-606,415	-200,000	0,007	0,073
-605,401	133,284	-0,075	-0,072
-604,386	324,021	-0,070	-0,100
-603,371	428,470	0,121	0,194
-602,357	312,498	0,097	0,135
-601,342	15,410	0,028	-0,016
-600,328	-200,000	0,034	-0,133
-599,313	141,058	0,046	-0,045
-598,298	-200,000	0,021	-0,104
-597,284	-92,542	-0,034	0,007
-596,269	-43,132	-0,169	0,063
-595,255	-129,658	-0,188	-0,019
-594,240	-102,259	-0,059	-0,010
-593,225	14,221	-0,130	0,075
-592,211	133,590	-0,020	0,019
-591,196	-200,000	0,011	0,044
-590,182	39,994	-0,082	-0,054
-589,167	-105,540	0,082	0,014
-588,152	-119,853	-0,016	-0,002
-587,138	-200,000	-0,013	-0,080
-586,123	-200,000	-0,000	-0,206
-585,109	800,000	-0,045	-0,099
-584,094	-200,000	-0,042	0,142
-583,079	-26,700	-0,096	0,041
-582,065	-4,119	-0,043	-0,022
-581,050	-200,000	0,009	0,045
-580,036	11,107	0,084	0,048
-579,021	-129,186	0,050	0,005
-578,006	-43,611	-0,084	-0,031
-576,992	-106,731	-0,079	-0,013
-575,977	187,585	-0,092	0,102
-574,963	-200,000	-0,017	0,221
-573,948	-99,948	-0,052	-0,009
-572,934	207,939	-0,073	0,085
-571,919	57,660	0,056	-0,040
-570,904	-96,313	-0,189	0,037
-569,890	201,566	0,046	0,053
-568,875	640,875	0,037	0,070
-567,861	150,739	0,057	0,057
-566,846	800,000	0,060	0,158
-565,831	-89,385	0,100	0,022
-564,817	-31,973	-0,105	0,043
-563,802	289,962	0,042	-0,057
-562,788	800,000	-0,023	0,052
-561,773	72,166	0,121	0,093
-560,758	-200,000	-0,014	-0,052
-559,744	-200,000	-0,010	-0,077
-558,729	80,027	-0,096	0,076
-557,715	401,946	-0,030	-0,047
-556,700	-200,000	-0,004	-0,172
-555,685	-62,921	-0,101	-0,031
-554,671	47,036	-0,146	-0,100
-553,656	24,236	0,015	-0,009
-552,642	-200,000	0,005	0,158
-551,627	606,197	-0,046	0,085
-550,612	-29,909	0,075	0,031
-549,598	800,000	-0,068	-0,161
-548,583	-35,561	-0,057	0,023
-547,569	-200,000	0,007	0,110
-546,554	312,497	0,046	-0,065
-545,539	-200,000	0,010	0,047
-544,525	152,152	0,054	0,055
-543,510	-28,891	-0,137	0,058
-542,496	-88,227	-0,116	-0,025
-541,481	-200,000	-0,018	-0,233
-540,466	255,054	0,080	0,101
-539,452	-10,402	0,157	0,077
-538,437	746,006	0,037	0,075
-537,423	-200,000	0,002	0,083
-536,408	-71,210	-0,041	-0,011
-535,393	800,000	0,029	0,059
-534,379	540,027	-0,059	-0,104
-533,364	234,723	0,052	0,063
-532,350	634,806	-0,044	-0,082
-531,335	-200,000	0,007	0,038
-530,321	324,263	0,084	-0,119
-529,306	263,506	0,076	-0,098
-528,291	-58,615	0,082	0,026
-527,277	580,077	-0,075	-0,137
-526,262	-151,831	0,129	0,007
-525,248	-142,802	-0,036	-0,003
-524,233	-200,000	0,003	0,011
-523,218	43,739	-0,027	0,019
-522,204	109,653	0,055	-0,049
-521,189	-48,393	-0,104	0,037
-520,175	-5,160	-0,118	0,060
-519,160	-175,893	0,020	-0,000
-518,145	-12,275	0,056	0,027
-517,131	-78,154	0,077	-0,019
-516,116	658,254	0,032	0,061
-515,102	28,097	0,030	-0,019
-514,087	54,481	0,099	-0,070
-513,072	31,764	-0,098	0,062
-512,058	250,226	-0,061	-0,077
-511,043	-200,000	-0,007	-0,070
-510,029	85,137	0,084	0,068
-509,014	-108,444	-0,223	-0,035
-507,999	77,135	0,109	0,085
-506,985	452,326	0,031	-0,051
-505,970	237,538	-0,076	-0,093
-504,956	800,000	-0,059	0,146
-503,941	-128,130	0,023	0,002
-502,926	-23,248	0,179	0,079
-501,912	-50,863	-0,023	0,008
-500,897	246,792	0,106	0,133
-499,883	79,954	0,066	-0,053
-498,868	-31,563	-0,141	-0,058
-497,853	686,880	-0,047	-0,091
-496,839	-129,549	0,080	0,008
-495,824	245,065	0,045	0,056
-494,810	92,910	-0,072	0,060
-493,795	-133,567	0,183	0,017
-492,781	34,040	-0,078	-0,050
-491,766	279,822	0,032	-0,042
-490,751	-63,414	-0,126	0,038
-489,737	-103,490	0,082	-0,014
-488,722	48,113	-0,063	-0,043
-487,708	800,000	0,021	0,053
-486,693	100,517	-0,055	-0,047
-485,678	-51,915	-0,081	0,028
-484,664	61,595	-0,125	-0,092
-483,649	-18,127	0,105	-0,048
-482,635	-67,631	0,168	-0,048
-481,620	-44,288	0,101	-0,037
-480,605	178,325	0,016	0,017
-479,591	-115,677	-0,113	-0,015
-478,576	-42,007	-0,113	0,042
-477,562	-103,625	-0,143	0,025
-476,547	-200,000	-0,001	-0,074
-475,532	71,287	-0,081	-0,062
-474,518	-124,194	-0,091	-0,010
-473,503	-200,000	-0,012	-0,062
-472,489	-114,661	0,114	-0,016
-471,474	-200,000	0,006	0,082
-470,459	-200,000	-0,012	-0,050
-469,445	-113,845	-0,067	-0,009
-468,430	121,134	0,013	0,011
-467,416	347,228	-0,034	-0,050
-466,401	51,923	0,045	0,031
-465,386	-200,000	0,006	0,101
-464,372	-179,146	0,057	-0,001
-463,357	-200,000	0,010	-0,091
-462,343	70,760	0,066	-0,050
-461,328	-200,000	-0,002	-0,112
-460,313	138,370	0,085	-0,082
-459,299	800,000	-0,054	0,125
-458,284	86,472	0,148	-0,120
-457,270	800,000	0,013	-0,039
-456,255	-200,000	-0,048	-0,160
-455,241	-200,000	-0,017	-0,128
-454,226	306,089	-0,079	0,108
-453,211	196,326	0,009	0,011
-452,197	-136,669	0,088	0,007
-451,182	-200,000	0,021	0,125
-450,168	-200,000	0,035	0,140
-449,153	-5,081	-0,087	-0,044
-448,138	-54,443	0,014	0,005
-447,124	-200,000	0,003	-0,105
-446,109	-200,000	0,013	0,069
-445,095	-115,438	-0,059	-0,008
-444,080	-145,742	0,180	-0,012
-443,065	304,828	0,064	-0,088
-442,051	800,000	0,020	0,051
-441,036	111,488	-0,090	0,080
-440,022	166,843	-0,041	-0,043
-439,007	-200,000	-0,003	-0,068
-437,992	-200,000	0,037	-0,123
-436,978	-200,000	0,006	0,020
-435,963	103,701	-0,072	0,062
-434,949	471,114	-0,054	0,089
-433,934	418,302	-0,089	-0,141
-432,919	5,777	-0,055	-0,030
-431,905	800,000	0,003	0,007
-430,890	-200,000	-0,005	0,056
-429,876	669,244	0,046	0,088
-428,861	800,000	-0,026	0,070
-427,846	-123,724	0,135	-0,015
-426,832	-200,000	-0,013	0,051
-425,817	-74,840	-0,059	0,016
-424,803	94,806	0,190	-0,159
-423,788	-129,275	-0,021	-0,002
-422,773	22,708	-0,074	-0,044
-421,759	6,790	0,060	-0,033
-420,744	280,734	0,024	0,032
-419,730	-200,000	0,021	0,148
-418,715	27,223	-0,076	0,047
-417,701	-200,000	-0,015	-0,141
-416,686	-103,223	0,077	-0,013
-415,671	-200,000	-0,019	0,083
-414,657	-22,923	0,133	-0,059
-413,642	-200,000	-0,000	0,019
-412,628	-129,721	0,054	-0,005
-411,613	-30,738	0,060	-0,025
-410,598	-9,287	-0,029	-0,014
-409,584	800,000	-0,027	0,074
-408,569	-200,000	-0,015	0,063
-407,555	48,686	-0,030	0,021
-406,540	800,000	0,038	-0,098
-405,525	-200,000	0,029	-0,115
-404,511	-200,000	0,017	-0,148
-403,496	-200,000	0,006	0,131
-402,482	800,000	0,045	-0,098
-401,467	294,345	0,081	0,110
-400,452	578,106	0,063	0,114
-399,438	-200,000	0,007	0,113
-398,423	-90,882	-0,091	0,019
-397,409	800,000	0,037	0,091
-396,394	140,656	-0,022	-0,022
-395,379	-164,557	-0,127	-0,004
-394,365	31,344	0,065	0,041
-393,350	419,682	0,025	0,039
-392,336	-200,000	-0,040	0,170
-391,321	79,003	0,103	0,081
-390,306	432,270	-0,063	-0,100
-389,292	800,000	-0,028	0,084
-388,277	18,741	0,087	0,051
-387,263	-200,000	0,001	-0,112
-386,248	149,961	0,126	0,125
-385,233	-128,808	-0,155	0,016
-384,219	-82,112	-0,044	-0,010
-383,204	-4,036	0,085	-0,043
-382,190	380,339	-0,095	-0,144
-381,175	-131,850	0,095	-0,009
-380,160	-69,862	0,060	0,017
-379,146	11,197	0,144	-0,081
-378,131	247,857	0,025	-0,032
-377,117	800,000	0,033	0,087
-376,102	-172,145	0,040	0,001
-375,088	115,686	0,123	0,110
-374,073	-200,000	0,023	0,145
-373,058	53,072	-0,047	-0,033
-372,044	155,300	-0,079	0,080
-371,029	-200,000	-0,019	0,089
-370,015	-116,661	0,098	0,013
-369,000	800,000	-0,055	0,150
-367,985	-200,000	-0,004	-0,096
-366,971	-200,000	-0,031	-0,105
-365,956	18,112	0,021	0,012
-364,942	-73,532	-0,131	-0,035
-363,927	62,291	0,058	-0,043
-362,912	-200,000	-0,009	0,065
-361,898	73,267	0,136	-0,104
-360,883	-200,000	0,013	-0,105
-359,869	62,717	-0,100	-0,074
-358,854	40,397	0,106	0,070
-357,839	-200,000	-0,030	0,222
-356,825	-200,000	0,039	0,132
-355,810	-200,000	-0,026	0,140
-354,796	46,001	-0,036	-0,024
-353,781	800,000	0,041	-0,122
-352,766	-162,085	-0,061	-0,002
-351,752	201,008	0,024	-0,027
-350,737	228,883	0,027	-0,033
-349,723	-48,388	0,095	0,033
-348,708	-200,000	0,010	0,037
-347,693	-200,000	0,004	-0,060
-346,679	-200,000	0,000	-0,036
-345,664	-139,131	0,030	-0,002
-344,650	-200,000	-0,006	0,165
-343,635	115,000	0,150	0,134
-342,620	800,000	-0,050	0,155
-341,606	800,000	-0,027	0,057
-340,591	2,910	0,007	-0,004
-339,577	800,000	0,017	-0,042
-338,562	-125,050	0,196	0,022
-337,548	213,618	-0,066	-0,077
-336,533	445,883	0,096	-0,155
-335,518	277,027	0,107	0,140
-334,504	-95,604	-0,019	0,004
-333,489	800,000	0,028	0,058
-332,475	-121,528	0,087	-0,010
-331,460	800,000	-0,025	0,055
-330,445	-200,000	0,005	-0,064
-329,431	-81,358	0,147	0,035
-328,416	-200,000	-0,030	0,156
-327,402	-39,514	-0,130	-0,050
-326,387	-115,522	0,059	0,008
-325,372	102,942	0,129	-0,111
-324,358	16,717	-0,030	0,017
-323,343	-200,000	-0,002	-0,022
-322,329	19,348	0,068	0,040
-321,314	-200,000	-0,024	0,113
-320,299	800,000	-0,024	0,056
-319,285	162,649	-0,048	-0,050
-318,270	-200,000	0,008	0,048
-317,256	17,040	-0,068	-0,039
-316,241	-200,000	0,007	-0,084
-315,226	68,697	0,044	0,033
-314,212	30,371	0,048	-0,030
-313,197	736,468	-0,028	0,055
-312,183	800,000	-0,030	0,063
-311,168	104,245	0,128	0,110
-310,153	-135,066	-0,082	-0,007
-309,139	-200,000	-0,002	0,050
-308,124	681,327	-0,027	-0,051
-307,110	623,687	0,042	-0,077
-306,095	83,640	0,022	0,018
-305,080	800,000	0,022	0,066
-304,066	-200,000	0,021	-0,074
-303,051	-123,255	-0,112	-0,013
-302,037	228,376	-0,076	-0,091
-301,022	-51,506	-0,083	0,028
-300,008	-200,000	0,005	-0,065
-298,993	-40,753	-0,111	0,042
-297,978	114,388	0,090	0,081
-296,964	-200,000	0,026	-0,089
-295,949	-94,901	0,002	-0,000
-294,935	-138,844	0,144	0,011
-293,920	-200,000	-0,011	0,127
-292,905	704,692	0,053	-0,103
-291,891	800,000	0,025	0,074
-290,876	366,903	-0,098	0,145
-289,862	364,992	-0,023	0,034
-288,847	-144,155	-0,046	0,003
-287,832	357,501	0,009	-0,013
-286,818	-54,590	-0,084	0,028
-285,803	187,697	-0,073	-0,080
-284,789	471,073	0,069	0,115
-283,774	-200,000	-0,024	0,088
-282,759	800,000	0,037	-0,116
-281,745	-104,294	-0,075	0,013
-280,730	-200,000	-0,023	-0,082
-279,716	-68,772	-0,150	-0,042
-278,701	-137,898	0,101	0,008
-277,686	106,191	0,039	0,034
-276,672	-200,000	-0,008	0,028
-275,657	-200,000	-0,022	0,085
-274,643	-200,000	0,001	0,062
-273,628	80,175	0,035	0,027
-272,613	-200,000	0,006	0,021
-271,599	286,890	0,048	-0,064
-270,584	468,535	0,042	0,070
-269,570	-200,000	0,000	0,057
-268,555	166,408	0,103	-0,106
-267,540	-27,151	-0,117	0,050
-266,526	4,878	0,082	-0,044
-265,511	-200,000	-0,032	0,136
-264,497	-200,000	-0,013	0,069
-263,482	76,538	0,082	0,063
-262,467	-101,812	-0,105	0,018
-261,453	563,276	0,024	0,043
-260,438	96,496	-0,035	0,029
-259,424	526,080	-0,063	-0,108
-258,409	-200,000	0,016	0,091
-257,395	-152,825	0,171	-0,009
-256,380	138,721	0,067	-0,065
-255,365	-115,455	0,017	-0,002
-254,351	-84,847	0,040	-0,009
-253,336	147,901	0,092	0,090
-252,322	-7,334	0,013	0,006
-251,307	-150,019	0,059	-0,003
-250,292	800,000	-0,025	-0,061
-249,278	94,777	0,023	-0,019
-248,263	-199,588	0,130	-0,000
-247,249	800,000	0,028	0,090
-246,234	-86,331	0,058	0,013
-245,219	115,832	-0,046	-0,042
-244,205	-200,000	-0,001	-0,088
-243,190	373,360	0,065	-0,097
-242,176	-3,782	0,085	-0,043
-241,161	-200,000	-0,011	-0,093
-240,146	43,628	-0,147	-0,098
-239,132	800,000	-0,010	0,031
-238,117	-110,666	-0,102	-0,015
-237,103	201,033	0,034	-0,038
-236,088	182,771	0,019	-0,020
-235,073	-200,000	-0,013	-0,111
-234,059	31,467	0,072	0,045
-233,044	130,141	0,093	-0,087
-232,030	-22,035	-0,080	0,035
-231,015	99,669	-0,040	0,034
-230,000	182,136	0,094	-0,102
-228,986	-200,000	-0,006	-0,179
-227,971	39,048	-0,051	-0,034
-226,957	82,997	0,077	0,061
-225,942	-100,059	0,128	0,023
-224,927	-172,535	-0,017	-0,000
-223,913	143,363	-0,122	-0,118
-222,898	-183,175	-0,099	0,001
-221,884	-200,000	-0,053	0,265
-220,869	31,938	-0,070	-0,044
-219,855	-169,456	0,122	0,003
-218,840	-200,000	0,011	0,096
-217,825	36,405	-0,067	0,043
-216,811	-200,000	-0,008	-0,039
-215,796	800,000	0,054	-0,153
-214,782	-200,000	-0,024	-0,084
-213,767	-200,000	0,016	0,060
-212,752	676,688	0,038	0,073
-211,738	-99,213	-0,030	-0,006
-210,723	-200,000	0,005	-0,021
-209,709	134,171	-0,128	-0,121
-208,694	68,738	-0,064	0,048
-207,679	117,980	-0,061	-0,055
-206,665	800,000	-0,037	0,096
-205,650	-90,616	-0,080	-0,017
-204,636	91,603	-0,106	0,087
-203,621	-200,000	0,013	-0,075
-202,606	800,000	0,025	-0,076
-201,592	-200,000	-0,050	-0,183
-200,577	-200,000	-0,018	0,135
-199,563	-114,150	-0,064	0,009
-198,548	117,393	0,036	0,033
-197,533	-33,907	0,147	0,059
-196,519	-20,914	-0,119	-0,053
-195,504	-200,000	0,009	0,046
-194,490	-200,000	0,006	-0,084
-193,475	340,707	-0,083	-0,118
-192,460	36,528	-0,011	-0,007
-191,446	-19,739	0,126	-0,057
-190,431	-200,000	0,009	0,153
-189,417	735,161	0,049	0,096
-188,402	-38,854	-0,127	0,049
-187,387	49,074	0,051	0,035
-186,373	800,000	-0,060	0,122
-185,358	269,747	-0,097	0,125
-184,344	-71,209	0,189	-0,051
-183,329	800,000	-0,050	0,140
-182,315	48,478	0,091	0,062
-181,300	-200,000	-0,002	0,097
-180,285	342,993	-0,087	0,124
-179,271	166,120	-0,063	0,065
-178,256	-100,797	-0,034	-0,006
-177,242	-131,908	0,067	-0,006
-176,227	90,164	-0,042	0,034
-175,212	10,692	-0,111	0,062
-174,198	227,769	-0,081	-0,097
-173,183	-200,000	0,001	0,033
-172,169	26,542	-0,156	-0,095
-171,154	-200,000	0,017	0,068
-170,139	-200,000	-0,016	0,057
-169,125	2,921	-0,016	0,008
-168,110	177,367	-0,065	0,069
-167,096	45,105	-0,165	-0,111
-166,081	774,341	0,110	-0,219
-165,066	800,000	-0,061	-0,157
-164,052	-200,000	-0,023	-0,098
-163,037	800,000	0,039	0,086
-162,023	203,441	0,081	-0,092
-161,008	108,742	-0,051	0,045
-159,993	-200,000	0,003	-0,047
-158,979	523,295	0,044	0,076
-157,964	-200,000	0,014	-0,074
-156,950	-200,000	-0,052	-0,169
-155,935	12,609	-0,147	0,082
-154,920	-117,636	-0,034	-0,004
-153,906	277,379	0,111	-0,144
-152,891	-97,172	-0,055	0,010
-151,877	297,715	-0,040	-0,054
-150,862	75,478	-0,034	-0,026
-149,847	-200,000	-0,001	0,011
-148,833	800,000	0,046	0,103
-147,818	800,000	-0,046	0,099
-146,804	129,434	-0,065	-0,060
-145,789	345,538	-0,045	0,065
-144,775	-96,490	-0,060	-0,011
-143,760	589,871	-0,041	-0,073
-142,745	16,489	-0,112	0,064
-141,731	113,447	0,075	0,066
-140,716	132,769	-0,077	-0,072
-139,702	-17,542	0,038	0,017
-138,687	-200,000	0,020	0,079
-137,672	109,971	0,119	-0,104
-136,658	-85,818	-0,187	-0,042
-135,643	251,693	-0,078	0,096
-134,629	24,026	0,154	-0,092
-133,614	-144,243	-0,046	0,003
-132,599	149,229	-0,027	0,026
-131,585	-200,000	-0,029	0,108
-130,570	438,215	-0,037	-0,060
-129,556	-200,000	-0,013	0,082
-128,541	320,145	-0,087	0,120
-127,526	-73,385	0,083	-0,022
-126,512	-45,592	-0,101	0,036
-125,497	230,836	0,029	-0,034
-124,483	93,698	0,027	-0,022
-123,468	448,391	0,067	-0,107
-122,453	-6,016	-0,080	-0,039
-121,439	800,000	0,030	-0,064
-120,424	-200,000	0,063	-0,211
-119,410	-166,875	0,046	0,001
