DTS Sentinel unit serial number:	SN410029Multiplexer serial number:	ORYXHardware model number:	OX2-SRSoftware version number:	ORYX F/W v4,00 Oryx Data Collector v3.7.2.0data status	okinstallation	B4 Nyhavnadifferential loss correction	single-endedforward channel	channel 2reverse channel	N/Adate	2023/12/15time	23:15:13forward acquisition time	300,00reverse acquisition time	0,00gamma	499,1914k internal	0,3129k external	0,3129temperature offset calibration	1,0000default loss term (dB/km)	0,3820temperature slope calibration	1,0000multiplexer offset coefficient	1,0000multiplexer slope coefficient	1,0000fibre end	0,00T internal ref (°C)	21,63T ext. ref 1 (°C)	6,71T ext. ref 2 (°C)	6,86length (m)	temperature (°C)	Stokes	anti-Stokes-744,400	-94,767	-0,095	-0,019
-743,385	-84,648	-0,189	0,044
-742,371	4,239	0,092	0,050
-741,356	87,572	-0,141	0,116
-740,342	-75,703	0,183	0,048
-739,327	-11,967	-0,313	0,152
-738,312	-132,264	0,041	0,004
-737,298	-99,345	-0,261	0,049
-736,283	-93,646	0,157	0,032
-735,269	536,827	-0,138	0,245
-734,254	-127,956	0,093	-0,010
-733,239	-70,866	-0,448	-0,125
-732,225	249,843	-0,091	0,114
-731,210	-62,357	-0,088	0,027
-730,196	499,378	-0,030	0,052
-729,181	-63,299	-0,044	0,013
-728,167	-5,607	0,053	-0,027
-727,152	-18,619	0,049	0,022
-726,137	360,104	-0,121	-0,180
-725,123	800,000	0,037	0,086
-724,108	-200,000	0,007	0,040
-723,094	-141,650	-0,035	0,003
-722,079	65,581	-0,080	-0,060
-721,064	-66,530	0,096	0,028
-720,050	101,551	-0,071	0,062
-719,035	221,341	-0,073	-0,087
-718,021	187,638	-0,105	-0,117
-717,006	-102,552	0,084	-0,015
-715,991	94,100	-0,106	-0,089
-714,977	654,160	-0,031	-0,059
-713,962	351,627	-0,021	0,031
-712,948	129,598	-0,122	0,116
-711,933	-7,027	0,113	0,057
-710,918	-200,000	-0,008	0,037
-709,904	800,000	-0,074	-0,212
-708,889	-200,000	0,027	-0,100
-707,875	476,571	0,026	-0,043
-706,860	84,770	0,114	0,093
-705,845	558,183	0,023	0,041
-704,831	84,048	0,040	-0,032
-703,816	536,035	0,036	-0,064
-702,802	-156,774	-0,023	0,001
-701,787	120,074	0,043	0,039
-700,772	-200,000	0,007	-0,061
-699,758	-44,822	0,074	0,027
-698,743	74,982	0,047	0,037
-697,729	164,009	0,103	-0,108
-696,714	-116,293	0,057	-0,008
-695,699	-200,000	0,005	0,020
-694,685	243,242	-0,063	-0,079
-693,670	-146,282	-0,062	0,004
-692,656	189,263	0,044	-0,049
-691,641	133,427	-0,092	-0,089
-690,627	31,747	-0,019	-0,012
-689,612	-200,000	-0,001	-0,041
-688,597	-141,731	0,049	-0,004
-687,583	-72,783	-0,097	0,026
-686,568	-200,000	-0,013	0,103
-685,554	91,193	-0,072	-0,060
-684,539	138,057	0,028	0,028
-683,524	-87,687	-0,135	0,030
-682,510	-200,000	-0,015	0,198
-681,495	-186,873	-0,104	0,001
-680,481	800,000	-0,036	0,098
-679,466	800,000	-0,072	-0,195
-678,451	469,760	-0,030	-0,050
-677,437	-115,092	0,234	0,033
-676,422	-200,000	0,011	0,066
-675,408	-200,000	0,022	-0,073
-674,393	218,397	0,084	-0,100
-673,378	58,436	-0,166	-0,120
-672,364	-200,000	-0,022	-0,098
-671,349	800,000	0,008	0,017
-670,335	800,000	0,008	-0,017
-669,320	308,016	0,073	0,101
-668,305	16,879	0,060	0,035
-667,291	-110,441	0,052	0,008
-666,276	-59,522	-0,116	0,037
-665,262	-200,000	0,020	-0,112
-664,247	4,159	-0,063	0,034
-663,232	325,638	-0,085	0,122
-662,218	129,525	-0,048	-0,045
-661,203	58,245	-0,059	0,043
-660,189	302,036	0,038	-0,052
-659,174	-18,734	-0,047	-0,022
-658,159	-20,188	-0,108	-0,049
-657,145	-130,036	0,131	-0,013
-656,130	-54,868	0,074	0,024
-655,116	800,000	-0,030	0,063
-654,101	45,009	-0,044	0,030
-653,086	236,850	-0,045	-0,055
-652,072	77,700	-0,054	-0,042
-651,057	-200,000	0,007	-0,051
-650,043	-200,000	-0,025	-0,161
-649,028	-57,642	-0,134	-0,043
-648,014	-179,404	0,093	0,001
-646,999	-200,000	0,003	0,062
-645,984	-45,685	-0,145	0,053
-644,970	189,659	0,089	-0,099
-643,955	800,000	-0,010	-0,030
-642,941	-106,809	-0,057	-0,009
-641,926	-84,936	0,058	-0,013
-640,911	800,000	-0,107	-0,248
-639,897	86,275	-0,086	-0,070
-638,882	-65,729	0,179	0,053
-637,868	364,181	-0,043	-0,064
-636,853	-200,000	0,003	-0,127
-635,838	-200,000	-0,002	0,010
-634,824	7,555	-0,068	0,038
-633,809	679,780	0,010	-0,020
-632,795	-3,338	-0,042	0,022
-631,780	-53,272	0,206	0,069
-630,765	-77,256	-0,056	-0,014
-629,751	139,284	-0,028	0,028
-628,736	-132,941	-0,144	-0,013
-627,722	800,000	0,017	0,054
-626,707	-67,637	0,072	0,021
-625,692	800,000	0,027	0,071
-624,678	94,996	0,089	0,075
-623,663	-147,611	-0,065	0,004
-622,649	-200,000	-0,014	0,100
-621,634	20,297	-0,108	-0,064
-620,619	-200,000	0,013	-0,080
-619,605	264,307	-0,031	0,040
-618,590	72,802	0,051	0,039
-617,576	-23,110	0,022	-0,010
-616,561	153,977	-0,078	0,079
-615,546	-41,783	-0,117	0,044
-614,532	-200,000	-0,013	-0,061
-613,517	54,213	-0,058	-0,041
-612,503	-79,181	0,034	0,008
-611,488	47,020	0,081	0,056
-610,474	-60,688	-0,142	-0,044
-609,459	-200,000	-0,023	0,150
-608,444	-200,000	0,000	0,044
-607,430	74,647	-0,089	-0,069
-606,415	159,276	-0,045	0,046
-605,401	-200,000	-0,019	0,158
-604,386	132,007	0,055	0,052
-603,371	-25,222	0,087	-0,038
-602,357	-170,169	0,100	0,003
-601,342	147,816	-0,101	-0,101
-600,328	350,590	-0,056	-0,083
-599,313	14,931	-0,049	-0,028
-598,298	97,273	0,057	-0,048
-597,284	-40,347	0,107	0,041
-596,269	-94,197	0,091	-0,018
-595,255	128,894	-0,068	0,064
-594,240	-200,000	-0,007	-0,105
-593,225	800,000	-0,041	0,092
-592,211	169,639	0,031	-0,033
-591,196	-11,651	-0,137	-0,066
-590,182	127,805	-0,062	0,059
-589,167	119,992	0,119	-0,109
-588,152	115,474	0,046	0,042
-587,138	-131,260	0,098	0,009
-586,123	733,969	-0,031	-0,062
-585,109	-200,000	0,087	0,000
-584,094	-141,649	-0,079	-0,006
-583,079	-200,000	0,057	0,284
-582,065	230,606	-0,073	0,089
-581,050	-200,000	-0,003	-0,058
-580,036	750,628	-0,018	-0,036
-579,021	777,126	0,015	-0,030
-578,006	-115,464	0,098	0,013
-576,992	-200,000	0,007	-0,092
-575,977	-145,848	0,107	-0,007
-574,963	31,909	-0,050	-0,032
-573,948	481,006	-0,044	-0,075
-572,934	-91,701	-0,050	-0,010
-571,919	-200,000	-0,006	-0,154
-570,904	-81,268	-0,054	-0,013
-569,890	-200,000	-0,011	-0,155
-568,875	800,000	0,025	-0,068
-567,861	13,505	-0,094	-0,054
-566,846	-91,588	0,127	-0,026
-565,831	220,247	-0,048	0,057
-564,817	800,000	-0,023	-0,073
-563,802	218,559	-0,122	-0,145
-562,788	17,673	0,091	-0,053
-561,773	302,931	-0,045	-0,061
-560,758	-105,853	0,050	0,008
-559,744	293,478	-0,085	-0,115
-558,729	218,387	-0,047	0,056
-557,715	270,618	-0,041	0,053
-556,700	800,000	0,021	-0,047
-555,685	31,746	0,108	0,069
-554,671	800,000	-0,050	-0,129
-553,656	105,063	-0,023	-0,020
-552,642	-200,000	0,001	0,100
-551,627	-44,690	-0,033	0,012
-550,612	214,404	-0,128	-0,150
-549,598	-129,350	0,029	-0,003
-548,583	126,676	-0,133	-0,125
-547,569	38,252	-0,026	-0,017
-546,554	-68,732	0,093	-0,026
-545,539	-200,000	-0,116	0,000
-544,525	159,211	-0,081	0,083
-543,510	-200,000	-0,011	-0,082
-542,496	-200,000	-0,046	-0,206
-541,481	4,739	-0,111	-0,060
-540,466	247,377	0,073	0,092
-539,452	-200,000	-0,002	0,263
-538,437	-109,441	0,067	-0,010
-537,423	-80,612	0,128	-0,031
-536,408	800,000	-0,020	-0,064
-535,393	584,672	-0,073	-0,133
-534,379	639,704	-0,065	0,123
-533,364	-200,000	-0,016	-0,061
-532,350	399,405	0,098	0,152
-531,335	97,714	-0,061	0,052
-530,321	-200,000	0,028	0,123
-529,306	800,000	0,026	-0,069
-528,291	800,000	-0,028	-0,081
-527,277	67,413	-0,177	-0,133
-526,262	243,835	-0,082	-0,102
-525,248	-194,102	0,086	0,001
-524,233	800,000	0,007	-0,016
-523,218	-200,000	0,003	-0,026
-522,204	-119,944	0,052	-0,007
-521,189	69,853	-0,077	0,059
-520,175	42,670	-0,034	-0,023
-519,160	29,786	-0,065	-0,041
-518,145	55,584	0,045	-0,032
-517,131	-200,000	-0,031	0,146
-516,116	512,070	0,027	-0,046
-515,102	800,000	0,052	-0,153
-514,087	294,573	0,069	0,093
-513,072	-135,254	-0,086	0,008
-512,058	800,000	0,031	-0,074
-511,043	-92,544	-0,043	-0,009
-510,029	-200,000	-0,000	0,019
-509,014	343,145	0,073	0,106
-507,999	305,335	0,062	0,085
-506,985	70,506	-0,153	0,117
-505,970	-200,000	0,018	-0,074
-504,956	196,882	-0,085	-0,095
-503,941	-200,000	0,135	-0,000
-502,926	-47,075	0,092	-0,033
-501,912	800,000	-0,033	0,084
-500,897	76,440	0,162	0,126
-499,883	-97,965	-0,147	-0,028
-498,868	800,000	0,030	-0,078
-497,853	-112,576	0,045	0,007
-496,839	-200,000	0,021	-0,092
-495,824	274,441	0,040	-0,052
-494,810	-200,000	0,044	0,185
-493,795	-200,000	-0,046	0,160
-492,781	-74,191	-0,026	-0,007
-491,766	753,086	-0,094	-0,188
-490,751	335,871	0,058	-0,082
-489,737	-120,252	0,039	-0,005
-488,722	-26,884	-0,136	-0,058
-487,708	-38,588	0,092	0,036
-486,693	255,374	-0,060	0,076
-485,678	512,843	0,071	0,123
-484,664	221,255	-0,064	0,076
-483,649	381,209	0,022	-0,033
-482,635	278,089	0,034	0,045
-481,620	-4,027	-0,099	0,051
-480,605	29,050	0,151	0,094
-479,591	800,000	0,035	-0,112
-478,576	104,432	0,036	-0,031
-477,562	748,928	-0,026	-0,051
-476,547	29,599	-0,041	0,026
-475,532	6,501	0,102	-0,056
-474,518	80,828	0,144	0,114
-473,503	343,822	0,084	0,121
-472,489	596,470	-0,055	-0,101
-471,474	397,296	-0,033	0,051
-470,459	-200,000	-0,001	-0,007
-469,445	-192,365	-0,075	0,001
-468,430	800,000	0,017	-0,044
-467,416	229,998	-0,022	-0,026
-466,401	-12,398	0,108	-0,052
-465,386	143,034	-0,029	0,028
-464,372	67,770	-0,048	-0,036
-463,357	18,591	-0,078	-0,046
-462,343	-84,972	0,107	0,025
-461,328	42,334	-0,092	-0,061
-460,313	-200,000	0,029	-0,100
-459,299	194,509	-0,036	-0,040
-458,284	-200,000	-0,013	0,053
-457,270	524,647	-0,082	0,142
-456,255	33,871	-0,122	-0,078
-455,241	-200,000	-0,002	-0,131
-454,226	73,025	0,056	-0,043
-453,211	248,258	-0,039	0,049
-452,197	-200,000	0,007	0,025
-451,182	800,000	0,015	0,045
-450,168	-154,677	-0,098	0,005
-449,153	-56,661	0,144	0,046
-448,138	225,227	-0,090	-0,108
-447,124	15,737	-0,019	0,011
-446,109	-200,000	0,012	-0,263
-445,095	96,041	0,084	-0,070
-444,080	64,666	-0,079	0,058
-443,065	-9,250	-0,125	0,061
-442,051	-165,856	0,168	-0,005
-441,036	143,263	0,038	-0,037
-440,022	-91,475	-0,087	-0,018
-439,007	148,626	-0,081	0,080
-437,992	-64,334	-0,022	-0,007
-436,978	-16,564	0,060	0,028
-435,963	-57,796	-0,035	-0,011
-434,949	-200,000	-0,008	-0,047
-433,934	210,256	-0,027	0,032
-432,919	41,937	0,075	0,050
-431,905	-165,729	0,140	-0,004
-430,890	-200,000	0,003	0,127
-429,876	800,000	0,044	0,111
-428,861	-150,313	-0,123	0,007
-427,846	97,950	0,031	0,027
-426,832	-142,033	-0,051	-0,004
-425,817	-5,933	0,154	0,077
-424,803	-200,000	-0,015	-0,076
-423,788	800,000	0,049	0,152
-422,773	-8,263	0,166	0,082
-421,759	35,856	0,159	0,102
-420,744	-179,306	-0,168	0,003
-419,730	400,453	0,081	-0,125
-418,715	-67,308	-0,079	0,023
-417,701	-96,491	-0,088	-0,017
-416,686	559,291	0,050	0,090
-415,671	-96,208	0,087	-0,017
-414,657	800,000	-0,054	0,111
-413,642	-200,000	0,020	0,082
-412,628	-200,000	0,012	0,061
-411,613	800,000	-0,050	-0,106
-410,598	165,760	-0,087	-0,091
-409,584	800,000	0,035	-0,076
-408,569	302,859	0,070	0,095
-407,555	83,718	0,106	-0,085
-406,540	351,630	-0,041	-0,060
-405,525	110,108	0,034	-0,030
-404,511	800,000	-0,034	0,084
-403,496	-17,663	0,139	0,064
-402,482	-15,013	-0,111	-0,052
-401,467	800,000	0,038	0,085
-400,452	-174,941	0,052	0,001
-399,438	724,197	-0,028	-0,056
-398,423	366,491	-0,079	-0,118
-397,409	-200,000	-0,009	-0,042
-396,394	-200,000	-0,003	-0,067
-395,379	800,000	0,013	0,038
-394,365	-186,444	-0,193	-0,002
-393,350	475,111	0,041	-0,068
-392,336	-65,423	0,046	-0,014
-391,321	-177,512	0,057	-0,001
-390,306	-200,000	0,013	-0,094
-389,292	-145,631	0,058	0,004
-388,277	-112,881	-0,195	-0,028
-387,263	17,985	0,003	-0,002
-386,248	-168,652	-0,041	-0,001
-385,233	574,059	-0,064	0,115
-384,219	371,158	-0,030	-0,045
-383,204	54,280	-0,059	-0,042
-382,190	-90,528	-0,031	0,007
-381,175	-200,000	-0,017	-0,078
-380,160	192,103	-0,086	0,095
-379,146	800,000	-0,040	0,116
-378,131	331,916	0,058	0,083
-377,117	-154,024	0,028	0,001
-376,102	-22,236	-0,142	-0,063
-375,088	800,000	-0,028	-0,072
-374,073	204,674	-0,030	0,034
-373,058	-121,494	-0,011	-0,001
-372,044	93,990	-0,119	0,099
-371,029	536,793	-0,030	0,052
-370,015	-67,220	-0,026	-0,008
-369,000	-200,000	-0,006	0,113
-367,985	-200,000	-0,018	0,076
-366,971	-200,000	0,021	0,093
-365,956	800,000	0,014	0,030
-364,942	31,842	-0,008	-0,005
-363,927	-44,275	0,036	0,013
-362,912	-145,283	0,131	-0,009
-361,898	65,014	-0,106	-0,079
-360,883	-200,000	-0,002	-0,020
-359,869	800,000	-0,017	-0,038
-358,854	-162,414	-0,156	0,006
-357,839	41,921	0,096	0,063
-356,825	137,833	0,112	0,107
-355,810	-111,545	0,139	-0,020
-354,796	119,106	-0,062	0,056
-353,781	-200,000	-0,031	-0,149
-352,766	15,103	-0,060	-0,034
-351,752	14,287	0,031	-0,018
-350,737	-200,000	0,007	0,075
-349,723	14,607	0,106	0,060
-348,708	-200,000	0,000	-0,007
-347,693	-27,921	-0,054	-0,023
-346,679	494,546	0,133	-0,224
-345,664	800,000	-0,025	-0,054
-344,650	-50,561	-0,064	0,022
-343,635	-150,670	0,018	-0,001
-342,620	-200,000	-0,021	0,112
-341,606	17,850	-0,172	-0,100
-340,591	-61,206	0,120	0,037
-339,577	-115,155	-0,125	0,017
-338,562	-139,347	0,134	-0,010
-337,548	-62,785	0,066	-0,020
-336,533	70,181	-0,167	0,126
-335,518	-68,612	0,124	-0,035
-334,504	84,061	0,061	0,049
-333,489	-123,489	0,037	-0,004
-332,475	-117,015	-0,071	-0,009
-331,460	-200,000	0,004	-0,161
-330,445	-81,912	0,018	-0,004
-329,431	-125,643	-0,087	0,010
-328,416	-117,902	0,031	-0,004
-327,402	124,457	0,068	0,063
-326,387	-28,465	0,071	-0,030
-325,372	86,086	0,032	-0,026
-324,358	800,000	-0,033	-0,078
-323,343	638,523	-0,017	0,032
-322,329	285,548	0,025	-0,034
-321,314	-200,000	0,004	0,078
-320,299	149,940	-0,040	0,039
-319,285	-91,907	0,037	0,008
-318,270	-129,845	0,117	0,012
-317,256	-200,000	0,019	0,064
-316,241	-134,397	-0,128	0,011
-315,226	-146,126	0,137	-0,009
-314,212	218,990	-0,050	0,059
-313,197	227,870	0,052	0,062
-312,183	177,415	0,038	-0,041
-311,168	-60,052	-0,091	0,028
-310,153	800,000	0,043	-0,109
-309,139	-47,021	-0,107	0,038
-308,124	256,520	-0,046	0,058
-307,110	-144,514	0,132	0,009
-306,095	-200,000	0,006	0,021
-305,080	-74,299	0,050	-0,013
-304,066	-153,299	-0,053	0,003
-303,051	-124,257	-0,005	0,001
-302,037	800,000	-0,020	0,043
-301,022	127,097	-0,046	0,042
-300,008	-200,000	0,016	0,067
-298,993	77,233	0,090	0,070
-297,978	384,934	-0,098	0,149
-296,964	-200,000	-0,007	-0,047
-295,949	124,645	-0,039	-0,036
-294,935	-69,659	-0,033	-0,009
-293,920	208,352	-0,013	0,015
-292,905	-172,598	0,171	0,004
-291,891	-58,653	0,085	-0,027
-290,876	-31,437	0,132	0,054
-289,862	163,076	0,043	0,044
-288,847	800,000	-0,051	0,142
-287,832	328,492	0,013	0,019
-286,818	800,000	-0,057	-0,133
-285,803	800,000	0,021	-0,052
-284,789	-94,840	0,024	-0,005
-283,774	28,181	0,045	-0,028
-282,759	13,045	0,124	0,070
-281,745	-15,576	0,061	0,028
-280,730	-168,621	-0,108	-0,003
-279,716	-200,000	-0,019	-0,119
-278,701	-200,000	0,013	-0,151
-277,686	204,944	0,077	0,088
-276,672	94,905	0,003	0,003
-275,657	-147,427	-0,127	0,008
-274,643	51,248	-0,103	-0,072
-273,628	186,983	0,034	-0,037
-272,613	117,773	0,009	0,008
-271,599	-125,122	0,123	-0,014
-270,584	-99,299	0,105	-0,019
-269,570	-200,000	-0,030	0,113
-268,555	-200,000	-0,018	0,167
-267,540	24,969	-0,070	-0,042
-266,526	800,000	-0,044	-0,103
-265,511	63,365	0,045	0,033
-264,497	145,580	-0,084	0,082
-263,482	100,689	0,045	0,038
-262,467	-91,390	0,177	0,037
-261,453	326,525	-0,056	-0,079
-260,438	-21,032	0,063	-0,028
-259,424	-200,000	0,010	-0,184
-258,409	129,837	0,082	-0,077
-257,395	-200,000	0,034	-0,139
-256,380	800,000	0,044	0,090
-255,365	-200,000	-0,018	0,141
-254,351	800,000	0,054	-0,162
-253,336	-100,655	-0,072	-0,013
-252,322	800,000	-0,026	-0,066
-251,307	-89,653	0,053	0,011
-250,292	-77,244	0,087	-0,022
-249,278	-143,982	-0,015	0,001
-248,263	-200,000	0,027	0,183
-247,249	800,000	-0,023	0,064
-246,234	75,481	-0,066	0,051
-245,219	-99,156	-0,106	-0,019
-244,205	-200,000	-0,010	-0,089
-243,190	-100,147	0,177	0,032
-242,176	295,231	-0,035	-0,047
-241,161	-111,155	0,084	0,012
-240,146	55,375	0,112	-0,079
-239,132	-46,061	-0,068	-0,024
-238,117	800,000	-0,037	-0,102
-237,103	74,947	0,049	0,037
-236,088	-14,828	-0,067	0,031
-235,073	137,256	-0,027	0,026
-234,059	800,000	0,046	0,102
-233,044	328,000	-0,167	0,234
-232,030	324,086	-0,053	-0,074
-231,015	800,000	-0,042	-0,125
-230,000	94,338	0,043	-0,035
-228,986	-44,070	0,078	-0,029
-227,971	576,235	-0,042	0,075
-226,957	323,633	0,049	-0,068
-225,942	519,037	0,051	0,088
-224,927	38,095	-0,091	-0,059
-223,913	677,250	-0,045	-0,086
-222,898	800,000	0,074	0,156
-221,884	-200,000	0,035	0,146
-220,869	-114,769	-0,046	0,006
-219,855	-200,000	-0,013	-0,045
-218,840	58,411	0,074	-0,053
-217,825	81,863	0,144	0,113
-216,811	543,435	-0,060	-0,105
-215,796	150,088	-0,026	0,026
-214,782	283,269	0,028	0,037
-213,767	-79,611	0,085	0,021
-212,752	800,000	-0,063	0,181
-211,738	-15,377	0,151	-0,070
-210,723	-200,000	-0,012	0,115
-209,709	-87,685	-0,024	0,005
-208,694	370,312	0,024	-0,035
-207,679	80,999	0,035	-0,027
-206,665	125,557	0,112	-0,103
-205,650	30,377	-0,128	-0,080
-204,636	-200,000	-0,034	0,155
-203,621	800,000	0,021	0,044
-202,606	12,421	-0,073	0,041
-201,592	115,783	-0,106	-0,094
-200,577	74,373	-0,020	0,015
-199,563	-200,000	0,008	0,049
-198,548	-87,387	0,115	0,025
-197,533	25,670	0,089	0,054
-196,519	-200,000	-0,010	0,078
-195,504	175,884	-0,080	-0,085
-194,490	-200,000	-0,008	0,115
-193,475	179,655	-0,080	-0,085
-192,460	-20,175	0,141	-0,063
-191,446	-110,552	0,078	0,012
-190,431	-94,140	0,114	-0,022
-189,417	593,572	-0,033	0,061
-188,402	-28,250	-0,057	-0,024
-187,387	-43,677	0,084	-0,031
-186,373	-148,362	-0,087	0,005
-185,358	414,591	0,032	-0,049
-184,344	133,623	-0,048	0,045
-183,329	-200,000	-0,012	0,044
-182,315	-200,000	0,008	0,127
-181,300	87,345	0,075	-0,060
-180,285	80,584	-0,132	0,103
-179,271	-88,300	0,057	-0,012
-178,256	800,000	-0,033	-0,078
-177,242	-200,000	0,026	0,090
-176,227	-40,103	0,039	0,015
-175,212	-200,000	-0,030	0,099
-174,198	-152,606	0,043	-0,002
-173,183	-57,319	-0,059	-0,019
-172,169	12,074	-0,102	-0,057
-171,154	10,986	-0,035	-0,019
-170,139	115,796	0,049	-0,044
-169,125	-133,219	0,048	-0,004
-168,110	-200,000	-0,032	0,144
-167,096	-182,852	0,124	0,002
-166,081	73,470	0,089	-0,067
-165,066	800,000	-0,013	0,036
-164,052	-127,013	-0,064	0,007
-163,037	-200,000	-0,004	0,064
-162,023	366,511	-0,039	0,057
-161,008	-200,000	0,056	-0,224
-159,993	395,242	0,031	0,047
-158,979	-78,245	-0,038	-0,010
-157,964	-132,602	-0,079	-0,007
-156,950	-200,000	-0,002	0,009
-155,935	38,616	-0,025	-0,016
-154,920	58,131	-0,025	0,017
-153,906	800,000	0,063	-0,132
-152,891	-156,889	0,089	-0,004
-151,877	-200,000	-0,043	0,145
-150,862	-200,000	-0,039	-0,152
-149,847	800,000	-0,014	0,030
-148,833	561,897	-0,077	-0,136
-147,818	34,751	-0,031	-0,019
-146,804	132,379	0,081	0,076
-145,789	-159,172	0,093	0,004
-144,775	358,027	-0,074	0,107
-143,760	-176,971	-0,101	0,002
-142,745	59,170	0,169	-0,121
-141,731	180,695	-0,106	-0,114
-140,716	-200,000	0,001	-0,130
-139,702	800,000	0,031	0,099
-138,687	-118,610	-0,052	0,007
-137,672	33,599	0,081	0,051
-136,658	-20,302	-0,033	-0,015
-135,643	102,382	0,101	-0,086
-134,629	-38,976	0,197	0,075
-133,614	-200,000	0,006	0,050
-132,599	800,000	0,042	0,103
-131,585	-200,000	0,009	0,098
-130,570	800,000	-0,014	0,039
-129,556	-200,000	0,026	0,098
-128,541	800,000	0,029	0,066
-127,526	165,296	0,099	-0,101
-126,512	120,993	0,074	0,067
-125,497	800,000	0,048	0,107
-124,483	28,054	0,124	0,076
-123,468	441,298	-0,029	-0,045
-122,453	228,300	-0,102	0,121
-121,439	289,923	-0,062	0,081
-120,424	712,698	-0,019	-0,038
-119,410	800,000	0,025	0,052
