DTS Sentinel unit serial number:	SN410029Multiplexer serial number:	ORYXHardware model number:	OX2-SRSoftware version number:	ORYX F/W v4,00 Oryx Data Collector v3.7.2.0data status	okinstallation	B4 Nyhavnadifferential loss correction	single-endedforward channel	channel 2reverse channel	N/Adate	2023/12/19time	05:20:13forward acquisition time	300,00reverse acquisition time	0,00gamma	499,1914k internal	0,3127k external	0,3127temperature offset calibration	1,0000default loss term (dB/km)	0,3820temperature slope calibration	1,0000multiplexer offset coefficient	1,0000multiplexer slope coefficient	1,0000fibre end	0,00T internal ref (°C)	21,00T ext. ref 1 (°C)	6,33T ext. ref 2 (°C)	6,46length (m)	temperature (°C)	Stokes	anti-Stokes-744,400	-68,349	0,101	-0,029
-743,385	27,182	-0,274	0,171
-742,371	-79,231	0,088	-0,022
-741,356	216,483	-0,140	0,166
-740,342	-200,000	-0,011	-0,096
-739,327	-125,243	-0,381	0,043
-738,312	-51,735	-0,098	0,034
-737,298	-195,913	-0,270	0,001
-736,283	-183,268	-0,066	0,001
-735,269	-61,072	-0,194	0,061
-734,254	469,992	0,060	-0,101
-733,239	-63,451	-0,494	-0,150
-732,225	243,875	0,070	-0,088
-731,210	58,813	0,039	0,029
-730,196	242,986	0,041	0,051
-729,181	800,000	-0,016	0,050
-728,167	-41,421	0,153	-0,058
-727,152	204,982	-0,048	-0,056
-726,137	6,606	-0,102	-0,056
-725,123	102,971	-0,028	-0,024
-724,108	800,000	-0,069	-0,143
-723,094	800,000	0,030	-0,094
-722,079	328,769	-0,097	-0,138
-721,064	-117,099	0,064	-0,009
-720,050	-200,000	-0,001	0,013
-719,035	84,952	-0,009	-0,007
-718,021	171,410	-0,078	-0,083
-717,006	-200,000	0,009	-0,113
-715,991	-200,000	-0,004	-0,031
-714,977	800,000	-0,046	-0,117
-713,962	-86,872	0,112	-0,025
-712,948	-128,640	-0,123	0,013
-711,933	200,500	-0,031	0,035
-710,918	-61,262	-0,075	-0,023
-709,904	800,000	-0,043	-0,139
-708,889	-152,877	-0,142	0,007
-707,875	-200,000	-0,006	-0,153
-706,860	-99,460	0,131	-0,024
-705,845	800,000	0,023	0,053
-704,831	176,915	-0,052	-0,056
-703,816	385,801	0,020	-0,030
-702,802	66,773	-0,072	-0,054
-701,787	-200,000	0,018	-0,094
-700,772	-200,000	-0,005	0,069
-699,758	-170,628	-0,087	-0,002
-698,743	94,286	0,073	-0,061
-697,729	100,218	-0,101	-0,087
-696,714	-12,983	-0,033	-0,016
-695,699	-93,059	-0,191	-0,039
-694,685	-200,000	-0,018	0,077
-693,670	62,440	0,044	0,033
-692,656	-200,000	-0,007	-0,101
-691,641	42,260	-0,029	-0,019
-690,627	38,006	0,089	0,058
-689,612	135,392	-0,033	0,032
-688,597	-200,000	0,030	-0,108
-687,583	-91,374	0,094	-0,020
-686,568	26,308	-0,031	-0,019
-685,554	55,290	0,063	0,045
-684,539	427,636	0,043	0,069
-683,524	-124,675	0,148	-0,017
-682,510	41,315	-0,015	-0,010
-681,495	-176,475	0,093	-0,002
-680,481	-16,374	-0,111	-0,052
-679,466	-200,000	-0,012	-0,073
-678,451	-200,000	0,022	-0,098
-677,437	10,245	0,106	0,060
-676,422	-200,000	0,008	-0,041
-675,408	800,000	-0,043	-0,138
-674,393	58,000	-0,100	-0,073
-673,378	-109,244	0,042	-0,007
-672,364	800,000	-0,021	-0,048
-671,349	168,966	0,085	-0,090
-670,335	-129,923	-0,094	0,009
-669,320	-67,939	-0,135	-0,039
-668,305	-154,758	-0,168	-0,008
-667,291	-18,029	-0,021	-0,010
-666,276	-104,901	-0,167	-0,028
-665,262	-71,789	-0,128	0,035
-664,247	-60,806	0,108	0,034
-663,232	172,963	0,039	0,042
-662,218	-157,443	0,106	-0,005
-661,203	155,493	0,123	0,126
-660,189	800,000	0,048	0,126
-659,174	402,263	0,048	-0,075
-658,159	-20,185	-0,201	-0,092
-657,145	-87,536	-0,117	-0,026
-656,130	-200,000	-0,005	0,114
-655,116	-200,000	-0,015	0,153
-654,101	435,245	0,030	0,048
-653,086	-200,000	-0,012	-0,135
-652,072	44,114	-0,117	-0,079
-651,057	800,000	-0,035	-0,089
-650,043	209,983	0,052	-0,060
-649,028	-144,635	-0,115	0,008
-648,014	720,562	-0,066	0,130
-646,999	337,110	-0,028	-0,040
-645,984	-200,000	0,006	-0,095
-644,970	46,376	0,085	0,058
-643,955	-141,423	-0,093	0,007
-642,941	55,247	-0,041	-0,030
-641,926	79,723	-0,063	0,050
-640,911	138,616	0,016	-0,016
-639,897	146,407	-0,095	-0,094
-638,882	-45,679	0,208	-0,076
-637,868	-200,000	0,016	-0,054
-636,853	27,868	-0,144	-0,090
-635,838	252,141	-0,063	-0,080
-634,824	-31,337	0,143	-0,059
-633,809	48,146	0,112	-0,077
-632,795	800,000	0,044	0,120
-631,780	72,695	0,023	-0,018
-630,765	-13,290	-0,132	0,063
-629,751	147,336	-0,019	-0,019
-628,736	800,000	0,018	-0,056
-627,722	-200,000	0,030	0,120
-626,707	276,130	-0,053	0,070
-625,692	-29,355	-0,076	-0,032
-624,678	79,831	-0,028	0,022
-623,663	-62,237	-0,047	0,015
-622,649	622,695	-0,038	0,071
-621,634	34,922	-0,116	0,075
-620,619	-124,556	-0,038	0,004
-619,605	-8,867	0,082	0,041
-618,590	159,181	-0,031	0,032
-617,576	488,369	0,056	0,096
-616,561	-200,000	0,003	0,061
-615,546	-200,000	-0,032	-0,107
-614,532	800,000	-0,034	-0,074
-613,517	88,769	-0,020	-0,017
-612,503	-121,903	0,038	-0,005
-611,488	31,732	0,011	-0,007
-610,474	211,637	0,038	-0,044
-609,459	-200,000	0,002	-0,050
-608,444	-101,571	0,090	0,016
-607,430	263,861	-0,031	-0,041
-606,415	-200,000	-0,018	-0,153
-605,401	800,000	0,036	-0,091
-604,386	530,576	0,024	-0,042
-603,371	13,641	0,041	0,024
-602,357	-63,404	-0,060	-0,018
-601,342	800,000	0,059	0,146
-600,328	-98,369	-0,114	-0,022
-599,313	87,005	0,060	-0,049
-598,298	800,000	0,009	-0,024
-597,284	-72,955	-0,140	0,038
-596,269	-136,409	0,094	-0,008
-595,255	61,525	0,071	-0,052
-594,240	-152,266	-0,122	-0,006
-593,225	82,986	0,127	0,102
-592,211	-200,000	0,007	-0,045
-591,196	-200,000	-0,042	-0,145
-590,182	3,885	-0,035	0,019
-589,167	-41,848	-0,090	-0,034
-588,152	-182,094	-0,062	0,001
-587,138	235,894	-0,137	-0,168
-586,123	-58,586	-0,134	-0,043
-585,109	100,186	0,086	-0,074
-584,094	254,048	-0,060	0,076
-583,079	44,736	0,052	0,035
-582,065	-101,395	-0,053	-0,010
-581,050	-99,686	0,093	-0,017
-580,036	800,000	0,040	-0,118
-579,021	179,268	-0,137	-0,148
-578,006	-200,000	0,008	-0,085
-576,992	-77,856	-0,141	-0,036
-575,977	378,020	-0,065	0,098
-574,963	-98,623	0,188	0,035
-573,948	170,215	-0,058	0,062
-572,934	800,000	-0,063	-0,164
-571,919	203,690	0,008	0,009
-570,904	181,087	-0,025	-0,028
-569,890	800,000	-0,036	-0,111
-568,875	-134,206	-0,176	-0,016
-567,861	-200,000	0,010	0,038
-566,846	68,336	0,070	0,053
-565,831	240,860	0,077	0,095
-564,817	-200,000	0,003	-0,029
-563,802	27,447	-0,032	0,020
-562,788	-74,729	0,068	0,018
-561,773	-200,000	-0,004	0,035
-560,758	-78,750	-0,072	0,018
-559,744	-128,612	-0,154	0,016
-558,729	-82,504	-0,087	-0,021
-557,715	-54,621	0,141	0,047
-556,700	-200,000	0,019	-0,101
-555,685	-200,000	-0,013	-0,079
-554,671	-200,000	-0,001	0,102
-553,656	-200,000	0,006	-0,047
-552,642	-78,629	0,071	0,018
-551,627	457,281	0,051	0,083
-550,612	88,703	-0,080	-0,066
-549,598	8,675	-0,037	-0,020
-548,583	17,792	-0,041	0,024
-547,569	-94,720	0,097	0,019
-546,554	189,452	-0,089	0,098
-545,539	-41,445	0,104	-0,039
-544,525	283,778	0,030	-0,039
-543,510	800,000	-0,018	0,045
-542,496	800,000	0,028	-0,065
-541,481	62,309	0,069	-0,051
-540,466	33,064	0,028	0,018
-539,452	379,339	0,059	0,090
-538,437	-168,163	-0,112	-0,003
-537,423	-74,531	0,038	-0,010
-536,408	76,724	0,085	-0,067
-535,393	15,691	-0,038	-0,022
-534,379	-200,000	-0,010	-0,044
-533,364	9,303	-0,051	0,028
-532,350	800,000	-0,025	0,066
-531,335	268,300	-0,026	-0,033
-530,321	503,969	0,041	0,071
-529,306	-77,660	-0,066	-0,017
-528,291	-150,125	-0,159	-0,009
-527,277	-49,336	0,119	-0,042
-526,262	-4,373	0,108	-0,055
-525,248	81,020	0,094	0,075
-524,233	-97,541	-0,051	-0,010
-523,218	-135,892	0,030	-0,003
-522,204	-200,000	0,008	-0,075
-521,189	263,737	0,060	-0,077
-520,175	-76,173	0,051	-0,013
-519,160	514,659	-0,032	0,054
-518,145	-55,870	0,150	-0,049
-517,131	-200,000	0,008	0,047
-516,116	506,209	0,032	-0,056
-515,102	15,850	0,046	-0,027
-514,087	169,245	-0,035	0,037
-513,072	-200,000	0,015	-0,160
-512,058	-68,001	-0,027	-0,008
-511,043	-200,000	-0,046	-0,168
-510,029	366,858	-0,086	0,128
-509,014	-200,000	0,015	0,140
-507,999	-131,262	-0,101	-0,010
-506,985	204,773	-0,044	-0,050
-505,970	-40,551	0,188	-0,071
-504,956	800,000	0,061	-0,131
-503,941	-200,000	-0,008	-0,090
-502,926	-200,000	-0,026	0,106
-501,912	630,432	0,054	0,100
-500,897	-41,891	0,167	-0,063
-499,883	800,000	-0,022	0,058
-498,868	19,329	-0,084	-0,050
-497,853	641,256	0,093	-0,175
-496,839	486,648	0,051	-0,086
-495,824	-200,000	-0,007	-0,032
-494,810	-200,000	0,001	0,016
-493,795	800,000	0,055	-0,151
-492,781	-38,482	-0,064	0,025
-491,766	-200,000	-0,004	-0,032
-490,751	183,247	0,080	-0,087
-489,737	-6,196	0,055	-0,028
-488,722	96,486	-0,131	0,111
-487,708	-200,000	-0,004	0,063
-486,693	12,847	-0,170	0,097
-485,678	-63,947	0,103	-0,031
-484,664	-200,000	-0,019	-0,163
-483,649	-83,300	-0,090	0,021
-482,635	-176,704	0,119	-0,002
-481,620	18,155	0,071	0,041
-480,605	18,049	0,070	0,041
-479,591	118,203	0,086	0,078
-478,576	-120,021	-0,090	0,011
-477,562	493,406	-0,017	0,030
-476,547	106,102	0,073	0,064
-475,532	-200,000	-0,014	-0,118
-474,518	246,634	0,051	0,064
-473,503	-200,000	-0,013	-0,120
-472,489	800,000	-0,050	0,104
-471,474	105,850	0,099	0,086
-470,459	800,000	0,068	-0,159
-469,445	293,646	0,071	-0,096
-468,430	-200,000	-0,003	-0,046
-467,416	-135,075	-0,055	0,005
-466,401	-32,223	-0,023	0,009
-465,386	-37,725	-0,149	0,058
-464,372	-151,661	-0,118	-0,006
-463,357	-200,000	-0,033	0,118
-462,343	262,318	0,071	-0,091
-461,328	18,154	0,045	0,027
-460,313	-200,000	0,001	0,102
-459,299	-12,562	0,162	0,078
-458,284	-200,000	-0,011	0,072
-457,270	-200,000	0,045	0,149
-456,255	212,394	0,029	-0,034
-455,241	-57,830	-0,067	-0,022
-454,226	320,056	0,008	-0,011
-453,211	800,000	0,054	0,118
-452,197	-167,258	0,082	-0,002
-451,182	-200,000	-0,007	0,089
-450,168	-96,462	-0,053	-0,010
-449,153	-200,000	0,004	0,048
-448,138	98,790	0,069	-0,059
-447,124	-200,000	-0,038	0,174
-446,109	-200,000	0,012	0,074
-445,095	93,991	0,041	-0,034
-444,080	-200,000	0,046	0,173
-443,065	270,590	-0,085	0,110
-442,051	166,331	-0,090	-0,094
-441,036	50,187	0,072	-0,050
-440,022	-200,000	0,016	-0,092
-439,007	80,233	0,045	-0,035
-437,992	-95,079	0,098	0,019
-436,978	-74,705	0,071	-0,019
-435,963	24,113	0,088	0,053
-434,949	68,537	0,088	0,066
-433,934	-200,000	0,005	-0,023
-432,919	626,927	-0,032	-0,059
-431,905	-54,048	0,027	-0,009
-430,890	-200,000	-0,011	0,041
-429,876	-133,987	-0,101	-0,009
-428,861	800,000	-0,018	0,055
-427,846	468,612	-0,019	0,031
-426,832	-168,019	-0,114	0,003
-425,817	132,917	0,025	-0,024
-424,803	214,330	-0,057	0,067
-423,788	-200,000	0,013	-0,058
-422,773	-200,000	-0,030	0,144
-421,759	152,408	-0,117	0,117
-420,744	35,575	-0,102	-0,066
-419,730	-27,493	-0,031	0,013
-418,715	116,255	0,062	-0,056
-417,701	225,489	0,088	-0,105
-416,686	-200,000	-0,008	-0,081
-415,671	-182,887	0,044	-0,001
-414,657	-112,403	0,153	0,022
-413,642	78,495	0,049	0,038
-412,628	-0,651	-0,037	0,019
-411,613	40,718	0,045	-0,030
-410,598	-47,539	0,061	-0,022
-409,584	63,385	0,143	0,105
-408,569	-171,441	0,044	0,001
-407,555	-200,000	-0,010	0,118
-406,540	-11,195	0,130	0,062
-405,525	366,476	0,087	0,130
-404,511	161,695	-0,014	-0,014
-403,496	58,947	-0,082	-0,060
-402,482	118,616	0,005	-0,005
-401,467	800,000	0,018	-0,037
-400,452	354,029	0,089	-0,130
-399,438	-120,996	-0,140	0,017
-398,423	-51,110	-0,012	-0,004
-397,409	208,733	0,032	-0,036
-396,394	-200,000	-0,008	-0,075
-395,379	-0,201	-0,150	0,078
-394,365	118,499	-0,033	-0,030
-393,350	121,535	0,106	0,097
-392,336	-200,000	-0,024	0,195
-391,321	-53,086	-0,122	0,041
-390,306	527,468	-0,049	0,085
-389,292	-200,000	0,003	-0,111
-388,277	-200,000	0,006	0,065
-387,263	-71,955	0,106	0,029
-386,248	55,911	-0,134	0,095
-385,233	262,235	-0,053	-0,068
-384,219	469,535	0,086	0,142
-383,204	83,595	-0,126	-0,101
-382,190	201,364	-0,053	-0,060
-381,175	-16,943	0,040	0,019
-380,160	79,767	0,115	0,090
-379,146	-192,885	0,080	0,001
-378,131	62,919	-0,048	0,035
-377,117	3,366	-0,113	0,060
-376,102	-200,000	-0,006	0,109
-375,088	116,597	-0,078	0,070
-374,073	-13,647	-0,076	0,036
-373,058	-200,000	-0,005	0,111
-372,044	800,000	-0,028	0,062
-371,029	-55,158	0,074	0,024
-370,015	-87,421	0,091	-0,020
-369,000	-13,177	-0,128	-0,061
-367,985	800,000	0,073	-0,153
-366,971	27,699	-0,095	-0,059
-365,956	-167,529	0,093	0,003
-364,942	109,263	0,069	0,061
-363,927	4,046	-0,080	-0,043
-362,912	-60,247	-0,059	-0,018
-361,898	-141,991	0,074	-0,005
-360,883	399,956	-0,029	-0,044
-359,869	-55,846	-0,125	-0,041
-358,854	89,142	0,048	-0,039
-357,839	311,369	0,074	0,102
-356,825	-200,000	0,028	0,156
-355,810	59,025	-0,111	0,080
-354,796	-2,442	-0,070	0,036
-353,781	-200,000	0,000	-0,067
-352,766	281,420	-0,023	-0,030
-351,752	-99,729	-0,046	-0,008
-350,737	-200,000	-0,016	0,169
-349,723	46,519	-0,022	0,015
-348,708	19,413	-0,108	0,064
-347,693	800,000	0,045	-0,099
-346,679	47,195	-0,061	-0,041
-345,664	-89,470	-0,126	0,027
-344,650	350,501	0,065	0,094
-343,635	127,721	0,041	0,038
-342,620	-133,806	0,126	-0,011
-341,606	-200,000	0,019	0,095
-340,591	122,255	-0,049	0,045
-339,577	-70,762	-0,066	0,018
-338,562	-69,414	0,179	0,050
-337,548	-96,895	-0,068	-0,013
-336,533	-200,000	-0,009	0,066
-335,518	41,603	0,031	0,020
-334,504	-200,000	0,006	-0,024
-333,489	142,674	-0,026	-0,025
-332,475	-200,000	-0,056	-0,206
-331,460	-56,145	-0,106	-0,034
-330,445	-108,626	-0,060	-0,009
-329,431	-200,000	-0,012	0,088
-328,416	-111,322	0,056	-0,008
-327,402	-200,000	0,020	0,077
-326,387	-48,497	-0,058	-0,020
-325,372	-86,173	0,056	0,013
-324,358	-200,000	-0,027	-0,093
-323,343	301,226	-0,080	0,109
-322,329	-52,558	0,084	0,028
-321,314	-64,876	0,127	0,037
-320,299	-200,000	0,001	-0,011
-319,285	-69,121	0,089	0,025
-318,270	630,662	-0,026	-0,049
-317,256	-200,000	-0,004	-0,040
-316,241	477,338	0,041	-0,068
-315,226	41,619	-0,164	-0,109
-314,212	125,263	0,056	-0,052
-313,197	-200,000	0,019	0,099
-312,183	197,420	0,060	0,067
-311,168	161,376	-0,102	0,105
-310,153	-200,000	-0,006	0,119
-309,139	800,000	-0,056	0,143
-308,124	209,079	0,113	0,130
-307,110	101,064	0,105	-0,089
-306,095	800,000	0,048	0,136
-305,080	-200,000	0,008	0,076
-304,066	-200,000	-0,021	-0,094
-303,051	800,000	-0,036	-0,075
-302,037	106,645	-0,037	0,032
-301,022	-26,469	0,121	0,052
-300,008	-200,000	-0,007	0,064
-298,993	193,673	0,133	0,148
-297,978	-156,137	-0,071	0,003
-296,964	800,000	0,021	-0,066
-295,949	-107,075	-0,058	-0,009
-294,935	49,695	-0,093	-0,064
-293,920	-200,000	-0,003	-0,010
-292,905	-200,000	-0,027	0,127
-291,891	-5,145	0,017	0,009
-290,876	64,700	0,061	0,045
-289,862	299,514	-0,047	-0,064
-288,847	24,538	-0,023	0,014
-287,832	-157,036	-0,074	-0,003
-286,818	16,191	0,043	0,025
-285,803	-200,000	-0,002	-0,097
-284,789	501,342	-0,053	0,089
-283,774	735,133	-0,024	0,047
-282,759	-135,581	-0,066	-0,006
-281,745	-126,937	0,087	-0,009
-280,730	91,195	-0,048	0,040
-279,716	-124,782	0,135	-0,015
-278,701	-156,149	0,093	-0,004
-277,686	58,073	0,086	-0,062
-276,672	-46,139	-0,083	0,030
-275,657	-125,476	-0,132	0,015
-274,643	-200,000	-0,008	-0,051
-273,628	-200,000	0,036	-0,124
-272,613	689,232	-0,036	0,069
-271,599	1,145	0,064	-0,034
-270,584	-145,287	0,045	0,003
-269,570	-159,393	0,078	0,003
-268,555	-101,664	-0,019	-0,003
-267,540	-200,000	-0,011	-0,069
-266,526	-200,000	0,030	-0,160
-265,511	223,261	-0,041	0,049
-264,497	-200,000	0,010	0,106
-263,482	800,000	0,029	0,072
-262,467	-65,695	-0,048	0,014
-261,453	-102,083	-0,175	-0,030
-260,438	43,363	0,072	0,048
-259,424	-58,314	-0,166	0,052
-258,409	145,927	0,048	0,047
-257,395	-146,687	0,110	-0,007
-256,380	63,865	0,097	-0,071
-255,365	148,099	0,096	0,094
-254,351	32,384	0,060	0,038
-253,336	174,892	-0,063	0,066
-252,322	139,014	0,048	-0,046
-251,307	800,000	-0,077	-0,181
-250,292	-200,000	-0,022	-0,086
-249,278	-42,398	-0,094	0,035
-248,263	66,208	-0,129	-0,095
-247,249	800,000	-0,042	0,104
-246,234	35,192	0,018	0,011
-245,219	800,000	-0,035	0,088
-244,205	298,286	-0,022	-0,030
-243,190	-200,000	0,001	-0,066
-242,176	-164,940	-0,156	-0,005
-241,161	-200,000	0,010	0,123
-240,146	-200,000	0,010	0,069
-239,132	-200,000	0,013	-0,072
-238,117	79,472	-0,076	0,059
-237,103	-200,000	-0,005	-0,053
-236,088	-200,000	-0,007	-0,114
-235,073	800,000	0,014	-0,029
-234,059	59,939	-0,097	-0,070
-233,044	574,234	-0,040	0,071
-232,030	-200,000	-0,009	-0,032
-231,015	195,937	0,040	-0,044
-230,000	800,000	0,024	0,051
-228,986	-33,242	0,116	-0,047
-227,971	29,955	0,089	-0,055
-226,957	-30,671	-0,101	-0,042
-225,942	82,808	0,103	-0,081
-224,927	220,026	0,069	-0,081
-223,913	232,458	-0,027	-0,033
-222,898	183,868	-0,030	-0,032
-221,884	800,000	-0,066	-0,165
-220,869	67,005	0,040	0,029
-219,855	3,359	0,046	0,024
-218,840	-38,710	-0,051	-0,019
-217,825	114,380	-0,118	-0,105
-216,811	17,269	0,063	-0,036
-215,796	-38,112	-0,132	0,051
-214,782	-83,380	-0,058	0,013
-213,767	-24,174	0,178	-0,077
-212,752	-200,000	0,028	0,130
-211,738	30,232	0,125	0,078
-210,723	-200,000	-0,002	0,108
-209,709	-200,000	-0,007	-0,062
-208,694	-74,290	0,069	-0,018
-207,679	756,498	-0,023	-0,045
-206,665	258,226	0,019	0,024
-205,650	107,378	-0,051	0,044
-204,636	191,056	-0,085	0,093
-203,621	800,000	0,034	0,098
-202,606	305,515	0,101	0,137
-201,592	11,174	0,099	-0,055
-200,577	-96,371	0,017	-0,003
-199,563	693,269	-0,041	-0,079
-198,548	-200,000	-0,002	-0,052
-197,533	276,111	0,054	-0,070
-196,519	83,694	-0,056	-0,045
-195,504	425,211	0,077	-0,121
-194,490	236,208	-0,042	-0,050
-193,475	143,967	0,057	0,056
-192,460	200,205	0,071	0,080
-191,446	800,000	-0,015	-0,030
-190,431	-7,671	-0,131	-0,064
-189,417	-105,048	-0,086	-0,014
-188,402	-200,000	0,005	0,117
-187,387	-200,000	-0,005	-0,077
-186,373	-83,900	0,082	0,019
-185,358	792,678	-0,042	-0,085
-184,344	-40,586	-0,082	-0,031
-183,329	-43,180	0,165	0,060
-182,315	-200,000	-0,017	-0,107
-181,300	-32,524	0,153	0,062
-180,285	-99,716	-0,025	-0,004
-179,271	351,090	-0,012	-0,017
-178,256	224,002	0,033	0,039
-177,242	329,016	-0,032	0,045
-176,227	-200,000	0,006	-0,052
-175,212	182,375	0,052	0,056
-174,198	-9,521	0,063	-0,030
-173,183	-200,000	-0,020	-0,194
-172,169	800,000	0,020	0,044
-171,154	-200,000	0,005	0,048
-170,139	73,338	0,179	-0,136
-169,125	-100,343	-0,005	0,001
-168,110	-103,499	0,061	0,010
-167,096	20,483	-0,052	0,031
-166,081	800,000	-0,025	-0,059
-165,066	-62,716	-0,139	0,042
-164,052	611,825	-0,036	0,067
-163,037	800,000	-0,034	-0,086
-162,023	361,323	0,108	-0,158
-161,008	745,624	0,039	0,077
-159,993	-35,271	0,092	-0,036
-158,979	254,441	-0,068	-0,085
-157,964	-118,909	-0,093	-0,012
-156,950	-200,000	0,017	-0,093
-155,935	-176,199	-0,039	0,001
-154,920	-52,989	-0,058	0,019
-153,906	-132,463	-0,080	-0,007
-152,891	49,621	0,054	0,037
-151,877	-200,000	-0,034	0,132
-150,862	-50,341	-0,043	-0,015
-149,847	-63,189	-0,057	-0,017
-148,833	-84,460	0,049	0,011
-147,818	232,549	0,092	-0,110
-146,804	-200,000	-0,020	-0,090
-145,789	-20,078	-0,033	-0,015
-144,775	-200,000	0,007	0,057
-143,760	625,304	0,062	-0,115
-142,745	-132,064	-0,050	-0,005
-141,731	800,000	-0,056	-0,129
-140,716	43,300	-0,043	0,028
-139,702	-200,000	-0,008	0,045
-138,687	800,000	0,058	-0,137
-137,672	800,000	0,018	-0,049
-136,658	800,000	0,050	-0,134
-135,643	-124,802	-0,149	-0,017
-134,629	-200,000	0,031	-0,128
-133,614	800,000	0,086	0,211
-132,599	297,807	0,084	0,113
-131,585	-93,477	0,246	0,049
-130,570	800,000	-0,035	-0,095
-129,556	-78,380	-0,103	-0,026
-128,541	416,319	0,057	0,089
-127,526	-74,145	-0,078	0,020
-126,512	17,978	0,056	-0,032
-125,497	-14,429	-0,129	0,060
-124,483	39,625	-0,065	0,042
-123,468	800,000	0,028	0,070
-122,453	606,645	0,007	0,012
-121,439	-31,460	-0,036	-0,015
-120,424	-200,000	0,025	0,086
