DTS Sentinel unit serial number:	SN410029Multiplexer serial number:	ORYXHardware model number:	OX2-SRSoftware version number:	ORYX F/W v4,00 Oryx Data Collector v3.7.2.0data status	okinstallation	B4 Nyhavnadifferential loss correction	single-endedforward channel	channel 2reverse channel	N/Adate	2023/12/15time	16:25:13forward acquisition time	300,00reverse acquisition time	0,00gamma	499,1914k internal	0,3145k external	0,3145temperature offset calibration	1,0000default loss term (dB/km)	0,3820temperature slope calibration	1,0000multiplexer offset coefficient	1,0000multiplexer slope coefficient	1,0000fibre end	0,00T internal ref (°C)	17,38T ext. ref 1 (°C)	3,30T ext. ref 2 (°C)	3,42length (m)	temperature (°C)	Stokes	anti-Stokes-744,400	678,065	0,086	-0,167
-743,385	-144,847	-0,275	-0,018
-742,371	-200,000	0,020	0,098
-741,356	-132,497	-0,231	0,022
-740,342	43,353	0,105	-0,071
-739,327	-66,293	-0,234	0,068
-738,312	-200,000	-0,015	-0,054
-737,298	-77,412	-0,263	0,067
-736,283	800,000	0,027	-0,077
-735,269	-80,663	-0,286	0,070
-734,254	-172,181	0,153	0,004
-733,239	-95,927	-0,425	-0,083
-732,225	70,212	0,159	0,122
-731,210	80,833	0,019	0,015
-730,196	-200,000	-0,009	-0,051
-729,181	-62,842	-0,123	-0,037
-728,167	170,955	0,058	0,061
-727,152	-27,009	-0,068	-0,029
-726,137	-135,240	-0,095	-0,008
-725,123	-102,155	0,162	0,029
-724,108	800,000	-0,035	-0,110
-723,094	-157,610	-0,040	0,002
-722,079	98,885	0,033	0,028
-721,064	-53,962	0,166	-0,056
-720,050	-140,422	-0,128	0,010
-719,035	27,287	0,050	0,031
-718,021	-200,000	0,012	-0,151
-717,006	-200,000	-0,031	-0,131
-715,991	-98,081	-0,118	0,022
-714,977	-200,000	0,019	-0,123
-713,962	46,252	-0,099	0,068
-712,948	88,701	-0,075	0,062
-711,933	-31,290	0,059	-0,025
-710,918	328,135	-0,034	-0,048
-709,904	231,741	-0,150	-0,182
-708,889	-200,000	0,041	-0,141
-707,875	443,999	0,016	-0,026
-706,860	428,083	-0,054	0,087
-705,845	-200,000	0,006	0,023
-704,831	800,000	0,082	0,225
-703,816	776,245	0,043	-0,087
-702,802	800,000	0,051	-0,120
-701,787	-64,025	-0,126	0,038
-700,772	-120,846	0,052	-0,006
-699,758	-115,954	0,151	0,021
-698,743	267,452	0,064	-0,083
-697,729	527,814	-0,041	0,072
-696,714	-200,000	-0,004	0,147
-695,699	287,879	0,020	0,027
-694,685	362,957	-0,043	-0,064
-693,670	180,296	-0,033	0,036
-692,656	240,108	0,043	-0,053
-691,641	800,000	0,015	0,038
-690,627	-60,016	-0,080	0,025
-689,612	97,928	0,057	-0,049
-688,597	234,924	0,021	0,025
-687,583	800,000	-0,011	0,026
-686,568	76,036	-0,095	-0,074
-685,554	-200,000	-0,048	-0,215
-684,539	56,908	-0,033	0,023
-683,524	-200,000	-0,018	0,118
-682,510	-200,000	0,010	0,055
-681,495	11,652	-0,049	0,028
-680,481	-136,671	-0,109	-0,009
-679,466	408,961	-0,149	-0,234
-678,451	-121,751	-0,054	-0,006
-677,437	800,000	-0,008	-0,027
-676,422	320,671	0,039	-0,055
-675,408	282,154	0,055	0,073
-674,393	375,120	-0,035	0,053
-673,378	210,227	-0,041	0,048
-672,364	-75,971	0,078	0,020
-671,349	800,000	0,007	0,019
-670,335	-200,000	0,178	-0,001
-669,320	43,924	0,048	-0,033
-668,305	800,000	0,053	-0,110
-667,291	-200,000	0,001	-0,061
-666,276	43,719	0,038	-0,026
-665,262	331,011	0,040	-0,057
-664,247	350,584	-0,040	0,059
-663,232	800,000	0,008	-0,019
-662,218	295,050	-0,072	0,098
-661,203	-77,168	-0,119	-0,030
-660,189	110,902	0,061	-0,054
-659,174	-52,670	-0,110	0,037
-658,159	93,631	-0,090	-0,076
-657,145	-200,000	-0,012	-0,122
-656,130	-2,365	0,049	-0,025
-655,116	2,488	-0,065	0,034
-654,101	18,052	0,079	-0,046
-653,086	-200,000	-0,012	-0,094
-652,072	-72,366	-0,046	-0,012
-651,057	-200,000	0,019	-0,154
-650,043	142,311	-0,053	-0,052
-649,028	221,148	-0,047	-0,056
-648,014	-87,619	0,137	-0,030
-646,999	-6,142	0,085	-0,043
-645,984	269,175	-0,105	-0,136
-644,970	-200,000	0,007	-0,095
-643,955	152,119	-0,033	0,033
-642,941	19,928	0,052	-0,031
-641,926	-200,000	0,016	-0,084
-640,911	-200,000	-0,016	0,165
-639,897	36,896	-0,067	0,044
-638,882	-14,386	-0,081	-0,038
-637,868	800,000	-0,047	-0,149
-636,853	-200,000	-0,017	0,064
-635,838	-200,000	0,003	-0,023
-634,824	800,000	0,028	0,060
-633,809	-27,582	0,195	-0,083
-632,795	800,000	0,005	0,010
-631,780	73,607	0,049	0,038
-630,765	-56,241	-0,125	0,041
-629,751	-200,000	-0,003	-0,021
-628,736	320,332	-0,129	0,181
-627,722	267,762	-0,067	0,086
-626,707	-5,926	0,072	-0,036
-625,692	17,848	0,019	-0,011
-624,678	-200,000	-0,007	-0,064
-623,663	445,254	0,022	-0,036
-622,649	118,018	-0,094	-0,085
-621,634	128,599	-0,124	-0,116
-620,619	182,455	-0,030	-0,032
-619,605	-30,098	-0,139	0,058
-618,590	-200,000	-0,008	0,089
-617,576	-87,963	0,099	-0,022
-616,561	-200,000	-0,013	0,076
-615,546	-200,000	0,027	-0,088
-614,532	-49,183	0,063	-0,022
-613,517	-200,000	-0,021	0,078
-612,503	-157,441	0,030	0,001
-611,488	40,460	0,109	0,072
-610,474	5,145	-0,080	-0,043
-609,459	-200,000	0,003	0,026
-608,444	-52,452	-0,098	-0,033
-607,430	18,370	-0,049	-0,029
-606,415	143,597	0,058	0,057
-605,401	117,657	0,053	-0,048
-604,386	-200,000	-0,011	0,101
-603,371	33,440	0,095	0,060
-602,357	800,000	0,014	0,047
-601,342	-200,000	0,016	0,086
-600,328	-111,632	0,036	0,005
-599,313	62,588	-0,100	-0,073
-598,298	151,801	-0,055	0,055
-597,284	-200,000	-0,004	-0,052
-596,269	119,618	0,118	-0,108
-595,255	-171,020	-0,083	-0,002
-594,240	104,999	-0,051	-0,045
-593,225	63,833	-0,152	-0,113
-592,211	109,921	-0,062	-0,054
-591,196	-69,345	0,033	-0,009
-590,182	800,000	0,032	-0,096
-589,167	-64,681	0,083	-0,025
-588,152	127,477	0,003	0,003
-587,138	-200,000	0,018	-0,065
-586,123	-200,000	-0,003	-0,075
-585,109	-200,000	-0,003	-0,101
-584,094	246,953	-0,042	-0,052
-583,079	328,166	0,042	0,060
-582,065	3,643	-0,127	-0,068
-581,050	-135,093	0,083	0,007
-580,036	-133,734	-0,024	-0,002
-579,021	-73,693	0,106	-0,028
-578,006	290,681	0,061	0,082
-576,992	-90,383	-0,091	-0,019
-575,977	47,367	0,047	0,032
-574,963	128,041	0,104	-0,097
-573,948	-144,620	-0,138	-0,009
-572,934	-176,418	-0,116	0,002
-571,919	470,416	-0,045	-0,074
-570,904	-81,496	-0,044	-0,011
-569,890	-174,769	0,112	-0,002
-568,875	-55,772	-0,050	-0,016
-567,861	-200,000	-0,028	0,127
-566,846	741,435	-0,049	0,097
-565,831	-200,000	0,006	0,069
-564,817	195,551	-0,069	0,077
-563,802	556,424	0,045	-0,079
-562,788	-200,000	0,017	-0,099
-561,773	79,555	0,097	-0,076
-560,758	-47,570	0,182	0,065
-559,744	247,511	-0,081	0,100
-558,729	800,000	0,042	-0,118
-557,715	-173,741	-0,056	-0,001
-556,700	-31,877	0,155	0,064
-555,685	-88,262	0,101	-0,022
-554,671	-165,552	-0,131	-0,004
-553,656	-200,000	-0,006	-0,021
-552,642	-55,607	0,091	-0,030
-551,627	174,799	-0,057	0,061
-550,612	-22,307	0,055	0,024
-549,598	237,478	-0,148	-0,181
-548,583	-26,063	0,079	-0,034
-547,569	-200,000	0,010	-0,049
-546,554	-82,179	0,047	0,011
-545,539	-200,000	-0,013	-0,059
-544,525	21,028	0,075	-0,045
-543,510	-192,475	-0,115	-0,001
-542,496	364,842	0,017	0,026
-541,481	735,681	-0,013	-0,026
-540,466	-200,000	0,002	-0,021
-539,452	220,719	0,028	-0,033
-538,437	-200,000	-0,017	0,055
-537,423	112,192	-0,040	0,036
-536,408	16,545	-0,090	0,052
-535,393	582,997	-0,036	0,066
-534,379	500,947	0,040	0,067
-533,364	800,000	0,021	0,047
-532,350	800,000	-0,014	0,042
-531,335	468,816	0,043	0,071
-530,321	16,135	-0,150	0,086
-529,306	-172,049	0,103	-0,002
-528,291	224,309	-0,092	0,110
-527,277	800,000	0,031	0,089
-526,262	-200,000	-0,029	-0,108
-525,248	-97,506	-0,032	0,006
-524,233	640,218	0,060	0,112
-523,218	137,719	-0,036	-0,035
-522,204	8,904	-0,060	-0,033
-521,189	-200,000	0,010	0,109
-520,175	509,678	-0,087	0,148
-519,160	180,972	0,100	-0,108
-518,145	743,435	0,079	-0,157
-517,131	800,000	-0,032	-0,076
-516,116	-200,000	-0,012	0,099
-515,102	-29,310	-0,044	0,018
-514,087	-185,659	-0,090	-0,001
-513,072	-44,478	0,121	0,044
-512,058	22,783	-0,067	-0,040
-511,043	-77,350	0,078	0,020
-510,029	-200,000	0,023	0,097
-509,014	-200,000	0,010	0,086
-507,999	424,762	-0,060	0,095
-506,985	-86,926	-0,092	0,021
-505,970	248,178	0,035	0,043
-504,956	-21,611	-0,125	-0,056
-503,941	8,228	0,036	-0,020
-502,926	140,351	-0,054	-0,052
-501,912	-47,680	-0,044	-0,015
-500,897	-200,000	0,002	0,181
-499,883	-200,000	-0,019	-0,070
-498,868	-17,350	0,103	-0,048
-497,853	-200,000	-0,029	-0,163
-496,839	-152,530	-0,086	-0,004
-495,824	-200,000	0,008	0,192
-494,810	-200,000	-0,001	0,028
-493,795	-200,000	-0,013	0,051
-492,781	139,252	-0,055	0,053
-491,766	800,000	0,037	-0,089
-490,751	-53,211	-0,059	0,020
-489,737	-72,267	0,130	0,035
-488,722	800,000	-0,013	-0,031
-487,708	-15,187	0,021	-0,010
-486,693	756,806	-0,042	-0,085
-485,678	-115,721	-0,032	0,004
-484,664	-6,985	-0,155	-0,077
-483,649	195,597	-0,066	0,073
-482,635	-75,977	0,062	0,016
-481,620	548,094	-0,029	-0,050
-480,605	266,059	0,025	-0,032
-479,591	453,024	-0,055	-0,090
-478,576	-22,485	0,084	0,037
-477,562	24,258	0,122	-0,074
-476,547	-29,285	-0,107	-0,045
-475,532	-200,000	-0,000	-0,028
-474,518	-200,000	0,037	0,136
-473,503	3,094	0,017	-0,009
-472,489	-200,000	-0,031	-0,167
-471,474	800,000	0,012	-0,024
-470,459	155,276	-0,027	-0,027
-469,445	98,438	-0,073	0,061
-468,430	-200,000	-0,034	-0,163
-467,416	678,124	-0,067	-0,129
-466,401	11,093	0,016	-0,009
-465,386	-140,845	0,116	-0,009
-464,372	-0,156	-0,089	0,046
-463,357	62,114	0,069	-0,050
-462,343	-200,000	-0,004	-0,029
-461,328	800,000	-0,025	-0,079
-460,313	219,223	0,076	0,089
-459,299	-139,255	-0,096	0,007
-458,284	12,306	0,134	-0,076
-457,270	-200,000	-0,031	0,170
-456,255	236,308	0,119	0,144
-455,241	-7,040	-0,176	0,087
-454,226	233,632	-0,090	0,108
-453,211	152,494	0,062	-0,062
-452,197	399,710	0,067	0,103
-451,182	-153,977	-0,051	-0,002
-450,168	-200,000	-0,007	0,026
-449,153	800,000	0,060	-0,136
-448,138	-6,313	-0,083	-0,041
-447,124	-150,363	-0,012	-0,001
-446,109	-200,000	0,013	-0,066
-445,095	-200,000	0,006	-0,112
-444,080	-200,000	0,002	0,054
-443,065	-93,246	-0,109	0,022
-442,051	271,906	0,053	0,069
-441,036	800,000	-0,017	-0,049
-440,022	-168,745	-0,111	0,003
-439,007	-200,000	-0,015	0,059
-437,992	800,000	-0,042	-0,101
-436,978	-200,000	0,008	0,057
-435,963	800,000	0,015	0,046
-434,949	647,726	-0,066	-0,123
-433,934	-200,000	-0,001	-0,046
-432,919	-200,000	0,006	0,045
-431,905	-97,596	0,150	-0,028
-430,890	-200,000	0,005	0,069
-429,876	58,177	0,104	-0,074
-428,861	-61,976	-0,091	0,028
-427,846	-130,657	-0,087	0,008
-426,832	286,500	-0,095	-0,126
-425,817	-200,000	-0,048	-0,155
-424,803	-200,000	-0,003	0,041
-423,788	-159,141	0,213	0,009
-422,773	-14,258	-0,111	0,052
-421,759	-200,000	-0,008	0,064
-420,744	-200,000	0,002	-0,023
-419,730	525,037	0,061	-0,105
-418,715	800,000	0,035	-0,084
-417,701	-0,354	0,037	-0,019
-416,686	-27,031	0,027	-0,012
-415,671	286,537	-0,099	0,132
-414,657	17,458	0,097	0,056
-413,642	-69,031	-0,044	-0,012
-412,628	800,000	0,032	0,065
-411,613	-200,000	0,013	-0,126
-410,598	9,730	0,205	-0,113
-409,584	21,367	0,144	-0,085
-408,569	566,140	-0,057	0,102
-407,555	800,000	0,012	0,038
-406,540	166,238	0,043	-0,044
-405,525	45,189	-0,096	0,064
-404,511	232,684	0,081	0,098
-403,496	642,211	0,063	-0,117
-402,482	-200,000	0,026	-0,092
-401,467	-80,159	-0,136	-0,033
-400,452	-24,022	-0,065	0,028
-399,438	743,035	0,016	0,032
-398,423	87,023	0,017	-0,014
-397,409	-200,000	0,010	0,061
-396,394	272,415	-0,083	-0,107
-395,379	-200,000	-0,020	0,081
-394,365	-51,304	0,191	-0,065
-393,350	-85,551	-0,139	0,031
-392,336	800,000	-0,035	-0,075
-391,321	678,317	-0,039	0,074
-390,306	481,033	-0,039	0,066
-389,292	401,897	-0,040	-0,061
-388,277	-156,320	0,070	-0,003
-387,263	786,240	-0,038	-0,076
-386,248	180,242	0,113	0,121
-385,233	-200,000	-0,005	0,023
-384,219	228,345	0,102	-0,121
-383,204	-22,901	-0,053	0,023
-382,190	-44,032	-0,064	-0,023
-381,175	-200,000	0,031	-0,150
-380,160	1,269	-0,026	0,014
-379,146	-200,000	-0,005	0,120
-378,131	-84,129	0,112	-0,026
-377,117	344,145	0,041	-0,060
-376,102	-41,905	-0,017	0,006
-375,088	79,540	0,107	-0,083
-374,073	-27,848	-0,026	0,011
-373,058	280,085	0,060	-0,079
-372,044	-32,252	0,107	0,044
-371,029	115,400	0,026	0,023
-370,015	800,000	0,076	0,156
-369,000	471,623	-0,026	-0,042
-367,985	800,000	-0,020	0,042
-366,971	-200,000	0,010	-0,095
-365,956	-200,000	0,000	0,082
-364,942	-81,541	0,103	0,025
-363,927	104,670	0,032	0,028
-362,912	-38,931	-0,056	-0,021
-361,898	-200,000	-0,020	-0,119
-360,883	260,266	0,078	-0,099
-359,869	108,758	-0,124	-0,108
-358,854	-27,925	0,060	-0,025
-357,839	800,000	0,035	0,097
-356,825	338,122	-0,047	0,067
-355,810	77,375	-0,111	-0,086
-354,796	-95,952	-0,138	-0,027
-353,781	-75,915	0,070	-0,018
-352,766	-200,000	-0,034	-0,110
-351,752	773,238	-0,051	-0,101
-350,737	-200,000	0,005	-0,053
-349,723	94,660	0,110	-0,091
-348,708	233,607	-0,060	-0,072
-347,693	800,000	-0,052	-0,114
-346,679	332,039	-0,039	0,055
-345,664	-42,277	-0,059	-0,022
-344,650	268,474	0,060	0,076
-343,635	58,887	-0,134	0,096
-342,620	28,934	0,077	0,048
-341,606	8,073	0,028	0,015
-340,591	102,425	-0,010	0,008
-339,577	-84,091	0,188	-0,043
-338,562	-70,527	-0,082	0,023
-337,548	800,000	0,042	0,136
-336,533	37,004	0,190	0,122
-335,518	-200,000	0,016	-0,076
-334,504	-200,000	0,018	0,072
-333,489	731,579	-0,038	0,074
-332,475	48,192	-0,107	-0,073
-331,460	110,026	-0,042	-0,037
-330,445	-200,000	0,158	0,001
-329,431	-200,000	0,018	-0,152
-328,416	35,025	-0,006	-0,004
-327,402	800,000	0,064	0,171
-326,387	-57,126	-0,073	0,023
-325,372	74,948	0,053	-0,041
-324,358	-29,205	0,029	0,012
-323,343	429,515	-0,069	-0,109
-322,329	764,267	0,058	0,116
-321,314	-147,867	0,047	0,003
-320,299	11,868	0,214	-0,119
-319,285	240,034	-0,067	-0,082
-318,270	-200,000	0,009	-0,144
-317,256	800,000	-0,065	-0,161
-316,241	-200,000	-0,015	0,048
-315,226	-147,541	-0,064	0,004
-314,212	-64,450	0,044	0,013
-313,197	-22,510	0,063	0,028
-312,183	-130,103	0,111	-0,011
-311,168	-90,350	-0,157	0,033
-310,153	290,997	0,048	0,063
-309,139	572,419	0,046	0,082
-308,124	-105,227	0,122	-0,020
-307,110	69,802	-0,025	-0,019
-306,095	496,935	0,047	0,079
-305,080	800,000	-0,079	0,197
-304,066	-58,736	-0,135	-0,042
-303,051	113,143	0,092	-0,081
-302,037	800,000	0,033	-0,070
-301,022	-5,746	0,012	0,006
-300,008	800,000	-0,049	0,114
-298,993	338,572	-0,052	0,074
-297,978	-200,000	-0,016	0,060
-296,964	-200,000	0,012	-0,070
-295,949	-200,000	-0,008	-0,044
-294,935	-74,407	0,092	-0,024
-293,920	-139,983	-0,114	-0,009
-292,905	-200,000	-0,009	-0,064
-291,891	-13,741	0,162	0,076
-290,876	800,000	-0,033	0,091
-289,862	-6,672	-0,057	0,028
-288,847	800,000	-0,042	0,093
-287,832	-104,607	0,045	-0,007
-286,818	-40,203	0,083	0,031
-285,803	-11,993	0,055	-0,026
-284,789	-187,167	-0,124	0,001
-283,774	-124,185	-0,081	0,009
-282,759	-89,175	0,084	-0,018
-281,745	309,709	-0,072	-0,098
-280,730	-72,246	-0,074	0,020
-279,716	800,000	-0,003	0,006
-278,701	-56,258	0,105	-0,034
-277,686	-54,519	0,072	0,023
-276,672	-200,000	-0,011	0,043
-275,657	-145,297	0,033	0,002
-274,643	102,486	-0,095	0,081
-273,628	171,657	-0,085	0,089
-272,613	605,786	-0,056	0,103
-271,599	-116,719	0,038	0,005
-270,584	-90,155	0,235	0,049
-269,570	28,210	-0,046	0,028
-268,555	-200,000	0,028	0,209
-267,540	-200,000	0,001	-0,095
-266,526	139,306	0,039	-0,038
-265,511	36,747	0,118	0,075
-264,497	-128,430	0,147	0,015
-263,482	-200,000	0,014	0,125
-262,467	189,543	-0,042	0,046
-261,453	-46,302	-0,109	0,039
-260,438	-138,839	0,097	-0,008
-259,424	-152,347	-0,109	0,006
-258,409	415,010	-0,041	0,064
-257,395	800,000	-0,041	-0,086
-256,380	462,480	0,038	-0,061
-255,365	-200,000	0,012	0,054
-254,351	-125,522	-0,027	-0,003
-253,336	546,217	-0,045	0,078
-252,322	-200,000	-0,021	-0,077
-251,307	800,000	-0,010	-0,024
-250,292	-5,044	-0,006	-0,003
-249,278	-74,434	-0,093	-0,024
-248,263	-103,671	-0,034	-0,006
-247,249	-200,000	-0,013	-0,055
-246,234	328,471	0,032	0,044
-245,219	-36,693	-0,050	-0,019
-244,205	-71,542	-0,051	-0,014
-243,190	-26,346	0,083	0,035
-242,176	-200,000	0,016	-0,102
-241,161	800,000	0,018	0,040
-240,146	512,838	0,065	0,111
-239,132	-68,948	-0,017	0,005
-238,117	-70,152	-0,125	-0,034
-237,103	-200,000	0,004	-0,037
-236,088	-200,000	0,029	0,190
-235,073	101,498	-0,081	0,068
-234,059	-200,000	0,000	-0,145
-233,044	-200,000	0,015	0,067
-232,030	-44,246	-0,065	-0,024
-231,015	-200,000	0,010	-0,033
-230,000	88,876	-0,061	0,049
-228,986	-156,035	0,122	-0,006
-227,971	61,392	-0,015	0,011
-226,957	27,149	0,090	0,055
-225,942	-200,000	0,016	-0,054
-224,927	24,820	-0,033	-0,020
-223,913	-52,374	0,176	0,059
-222,898	-159,517	0,095	0,004
-221,884	-69,126	-0,028	-0,008
-220,869	26,182	0,080	-0,048
-219,855	363,503	0,028	0,040
-218,840	109,573	0,032	0,028
-217,825	737,842	-0,038	-0,074
-216,811	-135,807	0,046	-0,004
-215,796	90,547	-0,069	-0,056
-214,782	-19,251	-0,012	-0,006
-213,767	69,645	-0,050	0,037
-212,752	-200,000	0,004	0,049
-211,738	-200,000	0,006	0,056
-210,723	555,211	-0,062	-0,109
-209,709	22,481	0,036	0,021
-208,694	444,068	0,082	-0,132
-207,679	800,000	-0,015	-0,040
-206,665	13,665	0,157	-0,088
-205,650	-200,000	-0,009	0,070
-204,636	-110,578	0,062	0,009
-203,621	117,078	0,051	-0,046
-202,606	213,996	-0,109	-0,125
-201,592	-119,215	-0,143	0,018
-200,577	-29,869	0,100	-0,041
-199,563	-177,850	-0,095	-0,002
-198,548	288,540	-0,044	0,059
-197,533	37,643	0,081	0,052
-196,519	3,911	-0,014	-0,007
-195,504	-17,946	0,086	-0,039
-194,490	800,000	-0,023	-0,069
-193,475	351,424	-0,081	0,116
-192,460	13,922	-0,033	-0,019
-191,446	2,015	-0,071	-0,037
-190,431	-50,974	-0,054	-0,018
-189,417	445,641	0,061	0,097
-188,402	72,977	0,028	-0,021
-187,387	800,000	-0,032	-0,087
-186,373	-116,805	0,113	0,015
-185,358	-143,022	0,047	-0,003
-184,344	-200,000	-0,025	0,121
-183,329	28,395	0,025	0,016
-182,315	-77,949	0,152	0,038
-181,300	-74,551	-0,048	-0,012
-180,285	240,897	-0,040	-0,048
-179,271	37,836	-0,067	0,043
-178,256	-62,617	-0,130	-0,039
-177,242	-200,000	-0,028	0,152
-176,227	800,000	0,066	0,168
-175,212	-178,891	0,061	0,001
-174,198	-136,034	-0,070	-0,006
-173,183	800,000	-0,024	0,066
-172,169	33,009	0,084	0,053
-171,154	800,000	-0,013	0,029
-170,139	-130,459	0,155	-0,015
-169,125	-39,685	0,056	-0,021
-168,110	-200,000	-0,008	0,080
-167,096	-76,202	0,087	-0,022
-166,081	-31,268	-0,066	-0,027
-165,066	533,211	0,025	0,042
-164,052	61,913	0,019	0,014
-163,037	59,246	0,022	-0,016
-162,023	-31,773	-0,165	0,067
-161,008	-200,000	0,021	0,085
-159,993	586,167	-0,064	0,115
-158,979	-23,153	-0,061	0,026
-157,964	107,789	-0,121	-0,104
-156,950	-200,000	-0,081	-0,266
-155,935	-200,000	-0,010	0,123
-154,920	-200,000	-0,025	0,150
-153,906	36,239	0,044	0,028
-152,891	-59,721	-0,081	0,025
-151,877	130,863	-0,147	-0,137
-150,862	-87,030	0,052	0,011
-149,847	481,828	0,049	-0,080
-148,833	118,608	0,100	-0,089
-147,818	800,000	-0,011	-0,024
-146,804	-200,000	0,011	0,142
-145,789	276,986	-0,038	0,049
-144,775	-149,297	0,032	0,002
-143,760	442,646	-0,106	-0,169
-142,745	-200,000	-0,022	0,137
-141,731	788,790	-0,043	0,086
-140,716	-57,353	-0,091	-0,029
-139,702	-200,000	0,041	0,137
-138,687	-200,000	-0,002	-0,013
-137,672	367,015	0,068	0,100
-136,658	200,517	-0,040	-0,045
-135,643	-200,000	-0,010	-0,067
-134,629	240,120	-0,027	-0,032
-133,614	28,263	-0,109	0,066
-132,599	145,596	0,099	0,096
-131,585	800,000	-0,008	-0,022
-130,570	-151,184	-0,079	-0,004
-129,556	187,226	-0,063	-0,068
-128,541	-63,558	-0,113	-0,033
-127,526	-200,000	0,020	-0,073
-126,512	-76,941	0,018	0,004
-125,497	37,416	0,143	0,091
-124,483	207,367	0,034	-0,038
-123,468	800,000	0,028	0,076
-122,453	259,381	-0,058	-0,072
-121,439	800,000	0,033	0,076
-120,424	-200,000	-0,008	-0,083
-119,410	171,850	-0,070	0,072
