DTS Sentinel unit serial number:	SN410029Multiplexer serial number:	ORYXHardware model number:	OX2-SRSoftware version number:	ORYX F/W v4,00 Oryx Data Collector v3.7.2.0data status	okinstallation	B4 Nyhavnadifferential loss correction	single-endedforward channel	channel 2reverse channel	N/Adate	2023/12/19time	06:20:13forward acquisition time	300,00reverse acquisition time	0,00gamma	499,1914k internal	0,3127k external	0,3127temperature offset calibration	1,0000default loss term (dB/km)	0,3820temperature slope calibration	1,0000multiplexer offset coefficient	1,0000multiplexer slope coefficient	1,0000fibre end	0,00T internal ref (°C)	21,13T ext. ref 1 (°C)	6,44T ext. ref 2 (°C)	6,62length (m)	temperature (°C)	Stokes	anti-Stokes-744,400	-200,000	-0,003	-0,123
-743,385	-111,640	-0,198	0,030
-742,371	-174,755	0,120	-0,002
-741,356	-167,636	-0,256	0,007
-740,342	-35,749	0,045	-0,018
-739,327	16,404	-0,232	0,136
-738,312	10,870	0,060	-0,034
-737,298	24,681	-0,162	0,100
-736,283	40,710	0,167	-0,112
-735,269	-93,653	-0,186	0,038
-734,254	-10,011	0,104	-0,051
-733,239	-19,467	-0,372	-0,171
-732,225	800,000	-0,030	-0,083
-731,210	187,105	-0,077	0,085
-730,196	-200,000	0,019	-0,136
-729,181	594,660	0,033	-0,061
-728,167	-200,000	0,013	-0,168
-727,152	174,688	-0,024	-0,026
-726,137	-137,919	-0,121	0,010
-725,123	800,000	0,042	-0,119
-724,108	-200,000	0,052	-0,193
-723,094	276,666	-0,107	-0,141
-722,079	-167,708	-0,157	-0,005
-721,064	98,303	0,100	0,085
-720,050	-43,411	-0,059	-0,022
-719,035	555,407	0,003	-0,005
-718,021	74,749	-0,111	-0,087
-717,006	86,304	-0,031	0,026
-715,991	800,000	-0,024	-0,077
-714,977	-152,114	-0,112	-0,006
-713,962	-200,000	-0,020	0,083
-712,948	-93,828	0,138	0,028
-711,933	-75,735	-0,139	0,037
-710,918	-170,342	-0,126	0,003
-709,904	116,681	0,033	-0,030
-708,889	-51,139	0,078	-0,027
-707,875	433,281	-0,035	0,057
-706,860	-200,000	-0,008	-0,150
-705,845	390,971	-0,029	-0,045
-704,831	-54,223	0,042	-0,014
-703,816	17,225	-0,027	0,016
-702,802	-200,000	0,025	0,100
-701,787	-48,372	-0,132	-0,047
-700,772	-25,681	0,029	-0,012
-699,758	-95,985	-0,039	-0,008
-698,743	-200,000	-0,024	0,117
-697,729	-200,000	-0,008	0,055
-696,714	543,851	-0,047	0,084
-695,699	-105,507	-0,180	-0,030
-694,685	20,131	0,097	0,058
-693,670	-126,904	0,031	-0,003
-692,656	72,284	-0,059	-0,045
-691,641	-58,167	-0,056	-0,018
-690,627	-46,173	0,101	0,037
-689,612	-54,048	0,122	-0,041
-688,597	-26,087	-0,068	0,029
-687,583	371,716	-0,021	-0,031
-686,568	255,261	-0,050	0,063
-685,554	-4,953	-0,100	0,051
-684,539	-200,000	0,017	0,153
-683,524	252,928	-0,039	-0,049
-682,510	800,000	0,031	0,081
-681,495	-117,253	-0,139	0,019
-680,481	10,218	-0,063	0,035
-679,466	-154,189	-0,114	0,006
-678,451	22,190	0,080	-0,048
-677,437	288,628	0,022	-0,030
-676,422	-200,000	-0,009	-0,052
-675,408	-74,288	0,067	0,018
-674,393	-94,206	0,057	0,011
-673,378	77,357	-0,142	-0,112
-672,364	93,389	-0,080	0,068
-671,349	-200,000	0,003	0,092
-670,335	-24,067	-0,099	0,044
-669,320	63,925	0,023	0,017
-668,305	158,836	-0,054	-0,056
-667,291	61,460	-0,040	0,030
-666,276	-104,963	-0,213	0,036
-665,262	-23,323	-0,038	0,017
-664,247	-200,000	0,004	-0,093
-663,232	136,522	0,022	-0,022
-662,218	249,370	0,074	0,093
-661,203	-26,777	0,117	0,051
-660,189	-10,201	-0,021	-0,010
-659,174	399,079	-0,047	-0,074
-658,159	-48,151	0,112	-0,040
-657,145	66,806	-0,105	-0,079
-656,130	439,063	-0,051	-0,083
-655,116	-28,480	-0,072	-0,031
-654,101	194,688	-0,054	0,061
-653,086	-200,000	0,004	0,041
-652,072	-200,000	0,001	-0,126
-651,057	-1,460	-0,118	0,062
-650,043	585,431	0,038	-0,069
-649,028	-96,575	-0,153	0,030
-648,014	-200,000	-0,003	0,059
-646,999	400,072	0,020	0,031
-645,984	-200,000	0,002	-0,057
-644,970	213,876	-0,058	-0,068
-643,955	361,331	0,051	-0,076
-642,941	-119,544	-0,087	-0,011
-641,926	-116,405	-0,093	-0,013
-640,911	264,088	0,060	0,078
-639,897	20,073	0,136	-0,081
-638,882	800,000	-0,039	-0,082
-637,868	-39,634	-0,025	0,010
-636,853	165,599	-0,175	-0,184
-635,838	19,961	-0,138	-0,082
-634,824	42,956	-0,086	-0,058
-633,809	-200,000	-0,003	-0,012
-632,795	88,821	0,062	0,051
-631,780	800,000	0,071	-0,157
-630,765	-179,533	-0,123	0,002
-629,751	-200,000	0,019	-0,075
-628,736	731,001	-0,028	-0,056
-627,722	-30,324	-0,152	0,063
-626,707	-200,000	-0,005	-0,018
-625,692	301,163	-0,051	-0,069
-624,678	175,791	0,043	0,047
-623,663	-31,988	0,098	0,041
-622,649	2,044	0,057	-0,031
-621,634	-81,741	-0,046	0,011
-620,619	389,334	0,043	-0,066
-619,605	59,821	0,090	0,066
-618,590	121,435	0,085	-0,078
-617,576	-200,000	0,007	-0,022
-616,561	121,949	0,029	0,027
-615,546	771,020	0,063	-0,127
-614,532	-75,635	0,065	0,017
-613,517	24,154	-0,080	0,049
-612,503	-107,987	0,090	0,014
-611,488	-25,061	0,052	0,023
-610,474	26,474	-0,033	-0,020
-609,459	-200,000	-0,000	0,080
-608,444	-113,947	0,089	0,013
-607,430	391,386	-0,018	0,028
-606,415	-200,000	0,002	-0,130
-605,401	-200,000	0,023	-0,097
-604,386	-25,937	0,119	0,052
-603,371	-200,000	-0,017	0,083
-602,357	-200,000	-0,025	-0,104
-601,342	-86,208	-0,174	0,039
-600,328	39,628	0,053	-0,035
-599,313	800,000	-0,027	0,058
-598,298	24,848	-0,014	-0,008
-597,284	800,000	0,006	0,015
-596,269	187,380	-0,063	-0,069
-595,255	365,008	0,123	0,184
-594,240	13,514	-0,091	0,052
-593,225	118,295	-0,092	-0,084
-592,211	-130,383	-0,146	0,014
-591,196	143,874	-0,037	0,036
-590,182	-200,000	-0,020	-0,173
-589,167	8,799	-0,014	-0,008
-588,152	800,000	0,066	-0,154
-587,138	92,044	-0,031	0,025
-586,123	-4,772	-0,089	-0,045
-585,109	8,235	-0,175	0,097
-584,094	-25,851	0,143	-0,062
-583,079	-50,896	-0,078	-0,027
-582,065	205,036	0,069	0,079
-581,050	-200,000	0,015	0,067
-580,036	203,727	-0,028	0,032
-579,021	-6,776	-0,204	-0,102
-578,006	-151,342	-0,121	-0,007
-576,992	-102,892	0,026	-0,004
-575,977	-200,000	-0,002	0,114
-574,963	-200,000	-0,009	-0,132
-573,948	-200,000	0,004	0,014
-572,934	-114,918	-0,105	-0,015
-571,919	-200,000	0,008	-0,039
-570,904	52,071	-0,027	-0,019
-569,890	-200,000	0,024	-0,168
-568,875	1,741	0,087	-0,046
-567,861	800,000	0,026	0,062
-566,846	-200,000	0,030	-0,148
-565,831	-3,054	-0,062	0,032
-564,817	-13,812	0,099	0,047
-563,802	-200,000	0,024	-0,121
-562,788	-200,000	-0,003	0,053
-561,773	800,000	-0,011	0,032
-560,758	6,940	0,010	-0,006
-559,744	67,089	-0,069	-0,052
-558,729	-38,590	-0,133	0,052
-557,715	-107,200	0,131	0,021
-556,700	-200,000	-0,025	-0,173
-555,685	-200,000	0,012	0,078
-554,671	-200,000	-0,028	-0,096
-553,656	-82,485	0,134	-0,032
-552,642	800,000	-0,017	0,050
-551,627	287,765	0,095	0,128
-550,612	330,986	-0,076	0,108
-549,598	562,533	-0,046	0,083
-548,583	-200,000	0,020	-0,125
-547,569	-200,000	0,019	0,098
-546,554	90,089	-0,082	0,068
-545,539	2,029	0,101	-0,054
-544,525	-171,413	-0,021	0,001
-543,510	-65,819	0,188	-0,055
-542,496	98,916	-0,038	0,033
-541,481	-152,346	-0,095	-0,005
-540,466	-200,000	-0,002	-0,065
-539,452	-171,829	0,123	-0,003
-538,437	-1,782	0,049	0,025
-537,423	-185,522	0,109	0,001
-536,408	8,578	0,159	0,088
-535,393	0,220	-0,069	-0,036
-534,379	-188,999	-0,047	0,000
-533,364	63,746	-0,049	-0,036
-532,350	18,376	0,088	-0,052
-531,335	67,245	-0,115	-0,086
-530,321	-200,000	-0,002	-0,045
-529,306	471,567	-0,080	-0,133
-528,291	498,453	0,069	0,118
-527,277	800,000	-0,042	-0,087
-526,262	-200,000	-0,003	0,020
-525,248	-93,553	0,083	0,017
-524,233	-38,797	-0,104	-0,040
-523,218	-200,000	0,015	0,077
-522,204	203,328	-0,034	0,039
-521,189	-87,325	-0,130	-0,029
-520,175	-8,974	-0,106	-0,052
-519,160	746,023	0,060	-0,121
-518,145	-200,000	0,041	0,157
-517,131	-200,000	-0,002	0,124
-516,116	800,000	0,059	0,193
-515,102	-200,000	0,004	-0,015
-514,087	800,000	-0,058	-0,133
-513,072	145,438	-0,045	-0,045
-512,058	-200,000	-0,004	-0,057
-511,043	800,000	-0,020	-0,044
-510,029	-200,000	0,000	-0,057
-509,014	800,000	0,019	0,050
-507,999	-119,385	-0,038	-0,005
-506,985	800,000	0,025	0,068
-505,970	119,447	0,086	-0,078
-504,956	250,776	0,040	-0,050
-503,941	800,000	0,044	0,096
-502,926	800,000	-0,024	0,072
-501,912	510,215	0,018	0,031
-500,897	162,787	0,068	0,070
-499,883	-192,548	0,118	-0,001
-498,868	149,803	-0,081	-0,081
-497,853	173,253	-0,037	-0,040
-496,839	76,018	-0,076	-0,059
-495,824	-200,000	-0,005	0,059
-494,810	267,891	-0,128	0,166
-493,795	-67,938	0,124	0,036
-492,781	-24,847	0,057	0,025
-491,766	-13,330	-0,147	0,070
-490,751	-40,463	-0,116	-0,044
-489,737	-200,000	0,006	-0,100
-488,722	-45,551	0,030	0,011
-487,708	800,000	-0,022	0,062
-486,693	285,241	-0,051	-0,067
-485,678	800,000	-0,022	-0,064
-484,664	800,000	0,038	-0,100
-483,649	13,290	-0,043	0,024
-482,635	-52,916	0,040	-0,014
-481,620	-45,668	-0,136	-0,049
-480,605	634,134	-0,049	0,093
-479,591	186,493	0,091	0,100
-478,576	512,203	-0,098	-0,168
-477,562	-40,942	-0,029	0,011
-476,547	-200,000	0,012	-0,130
-475,532	41,357	0,109	-0,073
-474,518	-116,639	0,035	0,005
-473,503	-200,000	0,007	-0,046
-472,489	800,000	0,051	0,119
-471,474	-60,993	-0,075	0,023
-470,459	800,000	-0,030	-0,081
-469,445	45,104	-0,084	-0,057
-468,430	800,000	-0,015	0,033
-467,416	-200,000	-0,023	-0,109
-466,401	-33,192	0,139	0,056
-465,386	85,804	0,079	-0,064
-464,372	-33,805	0,109	-0,044
-463,357	29,072	0,067	-0,042
-462,343	-161,038	-0,151	-0,006
-461,328	-61,213	-0,122	-0,038
-460,313	-75,010	-0,076	-0,020
-459,299	-200,000	0,023	0,131
-458,284	-200,000	0,057	0,208
-457,270	-15,200	0,073	-0,034
-456,255	-200,000	0,039	-0,209
-455,241	109,953	-0,055	0,048
-454,226	-200,000	-0,042	-0,140
-453,211	22,083	0,062	0,037
-452,197	800,000	-0,075	0,183
-451,182	255,871	0,052	0,066
-450,168	800,000	0,009	0,026
-449,153	-200,000	-0,002	-0,061
-448,138	-124,690	-0,038	-0,004
-447,124	-200,000	0,009	-0,076
-446,109	57,691	-0,025	-0,018
-445,095	-156,153	0,093	-0,004
-444,080	374,238	0,021	0,032
-443,065	800,000	0,088	0,180
-442,051	182,769	0,052	0,056
-441,036	800,000	0,033	-0,097
-440,022	-200,000	0,016	-0,120
-439,007	0,130	0,086	0,045
-437,992	-164,668	-0,073	0,002
-436,978	334,583	-0,066	0,095
-435,963	-200,000	0,013	0,058
-434,949	247,275	-0,068	-0,085
-433,934	149,367	-0,087	-0,087
-432,919	-47,960	-0,049	0,017
-431,905	44,977	0,042	-0,028
-430,890	-200,000	-0,011	0,137
-429,876	-200,000	-0,008	-0,046
-428,861	-104,326	0,114	0,019
-427,846	27,261	0,119	-0,074
-426,832	800,000	-0,014	0,031
-425,817	185,499	-0,091	0,099
-424,803	210,845	0,024	0,028
-423,788	-24,728	0,098	-0,043
-422,773	-41,807	0,121	0,045
-421,759	-200,000	-0,002	0,026
-420,744	320,859	0,079	-0,111
-419,730	800,000	0,076	-0,196
-418,715	59,246	0,152	-0,110
-417,701	-50,799	-0,031	-0,011
-416,686	-200,000	0,029	0,097
-415,671	339,147	0,106	0,152
-414,657	74,423	0,026	0,020
-413,642	-120,458	0,111	-0,014
-412,628	800,000	-0,016	-0,036
-411,613	-200,000	-0,009	0,063
-410,598	80,610	-0,055	-0,044
-409,584	-85,425	0,160	0,036
-408,569	800,000	-0,011	-0,025
-407,555	-6,435	0,016	0,008
-406,540	800,000	-0,026	-0,054
-405,525	110,297	-0,025	-0,022
-404,511	316,821	-0,060	-0,084
-403,496	-78,083	-0,081	-0,020
-402,482	-55,578	0,119	0,039
-401,467	-63,327	-0,099	0,030
-400,452	-200,000	0,044	0,156
-399,438	-124,136	0,072	0,008
-398,423	800,000	-0,050	0,124
-397,409	-44,113	-0,042	-0,015
-396,394	475,427	0,029	0,048
-395,379	-22,026	0,061	0,027
-394,365	-6,379	0,168	0,084
-393,350	800,000	0,092	0,251
-392,336	-200,000	-0,010	0,038
-391,321	347,499	0,078	-0,113
-390,306	21,434	-0,017	0,010
-389,292	-200,000	-0,010	-0,074
-388,277	-200,000	-0,010	-0,097
-387,263	-16,349	0,130	-0,060
-386,248	-102,150	-0,044	0,008
-385,233	-88,631	0,090	-0,019
-384,219	-123,296	-0,123	-0,014
-383,204	-200,000	0,012	-0,060
-382,190	315,416	0,030	-0,041
-381,175	-200,000	0,007	-0,041
-380,160	84,639	0,072	-0,058
-379,146	186,714	0,044	0,048
-378,131	-200,000	-0,029	0,103
-377,117	3,862	0,046	0,025
-376,102	-30,358	-0,105	0,044
-375,088	-200,000	0,014	0,094
-374,073	-55,534	0,076	0,025
-373,058	-42,176	0,065	0,024
-372,044	426,345	0,055	0,088
-371,029	6,257	0,147	-0,080
-370,015	40,634	0,042	0,028
-369,000	-200,000	0,021	0,110
-367,985	48,331	0,085	-0,058
-366,971	146,014	-0,167	-0,164
-365,956	35,186	0,035	-0,022
-364,942	73,183	0,127	0,097
-363,927	26,791	0,076	-0,046
-362,912	6,700	-0,071	0,039
-361,898	800,000	0,008	0,018
-360,883	-124,510	-0,059	-0,007
-359,869	-200,000	-0,005	-0,043
-358,854	122,025	0,063	0,058
-357,839	-200,000	-0,019	0,071
-356,825	-200,000	-0,030	0,112
-355,810	137,521	0,024	-0,023
-354,796	-200,000	0,012	-0,116
-353,781	372,080	0,011	0,017
-352,766	-11,717	-0,148	0,071
-351,752	-200,000	-0,011	-0,106
-350,737	47,617	0,176	0,121
-349,723	-200,000	0,000	0,176
-348,708	-0,440	0,095	-0,049
-347,693	379,617	0,061	0,092
-346,679	617,817	-0,042	0,077
-345,664	267,214	0,090	-0,115
-344,650	-200,000	0,002	-0,109
-343,635	86,390	0,070	0,056
-342,620	-47,275	-0,027	0,010
-341,606	-200,000	-0,002	-0,006
-340,591	106,155	-0,059	-0,052
-339,577	-200,000	0,042	-0,162
-338,562	-103,434	-0,111	0,019
-337,548	57,619	-0,068	0,049
-336,533	-200,000	0,042	0,166
-335,518	800,000	0,029	0,059
-334,504	-130,419	0,115	0,011
-333,489	800,000	0,078	-0,167
-332,475	-14,962	0,087	-0,041
-331,460	55,803	0,051	0,036
-330,445	-127,500	-0,111	0,012
-329,431	63,025	0,072	-0,053
-328,416	61,770	-0,042	-0,031
-327,402	-200,000	0,003	0,133
-326,387	-200,000	-0,001	-0,073
-325,372	-182,597	-0,155	0,002
-324,358	-38,980	-0,089	-0,034
-323,343	348,598	-0,056	0,081
-322,329	-200,000	0,001	0,043
-321,314	563,126	0,099	-0,176
-320,299	-200,000	-0,046	0,164
-319,285	-26,828	-0,104	-0,044
-318,270	-24,233	0,034	0,015
-317,256	145,985	-0,114	0,112
-316,241	800,000	0,029	0,087
-315,226	-200,000	-0,018	0,080
-314,212	308,830	0,039	0,053
-313,197	301,692	-0,085	0,116
-312,183	126,917	-0,043	0,040
-311,168	-200,000	0,015	0,079
-310,153	328,009	0,065	0,092
-309,139	117,512	-0,066	0,059
-308,124	184,496	-0,061	0,066
-307,110	321,243	0,125	0,174
-306,095	424,375	0,083	-0,131
-305,080	140,916	-0,060	-0,058
-304,066	506,067	0,055	0,094
-303,051	390,703	0,015	-0,023
-302,037	-120,344	-0,061	-0,008
-301,022	-120,357	-0,088	0,011
-300,008	-156,089	0,142	-0,006
-298,993	-200,000	0,007	0,134
-297,978	-5,146	-0,040	-0,020
-296,964	43,355	-0,090	-0,060
-295,949	800,000	-0,036	-0,076
-294,935	-200,000	0,010	-0,099
-293,920	-72,786	0,035	-0,009
-292,905	270,692	-0,100	0,129
-291,891	800,000	0,059	0,128
-290,876	-10,675	0,041	-0,020
-289,862	2,060	0,013	-0,007
-288,847	-126,137	0,022	0,002
-287,832	-200,000	0,038	0,222
-286,818	36,908	0,026	-0,017
-285,803	800,000	-0,024	0,064
-284,789	-200,000	0,044	0,187
-283,774	634,528	-0,036	0,067
-282,759	-136,192	-0,018	0,001
-281,745	-200,000	-0,021	0,102
-280,730	-200,000	-0,019	0,088
-279,716	319,083	-0,015	-0,021
-278,701	-200,000	0,027	-0,114
-277,686	413,117	0,050	-0,079
-276,672	185,553	0,046	0,050
-275,657	382,553	0,036	0,054
-274,643	-195,402	-0,098	0,001
-273,628	-73,984	-0,194	-0,051
-272,613	-200,000	0,004	-0,058
-271,599	85,410	0,071	0,057
-270,584	-156,244	0,138	0,006
-269,570	-59,597	-0,104	-0,032
-268,555	290,204	0,068	0,090
-267,540	17,495	-0,094	-0,055
-266,526	1,131	-0,077	-0,040
-265,511	554,112	0,108	-0,191
-264,497	-200,000	0,026	-0,099
-263,482	-200,000	-0,037	0,149
-262,467	800,000	-0,017	0,049
-261,453	116,937	-0,097	0,087
-260,438	-110,465	-0,046	0,007
-259,424	756,728	-0,019	0,037
-258,409	-138,553	0,090	-0,007
-257,395	178,701	0,075	0,080
-256,380	-200,000	-0,012	0,058
-255,365	800,000	0,053	0,133
-254,351	-200,000	0,037	-0,174
-253,336	-96,576	-0,122	0,023
-252,322	418,359	0,019	-0,030
-251,307	7,894	-0,070	-0,038
-250,292	-200,000	-0,006	-0,108
-249,278	218,511	0,090	0,106
-248,263	800,000	0,036	0,092
-247,249	-162,367	-0,034	0,001
-246,234	-43,157	-0,098	-0,036
-245,219	205,273	-0,062	-0,071
-244,205	800,000	0,019	0,050
-243,190	800,000	0,043	0,115
-242,176	759,954	0,034	-0,068
-241,161	-200,000	0,007	-0,105
-240,146	378,961	-0,051	-0,077
-239,132	-200,000	-0,012	-0,107
-238,117	-130,964	0,024	0,002
-237,103	54,545	-0,045	-0,031
-236,088	162,821	0,140	-0,144
-235,073	182,305	-0,042	-0,046
-234,059	-200,000	-0,015	0,108
-233,044	58,081	0,121	0,086
-232,030	-200,000	0,003	0,036
-231,015	331,792	-0,045	0,063
-230,000	355,186	-0,107	-0,156
-228,986	-20,093	-0,083	-0,037
-227,971	-30,845	0,171	0,070
-226,957	367,529	-0,020	0,029
-225,942	800,000	0,023	0,054
-224,927	-37,808	-0,050	-0,019
-223,913	-167,321	-0,044	0,001
-222,898	-200,000	0,010	-0,096
-221,884	-200,000	-0,004	0,065
-220,869	2,021	0,099	0,052
-219,855	-200,000	-0,030	-0,159
-218,840	-55,563	0,064	0,021
-217,825	32,490	-0,070	-0,044
-216,811	189,757	0,046	-0,050
-215,796	475,687	0,041	-0,068
-214,782	800,000	-0,042	-0,086
-213,767	-200,000	0,028	-0,118
-212,752	-200,000	0,002	-0,016
-211,738	-200,000	-0,003	0,052
-210,723	301,030	0,122	-0,164
-209,709	-200,000	-0,023	-0,194
-208,694	-200,000	-0,011	-0,154
-207,679	172,267	0,066	-0,069
-206,665	-6,612	-0,026	0,013
-205,650	-157,387	0,148	-0,006
-204,636	312,413	0,043	0,059
-203,621	-200,000	0,032	0,139
-202,606	-200,000	0,029	-0,137
-201,592	523,642	-0,074	0,127
-200,577	-52,080	-0,058	-0,020
-199,563	-109,968	-0,118	-0,018
-198,548	-200,000	-0,004	0,090
-197,533	394,416	0,020	-0,030
-196,519	800,000	-0,074	-0,186
-195,504	-200,000	0,015	0,084
-194,490	800,000	-0,040	0,105
-193,475	-31,031	-0,115	-0,047
-192,460	800,000	0,017	-0,038
-191,446	-16,376	0,035	-0,016
-190,431	156,486	-0,071	0,072
-189,417	800,000	0,022	0,052
-188,402	800,000	-0,038	-0,093
-187,387	800,000	-0,002	-0,006
-186,373	-28,334	0,052	-0,022
-185,358	-30,263	-0,094	0,039
-184,344	30,511	-0,104	0,064
-183,329	460,340	0,025	-0,041
-182,315	271,939	-0,102	0,131
-181,300	151,509	-0,042	-0,041
-180,285	-200,000	0,003	-0,115
-179,271	-124,417	-0,049	-0,006
-178,256	-200,000	0,013	-0,045
-177,242	800,000	0,018	-0,041
-176,227	-117,843	0,029	0,004
-175,212	-176,709	0,061	-0,001
-174,198	-111,799	-0,116	0,017
-173,183	-167,163	-0,109	-0,003
-172,169	800,000	-0,070	0,194
-171,154	113,936	-0,061	-0,054
-170,139	352,793	-0,046	0,066
-169,125	-162,706	0,143	-0,005
-168,110	-200,000	0,003	0,114
-167,096	554,771	0,029	-0,050
-166,081	256,085	0,046	0,058
-165,066	474,647	-0,025	-0,041
-164,052	800,000	-0,016	-0,038
-163,037	-102,365	-0,077	0,013
-162,023	-200,000	0,012	0,095
-161,008	-200,000	-0,012	0,085
-159,993	33,581	-0,076	0,048
-158,979	-163,575	-0,103	-0,003
-157,964	-92,575	-0,120	0,024
-156,950	800,000	0,038	-0,080
-155,935	-200,000	-0,013	0,087
-154,920	389,394	0,007	-0,011
-153,906	176,385	0,059	-0,062
-152,891	-44,174	-0,074	0,027
-151,877	264,644	0,053	-0,068
-150,862	-90,431	-0,035	0,007
-149,847	-118,139	0,029	-0,004
-148,833	44,246	-0,116	0,078
-147,818	-84,063	-0,033	0,008
-146,804	800,000	0,033	0,096
-145,789	-100,419	-0,082	0,015
-144,775	800,000	-0,006	-0,020
-143,760	800,000	0,023	0,048
-142,745	800,000	-0,039	-0,094
-141,731	-200,000	-0,020	0,095
-140,716	384,112	0,104	0,156
-139,702	43,782	-0,080	-0,053
-138,687	800,000	-0,025	0,055
-137,672	-53,722	-0,038	0,013
-136,658	64,813	0,043	0,031
-135,643	800,000	0,025	-0,079
-134,629	69,681	-0,021	-0,016
-133,614	-55,811	0,071	-0,023
-132,599	13,806	0,086	0,049
-131,585	-200,000	0,024	-0,078
-130,570	-200,000	-0,038	0,126
-129,556	-50,953	0,052	0,018
-128,541	111,626	-0,071	-0,062
-127,526	541,047	0,069	-0,120
-126,512	47,831	0,080	0,054
-125,497	-200,000	-0,002	0,096
-124,483	-72,941	0,036	0,009
-123,468	25,148	-0,117	-0,071
-122,453	-152,680	-0,012	0,001
-121,439	-15,022	-0,104	0,048
-120,424	-200,000	0,003	-0,010
-119,410	156,690	0,039	-0,039
