DTS Sentinel unit serial number:	SN410029Multiplexer serial number:	ORYXHardware model number:	OX2-SRSoftware version number:	ORYX F/W v4,00 Oryx Data Collector v3.7.2.0data status	okinstallation	B4 Nyhavnadifferential loss correction	single-endedforward channel	channel 2reverse channel	N/Adate	2023/12/18time	20:50:13forward acquisition time	300,00reverse acquisition time	0,00gamma	499,1914k internal	0,3124k external	0,3124temperature offset calibration	1,0000default loss term (dB/km)	0,3820temperature slope calibration	1,0000multiplexer offset coefficient	1,0000multiplexer slope coefficient	1,0000fibre end	0,00T internal ref (°C)	21,85T ext. ref 1 (°C)	7,05T ext. ref 2 (°C)	6,97length (m)	temperature (°C)	Stokes	anti-Stokes-744,400	182,514	0,003	-0,003
-743,385	17,015	-0,273	0,161
-742,371	38,153	0,120	0,079
-741,356	560,948	-0,105	0,190
-740,342	113,046	-0,080	0,072
-739,327	243,755	-0,215	0,270
-738,312	800,000	-0,065	-0,208
-737,298	-115,677	-0,336	0,046
-736,283	800,000	-0,059	-0,143
-735,269	427,491	-0,166	0,268
-734,254	44,963	0,135	-0,093
-733,239	-31,640	-0,326	-0,136
-732,225	133,517	-0,016	-0,015
-731,210	517,684	0,065	-0,114
-730,196	800,000	-0,019	0,047
-729,181	363,836	-0,083	-0,125
-728,167	243,727	0,036	0,045
-727,152	-145,038	-0,067	-0,004
-726,137	-200,000	0,010	0,065
-725,123	124,996	0,037	0,034
-724,108	132,902	-0,071	-0,068
-723,094	84,164	-0,056	-0,045
-722,079	274,007	-0,045	-0,060
-721,064	-200,000	-0,009	-0,095
-720,050	-200,000	-0,011	-0,065
-719,035	575,014	0,011	0,021
-718,021	-200,000	0,004	0,075
-717,006	47,083	-0,093	-0,064
-715,991	-25,284	-0,096	-0,042
-714,977	133,124	0,051	-0,049
-713,962	-200,000	-0,017	0,104
-712,948	-86,506	-0,105	-0,024
-711,933	17,559	-0,029	0,017
-710,918	-200,000	0,010	-0,081
-709,904	140,496	-0,129	-0,127
-708,889	-9,271	0,043	-0,021
-707,875	490,027	-0,010	0,018
-706,860	-19,414	0,058	-0,027
-705,845	497,366	0,020	0,035
-704,831	-200,000	-0,009	0,077
-703,816	139,032	0,115	0,112
-702,802	-17,834	-0,069	0,032
-701,787	800,000	-0,041	-0,130
-700,772	28,423	0,087	-0,055
-699,758	-151,545	0,056	-0,003
-698,743	-159,426	0,145	0,006
-697,729	-200,000	0,007	0,031
-696,714	800,000	0,049	-0,108
-695,699	-102,786	-0,084	0,015
-694,685	-59,536	-0,137	0,044
-693,670	167,402	-0,084	-0,089
-692,656	-54,842	-0,080	-0,027
-691,641	387,930	0,051	0,079
-690,627	186,727	0,064	-0,071
-689,612	650,264	-0,022	-0,042
-688,597	-200,000	0,027	0,125
-687,583	-43,984	-0,126	-0,047
-686,568	57,689	-0,118	-0,085
-685,554	-200,000	-0,005	0,070
-684,539	800,000	0,021	0,051
-683,524	-200,000	-0,037	-0,129
-682,510	-200,000	0,028	0,104
-681,495	16,276	-0,097	-0,057
-680,481	800,000	-0,016	0,043
-679,466	361,370	-0,109	-0,163
-678,451	-200,000	0,030	-0,105
-677,437	-38,617	0,123	-0,048
-676,422	-200,000	0,014	0,125
-675,408	-200,000	-0,034	0,193
-674,393	334,408	0,029	0,041
-673,378	800,000	-0,076	-0,157
-672,364	-29,629	-0,078	0,033
-671,349	-73,039	0,035	0,009
-670,335	31,785	-0,132	0,084
-669,320	-22,414	-0,100	0,045
-668,305	63,792	-0,060	0,045
-667,291	-4,963	-0,053	-0,027
-666,276	753,155	0,010	-0,021
-665,262	-119,370	-0,070	0,009
-664,247	41,779	-0,085	-0,057
-663,232	-200,000	0,011	0,066
-662,218	800,000	-0,044	0,093
-661,203	-200,000	-0,020	-0,108
-660,189	-91,868	-0,196	-0,041
-659,174	-135,945	0,090	0,008
-658,159	800,000	0,042	-0,114
-657,145	459,502	0,058	-0,097
-656,130	-86,598	0,092	0,021
-655,116	50,892	0,099	0,070
-654,101	-11,031	0,081	-0,039
-653,086	138,352	-0,070	-0,068
-652,072	800,000	-0,061	-0,160
-651,057	-200,000	-0,010	-0,093
-650,043	711,596	0,023	-0,046
-649,028	70,830	0,043	0,033
-648,014	-63,620	0,139	-0,042
-646,999	-200,000	-0,029	-0,120
-645,984	54,546	-0,069	-0,050
-644,970	527,407	-0,036	-0,064
-643,955	409,650	-0,126	-0,199
-642,941	-15,832	-0,082	-0,039
-641,926	198,577	-0,060	-0,068
-640,911	-200,000	0,020	-0,127
-639,897	358,080	0,055	0,082
-638,882	411,602	-0,055	0,087
-637,868	574,051	0,051	0,092
-636,853	-31,838	0,028	0,011
-635,838	800,000	-0,039	-0,089
-634,824	346,389	-0,161	-0,236
-633,809	800,000	-0,028	0,063
-632,795	6,205	-0,079	0,043
-631,780	-200,000	-0,025	0,085
-630,765	-200,000	0,002	0,088
-629,751	-120,978	-0,106	-0,013
-628,736	121,812	-0,099	-0,092
-627,722	13,521	0,176	-0,101
-626,707	237,671	-0,096	0,118
-625,692	800,000	-0,036	0,092
-624,678	-200,000	0,019	0,097
-623,663	-200,000	0,028	0,137
-622,649	-200,000	0,005	-0,140
-621,634	-36,415	-0,115	-0,046
-620,619	71,678	0,025	-0,019
-619,605	409,959	0,074	0,117
-618,590	-25,858	0,099	0,043
-617,576	-200,000	0,001	0,019
-616,561	371,889	-0,064	-0,096
-615,546	-15,576	-0,065	0,031
-614,532	177,629	-0,109	-0,118
-613,517	2,708	-0,105	-0,057
-612,503	28,565	0,072	0,045
-611,488	800,000	0,034	0,089
-610,474	789,248	0,021	-0,044
-609,459	-12,439	0,042	-0,020
-608,444	-30,286	0,106	-0,045
-607,430	-114,365	-0,069	0,010
-606,415	597,490	-0,051	-0,093
-605,401	-53,051	-0,058	-0,020
-604,386	64,122	0,103	0,077
-603,371	-82,029	0,112	-0,027
-602,357	-200,000	-0,018	-0,077
-601,342	319,673	0,044	0,062
-600,328	-200,000	-0,013	0,089
-599,313	228,835	0,060	-0,072
-598,298	-121,184	0,039	0,005
-597,284	-62,988	0,059	0,018
-596,269	126,273	-0,019	-0,018
-595,255	-200,000	-0,002	-0,028
-594,240	17,979	-0,089	-0,052
-593,225	800,000	-0,049	-0,111
-592,211	-133,891	-0,089	-0,008
-591,196	18,206	-0,033	0,020
-590,182	214,492	-0,027	0,031
-589,167	800,000	0,029	0,081
-588,152	-46,487	0,048	0,017
-587,138	-200,000	0,018	0,073
-586,123	-39,759	-0,182	0,070
-585,109	85,434	-0,110	0,090
-584,094	264,866	-0,056	0,072
-583,079	358,334	0,050	-0,074
-582,065	405,287	0,023	0,037
-581,050	197,437	-0,045	0,051
-580,036	-101,142	0,052	0,009
-579,021	-200,000	-0,008	-0,070
-578,006	-200,000	0,005	-0,041
-576,992	88,439	-0,061	-0,050
-575,977	800,000	-0,024	-0,074
-574,963	282,314	-0,042	-0,056
-573,948	-26,646	-0,146	-0,063
-572,934	-99,753	-0,130	-0,024
-571,919	104,278	0,118	-0,103
-570,904	800,000	0,074	-0,182
-569,890	-200,000	0,011	-0,074
-568,875	-173,599	-0,052	-0,001
-567,861	282,614	-0,036	-0,048
-566,846	-79,318	0,093	0,023
-565,831	175,246	-0,076	0,081
-564,817	467,138	-0,066	0,110
-563,802	-3,574	0,038	0,020
-562,788	800,000	0,050	-0,114
-561,773	800,000	0,022	-0,067
-560,758	-200,000	0,027	0,168
-559,744	800,000	-0,060	0,147
-558,729	228,775	-0,087	-0,105
-557,715	79,158	0,041	-0,033
-556,700	94,003	0,086	-0,072
-555,685	131,855	-0,042	0,040
-554,671	800,000	0,068	0,172
-553,656	-89,847	-0,064	-0,014
-552,642	-200,000	0,001	0,053
-551,627	800,000	-0,019	0,040
-550,612	-37,647	0,010	-0,004
-549,598	-200,000	-0,001	0,084
-548,583	46,026	0,029	-0,020
-547,569	-124,193	0,106	-0,012
-546,554	97,213	0,052	0,044
-545,539	448,439	-0,052	-0,084
-544,525	-200,000	-0,010	0,070
-543,510	-47,138	0,107	0,038
-542,496	-200,000	-0,028	-0,096
-541,481	-182,643	0,043	-0,001
-540,466	-200,000	-0,022	0,090
-539,452	800,000	-0,022	-0,048
-538,437	95,461	0,167	0,140
-537,423	-200,000	-0,019	0,068
-536,408	-38,420	-0,062	-0,024
-535,393	-200,000	-0,021	-0,096
-534,379	169,432	0,046	-0,049
-533,364	800,000	-0,063	-0,154
-532,350	-200,000	-0,005	0,068
-531,335	-24,831	0,066	-0,029
-530,321	-200,000	-0,008	-0,042
-529,306	-133,330	-0,070	-0,006
-528,291	543,765	-0,029	-0,052
-527,277	-97,303	-0,096	-0,018
-526,262	-200,000	0,003	-0,060
-525,248	94,181	-0,038	0,032
-524,233	-200,000	0,004	-0,038
-523,218	43,030	0,203	0,137
-522,204	-200,000	-0,006	0,058
-521,189	800,000	-0,040	-0,119
-520,175	499,260	0,030	-0,051
-519,160	16,030	-0,097	-0,056
-518,145	800,000	0,028	-0,069
-517,131	-12,995	0,117	0,056
-516,116	340,012	-0,038	-0,055
-515,102	-23,106	0,168	0,075
-514,087	205,610	0,046	-0,052
-513,072	516,958	0,043	-0,074
-512,058	800,000	-0,040	-0,088
-511,043	-83,216	0,050	-0,012
-510,029	99,489	0,126	0,107
-509,014	-200,000	-0,038	0,127
-507,999	800,000	-0,013	-0,039
-506,985	-200,000	-0,014	-0,156
-505,970	-1,279	-0,132	0,069
-504,956	-1,490	0,153	-0,079
-503,941	-200,000	-0,034	0,141
-502,926	-50,562	0,073	0,025
-501,912	-111,442	0,111	0,016
-500,897	354,739	0,089	-0,131
-499,883	-100,621	-0,123	-0,022
-498,868	110,764	0,041	0,037
-497,853	67,846	-0,062	-0,047
-496,839	800,000	-0,068	0,157
-495,824	-79,133	-0,173	0,043
-494,810	32,270	-0,033	0,021
-493,795	60,096	0,111	-0,081
-492,781	800,000	-0,060	-0,138
-491,766	270,447	-0,153	-0,199
-490,751	-159,092	0,043	-0,002
-489,737	206,827	0,037	-0,043
-488,722	172,429	0,121	0,129
-487,708	800,000	0,039	0,089
-486,693	295,132	-0,025	-0,033
-485,678	269,917	0,040	0,052
-484,664	65,773	-0,103	0,077
-483,649	-200,000	-0,020	-0,087
-482,635	-119,912	0,082	-0,010
-481,620	-200,000	0,002	-0,095
-480,605	-84,606	-0,132	-0,030
-479,591	-200,000	0,004	-0,083
-478,576	-130,312	-0,051	0,005
-477,562	-200,000	-0,004	0,090
-476,547	-200,000	0,005	-0,069
-475,532	-200,000	0,008	0,056
-474,518	-200,000	0,020	-0,107
-473,503	-114,892	0,120	0,017
-472,489	-48,764	0,081	0,028
-471,474	-16,239	-0,041	-0,019
-470,459	-77,809	-0,046	0,012
-469,445	800,000	-0,050	-0,125
-468,430	561,110	0,026	0,047
-467,416	7,666	-0,097	0,054
-466,401	800,000	-0,065	0,170
-465,386	202,370	0,106	0,120
-464,372	-55,938	-0,056	0,018
-463,357	800,000	-0,022	0,061
-462,343	-200,000	0,005	0,030
-461,328	-200,000	-0,010	0,035
-460,313	-200,000	-0,037	0,148
-459,299	-20,122	-0,111	-0,050
-458,284	-200,000	-0,029	-0,146
-457,270	-22,886	0,109	-0,048
-456,255	-200,000	-0,013	-0,087
-455,241	-200,000	-0,016	-0,061
-454,226	-136,812	-0,174	0,015
-453,211	468,516	0,105	0,175
-452,197	430,097	-0,056	-0,089
-451,182	-151,554	0,075	-0,004
-450,168	32,395	0,055	0,035
-449,153	1,896	0,121	-0,064
-448,138	512,877	-0,117	-0,202
-447,124	-34,528	0,021	-0,008
-446,109	-56,371	0,084	-0,027
-445,095	349,845	0,048	0,070
-444,080	-200,000	-0,023	0,116
-443,065	-117,734	-0,092	0,012
-442,051	7,148	-0,028	0,016
-441,036	239,398	-0,042	-0,051
-440,022	800,000	0,051	-0,139
-439,007	-200,000	-0,003	-0,178
-437,992	200,114	0,009	-0,010
-436,978	118,195	0,055	-0,050
-435,963	270,479	-0,099	0,129
-434,949	-44,879	-0,091	-0,033
-433,934	-200,000	0,007	-0,041
-432,919	183,626	-0,076	-0,082
-431,905	386,467	0,054	0,082
-430,890	-96,693	-0,010	0,002
-429,876	800,000	-0,009	-0,021
-428,861	-200,000	0,010	0,063
-427,846	-200,000	-0,018	0,088
-426,832	-200,000	0,035	-0,115
-425,817	-200,000	0,019	-0,073
-424,803	-16,938	0,103	0,048
-423,788	-12,805	0,072	0,035
-422,773	210,418	-0,065	-0,075
-421,759	-200,000	-0,015	0,125
-420,744	-68,361	0,175	-0,050
-419,730	-112,278	-0,056	0,008
-418,715	571,085	-0,050	-0,089
-417,701	-133,492	0,078	0,007
-416,686	-98,037	0,023	-0,004
-415,671	-52,412	0,091	-0,031
-414,657	652,236	-0,053	0,100
-413,642	-200,000	0,023	0,086
-412,628	-200,000	0,005	0,047
-411,613	277,774	0,079	0,104
-410,598	241,515	0,034	-0,041
-409,584	800,000	0,007	0,015
-408,569	-46,915	0,073	0,026
-407,555	-102,915	-0,038	0,007
-406,540	-133,937	-0,028	-0,003
-405,525	64,350	-0,028	-0,021
-404,511	6,468	-0,169	-0,092
-403,496	211,833	-0,038	-0,044
-402,482	-200,000	-0,026	-0,134
-401,467	-200,000	-0,004	0,110
-400,452	-73,814	-0,112	0,030
-399,438	653,829	0,031	0,059
-398,423	526,519	-0,003	-0,006
-397,409	126,201	-0,019	-0,018
-396,394	-59,624	0,110	-0,034
-395,379	-200,000	-0,004	-0,020
-394,365	65,493	0,046	-0,034
-393,350	800,000	0,036	0,110
-392,336	-200,000	0,012	0,083
-391,321	-187,041	-0,118	0,001
-390,306	-25,933	-0,109	0,047
-389,292	800,000	-0,023	-0,061
-388,277	800,000	0,008	-0,017
-387,263	800,000	0,055	-0,137
-386,248	-31,813	-0,047	-0,019
-385,233	129,397	0,034	-0,032
-384,219	2,191	0,087	-0,046
-383,204	82,307	-0,050	-0,040
-382,190	-69,659	0,064	-0,018
-381,175	297,568	0,064	-0,086
-380,160	-155,161	-0,116	0,005
-379,146	800,000	-0,016	-0,037
-378,131	-200,000	-0,026	0,234
-377,117	800,000	0,049	-0,149
-376,102	46,092	-0,016	0,011
-375,088	455,376	-0,055	0,090
-374,073	25,298	-0,099	0,060
-373,058	328,823	0,060	0,085
-372,044	-200,000	0,004	-0,068
-371,029	800,000	-0,034	-0,076
-370,015	800,000	0,033	-0,094
-369,000	-200,000	0,002	-0,117
-367,985	149,473	0,044	-0,044
-366,971	-65,050	0,084	0,025
-365,956	-200,000	0,032	-0,118
-364,942	69,345	-0,111	0,084
-363,927	-21,563	0,057	0,025
-362,912	379,748	-0,082	-0,124
-361,898	196,026	-0,068	0,076
-360,883	-80,622	0,050	-0,012
-359,869	297,441	0,033	-0,045
-358,854	-51,760	0,080	0,027
-357,839	379,138	-0,057	0,087
-356,825	-92,513	-0,090	-0,018
-355,810	-200,000	-0,007	-0,025
-354,796	-200,000	-0,028	0,107
-353,781	234,364	-0,008	0,009
-352,766	629,689	-0,134	0,249
-351,752	-200,000	0,041	0,139
-350,737	-96,107	0,196	0,038
-349,723	192,458	0,107	0,119
-348,708	144,370	-0,091	0,089
-347,693	633,550	-0,028	-0,053
-346,679	63,571	0,059	0,043
-345,664	800,000	0,035	0,097
-344,650	-22,418	0,085	-0,038
-343,635	754,604	0,051	0,103
-342,620	-94,422	0,139	0,028
-341,606	-105,620	0,130	0,021
-340,591	-200,000	-0,000	-0,007
-339,577	141,947	0,044	-0,043
-338,562	-52,643	-0,032	0,011
-337,548	800,000	0,022	0,049
-336,533	85,199	0,030	-0,024
-335,518	107,251	-0,058	0,051
-334,504	-78,353	-0,058	-0,014
-333,489	215,784	-0,053	-0,062
-332,475	401,221	-0,019	-0,030
-331,460	13,410	-0,031	0,018
-330,445	85,470	-0,058	-0,047
-329,431	-62,335	-0,150	-0,046
-328,416	116,111	0,005	-0,004
-327,402	-9,365	-0,074	0,036
-326,387	200,122	-0,045	0,051
-325,372	-26,384	-0,074	0,032
-324,358	231,093	-0,024	-0,029
-323,343	-142,631	0,106	0,008
-322,329	-156,994	-0,052	-0,002
-321,314	-200,000	-0,024	-0,079
-320,299	179,083	0,079	0,084
-319,285	-96,683	-0,064	0,012
-318,270	-95,034	0,038	-0,007
-317,256	-143,896	0,039	-0,003
-316,241	41,778	0,117	-0,078
-315,226	-10,778	-0,039	0,019
-314,212	-200,000	0,022	0,085
-313,197	26,918	0,134	0,082
-312,183	-36,392	-0,076	-0,030
-311,168	-103,111	-0,103	-0,018
-310,153	-200,000	-0,022	-0,256
-309,139	109,280	0,066	-0,058
-308,124	24,544	-0,021	-0,012
-307,110	-200,000	0,007	0,102
-306,095	-200,000	-0,002	-0,138
-305,080	800,000	-0,060	0,156
-304,066	692,587	0,029	-0,055
-303,051	39,818	-0,068	0,044
-302,037	-49,748	-0,056	0,019
-301,022	3,901	0,072	0,038
-300,008	157,572	0,075	0,076
-298,993	139,480	0,082	0,079
-297,978	118,038	-0,028	-0,025
-296,964	496,601	-0,052	0,088
-295,949	190,407	-0,064	0,071
-294,935	-200,000	0,014	0,099
-293,920	-200,000	0,011	0,037
-292,905	153,215	0,088	0,088
-291,891	800,000	0,078	0,202
-290,876	-200,000	0,005	0,040
-289,862	61,194	-0,062	0,045
-288,847	-78,334	-0,054	0,013
-287,832	227,908	0,038	-0,045
-286,818	800,000	-0,085	0,198
-285,803	-200,000	0,028	0,138
-284,789	432,209	0,078	0,124
-283,774	640,181	0,074	-0,138
-282,759	143,345	0,029	0,029
-281,745	289,591	0,070	-0,093
-280,730	73,080	0,059	0,045
-279,716	9,277	-0,015	-0,008
-278,701	-163,522	0,157	-0,005
-277,686	313,520	0,030	0,041
-276,672	-200,000	0,008	-0,044
-275,657	202,323	0,025	0,028
-274,643	-200,000	-0,012	-0,157
-273,628	800,000	-0,046	-0,099
-272,613	-94,727	0,063	-0,012
-271,599	-200,000	-0,014	0,051
-270,584	37,526	-0,026	0,017
-269,570	564,182	-0,005	0,010
-268,555	-159,820	-0,067	-0,003
-267,540	36,073	0,092	0,059
-266,526	-70,321	-0,103	0,028
-265,511	-200,000	0,000	-0,050
-264,497	-20,604	-0,027	-0,012
-263,482	-200,000	-0,001	0,010
-262,467	92,907	0,117	-0,097
-261,453	-159,145	-0,066	0,003
-260,438	800,000	-0,042	0,133
-259,424	-200,000	-0,021	-0,083
-258,409	110,880	0,087	0,077
-257,395	526,534	0,066	0,115
-256,380	-200,000	0,019	0,140
-255,365	-200,000	0,045	0,228
-254,351	-98,002	0,073	0,014
-253,336	-139,564	-0,071	0,005
-252,322	-0,639	-0,065	-0,034
-251,307	-200,000	-0,010	-0,043
-250,292	800,000	0,053	-0,113
-249,278	31,028	0,062	0,039
-248,263	-200,000	-0,002	0,065
-247,249	-200,000	0,001	0,017
-246,234	-13,172	0,083	-0,039
-245,219	356,618	-0,023	0,034
-244,205	-200,000	0,007	0,059
-243,190	440,873	0,021	-0,034
-242,176	418,083	-0,028	0,043
-241,161	800,000	0,064	0,153
-240,146	91,858	-0,081	0,066
-239,132	280,783	0,059	0,077
-238,117	559,012	0,040	-0,071
-237,103	138,242	-0,074	-0,071
-236,088	382,950	-0,045	-0,068
-235,073	-78,310	0,065	-0,016
-234,059	-150,384	-0,079	-0,004
-233,044	-200,000	-0,004	0,025
-232,030	800,000	-0,034	-0,070
-231,015	800,000	-0,042	-0,110
-230,000	174,248	0,027	-0,028
-228,986	-20,442	0,057	-0,025
-227,971	219,140	0,031	0,036
-226,957	798,777	0,070	0,142
-225,942	463,535	0,039	0,064
-224,927	-56,045	-0,175	-0,057
-223,913	-99,984	0,028	0,005
-222,898	-200,000	-0,008	-0,090
-221,884	131,135	-0,049	0,046
-220,869	154,999	0,121	0,122
-219,855	249,829	-0,076	0,094
-218,840	262,530	0,062	-0,079
-217,825	-32,057	-0,122	-0,050
-216,811	-174,320	-0,059	-0,001
-215,796	-200,000	0,017	-0,080
-214,782	52,471	0,028	0,019
-213,767	-200,000	-0,003	-0,058
-212,752	-143,348	-0,064	0,004
-211,738	-54,812	0,086	0,028
-210,723	-124,596	0,132	0,015
-209,709	159,830	0,118	-0,120
-208,694	-200,000	-0,004	0,034
-207,679	252,796	0,028	0,035
-206,665	-166,373	0,166	-0,005
-205,650	306,239	-0,033	0,044
-204,636	-68,919	0,116	-0,032
-203,621	-200,000	-0,005	0,026
-202,606	8,797	-0,042	0,023
-201,592	-66,239	-0,107	-0,031
-200,577	-200,000	-0,004	-0,036
-199,563	176,337	0,128	-0,135
-198,548	-47,855	0,070	0,024
-197,533	214,755	0,053	-0,062
-196,519	-200,000	0,046	0,181
-195,504	118,435	-0,016	-0,015
-194,490	-200,000	0,000	-0,056
-193,475	-200,000	-0,017	-0,062
-192,460	-13,364	0,019	0,009
-191,446	800,000	0,095	-0,227
-190,431	-200,000	0,010	-0,038
-189,417	101,415	0,046	0,039
-188,402	-200,000	-0,022	-0,075
-187,387	-3,906	-0,119	-0,060
-186,373	15,575	-0,082	0,047
-185,358	330,298	0,043	-0,060
-184,344	57,111	0,090	-0,064
-183,329	241,528	0,086	0,105
-182,315	-58,486	-0,081	0,025
-181,300	44,358	-0,058	0,038
-180,285	-200,000	-0,002	0,015
-179,271	230,132	-0,105	-0,125
-178,256	-169,490	0,012	0,000
-177,242	800,000	-0,019	-0,054
-176,227	36,296	-0,091	0,059
-175,212	-200,000	0,020	0,080
-174,198	-57,293	-0,024	-0,008
-173,183	-200,000	-0,019	-0,194
-172,169	89,736	-0,093	-0,075
-171,154	91,780	0,011	-0,009
-170,139	-200,000	0,006	-0,028
-169,125	101,618	0,120	0,102
-168,110	215,185	-0,100	0,115
-167,096	-81,299	-0,074	-0,018
-166,081	-6,459	-0,137	0,068
-165,066	-90,343	0,105	-0,022
-164,052	156,935	0,051	-0,052
-163,037	800,000	-0,042	0,121
-162,023	12,954	0,031	0,018
-161,008	-184,904	-0,111	0,001
-159,993	-200,000	-0,011	0,069
-158,979	800,000	-0,022	-0,053
-157,964	22,508	0,133	-0,079
-156,950	486,526	-0,054	-0,090
-155,935	75,726	0,048	0,037
-154,920	800,000	0,035	-0,110
-153,906	136,196	-0,049	0,046
-152,891	-110,398	-0,096	-0,014
-151,877	-200,000	0,009	-0,059
-150,862	110,196	-0,131	0,114
-149,847	104,069	0,021	0,018
-148,833	-200,000	0,007	0,103
-147,818	-16,597	0,059	-0,027
-146,804	-132,998	0,101	-0,009
-145,789	-95,972	0,072	0,014
-144,775	-144,461	-0,058	-0,004
-143,760	-58,268	-0,086	0,027
-142,745	-114,890	-0,020	-0,003
-141,731	316,533	-0,036	0,050
-140,716	18,073	0,013	0,007
-139,702	328,992	-0,062	-0,086
-138,687	-143,595	0,069	-0,005
-137,672	800,000	-0,030	0,081
-136,658	-200,000	-0,011	0,116
-135,643	112,122	-0,094	0,082
-134,629	800,000	-0,019	0,053
-133,614	800,000	-0,019	0,049
-132,599	378,973	-0,025	0,038
-131,585	-200,000	0,029	-0,221
-130,570	-4,153	0,065	0,032
-129,556	-39,342	-0,087	0,033
-128,541	747,124	-0,013	-0,026
-127,526	800,000	-0,003	0,006
-126,512	54,193	0,015	-0,011
-125,497	169,848	0,036	-0,038
-124,483	-200,000	-0,036	-0,139
-123,468	-82,450	-0,069	0,016
-122,453	11,723	-0,109	-0,061
-121,439	358,156	0,071	-0,103
-120,424	16,524	-0,025	-0,015
-119,410	-191,825	0,081	-0,001
