DTS Sentinel unit serial number:	SN410029Multiplexer serial number:	ORYXHardware model number:	OX2-SRSoftware version number:	ORYX F/W v4,00 Oryx Data Collector v3.7.2.0data status	okinstallation	B4 Nyhavnadifferential loss correction	single-endedforward channel	channel 2reverse channel	N/Adate	2023/12/19time	12:45:14forward acquisition time	300,00reverse acquisition time	0,00gamma	499,1914k internal	0,3128k external	0,3128temperature offset calibration	1,0000default loss term (dB/km)	0,3820temperature slope calibration	1,0000multiplexer offset coefficient	1,0000multiplexer slope coefficient	1,0000fibre end	0,00T internal ref (°C)	19,51T ext. ref 1 (°C)	4,34T ext. ref 2 (°C)	4,30length (m)	temperature (°C)	Stokes	anti-Stokes-744,400	800,000	-0,028	-0,062
-743,385	81,039	-0,155	0,125
-742,371	-123,468	0,119	0,014
-741,356	-76,849	-0,202	0,052
-740,342	33,362	-0,034	0,022
-739,327	2,224	-0,247	0,133
-738,312	10,840	0,007	0,004
-737,298	24,457	-0,248	0,152
-736,283	451,419	0,038	-0,062
-735,269	53,198	-0,196	0,140
-734,254	-84,449	0,126	-0,029
-733,239	-12,772	-0,288	-0,139
-732,225	-3,368	0,155	0,080
-731,210	-200,000	0,001	-0,048
-730,196	-49,571	-0,125	-0,044
-729,181	722,687	-0,015	-0,029
-728,167	707,576	-0,057	-0,113
-727,152	-151,229	-0,068	-0,004
-726,137	-200,000	0,022	-0,191
-725,123	-48,753	-0,123	-0,044
-724,108	273,869	-0,148	-0,195
-723,094	-200,000	-0,012	0,085
-722,079	98,977	-0,046	-0,039
-721,064	38,087	-0,036	0,024
-720,050	-59,646	0,091	-0,029
-719,035	-3,890	-0,107	0,055
-718,021	714,082	-0,053	-0,104
-717,006	-200,000	-0,000	0,029
-715,991	465,675	-0,091	-0,151
-714,977	3,548	0,009	-0,005
-713,962	-156,893	-0,136	-0,006
-712,948	14,712	-0,065	-0,038
-711,933	-56,597	-0,021	0,007
-710,918	-41,660	0,069	0,026
-709,904	32,501	-0,032	0,021
-708,889	-106,643	-0,165	-0,027
-707,875	-72,580	-0,032	-0,009
-706,860	114,308	-0,050	-0,045
-705,845	-35,147	0,026	-0,011
-704,831	800,000	-0,025	-0,066
-703,816	-200,000	-0,010	-0,087
-702,802	81,922	-0,083	-0,067
-701,787	-15,231	-0,100	-0,047
-700,772	197,129	0,120	-0,137
-699,758	-165,780	-0,104	-0,003
-698,743	154,699	-0,092	0,094
-697,729	-113,790	0,096	0,014
-696,714	385,349	-0,076	0,118
-695,699	67,639	-0,135	-0,102
-694,685	501,435	-0,038	0,065
-693,670	800,000	0,016	-0,042
-692,656	-17,174	0,115	0,054
-691,641	121,422	-0,084	-0,078
-690,627	800,000	-0,024	-0,068
-689,612	-200,000	0,038	-0,145
-688,597	800,000	-0,014	-0,043
-687,583	-10,232	0,007	0,003
-686,568	-99,834	0,018	-0,003
-685,554	800,000	-0,020	0,054
-684,539	131,840	-0,055	0,053
-683,524	314,032	0,068	0,095
-682,510	-200,000	0,035	0,141
-681,495	81,518	0,057	-0,046
-680,481	27,333	-0,030	0,018
-679,466	-200,000	0,009	0,123
-678,451	-200,000	-0,009	-0,041
-677,437	-152,875	-0,038	-0,002
-676,422	168,798	0,031	0,033
-675,408	800,000	0,044	0,105
-674,393	-85,038	0,015	-0,003
-673,378	800,000	0,016	0,042
-672,364	-52,925	-0,192	0,065
-671,349	424,014	0,033	-0,053
-670,335	673,558	0,030	-0,058
-669,320	800,000	-0,038	0,087
-668,305	-200,000	0,008	-0,045
-667,291	687,497	0,058	-0,114
-666,276	-24,802	-0,029	-0,013
-665,262	800,000	-0,008	0,020
-664,247	-28,244	-0,096	-0,041
-663,232	-83,893	0,059	-0,014
-662,218	184,824	-0,014	-0,015
-661,203	800,000	0,041	-0,089
-660,189	-16,539	-0,069	-0,033
-659,174	-200,000	-0,012	0,068
-658,159	631,603	-0,032	-0,060
-657,145	-200,000	0,002	0,104
-656,130	-200,000	-0,015	0,052
-655,116	-200,000	0,039	-0,132
-654,101	239,127	-0,040	-0,049
-653,086	-200,000	0,005	0,048
-652,072	160,826	-0,094	-0,098
-651,057	628,863	0,032	-0,060
-650,043	800,000	-0,005	0,012
-649,028	-25,922	0,033	0,014
-648,014	-113,781	0,033	-0,005
-646,999	76,202	-0,091	0,071
-645,984	164,431	-0,030	-0,032
-644,970	-200,000	-0,015	-0,078
-643,955	-38,879	-0,179	-0,070
-642,941	-103,753	0,122	-0,021
-641,926	-152,488	-0,233	0,012
-640,911	36,055	-0,075	0,049
-639,897	-89,607	0,059	0,013
-638,882	800,000	-0,017	-0,043
-637,868	52,935	0,082	-0,058
-636,853	258,607	-0,091	0,117
-635,838	-142,801	-0,046	-0,003
-634,824	214,908	0,018	-0,021
-633,809	-108,944	0,135	0,021
-632,795	-23,725	0,182	-0,081
-631,780	21,831	-0,089	0,054
-630,765	-23,839	-0,142	-0,063
-629,751	657,363	0,045	-0,086
-628,736	-125,530	-0,195	0,022
-627,722	-100,680	-0,014	-0,003
-626,707	-200,000	-0,059	-0,209
-625,692	-20,606	0,058	0,026
-624,678	-139,965	-0,083	-0,006
-623,663	-57,356	0,079	0,026
-622,649	-126,839	-0,043	-0,005
-621,634	312,369	-0,086	-0,119
-620,619	-29,543	-0,080	-0,034
-619,605	336,580	0,062	-0,090
-618,590	473,947	-0,031	0,053
-617,576	-200,000	0,010	-0,042
-616,561	660,996	0,013	-0,024
-615,546	800,000	-0,024	0,054
-614,532	293,654	-0,064	-0,086
-613,517	80,032	-0,040	-0,032
-612,503	-200,000	0,007	0,090
-611,488	-35,274	0,039	-0,016
-610,474	43,545	-0,059	0,040
-609,459	-200,000	-0,007	0,145
-608,444	800,000	0,059	-0,148
-607,430	50,036	-0,058	-0,041
-606,415	36,684	-0,067	-0,044
-605,401	-200,000	-0,025	0,138
-604,386	800,000	-0,037	-0,106
-603,371	332,726	0,056	0,080
-602,357	-97,250	-0,033	0,006
-601,342	-200,000	-0,009	0,061
-600,328	70,394	-0,021	0,016
-599,313	708,387	-0,063	-0,124
-598,298	-200,000	-0,017	-0,134
-597,284	-133,392	0,093	-0,009
-596,269	-32,627	-0,076	-0,031
-595,255	-200,000	-0,053	0,195
-594,240	-200,000	0,039	0,151
-593,225	366,514	-0,065	-0,098
-592,211	-200,000	-0,010	0,038
-591,196	34,816	0,060	-0,039
-590,182	-200,000	0,000	-0,021
-589,167	-200,000	0,006	0,137
-588,152	-200,000	0,008	-0,052
-587,138	800,000	-0,054	0,111
-586,123	-41,349	-0,111	-0,042
-585,109	-139,614	0,180	0,014
-584,094	12,529	0,066	0,038
-583,079	512,111	0,067	0,116
-582,065	481,315	-0,017	0,028
-581,050	467,088	0,047	-0,079
-580,036	-200,000	0,002	0,112
-579,021	-200,000	-0,019	0,086
-578,006	-200,000	0,021	-0,138
-576,992	10,379	0,042	0,024
-575,977	334,904	-0,024	-0,034
-574,963	-176,551	-0,025	-0,000
-573,948	236,027	0,048	0,059
-572,934	-38,598	0,022	0,009
-571,919	258,970	-0,052	-0,066
-570,904	-51,323	-0,052	-0,018
-569,890	648,189	-0,099	-0,188
-568,875	-37,061	0,092	0,036
-567,861	-200,000	-0,020	0,103
-566,846	800,000	0,027	-0,080
-565,831	25,483	0,039	-0,024
-564,817	688,236	-0,051	-0,099
-563,802	454,700	0,015	0,025
-562,788	8,250	0,009	-0,005
-561,773	566,748	0,036	0,065
-560,758	718,310	0,016	-0,032
-559,744	91,242	0,098	0,081
-558,729	800,000	-0,018	0,054
-557,715	-200,000	-0,040	0,133
-556,700	236,898	-0,102	-0,125
-555,685	-5,422	-0,028	0,014
-554,671	800,000	0,031	-0,098
-553,656	-8,839	-0,115	-0,057
-552,642	-200,000	-0,010	0,051
-551,627	-92,093	-0,218	-0,045
-550,612	-200,000	0,001	-0,010
-549,598	800,000	0,019	-0,050
-548,583	99,140	0,087	0,074
-547,569	404,382	-0,052	-0,082
-546,554	56,724	0,093	0,067
-545,539	-55,210	-0,071	0,023
-544,525	-200,000	0,031	0,111
-543,510	-68,671	0,201	0,057
-542,496	137,192	-0,153	-0,148
-541,481	108,786	0,125	-0,110
-540,466	43,517	-0,116	0,078
-539,452	-1,185	0,121	-0,063
-538,437	21,128	-0,086	-0,051
-537,423	-200,000	-0,028	0,108
-536,408	15,200	0,047	0,027
-535,393	154,291	-0,040	0,041
-534,379	-96,203	-0,106	-0,021
-533,364	576,925	0,069	-0,125
-532,350	-46,431	0,098	-0,035
-531,335	-140,884	-0,089	0,007
-530,321	-32,397	-0,047	0,019
-529,306	741,291	0,034	0,067
-528,291	61,010	-0,110	0,081
-527,277	360,481	-0,045	-0,067
-526,262	267,892	0,085	-0,110
-525,248	-90,154	0,158	0,034
-524,233	496,261	-0,029	0,050
-523,218	-125,235	-0,022	0,002
-522,204	-200,000	-0,006	0,031
-521,189	-44,926	-0,151	-0,055
-520,175	793,739	0,036	0,073
-519,160	293,452	-0,053	0,071
-518,145	-200,000	0,008	-0,040
-517,131	-44,353	-0,062	0,023
-516,116	180,390	-0,062	-0,067
-515,102	-200,000	0,013	0,050
-514,087	149,216	-0,008	-0,008
-513,072	-44,464	-0,103	-0,038
-512,058	-200,000	0,004	0,043
-511,043	91,762	0,130	0,107
-510,029	212,305	0,098	0,115
-509,014	-200,000	-0,044	0,198
-507,999	92,049	-0,049	0,040
-506,985	9,748	-0,065	-0,036
-505,970	253,560	-0,026	0,032
-504,956	348,963	0,040	-0,058
-503,941	-200,000	0,116	0,000
-502,926	-41,930	-0,048	-0,018
-501,912	-200,000	-0,005	0,027
-500,897	-200,000	-0,007	0,064
-499,883	619,427	-0,027	-0,051
-498,868	-200,000	-0,025	0,094
-497,853	800,000	0,042	0,093
-496,839	-129,013	0,069	-0,007
-495,824	10,514	0,134	0,075
-494,810	46,382	0,043	-0,030
-493,795	248,800	0,027	0,033
-492,781	-93,770	0,050	-0,010
-491,766	-200,000	0,038	-0,131
-490,751	65,051	-0,005	-0,004
-489,737	-48,266	-0,014	0,005
-488,722	158,760	-0,048	-0,049
-487,708	-53,006	-0,089	0,030
-486,693	652,906	0,061	0,115
-485,678	-200,000	0,006	0,024
-484,664	-200,000	-0,003	0,049
-483,649	285,641	-0,070	-0,094
-482,635	9,138	0,063	-0,035
-481,620	112,273	-0,016	-0,014
-480,605	230,321	0,061	0,073
-479,591	12,020	-0,059	0,033
-478,576	800,000	0,018	-0,046
-477,562	-69,075	-0,043	-0,012
-476,547	-200,000	-0,006	-0,072
-475,532	65,930	-0,119	-0,089
-474,518	-200,000	-0,010	-0,072
-473,503	-200,000	-0,015	0,243
-472,489	685,384	0,050	0,096
-471,474	78,708	-0,075	0,059
-470,459	-200,000	-0,043	-0,175
-469,445	-200,000	-0,037	-0,142
-468,430	402,395	-0,056	0,087
-467,416	-200,000	0,004	0,081
-466,401	298,518	-0,068	0,093
-465,386	800,000	-0,014	-0,036
-464,372	-1,096	0,111	0,058
-463,357	5,061	0,052	-0,028
-462,343	-200,000	0,019	-0,113
-461,328	800,000	0,076	-0,163
-460,313	-200,000	-0,019	-0,132
-459,299	-200,000	0,012	0,044
-458,284	494,616	-0,042	0,071
-457,270	371,665	0,022	-0,033
-456,255	-1,166	-0,125	0,065
-455,241	-19,713	-0,121	-0,055
-454,226	800,000	-0,017	-0,038
-453,211	-96,654	0,168	-0,032
-452,197	-185,405	0,154	0,002
-451,182	-200,000	-0,005	-0,021
-450,168	37,407	0,079	-0,051
-449,153	-200,000	0,017	-0,073
-448,138	-46,751	-0,082	0,029
-447,124	-170,144	-0,107	-0,003
-446,109	-150,571	-0,137	-0,008
-445,095	-16,535	-0,042	0,020
-444,080	21,457	0,152	0,091
-443,065	200,513	0,040	-0,046
-442,051	73,078	-0,060	0,046
-441,036	-96,895	-0,037	-0,007
-440,022	130,138	-0,080	0,075
-439,007	143,016	-0,028	0,027
-437,992	55,725	0,078	0,056
-436,978	-200,000	0,001	-0,020
-435,963	-200,000	-0,006	-0,061
-434,949	-200,000	-0,017	0,079
-433,934	10,412	0,117	0,066
-432,919	33,092	0,089	-0,057
-431,905	-39,348	0,039	-0,015
-430,890	45,235	-0,096	-0,065
-429,876	213,257	0,020	-0,024
-428,861	-130,414	-0,048	0,005
-427,846	252,535	0,055	0,070
-426,832	-62,387	-0,156	-0,047
-425,817	-200,000	0,002	-0,078
-424,803	18,665	-0,049	0,029
-423,788	505,492	-0,084	0,143
-422,773	87,002	-0,039	-0,032
-421,759	-70,506	-0,049	-0,014
-420,744	800,000	-0,019	-0,052
-419,730	13,654	0,086	-0,049
-418,715	29,639	-0,095	-0,060
-417,701	-142,944	-0,167	-0,012
-416,686	133,858	-0,033	0,031
-415,671	800,000	0,020	0,064
-414,657	-133,706	0,026	0,002
-413,642	-200,000	-0,006	-0,019
-412,628	150,743	0,066	-0,066
-411,613	188,011	-0,043	-0,048
-410,598	-6,019	0,075	0,037
-409,584	-200,000	-0,009	-0,069
-408,569	-97,914	0,076	0,014
-407,555	-200,000	0,012	-0,074
-406,540	-200,000	-0,002	-0,061
-405,525	111,604	-0,013	-0,012
-404,511	800,000	0,006	-0,013
-403,496	5,242	-0,080	0,043
-402,482	226,835	0,027	0,032
-401,467	84,554	0,030	-0,024
-400,452	234,064	-0,034	0,042
-399,438	800,000	0,079	0,198
-398,423	-200,000	-0,013	0,095
-397,409	44,409	-0,093	-0,063
-396,394	508,627	0,033	-0,056
-395,379	-90,861	-0,051	0,011
-394,365	40,142	0,107	0,070
-393,350	94,403	0,111	0,092
-392,336	599,857	-0,009	0,017
-391,321	-175,176	0,061	-0,001
-390,306	-28,786	-0,157	-0,066
-389,292	-200,000	-0,001	-0,093
-388,277	-200,000	0,025	-0,116
-387,263	800,000	0,049	-0,119
-386,248	9,071	0,082	0,045
-385,233	462,857	-0,006	-0,009
-384,219	241,393	0,066	-0,082
-383,204	346,272	-0,061	-0,089
-382,190	33,352	0,112	-0,072
-381,175	-48,637	0,065	-0,023
-380,160	-200,000	-0,021	-0,120
-379,146	86,608	0,040	-0,032
-378,131	189,693	0,065	0,071
-377,117	800,000	0,047	0,115
-376,102	716,703	0,065	-0,127
-375,088	33,646	-0,068	0,043
-374,073	800,000	0,023	-0,073
-373,058	-123,860	-0,010	0,001
-372,044	-70,899	0,131	-0,036
-371,029	177,313	0,080	0,085
-370,015	-94,897	-0,104	-0,021
-369,000	-200,000	0,001	-0,322
-367,985	-142,718	0,071	-0,005
-366,971	-80,540	-0,138	-0,034
-365,956	102,076	0,073	0,062
-364,942	-200,000	-0,015	0,105
-363,927	2,971	0,035	0,018
-362,912	61,289	-0,067	0,048
-361,898	-89,163	0,046	0,010
-360,883	568,371	0,034	-0,060
-359,869	149,637	-0,047	0,046
-358,854	653,261	0,009	-0,018
-357,839	800,000	-0,042	0,101
-356,825	800,000	-0,016	0,044
-355,810	-6,064	-0,067	0,034
-354,796	590,260	0,019	0,034
-353,781	-200,000	-0,020	-0,068
-352,766	104,185	-0,019	0,016
-351,752	-6,159	0,008	0,004
-350,737	-31,675	0,156	-0,064
-349,723	-67,864	-0,012	-0,003
-348,708	-163,374	0,143	-0,005
-347,693	-7,848	-0,129	0,064
-346,679	270,332	-0,055	0,071
-345,664	-200,000	-0,012	-0,143
-344,650	-200,000	0,023	0,085
-343,635	40,128	0,193	0,127
-342,620	-79,084	0,126	0,031
-341,606	800,000	0,044	-0,102
-340,591	-200,000	0,019	-0,068
-339,577	800,000	0,034	-0,079
-338,562	-200,000	-0,013	-0,122
-337,548	-200,000	0,011	-0,091
-336,533	800,000	0,049	0,132
-335,518	45,754	0,116	-0,079
-334,504	-48,753	-0,067	-0,023
-333,489	-47,044	0,062	0,022
-332,475	668,901	-0,077	0,146
-331,460	-41,066	0,077	-0,029
-330,445	-200,000	-0,001	-0,028
-329,431	-67,104	0,059	0,017
-328,416	-200,000	-0,031	0,138
-327,402	-200,000	-0,031	-0,124
-326,387	-200,000	-0,019	-0,148
-325,372	183,433	0,065	-0,071
-324,358	-62,737	-0,135	-0,041
-323,343	500,615	0,038	-0,065
-322,329	96,083	0,071	-0,060
-321,314	464,430	0,062	0,103
-320,299	-33,861	-0,039	0,016
-319,285	-6,940	0,027	-0,014
-318,270	-3,096	-0,073	-0,037
-317,256	-94,326	-0,123	-0,024
-316,241	-64,642	0,114	-0,034
-315,226	-15,901	0,112	0,052
-314,212	-13,684	-0,086	-0,041
-313,197	-200,000	-0,003	0,146
-312,183	-200,000	-0,001	0,046
-311,168	350,592	-0,085	0,123
-310,153	-148,195	0,046	-0,003
-309,139	496,279	0,039	0,065
-308,124	706,627	-0,050	0,097
-307,110	93,327	0,067	0,055
-306,095	-200,000	-0,042	-0,165
-305,080	-200,000	-0,015	-0,055
-304,066	16,238	-0,094	-0,054
-303,051	-200,000	-0,016	-0,151
-302,037	240,036	0,034	-0,042
-301,022	-64,847	0,065	-0,019
-300,008	9,450	0,051	0,028
-298,993	-61,583	-0,120	0,037
-297,978	800,000	0,022	0,068
-296,964	-36,578	0,083	0,032
-295,949	100,792	-0,106	-0,090
-294,935	58,599	0,033	-0,024
-293,920	800,000	-0,054	0,151
-292,905	-200,000	0,033	0,178
-291,891	-173,266	0,061	-0,001
-290,876	521,879	-0,048	0,082
-289,862	-44,762	0,102	-0,037
-288,847	-27,978	0,045	0,019
-287,832	61,763	0,127	0,092
-286,818	405,494	-0,073	0,113
-285,803	105,778	0,086	0,074
-284,789	-61,671	0,125	0,038
-283,774	-76,514	0,067	0,017
-282,759	-200,000	-0,003	0,050
-281,745	-104,884	0,150	0,025
-280,730	752,582	0,004	0,008
-279,716	-22,510	0,074	0,033
-278,701	542,957	0,101	0,176
-277,686	-200,000	-0,015	0,210
-276,672	299,610	-0,031	-0,042
-275,657	76,236	-0,045	0,035
-274,643	18,034	-0,101	-0,059
-273,628	79,587	0,073	-0,058
-272,613	798,864	0,078	0,159
-271,599	145,315	0,030	0,029
-270,584	-200,000	-0,026	0,090
-269,570	-113,264	-0,057	0,008
-268,555	-200,000	0,005	-0,087
-267,540	490,923	0,008	0,013
-266,526	-200,000	-0,003	-0,109
-265,511	800,000	-0,015	0,033
-264,497	446,303	0,047	0,076
-263,482	386,777	-0,031	0,047
-262,467	73,131	0,069	-0,052
-261,453	-200,000	0,022	0,079
-260,438	-29,793	-0,110	-0,046
-259,424	165,278	-0,063	0,065
-258,409	-1,554	0,056	-0,029
-257,395	-200,000	-0,044	0,162
-256,380	591,113	-0,038	0,069
-255,365	-77,979	0,118	0,029
-254,351	-200,000	-0,002	0,051
-253,336	-200,000	-0,010	0,052
-252,322	-39,878	-0,043	-0,016
-251,307	478,167	0,086	-0,143
-250,292	-200,000	-0,009	0,074
-249,278	-16,490	0,058	-0,027
-248,263	488,291	-0,038	-0,064
-247,249	-90,801	-0,045	-0,009
-246,234	245,455	-0,087	0,107
-245,219	786,254	0,056	-0,114
-244,205	-21,880	0,088	-0,039
-243,190	636,582	0,015	-0,027
-242,176	71,421	0,067	0,050
-241,161	128,424	-0,008	-0,007
-240,146	-5,641	-0,110	-0,055
-239,132	800,000	-0,011	-0,026
-238,117	38,032	-0,039	0,025
-237,103	224,986	-0,042	-0,049
-236,088	-48,931	0,072	0,025
-235,073	364,387	-0,103	-0,152
-234,059	-138,323	-0,094	-0,007
-233,044	-170,746	0,089	-0,002
-232,030	-3,406	0,077	0,039
-231,015	-56,608	-0,103	-0,033
-230,000	120,919	0,059	-0,053
-228,986	-71,481	0,068	0,019
-227,971	221,712	0,022	0,026
-226,957	170,231	0,041	-0,042
-225,942	106,284	-0,083	0,072
-224,927	-79,460	0,070	0,017
-223,913	-108,433	0,108	-0,017
-222,898	-200,000	-0,032	0,135
-221,884	26,620	0,034	-0,020
-220,869	69,258	0,057	-0,043
-219,855	79,768	0,073	-0,057
-218,840	800,000	0,023	0,062
-217,825	110,773	0,079	-0,069
-216,811	-50,776	0,025	-0,009
-215,796	465,688	-0,045	-0,074
-214,782	-104,922	-0,044	-0,007
-213,767	-9,541	-0,076	0,037
-212,752	-200,000	-0,004	0,087
-211,738	677,332	-0,033	-0,063
-210,723	-116,660	0,004	-0,000
-209,709	674,368	-0,033	-0,063
-208,694	26,495	0,031	0,019
-207,679	-18,044	-0,081	0,037
-206,665	56,469	-0,061	0,043
-205,650	108,355	0,089	0,078
-204,636	800,000	-0,024	-0,049
-203,621	43,916	-0,067	0,044
-202,606	156,556	-0,059	-0,060
-201,592	-200,000	-0,016	-0,067
-200,577	-0,062	0,047	0,024
-199,563	-44,080	-0,066	-0,024
-198,548	581,624	0,037	0,067
-197,533	-200,000	0,035	0,131
-196,519	461,547	-0,005	-0,009
-195,504	70,879	-0,043	-0,032
-194,490	-130,343	-0,184	0,018
-193,475	-78,427	-0,029	-0,007
-192,460	-200,000	-0,004	-0,108
-191,446	800,000	-0,019	0,045
-190,431	46,678	0,100	-0,067
-189,417	58,384	-0,023	0,016
-188,402	-44,190	0,025	0,009
-187,387	39,865	0,044	0,029
-186,373	-200,000	0,008	-0,074
-185,358	-111,422	0,047	-0,007
-184,344	-200,000	0,011	0,066
-183,329	-129,569	-0,087	-0,009
-182,315	-34,656	0,228	0,090
-181,300	800,000	-0,041	-0,087
-180,285	-9,488	-0,179	-0,087
-179,271	56,705	-0,055	0,039
-178,256	659,897	0,031	-0,058
-177,242	35,198	-0,070	0,045
-176,227	-29,191	0,103	-0,043
-175,212	800,000	0,013	-0,032
-174,198	347,565	-0,067	-0,096
-173,183	-200,000	0,007	-0,119
-172,169	-12,390	-0,177	-0,084
-171,154	-124,403	-0,207	-0,023
-170,139	-97,797	0,137	-0,026
-169,125	-200,000	0,013	-0,060
-168,110	66,600	0,086	0,063
-167,096	-103,185	0,068	0,012
-166,081	264,322	-0,015	0,018
-165,066	-86,769	0,026	0,006
-164,052	-76,573	-0,067	-0,017
-163,037	-165,615	-0,031	0,001
-162,023	32,179	0,110	0,069
-161,008	800,000	-0,038	0,120
-159,993	-200,000	-0,020	0,080
-158,979	-200,000	-0,012	-0,046
-157,964	-86,552	0,106	-0,023
-156,950	-200,000	-0,003	-0,160
-155,935	-62,248	0,098	-0,030
-154,920	-83,574	0,019	0,004
-153,906	322,625	-0,008	-0,011
-152,891	-10,658	-0,089	0,043
-151,877	-146,917	0,082	0,005
-150,862	123,664	-0,075	0,068
-149,847	280,393	-0,020	-0,026
-148,833	133,504	0,003	-0,003
-147,818	55,408	0,037	0,026
-146,804	265,996	0,016	0,020
-145,789	-195,162	0,148	-0,001
-144,775	116,468	-0,067	-0,060
-143,760	618,538	0,053	-0,098
-142,745	-200,000	0,011	-0,096
-141,731	800,000	0,029	0,085
-140,716	465,003	0,050	-0,082
-139,702	-49,543	0,106	-0,037
-138,687	575,925	0,094	0,167
-137,672	214,030	-0,075	-0,087
-136,658	-91,951	-0,087	-0,018
-135,643	-115,675	-0,096	-0,013
-134,629	800,000	0,075	-0,204
-133,614	145,847	-0,046	0,045
-132,599	77,367	0,058	0,045
-131,585	45,994	-0,045	-0,030
-130,570	54,565	-0,156	0,109
-129,556	-200,000	-0,002	-0,013
-128,541	6,703	-0,162	0,087
-127,526	-145,483	-0,130	0,008
-126,512	-86,896	0,059	-0,013
-125,497	-59,235	-0,038	-0,012
-124,483	280,482	0,060	-0,078
-123,468	800,000	0,053	-0,145
-122,453	-200,000	0,009	-0,052
-121,439	800,000	0,032	0,077
-120,424	-52,468	-0,127	-0,043
-119,410	-200,000	-0,000	0,065
-118,395	176,454	-0,113	0,120
