DTS Sentinel unit serial number:	SN410029Multiplexer serial number:	ORYXHardware model number:	OX2-SRSoftware version number:	ORYX F/W v4,00 Oryx Data Collector v3.7.2.0data status	okinstallation	B4 Nyhavnadifferential loss correction	single-endedforward channel	channel 2reverse channel	N/Adate	2023/12/19time	01:55:13forward acquisition time	300,00reverse acquisition time	0,00gamma	499,1914k internal	0,3124k external	0,3124temperature offset calibration	1,0000default loss term (dB/km)	0,3820temperature slope calibration	1,0000multiplexer offset coefficient	1,0000multiplexer slope coefficient	1,0000fibre end	0,00T internal ref (°C)	21,43T ext. ref 1 (°C)	6,03T ext. ref 2 (°C)	6,16length (m)	temperature (°C)	Stokes	anti-Stokes-744,400	800,000	-0,058	-0,147
-743,385	-102,714	-0,202	0,036
-742,371	-122,942	0,107	0,013
-741,356	273,321	-0,167	0,220
-740,342	-200,000	-0,003	-0,030
-739,327	78,296	-0,212	0,168
-738,312	-200,000	-0,001	-0,065
-737,298	137,388	-0,071	0,069
-736,283	463,122	0,100	-0,167
-735,269	170,554	-0,153	-0,163
-734,254	417,032	0,051	-0,081
-733,239	-64,328	-0,506	-0,152
-732,225	144,495	0,084	0,083
-731,210	286,109	0,002	0,003
-730,196	-97,223	-0,204	-0,039
-729,181	-107,620	-0,051	-0,008
-728,167	297,931	-0,026	0,036
-727,152	-200,000	-0,017	-0,105
-726,137	-200,000	-0,001	-0,070
-725,123	-111,578	-0,065	0,010
-724,108	146,191	-0,112	-0,112
-723,094	199,821	-0,111	-0,127
-722,079	100,527	-0,047	0,041
-721,064	800,000	-0,040	-0,113
-720,050	-161,381	0,103	0,004
-719,035	-82,585	0,142	-0,034
-718,021	223,150	-0,084	-0,101
-717,006	0,644	0,056	-0,030
-715,991	-19,215	-0,116	-0,053
-714,977	-200,000	-0,000	-0,034
-713,962	-0,041	-0,080	-0,042
-712,948	-13,968	-0,044	-0,021
-711,933	-137,832	0,041	-0,003
-710,918	381,720	-0,070	-0,108
-709,904	-4,543	-0,078	-0,040
-708,889	-200,000	-0,030	-0,148
-707,875	42,685	-0,147	-0,099
-706,860	-200,000	-0,013	0,046
-705,845	182,859	-0,055	0,060
-704,831	355,485	0,052	-0,077
-703,816	-68,594	-0,078	0,022
-702,802	-78,169	-0,139	-0,035
-701,787	-53,938	0,092	0,031
-700,772	800,000	0,023	-0,058
-699,758	-72,709	-0,146	-0,040
-698,743	-200,000	-0,013	-0,102
-697,729	180,967	0,088	0,096
-696,714	2,689	-0,087	-0,047
-695,699	68,309	0,067	-0,051
-694,685	2,562	-0,129	-0,069
-693,670	-84,298	0,127	-0,030
-692,656	318,650	0,043	-0,061
-691,641	-198,220	0,100	0,000
-690,627	370,041	0,056	-0,085
-689,612	-5,617	-0,090	0,046
-688,597	-126,380	-0,212	0,023
-687,583	-38,292	-0,083	0,033
-686,568	-72,298	-0,143	-0,039
-685,554	70,987	0,016	0,013
-684,539	-133,519	-0,099	-0,009
-683,524	57,740	0,023	-0,017
-682,510	-82,382	0,104	-0,025
-681,495	30,586	-0,084	-0,053
-680,481	-134,956	-0,095	-0,008
-679,466	-200,000	-0,041	-0,177
-678,451	114,898	-0,086	0,078
-677,437	159,789	0,083	-0,086
-676,422	404,704	-0,064	0,101
-675,408	-200,000	0,000	-0,044
-674,393	49,612	0,129	-0,090
-673,378	-200,000	0,018	-0,228
-672,364	151,355	-0,009	-0,009
-671,349	-116,222	-0,092	0,013
-670,335	-200,000	0,031	-0,105
-669,320	312,772	0,059	-0,083
-668,305	-200,000	-0,015	0,121
-667,291	-200,000	0,010	-0,051
-666,276	357,350	-0,072	-0,108
-665,262	-89,304	-0,081	0,018
-664,247	-200,000	-0,025	-0,251
-663,232	-68,530	-0,113	-0,032
-662,218	64,995	-0,057	-0,043
-661,203	800,000	-0,035	-0,076
-660,189	86,728	-0,053	-0,043
-659,174	241,504	-0,038	-0,047
-658,159	800,000	-0,013	-0,040
-657,145	-200,000	0,006	0,026
-656,130	-200,000	-0,012	0,199
-655,116	420,975	0,042	0,067
-654,101	-200,000	0,005	0,055
-653,086	151,176	-0,017	-0,017
-652,072	800,000	-0,026	-0,067
-651,057	800,000	0,011	0,033
-650,043	99,602	0,112	-0,096
-649,028	213,550	0,048	0,057
-648,014	-23,911	-0,049	0,022
-646,999	-114,128	0,058	0,008
-645,984	453,998	-0,051	0,085
-644,970	800,000	0,022	0,065
-643,955	-32,502	0,034	-0,014
-642,941	-30,796	-0,091	-0,038
-641,926	524,050	-0,054	-0,095
-640,911	-163,494	0,072	-0,002
-639,897	18,351	-0,128	0,076
-638,882	181,432	0,080	0,087
-637,868	800,000	0,068	-0,146
-636,853	-74,329	-0,096	-0,025
-635,838	-119,921	0,018	0,002
-634,824	-138,463	0,056	0,005
-633,809	-200,000	0,020	-0,090
-632,795	393,200	-0,079	0,123
-631,780	604,507	0,063	0,118
-630,765	-10,543	0,074	-0,036
-629,751	-200,000	0,006	-0,077
-628,736	335,075	0,049	-0,070
-627,722	238,150	-0,154	-0,190
-626,707	-162,421	-0,072	0,003
-625,692	1,259	0,066	-0,035
-624,678	-173,169	-0,039	-0,001
-623,663	800,000	-0,039	0,094
-622,649	-200,000	-0,004	0,072
-621,634	68,798	-0,109	-0,083
-620,619	800,000	0,016	-0,040
-619,605	481,593	0,036	-0,061
-618,590	81,847	-0,036	-0,029
-617,576	648,167	0,038	0,072
-616,561	335,720	0,035	-0,051
-615,546	66,201	-0,150	-0,113
-614,532	-200,000	-0,010	0,080
-613,517	374,245	-0,080	0,121
-612,503	5,076	-0,106	0,057
-611,488	-13,107	-0,105	0,051
-610,474	9,205	-0,050	-0,028
-609,459	482,468	0,026	0,044
-608,444	-200,000	-0,001	-0,011
-607,430	-145,581	0,113	0,007
-606,415	-92,121	-0,119	-0,025
-605,401	-27,657	0,134	-0,057
-604,386	-200,000	-0,023	0,090
-603,371	-200,000	0,034	0,148
-602,357	800,000	0,047	0,114
-601,342	-78,150	-0,043	0,011
-600,328	-17,071	0,078	-0,036
-599,313	-18,677	-0,019	-0,009
-598,298	-17,631	-0,045	-0,021
-597,284	-200,000	-0,003	0,089
-596,269	-200,000	-0,003	-0,111
-595,255	55,576	0,021	-0,015
-594,240	269,798	-0,086	-0,112
-593,225	-200,000	-0,059	-0,214
-592,211	115,052	-0,096	-0,087
-591,196	-42,720	0,138	0,052
-590,182	-200,000	0,008	-0,049
-589,167	439,418	-0,017	-0,027
-588,152	-78,189	0,099	-0,025
-587,138	1,415	-0,041	-0,022
-586,123	284,067	-0,130	-0,174
-585,109	398,427	0,026	0,041
-584,094	171,036	-0,058	0,061
-583,079	-200,000	0,010	0,074
-582,065	71,051	0,016	-0,012
-581,050	-84,920	0,076	-0,017
-580,036	-81,495	0,069	-0,017
-579,021	-117,356	-0,106	-0,014
-578,006	645,599	-0,033	-0,062
-576,992	-132,528	-0,133	-0,012
-575,977	-200,000	-0,025	-0,124
-574,963	196,042	-0,071	-0,080
-573,948	-200,000	0,001	-0,040
-572,934	-178,697	-0,035	0,001
-571,919	775,863	-0,026	-0,052
-570,904	-200,000	-0,010	-0,046
-569,890	311,610	-0,085	-0,118
-568,875	-122,524	-0,201	0,024
-567,861	-200,000	-0,004	-0,093
-566,846	-200,000	0,021	0,089
-565,831	18,967	-0,056	0,033
-564,817	-200,000	-0,025	-0,145
-563,802	-52,475	-0,028	0,009
-562,788	-111,109	-0,105	0,016
-561,773	47,895	-0,036	-0,025
-560,758	370,088	-0,043	0,065
-559,744	-200,000	-0,014	0,210
-558,729	-16,159	-0,053	0,025
-557,715	103,135	-0,034	-0,030
-556,700	-33,073	-0,143	-0,058
-555,685	-200,000	-0,021	-0,073
-554,671	316,670	-0,059	-0,082
-553,656	-1,819	0,036	-0,019
-552,642	107,658	0,107	0,095
-551,627	308,801	0,082	-0,114
-550,612	781,572	-0,004	-0,008
-549,598	92,749	-0,056	0,047
-548,583	-200,000	0,005	-0,183
-547,569	766,785	-0,044	-0,090
-546,554	79,466	-0,084	0,067
-545,539	167,703	-0,109	0,114
-544,525	456,294	0,057	0,094
-543,510	13,716	-0,055	-0,031
-542,496	-200,000	0,013	-0,058
-541,481	368,889	-0,075	-0,112
-540,466	223,274	0,056	0,066
-539,452	26,779	0,039	0,024
-538,437	226,137	-0,066	0,079
-537,423	-200,000	-0,002	0,086
-536,408	-115,907	-0,029	-0,004
-535,393	283,654	0,050	0,067
-534,379	-200,000	0,013	-0,122
-533,364	211,817	-0,060	-0,070
-532,350	800,000	-0,046	0,141
-531,335	-62,078	0,119	0,037
-530,321	800,000	0,073	-0,156
-529,306	800,000	-0,055	0,144
-528,291	48,226	-0,114	-0,079
-527,277	10,938	0,021	-0,012
-526,262	-200,000	0,009	-0,084
-525,248	65,280	-0,042	-0,031
-524,233	274,769	0,055	-0,072
-523,218	-200,000	-0,016	-0,130
-522,204	172,526	-0,042	-0,045
-521,189	42,880	0,063	0,042
-520,175	175,702	-0,066	-0,070
-519,160	-200,000	-0,013	-0,143
-518,145	800,000	-0,001	0,003
-517,131	-130,734	0,030	-0,003
-516,116	238,127	0,070	0,086
-515,102	-36,336	-0,024	-0,010
-514,087	28,205	-0,107	0,067
-513,072	-44,709	0,197	-0,072
-512,058	134,217	-0,079	0,076
-511,043	-76,398	0,030	-0,008
-510,029	-121,260	0,020	0,002
-509,014	-91,281	-0,075	-0,016
-507,999	582,831	-0,044	0,080
-506,985	-19,109	-0,063	0,029
-505,970	183,424	0,067	-0,073
-504,956	800,000	-0,124	-0,272
-503,941	800,000	-0,012	0,039
-502,926	-59,414	0,136	0,043
-501,912	800,000	-0,010	0,027
-500,897	350,974	-0,035	-0,051
-499,883	-200,000	0,000	0,025
-498,868	-147,000	-0,066	0,004
-497,853	-200,000	-0,003	-0,042
-496,839	-200,000	-0,003	-0,061
-495,824	800,000	0,034	-0,077
-494,810	154,403	0,081	0,082
-493,795	236,460	0,060	0,073
-492,781	-200,000	-0,001	-0,068
-491,766	122,586	0,037	-0,034
-490,751	-200,000	0,008	-0,070
-489,737	-200,000	0,012	0,052
-488,722	-123,649	-0,142	-0,016
-487,708	-91,010	0,030	-0,006
-486,693	-65,326	0,046	-0,014
-485,678	355,275	-0,045	0,066
-484,664	-200,000	-0,012	0,114
-483,649	-94,223	-0,020	0,004
-482,635	-52,163	-0,049	0,017
-481,620	255,102	0,094	0,119
-480,605	-200,000	0,003	0,131
-479,591	-151,891	0,119	-0,006
-478,576	800,000	0,008	-0,021
-477,562	55,455	-0,069	0,049
-476,547	-59,928	0,174	0,054
-475,532	800,000	-0,036	-0,098
-474,518	104,733	-0,022	-0,019
-473,503	228,646	0,015	0,019
-472,489	146,340	-0,095	0,094
-471,474	207,787	-0,058	0,067
-470,459	375,644	0,009	-0,014
-469,445	800,000	-0,054	-0,142
-468,430	207,600	0,058	-0,067
-467,416	461,879	0,058	0,096
-466,401	800,000	-0,060	0,164
-465,386	760,085	0,039	0,078
-464,372	-173,004	0,106	0,002
-463,357	314,335	-0,077	0,107
-462,343	-68,133	0,135	-0,038
-461,328	-152,001	0,033	0,002
-460,313	-112,799	0,168	0,024
-459,299	90,651	-0,072	0,059
-458,284	-117,064	-0,050	-0,007
-457,270	123,319	0,135	-0,125
-456,255	-200,000	-0,009	-0,083
-455,241	189,768	-0,055	-0,061
-454,226	-177,146	0,121	-0,002
-453,211	-200,000	0,012	-0,096
-452,197	-0,002	0,101	0,053
-451,182	-166,927	0,107	0,003
-450,168	184,291	0,118	-0,129
-449,153	-3,511	0,101	-0,051
-448,138	165,273	-0,007	0,007
-447,124	108,724	0,092	0,081
-446,109	29,979	-0,099	0,062
-445,095	800,000	-0,036	-0,099
-444,080	576,949	0,052	0,094
-443,065	362,088	0,043	0,063
-442,051	800,000	0,051	-0,114
-441,036	-2,579	-0,085	-0,043
-440,022	-121,697	-0,015	0,002
-439,007	-49,522	0,132	0,046
-437,992	800,000	-0,036	-0,091
-436,978	155,030	0,025	0,025
-435,963	-200,000	-0,014	-0,088
-434,949	-200,000	0,005	0,096
-433,934	-200,000	-0,022	-0,093
-432,919	-94,772	0,069	0,014
-431,905	-100,256	-0,097	0,018
-430,890	603,267	-0,042	-0,077
-429,876	800,000	0,072	0,166
-428,861	-200,000	-0,008	0,038
-427,846	275,714	-0,030	-0,039
-426,832	162,247	0,090	0,093
-425,817	-47,682	-0,012	0,004
-424,803	-200,000	0,027	-0,230
-423,788	-64,519	0,055	0,016
-422,773	-34,103	-0,045	0,018
-421,759	7,899	-0,097	-0,053
-420,744	291,199	-0,037	-0,050
-419,730	326,888	0,061	0,087
-418,715	-200,000	-0,001	-0,042
-417,701	-200,000	0,108	-0,000
-416,686	-200,000	0,036	0,147
-415,671	-181,260	0,045	0,001
-414,657	800,000	-0,042	0,087
-413,642	800,000	-0,028	-0,072
-412,628	150,423	-0,060	0,060
-411,613	103,885	-0,096	-0,083
-410,598	69,785	0,104	-0,078
-409,584	-200,000	-0,037	-0,128
-408,569	-109,981	-0,060	-0,009
-407,555	289,452	-0,060	0,080
-406,540	707,148	-0,029	0,056
-405,525	111,888	-0,066	0,059
-404,511	-21,527	-0,042	-0,019
-403,496	210,391	0,051	-0,060
-402,482	-200,000	-0,006	0,039
-401,467	-102,313	0,062	-0,011
-400,452	800,000	0,073	0,171
-399,438	604,237	-0,014	-0,025
-398,423	-122,639	-0,100	0,012
-397,409	-200,000	0,003	-0,078
-396,394	249,101	-0,061	-0,076
-395,379	-68,712	-0,047	-0,013
-394,365	227,444	-0,084	-0,101
-393,350	-99,655	0,031	0,006
-392,336	373,165	0,088	-0,132
-391,321	130,157	0,034	-0,032
-390,306	-200,000	0,022	-0,128
-389,292	276,523	-0,038	-0,050
-388,277	-124,182	-0,075	-0,008
-387,263	800,000	0,036	-0,102
-386,248	800,000	0,063	0,154
-385,233	-200,000	-0,015	0,094
-384,219	344,606	-0,035	0,051
-383,204	800,000	0,013	0,029
-382,190	98,204	-0,018	-0,015
-381,175	-200,000	0,010	-0,071
-380,160	-200,000	-0,010	-0,059
-379,146	-115,558	0,083	-0,011
-378,131	-200,000	-0,029	-0,124
-377,117	-121,587	0,121	0,015
-376,102	-200,000	-0,036	-0,140
-375,088	-1,089	-0,149	-0,077
-374,073	24,552	-0,073	-0,044
-373,058	670,173	-0,043	-0,082
-372,044	-200,000	-0,009	-0,079
-371,029	18,489	0,012	-0,007
-370,015	276,262	0,078	0,102
-369,000	-200,000	-0,037	-0,123
-367,985	66,612	-0,124	-0,092
-366,971	-200,000	-0,004	0,085
-365,956	580,542	0,039	0,071
-364,942	243,942	0,029	0,035
-363,927	600,305	0,034	0,062
-362,912	499,108	-0,059	0,100
-361,898	51,045	-0,035	0,024
-360,883	-2,874	-0,057	-0,029
-359,869	800,000	-0,045	-0,113
-358,854	351,164	0,070	0,102
-357,839	-38,410	-0,087	0,034
-356,825	713,854	0,050	0,098
-355,810	-200,000	-0,003	0,066
-354,796	2,202	-0,056	-0,030
-353,781	-74,640	-0,058	-0,015
-352,766	575,582	0,033	0,059
-351,752	0,633	-0,022	-0,012
-350,737	209,460	-0,030	0,035
-349,723	520,497	0,059	0,102
-348,708	-200,000	0,013	0,042
-347,693	27,282	-0,057	-0,035
-346,679	-97,103	0,088	-0,017
-345,664	118,841	-0,074	-0,067
-344,650	499,228	0,040	0,067
-343,635	800,000	0,043	0,091
-342,620	87,813	0,118	0,096
-341,606	-59,554	0,032	0,010
-340,591	-107,908	-0,045	0,007
-339,577	-200,000	-0,036	-0,177
-338,562	150,782	-0,013	-0,013
-337,548	-60,192	0,085	0,026
-336,533	-185,410	0,021	-0,000
-335,518	9,079	0,074	0,041
-334,504	314,570	-0,015	-0,020
-333,489	800,000	0,016	0,047
-332,475	142,953	0,078	0,076
-331,460	191,627	-0,060	-0,066
-330,445	97,125	-0,171	0,143
-329,431	-107,178	-0,007	0,001
-328,416	-100,028	0,055	-0,010
-327,402	-97,665	0,132	-0,025
-326,387	-200,000	0,029	0,129
-325,372	-0,631	-0,093	-0,048
-324,358	-134,640	0,044	0,004
-323,343	-11,511	-0,083	-0,040
-322,329	-14,933	0,108	-0,050
-321,314	-200,000	0,033	0,161
-320,299	-200,000	-0,029	0,119
-319,285	800,000	-0,030	0,086
-318,270	4,140	0,035	0,018
-317,256	-4,360	-0,081	-0,041
-316,241	120,299	0,103	0,093
-315,226	800,000	0,060	0,145
-314,212	-96,647	0,129	0,025
-313,197	45,822	0,053	0,036
-312,183	-148,163	-0,072	0,004
-311,168	-200,000	-0,019	-0,128
-310,153	696,872	-0,010	0,018
-309,139	-11,761	-0,054	0,026
-308,124	269,941	-0,074	0,095
-307,110	79,341	-0,013	0,010
-306,095	-28,431	-0,025	0,010
-305,080	-200,000	0,044	0,161
-304,066	-200,000	-0,030	0,103
-303,051	-89,550	-0,141	-0,030
-302,037	19,184	-0,088	-0,051
-301,022	220,865	0,134	0,157
-300,008	-148,906	-0,086	-0,005
-298,993	262,884	0,059	0,075
-297,978	-80,296	-0,011	0,003
-296,964	-200,000	-0,020	-0,111
-295,949	433,919	-0,055	-0,087
-294,935	800,000	0,025	-0,077
-293,920	-200,000	-0,055	0,201
-292,905	-200,000	0,029	0,175
-291,891	-40,458	0,069	-0,026
-290,876	-36,064	0,059	-0,023
-289,862	35,100	0,083	0,053
-288,847	-191,518	-0,191	-0,001
-287,832	800,000	0,001	-0,003
-286,818	-200,000	-0,028	-0,111
-285,803	172,357	-0,097	0,102
-284,789	-28,480	0,065	0,027
-283,774	-28,972	0,085	0,036
-282,759	-158,727	0,088	-0,004
-281,745	800,000	-0,068	-0,188
-280,730	76,298	0,033	-0,025
-279,716	41,637	0,096	0,064
-278,701	52,226	-0,078	0,054
-277,686	800,000	0,040	-0,091
-276,672	-16,621	0,059	-0,027
-275,657	-200,000	-0,038	0,151
-274,643	2,469	-0,049	-0,026
-273,628	-200,000	-0,027	-0,110
-272,613	88,211	-0,096	-0,078
-271,599	345,097	-0,073	0,105
-270,584	31,981	0,083	-0,052
-269,570	-164,649	0,067	-0,002
-268,555	145,963	0,085	-0,084
-267,540	-186,011	-0,030	0,000
-266,526	239,316	0,056	0,068
-265,511	-200,000	-0,030	0,160
-264,497	-125,320	0,094	-0,010
-263,482	-127,531	0,062	-0,006
-262,467	-87,947	0,130	-0,028
-261,453	-200,000	-0,017	-0,079
-260,438	277,932	-0,123	-0,160
-259,424	-200,000	-0,003	-0,117
-258,409	-46,766	0,076	-0,027
-257,395	800,000	0,034	0,098
-256,380	-200,000	-0,005	-0,028
-255,365	-156,248	-0,062	-0,003
-254,351	-200,000	-0,037	0,145
-253,336	-200,000	-0,004	-0,136
-252,322	-6,266	0,089	0,044
-251,307	143,980	0,028	-0,028
-250,292	270,334	0,106	-0,136
-249,278	-33,303	0,076	-0,031
-248,263	-200,000	-0,002	0,091
-247,249	-99,261	-0,082	-0,015
-246,234	9,277	0,031	-0,017
-245,219	-200,000	0,033	-0,126
-244,205	-50,016	0,031	-0,011
-243,190	608,551	0,040	-0,074
-242,176	-34,802	0,106	-0,042
-241,161	-142,890	-0,094	-0,007
-240,146	-200,000	-0,009	-0,044
-239,132	143,911	0,058	0,057
-238,117	497,598	0,075	-0,127
-237,103	172,494	-0,113	-0,119
-236,088	-200,000	0,006	-0,073
-235,073	141,869	-0,046	-0,044
-234,059	252,571	0,091	0,114
-233,044	469,228	-0,120	0,198
-232,030	-127,903	-0,092	0,010
-231,015	59,475	0,073	0,053
-230,000	-38,749	0,066	0,025
-228,986	-132,540	-0,062	-0,006
-227,971	119,390	0,127	0,115
-226,957	359,475	0,108	0,159
-225,942	-200,000	0,000	0,058
-224,927	27,387	-0,056	0,035
-223,913	-120,548	-0,221	0,027
-222,898	3,546	-0,069	0,037
-221,884	-200,000	-0,008	-0,038
-220,869	800,000	-0,033	0,095
-219,855	281,668	0,058	-0,076
-218,840	-200,000	0,028	0,100
-217,825	-200,000	-0,018	0,113
-216,811	-170,075	-0,090	-0,002
-215,796	64,127	-0,045	-0,033
-214,782	269,101	0,069	-0,088
-213,767	-200,000	0,001	-0,043
-212,752	-165,338	0,086	-0,003
-211,738	-200,000	0,031	0,120
-210,723	163,556	0,072	0,074
-209,709	12,710	0,045	-0,025
-208,694	445,087	-0,091	-0,146
-207,679	-200,000	-0,001	-0,138
-206,665	-25,043	0,082	-0,035
-205,650	102,372	0,070	0,059
-204,636	800,000	0,033	-0,075
-203,621	56,073	-0,084	0,060
-202,606	-200,000	-0,005	-0,050
-201,592	251,600	-0,108	-0,134
-200,577	-39,567	0,124	0,047
-199,563	-200,000	-0,002	0,050
-198,548	463,407	0,046	0,076
-197,533	-177,686	-0,027	0,000
-196,519	98,800	-0,039	-0,033
-195,504	-89,310	-0,120	0,026
-194,490	97,222	-0,070	-0,058
-193,475	218,938	0,134	0,157
-192,460	-52,211	-0,029	0,010
-191,446	123,505	0,038	0,035
-190,431	-0,669	0,141	0,073
-189,417	-200,000	-0,019	0,076
-188,402	-137,660	-0,136	0,011
-187,387	-15,015	0,069	-0,032
-186,373	800,000	0,048	0,111
-185,358	131,324	0,066	-0,062
-184,344	-100,644	0,090	-0,016
-183,329	376,122	-0,036	0,054
-182,315	230,122	-0,013	0,016
-181,300	180,226	-0,111	-0,119
-180,285	800,000	-0,041	-0,108
-179,271	-200,000	0,002	-0,044
-178,256	-200,000	0,007	0,108
-177,242	347,140	0,089	0,128
-176,227	-28,074	0,110	-0,046
-175,212	103,117	0,026	0,022
-174,198	-200,000	0,022	0,115
-173,183	-200,000	0,007	-0,030
-172,169	103,250	-0,130	-0,111
-171,154	-200,000	0,014	0,054
-170,139	-100,709	0,112	0,020
-169,125	-200,000	0,010	0,047
-168,110	125,405	-0,015	0,014
-167,096	-138,074	0,141	0,011
-166,081	234,348	0,030	-0,036
-165,066	-63,001	-0,005	-0,001
-164,052	-9,263	-0,038	0,019
-163,037	363,509	-0,032	-0,047
-162,023	26,242	0,113	0,069
-161,008	800,000	0,075	0,160
-159,993	-129,683	-0,041	0,004
-158,979	73,089	0,050	-0,038
-157,964	27,024	-0,100	0,061
-156,950	-31,347	0,104	-0,043
-155,935	-200,000	0,023	0,093
-154,920	-135,922	0,111	-0,009
-153,906	-200,000	-0,036	-0,133
-152,891	-200,000	0,019	0,103
-151,877	-87,637	0,150	-0,033
-150,862	-200,000	-0,007	-0,037
-149,847	-200,000	0,004	-0,013
-148,833	129,388	0,039	0,036
-147,818	-16,092	0,128	-0,059
-146,804	-10,736	0,085	-0,041
-145,789	-80,160	0,040	0,010
-144,775	-200,000	-0,031	-0,127
-143,760	461,556	-0,051	0,083
-142,745	-200,000	0,010	-0,166
-141,731	800,000	0,025	0,075
-140,716	800,000	0,040	0,097
-139,702	-200,000	0,006	0,021
-138,687	280,132	0,039	-0,051
-137,672	-199,036	0,059	-0,000
-136,658	800,000	0,031	-0,079
-135,643	-50,769	0,009	-0,003
-134,629	-200,000	-0,015	-0,096
-133,614	35,314	0,085	-0,054
-132,599	800,000	0,017	0,046
-131,585	59,419	0,084	0,060
-130,570	-200,000	0,008	-0,069
-129,556	-200,000	-0,036	-0,157
-128,541	357,959	0,117	-0,170
-127,526	44,076	-0,082	0,055
-126,512	52,109	0,064	0,044
-125,497	148,009	0,116	0,113
-124,483	800,000	0,030	0,080
-123,468	116,295	0,058	0,052
-122,453	-119,344	0,103	0,013
-121,439	254,964	-0,028	0,035
-120,424	133,173	0,086	-0,080
