DTS Sentinel unit serial number:	SN410029Multiplexer serial number:	ORYXHardware model number:	OX2-SRSoftware version number:	ORYX F/W v4,00 Oryx Data Collector v3.7.2.0data status	okinstallation	B4 Nyhavnadifferential loss correction	single-endedforward channel	channel 2reverse channel	N/Adate	2023/12/19time	10:50:13forward acquisition time	300,00reverse acquisition time	0,00gamma	499,1914k internal	0,3127k external	0,3127temperature offset calibration	1,0000default loss term (dB/km)	0,3820temperature slope calibration	1,0000multiplexer offset coefficient	1,0000multiplexer slope coefficient	1,0000fibre end	0,00T internal ref (°C)	19,96T ext. ref 1 (°C)	4,72T ext. ref 2 (°C)	4,69length (m)	temperature (°C)	Stokes	anti-Stokes-744,400	55,090	0,137	-0,098
-743,385	-119,032	-0,228	0,029
-742,371	-106,301	0,090	0,015
-741,356	422,158	-0,207	0,332
-740,342	320,943	0,061	0,086
-739,327	-11,499	-0,226	0,110
-738,312	194,378	0,086	0,097
-737,298	-81,123	-0,140	0,034
-736,283	-82,596	-0,064	-0,015
-735,269	-155,372	-0,218	0,010
-734,254	-119,192	-0,127	0,016
-733,239	-48,090	-0,368	-0,131
-732,225	4,597	0,064	-0,035
-731,210	140,389	-0,131	0,129
-730,196	116,365	0,010	-0,009
-729,181	106,763	-0,063	-0,056
-728,167	-164,009	0,104	-0,004
-727,152	741,732	-0,011	0,022
-726,137	336,363	0,064	0,093
-725,123	361,388	-0,048	-0,072
-724,108	-143,597	-0,134	-0,009
-723,094	155,487	-0,133	-0,136
-722,079	-200,000	0,010	-0,035
-721,064	-200,000	0,004	0,095
-720,050	-58,003	-0,148	0,048
-719,035	-190,372	0,050	0,000
-718,021	196,057	-0,131	0,148
-717,006	84,732	-0,195	-0,159
-715,991	462,821	0,024	-0,040
-714,977	93,591	-0,071	-0,059
-713,962	343,855	-0,022	-0,032
-712,948	800,000	-0,008	-0,023
-711,933	-200,000	0,006	0,054
-710,918	-200,000	0,020	0,085
-709,904	-200,000	0,008	-0,078
-708,889	-200,000	-0,008	-0,073
-707,875	-40,561	-0,186	-0,071
-706,860	-200,000	0,000	-0,074
-705,845	800,000	0,056	0,133
-704,831	29,814	0,135	-0,085
-703,816	607,107	-0,043	-0,080
-702,802	-11,113	-0,063	0,031
-701,787	176,444	0,025	-0,027
-700,772	219,056	0,059	-0,070
-699,758	-23,916	-0,067	-0,030
-698,743	-137,921	0,128	0,010
-697,729	800,000	-0,021	0,063
-696,714	-200,000	0,010	0,043
-695,699	-92,280	-0,099	0,021
-694,685	31,651	0,126	-0,080
-693,670	226,446	0,042	-0,051
-692,656	-200,000	-0,019	0,171
-691,641	-75,787	0,058	0,015
-690,627	800,000	0,017	0,037
-689,612	800,000	0,024	0,065
-688,597	129,868	0,034	0,032
-687,583	-200,000	0,013	-0,119
-686,568	34,365	-0,083	-0,054
-685,554	-4,692	-0,088	0,045
-684,539	-200,000	-0,023	0,107
-683,524	214,642	-0,050	0,059
-682,510	-200,000	0,004	0,129
-681,495	800,000	0,032	0,074
-680,481	-87,512	-0,186	-0,041
-679,466	800,000	0,023	-0,064
-678,451	58,954	0,070	0,051
-677,437	221,234	-0,024	-0,029
-676,422	800,000	-0,035	0,081
-675,408	113,800	0,061	-0,055
-674,393	18,751	-0,142	0,084
-673,378	-200,000	-0,010	-0,152
-672,364	316,534	0,038	-0,053
-671,349	-200,000	-0,004	-0,048
-670,335	86,004	-0,044	-0,036
-669,320	193,641	0,059	0,066
-668,305	-0,761	0,154	0,081
-667,291	800,000	-0,031	0,081
-666,276	-196,287	-0,166	0,001
-665,262	-200,000	-0,010	-0,064
-664,247	800,000	0,025	0,079
-663,232	140,231	-0,068	-0,067
-662,218	-115,138	0,110	0,015
-661,203	800,000	0,008	-0,027
-660,189	93,006	-0,068	-0,057
-659,174	-46,582	0,128	-0,046
-658,159	297,867	-0,123	-0,168
-657,145	-27,250	-0,210	-0,090
-656,130	163,784	0,058	-0,061
-655,116	800,000	-0,023	0,066
-654,101	-6,687	-0,172	-0,086
-653,086	114,285	0,128	0,116
-652,072	365,204	-0,062	-0,093
-651,057	-200,000	-0,011	-0,093
-650,043	-13,309	-0,068	0,032
-649,028	-200,000	-0,005	-0,034
-648,014	-200,000	-0,008	0,096
-646,999	-200,000	0,009	0,141
-645,984	-18,003	-0,063	0,029
-644,970	-40,657	0,004	0,002
-643,955	476,110	0,034	0,058
-642,941	379,959	-0,046	-0,069
-641,926	-200,000	0,014	-0,062
-640,911	219,349	0,106	0,126
-639,897	-200,000	-0,001	0,017
-638,882	261,105	-0,045	0,058
-637,868	-200,000	-0,020	0,121
-636,853	365,742	-0,045	0,068
-635,838	138,260	-0,064	0,063
-634,824	153,867	-0,110	0,112
-633,809	-84,675	-0,065	-0,015
-632,795	288,162	0,079	-0,107
-631,780	13,608	0,112	-0,064
-630,765	64,199	-0,057	0,042
-629,751	288,179	-0,056	-0,075
-628,736	569,254	0,074	-0,135
-627,722	128,092	-0,014	-0,013
-626,707	487,536	0,031	-0,053
-625,692	160,073	0,123	-0,127
-624,678	-19,271	0,069	0,031
-623,663	148,228	0,049	-0,049
-622,649	370,464	0,038	-0,057
-621,634	-200,000	-0,010	0,109
-620,619	-200,000	-0,011	0,087
-619,605	-200,000	-0,023	-0,098
-618,590	204,380	-0,107	0,123
-617,576	-85,824	0,055	-0,013
-616,561	-36,870	-0,040	-0,016
-615,546	800,000	0,026	-0,054
-614,532	12,261	0,070	-0,040
-613,517	98,502	-0,111	-0,095
-612,503	-96,078	0,084	-0,016
-611,488	-30,657	0,106	0,044
-610,474	617,180	0,065	-0,122
-609,459	68,876	-0,142	0,108
-608,444	96,828	-0,030	-0,025
-607,430	-127,601	0,068	0,007
-606,415	-100,640	-0,151	0,027
-605,401	100,464	0,062	0,053
-604,386	-200,000	0,009	0,034
-603,371	-181,341	-0,079	-0,001
-602,357	54,951	0,158	-0,113
-601,342	-200,000	0,001	0,011
-600,328	-159,695	0,023	-0,001
-599,313	-118,157	-0,077	0,010
-598,298	356,698	0,041	-0,061
-597,284	-200,000	-0,001	-0,070
-596,269	-69,057	-0,105	0,030
-595,255	-148,241	-0,089	-0,005
-594,240	-139,483	0,028	-0,002
-593,225	21,609	0,042	-0,025
-592,211	-139,716	0,125	0,010
-591,196	-200,000	-0,006	-0,076
-590,182	9,073	0,087	0,049
-589,167	-148,142	0,144	-0,009
-588,152	104,240	-0,052	-0,046
-587,138	-200,000	-0,003	-0,020
-586,123	-69,014	-0,144	-0,041
-585,109	32,662	-0,017	-0,011
-584,094	800,000	0,013	0,040
-583,079	-69,573	-0,053	0,015
-582,065	-94,106	0,131	0,026
-581,050	371,026	-0,029	0,044
-580,036	800,000	-0,044	-0,139
-579,021	288,226	-0,088	-0,118
-578,006	800,000	0,035	-0,093
-576,992	137,187	0,038	0,037
-575,977	125,593	-0,006	0,006
-574,963	-23,657	0,025	-0,011
-573,948	410,505	-0,022	-0,034
-572,934	-144,222	0,030	0,002
-571,919	189,369	0,016	-0,017
-570,904	-200,000	-0,081	-0,268
-569,890	-11,652	0,042	0,020
-568,875	110,470	0,108	0,096
-567,861	9,436	-0,081	-0,045
-566,846	48,926	0,107	0,074
-565,831	256,017	0,031	-0,040
-564,817	800,000	0,046	0,146
-563,802	-200,000	-0,002	-0,052
-562,788	47,390	-0,205	-0,141
-561,773	-200,000	-0,001	-0,033
-560,758	346,697	0,033	0,048
-559,744	-200,000	-0,019	-0,129
-558,729	-200,000	-0,008	-0,069
-557,715	58,638	0,075	-0,054
-556,700	220,884	-0,040	0,047
-555,685	-65,261	0,078	-0,023
-554,671	800,000	0,075	0,182
-553,656	-115,890	-0,110	0,015
-552,642	149,823	-0,023	-0,023
-551,627	800,000	-0,031	-0,080
-550,612	-141,390	-0,071	0,005
-549,598	-200,000	-0,003	-0,035
-548,583	315,392	0,058	-0,081
-547,569	85,832	-0,081	0,066
-546,554	637,563	-0,061	0,116
-545,539	-200,000	0,002	0,094
-544,525	275,919	-0,057	0,074
-543,510	-200,000	-0,025	0,193
-542,496	-185,729	-0,104	-0,001
-541,481	-123,533	-0,138	-0,016
-540,466	69,227	0,053	-0,040
-539,452	800,000	0,051	0,160
-538,437	86,546	0,046	-0,037
-537,423	1,426	0,038	-0,020
-536,408	-200,000	-0,005	0,049
-535,393	171,551	0,099	-0,105
-534,379	-71,160	-0,079	-0,022
-533,364	-57,858	0,098	-0,031
-532,350	-87,311	0,118	-0,026
-531,335	-22,106	-0,090	-0,040
-530,321	257,123	-0,028	0,035
-529,306	-43,541	0,042	-0,016
-528,291	27,109	-0,050	-0,031
-527,277	800,000	0,038	-0,081
-526,262	800,000	0,009	-0,020
-525,248	60,507	-0,033	0,024
-524,233	800,000	0,024	0,053
-523,218	2,594	0,094	-0,050
-522,204	67,244	-0,072	0,054
-521,189	-200,000	-0,019	0,071
-520,175	-200,000	-0,012	0,048
-519,160	215,298	-0,061	0,072
-518,145	-117,340	0,102	0,013
-517,131	90,512	0,088	0,073
-516,116	-25,223	0,123	-0,054
-515,102	-84,745	0,053	-0,012
-514,087	-9,713	0,120	0,059
-513,072	32,655	0,016	-0,010
-512,058	22,886	-0,061	-0,037
-511,043	-200,000	0,010	0,050
-510,029	800,000	0,008	-0,021
-509,014	-200,000	-0,030	0,220
-507,999	800,000	-0,010	0,027
-506,985	-118,177	-0,026	0,003
-505,970	-158,844	-0,111	0,005
-504,956	79,745	-0,121	-0,096
-503,941	-200,000	0,018	0,073
-502,926	-99,524	0,114	0,021
-501,912	800,000	-0,038	-0,122
-500,897	-65,404	-0,068	-0,020
-499,883	-200,000	-0,019	-0,105
-498,868	215,278	0,082	-0,096
-497,853	207,003	-0,006	0,007
-496,839	-26,484	0,075	0,032
-495,824	-200,000	-0,006	-0,074
-494,810	600,329	0,023	0,042
-493,795	215,206	-0,043	0,050
-492,781	-200,000	0,047	0,194
-491,766	-200,000	-0,015	-0,085
-490,751	191,138	-0,044	-0,049
-489,737	800,000	-0,024	0,058
-488,722	-41,941	0,026	-0,010
-487,708	-88,007	-0,091	-0,020
-486,693	-200,000	-0,007	0,032
-485,678	800,000	0,002	0,004
-484,664	-29,506	-0,200	-0,084
-483,649	-85,606	0,027	-0,006
-482,635	-200,000	-0,020	0,167
-481,620	21,235	0,188	0,112
-480,605	332,594	-0,067	-0,095
-479,591	196,752	-0,047	-0,053
-478,576	196,981	-0,031	-0,035
-477,562	800,000	0,071	-0,161
-476,547	-200,000	-0,011	-0,069
-475,532	800,000	0,017	-0,045
-474,518	739,369	0,045	-0,089
-473,503	-200,000	0,003	-0,016
-472,489	-48,382	-0,042	-0,015
-471,474	800,000	0,033	0,075
-470,459	-200,000	0,008	0,039
-469,445	-200,000	-0,005	0,027
-468,430	800,000	0,046	0,139
-467,416	26,904	-0,158	0,097
-466,401	-200,000	0,009	0,122
-465,386	721,824	-0,018	0,035
-464,372	-80,093	0,019	0,005
-463,357	250,498	0,068	-0,085
-462,343	155,194	-0,032	0,033
-461,328	-13,096	-0,128	-0,061
-460,313	33,940	0,064	0,041
-459,299	153,583	0,066	0,067
-458,284	800,000	0,007	0,017
-457,270	-200,000	0,010	0,051
-456,255	-8,456	0,066	0,032
-455,241	25,001	-0,060	0,037
-454,226	-200,000	-0,019	-0,109
-453,211	94,244	-0,058	-0,048
-452,197	-200,000	-0,005	0,037
-451,182	-13,789	0,084	-0,040
-450,168	800,000	0,036	-0,104
-449,153	172,124	0,111	0,117
-448,138	-8,150	-0,048	0,024
-447,124	-200,000	0,004	-0,100
-446,109	-200,000	-0,004	-0,016
-445,095	215,676	0,088	-0,103
-444,080	-200,000	0,016	-0,075
-443,065	-29,438	-0,032	-0,013
-442,051	-112,120	0,115	0,017
-441,036	-96,953	-0,074	0,014
-440,022	51,853	0,049	-0,034
-439,007	169,458	-0,056	0,059
-437,992	89,920	0,056	-0,046
-436,978	236,889	0,092	-0,113
-435,963	-161,694	-0,089	-0,003
-434,949	800,000	-0,061	-0,150
-433,934	19,951	-0,032	-0,019
-432,919	450,520	0,049	-0,080
-431,905	-92,076	-0,141	0,029
-430,890	223,155	0,010	0,011
-429,876	-62,395	0,070	0,021
-428,861	-200,000	-0,001	0,013
-427,846	317,752	0,039	0,054
-426,832	68,924	-0,145	0,110
-425,817	370,040	0,058	0,087
-424,803	800,000	0,053	-0,119
-423,788	430,228	0,035	-0,056
-422,773	309,067	0,070	0,097
-421,759	-200,000	-0,005	0,129
-420,744	-3,866	0,123	0,063
-419,730	89,457	0,014	-0,011
-418,715	284,484	-0,107	-0,142
-417,701	-3,816	-0,118	-0,060
-416,686	-200,000	-0,001	-0,039
-415,671	-36,835	0,145	0,057
-414,657	800,000	-0,027	-0,055
-413,642	800,000	-0,040	-0,113
-412,628	-200,000	0,012	-0,255
-411,613	74,630	-0,030	-0,023
-410,598	-37,363	-0,071	-0,028
-409,584	-168,640	-0,109	0,003
-408,569	-70,416	-0,037	-0,010
-407,555	92,521	0,092	-0,077
-406,540	800,000	0,046	0,099
-405,525	30,303	-0,074	-0,046
-404,511	208,353	-0,058	-0,067
-403,496	-58,816	-0,142	0,045
-402,482	-200,000	0,021	0,115
-401,467	-88,447	-0,142	0,031
-400,452	367,947	-0,035	0,052
-399,438	-9,656	0,077	0,038
-398,423	99,018	0,175	-0,149
-397,409	800,000	-0,017	-0,045
-396,394	452,932	0,059	0,097
-395,379	800,000	-0,045	0,098
-394,365	800,000	-0,051	0,124
-393,350	800,000	-0,024	0,053
-392,336	-45,873	-0,102	-0,037
-391,321	-200,000	-0,005	-0,041
-390,306	-200,000	-0,020	-0,120
-389,292	800,000	-0,057	-0,178
-388,277	800,000	0,061	-0,131
-387,263	-51,850	0,074	0,025
-386,248	-20,433	0,117	0,052
-385,233	242,244	0,114	0,140
-384,219	375,324	0,056	0,085
-383,204	800,000	-0,038	0,087
-382,190	39,002	-0,145	-0,095
-381,175	92,500	0,008	0,007
-380,160	150,022	0,123	0,122
-379,146	122,953	-0,089	-0,082
-378,131	24,079	-0,054	0,033
-377,117	-68,716	0,224	0,063
-376,102	674,085	-0,041	0,078
-375,088	-28,179	0,078	-0,033
-374,073	-80,974	0,051	0,012
-373,058	800,000	0,023	-0,064
-372,044	155,365	0,108	0,109
-371,029	-53,427	0,158	0,053
-370,015	-161,997	-0,055	-0,002
-369,000	189,915	-0,092	0,101
-367,985	463,333	0,035	0,058
-366,971	745,182	0,037	0,074
-365,956	-200,000	0,006	0,105
-364,942	619,793	0,099	0,184
-363,927	199,296	-0,055	0,062
-362,912	-176,669	0,121	-0,002
-361,898	800,000	-0,056	0,120
-360,883	-200,000	-0,006	-0,075
-359,869	-200,000	0,037	-0,142
-358,854	100,078	-0,024	0,020
-357,839	-200,000	0,017	-0,088
-356,825	-200,000	0,023	-0,090
-355,810	88,445	-0,073	-0,059
-354,796	-36,074	-0,095	-0,037
-353,781	800,000	-0,043	-0,089
-352,766	-37,918	-0,168	0,065
-351,752	-200,000	0,004	0,044
-350,737	44,451	0,133	0,089
-349,723	229,571	0,125	0,149
-348,708	-137,503	0,067	-0,005
-347,693	-200,000	-0,023	0,120
-346,679	-200,000	-0,020	-0,069
-345,664	800,000	-0,053	-0,111
-344,650	-49,001	0,030	0,010
-343,635	378,385	-0,063	0,095
-342,620	90,381	0,032	0,027
-341,606	-200,000	-0,009	0,082
-340,591	546,241	0,038	-0,067
-339,577	401,510	0,089	-0,138
-338,562	-200,000	0,011	-0,133
-337,548	800,000	0,022	0,050
-336,533	-153,242	-0,055	-0,003
-335,518	-25,289	0,099	0,043
-334,504	-200,000	-0,008	0,133
-333,489	800,000	0,042	0,105
-332,475	-200,000	-0,030	-0,166
-331,460	-200,000	0,006	0,022
-330,445	-73,076	-0,089	-0,024
-329,431	188,058	0,051	-0,056
-328,416	-62,383	-0,046	0,014
-327,402	10,713	-0,029	-0,016
-326,387	-200,000	0,046	-0,153
-325,372	-161,410	-0,011	0,000
-324,358	604,169	0,018	0,033
-323,343	143,572	0,016	0,015
-322,329	-169,589	-0,118	0,003
-321,314	-200,000	-0,010	0,142
-320,299	313,272	-0,119	0,164
-319,285	16,425	0,045	0,026
-318,270	-38,612	-0,022	0,008
-317,256	800,000	0,024	-0,071
-316,241	-84,414	-0,152	0,035
-315,226	800,000	0,049	0,140
-314,212	48,573	0,060	-0,041
-313,197	800,000	0,019	-0,058
-312,183	697,251	-0,091	0,176
-311,168	-200,000	0,003	-0,080
-310,153	-65,059	-0,148	-0,043
-309,139	6,944	0,089	0,048
-308,124	-200,000	0,016	-0,080
-307,110	-122,028	0,061	-0,007
-306,095	-200,000	-0,031	0,125
-305,080	800,000	0,031	0,092
-304,066	128,144	-0,055	-0,051
-303,051	-45,536	-0,130	0,047
-302,037	500,720	-0,041	-0,070
-301,022	471,872	-0,083	0,137
-300,008	53,334	0,016	0,011
-298,993	147,263	-0,053	0,052
-297,978	800,000	0,037	0,090
-296,964	-200,000	-0,015	0,065
-295,949	183,648	-0,055	-0,059
-294,935	-71,625	-0,118	0,032
-293,920	-200,000	-0,002	0,160
-292,905	264,894	-0,066	-0,084
-291,891	-20,097	-0,074	0,033
-290,876	-39,234	0,129	-0,049
-289,862	-125,145	-0,065	-0,007
-288,847	442,351	-0,049	0,078
-287,832	-175,038	-0,111	-0,002
-286,818	-200,000	-0,023	0,079
-285,803	-200,000	0,013	0,111
-284,789	-200,000	0,003	-0,062
-283,774	208,207	-0,119	-0,136
-282,759	-105,627	-0,088	0,014
-281,745	-100,670	-0,106	0,019
-280,730	40,612	0,044	-0,029
-279,716	800,000	0,008	0,027
-278,701	-25,641	0,085	0,036
-277,686	-200,000	0,016	0,105
-276,672	11,149	-0,026	0,014
-275,657	-199,482	-0,073	-0,000
-274,643	656,179	0,090	0,169
-273,628	126,572	-0,036	-0,034
-272,613	50,715	0,055	0,038
-271,599	772,135	0,028	-0,057
-270,584	771,457	0,058	0,115
-269,570	-68,545	0,089	-0,025
-268,555	329,389	-0,055	-0,077
-267,540	-86,607	0,058	-0,013
-266,526	-200,000	-0,007	0,026
-265,511	800,000	-0,035	0,112
-264,497	-50,908	-0,072	0,025
-263,482	800,000	0,007	0,019
-262,467	-74,180	-0,097	-0,025
-261,453	-80,360	-0,043	0,010
-260,438	30,489	0,047	0,029
-259,424	-103,572	0,042	0,007
-258,409	-6,082	-0,089	-0,044
-257,395	156,471	0,107	-0,108
-256,380	273,083	0,098	-0,127
-255,365	174,557	0,006	0,006
-254,351	40,290	0,110	-0,072
-253,336	685,474	-0,067	-0,128
-252,322	285,884	-0,086	-0,113
-251,307	443,438	-0,020	-0,031
-250,292	121,769	0,016	0,015
-249,278	307,734	0,071	0,096
-248,263	80,123	0,068	0,053
-247,249	800,000	0,049	0,144
-246,234	-200,000	0,168	0,000
-245,219	800,000	-0,002	0,006
-244,205	-200,000	-0,017	-0,069
-243,190	-200,000	-0,008	-0,048
-242,176	520,981	0,004	0,006
-241,161	-200,000	0,018	-0,153
-240,146	56,072	0,082	0,058
-239,132	137,033	-0,028	-0,027
-238,117	44,731	-0,147	-0,099
-237,103	32,390	-0,067	-0,042
-236,088	800,000	-0,057	-0,120
-235,073	44,530	0,109	-0,073
-234,059	-138,955	-0,045	0,004
-233,044	265,504	-0,013	0,016
-232,030	518,499	0,030	0,052
-231,015	85,895	-0,087	-0,070
-230,000	297,292	-0,051	0,068
-228,986	800,000	0,052	-0,153
-227,971	657,552	-0,052	0,098
-226,957	-120,978	0,121	0,015
-225,942	374,224	-0,091	0,136
-224,927	142,820	0,047	-0,046
-223,913	-200,000	0,013	-0,055
-222,898	-71,972	-0,167	0,045
-221,884	4,491	-0,039	-0,021
-220,869	-19,160	0,099	0,045
-219,855	800,000	0,006	-0,017
-218,840	-200,000	-0,010	0,047
-217,825	59,664	0,091	0,065
-216,811	-200,000	-0,000	-0,031
-215,796	458,580	0,036	0,058
-214,782	-16,955	0,035	0,016
-213,767	132,159	0,022	0,021
-212,752	-200,000	-0,005	0,055
-211,738	-86,317	0,126	-0,028
-210,723	800,000	-0,056	-0,163
-209,709	18,997	-0,110	-0,064
-208,694	800,000	0,046	-0,113
-207,679	378,730	-0,062	-0,093
-206,665	800,000	0,034	-0,076
-205,650	-200,000	0,149	0,000
-204,636	800,000	-0,050	0,146
-203,621	800,000	-0,014	-0,034
-202,606	-200,000	-0,001	-0,004
-201,592	-57,056	-0,023	0,007
-200,577	-200,000	-0,001	-0,050
-199,563	-200,000	0,003	0,020
-198,548	-200,000	0,016	0,139
-197,533	-134,419	0,107	-0,009
-196,519	800,000	-0,034	0,107
-195,504	-67,999	0,048	-0,014
-194,490	-139,447	0,099	-0,008
-193,475	-200,000	-0,013	0,073
-192,460	276,998	-0,040	0,052
-191,446	52,887	0,089	-0,062
-190,431	-22,222	-0,126	-0,056
-189,417	-200,000	-0,011	-0,175
-188,402	108,834	0,033	0,028
-187,387	-200,000	0,002	0,093
-186,373	347,629	-0,092	0,132
-185,358	-58,779	-0,031	0,010
-184,344	800,000	-0,040	0,123
-183,329	-24,525	-0,067	-0,029
-182,315	-200,000	0,008	-0,034
-181,300	-99,368	-0,092	-0,017
-180,285	213,664	-0,045	0,052
-179,271	-53,443	-0,073	-0,024
-178,256	800,000	-0,029	0,063
-177,242	-60,067	0,108	0,033
-176,227	-42,143	0,107	0,040
-175,212	-112,963	0,141	-0,020
-174,198	297,276	0,119	-0,159
-173,183	-200,000	-0,054	-0,216
-172,169	-49,102	0,042	0,014
-171,154	134,245	-0,113	-0,106
-170,139	-200,000	0,012	-0,108
-169,125	53,617	-0,094	-0,065
-168,110	-181,377	0,120	0,002
-167,096	-132,012	-0,154	0,014
-166,081	173,388	-0,062	-0,065
-165,066	396,532	-0,067	0,102
-164,052	-56,173	0,111	0,036
-163,037	-200,000	0,010	0,133
-162,023	355,846	0,060	-0,088
-161,008	800,000	-0,024	-0,070
-159,993	298,758	-0,044	-0,059
-158,979	800,000	0,021	-0,050
-157,964	-200,000	0,036	-0,164
-156,950	-200,000	0,000	0,045
-155,935	-200,000	0,022	0,096
-154,920	37,296	-0,084	-0,054
-153,906	-200,000	0,024	-0,084
-152,891	-94,765	0,149	-0,029
-151,877	-200,000	0,005	0,182
-150,862	-63,361	-0,185	-0,055
-149,847	-87,073	-0,033	0,007
-148,833	672,316	0,014	0,026
-147,818	-200,000	0,002	0,112
-146,804	176,367	0,067	0,070
-145,789	-200,000	0,039	0,138
-144,775	189,842	0,019	-0,021
-143,760	-36,855	0,080	0,031
-142,745	-43,035	0,070	0,026
-141,731	691,599	-0,020	0,039
-140,716	311,836	-0,063	0,085
-139,702	-152,619	0,122	-0,006
-138,687	-153,624	0,088	-0,004
-137,672	-200,000	-0,019	0,091
-136,658	-200,000	0,000	-0,114
-135,643	-200,000	0,002	-0,164
-134,629	278,861	-0,041	-0,053
-133,614	-105,625	0,092	0,015
-132,599	-200,000	0,003	0,037
-131,585	-200,000	-0,007	-0,048
-130,570	-58,919	0,134	-0,042
-129,556	-94,781	-0,023	0,004
-128,541	69,071	0,104	-0,078
-127,526	-200,000	0,003	0,134
-126,512	800,000	-0,017	0,041
-125,497	-46,667	0,113	0,040
-124,483	406,679	-0,026	-0,040
-123,468	800,000	0,027	-0,076
-122,453	97,212	0,063	0,053
-121,439	141,731	0,064	0,062
-120,424	-200,000	0,005	0,074
-119,410	-3,590	0,135	0,068
-118,395	285,872	0,017	0,022
