DTS Sentinel unit serial number:	SN410029Multiplexer serial number:	ORYXHardware model number:	OX2-SRSoftware version number:	ORYX F/W v4,00 Oryx Data Collector v3.7.2.0data status	okinstallation	B4 Nyhavnadifferential loss correction	single-endedforward channel	channel 2reverse channel	N/Adate	2023/12/19time	04:10:13forward acquisition time	300,00reverse acquisition time	0,00gamma	499,1914k internal	0,3126k external	0,3126temperature offset calibration	1,0000default loss term (dB/km)	0,3820temperature slope calibration	1,0000multiplexer offset coefficient	1,0000multiplexer slope coefficient	1,0000fibre end	0,00T internal ref (°C)	20,94T ext. ref 1 (°C)	6,00T ext. ref 2 (°C)	6,07length (m)	temperature (°C)	Stokes	anti-Stokes-744,400	-76,229	-0,080	-0,021
-743,385	-200,000	-0,249	-0,001
-742,371	-200,000	0,004	-0,095
-741,356	77,333	-0,208	0,165
-740,342	0,148	0,058	0,030
-739,327	-56,735	-0,213	0,070
-738,312	216,823	0,058	0,069
-737,298	-199,568	-0,279	0,001
-736,283	-200,000	0,013	-0,114
-735,269	-159,236	-0,217	0,009
-734,254	-25,971	-0,045	0,020
-733,239	-125,748	-0,502	-0,056
-732,225	-127,564	0,233	-0,025
-731,210	-9,957	-0,202	0,100
-730,196	-157,044	0,080	0,004
-729,181	-132,729	-0,077	-0,007
-728,167	135,667	0,027	0,027
-727,152	-200,000	-0,018	0,068
-726,137	-34,080	0,037	-0,015
-725,123	-44,922	-0,115	-0,043
-724,108	-74,980	-0,140	-0,037
-723,094	354,563	-0,103	-0,153
-722,079	418,236	0,099	-0,157
-721,064	26,866	-0,162	0,101
-720,050	257,193	0,104	0,133
-719,035	-200,000	0,000	-0,045
-718,021	-200,000	0,027	-0,103
-717,006	450,315	-0,063	-0,103
-715,991	109,781	-0,062	-0,056
-714,977	-112,367	-0,121	0,018
-713,962	-172,971	-0,077	-0,002
-712,948	220,173	0,027	-0,032
-711,933	492,288	-0,076	-0,129
-710,918	369,783	-0,081	-0,123
-709,904	379,654	0,117	-0,180
-708,889	800,000	-0,065	0,173
-707,875	-10,982	-0,036	-0,018
-706,860	383,546	0,012	-0,019
-705,845	-200,000	0,002	-0,041
-704,831	-200,000	0,012	0,119
-703,816	-43,895	-0,162	-0,060
-702,802	-200,000	-0,005	-0,057
-701,787	-55,722	0,049	-0,016
-700,772	800,000	0,003	0,011
-699,758	-200,000	0,005	-0,030
-698,743	684,605	-0,028	0,055
-697,729	800,000	0,067	-0,153
-696,714	800,000	-0,013	-0,037
-695,699	621,687	-0,069	0,130
-694,685	-200,000	-0,012	0,101
-693,670	-83,225	-0,141	-0,033
-692,656	598,188	0,053	0,098
-691,641	3,930	0,025	0,013
-690,627	-143,297	0,104	-0,007
-689,612	621,250	-0,060	0,112
-688,597	-91,286	0,021	-0,004
-687,583	-200,000	-0,033	0,111
-686,568	-72,003	-0,064	0,018
-685,554	800,000	-0,039	-0,095
-684,539	-200,000	0,014	-0,097
-683,524	-200,000	0,096	0,000
-682,510	-200,000	-0,014	0,089
-681,495	800,000	0,021	0,059
-680,481	-92,551	-0,126	0,026
-679,466	12,806	-0,132	-0,076
-678,451	-130,201	-0,099	-0,010
-677,437	-104,230	-0,056	-0,010
-676,422	-84,731	-0,034	0,008
-675,408	645,810	0,047	0,090
-674,393	364,946	-0,069	0,103
-673,378	-80,645	-0,098	-0,024
-672,364	-69,432	-0,020	0,006
-671,349	-200,000	-0,028	-0,101
-670,335	-118,332	0,068	0,009
-669,320	-107,731	0,140	-0,022
-668,305	-69,253	-0,075	-0,021
-667,291	-200,000	0,029	0,117
-666,276	-30,993	-0,143	-0,060
-665,262	-200,000	-0,007	0,029
-664,247	-200,000	-0,030	0,132
-663,232	43,003	-0,053	-0,036
-662,218	169,611	0,056	0,060
-661,203	-200,000	-0,015	-0,067
-660,189	-173,500	0,061	-0,001
-659,174	800,000	-0,048	-0,103
-658,159	-200,000	-0,013	-0,087
-657,145	-200,000	0,000	-0,091
-656,130	54,017	-0,107	-0,076
-655,116	800,000	-0,019	0,039
-654,101	12,059	0,121	-0,069
-653,086	-51,378	-0,193	0,067
-652,072	479,473	0,088	-0,148
-651,057	193,229	-0,070	0,078
-650,043	494,916	0,047	-0,080
-649,028	-200,000	0,010	-0,186
-648,014	800,000	0,066	-0,184
-646,999	325,270	-0,046	-0,066
-645,984	12,918	-0,120	0,069
-644,970	366,883	0,016	-0,025
-643,955	800,000	0,022	-0,064
-642,941	-200,000	0,014	-0,059
-641,926	125,620	-0,089	-0,083
-640,911	312,211	0,064	-0,090
-639,897	800,000	0,037	0,076
-638,882	-154,805	-0,009	0,000
-637,868	-86,072	-0,167	-0,038
-636,853	-106,409	0,081	0,013
-635,838	-8,409	-0,186	-0,092
-634,824	-11,171	-0,043	0,021
-633,809	-200,000	0,011	0,062
-632,795	800,000	0,032	0,091
-631,780	491,081	0,085	0,145
-630,765	88,450	0,029	0,024
-629,751	-171,959	-0,195	0,005
-628,736	-200,000	0,012	0,059
-627,722	130,622	-0,076	0,073
-626,707	60,798	-0,057	0,042
-625,692	558,746	0,019	0,034
-624,678	-152,644	0,089	-0,005
-623,663	-200,000	-0,024	0,128
-622,649	-200,000	-0,014	-0,136
-621,634	-200,000	0,019	-0,134
-620,619	-200,000	-0,050	-0,241
-619,605	-92,755	-0,086	-0,018
-618,590	-200,000	0,003	-0,029
-617,576	367,065	0,007	-0,011
-616,561	-118,378	0,148	0,019
-615,546	-200,000	-0,004	-0,022
-614,532	800,000	0,020	-0,056
-613,517	354,136	0,050	-0,074
-612,503	-37,372	0,100	-0,039
-611,488	197,915	0,095	-0,108
-610,474	441,205	-0,057	-0,093
-609,459	-200,000	0,012	-0,059
-608,444	-200,000	0,001	0,082
-607,430	75,913	-0,093	-0,073
-606,415	645,846	-0,046	-0,087
-605,401	8,158	0,055	-0,030
-604,386	-200,000	-0,001	0,039
-603,371	800,000	0,050	0,104
-602,357	-50,770	-0,081	-0,028
-601,342	800,000	-0,049	-0,138
-600,328	93,954	-0,053	-0,044
-599,313	11,150	-0,091	0,052
-598,298	-40,124	-0,057	-0,022
-597,284	-66,241	-0,089	0,026
-596,269	800,000	-0,016	0,042
-595,255	403,148	0,017	-0,027
-594,240	-13,465	-0,144	-0,069
-593,225	163,784	-0,048	-0,050
-592,211	456,993	-0,080	-0,133
-591,196	-52,206	0,028	0,010
-590,182	364,612	0,004	0,006
-589,167	174,293	-0,088	0,095
-588,152	152,969	0,035	0,035
-587,138	329,987	-0,058	0,083
-586,123	203,839	-0,027	-0,031
-585,109	328,676	0,040	-0,057
-584,094	-200,000	0,011	-0,169
-583,079	166,106	-0,144	0,151
-582,065	-200,000	0,021	0,106
-581,050	244,938	0,113	0,141
-580,036	-200,000	0,000	0,094
-579,021	800,000	-0,033	0,077
-578,006	-192,449	-0,048	-0,000
-576,992	577,977	-0,037	0,068
-575,977	28,862	0,146	-0,091
-574,963	-200,000	-0,003	0,035
-573,948	42,287	0,067	-0,045
-572,934	60,644	-0,085	0,062
-571,919	98,911	-0,034	-0,029
-570,904	-60,775	-0,028	-0,009
-569,890	-200,000	-0,003	-0,023
-568,875	800,000	0,016	-0,034
-567,861	-140,376	0,048	-0,004
-566,846	681,993	-0,017	0,034
-565,831	-58,613	-0,077	0,025
-564,817	800,000	-0,059	-0,154
-563,802	31,810	-0,135	0,086
-562,788	800,000	0,016	-0,038
-561,773	800,000	-0,056	0,173
-560,758	800,000	0,080	0,214
-559,744	-200,000	0,037	0,144
-558,729	-4,719	-0,069	0,035
-557,715	-83,996	0,160	0,037
-556,700	-14,999	-0,023	-0,011
-555,685	-15,490	-0,133	0,063
-554,671	800,000	0,025	-0,062
-553,656	-42,720	0,135	0,050
-552,642	11,909	0,161	0,091
-551,627	413,140	-0,060	-0,094
-550,612	-63,297	-0,118	-0,036
-549,598	29,834	0,109	-0,069
-548,583	-200,000	-0,014	0,123
-547,569	245,693	-0,069	0,086
-546,554	2,045	0,075	0,040
-545,539	-200,000	-0,029	0,203
-544,525	104,156	-0,047	-0,041
-543,510	-59,637	-0,039	0,012
-542,496	198,918	-0,046	-0,052
-541,481	800,000	-0,093	-0,216
-540,466	-200,000	-0,011	-0,118
-539,452	-114,719	-0,040	-0,006
-538,437	-143,456	0,052	0,004
-537,423	683,419	0,028	0,054
-536,408	315,523	-0,080	-0,112
-535,393	-120,280	-0,061	0,008
-534,379	671,462	-0,086	-0,165
-533,364	-102,025	0,028	0,005
-532,350	148,929	0,038	-0,038
-531,335	800,000	-0,048	-0,132
-530,321	-130,118	-0,028	0,003
-529,306	-200,000	-0,011	-0,176
-528,291	51,408	-0,048	-0,034
-527,277	-200,000	-0,006	-0,069
-526,262	-200,000	-0,011	0,063
-525,248	-200,000	0,026	0,111
-524,233	-200,000	-0,010	0,123
-523,218	-200,000	0,013	0,077
-522,204	-200,000	0,005	0,035
-521,189	-15,481	-0,191	-0,090
-520,175	222,620	-0,045	-0,053
-519,160	-112,994	-0,098	-0,014
-518,145	-122,972	0,151	-0,018
-517,131	-123,869	0,009	-0,001
-516,116	-167,679	-0,039	-0,001
-515,102	265,305	0,041	0,053
-514,087	-200,000	0,013	-0,098
-513,072	-140,173	-0,129	0,010
-512,058	-113,540	0,139	0,020
-511,043	-38,973	0,096	0,037
-510,029	178,302	0,053	-0,058
-509,014	5,631	-0,050	0,027
-507,999	-115,573	0,085	0,012
-506,985	-107,495	-0,123	0,020
-505,970	-118,315	-0,129	0,017
-504,956	-200,000	-0,002	-0,010
-503,941	165,637	0,058	0,061
-502,926	800,000	0,052	0,111
-501,912	269,935	-0,098	0,128
-500,897	597,419	-0,125	0,230
-499,883	512,214	-0,035	-0,061
-498,868	-15,805	-0,102	-0,048
-497,853	-66,159	0,076	0,022
-496,839	-31,873	0,088	-0,036
-495,824	-200,000	0,001	-0,097
-494,810	-82,497	0,105	-0,025
-493,795	800,000	-0,013	0,032
-492,781	-200,000	-0,009	0,038
-491,766	259,673	-0,056	0,072
-490,751	-73,675	-0,115	-0,031
-489,737	408,908	0,021	0,033
-488,722	180,525	-0,032	-0,035
-487,708	-200,000	-0,016	0,083
-486,693	800,000	-0,034	0,098
-485,678	-200,000	-0,038	0,162
-484,664	800,000	0,021	0,052
-483,649	646,170	-0,031	-0,059
-482,635	43,179	-0,054	0,036
-481,620	339,269	-0,019	0,028
-480,605	-76,659	0,096	0,025
-479,591	34,527	-0,057	0,036
-478,576	800,000	-0,013	0,027
-477,562	74,987	0,125	0,097
-476,547	1,576	0,017	-0,009
-475,532	-200,000	-0,034	-0,133
-474,518	-53,529	-0,016	0,006
-473,503	2,743	-0,067	0,036
-472,489	-200,000	-0,026	0,084
-471,474	82,990	-0,092	0,073
-470,459	124,843	-0,047	0,044
-469,445	154,093	-0,123	-0,124
-468,430	766,319	0,012	0,024
-467,416	232,108	-0,030	-0,036
-466,401	-23,087	0,058	-0,026
-465,386	-22,534	0,136	0,060
-464,372	-82,134	-0,031	-0,007
-463,357	800,000	0,033	0,104
-462,343	-200,000	0,004	-0,111
-461,328	-104,769	0,034	0,006
-460,313	60,865	0,075	-0,055
-459,299	24,841	-0,107	0,065
-458,284	1,349	0,149	-0,078
-457,270	-200,000	-0,015	-0,168
-456,255	-200,000	0,001	-0,019
-455,241	255,297	-0,070	0,089
-454,226	215,711	0,022	0,025
-453,211	-65,371	-0,100	-0,029
-452,197	-105,182	-0,025	-0,004
-451,182	-200,000	-0,014	-0,047
-450,168	-30,313	0,140	0,058
-449,153	55,423	0,124	-0,088
-448,138	11,588	0,105	-0,059
-447,124	-63,018	0,041	0,012
-446,109	-30,343	0,042	-0,018
-445,095	-81,540	0,074	0,018
-444,080	-124,327	-0,013	-0,002
-443,065	215,217	0,048	-0,056
-442,051	-161,940	-0,083	0,003
-441,036	-91,280	-0,021	-0,004
-440,022	276,830	-0,016	-0,021
-439,007	726,298	0,018	0,035
-437,992	800,000	0,022	0,062
-436,978	87,660	0,103	-0,084
-435,963	-26,383	-0,159	-0,068
-434,949	107,923	-0,033	-0,029
-433,934	-124,011	0,038	-0,004
-432,919	-200,000	0,016	-0,052
-431,905	359,014	0,044	0,065
-430,890	800,000	-0,012	0,027
-429,876	217,099	0,006	0,007
-428,861	143,948	0,035	0,034
-427,846	263,529	0,051	0,065
-426,832	800,000	-0,024	0,050
-425,817	-200,000	-0,019	-0,107
-424,803	-62,527	0,142	0,043
-423,788	202,404	0,081	-0,092
-422,773	-200,000	-0,008	-0,051
-421,759	-200,000	-0,005	-0,057
-420,744	-6,568	0,053	-0,026
-419,730	-164,600	0,023	-0,001
-418,715	800,000	-0,015	-0,033
-417,701	34,272	-0,025	-0,016
-416,686	206,993	-0,039	0,045
-415,671	156,426	-0,102	0,104
-414,657	353,481	0,047	-0,069
-413,642	160,870	-0,081	0,083
-412,628	352,421	-0,015	-0,022
-411,613	621,880	-0,042	-0,079
-410,598	-200,000	-0,035	-0,125
-409,584	800,000	0,043	-0,116
-408,569	-200,000	0,018	0,103
-407,555	-200,000	-0,016	-0,079
-406,540	726,740	0,056	0,110
-405,525	21,491	-0,109	-0,065
-404,511	-81,711	-0,085	0,020
-403,496	276,233	0,063	0,082
-402,482	123,219	0,179	0,165
-401,467	-200,000	0,001	0,077
-400,452	76,728	0,072	0,056
-399,438	618,423	-0,032	-0,059
-398,423	800,000	-0,089	-0,222
-397,409	-176,438	-0,104	-0,002
-396,394	-200,000	0,003	-0,162
-395,379	226,316	-0,095	0,113
-394,365	242,121	0,051	0,063
-393,350	493,692	-0,066	-0,112
-392,336	-54,247	0,122	0,041
-391,321	800,000	-0,030	0,095
-390,306	-200,000	0,012	-0,073
-389,292	-200,000	0,003	0,055
-388,277	-200,000	-0,002	0,095
-387,263	-109,151	0,031	0,005
-386,248	800,000	0,029	0,064
-385,233	-200,000	0,006	0,067
-384,219	64,793	0,122	-0,091
-383,204	84,828	-0,061	0,049
-382,190	-25,648	-0,110	-0,047
-381,175	800,000	-0,010	-0,029
-380,160	-57,756	0,125	-0,040
-379,146	-200,000	-0,019	0,085
-378,131	-108,246	-0,033	0,005
-377,117	-200,000	-0,006	0,061
-376,102	-200,000	-0,010	0,072
-375,088	99,093	-0,042	-0,036
-374,073	800,000	-0,027	0,085
-373,058	-200,000	-0,035	0,123
-372,044	800,000	0,032	-0,100
-371,029	11,119	-0,062	-0,035
-370,015	800,000	0,042	0,127
-369,000	779,425	-0,087	-0,176
-367,985	-41,998	-0,145	-0,054
-366,971	800,000	0,025	-0,060
-365,956	2,718	0,074	0,039
-364,942	800,000	0,025	-0,053
-363,927	520,795	0,032	0,056
-362,912	140,561	0,119	-0,116
-361,898	-32,417	-0,130	0,053
-360,883	65,916	0,029	0,022
-359,869	-81,142	0,089	-0,022
-358,854	495,625	-0,044	-0,074
-357,839	-47,721	0,159	-0,056
-356,825	348,218	0,101	-0,146
-355,810	128,428	-0,077	-0,072
-354,796	-184,638	-0,150	0,002
-353,781	-80,192	-0,056	0,014
-352,766	-88,780	0,073	-0,016
-351,752	-85,119	0,108	0,025
-350,737	24,748	-0,104	0,063
-349,723	728,551	-0,047	0,093
-348,708	52,024	0,091	0,064
-347,693	124,609	0,055	0,050
-346,679	291,713	-0,102	-0,136
-345,664	-93,435	-0,123	0,025
-344,650	193,481	0,072	0,080
-343,635	-200,000	0,005	0,140
-342,620	-200,000	0,014	-0,101
-341,606	109,187	0,071	-0,063
-340,591	42,385	0,075	-0,050
-339,577	-200,000	-0,061	-0,201
-338,562	800,000	0,013	-0,036
-337,548	-99,641	-0,066	0,012
-336,533	800,000	0,024	0,074
-335,518	7,325	-0,047	0,026
-334,504	-200,000	0,009	-0,041
-333,489	468,360	0,031	-0,051
-332,475	-200,000	-0,002	0,009
-331,460	-130,796	-0,138	0,013
-330,445	-25,114	0,101	-0,044
-329,431	6,974	-0,100	-0,054
-328,416	215,596	0,044	-0,051
-327,402	-200,000	-0,004	0,119
-326,387	527,565	0,058	0,101
-325,372	-15,331	-0,112	0,052
-324,358	-64,468	0,050	0,015
-323,343	-106,834	-0,055	0,009
-322,329	-94,531	0,123	-0,024
-321,314	692,598	0,095	0,184
-320,299	-50,050	0,083	0,029
-319,285	43,517	0,056	-0,038
-318,270	800,000	-0,019	-0,061
-317,256	800,000	-0,024	-0,050
-316,241	144,220	0,073	-0,071
-315,226	-146,415	-0,100	-0,006
-314,212	-149,789	0,193	0,011
-313,197	10,911	-0,040	-0,022
-312,183	-112,043	0,083	0,012
-311,168	20,908	0,065	0,038
-310,153	-144,360	-0,090	-0,006
-309,139	198,894	0,041	0,046
-308,124	-200,000	0,001	0,118
-307,110	8,990	0,086	0,048
-306,095	-115,438	-0,046	0,006
-305,080	182,746	0,107	0,116
-304,066	-200,000	-0,008	-0,050
-303,051	487,165	0,064	-0,107
-302,037	-200,000	-0,016	0,096
-301,022	125,579	0,150	-0,138
-300,008	770,792	0,012	0,024
-298,993	-200,000	-0,012	0,069
-297,978	-200,000	-0,007	0,069
-296,964	-200,000	-0,013	0,047
-295,949	57,724	0,026	-0,019
-294,935	-92,414	-0,029	0,006
-293,920	-23,799	0,050	-0,022
-292,905	657,698	0,019	0,036
-291,891	-118,672	0,026	-0,003
-290,876	-17,449	0,275	-0,126
-289,862	35,890	-0,070	0,045
-288,847	-200,000	-0,001	-0,032
-287,832	583,897	-0,037	-0,066
-286,818	36,307	-0,109	-0,070
-285,803	-200,000	0,021	0,200
-284,789	4,842	-0,051	-0,027
-283,774	67,841	0,165	0,123
-282,759	-85,224	0,043	0,010
-281,745	800,000	0,036	0,080
-280,730	-200,000	-0,021	-0,116
-279,716	119,281	0,023	-0,020
-278,701	401,459	0,069	0,107
-277,686	-200,000	-0,008	-0,046
-276,672	93,710	0,043	0,035
-275,657	-200,000	0,002	0,127
-274,643	-70,517	0,114	0,031
-273,628	-158,963	-0,101	0,004
-272,613	386,610	0,065	-0,099
-271,599	-200,000	0,002	-0,104
-270,584	800,000	0,030	-0,088
-269,570	69,672	0,100	0,075
-268,555	347,036	-0,076	0,110
-267,540	373,491	0,035	0,052
-266,526	800,000	-0,004	-0,008
-265,511	-200,000	0,004	-0,052
-264,497	106,365	-0,009	-0,008
-263,482	-80,833	0,037	0,009
-262,467	194,562	0,095	-0,106
-261,453	-200,000	-0,003	0,035
-260,438	-200,000	0,051	-0,208
-259,424	-69,820	-0,047	0,013
-258,409	-84,788	-0,165	0,038
-257,395	311,213	-0,069	0,094
-256,380	800,000	0,015	0,035
-255,365	-95,674	0,185	-0,036
-254,351	-7,870	-0,035	-0,017
-253,336	69,587	0,022	-0,017
-252,322	41,360	-0,143	-0,094
-251,307	-200,000	0,018	-0,081
-250,292	156,101	0,129	-0,130
-249,278	218,248	0,017	-0,020
-248,263	-102,639	0,027	-0,005
-247,249	177,971	-0,078	0,083
-246,234	800,000	0,047	-0,135
-245,219	188,066	-0,077	-0,084
-244,205	103,012	0,051	-0,044
-243,190	-200,000	0,027	0,125
-242,176	-200,000	0,003	-0,106
-241,161	18,244	-0,112	0,065
-240,146	-73,377	-0,029	-0,008
-239,132	800,000	-0,017	-0,037
-238,117	-200,000	-0,032	-0,151
-237,103	143,904	-0,038	-0,037
-236,088	419,055	0,033	-0,052
-235,073	-5,909	0,097	0,048
-234,059	-200,000	0,015	-0,052
-233,044	539,913	0,063	-0,110
-232,030	212,247	0,058	0,067
-231,015	-200,000	-0,010	-0,099
-230,000	-62,546	-0,078	0,023
-228,986	-200,000	-0,002	0,124
-227,971	800,000	0,012	-0,034
-226,957	800,000	0,034	-0,076
-225,942	-200,000	-0,014	0,056
-224,927	-57,438	0,014	-0,005
-223,913	79,236	-0,024	-0,019
-222,898	-20,105	0,110	0,049
-221,884	800,000	-0,050	-0,110
-220,869	-108,519	-0,042	-0,006
-219,855	1,223	0,055	0,029
-218,840	-43,857	0,103	0,038
-217,825	800,000	0,053	-0,111
-216,811	103,934	-0,106	0,091
-215,796	-45,692	0,121	-0,043
-214,782	138,716	0,049	-0,047
-213,767	16,026	-0,040	0,023
-212,752	800,000	-0,015	0,040
-211,738	-200,000	0,006	0,056
-210,723	91,790	-0,071	-0,058
-209,709	-200,000	0,001	-0,053
-208,694	78,297	0,085	0,066
-207,679	203,573	-0,018	0,021
-206,665	-200,000	-0,004	-0,129
-205,650	-100,644	0,026	0,005
-204,636	169,502	-0,078	0,082
-203,621	-16,400	0,098	0,045
-202,606	-200,000	-0,004	-0,058
-201,592	231,359	-0,060	0,072
-200,577	-109,534	-0,084	-0,013
-199,563	800,000	0,011	0,034
-198,548	-161,614	-0,077	-0,003
-197,533	524,191	0,034	0,059
-196,519	-87,954	0,160	0,035
-195,504	276,623	0,003	-0,004
-194,490	-200,000	0,004	0,038
-193,475	9,036	-0,038	-0,021
-192,460	-200,000	-0,003	0,048
-191,446	-200,000	0,018	0,153
-190,431	25,024	-0,115	0,069
-189,417	-191,338	0,099	0,001
-188,402	-67,899	0,054	0,015
-187,387	-135,815	-0,050	0,004
-186,373	12,010	0,041	0,023
-185,358	800,000	0,023	-0,073
-184,344	-200,000	-0,001	-0,005
-183,329	284,952	-0,026	0,034
-182,315	278,948	-0,024	0,032
-181,300	-2,114	0,117	0,060
-180,285	121,450	-0,056	-0,051
-179,271	800,000	0,015	-0,040
-178,256	-23,542	-0,076	0,033
-177,242	-120,363	-0,046	-0,006
-176,227	10,246	0,088	0,048
-175,212	-167,956	0,037	0,001
-174,198	86,869	-0,019	0,015
-173,183	553,029	-0,048	0,085
-172,169	800,000	-0,060	0,128
-171,154	279,996	-0,120	0,156
-170,139	106,492	0,111	-0,096
-169,125	88,918	-0,074	0,060
-168,110	-89,668	-0,085	-0,018
-167,096	319,281	0,089	-0,123
-166,081	173,548	-0,039	-0,041
-165,066	40,379	-0,074	-0,048
-164,052	33,467	-0,053	-0,033
-163,037	800,000	0,048	0,135
-162,023	-174,048	0,098	-0,002
-161,008	-200,000	-0,002	-0,025
-159,993	800,000	0,036	0,113
-158,979	-182,085	0,068	-0,001
-157,964	442,737	-0,027	-0,043
-156,950	-142,608	-0,093	-0,007
-155,935	430,683	-0,019	0,030
-154,920	52,168	0,121	0,084
-153,906	-65,863	0,114	-0,033
-152,891	800,000	-0,056	0,142
-151,877	-200,000	0,013	-0,061
-150,862	-200,000	-0,008	0,038
-149,847	-136,804	-0,060	0,005
-148,833	113,429	-0,083	0,073
-147,818	-18,777	0,077	-0,035
-146,804	10,259	0,118	-0,065
-145,789	673,965	0,041	-0,078
-144,775	-200,000	-0,006	-0,138
-143,760	243,325	0,044	-0,054
-142,745	800,000	-0,051	-0,133
-141,731	-200,000	-0,029	0,180
-140,716	-200,000	0,055	0,207
-139,702	-63,171	0,057	0,017
-138,687	28,014	-0,060	-0,037
-137,672	335,443	0,028	-0,040
-136,658	36,248	-0,089	-0,057
-135,643	243,234	0,096	-0,117
-134,629	-200,000	-0,008	0,078
-133,614	-122,699	-0,034	0,004
-132,599	168,086	-0,061	0,063
-131,585	-26,583	-0,113	-0,048
-130,570	201,354	-0,036	0,040
-129,556	-200,000	-0,005	-0,159
-128,541	668,724	-0,054	-0,103
-127,526	255,375	-0,033	-0,041
-126,512	-49,535	-0,125	0,043
-125,497	-14,462	0,148	0,069
-124,483	383,745	0,021	0,031
-123,468	-200,000	0,020	0,145
-122,453	156,919	-0,099	-0,099
-121,439	-200,000	0,002	-0,087
-120,424	-0,790	0,087	0,045
-119,410	-200,000	-0,010	-0,077
