DTS Sentinel unit serial number:	SN410029Multiplexer serial number:	ORYXHardware model number:	OX2-SRSoftware version number:	ORYX F/W v4,00 Oryx Data Collector v3.7.2.0data status	okinstallation	B4 Nyhavnadifferential loss correction	single-endedforward channel	channel 2reverse channel	N/Adate	2023/12/19time	13:25:13forward acquisition time	300,00reverse acquisition time	0,00gamma	499,1914k internal	0,3128k external	0,3128temperature offset calibration	1,0000default loss term (dB/km)	0,3820temperature slope calibration	1,0000multiplexer offset coefficient	1,0000multiplexer slope coefficient	1,0000fibre end	0,00T internal ref (°C)	19,41T ext. ref 1 (°C)	4,59T ext. ref 2 (°C)	4,59length (m)	temperature (°C)	Stokes	anti-Stokes-744,400	149,586	-0,035	-0,036
-743,385	125,318	-0,162	0,152
-742,371	63,496	0,161	0,120
-741,356	-103,911	-0,308	0,053
-740,342	20,841	0,084	0,051
-739,327	24,846	-0,270	0,166
-738,312	41,811	-0,069	-0,046
-737,298	-140,521	-0,237	0,018
-736,283	-200,000	-0,004	-0,079
-735,269	-38,079	-0,122	0,048
-734,254	43,522	-0,131	0,089
-733,239	-10,197	-0,443	-0,218
-732,225	-15,771	0,117	0,055
-731,210	-99,713	-0,029	-0,005
-730,196	311,629	-0,045	-0,064
-729,181	-133,512	-0,079	0,007
-728,167	-67,679	-0,074	-0,021
-727,152	-51,131	0,016	0,005
-726,137	134,486	-0,097	0,093
-725,123	62,844	-0,060	-0,044
-724,108	460,781	-0,127	-0,212
-723,094	-90,976	0,079	-0,017
-722,079	-0,211	-0,094	0,050
-721,064	-200,000	-0,004	-0,035
-720,050	-95,671	-0,087	0,017
-719,035	800,000	-0,036	-0,111
-718,021	125,062	-0,115	-0,108
-717,006	800,000	-0,030	0,083
-715,991	141,578	-0,052	0,052
-714,977	800,000	0,046	-0,129
-713,962	-200,000	0,005	-0,026
-712,948	-145,855	0,121	-0,008
-711,933	131,732	0,044	-0,042
-710,918	53,355	-0,058	-0,041
-709,904	57,671	-0,048	-0,035
-708,889	-54,334	0,014	-0,005
-707,875	-170,611	-0,082	-0,002
-706,860	-163,895	0,059	-0,002
-705,845	-120,758	-0,064	0,008
-704,831	92,335	0,085	-0,071
-703,816	-34,739	0,053	-0,021
-702,802	800,000	0,057	-0,146
-701,787	-32,893	-0,114	-0,047
-700,772	374,975	-0,077	-0,117
-699,758	-196,731	-0,202	0,001
-698,743	54,697	0,027	0,019
-697,729	-110,070	0,034	0,005
-696,714	28,169	0,052	-0,033
-695,699	52,473	-0,096	0,068
-694,685	-43,384	-0,155	0,058
-693,670	-200,000	0,020	-0,103
-692,656	22,796	-0,087	-0,053
-691,641	61,554	0,107	0,079
-690,627	-200,000	0,013	-0,078
-689,612	800,000	-0,018	-0,051
-688,597	163,629	-0,044	-0,046
-687,583	283,900	-0,034	-0,045
-686,568	92,745	0,088	-0,073
-685,554	-200,000	0,031	-0,154
-684,539	133,082	-0,031	0,029
-683,524	154,459	0,070	-0,072
-682,510	258,552	-0,034	0,043
-681,495	-200,000	-0,000	-0,053
-680,481	29,121	-0,111	-0,069
-679,466	723,866	-0,027	0,054
-678,451	-136,713	-0,035	0,003
-677,437	504,574	-0,099	-0,170
-676,422	-200,000	0,017	0,070
-675,408	-200,000	0,012	0,096
-674,393	254,463	0,094	0,120
-673,378	-141,276	-0,083	-0,006
-672,364	800,000	0,080	-0,215
-671,349	398,924	-0,045	-0,071
-670,335	-200,000	-0,014	0,170
-669,320	10,957	-0,046	-0,026
-668,305	173,573	-0,032	0,035
-667,291	107,284	-0,061	-0,054
-666,276	192,725	0,013	-0,014
-665,262	252,051	-0,052	-0,066
-664,247	-36,262	0,072	0,029
-663,232	-62,243	0,044	0,014
-662,218	699,266	0,032	-0,063
-661,203	-103,736	0,129	0,022
-660,189	800,000	0,062	0,140
-659,174	-42,118	-0,071	0,027
-658,159	793,358	-0,030	-0,061
-657,145	-200,000	-0,014	-0,067
-656,130	-200,000	0,004	-0,033
-655,116	265,937	0,070	-0,091
-654,101	159,344	0,061	-0,063
-653,086	-94,710	0,091	-0,018
-652,072	221,045	-0,048	-0,057
-651,057	364,072	-0,071	-0,105
-650,043	333,263	-0,083	0,119
-649,028	-200,000	-0,004	-0,020
-648,014	-45,228	0,122	0,045
-646,999	-75,654	-0,050	-0,013
-645,984	-200,000	0,010	-0,071
-644,970	137,236	-0,097	-0,094
-643,955	162,019	-0,073	-0,076
-642,941	125,087	-0,076	-0,071
-641,926	125,367	0,131	-0,123
-640,911	-200,000	-0,016	-0,093
-639,897	-180,135	0,111	-0,002
-638,882	-200,000	0,049	-0,197
-637,868	57,025	0,015	0,011
-636,853	-200,000	0,010	-0,083
-635,838	136,548	-0,054	-0,052
-634,824	-200,000	0,004	0,148
-633,809	406,046	0,033	-0,051
-632,795	609,847	-0,053	-0,099
-631,780	-21,172	0,051	-0,023
-630,765	800,000	-0,015	0,048
-629,751	153,330	-0,093	-0,094
-628,736	-57,035	0,054	-0,017
-627,722	-100,967	0,037	-0,007
-626,707	478,914	0,014	-0,023
-625,692	-200,000	-0,040	0,132
-624,678	-127,212	0,032	-0,003
-623,663	-47,730	0,091	-0,033
-622,649	800,000	0,037	-0,109
-621,634	363,647	-0,031	0,046
-620,619	-34,285	0,055	0,022
-619,605	-200,000	0,015	-0,131
-618,590	-129,228	0,016	-0,002
-617,576	202,376	-0,043	0,049
-616,561	-169,496	0,131	-0,003
-615,546	-142,193	-0,063	0,005
-614,532	800,000	-0,013	-0,035
-613,517	11,932	-0,068	0,038
-612,503	198,450	-0,045	-0,051
-611,488	-82,460	0,075	-0,018
-610,474	619,342	0,013	0,024
-609,459	-200,000	-0,027	0,109
-608,444	384,681	-0,084	-0,129
-607,430	-81,550	-0,109	0,026
-606,415	-200,000	0,009	-0,104
-605,401	800,000	-0,046	-0,098
-604,386	800,000	-0,039	0,099
-603,371	-91,541	0,024	-0,005
-602,357	-26,761	0,057	-0,025
-601,342	-42,091	-0,111	0,042
-600,328	-65,972	-0,092	-0,027
-599,313	-140,685	-0,052	-0,004
-598,298	30,389	-0,067	0,042
-597,284	-200,000	0,013	-0,058
-596,269	-32,298	0,038	-0,015
-595,255	800,000	-0,024	-0,053
-594,240	10,121	-0,038	0,021
-593,225	-200,000	-0,005	0,030
-592,211	5,472	-0,110	-0,060
-591,196	-150,647	0,069	-0,004
-590,182	-70,739	0,086	0,024
-589,167	-23,383	-0,030	-0,013
-588,152	184,684	-0,046	0,051
-587,138	329,986	-0,040	-0,058
-586,123	109,344	0,014	0,013
-585,109	206,169	0,051	0,059
-584,094	94,581	-0,087	-0,073
-583,079	57,665	-0,086	0,062
-582,065	132,544	0,040	0,038
-581,050	800,000	-0,047	0,120
-580,036	-96,032	-0,140	-0,027
-579,021	-200,000	-0,004	0,017
-578,006	800,000	-0,031	-0,069
-576,992	295,223	-0,031	-0,041
-575,977	-134,750	0,016	0,001
-574,963	-200,000	0,023	0,076
-573,948	777,849	-0,014	-0,028
-572,934	-71,719	0,044	0,012
-571,919	-200,000	0,009	-0,065
-570,904	-46,309	0,039	-0,014
-569,890	800,000	-0,044	-0,093
-568,875	511,665	0,033	-0,057
-567,861	-143,570	0,047	0,003
-566,846	-77,825	-0,021	0,005
-565,831	17,317	0,130	0,076
-564,817	188,294	-0,015	-0,017
-563,802	-28,637	-0,047	-0,020
-562,788	-200,000	0,007	0,057
-561,773	-117,206	0,104	-0,014
-560,758	800,000	0,021	0,067
-559,744	-161,426	0,063	0,002
-558,729	454,398	0,058	-0,095
-557,715	37,292	-0,112	-0,073
-556,700	247,717	-0,075	0,094
-555,685	-11,999	0,055	0,027
-554,671	800,000	0,041	-0,093
-553,656	800,000	0,054	0,115
-552,642	307,036	0,099	0,137
-551,627	259,619	0,059	-0,076
-550,612	130,946	-0,078	-0,074
-549,598	128,588	-0,061	-0,057
-548,583	61,677	-0,057	0,042
-547,569	89,523	-0,087	-0,072
-546,554	-111,871	0,063	-0,009
-545,539	447,734	-0,065	-0,106
-544,525	-94,723	-0,026	-0,005
-543,510	139,038	-0,072	-0,070
-542,496	-51,307	0,034	-0,012
-541,481	196,982	-0,059	0,067
-540,466	-94,379	-0,159	-0,032
-539,452	122,245	0,010	0,009
-538,437	-15,931	0,047	0,022
-537,423	-154,839	0,165	-0,008
-536,408	-200,000	-0,001	0,011
-535,393	521,869	0,017	0,030
-534,379	-200,000	-0,003	-0,150
-533,364	261,005	0,038	-0,049
-532,350	-200,000	-0,015	0,085
-531,335	-200,000	0,013	0,178
-530,321	-42,741	0,109	0,041
-529,306	-56,796	0,085	0,028
-528,291	673,310	0,026	-0,051
-527,277	24,910	-0,097	0,059
-526,262	83,086	-0,043	-0,035
-525,248	800,000	-0,022	-0,051
-524,233	-85,168	0,137	0,031
-523,218	-43,150	0,075	0,028
-522,204	-48,639	-0,099	-0,035
-521,189	-24,398	-0,097	-0,043
-520,175	-200,000	0,007	-0,028
-519,160	276,310	-0,060	-0,078
-518,145	-200,000	-0,030	-0,103
-517,131	800,000	-0,026	-0,073
-516,116	800,000	0,043	-0,116
-515,102	167,869	0,101	0,106
-514,087	-200,000	-0,008	0,045
-513,072	-200,000	-0,003	-0,071
-512,058	-169,175	-0,139	0,004
-511,043	182,184	0,050	0,055
-510,029	-200,000	0,000	0,075
-509,014	542,306	-0,015	-0,026
-507,999	128,360	0,109	-0,103
-506,985	-136,917	-0,089	0,007
-505,970	-56,295	0,207	-0,067
-504,956	295,082	0,094	0,127
-503,941	-200,000	0,011	0,036
-502,926	-182,521	-0,081	0,001
-501,912	-99,940	-0,028	-0,005
-500,897	-200,000	0,013	-0,129
-499,883	-200,000	0,014	-0,054
-498,868	7,569	0,021	-0,011
-497,853	-200,000	0,019	0,129
-496,839	285,048	0,065	-0,087
-495,824	-84,961	0,095	-0,022
-494,810	-200,000	0,012	0,218
-493,795	6,039	0,064	0,035
-492,781	-20,740	0,022	0,010
-491,766	519,180	-0,032	-0,055
-490,751	800,000	0,024	-0,069
-489,737	800,000	0,029	-0,066
-488,722	496,406	0,052	-0,089
-487,708	-200,000	0,016	0,166
-486,693	-200,000	-0,018	-0,114
-485,678	15,027	-0,058	-0,034
-484,664	66,129	-0,033	0,025
-483,649	-3,550	0,021	-0,011
-482,635	-10,210	-0,068	-0,033
-481,620	-200,000	0,012	0,070
-480,605	-200,000	0,017	0,071
-479,591	800,000	0,063	-0,194
-478,576	-37,768	0,027	0,010
-477,562	-200,000	0,004	0,017
-476,547	800,000	-0,033	-0,098
-475,532	-142,487	0,162	-0,012
-474,518	-200,000	-0,010	0,166
-473,503	112,775	0,055	0,049
-472,489	-132,107	-0,179	0,017
-471,474	-160,684	-0,063	0,002
-470,459	-167,526	-0,120	0,003
-469,445	800,000	0,056	-0,117
-468,430	-58,329	0,083	-0,026
-467,416	40,602	-0,005	-0,003
-466,401	186,152	-0,065	0,071
-465,386	687,723	0,046	0,088
-464,372	17,028	-0,075	0,044
-463,357	3,103	-0,101	-0,054
-462,343	-200,000	0,001	-0,135
-461,328	-121,448	0,139	-0,017
-460,313	16,908	-0,083	0,048
-459,299	61,301	-0,029	-0,021
-458,284	74,275	0,034	0,026
-457,270	-200,000	-0,001	-0,108
-456,255	-200,000	0,019	-0,133
-455,241	176,029	-0,023	-0,025
-454,226	-108,657	-0,034	0,005
-453,211	425,555	0,070	0,111
-452,197	346,614	-0,073	0,105
-451,182	53,562	-0,172	0,121
-450,168	325,771	0,067	0,094
-449,153	87,248	0,098	0,080
-448,138	-200,000	0,014	-0,076
-447,124	432,699	0,062	-0,099
-446,109	800,000	0,022	0,073
-445,095	12,136	-0,130	-0,073
-444,080	49,251	0,096	-0,066
-443,065	562,876	-0,094	0,168
-442,051	-16,228	-0,031	-0,014
-441,036	72,951	-0,035	0,027
-440,022	-77,418	-0,032	-0,008
-439,007	607,029	-0,089	-0,165
-437,992	-200,000	-0,017	-0,122
-436,978	-200,000	-0,007	0,071
-435,963	-180,814	0,096	0,001
-434,949	-61,901	0,067	-0,020
-433,934	-200,000	0,007	0,112
-432,919	-145,051	0,217	-0,014
-431,905	105,042	0,047	-0,041
-430,890	72,430	0,044	0,034
-429,876	-190,073	0,040	0,000
-428,861	-67,626	0,077	0,022
-427,846	-200,000	-0,000	-0,085
-426,832	141,679	-0,026	-0,025
-425,817	644,760	0,062	0,118
-424,803	-154,269	0,132	0,006
-423,788	-200,000	-0,004	0,056
-422,773	800,000	0,035	0,079
-421,759	-70,390	-0,152	0,042
-420,744	-17,644	0,042	-0,019
-419,730	-200,000	-0,020	-0,081
-418,715	-200,000	-0,008	0,059
-417,701	730,630	0,023	-0,046
-416,686	-22,457	0,074	-0,033
-415,671	800,000	-0,036	-0,079
-414,657	445,083	-0,013	0,021
-413,642	-133,365	0,174	-0,016
-412,628	-35,156	-0,092	-0,036
-411,613	562,659	0,042	-0,075
-410,598	-200,000	-0,007	-0,062
-409,584	-200,000	0,023	-0,084
-408,569	100,652	-0,009	0,008
-407,555	212,907	0,051	-0,059
-406,540	120,865	-0,094	0,086
-405,525	224,143	-0,105	-0,125
-404,511	21,391	-0,117	-0,070
-403,496	542,872	-0,021	0,036
-402,482	-200,000	-0,010	0,060
-401,467	158,540	-0,096	-0,098
-400,452	800,000	-0,007	0,019
-399,438	800,000	0,023	0,067
-398,423	800,000	0,019	0,054
-397,409	-200,000	-0,006	-0,129
-396,394	-125,974	-0,154	-0,017
-395,379	-200,000	-0,008	0,106
-394,365	-200,000	0,004	-0,031
-393,350	-48,101	-0,090	0,032
-392,336	-200,000	-0,004	0,052
-391,321	-42,401	-0,054	-0,020
-390,306	-123,614	-0,070	-0,008
-389,292	292,576	-0,122	-0,164
-388,277	-200,000	-0,022	-0,076
-387,263	172,793	0,069	-0,073
-386,248	323,956	-0,013	-0,018
-385,233	18,369	0,074	-0,043
-384,219	800,000	0,010	0,032
-383,204	-200,000	0,008	0,129
-382,190	150,053	-0,116	-0,115
-381,175	-77,186	0,165	-0,042
-380,160	156,323	-0,047	-0,048
-379,146	-5,028	0,046	0,023
-378,131	-86,378	0,076	0,017
-377,117	-118,913	-0,048	0,006
-376,102	-133,924	-0,071	0,006
-375,088	84,364	-0,059	-0,047
-374,073	476,877	0,065	-0,108
-373,058	800,000	-0,012	0,025
-372,044	-46,969	0,103	0,037
-371,029	587,059	0,048	0,087
-370,015	227,539	-0,070	0,084
-369,000	-130,599	-0,158	0,015
-367,985	-200,000	0,022	0,085
-366,971	-200,000	-0,016	0,123
-365,956	-200,000	-0,012	0,065
-364,942	-200,000	0,026	0,115
-363,927	562,101	-0,102	0,181
-362,912	446,720	-0,037	0,060
-361,898	-60,320	0,066	-0,020
-360,883	-193,857	-0,074	-0,000
-359,869	-133,553	-0,033	0,003
-358,854	89,547	0,038	0,031
-357,839	-98,497	0,164	0,030
-356,825	-200,000	-0,017	-0,100
-355,810	161,709	-0,067	-0,069
-354,796	140,814	0,055	-0,054
-353,781	745,632	-0,020	0,041
-352,766	151,950	0,015	0,015
-351,752	304,423	0,010	-0,013
-350,737	103,136	-0,080	0,069
-349,723	133,737	0,069	-0,065
-348,708	-130,239	-0,073	0,007
-347,693	-200,000	-0,017	-0,071
-346,679	50,834	-0,156	-0,108
-345,664	137,893	-0,203	-0,195
-344,650	-110,329	0,203	-0,031
-343,635	800,000	-0,027	0,084
-342,620	-200,000	-0,006	0,139
-341,606	24,922	-0,028	-0,017
-340,591	-35,612	0,142	0,056
-339,577	391,936	-0,059	-0,091
-338,562	-131,839	-0,080	-0,008
-337,548	367,340	-0,059	0,087
-336,533	102,781	0,120	0,103
-335,518	-71,730	0,047	0,013
-334,504	366,831	0,093	0,137
-333,489	705,566	-0,051	0,099
-332,475	-200,000	-0,013	0,129
-331,460	-200,000	0,008	0,028
-330,445	-200,000	0,022	-0,124
-329,431	-200,000	0,137	0,000
-328,416	800,000	-0,028	-0,083
-327,402	-200,000	-0,009	-0,029
-326,387	17,120	0,052	-0,030
-325,372	302,175	0,016	-0,022
-324,358	-200,000	0,005	0,085
-323,343	800,000	-0,066	-0,193
-322,329	64,259	0,029	0,022
-321,314	-144,041	0,047	-0,003
-320,299	586,258	-0,085	0,153
-319,285	800,000	-0,079	0,174
-318,270	-168,497	0,086	0,002
-317,256	58,825	-0,079	-0,057
-316,241	-200,000	0,014	-0,117
-315,226	-72,030	-0,051	0,014
-314,212	-113,768	-0,021	-0,003
-313,197	-1,179	0,070	-0,036
-312,183	60,357	0,138	0,100
-311,168	-200,000	0,002	0,102
-310,153	210,312	0,066	0,076
-309,139	57,020	0,103	-0,073
-308,124	-15,243	0,128	-0,060
-307,110	297,957	0,091	-0,122
-306,095	-25,974	-0,017	-0,007
-305,080	-200,000	-0,005	-0,054
-304,066	112,731	0,069	-0,061
-303,051	-200,000	-0,010	-0,088
-302,037	800,000	-0,019	-0,045
-301,022	800,000	0,026	0,062
-300,008	80,011	0,089	-0,070
-298,993	-200,000	0,013	0,103
-297,978	800,000	0,014	-0,038
-296,964	-63,876	-0,060	0,018
-295,949	45,648	-0,063	-0,043
-294,935	-116,315	-0,104	-0,014
-293,920	800,000	-0,053	0,134
-292,905	147,251	0,056	0,055
-291,891	800,000	-0,024	-0,068
-290,876	705,267	-0,055	0,106
-289,862	-200,000	-0,003	0,109
-288,847	158,774	0,014	0,014
-287,832	-200,000	0,008	-0,092
-286,818	-79,678	0,038	-0,009
-285,803	195,600	0,137	0,152
-284,789	337,351	0,020	-0,028
-283,774	-200,000	-0,033	0,158
-282,759	800,000	0,025	0,061
-281,745	412,234	0,063	0,097
-280,730	-200,000	0,000	0,074
-279,716	-41,266	0,149	-0,056
-278,701	800,000	-0,022	0,068
-277,686	116,793	0,097	0,087
-276,672	138,885	0,007	-0,007
-275,657	255,436	-0,012	0,015
-274,643	-71,378	-0,189	-0,051
-273,628	-36,726	-0,016	-0,006
-272,613	-27,992	-0,019	0,008
-271,599	69,993	0,089	-0,067
-270,584	309,154	-0,030	-0,041
-269,570	342,511	0,019	0,027
-268,555	-142,430	-0,085	-0,006
-267,540	-115,944	-0,074	0,010
-266,526	100,332	-0,101	-0,086
-265,511	-200,000	-0,004	-0,064
-264,497	-49,617	-0,166	-0,057
-263,482	-163,327	0,214	0,007
-262,467	526,921	0,013	-0,023
-261,453	-200,000	-0,019	0,070
-260,438	-200,000	0,005	0,034
-259,424	-78,339	-0,008	0,002
-258,409	-200,000	-0,001	-0,015
-257,395	68,451	-0,033	0,025
-256,380	144,986	0,042	0,041
-255,365	-200,000	0,003	0,100
-254,351	-76,950	-0,090	0,023
-253,336	576,317	-0,068	0,123
-252,322	626,673	-0,030	-0,056
-251,307	415,681	-0,046	-0,072
-250,292	-31,411	-0,104	-0,043
-249,278	-118,772	-0,062	-0,008
-248,263	-200,000	-0,002	-0,106
-247,249	-11,709	-0,042	0,020
-246,234	488,186	-0,073	0,122
-245,219	-200,000	0,007	0,038
-244,205	-51,075	0,019	0,007
-243,190	-200,000	0,015	0,099
-242,176	800,000	-0,044	0,120
-241,161	564,113	-0,016	0,028
-240,146	-123,106	0,059	-0,007
-239,132	249,800	-0,076	0,095
-238,117	-146,570	0,068	0,004
-237,103	-66,867	0,033	-0,009
-236,088	-200,000	0,006	0,049
-235,073	66,833	0,074	0,055
-234,059	-106,772	0,049	0,008
-233,044	143,717	-0,044	0,043
-232,030	8,469	0,072	0,040
-231,015	198,909	0,060	-0,067
-230,000	-200,000	-0,013	-0,073
-228,986	545,576	0,063	0,111
-227,971	800,000	0,033	0,104
-226,957	-200,000	0,047	0,241
-225,942	15,306	-0,090	-0,051
-224,927	336,501	-0,048	0,069
-223,913	-200,000	-0,002	-0,092
-222,898	-139,616	0,054	-0,004
-221,884	-27,159	0,024	0,010
-220,869	212,883	0,102	0,117
-219,855	-200,000	-0,028	0,128
-218,840	-200,000	-0,012	0,166
-217,825	-6,432	-0,112	-0,055
-216,811	442,401	-0,116	-0,186
-215,796	-200,000	-0,005	0,053
-214,782	476,989	-0,037	-0,062
-213,767	-200,000	0,004	0,052
-212,752	-200,000	-0,008	0,064
-211,738	-98,025	-0,028	0,005
-210,723	264,370	0,038	0,048
-209,709	-164,392	0,087	0,003
-208,694	-200,000	0,000	-0,012
-207,679	-17,891	0,092	-0,042
-206,665	145,636	-0,010	0,010
-205,650	337,877	-0,101	0,144
-204,636	60,798	-0,109	0,079
-203,621	-200,000	-0,013	0,100
-202,606	218,671	-0,102	0,119
-201,592	-200,000	0,010	-0,062
-200,577	140,038	0,030	-0,029
-199,563	730,125	0,041	-0,081
-198,548	-200,000	-0,003	0,078
-197,533	-102,705	0,071	0,012
-196,519	36,753	-0,107	-0,069
-195,504	27,603	0,037	0,023
-194,490	800,000	0,015	-0,034
-193,475	-200,000	-0,002	-0,026
-192,460	-83,995	-0,092	-0,021
-191,446	100,796	0,063	-0,053
-190,431	89,774	0,125	0,102
-189,417	-97,028	0,119	-0,023
-188,402	-96,359	-0,020	0,004
-187,387	-190,850	0,077	0,001
-186,373	-152,864	-0,089	0,005
-185,358	527,015	0,033	0,057
-184,344	37,831	0,071	0,046
-183,329	-200,000	-0,029	0,185
-182,315	-200,000	0,005	0,031
-181,300	-200,000	0,011	-0,076
-180,285	-200,000	0,010	-0,068
-179,271	-142,006	-0,102	-0,007
-178,256	-200,000	0,015	-0,049
-177,242	-43,869	0,083	-0,030
-176,227	711,025	-0,035	-0,069
-175,212	-200,000	0,020	0,087
-174,198	107,944	0,071	-0,062
-173,183	-127,074	0,007	0,001
-172,169	23,039	-0,085	0,051
-171,154	-200,000	-0,019	-0,106
-170,139	17,578	-0,046	0,027
-169,125	-144,916	0,050	0,003
-168,110	62,660	-0,088	-0,064
-167,096	-200,000	-0,003	-0,058
-166,081	-147,201	0,171	0,010
-165,066	-34,501	-0,117	0,046
-164,052	173,504	-0,051	-0,054
-163,037	-200,000	-0,018	0,067
-162,023	-200,000	-0,022	-0,101
-161,008	-76,423	0,042	0,011
-159,993	-200,000	0,019	0,090
-158,979	218,200	0,007	0,008
-157,964	-200,000	-0,022	-0,100
-156,950	-200,000	-0,007	0,026
-155,935	800,000	0,022	-0,064
-154,920	800,000	0,029	-0,069
-153,906	111,591	-0,120	-0,105
-152,891	-114,837	0,181	0,025
-151,877	-1,483	-0,190	0,097
-150,862	-200,000	-0,029	-0,127
-149,847	156,577	0,047	-0,048
-148,833	-31,845	0,028	0,011
-147,818	420,615	0,081	-0,127
-146,804	-200,000	0,010	0,071
-145,789	-200,000	0,008	-0,051
-144,775	-43,773	0,053	-0,019
-143,760	145,767	-0,048	-0,047
-142,745	-76,356	0,023	-0,006
-141,731	800,000	0,047	-0,115
-140,716	751,988	-0,004	-0,007
-139,702	35,402	0,044	0,028
-138,687	800,000	0,025	-0,052
-137,672	242,737	-0,057	0,070
-136,658	186,764	-0,020	-0,022
-135,643	420,037	0,017	0,026
-134,629	71,060	-0,076	-0,057
-133,614	144,421	-0,086	0,084
-132,599	-64,456	0,056	-0,016
-131,585	-200,000	-0,002	-0,018
-130,570	-118,266	0,103	0,013
-129,556	-83,157	-0,105	0,024
-128,541	-200,000	0,018	-0,133
-127,526	-200,000	0,038	0,187
-126,512	-200,000	-0,009	0,168
-125,497	-75,093	-0,082	-0,021
-124,483	228,467	0,082	-0,097
-123,468	539,898	0,040	0,069
-122,453	-200,000	-0,001	0,087
-121,439	-93,030	-0,109	0,022
