DTS Sentinel unit serial number:	SN410029Multiplexer serial number:	ORYXHardware model number:	OX2-SRSoftware version number:	ORYX F/W v4,00 Oryx Data Collector v3.7.2.0data status	okinstallation	B4 Nyhavnadifferential loss correction	single-endedforward channel	channel 2reverse channel	N/Adate	2023/12/16time	06:00:13forward acquisition time	300,00reverse acquisition time	0,00gamma	499,1914k internal	0,3128k external	0,3128temperature offset calibration	1,0000default loss term (dB/km)	0,3820temperature slope calibration	1,0000multiplexer offset coefficient	1,0000multiplexer slope coefficient	1,0000fibre end	0,00T internal ref (°C)	22,24T ext. ref 1 (°C)	7,55T ext. ref 2 (°C)	7,72length (m)	temperature (°C)	Stokes	anti-Stokes-744,400	-92,098	0,072	-0,015
-743,385	-146,305	-0,178	-0,011
-742,371	-76,820	0,159	0,041
-741,356	-108,704	-0,257	0,041
-740,342	-200,000	0,037	0,237
-739,327	49,944	-0,247	0,173
-738,312	800,000	0,024	-0,054
-737,298	-178,572	-0,247	0,004
-736,283	111,805	0,087	-0,078
-735,269	31,125	-0,226	0,144
-734,254	800,000	0,056	-0,153
-733,239	-92,181	-0,467	-0,097
-732,225	800,000	0,069	-0,152
-731,210	-103,085	0,053	0,009
-730,196	-82,712	-0,145	-0,035
-729,181	-80,390	0,081	0,020
-728,167	800,000	-0,036	0,087
-727,152	449,310	-0,104	0,171
-726,137	467,713	-0,065	-0,109
-725,123	-90,854	-0,175	-0,037
-724,108	-200,000	-0,013	-0,064
-723,094	26,259	-0,063	-0,039
-722,079	220,432	-0,074	0,089
-721,064	800,000	0,048	0,132
-720,050	-200,000	-0,012	0,084
-719,035	800,000	0,043	0,091
-718,021	16,398	0,107	-0,063
-717,006	-117,519	-0,118	-0,016
-715,991	-200,000	0,018	-0,085
-714,977	800,000	-0,040	-0,092
-713,962	86,980	-0,129	-0,106
-712,948	66,268	0,039	0,029
-711,933	-22,116	0,071	0,032
-710,918	10,654	-0,075	-0,042
-709,904	800,000	-0,031	-0,070
-708,889	800,000	-0,033	0,085
-707,875	800,000	0,036	-0,110
-706,860	-1,741	-0,086	-0,045
-705,845	-200,000	0,001	-0,014
-704,831	482,702	-0,029	0,050
-703,816	-33,977	0,082	-0,033
-702,802	-145,812	-0,172	-0,011
-701,787	-200,000	0,017	-0,074
-700,772	-147,913	-0,130	-0,008
-699,758	-16,962	0,106	-0,049
-698,743	-200,000	-0,001	-0,086
-697,729	-129,015	0,084	-0,009
-696,714	11,368	0,065	-0,037
-695,699	45,496	-0,093	-0,064
-694,685	800,000	-0,024	-0,066
-693,670	364,389	0,066	-0,098
-692,656	14,125	-0,119	-0,069
-691,641	7,439	0,063	0,035
-690,627	83,155	-0,055	-0,044
-689,612	169,847	-0,071	-0,076
-688,597	90,883	-0,052	-0,043
-687,583	406,846	-0,048	-0,076
-686,568	136,458	-0,120	-0,116
-685,554	120,470	0,118	-0,109
-684,539	64,334	0,047	-0,035
-683,524	77,923	-0,048	0,038
-682,510	-28,332	-0,103	0,044
-681,495	-21,423	0,026	0,012
-680,481	170,014	-0,013	-0,014
-679,466	-200,000	0,001	-0,076
-678,451	-137,700	0,069	0,006
-677,437	21,582	0,098	0,059
-676,422	414,500	-0,056	0,088
-675,408	-31,758	0,120	0,050
-674,393	63,165	-0,056	-0,042
-673,378	207,675	-0,112	-0,130
-672,364	-44,286	-0,107	-0,040
-671,349	-200,000	-0,041	-0,136
-670,335	-51,770	-0,177	-0,061
-669,320	24,932	0,089	-0,054
-668,305	800,000	0,080	0,187
-667,291	703,392	0,036	0,070
-666,276	-58,202	0,033	0,011
-665,262	-70,142	0,090	-0,025
-664,247	800,000	-0,042	-0,137
-663,232	-200,000	0,012	0,046
-662,218	-40,277	0,083	0,032
-661,203	756,607	0,028	0,056
-660,189	-117,756	-0,091	0,012
-659,174	-39,967	0,041	-0,016
-658,159	-71,926	-0,147	0,040
-657,145	36,037	-0,094	-0,061
-656,130	414,618	-0,059	0,093
-655,116	30,389	0,076	0,048
-654,101	6,188	0,061	-0,034
-653,086	-96,202	-0,093	0,018
-652,072	800,000	-0,069	-0,207
-651,057	98,961	-0,089	0,076
-650,043	37,438	-0,096	-0,063
-649,028	-166,474	0,152	0,005
-648,014	-106,266	-0,084	0,014
-646,999	175,509	-0,103	-0,110
-645,984	-145,851	-0,071	-0,005
-644,970	90,012	0,102	0,084
-643,955	800,000	-0,047	-0,109
-642,941	-113,311	-0,112	0,016
-641,926	800,000	-0,049	-0,111
-640,911	-200,000	-0,014	0,096
-639,897	-172,918	0,060	-0,001
-638,882	-8,681	-0,039	0,019
-637,868	287,944	0,013	-0,017
-636,853	56,404	-0,061	0,044
-635,838	-72,628	0,071	-0,019
-634,824	154,503	-0,041	0,042
-633,809	-64,280	0,046	0,014
-632,795	-200,000	0,037	0,142
-631,780	31,339	0,187	0,119
-630,765	-51,237	0,026	0,009
-629,751	-15,432	-0,090	-0,043
-628,736	141,428	0,104	-0,102
-627,722	-122,825	-0,079	-0,009
-626,707	84,982	-0,031	-0,025
-625,692	119,336	0,061	-0,056
-624,678	-200,000	-0,017	0,100
-623,663	203,995	-0,086	-0,099
-622,649	79,344	-0,068	0,054
-621,634	46,936	-0,095	-0,065
-620,619	247,690	-0,081	-0,101
-619,605	424,168	-0,030	0,048
-618,590	-53,208	-0,091	0,031
-617,576	13,931	0,074	-0,042
-616,561	-200,000	-0,020	-0,099
-615,546	800,000	-0,032	0,085
-614,532	-200,000	-0,001	-0,105
-613,517	-173,516	0,076	0,002
-612,503	-200,000	-0,008	0,042
-611,488	-45,014	0,059	-0,022
-610,474	323,516	0,049	-0,069
-609,459	-200,000	-0,001	-0,060
-608,444	800,000	-0,046	-0,109
-607,430	-140,478	0,066	0,005
-606,415	73,769	0,128	0,099
-605,401	-16,088	0,089	0,042
-604,386	-146,727	0,136	-0,009
-603,371	-200,000	0,012	0,178
-602,357	267,660	0,117	-0,152
-601,342	-118,413	-0,080	0,010
-600,328	214,982	-0,074	0,087
-599,313	-68,196	0,059	0,017
-598,298	212,401	0,082	0,096
-597,284	-71,772	0,095	0,026
-596,269	703,660	0,080	0,156
-595,255	-200,000	0,021	-0,102
-594,240	35,118	-0,090	-0,058
-593,225	113,758	-0,024	-0,021
-592,211	-100,025	-0,128	-0,023
-591,196	375,008	-0,026	-0,039
-590,182	-99,442	-0,082	0,015
-589,167	-179,809	0,115	-0,002
-588,152	273,165	0,037	0,049
-587,138	800,000	-0,009	0,028
-586,123	64,700	-0,047	0,035
-585,109	24,955	-0,082	-0,050
-584,094	800,000	-0,011	-0,031
-583,079	510,696	0,082	0,142
-582,065	-200,000	-0,011	-0,041
-581,050	523,926	-0,036	0,062
-580,036	-200,000	-0,035	0,115
-579,021	-15,701	-0,078	-0,036
-578,006	-200,000	0,005	-0,056
-576,992	800,000	0,028	-0,080
-575,977	-200,000	-0,020	-0,091
-574,963	306,912	0,072	-0,100
-573,948	-200,000	-0,036	0,119
-572,934	-10,850	0,126	-0,061
-571,919	619,879	-0,115	-0,215
-570,904	-63,501	-0,108	0,033
-569,890	96,578	-0,179	-0,151
-568,875	-19,347	0,073	0,033
-567,861	353,968	0,030	-0,044
-566,846	800,000	0,038	-0,101
-565,831	-156,884	-0,056	-0,003
-564,817	-54,674	0,013	-0,004
-563,802	67,609	-0,170	0,128
-562,788	56,576	-0,097	-0,070
-561,773	37,702	0,165	0,108
-560,758	800,000	-0,042	0,106
-559,744	345,929	0,072	0,105
-558,729	800,000	-0,028	0,085
-557,715	-155,073	-0,048	-0,002
-556,700	216,794	-0,082	-0,096
-555,685	19,135	-0,038	0,022
-554,671	-200,000	-0,044	-0,172
-553,656	-200,000	-0,006	-0,127
-552,642	45,228	0,040	0,027
-551,627	216,148	-0,077	0,090
-550,612	388,765	-0,082	-0,126
-549,598	-200,000	-0,019	-0,194
-548,583	91,324	0,077	-0,064
-547,569	-9,689	0,061	-0,030
-546,554	-58,441	-0,055	-0,017
-545,539	28,483	0,055	-0,034
-544,525	35,859	0,061	0,040
-543,510	207,332	-0,025	0,028
-542,496	93,565	-0,057	-0,047
-541,481	-140,433	-0,087	-0,007
-540,466	800,000	-0,031	-0,090
-539,452	61,496	0,068	-0,050
-538,437	-135,012	0,102	0,009
-537,423	-165,711	0,044	0,001
-536,408	-200,000	0,001	-0,072
-535,393	-148,215	-0,169	0,010
-534,379	-66,301	0,071	-0,021
-533,364	-200,000	0,007	-0,099
-532,350	296,203	-0,053	-0,072
-531,335	171,840	-0,023	0,024
-530,321	472,449	-0,027	0,046
-529,306	-52,435	-0,209	0,071
-528,291	-31,837	-0,122	-0,050
-527,277	72,799	0,068	-0,053
-526,262	370,260	-0,054	-0,080
-525,248	800,000	0,033	-0,070
-524,233	69,700	-0,051	0,039
-523,218	679,704	-0,076	0,147
-522,204	-200,000	0,001	0,131
-521,189	-129,562	-0,053	0,005
-520,175	153,557	-0,054	0,055
-519,160	-200,000	0,004	-0,043
-518,145	800,000	-0,025	0,076
-517,131	18,263	0,048	0,028
-516,116	-200,000	0,012	0,083
-515,102	-200,000	-0,028	-0,103
-514,087	-200,000	0,018	-0,066
-513,072	-124,329	0,101	-0,011
-512,058	198,868	0,059	0,066
-511,043	33,419	-0,016	0,010
-510,029	133,882	-0,116	-0,111
-509,014	800,000	0,016	0,046
-507,999	-19,284	0,101	0,046
-506,985	117,662	-0,066	-0,060
-505,970	800,000	-0,048	-0,099
-504,956	800,000	-0,028	-0,089
-503,941	-7,211	0,104	0,052
-502,926	-200,000	-0,028	0,139
-501,912	-200,000	-0,007	0,039
-500,897	-200,000	0,003	0,094
-499,883	-93,738	0,159	0,032
-498,868	800,000	0,023	-0,056
-497,853	294,507	0,043	-0,058
-496,839	-50,963	-0,261	-0,090
-495,824	191,438	-0,099	0,110
-494,810	-33,612	-0,079	-0,032
-493,795	-62,631	0,113	0,034
-492,781	-200,000	-0,021	-0,069
-491,766	-200,000	-0,021	-0,089
-490,751	-194,027	-0,076	-0,000
-489,737	512,970	0,055	-0,094
-488,722	-132,228	0,048	0,005
-487,708	-200,000	-0,002	0,053
-486,693	-200,000	-0,019	-0,118
-485,678	754,094	0,092	0,184
-484,664	67,822	-0,068	-0,051
-483,649	-200,000	0,015	-0,092
-482,635	-200,000	-0,014	0,082
-481,620	-200,000	-0,014	-0,102
-480,605	-168,968	0,035	0,001
-479,591	-28,228	0,115	-0,049
-478,576	456,425	-0,027	-0,045
-477,562	-200,000	0,011	-0,086
-476,547	-200,000	0,004	-0,170
-475,532	800,000	0,021	-0,060
-474,518	34,361	0,037	0,024
-473,503	229,953	0,061	-0,073
-472,489	42,068	0,119	-0,080
-471,474	-178,558	-0,134	-0,002
-470,459	-11,161	0,071	0,034
-469,445	70,311	-0,052	0,039
-468,430	800,000	0,047	-0,111
-467,416	800,000	0,058	0,146
-466,401	-200,000	-0,003	-0,051
-465,386	800,000	-0,029	-0,081
-464,372	-3,386	0,151	0,077
-463,357	-123,730	0,074	0,008
-462,343	-200,000	0,001	-0,120
-461,328	217,930	0,086	-0,101
-460,313	800,000	0,037	0,077
-459,299	-86,836	0,031	-0,007
-458,284	46,925	0,079	0,054
-457,270	-65,040	0,060	-0,018
-456,255	36,523	0,054	0,035
-455,241	240,555	0,035	-0,044
-454,226	240,201	-0,084	0,103
-453,211	137,678	-0,043	0,041
-452,197	-19,035	0,118	-0,054
-451,182	-127,873	0,075	-0,008
-450,168	-200,000	-0,013	-0,075
-449,153	-200,000	-0,004	-0,108
-448,138	-80,520	-0,180	0,044
-447,124	169,062	-0,008	-0,009
-446,109	89,084	0,079	0,065
-445,095	800,000	0,034	-0,097
-444,080	144,089	-0,059	0,058
-443,065	-200,000	-0,001	0,058
-442,051	-18,259	-0,056	-0,026
-441,036	309,499	0,046	0,064
-440,022	-58,123	-0,069	0,022
-439,007	551,420	-0,028	-0,049
-437,992	-52,944	-0,030	0,010
-436,978	0,622	0,128	0,067
-435,963	40,684	0,064	-0,043
-434,949	11,193	-0,091	-0,051
-433,934	3,692	-0,083	0,044
-432,919	199,113	0,068	-0,076
-431,905	1,980	-0,059	0,031
-430,890	-200,000	-0,003	-0,138
-429,876	800,000	0,019	0,061
-428,861	-62,510	-0,055	0,017
-427,846	342,347	-0,055	0,080
-426,832	800,000	-0,057	0,162
-425,817	-139,507	-0,098	-0,008
-424,803	18,666	-0,101	-0,059
-423,788	-200,000	0,020	-0,089
-422,773	206,615	0,068	0,078
-421,759	-200,000	0,009	0,098
-420,744	800,000	-0,027	0,067
-419,730	-98,168	0,106	0,020
-418,715	46,007	-0,082	-0,056
-417,701	229,437	-0,062	-0,075
-416,686	235,309	-0,070	-0,085
-415,671	-200,000	0,032	0,106
-414,657	-48,650	0,100	-0,035
-413,642	275,753	-0,020	-0,026
-412,628	235,905	-0,099	-0,120
-411,613	-200,000	0,006	-0,038
-410,598	0,329	-0,055	0,029
-409,584	145,787	-0,049	-0,048
-408,569	25,315	0,094	-0,057
-407,555	-200,000	-0,016	0,076
-406,540	234,705	-0,053	0,064
-405,525	37,343	0,076	-0,049
-404,511	46,481	-0,120	-0,082
-403,496	200,055	-0,090	-0,101
-402,482	-40,742	0,066	-0,025
-401,467	-200,000	-0,015	-0,090
-400,452	-43,071	-0,116	0,043
-399,438	-125,030	0,042	0,005
-398,423	800,000	-0,031	0,071
-397,409	-200,000	-0,008	-0,115
-396,394	63,117	0,052	-0,038
-395,379	-109,364	-0,115	0,018
-394,365	179,399	-0,047	0,050
-393,350	183,469	-0,004	-0,005
-392,336	33,251	0,091	0,058
-391,321	63,371	0,056	0,041
-390,306	-200,000	-0,016	0,110
-389,292	800,000	-0,029	-0,077
-388,277	207,091	-0,066	-0,076
-387,263	38,957	0,114	0,074
-386,248	40,324	-0,094	0,062
-385,233	13,680	-0,067	0,038
-384,219	542,977	0,063	0,110
-383,204	-155,278	-0,156	0,007
-382,190	138,731	-0,013	-0,012
-381,175	140,031	0,071	-0,068
-380,160	-28,953	0,159	-0,067
-379,146	-86,847	0,064	0,014
-378,131	-200,000	-0,013	-0,059
-377,117	-200,000	-0,015	0,084
-376,102	-60,192	-0,172	-0,054
-375,088	-55,842	0,093	-0,030
-374,073	-200,000	-0,025	0,136
-373,058	-200,000	-0,004	0,034
-372,044	800,000	0,078	0,170
-371,029	185,795	-0,085	0,093
-370,015	-200,000	-0,005	-0,100
-369,000	-41,746	-0,030	-0,011
-367,985	-109,585	0,113	-0,017
-366,971	207,518	-0,076	-0,087
-365,956	-162,607	0,151	0,005
-364,942	380,272	0,046	0,070
-363,927	-135,626	-0,115	-0,010
-362,912	800,000	-0,035	0,075
-361,898	800,000	0,035	0,114
-360,883	-200,000	0,021	-0,131
-359,869	-200,000	0,018	-0,081
-358,854	143,722	0,021	0,020
-357,839	-200,000	-0,016	0,082
-356,825	-156,374	0,117	0,005
-355,810	739,772	0,023	-0,046
-354,796	-200,000	-0,001	-0,256
-353,781	18,501	-0,039	-0,023
-352,766	243,609	0,077	-0,095
-351,752	135,141	0,144	-0,137
-350,737	800,000	0,010	-0,031
-349,723	-200,000	0,003	-0,055
-348,708	560,495	0,031	0,055
-347,693	512,610	-0,012	-0,021
-346,679	-200,000	-0,036	-0,118
-345,664	636,903	0,025	0,046
-344,650	130,738	-0,052	-0,048
-343,635	-200,000	0,019	0,107
-342,620	-36,177	0,125	0,049
-341,606	-95,439	-0,059	0,011
-340,591	-200,000	0,001	-0,181
-339,577	417,367	-0,043	-0,068
-338,562	428,226	0,027	-0,043
-337,548	-200,000	0,003	-0,035
-336,533	87,162	0,112	-0,091
-335,518	481,904	-0,028	0,046
-334,504	800,000	0,029	0,082
-333,489	52,089	0,016	-0,011
-332,475	-84,502	-0,183	-0,042
-331,460	-86,907	-0,044	-0,010
-330,445	800,000	0,051	0,114
-329,431	-200,000	-0,020	-0,127
-328,416	7,018	0,025	0,014
-327,402	147,163	-0,041	0,041
-326,387	-200,000	-0,025	0,080
-325,372	-200,000	0,002	-0,125
-324,358	7,079	-0,153	-0,083
-323,343	-200,000	0,017	-0,079
-322,329	-72,148	0,051	0,014
-321,314	-200,000	-0,029	0,097
-320,299	704,099	0,053	0,102
-319,285	-200,000	-0,012	0,125
-318,270	27,887	-0,060	-0,037
-317,256	-200,000	0,006	-0,063
-316,241	-200,000	0,001	0,039
-315,226	33,840	0,017	0,011
-314,212	791,197	0,072	0,146
-313,197	-142,519	-0,085	-0,006
-312,183	250,791	0,082	0,103
-311,168	-70,044	-0,113	-0,031
-310,153	767,128	0,047	-0,095
-309,139	62,306	-0,088	0,064
-308,124	-1,624	-0,042	0,022
-307,110	-152,100	0,203	0,011
-306,095	39,785	-0,007	-0,004
-305,080	-5,638	0,143	0,071
-304,066	316,581	-0,088	-0,122
-303,051	71,721	-0,082	-0,062
-302,037	-103,104	0,170	0,029
-301,022	629,209	-0,054	-0,101
-300,008	-42,575	-0,056	-0,021
-298,993	597,513	0,023	-0,042
-297,978	-200,000	-0,003	0,035
-296,964	-90,884	-0,060	0,012
-295,949	-40,696	0,037	-0,014
-294,935	136,585	-0,049	0,047
-293,920	92,770	0,013	0,011
-292,905	-200,000	0,005	0,062
-291,891	726,025	0,015	0,029
-290,876	744,898	-0,020	0,039
-289,862	-200,000	0,007	-0,080
-288,847	-33,918	-0,151	-0,060
-287,832	-200,000	0,012	0,152
-286,818	-200,000	0,019	0,139
-285,803	800,000	-0,036	0,086
-284,789	-200,000	-0,026	0,132
-283,774	800,000	-0,044	-0,095
-282,759	72,971	0,129	0,098
-281,745	-200,000	0,001	-0,090
-280,730	209,793	-0,079	-0,090
-279,716	-66,849	0,063	0,018
-278,701	352,978	-0,081	0,118
-277,686	-200,000	0,006	-0,030
-276,672	-200,000	0,035	0,116
-275,657	62,510	0,122	-0,089
-274,643	-200,000	-0,019	-0,094
-273,628	-155,457	-0,117	-0,005
-272,613	-135,072	-0,145	0,013
-271,599	76,434	0,123	0,095
-270,584	-200,000	-0,009	0,163
-269,570	23,606	-0,071	0,043
-268,555	-48,496	-0,179	-0,063
-267,540	453,981	0,043	0,070
-266,526	800,000	0,046	-0,119
-265,511	624,930	-0,064	-0,118
-264,497	-1,802	0,064	0,033
-263,482	152,054	0,083	0,083
-262,467	-200,000	0,000	-0,108
-261,453	104,473	0,082	-0,070
-260,438	10,625	-0,065	-0,036
-259,424	-24,418	0,049	0,021
-258,409	9,575	-0,028	0,016
-257,395	-91,252	-0,078	0,016
-256,380	62,096	-0,031	0,022
-255,365	-53,576	-0,085	0,028
-254,351	800,000	0,030	0,069
-253,336	-200,000	-0,006	0,037
-252,322	11,411	-0,152	-0,085
-251,307	-26,240	0,103	-0,044
-250,292	393,874	-0,059	0,090
-249,278	276,511	0,060	0,078
-248,263	-82,949	-0,064	0,015
-247,249	63,240	0,083	0,061
-246,234	472,229	0,024	-0,040
-245,219	-200,000	-0,044	-0,151
-244,205	800,000	0,015	0,037
-243,190	-200,000	-0,000	-0,015
-242,176	46,214	0,087	-0,059
-241,161	404,064	0,038	0,058
-240,146	81,294	0,125	0,099
-239,132	88,837	-0,163	0,132
-238,117	-200,000	0,008	0,185
-237,103	-7,630	0,093	0,046
-236,088	-200,000	0,026	0,154
-235,073	800,000	-0,070	0,208
-234,059	-200,000	0,011	-0,071
-233,044	-102,292	0,146	0,025
-232,030	-103,572	-0,053	-0,009
-231,015	800,000	0,023	-0,053
-230,000	-200,000	-0,012	-0,048
-228,986	66,083	-0,017	-0,013
-227,971	-74,413	0,058	0,015
-226,957	800,000	0,034	0,070
-225,942	18,618	0,138	0,080
-224,927	-124,373	0,126	0,014
-223,913	232,076	0,063	0,075
-222,898	-52,657	0,089	0,030
-221,884	149,536	-0,041	0,040
-220,869	-4,927	0,175	-0,088
-219,855	-52,509	0,111	-0,037
-218,840	87,964	-0,019	0,015
-217,825	314,605	-0,030	-0,042
-216,811	800,000	-0,059	0,156
-215,796	-200,000	0,003	0,117
-214,782	731,971	0,025	0,049
-213,767	11,297	0,038	-0,021
-212,752	11,085	0,070	-0,039
-211,738	800,000	-0,058	0,172
-210,723	-200,000	-0,004	-0,036
-209,709	-200,000	-0,025	0,178
-208,694	-200,000	0,011	-0,074
-207,679	-200,000	0,001	-0,039
-206,665	176,548	0,054	-0,057
-205,650	-200,000	-0,018	0,091
-204,636	-200,000	0,009	0,038
-203,621	684,112	-0,012	0,023
-202,606	-119,744	0,099	0,012
-201,592	800,000	-0,049	-0,132
-200,577	800,000	-0,035	0,078
-199,563	-200,000	-0,001	0,091
-198,548	-43,347	0,092	0,034
-197,533	800,000	-0,024	0,061
-196,519	-171,334	0,064	-0,002
-195,504	91,962	-0,101	-0,083
-194,490	-200,000	-0,019	-0,081
-193,475	-200,000	-0,006	0,038
-192,460	-200,000	0,007	0,045
-191,446	800,000	0,043	0,097
-190,431	338,880	0,026	0,037
-189,417	-18,563	0,124	-0,056
-188,402	279,071	-0,064	-0,084
-187,387	56,623	-0,051	0,036
-186,373	-200,000	-0,016	0,094
-185,358	-200,000	0,004	0,083
-184,344	123,813	-0,118	0,108
-183,329	240,865	-0,029	0,035
-182,315	-200,000	-0,008	0,049
-181,300	126,315	-0,077	0,071
-180,285	446,369	-0,035	-0,057
-179,271	-15,290	-0,075	0,035
-178,256	-87,557	-0,118	-0,026
-177,242	-200,000	-0,004	-0,026
-176,227	105,951	0,099	-0,085
-175,212	-200,000	0,021	-0,115
-174,198	122,374	0,065	-0,059
-173,183	-73,526	-0,095	0,025
-172,169	-147,012	-0,032	-0,002
-171,154	-200,000	-0,009	0,043
-170,139	800,000	0,111	0,246
-169,125	-66,854	0,077	0,022
-168,110	61,779	0,078	0,056
-167,096	19,363	0,072	0,042
-166,081	94,711	0,040	-0,033
-165,066	-200,000	0,034	-0,201
-164,052	-103,852	-0,086	-0,014
-163,037	54,483	0,091	-0,064
-162,023	215,088	0,005	0,006
-161,008	247,566	-0,072	0,089
-159,993	177,133	-0,040	0,042
-158,979	145,950	-0,064	-0,062
-157,964	-116,371	-0,026	-0,003
-156,950	800,000	0,039	0,114
-155,935	-200,000	0,034	0,109
-154,920	64,396	0,105	-0,076
-153,906	-200,000	0,005	-0,088
-152,891	125,215	0,086	-0,078
-151,877	800,000	-0,061	-0,172
-150,862	-200,000	-0,013	-0,097
-149,847	-63,238	0,115	0,034
-148,833	175,304	0,032	0,034
-147,818	-200,000	0,024	0,096
-146,804	-200,000	-0,004	0,082
-145,789	-128,676	-0,051	0,005
-144,775	19,049	-0,081	-0,047
-143,760	-200,000	0,012	0,039
-142,745	-88,830	-0,087	-0,019
-141,731	109,971	-0,035	-0,031
-140,716	13,608	0,040	0,022
-139,702	-200,000	0,006	0,050
-138,687	-200,000	0,019	0,080
-137,672	-200,000	-0,025	-0,104
-136,658	91,288	-0,044	-0,036
-135,643	-200,000	0,003	-0,059
-134,629	800,000	-0,044	-0,094
-133,614	425,086	-0,095	0,150
-132,599	-40,449	0,087	0,033
-131,585	-117,022	0,036	-0,005
-130,570	169,584	0,059	0,061
-129,556	115,875	0,088	0,078
-128,541	-200,000	-0,008	-0,069
-127,526	-200,000	-0,014	0,063
-126,512	-200,000	-0,021	-0,070
-125,497	800,000	0,030	0,062
-124,483	-200,000	0,026	0,155
-123,468	17,671	0,092	-0,053
-122,453	196,980	-0,044	0,049
-121,439	-92,005	-0,013	0,003
-120,424	-200,000	-0,005	0,044
-119,410	800,000	-0,018	0,039
-118,395	-145,342	0,190	-0,012
