DTS Sentinel unit serial number:	SN410029Multiplexer serial number:	ORYXHardware model number:	OX2-SRSoftware version number:	ORYX F/W v4,00 Oryx Data Collector v3.7.2.0data status	okinstallation	B4 Nyhavnadifferential loss correction	single-endedforward channel	channel 2reverse channel	N/Adate	2023/12/19time	03:00:13forward acquisition time	300,00reverse acquisition time	0,00gamma	499,1914k internal	0,3125k external	0,3125temperature offset calibration	1,0000default loss term (dB/km)	0,3820temperature slope calibration	1,0000multiplexer offset coefficient	1,0000multiplexer slope coefficient	1,0000fibre end	0,00T internal ref (°C)	21,19T ext. ref 1 (°C)	6,09T ext. ref 2 (°C)	6,08length (m)	temperature (°C)	Stokes	anti-Stokes-744,400	800,000	0,032	-0,094
-743,385	752,365	-0,031	0,062
-742,371	112,184	-0,020	-0,018
-741,356	70,564	-0,126	0,097
-740,342	244,250	-0,097	0,122
-739,327	-38,137	-0,201	0,079
-738,312	-200,000	0,013	-0,137
-737,298	-10,830	-0,241	0,118
-736,283	800,000	0,038	-0,110
-735,269	43,229	-0,165	0,112
-734,254	-200,000	-0,042	-0,159
-733,239	64,776	-0,345	-0,259
-732,225	800,000	-0,033	-0,091
-731,210	82,001	0,052	-0,042
-730,196	122,747	0,038	-0,036
-729,181	260,417	-0,014	0,018
-728,167	180,200	0,089	-0,097
-727,152	231,932	-0,111	-0,136
-726,137	287,765	0,045	-0,061
-725,123	-131,020	0,038	0,004
-724,108	-200,000	-0,019	-0,200
-723,094	157,807	-0,032	0,033
-722,079	-34,978	-0,045	0,018
-721,064	639,075	-0,074	-0,140
-720,050	-200,000	0,023	-0,134
-719,035	-200,000	0,017	0,116
-718,021	-200,000	0,020	-0,119
-717,006	-200,000	-0,032	-0,211
-715,991	-200,000	-0,038	-0,137
-714,977	-200,000	-0,008	-0,026
-713,962	313,883	-0,051	-0,072
-712,948	-200,000	0,000	0,016
-711,933	800,000	-0,056	0,165
-710,918	180,306	-0,150	0,164
-709,904	-55,953	-0,027	0,009
-708,889	-146,923	-0,166	0,010
-707,875	94,915	0,045	-0,038
-706,860	-200,000	-0,017	-0,077
-705,845	-200,000	-0,013	-0,105
-704,831	-51,368	0,088	0,030
-703,816	113,906	-0,059	0,053
-702,802	-2,313	-0,087	-0,045
-701,787	-200,000	0,046	-0,153
-700,772	-116,019	-0,131	-0,018
-699,758	0,232	-0,081	-0,043
-698,743	-93,858	-0,006	-0,001
-697,729	13,828	0,036	-0,021
-696,714	-1,566	-0,077	-0,040
-695,699	-200,000	-0,006	-0,038
-694,685	800,000	0,017	-0,057
-693,670	208,497	-0,079	-0,092
-692,656	147,577	-0,044	-0,044
-691,641	-158,220	0,122	0,005
-690,627	-200,000	-0,021	0,101
-689,612	-104,701	0,033	0,006
-688,597	-200,000	-0,028	-0,103
-687,583	-200,000	-0,003	-0,116
-686,568	-126,366	-0,111	-0,012
-685,554	-200,000	-0,002	0,076
-684,539	-200,000	0,012	0,064
-683,524	69,812	0,081	-0,062
-682,510	-156,862	0,069	0,003
-681,495	-200,000	0,009	-0,072
-680,481	171,577	0,056	-0,060
-679,466	300,995	0,050	0,068
-678,451	17,048	0,036	-0,021
-677,437	-67,192	0,070	0,020
-676,422	45,384	-0,104	0,071
-675,408	800,000	0,009	0,022
-674,393	-198,292	0,109	-0,000
-673,378	-200,000	-0,015	0,073
-672,364	800,000	0,026	-0,077
-671,349	-56,734	-0,205	-0,067
-670,335	-135,452	0,071	-0,006
-669,320	800,000	-0,037	-0,116
-668,305	117,612	0,028	0,025
-667,291	-23,731	-0,082	-0,036
-666,276	637,964	-0,041	-0,078
-665,262	-200,000	0,008	-0,115
-664,247	216,655	-0,056	0,066
-663,232	-96,373	0,077	-0,015
-662,218	-200,000	0,008	-0,034
-661,203	-160,026	0,046	-0,002
-660,189	-4,288	0,035	0,018
-659,174	105,314	0,132	-0,116
-658,159	-47,500	-0,226	-0,081
-657,145	-18,002	-0,100	-0,046
-656,130	548,337	0,057	-0,102
-655,116	-17,623	-0,049	0,023
-654,101	-94,453	0,012	-0,003
-653,086	-112,335	0,069	-0,010
-652,072	0,180	0,071	-0,038
-651,057	-200,000	0,027	-0,133
-650,043	-200,000	0,002	-0,161
-649,028	-68,631	-0,088	-0,025
-648,014	22,496	0,049	-0,030
-646,999	-200,000	0,005	0,042
-645,984	149,714	0,101	0,102
-644,970	800,000	-0,040	-0,113
-643,955	-98,557	-0,098	-0,018
-642,941	-200,000	-0,009	-0,032
-641,926	205,068	0,067	0,077
-640,911	108,318	0,098	0,086
-639,897	-200,000	-0,054	-0,222
-638,882	-139,913	0,143	0,011
-637,868	-200,000	0,023	-0,144
-636,853	800,000	-0,061	-0,128
-635,838	-95,418	0,075	0,015
-634,824	-200,000	-0,035	-0,147
-633,809	-104,718	-0,141	-0,024
-632,795	-119,534	0,149	-0,019
-631,780	-200,000	-0,002	0,083
-630,765	-87,385	-0,068	-0,015
-629,751	-200,000	-0,016	-0,098
-628,736	309,314	-0,096	-0,133
-627,722	-142,153	-0,049	-0,004
-626,707	-200,000	0,022	0,092
-625,692	-200,000	0,027	0,153
-624,678	55,804	0,148	0,106
-623,663	800,000	-0,049	0,112
-622,649	-200,000	0,012	-0,101
-621,634	800,000	-0,073	-0,188
-620,619	-200,000	0,009	-0,086
-619,605	-133,593	-0,178	0,016
-618,590	800,000	0,051	0,113
-617,576	-33,744	0,071	0,029
-616,561	800,000	-0,010	-0,027
-615,546	615,196	0,056	-0,104
-614,532	62,828	-0,095	0,071
-613,517	-151,229	-0,121	-0,007
-612,503	8,200	0,081	-0,045
-611,488	-48,604	-0,062	0,022
-610,474	-200,000	-0,014	-0,066
-609,459	-93,893	-0,103	-0,021
-608,444	25,459	-0,008	-0,005
-607,430	-101,000	0,034	-0,006
-606,415	490,503	-0,063	0,108
-605,401	-169,138	0,131	0,004
-604,386	-27,418	-0,101	-0,043
-603,371	-117,276	0,167	-0,022
-602,357	800,000	-0,042	0,111
-601,342	20,539	-0,066	-0,040
-600,328	-124,199	-0,088	0,010
-599,313	-200,000	-0,011	-0,091
-598,298	800,000	-0,035	-0,108
-597,284	-59,522	0,123	-0,039
-596,269	800,000	0,043	-0,093
-595,255	-102,322	-0,058	-0,010
-594,240	-130,871	-0,130	-0,013
-593,225	284,390	-0,104	0,139
-592,211	-200,000	0,055	0,187
-591,196	-29,311	0,136	0,057
-590,182	-108,502	-0,085	-0,013
-589,167	-200,000	-0,016	0,173
-588,152	79,516	0,066	0,052
-587,138	-49,236	0,113	-0,040
-586,123	3,777	0,094	-0,051
-585,109	679,850	-0,107	-0,208
-584,094	9,109	-0,021	-0,012
-583,079	-200,000	-0,014	0,088
-582,065	-14,088	0,079	-0,038
-581,050	-47,561	0,097	0,035
-580,036	-82,267	0,113	-0,027
-579,021	129,849	-0,106	-0,101
-578,006	617,065	-0,052	-0,097
-576,992	-124,932	-0,148	-0,017
-575,977	287,719	0,066	0,089
-574,963	-118,422	0,119	-0,015
-573,948	-200,000	0,037	0,147
-572,934	-50,195	0,026	-0,009
-571,919	40,152	0,074	0,049
-570,904	482,093	-0,026	0,044
-569,890	-200,000	-0,029	0,136
-568,875	148,021	0,041	-0,041
-567,861	-66,777	-0,101	-0,029
-566,846	-200,000	0,007	-0,106
-565,831	115,960	-0,061	-0,055
-564,817	800,000	0,024	0,049
-563,802	281,440	-0,087	-0,116
-562,788	-29,817	0,134	-0,056
-561,773	-40,884	0,058	-0,022
-560,758	-71,027	0,090	-0,025
-559,744	-186,248	0,081	-0,001
-558,729	141,894	-0,048	0,047
-557,715	220,121	-0,003	0,003
-556,700	-138,139	-0,128	0,010
-555,685	-79,281	-0,039	-0,010
-554,671	-200,000	0,010	-0,086
-553,656	146,864	-0,090	-0,090
-552,642	44,603	0,049	-0,033
-551,627	168,955	-0,016	0,017
-550,612	693,153	-0,028	-0,054
-549,598	-69,662	-0,072	0,020
-548,583	-200,000	-0,010	0,246
-547,569	493,000	0,014	-0,025
-546,554	800,000	-0,029	0,094
-545,539	130,438	0,022	0,021
-544,525	800,000	-0,010	0,023
-543,510	800,000	0,015	-0,031
-542,496	2,823	-0,191	-0,102
-541,481	-200,000	-0,015	-0,146
-540,466	-200,000	-0,011	0,092
-539,452	-200,000	0,005	0,019
-538,437	-200,000	-0,031	-0,131
-537,423	21,102	-0,140	0,084
-536,408	800,000	-0,032	-0,075
-535,393	7,618	-0,093	-0,051
-534,379	58,021	-0,029	0,021
-533,364	334,284	-0,004	-0,006
-532,350	-93,024	0,095	-0,019
-531,335	-200,000	-0,010	0,080
-530,321	800,000	-0,021	0,062
-529,306	800,000	-0,027	-0,068
-528,291	209,863	0,075	-0,087
-527,277	-83,974	-0,080	0,019
-526,262	800,000	0,051	0,138
-525,248	800,000	0,007	-0,019
-524,233	-49,272	0,043	-0,015
-523,218	109,010	-0,113	-0,100
-522,204	-30,365	0,086	0,036
-521,189	-49,512	-0,042	-0,015
-520,175	431,921	0,062	-0,099
-519,160	800,000	0,051	-0,151
-518,145	800,000	-0,034	-0,095
-517,131	-200,000	-0,011	0,042
-516,116	527,203	0,073	0,127
-515,102	800,000	0,029	0,087
-514,087	-25,029	-0,066	0,029
-513,072	800,000	-0,031	-0,068
-512,058	68,660	-0,056	-0,042
-511,043	236,748	-0,078	-0,096
-510,029	589,568	0,093	-0,170
-509,014	-200,000	-0,009	-0,160
-507,999	1,705	-0,060	0,032
-506,985	-200,000	-0,008	0,080
-505,970	167,901	-0,069	0,072
-504,956	800,000	0,032	-0,076
-503,941	12,948	0,194	0,110
-502,926	800,000	-0,036	0,087
-501,912	-200,000	0,022	0,093
-500,897	-175,688	-0,029	0,001
-499,883	59,793	0,063	-0,046
-498,868	7,846	-0,061	-0,034
-497,853	347,497	-0,083	-0,122
-496,839	-81,963	0,189	-0,045
-495,824	52,180	0,101	0,071
-494,810	-200,000	0,003	-0,103
-493,795	-96,253	0,061	-0,012
-492,781	-200,000	-0,019	0,101
-491,766	192,374	-0,073	-0,082
-490,751	440,298	0,044	-0,072
-489,737	-200,000	0,021	0,093
-488,722	45,372	0,053	0,036
-487,708	-200,000	0,000	0,077
-486,693	800,000	0,025	0,065
-485,678	294,400	-0,046	0,062
-484,664	-200,000	-0,010	0,060
-483,649	166,202	-0,093	-0,097
-482,635	203,549	-0,054	0,061
-481,620	800,000	0,044	-0,122
-480,605	-68,165	0,065	0,019
-479,591	800,000	0,033	0,105
-478,576	142,822	0,054	0,053
-477,562	-35,863	-0,149	-0,059
-476,547	-29,484	0,018	0,007
-475,532	-200,000	0,002	-0,011
-474,518	-13,662	0,040	-0,019
-473,503	47,455	-0,063	-0,043
-472,489	79,433	-0,044	-0,035
-471,474	159,984	-0,081	-0,083
-470,459	191,423	0,075	-0,083
-469,445	15,384	0,078	-0,045
-468,430	-200,000	0,034	-0,124
-467,416	118,766	-0,102	0,093
-466,401	137,402	-0,065	-0,063
-465,386	196,908	0,126	-0,142
-464,372	47,355	0,095	-0,065
-463,357	-8,418	-0,161	-0,080
-462,343	252,256	0,082	-0,103
-461,328	163,065	-0,051	-0,053
-460,313	-200,000	-0,027	-0,147
-459,299	-200,000	0,028	0,106
-458,284	18,289	0,033	-0,020
-457,270	-200,000	-0,010	-0,136
-456,255	179,942	-0,056	0,061
-455,241	294,972	-0,149	0,202
-454,226	-71,828	-0,054	0,015
-453,211	-72,008	0,099	0,027
-452,197	206,323	-0,076	-0,088
-451,182	-72,186	-0,117	-0,032
-450,168	-200,000	0,002	0,012
-449,153	800,000	-0,024	0,073
-448,138	127,215	-0,161	-0,150
-447,124	623,698	-0,060	-0,113
-446,109	436,513	0,028	0,045
-445,095	27,282	0,074	0,045
-444,080	-200,000	-0,015	0,122
-443,065	-26,239	0,176	0,076
-442,051	800,000	-0,100	0,246
-441,036	309,457	0,063	0,087
-440,022	-85,347	-0,067	0,015
-439,007	-200,000	-0,015	0,070
-437,992	291,958	0,048	-0,065
-436,978	-200,000	0,020	-0,090
-435,963	318,464	0,043	0,060
-434,949	145,596	0,032	0,031
-433,934	800,000	0,013	-0,034
-432,919	272,667	-0,051	-0,067
-431,905	8,571	0,102	-0,056
-430,890	310,171	0,056	0,077
-429,876	213,307	-0,107	0,125
-428,861	-200,000	-0,026	0,093
-427,846	-200,000	0,028	0,122
-426,832	-100,566	-0,053	-0,010
-425,817	800,000	0,080	-0,204
-424,803	-200,000	0,013	-0,056
-423,788	-165,825	-0,105	0,003
-422,773	-58,540	0,050	0,016
-421,759	197,158	-0,065	0,074
-420,744	-159,766	0,044	-0,002
-419,730	529,562	-0,003	-0,005
-418,715	250,203	-0,048	-0,060
-417,701	-200,000	0,004	-0,064
-416,686	-116,717	0,070	0,009
-415,671	52,546	0,142	0,100
-414,657	17,166	0,051	0,030
-413,642	172,179	-0,070	0,074
-412,628	-200,000	-0,002	0,074
-411,613	204,937	-0,088	-0,101
-410,598	-117,186	-0,134	0,018
-409,584	-0,847	-0,153	-0,080
-408,569	231,623	0,039	-0,047
-407,555	-200,000	-0,006	0,061
-406,540	347,528	-0,113	0,164
-405,525	-15,091	0,119	-0,056
-404,511	-55,854	0,083	-0,027
-403,496	250,358	-0,046	-0,057
-402,482	-7,321	-0,042	-0,021
-401,467	240,881	0,096	-0,118
-400,452	61,594	-0,042	-0,030
-399,438	543,725	-0,084	0,148
-398,423	208,959	-0,041	0,047
-397,409	-158,609	0,123	0,005
-396,394	466,088	0,031	-0,052
-395,379	389,558	-0,068	-0,104
-394,365	-19,989	0,066	-0,030
-393,350	-200,000	-0,055	0,185
-392,336	-95,029	-0,165	0,032
-391,321	732,347	0,033	0,064
-390,306	64,611	0,049	0,036
-389,292	503,313	0,015	0,025
-388,277	117,513	-0,080	-0,072
-387,263	-16,727	-0,032	0,015
-386,248	-115,583	0,200	0,027
-385,233	60,636	0,086	-0,063
-384,219	-200,000	0,032	0,132
-383,204	-89,492	-0,026	0,006
-382,190	-200,000	0,013	-0,131
-381,175	292,083	-0,010	0,013
-380,160	-200,000	0,017	-0,067
-379,146	19,409	-0,058	-0,034
-378,131	-12,664	-0,162	0,077
-377,117	-200,000	0,003	0,048
-376,102	135,593	0,018	-0,018
-375,088	72,422	-0,074	0,056
-374,073	5,184	0,060	0,032
-373,058	800,000	0,043	0,138
-372,044	-200,000	0,027	0,139
-371,029	800,000	0,042	-0,089
-370,015	106,914	0,061	0,053
-369,000	380,934	-0,091	0,138
-367,985	-27,891	0,041	-0,017
-366,971	279,660	-0,072	-0,095
-365,956	-107,283	0,012	-0,002
-364,942	-28,533	-0,022	-0,009
-363,927	-84,504	0,064	0,015
-362,912	-200,000	0,008	0,063
-361,898	-10,739	0,070	0,034
-360,883	-57,054	-0,103	0,033
-359,869	-200,000	0,029	0,125
-358,854	800,000	-0,032	0,085
-357,839	-25,830	-0,044	0,019
-356,825	800,000	0,050	0,125
-355,810	-137,557	0,078	-0,006
-354,796	25,199	0,077	-0,047
-353,781	-50,659	0,128	0,044
-352,766	19,917	-0,173	-0,102
-351,752	665,434	-0,084	-0,160
-350,737	406,137	0,059	-0,092
-349,723	-2,794	-0,026	0,013
-348,708	708,684	0,028	0,055
-347,693	-170,308	-0,106	0,003
-346,679	79,854	-0,030	-0,024
-345,664	-47,343	-0,068	0,024
-344,650	25,145	-0,091	-0,055
-343,635	-200,000	0,006	0,142
-342,620	167,015	0,042	0,044
-341,606	800,000	-0,030	0,092
-340,591	-18,442	0,087	-0,039
-339,577	-18,767	-0,085	0,039
-338,562	680,491	0,040	-0,076
-337,548	192,438	-0,052	0,058
-336,533	460,689	0,091	0,149
-335,518	-10,564	0,054	0,026
-334,504	-200,000	-0,004	-0,042
-333,489	357,464	-0,014	0,020
-332,475	138,174	-0,076	0,073
-331,460	-94,380	-0,055	-0,011
-330,445	800,000	-0,053	0,140
-329,431	-200,000	0,026	-0,125
-328,416	-200,000	0,004	0,080
-327,402	-47,794	0,090	0,032
-326,387	-6,227	0,095	-0,047
-325,372	-69,168	-0,060	0,017
-324,358	133,038	-0,051	0,048
-323,343	-138,234	-0,024	0,002
-322,329	800,000	-0,036	-0,091
-321,314	-113,485	0,072	-0,010
-320,299	-200,000	-0,023	0,076
-319,285	-32,910	-0,147	0,059
-318,270	-200,000	0,051	-0,165
-317,256	-2,951	-0,121	0,062
-316,241	-78,353	0,101	0,025
-315,226	122,240	-0,121	-0,111
-314,212	-25,223	0,146	0,063
-313,197	211,897	0,031	-0,036
-312,183	800,000	0,019	0,050
-311,168	-200,000	0,002	-0,062
-310,153	-116,971	0,056	0,007
-309,139	-200,000	-0,001	0,075
-308,124	-86,185	0,051	-0,012
-307,110	53,620	0,130	0,091
-306,095	72,978	0,048	-0,036
-305,080	-23,771	0,027	-0,012
-304,066	44,733	-0,045	0,031
-303,051	-69,618	0,160	0,044
-302,037	217,894	0,073	0,085
-301,022	-81,154	0,068	-0,016
-300,008	-27,780	0,080	0,034
-298,993	-200,000	0,019	0,085
-297,978	800,000	-0,006	-0,012
-296,964	-156,747	-0,125	-0,006
-295,949	-200,000	0,027	0,118
-294,935	30,596	-0,110	0,069
-293,920	-200,000	-0,014	0,050
-292,905	-90,745	0,040	0,008
-291,891	-200,000	-0,032	0,113
-290,876	-85,945	-0,078	-0,018
-289,862	800,000	-0,048	0,111
-288,847	130,603	-0,190	-0,178
-287,832	628,675	-0,041	0,076
-286,818	13,914	0,077	0,044
-285,803	559,312	0,076	0,135
-284,789	-200,000	0,047	0,191
-283,774	-104,331	0,046	0,008
-282,759	31,551	-0,132	-0,083
-281,745	800,000	-0,054	0,121
-280,730	-200,000	-0,013	0,050
-279,716	-200,000	0,000	-0,132
-278,701	346,650	0,018	0,026
-277,686	-128,823	0,152	-0,015
-276,672	479,947	-0,039	0,064
-275,657	-168,343	-0,171	-0,005
-274,643	800,000	-0,022	-0,049
-273,628	35,217	-0,048	0,031
-272,613	1,634	0,127	-0,067
-271,599	84,953	0,249	0,199
-270,584	629,608	-0,054	0,101
-269,570	800,000	-0,045	0,098
-268,555	-200,000	-0,011	-0,107
-267,540	799,626	0,039	-0,080
-266,526	93,175	-0,105	-0,087
-265,511	636,897	0,078	-0,145
-264,497	-155,883	0,088	-0,004
-263,482	256,516	-0,034	0,043
-262,467	26,943	0,031	-0,019
-261,453	596,527	0,019	-0,035
-260,438	611,258	-0,031	-0,057
-259,424	94,360	0,043	0,036
-258,409	146,451	0,064	-0,063
-257,395	157,110	0,064	-0,065
-256,380	22,542	0,128	0,077
-255,365	228,784	-0,082	-0,098
-254,351	-200,000	0,008	-0,095
-253,336	-51,029	0,049	-0,017
-252,322	37,359	0,081	0,052
-251,307	44,747	-0,043	0,029
-250,292	-146,611	-0,099	-0,006
-249,278	-144,022	0,095	0,006
-248,263	105,261	-0,109	-0,094
-247,249	-200,000	0,001	-0,115
-246,234	-200,000	0,004	-0,174
-245,219	444,387	0,019	-0,031
-244,205	-96,466	0,056	0,011
-243,190	28,889	-0,070	-0,043
-242,176	441,699	-0,037	-0,059
-241,161	181,861	0,069	0,075
-240,146	-51,984	-0,043	0,015
-239,132	-80,826	-0,031	-0,008
-238,117	-158,480	-0,105	-0,004
-237,103	105,513	0,046	-0,039
-236,088	185,468	-0,047	0,051
-235,073	50,745	0,154	0,106
-234,059	39,743	0,149	0,097
-233,044	-200,000	0,001	0,065
-232,030	-19,078	-0,098	-0,044
-231,015	-18,467	-0,042	-0,019
-230,000	800,000	0,039	-0,080
-228,986	800,000	0,034	-0,071
-227,971	-151,324	0,038	0,002
-226,957	145,440	-0,059	0,058
-225,942	800,000	0,029	0,064
-224,927	-54,064	0,142	0,047
-223,913	-117,777	-0,038	-0,005
-222,898	-149,169	-0,134	0,008
-221,884	164,660	0,018	0,018
-220,869	-121,135	0,056	-0,007
-219,855	-93,265	-0,041	-0,008
-218,840	99,409	-0,044	-0,038
-217,825	48,410	0,111	-0,075
-216,811	234,651	0,044	0,053
-215,796	-97,443	0,076	0,014
-214,782	800,000	0,015	0,034
-213,767	-163,786	-0,131	0,004
-212,752	-185,989	-0,173	-0,002
-211,738	800,000	-0,035	0,081
-210,723	498,825	0,035	0,059
-209,709	800,000	-0,060	-0,144
-208,694	101,802	-0,133	-0,113
-207,679	30,369	-0,063	0,039
-206,665	-132,532	-0,095	-0,009
-205,650	800,000	-0,040	0,091
-204,636	43,337	-0,118	0,078
-203,621	-121,271	-0,086	-0,010
-202,606	99,555	0,033	-0,028
-201,592	19,653	0,061	-0,036
-200,577	3,511	-0,033	0,017
-199,563	800,000	0,056	-0,152
-198,548	34,294	-0,053	0,034
-197,533	73,431	0,081	0,062
-196,519	244,476	0,065	-0,080
-195,504	-200,000	0,035	-0,167
-194,490	87,115	-0,109	-0,088
-193,475	-7,423	0,183	-0,090
-192,460	-200,000	0,012	0,086
-191,446	32,189	0,056	-0,035
-190,431	800,000	-0,014	0,030
-189,417	-51,885	0,052	0,018
-188,402	800,000	-0,031	-0,062
-187,387	241,356	-0,043	-0,052
-186,373	-68,613	0,058	-0,016
-185,358	444,278	0,027	0,043
-184,344	22,564	0,033	-0,020
-183,329	-81,365	0,122	-0,029
-182,315	-200,000	0,048	0,221
-181,300	-160,878	0,137	0,005
-180,285	273,531	0,018	0,023
-179,271	111,022	-0,026	-0,022
-178,256	-39,116	0,125	-0,048
-177,242	96,258	0,101	0,084
-176,227	41,705	0,063	-0,042
-175,212	800,000	0,032	0,076
-174,198	-35,751	0,154	0,060
-173,183	-200,000	-0,017	0,077
-172,169	120,357	-0,097	-0,087
-171,154	168,068	0,019	-0,019
-170,139	68,918	0,048	-0,036
-169,125	800,000	0,032	0,092
-168,110	-12,091	-0,023	-0,011
-167,096	113,526	-0,058	-0,051
-166,081	-200,000	0,006	-0,021
-165,066	-69,107	-0,173	0,048
-164,052	-200,000	0,005	-0,025
-163,037	779,559	0,028	0,055
-162,023	-15,071	0,034	-0,016
-161,008	-65,044	0,221	0,065
-159,993	-200,000	0,007	0,024
-158,979	-200,000	-0,017	0,072
-157,964	-200,000	0,015	-0,132
-156,950	-200,000	-0,014	-0,094
-155,935	-28,808	0,026	-0,011
-154,920	-60,137	-0,145	-0,045
-153,906	-200,000	-0,016	-0,062
-152,891	538,324	0,028	-0,049
-151,877	388,255	0,024	-0,036
-150,862	-135,779	-0,070	0,006
-149,847	-200,000	-0,013	-0,060
-148,833	800,000	-0,035	0,095
-147,818	57,126	-0,069	-0,049
-146,804	161,549	0,143	-0,146
-145,789	305,116	0,128	-0,174
-144,775	800,000	0,052	-0,144
-143,760	19,147	0,035	-0,020
-142,745	-200,000	0,019	-0,180
-141,731	91,550	0,014	-0,012
-140,716	162,892	0,010	0,010
-139,702	-200,000	0,031	0,111
-138,687	800,000	-0,029	-0,064
-137,672	-39,970	-0,036	-0,014
-136,658	-200,000	0,014	0,104
-135,643	-8,136	-0,081	-0,040
-134,629	647,438	0,046	-0,086
-133,614	4,559	-0,007	0,004
-132,599	-200,000	0,011	0,044
-131,585	-200,000	-0,016	-0,178
-130,570	-132,400	-0,210	0,019
-129,556	-53,765	-0,040	-0,013
-128,541	-200,000	-0,000	-0,156
-127,526	620,541	-0,079	0,146
-126,512	-14,824	0,033	-0,015
-125,497	-132,909	0,114	0,010
-124,483	511,634	0,034	-0,058
-123,468	-0,520	-0,086	0,045
-122,453	-4,387	-0,061	0,031
-121,439	800,000	-0,046	0,126
-120,424	800,000	0,041	0,085
-119,410	68,804	0,021	-0,016
