DTS Sentinel unit serial number:	SN410029Multiplexer serial number:	ORYXHardware model number:	OX2-SRSoftware version number:	ORYX F/W v4,00 Oryx Data Collector v3.7.2.0data status	okinstallation	B4 Nyhavnadifferential loss correction	single-endedforward channel	channel 2reverse channel	N/Adate	2023/12/16time	02:00:13forward acquisition time	300,00reverse acquisition time	0,00gamma	499,1914k internal	0,3128k external	0,3128temperature offset calibration	1,0000default loss term (dB/km)	0,3820temperature slope calibration	1,0000multiplexer offset coefficient	1,0000multiplexer slope coefficient	1,0000fibre end	0,00T internal ref (°C)	21,93T ext. ref 1 (°C)	7,19T ext. ref 2 (°C)	7,39length (m)	temperature (°C)	Stokes	anti-Stokes-744,400	479,470	0,027	-0,046
-743,385	-109,475	-0,250	0,039
-742,371	-65,196	0,060	0,018
-741,356	176,058	-0,163	0,177
-740,342	-200,000	0,057	-0,229
-739,327	800,000	-0,106	0,229
-738,312	200,818	0,043	-0,050
-737,298	37,063	-0,209	0,137
-736,283	413,840	0,062	-0,098
-735,269	109,277	-0,169	0,151
-734,254	800,000	-0,039	-0,085
-733,239	-41,869	-0,502	-0,190
-732,225	15,524	-0,051	-0,030
-731,210	16,588	0,027	0,016
-730,196	179,843	-0,009	0,010
-729,181	4,952	-0,097	-0,053
-728,167	-200,000	-0,000	0,082
-727,152	554,946	0,029	0,052
-726,137	193,692	-0,080	-0,090
-725,123	800,000	-0,050	-0,107
-724,108	-90,066	-0,093	0,020
-723,094	455,027	-0,027	-0,045
-722,079	-87,874	0,007	0,002
-721,064	-200,000	0,021	0,074
-720,050	-74,886	-0,118	-0,031
-719,035	-105,394	-0,129	0,022
-718,021	-199,468	0,075	0,000
-717,006	185,992	-0,114	-0,126
-715,991	-200,000	0,005	-0,057
-714,977	458,090	-0,077	-0,127
-713,962	-143,325	0,059	-0,004
-712,948	-122,532	0,030	-0,004
-711,933	441,227	0,014	-0,022
-710,918	664,251	-0,050	-0,096
-709,904	59,093	-0,067	0,049
-708,889	210,256	0,035	-0,041
-707,875	299,700	-0,009	-0,012
-706,860	492,209	0,016	0,027
-705,845	-13,564	-0,098	0,047
-704,831	82,274	0,092	0,074
-703,816	-200,000	-0,023	-0,146
-702,802	12,425	-0,189	-0,108
-701,787	233,795	-0,103	-0,126
-700,772	-135,757	0,108	-0,009
-699,758	800,000	0,036	0,101
-698,743	418,726	-0,053	0,085
-697,729	800,000	-0,046	0,116
-696,714	352,596	-0,058	-0,086
-695,699	-114,627	-0,089	-0,012
-694,685	528,560	-0,049	-0,087
-693,670	-200,000	0,000	-0,058
-692,656	146,950	-0,129	-0,129
-691,641	-42,279	0,077	-0,029
-690,627	-16,897	-0,053	0,025
-689,612	113,741	-0,058	0,052
-688,597	800,000	-0,032	0,086
-687,583	-100,327	-0,093	0,017
-686,568	669,107	-0,020	0,039
-685,554	400,490	0,011	0,017
-684,539	-200,000	-0,023	-0,158
-683,524	-165,099	0,176	0,006
-682,510	-200,000	0,004	0,083
-681,495	165,683	-0,111	-0,116
-680,481	800,000	0,015	-0,032
-679,466	20,686	-0,102	-0,061
-678,451	78,077	-0,092	-0,073
-677,437	-200,000	0,005	0,155
-676,422	-47,659	-0,209	0,075
-675,408	800,000	0,004	-0,009
-674,393	-200,000	0,023	-0,085
-673,378	246,678	-0,036	-0,045
-672,364	118,617	-0,102	-0,093
-671,349	557,943	0,028	0,051
-670,335	111,515	0,055	0,049
-669,320	-200,000	0,032	0,137
-668,305	223,141	-0,073	0,087
-667,291	19,703	-0,073	0,044
-666,276	177,921	0,036	-0,039
-665,262	748,801	0,050	-0,101
-664,247	-61,186	0,122	0,038
-663,232	70,793	0,068	-0,053
-662,218	24,597	0,148	-0,091
-661,203	-91,770	0,071	0,015
-660,189	800,000	-0,023	-0,052
-659,174	84,060	-0,168	-0,136
-658,159	-9,630	-0,068	0,033
-657,145	-101,500	-0,163	0,029
-656,130	302,719	-0,048	0,066
-655,116	151,709	-0,062	0,062
-654,101	-200,000	-0,025	-0,085
-653,086	800,000	-0,040	-0,111
-652,072	800,000	-0,031	-0,088
-651,057	-64,070	-0,210	-0,063
-650,043	-200,000	-0,007	-0,242
-649,028	192,290	-0,023	-0,025
-648,014	-93,273	-0,044	-0,009
-646,999	50,056	0,106	-0,074
-645,984	800,000	0,040	0,120
-644,970	8,640	0,002	0,001
-643,955	-57,997	0,062	-0,020
-642,941	239,462	0,044	0,055
-641,926	-155,129	0,094	0,004
-640,911	-48,361	0,146	0,052
-639,897	-151,631	-0,063	0,003
-638,882	125,174	-0,031	0,029
-637,868	-200,000	0,007	0,034
-636,853	131,650	-0,060	-0,057
-635,838	-21,056	-0,071	-0,032
-634,824	-116,150	-0,018	0,002
-633,809	280,962	-0,070	-0,093
-632,795	421,542	0,070	0,112
-631,780	399,365	0,072	0,112
-630,765	-163,914	0,030	-0,001
-629,751	-200,000	-0,010	-0,051
-628,736	800,000	-0,046	-0,123
-627,722	-200,000	0,004	-0,083
-626,707	611,889	-0,020	-0,037
-625,692	133,146	0,029	-0,027
-624,678	-163,622	-0,046	0,002
-623,663	-53,419	0,070	0,024
-622,649	-168,303	-0,098	-0,003
-621,634	351,883	0,101	-0,149
-620,619	800,000	-0,014	-0,039
-619,605	404,141	0,052	-0,082
-618,590	-120,214	0,040	0,005
-617,576	-24,325	-0,063	0,028
-616,561	-200,000	-0,021	0,185
-615,546	800,000	-0,033	-0,085
-614,532	-200,000	-0,064	-0,239
-613,517	736,542	0,020	-0,040
-612,503	389,049	-0,055	0,084
-611,488	618,106	0,048	-0,090
-610,474	133,430	0,042	-0,040
-609,459	-191,454	-0,097	-0,001
-608,444	-99,540	-0,272	-0,050
-607,430	-200,000	-0,005	-0,138
-606,415	-200,000	0,022	-0,111
-605,401	800,000	0,066	-0,154
-604,386	-55,939	0,177	0,058
-603,371	61,925	0,106	0,078
-602,357	-10,175	-0,098	0,048
-601,342	369,188	0,038	0,057
-600,328	-200,000	0,060	0,211
-599,313	65,857	-0,029	0,022
-598,298	800,000	-0,039	-0,125
-597,284	82,748	0,050	0,040
-596,269	-117,316	0,047	-0,006
-595,255	-200,000	-0,025	0,086
-594,240	-179,068	0,063	-0,001
-593,225	-200,000	0,021	-0,118
-592,211	-200,000	-0,002	-0,017
-591,196	-124,629	-0,013	-0,001
-590,182	-61,380	-0,119	0,037
-589,167	253,913	0,135	0,171
-588,152	110,822	-0,086	-0,077
-587,138	386,808	-0,088	0,134
-586,123	-14,884	-0,065	0,031
-585,109	800,000	0,003	-0,010
-584,094	800,000	0,005	-0,013
-583,079	397,494	0,091	0,141
-582,065	-61,291	0,124	0,038
-581,050	64,521	-0,043	0,032
-580,036	-133,588	-0,091	0,008
-579,021	800,000	-0,087	-0,204
-578,006	-52,772	-0,148	-0,050
-576,992	617,752	-0,068	-0,126
-575,977	-185,474	0,014	-0,000
-574,963	800,000	0,052	0,134
-573,948	260,659	-0,033	-0,043
-572,934	51,365	-0,139	-0,097
-571,919	782,659	-0,041	-0,084
-570,904	-200,000	-0,027	-0,148
-569,890	-200,000	-0,000	-0,078
-568,875	566,269	-0,053	0,095
-567,861	-200,000	-0,000	0,032
-566,846	141,969	0,051	-0,050
-565,831	-39,910	0,025	0,010
-564,817	209,139	-0,086	-0,100
-563,802	-131,179	-0,086	-0,008
-562,788	768,018	0,032	0,064
-561,773	-90,745	0,103	0,022
-560,758	70,172	0,081	0,061
-559,744	-86,479	0,043	0,010
-558,729	-59,061	0,073	-0,023
-557,715	-61,696	0,046	-0,014
-556,700	-192,173	-0,102	-0,001
-555,685	800,000	-0,075	-0,197
-554,671	-142,281	-0,124	-0,009
-553,656	-200,000	0,041	0,138
-552,642	-78,780	0,068	0,017
-551,627	-200,000	0,014	-0,081
-550,612	623,911	0,034	-0,064
-549,598	-200,000	0,009	-0,115
-548,583	292,701	-0,123	0,166
-547,569	-200,000	-0,010	0,055
-546,554	-23,691	-0,077	-0,034
-545,539	800,000	0,054	0,127
-544,525	71,920	-0,043	-0,033
-543,510	107,289	-0,133	0,117
-542,496	66,286	-0,174	-0,130
-541,481	-106,253	-0,134	0,022
-540,466	-200,000	0,017	-0,094
-539,452	123,612	-0,079	-0,073
-538,437	75,063	-0,071	-0,055
-537,423	70,196	-0,116	-0,089
-536,408	-123,402	0,114	-0,013
-535,393	37,753	-0,109	-0,071
-534,379	70,332	-0,100	-0,076
-533,364	-67,506	0,092	0,027
-532,350	-66,223	0,022	-0,006
-531,335	-42,614	0,052	-0,019
-530,321	-82,407	0,120	0,029
-529,306	275,639	0,060	-0,079
-528,291	149,915	0,057	0,057
-527,277	800,000	0,061	0,165
-526,262	-69,339	-0,163	-0,046
-525,248	235,737	-0,021	-0,026
-524,233	-56,397	-0,045	-0,015
-523,218	800,000	0,060	0,155
-522,204	24,284	-0,071	-0,043
-521,189	691,289	-0,040	-0,078
-520,175	80,403	-0,067	0,053
-519,160	-200,000	-0,006	-0,043
-518,145	-145,194	0,142	-0,009
-517,131	142,082	0,057	0,056
-516,116	-188,849	0,117	0,001
-515,102	25,487	-0,033	0,020
-514,087	800,000	-0,012	-0,036
-513,072	-200,000	-0,011	-0,053
-512,058	-34,923	0,068	0,027
-511,043	483,440	0,040	0,067
-510,029	-200,000	0,031	-0,122
-509,014	-131,806	0,125	-0,012
-507,999	114,273	-0,085	0,076
-506,985	85,770	-0,095	-0,077
-505,970	-104,420	0,057	-0,010
-504,956	405,549	-0,063	-0,098
-503,941	-200,000	-0,044	-0,162
-502,926	800,000	-0,012	-0,033
-501,912	708,512	-0,046	0,089
-500,897	-38,225	-0,112	0,044
-499,883	49,169	-0,043	-0,030
-498,868	-80,170	-0,121	0,030
-497,853	-34,916	-0,058	0,023
-496,839	-200,000	-0,002	-0,115
-495,824	-79,435	0,211	-0,052
-494,810	800,000	0,032	-0,092
-493,795	-200,000	0,064	-0,229
-492,781	-200,000	-0,047	-0,189
-491,766	800,000	0,033	-0,073
-490,751	5,056	0,082	-0,044
-489,737	-127,001	0,049	-0,005
-488,722	132,232	0,016	0,015
-487,708	-200,000	-0,021	0,101
-486,693	3,486	-0,127	0,068
-485,678	305,024	0,029	-0,040
-484,664	131,070	-0,100	-0,094
-483,649	54,292	-0,044	-0,031
-482,635	177,777	0,010	0,010
-481,620	90,691	-0,081	0,066
-480,605	252,900	0,033	0,041
-479,591	516,562	-0,071	0,122
-478,576	205,898	-0,082	-0,094
-477,562	173,525	-0,087	-0,093
-476,547	-73,119	-0,093	0,025
-475,532	-200,000	0,005	-0,088
-474,518	-7,988	-0,199	0,099
-473,503	-34,693	0,053	-0,021
-472,489	-151,495	0,129	-0,007
-471,474	800,000	0,030	0,092
-470,459	-177,447	-0,089	0,002
-469,445	215,406	-0,054	-0,063
-468,430	70,795	-0,040	-0,031
-467,416	-200,000	-0,018	0,086
-466,401	70,147	0,034	0,026
-465,386	-9,302	0,059	0,029
-464,372	79,950	0,043	-0,034
-463,357	61,190	-0,091	0,067
-462,343	86,931	0,061	-0,050
-461,328	800,000	0,031	-0,088
-460,313	800,000	0,036	-0,083
-459,299	-21,025	-0,125	0,056
-458,284	97,519	0,072	0,061
-457,270	-123,603	0,078	-0,009
-456,255	-10,792	0,099	-0,048
-455,241	110,138	-0,072	-0,064
-454,226	800,000	0,027	0,063
-453,211	-200,000	0,001	0,104
-452,197	427,819	0,007	-0,011
-451,182	212,240	0,070	0,081
-450,168	405,600	0,038	0,058
-449,153	-200,000	0,031	0,207
-448,138	-150,251	-0,157	-0,009
-447,124	121,864	-0,122	-0,112
-446,109	800,000	0,019	-0,043
-445,095	-66,999	0,161	0,046
-444,080	400,511	-0,037	0,057
-443,065	194,484	-0,054	0,060
-442,051	-152,344	0,017	-0,001
-441,036	-200,000	-0,014	0,106
-440,022	-200,000	0,012	-0,118
-439,007	800,000	-0,045	0,105
-437,992	-29,799	-0,078	0,032
-436,978	-61,541	0,119	0,036
-435,963	-200,000	-0,021	-0,080
-434,949	800,000	0,023	0,059
-433,934	93,887	-0,122	0,102
-432,919	-200,000	-0,033	0,133
-431,905	112,507	0,040	0,036
-430,890	135,230	-0,053	0,051
-429,876	800,000	0,040	0,110
-428,861	-200,000	0,027	0,164
-427,846	-35,489	0,061	0,024
-426,832	111,806	-0,106	0,094
-425,817	138,469	0,078	0,075
-424,803	115,847	-0,029	-0,026
-423,788	628,242	-0,034	-0,064
-422,773	644,424	-0,019	-0,036
-421,759	800,000	-0,015	-0,047
-420,744	-200,000	-0,019	0,065
-419,730	-200,000	-0,026	-0,108
-418,715	85,981	-0,052	0,042
-417,701	501,555	0,051	0,086
-416,686	-46,133	0,046	-0,016
-415,671	106,425	0,069	0,060
-414,657	-2,606	0,087	-0,045
-413,642	-200,000	0,015	0,064
-412,628	76,127	0,053	-0,041
-411,613	-33,599	0,036	-0,015
-410,598	800,000	0,034	0,080
-409,584	-200,000	0,001	0,072
-408,569	-161,744	0,175	0,006
-407,555	105,776	-0,089	-0,077
-406,540	-200,000	-0,009	0,044
-405,525	800,000	0,064	-0,137
-404,511	-200,000	0,019	-0,135
-403,496	47,934	0,036	-0,025
-402,482	-80,617	-0,110	-0,027
-401,467	800,000	0,024	0,060
-400,452	-200,000	-0,009	-0,049
-399,438	-122,088	0,095	0,011
-398,423	137,695	-0,076	-0,073
-397,409	245,066	-0,042	-0,053
-396,394	-53,477	-0,013	0,004
-395,379	-200,000	0,021	0,081
-394,365	152,982	0,087	0,087
-393,350	800,000	-0,045	-0,120
-392,336	-200,000	0,031	-0,120
-391,321	-200,000	-0,026	0,123
-390,306	275,377	-0,028	-0,036
-389,292	800,000	-0,046	-0,130
-388,277	-200,000	-0,000	0,096
-387,263	-53,478	0,055	0,019
-386,248	-180,291	0,032	-0,000
-385,233	-62,983	-0,142	-0,043
-384,219	-200,000	0,013	0,058
-383,204	-74,243	-0,110	-0,029
-382,190	781,219	-0,073	-0,147
-381,175	397,228	0,051	0,079
-380,160	800,000	-0,028	0,061
-379,146	-200,000	-0,009	-0,118
-378,131	-17,122	-0,024	-0,011
-377,117	-11,345	0,015	-0,007
-376,102	602,104	-0,010	-0,017
-375,088	430,807	0,111	0,178
-374,073	800,000	-0,025	-0,057
-373,058	298,467	-0,067	0,090
-372,044	-200,000	0,007	0,022
-371,029	76,047	0,037	0,029
-370,015	263,458	0,036	0,047
-369,000	800,000	0,030	-0,076
-367,985	275,540	0,069	0,090
-366,971	-200,000	0,016	-0,084
-365,956	-85,097	0,096	0,022
-364,942	-185,742	0,077	0,001
-363,927	195,304	0,027	-0,030
-362,912	75,384	0,051	0,040
-361,898	101,819	-0,027	-0,023
-360,883	800,000	-0,077	0,167
-359,869	-184,183	0,078	-0,001
-358,854	0,457	-0,056	0,029
-357,839	2,773	0,086	0,046
-356,825	-200,000	-0,023	-0,149
-355,810	-200,000	0,004	-0,029
-354,796	-145,575	-0,064	0,004
-353,781	-200,000	-0,020	-0,073
-352,766	-200,000	0,031	-0,123
-351,752	-200,000	0,008	0,058
-350,737	800,000	-0,041	0,087
-349,723	-183,612	0,075	-0,001
-348,708	111,430	-0,076	0,067
-347,693	-200,000	0,022	0,091
-346,679	-200,000	0,005	0,028
-345,664	-90,150	0,088	-0,019
-344,650	539,610	-0,035	-0,061
-343,635	-99,900	0,042	-0,008
-342,620	510,793	-0,007	0,011
-341,606	-200,000	-0,013	0,063
-340,591	447,975	0,007	-0,011
-339,577	222,272	0,116	0,137
-338,562	800,000	-0,039	-0,100
-337,548	-150,853	-0,074	-0,004
-336,533	-78,568	0,027	-0,007
-335,518	337,420	-0,031	0,044
-334,504	56,842	0,042	0,030
-333,489	-109,143	-0,062	0,010
-332,475	-14,635	-0,069	0,032
-331,460	18,723	0,100	-0,058
-330,445	-113,361	-0,066	0,009
-329,431	277,075	0,023	0,029
-328,416	-86,756	0,100	0,022
-327,402	-200,000	-0,018	0,145
-326,387	-200,000	-0,004	0,055
-325,372	800,000	-0,020	0,062
-324,358	-200,000	0,008	-0,075
-323,343	-94,864	0,102	-0,020
-322,329	313,302	0,082	0,112
-321,314	39,998	-0,049	0,032
-320,299	303,939	0,057	0,077
-319,285	-200,000	0,011	-0,080
-318,270	22,112	0,035	0,021
-317,256	-200,000	-0,005	0,022
-316,241	-56,294	0,122	-0,039
-315,226	-69,345	0,159	-0,044
-314,212	-109,322	0,109	-0,017
-313,197	-18,210	0,130	0,059
-312,183	-200,000	0,008	0,139
-311,168	-132,596	-0,074	0,007
-310,153	-200,000	-0,014	0,050
-309,139	-3,277	-0,045	-0,023
-308,124	800,000	-0,013	0,031
-307,110	87,889	0,074	0,060
-306,095	800,000	-0,046	-0,105
-305,080	-141,072	-0,065	0,005
-304,066	800,000	-0,007	0,021
-303,051	800,000	-0,029	-0,070
-302,037	283,257	0,060	0,079
-301,022	382,215	-0,030	0,046
-300,008	-77,346	-0,051	0,013
-298,993	-200,000	0,008	0,085
-297,978	389,903	0,054	-0,083
-296,964	74,030	-0,088	0,067
-295,949	-59,832	0,052	0,016
-294,935	-46,704	-0,089	0,032
-293,920	15,711	0,017	-0,010
-292,905	-137,002	0,053	-0,004
-291,891	800,000	-0,024	0,048
-290,876	90,468	0,046	0,038
-289,862	-200,000	0,035	-0,114
-288,847	-200,000	-0,009	-0,095
-287,832	42,015	-0,116	-0,077
-286,818	-64,581	-0,113	0,033
-285,803	800,000	-0,028	0,089
-284,789	-104,089	0,062	-0,011
-283,774	58,166	0,088	0,063
-282,759	-39,259	-0,150	-0,057
-281,745	613,855	-0,052	0,095
-280,730	-33,404	0,047	-0,019
-279,716	113,365	-0,064	0,057
-278,701	235,658	0,057	0,069
-277,686	332,539	0,044	-0,062
-276,672	315,736	0,067	0,093
-275,657	144,866	0,041	-0,040
-274,643	46,340	-0,057	-0,038
-273,628	138,594	-0,093	-0,089
-272,613	105,548	-0,053	0,046
-271,599	3,450	0,135	-0,072
-270,584	-200,000	-0,001	0,003
-269,570	-84,921	-0,056	-0,013
-268,555	-200,000	-0,012	-0,079
-267,540	-94,107	0,085	-0,017
-266,526	-101,811	-0,183	-0,032
-265,511	3,467	-0,084	-0,045
-264,497	800,000	0,029	0,071
-263,482	218,558	-0,079	0,092
-262,467	-200,000	-0,005	0,056
-261,453	335,169	0,042	0,060
-260,438	800,000	-0,036	-0,096
-259,424	260,766	0,048	0,061
-258,409	226,980	-0,142	0,169
-257,395	97,483	-0,109	0,092
-256,380	41,419	-0,005	0,003
-255,365	-41,152	0,063	-0,023
-254,351	4,378	0,100	-0,053
-253,336	-200,000	0,014	0,115
-252,322	800,000	0,044	-0,101
-251,307	-104,539	-0,218	-0,036
-250,292	-200,000	-0,008	-0,115
-249,278	-49,660	0,079	-0,027
-248,263	800,000	0,015	0,034
-247,249	-200,000	0,007	0,130
-246,234	91,911	0,077	-0,064
-245,219	800,000	0,021	-0,042
-244,205	-65,749	-0,031	-0,009
-243,190	-97,374	0,046	0,009
-242,176	333,645	0,135	-0,191
-241,161	324,234	0,105	-0,146
-240,146	-95,078	0,079	0,015
-239,132	155,032	0,099	0,099
-238,117	404,301	0,020	0,031
-237,103	-50,717	-0,126	0,043
-236,088	-57,161	0,148	0,047
-235,073	-119,374	0,038	0,005
-234,059	-69,623	0,073	-0,020
-233,044	-145,663	-0,055	0,004
-232,030	-200,000	-0,019	0,085
-231,015	-200,000	0,001	-0,004
-230,000	-150,587	-0,117	-0,006
-228,986	124,197	0,035	0,032
-227,971	800,000	0,070	0,159
-226,957	-200,000	-0,000	0,267
-225,942	70,154	-0,088	-0,066
-224,927	121,154	0,065	0,059
-223,913	103,686	-0,115	-0,098
-222,898	568,753	0,024	-0,043
-221,884	45,456	-0,082	0,055
-220,869	110,032	0,066	-0,058
-219,855	102,958	0,079	-0,068
-218,840	162,150	0,066	0,067
-217,825	-200,000	0,001	-0,048
-216,811	-200,000	-0,003	-0,036
-215,796	201,957	-0,072	-0,081
-214,782	-24,990	-0,056	-0,024
-213,767	194,968	0,087	-0,096
-212,752	105,384	0,056	-0,048
-211,738	-142,752	0,118	0,008
-210,723	-200,000	-0,010	-0,075
-209,709	371,854	-0,114	-0,170
-208,694	-34,075	0,085	0,034
-207,679	-183,269	-0,013	-0,000
-206,665	362,502	0,066	-0,096
-205,650	800,000	-0,038	0,118
-204,636	125,509	0,034	0,031
-203,621	238,032	-0,043	0,052
-202,606	-191,128	-0,109	-0,001
-201,592	800,000	-0,035	-0,080
-200,577	-200,000	-0,001	0,011
-199,563	-200,000	-0,018	0,148
-198,548	800,000	0,013	-0,038
-197,533	286,199	-0,019	0,025
-196,519	-80,734	0,109	-0,026
-195,504	163,143	0,043	0,044
-194,490	95,455	0,073	0,060
-193,475	-162,763	0,100	0,004
-192,460	-87,278	0,110	-0,024
-191,446	-35,353	0,051	-0,020
-190,431	-18,160	0,182	-0,083
-189,417	-100,542	-0,155	0,028
-188,402	183,574	-0,055	0,059
-187,387	223,593	-0,027	0,032
-186,373	-200,000	-0,029	-0,161
-185,358	134,842	0,098	-0,093
-184,344	4,595	-0,072	0,039
-183,329	137,697	-0,044	0,042
-182,315	-60,317	0,075	-0,023
-181,300	-87,983	-0,092	-0,020
-180,285	-200,000	0,004	-0,019
-179,271	-135,754	0,018	-0,002
-178,256	-200,000	0,015	-0,087
-177,242	800,000	0,045	-0,120
-176,227	180,536	0,029	0,031
-175,212	-200,000	0,126	0,000
-174,198	4,096	-0,161	0,085
-173,183	111,227	-0,047	-0,041
-172,169	276,736	-0,072	0,093
-171,154	-200,000	0,004	-0,024
-170,139	-55,208	0,025	-0,008
-169,125	-120,676	0,067	-0,008
-168,110	119,975	0,081	0,073
-167,096	246,342	-0,096	-0,118
-166,081	36,646	0,214	-0,137
-165,066	800,000	-0,018	0,058
-164,052	-200,000	-0,016	0,153
-163,037	800,000	0,033	0,096
-162,023	-200,000	0,013	-0,067
-161,008	326,751	0,091	0,128
-159,993	-200,000	0,032	0,117
-158,979	-41,270	-0,075	0,028
-157,964	221,356	-0,071	-0,083
-156,950	-97,964	-0,129	-0,024
-155,935	125,115	0,038	-0,035
-154,920	168,510	-0,050	-0,052
-153,906	-200,000	0,007	0,166
-152,891	4,851	-0,112	-0,060
-151,877	55,754	-0,025	-0,018
-150,862	22,356	-0,134	0,079
-149,847	131,105	-0,083	0,077
-148,833	-200,000	0,032	-0,117
-147,818	-200,000	0,016	0,091
-146,804	282,874	0,111	0,145
-145,789	613,108	0,066	0,120
-144,775	-3,243	0,078	0,039
-143,760	-154,959	0,100	-0,005
-142,745	800,000	0,024	-0,059
-141,731	-200,000	-0,004	0,092
-140,716	-200,000	-0,024	0,160
-139,702	-185,318	-0,103	-0,001
-138,687	-200,000	0,022	-0,141
-137,672	-92,281	-0,041	0,008
-136,658	-149,006	0,042	0,002
-135,643	436,941	0,091	0,145
-134,629	800,000	-0,021	0,047
-133,614	0,407	-0,056	0,029
-132,599	-200,000	0,051	-0,204
-131,585	-200,000	-0,007	0,070
-130,570	95,841	-0,157	0,130
-129,556	564,231	-0,060	-0,106
-128,541	49,903	-0,019	0,013
-127,526	-134,067	-0,091	0,008
-126,512	-200,000	-0,018	0,178
-125,497	-200,000	0,022	-0,189
-124,483	-94,282	-0,011	-0,002
-123,468	423,437	-0,068	0,107
-122,453	800,000	0,044	-0,126
-121,439	143,391	-0,062	-0,060
-120,424	-200,000	0,009	-0,040
-119,410	67,242	0,147	0,109
