DTS Sentinel unit serial number:	SN410029Multiplexer serial number:	ORYXHardware model number:	OX2-SRSoftware version number:	ORYX F/W v4,00 Oryx Data Collector v3.7.2.0data status	okinstallation	B4 Nyhavnadifferential loss correction	single-endedforward channel	channel 2reverse channel	N/Adate	2023/12/16time	06:55:13forward acquisition time	300,00reverse acquisition time	0,00gamma	499,1914k internal	0,3127k external	0,3127temperature offset calibration	1,0000default loss term (dB/km)	0,3820temperature slope calibration	1,0000multiplexer offset coefficient	1,0000multiplexer slope coefficient	1,0000fibre end	0,00T internal ref (°C)	22,32T ext. ref 1 (°C)	7,63T ext. ref 2 (°C)	7,81length (m)	temperature (°C)	Stokes	anti-Stokes-744,400	29,687	0,026	-0,016
-743,385	-67,455	-0,322	0,093
-742,371	-36,813	0,181	0,072
-741,356	44,250	-0,228	0,155
-740,342	-200,000	0,061	-0,205
-739,327	-143,873	-0,159	0,011
-738,312	344,718	0,037	0,055
-737,298	-84,810	-0,244	0,057
-736,283	256,049	0,126	-0,161
-735,269	288,120	-0,059	0,079
-734,254	451,888	-0,062	0,102
-733,239	-131,946	-0,350	-0,033
-732,225	89,348	0,101	0,084
-731,210	481,344	0,045	-0,077
-730,196	800,000	-0,029	-0,068
-729,181	-200,000	-0,003	0,082
-728,167	-110,131	-0,148	0,023
-727,152	-149,633	-0,056	-0,003
-726,137	7,388	-0,126	0,070
-725,123	-200,000	-0,015	-0,053
-724,108	800,000	-0,018	-0,051
-723,094	800,000	-0,030	-0,074
-722,079	800,000	-0,045	-0,123
-721,064	-200,000	-0,002	0,080
-720,050	-94,716	0,036	0,007
-719,035	-139,072	0,071	0,006
-718,021	234,019	-0,111	0,136
-717,006	800,000	-0,060	-0,154
-715,991	128,708	-0,097	-0,092
-714,977	248,210	0,083	-0,105
-713,962	114,298	-0,079	-0,072
-712,948	443,070	-0,026	-0,042
-711,933	0,641	0,094	-0,050
-710,918	49,008	0,112	-0,078
-709,904	-98,488	-0,127	-0,024
-708,889	77,114	-0,050	-0,040
-707,875	800,000	-0,018	0,044
-706,860	-122,512	0,085	-0,010
-705,845	-191,278	-0,084	-0,001
-704,831	-11,304	-0,033	0,016
-703,816	143,318	-0,080	-0,079
-702,802	67,493	0,072	0,055
-701,787	-200,000	0,009	-0,058
-700,772	-79,730	0,125	-0,031
-699,758	34,960	-0,092	-0,059
-698,743	-57,448	0,022	0,007
-697,729	-200,000	-0,006	0,028
-696,714	-177,826	-0,094	-0,002
-695,699	-200,000	-0,015	0,096
-694,685	800,000	-0,065	-0,196
-693,670	70,008	-0,090	-0,069
-692,656	-62,176	0,081	0,025
-691,641	-200,000	0,011	0,046
-690,627	-12,009	0,103	-0,050
-689,612	713,356	0,012	0,023
-688,597	32,125	-0,071	0,045
-687,583	-62,484	0,138	-0,042
-686,568	22,843	-0,052	0,031
-685,554	-126,900	-0,044	-0,005
-684,539	328,317	0,099	-0,142
-683,524	710,668	-0,030	0,060
-682,510	-58,619	0,107	-0,034
-681,495	162,307	-0,079	0,083
-680,481	381,475	-0,120	-0,183
-679,466	362,138	-0,020	-0,030
-678,451	-67,765	0,049	0,014
-677,437	800,000	0,057	-0,153
-676,422	48,361	0,130	-0,090
-675,408	242,868	-0,021	0,026
-674,393	60,981	0,040	-0,029
-673,378	-200,000	-0,003	-0,073
-672,364	375,949	-0,028	-0,042
-671,349	201,941	-0,099	0,113
-670,335	322,968	0,053	-0,075
-669,320	-113,503	0,078	-0,011
-668,305	313,674	-0,015	-0,020
-667,291	-40,995	-0,114	0,043
-666,276	-66,427	-0,051	-0,015
-665,262	97,962	-0,150	-0,128
-664,247	-182,786	-0,073	0,001
-663,232	-180,134	0,115	0,002
-662,218	125,320	0,056	0,052
-661,203	-200,000	-0,011	-0,120
-660,189	800,000	-0,013	0,029
-659,174	-0,520	0,049	-0,026
-658,159	-22,738	0,136	-0,061
-657,145	800,000	0,014	-0,039
-656,130	160,597	0,040	-0,041
-655,116	-110,134	-0,077	-0,012
-654,101	800,000	0,078	-0,178
-653,086	64,478	0,055	0,041
-652,072	-200,000	0,016	-0,137
-651,057	-200,000	-0,005	-0,064
-650,043	104,105	-0,073	-0,064
-649,028	-61,464	0,112	0,035
-648,014	-200,000	-0,001	0,027
-646,999	-23,884	-0,134	0,059
-645,984	-200,000	-0,001	0,065
-644,970	-12,083	-0,056	0,027
-643,955	77,269	0,058	0,046
-642,941	-127,403	-0,048	0,005
-641,926	141,716	-0,082	-0,081
-640,911	193,072	-0,019	0,021
-639,897	-200,000	-0,034	0,163
-638,882	437,923	0,070	0,114
-637,868	800,000	-0,050	-0,136
-636,853	150,570	0,040	-0,041
-635,838	-200,000	0,001	0,030
-634,824	84,746	-0,029	0,024
-633,809	-117,293	0,118	0,016
-632,795	332,260	0,083	-0,119
-631,780	800,000	0,017	0,038
-630,765	800,000	-0,048	-0,148
-629,751	-21,881	-0,025	-0,011
-628,736	800,000	0,048	-0,098
-627,722	-200,000	-0,000	-0,017
-626,707	296,263	0,083	-0,113
-625,692	112,477	0,069	-0,062
-624,678	800,000	-0,025	0,064
-623,663	800,000	0,007	-0,018
-622,649	-200,000	0,029	0,121
-621,634	-59,472	0,075	-0,024
-620,619	-31,534	0,123	-0,051
-619,605	-75,497	-0,020	-0,005
-618,590	-18,512	-0,037	0,017
-617,576	318,341	0,023	0,032
-616,561	-70,817	0,097	0,027
-615,546	37,045	-0,049	0,032
-614,532	800,000	-0,020	-0,046
-613,517	-129,414	-0,175	-0,018
-612,503	107,321	0,017	0,015
-611,488	-200,000	-0,002	-0,036
-610,474	-200,000	0,005	0,032
-609,459	-99,912	-0,023	0,004
-608,444	-13,256	-0,084	0,040
-607,430	-200,000	-0,028	-0,124
-606,415	-200,000	0,009	-0,120
-605,401	-160,138	-0,065	0,003
-604,386	-200,000	-0,021	-0,078
-603,371	46,571	-0,036	-0,025
-602,357	-160,463	0,110	-0,004
-601,342	-128,356	-0,190	0,020
-600,328	73,944	-0,073	-0,057
-599,313	39,040	-0,118	-0,078
-598,298	114,517	0,142	0,128
-597,284	137,674	0,109	-0,106
-596,269	800,000	-0,015	0,045
-595,255	305,556	-0,069	-0,096
-594,240	520,156	-0,034	-0,059
-593,225	80,097	0,115	0,091
-592,211	-200,000	-0,004	-0,025
-591,196	226,444	-0,022	0,026
-590,182	-23,908	0,147	0,065
-589,167	102,359	-0,052	0,045
-588,152	-200,000	0,009	0,091
-587,138	-34,539	0,139	-0,056
-586,123	0,172	-0,078	-0,041
-585,109	800,000	0,042	-0,095
-584,094	800,000	0,003	-0,010
-583,079	-62,263	-0,030	0,009
-582,065	-155,251	-0,062	0,003
-581,050	-148,287	0,076	-0,005
-580,036	97,302	-0,115	0,098
-579,021	-71,723	-0,110	0,030
-578,006	800,000	0,019	-0,041
-576,992	800,000	-0,025	-0,063
-575,977	356,423	0,069	0,101
-574,963	306,562	0,074	0,102
-573,948	329,695	0,057	0,081
-572,934	-167,535	-0,078	0,002
-571,919	-200,000	-0,001	-0,084
-570,904	-3,487	0,192	-0,098
-569,890	-200,000	0,010	0,045
-568,875	800,000	-0,035	0,103
-567,861	-172,858	-0,054	0,001
-566,846	-49,734	0,035	-0,012
-565,831	-200,000	-0,017	-0,063
-564,817	196,634	-0,066	0,075
-563,802	-200,000	-0,000	-0,148
-562,788	-200,000	0,010	0,091
-561,773	24,665	0,074	-0,045
-560,758	192,024	0,052	0,058
-559,744	800,000	0,024	0,052
-558,729	136,652	0,105	-0,101
-557,715	101,725	-0,145	-0,125
-556,700	-92,029	-0,076	0,016
-555,685	-28,440	-0,062	0,026
-554,671	1,974	-0,132	-0,070
-553,656	320,626	0,063	0,088
-552,642	79,725	0,038	0,030
-551,627	-71,953	-0,088	-0,024
-550,612	451,920	-0,016	0,026
-549,598	-200,000	-0,041	-0,144
-548,583	483,691	0,072	-0,121
-547,569	-200,000	0,004	-0,199
-546,554	184,199	0,082	0,089
-545,539	-34,258	0,051	0,020
-544,525	-200,000	-0,022	-0,089
-543,510	11,654	-0,008	0,004
-542,496	48,963	-0,070	-0,049
-541,481	-112,935	0,102	0,015
-540,466	145,840	-0,034	-0,034
-539,452	269,739	0,032	-0,041
-538,437	-8,527	0,043	-0,021
-537,423	-200,000	-0,008	0,038
-536,408	172,838	-0,038	0,040
-535,393	-106,889	-0,087	0,014
-534,379	-200,000	-0,008	-0,039
-533,364	107,813	0,110	-0,097
-532,350	-200,000	-0,018	0,085
-531,335	-200,000	0,014	0,095
-530,321	800,000	0,045	-0,101
-529,306	-200,000	0,017	0,075
-528,291	771,193	-0,049	0,098
-527,277	208,229	-0,011	0,013
-526,262	328,935	0,089	-0,126
-525,248	-185,946	-0,165	0,002
-524,233	800,000	-0,060	0,167
-523,218	-18,791	-0,115	-0,053
-522,204	-23,863	0,096	-0,042
-521,189	35,522	-0,059	0,038
-520,175	17,534	0,092	-0,054
-519,160	800,000	-0,045	0,096
-518,145	299,444	-0,042	-0,057
-517,131	259,434	-0,113	-0,144
-516,116	-31,776	0,140	0,058
-515,102	378,153	0,035	-0,053
-514,087	-200,000	-0,007	-0,111
-513,072	800,000	-0,012	-0,031
-512,058	-79,999	-0,072	-0,018
-511,043	172,888	0,085	-0,090
-510,029	800,000	-0,058	-0,172
-509,014	276,620	-0,034	-0,045
-507,999	157,566	0,058	0,059
-506,985	-21,161	0,074	-0,033
-505,970	800,000	-0,019	-0,060
-504,956	-200,000	-0,018	-0,135
-503,941	-200,000	-0,020	0,110
-502,926	-129,059	0,090	-0,009
-501,912	-200,000	0,014	0,093
-500,897	-30,671	-0,174	0,072
-499,883	-45,058	-0,064	-0,023
-498,868	-200,000	0,002	0,015
-497,853	36,253	-0,078	0,050
-496,839	69,783	-0,041	0,031
-495,824	-90,246	-0,110	-0,023
-494,810	-200,000	-0,002	0,134
-493,795	-170,890	0,069	0,002
-492,781	69,898	-0,060	0,045
-491,766	-200,000	-0,005	0,026
-490,751	800,000	-0,035	-0,100
-489,737	800,000	-0,053	0,112
-488,722	266,633	0,065	-0,084
-487,708	-92,677	0,005	0,001
-486,693	225,051	-0,063	0,076
-485,678	-200,000	0,043	-0,166
-484,664	172,302	-0,088	-0,093
-483,649	-36,124	-0,095	0,038
-482,635	800,000	-0,038	0,089
-481,620	339,719	0,038	0,055
-480,605	-200,000	0,002	0,050
-479,591	13,148	-0,115	0,066
-478,576	366,666	-0,031	0,046
-477,562	67,383	-0,156	-0,117
-476,547	-200,000	-0,030	-0,138
-475,532	81,178	-0,038	0,030
-474,518	227,087	0,077	0,093
-473,503	34,344	0,062	0,040
-472,489	-200,000	0,002	0,011
-471,474	142,387	0,095	0,093
-470,459	420,229	0,054	-0,085
-469,445	-200,000	-0,010	0,045
-468,430	6,457	0,075	0,041
-467,416	-50,239	-0,072	0,025
-466,401	-200,000	-0,028	-0,112
-465,386	425,118	0,069	0,110
-464,372	304,337	0,030	0,041
-463,357	10,914	-0,019	0,011
-462,343	-73,117	0,072	0,019
-461,328	-74,306	-0,061	-0,016
-460,313	297,518	-0,075	-0,102
-459,299	-125,854	0,051	-0,006
-458,284	800,000	0,024	-0,074
-457,270	623,263	-0,080	0,149
-456,255	128,663	-0,075	0,071
-455,241	800,000	-0,024	-0,069
-454,226	328,392	0,073	-0,103
-453,211	800,000	0,045	-0,111
-452,197	140,547	0,067	-0,065
-451,182	54,929	-0,099	-0,070
-450,168	17,098	0,014	0,008
-449,153	441,161	-0,044	0,071
-448,138	279,969	0,050	0,066
-447,124	91,150	0,030	-0,025
-446,109	719,802	-0,025	0,050
-445,095	800,000	0,019	0,040
-444,080	20,950	-0,056	-0,034
-443,065	-200,000	-0,016	0,060
-442,051	-200,000	0,001	-0,080
-441,036	800,000	-0,022	-0,045
-440,022	90,851	-0,091	-0,075
-439,007	-23,264	0,115	0,051
-437,992	-200,000	-0,005	0,196
-436,978	-200,000	0,003	-0,041
-435,963	96,064	0,104	-0,088
-434,949	-141,248	0,075	-0,006
-433,934	28,733	-0,012	0,007
-432,919	54,097	-0,010	0,007
-431,905	730,517	-0,011	-0,022
-430,890	-83,551	0,053	0,012
-429,876	-123,084	0,061	0,007
-428,861	-83,950	0,139	-0,032
-427,846	-200,000	-0,007	0,073
-426,832	800,000	0,023	0,072
-425,817	795,937	-0,065	-0,133
-424,803	21,586	-0,093	-0,055
-423,788	-200,000	0,010	-0,092
-422,773	800,000	-0,033	0,094
-421,759	800,000	-0,036	-0,093
-420,744	130,744	-0,004	-0,003
-419,730	800,000	0,016	-0,034
-418,715	38,113	-0,075	0,049
-417,701	608,386	-0,043	-0,079
-416,686	7,258	-0,017	0,009
-415,671	-114,987	0,057	0,008
-414,657	800,000	0,027	0,071
-413,642	-23,575	-0,189	0,083
-412,628	800,000	0,021	-0,046
-411,613	-200,000	-0,013	0,077
-410,598	-200,000	0,001	-0,030
-409,584	315,312	0,137	0,191
-408,569	-45,978	0,060	0,022
-407,555	10,458	0,089	0,050
-406,540	31,787	0,096	0,060
-405,525	308,389	-0,066	-0,091
-404,511	800,000	-0,024	-0,053
-403,496	800,000	0,052	-0,111
-402,482	-117,610	-0,010	-0,001
-401,467	-165,844	0,004	0,000
-400,452	-169,725	-0,084	-0,002
-399,438	282,411	-0,048	0,064
-398,423	63,960	-0,122	-0,090
-397,409	75,960	-0,131	0,102
-396,394	42,058	-0,028	0,019
-395,379	-200,000	-0,001	0,025
-394,365	215,635	0,058	0,068
-393,350	-92,671	0,147	0,030
-392,336	499,709	0,063	-0,108
-391,321	172,138	-0,122	0,129
-390,306	135,176	0,100	-0,095
-389,292	106,599	-0,059	-0,051
-388,277	207,783	-0,004	-0,004
-387,263	164,158	0,081	0,084
-386,248	117,704	0,115	0,104
-385,233	139,532	-0,019	0,019
-384,219	800,000	-0,048	0,112
-383,204	174,679	-0,076	-0,081
-382,190	800,000	-0,064	-0,163
-381,175	-68,568	-0,038	-0,011
-380,160	40,748	0,043	-0,029
-379,146	-200,000	0,025	-0,109
-378,131	-136,955	-0,084	0,007
-377,117	-200,000	-0,001	0,091
-376,102	316,366	0,078	-0,109
-375,088	-200,000	-0,010	0,044
-374,073	26,106	0,075	-0,046
-373,058	-200,000	0,012	-0,065
-372,044	-63,951	0,090	-0,027
-371,029	47,524	0,046	0,032
-370,015	-42,990	-0,061	0,022
-369,000	164,774	-0,069	0,071
-367,985	190,409	0,008	-0,008
-366,971	-200,000	-0,021	0,096
-365,956	-200,000	-0,005	-0,053
-364,942	-36,769	0,043	-0,017
-363,927	-23,161	0,055	-0,024
-362,912	22,455	0,076	-0,046
-361,898	24,836	-0,131	-0,080
-360,883	713,282	0,008	0,015
-359,869	-84,440	-0,122	0,028
-358,854	206,496	0,053	0,060
-357,839	800,000	-0,012	0,035
-356,825	222,927	0,044	-0,052
-355,810	-161,214	0,046	0,002
-354,796	395,211	-0,020	0,031
-353,781	18,360	0,091	-0,053
-352,766	-200,000	0,001	-0,031
-351,752	15,454	0,127	0,073
-350,737	800,000	0,026	-0,057
-349,723	593,166	0,047	0,086
-348,708	-41,512	-0,191	0,072
-347,693	352,600	-0,027	0,039
-346,679	-200,000	0,023	-0,101
-345,664	-13,823	-0,069	-0,033
-344,650	-22,012	0,061	0,027
-343,635	205,789	0,082	0,094
-342,620	-119,092	-0,148	0,019
-341,606	-105,779	0,100	0,016
-340,591	800,000	-0,056	-0,119
-339,577	-90,779	-0,036	0,008
-338,562	-200,000	-0,039	-0,148
-337,548	465,223	-0,066	0,108
-336,533	195,853	0,164	0,183
-335,518	-185,839	-0,120	0,001
-334,504	265,871	0,029	-0,037
-333,489	79,208	-0,117	-0,092
-332,475	492,020	0,041	0,069
-331,460	-116,367	-0,052	-0,007
-330,445	-10,564	-0,125	0,060
-329,431	-105,559	-0,108	-0,018
-328,416	113,240	0,032	-0,028
-327,402	-149,572	-0,036	0,002
-326,387	39,188	0,060	0,039
-325,372	-118,607	-0,085	-0,011
-324,358	-200,000	-0,026	0,084
-323,343	122,201	0,040	-0,037
-322,329	513,357	0,073	-0,125
-321,314	-115,591	-0,171	0,023
-320,299	-200,000	-0,028	0,142
-319,285	497,312	0,053	-0,089
-318,270	186,412	0,063	-0,068
-317,256	317,533	-0,044	-0,061
-316,241	-200,000	0,007	0,045
-315,226	-19,243	0,171	0,078
-314,212	297,509	-0,014	-0,019
-313,197	335,384	0,044	0,062
-312,183	800,000	-0,039	0,103
-311,168	197,934	0,057	0,064
-310,153	307,455	-0,031	0,043
-309,139	-84,166	-0,087	-0,020
-308,124	800,000	-0,011	0,027
-307,110	-0,185	0,070	-0,036
-306,095	96,421	-0,064	0,053
-305,080	36,266	0,091	-0,059
-304,066	-200,000	-0,018	0,091
-303,051	79,858	-0,096	-0,075
-302,037	-200,000	0,009	-0,052
-301,022	181,254	0,085	0,092
-300,008	267,522	0,066	-0,084
-298,993	-200,000	0,021	-0,107
-297,978	800,000	0,050	-0,107
-296,964	62,599	-0,016	-0,012
-295,949	-200,000	0,037	-0,176
-294,935	31,907	-0,072	0,045
-293,920	800,000	0,067	0,153
-292,905	-64,806	0,111	0,033
-291,891	-62,912	-0,086	0,026
-290,876	-106,331	0,159	0,026
-289,862	-121,094	0,069	-0,008
-288,847	80,386	0,035	-0,028
-287,832	800,000	0,031	0,086
-286,818	-29,514	0,034	-0,014
-285,803	800,000	0,086	0,176
-284,789	-200,000	-0,015	0,090
-283,774	379,322	-0,044	0,067
-282,759	-73,893	0,077	-0,020
-281,745	-200,000	-0,006	0,051
-280,730	89,785	-0,128	0,105
-279,716	-3,016	0,036	-0,018
-278,701	267,398	0,055	0,070
-277,686	-99,094	0,086	-0,016
-276,672	-38,901	-0,030	-0,011
-275,657	584,793	-0,031	0,056
-274,643	-129,411	-0,065	-0,007
-273,628	-103,463	-0,218	0,037
-272,613	-200,000	0,030	0,120
-271,599	187,010	-0,078	-0,085
-270,584	800,000	0,040	0,112
-269,570	725,934	0,052	0,103
-268,555	-138,407	0,063	-0,005
-267,540	-16,765	0,076	0,035
-266,526	-200,000	0,018	-0,111
-265,511	145,287	0,028	0,028
-264,497	-46,460	0,139	0,050
-263,482	6,262	0,070	0,038
-262,467	800,000	-0,053	0,159
-261,453	96,411	0,110	0,092
-260,438	6,568	-0,106	-0,057
-259,424	-200,000	0,010	-0,103
-258,409	-7,194	0,081	-0,040
-257,395	322,835	-0,049	-0,068
-256,380	800,000	0,043	0,098
-255,365	-200,000	0,036	0,121
-254,351	117,880	0,032	-0,029
-253,336	-73,148	0,115	0,030
-252,322	-36,962	-0,073	-0,029
-251,307	553,573	-0,012	-0,021
-250,292	-130,585	0,097	-0,009
-249,278	800,000	0,032	0,069
-248,263	-200,000	0,007	0,051
-247,249	-200,000	-0,009	0,063
-246,234	66,660	-0,068	0,051
-245,219	-75,194	-0,090	0,023
-244,205	800,000	0,050	-0,107
-243,190	218,010	-0,102	0,119
-242,176	-51,778	0,148	0,050
-241,161	-65,658	0,125	-0,036
-240,146	-200,000	-0,006	-0,034
-239,132	124,298	-0,058	-0,054
-238,117	646,565	-0,017	-0,032
-237,103	-200,000	0,013	-0,149
-236,088	-73,544	-0,060	-0,016
-235,073	-200,000	-0,038	0,129
-234,059	304,983	-0,024	0,032
-233,044	-200,000	-0,014	-0,084
-232,030	800,000	-0,018	0,043
-231,015	728,030	-0,049	-0,096
-230,000	268,474	0,046	-0,059
-228,986	440,282	0,029	0,046
-227,971	183,855	-0,008	0,008
-226,957	515,921	-0,023	0,040
-225,942	800,000	-0,059	0,181
-224,927	800,000	0,049	-0,151
-223,913	70,243	-0,157	-0,118
-222,898	390,923	-0,060	-0,091
-221,884	-200,000	0,024	-0,126
-220,869	-200,000	0,012	0,048
-219,855	800,000	0,075	-0,154
-218,840	338,856	-0,063	0,090
-217,825	-200,000	-0,018	0,104
-216,811	-85,409	-0,028	-0,006
-215,796	43,167	-0,048	0,032
-214,782	-86,658	-0,054	0,012
-213,767	-200,000	-0,002	0,039
-212,752	800,000	0,041	0,101
-211,738	-200,000	-0,033	-0,119
-210,723	800,000	0,059	-0,163
-209,709	-125,218	-0,080	0,009
-208,694	687,961	-0,069	-0,133
-207,679	544,680	0,004	-0,007
-206,665	6,861	0,032	0,017
-205,650	792,701	0,072	0,144
-204,636	-93,219	0,105	-0,021
-203,621	-40,232	0,087	-0,033
-202,606	800,000	-0,026	-0,053
-201,592	434,240	0,016	0,025
-200,577	800,000	0,009	-0,022
-199,563	-200,000	0,024	-0,107
-198,548	287,741	-0,043	0,056
-197,533	-1,021	0,022	0,011
-196,519	142,150	-0,043	0,041
-195,504	124,675	0,058	0,053
-194,490	-200,000	-0,002	0,021
-193,475	-200,000	-0,011	-0,081
-192,460	-200,000	-0,004	-0,075
-191,446	800,000	-0,032	0,084
-190,431	-39,916	-0,053	0,020
-189,417	150,791	-0,035	-0,035
-188,402	-200,000	0,020	-0,126
-187,387	7,109	0,081	-0,044
-186,373	91,162	0,046	0,038
-185,358	203,041	0,071	-0,080
-184,344	56,080	0,155	0,110
-183,329	184,451	-0,086	-0,093
-182,315	-71,830	-0,036	-0,010
-181,300	-36,122	0,214	-0,084
-180,285	-200,000	-0,004	-0,020
-179,271	-35,890	-0,084	0,033
-178,256	419,011	0,027	0,043
-177,242	800,000	-0,040	0,086
-176,227	-68,693	0,129	-0,036
-175,212	-200,000	0,007	-0,105
-174,198	-200,000	0,023	-0,094
-173,183	-200,000	-0,015	0,082
-172,169	800,000	-0,023	-0,065
-171,154	53,492	-0,132	0,092
-170,139	-200,000	0,010	-0,084
-169,125	800,000	0,061	0,130
-168,110	431,497	0,059	0,094
-167,096	-200,000	0,004	-0,091
-166,081	800,000	0,020	0,056
-165,066	-178,857	-0,092	0,001
-164,052	77,042	-0,090	-0,070
-163,037	77,372	-0,031	0,024
-162,023	-200,000	-0,005	-0,019
-161,008	-200,000	0,023	-0,084
-159,993	320,695	-0,038	0,053
-158,979	24,495	-0,023	0,014
-157,964	800,000	-0,053	0,131
-156,950	121,274	0,047	0,043
-155,935	-200,000	0,017	0,057
-154,920	468,211	0,042	-0,068
-153,906	-200,000	-0,004	0,050
-152,891	-5,901	-0,064	0,032
-151,877	-200,000	-0,010	-0,107
-150,862	-10,768	0,089	0,043
-149,847	-200,000	0,023	0,114
-148,833	766,873	-0,030	0,059
-147,818	-200,000	0,008	0,117
-146,804	256,507	0,074	0,093
-145,789	741,037	-0,038	0,075
-144,775	-90,828	-0,158	0,033
-143,760	-88,265	0,014	0,003
-142,745	-81,990	-0,051	0,012
-141,731	41,558	0,020	-0,013
-140,716	800,000	0,024	0,057
-139,702	-68,795	0,121	0,034
-138,687	-200,000	-0,012	0,140
-137,672	800,000	0,055	0,132
-136,658	-33,478	-0,095	0,038
-135,643	357,583	-0,024	-0,035
-134,629	-200,000	0,010	0,070
-133,614	-200,000	0,000	0,112
-132,599	-116,760	0,119	0,016
-131,585	800,000	-0,038	0,092
-130,570	800,000	-0,038	0,088
-129,556	-138,929	0,083	-0,006
-128,541	96,665	-0,022	-0,018
-127,526	-4,576	0,162	-0,081
-126,512	-200,000	0,014	0,072
-125,497	73,896	0,063	-0,048
-124,483	729,811	0,028	0,055
-123,468	-39,151	-0,060	0,023
-122,453	-200,000	-0,032	-0,163
-121,439	232,719	-0,012	-0,014
-120,424	128,573	-0,071	-0,066
-119,410	534,682	0,047	0,081
-118,395	535,003	-0,029	0,050
