DTS Sentinel unit serial number:	SN410029Multiplexer serial number:	ORYXHardware model number:	OX2-SRSoftware version number:	ORYX F/W v4,00 Oryx Data Collector v3.7.2.0data status	okinstallation	B4 Nyhavnadifferential loss correction	single-endedforward channel	channel 2reverse channel	N/Adate	2023/12/16time	13:50:13forward acquisition time	300,00reverse acquisition time	0,00gamma	499,1914k internal	0,3125k external	0,3125temperature offset calibration	1,0000default loss term (dB/km)	0,3820temperature slope calibration	1,0000multiplexer offset coefficient	1,0000multiplexer slope coefficient	1,0000fibre end	0,00T internal ref (°C)	25,06T ext. ref 1 (°C)	11,30T ext. ref 2 (°C)	11,52length (m)	temperature (°C)	Stokes	anti-Stokes-744,400	57,383	-0,088	-0,064
-743,385	537,912	-0,094	0,168
-742,371	-35,097	0,042	0,017
-741,356	574,653	-0,138	0,251
-740,342	-28,197	0,086	-0,037
-739,327	200,388	-0,108	0,124
-738,312	55,948	-0,065	-0,047
-737,298	236,202	-0,070	0,086
-736,283	489,659	-0,029	-0,050
-735,269	125,155	-0,179	0,168
-734,254	-200,000	0,027	-0,090
-733,239	-75,016	-0,368	0,097
-732,225	800,000	-0,021	0,052
-731,210	145,617	-0,108	0,108
-730,196	-30,952	-0,103	0,043
-729,181	-90,399	-0,001	0,000
-728,167	467,194	-0,062	-0,103
-727,152	800,000	-0,046	-0,098
-726,137	-45,809	-0,046	0,017
-725,123	-200,000	0,027	-0,096
-724,108	800,000	0,041	-0,110
-723,094	-200,000	-0,019	-0,086
-722,079	-165,462	-0,104	0,003
-721,064	-200,000	0,001	0,044
-720,050	-200,000	-0,007	-0,068
-719,035	800,000	-0,037	-0,095
-718,021	610,088	-0,043	-0,081
-717,006	800,000	-0,063	0,141
-715,991	-25,999	0,162	-0,071
-714,977	289,763	-0,034	0,046
-713,962	-200,000	-0,009	-0,067
-712,948	452,777	0,018	-0,030
-711,933	-111,877	0,075	0,011
-710,918	678,627	0,018	0,035
-709,904	800,000	-0,040	-0,089
-708,889	-79,797	-0,085	0,021
-707,875	9,716	-0,118	-0,066
-706,860	800,000	0,041	0,088
-705,845	800,000	0,045	0,140
-704,831	41,142	0,111	-0,074
-703,816	228,050	-0,019	-0,022
-702,802	-200,000	-0,015	0,087
-701,787	120,894	-0,048	0,044
-700,772	-200,000	0,010	0,112
-699,758	-200,000	-0,006	-0,025
-698,743	-97,882	0,113	-0,022
-697,729	343,159	-0,034	0,050
-696,714	-200,000	-0,003	-0,090
-695,699	230,648	-0,025	0,030
-694,685	-200,000	-0,002	-0,086
-693,670	-87,169	0,045	0,010
-692,656	-65,117	-0,060	-0,018
-691,641	-97,470	0,092	0,018
-690,627	151,896	-0,127	-0,129
-689,612	8,687	-0,146	0,081
-688,597	-73,775	0,066	-0,018
-687,583	800,000	0,012	0,029
-686,568	-200,000	-0,012	-0,049
-685,554	-200,000	0,049	-0,161
-684,539	230,576	-0,107	-0,131
-683,524	800,000	-0,041	0,095
-682,510	800,000	0,012	-0,035
-681,495	-62,546	-0,027	-0,008
-680,481	-116,109	-0,121	0,016
-679,466	65,290	-0,088	-0,066
-678,451	83,838	0,007	0,006
-677,437	359,224	0,075	-0,111
-676,422	67,556	0,055	0,042
-675,408	43,239	-0,067	-0,045
-674,393	-200,000	0,015	-0,150
-673,378	37,365	-0,067	0,044
-672,364	-122,576	-0,074	0,009
-671,349	56,416	-0,104	0,075
-670,335	-200,000	0,004	-0,062
-669,320	189,465	0,117	0,130
-668,305	800,000	0,006	-0,015
-667,291	-200,000	-0,032	-0,119
-666,276	134,624	-0,058	-0,056
-665,262	-200,000	0,013	0,075
-664,247	-18,897	-0,056	-0,026
-663,232	-188,072	0,054	0,001
-662,218	191,979	-0,083	0,093
-661,203	-125,933	0,086	-0,010
-660,189	19,203	0,106	0,063
-659,174	800,000	0,025	0,053
-658,159	122,644	-0,064	-0,059
-657,145	-200,000	-0,074	-0,258
-656,130	-200,000	0,024	-0,148
-655,116	-111,815	0,072	-0,011
-654,101	23,483	-0,040	-0,024
-653,086	-200,000	0,033	-0,151
-652,072	-85,279	-0,115	0,027
-651,057	-116,478	-0,024	0,003
-650,043	800,000	-0,057	0,124
-649,028	0,788	0,090	-0,048
-648,014	21,265	0,096	0,058
-646,999	-66,086	0,064	0,019
-645,984	-2,500	-0,108	-0,056
-644,970	84,518	-0,035	-0,029
-643,955	-150,470	-0,063	0,004
-642,941	-200,000	-0,037	-0,144
-641,926	-101,313	0,158	-0,028
-640,911	-24,500	0,066	0,029
-639,897	-94,479	0,047	0,009
-638,882	-53,768	-0,145	0,049
-637,868	-200,000	0,026	0,102
-636,853	-200,000	-0,003	0,042
-635,838	119,199	-0,071	0,065
-634,824	145,827	-0,052	-0,052
-633,809	7,416	0,049	-0,027
-632,795	-128,997	-0,101	0,010
-631,780	419,023	-0,063	0,100
-630,765	-78,959	0,072	0,018
-629,751	378,356	-0,054	-0,082
-628,736	728,788	0,030	0,059
-627,722	-65,751	-0,021	0,006
-626,707	124,413	0,054	-0,051
-625,692	282,123	-0,047	0,062
-624,678	-79,064	0,081	-0,020
-623,663	298,771	0,011	-0,014
-622,649	-5,765	-0,114	-0,058
-621,634	64,225	-0,119	0,089
-620,619	-107,155	-0,066	0,011
-619,605	74,450	0,042	0,033
-618,590	-124,381	0,118	0,013
-617,576	-31,321	-0,111	0,046
-616,561	27,938	0,030	0,019
-615,546	354,324	0,016	-0,024
-614,532	-72,061	-0,125	0,034
-613,517	-5,027	-0,026	-0,013
-612,503	800,000	0,040	0,108
-611,488	139,395	0,076	-0,075
-610,474	800,000	-0,020	0,054
-609,459	248,081	0,028	-0,035
-608,444	102,760	-0,145	-0,126
-607,430	-159,484	-0,193	-0,008
-606,415	-95,381	-0,057	-0,011
-605,401	800,000	0,004	-0,013
-604,386	-33,285	0,099	0,040
-603,371	-95,287	-0,036	-0,007
-602,357	76,099	-0,143	0,112
-601,342	150,201	-0,104	-0,105
-600,328	-123,916	0,168	-0,019
-599,313	279,359	-0,093	-0,124
-598,298	391,119	-0,060	-0,093
-597,284	289,771	-0,061	0,083
-596,269	-19,184	0,091	-0,042
-595,255	-64,716	-0,028	0,008
-594,240	59,974	-0,075	0,055
-593,225	110,464	-0,048	-0,043
-592,211	-200,000	-0,020	-0,132
-591,196	-44,939	0,086	-0,032
-590,182	800,000	0,060	0,150
-589,167	-167,816	0,084	-0,002
-588,152	21,392	-0,107	0,064
-587,138	-200,000	-0,002	-0,013
-586,123	274,577	-0,174	-0,228
-585,109	615,219	-0,031	-0,059
-584,094	109,061	0,111	-0,098
-583,079	800,000	0,025	0,062
-582,065	672,445	-0,012	0,023
-581,050	2,932	0,040	0,022
-580,036	-49,444	0,092	-0,032
-579,021	-38,380	-0,147	-0,057
-578,006	31,761	-0,084	-0,054
-576,992	-200,000	-0,007	-0,116
-575,977	-110,239	-0,084	-0,013
-574,963	-106,057	0,153	0,025
-573,948	-84,635	0,069	0,016
-572,934	0,343	-0,049	-0,026
-571,919	469,628	0,039	-0,065
-570,904	800,000	-0,033	-0,101
-569,890	242,264	0,038	0,047
-568,875	13,265	0,089	0,051
-567,861	182,423	0,027	0,030
-566,846	680,772	0,029	0,056
-565,831	759,158	-0,070	0,140
-564,817	-101,083	-0,058	-0,010
-563,802	800,000	0,057	-0,163
-562,788	40,992	0,031	-0,021
-561,773	332,832	0,059	0,085
-560,758	-35,004	0,054	-0,022
-559,744	363,371	0,023	-0,034
-558,729	800,000	-0,009	-0,023
-557,715	-176,588	-0,015	0,000
-556,700	264,805	-0,039	-0,051
-555,685	-200,000	-0,017	-0,057
-554,671	-40,664	0,125	-0,048
-553,656	214,660	0,091	0,107
-552,642	77,864	0,063	-0,049
-551,627	-79,771	0,071	-0,017
-550,612	800,000	-0,004	0,011
-549,598	800,000	0,024	-0,058
-548,583	145,928	-0,016	-0,016
-547,569	-35,734	-0,192	-0,076
-546,554	211,826	0,076	-0,089
-545,539	-164,174	0,088	-0,003
-544,525	800,000	-0,025	0,054
-543,510	-200,000	0,012	0,046
-542,496	197,598	-0,067	-0,076
-541,481	226,449	-0,074	-0,089
-540,466	-96,452	-0,160	-0,031
-539,452	-99,493	-0,031	-0,006
-538,437	8,039	0,132	-0,073
-537,423	800,000	0,038	0,095
-536,408	-177,849	0,023	0,000
-535,393	800,000	-0,004	0,011
-534,379	-132,408	-0,145	0,014
-533,364	-82,647	-0,138	-0,033
-532,350	800,000	0,049	0,158
-531,335	-140,042	-0,167	0,013
-530,321	-106,558	-0,096	-0,016
-529,306	5,762	-0,022	0,012
-528,291	399,465	-0,064	-0,100
-527,277	-61,339	-0,034	0,010
-526,262	-9,046	0,109	-0,054
-525,248	-46,937	0,081	-0,029
-524,233	212,453	0,104	0,122
-523,218	-200,000	0,007	0,093
-522,204	205,415	-0,060	-0,069
-521,189	-200,000	-0,024	-0,086
-520,175	-200,000	-0,000	-0,023
-519,160	-172,756	-0,051	0,001
-518,145	490,392	-0,035	0,060
-517,131	65,511	-0,023	-0,017
-516,116	800,000	0,030	0,066
-515,102	800,000	-0,032	0,068
-514,087	241,459	-0,063	-0,078
-513,072	800,000	-0,025	0,057
-512,058	8,159	-0,100	-0,056
-511,043	331,076	-0,053	-0,075
-510,029	-72,996	0,030	0,008
-509,014	-32,363	0,111	-0,046
-507,999	-172,358	0,095	-0,002
-506,985	91,243	-0,037	-0,031
-505,970	417,568	-0,047	-0,075
-504,956	800,000	-0,025	0,066
-503,941	-200,000	-0,007	0,042
-502,926	-200,000	0,009	0,088
-501,912	242,932	-0,094	0,117
-500,897	-200,000	0,026	-0,101
-499,883	70,560	0,067	-0,051
-498,868	486,807	0,035	-0,059
-497,853	-25,638	-0,117	-0,051
-496,839	113,041	-0,002	-0,002
-495,824	-79,144	0,108	0,027
-494,810	-24,123	0,088	0,039
-493,795	24,330	0,139	0,084
-492,781	90,704	0,139	0,115
-491,766	198,392	-0,146	-0,165
-490,751	-155,598	0,205	0,010
-489,737	360,846	-0,045	-0,066
-488,722	800,000	-0,048	-0,110
-487,708	300,175	0,024	-0,033
-486,693	215,596	0,091	0,107
-485,678	-53,379	-0,089	-0,030
-484,664	492,782	-0,057	-0,097
-483,649	373,203	0,016	-0,024
-482,635	125,046	-0,060	0,056
-481,620	269,288	-0,019	0,025
-480,605	-107,901	-0,044	-0,007
-479,591	-200,000	0,007	-0,105
-478,576	800,000	0,015	0,037
-477,562	800,000	-0,029	0,068
-476,547	-134,424	-0,079	-0,007
-475,532	-71,523	0,050	-0,014
-474,518	-200,000	-0,024	0,136
-473,503	-59,968	-0,045	-0,014
-472,489	-59,601	0,057	0,018
-471,474	-200,000	0,020	0,106
-470,459	400,136	0,014	-0,022
-469,445	125,144	-0,029	-0,027
-468,430	-6,775	-0,117	-0,059
-467,416	580,223	-0,015	-0,027
-466,401	433,520	0,025	0,040
-465,386	-58,590	0,022	0,007
-464,372	461,141	-0,031	-0,052
-463,357	218,412	0,016	0,019
-462,343	-200,000	-0,014	-0,121
-461,328	800,000	0,022	0,046
-460,313	71,676	0,052	-0,040
-459,299	-100,308	0,219	0,040
-458,284	800,000	-0,014	-0,037
-457,270	64,555	0,081	0,060
-456,255	-22,249	-0,077	-0,034
-455,241	-200,000	0,004	-0,022
-454,226	-1,735	0,021	-0,011
-453,211	-92,081	-0,114	-0,023
-452,197	-200,000	0,033	0,145
-451,182	270,631	0,059	-0,076
-450,168	-200,000	0,024	0,094
-449,153	427,192	-0,010	-0,016
-448,138	800,000	-0,047	-0,108
-447,124	346,953	0,044	-0,064
-446,109	137,878	0,040	-0,038
-445,095	-119,940	0,035	-0,004
-444,080	-152,079	-0,094	0,005
-443,065	-200,000	0,011	0,058
-442,051	80,921	-0,108	-0,086
-441,036	-200,000	-0,004	-0,060
-440,022	-5,865	0,051	0,026
-439,007	131,587	-0,149	-0,141
-437,992	-146,867	0,023	-0,001
-436,978	143,433	0,082	0,081
-435,963	554,596	0,054	-0,095
-434,949	-118,172	0,046	-0,006
-433,934	800,000	-0,042	-0,090
-432,919	-200,000	-0,009	-0,099
-431,905	574,524	0,045	-0,081
-430,890	-55,483	0,076	0,025
-429,876	35,458	-0,071	0,046
-428,861	146,280	-0,026	0,026
-427,846	-78,865	0,154	-0,038
-426,832	343,386	0,062	-0,090
-425,817	131,614	-0,073	-0,069
-424,803	-38,052	-0,092	-0,036
-423,788	-67,556	0,149	0,043
-422,773	100,718	0,093	0,079
-421,759	451,202	-0,051	-0,083
-420,744	-73,545	-0,022	0,006
-419,730	-200,000	0,008	-0,030
-418,715	-200,000	0,010	0,092
-417,701	-25,971	-0,045	0,019
-416,686	-200,000	-0,013	0,117
-415,671	-200,000	-0,005	0,030
-414,657	-78,976	-0,117	-0,029
-413,642	228,561	-0,084	-0,101
-412,628	227,009	0,090	-0,108
-411,613	-200,000	-0,009	0,084
-410,598	184,502	-0,058	0,064
-409,584	42,610	-0,034	0,023
-408,569	329,340	0,033	-0,047
-407,555	-132,878	0,108	-0,010
-406,540	-200,000	-0,031	0,115
-405,525	48,161	0,117	0,080
-404,511	-200,000	0,019	-0,068
-403,496	-73,106	-0,068	-0,018
-402,482	-11,939	0,086	-0,041
-401,467	-118,874	0,095	-0,012
-400,452	800,000	0,041	-0,091
-399,438	345,934	0,070	0,102
-398,423	-59,874	0,039	0,012
-397,409	52,769	-0,071	0,050
-396,394	-175,184	-0,058	0,001
-395,379	-7,799	0,147	0,073
-394,365	-103,019	0,149	-0,026
-393,350	72,942	-0,138	0,106
-392,336	241,233	-0,071	-0,087
-391,321	702,458	-0,020	-0,039
-390,306	114,870	0,028	-0,025
-389,292	132,025	0,110	0,104
-388,277	-64,797	-0,148	0,044
-387,263	800,000	-0,012	0,037
-386,248	422,853	-0,018	-0,028
-385,233	12,416	0,118	0,067
-384,219	-84,630	0,062	0,014
-383,204	609,168	-0,031	-0,057
-382,190	-86,071	-0,082	-0,018
-381,175	31,036	-0,131	-0,082
-380,160	-64,529	-0,067	0,020
-379,146	616,417	0,008	0,014
-378,131	-154,500	0,057	-0,003
-377,117	197,334	0,079	-0,088
-376,102	-200,000	-0,017	0,165
-375,088	-200,000	0,004	-0,021
-374,073	800,000	-0,051	0,136
-373,058	-200,000	0,012	0,062
-372,044	800,000	0,028	0,089
-371,029	360,538	-0,096	0,141
-370,015	-159,122	-0,047	0,002
-369,000	170,810	0,090	-0,095
-367,985	-156,087	0,100	-0,005
-366,971	248,190	-0,057	-0,071
-365,956	358,252	0,005	-0,007
-364,942	-135,247	-0,098	0,008
-363,927	77,719	0,065	-0,051
-362,912	-200,000	-0,009	0,144
-361,898	71,243	0,048	-0,037
-360,883	-200,000	0,018	-0,078
-359,869	31,923	0,087	0,055
-358,854	-74,250	0,122	0,032
-357,839	-27,225	0,055	0,024
-356,825	-58,664	-0,073	0,023
-355,810	-200,000	-0,023	0,087
-354,796	-5,488	-0,148	-0,074
-353,781	-200,000	-0,004	0,074
-352,766	-147,658	-0,021	0,001
-351,752	-200,000	0,048	0,214
-350,737	800,000	0,034	0,094
-349,723	-112,370	-0,080	0,012
-348,708	-73,090	-0,173	0,046
-347,693	-181,915	0,069	0,001
-346,679	-42,205	0,135	-0,050
-345,664	-39,202	-0,095	0,036
-344,650	800,000	-0,018	-0,043
-343,635	800,000	0,034	0,081
-342,620	-10,899	-0,073	0,035
-341,606	-93,345	0,119	0,024
-340,591	-200,000	-0,004	-0,086
-339,577	800,000	-0,065	-0,142
-338,562	-54,591	-0,069	-0,023
-337,548	20,885	0,018	0,011
-336,533	-200,000	0,001	0,024
-335,518	402,102	-0,027	0,042
-334,504	659,137	0,036	-0,068
-333,489	-60,153	0,160	-0,050
-332,475	-200,000	-0,001	0,103
-331,460	224,059	0,053	-0,063
-330,445	-200,000	0,000	0,018
-329,431	800,000	0,037	-0,115
-328,416	-126,211	-0,083	-0,009
-327,402	114,191	0,012	-0,011
-326,387	39,375	-0,024	0,016
-325,372	-200,000	-0,023	-0,193
-324,358	-200,000	-0,008	-0,031
-323,343	-45,665	-0,018	-0,006
-322,329	-74,009	-0,062	-0,016
-321,314	5,285	-0,051	0,028
-320,299	-156,549	0,117	0,005
-319,285	800,000	-0,030	-0,076
-318,270	-200,000	-0,015	0,051
-317,256	-200,000	0,005	-0,055
-316,241	-200,000	0,007	0,053
-315,226	-200,000	0,027	0,112
-314,212	800,000	0,065	0,198
-313,197	-200,000	-0,028	0,231
-312,183	361,292	0,085	0,126
-311,168	-92,723	-0,110	0,022
-310,153	36,080	0,058	-0,038
-309,139	-200,000	0,017	-0,208
-308,124	-200,000	0,018	-0,138
-307,110	-200,000	-0,011	0,114
-306,095	-200,000	-0,006	0,069
-305,080	-173,183	0,115	-0,003
-304,066	800,000	0,054	0,109
-303,051	-153,257	0,062	0,003
-302,037	81,385	0,014	-0,011
-301,022	65,234	-0,071	0,053
-300,008	-172,386	0,050	0,001
-298,993	-200,000	0,012	0,057
-297,978	51,022	0,125	0,086
-296,964	-56,028	-0,098	0,032
-295,949	-114,264	-0,127	0,018
-294,935	-200,000	0,008	-0,048
-293,920	-24,401	0,049	0,021
-292,905	-200,000	-0,010	0,050
-291,891	53,210	0,106	0,074
-290,876	-113,070	0,066	0,009
-289,862	-200,000	0,029	0,098
-288,847	46,835	0,102	-0,069
-287,832	111,318	-0,099	-0,087
-286,818	106,457	0,019	0,017
-285,803	-200,000	0,002	0,033
-284,789	-106,326	0,085	-0,014
-283,774	-200,000	-0,002	0,105
-282,759	-130,439	-0,119	0,012
-281,745	156,762	-0,043	-0,044
-280,730	89,410	-0,017	0,014
-279,716	99,620	-0,083	0,070
-278,701	153,396	-0,057	0,057
-277,686	-87,241	-0,115	-0,025
-276,672	31,397	0,080	-0,050
-275,657	143,907	0,106	-0,104
-274,643	304,146	-0,092	-0,125
-273,628	-50,112	-0,098	0,034
-272,613	-200,000	0,018	0,084
-271,599	-102,309	0,023	-0,004
-270,584	800,000	-0,006	0,017
-269,570	-12,567	0,071	-0,034
-268,555	-95,094	-0,090	0,018
-267,540	366,607	-0,029	0,043
-266,526	-133,791	-0,072	0,006
-265,511	-91,146	0,170	0,035
-264,497	-200,000	-0,003	-0,110
-263,482	-86,224	0,107	-0,024
-262,467	47,389	0,038	0,026
-261,453	-200,000	0,045	-0,172
-260,438	-17,437	-0,138	-0,063
-259,424	1,669	-0,052	-0,027
-258,409	-200,000	-0,019	-0,082
-257,395	-200,000	-0,023	-0,139
-256,380	800,000	-0,040	0,126
-255,365	112,126	0,097	0,085
-254,351	686,202	0,033	0,064
-253,336	-200,000	0,014	-0,130
-252,322	20,206	-0,004	-0,002
-251,307	800,000	-0,037	-0,077
-250,292	-126,649	0,007	-0,001
-249,278	191,507	-0,036	-0,039
-248,263	445,566	0,069	0,111
-247,249	800,000	0,003	0,007
-246,234	800,000	-0,033	-0,082
-245,219	-200,000	0,010	0,098
-244,205	800,000	0,050	-0,120
-243,190	-200,000	-0,003	0,068
-242,176	-200,000	0,008	-0,033
-241,161	27,155	-0,153	0,093
-240,146	-8,746	0,133	0,065
-239,132	-200,000	0,001	-0,121
-238,117	-57,896	0,052	0,017
-237,103	28,181	-0,074	-0,046
-236,088	-200,000	0,004	0,014
-235,073	134,372	-0,056	0,053
-234,059	411,492	0,053	0,082
-233,044	-200,000	0,035	0,181
-232,030	-146,797	-0,038	0,002
-231,015	-200,000	0,031	-0,148
-230,000	89,525	-0,038	-0,031
-228,986	41,320	0,026	0,017
-227,971	-105,052	-0,053	-0,009
-226,957	-113,569	-0,059	0,008
-225,942	800,000	0,051	-0,115
-224,927	-200,000	0,002	-0,022
-223,913	-200,000	0,043	-0,149
-222,898	175,179	-0,032	-0,034
-221,884	203,008	-0,090	-0,101
-220,869	624,140	-0,027	0,050
-219,855	800,000	-0,018	0,047
-218,840	117,391	0,046	-0,042
-217,825	800,000	-0,019	-0,052
-216,811	194,303	0,146	-0,161
-215,796	453,665	-0,052	0,084
-214,782	-200,000	0,001	-0,007
-213,767	-37,958	0,114	-0,044
-212,752	458,728	0,072	0,116
-211,738	-32,600	0,091	-0,037
-210,723	123,836	-0,014	0,013
-209,709	-200,000	-0,014	-0,109
-208,694	250,786	-0,075	-0,093
-207,679	14,346	-0,040	0,023
-206,665	-200,000	0,009	-0,149
-205,650	143,033	0,058	0,056
-204,636	800,000	-0,031	0,098
-203,621	800,000	-0,017	0,039
-202,606	-200,000	0,013	-0,125
-201,592	-37,218	-0,081	-0,031
-200,577	422,603	0,022	0,035
-199,563	510,400	-0,041	0,070
-198,548	-113,911	0,077	0,011
-197,533	-200,000	-0,024	0,081
-196,519	800,000	0,015	0,047
-195,504	-200,000	0,013	-0,095
-194,490	-45,868	-0,061	0,022
-193,475	77,252	-0,073	0,056
-192,460	-83,074	0,071	-0,016
-191,446	800,000	0,055	0,171
-190,431	111,064	0,095	0,084
-189,417	83,430	-0,048	0,038
-188,402	-180,338	0,041	0,001
-187,387	149,982	0,048	0,047
-186,373	37,932	-0,024	-0,016
-185,358	800,000	0,013	-0,034
-184,344	117,275	0,018	0,016
-183,329	26,513	0,047	0,028
-182,315	28,367	0,030	-0,018
-181,300	48,170	0,057	0,039
-180,285	41,635	-0,059	0,039
-179,271	108,692	-0,126	0,109
-178,256	552,919	0,049	0,087
-177,242	92,968	0,021	-0,018
-176,227	-200,000	0,017	0,075
-175,212	800,000	0,050	0,141
-174,198	497,604	-0,046	-0,078
-173,183	-165,125	-0,080	-0,003
-172,169	800,000	-0,051	-0,108
-171,154	-200,000	-0,022	-0,087
-170,139	-166,369	0,121	0,004
-169,125	456,725	0,058	0,094
-168,110	479,921	-0,043	0,071
-167,096	-200,000	-0,003	0,012
-166,081	139,998	-0,026	-0,025
-165,066	38,357	-0,064	-0,042
-164,052	27,662	-0,156	0,096
-163,037	-91,439	0,155	-0,032
-162,023	-200,000	-0,015	0,089
-161,008	346,715	0,068	0,097
-159,993	-200,000	-0,003	-0,212
-158,979	13,151	-0,108	0,061
-157,964	-200,000	-0,012	-0,127
-156,950	120,982	0,065	0,059
-155,935	583,532	-0,055	0,098
-154,920	-200,000	0,005	0,074
-153,906	67,986	0,122	0,091
-152,891	-63,175	-0,083	-0,025
-151,877	18,965	0,027	-0,016
-150,862	-134,682	-0,094	-0,008
-149,847	800,000	0,010	-0,023
-148,833	572,717	-0,095	0,170
-147,818	-108,453	0,120	-0,019
-146,804	800,000	0,054	-0,129
-145,789	800,000	0,004	0,012
-144,775	800,000	0,045	-0,127
-143,760	800,000	-0,022	-0,057
-142,745	-177,118	-0,083	0,001
-141,731	-106,961	-0,089	0,014
-140,716	-200,000	0,015	0,072
-139,702	-110,594	0,066	-0,010
-138,687	276,921	0,082	0,107
-137,672	-84,447	-0,029	-0,007
-136,658	-148,855	-0,116	-0,007
-135,643	-62,413	0,121	-0,036
-134,629	800,000	-0,013	-0,042
-133,614	309,973	-0,030	-0,041
-132,599	800,000	-0,068	-0,204
-131,585	440,228	-0,073	-0,116
-130,570	-15,053	0,104	-0,048
-129,556	-15,381	-0,111	-0,051
-128,541	800,000	0,047	-0,103
-127,526	-29,786	-0,072	0,030
-126,512	-200,000	-0,008	0,142
-125,497	-200,000	-0,015	-0,093
-124,483	-200,000	-0,002	0,182
-123,468	-45,187	0,090	-0,032
-122,453	-200,000	-0,059	-0,199
-121,439	800,000	-0,040	-0,113
-120,424	-200,000	-0,029	-0,164
-119,410	47,805	0,074	-0,050
