DTS Sentinel unit serial number:	SN410029Multiplexer serial number:	ORYXHardware model number:	OX2-SRSoftware version number:	ORYX F/W v4,00 Oryx Data Collector v3.7.2.0data status	okinstallation	B4 Nyhavnadifferential loss correction	single-endedforward channel	channel 2reverse channel	N/Adate	2023/12/19time	01:10:13forward acquisition time	300,00reverse acquisition time	0,00gamma	499,1914k internal	0,3123k external	0,3123temperature offset calibration	1,0000default loss term (dB/km)	0,3820temperature slope calibration	1,0000multiplexer offset coefficient	1,0000multiplexer slope coefficient	1,0000fibre end	0,00T internal ref (°C)	21,82T ext. ref 1 (°C)	6,03T ext. ref 2 (°C)	6,03length (m)	temperature (°C)	Stokes	anti-Stokes-744,400	-200,000	-0,031	-0,105
-743,385	-130,947	-0,193	0,019
-742,371	-68,614	-0,064	-0,018
-741,356	-75,944	-0,073	0,019
-740,342	738,717	0,039	-0,079
-739,327	150,166	-0,196	0,199
-738,312	-134,501	-0,110	0,010
-737,298	58,125	-0,216	0,158
-736,283	441,069	0,055	0,090
-735,269	-165,183	-0,208	0,007
-734,254	176,634	-0,027	-0,029
-733,239	-88,826	-0,410	-0,090
-732,225	177,787	0,135	-0,147
-731,210	-136,078	0,050	-0,004
-730,196	252,044	-0,043	0,054
-729,181	-200,000	-0,025	-0,084
-728,167	-200,000	-0,002	0,028
-727,152	-82,033	-0,084	-0,020
-726,137	459,804	0,030	-0,050
-725,123	-101,115	-0,185	-0,033
-724,108	493,331	0,056	0,096
-723,094	-33,572	-0,039	0,016
-722,079	-73,364	-0,144	-0,039
-721,064	-118,920	0,135	-0,017
-720,050	800,000	0,048	-0,116
-719,035	-56,484	-0,072	0,024
-718,021	27,093	-0,039	-0,024
-717,006	800,000	0,051	-0,115
-715,991	-200,000	-0,025	-0,158
-714,977	-200,000	-0,032	-0,135
-713,962	5,077	0,004	0,002
-712,948	-107,400	0,027	-0,004
-711,933	-200,000	0,005	-0,140
-710,918	800,000	0,061	-0,129
-709,904	19,689	-0,080	-0,048
-708,889	2,440	-0,179	-0,096
-707,875	800,000	-0,091	-0,190
-706,860	-35,503	0,027	0,011
-705,845	-13,330	-0,111	0,053
-704,831	800,000	-0,007	0,014
-703,816	-117,232	-0,050	-0,007
-702,802	800,000	0,043	-0,095
-701,787	-48,234	0,070	0,025
-700,772	122,331	-0,044	-0,041
-699,758	800,000	-0,062	-0,167
-698,743	-200,000	0,006	-0,067
-697,729	426,527	0,033	-0,054
-696,714	331,269	-0,091	0,131
-695,699	48,557	-0,033	-0,023
-694,685	-22,637	-0,099	-0,044
-693,670	551,489	-0,053	-0,095
-692,656	-200,000	0,004	-0,124
-691,641	4,499	0,080	-0,044
-690,627	613,129	0,063	-0,118
-689,612	-170,539	-0,076	0,002
-688,597	24,870	-0,033	-0,020
-687,583	-200,000	-0,020	-0,085
-686,568	-200,000	0,005	-0,062
-685,554	-3,742	-0,208	-0,107
-684,539	-200,000	0,012	0,046
-683,524	39,411	0,022	-0,015
-682,510	182,057	-0,053	0,059
-681,495	-200,000	0,001	0,034
-680,481	412,615	0,051	-0,081
-679,466	800,000	0,045	-0,124
-678,451	431,181	-0,079	-0,127
-677,437	351,237	0,070	0,103
-676,422	-135,591	-0,084	-0,007
-675,408	-200,000	-0,026	0,110
-674,393	-160,131	-0,008	0,000
-673,378	496,645	-0,037	0,063
-672,364	-200,000	0,013	0,104
-671,349	800,000	-0,042	-0,092
-670,335	-140,171	-0,108	-0,008
-669,320	-200,000	-0,043	0,172
-668,305	-115,343	0,129	0,018
-667,291	800,000	-0,022	-0,047
-666,276	-200,000	0,009	-0,119
-665,262	676,857	-0,054	-0,106
-664,247	290,222	-0,046	-0,062
-663,232	-188,212	-0,162	0,001
-662,218	177,043	0,068	0,074
-661,203	450,197	-0,089	0,147
-660,189	-85,495	-0,087	-0,020
-659,174	-132,563	0,078	0,007
-658,159	39,321	-0,102	-0,068
-657,145	-200,000	0,011	-0,163
-656,130	78,542	-0,027	-0,021
-655,116	9,673	0,070	0,039
-654,101	-70,964	0,052	0,014
-653,086	19,534	-0,134	0,080
-652,072	-75,203	-0,111	0,029
-651,057	-150,008	-0,126	-0,007
-650,043	256,127	-0,062	0,080
-649,028	154,249	-0,017	-0,017
-648,014	174,187	-0,075	0,081
-646,999	77,056	-0,036	0,029
-645,984	-120,469	0,088	0,011
-644,970	-92,883	-0,088	-0,018
-643,955	-200,000	0,014	-0,071
-642,941	-200,000	0,005	-0,155
-641,926	-170,491	0,103	0,003
-640,911	-32,118	0,071	-0,029
-639,897	-168,076	0,138	0,004
-638,882	800,000	0,006	0,017
-637,868	48,436	-0,067	-0,047
-636,853	-200,000	0,002	0,026
-635,838	404,684	-0,072	0,113
-634,824	-200,000	0,018	-0,061
-633,809	-115,860	-0,094	-0,013
-632,795	41,163	-0,038	0,026
-631,780	594,637	0,089	0,165
-630,765	800,000	0,010	-0,021
-629,751	-200,000	-0,013	-0,055
-628,736	-200,000	0,004	0,093
-627,722	-142,784	0,049	0,003
-626,707	-5,552	0,057	0,029
-625,692	-200,000	0,002	-0,075
-624,678	-176,818	0,057	0,001
-623,663	-49,303	0,063	-0,022
-622,649	785,685	-0,138	-0,282
-621,634	-200,000	0,040	-0,193
-620,619	387,769	-0,096	-0,148
-619,605	34,200	0,171	0,110
-618,590	-200,000	0,014	-0,059
-617,576	192,061	-0,110	0,123
-616,561	361,092	0,066	-0,098
-615,546	-200,000	-0,006	0,069
-614,532	156,891	-0,067	-0,069
-613,517	229,536	0,024	-0,029
-612,503	800,000	-0,030	0,092
-611,488	137,804	-0,074	-0,072
-610,474	101,878	-0,065	0,056
-609,459	-30,892	-0,082	-0,034
-608,444	-200,000	0,010	0,035
-607,430	800,000	-0,027	0,062
-606,415	-200,000	-0,001	0,014
-605,401	293,134	0,037	-0,051
-604,386	147,969	0,069	-0,069
-603,371	800,000	-0,017	0,052
-602,357	-200,000	0,002	0,007
-601,342	-97,606	-0,098	0,019
-600,328	-200,000	0,006	-0,064
-599,313	-131,000	0,097	0,010
-598,298	19,195	0,022	0,013
-597,284	49,995	0,043	0,030
-596,269	-200,000	0,040	0,140
-595,255	-130,724	-0,092	0,009
-594,240	-200,000	0,012	-0,140
-593,225	-200,000	0,009	-0,055
-592,211	-2,829	0,056	0,029
-591,196	800,000	-0,052	0,117
-590,182	800,000	0,020	0,054
-589,167	349,615	-0,073	0,107
-588,152	-13,056	0,052	-0,025
-587,138	800,000	0,040	-0,111
-586,123	-84,032	-0,092	0,021
-585,109	-44,640	-0,132	-0,049
-584,094	-200,000	-0,001	-0,035
-583,079	-200,000	0,028	0,121
-582,065	41,828	0,053	0,036
-581,050	24,682	-0,054	0,033
-580,036	800,000	0,037	-0,096
-579,021	800,000	-0,025	-0,078
-578,006	-84,888	0,090	-0,021
-576,992	253,714	-0,046	0,058
-575,977	-135,901	-0,057	-0,005
-574,963	319,142	-0,045	-0,064
-573,948	378,132	-0,014	-0,021
-572,934	-134,123	0,039	-0,004
-571,919	28,812	-0,079	0,050
-570,904	199,342	0,052	0,060
-569,890	-45,349	0,079	0,029
-568,875	-73,195	-0,158	0,043
-567,861	-133,565	0,119	0,011
-566,846	36,173	-0,108	0,070
-565,831	408,864	-0,018	0,028
-564,817	-128,742	0,138	-0,014
-563,802	-200,000	-0,027	-0,159
-562,788	-200,000	0,015	0,113
-561,773	800,000	-0,054	-0,122
-560,758	-44,299	-0,041	-0,015
-559,744	-80,553	0,065	0,016
-558,729	800,000	-0,022	0,046
-557,715	-127,541	-0,036	-0,004
-556,700	-200,000	-0,024	-0,148
-555,685	800,000	0,021	-0,046
-554,671	800,000	-0,022	-0,064
-553,656	193,827	-0,081	0,091
-552,642	-200,000	-0,000	0,120
-551,627	-91,445	-0,179	-0,037
-550,612	25,040	-0,069	0,042
-549,598	19,550	-0,075	-0,044
-548,583	-118,773	0,029	0,004
-547,569	-200,000	-0,026	0,113
-546,554	40,927	0,079	0,052
-545,539	-114,835	0,066	0,009
-544,525	342,981	0,069	-0,101
-543,510	-137,863	-0,146	-0,012
-542,496	2,823	-0,046	-0,024
-541,481	800,000	-0,023	-0,070
-540,466	-200,000	-0,003	0,161
-539,452	164,265	0,075	0,078
-538,437	-200,000	0,017	-0,166
-537,423	800,000	-0,026	0,055
-536,408	263,456	-0,069	-0,089
-535,393	-200,000	-0,001	0,065
-534,379	-200,000	-0,046	-0,176
-533,364	-200,000	-0,001	-0,027
-532,350	-200,000	0,001	0,084
-531,335	239,779	0,077	0,095
-530,321	-21,822	-0,014	0,006
-529,306	-200,000	0,003	-0,024
-528,291	98,187	0,022	-0,018
-527,277	-200,000	0,004	-0,092
-526,262	-200,000	-0,016	-0,070
-525,248	-116,898	-0,143	-0,019
-524,233	-195,072	-0,022	0,000
-523,218	13,912	-0,086	0,050
-522,204	63,417	-0,125	-0,092
-521,189	188,408	-0,058	-0,064
-520,175	-200,000	-0,009	-0,067
-519,160	718,666	0,053	-0,105
-518,145	248,899	0,057	-0,071
-517,131	800,000	0,002	0,006
-516,116	-33,596	0,161	-0,065
-515,102	-50,502	-0,126	-0,044
-514,087	674,404	-0,071	-0,137
-513,072	127,491	-0,087	-0,082
-512,058	-36,679	0,045	0,018
-511,043	-200,000	0,007	0,042
-510,029	154,881	-0,033	0,033
-509,014	125,267	0,093	-0,086
-507,999	645,074	-0,035	0,066
-506,985	-200,000	0,033	0,147
-505,970	196,405	-0,022	0,025
-504,956	143,640	-0,118	-0,116
-503,941	385,032	0,088	0,135
-502,926	-87,827	-0,130	0,029
-501,912	-95,323	0,064	-0,013
-500,897	175,414	0,023	-0,025
-499,883	-101,011	0,145	0,026
-498,868	193,977	0,032	0,036
-497,853	270,362	0,037	0,048
-496,839	42,057	0,045	-0,030
-495,824	-17,438	0,101	0,047
-494,810	366,751	-0,064	-0,096
-493,795	-156,480	0,048	0,002
-492,781	42,882	0,086	-0,058
-491,766	800,000	-0,027	-0,067
-490,751	-200,000	-0,009	-0,062
-489,737	-142,991	-0,117	0,008
-488,722	-53,235	0,069	0,023
-487,708	-200,000	0,028	0,098
-486,693	7,290	0,042	0,023
-485,678	-200,000	-0,006	0,029
-484,664	-190,115	0,111	-0,001
-483,649	478,906	0,023	0,039
-482,635	-114,623	-0,193	0,027
-481,620	45,526	0,081	0,055
-480,605	-200,000	-0,015	0,061
-479,591	-200,000	-0,017	-0,072
-478,576	800,000	0,026	0,066
-477,562	-162,686	0,113	0,004
-476,547	-11,129	-0,051	0,025
-475,532	-38,423	0,047	0,018
-474,518	100,689	-0,021	0,018
-473,503	-200,000	-0,007	0,033
-472,489	-200,000	0,010	0,199
-471,474	800,000	0,033	0,080
-470,459	139,911	0,101	-0,098
-469,445	-200,000	0,005	-0,146
-468,430	800,000	0,048	0,130
-467,416	-32,905	0,149	-0,061
-466,401	800,000	-0,013	0,030
-465,386	5,621	-0,134	0,073
-464,372	137,274	0,101	0,098
-463,357	345,235	0,023	-0,034
-462,343	125,706	-0,088	-0,082
-461,328	-200,000	0,033	-0,115
-460,313	-200,000	-0,011	0,128
-459,299	-39,143	0,095	0,037
-458,284	800,000	0,025	0,061
-457,270	160,758	-0,071	0,073
-456,255	51,983	0,189	-0,133
-455,241	20,891	-0,037	-0,022
-454,226	124,080	-0,046	0,043
-453,211	-200,000	0,004	-0,020
-452,197	34,165	0,102	0,066
-451,182	57,412	0,091	0,065
-450,168	-200,000	-0,023	-0,138
-449,153	-130,462	0,039	-0,004
-448,138	-200,000	-0,021	-0,110
-447,124	141,745	-0,043	-0,042
-446,109	166,131	0,092	0,097
-445,095	-82,877	0,149	-0,035
-444,080	-48,426	0,139	0,049
-443,065	-164,431	0,049	0,002
-442,051	-200,000	-0,014	-0,078
-441,036	-200,000	-0,012	-0,063
-440,022	87,301	0,054	0,044
-439,007	576,143	0,034	0,061
-437,992	-58,708	0,139	0,044
-436,978	800,000	-0,059	0,152
-435,963	251,708	-0,116	0,145
-434,949	112,558	-0,087	0,077
-433,934	-34,263	-0,025	-0,010
-432,919	211,912	-0,087	-0,101
-431,905	60,512	0,077	0,056
-430,890	-75,111	0,136	-0,036
-429,876	800,000	-0,022	-0,047
-428,861	8,410	0,086	0,048
-427,846	-200,000	0,002	0,026
-426,832	10,701	-0,048	-0,027
-425,817	63,384	0,023	-0,017
-424,803	800,000	0,048	-0,115
-423,788	492,667	0,026	-0,043
-422,773	414,964	-0,075	0,118
-421,759	-97,085	0,155	-0,030
-420,744	-200,000	0,030	0,154
-419,730	-138,259	-0,150	0,012
-418,715	-70,950	-0,069	0,019
-417,701	-169,354	-0,046	-0,001
-416,686	-41,551	-0,069	-0,026
-415,671	394,532	0,004	0,006
-414,657	-73,809	-0,077	-0,020
-413,642	-37,741	0,127	-0,049
-412,628	800,000	0,024	0,055
-411,613	482,345	0,026	-0,044
-410,598	-200,000	0,003	-0,049
-409,584	-42,037	-0,078	-0,029
-408,569	82,866	0,066	-0,052
-407,555	-200,000	-0,002	0,074
-406,540	711,150	0,066	-0,129
-405,525	800,000	-0,056	-0,155
-404,511	-200,000	0,006	-0,086
-403,496	19,309	0,041	-0,024
-402,482	-41,432	0,132	-0,050
-401,467	-34,637	0,048	0,019
-400,452	698,768	-0,080	0,156
-399,438	32,840	-0,086	0,055
-398,423	468,770	-0,066	0,109
-397,409	-60,925	0,036	0,011
-396,394	428,812	0,029	-0,046
-395,379	-57,969	-0,088	0,028
-394,365	490,823	0,053	-0,090
-393,350	-200,000	-0,009	-0,041
-392,336	800,000	-0,051	0,136
-391,321	117,507	-0,048	0,043
-390,306	-29,525	0,116	-0,049
-389,292	326,909	-0,047	-0,067
-388,277	102,654	0,160	-0,137
-387,263	-172,551	0,037	0,001
-386,248	158,177	-0,064	0,065
-385,233	-102,240	-0,053	-0,009
-384,219	-178,289	-0,057	-0,001
-383,204	708,998	0,056	0,110
-382,190	81,199	-0,146	-0,116
-381,175	69,826	0,010	0,007
-380,160	142,930	0,042	0,041
-379,146	-163,946	0,102	0,003
-378,131	-144,287	0,091	0,006
-377,117	-96,638	-0,075	0,014
-376,102	206,541	-0,119	-0,136
-375,088	-109,262	-0,237	-0,037
-374,073	-14,591	0,025	0,012
-373,058	-43,211	0,076	-0,028
-372,044	-129,202	0,141	-0,014
-371,029	-200,000	-0,042	0,148
-370,015	800,000	-0,021	-0,062
-369,000	-200,000	0,030	0,102
-367,985	8,941	-0,058	-0,032
-366,971	444,172	0,063	0,101
-365,956	372,302	0,052	0,079
-364,942	489,286	-0,084	-0,141
-363,927	-19,218	0,051	0,023
-362,912	37,269	-0,045	-0,029
-361,898	153,808	0,060	-0,061
-360,883	7,273	0,026	0,014
-359,869	94,284	0,059	-0,049
-358,854	48,311	-0,091	-0,062
-357,839	62,452	0,045	0,033
-356,825	-10,568	-0,179	-0,087
-355,810	297,769	0,036	0,049
-354,796	112,406	0,083	0,074
-353,781	226,909	0,107	-0,128
-352,766	-200,000	0,016	-0,108
-351,752	-71,198	-0,076	-0,021
-350,737	-93,971	-0,040	0,008
-349,723	121,358	0,088	-0,081
-348,708	-200,000	0,013	0,141
-347,693	-200,000	-0,008	-0,066
-346,679	800,000	0,062	-0,141
-345,664	656,863	-0,027	-0,051
-344,650	-69,059	0,048	0,013
-343,635	-81,335	0,118	-0,028
-342,620	-47,947	-0,122	0,043
-341,606	23,799	0,093	-0,056
-340,591	-200,000	-0,048	0,177
-339,577	-200,000	0,006	-0,033
-338,562	-200,000	0,019	-0,102
-337,548	55,045	0,059	-0,042
-336,533	1,705	0,013	0,007
-335,518	800,000	-0,036	0,096
-334,504	158,388	0,048	-0,049
-333,489	192,330	-0,162	-0,180
-332,475	168,639	-0,092	0,097
-331,460	800,000	-0,063	-0,160
-330,445	-133,180	-0,105	0,010
-329,431	-200,000	-0,009	0,123
-328,416	191,558	0,060	-0,067
-327,402	106,700	-0,037	0,033
-326,387	251,725	-0,087	0,109
-325,372	-45,173	0,084	-0,030
-324,358	-111,603	0,089	0,013
-323,343	-77,346	-0,049	-0,013
-322,329	-171,553	-0,028	-0,001
-321,314	-200,000	0,002	0,039
-320,299	-128,888	0,151	0,015
-319,285	132,500	-0,048	-0,046
-318,270	143,832	0,032	-0,032
-317,256	-200,000	0,015	-0,180
-316,241	-113,507	-0,079	0,011
-315,226	18,516	0,052	-0,030
-314,212	375,896	0,025	0,038
-313,197	-200,000	0,006	0,066
-312,183	-7,459	-0,083	0,041
-311,168	-4,412	0,047	0,024
-310,153	-120,303	0,041	0,005
-309,139	-200,000	-0,017	-0,085
-308,124	39,888	-0,039	-0,026
-307,110	-200,000	0,021	-0,069
-306,095	-200,000	0,020	0,081
-305,080	-84,682	-0,121	0,028
-304,066	800,000	-0,027	0,063
-303,051	-200,000	0,010	0,113
-302,037	709,681	0,018	0,035
-301,022	-187,365	-0,170	0,002
-300,008	-200,000	-0,003	0,070
-298,993	241,323	0,051	0,063
-297,978	81,439	-0,068	0,053
-296,964	163,763	-0,077	-0,079
-295,949	-200,000	0,029	0,137
-294,935	-41,405	-0,041	-0,015
-293,920	-66,240	-0,082	0,024
-292,905	800,000	0,021	0,061
-291,891	-110,676	0,097	-0,015
-290,876	-11,325	-0,105	0,051
-289,862	800,000	0,016	0,048
-288,847	-200,000	0,010	-0,076
-287,832	-200,000	-0,006	-0,061
-286,818	-13,802	0,049	0,023
-285,803	-12,735	0,153	-0,073
-284,789	183,523	0,013	0,014
-283,774	158,274	-0,037	0,038
-282,759	-200,000	0,012	-0,170
-281,745	-0,147	-0,004	-0,002
-280,730	77,776	0,016	0,012
-279,716	-200,000	0,129	0,000
-278,701	214,179	-0,054	0,063
-277,686	-200,000	0,003	-0,014
-276,672	89,496	0,059	0,048
-275,657	-27,841	-0,030	-0,013
-274,643	-21,633	0,051	0,023
-273,628	-200,000	-0,006	-0,047
-272,613	97,221	0,038	-0,032
-271,599	9,412	0,045	-0,025
-270,584	463,086	0,082	0,134
-269,570	100,771	0,134	0,114
-268,555	-200,000	-0,009	0,094
-267,540	-140,110	-0,175	-0,013
-266,526	-127,170	-0,128	0,014
-265,511	641,763	-0,025	-0,048
-264,497	41,321	0,107	0,071
-263,482	-41,311	0,107	0,040
-262,467	198,310	-0,071	0,079
-261,453	-48,689	0,088	0,031
-260,438	-71,463	-0,050	-0,014
-259,424	555,335	-0,008	0,014
-258,409	-29,854	0,118	-0,049
-257,395	-103,763	-0,085	0,014
-256,380	8,060	-0,093	0,051
-255,365	-119,604	0,076	0,009
-254,351	-22,521	-0,104	0,046
-253,336	-146,026	-0,134	0,009
-252,322	-72,412	0,167	-0,045
-251,307	-200,000	0,002	0,018
-250,292	800,000	0,025	-0,060
-249,278	166,643	0,083	0,086
-248,263	239,323	0,086	0,105
-247,249	-200,000	-0,000	0,006
-246,234	-200,000	-0,032	0,108
-245,219	-200,000	-0,019	-0,077
-244,205	-2,181	0,039	0,020
-243,190	-63,206	-0,116	-0,035
-242,176	564,742	0,050	0,089
-241,161	-15,083	0,121	-0,057
-240,146	135,107	0,032	-0,031
-239,132	-200,000	0,014	-0,114
-238,117	-124,548	-0,044	-0,005
-237,103	800,000	-0,024	-0,054
-236,088	-200,000	0,014	-0,079
-235,073	-200,000	0,007	0,021
-234,059	125,664	-0,017	-0,016
-233,044	800,000	0,021	-0,065
-232,030	279,977	-0,034	0,044
-231,015	92,186	-0,107	0,088
-230,000	38,963	0,072	-0,047
-228,986	-200,000	-0,036	-0,161
-227,971	527,347	-0,036	0,062
-226,957	-200,000	0,024	0,128
-225,942	785,437	-0,048	0,097
-224,927	357,555	-0,049	-0,072
-223,913	-200,000	-0,001	0,012
-222,898	231,578	0,064	0,077
-221,884	-118,306	0,080	0,010
-220,869	1,771	0,027	-0,014
-219,855	221,823	-0,103	0,122
-218,840	-85,474	-0,060	0,013
-217,825	420,048	0,006	-0,009
-216,811	-124,276	-0,086	0,010
-215,796	800,000	-0,041	-0,113
-214,782	461,882	0,072	-0,118
-213,767	-160,447	0,078	-0,003
-212,752	442,564	-0,033	0,054
-211,738	91,439	0,044	-0,036
-210,723	-73,788	0,104	0,027
-209,709	-200,000	-0,024	0,086
-208,694	-28,914	-0,019	-0,008
-207,679	-126,183	-0,103	0,011
-206,665	59,419	0,112	0,080
-205,650	279,022	0,056	-0,073
-204,636	-103,262	-0,106	0,018
-203,621	-200,000	0,002	-0,062
-202,606	-103,751	-0,128	-0,022
-201,592	99,546	-0,114	-0,096
-200,577	-200,000	0,022	-0,072
-199,563	-178,102	0,115	-0,002
-198,548	-60,511	0,142	0,044
-197,533	-200,000	0,015	0,089
-196,519	-98,166	-0,081	0,015
-195,504	-79,585	-0,196	0,048
-194,490	-6,506	0,041	-0,020
-193,475	87,177	-0,098	0,079
-192,460	548,241	0,018	-0,031
-191,446	-200,000	-0,006	0,168
-190,431	800,000	0,060	0,169
-189,417	-200,000	0,009	0,122
-188,402	40,841	-0,058	-0,038
-187,387	800,000	-0,069	-0,151
-186,373	-14,839	0,081	0,038
-185,358	-69,261	-0,050	0,014
-184,344	-157,467	0,096	-0,004
-183,329	-107,463	-0,109	0,017
-182,315	336,906	-0,078	-0,111
-181,300	800,000	0,012	0,033
-180,285	2,320	0,041	0,022
-179,271	800,000	-0,022	-0,057
-178,256	36,185	-0,105	-0,068
-177,242	-56,943	-0,128	-0,041
-176,227	-200,000	0,033	0,175
-175,212	-117,156	0,092	-0,012
-174,198	44,717	0,077	-0,052
-173,183	-67,281	-0,055	-0,016
-172,169	-200,000	0,004	-0,064
-171,154	-128,242	-0,147	-0,015
-170,139	91,524	0,058	-0,048
-169,125	-8,190	-0,037	-0,018
-168,110	-200,000	-0,011	0,085
-167,096	389,182	0,072	-0,108
-166,081	281,768	-0,069	-0,091
-165,066	12,337	-0,127	-0,071
-164,052	739,507	-0,050	-0,099
-163,037	-56,202	0,086	0,028
-162,023	-4,587	0,168	0,084
-161,008	99,207	0,074	-0,062
-159,993	-84,234	0,095	-0,022
-158,979	-71,557	-0,105	0,028
-157,964	-104,536	-0,135	0,023
-156,950	138,056	-0,071	0,067
-155,935	-92,936	0,113	-0,023
-154,920	129,618	-0,060	0,056
-153,906	-200,000	0,005	0,085
-152,891	-200,000	-0,011	0,087
-151,877	211,559	-0,032	0,036
-150,862	800,000	-0,017	-0,051
-149,847	-86,377	0,088	-0,020
-148,833	120,420	0,090	-0,082
-147,818	43,117	0,071	0,047
-146,804	12,929	0,084	0,047
-145,789	762,902	-0,089	0,177
-144,775	-200,000	0,002	0,099
-143,760	61,429	-0,052	0,037
-142,745	-200,000	-0,002	-0,010
-141,731	-200,000	-0,010	-0,052
-140,716	140,304	0,039	-0,037
-139,702	77,508	0,123	0,095
-138,687	-122,758	0,009	0,001
-137,672	-42,333	-0,110	0,041
-136,658	-24,975	-0,122	-0,052
-135,643	-1,451	-0,189	0,097
-134,629	800,000	0,043	0,122
-133,614	-32,927	-0,109	0,044
-132,599	-27,579	0,123	0,052
-131,585	-200,000	-0,121	0,000
-130,570	239,090	-0,023	0,028
-129,556	-200,000	-0,042	-0,000
-128,541	503,034	-0,029	-0,048
-127,526	154,921	-0,061	0,061
-126,512	131,186	0,061	0,057
-125,497	-200,000	-0,032	0,118
-124,483	-200,000	-0,001	0,053
-123,468	-200,000	0,039	0,158
-122,453	-18,241	0,072	-0,032
-121,439	75,361	-0,061	-0,047
-120,424	18,364	0,093	0,054
-119,410	800,000	0,029	0,070
