DTS Sentinel unit serial number:	SN410029Multiplexer serial number:	ORYXHardware model number:	OX2-SRSoftware version number:	ORYX F/W v4,00 Oryx Data Collector v3.7.2.0data status	okinstallation	B4 Nyhavnadifferential loss correction	single-endedforward channel	channel 2reverse channel	N/Adate	2023/12/16time	11:50:13forward acquisition time	300,00reverse acquisition time	0,00gamma	499,1914k internal	0,3126k external	0,3126temperature offset calibration	1,0000default loss term (dB/km)	0,3820temperature slope calibration	1,0000multiplexer offset coefficient	1,0000multiplexer slope coefficient	1,0000fibre end	0,00T internal ref (°C)	23,88T ext. ref 1 (°C)	9,68T ext. ref 2 (°C)	9,86length (m)	temperature (°C)	Stokes	anti-Stokes-744,400	-200,000	-0,006	0,045
-743,385	38,616	-0,317	0,210
-742,371	153,099	0,104	0,106
-741,356	800,000	-0,109	0,256
-740,342	-152,232	-0,042	-0,002
-739,327	344,221	-0,091	0,133
-738,312	-200,000	0,038	-0,126
-737,298	346,261	-0,189	0,278
-736,283	-200,000	-0,021	0,152
-735,269	59,698	-0,120	0,088
-734,254	800,000	0,014	0,039
-733,239	-127,657	-0,329	-0,035
-732,225	489,280	0,041	0,069
-731,210	164,561	0,071	0,074
-730,196	800,000	-0,085	-0,211
-729,181	19,109	0,129	-0,077
-728,167	800,000	0,032	-0,077
-727,152	-86,275	-0,035	-0,008
-726,137	81,783	-0,085	-0,068
-725,123	303,658	0,059	0,082
-724,108	-110,186	-0,093	0,014
-723,094	-158,189	-0,075	0,003
-722,079	-66,268	0,040	0,012
-721,064	-123,469	-0,103	-0,012
-720,050	140,630	-0,070	-0,069
-719,035	1,593	-0,037	0,020
-718,021	-200,000	-0,021	0,093
-717,006	-116,499	-0,095	0,013
-715,991	-200,000	-0,025	-0,151
-714,977	-30,452	-0,020	0,009
-713,962	40,319	0,023	0,015
-712,948	-144,620	-0,143	0,010
-711,933	-45,323	0,090	0,033
-710,918	83,794	0,074	-0,060
-709,904	-84,222	-0,139	0,033
-708,889	-200,000	-0,007	0,058
-707,875	-116,487	-0,025	-0,003
-706,860	800,000	-0,028	0,073
-705,845	-200,000	-0,002	0,068
-704,831	208,101	-0,034	-0,040
-703,816	167,803	-0,045	-0,047
-702,802	800,000	-0,016	-0,040
-701,787	66,673	-0,034	-0,026
-700,772	-102,652	0,034	0,006
-699,758	800,000	-0,078	-0,170
-698,743	-200,000	0,025	-0,142
-697,729	-82,783	0,013	-0,003
-696,714	-200,000	0,010	0,085
-695,699	587,122	-0,073	0,135
-694,685	491,912	-0,019	0,033
-693,670	678,388	-0,044	-0,085
-692,656	-63,221	-0,094	0,028
-691,641	571,099	0,058	0,105
-690,627	773,040	0,044	0,090
-689,612	185,259	-0,107	0,118
-688,597	-200,000	0,006	0,128
-687,583	79,964	-0,138	-0,110
-686,568	-87,194	-0,123	-0,028
-685,554	571,101	-0,090	-0,164
-684,539	-200,000	-0,019	-0,157
-683,524	-200,000	0,019	0,111
-682,510	800,000	0,040	0,101
-681,495	-32,878	-0,047	-0,019
-680,481	169,444	0,099	-0,105
-679,466	-18,367	-0,038	-0,017
-678,451	-200,000	0,000	-0,064
-677,437	-200,000	0,004	0,112
-676,422	19,560	0,083	0,049
-675,408	2,233	-0,059	-0,032
-674,393	143,030	0,048	-0,048
-673,378	-62,567	-0,053	-0,016
-672,364	-56,300	0,054	-0,018
-671,349	431,709	-0,018	0,029
-670,335	197,554	0,030	0,034
-669,320	-200,000	0,014	-0,097
-668,305	800,000	-0,030	0,084
-667,291	91,075	-0,131	0,109
-666,276	93,005	-0,113	-0,094
-665,262	-52,904	0,063	-0,022
-664,247	-78,993	-0,015	-0,004
-663,232	176,089	-0,064	-0,069
-662,218	-40,155	0,059	0,023
-661,203	-200,000	-0,005	0,030
-660,189	-200,000	-0,010	0,133
-659,174	800,000	-0,016	-0,036
-658,159	399,592	-0,022	-0,034
-657,145	-138,823	-0,097	0,008
-656,130	-1,834	0,034	0,018
-655,116	-36,382	-0,028	-0,011
-654,101	94,010	0,081	0,068
-653,086	-200,000	-0,008	-0,099
-652,072	190,348	-0,028	-0,031
-651,057	-25,610	-0,117	0,051
-650,043	800,000	-0,086	-0,197
-649,028	-200,000	0,013	-0,080
-648,014	57,655	0,057	-0,041
-646,999	18,191	-0,123	0,073
-645,984	-134,338	0,158	0,014
-644,970	134,269	-0,103	0,099
-643,955	-38,856	-0,087	-0,034
-642,941	-106,727	0,054	0,009
-641,926	-109,690	-0,134	-0,021
-640,911	205,468	0,054	0,063
-639,897	297,421	-0,017	-0,024
-638,882	438,628	-0,089	-0,144
-637,868	-200,000	-0,013	0,051
-636,853	-112,969	-0,158	-0,023
-635,838	-77,871	-0,035	-0,009
-634,824	-200,000	-0,007	-0,089
-633,809	-200,000	0,017	-0,168
-632,795	71,826	0,038	0,029
-631,780	-1,468	0,008	0,004
-630,765	-200,000	-0,028	-0,157
-629,751	-200,000	-0,024	-0,170
-628,736	-2,947	-0,053	-0,027
-627,722	380,603	0,034	-0,052
-626,707	-200,000	0,009	0,054
-625,692	158,279	-0,045	0,047
-624,678	617,908	0,121	0,227
-623,663	58,252	-0,097	-0,070
-622,649	800,000	0,035	0,089
-621,634	72,379	-0,018	-0,014
-620,619	758,075	-0,043	-0,086
-619,605	449,357	0,055	0,091
-618,590	255,481	0,051	-0,065
-617,576	55,677	-0,088	-0,063
-616,561	-200,000	-0,001	-0,030
-615,546	-200,000	-0,002	-0,040
-614,532	66,625	-0,030	-0,022
-613,517	386,953	-0,016	0,025
-612,503	22,349	0,110	-0,066
-611,488	69,602	0,182	-0,139
-610,474	800,000	0,034	-0,109
-609,459	-200,000	0,020	-0,097
-608,444	60,419	-0,114	0,084
-607,430	493,839	-0,054	-0,091
-606,415	800,000	-0,044	-0,108
-605,401	800,000	-0,029	0,088
-604,386	252,109	0,049	-0,062
-603,371	270,268	0,062	0,081
-602,357	-91,044	-0,231	-0,049
-601,342	-200,000	0,009	-0,045
-600,328	339,489	-0,085	-0,123
-599,313	187,138	-0,044	-0,048
-598,298	-200,000	-0,011	0,087
-597,284	103,701	0,046	0,040
-596,269	-52,056	-0,077	0,026
-595,255	-200,000	0,017	0,132
-594,240	-138,876	-0,155	0,012
-593,225	-17,429	-0,151	-0,070
-592,211	359,526	-0,073	-0,109
-591,196	-64,344	0,049	-0,015
-590,182	-200,000	-0,021	0,075
-589,167	-145,868	-0,078	0,005
-588,152	618,553	0,037	0,069
-587,138	61,243	-0,026	-0,019
-586,123	-168,297	-0,059	0,002
-585,109	-103,205	-0,131	-0,023
-584,094	38,360	0,076	-0,050
-583,079	20,864	-0,032	-0,019
-582,065	159,958	-0,043	0,045
-581,050	-62,409	0,103	-0,032
-580,036	66,937	0,048	-0,036
-579,021	534,913	-0,095	-0,167
-578,006	-148,364	-0,039	-0,002
-576,992	-200,000	-0,002	0,112
-575,977	-71,160	-0,170	-0,047
-574,963	189,655	-0,050	0,055
-573,948	-200,000	-0,018	-0,077
-572,934	800,000	0,020	-0,062
-571,919	800,000	0,011	0,028
-570,904	-200,000	0,042	0,276
-569,890	-17,310	-0,054	0,025
-568,875	800,000	-0,007	-0,019
-567,861	-200,000	0,016	0,082
-566,846	-136,837	-0,063	0,005
-565,831	-200,000	-0,023	0,118
-564,817	-117,342	-0,056	-0,007
-563,802	37,752	-0,123	-0,081
-562,788	617,653	0,020	0,037
-561,773	-20,195	-0,054	0,024
-560,758	-200,000	0,028	0,127
-559,744	800,000	0,043	-0,118
-558,729	9,694	-0,054	-0,030
-557,715	-200,000	0,029	-0,127
-556,700	-149,649	-0,063	-0,004
-555,685	-107,180	0,061	-0,010
-554,671	209,394	0,044	-0,051
-553,656	-40,054	-0,054	-0,021
-552,642	-200,000	-0,020	0,109
-551,627	365,766	0,112	0,167
-550,612	800,000	0,059	0,187
-549,598	326,761	0,064	-0,091
-548,583	235,577	-0,053	0,065
-547,569	-172,609	0,129	0,003
-546,554	-200,000	0,013	0,097
-545,539	47,032	0,055	0,038
-544,525	800,000	-0,060	0,149
-543,510	-102,939	0,077	0,013
-542,496	-186,052	-0,079	0,001
-541,481	292,258	-0,081	-0,109
-540,466	800,000	-0,026	-0,080
-539,452	479,240	0,044	-0,073
-538,437	-99,222	0,137	-0,025
-537,423	800,000	-0,036	0,108
-536,408	800,000	0,039	0,091
-535,393	-200,000	0,041	-0,188
-534,379	140,135	-0,074	-0,072
-533,364	-13,202	-0,120	0,057
-532,350	-64,948	0,136	-0,040
-531,335	-64,265	-0,053	0,016
-530,321	-53,395	0,050	-0,017
-529,306	800,000	-0,030	0,071
-528,291	284,755	-0,058	0,078
-527,277	474,561	0,015	0,025
-526,262	800,000	0,043	-0,120
-525,248	-90,342	0,086	-0,018
-524,233	199,950	0,028	0,032
-523,218	-0,166	-0,061	-0,032
-522,204	-112,605	0,158	-0,023
-521,189	-10,487	-0,085	0,041
-520,175	37,279	-0,023	0,015
-519,160	-71,464	0,141	0,039
-518,145	-200,000	0,004	0,022
-517,131	268,179	-0,090	-0,117
-516,116	-200,000	-0,002	0,081
-515,102	92,146	-0,059	-0,049
-514,087	6,358	0,085	0,047
-513,072	314,808	0,008	-0,011
-512,058	-29,571	-0,112	-0,047
-511,043	-200,000	-0,003	-0,032
-510,029	-78,127	0,049	0,012
-509,014	-48,544	-0,026	0,009
-507,999	104,915	-0,024	0,021
-506,985	800,000	0,026	0,056
-505,970	-200,000	-0,012	-0,097
-504,956	-109,991	-0,050	-0,008
-503,941	363,085	0,027	0,041
-502,926	-200,000	0,006	0,031
-501,912	-131,308	-0,021	0,002
-500,897	377,356	0,058	0,088
-499,883	-21,286	-0,073	0,033
-498,868	-200,000	-0,008	-0,133
-497,853	-200,000	-0,020	-0,189
-496,839	-200,000	-0,009	-0,142
-495,824	443,374	0,079	0,129
-494,810	-120,546	0,049	-0,006
-493,795	275,952	0,083	-0,109
-492,781	-80,353	0,121	-0,030
-491,766	-200,000	-0,014	-0,189
-490,751	586,508	-0,078	-0,142
-489,737	50,407	0,029	0,020
-488,722	31,616	-0,074	0,047
-487,708	338,784	-0,033	0,048
-486,693	134,759	0,125	0,120
-485,678	-147,290	-0,056	-0,003
-484,664	-67,926	-0,145	-0,041
-483,649	-200,000	0,011	0,039
-482,635	-84,474	-0,068	0,016
-481,620	-137,583	-0,059	0,005
-480,605	-200,000	0,009	-0,076
-479,591	202,514	-0,061	0,070
-478,576	235,971	0,078	0,095
-477,562	-104,325	0,087	0,015
-476,547	-200,000	0,006	0,061
-475,532	311,536	0,023	0,032
-474,518	-52,037	-0,248	0,084
-473,503	800,000	-0,014	0,044
-472,489	-111,294	-0,137	0,020
-471,474	-200,000	0,040	0,135
-470,459	-200,000	-0,005	-0,111
-469,445	-82,161	-0,147	0,035
-468,430	777,579	0,039	0,079
-467,416	-87,177	0,105	0,023
-466,401	-117,724	0,051	0,007
-465,386	-112,993	-0,026	-0,004
-464,372	27,552	-0,103	-0,064
-463,357	340,926	0,050	0,072
-462,343	-200,000	0,030	-0,101
-461,328	74,416	0,034	0,026
-460,313	40,491	-0,073	0,048
-459,299	-92,823	0,061	-0,012
-458,284	32,613	0,058	0,037
-457,270	-12,845	0,036	0,017
-456,255	-200,000	-0,005	0,088
-455,241	446,902	-0,035	-0,057
-454,226	27,353	-0,047	0,029
-453,211	477,063	0,031	0,051
-452,197	-145,355	0,075	-0,005
-451,182	-45,212	0,078	0,028
-450,168	89,232	0,040	0,033
-449,153	-200,000	-0,031	0,149
-448,138	-200,000	0,015	-0,073
-447,124	-200,000	0,009	-0,029
-446,109	232,728	0,027	0,033
-445,095	-20,248	0,061	-0,028
-444,080	-200,000	0,012	0,103
-443,065	-53,554	0,049	0,016
-442,051	-200,000	-0,018	-0,074
-441,036	545,454	-0,045	-0,080
-440,022	800,000	-0,033	-0,071
-439,007	36,923	0,048	0,031
-437,992	-200,000	-0,008	-0,029
-436,978	-1,843	0,081	-0,042
-435,963	63,219	0,087	0,064
-434,949	-200,000	-0,041	-0,237
-433,934	94,473	-0,114	-0,095
-432,919	71,786	-0,056	-0,042
-431,905	800,000	-0,079	-0,196
-430,890	-4,891	0,042	0,021
-429,876	-200,000	0,017	0,106
-428,861	800,000	0,030	0,088
-427,846	-200,000	0,001	-0,041
-426,832	-200,000	0,006	-0,049
-425,817	-56,879	-0,088	-0,029
-424,803	108,080	0,133	0,117
-423,788	-15,015	-0,030	0,014
-422,773	383,995	-0,036	0,055
-421,759	-200,000	0,047	0,173
-420,744	800,000	0,039	0,095
-419,730	-2,500	0,112	-0,058
-418,715	-200,000	0,019	-0,078
-417,701	-120,723	-0,202	-0,025
-416,686	698,216	-0,014	0,027
-415,671	800,000	0,043	0,092
-414,657	-200,000	0,004	0,089
-413,642	-147,199	0,053	0,003
-412,628	65,715	-0,081	-0,060
-411,613	-200,000	0,018	-0,076
-410,598	-66,119	-0,156	0,045
-409,584	-144,187	-0,130	-0,009
-408,569	-62,514	-0,209	-0,064
-407,555	-87,845	0,131	0,029
-406,540	723,884	-0,034	0,067
-405,525	209,266	0,059	0,068
-404,511	313,607	0,029	-0,041
-403,496	-132,240	-0,141	-0,013
-402,482	133,431	0,054	0,051
-401,467	-109,413	0,039	0,006
-400,452	-200,000	-0,014	0,070
-399,438	142,904	0,058	0,057
-398,423	800,000	-0,021	-0,061
-397,409	13,291	-0,088	-0,050
-396,394	-200,000	0,013	-0,113
-395,379	225,976	-0,062	0,075
-394,365	-200,000	0,031	-0,114
-393,350	-135,923	0,072	0,006
-392,336	800,000	-0,055	0,137
-391,321	376,416	0,012	-0,018
-390,306	4,086	0,026	-0,014
-389,292	356,053	-0,025	-0,036
-388,277	-40,191	-0,108	-0,041
-387,263	191,356	0,089	0,099
-386,248	-144,606	-0,088	-0,006
-385,233	-33,877	0,122	0,049
-384,219	-10,802	-0,066	-0,032
-383,204	-105,471	0,065	-0,011
-382,190	266,134	-0,047	0,060
-381,175	-45,130	0,088	-0,032
-380,160	800,000	0,048	0,112
-379,146	-200,000	-0,002	0,012
-378,131	800,000	-0,050	-0,131
-377,117	64,395	0,059	-0,044
-376,102	-18,438	0,015	0,007
-375,088	781,239	0,027	-0,054
-374,073	170,896	-0,059	0,062
-373,058	-63,306	0,022	0,007
-372,044	-143,952	-0,074	0,005
-371,029	800,000	-0,082	0,169
-370,015	80,006	0,090	0,071
-369,000	116,583	-0,052	-0,047
-367,985	-156,105	-0,082	0,004
-366,971	800,000	-0,016	0,045
-365,956	-181,288	0,059	0,001
-364,942	-200,000	0,001	0,054
-363,927	19,085	0,063	0,037
-362,912	-37,081	0,035	0,014
-361,898	588,776	0,013	-0,023
-360,883	-104,535	-0,086	0,015
-359,869	-200,000	-0,010	-0,079
-358,854	800,000	-0,014	0,038
-357,839	-33,770	0,105	-0,042
-356,825	-36,186	0,125	0,049
-355,810	-200,000	-0,001	0,013
-354,796	-200,000	0,003	-0,045
-353,781	-44,934	0,063	0,023
-352,766	-135,375	-0,196	0,017
-351,752	-200,000	0,004	-0,034
-350,737	-15,411	0,031	-0,015
-349,723	-170,151	0,169	0,004
-348,708	83,825	-0,159	0,127
-347,693	324,377	-0,055	0,078
-346,679	-200,000	-0,007	-0,053
-345,664	179,055	-0,076	-0,081
-344,650	-37,800	-0,019	-0,008
-343,635	800,000	0,052	0,131
-342,620	800,000	-0,057	0,151
-341,606	18,677	0,084	0,049
-340,591	-171,727	-0,076	-0,002
-339,577	443,050	-0,052	-0,084
-338,562	-200,000	-0,002	0,127
-337,548	788,837	0,056	0,113
-336,533	800,000	-0,022	0,058
-335,518	143,272	-0,073	-0,072
-334,504	582,045	0,045	0,082
-333,489	276,382	-0,049	0,064
-332,475	-144,077	-0,121	-0,008
-331,460	-200,000	0,005	-0,059
-330,445	204,042	0,007	0,008
-329,431	-123,962	0,086	0,010
-328,416	359,793	0,095	0,139
-327,402	95,001	-0,024	-0,020
-326,387	1,849	0,103	0,054
-325,372	230,077	-0,098	-0,117
-324,358	454,959	0,020	-0,032
-323,343	394,142	0,037	-0,056
-322,329	-200,000	0,046	0,153
-321,314	-200,000	-0,001	0,043
-320,299	-200,000	-0,026	-0,106
-319,285	498,849	0,078	0,133
-318,270	-146,086	-0,111	-0,007
-317,256	800,000	0,078	-0,178
-316,241	-200,000	0,007	-0,114
-315,226	-95,528	0,142	-0,028
-314,212	-104,923	0,199	0,033
-313,197	515,447	-0,027	0,046
-312,183	-99,017	-0,048	0,009
-311,168	-168,062	-0,090	-0,003
-310,153	31,740	0,087	-0,054
-309,139	-200,000	0,018	-0,072
-308,124	-99,630	0,147	-0,027
-307,110	245,583	0,045	0,056
-306,095	-200,000	-0,007	0,055
-305,080	800,000	-0,016	-0,042
-304,066	156,464	-0,116	-0,117
-303,051	-66,974	0,098	-0,028
-302,037	-200,000	-0,002	-0,011
-301,022	42,907	-0,051	0,034
-300,008	437,688	0,026	0,042
-298,993	1,524	0,112	0,059
-297,978	-200,000	0,005	-0,038
-296,964	0,505	-0,050	-0,026
-295,949	65,468	0,090	-0,067
-294,935	-200,000	0,018	-0,080
-293,920	497,541	0,056	-0,095
-292,905	-200,000	0,027	-0,105
-291,891	-115,923	-0,035	-0,005
-290,876	800,000	-0,036	0,077
-289,862	511,081	0,013	-0,022
-288,847	200,221	-0,080	0,090
-287,832	109,895	0,137	0,120
-286,818	-200,000	-0,006	-0,139
-285,803	-154,549	0,159	-0,008
-284,789	-200,000	-0,008	-0,054
-283,774	775,672	-0,021	0,042
-282,759	-110,848	0,146	0,022
-281,745	-34,241	-0,030	0,012
-280,730	-115,673	-0,137	-0,019
-279,716	-28,982	0,024	-0,010
-278,701	-70,523	0,086	0,024
-277,686	430,130	-0,078	-0,124
-276,672	-191,263	0,130	0,001
-275,657	-49,400	-0,116	-0,040
-274,643	126,037	-0,085	-0,079
-273,628	-125,638	-0,054	-0,006
-272,613	36,647	-0,030	-0,019
-271,599	152,872	0,089	-0,089
-270,584	-94,827	0,094	0,019
-269,570	-175,102	-0,047	-0,001
-268,555	410,378	0,033	-0,052
-267,540	496,571	-0,035	0,059
-266,526	-200,000	-0,001	0,075
-265,511	-78,891	-0,091	-0,022
-264,497	-200,000	0,000	-0,044
-263,482	-128,304	0,086	0,009
-262,467	336,573	0,011	-0,016
-261,453	-78,121	0,048	-0,012
-260,438	-200,000	0,022	-0,074
-259,424	-84,661	-0,084	-0,019
-258,409	102,743	-0,020	-0,017
-257,395	-22,452	0,077	0,034
-256,380	-29,594	0,095	0,039
-255,365	-105,346	0,031	-0,005
-254,351	-200,000	0,003	0,079
-253,336	-59,749	0,128	0,040
-252,322	-87,236	-0,051	0,011
-251,307	-200,000	-0,006	-0,080
-250,292	-56,089	-0,018	-0,006
-249,278	-43,798	-0,089	0,033
-248,263	-200,000	0,020	-0,133
-247,249	800,000	-0,036	-0,077
-246,234	800,000	0,014	0,035
-245,219	113,395	0,084	-0,075
-244,205	-200,000	0,008	-0,052
-243,190	-200,000	-0,024	-0,081
-242,176	-177,968	0,030	0,001
-241,161	-84,826	-0,030	0,007
-240,146	142,369	0,047	-0,046
-239,132	-200,000	-0,006	-0,074
-238,117	-200,000	-0,006	0,055
-237,103	38,604	-0,033	0,021
-236,088	-200,000	-0,011	-0,045
-235,073	-200,000	-0,008	-0,051
-234,059	-200,000	0,014	-0,048
-233,044	-200,000	0,000	0,038
-232,030	-200,000	-0,018	0,071
-231,015	0,319	-0,098	0,051
-230,000	119,597	0,032	0,029
-228,986	-200,000	0,026	-0,110
-227,971	-46,612	-0,094	0,033
-226,957	-200,000	0,023	0,117
-225,942	233,101	0,034	-0,041
-224,927	112,482	0,062	-0,054
-223,913	-13,184	0,082	-0,039
-222,898	-16,166	-0,044	-0,020
-221,884	800,000	0,032	0,073
-220,869	-200,000	0,029	0,139
-219,855	22,502	0,031	0,018
-218,840	-105,298	-0,103	0,017
-217,825	66,772	-0,016	-0,012
-216,811	232,978	0,022	-0,026
-215,796	5,030	-0,197	0,105
-214,782	-141,860	0,051	-0,004
-213,767	-51,697	0,108	-0,036
-212,752	-26,262	0,177	0,075
-211,738	140,909	0,094	0,090
-210,723	43,903	0,087	0,058
-209,709	-108,496	-0,156	-0,024
-208,694	-200,000	-0,038	-0,125
-207,679	-200,000	0,007	0,091
-206,665	800,000	0,029	-0,074
-205,650	707,343	0,024	0,046
-204,636	-128,152	0,133	0,014
-203,621	-19,767	0,061	0,028
-202,606	-104,287	0,080	-0,013
-201,592	27,404	-0,082	0,050
-200,577	-144,733	0,078	-0,005
-199,563	254,843	0,063	-0,079
-198,548	210,210	0,049	0,056
-197,533	-71,730	0,126	-0,034
-196,519	544,690	-0,013	-0,023
-195,504	15,713	0,098	-0,056
-194,490	423,865	-0,065	-0,101
-193,475	142,105	-0,090	-0,087
-192,460	-200,000	0,046	-0,152
-191,446	-133,466	-0,094	0,009
-190,431	800,000	0,058	0,169
-189,417	-76,908	0,072	0,018
-188,402	800,000	-0,037	0,079
-187,387	179,709	-0,116	-0,124
-186,373	148,057	-0,025	-0,025
-185,358	-32,268	-0,073	-0,029
-184,344	60,650	0,049	0,035
-183,329	-7,865	-0,098	0,048
-182,315	-110,784	0,072	-0,011
-181,300	14,677	-0,102	-0,058
-180,285	-95,407	0,036	-0,007
-179,271	633,798	-0,027	-0,051
-178,256	-200,000	0,034	-0,147
-177,242	577,013	0,063	-0,113
-176,227	96,218	0,086	0,072
-175,212	-63,795	0,045	-0,013
-174,198	-101,415	0,028	0,005
-173,183	-200,000	0,000	0,025
-172,169	364,188	0,062	-0,091
-171,154	351,162	0,024	0,034
-170,139	-82,235	0,093	-0,022
-169,125	-36,471	-0,042	0,016
-168,110	-145,123	0,029	-0,002
-167,096	-110,927	-0,104	-0,015
-166,081	5,627	-0,093	-0,050
-165,066	-133,017	-0,155	0,014
-164,052	-200,000	0,043	0,196
-163,037	-14,593	0,090	-0,042
-162,023	713,107	0,064	0,123
-161,008	522,123	0,056	0,097
-159,993	800,000	0,061	0,148
-158,979	-200,000	0,029	0,125
-157,964	98,082	-0,098	-0,082
-156,950	-144,927	-0,081	-0,005
-155,935	800,000	0,082	0,245
-154,920	-200,000	0,004	0,077
-153,906	15,079	0,048	0,027
-152,891	457,414	-0,025	-0,040
-151,877	574,537	-0,055	-0,099
-150,862	300,201	-0,092	-0,124
-149,847	704,980	-0,034	0,066
-148,833	-131,399	-0,112	-0,011
-147,818	-152,333	-0,035	-0,002
-146,804	-200,000	-0,010	0,125
-145,789	145,395	0,133	0,130
-144,775	800,000	-0,046	0,094
-143,760	320,587	0,039	0,054
-142,745	-153,197	-0,086	0,004
-141,731	-200,000	0,000	0,038
-140,716	800,000	0,022	0,062
-139,702	-200,000	0,038	0,125
-138,687	-46,752	0,062	0,022
-137,672	419,867	0,051	-0,079
-136,658	382,550	-0,053	0,080
-135,643	64,256	0,054	0,039
-134,629	-200,000	-0,022	-0,072
-133,614	119,837	-0,108	-0,098
-132,599	-192,266	0,045	0,000
-131,585	-200,000	0,007	0,124
-130,570	-200,000	-0,025	0,121
-129,556	322,824	-0,051	-0,071
-128,541	-95,524	0,091	0,018
-127,526	-128,417	-0,126	-0,013
-126,512	151,541	-0,057	0,056
-125,497	2,475	0,090	0,047
-124,483	47,289	0,073	-0,049
-123,468	64,469	-0,054	-0,040
-122,453	145,646	-0,058	0,057
-121,439	-98,024	-0,127	-0,024
-120,424	79,666	-0,087	-0,068
