DTS Sentinel unit serial number:	SN410029Multiplexer serial number:	ORYXHardware model number:	OX2-SRSoftware version number:	ORYX F/W v4,00 Oryx Data Collector v3.7.2.0data status	okinstallation	B4 Nyhavnadifferential loss correction	single-endedforward channel	channel 2reverse channel	N/Adate	2023/12/19time	05:10:13forward acquisition time	300,00reverse acquisition time	0,00gamma	499,1914k internal	0,3127k external	0,3127temperature offset calibration	1,0000default loss term (dB/km)	0,3820temperature slope calibration	1,0000multiplexer offset coefficient	1,0000multiplexer slope coefficient	1,0000fibre end	0,00T internal ref (°C)	20,99T ext. ref 1 (°C)	6,20T ext. ref 2 (°C)	6,16length (m)	temperature (°C)	Stokes	anti-Stokes-744,400	329,700	0,103	-0,148
-743,385	137,511	-0,139	0,135
-742,371	800,000	0,033	-0,076
-741,356	800,000	-0,083	0,194
-740,342	450,777	-0,039	-0,064
-739,327	33,128	-0,159	0,103
-738,312	15,228	-0,038	0,022
-737,298	107,398	-0,226	0,200
-736,283	-200,000	0,034	-0,168
-735,269	398,578	-0,100	0,157
-734,254	245,905	0,052	-0,065
-733,239	-140,680	-0,391	0,030
-732,225	423,651	0,084	-0,136
-731,210	438,290	-0,070	0,115
-730,196	-17,940	0,174	0,081
-729,181	-200,000	0,028	0,095
-728,167	-121,070	-0,036	-0,004
-727,152	-200,000	-0,002	-0,136
-726,137	-35,292	-0,081	0,033
-725,123	114,811	-0,049	-0,044
-724,108	-6,059	-0,094	-0,048
-723,094	800,000	0,031	-0,070
-722,079	-34,581	0,018	0,007
-721,064	-82,901	0,016	-0,004
-720,050	800,000	0,004	-0,012
-719,035	800,000	-0,032	-0,096
-718,021	-200,000	-0,004	-0,060
-717,006	-200,000	0,012	-0,163
-715,991	76,606	-0,218	-0,171
-714,977	-15,237	-0,138	0,066
-713,962	-200,000	0,019	-0,171
-712,948	-86,818	0,024	0,005
-711,933	-36,211	-0,040	-0,016
-710,918	-81,290	0,052	0,013
-709,904	38,690	-0,084	0,056
-708,889	-121,501	-0,237	0,029
-707,875	109,852	-0,064	-0,057
-706,860	272,965	-0,023	-0,030
-705,845	141,606	0,025	-0,025
-704,831	-200,000	0,001	0,142
-703,816	612,414	-0,037	0,069
-702,802	675,012	0,027	-0,052
-701,787	-151,304	-0,178	0,010
-700,772	19,179	-0,053	-0,032
-699,758	-200,000	0,006	-0,036
-698,743	93,614	0,069	0,058
-697,729	-200,000	0,005	-0,052
-696,714	800,000	0,027	0,081
-695,699	15,650	-0,065	-0,038
-694,685	-200,000	-0,015	0,073
-693,670	320,481	-0,022	-0,032
-692,656	800,000	0,020	-0,047
-691,641	102,826	-0,058	0,050
-690,627	-24,074	-0,134	0,059
-689,612	-200,000	0,025	-0,094
-688,597	-200,000	-0,017	0,066
-687,583	-9,102	-0,139	-0,069
-686,568	-200,000	0,002	-0,092
-685,554	-122,490	-0,056	0,007
-684,539	-52,676	0,046	0,016
-683,524	231,539	0,053	-0,064
-682,510	18,613	0,169	-0,100
-681,495	-166,173	0,140	-0,004
-680,481	-142,753	-0,183	0,013
-679,466	800,000	-0,052	-0,109
-678,451	-108,260	-0,089	0,014
-677,437	163,873	-0,041	-0,043
-676,422	-97,447	-0,050	-0,010
-675,408	-146,018	0,072	0,005
-674,393	-99,365	0,056	0,010
-673,378	-200,000	-0,009	0,118
-672,364	-98,459	-0,180	0,034
-671,349	575,376	-0,010	0,019
-670,335	-124,535	-0,021	-0,002
-669,320	800,000	-0,010	0,027
-668,305	-139,885	-0,044	0,003
-667,291	-2,670	0,097	-0,050
-666,276	29,803	-0,100	0,063
-665,262	-200,000	-0,017	0,072
-664,247	-200,000	-0,010	0,121
-663,232	-68,275	-0,086	-0,025
-662,218	-100,809	-0,074	-0,013
-661,203	27,128	0,119	-0,074
-660,189	-200,000	-0,017	-0,055
-659,174	-111,198	-0,102	0,015
-658,159	-200,000	-0,027	0,109
-657,145	-127,130	-0,068	-0,007
-656,130	174,942	-0,169	0,181
-655,116	-33,659	0,065	-0,026
-654,101	-96,032	0,098	0,019
-653,086	800,000	-0,023	0,073
-652,072	203,410	0,049	0,057
-651,057	453,617	-0,040	0,065
-650,043	-104,379	-0,065	0,011
-649,028	48,619	0,159	-0,110
-648,014	-49,771	0,049	0,017
-646,999	-79,137	0,024	-0,006
-645,984	-4,484	-0,037	0,019
-644,970	800,000	0,031	-0,087
-643,955	-37,201	-0,169	-0,067
-642,941	204,509	-0,021	0,024
-641,926	-20,992	-0,037	0,017
-640,911	-200,000	-0,010	0,137
-639,897	87,320	0,060	0,049
-638,882	-200,000	0,012	0,124
-637,868	800,000	-0,044	-0,118
-636,853	-4,003	-0,124	0,064
-635,838	800,000	-0,031	0,077
-634,824	-28,663	-0,117	0,050
-633,809	7,491	-0,007	-0,004
-632,795	-101,999	0,111	0,020
-631,780	-200,000	0,007	0,116
-630,765	11,229	-0,094	-0,053
-629,751	-200,000	-0,007	-0,145
-628,736	104,375	-0,059	-0,051
-627,722	16,402	0,076	0,044
-626,707	100,790	-0,051	-0,044
-625,692	-5,575	0,163	0,083
-624,678	-95,745	0,127	0,025
-623,663	-147,879	-0,025	-0,002
-622,649	-200,000	-0,000	0,019
-621,634	-129,538	-0,238	0,024
-620,619	471,360	-0,036	0,060
-619,605	-158,245	-0,067	-0,003
-618,590	800,000	0,063	0,142
-617,576	-200,000	-0,002	-0,041
-616,561	270,265	-0,042	-0,054
-615,546	-152,502	0,054	-0,003
-614,532	254,631	-0,111	-0,141
-613,517	-200,000	-0,015	-0,092
-612,503	-200,000	-0,019	0,095
-611,488	244,491	-0,009	0,011
-610,474	-144,274	0,059	0,004
-609,459	-200,000	-0,035	0,163
-608,444	-89,360	-0,092	-0,020
-607,430	222,145	-0,076	-0,091
-606,415	800,000	0,065	-0,144
-605,401	296,053	-0,104	-0,142
-604,386	22,381	0,090	0,054
-603,371	-200,000	-0,020	0,173
-602,357	539,074	-0,033	-0,059
-601,342	-31,877	-0,103	-0,043
-600,328	-200,000	0,016	0,053
-599,313	-18,133	0,078	-0,036
-598,298	-200,000	0,043	0,180
-597,284	21,466	-0,076	-0,046
-596,269	-183,130	-0,067	0,001
-595,255	-73,053	-0,009	-0,003
-594,240	-200,000	-0,008	0,061
-593,225	258,063	-0,078	0,100
-592,211	-3,282	0,065	-0,033
-591,196	-120,401	0,067	0,008
-590,182	-57,647	-0,090	0,029
-589,167	259,569	-0,046	0,058
-588,152	-200,000	-0,023	0,133
-587,138	-200,000	0,007	0,105
-586,123	223,246	0,017	-0,020
-585,109	-200,000	0,017	-0,111
-584,094	-142,294	-0,039	0,003
-583,079	5,994	-0,022	0,012
-582,065	-32,964	0,011	0,004
-581,050	-53,672	-0,103	-0,035
-580,036	6,072	-0,115	-0,063
-579,021	800,000	0,075	-0,160
-578,006	410,023	0,029	-0,045
-576,992	-200,000	0,006	-0,038
-575,977	800,000	-0,024	0,055
-574,963	7,712	0,068	0,038
-573,948	-200,000	0,002	0,021
-572,934	-16,959	-0,119	0,055
-571,919	-159,711	-0,097	-0,004
-570,904	718,214	-0,049	-0,097
-569,890	800,000	-0,077	-0,181
-568,875	-200,000	0,019	-0,063
-567,861	-200,000	0,015	0,107
-566,846	-57,313	0,178	0,058
-565,831	-160,083	-0,112	0,004
-564,817	393,681	0,086	-0,133
-563,802	800,000	-0,020	-0,048
-562,788	-200,000	-0,021	-0,101
-561,773	-45,485	0,130	-0,047
-560,758	-200,000	0,027	-0,118
-559,744	234,423	-0,043	-0,052
-558,729	-52,440	-0,098	0,033
-557,715	55,793	0,030	0,021
-556,700	800,000	-0,048	0,124
-555,685	800,000	-0,039	-0,097
-554,671	167,850	0,060	0,063
-553,656	800,000	0,020	0,051
-552,642	-107,505	0,046	0,007
-551,627	800,000	0,020	0,052
-550,612	-200,000	-0,025	-0,169
-549,598	165,825	-0,048	0,050
-548,583	171,735	-0,059	-0,063
-547,569	647,248	0,052	0,099
-546,554	-54,684	0,122	0,040
-545,539	259,513	-0,061	-0,077
-544,525	-53,048	0,104	0,035
-543,510	94,253	0,101	0,085
-542,496	150,441	0,101	-0,101
-541,481	321,367	-0,096	-0,135
-540,466	379,586	0,024	-0,037
-539,452	-33,496	0,113	-0,046
-538,437	202,786	-0,123	0,141
-537,423	-47,378	0,020	0,007
-536,408	800,000	-0,061	-0,146
-535,393	-200,000	-0,042	-0,142
-534,379	-200,000	0,008	-0,027
-533,364	178,953	0,049	-0,053
-532,350	-200,000	0,005	-0,058
-531,335	526,986	-0,057	0,100
-530,321	26,611	-0,082	-0,050
-529,306	-200,000	-0,009	0,091
-528,291	375,424	-0,121	0,183
-527,277	190,714	-0,122	-0,136
-526,262	-47,714	0,132	0,047
-525,248	-200,000	0,026	0,147
-524,233	-55,438	-0,182	-0,060
-523,218	-113,349	-0,084	0,012
-522,204	800,000	-0,021	0,045
-521,189	-200,000	-0,015	-0,161
-520,175	-200,000	0,000	-0,009
-519,160	-37,914	-0,050	0,020
-518,145	-200,000	-0,013	0,063
-517,131	781,493	0,039	0,079
-516,116	-84,492	0,118	-0,027
-515,102	237,849	-0,023	0,028
-514,087	46,085	-0,090	-0,061
-513,072	800,000	-0,022	-0,057
-512,058	800,000	0,015	-0,041
-511,043	-103,535	-0,114	0,020
-510,029	-128,367	0,050	0,005
-509,014	-200,000	-0,012	0,070
-507,999	-95,795	0,079	-0,015
-506,985	-57,431	0,023	-0,007
-505,970	38,060	-0,056	0,036
-504,956	-38,763	-0,255	-0,099
-503,941	800,000	0,063	-0,196
-502,926	349,732	-0,054	-0,079
-501,912	800,000	-0,022	-0,052
-500,897	169,292	-0,128	-0,135
-499,883	171,973	0,038	-0,040
-498,868	569,416	0,027	-0,048
-497,853	76,756	-0,072	-0,056
-496,839	800,000	0,014	-0,029
-495,824	67,952	0,044	0,033
-494,810	-72,151	0,146	0,040
-493,795	761,348	-0,027	0,055
-492,781	73,615	-0,139	0,107
-491,766	403,815	-0,059	-0,091
-490,751	28,559	0,138	-0,086
-489,737	-22,317	0,121	-0,054
-488,722	-189,472	-0,076	0,001
-487,708	383,652	-0,041	0,063
-486,693	578,451	-0,065	0,117
-485,678	183,891	0,047	0,051
-484,664	-78,346	-0,089	-0,022
-483,649	-12,747	0,094	0,045
-482,635	-100,551	-0,040	-0,007
-481,620	-200,000	0,016	0,059
-480,605	-200,000	0,006	0,038
-479,591	-82,198	0,048	-0,011
-478,576	-99,280	0,081	-0,015
-477,562	-200,000	-0,015	-0,052
-476,547	351,242	-0,111	0,163
-475,532	-200,000	0,016	-0,108
-474,518	70,030	0,059	0,045
-473,503	438,949	0,016	-0,025
-472,489	82,276	0,081	-0,064
-471,474	352,486	-0,066	-0,096
-470,459	359,705	-0,063	-0,094
-469,445	800,000	-0,020	-0,042
-468,430	-200,000	0,013	-0,103
-467,416	260,298	-0,026	-0,033
-466,401	800,000	0,028	-0,072
-465,386	-200,000	0,005	0,024
-464,372	-12,176	0,066	-0,032
-463,357	348,703	-0,049	0,071
-462,343	-78,556	-0,098	-0,024
-461,328	185,931	-0,032	-0,035
-460,313	178,147	0,130	0,140
-459,299	51,338	-0,044	-0,031
-458,284	-154,989	-0,080	-0,004
-457,270	-200,000	-0,002	0,028
-456,255	124,061	-0,031	0,029
-455,241	-53,102	-0,055	-0,019
-454,226	-103,422	0,102	-0,018
-453,211	-200,000	-0,002	0,043
-452,197	109,679	0,174	-0,153
-451,182	-200,000	-0,036	-0,192
-450,168	-200,000	0,011	0,114
-449,153	167,595	-0,060	-0,063
-448,138	201,765	-0,106	0,120
-447,124	-200,000	0,018	-0,059
-446,109	135,800	0,017	0,017
-445,095	184,545	-0,049	0,053
-444,080	-200,000	0,005	0,083
-443,065	54,842	-0,046	-0,033
-442,051	800,000	-0,009	-0,021
-441,036	800,000	-0,023	-0,066
-440,022	800,000	-0,040	-0,125
-439,007	-20,014	-0,081	-0,037
-437,992	-97,827	-0,177	-0,033
-436,978	25,457	0,132	0,081
-435,963	-57,700	-0,186	-0,060
-434,949	-70,158	-0,046	-0,013
-433,934	-200,000	0,014	0,068
-432,919	21,246	-0,135	0,080
-431,905	192,029	0,114	-0,127
-430,890	217,358	0,028	-0,033
-429,876	-200,000	0,034	0,147
-428,861	484,923	0,044	0,074
-427,846	-184,494	0,047	-0,001
-426,832	-116,889	-0,018	-0,002
-425,817	72,816	-0,007	-0,005
-424,803	106,312	-0,054	0,047
-423,788	-152,403	0,052	0,003
-422,773	-10,209	0,072	0,035
-421,759	800,000	-0,013	0,028
-420,744	223,501	-0,051	0,061
-419,730	-200,000	-0,004	-0,019
-418,715	800,000	-0,037	-0,114
-417,701	-138,053	0,053	0,004
-416,686	-200,000	0,009	0,087
-415,671	-123,607	0,092	-0,011
-414,657	86,606	0,115	0,093
-413,642	379,628	0,103	0,156
-412,628	800,000	0,010	-0,027
-411,613	54,406	-0,110	0,078
-410,598	51,808	0,025	-0,018
-409,584	-6,172	0,062	0,031
-408,569	-109,096	0,038	0,006
-407,555	200,077	0,073	-0,082
-406,540	127,651	-0,050	0,046
-405,525	-200,000	-0,029	-0,145
-404,511	800,000	0,035	-0,109
-403,496	-200,000	-0,006	-0,034
-402,482	1,129	0,116	0,061
-401,467	54,059	-0,059	0,042
-400,452	-200,000	-0,021	0,110
-399,438	-74,009	0,144	-0,038
-398,423	-200,000	-0,008	-0,059
-397,409	116,002	-0,094	0,084
-396,394	29,390	-0,098	-0,061
-395,379	-117,195	0,051	0,007
-394,365	-88,954	0,097	-0,021
-393,350	800,000	-0,016	0,044
-392,336	74,690	0,071	-0,055
-391,321	800,000	0,008	-0,016
-390,306	800,000	-0,042	-0,125
-389,292	-200,000	-0,039	-0,171
-388,277	-192,287	0,068	-0,000
-387,263	169,992	0,058	-0,061
-386,248	-5,992	0,269	0,134
-385,233	800,000	-0,066	0,142
-384,219	-200,000	-0,008	0,056
-383,204	-200,000	-0,002	0,009
-382,190	-29,252	0,037	0,016
-381,175	173,477	-0,084	-0,089
-380,160	105,589	0,149	0,129
-379,146	30,516	-0,101	0,063
-378,131	45,076	0,086	-0,058
-377,117	-30,468	0,110	-0,045
-376,102	-200,000	-0,010	-0,088
-375,088	559,007	0,085	0,151
-374,073	76,509	-0,087	-0,067
-373,058	800,000	0,079	-0,167
-372,044	171,764	0,067	0,070
-371,029	-98,099	0,106	0,020
-370,015	76,750	-0,062	0,049
-369,000	-102,588	0,095	-0,016
-367,985	-200,000	0,035	-0,119
-366,971	265,858	-0,090	-0,116
-365,956	200,598	0,015	-0,017
-364,942	383,735	0,024	-0,036
-363,927	-160,897	-0,109	-0,004
-362,912	-66,811	0,075	0,022
-361,898	48,624	0,080	0,055
-360,883	-139,285	-0,070	-0,005
-359,869	-98,203	-0,293	-0,055
-358,854	-170,423	0,220	-0,006
-357,839	95,212	0,159	0,133
-356,825	615,956	0,036	0,067
-355,810	311,717	-0,073	-0,101
-354,796	305,048	-0,045	0,061
-353,781	-35,105	-0,151	0,060
-352,766	390,688	0,100	-0,153
-351,752	-200,000	0,003	-0,098
-350,737	800,000	0,031	0,071
-349,723	-34,103	0,125	0,050
-348,708	-115,565	0,015	0,002
-347,693	800,000	0,025	-0,067
-346,679	-115,044	-0,198	-0,027
-345,664	30,172	0,135	-0,085
-344,650	-200,000	0,009	-0,052
-343,635	133,596	-0,061	-0,058
-342,620	394,413	-0,066	-0,101
-341,606	110,092	-0,071	0,063
-340,591	-200,000	-0,004	-0,056
-339,577	-138,591	-0,083	-0,007
-338,562	63,490	-0,003	0,002
-337,548	-200,000	-0,008	-0,052
-336,533	-148,553	0,055	-0,003
-335,518	-26,777	0,027	-0,012
-334,504	375,882	0,125	0,187
-333,489	50,529	-0,095	0,066
-332,475	-172,693	-0,144	0,003
-331,460	800,000	0,038	-0,101
-330,445	-200,000	-0,011	-0,045
-329,431	-200,000	0,003	-0,116
-328,416	-200,000	-0,012	-0,057
-327,402	-200,000	-0,017	0,115
-326,387	-134,849	0,062	-0,005
-325,372	-200,000	-0,006	0,094
-324,358	800,000	-0,040	-0,096
-323,343	198,304	0,048	-0,054
-322,329	193,499	0,068	-0,075
-321,314	146,161	-0,077	-0,075
-320,299	-200,000	-0,015	-0,093
-319,285	-138,328	0,132	-0,011
-318,270	-200,000	0,010	0,079
-317,256	800,000	0,025	0,052
-316,241	210,659	0,027	-0,032
-315,226	-200,000	0,009	-0,074
-314,212	-1,574	0,110	0,057
-313,197	471,683	-0,058	0,095
-312,183	644,981	-0,089	0,167
-311,168	149,202	0,087	0,086
-310,153	702,003	-0,039	-0,076
-309,139	-126,533	-0,194	-0,021
-308,124	-50,965	0,090	0,031
-307,110	180,166	0,077	0,083
-306,095	719,414	-0,049	0,097
-305,080	-200,000	-0,001	0,072
-304,066	326,291	0,139	-0,195
-303,051	-200,000	-0,000	0,012
-302,037	-200,000	-0,003	-0,029
-301,022	-193,485	0,207	0,001
-300,008	800,000	0,022	-0,060
-298,993	-159,392	0,032	0,001
-297,978	645,572	-0,017	0,033
-296,964	-77,698	-0,107	-0,027
-295,949	800,000	-0,007	0,015
-294,935	194,489	-0,041	0,046
-293,920	-65,427	-0,041	-0,012
-292,905	-15,993	0,126	0,059
-291,891	800,000	-0,031	0,098
-290,876	83,719	-0,049	0,039
-289,862	293,437	-0,090	0,121
-288,847	-57,677	0,022	-0,007
-287,832	668,395	0,034	0,064
-286,818	-200,000	0,005	0,065
-285,803	800,000	0,025	0,067
-284,789	-200,000	0,007	-0,028
-283,774	-200,000	-0,005	-0,029
-282,759	-200,000	0,017	0,137
-281,745	42,903	0,013	0,009
-280,730	-200,000	-0,007	0,085
-279,716	-27,030	0,022	0,009
-278,701	-200,000	-0,059	0,247
-277,686	-200,000	-0,023	0,164
-276,672	271,156	0,051	0,065
-275,657	-13,517	-0,050	-0,024
-274,643	-30,263	-0,091	0,038
-273,628	227,013	-0,093	-0,111
-272,613	-200,000	0,045	0,188
-271,599	-64,897	0,113	-0,033
-270,584	302,580	-0,110	-0,149
-269,570	197,426	-0,034	-0,038
-268,555	104,512	0,137	-0,118
-267,540	-200,000	0,017	-0,092
-266,526	21,133	-0,027	-0,016
-265,511	-200,000	0,018	-0,109
-264,497	73,087	0,074	0,056
-263,482	22,800	0,118	0,071
-262,467	-3,569	0,048	-0,025
-261,453	16,486	-0,024	0,014
-260,438	-186,893	-0,150	0,001
-259,424	-200,000	0,036	-0,154
-258,409	-94,481	0,142	-0,028
-257,395	800,000	-0,021	0,049
-256,380	300,157	0,043	0,058
-255,365	304,678	0,016	0,021
-254,351	58,443	0,148	0,106
-253,336	58,819	0,032	0,023
-252,322	-200,000	0,001	-0,048
-251,307	-97,640	0,096	0,018
-250,292	-64,189	-0,010	0,003
-249,278	-200,000	0,000	0,021
-248,263	226,431	0,028	0,034
-247,249	164,098	0,079	-0,082
-246,234	-39,691	-0,118	-0,045
-245,219	-200,000	-0,001	0,105
-244,205	387,057	-0,020	-0,030
-243,190	205,464	0,031	-0,035
-242,176	800,000	-0,032	0,081
-241,161	800,000	-0,013	0,036
-240,146	-200,000	0,021	-0,102
-239,132	-200,000	-0,001	0,076
-238,117	-40,362	-0,072	0,027
-237,103	-93,156	0,186	0,037
-236,088	-93,363	0,192	-0,039
-235,073	-143,125	0,098	-0,007
-234,059	384,380	0,040	0,061
-233,044	800,000	-0,014	0,045
-232,030	-162,240	-0,066	0,002
-231,015	734,964	-0,050	0,099
-230,000	56,423	-0,022	-0,015
-228,986	800,000	-0,035	0,085
-227,971	800,000	0,062	0,142
-226,957	-80,949	-0,035	0,008
-225,942	77,399	0,163	0,126
-224,927	82,996	0,071	0,056
-223,913	-95,756	0,087	-0,017
-222,898	147,919	-0,086	0,085
-221,884	-32,742	-0,027	-0,011
-220,869	800,000	-0,030	-0,067
-219,855	779,658	0,124	0,248
-218,840	200,981	-0,020	0,022
-217,825	-200,000	-0,038	-0,160
-216,811	-49,429	-0,142	0,049
-215,796	800,000	-0,048	-0,150
-214,782	163,891	0,060	0,062
-213,767	274,231	0,058	0,075
-212,752	-25,413	0,080	0,034
-211,738	-200,000	-0,019	0,255
-210,723	343,812	-0,060	0,086
-209,709	120,359	-0,015	0,014
-208,694	622,606	0,021	-0,040
-207,679	-200,000	-0,002	-0,035
-206,665	-86,521	0,136	0,030
-205,650	497,754	0,030	-0,050
-204,636	337,156	-0,073	0,104
-203,621	307,616	0,089	0,121
-202,606	-200,000	-0,022	-0,077
-201,592	180,091	-0,026	-0,028
-200,577	-200,000	-0,039	0,143
-199,563	-79,765	-0,176	-0,043
-198,548	46,921	0,108	-0,073
-197,533	167,154	0,045	0,047
-196,519	800,000	0,048	0,131
-195,504	-200,000	0,005	-0,039
-194,490	-200,000	0,001	-0,073
-193,475	-200,000	-0,014	-0,206
-192,460	26,265	-0,128	-0,078
-191,446	372,975	0,037	0,055
-190,431	-124,442	0,140	0,016
-189,417	51,000	-0,134	-0,092
-188,402	-157,353	0,020	0,001
-187,387	-14,408	-0,184	-0,086
-186,373	-200,000	-0,000	-0,164
-185,358	131,057	0,086	-0,081
-184,344	-200,000	-0,039	-0,148
-183,329	-102,088	0,151	0,026
-182,315	36,623	-0,086	-0,055
-181,300	139,143	0,007	-0,006
-180,285	142,020	0,046	-0,045
-179,271	46,537	-0,078	-0,053
-178,256	-200,000	-0,008	0,032
-177,242	332,485	-0,061	0,086
-176,227	182,263	0,040	-0,043
-175,212	60,696	-0,029	0,021
-174,198	-155,108	-0,111	-0,005
-173,183	-200,000	0,012	0,068
-172,169	10,089	-0,050	0,028
-171,154	-33,874	0,124	-0,050
-170,139	-200,000	-0,001	-0,010
-169,125	57,377	0,131	0,093
-168,110	-95,606	-0,104	-0,020
-167,096	-110,384	-0,087	-0,013
-166,081	37,622	-0,094	0,061
-165,066	-36,927	-0,159	0,062
-164,052	22,360	0,063	0,037
-163,037	432,941	0,049	0,077
-162,023	75,906	0,073	-0,056
-161,008	-55,159	0,100	-0,033
-159,993	50,780	0,125	0,086
-158,979	244,883	-0,077	0,094
-157,964	476,745	-0,074	-0,121
-156,950	94,639	-0,101	0,083
-155,935	244,188	0,033	-0,040
-154,920	112,141	0,051	-0,045
-153,906	-142,483	0,075	-0,005
-152,891	619,197	-0,080	-0,146
-151,877	2,050	-0,176	-0,092
-150,862	159,861	0,076	0,077
-149,847	-198,653	-0,085	-0,000
-148,833	140,277	0,007	-0,007
-147,818	81,895	0,047	0,037
-146,804	800,000	0,054	-0,110
-145,789	95,909	-0,021	-0,017
-144,775	800,000	0,045	-0,114
-143,760	-57,599	-0,054	0,017
-142,745	6,028	-0,066	0,035
-141,731	132,258	0,039	-0,036
-140,716	-37,864	-0,113	0,043
-139,702	800,000	-0,019	0,040
-138,687	130,649	0,030	-0,028
-137,672	92,489	-0,115	0,094
-136,658	160,547	-0,011	0,011
-135,643	-27,069	-0,124	-0,052
-134,629	-10,630	0,131	0,063
-133,614	42,011	-0,125	0,082
-132,599	-0,572	-0,093	-0,048
-131,585	281,214	0,075	0,098
-130,570	-200,000	0,002	0,065
-129,556	-182,231	0,042	-0,001
-128,541	43,497	-0,002	0,001
-127,526	-21,794	-0,076	-0,034
-126,512	-13,324	0,124	0,058
-125,497	-36,813	-0,165	0,064
-124,483	105,582	0,019	-0,016
-123,468	800,000	0,020	0,057
-122,453	50,941	-0,045	-0,031
-121,439	800,000	0,025	0,064
-120,424	256,001	-0,026	-0,033
-119,410	-200,000	-0,009	0,088
