DTS Sentinel unit serial number:	SN410029Multiplexer serial number:	ORYXHardware model number:	OX2-SRSoftware version number:	ORYX F/W v4,00 Oryx Data Collector v3.7.2.0data status	okinstallation	B4 Nyhavnadifferential loss correction	single-endedforward channel	channel 2reverse channel	N/Adate	2023/12/19time	09:30:13forward acquisition time	300,00reverse acquisition time	0,00gamma	499,1914k internal	0,3127k external	0,3127temperature offset calibration	1,0000default loss term (dB/km)	0,3820temperature slope calibration	1,0000multiplexer offset coefficient	1,0000multiplexer slope coefficient	1,0000fibre end	0,00T internal ref (°C)	20,44T ext. ref 1 (°C)	5,12T ext. ref 2 (°C)	5,08length (m)	temperature (°C)	Stokes	anti-Stokes-744,400	114,751	-0,040	0,037
-743,385	-6,403	-0,155	0,078
-742,371	738,831	0,021	-0,043
-741,356	-79,593	-0,188	-0,047
-740,342	-200,000	0,003	-0,089
-739,327	-111,818	-0,254	-0,038
-738,312	343,922	-0,085	-0,124
-737,298	-96,075	-0,332	0,065
-736,283	800,000	0,006	0,016
-735,269	105,993	-0,170	0,149
-734,254	-32,417	-0,148	-0,061
-733,239	-152,060	-0,345	-0,018
-732,225	-146,578	0,109	0,007
-731,210	92,826	0,098	0,082
-730,196	-200,000	-0,005	0,051
-729,181	800,000	0,015	-0,036
-728,167	45,338	0,177	-0,121
-727,152	89,727	-0,050	-0,041
-726,137	-6,794	-0,144	-0,073
-725,123	561,480	-0,068	-0,123
-724,108	-200,000	-0,025	-0,118
-723,094	214,768	-0,016	-0,019
-722,079	11,208	-0,054	-0,031
-721,064	-17,936	0,038	-0,017
-720,050	-77,492	-0,088	0,022
-719,035	800,000	-0,040	-0,117
-718,021	254,187	0,050	0,064
-717,006	-126,182	-0,095	0,010
-715,991	610,612	-0,073	-0,137
-714,977	-200,000	0,034	-0,142
-713,962	49,545	0,092	-0,064
-712,948	-94,359	0,066	-0,013
-711,933	214,908	0,059	0,069
-710,918	-166,539	-0,086	0,003
-709,904	-200,000	-0,018	-0,068
-708,889	-85,758	0,070	-0,016
-707,875	800,000	-0,046	0,145
-706,860	-102,187	0,102	-0,018
-705,845	800,000	-0,019	0,055
-704,831	33,342	0,036	0,023
-703,816	19,777	-0,158	-0,094
-702,802	800,000	-0,025	0,059
-701,787	800,000	-0,046	-0,101
-700,772	51,303	-0,114	-0,080
-699,758	47,495	-0,039	-0,027
-698,743	-148,984	0,200	0,012
-697,729	685,912	0,064	-0,124
-696,714	128,125	0,051	-0,048
-695,699	-142,922	-0,199	-0,014
-694,685	800,000	-0,042	-0,120
-693,670	-200,000	0,017	-0,112
-692,656	-200,000	0,011	-0,103
-691,641	-200,000	0,003	-0,029
-690,627	800,000	0,041	0,096
-689,612	-200,000	0,018	0,073
-688,597	800,000	-0,054	-0,145
-687,583	225,983	-0,075	-0,090
-686,568	-123,595	0,008	0,001
-685,554	-17,698	0,105	-0,049
-684,539	-96,528	0,186	0,036
-683,524	-130,708	-0,051	-0,005
-682,510	-200,000	-0,024	0,098
-681,495	-200,000	0,002	-0,063
-680,481	-200,000	-0,005	-0,023
-679,466	208,414	-0,013	-0,015
-678,451	-134,664	0,057	-0,005
-677,437	-200,000	-0,002	-0,104
-676,422	760,158	0,069	0,139
-675,408	135,042	0,057	-0,055
-674,393	800,000	0,067	-0,139
-673,378	800,000	-0,047	-0,126
-672,364	476,369	-0,069	-0,116
-671,349	-200,000	-0,010	-0,040
-670,335	800,000	0,027	0,056
-669,320	114,877	0,127	-0,115
-668,305	407,878	0,027	-0,042
-667,291	-46,123	0,086	0,031
-666,276	-11,679	-0,116	-0,056
-665,262	584,336	-0,046	-0,084
-664,247	-191,494	0,032	0,000
-663,232	-200,000	0,002	-0,109
-662,218	-92,835	0,091	-0,019
-661,203	800,000	-0,070	-0,162
-660,189	312,984	0,127	-0,178
-659,174	-200,000	-0,031	-0,156
-658,159	731,662	-0,050	-0,100
-657,145	301,525	-0,120	-0,164
-656,130	-200,000	-0,002	-0,025
-655,116	-109,443	-0,113	0,018
-654,101	229,344	0,057	-0,070
-653,086	-117,812	-0,097	-0,013
-652,072	131,139	-0,042	0,040
-651,057	-162,245	-0,119	-0,004
-650,043	379,559	0,026	0,040
-649,028	332,672	-0,084	0,121
-648,014	800,000	0,018	0,049
-646,999	321,163	0,031	0,044
-645,984	-77,844	-0,058	-0,015
-644,970	80,070	-0,076	-0,061
-643,955	-111,348	0,134	0,020
-642,941	800,000	0,014	-0,042
-641,926	-200,000	-0,002	0,124
-640,911	-60,535	-0,055	0,017
-639,897	14,132	-0,024	0,014
-638,882	-200,000	-0,014	-0,074
-637,868	-96,390	-0,035	-0,007
-636,853	800,000	0,017	-0,045
-635,838	-200,000	-0,014	-0,095
-634,824	-200,000	-0,007	-0,125
-633,809	588,773	0,078	-0,143
-632,795	-200,000	-0,001	0,014
-631,780	-52,689	-0,054	-0,018
-630,765	-129,009	0,076	-0,008
-629,751	577,386	-0,019	-0,034
-628,736	771,355	-0,065	-0,132
-627,722	800,000	0,032	0,074
-626,707	-68,984	0,030	0,008
-625,692	-126,243	-0,132	-0,014
-624,678	-128,895	0,115	-0,012
-623,663	94,000	-0,080	0,067
-622,649	800,000	0,039	-0,095
-621,634	-43,681	-0,166	0,062
-620,619	-200,000	-0,010	-0,073
-619,605	219,397	-0,037	-0,043
-618,590	-141,448	-0,028	-0,002
-617,576	800,000	0,040	0,105
-616,561	-1,284	0,067	-0,035
-615,546	177,549	0,043	-0,047
-614,532	-200,000	0,037	0,135
-613,517	-78,123	-0,075	0,019
-612,503	-162,984	-0,151	0,005
-611,488	57,842	0,062	-0,045
-610,474	-64,348	0,154	0,046
-609,459	3,882	-0,124	0,067
-608,444	137,665	-0,146	0,142
-607,430	-117,652	0,096	-0,013
-606,415	-200,000	-0,005	0,065
-605,401	-120,111	0,033	0,004
-604,386	-200,000	0,008	-0,137
-603,371	55,828	0,040	-0,029
-602,357	-62,136	0,058	0,018
-601,342	800,000	0,017	0,053
-600,328	800,000	-0,019	-0,056
-599,313	-39,390	-0,073	-0,028
-598,298	-44,067	0,126	-0,047
-597,284	101,542	0,092	-0,079
-596,269	-17,528	-0,049	-0,023
-595,255	-200,000	-0,001	0,022
-594,240	800,000	-0,030	0,071
-593,225	800,000	0,066	-0,148
-592,211	200,170	-0,047	-0,054
-591,196	-200,000	-0,049	-0,176
-590,182	-200,000	-0,016	-0,100
-589,167	726,994	0,051	0,101
-588,152	-71,114	0,045	0,012
-587,138	-70,656	-0,086	0,024
-586,123	-15,270	0,197	-0,093
-585,109	-170,259	-0,073	0,002
-584,094	800,000	-0,038	-0,105
-583,079	800,000	0,042	0,089
-582,065	-200,000	-0,011	-0,191
-581,050	-53,749	-0,077	0,026
-580,036	254,242	-0,054	0,068
-579,021	-14,551	0,103	-0,049
-578,006	800,000	0,030	-0,093
-576,992	-54,669	-0,074	-0,025
-575,977	-25,582	0,025	0,011
-574,963	16,428	-0,158	0,092
-573,948	48,441	0,116	0,080
-572,934	-33,465	-0,075	0,031
-571,919	800,000	-0,016	-0,040
-570,904	-200,000	-0,002	0,021
-569,890	458,311	0,089	-0,147
-568,875	800,000	-0,006	-0,015
-567,861	343,404	0,037	0,054
-566,846	115,460	-0,025	0,023
-565,831	532,238	-0,028	-0,049
-564,817	199,175	0,110	-0,125
-563,802	800,000	-0,018	-0,057
-562,788	-87,502	0,117	-0,026
-561,773	250,298	-0,021	0,026
-560,758	-19,248	0,025	-0,011
-559,744	-152,070	0,043	-0,002
-558,729	340,912	-0,058	-0,084
-557,715	-200,000	-0,005	-0,020
-556,700	145,687	0,066	-0,066
-555,685	-42,685	-0,193	-0,072
-554,671	-200,000	-0,007	-0,096
-553,656	7,892	0,059	-0,033
-552,642	-43,819	0,033	0,012
-551,627	-26,650	0,078	0,033
-550,612	-200,000	-0,006	0,025
-549,598	-10,710	-0,086	-0,042
-548,583	-200,000	-0,021	-0,126
-547,569	-66,246	-0,084	0,025
-546,554	298,595	0,001	-0,001
-545,539	-200,000	0,004	0,135
-544,525	-200,000	-0,054	-0,186
-543,510	-200,000	0,013	-0,073
-542,496	58,692	-0,112	-0,081
-541,481	-81,389	-0,063	-0,015
-540,466	-94,295	-0,064	0,013
-539,452	-200,000	0,022	-0,149
-538,437	-12,278	-0,079	-0,038
-537,423	800,000	0,022	0,069
-536,408	-200,000	-0,017	-0,090
-535,393	-200,000	-0,019	-0,081
-534,379	117,436	0,079	0,072
-533,364	76,282	0,021	-0,017
-532,350	110,114	-0,010	-0,009
-531,335	-129,539	-0,081	-0,008
-530,321	195,288	-0,056	-0,063
-529,306	-200,000	0,029	-0,102
-528,291	106,286	-0,061	0,054
-527,277	-163,791	-0,086	0,003
-526,262	790,507	0,082	0,168
-525,248	-200,000	0,005	-0,207
-524,233	81,311	0,193	0,154
-523,218	598,363	-0,015	0,027
-522,204	764,679	-0,039	0,078
-521,189	-200,000	0,025	0,089
-520,175	143,807	-0,031	-0,031
-519,160	-200,000	-0,017	0,160
-518,145	-78,311	-0,204	0,051
-517,131	0,813	0,072	-0,038
-516,116	255,455	0,054	0,068
-515,102	259,964	-0,071	-0,090
-514,087	-112,114	-0,093	0,014
-513,072	-200,000	0,019	-0,140
-512,058	62,417	-0,191	-0,140
-511,043	-168,895	-0,071	-0,002
-510,029	-200,000	0,010	-0,079
-509,014	564,104	-0,030	0,053
-507,999	126,388	0,031	0,029
-506,985	-200,000	-0,012	-0,106
-505,970	800,000	0,024	-0,066
-504,956	225,975	0,049	-0,059
-503,941	10,224	0,015	0,009
-502,926	650,978	0,097	0,184
-501,912	538,614	-0,008	0,014
-500,897	-200,000	0,015	0,078
-499,883	800,000	-0,034	0,074
-498,868	585,260	-0,058	0,106
-497,853	30,735	-0,213	-0,134
-496,839	800,000	0,089	0,183
-495,824	650,040	-0,031	-0,059
-494,810	800,000	0,042	0,114
-493,795	80,843	-0,076	0,060
-492,781	-41,533	-0,113	-0,043
-491,766	-70,480	0,114	0,032
-490,751	800,000	0,043	-0,112
-489,737	214,663	0,170	-0,198
-488,722	800,000	-0,027	0,064
-487,708	128,099	0,098	0,092
-486,693	-200,000	-0,001	-0,127
-485,678	-8,912	-0,025	-0,013
-484,664	58,570	-0,057	0,041
-483,649	-42,304	0,109	-0,041
-482,635	157,541	0,103	0,105
-481,620	-54,827	0,146	0,048
-480,605	-200,000	-0,039	0,185
-479,591	-108,949	0,066	0,010
-478,576	104,261	-0,034	-0,029
-477,562	352,762	-0,042	0,062
-476,547	-100,088	-0,063	0,011
-475,532	-158,428	-0,054	-0,002
-474,518	-200,000	0,004	0,056
-473,503	726,754	0,054	0,106
-472,489	216,410	0,022	0,025
-471,474	-114,610	0,081	0,011
-470,459	-137,400	-0,108	-0,009
-469,445	115,121	-0,127	-0,114
-468,430	800,000	0,034	0,072
-467,416	-97,930	0,119	0,022
-466,401	464,726	0,033	-0,055
-465,386	216,736	0,069	0,081
-464,372	105,609	0,117	0,102
-463,357	104,650	-0,071	-0,062
-462,343	-200,000	0,021	0,071
-461,328	156,669	0,114	0,116
-460,313	66,776	-0,065	-0,048
-459,299	740,317	0,085	0,169
-458,284	-200,000	-0,006	0,039
-457,270	-111,532	0,111	-0,016
-456,255	-136,224	-0,102	-0,009
-455,241	800,000	0,070	-0,167
-454,226	635,659	0,022	-0,040
-453,211	474,044	0,065	0,109
-452,197	-42,873	0,090	0,033
-451,182	228,239	0,057	0,068
-450,168	800,000	0,060	0,165
-449,153	-200,000	-0,028	0,105
-448,138	103,581	-0,070	-0,060
-447,124	-50,017	-0,083	-0,029
-446,109	254,802	0,034	0,043
-445,095	-73,891	0,159	0,042
-444,080	-35,125	-0,099	-0,039
-443,065	800,000	0,014	0,044
-442,051	800,000	0,045	-0,135
-441,036	-85,372	0,147	0,033
-440,022	-200,000	0,008	0,029
-439,007	-69,733	-0,040	0,011
-437,992	115,553	-0,034	-0,031
-436,978	96,778	-0,034	0,029
-435,963	-57,978	-0,038	-0,012
-434,949	16,312	0,073	-0,042
-433,934	21,581	-0,161	-0,096
-432,919	109,833	0,028	-0,025
-431,905	-20,067	0,094	0,042
-430,890	61,220	0,140	-0,102
-429,876	-158,929	0,042	0,002
-428,861	-19,365	-0,048	-0,022
-427,846	-54,805	-0,080	0,026
-426,832	800,000	0,035	-0,072
-425,817	-200,000	0,030	0,098
-424,803	-119,786	0,020	-0,002
-423,788	800,000	0,049	-0,101
-422,773	-200,000	0,011	0,035
-421,759	410,474	-0,039	0,061
-420,744	55,978	-0,084	0,060
-419,730	359,814	0,096	0,141
-418,715	410,309	-0,068	-0,106
-417,701	-53,639	-0,061	-0,021
-416,686	134,866	-0,011	-0,011
-415,671	800,000	-0,019	0,044
-414,657	800,000	0,064	0,177
-413,642	3,020	0,109	0,058
-412,628	-133,441	-0,116	-0,011
-411,613	100,824	-0,058	-0,050
-410,598	-200,000	-0,002	0,063
-409,584	62,799	-0,147	-0,108
-408,569	-200,000	0,009	0,031
-407,555	800,000	0,052	0,120
-406,540	-17,441	0,063	-0,029
-405,525	37,331	0,060	0,039
-404,511	75,658	-0,033	-0,026
-403,496	-31,639	0,041	0,017
-402,482	469,242	-0,020	0,033
-401,467	40,768	0,061	0,040
-400,452	512,596	0,062	0,106
-399,438	-96,384	0,077	-0,015
-398,423	800,000	-0,047	0,099
-397,409	353,663	0,064	-0,094
-396,394	-200,000	0,009	-0,061
-395,379	-21,806	0,116	0,052
-394,365	177,756	-0,022	0,024
-393,350	800,000	-0,021	0,067
-392,336	-185,868	-0,049	-0,001
-391,321	48,256	-0,109	-0,075
-390,306	488,194	-0,045	-0,076
-389,292	-200,000	0,017	-0,059
-388,277	-200,000	-0,014	-0,079
-387,263	-16,465	-0,041	0,019
-386,248	-59,348	0,072	-0,023
-385,233	73,239	-0,040	-0,031
-384,219	-41,078	0,104	-0,039
-383,204	-200,000	-0,001	-0,046
-382,190	-55,285	0,083	-0,027
-381,175	-87,964	0,136	0,030
-380,160	-200,000	-0,010	-0,044
-379,146	-69,703	-0,142	0,040
-378,131	287,583	0,054	0,071
-377,117	-131,175	-0,127	0,012
-376,102	246,972	0,047	0,058
-375,088	13,530	-0,091	-0,051
-374,073	-166,522	0,104	-0,003
-373,058	-200,000	0,017	0,086
-372,044	-153,509	0,030	-0,001
-371,029	76,758	0,064	0,050
-370,015	40,673	-0,091	0,060
-369,000	-200,000	0,001	-0,017
-367,985	263,613	-0,100	-0,127
-366,971	-86,051	0,012	0,003
-365,956	-141,204	0,071	0,005
-364,942	-104,989	-0,136	0,023
-363,927	800,000	-0,014	-0,030
-362,912	72,495	-0,099	-0,076
-361,898	2,725	-0,032	0,017
-360,883	-60,480	-0,062	-0,019
-359,869	-200,000	0,003	0,009
-358,854	159,706	0,049	0,050
-357,839	-41,719	-0,091	0,034
-356,825	152,327	0,129	0,130
-355,810	728,409	0,055	0,107
-354,796	-73,207	-0,066	-0,018
-353,781	-82,090	-0,220	0,052
-352,766	34,144	-0,092	-0,059
-351,752	663,146	-0,041	0,077
-350,737	-200,000	-0,005	-0,073
-349,723	-200,000	-0,057	0,190
-348,708	755,432	0,049	-0,098
-347,693	-116,470	0,052	0,007
-346,679	-200,000	-0,010	-0,088
-345,664	246,113	-0,079	-0,098
-344,650	486,761	-0,069	-0,116
-343,635	-200,000	0,016	0,068
-342,620	-200,000	-0,023	0,124
-341,606	120,086	-0,090	-0,082
-340,591	271,170	-0,046	0,060
-339,577	51,122	-0,023	-0,016
-338,562	75,496	-0,082	-0,063
-337,548	158,661	-0,063	0,064
-336,533	-200,000	-0,008	-0,120
-335,518	800,000	-0,044	-0,137
-334,504	215,017	0,068	-0,080
-333,489	-200,000	-0,009	-0,063
-332,475	197,016	-0,035	-0,039
-331,460	96,070	-0,065	0,054
-330,445	800,000	0,056	0,141
-329,431	198,352	0,118	0,132
-328,416	-56,517	0,129	-0,042
-327,402	-75,608	0,064	-0,017
-326,387	168,214	0,036	-0,038
-325,372	-74,269	0,108	-0,028
-324,358	334,286	-0,016	0,023
-323,343	-18,227	0,058	0,027
-322,329	-200,000	-0,031	0,113
-321,314	-138,164	-0,023	-0,002
-320,299	-200,000	0,022	0,095
-319,285	-162,800	0,093	0,003
-318,270	-30,113	0,036	-0,015
-317,256	-200,000	0,002	-0,147
-316,241	136,500	-0,077	0,074
-315,226	98,200	0,106	0,089
-314,212	71,332	0,078	0,060
-313,197	-37,268	-0,048	-0,019
-312,183	-148,763	0,085	0,005
-311,168	-200,000	-0,009	-0,075
-310,153	185,188	-0,042	-0,046
-309,139	-200,000	-0,042	-0,180
-308,124	800,000	-0,019	0,058
-307,110	151,324	0,080	0,080
-306,095	286,414	0,096	0,127
-305,080	-200,000	0,009	0,091
-304,066	121,401	0,085	-0,077
-303,051	11,282	-0,071	0,040
-302,037	-84,494	0,089	0,020
-301,022	642,625	-0,030	-0,056
-300,008	-200,000	0,013	0,186
-298,993	-200,000	-0,003	0,118
-297,978	-68,397	-0,137	-0,039
-296,964	-74,588	-0,149	-0,039
-295,949	-200,000	0,004	-0,071
-294,935	143,211	0,064	-0,063
-293,920	-11,421	-0,046	0,022
-292,905	67,729	0,113	0,084
-291,891	-77,609	0,079	0,020
-290,876	91,027	-0,107	-0,087
-289,862	17,832	0,022	-0,013
-288,847	-200,000	-0,005	-0,063
-287,832	-44,993	-0,120	0,043
-286,818	53,256	-0,050	0,035
-285,803	400,319	0,012	0,018
-284,789	71,875	0,106	0,081
-283,774	-200,000	-0,037	0,123
-282,759	800,000	0,046	0,095
-281,745	-5,382	0,078	-0,039
-280,730	-20,952	-0,054	-0,024
-279,716	-200,000	-0,003	0,011
-278,701	38,886	-0,020	-0,013
-277,686	-200,000	-0,005	-0,056
-276,672	42,467	-0,019	0,012
-275,657	292,691	-0,012	-0,016
-274,643	169,781	0,065	-0,068
-273,628	-127,619	-0,166	-0,017
-272,613	800,000	0,017	-0,037
-271,599	224,027	-0,057	-0,067
-270,584	-140,179	0,051	-0,004
-269,570	800,000	-0,042	0,098
-268,555	179,393	0,044	0,047
-267,540	103,705	-0,052	0,045
-266,526	-77,360	-0,110	0,028
-265,511	44,159	0,136	0,091
-264,497	547,202	-0,030	-0,053
-263,482	800,000	-0,011	-0,033
-262,467	-200,000	-0,001	0,005
-261,453	93,203	-0,028	0,023
-260,438	297,928	0,016	0,021
-259,424	-200,000	-0,005	0,026
-258,409	-76,409	-0,069	-0,018
-257,395	-125,812	0,083	-0,009
-256,380	224,284	0,033	0,039
-255,365	-200,000	-0,006	0,040
-254,351	81,014	0,018	0,014
-253,336	133,368	0,055	0,052
-252,322	-35,414	-0,078	0,031
-251,307	800,000	0,016	0,042
-250,292	-130,068	0,056	0,006
-249,278	-82,223	0,084	-0,020
-248,263	-80,970	-0,084	0,020
-247,249	0,312	0,055	0,029
-246,234	364,565	0,073	-0,108
-245,219	75,998	-0,022	0,017
-244,205	542,178	0,011	-0,020
-243,190	7,265	0,081	-0,044
-242,176	524,817	0,047	-0,081
-241,161	86,764	-0,153	0,123
-240,146	-200,000	-0,010	0,040
-239,132	-200,000	0,016	-0,098
-238,117	44,122	-0,087	-0,058
-237,103	497,328	0,084	-0,141
-236,088	215,938	0,034	-0,039
-235,073	-133,886	0,055	-0,005
-234,059	178,048	-0,052	-0,055
-233,044	800,000	-0,061	0,148
-232,030	396,668	-0,056	-0,086
-231,015	-156,682	0,046	-0,002
-230,000	800,000	0,065	-0,187
-228,986	800,000	0,022	0,064
-227,971	800,000	-0,048	0,121
-226,957	-0,960	0,129	0,066
-225,942	-200,000	-0,024	0,097
-224,927	-200,000	0,006	-0,026
-223,913	451,452	-0,035	0,056
-222,898	-92,120	-0,059	0,012
-221,884	134,035	-0,072	-0,068
-220,869	-40,138	-0,031	-0,012
-219,855	355,188	-0,088	-0,129
-218,840	-200,000	0,009	0,045
-217,825	-200,000	0,004	-0,062
-216,811	-128,009	-0,086	-0,009
-215,796	494,263	-0,071	-0,119
-214,782	800,000	0,045	0,098
-213,767	364,592	-0,056	0,082
-212,752	-15,046	-0,020	0,009
-211,738	-123,292	0,118	-0,014
-210,723	-60,067	-0,072	0,022
-209,709	-53,743	-0,100	-0,033
-208,694	-139,913	-0,095	-0,007
-207,679	270,818	0,114	-0,146
-206,665	-74,293	-0,009	-0,002
-205,650	157,260	-0,099	-0,100
-204,636	-56,836	0,112	0,036
-203,621	-200,000	0,004	0,040
-202,606	156,489	0,041	-0,041
-201,592	-164,689	-0,043	-0,001
-200,577	-200,000	0,044	-0,182
-199,563	-54,300	0,039	-0,013
-198,548	117,503	-0,089	-0,079
-197,533	159,241	0,043	0,044
-196,519	181,350	0,070	0,075
-195,504	-153,367	0,154	0,008
-194,490	-200,000	0,005	-0,071
-193,475	64,898	-0,056	0,041
-192,460	800,000	-0,024	-0,059
-191,446	250,370	-0,072	0,090
-190,431	-28,382	0,092	-0,039
-189,417	-144,456	0,138	0,009
-188,402	-153,361	-0,020	0,001
-187,387	-200,000	-0,013	-0,051
-186,373	-200,000	-0,007	0,066
-185,358	-65,128	-0,033	-0,010
-184,344	-200,000	0,005	0,138
-183,329	331,769	0,069	0,097
-182,315	800,000	0,023	-0,070
-181,300	-200,000	-0,012	0,039
-180,285	-200,000	-0,015	0,060
-179,271	-200,000	-0,004	-0,027
-178,256	9,670	-0,031	-0,017
-177,242	28,596	-0,077	0,047
-176,227	800,000	-0,036	-0,110
-175,212	-50,980	-0,082	0,028
-174,198	50,094	0,087	-0,060
-173,183	383,837	0,065	-0,098
-172,169	-200,000	0,003	-0,036
-171,154	-133,048	0,089	-0,008
-170,139	298,442	-0,047	0,064
-169,125	268,275	0,089	0,114
-168,110	-54,382	0,107	-0,035
-167,096	-200,000	0,007	-0,049
-166,081	-88,532	-0,031	-0,007
-165,066	82,111	-0,097	0,076
-164,052	172,282	-0,028	0,029
-163,037	-16,588	0,095	-0,044
-162,023	-200,000	-0,005	-0,083
-161,008	-68,359	0,037	0,010
-159,993	-200,000	0,012	0,105
-158,979	175,143	-0,020	-0,021
-157,964	-200,000	-0,008	-0,095
-156,950	-200,000	0,036	0,121
-155,935	-200,000	-0,006	0,056
-154,920	800,000	0,041	0,109
-153,906	101,823	-0,058	-0,049
-152,891	214,646	-0,094	0,108
-151,877	-123,037	-0,092	-0,011
-150,862	-200,000	-0,008	-0,053
-149,847	83,998	-0,032	0,026
-148,833	694,012	-0,040	0,076
-147,818	-200,000	-0,037	0,132
-146,804	-140,520	0,110	-0,008
-145,789	-4,814	0,080	-0,040
-144,775	-75,492	-0,176	-0,045
-143,760	445,794	-0,017	0,028
-142,745	329,665	0,052	0,073
-141,731	-13,353	0,227	0,106
-140,716	115,642	-0,027	0,024
-139,702	26,763	0,073	0,044
-138,687	800,000	-0,038	0,082
-137,672	-166,131	0,046	-0,001
-136,658	123,021	-0,117	0,107
-135,643	800,000	0,046	0,123
-134,629	-14,993	0,064	0,029
-133,614	285,723	-0,076	0,100
-132,599	69,583	-0,050	0,038
-131,585	140,751	0,086	-0,083
-130,570	66,409	0,073	-0,054
-129,556	-5,523	-0,061	0,030
-128,541	135,765	-0,054	-0,051
-127,526	374,443	-0,065	0,097
-126,512	221,363	-0,005	-0,005
-125,497	800,000	-0,049	0,103
-124,483	-125,334	0,113	-0,012
-123,468	677,773	-0,029	-0,055
-122,453	-129,495	-0,079	-0,008
-121,439	-57,827	-0,078	-0,025
-120,424	171,072	-0,045	0,047
