DTS Sentinel unit serial number:	SN410029Multiplexer serial number:	ORYXHardware model number:	OX2-SRSoftware version number:	ORYX F/W v4,00 Oryx Data Collector v3.7.2.0data status	okinstallation	B4 Nyhavnadifferential loss correction	single-endedforward channel	channel 2reverse channel	N/Adate	2023/12/16time	08:15:13forward acquisition time	300,00reverse acquisition time	0,00gamma	499,1914k internal	0,3127k external	0,3127temperature offset calibration	1,0000default loss term (dB/km)	0,3820temperature slope calibration	1,0000multiplexer offset coefficient	1,0000multiplexer slope coefficient	1,0000fibre end	0,00T internal ref (°C)	22,49T ext. ref 1 (°C)	8,28T ext. ref 2 (°C)	8,42length (m)	temperature (°C)	Stokes	anti-Stokes-744,400	-136,567	0,126	-0,011
-743,385	58,223	-0,148	0,108
-742,371	-200,000	-0,004	-0,076
-741,356	702,304	-0,104	0,204
-740,342	249,177	0,028	-0,036
-739,327	-20,798	-0,348	0,158
-738,312	800,000	-0,026	-0,057
-737,298	-150,457	-0,281	0,016
-736,283	-74,673	-0,123	-0,033
-735,269	319,267	-0,152	0,215
-734,254	-200,000	-0,005	0,027
-733,239	-150,122	-0,353	-0,020
-732,225	7,986	0,201	-0,112
-731,210	800,000	-0,029	0,089
-730,196	716,792	0,057	-0,113
-729,181	-180,736	-0,131	-0,002
-728,167	-200,000	0,039	-0,135
-727,152	-25,872	-0,050	0,022
-726,137	-176,094	-0,101	-0,002
-725,123	-122,521	-0,106	0,013
-724,108	187,812	0,101	-0,113
-723,094	323,066	0,020	0,029
-722,079	83,816	-0,118	-0,096
-721,064	-200,000	-0,040	-0,139
-720,050	524,595	0,034	-0,060
-719,035	99,967	-0,063	0,054
-718,021	-103,451	-0,151	0,026
-717,006	-157,117	0,056	-0,002
-715,991	477,797	-0,059	-0,100
-714,977	19,037	-0,104	0,062
-713,962	800,000	-0,041	-0,114
-712,948	-5,615	0,019	0,010
-711,933	331,691	0,079	0,114
-710,918	37,774	-0,074	0,049
-709,904	-96,630	0,049	0,010
-708,889	800,000	-0,043	0,095
-707,875	800,000	-0,043	-0,117
-706,860	800,000	0,040	-0,093
-705,845	-161,271	-0,071	-0,003
-704,831	-175,774	-0,094	-0,002
-703,816	280,955	-0,072	0,096
-702,802	328,596	0,066	-0,095
-701,787	-100,598	0,023	-0,004
-700,772	-40,555	-0,051	-0,020
-699,758	27,100	0,074	-0,046
-698,743	479,901	0,025	-0,042
-697,729	283,149	0,014	0,019
-696,714	553,541	-0,032	-0,058
-695,699	-59,063	-0,129	-0,041
-694,685	-63,257	-0,107	0,033
-693,670	-13,337	0,051	0,024
-692,656	477,295	-0,070	0,118
-691,641	595,438	0,042	0,077
-690,627	800,000	-0,045	0,116
-689,612	800,000	-0,058	0,128
-688,597	39,212	-0,053	-0,035
-687,583	800,000	-0,049	-0,141
-686,568	36,087	-0,056	0,036
-685,554	315,258	-0,027	-0,038
-684,539	800,000	0,041	0,129
-683,524	-200,000	0,042	-0,195
-682,510	-200,000	0,003	-0,136
-681,495	48,945	-0,087	-0,060
-680,481	-200,000	0,029	0,110
-679,466	-200,000	0,014	-0,059
-678,451	-200,000	-0,019	-0,146
-677,437	-200,000	-0,038	0,141
-676,422	147,023	-0,118	0,118
-675,408	176,500	0,116	-0,125
-674,393	205,669	-0,038	-0,043
-673,378	210,826	-0,101	-0,118
-672,364	367,695	0,092	-0,139
-671,349	-92,437	0,065	-0,013
-670,335	-190,490	0,070	0,001
-669,320	-70,695	-0,028	-0,008
-668,305	547,916	0,054	0,096
-667,291	-200,000	-0,008	0,055
-666,276	56,077	0,115	-0,083
-665,262	-28,711	-0,107	-0,046
-664,247	-200,000	-0,011	-0,136
-663,232	66,104	0,108	0,081
-662,218	33,452	0,096	-0,062
-661,203	130,632	-0,086	0,082
-660,189	43,904	0,105	0,071
-659,174	-165,513	0,075	0,002
-658,159	-152,145	-0,118	-0,006
-657,145	-53,166	-0,177	-0,060
-656,130	9,840	0,019	0,011
-655,116	-200,000	-0,023	0,118
-654,101	-28,680	-0,119	-0,051
-653,086	-200,000	0,003	-0,115
-652,072	-200,000	0,015	0,054
-651,057	-200,000	0,004	-0,104
-650,043	742,573	-0,015	0,031
-649,028	-133,056	-0,081	-0,008
-648,014	-200,000	0,125	0,000
-646,999	217,537	0,047	0,055
-645,984	44,767	0,104	0,071
-644,970	561,683	-0,056	0,101
-643,955	-200,000	-0,002	0,006
-642,941	800,000	-0,071	-0,152
-641,926	101,762	0,013	-0,011
-640,911	159,189	-0,070	-0,072
-639,897	125,395	0,029	-0,027
-638,882	11,008	0,051	-0,029
-637,868	-200,000	0,041	-0,140
-636,853	-200,000	-0,005	0,025
-635,838	42,231	-0,118	0,079
-634,824	-83,299	-0,070	0,017
-633,809	-19,027	0,082	0,038
-632,795	800,000	-0,014	0,043
-631,780	56,258	0,092	-0,066
-630,765	-87,216	-0,064	0,014
-629,751	-200,000	-0,019	-0,087
-628,736	159,627	-0,035	-0,036
-627,722	-195,165	0,039	-0,000
-626,707	-200,000	-0,013	-0,141
-625,692	800,000	0,023	0,065
-624,678	40,574	0,013	0,009
-623,663	270,787	-0,119	0,156
-622,649	800,000	-0,059	0,154
-621,634	-200,000	-0,002	-0,098
-620,619	362,725	0,053	0,079
-619,605	800,000	-0,047	0,114
-618,590	149,192	0,044	-0,044
-617,576	347,094	0,140	-0,205
-616,561	800,000	-0,049	-0,120
-615,546	-200,000	-0,031	-0,197
-614,532	-47,019	-0,116	0,042
-613,517	558,667	0,023	0,042
-612,503	-200,000	0,003	-0,118
-611,488	-1,813	0,058	0,030
-610,474	-200,000	-0,020	0,104
-609,459	-106,789	-0,116	0,019
-608,444	310,169	-0,016	-0,023
-607,430	-49,622	0,090	-0,031
-606,415	322,108	-0,135	-0,191
-605,401	-200,000	-0,001	0,025
-604,386	17,209	-0,039	0,023
-603,371	377,846	-0,043	-0,065
-602,357	-200,000	0,006	0,127
-601,342	64,252	0,091	0,067
-600,328	-200,000	0,020	-0,079
-599,313	-200,000	-0,009	0,083
-598,298	108,966	-0,027	0,024
-597,284	-200,000	0,035	0,116
-596,269	800,000	-0,071	-0,163
-595,255	800,000	0,060	0,126
-594,240	704,602	-0,047	0,091
-593,225	49,956	-0,041	-0,028
-592,211	440,684	0,020	0,033
-591,196	242,748	0,045	0,056
-590,182	377,544	-0,059	-0,090
-589,167	110,067	-0,072	-0,064
-588,152	-90,654	-0,049	-0,010
-587,138	800,000	0,034	0,083
-586,123	-11,317	0,032	0,015
-585,109	90,684	0,127	-0,105
-584,094	-46,802	-0,084	-0,030
-583,079	-115,330	0,056	0,008
-582,065	34,064	-0,109	-0,070
-581,050	1,266	-0,106	0,056
-580,036	-48,071	-0,052	0,018
-579,021	800,000	-0,055	-0,142
-578,006	57,310	-0,070	0,050
-576,992	-22,647	-0,134	0,060
-575,977	800,000	0,064	0,204
-574,963	-13,004	0,199	-0,095
-573,948	800,000	-0,020	0,055
-572,934	-114,811	0,091	-0,013
-571,919	235,560	-0,039	-0,048
-570,904	240,820	-0,083	0,103
-569,890	52,928	-0,107	0,076
-568,875	17,149	-0,019	0,011
-567,861	-70,253	0,194	0,054
-566,846	-200,000	-0,005	0,041
-565,831	-200,000	-0,011	-0,108
-564,817	43,109	0,072	-0,048
-563,802	-135,287	0,038	0,003
-562,788	21,673	0,067	-0,040
-561,773	-141,782	-0,028	-0,002
-560,758	800,000	0,008	-0,022
-559,744	49,467	0,067	0,047
-558,729	-104,112	-0,055	-0,009
-557,715	-200,000	-0,008	-0,121
-556,700	37,737	-0,141	0,092
-555,685	-18,989	-0,059	-0,027
-554,671	-44,521	0,093	0,034
-553,656	471,325	0,029	-0,048
-552,642	165,858	0,018	0,019
-551,627	54,285	0,162	0,115
-550,612	-157,024	-0,146	0,006
-549,598	50,548	-0,046	0,032
-548,583	-139,639	-0,097	-0,008
-547,569	-200,000	0,018	-0,075
-546,554	-200,000	-0,018	0,170
-545,539	148,125	-0,053	0,053
-544,525	-200,000	0,012	0,070
-543,510	499,701	-0,043	-0,073
-542,496	562,249	-0,044	0,080
-541,481	-94,202	0,113	-0,023
-540,466	-115,248	-0,021	0,003
-539,452	-200,000	-0,004	0,127
-538,437	-181,100	-0,127	-0,002
-537,423	800,000	-0,038	0,101
-536,408	107,779	-0,062	0,054
-535,393	-19,852	-0,126	-0,057
-534,379	-56,867	-0,022	0,007
-533,364	-200,000	-0,026	-0,104
-532,350	153,494	0,089	-0,090
-531,335	-200,000	-0,021	0,132
-530,321	197,940	0,128	0,145
-529,306	38,942	-0,079	-0,052
-528,291	-200,000	-0,001	-0,053
-527,277	-104,154	-0,117	-0,020
-526,262	-140,315	-0,077	0,006
-525,248	570,504	0,066	-0,119
-524,233	-71,104	0,138	-0,038
-523,218	800,000	0,048	0,098
-522,204	-200,000	0,014	-0,065
-521,189	38,310	-0,065	-0,042
-520,175	-200,000	-0,009	-0,200
-519,160	-200,000	0,028	-0,132
-518,145	-200,000	0,028	0,096
-517,131	800,000	0,028	-0,057
-516,116	-100,569	0,090	-0,016
-515,102	-131,467	0,053	0,005
-514,087	-34,985	-0,149	0,060
-513,072	271,962	0,058	-0,076
-512,058	-200,000	-0,003	-0,080
-511,043	138,920	0,096	-0,093
-510,029	-200,000	-0,011	0,120
-509,014	800,000	0,020	0,059
-507,999	-0,387	-0,020	0,010
-506,985	148,229	0,047	-0,047
-505,970	-121,338	0,007	0,001
-504,956	-200,000	0,006	-0,035
-503,941	24,331	0,095	0,058
-502,926	693,693	0,033	-0,064
-501,912	-104,012	0,140	-0,024
-500,897	744,652	0,074	0,147
-499,883	800,000	0,057	-0,151
-498,868	646,279	-0,047	-0,088
-497,853	147,243	0,097	-0,096
-496,839	172,597	0,113	-0,120
-495,824	-200,000	-0,012	0,076
-494,810	800,000	-0,021	0,047
-493,795	-143,552	-0,022	-0,002
-492,781	145,719	-0,117	-0,116
-491,766	-200,000	-0,031	-0,118
-490,751	-200,000	-0,017	0,122
-489,737	-1,443	-0,116	0,060
-488,722	194,790	0,011	0,013
-487,708	-200,000	0,026	-0,089
-486,693	-179,501	0,096	-0,002
-485,678	399,977	-0,043	0,066
-484,664	-155,464	-0,120	0,006
-483,649	-34,978	-0,177	0,071
-482,635	-200,000	0,034	0,211
-481,620	800,000	0,042	0,107
-480,605	-74,871	-0,075	-0,020
-479,591	183,076	-0,023	-0,025
-478,576	800,000	-0,012	-0,037
-477,562	800,000	0,015	0,039
-476,547	181,113	-0,073	-0,079
-475,532	-200,000	0,030	0,109
-474,518	101,635	0,061	-0,052
-473,503	-172,218	-0,182	0,004
-472,489	-1,418	0,040	-0,021
-471,474	800,000	0,053	0,112
-470,459	53,916	-0,069	-0,049
-469,445	800,000	0,035	-0,095
-468,430	-30,584	0,080	-0,033
-467,416	800,000	0,076	0,159
-466,401	454,237	-0,058	0,095
-465,386	-66,036	-0,064	-0,019
-464,372	-132,483	0,184	-0,017
-463,357	-67,406	-0,095	0,027
-462,343	9,792	-0,211	-0,117
-461,328	103,942	-0,067	-0,058
-460,313	577,804	-0,029	0,053
-459,299	-200,000	-0,026	0,118
-458,284	544,399	-0,090	0,159
-457,270	-200,000	0,029	-0,118
-456,255	-51,880	0,038	0,013
-455,241	-6,607	-0,077	0,038
-454,226	-91,871	0,083	-0,017
-453,211	800,000	0,018	0,050
-452,197	-32,177	0,078	0,032
-451,182	433,809	0,049	-0,079
-450,168	800,000	-0,050	-0,117
-449,153	-58,564	-0,090	-0,029
-448,138	24,092	0,021	-0,013
-447,124	158,475	0,087	-0,088
-446,109	-200,000	-0,013	-0,104
-445,095	-200,000	0,009	0,041
-444,080	-8,707	0,064	0,031
-443,065	62,414	-0,027	0,020
-442,051	800,000	0,027	-0,079
-441,036	78,286	-0,056	-0,044
-440,022	7,280	-0,023	0,013
-439,007	28,575	-0,049	-0,030
-437,992	-200,000	0,023	0,089
-436,978	740,167	0,059	-0,118
-435,963	-73,661	0,119	-0,032
-434,949	800,000	-0,050	-0,105
-433,934	12,323	-0,059	0,033
-432,919	31,732	0,048	-0,030
-431,905	-200,000	0,035	-0,115
-430,890	45,683	0,127	0,086
-429,876	-200,000	-0,008	0,051
-428,861	-200,000	-0,013	0,145
-427,846	-188,952	-0,076	0,001
-426,832	-200,000	-0,016	-0,098
-425,817	-200,000	0,001	0,035
-424,803	-200,000	-0,029	-0,141
-423,788	-5,150	0,070	-0,036
-422,773	798,538	0,034	0,068
-421,759	340,702	0,052	-0,074
-420,744	800,000	-0,010	0,033
-419,730	-200,000	0,003	0,104
-418,715	-97,362	0,115	0,022
-417,701	-200,000	-0,015	0,174
-416,686	734,797	0,138	0,273
-415,671	185,596	0,085	0,093
-414,657	-15,905	-0,071	0,033
-413,642	-200,000	-0,002	0,033
-412,628	167,896	-0,138	-0,144
-411,613	137,037	0,079	-0,076
-410,598	3,882	-0,037	-0,020
-409,584	-36,899	-0,039	-0,015
-408,569	-200,000	0,007	0,036
-407,555	-29,289	-0,036	0,015
-406,540	-45,628	0,123	-0,044
-405,525	-17,736	0,057	0,026
-404,511	62,262	-0,037	-0,027
-403,496	197,988	0,043	-0,048
-402,482	-60,628	-0,047	-0,015
-401,467	-89,654	-0,139	-0,030
-400,452	-200,000	0,002	0,036
-399,438	-68,406	0,121	-0,034
-398,423	-35,073	-0,059	0,023
-397,409	25,514	-0,048	0,029
-396,394	-138,355	0,031	-0,002
-395,379	-136,123	-0,081	-0,007
-394,365	-200,000	0,002	0,059
-393,350	-0,759	-0,189	0,098
-392,336	-200,000	-0,020	0,131
-391,321	60,638	0,103	0,075
-390,306	312,515	-0,033	-0,045
-389,292	800,000	0,055	-0,156
-388,277	98,420	-0,073	-0,062
-387,263	96,604	-0,038	-0,032
-386,248	274,261	0,036	0,046
-385,233	-200,000	0,004	0,031
-384,219	17,569	-0,086	0,050
-383,204	40,737	0,142	-0,094
-382,190	-200,000	-0,005	0,030
-381,175	-109,582	0,070	0,011
-380,160	57,734	0,055	0,039
-379,146	-95,142	0,136	-0,027
-378,131	800,000	-0,049	-0,123
-377,117	-39,121	-0,125	-0,048
-376,102	-200,000	0,002	-0,031
-375,088	-127,787	-0,140	0,015
-374,073	533,372	0,035	-0,061
-373,058	-46,894	0,116	0,041
-372,044	-112,868	0,146	-0,021
-371,029	800,000	0,027	0,076
-370,015	800,000	0,039	0,118
-369,000	800,000	0,040	0,118
-367,985	-200,000	0,034	-0,124
-366,971	7,955	-0,023	-0,013
-365,956	131,607	-0,092	-0,086
-364,942	-200,000	0,023	0,100
-363,927	107,185	0,086	0,075
-362,912	-91,224	0,076	-0,016
-361,898	-57,185	-0,110	0,035
-360,883	-200,000	-0,012	-0,045
-359,869	800,000	0,028	0,068
-358,854	800,000	0,027	0,071
-357,839	53,667	-0,048	0,034
-356,825	-200,000	0,018	0,102
-355,810	77,008	0,113	-0,088
-354,796	229,415	0,056	0,067
-353,781	-200,000	0,004	-0,062
-352,766	800,000	-0,028	-0,088
-351,752	19,041	0,073	-0,043
-350,737	-70,892	0,126	-0,034
-349,723	-200,000	-0,018	0,132
-348,708	58,411	0,096	0,069
-347,693	-200,000	-0,008	-0,088
-346,679	-96,739	-0,101	-0,019
-345,664	-200,000	0,022	-0,124
-344,650	-103,908	-0,015	-0,002
-343,635	-44,530	-0,135	0,049
-342,620	321,715	-0,050	0,070
-341,606	-41,096	-0,055	0,021
-340,591	479,034	0,033	-0,055
-339,577	-200,000	-0,010	-0,038
-338,562	27,386	-0,083	0,051
-337,548	10,401	-0,085	0,047
-336,533	-200,000	0,012	0,087
-335,518	-135,756	-0,015	-0,001
-334,504	163,952	-0,095	0,098
-333,489	140,521	0,094	0,091
-332,475	800,000	0,054	-0,129
-331,460	591,724	0,077	0,139
-330,445	-200,000	-0,001	0,050
-329,431	-132,999	-0,083	-0,008
-328,416	130,890	0,080	0,076
-327,402	800,000	-0,034	-0,071
-326,387	140,115	0,133	0,129
-325,372	800,000	0,008	-0,026
-324,358	-145,294	0,056	0,004
-323,343	-200,000	-0,013	0,043
-322,329	461,791	-0,072	0,118
-321,314	800,000	0,050	0,130
-320,299	-200,000	-0,017	0,206
-319,285	-200,000	0,003	-0,020
-318,270	470,733	-0,033	-0,055
-317,256	800,000	-0,033	-0,105
-316,241	100,359	-0,061	-0,052
-315,226	62,983	0,042	-0,031
-314,212	158,746	-0,023	0,023
-313,197	-108,139	0,138	-0,022
-312,183	13,402	0,140	-0,079
-311,168	-33,423	-0,108	-0,044
-310,153	800,000	0,057	-0,118
-309,139	321,216	-0,119	-0,167
-308,124	170,326	-0,164	-0,172
-307,110	19,327	0,044	-0,026
-306,095	-200,000	0,016	0,085
-305,080	62,807	-0,035	-0,026
-304,066	800,000	-0,059	0,125
-303,051	800,000	-0,045	-0,136
-302,037	142,059	-0,028	-0,027
-301,022	-5,032	-0,036	0,018
-300,008	-200,000	0,027	-0,112
-298,993	-103,298	0,076	0,013
-297,978	-157,739	0,008	0,000
-296,964	800,000	0,007	-0,021
-295,949	551,289	-0,034	-0,059
-294,935	1,216	-0,131	-0,068
-293,920	-200,000	0,009	0,144
-292,905	-156,818	0,132	-0,006
-291,891	108,982	-0,071	0,062
-290,876	-8,486	0,154	0,075
-289,862	-200,000	0,036	-0,124
-288,847	799,000	0,058	-0,117
-287,832	-200,000	-0,031	-0,153
-286,818	-200,000	0,009	-0,069
-285,803	61,974	-0,115	-0,083
-284,789	-200,000	-0,009	0,107
-283,774	800,000	0,047	0,125
-282,759	-24,076	0,013	0,006
-281,745	0,778	0,095	-0,049
-280,730	149,017	-0,049	0,048
-279,716	-200,000	-0,011	-0,073
-278,701	112,426	0,038	0,034
-277,686	-17,904	0,098	0,045
-276,672	-200,000	0,029	0,124
-275,657	-76,651	-0,066	0,017
-274,643	-200,000	-0,004	0,092
-273,628	-121,968	0,048	0,006
-272,613	343,148	-0,057	-0,081
-271,599	-119,175	0,094	0,012
-270,584	-46,212	0,053	0,019
-269,570	-200,000	0,035	0,168
-268,555	108,223	0,027	-0,024
-267,540	64,049	-0,035	-0,025
-266,526	118,973	0,054	0,049
-265,511	321,294	-0,028	-0,039
-264,497	-11,291	0,098	-0,047
-263,482	-87,408	-0,081	0,018
-262,467	-68,535	0,121	-0,034
-261,453	651,429	0,016	0,031
-260,438	270,000	-0,093	-0,119
-259,424	-45,597	0,073	0,026
-258,409	114,656	-0,027	0,024
-257,395	232,987	0,067	-0,080
-256,380	800,000	0,025	0,074
-255,365	-3,532	0,175	0,088
-254,351	462,461	0,017	-0,027
-253,336	-117,505	0,039	0,005
-252,322	-113,040	-0,141	0,020
-251,307	800,000	0,030	-0,072
-250,292	28,811	-0,081	0,050
-249,278	185,954	0,094	0,102
-248,263	4,983	0,030	0,016
-247,249	-83,832	0,072	-0,017
-246,234	800,000	0,024	0,054
-245,219	244,496	-0,040	-0,049
-244,205	86,608	-0,063	0,051
-243,190	-200,000	0,013	-0,056
-242,176	-50,206	0,057	0,019
-241,161	-23,833	0,105	0,046
-240,146	800,000	0,036	-0,102
-239,132	-94,145	-0,081	-0,016
-238,117	64,207	-0,039	-0,029
-237,103	-104,587	-0,056	-0,009
-236,088	-51,111	-0,070	0,024
-235,073	-126,825	0,063	-0,007
-234,059	359,960	0,079	0,115
-233,044	800,000	-0,010	0,028
-232,030	128,805	-0,014	0,013
-231,015	-200,000	0,003	-0,123
-230,000	62,067	0,040	-0,029
-228,986	800,000	0,022	-0,067
-227,971	324,712	0,042	0,059
-226,957	250,023	-0,007	0,009
-225,942	236,642	0,001	-0,001
-224,927	-58,663	0,054	-0,017
-223,913	-200,000	-0,005	-0,077
-222,898	-167,332	-0,079	-0,002
-221,884	253,531	-0,043	0,054
-220,869	4,025	0,053	0,028
-219,855	-69,392	0,111	0,031
-218,840	800,000	-0,068	0,170
-217,825	109,201	0,054	0,048
-216,811	61,477	-0,071	-0,052
-215,796	7,972	-0,105	-0,057
-214,782	-200,000	0,005	-0,064
-213,767	-163,905	-0,075	0,002
-212,752	188,126	0,018	0,020
-211,738	15,841	0,014	-0,008
-210,723	-83,339	-0,162	-0,038
-209,709	-200,000	0,003	-0,064
-208,694	800,000	-0,008	0,019
-207,679	267,443	-0,094	-0,120
-206,665	-116,063	0,007	-0,001
-205,650	508,709	0,067	0,115
-204,636	-82,197	-0,059	0,014
-203,621	-4,664	-0,130	0,065
-202,606	-99,257	0,044	0,008
-201,592	304,111	-0,117	-0,159
-200,577	9,409	-0,037	-0,021
-199,563	211,003	0,070	0,080
-198,548	23,598	-0,051	0,030
-197,533	-63,886	0,113	0,034
-196,519	-200,000	0,016	0,185
-195,504	-90,257	-0,112	0,023
-194,490	-200,000	-0,028	-0,178
-193,475	-4,455	-0,037	0,019
-192,460	-93,537	0,152	-0,030
-191,446	723,748	0,031	0,060
-190,431	174,628	0,099	0,104
-189,417	-72,901	-0,033	0,009
-188,402	-200,000	0,016	0,083
-187,387	-29,269	0,059	0,024
-186,373	415,515	-0,047	-0,074
-185,358	-114,191	-0,056	0,008
-184,344	31,819	0,124	-0,077
-183,329	292,539	-0,043	-0,057
-182,315	-200,000	0,024	0,138
-181,300	474,265	0,043	0,070
-180,285	-63,518	-0,064	0,019
-179,271	800,000	-0,086	-0,229
-178,256	-58,842	-0,052	0,016
-177,242	164,563	-0,040	0,041
-176,227	47,534	-0,100	-0,068
-175,212	-68,858	-0,029	0,008
-174,198	-200,000	0,004	0,056
-173,183	-200,000	0,003	0,049
-172,169	-133,075	-0,057	-0,005
-171,154	-102,211	0,039	-0,007
-170,139	-200,000	0,019	-0,074
-169,125	132,287	0,093	-0,087
-168,110	-63,376	0,099	-0,030
-167,096	94,349	-0,104	-0,086
-166,081	15,086	-0,066	-0,038
-165,066	161,482	-0,046	-0,047
-164,052	-200,000	-0,046	-0,250
-163,037	542,452	-0,084	-0,146
-162,023	-200,000	-0,020	0,159
-161,008	-23,715	0,067	0,029
-159,993	-47,999	-0,041	0,014
-158,979	226,288	-0,076	-0,090
-157,964	148,412	0,106	0,104
-156,950	80,265	0,060	0,047
-155,935	-200,000	-0,020	-0,146
-154,920	-200,000	0,009	-0,053
-153,906	590,658	0,044	0,079
-152,891	-174,944	0,043	-0,001
-151,877	122,970	0,137	-0,124
-150,862	-4,463	-0,069	0,034
-149,847	-84,740	-0,082	-0,019
-148,833	30,327	0,124	0,077
-147,818	-62,144	0,049	0,015
-146,804	-91,590	-0,100	-0,021
-145,789	82,808	0,065	0,051
-144,775	242,216	0,051	-0,062
-143,760	294,199	-0,062	0,082
-142,745	-200,000	-0,006	-0,061
-141,731	-110,638	0,189	0,028
-140,716	205,357	-0,027	0,031
-139,702	-169,665	0,192	-0,005
-138,687	-173,321	-0,100	-0,002
-137,672	-137,045	0,049	-0,004
-136,658	2,731	0,027	0,014
-135,643	-200,000	0,004	-0,129
-134,629	-21,990	-0,088	0,039
-133,614	120,909	-0,013	-0,012
-132,599	214,378	-0,010	-0,012
-131,585	-45,777	-0,031	-0,011
-130,570	-200,000	-0,003	0,071
-129,556	119,504	-0,037	-0,033
-128,541	128,520	-0,045	-0,042
-127,526	-200,000	-0,004	-0,014
-126,512	70,630	-0,132	-0,099
-125,497	-111,685	0,073	0,011
-124,483	-26,335	0,070	0,030
-123,468	525,447	0,031	0,054
-122,453	111,026	-0,093	-0,081
-121,439	104,016	-0,149	-0,127
-120,424	30,056	-0,114	0,071
-119,410	-120,230	0,102	-0,013
-118,395	85,809	-0,087	-0,070
