DTS Sentinel unit serial number:	SN410029Multiplexer serial number:	ORYXHardware model number:	OX2-SRSoftware version number:	ORYX F/W v4,00 Oryx Data Collector v3.7.2.0data status	okinstallation	B4 Nyhavnadifferential loss correction	single-endedforward channel	channel 2reverse channel	N/Adate	2023/12/16time	10:45:13forward acquisition time	300,00reverse acquisition time	0,00gamma	499,1914k internal	0,3125k external	0,3125temperature offset calibration	1,0000default loss term (dB/km)	0,3820temperature slope calibration	1,0000multiplexer offset coefficient	1,0000multiplexer slope coefficient	1,0000fibre end	0,00T internal ref (°C)	23,41T ext. ref 1 (°C)	9,09T ext. ref 2 (°C)	9,25length (m)	temperature (°C)	Stokes	anti-Stokes-744,400	800,000	0,035	0,078
-743,385	-46,096	-0,207	0,076
-742,371	311,728	0,095	-0,134
-741,356	-21,250	-0,168	0,076
-740,342	-200,000	-0,032	-0,105
-739,327	31,842	-0,165	0,105
-738,312	800,000	-0,021	0,052
-737,298	-116,867	-0,325	0,044
-736,283	-200,000	0,000	0,008
-735,269	-52,956	-0,182	0,062
-734,254	-45,668	-0,045	0,017
-733,239	-167,544	-0,356	-0,010
-732,225	-200,000	-0,003	-0,024
-731,210	-44,147	-0,171	0,064
-730,196	-75,817	0,097	-0,025
-729,181	-14,875	0,038	0,018
-728,167	-200,000	-0,002	-0,029
-727,152	411,247	0,064	0,102
-726,137	-200,000	0,002	-0,043
-725,123	341,980	0,090	-0,132
-724,108	-19,281	-0,085	-0,039
-723,094	800,000	-0,021	0,060
-722,079	52,404	-0,043	-0,030
-721,064	290,219	0,001	0,002
-720,050	92,994	-0,053	0,045
-719,035	705,706	-0,002	-0,003
-718,021	791,877	-0,053	0,109
-717,006	-155,906	-0,135	-0,006
-715,991	-92,926	-0,126	0,026
-714,977	-200,000	0,032	0,165
-713,962	800,000	-0,029	-0,083
-712,948	48,652	-0,030	0,021
-711,933	301,982	-0,096	0,132
-710,918	-74,047	-0,118	0,032
-709,904	33,740	-0,205	-0,132
-708,889	-200,000	0,003	0,054
-707,875	34,781	0,051	-0,033
-706,860	-63,516	-0,021	0,006
-705,845	398,904	0,011	-0,018
-704,831	-200,000	0,045	0,163
-703,816	-79,510	0,014	0,004
-702,802	-170,884	-0,065	-0,002
-701,787	437,310	-0,042	-0,068
-700,772	543,735	0,027	-0,048
-699,758	-200,000	-0,003	0,042
-698,743	257,670	-0,113	0,145
-697,729	239,591	0,047	-0,058
-696,714	526,975	0,027	0,048
-695,699	-123,243	-0,119	-0,014
-694,685	-200,000	0,004	0,097
-693,670	449,038	0,014	0,023
-692,656	2,218	-0,148	-0,079
-691,641	7,601	-0,084	0,047
-690,627	129,377	-0,050	-0,047
-689,612	-200,000	-0,031	0,115
-688,597	750,285	0,026	-0,052
-687,583	179,399	-0,115	-0,126
-686,568	-200,000	0,004	-0,102
-685,554	652,686	-0,061	-0,118
-684,539	-200,000	0,002	0,018
-683,524	-200,000	-0,009	0,110
-682,510	-93,312	-0,025	0,005
-681,495	-200,000	0,002	0,044
-680,481	-18,597	0,049	-0,022
-679,466	-32,397	-0,113	0,047
-678,451	446,321	0,023	-0,037
-677,437	-200,000	-0,026	-0,126
-676,422	-96,504	-0,061	-0,012
-675,408	58,036	-0,057	0,042
-674,393	800,000	-0,011	0,028
-673,378	431,097	-0,060	-0,098
-672,364	-166,309	-0,197	0,006
-671,349	800,000	-0,021	-0,063
-670,335	324,414	0,160	-0,228
-669,320	415,898	-0,026	-0,042
-668,305	800,000	0,035	0,087
-667,291	87,994	0,040	-0,033
-666,276	252,675	-0,078	-0,099
-665,262	34,971	-0,037	0,024
-664,247	-81,247	0,193	-0,047
-663,232	-200,000	0,002	0,099
-662,218	57,857	-0,097	0,070
-661,203	58,298	0,048	-0,035
-660,189	-200,000	0,008	0,066
-659,174	70,454	-0,036	-0,028
-658,159	347,504	-0,053	-0,078
-657,145	86,794	0,078	0,064
-656,130	-200,000	0,011	-0,079
-655,116	-117,283	-0,035	0,005
-654,101	-119,944	0,092	-0,012
-653,086	-116,531	-0,137	0,019
-652,072	-200,000	0,025	0,100
-651,057	-200,000	-0,012	-0,168
-650,043	-97,982	-0,089	-0,017
-649,028	-132,901	-0,125	-0,012
-648,014	55,909	0,022	0,016
-646,999	-200,000	0,007	0,065
-645,984	800,000	0,022	0,056
-644,970	-200,000	0,024	-0,119
-643,955	24,125	-0,025	0,015
-642,941	800,000	-0,019	-0,042
-641,926	-200,000	0,048	-0,163
-640,911	388,568	0,036	-0,055
-639,897	-20,165	0,036	0,017
-638,882	559,822	0,031	-0,056
-637,868	340,437	-0,076	-0,111
-636,853	-99,273	-0,164	0,030
-635,838	-68,314	-0,042	0,012
-634,824	88,937	-0,075	0,062
-633,809	-172,951	-0,044	-0,001
-632,795	800,000	0,035	0,096
-631,780	43,979	-0,052	0,035
-630,765	244,329	0,071	-0,089
-629,751	222,476	-0,067	-0,080
-628,736	38,331	0,096	-0,064
-627,722	800,000	-0,022	-0,062
-626,707	116,760	0,130	-0,118
-625,692	-200,000	0,007	0,036
-624,678	-200,000	-0,011	-0,069
-623,663	402,584	0,062	0,097
-622,649	453,666	-0,084	-0,139
-621,634	-200,000	-0,014	-0,063
-620,619	-72,170	-0,104	0,028
-619,605	-124,707	-0,068	0,008
-618,590	-13,472	-0,139	0,066
-617,576	-200,000	0,012	0,177
-616,561	-76,750	-0,155	0,040
-615,546	-134,624	-0,068	0,006
-614,532	-50,210	0,038	-0,013
-613,517	148,546	-0,037	0,037
-612,503	-200,000	-0,021	-0,110
-611,488	-200,000	-0,126	-0,000
-610,474	-17,599	0,014	-0,007
-609,459	427,634	-0,045	-0,072
-608,444	572,246	-0,058	-0,106
-607,430	246,386	-0,079	-0,099
-606,415	-200,000	0,004	0,059
-605,401	-166,378	0,096	-0,003
-604,386	-200,000	-0,005	0,101
-603,371	402,742	0,054	-0,084
-602,357	-200,000	-0,003	0,030
-601,342	515,108	0,001	-0,002
-600,328	90,127	-0,121	-0,100
-599,313	110,500	-0,071	-0,063
-598,298	-200,000	0,018	-0,075
-597,284	800,000	0,060	0,186
-596,269	800,000	0,027	-0,062
-595,255	800,000	-0,011	-0,033
-594,240	314,292	0,048	0,067
-593,225	-38,824	-0,174	-0,068
-592,211	616,643	0,043	-0,079
-591,196	800,000	0,025	0,075
-590,182	83,719	0,040	-0,032
-589,167	625,795	-0,027	-0,052
-588,152	-200,000	-0,018	-0,146
-587,138	489,668	-0,049	-0,083
-586,123	-86,852	-0,138	-0,031
-585,109	473,989	-0,079	0,133
-584,094	-200,000	0,036	0,155
-583,079	-200,000	0,005	0,032
-582,065	45,943	0,077	-0,052
-581,050	-200,000	0,023	-0,204
-580,036	-200,000	-0,005	-0,060
-579,021	-150,120	0,090	0,005
-578,006	-200,000	-0,007	-0,231
-576,992	-22,646	0,116	0,052
-575,977	-27,474	0,056	0,024
-574,963	2,891	0,049	-0,026
-573,948	39,593	-0,046	-0,030
-572,934	11,566	0,065	-0,037
-571,919	29,352	-0,085	-0,053
-570,904	-200,000	-0,006	-0,077
-569,890	44,645	-0,206	0,140
-568,875	172,493	0,009	-0,009
-567,861	-49,188	0,160	-0,056
-566,846	-131,463	0,026	-0,002
-565,831	-200,000	-0,005	0,052
-564,817	800,000	-0,017	-0,041
-563,802	-200,000	0,000	-0,118
-562,788	162,478	0,059	0,062
-561,773	75,529	-0,063	0,049
-560,758	-87,815	0,097	0,021
-559,744	800,000	-0,050	-0,152
-558,729	24,228	-0,054	0,033
-557,715	-200,000	0,021	-0,080
-556,700	-38,643	-0,144	0,056
-555,685	14,123	-0,207	-0,119
-554,671	800,000	0,045	-0,112
-553,656	132,618	0,017	0,017
-552,642	-96,899	0,184	0,035
-551,627	-26,641	0,148	-0,064
-550,612	800,000	-0,017	0,053
-549,598	112,210	-0,014	-0,012
-548,583	-27,289	-0,108	-0,046
-547,569	-52,887	-0,061	-0,021
-546,554	-50,462	-0,035	-0,012
-545,539	4,869	-0,049	-0,027
-544,525	-50,572	0,104	0,036
-543,510	-200,000	-0,014	-0,052
-542,496	-62,533	-0,045	0,014
-541,481	-67,229	-0,047	-0,014
-540,466	24,252	-0,077	0,047
-539,452	196,015	0,100	-0,113
-538,437	76,255	0,110	0,086
-537,423	369,450	-0,051	-0,077
-536,408	-151,817	-0,065	0,003
-535,393	-64,734	-0,127	-0,038
-534,379	-200,000	0,006	0,152
-533,364	800,000	0,042	0,118
-532,350	-129,231	-0,018	-0,002
-531,335	-200,000	-0,002	-0,031
-530,321	800,000	-0,033	0,075
-529,306	-101,789	0,111	0,020
-528,291	-200,000	0,020	-0,093
-527,277	149,316	-0,012	0,012
-526,262	-117,529	0,102	0,013
-525,248	19,757	-0,196	0,116
-524,233	-142,797	0,055	0,004
-523,218	47,912	0,053	-0,036
-522,204	-112,285	0,026	-0,004
-521,189	-200,000	-0,008	0,040
-520,175	-139,800	-0,137	0,011
-519,160	67,593	0,041	0,031
-518,145	167,324	0,075	-0,078
-517,131	68,681	0,037	-0,028
-516,116	237,266	-0,038	0,047
-515,102	609,056	-0,080	-0,148
-514,087	-87,689	0,143	0,032
-513,072	513,071	0,040	-0,070
-512,058	-200,000	-0,014	-0,126
-511,043	-200,000	0,024	0,084
-510,029	-200,000	-0,011	-0,079
-509,014	800,000	-0,015	0,032
-507,999	-118,821	0,053	-0,007
-506,985	-200,000	-0,001	0,077
-505,970	35,434	0,009	0,005
-504,956	-200,000	-0,004	-0,018
-503,941	-99,249	0,157	0,029
-502,926	114,244	0,056	0,050
-501,912	-119,027	0,015	-0,002
-500,897	-200,000	0,004	0,052
-499,883	25,610	-0,114	0,070
-498,868	14,407	-0,065	-0,037
-497,853	317,711	-0,084	-0,118
-496,839	-200,000	-0,012	-0,054
-495,824	-78,942	0,150	-0,037
-494,810	-40,505	0,106	0,040
-493,795	800,000	0,045	-0,093
-492,781	474,222	0,034	-0,057
-491,766	-157,531	-0,062	0,003
-490,751	408,522	0,083	-0,130
-489,737	183,645	0,062	-0,067
-488,722	-78,712	0,035	-0,009
-487,708	36,855	0,065	0,042
-486,693	800,000	0,046	-0,093
-485,678	800,000	0,030	-0,071
-484,664	334,621	0,040	-0,057
-483,649	593,144	0,062	0,113
-482,635	-200,000	0,006	-0,157
-481,620	-22,495	-0,018	-0,008
-480,605	800,000	-0,008	-0,021
-479,591	-11,696	-0,155	0,075
-478,576	-43,768	-0,010	0,004
-477,562	-70,587	-0,057	0,016
-476,547	48,474	-0,143	-0,098
-475,532	-25,502	-0,100	-0,043
-474,518	149,705	0,021	-0,021
-473,503	-89,441	0,080	0,017
-472,489	-200,000	-0,022	0,126
-471,474	-168,854	-0,111	0,003
-470,459	-3,497	-0,073	-0,037
-469,445	263,222	-0,025	0,032
-468,430	800,000	-0,030	-0,062
-467,416	67,943	-0,042	0,032
-466,401	-95,661	0,232	-0,045
-465,386	21,580	-0,086	0,051
-464,372	-129,780	0,155	0,015
-463,357	444,957	-0,039	0,063
-462,343	-34,688	-0,015	-0,006
-461,328	284,985	-0,027	0,036
-460,313	-200,000	0,014	-0,060
-459,299	-200,000	0,024	0,119
-458,284	180,389	0,039	-0,043
-457,270	-200,000	0,017	0,099
-456,255	136,758	-0,051	-0,049
-455,241	-200,000	-0,011	-0,045
-454,226	12,221	0,112	-0,063
-453,211	-200,000	-0,010	0,034
-452,197	244,468	0,058	0,072
-451,182	3,390	0,062	0,033
-450,168	43,837	0,058	0,039
-449,153	-200,000	0,035	-0,197
-448,138	-194,063	0,116	0,001
-447,124	-112,243	-0,061	0,009
-446,109	144,942	-0,077	-0,076
-445,095	-200,000	0,016	-0,098
-444,080	94,177	0,032	0,027
-443,065	5,142	-0,024	-0,013
-442,051	-140,022	-0,106	0,008
-441,036	-118,821	-0,070	-0,009
-440,022	-91,434	-0,085	-0,018
-439,007	39,568	-0,208	-0,137
-437,992	-149,464	0,080	-0,005
-436,978	-200,000	0,005	-0,059
-435,963	-200,000	-0,016	-0,085
-434,949	-175,452	0,083	-0,002
-433,934	-200,000	-0,007	-0,032
-432,919	800,000	0,084	0,191
-431,905	-56,687	-0,084	-0,027
-430,890	80,934	-0,081	0,064
-429,876	800,000	0,037	0,105
-428,861	-161,645	0,199	-0,007
-427,846	533,276	0,035	0,061
-426,832	-128,461	-0,033	0,003
-425,817	-200,000	-0,001	0,012
-424,803	333,410	0,038	0,054
-423,788	469,582	0,057	0,095
-422,773	115,547	0,070	-0,063
-421,759	164,471	-0,065	0,068
-420,744	-200,000	0,001	-0,069
-419,730	70,030	-0,060	0,045
-418,715	-72,916	-0,022	-0,006
-417,701	329,033	-0,030	-0,042
-416,686	75,798	0,081	0,063
-415,671	505,244	0,045	0,077
-414,657	34,216	-0,016	0,010
-413,642	686,775	-0,048	-0,093
-412,628	53,808	-0,043	-0,030
-411,613	800,000	0,028	-0,088
-410,598	-200,000	-0,008	0,076
-409,584	-137,403	-0,023	0,002
-408,569	119,579	0,059	-0,054
-407,555	174,352	0,123	0,130
-406,540	405,255	-0,039	-0,061
-405,525	-95,863	-0,034	-0,007
-404,511	428,607	-0,071	-0,113
-403,496	-49,656	-0,117	0,041
-402,482	25,815	-0,121	0,074
-401,467	357,881	0,090	0,132
-400,452	-101,841	0,085	0,015
-399,438	800,000	0,026	-0,082
-398,423	629,252	0,053	0,099
-397,409	-57,228	0,042	-0,013
-396,394	-133,856	0,119	-0,011
-395,379	800,000	-0,035	0,072
-394,365	800,000	0,038	0,113
-393,350	-20,651	-0,044	0,020
-392,336	800,000	0,030	-0,062
-391,321	423,696	0,036	0,057
-390,306	29,927	-0,053	-0,033
-389,292	800,000	0,016	0,043
-388,277	-110,256	0,071	0,011
-387,263	334,643	0,042	0,059
-386,248	4,863	0,023	-0,012
-385,233	-200,000	0,039	0,129
-384,219	-111,307	-0,139	0,021
-383,204	-78,293	-0,114	0,028
-382,190	217,307	-0,032	0,037
-381,175	-55,429	0,017	-0,006
-380,160	800,000	-0,016	0,040
-379,146	-64,168	0,151	0,045
-378,131	-200,000	0,015	-0,145
-377,117	800,000	-0,041	0,105
-376,102	800,000	-0,038	0,090
-375,088	29,055	-0,053	0,033
-374,073	656,789	0,023	-0,044
-373,058	800,000	0,064	0,147
-372,044	-79,077	0,048	-0,012
-371,029	324,810	-0,057	0,080
-370,015	-14,929	-0,020	0,009
-369,000	69,712	-0,091	-0,069
-367,985	-115,200	-0,079	-0,011
-366,971	265,236	-0,056	-0,072
-365,956	-67,434	0,085	-0,024
-364,942	-101,259	0,015	0,003
-363,927	-18,061	0,037	-0,017
-362,912	-200,000	-0,011	0,081
-361,898	-200,000	-0,061	-0,216
-360,883	-42,428	0,061	-0,023
-359,869	-200,000	0,055	0,000
-358,854	800,000	0,053	0,164
-357,839	672,734	-0,036	-0,069
-356,825	-200,000	0,007	0,158
-355,810	-200,000	-0,004	-0,068
-354,796	133,237	-0,094	-0,089
-353,781	263,050	0,063	-0,080
-352,766	-6,937	-0,032	-0,016
-351,752	-200,000	0,014	-0,074
-350,737	-91,727	0,171	-0,035
-349,723	696,644	-0,045	0,087
-348,708	800,000	0,087	0,187
-347,693	315,273	-0,054	0,075
-346,679	158,530	-0,063	0,064
-345,664	388,666	-0,072	0,110
-344,650	8,226	-0,084	0,046
-343,635	6,347	0,039	0,021
-342,620	-71,137	-0,071	-0,020
-341,606	-200,000	0,016	0,140
-340,591	800,000	0,058	0,140
-339,577	800,000	0,070	0,162
-338,562	-200,000	-0,018	0,065
-337,548	-88,147	-0,060	0,013
-336,533	-101,473	0,170	0,030
-335,518	340,904	0,010	0,015
-334,504	-137,592	-0,072	0,006
-333,489	-200,000	-0,009	0,062
-332,475	7,959	-0,100	-0,055
-331,460	800,000	-0,034	0,083
-330,445	0,381	-0,052	-0,027
-329,431	-91,640	0,043	0,009
-328,416	52,295	0,183	0,128
-327,402	-200,000	-0,003	-0,016
-326,387	-200,000	0,004	0,026
-325,372	-200,000	-0,005	-0,225
-324,358	-9,073	0,038	0,019
-323,343	313,821	0,020	0,028
-322,329	800,000	-0,079	-0,189
-321,314	103,958	0,137	0,118
-320,299	106,292	0,065	0,056
-319,285	-24,112	-0,067	-0,029
-318,270	800,000	-0,049	0,108
-317,256	612,808	-0,057	-0,105
-316,241	641,982	0,035	-0,066
-315,226	-144,737	0,103	-0,007
-314,212	-31,849	0,059	-0,024
-313,197	-158,214	0,134	-0,006
-312,183	-200,000	-0,017	0,057
-311,168	433,556	-0,060	-0,097
-310,153	-200,000	0,012	-0,088
-309,139	-200,000	-0,011	-0,087
-308,124	800,000	-0,058	0,120
-307,110	-40,937	0,106	0,040
-306,095	150,269	0,128	0,128
-305,080	-200,000	0,013	0,106
-304,066	-200,000	0,024	0,101
-303,051	-200,000	-0,055	0,000
-302,037	-200,000	0,017	0,056
-301,022	800,000	0,001	-0,004
-300,008	-141,597	0,097	0,007
-298,993	-48,707	-0,027	-0,009
-297,978	800,000	0,044	0,101
-296,964	-113,269	-0,052	-0,007
-295,949	-166,580	0,031	-0,001
-294,935	-160,794	0,051	0,002
-293,920	43,203	0,046	-0,031
-292,905	86,411	0,050	-0,040
-291,891	-160,162	0,184	0,007
-290,876	-200,000	-0,000	-0,003
-289,862	69,735	0,094	-0,071
-288,847	-51,226	0,027	-0,009
-287,832	257,001	0,034	0,043
-286,818	800,000	-0,038	0,082
-285,803	-72,502	0,058	0,016
-284,789	-200,000	0,001	0,134
-283,774	800,000	0,038	0,081
-282,759	800,000	-0,003	-0,011
-281,745	800,000	-0,061	0,147
-280,730	-200,000	-0,005	-0,065
-279,716	413,789	-0,034	-0,054
-278,701	-145,592	0,087	-0,006
-277,686	800,000	0,047	0,147
-276,672	-28,899	-0,169	0,071
-275,657	-200,000	-0,007	0,053
-274,643	-200,000	-0,014	0,093
-273,628	88,972	-0,022	-0,018
-272,613	-50,527	0,140	-0,048
-271,599	-106,690	-0,114	-0,018
-270,584	273,518	0,068	-0,089
-269,570	-95,463	-0,067	-0,013
-268,555	110,440	-0,023	0,020
-267,540	236,760	-0,005	0,006
-266,526	-200,000	-0,004	-0,073
-265,511	-200,000	-0,007	-0,030
-264,497	-4,855	-0,012	0,006
-263,482	-200,000	0,017	0,060
-262,467	525,268	-0,003	-0,005
-261,453	800,000	-0,030	0,093
-260,438	800,000	-0,028	0,079
-259,424	133,781	0,057	-0,054
-258,409	387,751	0,045	0,068
-257,395	-77,436	-0,148	0,037
-256,380	266,777	0,063	0,081
-255,365	107,233	0,013	0,012
-254,351	472,943	0,042	-0,070
-253,336	350,250	0,046	0,066
-252,322	37,334	-0,076	0,049
-251,307	-200,000	-0,005	-0,095
-250,292	-94,957	-0,126	0,025
-249,278	48,636	-0,091	-0,062
-248,263	-200,000	0,038	0,130
-247,249	-73,463	-0,051	0,014
-246,234	13,133	-0,099	0,056
-245,219	4,369	-0,099	-0,053
-244,205	-200,000	0,002	-0,013
-243,190	1,878	-0,089	0,047
-242,176	114,124	0,079	0,071
-241,161	611,728	0,041	0,074
-240,146	-8,982	0,090	0,044
-239,132	534,803	-0,020	0,035
-238,117	-42,634	-0,083	0,031
-237,103	93,116	-0,099	0,082
-236,088	164,874	0,097	-0,100
-235,073	-200,000	0,007	0,038
-234,059	45,182	0,068	0,046
-233,044	-7,191	0,108	0,053
-232,030	-200,000	-0,028	-0,124
-231,015	469,755	-0,085	-0,140
-230,000	179,582	-0,124	-0,133
-228,986	-125,978	0,057	0,006
-227,971	-155,811	0,083	-0,004
-226,957	-200,000	-0,036	-0,174
-225,942	53,163	-0,137	-0,096
-224,927	180,325	-0,037	-0,039
-223,913	-26,019	-0,127	-0,054
-222,898	1,556	0,107	0,056
-221,884	800,000	0,078	-0,171
-220,869	169,153	0,068	-0,071
-219,855	-17,544	0,167	0,077
-218,840	800,000	0,108	0,233
-217,825	-40,473	-0,087	0,033
-216,811	800,000	0,048	-0,118
-215,796	-55,720	-0,084	-0,027
-214,782	375,645	-0,070	-0,105
-213,767	-200,000	0,080	0,000
-212,752	800,000	0,014	0,038
-211,738	-200,000	-0,002	0,097
-210,723	-200,000	-0,014	0,144
-209,709	200,319	-0,029	-0,033
-208,694	75,432	-0,135	0,104
-207,679	-200,000	0,003	0,122
-206,665	56,780	0,051	0,036
-205,650	497,087	0,050	0,085
-204,636	185,666	-0,051	0,055
-203,621	49,794	-0,021	-0,015
-202,606	-53,936	-0,040	-0,013
-201,592	800,000	0,017	0,040
-200,577	14,225	-0,012	0,007
-199,563	194,536	0,046	0,051
-198,548	571,784	0,035	0,062
-197,533	-200,000	0,008	0,049
-196,519	186,109	-0,070	-0,076
-195,504	-66,901	-0,071	-0,020
-194,490	123,170	0,033	-0,030
-193,475	-22,923	0,166	-0,073
-192,460	800,000	0,040	0,122
-191,446	-83,482	-0,142	0,033
-190,431	-152,510	0,069	-0,004
-189,417	-9,232	-0,075	-0,036
-188,402	120,828	0,031	-0,028
-187,387	-200,000	0,022	-0,107
-186,373	-3,664	-0,138	0,070
-185,358	13,003	0,038	-0,021
-184,344	104,775	-0,051	-0,044
-183,329	-119,884	0,097	-0,012
-182,315	-200,000	-0,014	-0,106
-181,300	800,000	-0,033	0,068
-180,285	-58,941	-0,108	-0,034
-179,271	-61,791	-0,057	-0,017
-178,256	-112,666	-0,008	-0,001
-177,242	800,000	-0,009	-0,024
-176,227	-160,889	0,053	0,002
-175,212	-200,000	-0,012	-0,050
-174,198	-200,000	0,010	-0,086
-173,183	-154,903	-0,068	0,003
-172,169	381,313	0,043	-0,065
-171,154	-200,000	-0,018	-0,087
-170,139	170,848	0,103	-0,108
-169,125	-93,349	0,061	0,012
-168,110	172,862	0,062	0,065
-167,096	155,244	-0,061	0,061
-166,081	-200,000	0,042	-0,139
-165,066	147,034	-0,099	-0,097
-164,052	34,844	-0,035	-0,022
-163,037	-24,916	0,055	-0,024
-162,023	800,000	-0,026	-0,067
-161,008	174,871	0,085	0,089
-159,993	-0,104	-0,078	-0,040
-158,979	324,149	-0,064	-0,090
-157,964	35,658	0,027	0,017
-156,950	-40,815	0,059	0,022
-155,935	-200,000	0,019	0,103
-154,920	-1,228	-0,062	0,032
-153,906	28,483	0,061	-0,037
-152,891	341,121	0,043	0,062
-151,877	60,301	-0,050	0,036
-150,862	45,144	-0,091	-0,061
-149,847	-106,700	0,093	-0,015
-148,833	23,402	0,041	0,024
-147,818	-200,000	-0,003	0,016
-146,804	800,000	0,037	0,082
-145,789	-200,000	0,008	-0,103
-144,775	-200,000	-0,007	-0,038
-143,760	800,000	-0,055	-0,130
-142,745	79,465	0,109	0,085
-141,731	-125,552	-0,099	0,011
-140,716	-3,797	0,063	0,032
-139,702	-200,000	0,004	0,013
-138,687	800,000	-0,014	0,039
-137,672	-200,000	0,016	-0,052
-136,658	-200,000	-0,006	0,069
-135,643	-12,812	-0,146	0,069
-134,629	-200,000	0,003	-0,013
-133,614	-89,191	0,070	0,015
-132,599	128,782	0,061	0,056
-131,585	-138,282	-0,109	0,009
-130,570	242,707	0,035	0,043
-129,556	-49,641	0,054	-0,019
-128,541	-200,000	-0,013	-0,194
-127,526	-44,596	0,196	0,071
-126,512	-0,391	0,058	0,030
-125,497	63,144	0,144	0,105
-124,483	-200,000	-0,009	0,158
-123,468	-200,000	0,009	-0,096
-122,453	-200,000	0,011	0,041
-121,439	128,262	-0,039	0,036
-120,424	800,000	0,024	-0,056
-119,410	-133,185	0,070	-0,006
-118,395	179,605	-0,090	-0,096
