DTS Sentinel unit serial number:	SN410029Multiplexer serial number:	ORYXHardware model number:	OX2-SRSoftware version number:	ORYX F/W v4,00 Oryx Data Collector v3.7.2.0data status	okinstallation	B4 Nyhavnadifferential loss correction	single-endedforward channel	channel 2reverse channel	N/Adate	2023/12/16time	12:30:13forward acquisition time	300,00reverse acquisition time	0,00gamma	499,1914k internal	0,3126k external	0,3126temperature offset calibration	1,0000default loss term (dB/km)	0,3820temperature slope calibration	1,0000multiplexer offset coefficient	1,0000multiplexer slope coefficient	1,0000fibre end	0,00T internal ref (°C)	24,11T ext. ref 1 (°C)	10,20T ext. ref 2 (°C)	10,35length (m)	temperature (°C)	Stokes	anti-Stokes-744,400	235,750	0,013	0,015
-743,385	-73,399	-0,257	0,069
-742,371	87,963	0,059	0,048
-741,356	800,000	-0,131	0,278
-740,342	374,576	0,048	-0,073
-739,327	171,923	-0,095	0,102
-738,312	-43,401	0,175	-0,065
-737,298	-80,166	-0,150	0,037
-736,283	242,332	-0,014	0,017
-735,269	-200,000	0,009	0,235
-734,254	-200,000	-0,003	-0,091
-733,239	-124,039	-0,335	-0,039
-732,225	-48,353	0,139	0,050
-731,210	61,309	-0,023	-0,017
-730,196	439,033	0,074	-0,121
-729,181	-89,713	-0,090	0,019
-728,167	120,645	-0,079	-0,073
-727,152	234,525	-0,039	0,048
-726,137	274,727	-0,078	0,103
-725,123	800,000	-0,039	0,095
-724,108	-70,499	0,053	0,015
-723,094	311,811	-0,069	-0,097
-722,079	-200,000	0,032	-0,154
-721,064	-41,892	-0,057	-0,022
-720,050	-110,121	-0,080	0,012
-719,035	-200,000	-0,000	0,023
-718,021	17,737	0,032	0,019
-717,006	16,258	0,100	-0,059
-715,991	800,000	-0,028	-0,077
-714,977	20,789	-0,040	0,024
-713,962	286,977	0,052	0,070
-712,948	-134,438	-0,235	-0,021
-711,933	238,249	-0,073	-0,090
-710,918	453,650	0,030	0,049
-709,904	63,847	-0,075	-0,056
-708,889	800,000	-0,053	-0,134
-707,875	-64,778	-0,210	-0,063
-706,860	32,276	0,167	0,107
-705,845	41,201	-0,112	0,075
-704,831	800,000	0,011	0,032
-703,816	217,932	-0,082	0,097
-702,802	8,622	-0,066	-0,037
-701,787	11,483	-0,124	-0,070
-700,772	182,303	-0,078	-0,086
-699,758	-109,982	0,057	-0,009
-698,743	-200,000	0,002	0,036
-697,729	68,630	0,117	0,089
-696,714	-122,439	-0,169	-0,020
-695,699	291,012	-0,101	-0,136
-694,685	-19,899	-0,058	0,027
-693,670	-200,000	0,004	-0,140
-692,656	329,521	-0,029	-0,042
-691,641	800,000	-0,031	-0,092
-690,627	-53,831	0,066	0,022
-689,612	258,619	0,037	-0,048
-688,597	-17,629	-0,116	0,054
-687,583	-200,000	0,006	-0,044
-686,568	-200,000	-0,030	-0,109
-685,554	-142,272	0,174	-0,013
-684,539	-32,204	-0,123	0,051
-683,524	471,239	0,036	0,060
-682,510	339,450	-0,011	-0,015
-681,495	755,770	-0,051	-0,103
-680,481	231,722	-0,094	-0,115
-679,466	207,133	-0,088	-0,102
-678,451	47,804	-0,034	-0,023
-677,437	-200,000	-0,002	0,049
-676,422	800,000	0,038	-0,118
-675,408	130,024	-0,037	-0,036
-674,393	-200,000	-0,001	0,009
-673,378	-62,565	0,027	0,008
-672,364	-200,000	-0,012	-0,115
-671,349	800,000	-0,014	0,044
-670,335	44,734	-0,090	0,061
-669,320	-200,000	0,003	-0,039
-668,305	195,349	0,088	0,099
-667,291	291,364	0,023	-0,032
-666,276	-200,000	0,030	-0,108
-665,262	37,045	-0,113	-0,074
-664,247	800,000	-0,053	-0,127
-663,232	437,549	0,075	0,122
-662,218	-200,000	-0,008	0,301
-661,203	174,405	0,014	-0,015
-660,189	800,000	-0,003	0,007
-659,174	-80,466	-0,062	-0,015
-658,159	800,000	0,054	-0,113
-657,145	-38,064	-0,060	0,024
-656,130	258,661	0,067	-0,086
-655,116	-100,087	0,117	-0,021
-654,101	-106,927	0,174	0,028
-653,086	-177,256	0,094	-0,002
-652,072	800,000	-0,018	0,044
-651,057	-43,282	-0,199	-0,074
-650,043	595,892	-0,057	-0,105
-649,028	-200,000	-0,018	-0,072
-648,014	-200,000	0,019	0,093
-646,999	-200,000	-0,013	0,072
-645,984	59,219	-0,082	-0,060
-644,970	372,707	-0,053	-0,081
-643,955	23,937	-0,030	-0,018
-642,941	-54,754	0,059	0,020
-641,926	502,768	-0,051	-0,088
-640,911	800,000	0,008	-0,019
-639,897	-181,502	0,103	0,001
-638,882	800,000	-0,028	0,079
-637,868	-26,908	-0,105	-0,045
-636,853	-200,000	-0,005	-0,028
-635,838	-97,984	-0,067	0,013
-634,824	-69,969	-0,168	-0,047
-633,809	165,596	0,014	0,015
-632,795	-116,680	-0,099	0,013
-631,780	149,237	-0,062	-0,062
-630,765	800,000	0,025	0,060
-629,751	-100,668	0,022	0,004
-628,736	-66,022	0,068	0,020
-627,722	-200,000	-0,013	0,192
-626,707	-200,000	-0,005	0,117
-625,692	49,678	0,044	0,031
-624,678	15,591	-0,079	0,046
-623,663	-133,097	-0,037	-0,003
-622,649	-79,534	0,005	-0,001
-621,634	578,864	-0,059	-0,107
-620,619	341,075	-0,093	0,135
-619,605	304,693	0,101	0,139
-618,590	-200,000	-0,016	0,137
-617,576	-32,792	-0,026	-0,011
-616,561	-39,094	0,076	0,029
-615,546	-200,000	-0,052	-0,184
-614,532	-200,000	-0,021	-0,073
-613,517	-98,542	-0,110	-0,021
-612,503	-37,305	0,018	0,007
-611,488	-200,000	-0,001	-0,012
-610,474	800,000	-0,021	-0,046
-609,459	800,000	0,020	-0,046
-608,444	14,923	-0,077	-0,045
-607,430	800,000	0,006	-0,012
-606,415	-29,869	-0,079	0,033
-605,401	-200,000	-0,049	-0,171
-604,386	800,000	-0,047	-0,118
-603,371	-79,119	-0,083	0,021
-602,357	800,000	0,011	-0,035
-601,342	-114,391	-0,155	-0,022
-600,328	785,265	-0,026	0,053
-599,313	-65,170	-0,045	-0,013
-598,298	-12,229	0,024	0,011
-597,284	245,010	-0,041	-0,051
-596,269	116,952	-0,086	0,079
-595,255	-200,000	-0,004	0,050
-594,240	-22,356	-0,115	0,051
-593,225	-63,742	0,138	-0,042
-592,211	-200,000	0,001	-0,048
-591,196	-181,269	0,200	-0,003
-590,182	392,891	-0,050	0,077
-589,167	39,894	0,092	0,061
-588,152	-200,000	0,020	0,093
-587,138	-3,774	-0,017	-0,009
-586,123	-200,000	-0,026	-0,091
-585,109	136,995	-0,029	0,028
-584,094	800,000	-0,042	-0,116
-583,079	235,710	-0,075	-0,091
-582,065	-59,481	0,161	-0,051
-581,050	307,846	0,039	0,054
-580,036	-17,534	-0,058	0,027
-579,021	-200,000	-0,028	0,125
-578,006	-200,000	-0,009	-0,144
-576,992	-183,398	0,108	-0,001
-575,977	-200,000	-0,010	-0,053
-574,963	-200,000	0,051	-0,213
-573,948	-200,000	-0,007	0,036
-572,934	-81,915	-0,132	0,032
-571,919	661,218	0,037	-0,072
-570,904	-200,000	-0,001	0,018
-569,890	-200,000	0,001	-0,062
-568,875	-112,501	0,033	-0,005
-567,861	65,345	0,025	0,019
-566,846	357,277	-0,040	-0,059
-565,831	225,135	-0,051	-0,062
-564,817	366,550	-0,049	-0,074
-563,802	-169,177	-0,154	0,004
-562,788	-138,347	-0,053	-0,004
-561,773	52,669	0,045	-0,032
-560,758	-131,037	0,123	0,012
-559,744	206,191	-0,045	0,052
-558,729	92,264	0,045	0,038
-557,715	331,589	0,069	0,099
-556,700	331,428	-0,036	-0,052
-555,685	-18,477	0,030	-0,014
-554,671	-54,398	0,105	0,035
-553,656	294,461	0,053	0,071
-552,642	9,794	-0,067	-0,038
-551,627	-200,000	-0,005	0,229
-550,612	183,189	-0,043	-0,047
-549,598	-200,000	0,006	-0,037
-548,583	-164,253	0,122	-0,004
-547,569	180,232	-0,028	-0,030
-546,554	-13,806	0,022	0,011
-545,539	800,000	-0,022	0,050
-544,525	98,812	0,074	0,063
-543,510	-30,852	-0,203	-0,085
-542,496	-165,961	0,117	0,004
-541,481	265,062	-0,036	-0,047
-540,466	86,423	0,034	-0,028
-539,452	-45,500	-0,018	0,006
-538,437	-8,041	0,085	0,042
-537,423	-200,000	-0,013	0,104
-536,408	-18,956	-0,049	0,022
-535,393	10,648	-0,016	0,009
-534,379	800,000	-0,031	0,072
-533,364	352,630	-0,033	0,048
-532,350	-200,000	-0,000	0,094
-531,335	-200,000	0,000	-0,063
-530,321	-200,000	0,002	-0,029
-529,306	773,077	0,061	-0,124
-528,291	-44,906	0,037	0,014
-527,277	-200,000	-0,007	0,075
-526,262	-29,315	0,062	-0,026
-525,248	376,444	0,082	0,124
-524,233	-200,000	-0,000	-0,002
-523,218	16,256	0,078	0,045
-522,204	-200,000	-0,014	0,066
-521,189	-200,000	0,014	-0,086
-520,175	8,849	-0,080	-0,045
-519,160	-27,124	-0,065	-0,028
-518,145	-25,103	0,091	0,040
-517,131	-155,823	0,125	-0,006
-516,116	-17,824	0,218	0,100
-515,102	264,474	0,049	-0,063
-514,087	116,726	-0,104	-0,094
-513,072	432,689	-0,030	-0,049
-512,058	-200,000	-0,005	-0,031
-511,043	25,396	0,018	-0,011
-510,029	72,567	0,052	-0,040
-509,014	437,970	-0,031	-0,050
-507,999	-12,358	-0,012	0,006
-506,985	-11,272	0,074	0,036
-505,970	800,000	-0,044	-0,103
-504,956	-200,000	-0,007	-0,107
-503,941	-137,686	0,149	0,012
-502,926	277,198	0,031	-0,040
-501,912	647,128	0,023	0,043
-500,897	158,138	-0,109	-0,112
-499,883	276,382	0,069	-0,091
-498,868	-41,933	-0,075	-0,028
-497,853	-139,513	-0,038	-0,003
-496,839	-56,898	0,060	-0,020
-495,824	-200,000	0,040	0,218
-494,810	190,755	-0,047	0,053
-493,795	-200,000	0,007	0,169
-492,781	-70,326	0,075	0,021
-491,766	258,944	-0,032	-0,040
-490,751	152,374	0,030	0,031
-489,737	-128,216	0,116	-0,012
-488,722	800,000	0,025	0,074
-487,708	432,070	-0,052	-0,083
-486,693	162,831	0,069	0,072
-485,678	-131,045	-0,062	-0,006
-484,664	800,000	-0,013	0,031
-483,649	800,000	-0,018	-0,052
-482,635	-140,583	-0,055	0,004
-481,620	269,646	-0,041	-0,053
-480,605	-200,000	0,005	-0,102
-479,591	-200,000	0,013	0,140
-478,576	800,000	-0,021	0,063
-477,562	284,639	-0,060	-0,080
-476,547	211,895	-0,123	-0,143
-475,532	-128,026	0,137	-0,014
-474,518	-125,761	-0,059	0,007
-473,503	-200,000	0,017	-0,078
-472,489	166,760	0,103	0,108
-471,474	39,720	-0,077	-0,051
-470,459	-90,759	0,105	0,022
-469,445	706,015	-0,032	-0,063
-468,430	-35,817	-0,079	-0,031
-467,416	107,950	-0,049	-0,043
-466,401	50,591	0,040	-0,028
-465,386	131,455	-0,132	-0,125
-464,372	91,965	0,057	0,047
-463,357	800,000	-0,035	-0,073
-462,343	4,997	-0,058	-0,031
-461,328	800,000	0,004	-0,013
-460,313	563,199	0,029	-0,052
-459,299	609,695	0,065	0,119
-458,284	-15,861	0,106	0,050
-457,270	-200,000	0,013	0,089
-456,255	107,882	-0,062	-0,055
-455,241	421,156	0,021	-0,033
-454,226	-200,000	0,000	-0,004
-453,211	-159,554	-0,061	-0,002
-452,197	26,707	-0,081	0,050
-451,182	-200,000	0,049	0,158
-450,168	-200,000	0,003	0,173
-449,153	355,177	-0,044	0,064
-448,138	257,913	-0,056	-0,071
-447,124	800,000	-0,036	-0,082
-446,109	176,021	-0,012	-0,013
-445,095	-107,420	0,044	-0,007
-444,080	800,000	0,066	-0,162
-443,065	69,423	0,061	0,046
-442,051	800,000	0,012	-0,026
-441,036	59,450	-0,146	-0,106
-440,022	-200,000	0,046	0,150
-439,007	555,797	0,044	0,079
-437,992	-200,000	0,025	0,130
-436,978	11,586	0,089	0,050
-435,963	800,000	0,016	-0,048
-434,949	-200,000	0,005	0,022
-433,934	292,594	-0,064	0,087
-432,919	-200,000	0,005	-0,156
-431,905	271,784	0,095	-0,123
-430,890	-41,408	-0,040	0,015
-429,876	800,000	0,079	0,243
-428,861	-200,000	-0,022	0,153
-427,846	181,831	0,040	0,043
-426,832	-200,000	0,014	-0,049
-425,817	-76,509	-0,055	0,014
-424,803	753,616	0,009	0,017
-423,788	747,442	-0,065	0,129
-422,773	175,631	0,070	0,074
-421,759	-183,177	0,096	0,001
-420,744	-200,000	0,015	0,124
-419,730	51,715	-0,145	-0,101
-418,715	286,010	0,106	0,141
-417,701	-68,667	-0,037	-0,011
-416,686	133,469	-0,101	0,096
-415,671	-115,978	0,074	0,010
-414,657	316,002	-0,146	0,203
-413,642	-62,837	0,220	0,067
-412,628	800,000	-0,015	-0,039
-411,613	-166,835	-0,130	-0,004
-410,598	6,127	-0,041	-0,022
-409,584	-42,701	0,039	-0,015
-408,569	-200,000	-0,032	0,169
-407,555	-72,110	-0,118	0,032
-406,540	534,812	-0,054	0,095
-405,525	800,000	-0,032	-0,077
-404,511	-200,000	-0,002	-0,041
-403,496	-200,000	0,015	0,078
-402,482	18,532	0,062	-0,036
-401,467	134,598	-0,064	0,061
-400,452	800,000	0,033	0,094
-399,438	-200,000	0,006	0,056
-398,423	122,308	-0,059	0,054
-397,409	-43,080	-0,130	-0,048
-396,394	745,490	-0,040	-0,079
-395,379	58,206	0,159	-0,114
-394,365	-85,267	0,116	0,026
-393,350	-92,109	-0,048	-0,010
-392,336	222,068	0,036	-0,043
-391,321	1,111	-0,118	0,062
-390,306	129,792	-0,017	-0,016
-389,292	800,000	-0,025	-0,057
-388,277	-200,000	0,020	-0,114
-387,263	800,000	0,016	0,046
-386,248	-35,416	-0,166	0,066
-385,233	31,586	0,084	0,053
-384,219	800,000	0,031	-0,083
-383,204	78,727	-0,067	-0,053
-382,190	-200,000	0,007	-0,102
-381,175	-200,000	-0,010	-0,114
-380,160	-200,000	0,029	-0,174
-379,146	-136,385	-0,004	0,000
-378,131	-200,000	0,030	0,118
-377,117	-153,726	0,100	-0,005
-376,102	800,000	-0,067	-0,179
-375,088	-110,270	0,025	0,004
-374,073	93,691	0,043	-0,036
-373,058	302,690	-0,048	-0,065
-372,044	1,216	0,015	0,008
-371,029	-200,000	0,007	-0,026
-370,015	-59,194	-0,064	0,020
-369,000	800,000	0,040	-0,117
-367,985	-148,416	-0,015	0,001
-366,971	-123,065	0,093	0,011
-365,956	4,675	-0,065	-0,035
-364,942	74,469	0,067	0,052
-363,927	262,376	0,058	0,074
-362,912	-77,573	-0,059	-0,015
-361,898	47,257	-0,169	-0,115
-360,883	-38,763	-0,108	-0,042
-359,869	-81,997	-0,136	-0,032
-358,854	-128,856	0,020	0,002
-357,839	-200,000	0,007	-0,053
-356,825	-200,000	-0,006	-0,054
-355,810	272,339	-0,029	0,037
-354,796	-117,767	0,078	0,010
-353,781	-94,836	-0,194	0,038
-352,766	50,161	0,100	-0,069
-351,752	0,331	0,092	0,048
-350,737	-200,000	-0,002	0,070
-349,723	-48,605	0,091	0,032
-348,708	800,000	-0,019	0,058
-347,693	-187,895	0,110	0,001
-346,679	70,645	-0,088	0,066
-345,664	516,513	0,028	0,047
-344,650	800,000	-0,010	-0,026
-343,635	658,249	0,057	0,109
-342,620	-16,056	0,109	0,050
-341,606	300,451	-0,027	0,037
-340,591	-200,000	-0,000	0,032
-339,577	170,478	-0,142	-0,149
-338,562	-200,000	0,045	-0,157
-337,548	186,653	0,066	0,072
-336,533	74,499	0,169	0,130
-335,518	-21,008	-0,015	-0,007
-334,504	100,616	0,095	0,081
-333,489	396,616	-0,042	-0,064
-332,475	47,974	0,082	-0,056
-331,460	-200,000	0,009	-0,081
-330,445	24,351	-0,052	-0,031
-329,431	374,125	0,079	0,118
-328,416	260,469	0,060	-0,076
-327,402	75,152	-0,033	0,025
-326,387	702,087	0,048	0,093
-325,372	-200,000	-0,001	0,148
-324,358	-200,000	-0,007	-0,101
-323,343	314,053	0,079	-0,109
-322,329	-200,000	0,010	0,064
-321,314	-12,920	-0,160	0,076
-320,299	800,000	0,053	-0,155
-319,285	-5,941	0,075	0,038
-318,270	-100,155	-0,050	0,009
-317,256	-67,529	0,015	0,004
-316,241	-100,019	-0,094	0,017
-315,226	-200,000	0,011	0,064
-314,212	693,172	0,085	0,164
-313,197	800,000	0,088	0,200
-312,183	-115,507	-0,075	0,010
-311,168	-6,264	-0,059	-0,029
-310,153	49,397	-0,067	-0,046
-309,139	-110,721	0,103	-0,015
-308,124	-200,000	-0,008	-0,101
-307,110	-200,000	0,028	0,093
-306,095	-70,527	0,054	-0,015
-305,080	29,748	0,125	-0,078
-304,066	-200,000	-0,006	-0,038
-303,051	660,347	0,040	0,075
-302,037	-200,000	-0,007	0,163
-301,022	195,548	0,034	-0,038
-300,008	-200,000	0,006	-0,060
-298,993	800,000	-0,016	-0,047
-297,978	-200,000	-0,003	-0,066
-296,964	445,459	-0,083	-0,134
-295,949	192,469	-0,024	-0,027
-294,935	800,000	0,008	-0,018
-293,920	-111,712	-0,077	0,011
-292,905	5,336	0,102	-0,055
-291,891	-200,000	0,007	0,095
-290,876	6,845	0,105	0,057
-289,862	-48,953	0,096	0,033
-288,847	136,407	-0,140	0,134
-287,832	-133,021	0,052	-0,005
-286,818	-200,000	0,014	0,051
-285,803	-200,000	0,000	0,128
-284,789	29,277	0,080	0,050
-283,774	219,350	-0,053	-0,062
-282,759	-112,507	0,088	-0,013
-281,745	293,706	-0,041	-0,055
-280,730	800,000	0,030	-0,070
-279,716	-72,079	0,105	0,028
-278,701	-3,811	0,110	-0,056
-277,686	800,000	0,016	0,052
-276,672	548,526	0,062	0,110
-275,657	-143,099	-0,036	0,003
-274,643	61,674	-0,141	0,103
-273,628	-161,816	0,054	0,002
-272,613	800,000	-0,054	-0,156
-271,599	176,984	0,127	0,135
-270,584	800,000	0,020	-0,054
-269,570	800,000	-0,040	0,111
-268,555	319,097	0,035	-0,049
-267,540	800,000	-0,038	0,104
-266,526	27,567	-0,035	-0,022
-265,511	50,248	0,038	-0,026
-264,497	60,813	0,094	0,068
-263,482	325,866	0,029	-0,041
-262,467	277,467	-0,037	-0,048
-261,453	800,000	-0,018	-0,045
-260,438	153,761	0,034	-0,034
-259,424	800,000	-0,056	-0,121
-258,409	714,435	-0,080	-0,155
-257,395	-188,080	-0,110	0,001
-256,380	800,000	0,046	0,099
-255,365	116,892	0,104	0,093
-254,351	800,000	0,010	0,026
-253,336	-39,952	-0,122	0,046
-252,322	-200,000	-0,034	0,130
-251,307	-93,105	0,056	0,011
-250,292	221,771	-0,045	-0,053
-249,278	293,877	0,031	-0,042
-248,263	-200,000	0,144	0,000
-247,249	-133,902	0,190	-0,017
-246,234	189,926	-0,046	-0,050
-245,219	800,000	-0,026	-0,072
-244,205	-148,377	0,144	0,008
-243,190	12,861	0,103	0,058
-242,176	-77,766	0,107	0,027
-241,161	-9,273	0,128	0,062
-240,146	13,132	-0,042	-0,024
-239,132	35,997	0,125	0,080
-238,117	283,993	0,016	-0,021
-237,103	-3,450	0,061	-0,031
-236,088	-200,000	-0,014	0,091
-235,073	800,000	-0,013	-0,039
-234,059	456,994	-0,048	0,079
-233,044	18,645	-0,136	0,079
-232,030	140,203	0,028	0,027
-231,015	-200,000	-0,013	0,087
-230,000	469,702	-0,068	-0,111
-228,986	81,625	-0,062	-0,049
-227,971	588,242	0,050	-0,090
-226,957	-200,000	0,005	0,030
-225,942	-133,292	-0,033	-0,003
-224,927	-200,000	-0,015	-0,078
-223,913	9,604	-0,090	-0,050
-222,898	483,935	0,075	-0,124
-221,884	-200,000	-0,006	0,065
-220,869	-200,000	-0,001	0,068
-219,855	477,817	-0,065	0,108
-218,840	140,533	0,036	0,034
-217,825	-200,000	-0,026	-0,150
-216,811	-163,441	-0,170	-0,006
-215,796	800,000	-0,032	-0,079
-214,782	800,000	-0,025	-0,076
-213,767	751,248	-0,044	0,087
-212,752	800,000	-0,027	0,055
-211,738	307,335	0,081	0,110
-210,723	-130,220	-0,134	0,013
-209,709	-200,000	0,014	0,066
-208,694	430,805	0,077	-0,121
-207,679	800,000	-0,055	0,116
-206,665	416,273	-0,012	0,018
-205,650	-200,000	-0,006	-0,086
-204,636	-200,000	0,048	0,161
-203,621	359,622	0,034	0,050
-202,606	6,762	-0,140	-0,076
-201,592	-70,807	-0,209	0,057
-200,577	-148,879	0,086	0,005
-199,563	-200,000	0,006	-0,060
-198,548	720,966	-0,016	-0,032
-197,533	800,000	0,039	0,125
-196,519	80,209	0,088	0,069
-195,504	55,886	-0,062	0,043
-194,490	800,000	-0,093	-0,202
-193,475	-85,701	-0,033	0,007
-192,460	800,000	0,030	-0,090
-191,446	-200,000	0,013	-0,081
-190,431	140,203	0,020	0,019
-189,417	227,926	0,034	0,041
-188,402	596,445	-0,050	0,090
-187,387	800,000	-0,053	-0,118
-186,373	-200,000	0,006	-0,160
-185,358	800,000	-0,042	-0,114
-184,344	259,841	-0,029	-0,037
-183,329	476,292	0,030	-0,049
-182,315	800,000	0,016	-0,050
-181,300	-53,936	0,067	-0,022
-180,285	800,000	-0,021	-0,065
-179,271	199,119	-0,052	-0,058
-178,256	235,589	0,013	-0,016
-177,242	69,457	0,075	-0,057
-176,227	-18,239	0,114	0,052
-175,212	-80,930	-0,060	0,014
-174,198	-94,922	-0,119	0,023
-173,183	349,341	-0,054	0,077
-172,169	-200,000	-0,004	-0,087
-171,154	-200,000	-0,009	0,038
-170,139	253,887	0,027	-0,034
-169,125	-200,000	0,005	0,027
-168,110	52,820	-0,056	0,039
-167,096	-200,000	0,038	-0,159
-166,081	800,000	-0,054	-0,123
-165,066	-200,000	0,012	0,059
-164,052	-152,082	0,091	-0,005
-163,037	377,703	0,071	-0,106
-162,023	-200,000	0,003	0,143
-161,008	43,991	0,015	0,010
-159,993	625,648	-0,093	-0,171
-158,979	-200,000	-0,000	-0,124
-157,964	174,353	-0,009	0,010
-156,950	-77,078	-0,111	-0,028
-155,935	800,000	0,050	-0,127
-154,920	-200,000	-0,007	0,031
-153,906	-2,802	0,095	0,048
-152,891	108,105	-0,059	-0,051
-151,877	-122,567	0,158	0,018
-150,862	385,776	-0,005	-0,008
-149,847	259,088	-0,029	0,036
-148,833	480,064	0,056	-0,092
-147,818	527,006	0,062	0,106
-146,804	-200,000	-0,003	0,101
-145,789	-125,722	-0,091	-0,010
-144,775	-200,000	0,013	-0,065
-143,760	-200,000	0,015	-0,093
-142,745	216,174	-0,074	-0,086
-141,731	-43,703	-0,056	0,021
-140,716	339,471	-0,050	0,071
-139,702	710,510	-0,036	0,070
-138,687	-200,000	-0,004	0,049
-137,672	-139,767	0,056	-0,004
-136,658	-200,000	0,022	0,090
-135,643	-200,000	-0,005	-0,097
-134,629	10,839	0,072	-0,040
-133,614	-188,461	0,119	-0,001
-132,599	-108,263	0,075	-0,012
-131,585	-27,437	-0,094	-0,039
-130,570	-35,209	0,054	0,021
-129,556	-88,176	-0,093	-0,020
-128,541	800,000	0,012	-0,036
-127,526	-200,000	0,011	0,065
-126,512	595,180	-0,052	-0,094
-125,497	-8,328	0,105	0,051
-124,483	4,251	-0,026	-0,014
-123,468	784,101	-0,047	0,094
-122,453	203,473	0,033	-0,037
-121,439	219,698	0,015	-0,017
-120,424	58,282	-0,133	-0,095
-119,410	31,102	0,235	-0,146
