DTS Sentinel unit serial number:	SN410029Multiplexer serial number:	ORYXHardware model number:	OX2-SRSoftware version number:	ORYX F/W v4,00 Oryx Data Collector v3.7.2.0data status	okinstallation	B4 Nyhavnadifferential loss correction	single-endedforward channel	channel 2reverse channel	N/Adate	2023/12/16time	08:20:13forward acquisition time	300,00reverse acquisition time	0,00gamma	499,1914k internal	0,3127k external	0,3127temperature offset calibration	1,0000default loss term (dB/km)	0,3820temperature slope calibration	1,0000multiplexer offset coefficient	1,0000multiplexer slope coefficient	1,0000fibre end	0,00T internal ref (°C)	22,50T ext. ref 1 (°C)	8,34T ext. ref 2 (°C)	8,49length (m)	temperature (°C)	Stokes	anti-Stokes-744,400	400,054	0,037	-0,058
-743,385	92,531	-0,095	0,080
-742,371	75,396	0,061	0,048
-741,356	800,000	-0,085	0,192
-740,342	-200,000	0,016	0,160
-739,327	-183,463	-0,317	0,004
-738,312	800,000	-0,063	-0,140
-737,298	49,949	-0,246	0,173
-736,283	-200,000	0,033	-0,164
-735,269	237,216	-0,086	0,106
-734,254	-51,053	0,084	-0,029
-733,239	1,136	-0,396	-0,211
-732,225	-34,722	0,135	-0,055
-731,210	-185,699	0,031	-0,000
-730,196	-200,000	0,000	-0,014
-729,181	-75,849	-0,075	-0,020
-728,167	-89,149	0,121	-0,026
-727,152	-111,548	-0,123	0,018
-726,137	-32,768	-0,129	-0,053
-725,123	-200,000	0,001	0,075
-724,108	-80,638	-0,153	0,038
-723,094	324,399	-0,093	-0,132
-722,079	-200,000	0,019	-0,106
-721,064	-58,950	-0,198	0,063
-720,050	106,298	-0,044	-0,039
-719,035	-19,337	0,032	0,015
-718,021	334,388	0,054	-0,078
-717,006	187,814	-0,071	0,079
-715,991	-83,101	-0,098	-0,023
-714,977	-200,000	-0,010	-0,077
-713,962	592,159	-0,048	-0,088
-712,948	-107,096	0,077	-0,013
-711,933	-39,792	-0,160	0,062
-710,918	-54,684	-0,099	-0,033
-709,904	-200,000	-0,008	0,065
-708,889	-4,043	-0,089	0,046
-707,875	800,000	-0,022	0,066
-706,860	395,464	0,029	0,045
-705,845	-73,762	0,088	0,024
-704,831	-200,000	0,008	-0,034
-703,816	-31,154	-0,155	0,065
-702,802	102,827	0,047	0,040
-701,787	-166,486	-0,075	-0,002
-700,772	-200,000	-0,017	-0,108
-699,758	163,183	0,068	-0,071
-698,743	800,000	-0,022	-0,047
-697,729	438,926	-0,050	0,082
-696,714	126,545	0,055	-0,051
-695,699	182,095	0,111	-0,121
-694,685	74,238	0,026	-0,021
-693,670	-200,000	0,012	-0,163
-692,656	430,375	0,041	-0,066
-691,641	632,193	-0,028	0,054
-690,627	23,685	0,147	0,090
-689,612	79,715	-0,026	-0,021
-688,597	99,185	0,024	-0,021
-687,583	-103,314	-0,166	0,029
-686,568	-11,577	-0,038	0,018
-685,554	612,538	0,025	0,047
-684,539	-200,000	-0,018	0,106
-683,524	-200,000	-0,022	0,082
-682,510	800,000	-0,053	0,138
-681,495	-117,979	0,165	-0,022
-680,481	-102,808	-0,070	-0,012
-679,466	-86,830	-0,118	-0,027
-678,451	-102,100	-0,161	-0,029
-677,437	-87,185	-0,067	0,015
-676,422	409,073	0,059	0,093
-675,408	80,257	-0,136	0,109
-674,393	-116,226	0,074	0,010
-673,378	209,754	0,035	-0,040
-672,364	-34,751	-0,168	-0,068
-671,349	-68,398	-0,091	-0,026
-670,335	-59,879	0,011	-0,003
-669,320	407,578	-0,111	0,175
-668,305	29,451	0,045	0,028
-667,291	-200,000	0,011	-0,136
-666,276	68,540	-0,083	-0,063
-665,262	-200,000	-0,011	-0,114
-664,247	-108,033	-0,038	-0,006
-663,232	4,131	0,128	0,069
-662,218	-200,000	0,002	-0,067
-661,203	-200,000	-0,007	-0,032
-660,189	71,363	-0,056	-0,043
-659,174	475,381	-0,071	0,119
-658,159	-97,292	-0,090	-0,017
-657,145	-124,207	-0,091	-0,010
-656,130	-50,437	0,081	0,028
-655,116	-200,000	-0,006	0,107
-654,101	260,038	-0,056	0,072
-653,086	-148,881	-0,163	0,010
-652,072	44,832	-0,111	-0,076
-651,057	-36,802	-0,139	0,055
-650,043	35,376	0,080	-0,052
-649,028	-200,000	-0,035	-0,149
-648,014	192,099	-0,166	-0,186
-646,999	211,964	-0,041	-0,048
-645,984	-200,000	-0,011	0,057
-644,970	29,389	0,135	-0,085
-643,955	80,976	-0,127	0,101
-642,941	103,415	-0,069	-0,060
-641,926	82,717	0,024	0,020
-640,911	366,432	0,029	0,044
-639,897	333,017	0,034	0,049
-638,882	-146,512	-0,192	-0,012
-637,868	535,257	-0,101	0,178
-636,853	-93,930	-0,037	0,008
-635,838	-200,000	-0,004	-0,040
-634,824	800,000	-0,023	0,054
-633,809	-123,199	0,075	-0,009
-632,795	1,326	0,082	0,044
-631,780	-200,000	0,002	0,021
-630,765	-74,777	-0,103	-0,027
-629,751	47,427	0,098	-0,068
-628,736	103,387	-0,079	-0,068
-627,722	289,650	-0,012	-0,016
-626,707	-47,765	0,040	0,014
-625,692	-200,000	-0,001	0,113
-624,678	-45,872	0,072	-0,026
-623,663	-116,469	0,016	0,002
-622,649	-200,000	-0,008	-0,102
-621,634	780,029	-0,026	-0,053
-620,619	-12,347	-0,048	0,023
-619,605	-151,411	0,067	0,004
-618,590	-19,042	0,096	-0,044
-617,576	-139,299	0,036	-0,003
-616,561	-200,000	-0,017	-0,058
-615,546	-52,981	0,070	0,024
-614,532	180,512	-0,009	-0,010
-613,517	7,130	0,116	-0,064
-612,503	175,907	0,053	-0,057
-611,488	-115,023	0,150	0,021
-610,474	-26,832	-0,103	-0,044
-609,459	-200,000	-0,004	-0,065
-608,444	-200,000	0,020	-0,080
-607,430	800,000	0,054	-0,142
-606,415	618,558	-0,033	0,062
-605,401	188,095	0,047	0,052
-604,386	492,491	-0,028	0,048
-603,371	48,765	0,076	0,053
-602,357	-37,033	-0,150	-0,059
-601,342	-147,664	-0,078	-0,005
-600,328	103,785	-0,092	-0,080
-599,313	-53,228	0,110	-0,037
-598,298	481,441	0,010	0,018
-597,284	800,000	-0,057	0,128
-596,269	-200,000	-0,008	0,031
-595,255	6,730	0,072	-0,039
-594,240	-200,000	-0,019	0,129
-593,225	215,234	0,046	-0,054
-592,211	-200,000	0,002	-0,112
-591,196	800,000	-0,079	-0,165
-590,182	-158,895	0,159	0,007
-589,167	-100,171	-0,130	0,024
-588,152	40,315	-0,013	-0,008
-587,138	-200,000	0,013	-0,083
-586,123	19,919	0,100	-0,060
-585,109	-15,098	-0,152	0,072
-584,094	-200,000	-0,037	0,128
-583,079	800,000	0,017	0,036
-582,065	-25,694	0,049	0,021
-581,050	-29,661	-0,073	-0,031
-580,036	67,612	0,056	0,042
-579,021	-118,248	-0,046	0,006
-578,006	18,913	-0,052	0,031
-576,992	89,839	-0,068	-0,056
-575,977	-15,290	-0,014	0,007
-574,963	-200,000	0,014	-0,066
-573,948	-94,141	0,133	0,027
-572,934	-200,000	-0,008	0,056
-571,919	11,563	-0,164	-0,093
-570,904	384,664	0,039	-0,059
-569,890	337,866	-0,035	-0,050
-568,875	-200,000	-0,013	0,127
-567,861	-154,382	0,073	0,004
-566,846	192,296	-0,050	-0,056
-565,831	334,079	0,017	-0,025
-564,817	-200,000	-0,001	0,023
-563,802	-200,000	-0,002	0,064
-562,788	800,000	0,008	0,021
-561,773	377,009	0,045	0,067
-560,758	44,798	0,089	-0,061
-559,744	-200,000	0,035	0,123
-558,729	312,547	-0,028	0,039
-557,715	-200,000	0,013	-0,050
-556,700	-200,000	-0,032	-0,113
-555,685	-200,000	-0,015	0,050
-554,671	800,000	0,028	0,072
-553,656	30,568	0,064	-0,040
-552,642	-119,727	-0,051	-0,006
-551,627	-173,276	0,103	-0,002
-550,612	-163,102	0,056	-0,002
-549,598	84,321	0,065	0,053
-548,583	604,793	0,071	-0,132
-547,569	-200,000	0,011	-0,087
-546,554	-200,000	-0,004	0,178
-545,539	-200,000	-0,004	0,079
-544,525	430,686	0,077	0,123
-543,510	204,036	0,102	0,117
-542,496	-200,000	0,014	0,051
-541,481	316,185	0,085	-0,118
-540,466	-77,014	0,163	0,042
-539,452	129,862	-0,018	-0,017
-538,437	3,557	0,112	-0,060
-537,423	-5,112	0,087	-0,044
-536,408	800,000	-0,017	-0,045
-535,393	800,000	-0,038	-0,111
-534,379	800,000	-0,020	0,061
-533,364	800,000	0,039	-0,099
-532,350	-200,000	-0,005	-0,033
-531,335	-80,974	0,061	-0,015
-530,321	108,704	-0,076	0,067
-529,306	13,541	-0,059	0,033
-528,291	-92,673	0,131	-0,027
-527,277	-178,833	0,079	-0,001
-526,262	-200,000	-0,021	0,097
-525,248	-109,116	-0,045	-0,007
-524,233	-25,610	0,098	0,043
-523,218	-200,000	0,001	0,096
-522,204	-59,303	-0,140	0,044
-521,189	-200,000	-0,001	-0,110
-520,175	-200,000	0,030	0,135
-519,160	7,156	0,030	0,017
-518,145	-127,535	-0,089	-0,009
-517,131	182,391	-0,102	0,112
-516,116	800,000	0,013	0,037
-515,102	-200,000	0,012	-0,070
-514,087	800,000	-0,019	-0,058
-513,072	-113,568	-0,119	-0,017
-512,058	800,000	0,015	-0,042
-511,043	800,000	0,037	0,115
-510,029	-200,000	-0,004	-0,149
-509,014	13,546	0,054	-0,031
-507,999	-200,000	0,005	-0,049
-506,985	199,860	-0,143	-0,163
-505,970	-175,516	-0,115	0,002
-504,956	-145,688	-0,118	0,008
-503,941	17,030	0,121	-0,070
-502,926	-200,000	-0,001	-0,062
-501,912	55,462	-0,053	-0,038
-500,897	-200,000	-0,007	0,045
-499,883	138,515	-0,065	-0,063
-498,868	338,345	0,023	-0,033
-497,853	58,800	-0,088	0,064
-496,839	-34,508	0,097	-0,039
-495,824	-87,711	0,025	-0,006
-494,810	253,235	-0,034	0,043
-493,795	233,175	-0,079	0,096
-492,781	95,194	-0,068	-0,057
-491,766	800,000	-0,034	-0,088
-490,751	232,421	-0,059	-0,072
-489,737	-9,706	0,143	0,070
-488,722	800,000	-0,026	-0,058
-487,708	116,220	-0,110	0,099
-486,693	-68,123	-0,083	0,024
-485,678	800,000	-0,050	0,149
-484,664	-6,848	-0,111	0,055
-483,649	-121,088	0,059	-0,007
-482,635	180,542	0,111	-0,121
-481,620	-82,429	-0,086	0,020
-480,605	-12,437	-0,059	-0,028
-479,591	-140,944	0,025	-0,002
-478,576	-120,490	-0,066	0,008
-477,562	-30,247	-0,182	0,076
-476,547	-78,843	-0,045	-0,011
-475,532	-24,412	0,070	-0,031
-474,518	-200,000	-0,000	0,154
-473,503	149,113	0,123	0,122
-472,489	800,000	-0,037	0,089
-471,474	141,463	-0,040	-0,039
-470,459	-50,934	-0,093	0,032
-469,445	168,643	-0,106	0,111
-468,430	21,968	0,108	0,065
-467,416	46,445	0,128	0,088
-466,401	-200,000	-0,006	0,044
-465,386	-95,970	0,050	-0,010
-464,372	-200,000	-0,008	-0,049
-463,357	800,000	-0,060	-0,137
-462,343	-92,021	-0,035	-0,007
-461,328	-117,282	-0,083	-0,011
-460,313	333,058	0,136	-0,194
-459,299	576,578	-0,013	0,023
-458,284	-144,666	-0,060	-0,004
-457,270	345,462	-0,059	-0,086
-456,255	-27,184	-0,014	0,006
-455,241	-200,000	-0,036	0,134
-454,226	18,775	0,069	-0,041
-453,211	56,984	0,053	-0,038
-452,197	257,601	0,091	-0,116
-451,182	80,318	-0,093	-0,074
-450,168	38,102	-0,069	0,045
-449,153	-84,454	-0,018	0,004
-448,138	800,000	0,040	0,105
-447,124	-79,789	0,093	0,023
-446,109	236,582	-0,036	0,043
-445,095	-138,379	-0,047	-0,004
-444,080	88,518	0,110	0,090
-443,065	118,476	-0,087	-0,079
-442,051	74,029	-0,105	-0,081
-441,036	441,321	0,018	-0,029
-440,022	-39,320	0,034	-0,013
-439,007	800,000	-0,056	-0,150
-437,992	-200,000	-0,003	-0,085
-436,978	-28,202	0,108	0,046
-435,963	800,000	-0,021	0,047
-434,949	-200,000	-0,018	-0,123
-433,934	788,031	0,044	-0,089
-432,919	99,267	0,037	-0,032
-431,905	116,088	-0,034	0,031
-430,890	-200,000	-0,009	-0,058
-429,876	6,742	-0,075	-0,041
-428,861	-200,000	-0,010	-0,091
-427,846	214,716	-0,044	0,052
-426,832	636,316	-0,018	0,033
-425,817	-200,000	0,014	-0,054
-424,803	38,933	0,083	0,055
-423,788	-75,274	0,040	-0,010
-422,773	-101,994	0,170	0,030
-421,759	261,452	0,044	-0,056
-420,744	134,509	0,065	-0,062
-419,730	69,461	0,014	-0,011
-418,715	221,232	0,167	0,197
-417,701	51,898	-0,054	0,038
-416,686	-200,000	0,014	0,080
-415,671	276,780	-0,040	0,052
-414,657	668,178	0,028	0,054
-413,642	800,000	-0,025	0,060
-412,628	-200,000	-0,004	-0,079
-411,613	110,385	-0,055	-0,048
-410,598	-53,244	-0,062	-0,021
-409,584	-200,000	-0,019	0,125
-408,569	224,361	-0,030	-0,035
-407,555	-200,000	0,028	-0,121
-406,540	377,501	-0,041	-0,061
-405,525	64,815	-0,038	0,029
-404,511	-120,584	-0,092	0,011
-403,496	-200,000	-0,004	-0,033
-402,482	-200,000	0,011	0,037
-401,467	-103,854	0,125	0,021
-400,452	186,647	0,077	0,084
-399,438	800,000	-0,067	0,139
-398,423	113,315	0,087	-0,078
-397,409	800,000	0,077	-0,202
-396,394	-200,000	-0,032	-0,124
-395,379	192,775	0,094	0,104
-394,365	-200,000	-0,005	-0,055
-393,350	760,441	-0,037	0,073
-392,336	95,911	-0,071	-0,059
-391,321	94,878	-0,107	-0,089
-390,306	77,646	-0,088	-0,069
-389,292	-46,863	-0,045	0,016
-388,277	-28,038	-0,121	-0,051
-387,263	194,645	-0,049	0,055
-386,248	134,200	0,058	0,055
-385,233	182,314	-0,047	-0,051
-384,219	162,853	0,089	0,092
-383,204	-35,448	-0,104	0,041
-382,190	800,000	0,032	-0,077
-381,175	25,243	-0,026	-0,016
-380,160	321,122	0,085	-0,119
-379,146	214,010	-0,075	-0,087
-378,131	-29,828	0,067	0,028
-377,117	-200,000	-0,016	0,143
-376,102	367,123	0,055	-0,082
-375,088	-0,043	-0,025	0,013
-374,073	-119,798	-0,045	-0,006
-373,058	800,000	-0,031	0,064
-372,044	23,632	0,059	-0,035
-371,029	349,213	-0,024	0,035
-370,015	700,090	-0,021	0,040
-369,000	-136,776	-0,115	-0,010
-367,985	115,407	-0,037	-0,033
-366,971	-164,998	-0,037	0,001
-365,956	80,005	-0,099	-0,078
-364,942	-153,030	0,196	-0,010
-363,927	-99,481	0,065	0,012
-362,912	20,595	-0,119	-0,071
-361,898	-71,188	0,104	-0,029
-360,883	95,945	-0,018	-0,015
-359,869	-155,166	-0,069	-0,003
-358,854	-148,419	0,049	-0,003
-357,839	-132,141	0,142	-0,013
-356,825	800,000	-0,010	0,021
-355,810	386,658	-0,087	0,132
-354,796	146,063	-0,050	-0,050
-353,781	-45,659	-0,111	0,040
-352,766	-200,000	-0,018	-0,170
-351,752	-130,660	-0,028	0,003
-350,737	39,692	-0,126	0,083
-349,723	800,000	0,045	0,121
-348,708	-103,862	0,118	-0,020
-347,693	420,578	-0,017	-0,027
-346,679	114,752	-0,030	-0,027
-345,664	-200,000	-0,014	-0,051
-344,650	800,000	0,014	-0,039
-343,635	-71,345	-0,019	-0,005
-342,620	800,000	0,047	0,111
-341,606	131,763	0,078	0,074
-340,591	25,059	0,007	-0,004
-339,577	209,647	-0,021	0,024
-338,562	351,703	-0,030	-0,044
-337,548	800,000	-0,055	-0,115
-336,533	-144,358	0,116	-0,008
-335,518	-116,997	0,067	-0,009
-334,504	394,334	-0,075	0,115
-333,489	115,237	-0,074	-0,066
-332,475	687,002	-0,059	-0,113
-331,460	-200,000	-0,024	-0,119
-330,445	-200,000	0,007	-0,086
-329,431	131,726	-0,021	-0,020
-328,416	-12,865	-0,060	0,028
-327,402	-147,284	0,120	-0,007
-326,387	500,084	-0,072	-0,121
-325,372	-200,000	-0,014	0,106
-324,358	-200,000	-0,002	-0,012
-323,343	158,930	0,060	-0,061
-322,329	-71,256	0,085	0,023
-321,314	800,000	0,066	0,151
-320,299	394,825	0,048	0,074
-319,285	800,000	-0,038	-0,093
-318,270	508,224	0,019	-0,032
-317,256	-6,534	-0,065	0,032
-316,241	222,136	-0,029	0,034
-315,226	30,771	0,042	0,026
-314,212	-10,086	0,066	0,032
-313,197	32,492	0,090	-0,057
-312,183	-200,000	-0,007	0,046
-311,168	46,973	0,146	-0,099
-310,153	-97,564	-0,178	0,033
-309,139	-7,580	0,130	0,064
-308,124	-151,083	0,114	0,006
-307,110	-153,468	0,052	-0,003
-306,095	-200,000	-0,015	0,083
-305,080	650,491	0,048	0,091
-304,066	-200,000	-0,015	0,156
-303,051	800,000	0,046	-0,113
-302,037	-200,000	0,024	-0,124
-301,022	800,000	0,018	0,050
-300,008	800,000	0,020	0,044
-298,993	-130,788	-0,118	0,011
-297,978	306,758	0,082	0,112
-296,964	-73,075	0,063	0,017
-295,949	-200,000	-0,025	-0,104
-294,935	-200,000	0,027	-0,184
-293,920	109,607	0,113	0,099
-292,905	800,000	-0,046	-0,106
-291,891	400,767	-0,050	-0,077
-290,876	-200,000	0,041	0,156
-289,862	800,000	-0,042	0,103
-288,847	-55,061	-0,149	0,049
-287,832	-0,125	-0,048	-0,025
-286,818	-85,711	0,033	0,007
-285,803	78,726	0,070	-0,054
-284,789	800,000	-0,028	0,064
-283,774	800,000	-0,039	0,091
-282,759	-138,415	-0,082	-0,006
-281,745	561,266	-0,075	0,133
-280,730	-113,692	0,162	-0,023
-279,716	800,000	0,031	-0,067
-278,701	-200,000	-0,002	-0,070
-277,686	274,171	0,079	0,103
-276,672	800,000	-0,058	0,163
-275,657	103,243	-0,070	-0,060
-274,643	-200,000	0,005	-0,070
-273,628	-127,861	0,122	0,013
-272,613	800,000	-0,049	0,144
-271,599	274,687	0,096	0,125
-270,584	140,349	0,033	-0,032
-269,570	-200,000	-0,001	0,045
-268,555	-5,303	0,049	-0,025
-267,540	-200,000	-0,005	-0,043
-266,526	-200,000	0,015	-0,065
-265,511	-200,000	-0,021	-0,109
-264,497	800,000	0,055	-0,153
-263,482	96,945	0,062	0,052
-262,467	750,891	-0,072	0,143
-261,453	-200,000	-0,033	-0,131
-260,438	23,025	-0,050	-0,030
-259,424	-200,000	0,008	0,044
-258,409	-113,025	-0,029	0,004
-257,395	-35,602	0,090	0,036
-256,380	800,000	-0,019	-0,050
-255,365	56,481	0,070	0,049
-254,351	18,714	-0,056	-0,033
-253,336	320,932	-0,018	-0,024
-252,322	-20,562	0,092	-0,041
-251,307	-141,393	0,084	-0,006
-250,292	594,345	-0,041	0,074
-249,278	-37,887	0,089	-0,034
-248,263	-105,162	-0,059	0,010
-247,249	103,407	-0,025	-0,021
-246,234	-121,551	0,132	0,016
-245,219	24,592	0,091	-0,055
-244,205	-125,955	0,130	0,014
-243,190	-49,231	-0,012	-0,004
-242,176	-200,000	-0,021	0,080
-241,161	-200,000	0,006	-0,050
-240,146	-50,749	-0,114	-0,039
-239,132	-200,000	-0,015	-0,082
-238,117	258,948	-0,116	-0,146
-237,103	-128,490	0,112	0,011
-236,088	-145,682	-0,116	-0,007
-235,073	350,562	-0,028	-0,040
-234,059	-47,072	0,113	0,040
-233,044	-200,000	0,023	0,245
-232,030	-200,000	-0,003	-0,174
-231,015	47,809	0,066	-0,045
-230,000	90,262	-0,041	0,033
-228,986	113,474	0,130	-0,115
-227,971	85,539	0,026	-0,021
-226,957	-134,282	-0,070	-0,006
-225,942	-92,111	-0,095	-0,019
-224,927	254,863	0,049	0,061
-223,913	-34,358	0,054	0,021
-222,898	46,668	-0,020	-0,013
-221,884	158,043	-0,024	0,024
-220,869	-200,000	0,021	-0,117
-219,855	554,257	0,036	0,063
-218,840	-156,886	0,064	0,003
-217,825	-28,500	-0,078	0,033
-216,811	-159,530	-0,084	0,003
-215,796	116,260	0,128	-0,114
-214,782	-200,000	-0,075	-0,265
-213,767	-198,678	-0,106	0,000
-212,752	800,000	0,017	-0,041
-211,738	-200,000	0,007	-0,045
-210,723	388,652	0,031	-0,047
-209,709	-57,694	-0,055	0,018
-208,694	-114,435	-0,012	-0,002
-207,679	163,647	-0,036	-0,037
-206,665	63,701	0,034	-0,025
-205,650	461,248	0,063	0,102
-204,636	159,602	0,044	-0,045
-203,621	-200,000	-0,024	0,118
-202,606	-25,314	0,105	0,045
-201,592	-109,090	-0,163	0,025
-200,577	-124,014	0,168	-0,019
-199,563	-20,828	-0,072	-0,032
-198,548	800,000	0,084	0,194
-197,533	-200,000	-0,003	0,111
-196,519	40,654	0,149	0,097
-195,504	-75,262	-0,133	-0,034
-194,490	-1,188	0,079	-0,040
-193,475	756,931	-0,054	-0,107
-192,460	293,807	0,043	-0,058
-191,446	-200,000	0,041	0,137
-190,431	-200,000	0,000	-0,006
-189,417	-32,110	0,059	-0,024
-188,402	22,470	-0,074	0,044
-187,387	-104,714	-0,121	0,020
-186,373	120,994	0,024	0,022
-185,358	310,578	0,034	0,046
-184,344	800,000	-0,062	0,159
-183,329	-32,676	0,091	0,037
-182,315	-90,406	-0,137	0,029
-181,300	-90,574	-0,083	0,017
-180,285	10,398	-0,115	-0,064
-179,271	613,366	0,020	-0,037
-178,256	388,698	0,010	-0,014
-177,242	178,460	-0,008	-0,009
-176,227	-111,443	0,049	0,007
-175,212	340,103	-0,064	-0,091
-174,198	43,027	-0,018	0,012
-173,183	-200,000	0,002	0,141
-172,169	-79,821	-0,139	0,034
-171,154	800,000	-0,014	0,032
-170,139	591,422	0,045	0,081
-169,125	375,366	-0,042	0,062
-168,110	800,000	-0,074	0,161
-167,096	400,632	-0,022	0,034
-166,081	-47,516	-0,052	-0,018
-165,066	16,904	0,083	0,048
-164,052	18,818	-0,112	0,065
-163,037	-200,000	0,022	0,098
-162,023	190,637	0,041	0,045
-161,008	209,895	-0,105	0,120
-159,993	-200,000	-0,013	0,181
-158,979	-43,120	-0,034	-0,012
-157,964	116,241	0,046	-0,041
-156,950	800,000	0,007	-0,014
-155,935	380,387	-0,070	0,104
-154,920	5,703	0,088	-0,047
-153,906	649,096	0,052	0,096
-152,891	-200,000	0,016	-0,096
-151,877	130,203	0,094	-0,088
-150,862	128,981	0,075	-0,069
-149,847	-142,970	0,076	0,005
-148,833	-119,926	-0,114	0,014
-147,818	242,844	0,022	0,027
-146,804	-200,000	0,011	0,101
-145,789	-200,000	-0,007	-0,079
-144,775	-46,306	-0,075	-0,027
-143,760	800,000	0,024	0,069
-142,745	593,334	-0,079	0,143
-141,731	23,758	-0,095	0,057
-140,716	85,788	0,177	0,141
-139,702	553,766	-0,036	-0,063
-138,687	-106,396	0,105	0,017
-137,672	-200,000	-0,035	0,128
-136,658	-200,000	-0,028	0,119
-135,643	-17,241	-0,030	0,014
-134,629	800,000	-0,008	0,026
-133,614	-52,373	-0,072	0,024
-132,599	132,995	0,110	0,103
-131,585	57,717	0,090	0,064
-130,570	800,000	-0,024	-0,074
-129,556	-116,488	-0,094	-0,012
-128,541	169,754	-0,103	0,107
-127,526	108,908	0,078	0,068
-126,512	-157,787	0,107	0,005
-125,497	-135,274	0,140	-0,012
-124,483	-200,000	-0,006	0,050
-123,468	-79,662	0,070	0,017
-122,453	800,000	-0,033	-0,079
-121,439	71,142	0,051	0,039
-120,424	47,986	-0,077	-0,052
