DTS Sentinel unit serial number:	SN410029Multiplexer serial number:	ORYXHardware model number:	OX2-SRSoftware version number:	ORYX F/W v4,00 Oryx Data Collector v3.7.2.0data status	okinstallation	B4 Nyhavnadifferential loss correction	single-endedforward channel	channel 2reverse channel	N/Adate	2023/12/19time	06:00:13forward acquisition time	300,00reverse acquisition time	0,00gamma	499,1914k internal	0,3127k external	0,3127temperature offset calibration	1,0000default loss term (dB/km)	0,3820temperature slope calibration	1,0000multiplexer offset coefficient	1,0000multiplexer slope coefficient	1,0000fibre end	0,00T internal ref (°C)	21,07T ext. ref 1 (°C)	6,34T ext. ref 2 (°C)	6,53length (m)	temperature (°C)	Stokes	anti-Stokes-744,400	54,138	0,056	-0,040
-743,385	145,864	-0,092	0,092
-742,371	57,550	0,074	-0,053
-741,356	-19,533	-0,126	0,058
-740,342	275,098	0,031	0,041
-739,327	395,196	-0,061	0,095
-738,312	18,818	0,040	-0,024
-737,298	56,404	-0,250	0,180
-736,283	161,568	0,020	-0,021
-735,269	692,956	-0,134	0,263
-734,254	800,000	0,033	-0,093
-733,239	-50,975	-0,378	-0,131
-732,225	468,791	0,105	0,176
-731,210	-200,000	0,029	0,209
-730,196	148,521	0,055	0,055
-729,181	47,463	0,064	0,044
-728,167	126,109	-0,071	0,067
-727,152	800,000	0,050	-0,140
-726,137	65,612	-0,058	0,044
-725,123	-173,553	-0,021	0,000
-724,108	-84,263	-0,087	0,020
-723,094	-107,119	-0,095	-0,015
-722,079	-113,691	-0,104	-0,015
-721,064	800,000	-0,045	-0,102
-720,050	-59,417	-0,139	-0,044
-719,035	357,522	0,013	-0,019
-718,021	197,844	-0,043	-0,049
-717,006	800,000	0,038	-0,124
-715,991	731,936	-0,059	-0,119
-714,977	491,960	-0,095	-0,162
-713,962	-200,000	-0,005	-0,074
-712,948	-35,477	-0,020	-0,008
-711,933	-1,855	0,096	0,050
-710,918	-43,895	-0,041	-0,015
-709,904	-139,041	-0,091	-0,007
-708,889	0,872	0,047	-0,025
-707,875	-200,000	-0,054	-0,226
-706,860	-200,000	0,004	-0,174
-705,845	400,977	-0,018	-0,029
-704,831	799,273	0,118	0,243
-703,816	-36,580	-0,065	0,026
-702,802	-79,562	0,062	0,016
-701,787	-80,041	-0,247	-0,061
-700,772	93,989	0,083	0,070
-699,758	176,875	-0,079	0,085
-698,743	309,291	0,042	0,058
-697,729	800,000	-0,017	0,046
-696,714	-83,287	-0,083	-0,020
-695,699	-107,360	-0,217	0,035
-694,685	-200,000	-0,031	-0,138
-693,670	-200,000	0,008	0,058
-692,656	208,251	0,024	-0,028
-691,641	528,817	-0,052	0,091
-690,627	-200,000	0,044	0,224
-689,612	-200,000	0,005	0,134
-688,597	43,132	0,056	0,038
-687,583	-200,000	0,008	-0,063
-686,568	289,844	0,034	-0,046
-685,554	6,155	-0,116	-0,064
-684,539	254,406	-0,106	0,135
-683,524	48,743	0,174	-0,121
-682,510	42,020	-0,024	-0,016
-681,495	-79,364	-0,012	-0,003
-680,481	800,000	-0,008	-0,028
-679,466	38,472	-0,055	-0,037
-678,451	163,684	-0,061	0,064
-677,437	-34,534	0,087	-0,035
-676,422	232,960	0,083	0,102
-675,408	-200,000	0,002	0,146
-674,393	-200,000	-0,000	0,173
-673,378	11,171	-0,044	-0,025
-672,364	173,141	0,046	0,049
-671,349	-200,000	-0,037	-0,124
-670,335	-200,000	-0,010	0,161
-669,320	-32,510	0,064	-0,027
-668,305	800,000	0,027	0,055
-667,291	-137,277	-0,160	0,013
-666,276	-128,046	0,078	0,008
-665,262	-200,000	-0,000	0,044
-664,247	5,935	-0,046	0,025
-663,232	-81,509	-0,089	0,021
-662,218	23,497	0,097	-0,059
-661,203	-200,000	-0,009	-0,077
-660,189	33,363	-0,064	0,041
-659,174	-127,208	-0,132	-0,014
-658,159	17,590	0,013	0,007
-657,145	38,651	-0,111	-0,074
-656,130	-74,042	-0,053	0,014
-655,116	-46,942	0,107	0,039
-654,101	-200,000	-0,007	0,081
-653,086	31,272	0,038	0,024
-652,072	222,220	-0,078	-0,093
-651,057	53,455	-0,051	0,036
-650,043	83,144	-0,036	-0,029
-649,028	436,609	0,042	0,068
-648,014	-200,000	-0,013	0,048
-646,999	562,062	-0,024	-0,043
-645,984	-77,153	-0,126	0,032
-644,970	-200,000	0,018	0,096
-643,955	-160,001	-0,036	0,001
-642,941	-200,000	0,056	-0,279
-641,926	70,485	0,074	-0,057
-640,911	-61,215	-0,084	-0,026
-639,897	800,000	0,047	-0,112
-638,882	-76,316	0,048	-0,013
-637,868	-39,029	-0,049	0,019
-636,853	50,218	-0,056	-0,039
-635,838	-200,000	-0,007	-0,033
-634,824	68,976	-0,052	-0,040
-633,809	-32,545	0,020	0,008
-632,795	69,750	-0,042	-0,032
-631,780	162,358	-0,066	-0,069
-630,765	800,000	-0,033	-0,070
-629,751	-97,495	-0,052	-0,010
-628,736	212,529	-0,064	-0,075
-627,722	219,631	-0,060	0,071
-626,707	800,000	0,020	0,057
-625,692	-156,302	-0,081	0,004
-624,678	11,870	0,151	-0,086
-623,663	-200,000	-0,007	-0,183
-622,649	-200,000	-0,003	-0,034
-621,634	-0,616	-0,105	-0,055
-620,619	-200,000	-0,002	-0,047
-619,605	800,000	0,082	-0,235
-618,590	-98,335	-0,067	0,013
-617,576	-136,453	0,047	0,004
-616,561	5,912	-0,042	0,023
-615,546	283,729	0,082	0,110
-614,532	250,471	-0,088	-0,111
-613,517	-181,847	-0,069	-0,001
-612,503	-56,872	0,066	0,022
-611,488	-130,470	0,141	-0,014
-610,474	242,623	-0,067	-0,083
-609,459	216,132	-0,051	0,060
-608,444	-60,553	0,056	-0,017
-607,430	-200,000	0,007	-0,027
-606,415	23,208	-0,051	-0,031
-605,401	164,693	0,097	-0,101
-604,386	-146,635	-0,053	-0,003
-603,371	-5,561	-0,057	-0,029
-602,357	35,822	-0,048	0,031
-601,342	-200,000	0,005	-0,062
-600,328	300,521	0,024	0,032
-599,313	-60,852	-0,148	-0,046
-598,298	33,086	-0,121	-0,077
-597,284	-115,236	0,084	0,012
-596,269	556,615	0,088	0,158
-595,255	511,985	-0,048	-0,082
-594,240	149,784	-0,082	-0,082
-593,225	124,885	0,062	0,058
-592,211	-200,000	0,012	0,102
-591,196	32,192	0,065	-0,041
-590,182	-52,797	-0,055	-0,019
-589,167	800,000	0,027	-0,082
-588,152	-200,000	-0,010	-0,100
-587,138	-20,644	-0,040	0,018
-586,123	800,000	-0,027	-0,071
-585,109	-35,020	0,021	-0,009
-584,094	99,345	0,063	0,054
-583,079	-59,219	0,064	-0,020
-582,065	-97,154	0,063	0,012
-581,050	-9,418	0,093	0,046
-580,036	137,880	0,050	0,049
-579,021	-200,000	0,006	-0,180
-578,006	14,053	-0,140	-0,080
-576,992	233,533	0,020	0,024
-575,977	-200,000	-0,052	0,000
-574,963	-200,000	-0,001	-0,134
-573,948	-200,000	-0,022	-0,153
-572,934	15,511	0,071	-0,041
-571,919	16,795	-0,100	-0,058
-570,904	-16,963	0,043	0,020
-569,890	101,928	-0,014	-0,012
-568,875	-53,619	-0,098	-0,033
-567,861	-41,188	0,063	0,024
-566,846	111,059	-0,031	0,027
-565,831	113,057	0,061	-0,054
-564,817	509,476	-0,052	-0,090
-563,802	82,474	-0,053	0,042
-562,788	-200,000	0,009	0,105
-561,773	130,970	-0,114	0,108
-560,758	800,000	0,041	0,110
-559,744	-200,000	0,019	0,137
-558,729	800,000	0,010	0,030
-557,715	800,000	0,014	-0,040
-556,700	23,279	-0,086	0,052
-555,685	-146,213	0,058	0,004
-554,671	-200,000	-0,000	-0,019
-553,656	382,981	-0,066	-0,100
-552,642	598,557	-0,005	0,009
-551,627	-60,504	-0,073	0,023
-550,612	94,295	-0,129	-0,108
-549,598	-7,032	-0,038	-0,019
-548,583	-97,542	0,080	-0,015
-547,569	800,000	0,034	0,089
-546,554	-200,000	0,032	-0,103
-545,539	-74,808	0,135	-0,036
-544,525	800,000	-0,042	-0,092
-543,510	467,186	-0,043	-0,072
-542,496	-200,000	-0,012	0,052
-541,481	172,801	-0,037	-0,039
-540,466	-200,000	0,022	-0,119
-539,452	74,879	0,021	0,016
-538,437	7,214	-0,069	0,038
-537,423	800,000	-0,031	0,101
-536,408	-120,707	0,096	0,012
-535,393	-8,872	0,182	0,090
-534,379	-43,078	0,022	0,008
-533,364	-200,000	-0,024	-0,117
-532,350	154,494	0,096	-0,097
-531,335	429,760	0,036	-0,058
-530,321	-200,000	0,013	0,062
-529,306	-22,449	-0,042	0,019
-528,291	800,000	-0,062	0,175
-527,277	-1,181	-0,032	-0,017
-526,262	-132,385	-0,048	-0,005
-525,248	-71,259	-0,127	0,035
-524,233	53,435	0,123	-0,087
-523,218	800,000	0,064	0,133
-522,204	436,286	0,042	-0,068
-521,189	320,926	-0,021	0,030
-520,175	12,727	0,044	-0,025
-519,160	-93,161	-0,072	-0,015
-518,145	-85,523	0,175	0,040
-517,131	-200,000	-0,031	0,127
-516,116	-200,000	-0,004	-0,168
-515,102	-114,582	0,029	0,004
-514,087	-200,000	-0,021	-0,083
-513,072	-113,817	-0,118	-0,017
-512,058	-78,761	-0,096	0,024
-511,043	-200,000	-0,027	-0,146
-510,029	-8,911	0,192	0,095
-509,014	115,722	0,085	-0,077
-507,999	-200,000	0,003	0,084
-506,985	344,179	-0,044	-0,064
-505,970	800,000	-0,054	-0,129
-504,956	800,000	-0,019	-0,057
-503,941	800,000	0,051	0,145
-502,926	70,102	0,076	0,058
-501,912	800,000	-0,032	-0,098
-500,897	-200,000	0,049	0,190
-499,883	-200,000	-0,015	0,065
-498,868	800,000	-0,050	-0,136
-497,853	273,144	0,034	-0,044
-496,839	-200,000	0,006	-0,035
-495,824	-200,000	-0,004	0,137
-494,810	-200,000	0,004	0,140
-493,795	237,987	0,017	0,021
-492,781	-58,007	-0,098	0,031
-491,766	-115,012	0,078	0,011
-490,751	800,000	0,027	-0,081
-489,737	-54,141	0,076	0,025
-488,722	800,000	-0,050	-0,155
-487,708	-84,469	0,029	0,007
-486,693	-200,000	-0,010	-0,047
-485,678	-124,383	0,063	-0,007
-484,664	473,898	-0,032	-0,053
-483,649	14,735	-0,131	-0,075
-482,635	-12,972	-0,075	-0,036
-481,620	800,000	-0,048	0,116
-480,605	16,164	0,108	-0,063
-479,591	191,556	0,060	-0,067
-478,576	136,701	-0,063	0,060
-477,562	-77,196	0,130	-0,033
-476,547	-165,298	0,150	0,005
-475,532	800,000	-0,052	-0,110
-474,518	19,061	0,079	-0,047
-473,503	117,559	0,096	0,087
-472,489	800,000	0,055	0,134
-471,474	-6,886	-0,144	0,072
-470,459	125,943	0,024	-0,022
-469,445	208,275	0,116	-0,133
-468,430	-59,779	0,050	-0,016
-467,416	357,426	-0,010	-0,015
-466,401	-103,004	0,033	0,006
-465,386	-200,000	-0,036	0,146
-464,372	402,849	-0,097	0,150
-463,357	4,574	-0,035	0,019
-462,343	-18,629	-0,067	-0,031
-461,328	-71,428	-0,060	0,016
-460,313	7,023	-0,020	0,011
-459,299	48,470	0,010	0,007
-458,284	-97,031	-0,119	0,023
-457,270	221,500	0,088	-0,104
-456,255	-200,000	0,046	0,000
-455,241	-39,192	-0,062	-0,024
-454,226	-29,676	-0,149	0,062
-453,211	180,388	-0,041	0,044
-452,197	-36,380	-0,042	-0,016
-451,182	800,000	0,029	-0,075
-450,168	193,885	-0,088	-0,099
-449,153	800,000	0,043	0,096
-448,138	-129,327	0,112	0,011
-447,124	-200,000	-0,013	-0,054
-446,109	-75,801	0,082	0,021
-445,095	280,882	-0,075	-0,099
-444,080	800,000	0,022	0,046
-443,065	-89,280	-0,103	-0,022
-442,051	800,000	-0,026	0,057
-441,036	124,958	-0,143	-0,132
-440,022	64,394	-0,101	-0,074
-439,007	-38,543	-0,083	0,032
-437,992	-122,696	0,038	0,004
-436,978	800,000	0,010	0,030
-435,963	-200,000	-0,018	-0,071
-434,949	263,942	0,077	0,099
-433,934	30,139	-0,066	0,041
-432,919	-200,000	0,015	-0,055
-431,905	353,715	0,070	-0,102
-430,890	37,417	0,078	0,051
-429,876	-12,174	0,056	-0,027
-428,861	-200,000	0,038	0,141
-427,846	-57,168	-0,093	0,030
-426,832	-80,761	0,079	0,019
-425,817	-200,000	0,008	0,231
-424,803	800,000	0,051	-0,153
-423,788	-93,546	-0,094	-0,019
-422,773	-200,000	-0,012	0,079
-421,759	-8,548	-0,096	-0,047
-420,744	-105,823	-0,056	0,009
-419,730	-74,870	0,186	0,049
-418,715	-50,369	-0,097	0,033
-417,701	800,000	0,012	0,024
-416,686	116,337	-0,045	0,040
-415,671	493,019	0,034	-0,058
-414,657	162,776	0,033	-0,034
-413,642	16,993	0,123	0,071
-412,628	-200,000	0,017	-0,072
-411,613	279,228	-0,039	0,051
-410,598	-131,605	-0,152	0,014
-409,584	70,522	0,129	-0,098
-408,569	-130,771	0,104	0,010
-407,555	-200,000	0,008	0,057
-406,540	-150,882	-0,052	0,003
-405,525	396,434	0,044	-0,068
-404,511	-159,460	-0,193	-0,008
-403,496	-200,000	-0,013	-0,135
-402,482	17,883	0,093	-0,054
-401,467	230,334	0,046	0,056
-400,452	-125,566	-0,112	0,012
-399,438	-88,228	-0,057	-0,012
-398,423	-200,000	0,011	0,077
-397,409	58,215	-0,017	-0,012
-396,394	745,665	0,029	0,057
-395,379	-106,892	0,037	-0,006
-394,365	484,195	0,054	0,091
-393,350	58,047	0,018	-0,013
-392,336	112,036	-0,091	0,081
-391,321	-46,271	0,032	0,012
-390,306	42,860	-0,080	-0,054
-389,292	-160,137	0,071	-0,003
-388,277	88,122	-0,098	-0,080
-387,263	-57,677	0,067	-0,021
-386,248	-200,000	-0,063	0,205
-385,233	-200,000	0,005	-0,080
-384,219	800,000	0,034	-0,091
-383,204	800,000	-0,055	-0,132
-382,190	63,265	-0,024	-0,017
-381,175	-180,693	0,030	0,000
-380,160	65,364	-0,043	-0,032
-379,146	344,556	0,120	-0,174
-378,131	271,239	0,069	0,090
-377,117	126,066	-0,145	0,135
-376,102	800,000	0,070	0,187
-375,088	-71,992	-0,086	0,023
-374,073	280,378	-0,042	-0,055
-373,058	164,629	0,114	0,118
-372,044	241,096	0,020	-0,024
-371,029	332,475	0,145	0,206
-370,015	-150,166	0,067	-0,004
-369,000	109,773	-0,035	-0,031
-367,985	800,000	0,034	-0,070
-366,971	-92,029	-0,066	-0,013
-365,956	133,246	0,018	0,017
-364,942	-17,675	0,079	-0,036
-363,927	203,997	-0,123	0,140
-362,912	-200,000	-0,019	0,120
-361,898	-200,000	-0,001	-0,100
-360,883	-171,904	-0,115	-0,003
-359,869	-131,178	-0,062	0,006
-358,854	159,556	0,015	0,015
-357,839	-104,064	0,008	0,001
-356,825	550,590	0,040	0,070
-355,810	57,875	-0,037	-0,027
-354,796	-26,872	0,075	0,032
-353,781	-90,799	-0,083	0,017
-352,766	-116,112	-0,014	-0,002
-351,752	-200,000	-0,037	0,132
-350,737	-90,937	0,105	0,022
-349,723	800,000	0,060	0,156
-348,708	-200,000	0,014	0,114
-347,693	-200,000	0,009	0,117
-346,679	44,641	-0,070	-0,047
-345,664	-200,000	-0,017	0,065
-344,650	400,378	0,034	0,052
-343,635	132,523	0,112	0,106
-342,620	-200,000	0,006	0,047
-341,606	-200,000	0,032	0,121
-340,591	-200,000	0,016	-0,078
-339,577	-23,854	-0,064	0,028
-338,562	56,435	-0,062	-0,044
-337,548	10,746	-0,050	0,028
-336,533	-200,000	-0,004	-0,029
-335,518	60,193	0,157	0,114
-334,504	202,038	-0,063	0,072
-333,489	-200,000	0,003	-0,099
-332,475	-177,652	-0,094	0,002
-331,460	800,000	0,034	-0,080
-330,445	-200,000	0,044	0,156
-329,431	163,198	0,069	0,071
-328,416	109,532	0,095	-0,083
-327,402	-44,110	-0,088	-0,032
-326,387	103,579	-0,015	0,013
-325,372	800,000	0,085	0,189
-324,358	515,516	-0,067	0,115
-323,343	151,250	-0,087	0,086
-322,329	-200,000	0,017	-0,086
-321,314	-52,737	0,097	-0,033
-320,299	-200,000	0,013	0,066
-319,285	-12,317	-0,082	0,039
-318,270	53,619	-0,055	-0,039
-317,256	355,917	-0,071	-0,104
-316,241	-200,000	-0,006	-0,094
-315,226	-94,244	-0,035	0,007
-314,212	-61,980	0,060	0,018
-313,197	-75,255	0,097	0,025
-312,183	-200,000	0,000	0,045
-311,168	800,000	-0,032	0,074
-310,153	172,476	0,091	-0,096
-309,139	99,190	-0,063	-0,053
-308,124	52,400	0,068	-0,048
-307,110	-200,000	0,009	-0,067
-306,095	191,523	0,024	0,026
-305,080	101,858	0,090	-0,077
-304,066	239,294	0,044	-0,054
-303,051	-140,859	0,077	-0,006
-302,037	800,000	0,021	-0,045
-301,022	48,837	0,103	0,070
-300,008	-200,000	-0,021	-0,101
-298,993	-51,553	0,067	0,023
-297,978	64,040	0,061	-0,045
-296,964	497,574	-0,071	0,119
-295,949	-124,190	0,073	0,008
-294,935	800,000	0,026	-0,061
-293,920	-200,000	0,004	-0,069
-292,905	-200,000	0,119	0,000
-291,891	110,336	-0,110	0,097
-290,876	-200,000	-0,006	-0,066
-289,862	800,000	0,027	-0,079
-288,847	800,000	0,010	-0,027
-287,832	29,679	-0,126	0,078
-286,818	-31,043	-0,065	0,027
-285,803	-89,794	0,054	-0,011
-284,789	-71,546	0,048	-0,013
-283,774	-200,000	0,046	0,166
-282,759	-200,000	0,009	0,031
-281,745	800,000	0,010	-0,032
-280,730	255,724	-0,063	0,079
-279,716	-72,895	0,058	-0,016
-278,701	-39,269	0,041	-0,016
-277,686	547,726	0,094	-0,166
-276,672	-26,717	0,053	-0,023
-275,657	-200,000	0,017	0,155
-274,643	256,102	-0,097	-0,121
-273,628	260,812	-0,085	-0,108
-272,613	4,457	0,012	0,006
-271,599	-169,052	0,041	0,001
-270,584	-90,423	0,144	-0,030
-269,570	-200,000	0,030	0,113
-268,555	-200,000	-0,002	0,138
-267,540	487,755	-0,039	-0,065
-266,526	-54,495	-0,124	0,041
-265,511	9,876	-0,024	-0,013
-264,497	800,000	0,066	-0,167
-263,482	65,819	0,037	-0,027
-262,467	123,022	-0,028	-0,026
-261,453	-6,211	0,095	0,047
-260,438	516,192	-0,070	-0,121
-259,424	-200,000	0,004	-0,023
-258,409	173,620	0,057	-0,060
-257,395	-200,000	0,019	0,094
-256,380	206,534	-0,020	-0,023
-255,365	-200,000	0,014	-0,056
-254,351	-200,000	0,026	0,148
-253,336	-200,000	-0,019	0,091
-252,322	-138,741	0,118	0,009
-251,307	703,285	-0,062	-0,120
-250,292	-83,100	0,141	-0,033
-249,278	-200,000	-0,039	0,176
-248,263	232,096	0,055	-0,066
-247,249	41,734	0,095	0,063
-246,234	-130,913	0,098	0,009
-245,219	625,072	-0,096	-0,177
-244,205	-45,742	-0,116	0,041
-243,190	-200,000	-0,011	0,124
-242,176	-200,000	0,009	0,030
-241,161	150,343	0,027	0,027
-240,146	-200,000	0,010	-0,080
-239,132	120,673	-0,069	0,062
-238,117	-132,480	-0,047	0,004
-237,103	82,187	-0,122	0,096
-236,088	-93,218	0,048	-0,010
-235,073	-109,918	0,044	0,007
-234,059	150,661	0,066	0,065
-233,044	-95,664	-0,041	0,008
-232,030	800,000	-0,061	0,174
-231,015	-88,959	-0,069	0,015
-230,000	800,000	-0,044	-0,136
-228,986	-200,000	0,005	0,046
-227,971	90,957	0,120	0,098
-226,957	169,167	0,079	0,082
-225,942	15,932	-0,102	-0,058
-224,927	-10,806	0,161	-0,078
-223,913	239,582	0,012	-0,015
-222,898	-28,305	-0,056	-0,023
-221,884	800,000	-0,034	0,086
-220,869	-200,000	0,022	-0,082
-219,855	62,807	-0,165	0,120
-218,840	327,126	0,076	-0,106
-217,825	-84,169	-0,108	-0,025
-216,811	-81,911	0,114	0,027
-215,796	347,756	0,084	0,121
-214,782	-14,092	0,039	-0,018
-213,767	-87,931	0,038	0,008
-212,752	288,004	0,101	0,133
-211,738	-102,041	-0,014	-0,002
-210,723	-1,029	0,080	0,041
-209,709	-95,359	-0,167	0,033
-208,694	-200,000	-0,025	-0,113
-207,679	643,535	-0,029	-0,054
-206,665	800,000	-0,010	-0,026
-205,650	-139,071	0,052	0,004
-204,636	239,307	-0,081	-0,099
-203,621	23,215	0,058	-0,034
-202,606	58,680	0,058	0,041
-201,592	-200,000	-0,108	-0,000
-200,577	-194,807	0,155	-0,001
-199,563	215,963	0,059	-0,069
-198,548	-171,381	0,050	0,001
-197,533	-50,781	-0,040	-0,013
-196,519	254,173	-0,081	0,101
-195,504	-200,000	-0,004	-0,055
-194,490	43,973	-0,143	-0,095
-193,475	800,000	0,033	0,068
-192,460	177,829	0,056	-0,059
-191,446	-200,000	0,007	-0,053
-190,431	-200,000	-0,001	-0,022
-189,417	-200,000	0,012	0,129
-188,402	-46,556	-0,126	0,045
-187,387	278,743	-0,045	0,059
-186,373	-71,388	-0,047	-0,013
-185,358	-200,000	-0,036	-0,122
-184,344	-200,000	0,007	-0,025
-183,329	-200,000	0,006	0,133
-182,315	-200,000	0,001	0,051
-181,300	-200,000	-0,003	-0,020
-180,285	800,000	-0,044	-0,098
-179,271	-34,884	-0,087	-0,034
-178,256	81,307	-0,117	-0,092
-177,242	232,782	-0,077	0,092
-176,227	271,205	0,139	0,178
-175,212	21,668	0,116	-0,068
-174,198	484,701	0,058	0,096
-173,183	63,024	-0,037	-0,027
-172,169	800,000	-0,044	0,101
-171,154	-200,000	0,038	0,126
-170,139	103,093	0,057	-0,048
-169,125	-200,000	-0,001	0,029
-168,110	-177,662	0,026	0,000
-167,096	-200,000	-0,027	-0,164
-166,081	-200,000	0,010	0,091
-165,066	453,496	-0,011	-0,018
-164,052	-37,059	-0,142	-0,055
-163,037	111,785	0,082	-0,072
-162,023	53,361	-0,039	0,027
-161,008	160,211	-0,076	0,077
-159,993	-200,000	-0,012	0,092
-158,979	247,547	-0,065	-0,080
-157,964	-200,000	-0,005	0,048
-156,950	113,340	-0,053	-0,047
-155,935	179,815	-0,055	0,059
-154,920	126,848	-0,046	-0,043
-153,906	800,000	0,043	0,101
-152,891	-97,438	0,090	0,017
-151,877	57,865	-0,036	0,026
-150,862	220,459	-0,049	-0,057
-149,847	-200,000	0,016	-0,113
-148,833	511,711	-0,037	-0,063
-147,818	66,087	0,019	0,014
-146,804	86,134	0,027	0,022
-145,789	-62,304	0,087	-0,026
-144,775	-148,619	-0,074	-0,004
-143,760	-157,218	0,060	0,003
-142,745	-81,769	-0,024	-0,006
-141,731	259,288	-0,040	0,051
-140,716	-200,000	0,011	-0,123
-139,702	55,942	-0,017	0,012
-138,687	44,736	-0,039	-0,026
-137,672	288,531	-0,018	-0,024
-136,658	35,509	-0,141	-0,090
-135,643	28,777	0,036	0,022
-134,629	116,549	-0,082	-0,073
-133,614	59,639	0,077	-0,055
-132,599	123,434	-0,068	0,062
-131,585	60,647	-0,055	0,040
-130,570	-7,579	0,120	0,059
-129,556	53,988	-0,044	-0,031
-128,541	-200,000	-0,024	-0,116
-127,526	-29,647	-0,072	-0,030
-126,512	43,026	0,067	0,044
-125,497	-90,676	0,107	0,022
-124,483	189,493	-0,045	0,049
-123,468	262,719	0,141	0,179
-122,453	-84,208	-0,134	0,031
-121,439	19,202	-0,085	0,050
-120,424	250,487	0,068	-0,085
-119,410	324,707	0,050	0,070
-118,395	-200,000	-0,003	0,068
