DTS Sentinel unit serial number:	SN410029Multiplexer serial number:	ORYXHardware model number:	OX2-SRSoftware version number:	ORYX F/W v4,00 Oryx Data Collector v3.7.2.0data status	okinstallation	B4 Nyhavnadifferential loss correction	single-endedforward channel	channel 2reverse channel	N/Adate	2023/12/15time	19:30:13forward acquisition time	300,00reverse acquisition time	0,00gamma	499,1914k internal	0,3138k external	0,3138temperature offset calibration	1,0000default loss term (dB/km)	0,3820temperature slope calibration	1,0000multiplexer offset coefficient	1,0000multiplexer slope coefficient	1,0000fibre end	0,00T internal ref (°C)	19,92T ext. ref 1 (°C)	5,65T ext. ref 2 (°C)	5,82length (m)	temperature (°C)	Stokes	anti-Stokes-744,400	5,264	-0,074	-0,040
-743,385	11,007	-0,278	0,157
-742,371	703,864	0,072	0,142
-741,356	-20,280	-0,167	0,076
-740,342	-30,816	0,052	0,022
-739,327	-31,841	-0,280	0,116
-738,312	800,000	0,017	0,045
-737,298	-71,589	-0,309	0,085
-736,283	209,628	-0,017	0,020
-735,269	-200,000	-0,211	0,000
-734,254	591,909	0,051	-0,095
-733,239	-44,316	-0,375	-0,139
-732,225	800,000	0,004	-0,012
-731,210	18,530	-0,154	0,091
-730,196	81,246	0,062	-0,050
-729,181	324,842	-0,041	-0,058
-728,167	-200,000	-0,000	0,020
-727,152	-114,924	0,060	0,008
-726,137	49,123	-0,065	0,045
-725,123	-138,085	-0,156	-0,013
-724,108	453,217	-0,013	-0,021
-723,094	531,106	0,055	0,097
-722,079	-34,693	-0,193	-0,078
-721,064	3,002	0,049	0,027
-720,050	-200,000	0,002	-0,111
-719,035	83,705	0,064	0,051
-718,021	-155,166	0,060	0,003
-717,006	505,154	-0,030	0,051
-715,991	12,473	-0,169	-0,096
-714,977	-48,755	-0,120	-0,043
-713,962	-200,000	-0,007	-0,124
-712,948	163,061	0,013	-0,014
-711,933	-166,100	-0,142	-0,004
-710,918	-29,502	-0,124	-0,052
-709,904	800,000	-0,041	-0,103
-708,889	218,351	0,029	0,035
-707,875	293,241	-0,056	-0,076
-706,860	81,795	0,021	0,017
-705,845	-200,000	0,012	0,148
-704,831	-200,000	0,035	0,145
-703,816	14,491	-0,061	0,035
-702,802	73,153	0,081	-0,063
-701,787	-200,000	-0,018	0,082
-700,772	-200,000	0,008	-0,025
-699,758	116,902	-0,138	-0,125
-698,743	800,000	-0,067	-0,141
-697,729	-200,000	-0,016	0,083
-696,714	495,195	-0,054	-0,092
-695,699	-65,944	-0,113	-0,033
-694,685	-200,000	0,009	0,146
-693,670	222,612	0,110	0,132
-692,656	800,000	0,021	-0,067
-691,641	-46,226	0,106	-0,038
-690,627	-49,338	0,101	0,036
-689,612	-76,548	-0,089	-0,023
-688,597	-52,490	0,127	0,043
-687,583	67,291	-0,075	-0,056
-686,568	-200,000	0,002	-0,054
-685,554	193,167	-0,024	0,027
-684,539	-25,540	0,050	-0,022
-683,524	-200,000	0,040	-0,141
-682,510	-200,000	-0,001	0,039
-681,495	-57,649	0,009	-0,003
-680,481	800,000	-0,049	-0,128
-679,466	218,456	-0,017	-0,020
-678,451	307,624	-0,037	0,051
-677,437	-152,013	0,041	0,002
-676,422	18,629	0,087	0,051
-675,408	-37,952	-0,066	-0,026
-674,393	-200,000	0,002	0,152
-673,378	417,642	0,058	-0,092
-672,364	-70,020	-0,076	-0,021
-671,349	-27,211	0,103	0,044
-670,335	239,687	0,038	-0,047
-669,320	192,385	0,029	0,032
-668,305	-200,000	-0,012	-0,049
-667,291	296,379	0,015	-0,021
-666,276	-200,000	-0,015	-0,140
-665,262	-95,883	-0,108	0,021
-664,247	-40,879	-0,044	-0,017
-663,232	-200,000	-0,001	-0,032
-662,218	-76,397	0,080	0,021
-661,203	-98,364	0,041	0,008
-660,189	146,597	0,075	0,074
-659,174	-200,000	0,011	-0,147
-658,159	413,477	-0,052	-0,082
-657,145	680,726	-0,068	0,132
-656,130	379,215	-0,051	0,077
-655,116	800,000	0,024	-0,056
-654,101	438,381	0,027	-0,044
-653,086	-167,634	0,140	0,004
-652,072	231,136	-0,117	-0,141
-651,057	403,685	-0,027	-0,042
-650,043	419,638	-0,053	0,084
-649,028	-28,677	0,041	-0,017
-648,014	-85,478	-0,103	0,023
-646,999	219,058	0,099	-0,118
-645,984	401,967	0,041	0,064
-644,970	134,122	-0,059	0,056
-643,955	87,899	-0,090	0,074
-642,941	-140,178	-0,086	-0,007
-641,926	-16,412	-0,052	0,024
-640,911	226,495	-0,015	-0,018
-639,897	470,789	0,052	0,087
-638,882	-13,043	-0,129	-0,062
-637,868	-200,000	0,004	0,014
-636,853	-65,447	-0,059	0,018
-635,838	160,565	-0,129	-0,133
-634,824	44,353	0,029	0,020
-633,809	-104,737	-0,103	-0,017
-632,795	231,276	-0,081	0,099
-631,780	-200,000	-0,006	0,097
-630,765	-50,078	-0,085	0,030
-629,751	-200,000	0,002	-0,059
-628,736	-200,000	0,032	-0,115
-627,722	-60,519	0,075	0,024
-626,707	133,815	0,008	-0,007
-625,692	-200,000	0,036	0,159
-624,678	206,134	0,035	-0,040
-623,663	-200,000	0,002	-0,101
-622,649	-99,518	0,103	-0,019
-621,634	-39,152	-0,124	-0,048
-620,619	-159,918	-0,066	0,003
-619,605	-55,322	0,007	-0,002
-618,590	-11,576	0,161	0,078
-617,576	-41,491	-0,052	0,020
-616,561	247,347	-0,118	0,147
-615,546	-200,000	-0,002	0,082
-614,532	2,390	-0,193	-0,103
-613,517	-200,000	-0,007	-0,173
-612,503	800,000	-0,034	0,071
-611,488	-138,616	0,073	0,006
-610,474	-167,865	0,172	0,005
-609,459	20,066	0,026	0,016
-608,444	-200,000	-0,008	-0,114
-607,430	233,785	-0,041	0,050
-606,415	78,835	-0,015	0,012
-605,401	-200,000	0,061	-0,204
-604,386	-78,760	-0,091	-0,023
-603,371	120,122	0,042	0,039
-602,357	22,554	0,079	-0,048
-601,342	103,102	-0,117	0,101
-600,328	800,000	0,025	0,060
-599,313	-200,000	-0,008	-0,071
-598,298	800,000	0,047	-0,109
-597,284	-200,000	-0,015	0,059
-596,269	209,273	0,019	-0,022
-595,255	800,000	-0,059	0,136
-594,240	85,989	-0,030	0,024
-593,225	34,996	-0,076	-0,049
-592,211	-120,477	-0,144	-0,018
-591,196	-200,000	0,006	-0,106
-590,182	398,274	-0,056	0,086
-589,167	-106,464	0,094	-0,015
-588,152	-200,000	-0,002	0,116
-587,138	346,444	-0,041	0,059
-586,123	-200,000	0,021	0,078
-585,109	206,963	-0,040	0,046
-584,094	800,000	-0,042	-0,130
-583,079	-200,000	-0,015	-0,056
-582,065	-200,000	-0,014	-0,111
-581,050	-200,000	0,007	0,090
-580,036	800,000	0,021	0,052
-579,021	-70,498	-0,236	0,065
-578,006	221,996	-0,117	-0,139
-576,992	-200,000	0,024	-0,157
-575,977	236,097	-0,058	0,071
-574,963	40,597	0,090	0,060
-573,948	-64,230	-0,025	-0,007
-572,934	800,000	0,023	0,060
-571,919	-114,093	-0,072	-0,010
-570,904	-200,000	-0,016	0,145
-569,890	-107,735	0,037	-0,006
-568,875	-109,147	-0,060	0,009
-567,861	-103,045	0,185	-0,032
-566,846	-200,000	0,038	0,191
-565,831	145,348	-0,107	0,106
-564,817	-53,843	-0,070	-0,023
-563,802	425,268	0,038	-0,060
-562,788	699,544	0,033	0,064
-561,773	297,641	0,093	-0,126
-560,758	281,707	0,033	-0,044
-559,744	-200,000	0,007	0,112
-558,729	171,728	-0,005	0,006
-557,715	208,068	-0,076	-0,088
-556,700	95,456	0,011	-0,009
-555,685	148,445	0,069	-0,068
-554,671	80,101	0,064	-0,051
-553,656	-200,000	0,013	0,061
-552,642	-104,316	0,095	-0,016
-551,627	-85,990	-0,090	-0,020
-550,612	-200,000	-0,017	0,070
-549,598	-200,000	-0,006	-0,075
-548,583	193,499	-0,113	-0,126
-547,569	-200,000	0,010	-0,073
-546,554	81,539	0,053	-0,042
-545,539	-100,311	0,062	0,011
-544,525	-200,000	-0,051	-0,182
-543,510	-200,000	0,007	-0,046
-542,496	21,569	0,030	0,018
-541,481	629,255	-0,068	-0,128
-540,466	-200,000	-0,018	-0,105
-539,452	289,416	-0,066	0,089
-538,437	-200,000	-0,006	0,027
-537,423	112,791	0,058	-0,051
-536,408	-200,000	0,012	-0,056
-535,393	-104,051	-0,080	0,014
-534,379	-39,870	-0,118	0,045
-533,364	-114,435	-0,148	-0,021
-532,350	137,819	-0,057	-0,055
-531,335	800,000	0,035	-0,092
-530,321	-79,695	0,045	-0,011
-529,306	500,356	-0,081	-0,138
-528,291	129,992	0,017	0,016
-527,277	-53,073	-0,087	-0,029
-526,262	204,696	-0,051	-0,058
-525,248	158,581	-0,034	0,035
-524,233	800,000	0,012	0,034
-523,218	225,201	0,078	-0,093
-522,204	784,371	0,037	0,076
-521,189	-200,000	-0,010	0,105
-520,175	-200,000	-0,005	-0,044
-519,160	11,319	0,095	0,054
-518,145	-111,062	0,090	0,013
-517,131	-68,681	-0,072	0,020
-516,116	625,714	0,029	0,053
-515,102	-165,711	0,086	-0,003
-514,087	109,023	-0,126	-0,111
-513,072	-55,721	-0,045	-0,015
-512,058	182,220	0,032	0,034
-511,043	90,222	0,034	0,028
-510,029	-200,000	0,006	0,074
-509,014	253,842	0,087	0,110
-507,999	-200,000	-0,022	-0,078
-506,985	-100,169	-0,062	0,011
-505,970	221,652	-0,078	-0,092
-504,956	-200,000	0,002	-0,176
-503,941	211,321	-0,094	-0,109
-502,926	800,000	-0,051	0,148
-501,912	800,000	0,021	0,043
-500,897	800,000	-0,010	0,027
-499,883	-88,689	0,065	0,014
-498,868	113,310	0,084	-0,075
-497,853	87,496	-0,131	-0,107
-496,839	-37,739	-0,060	0,023
-495,824	-200,000	0,015	-0,089
-494,810	25,090	-0,012	0,007
-493,795	800,000	-0,050	0,154
-492,781	800,000	0,037	-0,082
-491,766	-200,000	0,000	-0,160
-490,751	-87,338	0,077	-0,017
-489,737	-79,996	0,053	0,013
-488,722	-200,000	-0,014	0,068
-487,708	-94,145	0,142	0,028
-486,693	-19,005	-0,159	0,072
-485,678	15,978	-0,065	0,038
-484,664	479,113	0,056	-0,094
-483,649	152,803	-0,074	-0,074
-482,635	21,851	0,020	-0,012
-481,620	-61,823	0,081	0,025
-480,605	82,202	0,063	-0,050
-479,591	202,532	0,051	-0,058
-478,576	-55,567	-0,068	-0,022
-477,562	20,413	-0,136	-0,081
-476,547	-200,000	-0,006	0,075
-475,532	98,510	-0,150	0,127
-474,518	-48,626	0,088	0,031
-473,503	-200,000	-0,031	-0,101
-472,489	-200,000	-0,005	-0,131
-471,474	-142,576	0,089	-0,006
-470,459	72,299	-0,042	-0,032
-469,445	77,546	-0,069	-0,054
-468,430	55,617	-0,137	0,097
-467,416	47,515	0,075	-0,051
-466,401	27,874	0,042	-0,026
-465,386	-200,000	0,019	0,114
-464,372	-200,000	0,000	-0,046
-463,357	-118,248	-0,196	-0,025
-462,343	-75,287	-0,078	-0,020
-461,328	-180,871	0,060	-0,001
-460,313	-200,000	0,033	0,135
-459,299	218,119	-0,051	0,060
-458,284	800,000	0,027	-0,081
-457,270	-200,000	0,002	0,093
-456,255	-200,000	-0,005	0,026
-455,241	-15,131	-0,053	0,025
-454,226	42,959	-0,115	0,077
-453,211	-24,812	0,140	-0,061
-452,197	-180,402	0,082	0,001
-451,182	114,304	0,159	-0,142
-450,168	-49,218	0,124	-0,043
-449,153	-108,270	0,081	-0,013
-448,138	-0,279	-0,017	0,009
-447,124	800,000	-0,071	-0,212
-446,109	15,151	0,175	0,101
-445,095	-40,651	-0,162	0,061
-444,080	800,000	0,031	-0,090
-443,065	-130,081	-0,157	-0,016
-442,051	197,135	-0,075	-0,084
-441,036	47,339	0,100	-0,068
-440,022	246,921	-0,127	-0,158
-439,007	-153,438	0,011	-0,001
-437,992	-166,659	0,129	-0,004
-436,978	-30,106	0,038	-0,016
-435,963	-200,000	-0,007	-0,037
-434,949	-79,021	0,088	-0,022
-433,934	-177,479	-0,115	-0,002
-432,919	123,667	0,042	0,039
-431,905	-200,000	-0,030	0,110
-430,890	-200,000	0,008	0,043
-429,876	179,977	0,035	0,038
-428,861	-119,812	0,072	-0,009
-427,846	-200,000	0,000	0,015
-426,832	-123,614	0,100	0,011
-425,817	-200,000	-0,005	-0,043
-424,803	-200,000	-0,001	-0,024
-423,788	800,000	0,031	-0,095
-422,773	78,703	0,077	-0,060
-421,759	-200,000	0,000	-0,125
-420,744	1,738	0,072	-0,038
-419,730	64,587	0,078	-0,058
-418,715	75,300	-0,151	-0,117
-417,701	800,000	-0,020	0,057
-416,686	84,284	-0,035	-0,028
-415,671	336,681	0,083	0,119
-414,657	356,968	0,038	-0,055
-413,642	249,967	-0,129	0,161
-412,628	60,358	-0,061	-0,044
-411,613	-129,529	-0,170	0,017
-410,598	191,892	0,089	-0,099
-409,584	-200,000	-0,002	-0,010
-408,569	-90,512	0,101	0,021
-407,555	-29,710	-0,154	0,064
-406,540	169,891	0,100	-0,104
-405,525	247,659	-0,038	-0,047
-404,511	-52,332	0,111	0,037
-403,496	-53,790	-0,091	-0,030
-402,482	170,966	0,068	0,072
-401,467	800,000	0,017	-0,040
-400,452	800,000	0,058	0,127
-399,438	34,485	0,132	0,084
-398,423	72,512	-0,138	-0,105
-397,409	-88,294	-0,151	-0,033
-396,394	531,518	0,030	0,052
-395,379	-125,951	-0,081	0,009
-394,365	800,000	-0,047	-0,106
-393,350	800,000	-0,037	0,081
-392,336	158,649	-0,063	0,064
-391,321	-200,000	0,043	-0,140
-390,306	800,000	0,056	-0,126
-389,292	11,997	-0,140	0,079
-388,277	52,420	0,020	0,014
-387,263	-127,044	0,104	0,011
-386,248	38,155	-0,009	0,006
-385,233	183,121	-0,032	-0,035
-384,219	248,577	0,048	0,059
-383,204	-114,975	-0,071	0,010
-382,190	7,290	-0,138	-0,075
-381,175	355,964	0,086	0,126
-380,160	-200,000	0,021	0,088
-379,146	-200,000	0,014	0,060
-378,131	-159,916	-0,091	-0,004
-377,117	-21,813	-0,034	-0,015
-376,102	800,000	0,024	0,074
-375,088	250,594	-0,077	-0,096
-374,073	-157,122	-0,129	-0,006
-373,058	-200,000	-0,002	-0,054
-372,044	-22,299	-0,008	0,003
-371,029	124,654	0,132	0,122
-370,015	509,114	-0,049	0,083
-369,000	-200,000	-0,022	-0,077
-367,985	-21,483	-0,043	-0,019
-366,971	-135,984	0,097	0,008
-365,956	-118,702	0,116	-0,015
-364,942	-200,000	-0,025	-0,117
-363,927	800,000	0,053	-0,150
-362,912	-75,108	0,012	-0,003
-361,898	92,133	-0,049	0,041
-360,883	-3,108	-0,080	-0,041
-359,869	-5,847	0,070	-0,035
-358,854	-25,690	0,128	-0,055
-357,839	-18,038	0,088	-0,040
-356,825	18,660	0,127	0,074
-355,810	-200,000	0,035	-0,137
-354,796	739,616	0,023	0,045
-353,781	360,462	-0,051	-0,075
-352,766	466,917	0,049	-0,081
-351,752	-45,414	-0,056	-0,020
-350,737	-200,000	0,006	-0,084
-349,723	-200,000	-0,006	0,068
-348,708	196,863	0,056	0,062
-347,693	-114,442	0,040	-0,006
-346,679	40,662	0,059	-0,039
-345,664	-200,000	-0,030	0,111
-344,650	33,851	-0,056	-0,036
-343,635	61,600	0,021	-0,015
-342,620	800,000	0,029	0,080
-341,606	-200,000	0,023	-0,100
-340,591	25,943	-0,104	-0,063
-339,577	-200,000	0,013	0,108
-338,562	800,000	0,030	0,084
-337,548	-89,672	0,036	-0,008
-336,533	304,260	0,038	0,051
-335,518	675,532	0,035	0,067
-334,504	-200,000	-0,015	0,064
-333,489	-46,577	0,031	0,011
-332,475	19,950	-0,096	-0,056
-331,460	800,000	-0,013	-0,036
-330,445	-26,016	0,038	-0,016
-329,431	31,010	-0,104	0,065
-328,416	-96,557	0,259	0,049
-327,402	94,512	-0,113	0,094
-326,387	800,000	0,015	0,031
-325,372	-200,000	0,009	0,095
-324,358	-50,051	-0,033	0,011
-323,343	-174,313	0,057	0,001
-322,329	13,869	0,032	-0,018
-321,314	7,223	0,090	0,049
-320,299	800,000	-0,083	0,195
-319,285	800,000	-0,016	0,042
-318,270	759,528	-0,015	-0,030
-317,256	-127,882	0,097	0,010
-316,241	-63,389	-0,029	0,009
-315,226	-154,251	0,127	0,006
-314,212	800,000	-0,039	0,110
-313,197	272,964	0,090	-0,116
-312,183	67,744	0,146	0,109
-311,168	800,000	-0,031	-0,071
-310,153	232,436	-0,039	0,047
-309,139	-135,840	-0,108	-0,009
-308,124	-112,878	0,045	0,006
-307,110	-200,000	0,035	0,139
-306,095	15,920	-0,049	0,028
-305,080	285,268	0,045	0,060
-304,066	-200,000	0,025	0,094
-303,051	34,309	0,088	-0,056
-302,037	143,416	-0,034	0,033
-301,022	92,613	0,021	0,017
-300,008	-20,173	0,209	0,094
-298,993	30,505	-0,051	-0,032
-297,978	-200,000	0,008	-0,153
-296,964	-72,557	0,099	0,027
-295,949	35,825	-0,093	-0,060
-294,935	-59,897	-0,014	0,004
-293,920	800,000	-0,033	0,076
-292,905	100,219	0,169	-0,143
-291,891	793,674	0,053	0,108
-290,876	512,222	-0,012	-0,020
-289,862	-174,460	0,165	0,003
-288,847	-200,000	0,002	-0,036
-287,832	302,743	-0,088	-0,119
-286,818	148,036	0,079	-0,077
-285,803	356,583	0,041	-0,059
-284,789	-200,000	-0,019	-0,123
-283,774	-140,745	-0,073	0,005
-282,759	53,096	-0,026	-0,018
-281,745	800,000	0,020	-0,059
-280,730	-200,000	0,007	-0,046
-279,716	-200,000	-0,016	0,102
-278,701	580,760	-0,023	0,041
-277,686	210,625	0,096	0,110
-276,672	120,106	-0,055	0,050
-275,657	690,925	-0,028	-0,054
-274,643	188,186	0,042	-0,046
-273,628	800,000	-0,033	-0,080
-272,613	-200,000	0,001	0,028
-271,599	97,084	0,071	0,059
-270,584	590,790	0,070	0,126
-269,570	127,037	-0,074	0,068
-268,555	240,789	-0,075	-0,091
-267,540	-171,276	0,015	0,000
-266,526	800,000	-0,027	-0,056
-265,511	123,073	-0,131	0,120
-264,497	-200,000	0,015	0,000
-263,482	800,000	-0,059	-0,141
-262,467	-98,195	0,030	0,006
-261,453	-136,519	-0,079	0,007
-260,438	-200,000	0,007	-0,044
-259,424	800,000	-0,018	0,039
-258,409	-200,000	-0,022	-0,078
-257,395	-120,073	0,049	0,006
-256,380	390,445	0,012	-0,018
-255,365	-200,000	0,036	0,178
-254,351	-73,106	0,116	-0,031
-253,336	95,397	-0,135	0,112
-252,322	375,371	-0,043	0,063
-251,307	-200,000	-0,016	-0,086
-250,292	-90,700	0,095	-0,020
-249,278	800,000	0,013	-0,030
-248,263	-200,000	0,016	0,163
-247,249	-200,000	-0,018	0,079
-246,234	367,230	-0,005	0,007
-245,219	-154,063	0,135	-0,007
-244,205	82,803	-0,144	0,114
-243,190	-200,000	0,008	0,094
-242,176	800,000	0,064	0,131
-241,161	91,521	0,066	-0,054
-240,146	-175,067	0,061	-0,001
-239,132	-190,090	0,147	-0,001
-238,117	-69,393	0,051	-0,014
-237,103	47,605	0,093	-0,063
-236,088	97,687	0,025	0,021
-235,073	5,374	0,157	0,084
-234,059	-200,000	-0,004	0,036
-233,044	800,000	-0,053	0,130
-232,030	-108,955	-0,079	-0,012
-231,015	-102,516	-0,078	-0,013
-230,000	1,522	-0,051	-0,026
-228,986	48,299	-0,109	-0,074
-227,971	-200,000	0,012	0,069
-226,957	-139,480	0,133	0,010
-225,942	800,000	-0,057	0,139
-224,927	-104,669	0,079	-0,013
-223,913	-200,000	-0,031	0,115
-222,898	-116,073	-0,068	0,009
-221,884	605,609	-0,013	0,024
-220,869	394,063	0,081	-0,122
-219,855	57,410	0,036	0,026
-218,840	-200,000	0,025	0,107
-217,825	89,973	-0,068	-0,055
-216,811	175,029	-0,083	0,087
-215,796	96,437	-0,096	0,080
-214,782	-200,000	-0,028	0,149
-213,767	-200,000	0,009	0,104
-212,752	526,572	-0,082	0,141
-211,738	207,842	-0,019	0,021
-210,723	-81,442	0,052	0,012
-209,709	-47,159	0,111	0,039
-208,694	348,511	-0,056	-0,081
-207,679	-89,922	-0,130	-0,027
-206,665	271,042	0,035	-0,045
-205,650	48,734	0,010	0,007
-204,636	-200,000	0,035	-0,140
-203,621	-48,649	0,124	-0,043
-202,606	-85,066	-0,070	0,016
-201,592	30,598	-0,130	-0,081
-200,577	800,000	-0,095	-0,203
-199,563	-93,942	-0,025	-0,005
-198,548	-87,218	0,070	0,015
-197,533	800,000	0,051	0,152
-196,519	632,451	0,016	0,029
-195,504	-132,019	0,013	-0,001
-194,490	166,869	-0,024	0,025
-193,475	-200,000	-0,007	-0,088
-192,460	113,197	0,051	-0,045
-191,446	-33,194	0,086	0,034
-190,431	284,325	0,083	0,108
-189,417	318,821	-0,028	0,038
-188,402	16,168	0,150	-0,086
-187,387	386,736	0,028	-0,042
-186,373	-200,000	0,011	-0,055
-185,358	800,000	-0,031	-0,082
-184,344	-200,000	-0,005	0,077
-183,329	-200,000	0,022	0,100
-182,315	152,240	0,165	0,163
-181,300	800,000	-0,024	-0,071
-180,285	-200,000	-0,012	-0,055
-179,271	-47,655	-0,052	-0,018
-178,256	-77,611	0,079	0,020
-177,242	238,019	0,082	0,100
-176,227	-200,000	0,001	0,107
-175,212	186,668	-0,012	-0,013
-174,198	-200,000	-0,011	-0,126
-173,183	-18,537	0,066	-0,030
-172,169	-200,000	-0,002	-0,061
-171,154	-200,000	0,019	0,170
-170,139	-116,951	0,055	-0,007
-169,125	458,203	0,042	-0,069
-168,110	59,487	-0,055	-0,039
-167,096	184,307	-0,068	0,074
-166,081	92,170	-0,092	-0,075
-165,066	559,987	-0,052	0,092
-164,052	-200,000	0,001	-0,058
-163,037	-200,000	0,005	0,097
-162,023	-61,027	0,120	-0,037
-161,008	-101,446	0,031	0,005
-159,993	428,432	0,065	-0,102
-158,979	-131,645	-0,163	-0,015
-157,964	-145,813	-0,070	0,004
-156,950	81,955	0,045	0,036
-155,935	-123,454	-0,087	0,010
-154,920	-145,075	0,086	0,006
-153,906	-52,188	0,078	0,026
-152,891	-146,495	0,028	-0,002
-151,877	-25,893	0,108	-0,046
-150,862	-200,000	0,035	0,118
-149,847	62,230	0,046	-0,033
-148,833	222,983	0,090	-0,105
-147,818	-200,000	0,024	0,156
-146,804	55,345	0,053	0,037
-145,789	-23,699	-0,085	0,037
-144,775	5,667	-0,120	0,064
-143,760	-81,262	-0,044	-0,010
-142,745	-200,000	0,003	-0,129
-141,731	-200,000	-0,009	-0,037
-140,716	-200,000	0,006	0,052
-139,702	305,010	-0,052	0,070
-138,687	353,766	-0,024	0,034
-137,672	800,000	-0,018	0,038
-136,658	-92,742	0,010	0,002
-135,643	277,136	-0,068	-0,087
-134,629	-80,814	0,063	-0,015
-133,614	288,646	0,065	0,085
-132,599	-200,000	0,008	0,090
-131,585	-200,000	0,012	0,042
-130,570	800,000	-0,043	-0,118
-129,556	25,544	0,055	-0,033
-128,541	800,000	-0,068	-0,143
-127,526	116,785	0,109	0,097
-126,512	-28,901	-0,125	-0,052
-125,497	528,889	0,044	-0,076
-124,483	-23,960	0,032	-0,014
-123,468	800,000	-0,007	0,017
-122,453	800,000	0,030	0,062
-121,439	-125,253	0,069	0,008
-120,424	-126,387	-0,132	-0,014
-119,410	80,084	-0,027	-0,021
