DTS Sentinel unit serial number:	SN410029Multiplexer serial number:	ORYXHardware model number:	OX2-SRSoftware version number:	ORYX F/W v4,00 Oryx Data Collector v3.7.2.0data status	okinstallation	B4 Nyhavnadifferential loss correction	single-endedforward channel	channel 2reverse channel	N/Adate	2023/12/15time	20:20:13forward acquisition time	300,00reverse acquisition time	0,00gamma	499,1914k internal	0,3136k external	0,3136temperature offset calibration	1,0000default loss term (dB/km)	0,3820temperature slope calibration	1,0000multiplexer offset coefficient	1,0000multiplexer slope coefficient	1,0000fibre end	0,00T internal ref (°C)	20,48T ext. ref 1 (°C)	5,71T ext. ref 2 (°C)	5,90length (m)	temperature (°C)	Stokes	anti-Stokes-744,400	436,423	-0,078	-0,127
-743,385	-141,414	-0,315	-0,023
-742,371	800,000	0,045	0,095
-741,356	-14,039	-0,197	0,094
-740,342	-138,918	0,127	0,010
-739,327	-151,034	-0,259	-0,014
-738,312	435,316	0,028	0,045
-737,298	109,807	-0,059	0,052
-736,283	207,282	0,079	0,091
-735,269	53,520	-0,129	0,092
-734,254	-200,000	-0,019	0,158
-733,239	-45,578	-0,374	-0,136
-732,225	154,882	0,085	0,086
-731,210	800,000	-0,038	0,102
-730,196	-200,000	-0,032	-0,190
-729,181	-200,000	-0,023	0,112
-728,167	63,931	0,100	0,075
-727,152	172,573	-0,066	0,071
-726,137	-200,000	0,001	-0,067
-725,123	392,967	-0,006	-0,009
-724,108	-200,000	-0,016	-0,125
-723,094	-200,000	0,027	-0,188
-722,079	273,875	-0,042	0,056
-721,064	-92,648	0,138	-0,028
-720,050	-200,000	-0,026	0,120
-719,035	-200,000	0,021	0,182
-718,021	99,396	0,015	-0,013
-717,006	-81,212	-0,133	0,032
-715,991	800,000	0,066	-0,138
-714,977	188,831	-0,041	0,046
-713,962	800,000	0,016	-0,047
-712,948	142,469	-0,092	0,091
-711,933	-200,000	-0,003	-0,040
-710,918	-180,662	-0,072	-0,001
-709,904	51,767	-0,123	0,086
-708,889	-60,735	-0,121	-0,038
-707,875	-200,000	-0,039	-0,162
-706,860	-100,680	-0,020	0,004
-705,845	-200,000	-0,012	0,063
-704,831	663,007	0,014	-0,027
-703,816	-48,500	0,065	0,023
-702,802	19,693	0,120	-0,071
-701,787	-200,000	0,002	-0,026
-700,772	76,554	-0,061	-0,048
-699,758	800,000	0,037	0,105
-698,743	243,759	-0,049	0,061
-697,729	-75,938	0,037	-0,010
-696,714	800,000	0,059	0,180
-695,699	-200,000	0,016	0,100
-694,685	5,112	-0,066	-0,036
-693,670	-200,000	-0,011	-0,118
-692,656	-200,000	0,024	-0,103
-691,641	24,676	0,051	-0,031
-690,627	-200,000	0,008	-0,030
-689,612	-10,042	-0,109	-0,054
-688,597	50,911	-0,036	-0,025
-687,583	-200,000	-0,031	-0,171
-686,568	-86,286	0,087	0,020
-685,554	-50,432	-0,100	0,035
-684,539	-171,728	-0,063	-0,001
-683,524	800,000	0,017	0,048
-682,510	14,353	-0,118	-0,068
-681,495	503,358	0,041	0,070
-680,481	-200,000	-0,010	-0,095
-679,466	144,308	0,027	0,026
-678,451	294,372	-0,081	-0,109
-677,437	-119,759	0,135	-0,017
-676,422	6,395	-0,080	0,044
-675,408	361,511	0,073	0,108
-674,393	444,964	-0,056	-0,092
-673,378	-200,000	-0,062	-0,206
-672,364	159,273	-0,163	-0,168
-671,349	119,307	0,004	0,003
-670,335	138,292	0,008	0,008
-669,320	-101,681	0,061	-0,011
-668,305	800,000	0,037	0,088
-667,291	800,000	0,022	-0,059
-666,276	-200,000	-0,008	-0,078
-665,262	800,000	0,012	0,029
-664,247	-200,000	0,035	-0,151
-663,232	800,000	-0,038	-0,090
-662,218	800,000	0,031	0,098
-661,203	-146,051	-0,128	-0,008
-660,189	-200,000	0,026	0,103
-659,174	-200,000	0,005	-0,130
-658,159	-148,923	-0,064	-0,004
-657,145	-178,689	-0,168	0,003
-656,130	473,921	-0,016	-0,027
-655,116	-200,000	-0,028	0,116
-654,101	1,068	-0,074	-0,039
-653,086	-200,000	-0,005	0,049
-652,072	71,607	0,012	-0,009
-651,057	145,156	-0,103	-0,102
-650,043	-200,000	-0,019	-0,073
-649,028	-48,519	-0,084	-0,030
-648,014	179,888	-0,056	0,061
-646,999	139,514	0,149	0,145
-645,984	-200,000	-0,026	0,152
-644,970	-14,129	-0,109	-0,052
-643,955	200,281	-0,087	0,099
-642,941	-43,933	0,167	0,062
-641,926	-200,000	-0,065	-0,216
-640,911	473,259	0,059	0,098
-639,897	-140,493	-0,024	0,002
-638,882	-119,800	0,100	0,013
-637,868	-200,000	-0,031	-0,108
-636,853	-92,048	0,107	-0,022
-635,838	800,000	-0,076	-0,167
-634,824	213,894	0,020	0,024
-633,809	-200,000	-0,024	0,190
-632,795	-200,000	0,002	0,024
-631,780	82,590	-0,081	0,065
-630,765	-200,000	0,017	-0,070
-629,751	287,289	-0,080	0,108
-628,736	394,063	0,079	-0,122
-627,722	132,211	-0,032	-0,030
-626,707	49,733	-0,067	-0,047
-625,692	-200,000	0,002	0,102
-624,678	83,323	0,025	-0,020
-623,663	422,643	-0,034	-0,053
-622,649	283,483	0,023	0,031
-621,634	-37,441	-0,141	-0,055
-620,619	-154,131	-0,221	0,011
-619,605	-73,535	-0,059	0,016
-618,590	-157,747	0,066	-0,003
-617,576	323,434	-0,045	0,064
-616,561	99,761	0,038	-0,032
-615,546	-111,492	-0,097	0,014
-614,532	35,998	-0,122	-0,079
-613,517	-200,000	0,023	-0,105
-612,503	800,000	-0,013	-0,031
-611,488	-141,481	0,136	-0,010
-610,474	-140,242	0,112	0,009
-609,459	653,066	0,019	0,036
-608,444	326,290	-0,054	0,076
-607,430	86,325	-0,023	-0,019
-606,415	428,370	-0,108	0,172
-605,401	488,605	-0,015	0,026
-604,386	800,000	0,043	-0,129
-603,371	611,333	0,105	0,195
-602,357	-95,329	0,057	-0,011
-601,342	-200,000	0,006	-0,041
-600,328	0,302	-0,052	0,027
-599,313	-8,455	-0,117	-0,058
-598,298	214,590	-0,055	-0,064
-597,284	-200,000	-0,010	-0,048
-596,269	504,521	0,036	-0,062
-595,255	541,002	-0,076	0,134
-594,240	31,257	0,129	-0,082
-593,225	177,039	-0,072	-0,077
-592,211	800,000	-0,061	-0,126
-591,196	-200,000	0,032	-0,113
-590,182	-32,413	0,098	0,040
-589,167	12,799	-0,151	0,086
-588,152	0,439	-0,032	0,017
-587,138	-200,000	-0,008	-0,070
-586,123	81,289	-0,122	-0,097
-585,109	-200,000	-0,006	0,052
-584,094	-31,956	-0,043	-0,018
-583,079	-200,000	0,006	-0,020
-582,065	-23,532	0,034	0,015
-581,050	34,273	0,010	0,007
-580,036	-200,000	-0,015	-0,098
-579,021	-200,000	-0,018	-0,072
-578,006	-110,341	-0,145	-0,022
-576,992	-22,779	0,133	-0,059
-575,977	-200,000	0,013	0,100
-574,963	47,456	-0,117	0,080
-573,948	-90,037	-0,115	0,025
-572,934	16,406	-0,091	-0,053
-571,919	800,000	-0,032	-0,078
-570,904	-200,000	0,013	-0,111
-569,890	800,000	0,038	-0,095
-568,875	-23,465	0,142	0,062
-567,861	-113,311	0,134	-0,019
-566,846	-200,000	-0,001	-0,030
-565,831	-200,000	-0,027	-0,134
-564,817	-100,308	-0,135	-0,025
-563,802	602,499	-0,007	-0,013
-562,788	233,667	-0,033	-0,040
-561,773	52,443	0,113	-0,079
-560,758	-39,954	0,159	-0,061
-559,744	800,000	0,015	-0,045
-558,729	-200,000	0,025	-0,086
-557,715	111,781	-0,064	0,057
-556,700	-55,248	0,121	0,040
-555,685	88,700	-0,060	-0,049
-554,671	457,113	0,059	0,097
-553,656	-200,000	-0,004	0,031
-552,642	62,896	0,135	0,099
-551,627	-200,000	-0,015	-0,060
-550,612	-20,094	-0,078	-0,036
-549,598	-200,000	0,009	-0,063
-548,583	-79,734	0,113	-0,028
-547,569	-121,947	-0,114	-0,014
-546,554	24,049	0,175	0,106
-545,539	245,424	-0,023	-0,028
-544,525	-4,874	0,105	-0,053
-543,510	-69,978	-0,164	-0,046
-542,496	800,000	0,025	-0,070
-541,481	137,201	-0,097	0,093
-540,466	92,587	-0,049	0,041
-539,452	-106,526	0,096	0,016
-538,437	-200,000	0,152	0,000
-537,423	-111,899	0,098	-0,014
-536,408	-116,331	-0,093	-0,013
-535,393	111,471	-0,062	0,055
-534,379	45,569	0,057	-0,038
-533,364	166,556	0,072	-0,075
-532,350	-172,168	0,172	-0,004
-531,335	-96,908	-0,156	-0,030
-530,321	22,104	0,038	-0,023
-529,306	800,000	-0,023	0,063
-528,291	-200,000	0,050	0,177
-527,277	702,960	0,037	0,071
-526,262	-94,920	0,091	0,018
-525,248	225,398	0,015	0,018
-524,233	-78,628	-0,112	0,028
-523,218	-200,000	-0,007	-0,080
-522,204	-160,166	0,028	0,001
-521,189	112,518	-0,035	-0,031
-520,175	-39,572	-0,073	0,028
-519,160	91,611	0,101	-0,084
-518,145	62,846	-0,131	-0,097
-517,131	-128,211	0,067	0,007
-516,116	-200,000	-0,021	0,089
-515,102	-53,070	-0,113	-0,038
-514,087	800,000	0,050	-0,104
-513,072	-15,091	-0,085	-0,040
-512,058	-17,583	-0,060	-0,028
-511,043	-76,937	0,123	-0,031
-510,029	-64,136	0,038	-0,011
-509,014	238,760	-0,051	-0,063
-507,999	173,652	0,013	-0,014
-506,985	-105,108	0,090	0,015
-505,970	-90,552	-0,143	0,030
-504,956	17,792	0,096	-0,056
-503,941	-18,130	0,016	0,007
-502,926	-200,000	-0,027	0,138
-501,912	-103,707	0,157	0,027
-500,897	239,348	0,092	0,113
-499,883	105,974	-0,087	0,076
-498,868	255,195	-0,048	0,061
-497,853	-13,926	-0,115	-0,055
-496,839	-157,809	0,071	-0,003
-495,824	800,000	0,048	0,122
-494,810	149,395	0,048	0,048
-493,795	37,563	-0,079	0,052
-492,781	800,000	0,071	-0,148
-491,766	800,000	0,049	-0,117
-490,751	-36,065	-0,150	-0,059
-489,737	-200,000	-0,008	-0,081
-488,722	-132,898	0,096	0,009
-487,708	-140,607	0,057	-0,004
-486,693	-200,000	0,002	0,076
-485,678	714,071	-0,034	0,067
-484,664	-200,000	-0,013	-0,042
-483,649	3,176	0,087	0,046
-482,635	-138,576	0,156	0,012
-481,620	176,871	-0,061	0,065
-480,605	-16,309	0,061	0,028
-479,591	-123,515	-0,064	-0,007
-478,576	473,580	0,061	-0,101
-477,562	12,026	-0,038	0,021
-476,547	-65,732	-0,060	0,017
-475,532	162,029	0,096	-0,099
-474,518	619,993	0,021	0,039
-473,503	-187,953	0,115	-0,001
-472,489	-200,000	-0,021	0,073
-471,474	-200,000	0,021	0,103
-470,459	-32,204	-0,074	0,030
-469,445	-72,121	-0,043	-0,012
-468,430	-117,560	-0,031	-0,004
-467,416	82,751	0,064	-0,051
-466,401	-14,270	-0,027	-0,013
-465,386	276,715	0,045	0,058
-464,372	144,403	-0,061	0,059
-463,357	-200,000	0,008	0,106
-462,343	-134,348	0,102	0,009
-461,328	-200,000	0,006	0,168
-460,313	-200,000	0,057	-0,192
-459,299	800,000	0,036	-0,096
-458,284	-200,000	0,012	0,058
-457,270	-200,000	-0,027	0,108
-456,255	91,647	0,077	0,063
-455,241	133,569	-0,086	-0,082
-454,226	-200,000	0,009	-0,108
-453,211	-134,141	-0,076	-0,007
-452,197	202,800	0,105	0,119
-451,182	-200,000	0,001	0,022
-450,168	-9,060	-0,092	0,045
-449,153	-200,000	0,013	0,066
-448,138	-79,803	-0,062	0,015
-447,124	-89,113	-0,011	0,002
-446,109	109,354	0,057	-0,050
-445,095	519,483	0,050	0,087
-444,080	22,302	-0,072	0,043
-443,065	58,937	0,076	0,055
-442,051	138,130	-0,022	0,021
-441,036	137,754	-0,028	-0,027
-440,022	-200,000	0,001	0,021
-439,007	127,728	0,082	-0,076
-437,992	118,882	-0,018	-0,016
-436,978	332,324	0,084	0,119
-435,963	-16,923	0,083	-0,038
-434,949	-200,000	-0,036	0,128
-433,934	-21,790	-0,074	0,033
-432,919	-159,569	-0,067	-0,003
-431,905	-44,337	0,079	0,029
-430,890	-200,000	0,007	0,126
-429,876	-200,000	-0,059	0,228
-428,861	800,000	0,048	0,098
-427,846	127,309	0,035	-0,032
-426,832	-0,218	-0,099	0,051
-425,817	417,414	-0,108	-0,169
-424,803	-125,491	0,065	-0,007
-423,788	233,819	0,088	0,106
-422,773	508,164	0,076	0,129
-421,759	-200,000	-0,016	0,121
-420,744	340,042	0,072	-0,103
-419,730	15,819	0,026	-0,015
-418,715	-93,387	-0,117	-0,024
-417,701	800,000	-0,003	-0,010
-416,686	-12,268	-0,080	-0,038
-415,671	-200,000	-0,007	-0,052
-414,657	-200,000	0,022	0,145
-413,642	307,411	-0,054	0,074
-412,628	-200,000	0,017	-0,202
-411,613	629,057	0,021	0,039
-410,598	800,000	0,020	-0,062
-409,584	416,266	0,052	0,082
-408,569	469,310	0,070	-0,115
-407,555	132,360	0,076	0,071
-406,540	146,618	0,008	0,007
-405,525	-112,787	-0,185	0,027
-404,511	14,226	-0,089	0,051
-403,496	-200,000	-0,001	-0,021
-402,482	774,244	0,089	0,178
-401,467	-77,697	0,047	0,012
-400,452	343,722	0,037	-0,054
-399,438	141,836	0,099	-0,096
-398,423	-104,988	-0,125	-0,021
-397,409	-200,000	-0,017	-0,158
-396,394	800,000	0,086	-0,210
-395,379	-53,623	-0,131	0,044
-394,365	-20,297	0,032	-0,014
-393,350	-144,407	0,140	0,009
-392,336	-41,486	-0,101	-0,038
-391,321	59,093	-0,038	-0,027
-390,306	-74,557	0,065	0,017
-389,292	196,268	-0,095	0,106
-388,277	-23,263	0,020	-0,009
-387,263	154,832	-0,020	0,021
-386,248	-200,000	-0,009	0,055
-385,233	-105,148	0,140	-0,023
-384,219	800,000	-0,025	0,077
-383,204	266,580	0,028	0,036
-382,190	790,557	-0,042	-0,084
-381,175	800,000	0,020	-0,047
-380,160	-174,937	0,053	-0,001
-379,146	115,781	-0,017	0,015
-378,131	40,915	0,083	0,055
-377,117	60,680	0,018	0,013
-376,102	-137,930	-0,208	-0,017
-375,088	473,606	0,050	-0,083
-374,073	189,512	0,050	0,055
-373,058	114,208	0,022	0,020
-372,044	-186,837	0,107	-0,001
-371,029	34,257	0,034	-0,022
-370,015	698,326	0,055	0,106
-369,000	137,669	0,059	0,056
-367,985	-200,000	0,010	-0,041
-366,971	-200,000	-0,025	-0,096
-365,956	-200,000	0,006	0,030
-364,942	-136,657	-0,042	0,004
-363,927	113,433	0,098	0,087
-362,912	800,000	-0,019	0,050
-361,898	192,712	0,044	0,048
-360,883	-200,000	-0,010	0,048
-359,869	137,762	-0,082	0,079
-358,854	609,571	0,039	0,072
-357,839	-22,012	0,033	-0,015
-356,825	-92,640	-0,030	-0,006
-355,810	728,952	-0,021	0,042
-354,796	-4,916	0,102	-0,051
-353,781	-200,000	0,001	-0,055
-352,766	-75,054	0,161	-0,042
-351,752	800,000	-0,039	-0,110
-350,737	-155,049	0,147	-0,007
-349,723	191,962	0,079	-0,087
-348,708	167,904	-0,070	0,073
-347,693	111,725	-0,073	-0,065
-346,679	115,863	-0,045	-0,041
-345,664	441,996	-0,070	-0,113
-344,650	40,507	0,133	-0,088
-343,635	-200,000	0,014	0,093
-342,620	-200,000	0,006	0,134
-341,606	-132,316	-0,098	-0,009
-340,591	63,171	0,024	-0,018
-339,577	462,279	0,007	0,011
-338,562	572,309	-0,023	0,042
-337,548	189,048	-0,037	-0,041
-336,533	-200,000	0,008	0,087
-335,518	800,000	-0,009	-0,021
-334,504	70,524	0,082	0,062
-333,489	28,121	0,092	-0,057
-332,475	91,662	-0,021	-0,017
-331,460	264,228	-0,063	-0,081
-330,445	79,702	-0,102	0,080
-329,431	11,149	0,082	0,046
-328,416	-200,000	0,007	-0,038
-327,402	26,668	0,087	-0,053
-326,387	-89,883	0,088	0,019
-325,372	71,261	-0,098	0,074
-324,358	33,930	-0,097	0,062
-323,343	13,475	0,134	-0,076
-322,329	-200,000	-0,017	0,096
-321,314	-200,000	0,028	0,098
-320,299	44,190	0,076	0,051
-319,285	-87,153	-0,081	-0,018
-318,270	128,245	-0,062	0,058
-317,256	148,577	-0,107	-0,106
-316,241	-87,853	0,022	0,005
-315,226	-200,000	-0,039	-0,205
-314,212	64,303	0,109	0,080
-313,197	-200,000	0,012	0,176
-312,183	9,217	-0,052	0,028
-311,168	92,715	-0,069	0,057
-310,153	-135,851	-0,066	-0,006
-309,139	-31,006	0,062	0,026
-308,124	76,138	0,018	-0,014
-307,110	-143,343	0,080	0,006
-306,095	-200,000	0,012	0,103
-305,080	121,931	-0,044	-0,040
-304,066	800,000	0,008	0,022
-303,051	156,456	-0,081	-0,082
-302,037	60,710	-0,027	-0,019
-301,022	69,028	0,112	-0,084
-300,008	-200,000	-0,034	-0,143
-298,993	345,037	-0,023	-0,033
-297,978	412,684	-0,012	-0,018
-296,964	150,698	-0,104	0,103
-295,949	-58,774	-0,087	0,027
-294,935	800,000	0,033	-0,079
-293,920	-159,716	-0,083	-0,003
-292,905	800,000	-0,030	0,090
-291,891	158,651	0,050	0,051
-290,876	591,847	0,072	-0,131
-289,862	800,000	0,027	-0,083
-288,847	-111,386	-0,099	-0,015
-287,832	-200,000	0,024	-0,179
-286,818	759,892	-0,021	-0,042
-285,803	114,772	0,052	0,047
-284,789	-22,056	0,123	-0,054
-283,774	-126,826	-0,042	0,005
-282,759	800,000	-0,062	0,150
-281,745	-50,457	-0,138	0,047
-280,730	-30,482	-0,062	-0,025
-279,716	-31,642	-0,114	-0,046
-278,701	746,507	-0,022	0,043
-277,686	-19,905	0,070	-0,031
-276,672	-200,000	0,006	0,079
-275,657	-4,493	0,106	-0,053
-274,643	89,614	-0,104	-0,085
-273,628	406,806	0,054	-0,084
-272,613	-200,000	0,009	0,043
-271,599	42,407	-0,087	-0,057
-270,584	-91,824	0,137	-0,028
-269,570	-200,000	-0,011	-0,041
-268,555	-131,933	0,123	-0,012
-267,540	452,257	-0,013	0,021
-266,526	-200,000	-0,049	-0,190
-265,511	161,822	-0,065	-0,067
-264,497	-25,657	0,050	0,022
-263,482	-61,287	0,124	0,038
-262,467	-200,000	-0,006	-0,022
-261,453	-86,750	0,066	0,015
-260,438	-105,378	-0,079	0,013
-259,424	216,364	0,100	-0,116
-258,409	800,000	-0,010	-0,024
-257,395	-200,000	0,009	0,092
-256,380	253,673	0,054	-0,067
-255,365	-133,537	-0,043	0,004
-254,351	-31,960	-0,109	0,044
-253,336	-71,921	-0,086	0,023
-252,322	240,780	0,042	-0,051
-251,307	-200,000	0,000	0,009
-250,292	-29,220	-0,027	0,011
-249,278	-66,531	0,110	-0,031
-248,263	401,808	-0,045	0,069
-247,249	-8,931	0,066	-0,032
-246,234	-33,366	-0,117	-0,047
-245,219	296,011	-0,052	-0,069
-244,205	-62,962	0,126	-0,038
-243,190	-200,000	-0,005	-0,030
-242,176	-42,849	0,143	-0,053
-241,161	84,248	0,072	-0,057
-240,146	-200,000	0,027	-0,114
-239,132	715,244	0,025	-0,048
-238,117	296,909	0,024	0,032
-237,103	-84,422	-0,141	0,032
-236,088	-200,000	0,006	0,035
-235,073	-200,000	-0,011	0,085
-234,059	117,236	0,023	0,020
-233,044	-200,000	0,007	0,059
-232,030	-200,000	-0,031	0,130
-231,015	-143,914	-0,072	0,005
-230,000	-200,000	0,023	0,080
-228,986	-200,000	0,008	0,196
-227,971	-150,812	-0,014	-0,001
-226,957	800,000	0,032	0,081
-225,942	800,000	-0,043	0,110
-224,927	-97,316	-0,017	-0,003
-223,913	-143,910	-0,185	-0,013
-222,898	58,081	-0,034	-0,024
-221,884	8,904	0,077	0,042
-220,869	800,000	0,052	-0,127
-219,855	41,381	0,134	-0,088
-218,840	-32,031	-0,085	0,034
-217,825	800,000	-0,077	0,167
-216,811	782,830	-0,062	0,123
-215,796	-79,804	-0,047	0,011
-214,782	107,985	-0,091	0,079
-213,767	-200,000	0,020	0,229
-212,752	69,526	-0,128	0,095
-211,738	800,000	0,054	-0,128
-210,723	-200,000	-0,017	-0,186
-209,709	78,984	-0,118	-0,091
-208,694	109,876	-0,074	-0,065
-207,679	-200,000	0,019	-0,086
-206,665	43,569	0,017	-0,011
-205,650	-41,039	-0,094	0,035
-204,636	130,452	-0,043	-0,040
-203,621	-200,000	-0,028	-0,101
-202,606	800,000	0,018	-0,052
-201,592	-200,000	-0,007	-0,115
-200,577	140,596	-0,077	-0,074
-199,563	143,675	0,066	0,064
-198,548	-200,000	0,007	-0,151
-197,533	-200,000	0,014	0,136
-196,519	39,322	-0,116	0,075
-195,504	108,076	0,066	0,057
-194,490	800,000	-0,052	-0,154
-193,475	380,394	0,048	-0,071
-192,460	800,000	0,022	0,065
-191,446	278,719	-0,036	0,047
-190,431	-200,000	-0,043	0,141
-189,417	133,014	-0,012	-0,011
-188,402	257,632	-0,074	-0,093
-187,387	405,830	0,049	-0,076
-186,373	-200,000	-0,022	-0,117
-185,358	800,000	0,050	-0,106
-184,344	328,933	0,099	-0,138
-183,329	800,000	0,030	0,064
-182,315	168,497	0,107	0,111
-181,300	-200,000	0,025	-0,084
-180,285	-68,331	0,044	-0,012
-179,271	800,000	-0,068	-0,192
-178,256	-200,000	-0,029	0,114
-177,242	-12,236	0,066	0,031
-176,227	-151,460	-0,184	-0,010
-175,212	-200,000	0,029	0,095
-174,198	52,447	-0,073	0,051
-173,183	800,000	0,041	-0,115
-172,169	-13,163	-0,116	0,055
-171,154	-3,001	-0,180	-0,091
-170,139	358,866	0,028	-0,040
-169,125	-200,000	0,006	0,039
-168,110	79,471	0,066	0,051
-167,096	-200,000	0,003	0,125
-166,081	14,511	0,087	-0,049
-165,066	683,366	-0,041	-0,079
-164,052	-200,000	0,033	0,175
-163,037	-55,376	-0,092	0,030
-162,023	-200,000	0,018	0,091
-161,008	800,000	0,048	0,100
-159,993	-200,000	-0,015	0,072
-158,979	-200,000	-0,000	-0,047
-157,964	-200,000	0,004	0,112
-156,950	202,442	-0,059	-0,066
-155,935	192,445	-0,070	-0,077
-154,920	1,349	0,149	-0,078
-153,906	223,145	0,049	0,057
-152,891	800,000	0,040	-0,115
-151,877	-200,000	0,016	-0,125
-150,862	90,998	0,091	-0,074
-149,847	-70,161	-0,167	-0,046
-148,833	215,426	-0,048	0,056
-147,818	51,180	-0,029	0,020
-146,804	-200,000	-0,005	0,045
-145,789	800,000	0,010	-0,029
-144,775	-96,900	0,050	-0,009
-143,760	-200,000	0,002	0,020
-142,745	-39,260	0,103	0,039
-141,731	108,794	0,034	0,029
-140,716	23,184	0,053	0,032
-139,702	106,688	0,099	0,086
-138,687	276,027	0,060	0,077
-137,672	-49,699	-0,076	-0,026
-136,658	787,507	0,076	-0,151
-135,643	-200,000	-0,021	-0,089
-134,629	5,852	-0,049	0,026
-133,614	-200,000	0,007	0,074
-132,599	194,449	0,097	0,106
-131,585	189,633	-0,020	-0,022
-130,570	42,957	0,088	0,058
-129,556	175,522	0,048	0,051
-128,541	-5,148	0,178	-0,088
-127,526	800,000	-0,016	0,037
-126,512	-200,000	0,016	-0,064
-125,497	291,791	0,117	0,155
-124,483	-15,737	0,061	-0,028
-123,468	561,613	0,044	-0,077
-122,453	-200,000	0,003	-0,119
-121,439	-200,000	-0,004	0,058
-120,424	-200,000	0,017	0,063
-119,410	305,029	0,022	-0,030
