DTS Sentinel unit serial number:	SN410029Multiplexer serial number:	ORYXHardware model number:	OX2-SRSoftware version number:	ORYX F/W v4,00 Oryx Data Collector v3.7.2.0data status	okinstallation	B4 Nyhavnadifferential loss correction	single-endedforward channel	channel 2reverse channel	N/Adate	2023/12/19time	01:15:13forward acquisition time	300,00reverse acquisition time	0,00gamma	499,1914k internal	0,3123k external	0,3123temperature offset calibration	1,0000default loss term (dB/km)	0,3820temperature slope calibration	1,0000multiplexer offset coefficient	1,0000multiplexer slope coefficient	1,0000fibre end	0,00T internal ref (°C)	21,77T ext. ref 1 (°C)	6,03T ext. ref 2 (°C)	5,98length (m)	temperature (°C)	Stokes	anti-Stokes-744,400	-52,020	0,080	-0,027
-743,385	-29,179	-0,351	0,149
-742,371	3,435	-0,052	-0,028
-741,356	70,331	-0,172	0,132
-740,342	549,096	0,076	0,136
-739,327	-65,204	-0,233	0,070
-738,312	52,951	0,125	-0,089
-737,298	-126,440	-0,332	0,036
-736,283	800,000	0,036	-0,083
-735,269	-153,039	-0,134	-0,007
-734,254	800,000	0,023	-0,058
-733,239	-176,224	-0,516	-0,010
-732,225	-51,878	0,235	0,081
-731,210	175,452	0,040	0,043
-730,196	676,843	0,025	-0,048
-729,181	-7,415	-0,068	0,034
-728,167	34,678	0,032	0,021
-727,152	-200,000	-0,001	-0,102
-726,137	-108,449	-0,099	0,016
-725,123	-200,000	0,011	-0,048
-724,108	614,987	-0,068	-0,128
-723,094	800,000	-0,023	-0,059
-722,079	126,667	0,005	-0,005
-721,064	93,757	-0,066	-0,055
-720,050	170,581	0,039	-0,041
-719,035	488,594	0,084	-0,143
-718,021	109,084	-0,161	-0,144
-717,006	342,207	-0,051	-0,074
-715,991	-200,000	-0,006	-0,205
-714,977	-200,000	0,010	-0,178
-713,962	18,110	-0,071	-0,042
-712,948	-200,000	-0,013	-0,117
-711,933	157,349	-0,024	0,024
-710,918	-40,337	-0,118	-0,045
-709,904	-200,000	0,006	-0,105
-708,889	800,000	-0,059	-0,149
-707,875	-25,617	-0,069	-0,030
-706,860	791,531	0,020	0,041
-705,845	137,645	0,077	-0,075
-704,831	-88,344	0,111	-0,025
-703,816	800,000	0,008	-0,022
-702,802	208,947	-0,120	-0,140
-701,787	800,000	-0,011	-0,027
-700,772	-53,462	-0,041	-0,014
-699,758	-107,758	0,070	-0,011
-698,743	-132,992	-0,107	0,010
-697,729	-114,255	-0,080	0,011
-696,714	-200,000	-0,001	-0,097
-695,699	-200,000	0,008	-0,029
-694,685	675,407	-0,054	-0,104
-693,670	800,000	-0,049	-0,131
-692,656	187,602	-0,004	-0,004
-691,641	-29,220	-0,014	0,006
-690,627	48,429	0,160	-0,111
-689,612	148,131	0,054	0,054
-688,597	94,142	-0,042	-0,036
-687,583	502,585	-0,036	-0,061
-686,568	-200,000	0,036	-0,171
-685,554	-15,667	-0,085	-0,040
-684,539	-200,000	0,017	-0,127
-683,524	-129,390	0,066	-0,007
-682,510	-200,000	-0,011	-0,124
-681,495	20,637	-0,078	0,047
-680,481	800,000	0,052	-0,155
-679,466	54,158	0,064	-0,046
-678,451	-90,812	-0,055	0,012
-677,437	800,000	-0,041	0,090
-676,422	800,000	-0,050	0,116
-675,408	444,947	0,053	0,087
-674,393	800,000	-0,038	-0,095
-673,378	-154,052	-0,091	-0,005
-672,364	-200,000	0,003	-0,178
-671,349	800,000	-0,013	-0,043
-670,335	-200,000	0,003	0,085
-669,320	-101,530	0,101	-0,018
-668,305	800,000	-0,031	0,064
-667,291	16,610	-0,042	-0,025
-666,276	176,337	-0,051	-0,055
-665,262	603,860	-0,040	-0,075
-664,247	-83,858	0,187	-0,044
-663,232	-200,000	0,004	0,050
-662,218	245,406	-0,038	-0,047
-661,203	800,000	0,033	0,078
-660,189	800,000	0,013	-0,029
-659,174	237,662	-0,054	-0,066
-658,159	-156,151	-0,139	-0,006
-657,145	-109,375	-0,174	0,027
-656,130	800,000	0,024	0,054
-655,116	26,641	0,212	0,132
-654,101	258,690	0,057	0,074
-653,086	-200,000	-0,025	0,143
-652,072	80,849	-0,113	0,091
-651,057	232,560	-0,050	-0,061
-650,043	-23,745	0,076	-0,034
-649,028	-27,321	0,086	0,037
-648,014	181,738	0,130	-0,142
-646,999	800,000	0,059	0,130
-645,984	800,000	0,054	0,134
-644,970	134,498	-0,086	-0,083
-643,955	-109,043	-0,168	-0,026
-642,941	332,850	-0,024	-0,035
-641,926	425,438	-0,129	-0,207
-640,911	3,017	0,140	0,075
-639,897	52,848	0,024	-0,017
-638,882	309,221	0,011	-0,015
-637,868	-200,000	0,005	0,022
-636,853	800,000	0,032	-0,088
-635,838	800,000	0,013	-0,037
-634,824	-27,153	-0,212	0,091
-633,809	357,150	0,053	0,079
-632,795	-200,000	-0,005	0,135
-631,780	16,916	0,127	-0,075
-630,765	-200,000	0,029	-0,206
-629,751	769,374	-0,049	-0,099
-628,736	349,999	-0,097	-0,142
-627,722	191,078	-0,066	-0,074
-626,707	800,000	-0,019	-0,044
-625,692	800,000	-0,045	0,141
-624,678	-38,686	0,124	-0,048
-623,663	766,183	-0,039	-0,079
-622,649	800,000	-0,031	-0,065
-621,634	-200,000	0,020	-0,129
-620,619	138,449	-0,079	-0,077
-619,605	800,000	0,045	-0,114
-618,590	800,000	-0,029	0,060
-617,576	-200,000	-0,002	0,124
-616,561	63,148	-0,020	0,015
-615,546	-200,000	-0,013	-0,042
-614,532	728,317	-0,045	0,089
-613,517	-53,589	-0,212	-0,071
-612,503	-17,796	0,056	-0,026
-611,488	-140,850	0,077	0,006
-610,474	37,303	0,102	0,067
-609,459	-60,815	0,108	0,034
-608,444	-200,000	-0,076	0,000
-607,430	10,279	-0,119	0,067
-606,415	-109,594	-0,056	0,009
-605,401	-102,724	-0,019	0,003
-604,386	-121,804	0,157	-0,019
-603,371	-54,846	0,054	0,018
-602,357	-31,187	-0,089	0,037
-601,342	-94,758	0,101	-0,020
-600,328	-200,000	-0,010	0,079
-599,313	-86,569	-0,079	0,018
-598,298	-79,606	-0,133	-0,033
-597,284	158,031	0,142	0,146
-596,269	148,069	0,063	-0,063
-595,255	-97,802	-0,073	0,014
-594,240	-18,042	0,149	0,069
-593,225	-200,000	-0,014	-0,064
-592,211	-200,000	-0,012	-0,076
-591,196	-118,576	0,042	0,005
-590,182	-53,835	0,028	0,009
-589,167	-200,000	0,000	0,101
-588,152	114,337	-0,030	0,027
-587,138	-52,885	-0,087	-0,029
-586,123	98,392	0,098	0,084
-585,109	-86,440	0,072	-0,016
-584,094	291,862	-0,047	0,063
-583,079	-200,000	-0,005	0,060
-582,065	-98,413	0,126	-0,024
-581,050	-200,000	-0,005	-0,102
-580,036	-121,206	-0,185	-0,023
-579,021	-88,369	-0,096	-0,021
-578,006	-200,000	0,003	0,106
-576,992	-200,000	0,014	0,092
-575,977	800,000	0,034	0,089
-574,963	-146,757	0,123	0,008
-573,948	800,000	-0,041	0,125
-572,934	435,814	-0,018	-0,029
-571,919	-77,856	-0,051	-0,013
-570,904	107,729	0,036	-0,032
-569,890	-200,000	0,003	-0,069
-568,875	-200,000	-0,008	-0,041
-567,861	93,833	-0,029	0,024
-566,846	-200,000	0,012	0,118
-565,831	-6,119	-0,039	-0,020
-564,817	18,730	-0,035	0,021
-563,802	1,470	-0,151	0,080
-562,788	-86,015	-0,066	-0,015
-561,773	-200,000	-0,003	0,009
-560,758	800,000	-0,050	-0,134
-559,744	213,155	-0,100	0,117
-558,729	121,734	0,028	0,026
-557,715	-37,595	0,017	0,007
-556,700	-23,726	0,076	0,033
-555,685	-200,000	0,017	-0,082
-554,671	77,613	0,033	0,026
-553,656	3,478	0,106	0,057
-552,642	279,914	0,068	0,090
-551,627	-200,000	0,017	-0,124
-550,612	58,368	0,105	-0,076
-549,598	53,462	-0,178	-0,126
-548,583	-92,357	-0,061	-0,013
-547,569	20,507	-0,127	-0,076
-546,554	-148,205	0,093	0,006
-545,539	766,082	0,023	0,047
-544,525	-63,496	-0,070	0,021
-543,510	-122,523	0,087	-0,010
-542,496	-36,211	-0,094	0,037
-541,481	-127,141	-0,151	0,016
-540,466	-200,000	0,014	-0,112
-539,452	57,330	0,077	-0,056
-538,437	324,188	-0,097	0,137
-537,423	264,794	0,046	-0,059
-536,408	800,000	0,024	-0,065
-535,393	-200,000	-0,001	0,059
-534,379	260,842	-0,047	-0,060
-533,364	800,000	0,030	0,082
-532,350	800,000	0,049	-0,128
-531,335	-200,000	-0,005	-0,107
-530,321	-157,363	-0,093	0,004
-529,306	800,000	-0,026	-0,057
-528,291	-200,000	-0,013	-0,116
-527,277	-151,277	-0,111	0,006
-526,262	-59,538	-0,088	-0,028
-525,248	717,205	0,074	0,146
-524,233	-200,000	0,007	0,118
-523,218	129,898	-0,068	0,064
-522,204	800,000	-0,037	-0,080
-521,189	-146,847	0,086	0,005
-520,175	800,000	-0,018	0,048
-519,160	-200,000	0,024	-0,106
-518,145	-114,995	-0,197	-0,027
-517,131	-200,000	-0,028	0,094
-516,116	-200,000	0,017	0,124
-515,102	184,871	0,057	0,063
-514,087	574,966	0,069	0,124
-513,072	121,810	-0,161	-0,149
-512,058	12,526	-0,075	0,042
-511,043	95,371	0,011	-0,010
-510,029	-31,915	0,087	-0,036
-509,014	-200,000	-0,025	-0,091
-507,999	-39,897	0,038	-0,014
-506,985	-200,000	-0,017	-0,055
-505,970	278,633	0,053	0,070
-504,956	372,725	0,084	0,127
-503,941	208,785	-0,058	0,067
-502,926	-200,000	0,003	-0,126
-501,912	-160,698	0,034	-0,001
-500,897	-104,628	-0,070	0,012
-499,883	746,007	-0,022	-0,044
-498,868	-49,719	-0,117	-0,041
-497,853	-38,097	-0,058	0,023
-496,839	-200,000	0,020	-0,108
-495,824	82,415	-0,118	-0,094
-494,810	-22,856	0,080	-0,036
-493,795	-200,000	0,039	-0,129
-492,781	-48,888	-0,091	-0,032
-491,766	400,821	-0,022	-0,035
-490,751	-92,974	-0,061	0,012
-489,737	-128,339	0,083	0,009
-488,722	-200,000	0,008	-0,068
-487,708	280,295	0,069	-0,091
-486,693	-7,070	0,122	0,061
-485,678	-200,000	-0,018	0,147
-484,664	800,000	-0,012	-0,032
-483,649	-200,000	-0,028	-0,118
-482,635	-200,000	0,023	0,079
-481,620	130,750	0,076	-0,072
-480,605	336,470	-0,015	-0,021
-479,591	-7,694	0,091	-0,045
-478,576	-200,000	-0,030	-0,129
-477,562	800,000	-0,035	-0,085
-476,547	233,556	-0,141	-0,171
-475,532	-145,571	0,054	0,004
-474,518	-78,651	-0,009	-0,002
-473,503	244,430	0,094	-0,116
-472,489	-54,643	0,123	0,041
-471,474	86,360	0,047	-0,039
-470,459	-79,441	-0,096	-0,024
-469,445	344,065	-0,047	-0,069
-468,430	-14,573	-0,081	0,038
-467,416	-61,425	0,044	0,014
-466,401	-138,420	0,042	-0,003
-465,386	-200,000	0,010	0,071
-464,372	275,859	-0,098	0,129
-463,357	600,845	0,028	0,051
-462,343	-101,412	-0,085	-0,015
-461,328	-117,361	0,054	-0,007
-460,313	-24,729	-0,061	0,027
-459,299	-48,571	0,118	0,042
-458,284	800,000	-0,005	0,011
-457,270	99,244	-0,101	0,086
-456,255	-200,000	0,013	0,065
-455,241	-200,000	-0,024	0,136
-454,226	-65,521	-0,127	-0,037
-453,211	126,571	0,133	0,124
-452,197	754,444	0,075	0,149
-451,182	449,676	0,014	-0,023
-450,168	456,302	0,032	0,052
-449,153	157,165	-0,015	-0,016
-448,138	-114,019	-0,065	-0,009
-447,124	800,000	0,025	-0,075
-446,109	726,029	0,048	0,096
-445,095	-200,000	0,007	-0,040
-444,080	255,768	-0,080	-0,102
-443,065	-200,000	0,011	-0,039
-442,051	220,537	-0,071	0,083
-441,036	-146,915	0,093	0,006
-440,022	-49,157	-0,045	-0,016
-439,007	800,000	-0,027	0,086
-437,992	303,357	-0,035	-0,047
-436,978	-121,126	-0,145	-0,018
-435,963	292,658	-0,013	-0,017
-434,949	800,000	-0,064	-0,154
-433,934	800,000	0,030	0,069
-432,919	800,000	-0,040	-0,094
-431,905	42,657	-0,081	-0,054
-430,890	8,461	0,111	0,062
-429,876	402,742	-0,018	0,027
-428,861	-30,022	-0,098	0,041
-427,846	78,623	0,104	-0,082
-426,832	-1,975	0,040	-0,020
-425,817	157,196	-0,096	-0,097
-424,803	72,251	-0,088	-0,068
-423,788	67,129	0,014	-0,010
-422,773	800,000	0,015	0,032
-421,759	-17,558	-0,021	-0,010
-420,744	800,000	0,039	-0,098
-419,730	694,773	0,046	-0,090
-418,715	-200,000	-0,015	0,131
-417,701	800,000	-0,020	0,042
-416,686	-104,555	0,062	0,010
-415,671	-109,272	-0,024	0,004
-414,657	148,128	-0,058	0,057
-413,642	-80,945	0,036	-0,009
-412,628	137,135	0,099	-0,095
-411,613	341,231	0,035	-0,050
-410,598	275,005	-0,107	-0,140
-409,584	-80,446	-0,175	0,043
-408,569	200,079	0,051	0,058
-407,555	-181,044	-0,075	-0,001
-406,540	269,718	0,077	0,100
-405,525	-39,810	-0,097	0,037
-404,511	800,000	-0,070	-0,163
-403,496	38,269	-0,118	-0,077
-402,482	87,841	-0,046	-0,038
-401,467	800,000	-0,033	0,081
-400,452	71,082	0,143	-0,109
-399,438	378,535	0,032	-0,048
-398,423	-200,000	0,000	-0,102
-397,409	-76,440	-0,247	-0,063
-396,394	-200,000	-0,008	0,088
-395,379	-152,864	-0,087	-0,004
-394,365	49,278	0,050	0,035
-393,350	-92,348	0,118	0,024
-392,336	-200,000	-0,015	-0,119
-391,321	337,322	-0,040	-0,057
-390,306	800,000	0,034	-0,084
-389,292	-11,884	-0,088	-0,042
-388,277	-138,177	0,114	0,009
-387,263	-200,000	0,018	0,146
-386,248	334,154	0,118	-0,169
-385,233	-200,000	0,024	-0,132
-384,219	-200,000	0,000	0,021
-383,204	-200,000	0,024	0,122
-382,190	800,000	0,026	-0,058
-381,175	-200,000	0,029	0,097
-380,160	-200,000	0,007	-0,024
-379,146	279,692	0,074	-0,097
-378,131	-92,155	0,042	-0,009
-377,117	164,765	0,069	0,072
-376,102	-65,225	-0,025	0,007
-375,088	203,164	0,124	-0,141
-374,073	-49,504	0,148	-0,052
-373,058	800,000	0,033	-0,089
-372,044	800,000	-0,031	0,075
-371,029	-200,000	0,029	0,125
-370,015	220,906	0,013	-0,015
-369,000	189,528	-0,039	-0,043
-367,985	800,000	0,007	0,020
-366,971	351,711	0,010	0,014
-365,956	-129,423	-0,076	0,008
-364,942	-5,761	-0,028	0,014
-363,927	410,279	-0,006	0,009
-362,912	-105,618	-0,055	-0,009
-361,898	332,722	0,061	0,087
-360,883	-68,368	-0,018	0,005
-359,869	249,390	0,028	-0,035
-358,854	-200,000	-0,009	0,036
-357,839	-121,272	0,119	0,014
-356,825	-200,000	-0,011	0,084
-355,810	-117,497	-0,064	0,008
-354,796	27,581	0,059	-0,036
-353,781	800,000	-0,036	0,109
-352,766	318,862	0,081	-0,113
-351,752	-78,135	-0,090	0,023
-350,737	25,690	0,188	-0,115
-349,723	-0,515	-0,034	0,018
-348,708	-110,112	-0,142	0,022
-347,693	-200,000	-0,009	0,059
-346,679	328,317	0,077	0,109
-345,664	283,434	0,086	0,114
-344,650	-48,684	-0,131	0,046
-343,635	800,000	0,019	0,053
-342,620	726,838	-0,066	0,131
-341,606	329,430	-0,045	0,063
-340,591	-97,130	-0,060	0,011
-339,577	57,888	0,138	0,099
-338,562	-200,000	-0,002	-0,044
-337,548	-200,000	0,000	-0,045
-336,533	62,966	0,006	0,004
-335,518	216,346	0,049	0,057
-334,504	628,740	-0,025	0,046
-333,489	-97,443	0,143	0,027
-332,475	550,753	-0,031	0,054
-331,460	-200,000	0,025	-0,137
-330,445	165,595	0,097	-0,101
-329,431	166,872	0,118	0,123
-328,416	67,842	0,079	0,059
-327,402	134,274	0,092	-0,087
-326,387	-200,000	0,045	-0,194
-325,372	271,983	-0,052	0,067
-324,358	63,726	-0,082	-0,060
-323,343	-115,739	-0,123	-0,017
-322,329	57,372	0,120	-0,086
-321,314	181,399	-0,096	-0,104
-320,299	62,313	-0,035	-0,025
-319,285	800,000	-0,038	0,116
-318,270	-129,860	0,120	-0,012
-317,256	-28,533	0,056	-0,024
-316,241	-22,961	0,055	0,024
-315,226	-200,000	-0,007	-0,072
-314,212	800,000	0,015	-0,041
-313,197	106,081	0,189	0,164
-312,183	-178,894	0,114	-0,002
-311,168	-72,219	-0,176	-0,048
-310,153	-78,338	-0,085	0,021
-309,139	531,909	0,078	0,137
-308,124	111,940	0,117	0,104
-307,110	800,000	-0,045	0,105
-306,095	-200,000	-0,009	0,110
-305,080	241,770	-0,064	0,078
-304,066	109,593	0,054	-0,047
-303,051	431,486	0,047	0,075
-302,037	-200,000	0,040	-0,141
-301,022	103,196	0,114	0,098
-300,008	800,000	0,044	0,111
-298,993	-200,000	-0,008	0,112
-297,978	-72,306	-0,033	0,009
-296,964	-146,508	-0,095	-0,006
-295,949	-35,267	0,154	0,061
-294,935	-122,859	-0,107	0,013
-293,920	-200,000	0,018	-0,076
-292,905	224,403	-0,109	-0,129
-291,891	-200,000	0,019	0,095
-290,876	-14,951	-0,102	0,047
-289,862	-14,566	0,147	0,069
-288,847	37,803	-0,170	0,110
-287,832	-81,207	0,035	0,008
-286,818	-200,000	-0,014	-0,088
-285,803	149,434	0,024	-0,024
-284,789	-142,917	-0,045	0,003
-283,774	644,139	-0,011	0,020
-282,759	-200,000	-0,007	0,090
-281,745	159,462	0,023	0,023
-280,730	-200,000	-0,047	-0,175
-279,716	-200,000	-0,019	-0,113
-278,701	-200,000	0,005	-0,060
-277,686	-168,251	0,043	0,001
-276,672	85,546	-0,024	0,019
-275,657	597,307	-0,070	0,128
-274,643	-23,875	-0,067	-0,029
-273,628	-200,000	-0,006	-0,023
-272,613	800,000	-0,010	-0,031
-271,599	138,733	0,014	0,013
-270,584	39,100	0,016	0,010
-269,570	800,000	-0,015	0,040
-268,555	18,261	0,065	0,038
-267,540	-200,000	0,006	-0,063
-266,526	-72,842	-0,119	-0,032
-265,511	800,000	0,065	0,165
-264,497	-169,740	0,079	0,002
-263,482	16,069	0,058	-0,033
-262,467	-200,000	-0,002	0,144
-261,453	-200,000	0,029	-0,109
-260,438	36,036	-0,140	-0,090
-259,424	-200,000	-0,017	-0,099
-258,409	-161,520	-0,099	0,004
-257,395	33,431	0,198	0,126
-256,380	654,188	0,031	0,058
-255,365	311,930	-0,102	0,140
-254,351	-200,000	0,013	-0,055
-253,336	-27,671	-0,108	0,045
-252,322	-64,622	-0,121	-0,036
-251,307	-140,316	0,086	0,006
-250,292	368,267	0,078	0,116
-249,278	800,000	0,040	0,090
-248,263	54,387	-0,066	-0,046
-247,249	-186,872	-0,055	-0,001
-246,234	1,066	-0,053	0,028
-245,219	-200,000	0,018	-0,116
-244,205	-97,663	-0,214	0,040
-243,190	-28,213	0,166	-0,070
-242,176	596,534	-0,034	0,062
-241,161	-200,000	-0,002	0,045
-240,146	800,000	-0,033	-0,076
-239,132	800,000	-0,025	-0,057
-238,117	-200,000	0,057	-0,201
-237,103	533,750	0,018	0,031
-236,088	46,867	0,120	-0,081
-235,073	-100,119	0,118	0,021
-234,059	-59,186	0,078	0,024
-233,044	341,646	-0,080	0,114
-232,030	25,061	-0,072	0,043
-231,015	-200,000	-0,007	-0,076
-230,000	316,464	0,085	-0,117
-228,986	-130,078	0,101	-0,010
-227,971	-200,000	-0,035	-0,220
-226,957	-31,777	-0,072	-0,029
-225,942	-200,000	-0,015	0,139
-224,927	800,000	-0,031	0,062
-223,913	-103,312	0,025	0,004
-222,898	-200,000	-0,019	-0,064
-221,884	205,908	-0,100	-0,113
-220,869	-200,000	0,017	0,120
-219,855	58,000	-0,064	-0,045
-218,840	800,000	0,035	0,072
-217,825	-200,000	0,027	0,095
-216,811	-200,000	0,010	-0,085
-215,796	-48,244	-0,064	0,022
-214,782	800,000	-0,039	-0,100
-213,767	-200,000	0,016	-0,083
-212,752	178,895	0,056	-0,059
-211,738	-200,000	0,017	0,119
-210,723	-92,545	0,206	-0,042
-209,709	-200,000	0,035	0,124
-208,694	-7,352	-0,090	-0,044
-207,679	49,045	0,095	0,065
-206,665	4,665	0,104	0,055
-205,650	504,097	-0,029	0,049
-204,636	-200,000	-0,010	0,080
-203,621	517,145	0,059	0,102
-202,606	800,000	-0,026	-0,068
-201,592	-131,097	-0,053	0,005
-200,577	312,864	0,018	-0,025
-199,563	-66,008	0,036	-0,010
-198,548	800,000	0,033	0,079
-197,533	-45,532	0,156	0,056
-196,519	208,787	0,097	-0,110
-195,504	-200,000	0,001	0,016
-194,490	-20,214	-0,104	0,047
-193,475	67,513	0,089	-0,066
-192,460	643,742	0,069	-0,129
-191,446	-85,576	-0,039	0,009
-190,431	-200,000	0,007	0,030
-189,417	439,982	-0,010	0,016
-188,402	-200,000	0,010	0,039
-187,387	-100,905	-0,046	-0,008
-186,373	-200,000	-0,019	-0,102
-185,358	-24,339	0,045	-0,019
-184,344	541,465	0,025	0,044
-183,329	-191,223	-0,047	-0,000
-182,315	-137,196	0,119	-0,010
-181,300	224,465	0,028	-0,033
-180,285	-53,866	-0,076	-0,025
-179,271	393,350	0,014	0,021
-178,256	151,334	0,028	-0,028
-177,242	800,000	-0,018	-0,037
-176,227	-200,000	-0,003	-0,014
-175,212	-84,455	-0,096	0,022
-174,198	98,584	0,174	0,147
-173,183	-46,874	0,035	-0,013
-172,169	267,791	0,016	-0,020
-171,154	800,000	-0,096	0,200
-170,139	-200,000	-0,012	0,083
-169,125	800,000	0,035	0,094
-168,110	-200,000	0,009	0,046
-167,096	-53,007	0,061	0,020
-166,081	697,134	-0,070	0,134
-165,066	800,000	-0,052	-0,121
-164,052	59,697	0,066	-0,048
-163,037	800,000	-0,013	0,042
-162,023	-147,775	-0,137	-0,008
-161,008	-22,989	0,109	0,047
-159,993	-48,582	-0,057	-0,020
-158,979	-74,676	-0,135	-0,035
-157,964	-45,713	-0,068	-0,024
-156,950	633,309	0,016	-0,031
-155,935	325,739	0,040	-0,056
-154,920	-200,000	0,028	0,095
-153,906	55,969	0,105	0,074
-152,891	9,830	0,048	0,026
-151,877	-200,000	-0,019	-0,131
-150,862	183,770	-0,060	-0,065
-149,847	48,751	-0,011	-0,008
-148,833	-173,501	0,142	-0,003
-147,818	354,000	0,039	-0,056
-146,804	-29,240	-0,070	0,029
-145,789	138,772	-0,026	0,025
-144,775	213,828	-0,040	-0,046
-143,760	241,429	-0,038	-0,047
-142,745	-57,255	0,063	0,020
-141,731	-200,000	0,010	0,036
-140,716	147,190	0,080	-0,078
-139,702	-130,280	0,130	0,013
-138,687	-200,000	0,022	0,087
-137,672	-200,000	0,007	-0,040
-136,658	-63,031	-0,114	-0,034
-135,643	-130,948	-0,133	-0,013
-134,629	800,000	0,024	-0,062
-133,614	-200,000	0,013	0,062
-132,599	208,427	0,087	0,099
-131,585	-200,000	-0,001	0,112
-130,570	177,661	0,071	-0,075
-129,556	68,508	-0,061	-0,045
-128,541	406,704	-0,059	-0,090
-127,526	267,262	0,024	-0,031
-126,512	-160,573	-0,039	0,001
-125,497	800,000	0,016	-0,036
-124,483	121,518	-0,096	0,087
-123,468	800,000	-0,018	-0,043
-122,453	-200,000	0,012	-0,097
-121,439	-200,000	-0,003	-0,080
-120,424	-154,707	-0,039	-0,002
