DTS Sentinel unit serial number:	SN410029Multiplexer serial number:	ORYXHardware model number:	OX2-SRSoftware version number:	ORYX F/W v4,00 Oryx Data Collector v3.7.2.0data status	okinstallation	B4 Nyhavnadifferential loss correction	single-endedforward channel	channel 2reverse channel	N/Adate	2023/12/15time	18:00:13forward acquisition time	300,00reverse acquisition time	0,00gamma	499,1914k internal	0,3140k external	0,3140temperature offset calibration	1,0000default loss term (dB/km)	0,3820temperature slope calibration	1,0000multiplexer offset coefficient	1,0000multiplexer slope coefficient	1,0000fibre end	0,00T internal ref (°C)	18,81T ext. ref 1 (°C)	4,80T ext. ref 2 (°C)	4,87length (m)	temperature (°C)	Stokes	anti-Stokes-744,400	95,102	0,094	0,080
-743,385	-94,817	-0,106	-0,021
-742,371	-80,262	0,173	0,043
-741,356	72,969	-0,228	0,176
-740,342	-114,318	-0,086	-0,012
-739,327	-121,032	-0,307	0,038
-738,312	370,801	0,072	0,108
-737,298	-66,093	-0,250	-0,074
-736,283	164,041	0,059	0,062
-735,269	-172,342	-0,243	-0,006
-734,254	-32,538	0,136	0,056
-733,239	-54,771	-0,406	-0,135
-732,225	-88,996	0,117	0,026
-731,210	-200,000	0,006	0,075
-730,196	-153,813	-0,064	0,003
-729,181	-45,403	0,151	0,055
-728,167	-91,211	0,063	0,013
-727,152	118,207	-0,069	0,063
-726,137	-200,000	0,009	0,075
-725,123	-200,000	0,006	-0,198
-724,108	800,000	-0,050	-0,106
-723,094	-30,050	-0,041	0,017
-722,079	-22,104	0,049	-0,022
-721,064	-200,000	0,004	-0,038
-720,050	133,441	-0,068	-0,065
-719,035	225,526	0,063	-0,076
-718,021	109,043	-0,016	-0,014
-717,006	337,262	-0,086	-0,124
-715,991	-71,577	-0,074	0,020
-714,977	-136,022	0,016	0,001
-713,962	800,000	-0,035	-0,086
-712,948	-105,131	-0,044	-0,007
-711,933	-4,633	0,042	0,021
-710,918	-200,000	0,024	0,124
-709,904	46,933	0,099	-0,068
-708,889	-200,000	-0,047	-0,180
-707,875	4,131	-0,126	-0,068
-706,860	-200,000	0,007	0,032
-705,845	800,000	0,041	-0,126
-704,831	-200,000	0,003	0,149
-703,816	28,999	-0,109	0,068
-702,802	800,000	-0,017	0,035
-701,787	-200,000	-0,007	0,040
-700,772	-200,000	0,010	-0,064
-699,758	395,824	-0,037	-0,058
-698,743	800,000	-0,020	-0,050
-697,729	800,000	-0,025	-0,061
-696,714	-11,560	-0,078	0,038
-695,699	-200,000	0,021	-0,096
-694,685	-119,149	-0,095	0,012
-693,670	-73,861	-0,100	-0,027
-692,656	34,998	-0,129	-0,083
-691,641	-127,200	0,150	0,016
-690,627	-200,000	0,006	0,082
-689,612	550,886	0,065	0,115
-688,597	-42,759	-0,178	0,066
-687,583	-72,517	-0,080	-0,022
-686,568	40,974	-0,089	-0,059
-685,554	193,367	-0,127	-0,142
-684,539	-200,000	0,007	0,095
-683,524	-200,000	0,026	0,107
-682,510	375,839	0,018	0,027
-681,495	-200,000	-0,013	-0,044
-680,481	-200,000	-0,039	-0,176
-679,466	-47,403	0,083	0,030
-678,451	-137,391	-0,145	0,012
-677,437	148,335	-0,052	-0,052
-676,422	-90,006	0,093	0,020
-675,408	40,161	-0,009	-0,006
-674,393	-200,000	-0,005	0,017
-673,378	-102,763	-0,149	-0,026
-672,364	-97,875	-0,146	-0,028
-671,349	-19,361	-0,043	-0,019
-670,335	-110,571	-0,096	-0,014
-669,320	800,000	0,084	0,175
-668,305	-25,455	-0,198	0,086
-667,291	-92,924	-0,166	0,034
-666,276	-200,000	0,025	-0,137
-665,262	-200,000	0,045	-0,164
-664,247	102,125	-0,093	0,080
-663,232	800,000	-0,012	0,037
-662,218	800,000	-0,006	0,018
-661,203	442,501	0,024	-0,039
-660,189	800,000	-0,009	-0,031
-659,174	611,713	-0,033	-0,062
-658,159	-200,000	-0,006	-0,043
-657,145	-118,130	-0,095	-0,012
-656,130	-18,868	0,059	0,027
-655,116	-200,000	-0,011	0,036
-654,101	47,182	-0,093	0,064
-653,086	-62,380	-0,050	0,015
-652,072	800,000	-0,012	-0,035
-651,057	-200,000	0,040	-0,151
-650,043	12,108	0,112	0,063
-649,028	-81,473	0,046	-0,011
-648,014	174,829	-0,028	-0,029
-646,999	-12,850	0,103	0,049
-645,984	-114,077	-0,082	-0,012
-644,970	800,000	0,007	0,023
-643,955	-160,641	-0,081	0,003
-642,941	169,161	-0,171	-0,180
-641,926	97,842	0,096	-0,081
-640,911	693,286	0,027	0,052
-639,897	-112,109	0,044	-0,006
-638,882	-34,041	-0,042	0,017
-637,868	-8,523	-0,104	-0,051
-636,853	265,860	-0,064	-0,083
-635,838	-185,258	0,078	-0,001
-634,824	-53,468	0,063	-0,021
-633,809	76,265	-0,038	-0,030
-632,795	800,000	-0,056	-0,172
-631,780	-97,860	-0,035	-0,007
-630,765	-82,543	0,151	-0,036
-629,751	67,161	0,062	-0,046
-628,736	-95,332	-0,115	-0,023
-627,722	-16,290	-0,033	0,015
-626,707	-19,077	-0,022	0,010
-625,692	89,100	-0,018	0,015
-624,678	-200,000	-0,016	0,150
-623,663	800,000	-0,065	0,188
-622,649	-28,112	-0,108	0,046
-621,634	37,551	-0,090	-0,059
-620,619	421,475	-0,023	0,036
-619,605	109,355	0,090	-0,080
-618,590	123,159	-0,044	0,041
-617,576	800,000	-0,017	-0,041
-616,561	725,409	-0,028	-0,056
-615,546	-200,000	0,022	0,131
-614,532	71,629	-0,134	-0,103
-613,517	-200,000	0,008	-0,118
-612,503	800,000	-0,034	-0,105
-611,488	157,798	0,039	-0,040
-610,474	-200,000	-0,007	-0,046
-609,459	97,549	-0,117	-0,099
-608,444	-103,992	-0,079	-0,014
-607,430	800,000	-0,064	0,159
-606,415	47,421	-0,089	-0,061
-605,401	-7,173	0,065	0,032
-604,386	-200,000	0,010	-0,061
-603,371	800,000	0,050	0,120
-602,357	179,494	0,094	-0,102
-601,342	-161,730	0,088	0,003
-600,328	206,425	-0,053	0,061
-599,313	124,245	0,047	0,044
-598,298	655,303	-0,030	-0,057
-597,284	-41,999	0,163	0,061
-596,269	-200,000	0,008	0,088
-595,255	-200,000	0,025	-0,118
-594,240	249,168	-0,039	-0,049
-593,225	66,101	-0,082	0,061
-592,211	-200,000	0,026	-0,088
-591,196	79,554	0,089	0,071
-590,182	-48,768	0,092	0,032
-589,167	-79,474	-0,099	0,025
-588,152	800,000	0,044	0,092
-587,138	4,622	0,124	-0,067
-586,123	-200,000	-0,017	-0,090
-585,109	429,854	0,039	-0,063
-584,094	-121,413	-0,067	0,008
-583,079	-200,000	0,011	0,063
-582,065	64,904	-0,071	0,052
-581,050	-10,979	0,031	0,015
-580,036	7,773	-0,092	0,051
-579,021	-170,731	-0,065	0,002
-578,006	700,222	0,039	-0,076
-576,992	-111,235	0,080	0,012
-575,977	-200,000	0,017	0,143
-574,963	462,858	0,087	0,143
-573,948	800,000	0,016	0,049
-572,934	-109,122	0,149	-0,023
-571,919	759,579	-0,076	-0,153
-570,904	-5,381	-0,050	0,025
-569,890	-28,633	-0,106	0,045
-568,875	120,370	0,019	0,017
-567,861	78,255	-0,112	-0,088
-566,846	590,801	0,034	0,062
-565,831	-33,168	0,068	-0,027
-564,817	-37,717	-0,040	0,016
-563,802	-200,000	-0,013	-0,131
-562,788	-200,000	-0,044	-0,150
-561,773	141,458	-0,020	-0,019
-560,758	-4,064	0,167	0,085
-559,744	-17,112	0,079	-0,036
-558,729	85,169	-0,052	-0,042
-557,715	-200,000	-0,002	-0,081
-556,700	-148,018	-0,199	-0,012
-555,685	751,871	0,021	0,041
-554,671	800,000	-0,042	0,086
-553,656	-124,760	0,086	-0,010
-552,642	-107,683	-0,046	0,007
-551,627	-200,000	0,003	-0,012
-550,612	-200,000	-0,008	0,035
-549,598	-33,537	-0,095	-0,038
-548,583	2,859	0,111	-0,059
-547,569	70,868	-0,016	-0,012
-546,554	800,000	-0,044	0,142
-545,539	141,194	0,092	0,090
-544,525	-47,250	-0,081	-0,029
-543,510	316,375	-0,085	0,119
-542,496	480,998	-0,047	-0,079
-541,481	155,574	-0,083	-0,084
-540,466	127,614	-0,040	-0,037
-539,452	-200,000	0,003	-0,012
-538,437	-200,000	0,110	0,000
-537,423	-85,013	-0,082	-0,019
-536,408	84,225	-0,024	-0,019
-535,393	-145,036	0,143	-0,009
-534,379	217,854	-0,012	-0,014
-533,364	-55,125	0,060	-0,020
-532,350	-47,632	0,095	0,034
-531,335	-104,738	0,030	-0,005
-530,321	47,366	0,032	0,022
-529,306	-24,569	-0,038	0,017
-528,291	-200,000	0,025	-0,087
-527,277	-200,000	-0,029	-0,157
-526,262	232,382	-0,058	-0,070
-525,248	-200,000	-0,001	0,121
-524,233	120,207	0,007	-0,006
-523,218	-28,181	0,080	0,034
-522,204	237,814	-0,049	0,059
-521,189	-200,000	-0,022	-0,150
-520,175	-36,777	-0,028	0,011
-519,160	800,000	-0,029	0,082
-518,145	-100,200	-0,153	0,028
-517,131	-24,274	0,177	0,077
-516,116	376,537	0,051	0,077
-515,102	-171,242	0,017	0,000
-514,087	800,000	0,032	-0,076
-513,072	175,500	-0,018	0,019
-512,058	530,808	0,058	0,100
-511,043	800,000	-0,053	0,156
-510,029	-104,217	0,070	0,012
-509,014	92,956	-0,032	0,026
-507,999	-200,000	-0,027	-0,090
-506,985	-99,645	-0,082	0,015
-505,970	33,939	-0,091	-0,058
-504,956	800,000	-0,038	-0,099
-503,941	280,751	0,046	-0,061
-502,926	309,333	0,116	-0,159
-501,912	-178,955	0,126	0,002
-500,897	-107,474	0,088	0,014
-499,883	142,413	0,060	-0,059
-498,868	58,590	-0,108	0,078
-497,853	-200,000	0,020	-0,201
-496,839	800,000	0,042	-0,132
-495,824	513,982	0,047	-0,081
-494,810	394,668	0,052	-0,080
-493,795	590,276	0,072	0,131
-492,781	599,895	-0,028	0,052
-491,766	-136,503	0,104	0,009
-490,751	127,024	-0,154	-0,144
-489,737	-200,000	-0,003	-0,040
-488,722	-1,090	-0,092	0,048
-487,708	341,363	0,050	0,071
-486,693	171,827	-0,093	0,099
-485,678	1,572	0,102	-0,054
-484,664	-200,000	0,014	-0,114
-483,649	-132,551	0,063	0,006
-482,635	-4,888	-0,063	0,032
-481,620	-41,917	0,088	0,033
-480,605	-200,000	0,008	0,067
-479,591	800,000	-0,029	0,075
-478,576	300,797	0,048	0,065
-477,562	15,962	-0,067	0,039
-476,547	781,838	0,011	-0,023
-475,532	-200,000	-0,023	-0,175
-474,518	-49,136	-0,067	-0,023
-473,503	-200,000	0,005	-0,081
-472,489	-101,381	0,038	0,007
-471,474	-97,584	0,101	-0,019
-470,459	-176,955	-0,157	-0,003
-469,445	-200,000	0,019	-0,068
-468,430	432,336	-0,113	-0,180
-467,416	-53,069	-0,093	0,031
-466,401	-82,985	0,037	0,009
-465,386	619,258	0,103	0,191
-464,372	6,535	-0,047	-0,026
-463,357	21,087	-0,100	-0,060
-462,343	30,063	-0,098	-0,061
-461,328	-7,593	0,064	0,031
-460,313	800,000	-0,045	0,143
-459,299	227,876	-0,051	0,061
-458,284	-87,320	0,021	-0,005
-457,270	13,112	0,028	-0,016
-456,255	60,029	-0,061	0,044
-455,241	-200,000	-0,016	-0,065
-454,226	-64,531	0,133	-0,039
-453,211	-151,629	-0,085	0,005
-452,197	87,879	-0,076	0,062
-451,182	-200,000	0,014	0,132
-450,168	-125,393	-0,022	-0,002
-449,153	-200,000	-0,020	0,233
-448,138	-110,996	-0,031	-0,005
-447,124	-35,047	-0,054	-0,022
-446,109	128,484	-0,048	-0,045
-445,095	-161,761	0,192	0,007
-444,080	89,801	-0,065	0,053
-443,065	800,000	-0,034	-0,071
-442,051	83,782	0,021	0,017
-441,036	800,000	0,026	-0,067
-440,022	-200,000	-0,004	-0,166
-439,007	263,681	0,051	-0,065
-437,992	-200,000	-0,006	-0,109
-436,978	74,240	-0,121	-0,093
-435,963	483,464	-0,062	0,103
-434,949	-150,999	0,091	0,005
-433,934	800,000	-0,020	-0,044
-432,919	-118,972	-0,065	0,008
-431,905	57,415	0,047	-0,034
-430,890	-130,491	-0,032	0,003
-429,876	10,412	0,156	-0,087
-428,861	211,575	0,042	-0,049
-427,846	-200,000	0,022	0,226
-426,832	655,125	-0,122	-0,230
-425,817	243,284	-0,097	-0,119
-424,803	-185,040	-0,038	0,000
-423,788	-93,576	-0,020	-0,004
-422,773	-200,000	-0,031	0,185
-421,759	800,000	-0,032	0,083
-420,744	-200,000	-0,002	0,071
-419,730	-159,950	0,024	0,001
-418,715	82,765	-0,017	0,013
-417,701	-167,591	-0,065	-0,002
-416,686	-200,000	-0,001	-0,087
-415,671	-32,302	0,016	-0,007
-414,657	242,774	0,036	0,044
-413,642	581,174	0,074	0,133
-412,628	234,935	-0,087	-0,106
-411,613	-200,000	-0,008	-0,061
-410,598	793,840	0,038	-0,077
-409,584	800,000	-0,038	-0,085
-408,569	800,000	0,041	0,095
-407,555	43,269	0,088	0,058
-406,540	420,688	-0,056	0,089
-405,525	-200,000	-0,011	0,129
-404,511	49,138	0,090	-0,062
-403,496	600,573	0,068	-0,125
-402,482	800,000	-0,033	0,071
-401,467	343,930	-0,022	-0,031
-400,452	100,026	0,118	0,100
-399,438	-200,000	0,005	-0,084
-398,423	183,243	-0,043	0,047
-397,409	121,450	-0,059	-0,054
-396,394	199,986	-0,097	-0,109
-395,379	-85,048	-0,090	-0,020
-394,365	-200,000	0,001	0,049
-393,350	-200,000	-0,027	-0,118
-392,336	42,333	0,017	-0,011
-391,321	-200,000	-0,010	-0,129
-390,306	800,000	-0,048	-0,101
-389,292	417,580	0,040	-0,063
-388,277	84,700	-0,015	0,012
-387,263	101,500	0,198	0,168
-386,248	-200,000	-0,025	0,096
-385,233	-200,000	0,021	0,116
-384,219	800,000	0,056	-0,133
-383,204	103,232	-0,084	-0,072
-382,190	313,452	0,032	-0,044
-381,175	-159,714	0,080	-0,003
-380,160	-142,149	-0,066	0,005
-379,146	-6,751	0,091	-0,045
-378,131	-200,000	0,018	-0,070
-377,117	-36,631	0,079	-0,031
-376,102	40,508	0,003	0,002
-375,088	-53,398	-0,042	0,014
-374,073	4,419	-0,025	0,013
-373,058	-5,763	0,076	0,038
-372,044	-200,000	0,014	0,114
-371,029	461,378	-0,011	0,018
-370,015	75,392	0,028	-0,021
-369,000	49,704	-0,137	-0,094
-367,985	-92,065	-0,119	0,024
-366,971	800,000	-0,035	-0,091
-365,956	-91,558	-0,048	-0,010
-364,942	409,195	-0,013	-0,020
-363,927	50,339	-0,052	0,036
-362,912	74,139	0,056	-0,043
-361,898	-81,262	-0,112	-0,027
-360,883	104,554	-0,091	-0,079
-359,869	-142,180	0,135	-0,010
-358,854	-200,000	0,002	-0,135
-357,839	800,000	0,034	0,093
-356,825	215,277	0,055	-0,064
-355,810	800,000	0,070	0,171
-354,796	216,360	0,079	0,091
-353,781	340,390	0,085	-0,122
-352,766	-18,952	0,036	-0,016
-351,752	-200,000	-0,013	0,124
-350,737	101,264	0,033	0,028
-349,723	-200,000	-0,030	0,130
-348,708	-11,137	-0,051	-0,024
-347,693	40,325	-0,155	0,102
-346,679	-200,000	-0,002	0,079
-345,664	800,000	0,020	-0,062
-344,650	800,000	-0,015	-0,038
-343,635	46,353	0,039	-0,026
-342,620	-80,152	0,110	0,027
-341,606	800,000	0,014	-0,033
-340,591	89,934	0,077	0,063
-339,577	63,981	-0,049	0,036
-338,562	800,000	0,044	-0,106
-337,548	206,147	-0,045	-0,051
-336,533	-36,671	0,097	-0,038
-335,518	214,159	-0,021	0,024
-334,504	201,368	0,070	0,078
-333,489	-8,514	-0,048	0,023
-332,475	83,000	0,069	-0,055
-331,460	-66,194	-0,022	0,006
-330,445	100,128	0,073	-0,061
-329,431	-44,086	0,097	0,036
-328,416	-200,000	-0,010	-0,108
-327,402	-23,540	-0,042	0,018
-326,387	-200,000	0,009	0,097
-325,372	-84,567	0,084	0,019
-324,358	179,228	0,126	0,135
-323,343	-94,139	-0,087	-0,017
-322,329	300,440	0,077	0,103
-321,314	411,497	0,056	0,088
-320,299	-200,000	-0,035	-0,150
-319,285	-55,517	0,030	0,010
-318,270	405,212	-0,078	0,120
-317,256	133,906	0,021	0,020
-316,241	-200,000	-0,022	-0,133
-315,226	-65,160	-0,071	-0,021
-314,212	-200,000	0,003	0,075
-313,197	132,236	0,039	-0,036
-312,183	-200,000	-0,001	0,053
-311,168	-1,819	-0,182	-0,093
-310,153	-67,571	-0,086	0,024
-309,139	-33,211	-0,058	-0,023
-308,124	52,896	0,083	0,058
-307,110	-108,437	0,058	0,009
-306,095	236,579	-0,058	0,070
-305,080	-200,000	-0,001	0,129
-304,066	110,702	0,116	0,101
-303,051	165,015	0,058	0,060
-302,037	46,692	-0,009	-0,006
-301,022	-178,881	-0,133	0,002
-300,008	142,629	0,080	0,077
-298,993	-23,131	0,120	0,052
-297,978	-25,460	0,041	-0,017
-296,964	333,156	-0,082	0,116
-295,949	-200,000	0,004	0,097
-294,935	52,777	0,031	-0,021
-293,920	56,752	0,051	-0,036
-292,905	-80,405	0,068	0,017
-291,891	800,000	-0,016	-0,048
-290,876	63,920	-0,024	0,018
-289,862	245,418	0,069	-0,084
-288,847	31,670	-0,101	0,063
-287,832	126,598	-0,027	-0,025
-286,818	-161,478	0,023	0,001
-285,803	-81,541	0,072	0,017
-284,789	-200,000	0,009	-0,141
-283,774	312,537	-0,074	0,101
-282,759	-200,000	0,003	0,009
-281,745	800,000	0,030	-0,068
-280,730	87,115	-0,041	0,033
-279,716	59,701	0,078	-0,056
-278,701	-174,175	0,104	0,002
-277,686	569,497	-0,015	0,027
-276,672	-200,000	0,001	0,054
-275,657	638,232	0,087	0,161
-274,643	236,337	-0,075	-0,090
-273,628	627,260	0,053	-0,098
-272,613	-200,000	-0,020	-0,098
-271,599	141,879	0,067	0,064
-270,584	458,906	-0,056	-0,092
-269,570	54,799	0,052	0,036
-268,555	254,618	-0,050	0,062
-267,540	-36,624	0,107	0,042
-266,526	53,754	-0,191	-0,133
-265,511	-57,330	-0,056	-0,018
-264,497	-60,483	-0,162	0,050
-263,482	-174,409	0,033	-0,001
-262,467	143,101	0,091	0,089
-261,453	14,057	-0,066	0,037
-260,438	65,748	0,053	0,039
-259,424	800,000	-0,048	0,104
-258,409	-200,000	0,020	-0,065
-257,395	800,000	-0,024	-0,055
-256,380	800,000	0,055	-0,144
-255,365	76,437	0,073	0,056
-254,351	200,088	-0,036	0,041
-253,336	117,486	0,012	-0,011
-252,322	86,160	-0,003	0,002
-251,307	-12,746	-0,024	0,011
-250,292	-200,000	0,008	0,057
-249,278	589,888	-0,046	-0,082
-248,263	375,928	-0,083	0,123
-247,249	47,968	-0,088	0,060
-246,234	-200,000	0,004	-0,193
-245,219	-200,000	0,009	0,113
-244,205	11,711	0,017	0,010
-243,190	-123,646	0,032	-0,004
-242,176	-129,806	-0,060	-0,006
-241,161	-200,000	-0,002	0,162
-240,146	39,121	-0,056	0,036
-239,132	63,749	-0,055	0,040
-238,117	235,883	0,010	0,012
-237,103	206,435	0,019	-0,021
-236,088	315,452	0,028	-0,039
-235,073	800,000	-0,038	0,080
-234,059	174,684	0,097	0,102
-233,044	800,000	-0,070	0,153
-232,030	309,966	0,064	-0,087
-231,015	-17,197	0,166	-0,076
-230,000	52,175	0,093	-0,064
-228,986	292,013	-0,041	0,055
-227,971	448,007	-0,096	0,154
-226,957	-93,602	0,059	-0,012
-225,942	-18,646	-0,103	-0,046
-224,927	-136,076	-0,104	-0,009
-223,913	238,384	0,104	-0,126
-222,898	30,057	-0,097	-0,060
-221,884	-16,229	0,096	-0,044
-220,869	-152,200	0,139	0,007
-219,855	-1,175	0,023	0,012
-218,840	-200,000	-0,004	0,074
-217,825	607,368	0,008	0,015
-216,811	-200,000	0,007	-0,185
-215,796	-200,000	0,018	-0,119
-214,782	300,809	-0,075	-0,101
-213,767	234,340	0,107	0,128
-212,752	800,000	-0,025	0,057
-211,738	535,878	-0,029	0,049
-210,723	-200,000	0,021	0,131
-209,709	-200,000	-0,016	-0,057
-208,694	349,174	-0,028	0,041
-207,679	430,122	-0,044	-0,069
-206,665	800,000	-0,024	0,077
-205,650	-182,036	-0,065	-0,001
-204,636	530,776	0,028	0,048
-203,621	800,000	0,045	0,094
-202,606	-11,129	0,132	0,063
-201,592	-200,000	0,001	-0,027
-200,577	-4,125	0,118	-0,059
-199,563	800,000	0,022	0,048
-198,548	800,000	0,032	0,072
-197,533	-110,623	-0,072	0,011
-196,519	69,689	0,050	-0,037
-195,504	336,924	-0,070	-0,099
-194,490	-200,000	-0,011	-0,069
-193,475	-200,000	-0,013	-0,192
-192,460	-47,269	-0,086	0,030
-191,446	-123,294	0,034	0,004
-190,431	-71,912	0,067	0,018
-189,417	259,859	0,052	0,065
-188,402	800,000	-0,026	0,057
-187,387	-135,299	-0,198	-0,017
-186,373	183,520	-0,125	0,134
-185,358	197,746	0,101	-0,112
-184,344	-200,000	-0,011	0,136
-183,329	800,000	-0,019	0,047
-182,315	-134,603	0,099	-0,009
-181,300	-200,000	-0,030	0,097
-180,285	65,946	-0,082	0,060
-179,271	-52,183	-0,034	-0,011
-178,256	-76,632	0,086	-0,022
-177,242	-132,314	0,068	-0,006
-176,227	-27,902	0,130	0,054
-175,212	-6,481	-0,073	0,036
-174,198	124,378	-0,034	0,031
-173,183	-73,122	-0,099	-0,026
-172,169	-200,000	-0,030	-0,105
-171,154	88,846	-0,013	-0,010
-170,139	438,904	0,047	0,075
-169,125	-101,076	-0,006	-0,001
-168,110	-200,000	0,001	0,165
-167,096	-62,165	0,027	0,008
-166,081	-200,000	-0,037	-0,127
-165,066	-167,204	0,019	0,001
-164,052	-36,340	-0,073	-0,029
-163,037	-190,700	0,130	-0,001
-162,023	-162,829	-0,027	0,001
-161,008	25,110	-0,047	0,028
-159,993	153,615	-0,057	-0,057
-158,979	163,267	0,035	-0,036
-157,964	-200,000	0,006	0,073
-156,950	-200,000	0,009	-0,050
-155,935	274,011	0,037	0,048
-154,920	22,470	0,065	0,038
-153,906	296,710	0,074	0,099
-152,891	-200,000	0,005	-0,089
-151,877	4,595	0,131	0,070
-150,862	-200,000	0,017	0,060
-149,847	358,560	-0,107	-0,155
-148,833	-200,000	0,016	0,061
-147,818	-200,000	-0,013	-0,057
-146,804	800,000	0,044	0,120
-145,789	204,903	0,062	0,069
-144,775	170,092	0,068	-0,071
-143,760	-200,000	0,016	-0,119
-142,745	-155,587	-0,151	-0,007
-141,731	2,463	0,104	-0,054
-140,716	800,000	0,016	0,035
-139,702	-156,407	0,092	0,004
-138,687	137,927	-0,064	0,061
-137,672	293,492	-0,039	-0,052
-136,658	-96,428	0,040	0,008
-135,643	431,344	-0,048	0,076
-134,629	-200,000	-0,001	-0,201
-133,614	-86,380	0,167	0,037
-132,599	36,077	-0,064	0,041
-131,585	79,226	0,043	0,034
-130,570	284,678	-0,068	-0,088
-129,556	29,186	-0,127	-0,078
-128,541	-69,479	-0,086	-0,024
-127,526	184,395	0,100	0,107
-126,512	125,763	0,054	0,049
-125,497	800,000	0,047	-0,102
-124,483	-25,305	-0,056	-0,024
-123,468	104,075	-0,033	0,028
-122,453	-92,458	0,037	0,008
-121,439	276,754	-0,125	0,161
-120,424	-200,000	0,015	-0,080
-119,410	321,689	0,087	-0,120
-118,395	-55,194	-0,112	-0,036
