DTS Sentinel unit serial number:	SN410029Multiplexer serial number:	ORYXHardware model number:	OX2-SRSoftware version number:	ORYX F/W v4,00 Oryx Data Collector v3.7.2.0data status	okinstallation	B4 Nyhavnadifferential loss correction	single-endedforward channel	channel 2reverse channel	N/Adate	2023/12/19time	05:35:14forward acquisition time	300,00reverse acquisition time	0,00gamma	499,1914k internal	0,3127k external	0,3127temperature offset calibration	1,0000default loss term (dB/km)	0,3820temperature slope calibration	1,0000multiplexer offset coefficient	1,0000multiplexer slope coefficient	1,0000fibre end	0,00T internal ref (°C)	21,01T ext. ref 1 (°C)	6,35T ext. ref 2 (°C)	6,42length (m)	temperature (°C)	Stokes	anti-Stokes-744,400	80,927	-0,048	-0,038
-743,385	130,017	-0,198	0,189
-742,371	800,000	0,067	0,172
-741,356	242,167	-0,124	0,154
-740,342	63,017	0,068	-0,051
-739,327	27,236	-0,120	0,075
-738,312	83,435	-0,041	-0,033
-737,298	-123,320	-0,278	0,033
-736,283	800,000	0,055	-0,131
-735,269	-200,000	-0,274	0,000
-734,254	-84,103	0,130	-0,031
-733,239	-169,986	-0,392	-0,010
-732,225	-200,000	0,006	0,142
-731,210	238,453	-0,033	0,041
-730,196	152,434	0,106	-0,108
-729,181	-200,000	-0,033	0,154
-728,167	800,000	0,044	-0,118
-727,152	-151,821	-0,011	-0,001
-726,137	-200,000	0,037	-0,138
-725,123	103,190	-0,077	-0,067
-724,108	45,102	-0,104	-0,071
-723,094	-81,359	-0,120	0,029
-722,079	26,866	-0,112	-0,070
-721,064	32,263	-0,026	-0,017
-720,050	-200,000	0,027	-0,121
-719,035	-200,000	-0,003	0,107
-718,021	583,913	-0,050	-0,091
-717,006	-200,000	0,049	-0,195
-715,991	237,407	-0,050	-0,062
-714,977	-140,794	0,099	0,008
-713,962	-200,000	-0,036	-0,134
-712,948	-200,000	-0,017	0,124
-711,933	139,688	0,043	0,042
-710,918	77,644	0,035	0,028
-709,904	800,000	-0,026	-0,060
-708,889	631,427	-0,029	-0,055
-707,875	-200,000	-0,048	-0,161
-706,860	-200,000	0,013	-0,141
-705,845	-70,520	0,025	-0,007
-704,831	-8,382	-0,169	-0,084
-703,816	354,971	-0,081	0,121
-702,802	-140,960	0,149	0,011
-701,787	679,863	-0,033	-0,064
-700,772	-200,000	0,017	0,186
-699,758	-58,259	-0,069	-0,022
-698,743	3,006	-0,064	0,034
-697,729	82,604	0,073	0,059
-696,714	800,000	0,033	0,085
-695,699	583,409	-0,064	-0,117
-694,685	-59,519	-0,085	-0,027
-693,670	-3,350	0,049	-0,025
-692,656	-97,684	-0,096	-0,018
-691,641	-200,000	-0,010	-0,054
-690,627	-145,684	0,135	-0,009
-689,612	165,327	0,037	-0,039
-688,597	-200,000	-0,004	-0,076
-687,583	105,518	0,126	-0,111
-686,568	-26,934	-0,035	0,015
-685,554	-116,367	0,106	-0,014
-684,539	-96,352	-0,117	-0,023
-683,524	537,591	-0,012	-0,022
-682,510	73,459	0,021	0,016
-681,495	-53,464	-0,056	-0,019
-680,481	-200,000	0,018	-0,062
-679,466	486,428	-0,096	-0,163
-678,451	-200,000	-0,000	0,043
-677,437	-66,875	-0,011	0,003
-676,422	-143,081	-0,112	0,008
-675,408	-12,677	0,134	-0,065
-674,393	211,412	-0,181	-0,211
-673,378	800,000	-0,042	-0,130
-672,364	156,151	-0,056	-0,057
-671,349	-200,000	-0,009	-0,059
-670,335	-127,635	-0,036	-0,004
-669,320	-43,945	0,123	0,046
-668,305	786,628	-0,042	0,087
-667,291	-32,830	0,008	0,003
-666,276	-98,861	-0,154	0,029
-665,262	-39,543	-0,117	-0,045
-664,247	174,941	0,054	0,058
-663,232	302,489	-0,081	-0,111
-662,218	-17,382	0,134	-0,062
-661,203	406,949	0,031	0,049
-660,189	578,764	-0,058	0,106
-659,174	-84,356	-0,106	-0,025
-658,159	-200,000	0,009	-0,045
-657,145	-43,235	-0,119	-0,044
-656,130	-200,000	0,012	0,109
-655,116	-9,016	-0,047	-0,024
-654,101	610,046	0,048	-0,089
-653,086	-200,000	0,042	-0,144
-652,072	-124,448	-0,063	0,007
-651,057	-8,004	-0,087	-0,043
-650,043	-88,750	-0,171	0,037
-649,028	0,487	-0,075	-0,040
-648,014	-200,000	-0,033	-0,114
-646,999	-200,000	0,009	-0,047
-645,984	467,677	-0,057	0,095
-644,970	-200,000	-0,004	0,042
-643,955	800,000	-0,009	0,020
-642,941	800,000	-0,010	-0,032
-641,926	-200,000	-0,007	-0,045
-640,911	-146,928	-0,158	-0,010
-639,897	-128,062	-0,132	0,014
-638,882	223,835	0,092	-0,110
-637,868	2,289	-0,046	-0,025
-636,853	614,153	-0,104	-0,194
-635,838	163,293	0,085	0,089
-634,824	38,921	0,063	0,041
-633,809	369,672	0,007	0,010
-632,795	92,067	-0,082	-0,069
-631,780	9,974	-0,130	0,073
-630,765	20,145	0,079	-0,047
-629,751	-141,468	0,033	0,002
-628,736	-48,926	-0,133	-0,047
-627,722	174,768	0,104	-0,112
-626,707	-166,882	-0,050	-0,001
-625,692	800,000	0,008	0,023
-624,678	-8,076	0,041	-0,020
-623,663	97,360	0,045	-0,038
-622,649	199,981	0,066	-0,075
-621,634	-9,847	-0,054	-0,027
-620,619	197,011	-0,043	-0,049
-619,605	-200,000	0,011	-0,074
-618,590	-112,431	0,105	-0,015
-617,576	50,944	0,028	0,019
-616,561	388,178	0,037	0,057
-615,546	-200,000	-0,002	-0,066
-614,532	135,395	-0,093	-0,090
-613,517	-138,377	0,066	0,005
-612,503	-200,000	-0,001	0,042
-611,488	511,869	0,043	0,074
-610,474	77,773	-0,072	0,057
-609,459	-200,000	-0,007	-0,050
-608,444	-28,601	0,006	0,003
-607,430	-1,205	-0,173	-0,090
-606,415	-92,620	-0,080	-0,016
-605,401	-134,122	0,122	-0,011
-604,386	744,289	-0,058	-0,117
-603,371	800,000	-0,011	0,037
-602,357	179,167	0,021	-0,023
-601,342	-200,000	-0,004	-0,163
-600,328	78,524	0,039	-0,031
-599,313	106,885	-0,121	0,107
-598,298	-200,000	-0,002	-0,157
-597,284	-97,906	0,006	0,001
-596,269	78,853	0,026	0,021
-595,255	800,000	0,064	0,133
-594,240	-109,454	-0,096	0,015
-593,225	-200,000	-0,037	-0,183
-592,211	143,159	-0,052	-0,051
-591,196	88,784	-0,108	0,089
-590,182	-200,000	-0,002	0,034
-589,167	800,000	0,065	-0,150
-588,152	-200,000	0,006	0,118
-587,138	800,000	-0,006	-0,015
-586,123	67,579	-0,126	-0,095
-585,109	-200,000	-0,018	-0,082
-584,094	-7,304	-0,047	0,024
-583,079	-7,837	-0,087	0,043
-582,065	-45,062	0,064	-0,023
-581,050	-200,000	-0,010	0,145
-580,036	-200,000	-0,001	-0,117
-579,021	-150,953	-0,103	-0,006
-578,006	-200,000	0,012	-0,073
-576,992	-42,254	0,123	0,046
-575,977	-91,784	-0,132	-0,028
-574,963	21,238	0,079	0,047
-573,948	349,191	-0,017	0,024
-572,934	-107,407	0,025	-0,004
-571,919	-29,031	-0,133	0,056
-570,904	388,478	-0,016	0,024
-569,890	530,925	-0,043	0,075
-568,875	-200,000	0,033	-0,109
-567,861	-200,000	0,014	-0,065
-566,846	-56,300	-0,093	0,030
-565,831	-200,000	-0,007	0,058
-564,817	-50,776	-0,023	0,008
-563,802	1,768	0,106	-0,056
-562,788	-5,515	0,093	-0,047
-561,773	60,834	0,138	-0,101
-560,758	800,000	0,059	-0,141
-559,744	144,967	-0,095	0,094
-558,729	-200,000	-0,037	0,229
-557,715	774,043	-0,015	0,030
-556,700	485,934	-0,032	0,054
-555,685	748,308	-0,033	0,066
-554,671	238,963	0,064	0,078
-553,656	38,104	0,134	0,088
-552,642	800,000	-0,085	0,185
-551,627	-5,130	-0,038	0,019
-550,612	800,000	0,032	-0,067
-549,598	-103,234	-0,165	0,029
-548,583	407,659	-0,040	-0,063
-547,569	-200,000	-0,013	-0,088
-546,554	-42,317	0,034	0,013
-545,539	241,409	0,076	-0,094
-544,525	674,551	-0,042	-0,081
-543,510	-101,717	-0,037	0,007
-542,496	71,035	0,112	-0,086
-541,481	107,342	-0,044	-0,038
-540,466	94,054	-0,059	-0,050
-539,452	-62,138	0,056	0,017
-538,437	31,533	-0,119	-0,075
-537,423	-13,911	0,046	-0,022
-536,408	644,254	-0,105	-0,199
-535,393	-69,248	0,074	-0,021
-534,379	-200,000	-0,003	0,059
-533,364	52,631	0,086	0,061
-532,350	96,105	0,146	-0,123
-531,335	-136,171	0,135	-0,012
-530,321	-107,855	0,103	0,016
-529,306	-99,444	-0,123	0,023
-528,291	-200,000	0,007	-0,033
-527,277	-147,610	0,028	-0,002
-526,262	355,440	0,094	0,138
-525,248	-163,272	0,016	0,001
-524,233	120,054	-0,078	-0,072
-523,218	199,965	0,075	0,086
-522,204	-200,000	0,006	-0,023
-521,189	-158,832	-0,063	0,003
-520,175	-147,854	-0,159	0,010
-519,160	-29,994	0,058	0,024
-518,145	142,047	0,031	-0,030
-517,131	150,829	-0,052	-0,052
-516,116	247,685	-0,070	0,088
-515,102	244,361	-0,061	-0,076
-514,087	14,720	0,051	-0,030
-513,072	-52,478	0,067	-0,023
-512,058	121,993	-0,070	0,064
-511,043	-200,000	0,008	-0,047
-510,029	-200,000	-0,031	0,110
-509,014	364,645	-0,066	0,098
-507,999	85,220	-0,063	0,051
-506,985	-200,000	0,013	0,091
-505,970	-144,725	-0,103	0,007
-504,956	40,602	-0,006	-0,004
-503,941	-106,240	-0,045	-0,007
-502,926	-200,000	0,024	0,099
-501,912	212,361	0,125	-0,146
-500,897	471,254	0,020	-0,033
-499,883	-200,000	-0,021	0,103
-498,868	800,000	0,036	0,114
-497,853	381,883	-0,077	0,118
-496,839	-132,174	-0,057	-0,005
-495,824	319,628	-0,036	-0,050
-494,810	484,780	-0,068	-0,115
-493,795	-32,599	0,061	0,025
-492,781	-200,000	0,006	0,085
-491,766	-200,000	-0,007	0,047
-490,751	-84,085	0,051	-0,012
-489,737	800,000	-0,014	0,036
-488,722	-77,394	0,037	-0,009
-487,708	-65,442	0,080	0,024
-486,693	657,129	0,006	0,011
-485,678	200,513	0,105	0,119
-484,664	-6,689	-0,153	0,076
-483,649	156,054	-0,113	-0,115
-482,635	-200,000	0,001	-0,039
-481,620	214,132	0,035	0,041
-480,605	101,044	-0,045	-0,039
-479,591	41,628	0,033	-0,022
-478,576	-122,839	-0,065	-0,008
-477,562	112,177	0,079	0,070
-476,547	306,689	0,037	0,051
-475,532	61,448	0,058	0,043
-474,518	-38,127	-0,020	-0,008
-473,503	25,489	0,131	0,080
-472,489	67,792	0,028	-0,021
-471,474	782,330	0,027	-0,054
-470,459	455,960	0,040	-0,066
-469,445	-200,000	-0,011	-0,056
-468,430	149,118	0,153	0,153
-467,416	-200,000	0,018	-0,149
-466,401	-200,000	0,007	0,043
-465,386	-90,383	0,073	0,015
-464,372	-126,374	0,119	0,013
-463,357	676,486	0,034	-0,065
-462,343	-200,000	-0,012	-0,075
-461,328	35,198	-0,155	0,100
-460,313	-200,000	0,006	-0,021
-459,299	528,153	-0,027	0,047
-458,284	427,893	0,062	0,099
-457,270	386,534	0,055	-0,083
-456,255	47,199	-0,068	0,046
-455,241	131,470	-0,103	-0,098
-454,226	-174,753	-0,147	-0,003
-453,211	-200,000	-0,005	-0,172
-452,197	-200,000	-0,009	0,088
-451,182	244,570	0,071	0,088
-450,168	20,274	-0,040	-0,024
-449,153	495,034	0,018	0,031
-448,138	-200,000	-0,024	-0,150
-447,124	-200,000	-0,024	-0,140
-446,109	70,174	0,075	0,057
-445,095	-200,000	0,002	0,019
-444,080	800,000	0,031	0,087
-443,065	-135,480	-0,140	-0,012
-442,051	170,112	-0,111	-0,116
-441,036	164,215	0,092	-0,095
-440,022	186,809	0,034	0,038
-439,007	7,667	-0,066	-0,036
-437,992	-186,952	-0,112	0,001
-436,978	-134,256	0,072	-0,006
-435,963	74,782	0,067	-0,051
-434,949	-33,519	-0,207	0,084
-433,934	279,664	0,031	-0,041
-432,919	800,000	0,031	-0,088
-431,905	203,686	-0,009	-0,010
-430,890	-152,700	0,188	-0,010
-429,876	800,000	-0,025	0,075
-428,861	124,800	0,122	-0,113
-427,846	-200,000	0,001	0,132
-426,832	-200,000	0,018	-0,084
-425,817	75,600	-0,130	-0,101
-424,803	161,402	-0,047	-0,049
-423,788	-130,262	0,146	-0,014
-422,773	212,240	0,034	0,040
-421,759	9,982	-0,060	0,033
-420,744	-90,649	0,045	0,009
-419,730	118,262	-0,092	-0,083
-418,715	-69,616	-0,060	-0,017
-417,701	464,323	0,101	-0,166
-416,686	800,000	-0,033	0,068
-415,671	-24,066	-0,067	-0,029
-414,657	800,000	0,040	0,094
-413,642	-38,343	-0,146	0,057
-412,628	-112,699	0,027	0,004
-411,613	-200,000	0,002	-0,019
-410,598	14,315	0,095	-0,054
-409,584	47,587	0,042	0,029
-408,569	-138,616	0,065	-0,005
-407,555	345,271	0,072	0,104
-406,540	-200,000	0,003	0,024
-405,525	-200,000	-0,019	0,074
-404,511	82,661	-0,027	0,021
-403,496	-109,683	-0,056	-0,009
-402,482	-200,000	0,029	0,127
-401,467	126,944	0,046	0,042
-400,452	52,248	0,071	0,050
-399,438	346,888	-0,124	0,180
-398,423	-44,642	-0,066	0,024
-397,409	800,000	-0,075	-0,170
-396,394	79,739	0,085	-0,067
-395,379	39,675	-0,105	-0,069
-394,365	31,635	0,084	0,053
-393,350	-200,000	-0,005	-0,101
-392,336	-102,640	-0,150	0,026
-391,321	-200,000	-0,002	0,075
-390,306	517,752	-0,037	0,063
-389,292	-200,000	-0,027	0,097
-388,277	800,000	0,035	-0,103
-387,263	-68,841	0,070	0,020
-386,248	46,462	0,166	0,113
-385,233	421,997	0,053	0,084
-384,219	-200,000	0,008	0,129
-383,204	-118,065	0,172	-0,022
-382,190	216,502	0,052	-0,060
-381,175	800,000	-0,050	0,123
-380,160	-120,877	0,054	-0,007
-379,146	-43,252	0,070	0,026
-378,131	670,133	-0,026	-0,049
-377,117	800,000	0,031	0,077
-376,102	49,551	0,086	-0,059
-375,088	-40,702	-0,080	-0,030
-374,073	800,000	-0,047	0,099
-373,058	158,032	0,072	0,073
-372,044	84,959	0,094	0,075
-371,029	351,012	-0,010	0,014
-370,015	800,000	0,013	0,033
-369,000	-176,806	-0,064	-0,001
-367,985	-17,145	-0,129	-0,060
-366,971	79,496	-0,027	-0,021
-365,956	585,726	0,029	-0,053
-364,942	-139,507	0,137	0,011
-363,927	16,345	0,139	-0,080
-362,912	-200,000	0,012	-0,093
-361,898	800,000	-0,027	-0,057
-360,883	-94,053	-0,092	-0,018
-359,869	-79,508	-0,103	0,025
-358,854	65,737	0,052	-0,038
-357,839	-200,000	-0,020	0,241
-356,825	488,169	0,041	-0,069
-355,810	-200,000	0,024	0,141
-354,796	800,000	-0,080	-0,197
-353,781	165,988	-0,030	-0,031
-352,766	104,595	0,017	0,014
-351,752	-194,685	0,068	-0,000
-350,737	-7,273	0,054	-0,027
-349,723	635,531	-0,022	-0,041
-348,708	-200,000	0,023	0,091
-347,693	191,309	-0,020	-0,023
-346,679	176,240	-0,074	-0,078
-345,664	343,359	-0,018	-0,026
-344,650	-117,361	0,059	0,008
-343,635	-200,000	0,019	0,066
-342,620	-200,000	-0,000	0,138
-341,606	-113,802	-0,018	-0,003
-340,591	96,329	-0,100	0,084
-339,577	203,472	-0,053	0,060
-338,562	151,254	-0,064	-0,064
-337,548	-200,000	0,004	-0,132
-336,533	-104,465	-0,152	-0,026
-335,518	800,000	0,025	0,061
-334,504	57,794	0,096	0,069
-333,489	-159,598	0,072	0,003
-332,475	-160,387	0,062	0,002
-331,460	-17,999	0,065	0,030
-330,445	800,000	-0,018	-0,051
-329,431	242,214	-0,098	0,120
-328,416	-200,000	-0,012	-0,071
-327,402	-159,882	0,119	-0,005
-326,387	140,464	0,111	-0,108
-325,372	-200,000	-0,008	-0,028
-324,358	-57,293	0,167	-0,054
-323,343	484,386	-0,030	0,051
-322,329	335,552	-0,019	0,027
-321,314	800,000	-0,033	0,094
-320,299	-113,398	0,046	0,007
-319,285	-200,000	-0,020	-0,117
-318,270	-0,986	-0,120	-0,062
-317,256	181,089	-0,077	-0,083
-316,241	800,000	0,030	0,077
-315,226	-200,000	0,009	0,090
-314,212	-79,946	0,119	-0,029
-313,197	-134,992	-0,069	0,006
-312,183	181,089	-0,092	0,099
-311,168	582,472	-0,036	0,065
-310,153	185,899	-0,096	-0,105
-309,139	-67,453	-0,100	-0,029
-308,124	-30,456	0,020	0,008
-307,110	173,212	-0,025	-0,026
-306,095	-200,000	0,020	0,127
-305,080	-200,000	-0,012	0,046
-304,066	800,000	0,032	0,096
-303,051	31,528	0,118	0,074
-302,037	69,862	-0,132	-0,099
-301,022	-200,000	-0,018	-0,084
-300,008	45,064	-0,119	0,080
-298,993	-89,957	0,115	0,024
-297,978	-172,602	0,075	-0,002
-296,964	75,628	-0,070	-0,054
-295,949	800,000	-0,049	-0,117
-294,935	-200,000	-0,009	-0,106
-293,920	-138,101	0,214	-0,017
-292,905	565,417	-0,043	-0,077
-291,891	800,000	0,021	0,068
-290,876	800,000	-0,038	0,109
-289,862	-69,302	0,167	0,047
-288,847	800,000	-0,053	-0,115
-287,832	-86,270	0,033	0,007
-286,818	395,011	0,048	-0,074
-285,803	-200,000	-0,001	0,126
-284,789	-200,000	-0,005	-0,038
-283,774	800,000	0,041	0,129
-282,759	75,840	0,111	-0,085
-281,745	39,173	-0,104	-0,068
-280,730	-144,618	-0,118	-0,008
-279,716	-200,000	0,001	0,020
-278,701	-35,182	-0,061	-0,024
-277,686	767,572	-0,061	-0,122
-276,672	800,000	0,059	0,142
-275,657	-129,489	0,129	0,013
-274,643	-150,377	0,182	-0,010
-273,628	393,049	-0,056	-0,086
-272,613	-200,000	0,132	-0,000
-271,599	28,203	0,079	0,049
-270,584	106,486	0,062	0,054
-269,570	-26,517	-0,054	0,023
-268,555	59,550	0,116	0,084
-267,540	121,593	0,035	0,032
-266,526	647,460	-0,087	0,163
-265,511	-35,204	0,079	-0,031
-264,497	-165,233	0,101	-0,003
-263,482	-200,000	-0,007	0,025
-262,467	-141,115	0,109	0,008
-261,453	800,000	-0,035	0,088
-260,438	423,744	-0,020	-0,032
-259,424	355,424	-0,039	0,056
-258,409	-142,168	0,040	-0,003
-257,395	37,023	0,061	0,039
-256,380	-82,330	0,063	0,015
-255,365	210,906	0,055	-0,063
-254,351	-200,000	0,009	0,070
-253,336	-200,000	-0,003	-0,049
-252,322	-49,506	-0,070	0,024
-251,307	126,593	0,022	-0,021
-250,292	333,835	-0,073	0,104
-249,278	800,000	0,014	-0,032
-248,263	-200,000	0,006	-0,059
-247,249	301,906	-0,062	0,083
-246,234	96,986	-0,050	-0,042
-245,219	-200,000	-0,040	0,145
-244,205	667,694	-0,064	0,122
-243,190	-200,000	0,001	-0,077
-242,176	103,501	0,089	0,076
-241,161	167,013	0,060	-0,062
-240,146	-48,554	-0,115	0,040
-239,132	169,277	-0,082	-0,086
-238,117	-22,597	0,023	0,010
-237,103	198,994	0,026	0,029
-236,088	-200,000	-0,015	-0,083
-235,073	800,000	0,034	0,084
-234,059	-200,000	-0,015	-0,104
-233,044	-200,000	-0,008	0,083
-232,030	-200,000	0,009	0,138
-231,015	-82,485	-0,064	0,015
-230,000	137,315	-0,123	-0,117
-228,986	371,497	-0,074	-0,110
-227,971	-200,000	-0,008	0,026
-226,957	-200,000	-0,011	-0,049
-225,942	-200,000	0,035	0,127
-224,927	-56,828	0,101	-0,032
-223,913	-166,551	0,027	0,001
-222,898	564,272	0,009	0,015
-221,884	540,246	0,065	0,113
-220,869	149,453	0,033	-0,032
-219,855	215,444	-0,051	0,059
-218,840	20,543	0,076	0,045
-217,825	-56,353	-0,122	0,039
-216,811	241,484	-0,079	0,096
-215,796	205,250	0,114	-0,130
-214,782	-200,000	-0,009	0,150
-213,767	-112,285	0,124	0,018
-212,752	66,735	0,054	0,040
-211,738	-200,000	0,034	0,148
-210,723	-44,971	-0,181	0,065
-209,709	6,558	-0,133	-0,072
-208,694	16,581	0,093	-0,053
-207,679	130,979	-0,096	-0,090
-206,665	-200,000	-0,020	0,123
-205,650	578,450	0,028	0,050
-204,636	-200,000	0,011	0,174
-203,621	201,885	0,034	0,038
-202,606	101,689	0,071	-0,061
-201,592	-200,000	-0,013	-0,093
-200,577	-91,798	-0,045	-0,009
-199,563	42,245	-0,127	-0,084
-198,548	-67,287	-0,096	0,027
-197,533	-200,000	0,052	0,182
-196,519	405,189	-0,102	0,158
-195,504	-124,909	0,072	0,008
-194,490	220,688	0,015	0,017
-193,475	800,000	0,030	-0,082
-192,460	-77,886	0,072	0,018
-191,446	-87,470	-0,127	0,028
-190,431	310,077	0,118	0,161
-189,417	62,185	-0,049	-0,036
-188,402	-56,676	-0,109	-0,035
-187,387	55,126	-0,079	-0,056
-186,373	800,000	0,053	-0,166
-185,358	-200,000	-0,008	-0,057
-184,344	-121,283	0,104	0,012
-183,329	219,629	0,071	-0,083
-182,315	-200,000	-0,005	0,068
-181,300	-88,072	0,062	-0,013
-180,285	754,285	0,023	-0,046
-179,271	393,707	-0,057	-0,086
-178,256	150,731	-0,114	-0,113
-177,242	-45,523	-0,046	0,017
-176,227	-177,829	0,118	-0,002
-175,212	19,558	0,071	0,041
-174,198	-119,938	0,094	-0,012
-173,183	334,651	-0,080	-0,113
-172,169	800,000	0,029	-0,072
-171,154	421,584	0,079	-0,124
-170,139	-18,401	0,064	-0,029
-169,125	-129,617	0,105	-0,010
-168,110	-29,131	-0,089	-0,037
-167,096	-83,598	-0,054	0,013
-166,081	800,000	0,033	-0,076
-165,066	-48,109	-0,072	-0,025
-164,052	-200,000	-0,028	-0,106
-163,037	800,000	-0,030	-0,064
-162,023	800,000	0,018	0,039
-161,008	-92,865	0,123	-0,025
-159,993	-171,742	0,179	-0,004
-158,979	800,000	-0,030	-0,074
-157,964	-112,418	0,083	0,012
-156,950	-79,919	-0,171	0,042
-155,935	-38,836	0,062	0,024
-154,920	-22,909	-0,061	-0,027
-153,906	-200,000	0,028	-0,093
-152,891	116,601	-0,142	0,126
-151,877	-200,000	-0,006	-0,025
-150,862	-200,000	-0,002	-0,060
-149,847	-200,000	0,012	-0,081
-148,833	800,000	0,038	-0,095
-147,818	-200,000	-0,017	0,078
-146,804	-200,000	-0,017	-0,101
-145,789	28,353	0,028	-0,017
-144,775	-51,853	0,045	0,015
-143,760	0,225	-0,056	0,029
-142,745	-200,000	0,004	0,015
-141,731	-200,000	-0,003	0,041
-140,716	69,250	0,072	0,054
-139,702	-48,729	0,162	0,056
-138,687	800,000	-0,035	0,071
-137,672	800,000	0,009	-0,019
-136,658	66,152	-0,110	-0,081
-135,643	101,632	0,095	-0,081
-134,629	-200,000	0,009	-0,067
-133,614	-117,578	0,020	0,003
-132,599	800,000	-0,033	0,081
-131,585	-128,693	0,106	-0,011
-130,570	89,678	0,031	0,025
-129,556	-81,272	-0,141	0,034
-128,541	-155,662	-0,081	0,004
-127,526	800,000	0,039	0,085
-126,512	-200,000	0,004	-0,106
-125,497	-14,050	0,031	0,014
-124,483	184,724	0,065	0,070
-123,468	-1,922	0,117	-0,059
-122,453	-200,000	-0,039	-0,146
-121,439	79,529	0,048	-0,037
-120,424	800,000	0,030	0,068
-119,410	-28,001	-0,035	0,015
