DTS Sentinel unit serial number:	SN410029Multiplexer serial number:	ORYXHardware model number:	OX2-SRSoftware version number:	ORYX F/W v4,00 Oryx Data Collector v3.7.2.0data status	okinstallation	B4 Nyhavnadifferential loss correction	single-endedforward channel	channel 2reverse channel	N/Adate	2023/12/15time	22:45:13forward acquisition time	300,00reverse acquisition time	0,00gamma	499,1914k internal	0,3131k external	0,3131temperature offset calibration	1,0000default loss term (dB/km)	0,3820temperature slope calibration	1,0000multiplexer offset coefficient	1,0000multiplexer slope coefficient	1,0000fibre end	0,00T internal ref (°C)	21,47T ext. ref 1 (°C)	6,62T ext. ref 2 (°C)	6,80length (m)	temperature (°C)	Stokes	anti-Stokes-744,400	800,000	0,042	0,113
-743,385	-157,791	-0,182	-0,008
-742,371	270,967	0,024	0,031
-741,356	-91,441	-0,215	0,045
-740,342	-200,000	-0,012	-0,119
-739,327	-107,439	-0,285	0,046
-738,312	-118,908	0,043	-0,006
-737,298	-43,811	-0,319	0,119
-736,283	800,000	0,030	-0,081
-735,269	-126,056	-0,210	0,023
-734,254	284,360	0,104	-0,139
-733,239	16,631	-0,271	-0,159
-732,225	152,555	0,125	0,127
-731,210	800,000	-0,030	0,067
-730,196	-64,581	-0,071	-0,021
-729,181	800,000	-0,033	0,075
-728,167	800,000	0,031	-0,099
-727,152	406,867	-0,050	0,079
-726,137	-111,646	0,019	-0,003
-725,123	44,902	-0,153	-0,105
-724,108	-200,000	-0,023	-0,111
-723,094	-169,948	-0,099	0,003
-722,079	6,995	0,037	-0,020
-721,064	351,673	-0,060	-0,088
-720,050	-38,147	0,117	-0,046
-719,035	-31,439	-0,224	0,093
-718,021	128,977	-0,018	0,017
-717,006	-13,141	-0,063	0,030
-715,991	-174,878	-0,127	0,003
-714,977	689,117	-0,027	-0,053
-713,962	800,000	-0,042	-0,137
-712,948	263,443	0,029	0,038
-711,933	-200,000	-0,038	-0,126
-710,918	800,000	-0,022	-0,062
-709,904	-55,263	-0,035	0,012
-708,889	800,000	0,069	-0,152
-707,875	-36,120	-0,164	-0,065
-706,860	-87,728	-0,033	0,007
-705,845	-48,721	-0,132	-0,047
-704,831	-14,964	-0,038	0,018
-703,816	-89,959	-0,040	0,009
-702,802	181,712	0,017	-0,019
-701,787	-107,784	0,090	-0,014
-700,772	800,000	0,085	-0,175
-699,758	800,000	-0,011	-0,029
-698,743	23,862	0,014	-0,009
-697,729	36,744	-0,020	-0,013
-696,714	162,968	-0,028	-0,029
-695,699	-200,000	-0,003	-0,057
-694,685	61,047	-0,089	-0,066
-693,670	380,399	-0,062	0,094
-692,656	-200,000	0,008	-0,079
-691,641	800,000	0,026	-0,065
-690,627	-55,773	0,053	0,017
-689,612	228,758	0,040	-0,048
-688,597	397,977	0,059	-0,092
-687,583	634,621	0,051	-0,097
-686,568	-19,123	-0,004	0,002
-685,554	800,000	-0,056	-0,175
-684,539	-10,394	-0,086	-0,042
-683,524	-200,000	0,011	-0,148
-682,510	-200,000	-0,042	-0,139
-681,495	-200,000	0,046	-0,188
-680,481	-200,000	-0,050	-0,241
-679,466	-200,000	-0,022	-0,092
-678,451	237,789	0,044	-0,054
-677,437	-200,000	0,003	0,058
-676,422	95,479	-0,126	-0,106
-675,408	164,856	-0,035	-0,037
-674,393	-200,000	0,016	-0,097
-673,378	774,256	-0,033	-0,067
-672,364	-167,189	0,029	0,001
-671,349	-200,000	-0,016	-0,085
-670,335	31,766	-0,035	-0,022
-669,320	-8,583	0,107	0,053
-668,305	208,555	-0,116	-0,134
-667,291	-200,000	0,005	-0,101
-666,276	451,398	-0,073	0,120
-665,262	-132,346	-0,082	-0,008
-664,247	81,902	-0,058	-0,046
-663,232	-45,655	-0,068	0,025
-662,218	-88,799	-0,136	-0,030
-661,203	800,000	-0,055	-0,139
-660,189	-79,549	-0,077	0,019
-659,174	78,347	-0,069	0,055
-658,159	223,641	-0,058	0,070
-657,145	-200,000	0,030	-0,122
-656,130	-149,901	-0,068	-0,004
-655,116	401,709	-0,090	-0,140
-654,101	-200,000	-0,010	0,157
-653,086	39,944	0,108	0,072
-652,072	-4,347	-0,051	-0,026
-651,057	101,911	0,049	-0,042
-650,043	800,000	-0,036	-0,108
-649,028	173,779	-0,036	0,038
-648,014	-200,000	0,005	0,039
-646,999	800,000	0,082	0,209
-645,984	-111,950	-0,065	0,010
-644,970	-153,815	-0,084	-0,004
-643,955	-200,000	0,033	-0,135
-642,941	450,078	-0,037	0,061
-641,926	-200,000	0,008	-0,048
-640,911	-16,248	0,075	0,035
-639,897	-200,000	0,005	-0,044
-638,882	-140,275	0,106	0,008
-637,868	800,000	-0,022	0,052
-636,853	244,025	0,040	0,050
-635,838	-200,000	0,005	0,034
-634,824	-200,000	-0,014	0,050
-633,809	-195,338	0,038	0,000
-632,795	800,000	0,038	0,083
-631,780	-146,125	0,074	0,005
-630,765	-200,000	-0,008	0,095
-629,751	800,000	-0,005	-0,017
-628,736	800,000	-0,015	0,036
-627,722	800,000	0,028	-0,065
-626,707	103,151	0,037	0,032
-625,692	-67,783	0,104	0,030
-624,678	382,927	0,063	-0,096
-623,663	-100,723	-0,050	0,009
-622,649	-115,015	-0,054	-0,008
-621,634	800,000	0,029	-0,072
-620,619	-131,715	0,092	0,009
-619,605	-14,781	-0,092	0,043
-618,590	193,081	0,054	0,060
-617,576	-41,160	0,111	-0,042
-616,561	-200,000	-0,012	0,057
-615,546	103,141	0,048	-0,041
-614,532	-104,153	-0,051	0,009
-613,517	-200,000	0,024	-0,251
-612,503	-200,000	-0,009	-0,098
-611,488	-200,000	-0,012	0,111
-610,474	800,000	0,023	0,053
-609,459	46,025	-0,052	-0,035
-608,444	-75,700	0,050	-0,013
-607,430	800,000	-0,028	-0,075
-606,415	449,175	-0,044	-0,072
-605,401	-23,636	-0,159	0,070
-604,386	130,293	0,042	-0,040
-603,371	-200,000	-0,029	0,118
-602,357	578,720	-0,015	-0,027
-601,342	800,000	-0,042	0,108
-600,328	515,973	-0,013	-0,022
-599,313	-199,953	0,065	-0,000
-598,298	527,537	0,027	0,048
-597,284	-11,863	-0,076	-0,037
-596,269	800,000	-0,028	0,063
-595,255	-121,261	-0,105	-0,013
-594,240	-200,000	0,002	-0,019
-593,225	-200,000	-0,026	-0,226
-592,211	182,097	0,029	-0,032
-591,196	-200,000	-0,017	0,075
-590,182	104,524	0,011	0,010
-589,167	800,000	0,042	0,120
-588,152	506,481	0,012	0,020
-587,138	-130,701	-0,044	-0,004
-586,123	-131,538	-0,194	-0,019
-585,109	800,000	-0,072	-0,175
-584,094	800,000	-0,012	-0,029
-583,079	93,486	-0,100	0,084
-582,065	452,384	0,068	0,111
-581,050	-200,000	-0,003	-0,126
-580,036	-15,962	0,062	-0,029
-579,021	664,590	-0,032	-0,061
-578,006	-200,000	-0,003	-0,043
-576,992	83,343	0,118	-0,095
-575,977	431,580	-0,065	-0,105
-574,963	-20,804	0,064	0,029
-573,948	73,971	-0,067	0,052
-572,934	800,000	-0,033	0,076
-571,919	377,062	0,098	-0,148
-570,904	-200,000	0,035	-0,176
-569,890	-45,623	-0,143	-0,052
-568,875	209,561	0,008	0,009
-567,861	-115,662	-0,105	0,014
-566,846	25,390	0,085	0,052
-565,831	800,000	0,013	-0,042
-564,817	-200,000	-0,025	-0,111
-563,802	-88,153	-0,115	0,025
-562,788	775,720	-0,021	-0,042
-561,773	-200,000	0,011	-0,073
-560,758	476,090	-0,033	0,056
-559,744	-200,000	-0,033	0,112
-558,729	800,000	-0,031	-0,101
-557,715	542,779	-0,055	-0,098
-556,700	243,058	-0,025	-0,031
-555,685	-9,640	-0,163	-0,080
-554,671	62,253	0,038	-0,028
-553,656	392,531	0,029	0,045
-552,642	592,726	-0,078	0,142
-551,627	-200,000	-0,005	-0,045
-550,612	-137,374	0,132	0,011
-549,598	-159,736	-0,054	-0,002
-548,583	-200,000	0,019	0,073
-547,569	-133,651	0,188	0,017
-546,554	800,000	0,041	0,089
-545,539	-200,000	0,001	0,061
-544,525	800,000	-0,058	0,167
-543,510	-177,277	0,097	0,002
-542,496	454,777	0,032	-0,053
-541,481	-200,000	0,002	-0,013
-540,466	240,945	0,122	0,151
-539,452	-122,920	0,216	-0,025
-538,437	49,981	0,040	-0,028
-537,423	800,000	-0,010	0,028
-536,408	800,000	-0,012	0,028
-535,393	79,975	0,042	0,034
-534,379	-96,752	-0,070	-0,014
-533,364	-109,443	-0,161	-0,025
-532,350	-22,936	0,038	0,017
-531,335	-14,445	0,074	-0,035
-530,321	-200,000	-0,008	0,031
-529,306	629,922	0,078	-0,147
-528,291	71,136	-0,155	0,118
-527,277	-200,000	0,020	0,131
-526,262	-75,823	0,079	0,021
-525,248	800,000	-0,032	0,074
-524,233	305,422	-0,039	-0,054
-523,218	-16,233	-0,150	0,070
-522,204	-200,000	-0,000	-0,026
-521,189	140,451	0,015	0,014
-520,175	-200,000	0,011	-0,049
-519,160	-200,000	0,019	-0,156
-518,145	198,075	0,031	0,035
-517,131	130,501	-0,054	0,051
-516,116	110,990	0,075	0,066
-515,102	-146,142	-0,068	0,004
-514,087	-200,000	-0,035	-0,144
-513,072	800,000	-0,070	-0,168
-512,058	800,000	0,064	-0,191
-511,043	-200,000	0,001	0,037
-510,029	-21,371	-0,075	0,034
-509,014	135,872	0,131	-0,126
-507,999	-44,500	-0,111	-0,041
-506,985	136,052	-0,135	-0,130
-505,970	679,543	0,020	-0,039
-504,956	257,456	0,054	-0,069
-503,941	-200,000	-0,009	0,106
-502,926	-163,061	-0,065	-0,002
-501,912	43,512	0,073	-0,049
-500,897	800,000	-0,015	0,033
-499,883	437,698	-0,044	-0,070
-498,868	19,941	0,079	-0,047
-497,853	-29,522	-0,078	0,033
-496,839	-43,460	-0,063	-0,023
-495,824	78,409	0,067	-0,052
-494,810	-16,626	0,119	-0,055
-493,795	-95,449	-0,078	0,015
-492,781	800,000	0,016	0,047
-491,766	-133,572	0,134	-0,012
-490,751	-89,258	-0,082	0,018
-489,737	-76,034	0,044	0,011
-488,722	-200,000	0,004	0,160
-487,708	-157,711	-0,113	0,005
-486,693	-73,118	0,141	0,038
-485,678	800,000	-0,033	0,069
-484,664	800,000	0,013	0,040
-483,649	800,000	-0,020	-0,053
-482,635	-104,221	-0,137	-0,023
-481,620	145,570	0,054	-0,054
-480,605	-178,034	0,076	0,001
-479,591	76,083	-0,070	0,055
-478,576	-200,000	-0,016	-0,133
-477,562	156,478	-0,065	-0,066
-476,547	-200,000	-0,034	-0,113
-475,532	-18,290	-0,095	0,044
-474,518	-10,273	0,070	0,034
-473,503	234,874	0,096	0,117
-472,489	6,248	-0,020	-0,011
-471,474	800,000	0,018	-0,056
-470,459	-200,000	0,026	-0,093
-469,445	-200,000	0,001	-0,013
-468,430	-124,564	-0,080	-0,009
-467,416	721,890	0,028	-0,056
-466,401	533,857	0,082	0,143
-465,386	312,266	0,124	-0,172
-464,372	23,838	0,111	-0,067
-463,357	-157,930	0,081	0,003
-462,343	185,163	-0,117	0,128
-461,328	15,185	-0,034	0,019
-460,313	147,972	0,078	-0,078
-459,299	389,025	0,035	0,053
-458,284	-73,533	-0,009	-0,002
-457,270	45,255	-0,036	-0,024
-456,255	279,688	0,081	-0,107
-455,241	-97,495	-0,033	-0,006
-454,226	-89,396	0,154	-0,033
-453,211	-93,410	0,175	-0,035
-452,197	117,626	0,062	0,056
-451,182	103,219	-0,019	-0,016
-450,168	65,046	0,065	0,048
-449,153	-200,000	0,002	0,047
-448,138	194,356	0,093	-0,104
-447,124	-200,000	0,002	-0,109
-446,109	79,406	-0,087	-0,069
-445,095	217,762	0,034	0,040
-444,080	421,421	0,044	0,069
-443,065	280,939	0,126	-0,166
-442,051	-48,244	-0,059	-0,021
-441,036	-200,000	-0,013	-0,064
-440,022	800,000	-0,078	-0,164
-439,007	314,659	0,086	-0,120
-437,992	102,775	-0,087	-0,075
-436,978	409,190	0,021	-0,033
-435,963	-200,000	-0,015	0,072
-434,949	800,000	-0,041	0,095
-433,934	-200,000	-0,021	0,087
-432,919	480,393	-0,025	-0,042
-431,905	-124,328	0,061	0,007
-430,890	107,684	0,111	-0,097
-429,876	0,101	-0,065	0,034
-428,861	800,000	-0,088	0,214
-427,846	-77,818	0,024	-0,006
-426,832	157,711	-0,066	-0,067
-425,817	54,281	0,016	-0,011
-424,803	488,785	-0,019	0,032
-423,788	-61,737	0,156	-0,048
-422,773	182,554	-0,035	-0,038
-421,759	303,610	-0,016	0,022
-420,744	800,000	0,027	0,086
-419,730	-200,000	-0,002	0,000
-418,715	-200,000	-0,036	0,128
-417,701	-51,916	-0,078	0,027
-416,686	-125,245	-0,173	-0,019
-415,671	-200,000	-0,030	-0,101
-414,657	506,733	0,038	0,065
-413,642	-200,000	0,025	0,084
-412,628	55,353	0,020	-0,014
-411,613	64,471	0,018	-0,013
-410,598	-200,000	-0,049	-0,176
-409,584	12,818	0,111	-0,063
-408,569	-31,054	0,081	-0,033
-407,555	487,346	-0,052	0,087
-406,540	-80,668	0,078	0,019
-405,525	-200,000	0,002	0,061
-404,511	-14,855	0,083	-0,039
-403,496	14,993	-0,096	0,055
-402,482	-133,733	-0,115	-0,010
-401,467	49,954	0,137	0,095
-400,452	-200,000	0,007	0,079
-399,438	800,000	0,028	0,081
-398,423	800,000	-0,048	-0,099
-397,409	23,884	0,088	-0,053
-396,394	800,000	0,033	-0,088
-395,379	-200,000	-0,019	0,064
-394,365	-3,745	-0,067	0,034
-393,350	-133,318	0,236	-0,021
-392,336	800,000	0,015	-0,039
-391,321	357,974	-0,084	0,124
-390,306	369,248	-0,048	-0,072
-389,292	2,376	-0,139	-0,073
-388,277	10,752	-0,069	0,039
-387,263	659,973	-0,047	0,089
-386,248	-200,000	-0,003	-0,103
-385,233	182,632	0,042	0,046
-384,219	-200,000	0,024	0,165
-383,204	119,653	-0,050	-0,045
-382,190	38,557	0,034	-0,022
-381,175	800,000	0,033	0,068
-380,160	183,536	-0,041	-0,044
-379,146	-200,000	-0,063	0,229
-378,131	800,000	0,067	0,157
-377,117	77,634	-0,018	0,014
-376,102	-200,000	0,011	0,165
-375,088	-81,640	0,023	-0,005
-374,073	221,836	-0,048	-0,057
-373,058	560,297	0,036	0,064
-372,044	800,000	0,036	-0,085
-371,029	-25,727	0,082	0,035
-370,015	-40,306	0,049	-0,019
-369,000	-144,909	-0,052	0,003
-367,985	458,123	-0,033	0,053
-366,971	688,944	-0,039	-0,075
-365,956	-200,000	-0,017	0,117
-364,942	250,780	-0,088	0,110
-363,927	522,661	-0,051	0,088
-362,912	70,823	-0,056	0,043
-361,898	-185,700	0,062	-0,001
-360,883	-126,590	0,088	0,009
-359,869	800,000	0,024	-0,074
-358,854	-85,600	-0,153	-0,034
-357,839	-108,341	0,071	-0,011
-356,825	156,043	0,025	0,025
-355,810	800,000	0,059	0,179
-354,796	32,676	-0,102	0,065
-353,781	-200,000	0,016	-0,129
-352,766	-200,000	0,008	-0,055
-351,752	-200,000	-0,005	0,030
-350,737	-58,409	0,174	0,055
-349,723	-200,000	0,018	0,207
-348,708	25,765	-0,054	-0,033
-347,693	-115,670	-0,110	0,015
-346,679	800,000	-0,016	-0,037
-345,664	18,643	0,112	-0,066
-344,650	800,000	0,043	0,095
-343,635	-82,035	0,075	-0,018
-342,620	-30,771	0,112	-0,046
-341,606	800,000	-0,031	0,073
-340,591	570,268	0,077	0,138
-339,577	800,000	0,039	-0,112
-338,562	57,949	-0,087	0,062
-337,548	800,000	-0,017	0,044
-336,533	735,300	-0,014	0,028
-335,518	-200,000	0,012	0,216
-334,504	143,555	0,046	-0,045
-333,489	177,458	-0,039	-0,041
-332,475	-200,000	-0,006	-0,092
-331,460	160,852	-0,071	-0,073
-330,445	800,000	-0,023	-0,058
-329,431	-72,634	-0,113	0,030
-328,416	-55,858	-0,061	0,020
-327,402	-15,628	-0,111	-0,051
-326,387	44,166	0,056	-0,038
-325,372	-200,000	-0,005	-0,072
-324,358	-200,000	0,026	-0,199
-323,343	-59,394	-0,147	-0,046
-322,329	253,780	0,049	0,061
-321,314	-133,106	0,105	-0,010
-320,299	-159,152	0,125	-0,005
-319,285	122,923	0,097	-0,089
-318,270	800,000	0,035	-0,075
-317,256	-200,000	-0,036	-0,125
-316,241	69,833	0,051	0,039
-315,226	800,000	0,024	-0,055
-314,212	-200,000	-0,022	-0,107
-313,197	32,562	0,101	0,064
-312,183	-12,702	-0,048	-0,023
-311,168	-118,110	-0,007	-0,001
-310,153	19,355	-0,097	0,057
-309,139	12,622	-0,097	-0,054
-308,124	800,000	0,052	-0,152
-307,110	236,670	-0,032	-0,038
-306,095	-200,000	-0,021	0,096
-305,080	-69,469	0,070	-0,020
-304,066	516,695	-0,059	-0,101
-303,051	-183,147	-0,042	0,001
-302,037	-12,428	0,034	-0,016
-301,022	-98,507	-0,064	0,012
-300,008	800,000	-0,036	0,106
-298,993	800,000	-0,018	0,039
-297,978	-200,000	-0,013	0,077
-296,964	213,851	0,018	0,021
-295,949	-200,000	0,017	-0,058
-294,935	800,000	-0,009	0,025
-293,920	-200,000	0,007	0,074
-292,905	138,379	-0,026	-0,025
-291,891	21,138	0,060	0,036
-290,876	-200,000	0,005	0,022
-289,862	-200,000	-0,025	-0,092
-288,847	32,623	0,064	0,040
-287,832	-200,000	0,004	-0,074
-286,818	800,000	-0,068	0,145
-285,803	154,349	0,081	0,081
-284,789	473,557	0,044	0,072
-283,774	-200,000	-0,007	0,227
-282,759	-200,000	0,031	0,109
-281,745	-200,000	-0,011	-0,137
-280,730	-200,000	-0,011	-0,109
-279,716	-200,000	-0,021	-0,108
-278,701	-200,000	-0,002	0,070
-277,686	12,150	-0,065	0,036
-276,672	800,000	0,030	0,065
-275,657	475,978	0,044	-0,073
-274,643	161,518	-0,092	-0,094
-273,628	-200,000	-0,015	-0,111
-272,613	-93,118	-0,034	0,007
-271,599	294,003	0,063	-0,085
-270,584	171,158	0,101	0,106
-269,570	-200,000	-0,011	0,037
-268,555	76,773	0,083	0,064
-267,540	201,991	-0,045	-0,050
-266,526	-53,069	-0,059	-0,020
-265,511	423,067	0,029	-0,046
-264,497	-200,000	0,010	0,099
-263,482	67,607	0,104	0,078
-262,467	-200,000	0,007	0,067
-261,453	105,880	0,030	-0,026
-260,438	623,105	0,057	-0,104
-259,424	-24,688	-0,083	-0,036
-258,409	-200,000	0,003	-0,051
-257,395	800,000	-0,034	-0,096
-256,380	-100,665	0,124	-0,022
-255,365	469,900	-0,007	-0,012
-254,351	-200,000	-0,011	0,075
-253,336	-12,084	-0,113	-0,054
-252,322	451,537	-0,043	0,070
-251,307	800,000	-0,023	-0,053
-250,292	280,903	-0,034	0,044
-249,278	-146,939	-0,025	-0,002
-248,263	-200,000	-0,004	-0,024
-247,249	349,539	-0,053	0,077
-246,234	-56,014	0,061	0,020
-245,219	318,872	0,040	-0,055
-244,205	-11,245	0,032	-0,015
-243,190	-28,180	-0,068	0,029
-242,176	-200,000	0,015	0,092
-241,161	-200,000	0,000	0,211
-240,146	-200,000	-0,014	0,101
-239,132	-18,154	0,125	-0,057
-238,117	-89,460	-0,028	0,006
-237,103	800,000	-0,072	-0,188
-236,088	800,000	-0,060	0,126
-235,073	47,744	0,046	-0,031
-234,059	30,919	0,100	0,062
-233,044	-12,866	0,096	-0,046
-232,030	800,000	-0,027	0,071
-231,015	109,471	-0,028	-0,024
-230,000	27,314	-0,103	-0,063
-228,986	168,090	0,075	-0,078
-227,971	39,332	0,064	0,042
-226,957	-0,131	0,084	-0,044
-225,942	-128,970	-0,088	-0,009
-224,927	250,297	0,036	0,045
-223,913	333,788	-0,096	-0,136
-222,898	-200,000	-0,009	0,145
-221,884	800,000	-0,055	0,136
-220,869	-200,000	-0,004	0,072
-219,855	156,837	0,100	0,101
-218,840	270,581	0,033	0,043
-217,825	124,475	-0,051	0,047
-216,811	58,525	-0,112	0,080
-215,796	-200,000	0,033	-0,197
-214,782	221,673	-0,081	0,095
-213,767	231,453	0,053	0,064
-212,752	-35,786	-0,126	0,049
-211,738	224,810	0,037	-0,043
-210,723	444,635	-0,070	-0,112
-209,709	-200,000	-0,028	-0,115
-208,694	-163,338	-0,076	0,003
-207,679	-200,000	0,006	-0,088
-206,665	-200,000	0,009	0,082
-205,650	-131,128	0,065	0,006
-204,636	800,000	-0,016	0,041
-203,621	26,865	0,034	-0,021
-202,606	278,086	-0,105	-0,136
-201,592	304,978	0,100	-0,136
-200,577	-200,000	0,016	-0,098
-199,563	-18,889	0,135	-0,061
-198,548	32,577	-0,081	-0,051
-197,533	399,373	-0,070	-0,108
-196,519	-29,214	0,095	-0,040
-195,504	592,870	-0,052	-0,093
-194,490	-200,000	0,017	0,087
-193,475	216,211	-0,048	0,056
-192,460	800,000	0,041	-0,084
-191,446	-200,000	0,029	0,131
-190,431	-80,194	0,094	0,023
-189,417	-101,416	-0,099	0,017
-188,402	-128,684	-0,166	0,017
-187,387	-200,000	-0,017	-0,071
-186,373	800,000	-0,012	0,035
-185,358	9,042	-0,116	-0,063
-184,344	-81,083	0,055	0,013
-183,329	-100,810	-0,065	-0,012
-182,315	70,640	0,106	-0,079
-181,300	118,609	0,076	0,069
-180,285	-53,101	-0,118	-0,039
-179,271	-200,000	-0,004	-0,096
-178,256	-58,083	-0,144	-0,045
-177,242	800,000	0,057	0,167
-176,227	26,191	-0,017	-0,010
-175,212	-200,000	0,003	0,087
-174,198	56,773	-0,013	-0,010
-173,183	150,519	-0,039	0,039
-172,169	332,764	-0,052	-0,073
-171,154	214,911	0,030	0,035
-170,139	-200,000	-0,012	0,085
-169,125	-169,286	0,128	-0,003
-168,110	800,000	0,053	0,113
-167,096	214,859	-0,068	0,079
-166,081	-43,789	-0,069	0,025
-165,066	22,525	-0,074	0,044
-164,052	800,000	-0,016	0,049
-163,037	-9,700	0,072	0,035
-162,023	8,433	-0,075	0,041
-161,008	-131,244	-0,047	-0,004
-159,993	-200,000	0,016	-0,070
-158,979	-64,281	-0,087	0,025
-157,964	-149,845	-0,108	0,006
-156,950	-25,366	-0,110	-0,047
-155,935	402,418	0,034	0,052
-154,920	248,591	0,064	0,078
-153,906	22,038	0,150	0,089
-152,891	-104,074	0,083	-0,014
-151,877	-174,087	0,047	-0,001
-150,862	11,476	-0,126	-0,070
-149,847	138,531	0,041	-0,039
-148,833	139,565	0,143	0,137
-147,818	-147,822	0,143	0,009
-146,804	-200,000	-0,001	0,033
-145,789	-153,397	0,122	0,006
-144,775	-13,347	-0,123	0,058
-143,760	-200,000	-0,024	-0,084
-142,745	-200,000	0,007	-0,077
-141,731	-79,369	0,061	0,015
-140,716	-65,535	-0,031	0,009
-139,702	-128,127	0,091	-0,009
-138,687	152,140	0,064	0,064
-137,672	-200,000	0,001	0,095
-136,658	200,630	0,087	0,097
-135,643	157,192	-0,073	0,074
-134,629	72,241	0,076	0,057
-133,614	3,792	0,073	-0,038
-132,599	751,828	-0,026	0,051
-131,585	-119,113	0,081	-0,010
-130,570	-99,713	-0,150	0,027
-129,556	8,331	0,035	-0,019
-128,541	-3,184	0,041	-0,021
-127,526	79,535	-0,132	-0,103
-126,512	800,000	0,014	0,040
-125,497	-65,045	0,076	0,022
-124,483	-200,000	0,005	-0,020
-123,468	66,212	-0,073	-0,053
-122,453	-45,664	0,075	-0,027
-121,439	-138,334	-0,131	-0,010
-120,424	-19,628	-0,027	0,012
