DTS Sentinel unit serial number:	SN410029Multiplexer serial number:	ORYXHardware model number:	OX2-SRSoftware version number:	ORYX F/W v4,00 Oryx Data Collector v3.7.2.0data status	okinstallation	B4 Nyhavnadifferential loss correction	single-endedforward channel	channel 2reverse channel	N/Adate	2023/12/16time	08:50:13forward acquisition time	300,00reverse acquisition time	0,00gamma	499,1914k internal	0,3127k external	0,3127temperature offset calibration	1,0000default loss term (dB/km)	0,3820temperature slope calibration	1,0000multiplexer offset coefficient	1,0000multiplexer slope coefficient	1,0000fibre end	0,00T internal ref (°C)	22,73T ext. ref 1 (°C)	8,75T ext. ref 2 (°C)	8,90length (m)	temperature (°C)	Stokes	anti-Stokes-744,400	595,049	0,013	-0,024
-743,385	10,195	-0,107	0,061
-742,371	-200,000	-0,001	-0,027
-741,356	-8,105	-0,178	0,089
-740,342	309,448	0,092	-0,128
-739,327	-132,530	-0,286	0,027
-738,312	187,303	-0,094	-0,104
-737,298	-89,801	-0,194	0,042
-736,283	397,243	0,044	0,069
-735,269	-62,711	-0,193	0,059
-734,254	-200,000	0,003	-0,027
-733,239	-80,887	-0,455	-0,112
-732,225	-200,000	0,001	0,041
-731,210	800,000	0,039	-0,114
-730,196	-200,000	-0,070	-0,239
-729,181	-163,658	-0,043	0,001
-728,167	-200,000	-0,011	-0,107
-727,152	-117,325	-0,079	0,011
-726,137	-16,193	0,019	-0,009
-725,123	-200,000	-0,003	0,031
-724,108	-75,231	-0,116	0,031
-723,094	800,000	-0,040	-0,131
-722,079	249,277	-0,061	-0,076
-721,064	38,729	-0,009	0,006
-720,050	-200,000	-0,006	-0,126
-719,035	142,652	-0,048	-0,047
-718,021	327,296	0,037	-0,052
-717,006	-200,000	-0,001	-0,102
-715,991	152,095	-0,111	-0,113
-714,977	-106,469	-0,116	0,019
-713,962	-110,146	0,114	0,018
-712,948	-200,000	0,020	0,086
-711,933	65,545	0,078	-0,059
-710,918	-200,000	0,006	-0,111
-709,904	-200,000	-0,026	-0,103
-708,889	238,252	-0,095	-0,118
-707,875	-200,000	0,001	-0,087
-706,860	96,185	0,079	0,067
-705,845	155,511	0,019	0,020
-704,831	-142,717	0,157	-0,011
-703,816	-125,115	0,011	-0,001
-702,802	548,820	0,043	0,076
-701,787	9,427	-0,110	-0,062
-700,772	70,243	-0,088	-0,067
-699,758	800,000	0,044	-0,114
-698,743	169,190	-0,069	0,074
-697,729	135,180	0,108	-0,104
-696,714	800,000	0,036	0,085
-695,699	256,625	0,032	0,041
-694,685	-188,918	0,072	0,001
-693,670	-200,000	0,007	0,074
-692,656	-200,000	-0,008	0,086
-691,641	-200,000	-0,003	0,019
-690,627	-200,000	-0,012	0,054
-689,612	165,968	-0,030	0,032
-688,597	-18,008	-0,074	-0,034
-687,583	21,874	0,044	0,027
-686,568	256,129	-0,101	-0,129
-685,554	-166,916	-0,114	0,003
-684,539	46,027	0,029	-0,020
-683,524	-200,000	-0,016	0,092
-682,510	173,058	0,044	0,047
-681,495	-200,000	0,004	0,032
-680,481	-7,218	-0,134	0,067
-679,466	334,875	-0,013	-0,019
-678,451	-103,036	-0,120	-0,021
-677,437	151,500	0,130	-0,131
-676,422	-200,000	0,016	0,117
-675,408	-54,646	-0,049	-0,016
-674,393	-200,000	0,023	0,093
-673,378	-200,000	-0,011	-0,163
-672,364	-200,000	-0,012	-0,183
-671,349	368,496	0,044	0,067
-670,335	-200,000	-0,025	0,186
-669,320	22,230	-0,090	0,054
-668,305	-200,000	0,000	0,020
-667,291	20,397	0,052	-0,031
-666,276	800,000	0,052	-0,117
-665,262	800,000	-0,039	-0,122
-664,247	66,284	0,104	-0,078
-663,232	65,280	0,029	0,022
-662,218	-200,000	-0,005	0,085
-661,203	-179,015	-0,169	-0,003
-660,189	384,733	0,081	-0,124
-659,174	-117,843	-0,053	0,007
-658,159	-5,594	-0,069	-0,035
-657,145	-200,000	0,008	-0,101
-656,130	-200,000	-0,013	-0,152
-655,116	231,555	-0,025	-0,031
-654,101	800,000	-0,034	0,071
-653,086	15,514	-0,153	0,089
-652,072	-200,000	-0,011	-0,087
-651,057	120,817	-0,083	-0,076
-650,043	-88,229	0,084	0,018
-649,028	21,936	0,185	0,112
-648,014	-190,471	-0,113	-0,001
-646,999	-200,000	0,007	0,082
-645,984	-200,000	-0,003	-0,123
-644,970	-200,000	0,014	-0,138
-643,955	-200,000	-0,002	0,126
-642,941	-200,000	-0,002	-0,157
-641,926	35,687	-0,075	-0,049
-640,911	-79,440	0,072	0,018
-639,897	509,554	-0,044	0,076
-638,882	53,578	0,048	-0,034
-637,868	-67,205	-0,115	-0,033
-636,853	56,557	-0,117	-0,085
-635,838	-200,000	0,020	-0,173
-634,824	203,389	-0,065	-0,074
-633,809	97,206	0,101	0,086
-632,795	-200,000	0,006	-0,042
-631,780	-53,170	-0,052	0,018
-630,765	-82,535	0,045	0,011
-629,751	-200,000	-0,006	-0,086
-628,736	101,474	-0,038	-0,033
-627,722	-200,000	-0,030	-0,118
-626,707	-124,129	-0,057	0,007
-625,692	302,313	-0,083	-0,114
-624,678	-200,000	0,008	-0,057
-623,663	-200,000	-0,003	-0,100
-622,649	-111,801	0,055	0,008
-621,634	-34,661	-0,098	-0,040
-620,619	-47,681	-0,149	0,053
-619,605	-200,000	-0,002	0,051
-618,590	267,093	-0,082	0,107
-617,576	-200,000	-0,005	0,026
-616,561	151,860	-0,088	-0,089
-615,546	99,182	-0,107	-0,092
-614,532	128,043	0,039	-0,036
-613,517	187,282	0,040	-0,044
-612,503	37,233	0,078	-0,051
-611,488	800,000	0,033	0,097
-610,474	-44,011	0,060	0,022
-609,459	227,811	-0,086	0,104
-608,444	-200,000	-0,018	-0,104
-607,430	-29,511	-0,034	0,014
-606,415	13,363	0,097	-0,055
-605,401	-55,734	-0,142	0,047
-604,386	241,951	0,027	0,034
-603,371	-190,513	0,099	-0,001
-602,357	299,937	0,085	-0,116
-601,342	-56,235	-0,046	-0,015
-600,328	-200,000	0,005	-0,062
-599,313	-17,699	0,093	-0,043
-598,298	-31,027	0,119	-0,049
-597,284	800,000	0,058	0,122
-596,269	-200,000	-0,012	-0,096
-595,255	276,903	-0,110	0,145
-594,240	800,000	-0,059	-0,181
-593,225	554,169	-0,025	-0,044
-592,211	-147,588	-0,108	-0,007
-591,196	800,000	0,047	-0,104
-590,182	-139,751	0,132	-0,010
-589,167	417,293	0,010	0,016
-588,152	-59,933	0,149	-0,047
-587,138	61,808	0,087	0,064
-586,123	103,299	-0,084	-0,073
-585,109	800,000	-0,014	0,035
-584,094	-200,000	-0,029	0,127
-583,079	-149,400	0,032	-0,002
-582,065	-200,000	0,011	0,068
-581,050	800,000	-0,016	-0,046
-580,036	-160,044	0,056	0,002
-579,021	332,605	-0,022	-0,031
-578,006	-52,971	-0,083	-0,028
-576,992	-49,406	0,010	0,003
-575,977	-39,067	-0,114	0,044
-574,963	245,080	-0,028	0,035
-573,948	-40,042	0,110	0,042
-572,934	-36,485	-0,071	-0,028
-571,919	91,558	-0,079	-0,065
-570,904	96,856	0,065	-0,055
-569,890	-147,009	0,141	-0,009
-568,875	-200,000	-0,018	-0,099
-567,861	125,683	-0,095	0,089
-566,846	448,281	0,045	-0,073
-565,831	-200,000	-0,013	-0,043
-564,817	76,613	-0,082	-0,064
-563,802	-75,130	-0,124	0,033
-562,788	678,070	0,026	-0,050
-561,773	226,563	-0,069	-0,083
-560,758	-200,000	0,005	-0,085
-559,744	-200,000	0,023	-0,084
-558,729	38,883	-0,061	0,040
-557,715	282,383	0,054	0,071
-556,700	-50,427	-0,117	-0,041
-555,685	-200,000	-0,039	-0,140
-554,671	800,000	0,047	0,118
-553,656	115,194	0,028	-0,026
-552,642	-88,210	-0,056	-0,012
-551,627	-75,781	-0,089	-0,023
-550,612	800,000	-0,012	0,027
-549,598	-200,000	-0,017	-0,182
-548,583	74,136	-0,130	-0,101
-547,569	29,804	-0,026	0,016
-546,554	-140,214	0,174	-0,013
-545,539	45,118	-0,041	0,028
-544,525	708,734	0,070	0,137
-543,510	-85,531	0,086	-0,020
-542,496	260,398	0,065	-0,083
-541,481	171,041	0,065	0,069
-540,466	9,709	0,042	0,023
-539,452	-200,000	-0,023	0,084
-538,437	15,314	0,070	-0,041
-537,423	20,510	-0,102	0,061
-536,408	135,676	-0,107	-0,103
-535,393	-200,000	-0,019	0,066
-534,379	290,197	0,012	0,016
-533,364	-29,864	-0,055	-0,023
-532,350	-200,000	-0,012	-0,111
-531,335	127,989	0,021	-0,019
-530,321	-200,000	-0,000	0,033
-529,306	-200,000	0,035	0,120
-528,291	800,000	0,063	-0,160
-527,277	800,000	0,044	-0,111
-526,262	-110,366	0,071	-0,011
-525,248	-61,811	0,085	0,026
-524,233	291,471	0,035	-0,047
-523,218	592,006	-0,032	0,058
-522,204	-22,568	0,077	-0,034
-521,189	158,020	0,101	-0,104
-520,175	-200,000	-0,018	-0,069
-519,160	717,944	-0,018	0,036
-518,145	54,099	-0,021	0,015
-517,131	56,421	-0,059	0,042
-516,116	200,035	0,133	0,150
-515,102	6,841	0,132	-0,072
-514,087	360,514	-0,037	-0,054
-513,072	800,000	-0,042	-0,112
-512,058	-200,000	-0,014	-0,081
-511,043	202,033	0,015	0,017
-510,029	-62,105	-0,080	0,024
-509,014	228,038	-0,059	-0,071
-507,999	-30,808	-0,055	0,023
-506,985	-76,024	-0,117	-0,030
-505,970	-200,000	0,032	-0,151
-504,956	68,021	-0,044	0,033
-503,941	-32,026	0,057	-0,023
-502,926	0,563	0,128	0,067
-501,912	368,674	0,022	0,032
-500,897	-191,172	-0,080	0,001
-499,883	69,140	0,086	-0,065
-498,868	-200,000	-0,018	-0,073
-497,853	75,256	0,070	-0,054
-496,839	391,917	-0,011	-0,017
-495,824	446,902	0,056	-0,092
-494,810	800,000	0,072	-0,149
-493,795	-200,000	-0,002	-0,025
-492,781	29,135	-0,043	0,027
-491,766	-133,440	-0,129	0,012
-490,751	-200,000	0,025	-0,138
-489,737	-80,380	0,077	0,019
-488,722	800,000	-0,077	0,209
-487,708	-200,000	0,005	0,069
-486,693	-200,000	0,000	0,030
-485,678	-140,361	-0,025	0,002
-484,664	63,180	-0,084	-0,062
-483,649	-86,257	0,041	-0,009
-482,635	180,115	-0,034	-0,037
-481,620	-183,055	0,128	-0,002
-480,605	-200,000	-0,009	0,058
-479,591	157,133	0,039	0,039
-478,576	-142,741	-0,187	-0,013
-477,562	-136,961	0,095	-0,008
-476,547	319,082	-0,028	0,039
-475,532	65,852	-0,102	-0,076
-474,518	-27,803	-0,051	-0,022
-473,503	71,112	0,102	0,078
-472,489	309,490	0,102	-0,141
-471,474	54,360	0,079	-0,056
-470,459	800,000	0,024	-0,049
-469,445	180,651	-0,044	-0,048
-468,430	-200,000	-0,008	0,029
-467,416	363,883	0,108	0,161
-466,401	26,497	0,102	0,063
-465,386	-192,314	-0,098	-0,001
-464,372	-67,454	-0,073	-0,021
-463,357	149,884	0,066	-0,066
-462,343	-0,190	-0,034	-0,018
-461,328	220,263	0,079	-0,094
-460,313	-125,652	-0,137	0,015
-459,299	102,651	0,112	0,096
-458,284	-19,825	0,081	0,037
-457,270	638,122	-0,021	0,040
-456,255	-200,000	0,007	-0,075
-455,241	321,400	0,028	0,040
-454,226	-39,608	0,100	-0,038
-453,211	77,232	0,112	0,087
-452,197	-148,171	-0,059	-0,004
-451,182	31,009	0,116	-0,073
-450,168	227,633	0,066	0,079
-449,153	9,705	-0,079	-0,044
-448,138	-151,725	-0,133	0,007
-447,124	800,000	-0,019	0,055
-446,109	-200,000	-0,011	0,082
-445,095	311,007	0,083	0,115
-444,080	229,400	-0,090	0,108
-443,065	-200,000	-0,005	-0,120
-442,051	15,845	0,064	-0,037
-441,036	-50,815	-0,051	0,018
-440,022	-200,000	0,002	-0,042
-439,007	75,370	0,042	-0,032
-437,992	555,397	-0,016	-0,029
-436,978	-110,948	-0,161	0,024
-435,963	278,710	-0,044	-0,058
-434,949	54,928	0,162	-0,115
-433,934	23,673	-0,103	0,062
-432,919	637,032	0,039	0,073
-431,905	-82,269	-0,149	-0,035
-430,890	102,539	-0,137	0,118
-429,876	281,537	0,052	0,069
-428,861	273,869	-0,041	-0,053
-427,846	800,000	-0,020	0,043
-426,832	58,998	-0,065	0,047
-425,817	272,704	-0,138	0,179
-424,803	-20,520	-0,102	0,046
-423,788	352,314	-0,061	-0,089
-422,773	208,340	0,016	0,019
-421,759	-148,788	0,051	-0,003
-420,744	45,067	-0,080	-0,054
-419,730	800,000	0,023	-0,056
-418,715	12,674	-0,121	-0,069
-417,701	-76,012	-0,051	-0,013
-416,686	800,000	0,026	0,078
-415,671	301,225	-0,030	0,041
-414,657	146,437	-0,098	0,097
-413,642	-178,602	-0,127	-0,002
-412,628	137,829	-0,030	-0,028
-411,613	-200,000	0,003	-0,189
-410,598	52,879	0,099	-0,070
-409,584	-32,456	0,120	-0,049
-408,569	-62,664	0,071	-0,022
-407,555	-200,000	-0,009	0,051
-406,540	597,678	-0,064	0,117
-405,525	-200,000	0,021	0,083
-404,511	-111,693	-0,095	0,014
-403,496	-200,000	-0,017	-0,099
-402,482	118,174	0,108	-0,098
-401,467	-200,000	-0,010	0,033
-400,452	-200,000	-0,027	0,100
-399,438	729,477	-0,050	0,098
-398,423	399,496	0,021	-0,032
-397,409	-182,806	-0,088	-0,001
-396,394	-64,233	-0,178	0,053
-395,379	508,253	0,056	0,095
-394,365	180,497	-0,077	0,084
-393,350	230,471	0,121	0,146
-392,336	-101,681	0,095	0,017
-391,321	418,619	0,015	0,024
-390,306	9,487	0,032	-0,018
-389,292	342,507	-0,048	0,069
-388,277	153,309	-0,070	0,070
-387,263	-43,358	-0,072	-0,027
-386,248	-200,000	0,003	-0,050
-385,233	8,773	-0,100	0,055
-384,219	189,130	0,028	-0,031
-383,204	-147,744	-0,129	-0,008
-382,190	-200,000	0,032	-0,157
-381,175	-49,459	0,072	0,025
-380,160	116,119	0,060	-0,054
-379,146	800,000	0,036	-0,091
-378,131	-200,000	-0,040	-0,144
-377,117	183,910	-0,064	-0,070
-376,102	-52,248	-0,046	-0,016
-375,088	-73,530	-0,048	-0,013
-374,073	-200,000	0,006	-0,132
-373,058	4,795	0,057	0,031
-372,044	-189,340	-0,118	-0,001
-371,029	-200,000	-0,013	-0,060
-370,015	800,000	-0,024	0,054
-369,000	206,434	-0,122	0,140
-367,985	36,669	-0,056	0,036
-366,971	800,000	-0,031	0,066
-365,956	-165,539	-0,027	0,001
-364,942	182,300	0,080	0,087
-363,927	800,000	0,028	-0,064
-362,912	30,759	-0,073	-0,046
-361,898	-19,640	-0,110	-0,050
-360,883	-104,192	0,025	-0,004
-359,869	135,580	0,093	0,089
-358,854	591,555	0,060	0,109
-357,839	-4,946	-0,038	0,019
-356,825	78,313	0,106	0,083
-355,810	-41,919	0,041	0,015
-354,796	-67,702	-0,055	0,016
-353,781	-187,482	-0,058	-0,001
-352,766	-36,322	-0,182	-0,072
-351,752	343,916	-0,007	-0,010
-350,737	42,566	0,143	0,095
-349,723	538,711	-0,093	0,163
-348,708	-10,603	0,036	-0,018
-347,693	-80,809	-0,085	-0,020
-346,679	63,869	-0,074	-0,054
-345,664	48,829	-0,087	-0,059
-344,650	-166,689	-0,038	-0,001
-343,635	-200,000	0,016	0,128
-342,620	-114,478	0,159	0,022
-341,606	59,167	-0,082	0,059
-340,591	-2,321	-0,062	-0,032
-339,577	-71,748	-0,018	0,005
-338,562	-29,649	-0,170	-0,071
-337,548	-200,000	0,006	0,113
-336,533	123,875	-0,084	-0,078
-335,518	200,556	0,114	-0,129
-334,504	62,444	-0,045	-0,033
-333,489	344,072	0,063	0,091
-332,475	-200,000	-0,003	0,065
-331,460	-188,576	-0,075	-0,001
-330,445	604,670	0,054	-0,099
-329,431	498,358	-0,026	0,044
-328,416	-56,494	0,071	0,023
-327,402	324,305	0,035	0,049
-326,387	214,084	0,092	0,107
-325,372	-82,184	-0,137	0,032
-324,358	-200,000	0,017	-0,112
-323,343	750,538	0,043	0,085
-322,329	176,457	0,102	0,108
-321,314	-200,000	-0,018	0,087
-320,299	161,421	-0,093	0,095
-319,285	-115,990	0,161	-0,022
-318,270	-36,692	-0,179	-0,070
-317,256	-200,000	-0,003	-0,095
-316,241	6,797	-0,032	-0,018
-315,226	11,775	-0,070	0,039
-314,212	-200,000	0,007	-0,174
-313,197	-200,000	0,003	0,048
-312,183	243,305	-0,060	0,073
-311,168	174,905	0,047	-0,050
-310,153	800,000	0,056	-0,126
-309,139	800,000	0,007	-0,022
-308,124	441,958	0,062	-0,099
-307,110	27,690	0,170	0,105
-306,095	639,388	0,039	-0,072
-305,080	-200,000	-0,002	0,138
-304,066	50,736	-0,057	0,039
-303,051	136,211	-0,085	-0,082
-302,037	800,000	0,045	0,119
-301,022	-96,414	0,048	0,009
-300,008	-200,000	0,057	0,219
-298,993	167,471	-0,042	0,043
-297,978	-74,401	0,096	0,025
-296,964	-89,201	0,046	-0,010
-295,949	-200,000	0,040	-0,146
-294,935	694,434	0,037	-0,071
-293,920	53,630	-0,102	0,072
-292,905	141,468	-0,115	-0,111
-291,891	-71,980	-0,019	0,005
-290,876	156,329	-0,042	-0,043
-289,862	-200,000	0,013	-0,116
-288,847	-200,000	-0,002	-0,026
-287,832	-51,082	0,151	-0,052
-286,818	171,374	-0,017	-0,018
-285,803	98,420	0,148	0,125
-284,789	-200,000	-0,011	0,072
-283,774	800,000	-0,018	-0,039
-282,759	141,118	-0,051	0,050
-281,745	800,000	-0,066	0,138
-280,730	-186,425	0,030	0,000
-279,716	177,785	0,078	0,083
-278,701	-200,000	-0,013	0,098
-277,686	800,000	-0,026	0,059
-276,672	-13,965	-0,047	0,022
-275,657	800,000	-0,061	0,144
-274,643	-200,000	-0,029	-0,111
-273,628	-200,000	-0,022	-0,095
-272,613	-200,000	0,015	-0,122
-271,599	467,174	0,053	-0,087
-270,584	84,169	-0,020	0,016
-269,570	-121,916	0,171	0,020
-268,555	800,000	0,031	-0,078
-267,540	395,240	-0,016	0,024
-266,526	800,000	-0,028	0,063
-265,511	68,465	-0,041	-0,031
-264,497	800,000	0,031	-0,084
-263,482	800,000	0,011	0,027
-262,467	-186,956	-0,141	0,001
-261,453	-200,000	-0,007	-0,053
-260,438	55,996	-0,132	-0,093
-259,424	-200,000	0,012	-0,040
-258,409	-200,000	-0,006	0,134
-257,395	800,000	-0,051	0,139
-256,380	-16,078	0,104	0,048
-255,365	-200,000	-0,002	0,047
-254,351	800,000	0,029	0,092
-253,336	224,297	0,061	-0,072
-252,322	298,223	0,041	0,055
-251,307	800,000	0,023	-0,051
-250,292	497,637	-0,069	0,116
-249,278	225,447	0,075	0,089
-248,263	294,097	0,041	-0,055
-247,249	-45,809	-0,130	-0,047
-246,234	-39,584	-0,161	-0,061
-245,219	37,736	-0,146	0,095
-244,205	6,540	0,101	-0,055
-243,190	-192,309	0,056	-0,000
-242,176	-200,000	0,010	0,038
-241,161	800,000	0,009	0,018
-240,146	-200,000	-0,023	0,094
-239,132	17,934	-0,104	-0,060
-238,117	-97,329	-0,100	-0,019
-237,103	244,054	-0,061	-0,074
-236,088	-156,288	0,045	0,002
-235,073	-20,549	0,111	0,050
-234,059	-200,000	-0,019	0,231
-233,044	-115,982	0,038	0,005
-232,030	-45,377	0,048	0,017
-231,015	321,859	-0,061	-0,085
-230,000	19,000	-0,086	-0,050
-228,986	-39,226	0,091	0,035
-227,971	269,857	0,091	0,116
-226,957	300,345	0,071	0,096
-225,942	15,802	0,134	0,077
-224,927	-200,000	-0,007	0,065
-223,913	-200,000	-0,024	0,104
-222,898	-200,000	-0,013	-0,079
-221,884	-200,000	-0,031	-0,162
-220,869	98,002	0,082	0,069
-219,855	-76,512	0,043	-0,011
-218,840	-80,801	-0,108	0,026
-217,825	-200,000	-0,010	0,068
-216,811	264,628	0,098	-0,125
-215,796	55,165	-0,016	-0,012
-214,782	-200,000	0,003	-0,097
-213,767	-30,895	0,206	-0,084
-212,752	315,241	-0,010	0,013
-211,738	-31,705	0,020	0,008
-210,723	149,212	0,039	0,039
-209,709	-114,863	-0,058	0,008
-208,694	-109,961	0,023	-0,004
-207,679	63,202	0,139	-0,102
-206,665	27,624	0,108	-0,066
-205,650	359,117	0,054	0,079
-204,636	322,289	0,048	0,067
-203,621	-200,000	0,009	-0,047
-202,606	206,259	0,085	0,097
-201,592	167,546	0,036	-0,038
-200,577	-200,000	-0,036	-0,155
-199,563	-49,096	0,104	0,036
-198,548	777,292	0,044	-0,089
-197,533	101,063	-0,031	-0,026
-196,519	-36,929	0,077	0,030
-195,504	800,000	0,050	0,115
-194,490	99,912	0,117	0,099
-193,475	-200,000	0,012	-0,128
-192,460	-76,041	0,072	0,018
-191,446	286,754	0,066	0,088
-190,431	577,299	0,123	0,221
-189,417	-200,000	-0,011	0,048
-188,402	14,316	-0,123	0,069
-187,387	800,000	0,024	0,057
-186,373	-46,513	0,053	0,019
-185,358	-75,715	-0,100	-0,026
-184,344	-44,246	0,177	-0,064
-183,329	286,788	0,075	0,098
-182,315	694,959	-0,036	0,068
-181,300	-156,913	0,078	0,003
-180,285	-159,040	-0,023	0,001
-179,271	-185,004	0,085	0,001
-178,256	0,884	0,091	0,047
-177,242	800,000	-0,037	0,105
-176,227	120,668	-0,049	0,045
-175,212	-45,198	0,097	0,035
-174,198	-200,000	0,010	0,039
-173,183	144,356	-0,051	-0,050
-172,169	88,418	0,048	-0,038
-171,154	-56,501	-0,066	-0,021
-170,139	62,478	-0,046	-0,034
-169,125	-31,104	0,130	-0,053
-168,110	42,195	0,058	-0,038
-167,096	-28,148	-0,051	0,021
-166,081	-200,000	-0,012	0,058
-165,066	74,777	-0,130	-0,099
-164,052	-200,000	0,011	0,046
-163,037	153,128	0,055	0,055
-162,023	800,000	-0,020	0,053
-161,008	262,334	-0,053	0,067
-159,993	-200,000	-0,013	0,166
-158,979	10,183	-0,043	-0,024
-157,964	53,061	0,133	-0,092
-156,950	-102,746	0,026	0,005
-155,935	-200,000	-0,001	0,091
-154,920	-131,449	0,167	0,016
-153,906	16,532	-0,049	0,028
-152,891	-200,000	-0,011	0,047
-151,877	-62,233	-0,136	-0,041
-150,862	-39,407	-0,121	-0,046
-149,847	800,000	-0,032	0,099
-148,833	178,884	-0,090	0,096
-147,818	12,455	0,042	-0,023
-146,804	-200,000	0,005	0,212
-145,789	-200,000	-0,011	0,079
-144,775	-200,000	0,027	-0,091
-143,760	-200,000	-0,009	0,074
-142,745	-113,901	0,049	0,007
-141,731	152,381	0,043	0,042
-140,716	-200,000	0,002	-0,038
-139,702	-200,000	0,034	0,189
-138,687	800,000	0,020	-0,044
-137,672	-200,000	0,044	0,194
-136,658	-30,908	-0,123	-0,050
-135,643	800,000	0,039	-0,124
-134,629	64,907	0,056	0,041
-133,614	800,000	-0,018	0,050
-132,599	69,693	-0,033	-0,025
-131,585	800,000	-0,041	0,092
-130,570	-147,146	0,062	-0,004
-129,556	800,000	-0,010	0,028
-128,541	800,000	0,005	-0,017
-127,526	-200,000	0,021	0,076
-126,512	539,870	0,063	-0,110
-125,497	-144,129	0,075	0,005
-124,483	37,032	0,084	0,054
-123,468	-134,726	0,097	-0,008
-122,453	-200,000	-0,006	-0,059
-121,439	124,556	0,052	0,048
-120,424	-200,000	0,013	-0,082
-119,410	-112,175	-0,160	0,023
