DTS Sentinel unit serial number:	SN410029Multiplexer serial number:	ORYXHardware model number:	OX2-SRSoftware version number:	ORYX F/W v4,00 Oryx Data Collector v3.7.2.0data status	okinstallation	B4 Nyhavnadifferential loss correction	single-endedforward channel	channel 2reverse channel	N/Adate	2023/12/15time	22:30:13forward acquisition time	300,00reverse acquisition time	0,00gamma	499,1914k internal	0,3131k external	0,3131temperature offset calibration	1,0000default loss term (dB/km)	0,3820temperature slope calibration	1,0000multiplexer offset coefficient	1,0000multiplexer slope coefficient	1,0000fibre end	0,00T internal ref (°C)	21,37T ext. ref 1 (°C)	6,62T ext. ref 2 (°C)	6,82length (m)	temperature (°C)	Stokes	anti-Stokes-744,400	-0,818	0,095	-0,050
-743,385	-44,519	-0,235	0,087
-742,371	-200,000	0,019	0,163
-741,356	305,732	-0,146	0,202
-740,342	-57,241	0,156	0,051
-739,327	-43,543	-0,197	0,074
-738,312	-16,436	0,048	-0,022
-737,298	-128,018	-0,191	-0,020
-736,283	-27,640	-0,027	-0,012
-735,269	-116,796	-0,367	0,049
-734,254	44,740	0,062	0,042
-733,239	-36,769	-0,406	-0,161
-732,225	1,242	0,154	0,082
-731,210	800,000	0,061	0,172
-730,196	19,690	-0,003	0,002
-729,181	-5,813	-0,140	0,071
-728,167	39,799	0,026	0,017
-727,152	777,525	0,020	0,040
-726,137	-123,718	-0,192	0,022
-725,123	12,507	-0,175	-0,100
-724,108	620,826	-0,035	-0,065
-723,094	-104,305	-0,124	0,021
-722,079	-200,000	0,001	-0,038
-721,064	33,087	-0,150	0,097
-720,050	244,750	0,098	0,123
-719,035	162,408	0,012	-0,013
-718,021	81,186	-0,063	-0,051
-717,006	-68,825	-0,079	0,023
-715,991	-140,877	-0,060	-0,005
-714,977	164,720	-0,044	-0,046
-713,962	348,550	-0,057	-0,084
-712,948	-200,000	0,015	-0,075
-711,933	55,609	-0,076	-0,054
-710,918	474,322	0,017	-0,028
-709,904	96,809	-0,058	-0,050
-708,889	-62,529	-0,076	-0,023
-707,875	764,334	0,074	-0,150
-706,860	-48,166	0,062	0,022
-705,845	-94,516	0,158	0,032
-704,831	361,637	-0,037	0,056
-703,816	65,279	-0,044	-0,033
-702,802	-154,425	-0,037	-0,002
-701,787	-37,735	0,071	-0,028
-700,772	166,038	0,031	-0,033
-699,758	-200,000	0,013	-0,076
-698,743	-22,891	0,032	0,014
-697,729	102,348	0,098	0,085
-696,714	-161,100	-0,090	-0,003
-695,699	-151,881	-0,059	0,003
-694,685	72,907	0,071	0,055
-693,670	24,688	0,064	-0,039
-692,656	800,000	-0,037	-0,085
-691,641	-185,068	0,150	-0,002
-690,627	-200,000	-0,012	-0,058
-689,612	-88,401	-0,029	-0,006
-688,597	32,273	-0,048	-0,030
-687,583	1,552	-0,058	-0,031
-686,568	-200,000	0,008	-0,031
-685,554	242,957	0,138	-0,171
-684,539	617,842	-0,048	0,090
-683,524	285,620	0,074	0,099
-682,510	-83,604	0,141	0,033
-681,495	800,000	-0,032	0,068
-680,481	-200,000	-0,019	-0,080
-679,466	-76,866	0,127	0,033
-678,451	39,181	-0,046	-0,030
-677,437	-37,791	-0,029	0,011
-676,422	-200,000	-0,002	-0,081
-675,408	3,373	0,134	0,072
-674,393	-200,000	-0,010	-0,073
-673,378	-200,000	-0,006	-0,138
-672,364	-200,000	0,000	-0,008
-671,349	800,000	-0,054	0,143
-670,335	-200,000	-0,010	0,143
-669,320	800,000	0,048	0,121
-668,305	-28,440	-0,121	0,052
-667,291	-122,274	-0,100	0,012
-666,276	800,000	0,053	-0,143
-665,262	106,172	0,034	0,030
-664,247	196,533	0,127	-0,144
-663,232	-200,000	0,016	0,080
-662,218	620,355	0,036	0,067
-661,203	-36,745	0,073	0,029
-660,189	87,013	-0,071	-0,058
-659,174	-200,000	-0,037	-0,145
-658,159	-58,822	-0,021	-0,007
-657,145	-171,389	-0,137	-0,003
-656,130	72,215	-0,032	0,024
-655,116	-18,178	0,087	0,040
-654,101	-163,443	-0,146	-0,005
-653,086	72,289	-0,059	0,046
-652,072	0,719	-0,107	-0,057
-651,057	-105,856	-0,192	-0,032
-650,043	-25,127	-0,034	-0,015
-649,028	-30,359	-0,092	-0,039
-648,014	235,795	-0,079	0,097
-646,999	416,326	0,042	0,067
-645,984	-16,489	-0,060	0,028
-644,970	90,395	-0,088	-0,073
-643,955	120,028	-0,109	0,100
-642,941	58,797	0,007	0,005
-641,926	-5,558	-0,066	-0,033
-640,911	-200,000	-0,003	0,088
-639,897	-49,253	0,113	-0,040
-638,882	800,000	0,059	-0,164
-637,868	-200,000	-0,046	-0,191
-636,853	-200,000	-0,007	-0,115
-635,838	-61,655	-0,056	0,017
-634,824	-200,000	-0,004	0,112
-633,809	567,731	0,038	0,068
-632,795	38,095	-0,033	0,021
-631,780	-16,804	0,038	0,018
-630,765	-78,983	0,031	0,008
-629,751	800,000	0,041	-0,124
-628,736	206,980	0,055	-0,064
-627,722	-57,818	-0,141	-0,045
-626,707	800,000	-0,008	0,018
-625,692	-65,395	0,124	-0,037
-624,678	361,847	0,045	0,067
-623,663	11,702	0,014	0,008
-622,649	-200,000	0,019	0,090
-621,634	649,137	-0,052	0,098
-620,619	-200,000	0,013	0,057
-619,605	-6,190	0,066	0,033
-618,590	633,714	0,090	0,169
-617,576	-200,000	-0,021	-0,088
-616,561	-48,508	-0,049	0,017
-615,546	296,219	0,093	-0,126
-614,532	800,000	-0,013	-0,029
-613,517	-125,812	0,142	-0,016
-612,503	-200,000	-0,037	-0,195
-611,488	714,762	0,055	-0,108
-610,474	341,663	-0,026	0,038
-609,459	34,316	0,167	-0,108
-608,444	-200,000	0,007	-0,093
-607,430	-200,000	-0,003	-0,045
-606,415	-200,000	0,022	-0,073
-605,401	63,440	-0,104	-0,077
-604,386	65,747	-0,057	-0,043
-603,371	800,000	-0,008	-0,018
-602,357	800,000	-0,034	0,085
-601,342	800,000	-0,050	-0,126
-600,328	-177,863	0,060	-0,001
-599,313	800,000	-0,010	-0,030
-598,298	110,368	-0,018	-0,016
-597,284	361,199	-0,106	-0,157
-596,269	-66,936	-0,134	-0,039
-595,255	800,000	-0,029	-0,085
-594,240	2,017	-0,074	0,040
-593,225	-82,006	-0,198	0,048
-592,211	590,719	-0,050	-0,092
-591,196	-200,000	0,044	-0,161
-590,182	800,000	-0,029	0,067
-589,167	597,412	0,043	0,079
-588,152	-115,701	0,140	0,019
-587,138	-200,000	0,012	0,070
-586,123	800,000	-0,028	-0,082
-585,109	-200,000	0,023	-0,195
-584,094	281,764	0,081	-0,107
-583,079	3,861	0,142	0,076
-582,065	-200,000	-0,008	-0,036
-581,050	494,636	0,068	0,115
-580,036	350,222	-0,026	0,039
-579,021	81,193	0,056	0,044
-578,006	-200,000	0,010	-0,039
-576,992	-60,108	-0,119	-0,037
-575,977	-92,897	-0,100	0,021
-574,963	-148,550	-0,093	0,006
-573,948	94,128	-0,045	-0,037
-572,934	-162,648	-0,079	0,003
-571,919	-200,000	-0,009	-0,074
-570,904	-132,404	0,054	0,005
-569,890	-113,837	-0,133	-0,019
-568,875	-200,000	-0,010	0,080
-567,861	-82,200	0,183	-0,044
-566,846	6,712	-0,029	-0,016
-565,831	-200,000	0,006	0,082
-564,817	-200,000	0,020	-0,167
-563,802	-39,441	-0,030	0,012
-562,788	711,842	-0,044	0,087
-561,773	210,978	-0,050	0,058
-560,758	185,853	0,083	-0,091
-559,744	28,350	0,074	0,046
-558,729	241,675	0,029	0,036
-557,715	-74,852	0,042	0,011
-556,700	-40,273	-0,033	0,013
-555,685	127,167	0,027	0,026
-554,671	-200,000	0,000	0,015
-553,656	285,110	-0,118	-0,157
-552,642	800,000	0,052	0,118
-551,627	-200,000	-0,009	0,074
-550,612	-200,000	-0,001	0,093
-549,598	-200,000	-0,006	-0,021
-548,583	800,000	0,035	-0,097
-547,569	-200,000	-0,005	-0,093
-546,554	38,851	-0,031	-0,020
-545,539	116,198	0,068	0,062
-544,525	456,683	-0,022	-0,036
-543,510	-179,695	0,074	-0,001
-542,496	7,276	-0,077	0,042
-541,481	-200,000	0,022	0,114
-540,466	-200,000	-0,057	-0,196
-539,452	-73,568	0,173	0,046
-538,437	-200,000	0,008	0,052
-537,423	800,000	-0,033	0,102
-536,408	494,446	0,043	0,072
-535,393	-0,205	0,064	0,034
-534,379	-200,000	-0,030	-0,132
-533,364	-13,909	0,095	0,045
-532,350	800,000	0,032	0,097
-531,335	800,000	0,051	-0,108
-530,321	254,232	-0,039	0,049
-529,306	800,000	-0,017	-0,036
-528,291	-71,744	0,080	-0,022
-527,277	-69,012	0,095	0,027
-526,262	-200,000	-0,005	0,019
-525,248	800,000	0,063	-0,178
-524,233	-200,000	-0,009	0,122
-523,218	-200,000	-0,006	-0,086
-522,204	600,367	0,047	-0,086
-521,189	-73,793	0,085	-0,023
-520,175	-72,085	0,090	-0,024
-519,160	136,734	-0,036	0,034
-518,145	632,432	0,030	0,056
-517,131	657,181	0,070	0,134
-516,116	-145,385	-0,054	-0,004
-515,102	800,000	-0,004	-0,009
-514,087	138,960	-0,154	-0,149
-513,072	-27,579	0,051	-0,022
-512,058	-29,210	-0,034	0,014
-511,043	-200,000	-0,012	0,067
-510,029	520,053	0,064	0,112
-509,014	92,872	0,119	0,099
-507,999	61,430	0,041	0,030
-506,985	-200,000	-0,029	-0,170
-505,970	188,956	-0,000	0,000
-504,956	96,019	-0,052	-0,043
-503,941	-4,350	-0,067	-0,034
-502,926	-200,000	-0,016	0,109
-501,912	-99,879	-0,066	0,012
-500,897	270,939	0,110	0,143
-499,883	-118,210	-0,094	-0,012
-498,868	514,768	0,076	-0,131
-497,853	95,321	0,049	0,041
-496,839	168,828	0,079	-0,083
-495,824	-67,227	0,186	0,053
-494,810	210,268	0,026	-0,030
-493,795	1,194	-0,171	-0,090
-492,781	56,002	-0,061	-0,044
-491,766	236,727	-0,013	-0,016
-490,751	-200,000	0,002	-0,077
-489,737	-34,112	-0,056	-0,023
-488,722	160,056	-0,077	-0,079
-487,708	71,433	0,063	-0,048
-486,693	-138,038	-0,024	0,002
-485,678	-188,827	0,039	0,000
-484,664	-78,201	-0,028	-0,007
-483,649	56,961	-0,137	0,098
-482,635	66,358	-0,106	-0,079
-481,620	63,807	0,045	0,033
-480,605	336,740	0,079	0,113
-479,591	327,581	-0,071	0,100
-478,576	-200,000	0,011	-0,103
-477,562	-48,901	-0,044	0,016
-476,547	-168,775	-0,112	0,003
-475,532	-200,000	-0,009	0,070
-474,518	133,969	0,110	-0,105
-473,503	267,262	0,084	0,108
-472,489	800,000	0,058	0,133
-471,474	108,078	-0,028	0,025
-470,459	22,207	-0,100	-0,060
-469,445	-200,000	-0,025	-0,093
-468,430	-200,000	-0,026	-0,087
-467,416	69,248	0,073	-0,055
-466,401	22,829	0,111	0,067
-465,386	-77,250	-0,130	-0,033
-464,372	800,000	-0,018	-0,055
-463,357	628,857	0,025	0,047
-462,343	-200,000	-0,017	0,127
-461,328	-200,000	0,008	0,052
-460,313	-114,738	0,107	0,015
-459,299	-68,962	-0,073	-0,020
-458,284	-200,000	-0,014	0,097
-457,270	800,000	-0,035	-0,078
-456,255	158,408	-0,091	0,093
-455,241	-200,000	-0,014	0,147
-454,226	-119,779	0,061	0,008
-453,211	800,000	0,020	0,056
-452,197	594,694	0,075	0,137
-451,182	-12,626	0,073	-0,035
-450,168	180,194	-0,084	0,091
-449,153	-200,000	-0,011	-0,060
-448,138	-200,000	-0,024	0,168
-447,124	-140,342	-0,019	0,001
-446,109	-200,000	-0,005	0,080
-445,095	-148,583	-0,068	0,004
-444,080	-200,000	-0,007	0,071
-443,065	-200,000	0,005	-0,035
-442,051	800,000	0,005	-0,013
-441,036	-72,943	-0,160	-0,043
-440,022	-200,000	0,001	0,019
-439,007	344,109	-0,042	-0,060
-437,992	-122,367	-0,047	-0,006
-436,978	-73,218	-0,053	0,014
-435,963	-32,049	-0,083	-0,034
-434,949	99,665	0,047	0,040
-433,934	718,126	-0,076	0,149
-432,919	-200,000	0,000	-0,017
-431,905	-85,050	-0,030	-0,007
-430,890	-119,560	-0,155	0,019
-429,876	-200,000	0,018	0,061
-428,861	545,258	0,035	-0,062
-427,846	-152,638	0,124	0,006
-426,832	-61,552	-0,156	0,048
-425,817	-200,000	0,012	0,055
-424,803	800,000	0,021	0,058
-423,788	479,081	-0,093	0,156
-422,773	111,920	0,207	0,183
-421,759	-200,000	-0,009	0,070
-420,744	-138,555	0,062	-0,005
-419,730	106,888	-0,039	-0,034
-418,715	-128,480	-0,033	0,003
-417,701	24,908	0,025	-0,015
-416,686	-1,157	-0,036	-0,019
-415,671	104,541	0,034	-0,029
-414,657	-61,377	0,066	0,020
-413,642	380,196	0,042	-0,063
-412,628	32,284	-0,050	-0,031
-411,613	-69,858	-0,118	-0,033
-410,598	-119,878	-0,086	-0,011
-409,584	191,874	-0,020	0,022
-408,569	-200,000	0,011	0,144
-407,555	114,449	0,045	0,040
-406,540	652,223	0,035	0,066
-405,525	-54,518	-0,044	0,015
-404,511	-200,000	-0,006	-0,059
-403,496	-200,000	0,020	-0,240
-402,482	349,672	0,089	-0,130
-401,467	800,000	0,056	0,144
-400,452	131,718	-0,059	0,056
-399,438	800,000	0,027	0,079
-398,423	-123,803	-0,161	0,018
-397,409	-14,838	-0,064	0,030
-396,394	-200,000	0,014	-0,053
-395,379	800,000	-0,010	-0,031
-394,365	25,193	0,082	0,050
-393,350	800,000	-0,055	-0,136
-392,336	800,000	0,024	0,055
-391,321	31,818	0,064	-0,040
-390,306	79,796	0,083	-0,065
-389,292	-165,879	-0,082	0,003
-388,277	18,896	0,110	-0,065
-387,263	-200,000	-0,008	-0,072
-386,248	279,368	0,068	0,090
-385,233	-39,741	0,060	0,023
-384,219	-200,000	-0,001	0,091
-383,204	14,083	-0,091	0,052
-382,190	-200,000	0,021	-0,084
-381,175	-96,718	-0,078	-0,015
-380,160	75,962	0,114	0,088
-379,146	-76,646	-0,113	0,029
-378,131	-31,463	0,065	0,027
-377,117	-126,700	0,073	0,008
-376,102	-36,344	0,030	-0,012
-375,088	-200,000	0,028	-0,152
-374,073	-200,000	-0,005	-0,180
-373,058	-29,675	0,160	-0,067
-372,044	184,622	0,036	-0,039
-371,029	-1,315	0,048	-0,025
-370,015	292,345	0,027	-0,037
-369,000	-140,760	-0,158	0,012
-367,985	28,918	0,085	0,052
-366,971	-110,706	0,015	0,002
-365,956	-200,000	-0,012	0,053
-364,942	-200,000	0,021	-0,088
-363,927	-142,324	0,089	-0,006
-362,912	44,563	0,128	0,086
-361,898	108,584	-0,029	-0,026
-360,883	-200,000	0,007	-0,073
-359,869	30,617	-0,062	0,039
-358,854	-200,000	-0,007	-0,022
-357,839	-200,000	0,012	-0,062
-356,825	-111,805	0,095	0,014
-355,810	35,727	0,033	0,021
-354,796	-200,000	-0,000	0,037
-353,781	-56,019	-0,010	0,003
-352,766	35,812	-0,087	-0,056
-351,752	-19,481	-0,072	-0,033
-350,737	9,751	0,063	0,035
-349,723	800,000	-0,037	0,076
-348,708	445,339	-0,056	0,090
-347,693	484,726	0,062	-0,104
-346,679	800,000	-0,056	-0,158
-345,664	450,627	0,035	-0,056
-344,650	293,595	0,044	0,059
-343,635	-200,000	0,014	0,133
-342,620	800,000	0,036	0,102
-341,606	-81,216	0,274	0,066
-340,591	-58,505	-0,034	0,011
-339,577	221,905	0,123	-0,145
-338,562	1,614	-0,106	-0,056
-337,548	272,782	-0,079	-0,103
-336,533	479,710	0,032	-0,053
-335,518	-200,000	0,009	-0,055
-334,504	26,913	0,024	0,015
-333,489	200,694	0,051	0,057
-332,475	-75,644	-0,085	-0,022
-331,460	-200,000	0,003	-0,016
-330,445	-33,860	-0,102	-0,041
-329,431	-200,000	-0,002	-0,051
-328,416	-117,187	-0,117	0,015
-327,402	-19,231	0,135	-0,061
-326,387	340,940	-0,094	0,135
-325,372	347,235	-0,084	-0,121
-324,358	178,878	0,012	0,013
-323,343	136,610	-0,043	0,041
-322,329	344,312	0,045	-0,064
-321,314	-200,000	-0,000	-0,054
-320,299	-200,000	-0,014	-0,054
-319,285	1,365	0,038	-0,020
-318,270	636,829	0,011	0,020
-317,256	-114,545	-0,124	-0,017
-316,241	82,559	-0,053	-0,042
-315,226	-200,000	0,031	-0,135
-314,212	-107,012	-0,128	0,021
-313,197	-200,000	0,002	0,021
-312,183	333,402	-0,025	-0,035
-311,168	-134,973	-0,177	0,015
-310,153	117,528	0,059	-0,053
-309,139	-30,942	0,058	-0,024
-308,124	-52,100	0,130	0,044
-307,110	-200,000	-0,017	0,138
-306,095	422,438	-0,033	-0,052
-305,080	471,024	0,121	0,200
-304,066	58,807	-0,086	0,062
-303,051	105,464	0,061	0,053
-302,037	147,149	-0,016	0,015
-301,022	149,459	-0,036	-0,035
-300,008	85,392	0,063	0,051
-298,993	438,119	-0,042	0,067
-297,978	-200,000	0,002	0,059
-296,964	-93,901	-0,133	0,027
-295,949	800,000	0,011	0,025
-294,935	-56,348	-0,169	0,055
-293,920	-200,000	-0,014	0,063
-292,905	800,000	-0,035	-0,099
-291,891	31,931	0,062	0,039
-290,876	250,055	0,080	0,099
-289,862	6,089	0,071	0,038
-288,847	800,000	-0,047	-0,118
-287,832	-200,000	-0,012	0,054
-286,818	-52,731	-0,147	0,049
-285,803	344,489	0,096	-0,138
-284,789	-130,977	-0,046	-0,004
-283,774	-157,360	0,048	0,002
-282,759	192,235	-0,107	-0,118
-281,745	220,133	0,036	0,042
-280,730	273,742	-0,069	-0,089
-279,716	-200,000	-0,001	-0,083
-278,701	-200,000	0,017	0,100
-277,686	364,134	0,088	0,130
-276,672	800,000	-0,040	0,083
-275,657	-200,000	-0,007	-0,062
-274,643	-200,000	0,016	0,070
-273,628	371,176	0,035	-0,052
-272,613	-19,890	-0,054	0,024
-271,599	-115,908	0,097	0,013
-270,584	130,192	0,071	0,066
-269,570	-30,315	-0,092	0,038
-268,555	-200,000	-0,006	0,030
-267,540	-200,000	-0,008	0,079
-266,526	603,040	-0,030	0,054
-265,511	94,386	-0,153	0,126
-264,497	231,680	0,088	0,106
-263,482	35,676	-0,095	0,060
-262,467	95,014	0,010	0,008
-261,453	3,303	-0,069	-0,037
-260,438	800,000	-0,057	0,161
-259,424	-97,735	-0,159	0,030
-258,409	-200,000	0,006	0,046
-257,395	-200,000	0,002	-0,073
-256,380	-64,495	0,089	0,026
-255,365	-12,298	0,065	0,031
-254,351	558,542	0,047	-0,083
-253,336	800,000	-0,032	0,067
-252,322	-121,336	0,068	-0,008
-251,307	-5,196	-0,080	-0,040
-250,292	-75,000	-0,025	0,006
-249,278	212,180	0,085	-0,098
-248,263	800,000	-0,059	0,182
-247,249	-170,044	-0,135	-0,003
-246,234	800,000	0,062	-0,148
-245,219	-200,000	-0,034	-0,204
-244,205	-4,418	0,032	0,016
-243,190	-69,659	0,120	0,033
-242,176	800,000	0,085	0,197
-241,161	800,000	-0,024	0,069
-240,146	-200,000	-0,021	0,095
-239,132	300,120	0,089	-0,119
-238,117	800,000	-0,019	0,054
-237,103	-200,000	0,001	-0,006
-236,088	765,911	-0,072	-0,143
-235,073	0,465	0,057	0,030
-234,059	75,551	0,055	0,043
-233,044	-200,000	-0,023	-0,096
-232,030	411,251	0,054	-0,084
-231,015	342,341	0,040	-0,057
-230,000	-200,000	0,014	0,172
-228,986	-54,195	-0,031	-0,010
-227,971	549,590	0,118	-0,208
-226,957	-140,195	0,064	0,005
-225,942	800,000	0,019	-0,039
-224,927	241,952	-0,044	-0,053
-223,913	19,760	-0,121	0,071
-222,898	-42,601	0,091	-0,034
-221,884	12,004	0,078	0,043
-220,869	-31,547	-0,105	-0,043
-219,855	280,890	0,054	0,070
-218,840	-154,766	0,076	0,004
-217,825	718,461	-0,036	0,071
-216,811	298,608	0,020	0,027
-215,796	240,669	0,069	-0,083
-214,782	104,900	-0,012	0,011
-213,767	207,002	0,071	0,081
-212,752	-145,779	0,054	-0,003
-211,738	106,857	0,018	0,016
-210,723	0,306	0,049	0,025
-209,709	-169,748	-0,100	-0,003
-208,694	304,756	-0,081	-0,110
-207,679	79,217	-0,085	-0,066
-206,665	14,198	0,078	-0,044
-205,650	800,000	-0,053	0,126
-204,636	-200,000	-0,016	0,103
-203,621	343,860	0,004	0,006
-202,606	502,321	0,049	-0,082
-201,592	211,100	-0,038	0,043
-200,577	472,795	0,051	-0,084
-199,563	-82,304	0,080	0,019
-198,548	91,765	-0,087	-0,071
-197,533	74,435	0,036	0,027
-196,519	-19,969	-0,039	-0,018
-195,504	355,939	-0,070	-0,101
-194,490	94,161	-0,033	0,027
-193,475	-47,478	0,036	0,013
-192,460	166,186	-0,055	-0,057
-191,446	-15,507	0,075	0,035
-190,431	800,000	0,065	0,175
-189,417	124,269	0,055	-0,050
-188,402	101,740	-0,066	-0,056
-187,387	411,352	0,057	-0,088
-186,373	-200,000	0,013	0,044
-185,358	800,000	0,046	-0,135
-184,344	-200,000	-0,007	-0,077
-183,329	-200,000	-0,004	-0,015
-182,315	-200,000	0,018	0,108
-181,300	-200,000	0,024	-0,082
-180,285	636,785	-0,041	-0,076
-179,271	56,788	-0,071	-0,050
-178,256	359,030	-0,051	-0,074
-177,242	544,330	0,095	0,166
-176,227	800,000	0,032	0,102
-175,212	-84,017	-0,057	-0,013
-174,198	-25,790	-0,065	0,028
-173,183	29,361	-0,018	-0,011
-172,169	58,591	-0,124	0,089
-171,154	-160,513	-0,068	0,003
-170,139	25,234	0,152	-0,092
-169,125	314,938	0,037	0,051
-168,110	262,069	0,051	0,064
-167,096	800,000	-0,043	-0,088
-166,081	35,174	0,078	-0,049
-165,066	156,374	-0,049	-0,050
-164,052	-200,000	0,004	0,034
-163,037	594,143	-0,047	0,085
-162,023	641,947	-0,045	0,083
-161,008	87,772	-0,099	-0,080
-159,993	116,473	0,083	0,074
-158,979	307,904	0,095	0,129
-157,964	82,019	-0,104	-0,082
-156,950	334,472	0,089	-0,125
-155,935	154,040	-0,037	-0,037
-154,920	79,809	0,103	-0,080
-153,906	-200,000	0,015	0,078
-152,891	79,311	-0,079	0,061
-151,877	42,509	0,071	-0,047
-150,862	8,075	-0,170	-0,093
-149,847	800,000	-0,026	0,072
-148,833	368,213	-0,079	0,116
-147,818	47,549	0,020	-0,014
-146,804	144,942	-0,076	0,074
-145,789	-131,040	-0,110	-0,011
-144,775	250,251	-0,045	-0,055
-143,760	282,487	-0,032	-0,042
-142,745	-14,130	-0,162	0,075
-141,731	83,591	0,064	0,050
-140,716	36,401	0,049	0,031
-139,702	-150,087	0,106	-0,006
-138,687	-44,183	0,104	-0,038
-137,672	-107,202	-0,068	-0,011
-136,658	343,584	-0,093	-0,133
-135,643	800,000	0,016	0,048
-134,629	800,000	-0,023	0,046
-133,614	486,947	0,061	0,102
-132,599	800,000	0,022	0,050
-131,585	127,493	0,108	0,100
-130,570	246,123	-0,061	-0,074
-129,556	303,132	-0,033	0,045
-128,541	-200,000	-0,004	0,035
-127,526	800,000	0,053	0,138
-126,512	-87,349	0,046	-0,010
-125,497	-200,000	0,035	0,152
-124,483	161,794	-0,077	0,079
-123,468	-7,277	-0,089	-0,044
-122,453	188,661	0,031	-0,034
-121,439	339,954	0,091	-0,129
-120,424	217,026	-0,084	-0,097
-119,410	-69,385	0,113	0,031
-118,395	-86,593	0,111	0,025
-117,380	-200,000	0,019	0,075
