DTS Sentinel unit serial number:	SN410029Multiplexer serial number:	ORYXHardware model number:	OX2-SRSoftware version number:	ORYX F/W v4,00 Oryx Data Collector v3.7.2.0data status	okinstallation	B4 Nyhavnadifferential loss correction	single-endedforward channel	channel 2reverse channel	N/Adate	2023/12/19time	11:50:13forward acquisition time	300,00reverse acquisition time	0,00gamma	499,1914k internal	0,3128k external	0,3128temperature offset calibration	1,0000default loss term (dB/km)	0,3820temperature slope calibration	1,0000multiplexer offset coefficient	1,0000multiplexer slope coefficient	1,0000fibre end	0,00T internal ref (°C)	19,70T ext. ref 1 (°C)	4,44T ext. ref 2 (°C)	4,40length (m)	temperature (°C)	Stokes	anti-Stokes-744,400	15,914	0,087	0,051
-743,385	106,060	-0,179	0,158
-742,371	169,491	-0,020	0,021
-741,356	-5,508	-0,211	0,107
-740,342	-63,683	0,066	-0,020
-739,327	-125,861	-0,214	0,024
-738,312	57,385	0,084	-0,061
-737,298	-44,315	-0,242	0,090
-736,283	-68,860	0,158	-0,045
-735,269	-91,952	-0,163	0,034
-734,254	226,378	0,071	-0,086
-733,239	14,415	-0,413	-0,239
-732,225	290,473	0,084	-0,114
-731,210	-97,218	0,011	-0,002
-730,196	193,595	-0,085	-0,096
-729,181	56,882	0,086	0,063
-728,167	-125,399	0,019	0,002
-727,152	-200,000	-0,009	-0,052
-726,137	205,449	-0,131	0,151
-725,123	305,641	-0,052	0,073
-724,108	800,000	-0,056	-0,155
-723,094	800,000	-0,071	-0,184
-722,079	-200,000	-0,001	-0,036
-721,064	52,132	0,042	-0,029
-720,050	-52,759	0,047	-0,016
-719,035	107,781	-0,058	-0,052
-718,021	796,969	-0,060	-0,123
-717,006	-200,000	0,013	-0,070
-715,991	276,281	-0,108	-0,143
-714,977	-149,036	-0,008	-0,000
-713,962	-200,000	-0,003	0,115
-712,948	-200,000	-0,022	-0,127
-711,933	-200,000	-0,013	0,095
-710,918	31,946	-0,114	-0,073
-709,904	155,404	0,055	-0,057
-708,889	-167,631	0,028	0,001
-707,875	130,718	-0,104	-0,099
-706,860	-127,256	0,060	-0,006
-705,845	161,807	-0,088	0,091
-704,831	800,000	0,035	-0,089
-703,816	113,765	-0,113	-0,102
-702,802	-24,815	-0,021	-0,009
-701,787	51,512	0,054	0,038
-700,772	67,844	-0,015	-0,011
-699,758	110,450	0,030	-0,027
-698,743	800,000	-0,029	0,082
-697,729	800,000	0,016	0,033
-696,714	-200,000	-0,008	0,064
-695,699	118,404	-0,057	-0,052
-694,685	-96,279	0,025	0,005
-693,670	-63,874	-0,144	-0,043
-692,656	53,270	-0,050	0,036
-691,641	-14,071	-0,019	-0,009
-690,627	356,251	0,071	0,106
-689,612	70,109	-0,051	0,039
-688,597	-160,188	-0,149	-0,006
-687,583	401,561	-0,150	-0,234
-686,568	62,339	-0,132	-0,098
-685,554	713,675	0,027	0,054
-684,539	-63,526	0,070	0,021
-683,524	-73,479	-0,181	0,049
-682,510	69,655	0,028	-0,022
-681,495	729,688	-0,060	0,119
-680,481	-200,000	0,012	-0,178
-679,466	-179,795	0,098	0,002
-678,451	800,000	0,045	-0,133
-677,437	-77,815	-0,111	-0,028
-676,422	800,000	0,052	0,158
-675,408	-49,147	-0,163	0,058
-674,393	-200,000	0,018	0,083
-673,378	-33,200	-0,208	-0,085
-672,364	-73,209	-0,061	0,017
-671,349	-200,000	-0,001	0,139
-670,335	3,765	-0,133	0,072
-669,320	49,209	0,083	0,058
-668,305	-150,400	-0,166	-0,009
-667,291	660,355	0,041	-0,078
-666,276	800,000	-0,010	0,025
-665,262	800,000	0,045	-0,097
-664,247	-200,000	-0,026	-0,119
-663,232	134,550	-0,101	-0,098
-662,218	-20,318	0,054	-0,025
-661,203	0,054	0,074	-0,039
-660,189	-200,000	-0,026	0,123
-659,174	422,643	0,027	0,044
-658,159	496,240	-0,033	-0,056
-657,145	800,000	-0,054	-0,121
-656,130	2,098	-0,083	-0,044
-655,116	-97,607	-0,013	-0,002
-654,101	215,554	0,131	0,155
-653,086	-200,000	-0,006	0,033
-652,072	307,846	-0,055	-0,077
-651,057	406,472	-0,051	-0,080
-650,043	-130,598	0,046	0,004
-649,028	43,854	0,030	-0,020
-648,014	800,000	-0,027	-0,084
-646,999	135,143	0,119	-0,115
-645,984	71,231	0,093	-0,071
-644,970	-200,000	-0,017	0,154
-643,955	-79,352	0,102	-0,026
-642,941	800,000	-0,056	-0,134
-641,926	464,643	-0,028	0,047
-640,911	-200,000	0,014	0,146
-639,897	110,613	0,015	0,013
-638,882	49,500	0,129	0,090
-637,868	800,000	-0,028	0,077
-636,853	800,000	0,054	-0,148
-635,838	366,297	-0,063	-0,095
-634,824	800,000	0,049	-0,102
-633,809	353,532	-0,009	0,014
-632,795	-8,090	0,115	-0,057
-631,780	-200,000	0,030	0,117
-630,765	539,712	0,048	-0,085
-629,751	110,739	-0,072	0,064
-628,736	393,176	0,046	-0,072
-627,722	207,550	0,072	0,084
-626,707	-200,000	-0,011	-0,116
-625,692	388,044	-0,042	-0,064
-624,678	-200,000	0,011	0,084
-623,663	303,881	0,011	-0,016
-622,649	-113,861	-0,077	-0,011
-621,634	296,915	0,023	-0,031
-620,619	64,372	0,071	-0,053
-619,605	-110,346	-0,154	-0,023
-618,590	800,000	-0,025	0,060
-617,576	107,888	-0,033	0,029
-616,561	-200,000	-0,003	-0,105
-615,546	-106,952	-0,057	-0,009
-614,532	800,000	-0,054	-0,153
-613,517	-200,000	-0,035	-0,187
-612,503	-109,947	0,068	-0,010
-611,488	353,000	0,025	0,036
-610,474	322,959	-0,026	0,037
-609,459	237,540	0,012	0,014
-608,444	156,317	-0,147	0,151
-607,430	-47,724	-0,234	-0,083
-606,415	800,000	0,020	-0,044
-605,401	104,372	-0,005	-0,004
-604,386	-78,222	-0,080	0,020
-603,371	-26,690	0,046	-0,020
-602,357	-200,000	0,006	-0,093
-601,342	19,772	-0,239	-0,142
-600,328	800,000	-0,049	-0,104
-599,313	-78,438	0,010	-0,003
-598,298	-138,025	-0,091	-0,007
-597,284	-187,149	0,073	0,001
-596,269	800,000	0,021	-0,047
-595,255	-200,000	-0,012	0,096
-594,240	-4,823	-0,090	-0,046
-593,225	617,600	-0,064	-0,120
-592,211	447,190	0,027	-0,045
-591,196	-26,105	0,048	-0,021
-590,182	62,564	0,018	0,013
-589,167	3,361	0,107	-0,058
-588,152	-160,654	0,073	0,003
-587,138	800,000	-0,039	0,089
-586,123	-46,089	-0,106	-0,038
-585,109	169,536	-0,029	0,031
-584,094	76,365	0,075	-0,059
-583,079	-141,209	0,041	-0,003
-582,065	-156,626	-0,071	-0,003
-581,050	-7,401	-0,056	0,028
-580,036	800,000	0,055	0,120
-579,021	-5,338	0,050	-0,025
-578,006	-103,618	-0,098	-0,017
-576,992	518,365	-0,053	-0,092
-575,977	30,208	0,042	0,027
-574,963	138,867	0,064	-0,062
-573,948	-76,440	-0,068	0,018
-572,934	172,586	0,057	-0,061
-571,919	800,000	0,012	-0,033
-570,904	-24,868	-0,120	0,053
-569,890	-149,793	-0,061	0,003
-568,875	499,917	0,061	0,104
-567,861	-200,000	-0,020	0,073
-566,846	-200,000	0,016	0,077
-565,831	800,000	0,013	-0,031
-564,817	800,000	0,029	-0,091
-563,802	-6,734	0,045	0,023
-562,788	-200,000	-0,018	-0,061
-561,773	-91,029	-0,040	-0,008
-560,758	800,000	-0,038	0,087
-559,744	83,586	-0,058	0,047
-558,729	139,967	0,124	0,121
-557,715	136,043	-0,083	0,080
-556,700	800,000	-0,036	-0,083
-555,685	79,204	-0,037	0,029
-554,671	-62,260	-0,075	0,023
-553,656	-200,000	0,008	-0,026
-552,642	134,832	0,157	-0,150
-551,627	800,000	-0,057	-0,120
-550,612	213,267	0,060	-0,070
-549,598	-200,000	-0,012	-0,068
-548,583	800,000	-0,040	-0,096
-547,569	100,014	-0,101	0,086
-546,554	207,395	0,066	-0,076
-545,539	-21,816	0,074	0,033
-544,525	-200,000	0,015	0,072
-543,510	-200,000	-0,005	-0,044
-542,496	-200,000	0,004	0,045
-541,481	-42,513	-0,087	0,033
-540,466	606,717	0,073	-0,135
-539,452	48,150	-0,113	0,078
-538,437	-112,131	0,037	0,005
-537,423	-109,699	-0,034	0,005
-536,408	450,335	-0,002	-0,003
-535,393	183,000	-0,059	-0,065
-534,379	-25,409	-0,013	-0,006
-533,364	-200,000	-0,001	0,015
-532,350	-29,395	-0,036	-0,015
-531,335	-200,000	-0,012	0,087
-530,321	-200,000	-0,020	-0,096
-529,306	-82,989	0,079	0,019
-528,291	-115,741	-0,062	0,008
-527,277	157,446	0,079	-0,081
-526,262	1,171	0,067	-0,035
-525,248	-200,000	-0,018	-0,127
-524,233	-79,172	0,118	-0,029
-523,218	-200,000	0,005	0,028
-522,204	8,635	-0,070	0,039
-521,189	408,889	-0,066	-0,103
-520,175	-141,925	-0,179	-0,013
-519,160	76,115	0,092	-0,072
-518,145	-144,605	-0,062	-0,004
-517,131	800,000	-0,047	-0,132
-516,116	-200,000	0,004	-0,025
-515,102	247,459	-0,076	0,095
-514,087	217,128	-0,043	-0,050
-513,072	-8,783	-0,114	-0,056
-512,058	-118,684	0,072	0,009
-511,043	-84,844	-0,026	0,006
-510,029	-69,823	0,116	-0,033
-509,014	457,422	0,034	0,055
-507,999	-119,501	0,070	0,009
-506,985	354,545	-0,036	-0,053
-505,970	112,765	-0,019	-0,017
-504,956	-200,000	-0,007	-0,145
-503,941	-200,000	-0,002	0,063
-502,926	-158,680	0,154	0,006
-501,912	-99,538	0,062	-0,011
-500,897	-179,630	-0,077	0,001
-499,883	207,349	0,070	0,080
-498,868	-152,276	0,052	0,003
-497,853	-200,000	-0,006	0,030
-496,839	150,367	0,051	0,051
-495,824	225,710	0,039	-0,047
-494,810	316,865	0,066	0,093
-493,795	52,076	0,195	0,136
-492,781	-132,869	0,100	-0,009
-491,766	-104,818	-0,080	0,013
-490,751	-68,038	-0,030	0,009
-489,737	53,731	-0,070	0,049
-488,722	-162,598	-0,019	0,001
-487,708	-200,000	-0,007	0,102
-486,693	-200,000	0,012	-0,063
-485,678	-200,000	0,001	0,109
-484,664	491,257	-0,115	0,194
-483,649	800,000	0,051	0,160
-482,635	150,191	-0,058	-0,058
-481,620	41,044	0,110	-0,073
-480,605	571,741	0,033	-0,059
-479,591	-7,672	0,044	-0,022
-478,576	-83,156	-0,041	0,010
-477,562	-200,000	0,028	-0,120
-476,547	225,300	0,037	-0,044
-475,532	459,530	0,101	0,166
-474,518	132,149	0,049	0,047
-473,503	800,000	-0,031	-0,065
-472,489	-200,000	-0,036	0,126
-471,474	800,000	-0,069	0,146
-470,459	19,797	-0,123	-0,073
-469,445	-59,790	0,104	-0,033
-468,430	-58,549	-0,117	-0,037
-467,416	-200,000	0,008	0,025
-466,401	-200,000	-0,026	0,135
-465,386	-54,469	0,125	0,041
-464,372	-200,000	0,001	-0,064
-463,357	-25,484	-0,088	-0,038
-462,343	722,644	-0,032	-0,064
-461,328	-200,000	-0,034	-0,130
-460,313	29,420	0,077	0,048
-459,299	405,254	-0,115	0,179
-458,284	46,334	-0,065	0,045
-457,270	-13,918	0,128	-0,061
-456,255	294,352	-0,025	0,034
-455,241	-0,317	-0,179	0,093
-454,226	-200,000	0,000	0,072
-453,211	35,877	0,097	0,063
-452,197	-11,074	0,099	-0,048
-451,182	800,000	-0,003	-0,008
-450,168	-104,959	-0,010	-0,002
-449,153	-200,000	-0,011	-0,060
-448,138	97,333	-0,068	0,057
-447,124	800,000	0,033	-0,107
-446,109	800,000	-0,011	0,027
-445,095	-144,082	0,078	-0,005
-444,080	-32,204	0,092	0,038
-443,065	-123,968	0,067	-0,008
-442,051	85,082	-0,080	0,064
-441,036	-200,000	0,001	0,127
-440,022	-200,000	0,010	0,063
-439,007	372,183	0,060	-0,089
-437,992	49,369	-0,059	-0,040
-436,978	199,396	0,047	0,054
-435,963	-200,000	-0,009	-0,054
-434,949	221,447	-0,095	-0,112
-433,934	-10,843	0,051	0,025
-432,919	222,082	0,048	-0,056
-431,905	-145,829	-0,133	0,009
-430,890	268,614	0,039	-0,051
-429,876	-111,811	0,065	-0,010
-428,861	573,894	0,022	0,039
-427,846	-200,000	-0,004	0,036
-426,832	408,330	-0,067	0,104
-425,817	-200,000	-0,011	-0,057
-424,803	205,463	-0,032	-0,037
-423,788	358,708	0,082	0,121
-422,773	-200,000	-0,007	0,041
-421,759	627,335	0,060	0,112
-420,744	800,000	-0,039	0,096
-419,730	545,733	-0,020	0,035
-418,715	-200,000	-0,040	-0,136
-417,701	179,674	-0,055	0,060
-416,686	-200,000	0,008	-0,051
-415,671	-200,000	0,023	0,129
-414,657	800,000	-0,025	-0,078
-413,642	9,625	0,093	0,052
-412,628	553,929	-0,078	0,139
-411,613	127,671	0,070	-0,065
-410,598	195,562	-0,112	-0,126
-409,584	-200,000	0,032	0,117
-408,569	647,268	-0,022	0,041
-407,555	800,000	-0,025	0,068
-406,540	113,943	-0,057	-0,051
-405,525	800,000	0,024	0,061
-404,511	-121,050	-0,135	0,016
-403,496	-145,026	-0,091	-0,006
-402,482	-200,000	-0,001	0,139
-401,467	492,696	-0,082	0,139
-400,452	800,000	0,016	0,049
-399,438	133,421	0,124	-0,118
-398,423	159,148	-0,052	0,053
-397,409	-24,433	-0,069	-0,030
-396,394	313,235	-0,021	-0,029
-395,379	26,400	-0,096	0,059
-394,365	-24,425	-0,075	0,033
-393,350	-97,729	0,112	0,021
-392,336	76,032	0,125	-0,097
-391,321	74,731	-0,051	0,039
-390,306	473,978	-0,074	0,123
-389,292	-81,741	-0,117	-0,028
-388,277	-175,032	0,110	-0,002
-387,263	154,472	0,029	-0,029
-386,248	263,546	0,019	-0,025
-385,233	-200,000	-0,025	0,093
-384,219	-200,000	0,005	0,021
-383,204	-9,059	-0,092	-0,045
-382,190	-200,000	0,011	0,096
-381,175	100,683	-0,058	0,049
-380,160	-86,679	0,093	-0,021
-379,146	-28,934	-0,122	0,051
-378,131	-200,000	-0,006	0,123
-377,117	-133,339	0,068	0,006
-376,102	51,116	-0,040	0,028
-375,088	-200,000	-0,004	0,124
-374,073	48,851	0,072	-0,049
-373,058	-77,036	0,141	0,036
-372,044	800,000	-0,055	-0,152
-371,029	21,948	0,056	-0,033
-370,015	91,562	0,052	-0,043
-369,000	1,948	0,105	0,056
-367,985	58,189	-0,092	0,066
-366,971	-200,000	-0,015	0,060
-365,956	334,327	0,045	0,064
-364,942	-129,683	-0,082	0,008
-363,927	281,610	0,048	-0,064
-362,912	176,477	-0,059	0,063
-361,898	-38,798	-0,143	0,055
-360,883	126,944	-0,051	0,048
-359,869	-13,451	-0,155	0,074
-358,854	-115,756	-0,168	-0,023
-357,839	-45,292	0,063	-0,023
-356,825	26,487	-0,088	0,054
-355,810	-8,035	0,040	0,020
-354,796	-58,825	-0,052	-0,016
-353,781	-120,961	-0,143	0,017
-352,766	-65,313	0,087	-0,025
-351,752	96,915	0,053	0,045
-350,737	44,293	0,121	0,081
-349,723	-200,000	0,000	0,081
-348,708	-120,681	0,064	0,008
-347,693	246,495	-0,017	0,021
-346,679	58,073	-0,133	-0,096
-345,664	-91,223	-0,135	-0,028
-344,650	80,966	-0,031	0,025
-343,635	800,000	-0,013	-0,033
-342,620	-26,265	0,149	0,064
-341,606	-200,000	-0,012	0,063
-340,591	800,000	0,018	-0,048
-339,577	665,157	0,030	-0,056
-338,562	800,000	-0,046	-0,125
-337,548	8,878	0,106	0,059
-336,533	-150,114	0,097	0,005
-335,518	-200,000	-0,014	0,071
-334,504	303,060	0,071	0,097
-333,489	13,703	-0,105	0,059
-332,475	-200,000	0,071	0,000
-331,460	-54,739	-0,100	-0,033
-330,445	-200,000	-0,022	-0,158
-329,431	-200,000	-0,003	-0,109
-328,416	505,445	0,024	0,041
-327,402	-45,233	-0,106	0,038
-326,387	800,000	-0,046	0,126
-325,372	-108,651	-0,155	0,024
-324,358	75,868	-0,021	-0,016
-323,343	-66,067	0,096	-0,028
-322,329	346,344	-0,053	0,077
-321,314	-200,000	-0,010	-0,058
-320,299	24,056	0,045	0,027
-319,285	101,119	-0,027	0,023
-318,270	-162,000	-0,063	0,002
-317,256	476,572	-0,111	-0,185
-316,241	-144,040	0,234	-0,016
-315,226	-112,088	0,053	-0,008
-314,212	-29,074	0,170	0,071
-313,197	-129,343	0,088	0,009
-312,183	800,000	0,035	0,096
-311,168	-200,000	-0,036	0,000
-310,153	-200,000	0,003	-0,012
-309,139	-200,000	-0,013	-0,052
-308,124	800,000	-0,027	0,071
-307,110	-83,633	0,153	0,035
-306,095	-200,000	0,003	0,076
-305,080	33,261	-0,102	0,064
-304,066	321,445	-0,054	-0,076
-303,051	27,677	-0,088	0,054
-302,037	800,000	-0,027	0,081
-301,022	-68,225	0,031	-0,009
-300,008	174,960	0,056	-0,059
-298,993	-200,000	-0,025	-0,141
-297,978	-49,778	-0,082	0,028
-296,964	-16,688	0,055	0,025
-295,949	-200,000	0,001	0,049
-294,935	775,349	-0,053	-0,106
-293,920	-48,329	0,112	-0,039
-292,905	-200,000	-0,008	-0,029
-291,891	-37,417	-0,089	-0,034
-290,876	-70,857	0,186	-0,051
-289,862	-89,173	0,019	-0,004
-288,847	352,145	-0,049	-0,072
-287,832	252,764	0,040	0,050
-286,818	-102,592	-0,160	0,028
-285,803	433,805	-0,030	-0,048
-284,789	800,000	0,062	-0,148
-283,774	406,771	-0,049	0,076
-282,759	800,000	-0,055	0,133
-281,745	74,951	0,127	-0,097
-280,730	800,000	0,024	-0,055
-279,716	-49,745	0,101	0,035
-278,701	70,188	-0,013	-0,010
-277,686	176,201	0,139	0,148
-276,672	-51,574	0,033	-0,011
-275,657	-200,000	0,006	-0,049
-274,643	25,304	-0,104	-0,063
-273,628	200,885	-0,049	-0,055
-272,613	-18,018	0,124	0,056
-271,599	-200,000	-0,007	0,089
-270,584	-62,756	0,123	-0,037
-269,570	82,898	-0,029	-0,023
-268,555	-111,639	-0,022	-0,003
-267,540	-71,423	0,054	0,015
-266,526	-200,000	-0,009	-0,066
-265,511	-154,239	0,140	-0,007
-264,497	-200,000	0,015	0,096
-263,482	-169,389	-0,021	0,001
-262,467	83,623	0,071	0,057
-261,453	666,204	0,046	-0,087
-260,438	-127,601	-0,032	-0,003
-259,424	-39,232	-0,112	-0,043
-258,409	-200,000	-0,003	-0,045
-257,395	219,617	0,046	0,054
-256,380	-32,932	0,087	0,035
-255,365	8,702	0,110	0,060
-254,351	151,867	0,070	-0,070
-253,336	233,661	0,049	0,058
-252,322	58,504	0,027	-0,019
-251,307	11,464	-0,011	0,006
-250,292	-189,301	0,159	-0,001
-249,278	-154,115	-0,015	-0,001
-248,263	29,052	0,057	0,035
-247,249	-200,000	0,032	0,110
-246,234	408,082	-0,027	0,042
-245,219	311,495	0,061	-0,084
-244,205	-200,000	-0,029	-0,112
-243,190	417,045	-0,026	-0,041
-242,176	545,818	-0,046	0,081
-241,161	-200,000	-0,007	-0,070
-240,146	800,000	0,029	0,081
-239,132	17,118	-0,028	-0,016
-238,117	-200,000	-0,001	0,014
-237,103	420,127	0,029	-0,045
-236,088	11,100	0,087	0,049
-235,073	15,534	0,108	0,062
-234,059	535,759	-0,079	0,137
-233,044	156,695	-0,034	0,034
-232,030	800,000	-0,026	-0,063
-231,015	322,743	0,065	-0,091
-230,000	-91,408	-0,136	-0,028
-228,986	129,172	0,056	-0,052
-227,971	800,000	-0,045	0,104
-226,957	-7,146	0,062	-0,031
-225,942	-71,806	0,078	-0,021
-224,927	800,000	-0,035	-0,103
-223,913	539,918	0,055	-0,095
-222,898	800,000	-0,036	-0,104
-221,884	334,665	-0,067	0,095
-220,869	-200,000	0,015	-0,083
-219,855	-13,404	0,106	0,050
-218,840	800,000	0,030	-0,061
-217,825	-85,161	-0,047	-0,011
-216,811	-148,788	-0,084	0,005
-215,796	-200,000	0,010	-0,112
-214,782	-17,159	0,073	0,034
-213,767	-146,325	0,140	0,009
-212,752	316,590	0,038	-0,052
-211,738	196,524	0,133	0,148
-210,723	800,000	-0,021	0,051
-209,709	191,287	-0,020	-0,022
-208,694	-17,825	-0,158	0,072
-207,679	-12,910	0,025	0,012
-206,665	742,060	0,062	-0,122
-205,650	136,071	-0,073	0,069
-204,636	73,593	0,037	0,028
-203,621	-200,000	-0,002	-0,105
-202,606	215,033	-0,072	-0,083
-201,592	17,186	-0,081	-0,047
-200,577	-83,888	0,030	-0,007
-199,563	800,000	0,053	0,132
-198,548	-200,000	0,017	0,127
-197,533	-200,000	-0,021	0,105
-196,519	507,909	0,089	0,152
-195,504	-139,105	-0,121	-0,009
-194,490	-200,000	-0,004	-0,104
-193,475	328,833	-0,056	-0,079
-192,460	16,659	0,092	-0,053
-191,446	791,144	-0,097	-0,196
-190,431	229,933	-0,106	-0,126
-189,417	12,449	-0,023	0,013
-188,402	245,137	0,056	0,069
-187,387	-111,773	-0,038	-0,006
-186,373	-4,939	-0,183	-0,091
-185,358	776,498	-0,056	0,112
-184,344	-200,000	0,018	0,081
-183,329	64,988	0,095	0,070
-182,315	-100,437	-0,073	0,013
-181,300	17,352	-0,002	0,001
-180,285	311,209	-0,084	-0,114
-179,271	-200,000	-0,010	0,048
-178,256	36,314	0,022	-0,014
-177,242	7,534	0,085	-0,046
-176,227	-125,752	-0,133	0,014
-175,212	142,815	-0,056	0,054
-174,198	264,912	0,029	-0,037
-173,183	347,864	0,025	0,036
-172,169	605,858	0,067	-0,122
-171,154	93,193	0,051	0,042
-170,139	326,323	0,030	-0,042
-169,125	205,409	-0,012	-0,013
-168,110	800,000	0,021	0,045
-167,096	174,180	-0,032	0,033
-166,081	-96,915	-0,156	-0,030
-165,066	-200,000	-0,021	-0,103
-164,052	-200,000	0,008	-0,143
-163,037	-200,000	0,012	-0,085
-162,023	67,122	0,034	0,025
-161,008	-91,094	0,099	0,021
-159,993	800,000	0,045	-0,134
-158,979	-200,000	0,001	0,028
-157,964	45,473	-0,022	-0,015
-156,950	47,371	0,051	0,035
-155,935	-123,321	0,100	0,011
-154,920	251,974	0,021	-0,026
-153,906	-133,970	0,029	-0,003
-152,891	-82,571	0,086	-0,020
-151,877	84,217	-0,043	0,034
-150,862	200,987	-0,075	0,084
-149,847	800,000	0,023	-0,062
-148,833	417,956	-0,029	0,045
-147,818	-200,000	-0,007	-0,092
-146,804	1,070	0,050	0,026
-145,789	-93,752	-0,072	0,014
-144,775	-200,000	-0,004	0,046
-143,760	800,000	-0,028	0,073
-142,745	-200,000	-0,024	0,083
-141,731	41,408	0,105	0,069
-140,716	125,684	-0,063	0,058
-139,702	60,514	-0,061	-0,044
-138,687	516,736	0,010	-0,017
-137,672	65,043	-0,040	-0,029
-136,658	-200,000	-0,008	-0,069
-135,643	-200,000	0,001	0,052
-134,629	161,110	0,088	-0,089
-133,614	-200,000	-0,009	-0,106
-132,599	-19,320	0,054	0,024
-131,585	53,430	0,123	0,086
-130,570	-200,000	0,011	0,051
-129,556	193,647	-0,072	0,079
-128,541	519,566	-0,095	-0,162
-127,526	-128,284	0,097	-0,010
-126,512	359,042	0,038	0,055
-125,497	-200,000	-0,004	-0,046
-124,483	33,042	-0,049	0,031
-123,468	331,887	-0,081	0,114
-122,453	113,005	-0,115	0,102
-121,439	85,856	0,132	0,105
-120,424	-200,000	-0,018	-0,062
-119,410	297,037	0,080	0,106
-118,395	189,934	0,108	0,118
