DTS Sentinel unit serial number:	SN410029Multiplexer serial number:	ORYXHardware model number:	OX2-SRSoftware version number:	ORYX F/W v4,00 Oryx Data Collector v3.7.2.0data status	okinstallation	B4 Nyhavnadifferential loss correction	single-endedforward channel	channel 2reverse channel	N/Adate	2023/12/16time	06:40:13forward acquisition time	300,00reverse acquisition time	0,00gamma	499,1914k internal	0,3127k external	0,3127temperature offset calibration	1,0000default loss term (dB/km)	0,3820temperature slope calibration	1,0000multiplexer offset coefficient	1,0000multiplexer slope coefficient	1,0000fibre end	0,00T internal ref (°C)	22,31T ext. ref 1 (°C)	7,58T ext. ref 2 (°C)	7,75length (m)	temperature (°C)	Stokes	anti-Stokes-744,400	-75,925	0,085	-0,022
-743,385	77,993	-0,193	0,153
-742,371	560,214	0,080	0,144
-741,356	88,790	-0,109	0,090
-740,342	-200,000	0,002	-0,081
-739,327	-1,600	-0,286	0,149
-738,312	-200,000	-0,005	-0,131
-737,298	61,146	-0,248	0,183
-736,283	-200,000	-0,006	0,082
-735,269	-161,111	-0,247	-0,009
-734,254	-134,605	-0,080	0,007
-733,239	-104,223	-0,340	-0,058
-732,225	-200,000	0,005	-0,145
-731,210	14,217	-0,104	0,060
-730,196	-71,450	0,058	-0,016
-729,181	-61,822	-0,042	-0,013
-728,167	-146,428	0,042	0,003
-727,152	-84,010	-0,019	0,004
-726,137	-105,875	-0,106	0,018
-725,123	800,000	0,023	0,053
-724,108	-200,000	-0,018	0,120
-723,094	371,139	-0,036	-0,054
-722,079	800,000	-0,064	-0,185
-721,064	466,578	-0,028	-0,046
-720,050	222,075	0,029	0,035
-719,035	800,000	-0,042	0,088
-718,021	-200,000	-0,001	0,078
-717,006	800,000	0,024	-0,073
-715,991	-113,280	-0,222	0,032
-714,977	800,000	-0,033	-0,099
-713,962	800,000	-0,012	0,028
-712,948	-108,500	0,075	0,012
-711,933	800,000	0,043	0,095
-710,918	67,228	0,018	0,014
-709,904	-200,000	-0,030	-0,172
-708,889	49,238	-0,066	-0,046
-707,875	54,211	-0,103	-0,073
-706,860	800,000	0,022	0,056
-705,845	333,661	-0,099	0,143
-704,831	387,774	0,061	0,095
-703,816	452,852	0,027	-0,044
-702,802	-119,116	-0,115	0,015
-701,787	93,657	-0,131	-0,110
-700,772	-200,000	0,016	-0,101
-699,758	-114,701	-0,036	-0,005
-698,743	800,000	0,037	-0,117
-697,729	176,670	0,034	-0,037
-696,714	-120,107	-0,132	0,017
-695,699	-200,000	-0,003	0,040
-694,685	6,976	-0,104	0,057
-693,670	-126,418	-0,058	0,006
-692,656	-200,000	0,053	-0,256
-691,641	738,610	-0,018	-0,036
-690,627	800,000	-0,043	0,090
-689,612	-165,497	0,035	-0,001
-688,597	800,000	0,045	-0,136
-687,583	-84,617	-0,154	-0,036
-686,568	-200,000	0,014	0,062
-685,554	-7,375	-0,083	0,042
-684,539	800,000	0,006	-0,018
-683,524	469,526	-0,008	-0,014
-682,510	422,162	0,028	-0,045
-681,495	3,062	-0,051	-0,028
-680,481	-91,157	-0,048	0,010
-679,466	-164,722	-0,163	0,005
-678,451	103,384	-0,084	0,073
-677,437	-200,000	-0,022	-0,162
-676,422	453,898	-0,094	0,155
-675,408	89,508	0,030	-0,025
-674,393	53,496	0,114	0,081
-673,378	-117,639	-0,039	-0,005
-672,364	800,000	-0,068	-0,147
-671,349	-200,000	-0,003	-0,025
-670,335	-200,000	-0,005	0,044
-669,320	-147,776	0,140	-0,009
-668,305	-200,000	0,009	0,199
-667,291	-200,000	0,005	0,055
-666,276	265,836	-0,012	-0,015
-665,262	-200,000	0,014	-0,054
-664,247	-112,274	0,055	-0,008
-663,232	-43,858	0,016	0,006
-662,218	-200,000	-0,017	0,090
-661,203	-200,000	0,032	0,149
-660,189	800,000	0,048	-0,115
-659,174	255,442	-0,042	-0,054
-658,159	-200,000	-0,010	-0,106
-657,145	125,496	0,031	-0,029
-656,130	-29,154	0,049	0,021
-655,116	570,572	-0,072	0,131
-654,101	145,944	0,035	0,035
-653,086	-93,621	-0,119	-0,024
-652,072	-150,260	0,106	-0,006
-651,057	-64,317	-0,122	0,037
-650,043	487,266	0,033	0,056
-649,028	-200,000	0,013	-0,111
-648,014	16,838	-0,115	-0,067
-646,999	196,265	-0,062	0,070
-645,984	39,290	-0,041	-0,027
-644,970	-73,755	-0,139	-0,037
-643,955	-200,000	-0,003	-0,055
-642,941	-200,000	-0,019	-0,159
-641,926	42,569	0,018	-0,012
-640,911	-200,000	-0,001	-0,032
-639,897	-200,000	0,028	-0,171
-638,882	300,935	0,068	-0,093
-637,868	136,312	-0,008	-0,008
-636,853	800,000	-0,044	-0,106
-635,838	-200,000	0,004	0,026
-634,824	800,000	-0,009	-0,027
-633,809	41,501	-0,039	-0,026
-632,795	-200,000	-0,000	0,012
-631,780	272,589	0,035	0,046
-630,765	87,982	0,065	0,053
-629,751	-200,000	-0,004	0,168
-628,736	86,601	-0,066	0,054
-627,722	-171,785	-0,075	0,002
-626,707	334,346	0,101	0,145
-625,692	-200,000	0,019	0,215
-624,678	800,000	0,040	-0,131
-623,663	111,066	-0,083	0,074
-622,649	41,427	-0,088	0,059
-621,634	-50,866	0,073	-0,025
-620,619	11,806	-0,146	-0,083
-619,605	-200,000	0,046	0,172
-618,590	570,524	-0,089	0,161
-617,576	114,673	-0,063	0,057
-616,561	578,609	-0,004	0,008
-615,546	-48,157	-0,199	-0,071
-614,532	146,910	-0,022	0,022
-613,517	-200,000	-0,015	0,055
-612,503	800,000	-0,043	0,102
-611,488	373,835	-0,078	0,118
-610,474	26,535	0,054	0,034
-609,459	18,426	-0,074	0,043
-608,444	528,818	0,027	0,047
-607,430	-200,000	0,005	0,065
-606,415	-90,520	0,017	-0,004
-605,401	-151,117	-0,129	0,007
-604,386	0,515	0,029	-0,015
-603,371	301,522	0,007	0,010
-602,357	184,434	-0,058	0,063
-601,342	336,700	-0,019	0,028
-600,328	800,000	0,008	-0,022
-599,313	-12,156	-0,019	-0,009
-598,298	114,406	-0,106	0,096
-597,284	587,069	0,041	0,075
-596,269	-157,610	-0,132	-0,006
-595,255	82,070	-0,113	0,091
-594,240	-160,840	-0,117	0,005
-593,225	34,574	0,050	-0,032
-592,211	29,168	0,009	-0,006
-591,196	-157,557	-0,105	-0,005
-590,182	145,206	0,034	0,034
-589,167	800,000	-0,055	0,120
-588,152	92,966	-0,044	-0,037
-587,138	-66,189	0,025	-0,007
-586,123	-80,960	-0,057	-0,014
-585,109	800,000	0,062	-0,149
-584,094	-73,918	0,105	-0,028
-583,079	111,811	-0,086	0,077
-582,065	-37,202	-0,108	0,043
-581,050	-200,000	-0,002	0,039
-580,036	-200,000	-0,029	0,114
-579,021	-95,967	0,101	-0,020
-578,006	81,816	0,072	-0,058
-576,992	72,402	0,053	-0,041
-575,977	41,922	-0,063	0,042
-574,963	-200,000	-0,032	0,111
-573,948	-200,000	0,015	0,060
-572,934	327,612	0,054	0,077
-571,919	-200,000	0,028	-0,142
-570,904	627,303	-0,084	0,157
-569,890	-61,125	0,104	0,032
-568,875	-200,000	-0,002	-0,043
-567,861	191,905	-0,055	0,062
-566,846	196,648	-0,040	0,045
-565,831	51,584	-0,019	-0,013
-564,817	-200,000	-0,008	-0,104
-563,802	800,000	0,057	-0,119
-562,788	517,419	-0,070	0,122
-561,773	-200,000	-0,003	-0,170
-560,758	273,480	0,049	0,064
-559,744	800,000	-0,008	-0,023
-558,729	258,561	0,027	0,034
-557,715	317,005	0,045	-0,063
-556,700	-200,000	0,030	-0,118
-555,685	120,058	0,137	0,126
-554,671	-200,000	0,015	-0,097
-553,656	281,608	0,096	-0,128
-552,642	800,000	-0,014	0,037
-551,627	-194,757	-0,102	-0,001
-550,612	733,373	0,020	0,040
-549,598	75,260	-0,027	-0,021
-548,583	-200,000	0,033	-0,139
-547,569	-96,922	0,022	-0,004
-546,554	-200,000	-0,016	-0,051
-545,539	15,261	0,084	-0,049
-544,525	-200,000	0,025	0,095
-543,510	167,653	-0,071	0,074
-542,496	-125,039	0,032	0,004
-541,481	-36,911	-0,224	-0,088
-540,466	-200,000	0,024	-0,122
-539,452	-9,952	0,087	0,043
-538,437	-112,775	0,199	-0,029
-537,423	-124,765	-0,129	0,015
-536,408	800,000	0,023	-0,067
-535,393	493,437	0,065	-0,111
-534,379	-200,000	0,003	-0,057
-533,364	214,843	0,077	-0,090
-532,350	585,600	-0,019	-0,035
-531,335	-200,000	-0,022	0,129
-530,321	776,553	0,093	0,189
-529,306	-200,000	-0,024	0,116
-528,291	800,000	0,027	0,062
-527,277	-87,821	0,135	-0,030
-526,262	800,000	0,046	-0,115
-525,248	-20,931	-0,103	0,047
-524,233	-200,000	-0,003	-0,061
-523,218	34,651	0,072	0,047
-522,204	-200,000	-0,040	0,167
-521,189	69,977	0,028	0,021
-520,175	-200,000	0,014	-0,075
-519,160	344,943	-0,002	-0,003
-518,145	160,457	0,037	0,038
-517,131	800,000	-0,051	-0,110
-516,116	311,109	0,088	-0,123
-515,102	67,113	0,044	0,033
-514,087	-71,112	-0,080	-0,022
-513,072	800,000	-0,060	0,128
-512,058	800,000	0,020	0,054
-511,043	13,041	0,112	-0,064
-510,029	-42,214	0,054	0,020
-509,014	226,498	-0,058	0,069
-507,999	133,901	0,045	-0,043
-506,985	30,673	0,058	0,036
-505,970	-64,394	0,062	-0,018
-504,956	-200,000	-0,030	-0,134
-503,941	5,059	-0,052	-0,028
-502,926	576,400	0,090	0,162
-501,912	10,419	0,128	-0,072
-500,897	248,314	0,029	-0,037
-499,883	462,344	-0,052	-0,085
-498,868	506,499	0,067	-0,116
-497,853	249,452	-0,104	-0,130
-496,839	800,000	-0,066	0,211
-495,824	346,054	0,090	0,131
-494,810	-8,241	0,040	-0,020
-493,795	-82,422	0,044	-0,010
-492,781	122,010	-0,084	-0,077
-491,766	-40,169	-0,093	-0,035
-490,751	246,748	0,067	-0,083
-489,737	-161,882	0,063	-0,002
-488,722	-35,596	-0,067	0,027
-487,708	309,067	0,026	0,036
-486,693	231,296	0,113	0,137
-485,678	39,469	-0,021	0,014
-484,664	19,724	-0,071	-0,042
-483,649	98,786	-0,156	0,133
-482,635	252,678	0,044	-0,056
-481,620	70,546	0,057	0,044
-480,605	800,000	-0,013	0,029
-479,591	-68,282	0,060	-0,017
-478,576	-200,000	0,006	0,024
-477,562	-200,000	-0,040	-0,206
-476,547	800,000	0,020	-0,048
-475,532	-59,484	0,039	-0,012
-474,518	-25,463	0,045	0,019
-473,503	-13,511	0,035	0,017
-472,489	695,165	0,080	0,154
-471,474	418,172	0,012	0,019
-470,459	217,959	-0,094	0,111
-469,445	-200,000	0,011	-0,069
-468,430	91,897	0,012	-0,010
-467,416	324,361	-0,037	-0,052
-466,401	-200,000	0,017	-0,069
-465,386	-36,088	0,103	-0,041
-464,372	-77,332	0,057	-0,014
-463,357	800,000	-0,036	-0,075
-462,343	366,385	0,017	-0,025
-461,328	800,000	-0,041	-0,128
-460,313	800,000	-0,023	0,055
-459,299	-0,954	0,067	0,035
-458,284	653,965	0,060	0,115
-457,270	-29,785	0,149	0,062
-456,255	18,984	-0,151	-0,089
-455,241	-200,000	-0,006	0,135
-454,226	-102,555	0,080	0,014
-453,211	800,000	-0,009	0,027
-452,197	715,133	-0,068	-0,133
-451,182	40,869	0,148	0,098
-450,168	17,607	-0,059	-0,035
-449,153	-200,000	0,012	0,108
-448,138	390,275	-0,049	-0,075
-447,124	-3,404	-0,127	-0,065
-446,109	234,526	0,080	-0,097
-445,095	-63,979	0,041	0,012
-444,080	800,000	0,107	0,249
-443,065	194,521	0,082	0,091
-442,051	663,716	0,052	-0,099
-441,036	114,977	-0,125	-0,112
-440,022	314,464	-0,040	-0,056
-439,007	-30,938	0,017	0,007
-437,992	800,000	0,063	0,163
-436,978	-200,000	0,033	0,163
-435,963	-200,000	0,014	0,110
-434,949	760,712	0,097	0,194
-433,934	-18,522	-0,062	0,028
-432,919	-200,000	0,017	-0,097
-431,905	-116,957	0,106	0,014
-430,890	-200,000	-0,014	0,163
-429,876	51,043	-0,088	0,061
-428,861	10,440	0,102	0,057
-427,846	77,748	-0,045	0,035
-426,832	397,598	-0,025	-0,039
-425,817	-87,638	0,040	0,009
-424,803	-200,000	0,002	-0,031
-423,788	-7,490	0,118	0,059
-422,773	-200,000	-0,011	0,229
-421,759	350,509	0,050	0,074
-420,744	-51,725	-0,062	0,021
-419,730	787,601	0,038	0,076
-418,715	12,642	-0,129	-0,073
-417,701	-45,409	0,199	0,072
-416,686	-200,000	-0,009	0,062
-415,671	-200,000	0,021	0,113
-414,657	6,681	0,037	0,020
-413,642	175,390	0,054	0,058
-412,628	-150,140	-0,157	-0,009
-411,613	-160,565	-0,024	0,001
-410,598	-45,879	0,137	-0,049
-409,584	72,756	0,070	0,053
-408,569	-200,000	-0,008	0,068
-407,555	-134,581	-0,172	0,015
-406,540	211,560	0,054	0,062
-405,525	423,073	-0,066	0,104
-404,511	-200,000	-0,011	-0,105
-403,496	-69,909	-0,160	-0,044
-402,482	-108,182	-0,073	0,012
-401,467	-68,954	0,040	0,011
-400,452	-97,238	0,046	-0,009
-399,438	-200,000	0,012	-0,049
-398,423	-33,668	-0,049	0,020
-397,409	-200,000	-0,041	-0,000
-396,394	-157,421	-0,141	0,006
-395,379	106,321	-0,110	-0,096
-394,365	-200,000	0,013	-0,145
-393,350	53,461	0,106	-0,075
-392,336	-78,822	0,068	0,017
-391,321	-40,559	-0,139	-0,053
-390,306	50,129	0,064	0,045
-389,292	800,000	-0,047	0,099
-388,277	800,000	-0,023	0,047
-387,263	800,000	0,015	-0,041
-386,248	800,000	-0,067	-0,212
-385,233	-46,644	0,088	0,031
-384,219	-200,000	0,024	-0,079
-383,204	-51,734	-0,004	0,001
-382,190	-200,000	0,007	0,023
-381,175	185,304	0,031	-0,033
-380,160	-200,000	-0,046	0,181
-379,146	165,031	0,064	0,067
-378,131	45,315	0,100	0,068
-377,117	-152,879	-0,046	0,002
-376,102	33,436	-0,070	-0,044
-375,088	-8,947	0,132	-0,065
-374,073	-94,109	-0,116	0,023
-373,058	-49,281	0,216	0,075
-372,044	-200,000	-0,006	0,063
-371,029	800,000	0,030	0,072
-370,015	-200,000	-0,002	0,103
-369,000	-173,419	0,043	0,001
-367,985	-200,000	0,003	-0,035
-366,971	264,424	-0,090	-0,115
-365,956	-103,251	0,089	0,015
-364,942	8,690	-0,028	-0,015
-363,927	-74,983	-0,115	0,030
-362,912	-200,000	0,019	-0,130
-361,898	-131,531	0,067	0,006
-360,883	-200,000	-0,036	-0,181
-359,869	800,000	0,059	-0,153
-358,854	-200,000	-0,007	-0,140
-357,839	19,354	0,060	-0,035
-356,825	104,576	0,042	0,036
-355,810	328,977	-0,009	0,013
-354,796	188,624	-0,061	-0,067
-353,781	155,945	0,099	-0,100
-352,766	-140,097	-0,087	-0,007
-351,752	21,325	-0,020	0,012
-350,737	159,995	0,097	0,099
-349,723	-8,173	0,048	-0,023
-348,708	75,180	0,049	0,038
-347,693	15,707	-0,015	-0,009
-346,679	800,000	-0,019	0,042
-345,664	-200,000	0,001	0,067
-344,650	-200,000	0,006	-0,032
-343,635	-42,648	0,049	-0,018
-342,620	335,006	0,065	-0,092
-341,606	-121,442	0,096	-0,012
-340,591	467,446	-0,022	0,037
-339,577	277,536	0,057	-0,074
-338,562	800,000	-0,060	-0,150
-337,548	263,527	-0,101	0,128
-336,533	268,057	0,075	-0,097
-335,518	-77,679	-0,130	-0,033
-334,504	-200,000	-0,004	0,060
-333,489	663,508	0,006	0,011
-332,475	-78,007	-0,124	0,031
-331,460	55,795	0,089	0,063
-330,445	35,038	0,060	0,038
-329,431	-200,000	-0,001	-0,045
-328,416	30,397	0,151	0,094
-327,402	-191,475	0,098	0,001
-326,387	19,105	0,087	-0,051
-325,372	45,660	0,119	0,080
-324,358	2,090	-0,075	0,040
-323,343	-121,070	-0,075	-0,009
-322,329	157,125	0,073	0,074
-321,314	-89,848	0,055	-0,012
-320,299	93,080	-0,081	-0,067
-319,285	-30,691	0,082	0,034
-318,270	-127,248	-0,080	0,008
-317,256	-200,000	0,011	-0,068
-316,241	800,000	-0,018	0,050
-315,226	52,319	-0,082	-0,057
-314,212	-200,000	0,007	0,041
-313,197	399,178	-0,044	-0,067
-312,183	210,693	0,041	0,048
-311,168	140,165	-0,055	-0,054
-310,153	-200,000	-0,013	-0,050
-309,139	-200,000	0,019	-0,099
-308,124	27,351	-0,054	0,033
-307,110	-73,809	0,080	0,021
-306,095	193,279	-0,098	0,109
-305,080	26,427	-0,086	0,052
-304,066	76,798	-0,068	0,053
-303,051	-67,327	-0,095	-0,027
-302,037	782,237	-0,037	-0,074
-301,022	-200,000	0,029	-0,114
-300,008	-20,627	0,092	0,041
-298,993	397,090	0,025	-0,039
-297,978	64,075	-0,104	-0,076
-296,964	56,538	0,069	0,049
-295,949	244,386	-0,093	-0,114
-294,935	-200,000	0,007	-0,122
-293,920	-200,000	-0,034	-0,150
-292,905	329,344	0,032	0,046
-291,891	-82,683	0,110	-0,026
-290,876	-200,000	-0,013	0,083
-289,862	-200,000	-0,026	0,113
-288,847	-156,351	-0,148	0,007
-287,832	-64,750	-0,063	-0,019
-286,818	-200,000	0,002	-0,164
-285,803	-21,939	-0,021	0,009
-284,789	69,184	0,095	0,071
-283,774	0,362	-0,008	-0,004
-282,759	141,996	-0,113	0,110
-281,745	-165,815	-0,020	0,001
-280,730	48,265	-0,038	-0,026
-279,716	514,254	0,050	0,086
-278,701	277,027	-0,059	0,077
-277,686	544,614	-0,080	0,141
-276,672	-8,389	-0,042	0,021
-275,657	32,882	0,021	-0,013
-274,643	136,292	-0,129	-0,123
-273,628	800,000	0,045	-0,121
-272,613	419,083	0,069	-0,108
-271,599	-200,000	0,020	0,069
-270,584	800,000	0,045	0,135
-269,570	-200,000	-0,021	0,098
-268,555	261,704	0,040	-0,051
-267,540	-200,000	-0,026	0,103
-266,526	800,000	-0,031	-0,081
-265,511	800,000	0,024	0,059
-264,497	-76,794	0,161	-0,041
-263,482	-200,000	-0,041	0,171
-262,467	-200,000	-0,041	0,184
-261,453	150,002	0,037	0,036
-260,438	-43,917	-0,087	-0,032
-259,424	38,756	0,017	-0,011
-258,409	-200,000	-0,018	-0,095
-257,395	143,604	0,030	-0,029
-256,380	-94,857	0,160	-0,031
-255,365	683,214	-0,019	0,036
-254,351	800,000	-0,030	-0,077
-253,336	424,278	-0,018	0,028
-252,322	-200,000	0,024	-0,116
-251,307	-200,000	-0,063	-0,223
-250,292	800,000	-0,055	-0,122
-249,278	-19,010	0,123	0,056
-248,263	361,080	-0,043	0,063
-247,249	-200,000	-0,022	0,085
-246,234	88,162	-0,050	0,041
-245,219	-28,831	0,080	-0,033
-244,205	800,000	0,048	-0,128
-243,190	-200,000	-0,005	-0,017
-242,176	-132,505	0,125	-0,012
-241,161	800,000	0,015	-0,037
-240,146	-3,616	-0,057	0,029
-239,132	181,438	0,048	0,051
-238,117	177,547	0,029	0,031
-237,103	800,000	-0,013	-0,033
-236,088	49,488	-0,035	-0,024
-235,073	-200,000	0,024	0,082
-234,059	81,602	0,075	0,059
-233,044	42,165	-0,083	0,055
-232,030	79,460	-0,040	0,032
-231,015	-168,608	-0,058	0,002
-230,000	-200,000	-0,004	-0,126
-228,986	-65,718	-0,071	0,020
-227,971	197,860	0,080	0,090
-226,957	-200,000	0,009	0,115
-225,942	-43,811	0,061	0,022
-224,927	800,000	0,020	0,057
-223,913	800,000	-0,074	0,181
-222,898	-200,000	-0,015	-0,133
-221,884	-200,000	0,019	-0,117
-220,869	72,893	0,022	0,017
-219,855	-105,484	0,101	0,017
-218,840	-63,030	-0,038	-0,011
-217,825	252,376	0,085	-0,106
-216,811	800,000	-0,026	-0,055
-215,796	133,337	-0,056	0,053
-214,782	800,000	-0,062	-0,160
-213,767	-200,000	0,007	-0,074
-212,752	-123,199	-0,102	-0,012
-211,738	-200,000	0,003	-0,097
-210,723	546,095	0,047	0,083
-209,709	800,000	-0,060	-0,130
-208,694	-60,939	0,163	-0,050
-207,679	318,628	-0,097	-0,134
-206,665	507,934	-0,061	-0,104
-205,650	213,272	0,080	0,092
-204,636	-25,530	0,023	-0,010
-203,621	151,876	-0,086	0,086
-202,606	-74,502	0,056	-0,015
-201,592	112,251	-0,078	-0,069
-200,577	-46,728	0,065	-0,023
-199,563	65,706	0,056	0,041
-198,548	5,751	0,062	-0,033
-197,533	-182,339	0,151	-0,002
-196,519	47,622	0,089	-0,060
-195,504	8,771	-0,082	-0,045
-194,490	618,458	-0,056	-0,102
-193,475	-200,000	0,021	0,112
-192,460	-78,513	0,070	-0,017
-191,446	5,017	-0,128	-0,068
-190,431	360,216	0,125	0,182
-189,417	11,157	-0,051	0,029
-188,402	142,973	0,087	0,084
-187,387	-96,524	-0,133	-0,025
-186,373	-52,981	0,168	-0,056
-185,358	69,479	-0,069	-0,051
-184,344	-59,711	0,105	-0,033
-183,329	-77,734	0,084	-0,021
-182,315	-5,679	-0,039	-0,019
-181,300	-200,000	-0,028	-0,091
-180,285	109,643	-0,021	-0,019
-179,271	800,000	-0,046	-0,097
-178,256	113,445	-0,041	0,036
-177,242	-31,075	0,144	-0,059
-176,227	136,618	-0,103	-0,098
-175,212	234,990	0,049	-0,059
-174,198	-200,000	-0,027	-0,091
-173,183	800,000	-0,027	0,060
-172,169	800,000	-0,016	0,045
-171,154	-200,000	0,024	0,080
-170,139	800,000	-0,040	-0,090
-169,125	-200,000	0,017	0,115
-168,110	276,178	-0,044	0,057
-167,096	-50,024	-0,138	-0,047
-166,081	-200,000	0,027	-0,102
-165,066	-200,000	0,025	-0,097
-164,052	87,291	-0,130	-0,105
-163,037	320,812	0,028	0,039
-162,023	-37,436	-0,050	-0,019
-161,008	433,667	0,013	0,020
-159,993	-79,520	-0,161	-0,039
-158,979	120,258	-0,102	-0,092
-157,964	-200,000	-0,001	-0,094
-156,950	-113,093	-0,105	-0,015
-155,935	545,729	0,064	-0,111
-154,920	-200,000	0,002	0,095
-153,906	280,970	-0,044	-0,057
-152,891	11,846	0,025	0,014
-151,877	-75,132	0,114	-0,029
-150,862	-200,000	-0,002	-0,022
-149,847	-200,000	-0,036	-0,116
-148,833	95,601	-0,022	0,019
-147,818	-200,000	-0,012	0,062
-146,804	-79,663	0,211	-0,051
-145,789	-94,639	0,145	0,028
-144,775	800,000	-0,025	0,052
-143,760	-200,000	-0,001	-0,025
-142,745	-200,000	-0,003	-0,039
-141,731	49,177	0,089	-0,061
-140,716	-200,000	-0,010	0,065
-139,702	-200,000	0,034	0,140
-138,687	-154,854	-0,157	-0,007
-137,672	-200,000	0,005	0,038
-136,658	426,312	-0,055	-0,087
-135,643	-200,000	-0,022	-0,151
-134,629	-88,417	-0,076	0,016
-133,614	-200,000	0,010	0,194
-132,599	-45,143	0,053	-0,019
-131,585	800,000	-0,007	0,017
-130,570	-200,000	-0,017	-0,079
-129,556	86,397	0,007	0,006
-128,541	-200,000	0,002	-0,148
-127,526	670,020	0,022	0,042
-126,512	239,307	-0,075	-0,091
-125,497	-200,000	0,023	-0,077
-124,483	-10,211	0,036	0,017
-123,468	-17,331	-0,106	-0,048
-122,453	-200,000	0,003	-0,086
-121,439	234,181	-0,024	0,029
-120,424	-96,280	-0,036	0,007
-119,410	-200,000	0,019	-0,064
-118,395	-200,000	0,042	0,175
