DTS Sentinel unit serial number:	SN410029Multiplexer serial number:	ORYXHardware model number:	OX2-SRSoftware version number:	ORYX F/W v4,00 Oryx Data Collector v3.7.2.0data status	okinstallation	B4 Nyhavnadifferential loss correction	single-endedforward channel	channel 2reverse channel	N/Adate	2023/12/15time	20:55:13forward acquisition time	300,00reverse acquisition time	0,00gamma	499,1914k internal	0,3134k external	0,3134temperature offset calibration	1,0000default loss term (dB/km)	0,3820temperature slope calibration	1,0000multiplexer offset coefficient	1,0000multiplexer slope coefficient	1,0000fibre end	0,00T internal ref (°C)	20,79T ext. ref 1 (°C)	6,20T ext. ref 2 (°C)	6,37length (m)	temperature (°C)	Stokes	anti-Stokes-744,400	260,360	-0,049	-0,063
-743,385	47,438	-0,244	0,169
-742,371	8,943	0,081	0,045
-741,356	-142,512	-0,282	-0,020
-740,342	156,636	0,084	0,086
-739,327	-88,179	-0,174	0,038
-738,312	-200,000	-0,027	-0,110
-737,298	32,437	-0,185	0,119
-736,283	-98,061	0,032	-0,006
-735,269	76,997	-0,233	0,184
-734,254	-152,125	-0,092	0,005
-733,239	64,883	-0,317	-0,237
-732,225	13,706	0,115	-0,066
-731,210	-58,020	0,147	-0,047
-730,196	740,584	-0,012	0,025
-729,181	800,000	-0,039	0,094
-728,167	-130,107	-0,133	0,013
-727,152	-116,650	-0,074	0,010
-726,137	-200,000	-0,001	-0,011
-725,123	404,194	-0,040	-0,063
-724,108	-109,665	-0,139	-0,022
-723,094	-200,000	-0,032	-0,122
-722,079	274,145	-0,079	-0,104
-721,064	-200,000	-0,033	-0,216
-720,050	14,837	0,018	-0,011
-719,035	21,867	-0,097	-0,058
-718,021	-104,190	-0,053	0,009
-717,006	419,230	-0,088	-0,141
-715,991	147,599	-0,123	-0,123
-714,977	800,000	-0,084	-0,180
-713,962	-46,712	-0,112	0,041
-712,948	85,962	0,053	-0,043
-711,933	-200,000	-0,011	-0,066
-710,918	-32,694	-0,023	-0,009
-709,904	5,706	-0,066	0,036
-708,889	-35,379	-0,071	0,028
-707,875	134,232	-0,098	-0,094
-706,860	-112,220	0,043	0,006
-705,845	-200,000	-0,004	0,095
-704,831	-200,000	-0,013	0,049
-703,816	78,089	-0,041	-0,032
-702,802	11,780	-0,089	0,051
-701,787	-52,164	-0,123	-0,042
-700,772	146,160	-0,056	0,056
-699,758	800,000	0,055	-0,115
-698,743	90,925	0,053	0,044
-697,729	-96,520	-0,122	0,024
-696,714	800,000	-0,039	0,090
-695,699	-153,648	-0,132	0,007
-694,685	-200,000	-0,082	0,278
-693,670	-101,852	-0,056	0,010
-692,656	-200,000	0,002	-0,024
-691,641	667,820	0,022	0,042
-690,627	-30,627	-0,031	-0,013
-689,612	-17,906	-0,026	0,012
-688,597	0,876	-0,039	0,020
-687,583	-36,420	0,202	-0,080
-686,568	-110,896	-0,194	-0,029
-685,554	262,204	-0,098	-0,126
-684,539	-78,311	0,106	0,027
-683,524	82,677	0,165	0,133
-682,510	173,753	0,067	0,072
-681,495	369,952	-0,041	0,062
-680,481	171,534	-0,070	-0,075
-679,466	471,711	-0,056	-0,094
-678,451	800,000	0,006	0,019
-677,437	499,057	0,024	-0,041
-676,422	-200,000	-0,006	-0,070
-675,408	187,573	0,028	0,031
-674,393	-157,767	-0,118	0,005
-673,378	-45,541	0,096	0,035
-672,364	-23,341	-0,089	0,039
-671,349	106,106	-0,081	0,071
-670,335	-69,917	-0,070	-0,020
-669,320	-115,316	0,066	-0,009
-668,305	5,453	0,162	0,088
-667,291	305,778	-0,056	0,077
-666,276	-200,000	0,026	-0,105
-665,262	-200,000	-0,011	-0,096
-664,247	46,752	-0,107	0,073
-663,232	-10,087	-0,132	-0,065
-662,218	116,075	0,041	0,037
-661,203	-200,000	-0,003	-0,093
-660,189	800,000	0,054	-0,170
-659,174	638,926	-0,051	-0,096
-658,159	-200,000	0,003	0,056
-657,145	64,953	-0,052	-0,039
-656,130	519,277	0,046	-0,080
-655,116	-36,222	0,051	0,020
-654,101	-200,000	-0,008	0,120
-653,086	800,000	-0,008	0,025
-652,072	209,754	-0,038	0,045
-651,057	-200,000	0,016	0,100
-650,043	800,000	0,041	-0,090
-649,028	-121,439	0,060	0,007
-648,014	-200,000	-0,008	0,037
-646,999	800,000	-0,017	0,045
-645,984	9,123	-0,051	0,028
-644,970	-200,000	-0,007	-0,033
-643,955	280,484	0,083	-0,110
-642,941	-200,000	0,044	-0,167
-641,926	195,932	-0,104	-0,117
-640,911	-91,746	-0,061	0,013
-639,897	95,619	0,037	0,031
-638,882	643,990	0,034	0,064
-637,868	8,780	0,083	-0,046
-636,853	-92,682	-0,106	0,022
-635,838	800,000	0,037	-0,099
-634,824	-52,068	-0,074	-0,025
-633,809	-22,821	0,048	0,021
-632,795	800,000	-0,023	0,073
-631,780	800,000	0,041	0,096
-630,765	-200,000	-0,011	-0,056
-629,751	-29,231	-0,012	-0,005
-628,736	800,000	0,043	-0,123
-627,722	66,890	0,080	-0,060
-626,707	239,719	0,056	-0,069
-625,692	-75,185	-0,105	0,027
-624,678	-200,000	-0,003	0,060
-623,663	593,957	-0,045	0,082
-622,649	-200,000	-0,146	-0,000
-621,634	800,000	0,051	-0,131
-620,619	-200,000	-0,022	-0,231
-619,605	10,919	0,105	0,059
-618,590	35,075	0,097	0,063
-617,576	-192,241	0,059	-0,000
-616,561	1,531	0,030	-0,016
-615,546	-151,465	-0,031	-0,002
-614,532	800,000	-0,047	0,118
-613,517	44,837	-0,023	0,015
-612,503	-200,000	-0,179	0,000
-611,488	53,961	-0,105	0,075
-610,474	211,271	-0,026	-0,030
-609,459	313,917	-0,056	0,078
-608,444	7,280	-0,153	0,084
-607,430	-5,939	0,102	0,051
-606,415	80,942	0,007	0,006
-605,401	404,166	0,058	-0,091
-604,386	42,536	0,103	0,069
-603,371	113,916	-0,072	0,065
-602,357	-200,000	-0,015	-0,147
-601,342	-132,919	-0,128	0,012
-600,328	-85,759	0,042	-0,010
-599,313	-200,000	0,021	-0,099
-598,298	-136,758	0,066	0,006
-597,284	-86,479	0,083	-0,019
-596,269	389,323	0,089	0,137
-595,255	-35,506	0,109	0,043
-594,240	-200,000	0,010	0,081
-593,225	-27,914	0,082	-0,035
-592,211	313,604	-0,050	-0,069
-591,196	-7,299	-0,039	0,020
-590,182	800,000	0,025	0,069
-589,167	-200,000	0,010	0,067
-588,152	226,099	0,122	0,146
-587,138	172,005	-0,052	0,055
-586,123	318,475	-0,107	-0,150
-585,109	109,861	-0,037	0,033
-584,094	-200,000	0,018	0,128
-583,079	412,911	0,060	0,094
-582,065	-176,065	-0,095	-0,002
-581,050	-16,767	0,072	0,034
-580,036	-132,547	-0,129	0,012
-579,021	-173,893	-0,103	0,002
-578,006	-200,000	0,035	-0,134
-576,992	197,004	-0,037	0,042
-575,977	319,401	0,034	0,048
-574,963	175,859	-0,053	-0,057
-573,948	-200,000	0,002	-0,038
-572,934	-49,996	0,133	-0,046
-571,919	-9,640	-0,103	0,050
-570,904	-200,000	-0,022	0,070
-569,890	-200,000	0,007	-0,109
-568,875	125,954	0,128	0,120
-567,861	800,000	0,014	0,033
-566,846	-200,000	-0,038	-0,171
-565,831	-193,588	0,049	-0,000
-564,817	132,160	-0,112	0,106
-563,802	275,912	-0,058	-0,076
-562,788	400,367	-0,067	-0,104
-561,773	547,767	-0,005	-0,009
-560,758	-66,287	0,035	-0,010
-559,744	-39,648	0,151	-0,058
-558,729	-200,000	0,000	0,118
-557,715	-200,000	-0,015	-0,090
-556,700	189,603	-0,092	0,102
-555,685	-61,640	-0,128	-0,039
-554,671	125,230	0,141	-0,131
-553,656	-63,876	0,041	-0,012
-552,642	576,296	-0,053	0,096
-551,627	-145,596	0,052	0,003
-550,612	9,453	0,055	-0,031
-549,598	800,000	-0,032	-0,084
-548,583	800,000	0,015	-0,038
-547,569	-97,555	-0,095	-0,018
-546,554	262,669	0,076	-0,098
-545,539	-200,000	0,001	-0,099
-544,525	-53,068	-0,110	-0,037
-543,510	757,184	-0,032	0,064
-542,496	304,404	-0,093	-0,128
-541,481	-200,000	-0,001	-0,014
-540,466	29,395	-0,092	0,057
-539,452	-200,000	0,089	-0,000
-538,437	35,080	-0,061	-0,039
-537,423	-200,000	-0,000	-0,037
-536,408	83,024	-0,053	-0,042
-535,393	-200,000	-0,005	-0,020
-534,379	-200,000	0,013	0,053
-533,364	-34,325	-0,094	-0,038
-532,350	62,297	0,049	0,036
-531,335	-44,292	-0,147	0,054
-530,321	-82,996	0,057	-0,013
-529,306	389,927	-0,088	0,135
-528,291	-35,036	-0,170	-0,068
-527,277	800,000	0,029	-0,061
-526,262	-6,981	-0,110	-0,055
-525,248	-200,000	-0,037	-0,166
-524,233	761,924	0,039	-0,079
-523,218	414,670	0,068	-0,107
-522,204	-73,528	0,019	0,005
-521,189	-35,432	0,052	-0,021
-520,175	-200,000	-0,024	-0,091
-519,160	421,274	-0,063	-0,100
-518,145	91,780	-0,093	-0,077
-517,131	-83,932	0,093	0,022
-516,116	800,000	-0,029	0,086
-515,102	140,950	-0,025	0,025
-514,087	101,859	-0,076	0,065
-513,072	-89,700	-0,112	0,024
-512,058	65,996	0,109	-0,081
-511,043	-200,000	-0,004	0,014
-510,029	-200,000	-0,003	0,131
-509,014	129,400	-0,096	0,091
-507,999	622,341	0,020	-0,036
-506,985	-11,899	-0,087	-0,042
-505,970	-200,000	0,002	0,043
-504,956	-82,395	0,037	0,009
-503,941	-200,000	-0,005	0,149
-502,926	-114,364	0,044	0,006
-501,912	95,736	0,050	0,042
-500,897	366,742	0,026	-0,039
-499,883	92,700	-0,073	0,060
-498,868	95,473	-0,028	0,024
-497,853	123,640	0,046	-0,043
-496,839	294,636	0,020	0,027
-495,824	61,288	0,073	-0,053
-494,810	800,000	0,067	0,159
-493,795	-65,839	0,063	-0,019
-492,781	800,000	0,052	-0,111
-491,766	-200,000	-0,006	-0,101
-490,751	127,113	-0,140	-0,131
-489,737	298,537	0,083	0,113
-488,722	122,853	-0,017	0,015
-487,708	119,715	0,084	0,077
-486,693	-200,000	-0,010	0,132
-485,678	500,594	-0,055	0,094
-484,664	-67,911	0,104	0,030
-483,649	139,651	-0,042	0,041
-482,635	89,341	-0,050	0,041
-481,620	-200,000	0,015	0,080
-480,605	342,195	-0,071	0,102
-479,591	-200,000	-0,020	0,130
-478,576	549,849	-0,033	0,058
-477,562	-136,150	0,082	-0,007
-476,547	241,042	-0,060	-0,074
-475,532	-28,725	0,132	-0,056
-474,518	469,849	-0,074	0,122
-473,503	-41,724	-0,009	-0,003
-472,489	-18,451	0,081	-0,037
-471,474	-50,340	0,086	-0,030
-470,459	262,157	-0,091	0,117
-469,445	-200,000	0,009	-0,093
-468,430	125,160	0,066	-0,061
-467,416	-29,178	-0,066	0,028
-466,401	-21,749	-0,149	0,067
-465,386	-60,519	0,196	0,061
-464,372	-200,000	-0,164	-0,000
-463,357	64,734	0,038	0,028
-462,343	193,226	-0,039	0,044
-461,328	132,767	0,031	-0,029
-460,313	59,517	-0,038	-0,027
-459,299	-9,147	0,046	0,023
-458,284	-200,000	-0,015	-0,068
-457,270	-200,000	-0,028	0,195
-456,255	-94,445	-0,209	0,041
-455,241	-91,473	-0,119	-0,025
-454,226	416,912	-0,042	-0,065
-453,211	-200,000	0,019	0,097
-452,197	-200,000	-0,022	0,089
-451,182	-106,306	0,193	-0,031
-450,168	-200,000	0,017	0,057
-449,153	603,783	0,078	-0,143
-448,138	-51,607	-0,083	-0,028
-447,124	-95,252	-0,106	-0,021
-446,109	-200,000	-0,005	-0,044
-445,095	-69,839	-0,068	-0,019
-444,080	-200,000	0,033	0,106
-443,065	800,000	0,039	0,098
-442,051	-66,512	0,058	-0,017
-441,036	6,326	-0,085	-0,046
-440,022	37,267	-0,142	-0,092
-439,007	327,403	-0,084	-0,119
-437,992	239,880	-0,065	-0,079
-436,978	800,000	-0,050	0,131
-435,963	19,509	0,100	0,059
-434,949	28,619	0,047	-0,029
-433,934	2,097	-0,067	0,035
-432,919	716,306	-0,073	-0,142
-431,905	-87,287	-0,098	-0,022
-430,890	-138,722	-0,055	0,004
-429,876	-23,790	0,138	0,060
-428,861	-200,000	-0,013	0,046
-427,846	549,321	-0,078	0,137
-426,832	8,517	-0,079	-0,043
-425,817	800,000	0,053	-0,110
-424,803	800,000	0,046	-0,139
-423,788	237,870	0,126	-0,153
-422,773	-87,707	0,097	-0,021
-421,759	-200,000	0,000	0,136
-420,744	594,955	-0,064	0,117
-419,730	-200,000	-0,012	-0,051
-418,715	800,000	0,033	-0,072
-417,701	262,557	0,024	-0,030
-416,686	800,000	0,031	0,076
-415,671	-63,079	-0,056	0,017
-414,657	234,917	-0,070	0,084
-413,642	445,503	-0,080	-0,130
-412,628	-16,814	-0,067	-0,031
-411,613	800,000	-0,063	-0,147
-410,598	265,209	0,058	0,075
-409,584	-125,924	-0,072	0,008
-408,569	-200,000	-0,017	0,105
-407,555	410,639	0,103	0,160
-406,540	584,315	0,057	0,103
-405,525	267,772	-0,142	0,183
-404,511	-200,000	-0,025	-0,105
-403,496	-35,631	0,086	-0,034
-402,482	-136,017	0,188	0,016
-401,467	295,256	0,052	0,070
-400,452	-200,000	0,020	-0,064
-399,438	-73,408	-0,124	0,033
-398,423	-200,000	-0,017	-0,104
-397,409	800,000	-0,044	-0,120
-396,394	2,920	-0,071	0,038
-395,379	-136,218	0,097	0,008
-394,365	-200,000	0,001	0,044
-393,350	800,000	0,027	-0,062
-392,336	800,000	0,020	0,061
-391,321	96,936	0,034	-0,028
-390,306	116,325	-0,063	-0,057
-389,292	-200,000	0,014	-0,059
-388,277	8,717	-0,079	-0,044
-387,263	-55,094	0,116	0,038
-386,248	-200,000	-0,009	0,036
-385,233	111,203	-0,032	0,029
-384,219	41,886	-0,069	-0,046
-383,204	294,720	-0,095	-0,127
-382,190	-200,000	-0,006	0,165
-381,175	166,631	0,054	0,056
-380,160	-200,000	-0,000	0,006
-379,146	342,189	0,039	-0,057
-378,131	-200,000	-0,010	0,057
-377,117	-193,872	0,131	0,001
-376,102	-200,000	0,005	-0,100
-375,088	-200,000	-0,010	-0,171
-374,073	3,593	0,013	-0,007
-373,058	45,900	0,057	-0,039
-372,044	-117,027	0,064	0,008
-371,029	-39,838	0,080	0,030
-370,015	630,803	0,059	0,111
-369,000	-200,000	0,003	-0,131
-367,985	131,913	-0,090	-0,085
-366,971	-200,000	-0,017	0,117
-365,956	-200,000	-0,001	-0,045
-364,942	104,847	-0,035	-0,030
-363,927	172,924	0,091	0,096
-362,912	-200,000	-0,001	-0,115
-361,898	-124,076	0,054	0,006
-360,883	-200,000	-0,009	0,068
-359,869	-200,000	-0,020	-0,084
-358,854	150,182	0,174	0,173
-357,839	-138,751	-0,082	-0,006
-356,825	118,217	0,039	0,035
-355,810	732,552	-0,030	-0,059
-354,796	-181,314	-0,086	0,001
-353,781	7,007	0,033	-0,018
-352,766	701,013	-0,058	-0,113
-351,752	-200,000	-0,025	0,112
-350,737	-151,518	-0,042	-0,002
-349,723	-14,121	0,043	0,020
-348,708	-156,782	0,130	0,006
-347,693	-200,000	0,021	0,148
-346,679	282,388	0,046	0,060
-345,664	800,000	0,026	-0,077
-344,650	122,721	-0,070	0,064
-343,635	-71,796	0,035	0,009
-342,620	65,005	0,032	-0,024
-341,606	-200,000	0,010	-0,039
-340,591	49,821	-0,111	-0,076
-339,577	800,000	-0,006	0,014
-338,562	201,555	0,055	-0,062
-337,548	86,432	-0,116	0,093
-336,533	88,963	-0,057	-0,046
-335,518	113,790	-0,079	0,070
-334,504	409,084	-0,023	-0,035
-333,489	-200,000	-0,011	0,083
-332,475	-200,000	-0,016	-0,078
-331,460	-17,601	-0,039	0,018
-330,445	75,984	-0,018	0,014
-329,431	-157,277	-0,035	0,002
-328,416	42,110	0,080	0,053
-327,402	-78,690	0,135	-0,034
-326,387	-200,000	-0,003	0,017
-325,372	-200,000	0,020	-0,076
-324,358	9,557	-0,139	-0,077
-323,343	591,807	-0,091	-0,164
-322,329	17,567	0,094	0,054
-321,314	93,276	-0,099	0,082
-320,299	-42,102	0,076	0,028
-319,285	406,149	-0,007	-0,010
-318,270	-200,000	-0,004	-0,032
-317,256	-48,145	0,157	0,055
-316,241	240,745	0,086	-0,104
-315,226	-200,000	-0,031	-0,152
-314,212	-35,786	0,176	0,069
-313,197	166,052	-0,046	0,047
-312,183	800,000	-0,023	-0,048
-311,168	459,115	0,035	-0,058
-310,153	-200,000	-0,008	-0,105
-309,139	-200,000	-0,002	0,014
-308,124	-168,197	0,048	0,001
-307,110	631,641	0,010	-0,019
-306,095	800,000	0,079	0,251
-305,080	-200,000	0,085	0,000
-304,066	-200,000	-0,007	0,077
-303,051	9,744	-0,112	0,062
-302,037	564,490	-0,023	0,040
-301,022	222,133	-0,063	-0,074
-300,008	800,000	-0,006	0,018
-298,993	-200,000	-0,009	-0,062
-297,978	-169,126	0,109	-0,003
-296,964	1,919	-0,067	0,035
-295,949	55,030	-0,080	-0,056
-294,935	-147,882	0,053	0,003
-293,920	81,242	0,113	0,089
-292,905	15,512	0,059	0,034
-291,891	276,467	0,103	0,134
-290,876	220,424	0,038	0,045
-289,862	-93,906	-0,024	0,005
-288,847	92,179	-0,082	-0,068
-287,832	800,000	-0,029	0,070
-286,818	-200,000	-0,002	0,013
-285,803	-179,402	0,105	0,002
-284,789	295,699	-0,012	-0,016
-283,774	3,486	-0,093	-0,050
-282,759	-57,884	0,093	-0,029
-281,745	-30,975	-0,098	0,040
-280,730	-9,443	0,102	-0,049
-279,716	201,643	-0,052	0,059
-278,701	-30,584	0,026	0,011
-277,686	278,124	0,093	0,121
-276,672	-122,476	-0,133	0,016
-275,657	800,000	-0,057	-0,119
-274,643	-93,598	-0,097	0,019
-273,628	103,331	-0,100	-0,086
-272,613	-59,922	-0,083	-0,026
-271,599	227,988	0,059	-0,070
-270,584	-200,000	0,022	0,126
-269,570	-200,000	-0,017	0,063
-268,555	321,808	-0,057	-0,079
-267,540	-50,192	-0,071	0,024
-266,526	-200,000	-0,004	-0,147
-265,511	493,401	-0,025	-0,042
-264,497	-200,000	0,013	-0,121
-263,482	29,118	0,068	-0,042
-262,467	-112,397	0,052	-0,008
-261,453	156,325	0,092	0,093
-260,438	-71,406	-0,195	-0,053
-259,424	508,050	0,059	-0,100
-258,409	486,963	-0,054	0,091
-257,395	-77,836	0,076	-0,019
-256,380	-76,290	0,047	-0,012
-255,365	-8,700	0,085	0,041
-254,351	272,476	0,037	0,048
-253,336	800,000	-0,053	0,116
-252,322	307,764	-0,047	-0,064
-251,307	-43,699	0,055	0,020
-250,292	383,556	-0,024	0,037
-249,278	277,507	0,073	-0,095
-248,263	46,188	0,034	0,023
-247,249	364,945	0,070	-0,103
-246,234	-104,500	0,086	0,014
-245,219	-200,000	0,005	0,024
-244,205	517,996	-0,022	-0,038
-243,190	-64,964	-0,041	0,012
-242,176	557,140	-0,011	0,020
-241,161	-113,378	0,076	-0,011
-240,146	117,979	0,081	-0,073
-239,132	499,302	0,052	0,088
-238,117	208,725	-0,076	-0,087
-237,103	-73,372	-0,139	0,037
-236,088	255,493	0,072	0,090
-235,073	538,825	0,045	0,079
-234,059	74,864	0,073	-0,056
-233,044	-86,157	-0,007	0,002
-232,030	-90,169	0,047	0,010
-231,015	328,689	0,032	-0,044
-230,000	-180,991	0,089	-0,001
-228,986	255,372	0,095	0,119
-227,971	-200,000	-0,017	0,141
-226,957	-200,000	-0,033	0,153
-225,942	9,619	0,117	0,064
-224,927	-200,000	0,010	0,121
-223,913	-80,578	0,053	0,013
-222,898	-114,949	-0,057	0,008
-221,884	496,511	-0,042	-0,070
-220,869	179,871	0,047	-0,050
-219,855	691,322	0,036	0,070
-218,840	477,484	0,067	-0,111
-217,825	451,127	0,021	0,034
-216,811	611,059	0,041	-0,076
-215,796	-200,000	-0,042	-0,155
-214,782	-9,306	-0,069	0,033
-213,767	648,460	0,054	0,101
-212,752	-128,733	0,074	-0,008
-211,738	-200,000	0,002	0,143
-210,723	-41,279	-0,100	-0,037
-209,709	140,291	0,135	-0,130
-208,694	93,433	-0,108	-0,089
-207,679	12,748	-0,063	-0,035
-206,665	-137,736	0,078	0,006
-205,650	41,377	-0,014	-0,009
-204,636	307,049	0,062	0,085
-203,621	71,816	-0,057	0,043
-202,606	-200,000	0,015	0,063
-201,592	-131,125	-0,147	0,014
-200,577	-21,232	0,147	0,065
-199,563	-200,000	-0,017	0,096
-198,548	-103,932	0,077	0,013
-197,533	-200,000	0,004	0,047
-196,519	170,087	-0,022	-0,023
-195,504	-200,000	-0,001	-0,138
-194,490	137,656	-0,065	-0,062
-193,475	381,674	-0,072	0,108
-192,460	207,794	0,064	0,073
-191,446	-200,000	-0,018	0,101
-190,431	417,267	0,036	0,057
-189,417	-118,797	0,053	0,007
-188,402	-200,000	-0,016	0,079
-187,387	-111,352	-0,138	-0,020
-186,373	-200,000	0,004	-0,135
-185,358	119,996	0,046	-0,041
-184,344	-43,790	0,077	-0,028
-183,329	-200,000	-0,015	-0,094
-182,315	-23,804	0,177	0,077
-181,300	152,582	-0,061	-0,061
-180,285	-200,000	0,004	-0,064
-179,271	800,000	0,020	0,061
-178,256	-200,000	-0,002	-0,126
-177,242	-200,000	-0,002	-0,059
-176,227	-40,770	0,099	0,037
-175,212	501,047	0,041	-0,068
-174,198	714,131	-0,047	0,091
-173,183	800,000	-0,049	0,100
-172,169	34,111	0,046	0,029
-171,154	800,000	-0,059	-0,139
-170,139	-17,661	0,111	0,050
-169,125	217,256	-0,009	0,011
-168,110	-200,000	0,000	0,083
-167,096	-200,000	-0,020	-0,091
-166,081	211,623	-0,111	-0,127
-165,066	178,882	-0,081	-0,086
-164,052	-119,577	-0,118	0,015
-163,037	-88,049	0,123	-0,027
-162,023	64,385	0,041	0,030
-161,008	433,356	0,038	-0,060
-159,993	41,855	0,057	-0,037
-158,979	226,225	-0,079	-0,094
-157,964	800,000	0,033	-0,067
-156,950	-81,171	0,073	-0,017
-155,935	-200,000	-0,003	-0,020
-154,920	263,041	0,044	-0,055
-153,906	647,396	-0,037	0,069
-152,891	90,832	0,069	0,056
-151,877	800,000	0,051	-0,109
-150,862	0,421	-0,064	-0,033
-149,847	1,957	0,095	-0,050
-148,833	-200,000	0,024	0,000
-147,818	9,081	0,125	0,068
-146,804	1,258	-0,027	-0,014
-145,789	-49,315	0,049	0,017
-144,775	800,000	-0,033	-0,102
-143,760	-58,763	0,060	-0,019
-142,745	800,000	-0,033	-0,094
-141,731	125,112	0,138	0,127
-140,716	800,000	0,070	0,169
-139,702	610,885	0,062	0,113
-138,687	-200,000	0,001	0,142
-137,672	800,000	-0,048	-0,147
-136,658	-45,415	-0,079	0,028
-135,643	-54,608	-0,064	0,021
-134,629	-200,000	-0,002	-0,005
-133,614	700,805	-0,030	0,057
-132,599	-200,000	-0,007	0,042
-131,585	-200,000	0,006	-0,065
-130,570	121,043	-0,041	-0,037
-129,556	800,000	-0,046	0,099
-128,541	-13,754	-0,164	-0,077
-127,526	-200,000	0,006	0,096
-126,512	800,000	-0,024	-0,059
-125,497	-200,000	-0,005	0,017
-124,483	-200,000	-0,019	0,086
-123,468	-135,568	-0,156	0,013
-122,453	500,194	-0,073	0,122
-121,439	-59,359	0,043	-0,013
-120,424	-11,592	0,015	-0,007
-119,410	-33,018	0,105	-0,042
-118,395	800,000	-0,023	-0,049
