DTS Sentinel unit serial number:	SN410029Multiplexer serial number:	ORYXHardware model number:	OX2-SRSoftware version number:	ORYX F/W v4,00 Oryx Data Collector v3.7.2.0data status	okinstallation	B4 Nyhavnadifferential loss correction	single-endedforward channel	channel 2reverse channel	N/Adate	2023/12/16time	02:25:13forward acquisition time	300,00reverse acquisition time	0,00gamma	499,1914k internal	0,3128k external	0,3128temperature offset calibration	1,0000default loss term (dB/km)	0,3820temperature slope calibration	1,0000multiplexer offset coefficient	1,0000multiplexer slope coefficient	1,0000fibre end	0,00T internal ref (°C)	21,94T ext. ref 1 (°C)	7,12T ext. ref 2 (°C)	7,30length (m)	temperature (°C)	Stokes	anti-Stokes-744,400	-10,018	0,095	-0,047
-743,385	-73,779	-0,358	0,096
-742,371	193,004	0,092	0,103
-741,356	800,000	-0,058	0,139
-740,342	258,555	-0,041	0,053
-739,327	-37,107	-0,241	0,095
-738,312	-200,000	0,004	-0,057
-737,298	251,310	-0,112	0,141
-736,283	47,744	0,126	-0,088
-735,269	35,626	-0,191	0,125
-734,254	13,301	0,158	-0,091
-733,239	9,956	-0,376	-0,212
-732,225	-200,000	0,028	-0,111
-731,210	-49,353	0,073	0,026
-730,196	125,215	-0,037	0,035
-729,181	26,542	0,020	-0,013
-728,167	80,477	-0,067	0,054
-727,152	-26,115	-0,074	-0,032
-726,137	-81,770	-0,195	-0,047
-725,123	254,805	0,028	-0,036
-724,108	-140,392	-0,108	-0,008
-723,094	-21,159	-0,151	-0,068
-722,079	96,304	-0,091	-0,077
-721,064	205,811	0,067	0,078
-720,050	-200,000	-0,001	0,089
-719,035	61,915	-0,107	-0,079
-718,021	-200,000	0,018	0,071
-717,006	-15,151	-0,048	-0,023
-715,991	255,630	0,040	-0,051
-714,977	-200,000	0,037	-0,167
-713,962	27,759	0,034	-0,022
-712,948	380,565	0,084	0,128
-711,933	-146,109	-0,115	0,007
-710,918	-51,793	0,107	-0,037
-709,904	662,729	-0,046	-0,089
-708,889	-94,659	-0,130	-0,026
-707,875	-24,865	0,081	0,036
-706,860	-200,000	-0,021	0,123
-705,845	-200,000	-0,003	-0,014
-704,831	-24,154	-0,075	0,033
-703,816	-200,000	0,003	0,037
-702,802	-41,555	-0,143	0,054
-701,787	-200,000	0,021	0,082
-700,772	-137,702	0,098	0,008
-699,758	-59,864	-0,087	0,027
-698,743	244,694	0,112	0,140
-697,729	-200,000	-0,004	0,052
-696,714	800,000	0,029	-0,067
-695,699	516,385	-0,093	-0,162
-694,685	-156,953	-0,152	-0,007
-693,670	228,865	0,038	0,046
-692,656	-186,336	-0,007	0,000
-691,641	-102,612	-0,079	-0,014
-690,627	800,000	0,053	0,117
-689,612	28,076	0,066	0,041
-688,597	151,027	0,058	-0,058
-687,583	800,000	0,044	-0,118
-686,568	-44,850	-0,143	-0,053
-685,554	110,284	-0,111	-0,099
-684,539	26,346	-0,105	-0,065
-683,524	18,337	-0,088	-0,052
-682,510	58,763	0,045	-0,033
-681,495	-77,040	-0,213	0,055
-680,481	-134,111	-0,032	-0,003
-679,466	-139,475	-0,107	-0,008
-678,451	-44,471	-0,085	-0,031
-677,437	-200,000	0,032	0,000
-676,422	417,141	0,060	0,096
-675,408	18,891	-0,132	0,078
-674,393	-200,000	0,002	0,110
-673,378	768,798	0,039	0,080
-672,364	516,359	-0,044	-0,076
-671,349	-101,409	-0,032	-0,006
-670,335	-21,132	-0,032	0,015
-669,320	800,000	0,036	0,085
-668,305	73,359	0,022	0,017
-667,291	-148,180	-0,074	0,004
-666,276	18,440	-0,072	0,043
-665,262	675,871	0,058	-0,112
-664,247	510,764	-0,022	-0,038
-663,232	-70,830	-0,047	0,013
-662,218	273,024	0,028	0,037
-661,203	800,000	-0,020	-0,045
-660,189	-128,063	-0,193	-0,020
-659,174	-200,000	-0,042	-0,160
-658,159	-200,000	-0,014	-0,060
-657,145	-29,004	-0,147	0,062
-656,130	134,728	0,053	-0,051
-655,116	-153,404	-0,059	0,003
-654,101	147,916	0,058	0,058
-653,086	-134,167	-0,088	-0,008
-652,072	-200,000	-0,024	0,139
-651,057	-41,118	-0,091	-0,035
-650,043	750,156	0,051	-0,102
-649,028	163,915	0,046	0,048
-648,014	-200,000	0,022	0,090
-646,999	190,277	-0,051	0,057
-645,984	302,866	0,050	-0,069
-644,970	41,091	-0,098	-0,065
-643,955	130,591	-0,069	-0,065
-642,941	-72,932	0,064	-0,017
-641,926	161,314	-0,036	-0,038
-640,911	-41,283	-0,104	0,040
-639,897	800,000	0,066	0,152
-638,882	120,369	0,039	0,036
-637,868	268,725	0,045	0,059
-636,853	-200,000	-0,005	-0,029
-635,838	-41,716	0,109	0,041
-634,824	89,791	-0,064	0,053
-633,809	389,547	0,010	-0,016
-632,795	-200,000	-0,006	0,066
-631,780	-84,193	0,192	0,045
-630,765	124,075	-0,087	0,081
-629,751	50,628	-0,088	-0,062
-628,736	292,816	-0,041	-0,055
-627,722	-200,000	0,006	-0,092
-626,707	663,914	-0,017	-0,034
-625,692	17,721	-0,030	-0,018
-624,678	800,000	0,010	0,021
-623,663	109,731	-0,081	-0,072
-622,649	-74,755	-0,039	0,010
-621,634	-93,221	-0,125	0,026
-620,619	460,892	-0,036	-0,060
-619,605	-177,130	0,148	-0,003
-618,590	-200,000	0,020	0,088
-617,576	800,000	-0,027	0,068
-616,561	-200,000	-0,035	-0,237
-615,546	-56,743	-0,061	-0,020
-614,532	-45,679	-0,146	-0,053
-613,517	-63,065	-0,045	0,014
-612,503	81,007	-0,051	-0,041
-611,488	800,000	-0,020	0,043
-610,474	109,481	-0,048	0,042
-609,459	-200,000	0,024	0,108
-608,444	-200,000	-0,005	-0,075
-607,430	-200,000	-0,025	-0,158
-606,415	45,358	-0,090	0,061
-605,401	46,127	0,029	-0,020
-604,386	-200,000	0,003	0,012
-603,371	-107,105	0,025	-0,004
-602,357	-200,000	-0,005	0,115
-601,342	-145,182	-0,156	0,010
-600,328	99,359	0,106	0,091
-599,313	5,709	0,012	-0,007
-598,298	-200,000	-0,004	-0,029
-597,284	523,355	-0,043	0,075
-596,269	-15,125	-0,034	0,016
-595,255	249,197	0,065	0,082
-594,240	-56,548	0,088	-0,029
-593,225	204,274	-0,086	0,099
-592,211	137,219	-0,068	-0,066
-591,196	-200,000	-0,005	0,030
-590,182	-87,977	0,144	-0,032
-589,167	800,000	0,071	0,151
-588,152	45,346	-0,115	0,079
-587,138	157,448	-0,046	-0,048
-586,123	319,483	0,068	-0,096
-585,109	-40,174	-0,087	-0,033
-584,094	-200,000	0,005	0,065
-583,079	151,409	0,047	0,048
-582,065	-200,000	0,006	0,027
-581,050	800,000	-0,037	-0,099
-580,036	-13,553	0,034	-0,016
-579,021	533,597	-0,094	-0,165
-578,006	-142,820	-0,203	0,014
-576,992	109,906	-0,079	-0,070
-575,977	287,346	0,051	-0,068
-574,963	-46,790	0,140	0,050
-573,948	-122,929	-0,049	-0,006
-572,934	-94,093	-0,080	0,016
-571,919	24,598	-0,044	-0,027
-570,904	-120,690	-0,051	-0,006
-569,890	-200,000	-0,012	-0,121
-568,875	325,415	0,031	0,044
-567,861	-200,000	-0,003	0,026
-566,846	178,521	0,079	-0,085
-565,831	488,181	0,013	-0,022
-564,817	-33,577	-0,095	0,039
-563,802	429,884	0,025	-0,041
-562,788	27,481	-0,025	-0,015
-561,773	-200,000	0,023	0,142
-560,758	14,663	0,073	-0,042
-559,744	54,762	-0,033	-0,023
-558,729	604,341	0,041	0,076
-557,715	-200,000	0,008	0,037
-556,700	391,837	0,036	-0,055
-555,685	113,248	-0,050	-0,045
-554,671	800,000	0,019	0,042
-553,656	350,989	0,046	0,067
-552,642	-0,768	0,138	0,072
-551,627	33,546	-0,099	0,064
-550,612	341,293	0,037	-0,054
-549,598	119,862	-0,098	0,089
-548,583	83,017	-0,073	-0,059
-547,569	-158,167	-0,065	-0,003
-546,554	-200,000	0,021	0,082
-545,539	-125,784	0,117	0,013
-544,525	-49,533	0,075	-0,026
-543,510	41,338	-0,059	0,039
-542,496	-138,428	-0,025	-0,002
-541,481	800,000	0,065	-0,141
-540,466	294,148	-0,062	-0,084
-539,452	213,701	0,080	-0,093
-538,437	800,000	0,063	0,158
-537,423	-200,000	-0,011	-0,066
-536,408	-107,409	-0,107	0,017
-535,393	-17,417	0,061	0,028
-534,379	-200,000	-0,002	0,127
-533,364	-77,428	-0,082	0,021
-532,350	154,897	0,038	0,038
-531,335	231,038	0,092	0,112
-530,321	34,003	0,030	0,019
-529,306	169,763	0,047	0,049
-528,291	800,000	-0,039	-0,096
-527,277	177,550	-0,024	-0,026
-526,262	-126,868	-0,171	-0,018
-525,248	-98,884	0,251	-0,047
-524,233	674,638	0,046	0,089
-523,218	-59,797	-0,078	-0,025
-522,204	14,021	-0,017	-0,009
-521,189	317,956	0,058	-0,081
-520,175	-34,474	-0,067	-0,027
-519,160	482,861	0,052	-0,088
-518,145	-61,582	-0,141	-0,043
-517,131	-200,000	0,009	-0,034
-516,116	769,353	-0,148	-0,299
-515,102	-200,000	0,029	0,123
-514,087	-200,000	0,004	0,045
-513,072	139,421	-0,031	-0,030
-512,058	800,000	0,020	-0,051
-511,043	800,000	0,014	-0,036
-510,029	-107,582	0,238	0,038
-509,014	-200,000	0,002	0,037
-507,999	800,000	-0,042	-0,114
-506,985	33,696	0,072	0,046
-505,970	-37,325	-0,124	0,049
-504,956	-200,000	-0,036	0,140
-503,941	-23,593	-0,026	0,011
-502,926	409,068	0,070	0,110
-501,912	-0,236	-0,106	0,055
-500,897	658,016	0,091	-0,172
-499,883	-200,000	0,002	0,079
-498,868	-11,818	-0,133	-0,064
-497,853	108,304	0,006	-0,006
-496,839	222,373	0,067	0,079
-495,824	228,524	-0,046	-0,055
-494,810	-174,486	-0,060	-0,001
-493,795	293,360	-0,025	0,034
-492,781	-93,747	-0,138	0,028
-491,766	-200,000	-0,003	0,160
-490,751	-200,000	-0,008	-0,049
-489,737	-200,000	-0,037	-0,215
-488,722	-124,955	0,141	-0,016
-487,708	-200,000	0,015	0,059
-486,693	13,187	0,065	0,037
-485,678	-129,872	-0,132	-0,013
-484,664	-184,931	0,033	0,000
-483,649	-200,000	0,017	-0,115
-482,635	81,270	-0,100	-0,079
-481,620	-21,510	0,119	-0,053
-480,605	-200,000	0,027	-0,098
-479,591	-200,000	-0,001	-0,034
-478,576	251,515	-0,150	-0,188
-477,562	188,977	-0,067	0,073
-476,547	-12,894	-0,036	0,017
-475,532	232,598	-0,059	-0,072
-474,518	380,045	-0,022	-0,034
-473,503	250,076	0,029	0,036
-472,489	139,210	-0,116	0,112
-471,474	-80,911	0,104	0,025
-470,459	-200,000	-0,145	-0,000
-469,445	-11,581	-0,193	-0,093
-468,430	94,049	-0,018	-0,015
-467,416	40,241	0,102	0,068
-466,401	-17,533	0,101	-0,046
-465,386	800,000	0,034	0,077
-464,372	-77,326	-0,103	0,026
-463,357	45,662	0,067	0,045
-462,343	530,441	0,016	0,028
-461,328	4,644	-0,087	0,047
-460,313	-79,481	-0,118	-0,029
-459,299	-18,528	0,009	0,004
-458,284	-199,320	0,187	-0,001
-457,270	-13,274	-0,040	-0,019
-456,255	-200,000	0,027	0,109
-455,241	-148,689	0,098	-0,006
-454,226	3,563	-0,075	0,040
-453,211	800,000	-0,022	0,064
-452,197	-200,000	-0,015	0,096
-451,182	-11,283	0,084	-0,040
-450,168	335,192	0,025	-0,036
-449,153	568,836	-0,021	0,038
-448,138	-200,000	0,015	-0,073
-447,124	686,051	0,033	-0,063
-446,109	-94,732	-0,065	-0,013
-445,095	-106,884	-0,014	0,002
-444,080	42,609	0,060	0,040
-443,065	-200,000	0,007	-0,090
-442,051	-200,000	-0,005	-0,056
-441,036	441,208	-0,022	-0,035
-440,022	-52,763	0,086	-0,029
-439,007	-200,000	0,010	0,043
-437,992	-12,941	-0,102	0,049
-436,978	-103,354	0,123	-0,021
-435,963	-21,469	0,161	0,072
-434,949	-36,931	-0,041	0,016
-433,934	-198,699	-0,041	0,000
-432,919	105,335	-0,098	-0,085
-431,905	455,069	0,030	-0,050
-430,890	-28,045	0,079	-0,034
-429,876	800,000	0,035	0,082
-428,861	800,000	0,024	-0,050
-427,846	-30,831	0,080	0,033
-426,832	-12,838	0,165	-0,079
-425,817	-200,000	-0,030	0,145
-424,803	485,294	-0,017	0,028
-423,788	318,005	-0,086	0,120
-422,773	291,132	0,079	0,105
-421,759	-77,757	0,133	0,033
-420,744	800,000	0,028	-0,058
-419,730	70,263	-0,032	-0,024
-418,715	-200,000	-0,007	-0,024
-417,701	264,452	0,026	0,034
-416,686	42,735	-0,098	-0,065
-415,671	5,766	-0,026	0,014
-414,657	-40,686	-0,108	-0,041
-413,642	-114,787	-0,042	-0,006
-412,628	755,079	0,045	0,091
-411,613	37,427	0,031	0,020
-410,598	-200,000	0,020	0,148
-409,584	-107,580	0,117	-0,019
-408,569	-60,236	0,098	-0,031
-407,555	681,133	-0,062	0,120
-406,540	54,738	-0,038	0,027
-405,525	101,099	-0,078	-0,067
-404,511	-122,044	-0,048	-0,006
-403,496	53,374	0,074	-0,052
-402,482	795,483	0,035	0,071
-401,467	207,698	0,155	0,177
-400,452	-86,071	0,133	0,030
-399,438	-200,000	-0,011	-0,068
-398,423	126,495	-0,074	-0,069
-397,409	111,128	-0,092	0,081
-396,394	-111,863	0,090	-0,013
-395,379	-188,957	0,169	-0,001
-394,365	-200,000	0,019	-0,081
-393,350	-144,563	0,117	0,008
-392,336	-116,742	0,122	-0,016
-391,321	100,698	0,047	-0,040
-390,306	-151,157	-0,135	-0,007
-389,292	-115,634	-0,136	-0,019
-388,277	87,387	-0,149	0,121
-387,263	800,000	-0,044	0,100
-386,248	-200,000	-0,021	0,173
-385,233	-124,739	0,151	0,017
-384,219	299,096	0,059	-0,080
-383,204	-200,000	-0,015	-0,137
-382,190	94,930	-0,009	-0,007
-381,175	-200,000	-0,086	-0,000
-380,160	35,359	0,062	-0,040
-379,146	118,428	0,107	0,097
-378,131	-135,593	0,126	-0,011
-377,117	97,348	0,036	-0,030
-376,102	45,671	-0,059	0,040
-375,088	-200,000	-0,003	-0,033
-374,073	37,383	-0,135	-0,088
-373,058	-81,142	0,033	0,008
-372,044	333,012	0,031	-0,044
-371,029	46,283	0,158	0,107
-370,015	800,000	0,071	0,147
-369,000	71,769	-0,080	0,061
-367,985	111,036	0,057	-0,050
-366,971	-200,000	0,002	-0,073
-365,956	800,000	0,051	-0,118
-364,942	232,303	0,067	0,080
-363,927	800,000	0,034	-0,086
-362,912	-92,472	-0,143	0,029
-361,898	-70,036	-0,055	0,015
-360,883	-157,141	0,048	-0,002
-359,869	155,563	0,097	0,098
-358,854	595,898	0,023	0,041
-357,839	-169,920	-0,085	0,002
-356,825	-200,000	0,007	0,049
-355,810	43,725	0,083	-0,055
-354,796	-200,000	0,009	-0,086
-353,781	651,037	-0,123	-0,233
-352,766	-35,754	-0,126	-0,050
-351,752	-109,901	-0,020	-0,003
-350,737	178,155	0,048	0,051
-349,723	-90,152	0,134	0,028
-348,708	128,279	-0,112	-0,104
-347,693	800,000	-0,018	0,048
-346,679	-71,841	-0,195	-0,053
-345,664	-200,000	0,019	-0,063
-344,650	-200,000	0,008	0,078
-343,635	601,012	-0,039	0,071
-342,620	88,498	0,137	-0,111
-341,606	-149,256	0,023	0,001
-340,591	82,119	0,016	0,013
-339,577	-159,063	-0,081	-0,003
-338,562	-200,000	0,010	0,056
-337,548	-43,084	0,039	-0,014
-336,533	-200,000	0,002	-0,054
-335,518	800,000	-0,022	-0,048
-334,504	-101,987	0,109	-0,019
-333,489	-79,333	-0,027	0,007
-332,475	70,346	-0,097	-0,073
-331,460	108,417	0,055	-0,048
-330,445	60,560	0,145	0,105
-329,431	523,645	0,098	0,169
-328,416	305,602	-0,078	0,106
-327,402	530,134	0,049	0,086
-326,387	56,985	-0,070	-0,050
-325,372	-74,716	-0,020	0,005
-324,358	129,995	0,013	0,013
-323,343	-200,000	0,001	0,008
-322,329	166,203	-0,054	-0,056
-321,314	800,000	-0,024	0,070
-320,299	286,300	0,067	-0,089
-319,285	121,543	-0,075	-0,068
-318,270	800,000	-0,043	0,102
-317,256	352,538	-0,074	-0,107
-316,241	-200,000	-0,005	-0,203
-315,226	300,885	-0,027	0,036
-314,212	-74,595	0,109	-0,029
-313,197	-33,601	-0,024	0,010
-312,183	-200,000	-0,010	0,128
-311,168	165,439	0,109	-0,113
-310,153	-105,619	-0,142	0,023
-309,139	335,682	-0,062	-0,089
-308,124	800,000	0,031	0,077
-307,110	-200,000	-0,002	0,108
-306,095	583,351	0,040	-0,072
-305,080	-60,092	-0,031	-0,010
-304,066	358,926	0,059	-0,087
-303,051	-200,000	0,015	0,070
-302,037	-200,000	0,022	-0,144
-301,022	-176,066	-0,055	-0,001
-300,008	-200,000	-0,010	0,040
-298,993	800,000	-0,005	0,011
-297,978	-99,493	0,062	0,011
-296,964	800,000	0,036	0,074
-295,949	-200,000	0,006	0,025
-294,935	-200,000	-0,000	-0,003
-293,920	64,945	-0,048	0,036
-292,905	800,000	0,018	0,050
-291,891	-200,000	0,001	-0,061
-290,876	-200,000	-0,008	-0,117
-289,862	140,238	-0,084	-0,081
-288,847	190,311	0,050	-0,055
-287,832	-26,643	-0,078	-0,033
-286,818	800,000	0,028	-0,060
-285,803	-200,000	0,029	0,117
-284,789	130,664	-0,029	0,027
-283,774	800,000	0,022	-0,050
-282,759	-200,000	0,003	-0,027
-281,745	15,029	-0,038	-0,021
-280,730	800,000	-0,040	0,081
-279,716	625,543	-0,019	0,035
-278,701	-200,000	0,022	-0,077
-277,686	-200,000	0,010	-0,099
-276,672	259,044	0,038	-0,048
-275,657	-0,405	-0,032	0,016
-274,643	223,714	-0,093	-0,110
-273,628	-200,000	-0,037	-0,129
-272,613	-200,000	0,000	-0,083
-271,599	444,629	-0,041	-0,067
-270,584	-42,857	-0,116	0,043
-269,570	-200,000	-0,028	0,159
-268,555	-134,881	-0,066	0,006
-267,540	-140,939	-0,142	0,011
-266,526	607,480	0,046	-0,085
-265,511	-82,200	0,110	0,026
-264,497	-72,879	0,090	-0,024
-263,482	217,764	0,080	-0,094
-262,467	574,781	0,060	0,107
-261,453	-106,860	-0,100	-0,016
-260,438	72,009	0,051	0,039
-259,424	430,617	-0,037	-0,058
-258,409	800,000	0,022	0,056
-257,395	800,000	-0,080	0,198
-256,380	-119,071	0,142	-0,018
-255,365	90,637	0,058	-0,048
-254,351	800,000	0,022	0,060
-253,336	306,630	0,065	0,088
-252,322	-200,000	-0,109	0,000
-251,307	297,601	-0,055	-0,074
-250,292	286,922	-0,033	-0,043
-249,278	282,464	-0,044	0,058
-248,263	-46,469	0,092	0,033
-247,249	-16,689	0,076	0,035
-246,234	-200,000	0,019	-0,068
-245,219	55,166	0,135	-0,095
-244,205	-95,270	-0,085	-0,016
-243,190	174,728	-0,051	-0,054
-242,176	330,932	-0,046	0,065
-241,161	322,405	0,040	0,055
-240,146	-19,061	-0,046	-0,021
-239,132	-200,000	-0,015	-0,071
-238,117	-200,000	-0,027	0,093
-237,103	-94,069	0,064	-0,013
-236,088	-200,000	-0,008	0,118
-235,073	332,491	0,046	0,065
-234,059	-131,918	-0,084	0,008
-233,044	-67,051	0,102	0,029
-232,030	-29,923	-0,082	-0,034
-231,015	5,752	0,065	-0,035
-230,000	668,322	0,018	-0,034
-228,986	-134,850	0,170	-0,015
-227,971	88,152	-0,085	0,069
-226,957	-200,000	0,031	0,158
-225,942	-200,000	-0,046	-0,180
-224,927	-200,000	0,042	-0,235
-223,913	-84,407	0,119	0,027
-222,898	-128,797	-0,072	0,007
-221,884	-200,000	0,004	-0,024
-220,869	-67,219	-0,132	-0,038
-219,855	295,448	0,047	-0,063
-218,840	-116,526	0,090	-0,012
-217,825	-82,063	-0,043	0,010
-216,811	-120,171	0,099	-0,012
-215,796	45,893	-0,075	-0,051
-214,782	431,783	-0,060	-0,095
-213,767	-200,000	0,020	0,094
-212,752	453,656	-0,075	0,121
-211,738	-141,349	0,143	0,010
-210,723	-85,814	-0,130	0,029
-209,709	-37,228	-0,019	-0,007
-208,694	267,934	-0,066	-0,085
-207,679	472,477	-0,040	-0,066
-206,665	-103,627	0,120	0,020
-205,650	-200,000	0,008	-0,032
-204,636	468,919	-0,031	0,050
-203,621	-43,061	-0,153	0,056
-202,606	-132,286	-0,037	0,003
-201,592	25,879	-0,073	0,044
-200,577	800,000	0,017	-0,053
-199,563	35,735	0,060	0,038
-198,548	-200,000	-0,004	0,101
-197,533	-24,252	0,005	0,002
-196,519	21,611	0,064	-0,038
-195,504	721,577	0,022	0,042
-194,490	-200,000	0,007	0,059
-193,475	256,133	0,057	-0,072
-192,460	271,894	0,126	0,163
-191,446	62,022	-0,085	0,062
-190,431	7,886	0,093	-0,051
-189,417	-58,783	0,129	0,041
-188,402	-200,000	0,005	0,027
-187,387	-110,876	0,101	-0,015
-186,373	190,439	-0,061	-0,067
-185,358	798,919	0,034	-0,070
-184,344	477,765	-0,036	0,060
-183,329	601,071	0,113	0,205
-182,315	144,891	-0,084	0,082
-181,300	-200,000	-0,013	0,051
-180,285	124,518	0,042	0,039
-179,271	-71,494	0,103	-0,028
-178,256	-200,000	-0,046	-0,165
-177,242	-69,837	0,051	0,014
-176,227	160,151	0,077	0,079
-175,212	70,201	0,027	-0,021
-174,198	-200,000	-0,008	-0,030
-173,183	-26,667	-0,107	0,045
-172,169	-160,597	-0,018	-0,001
-171,154	-78,644	0,031	0,008
-170,139	-132,685	0,039	0,004
-169,125	784,700	0,021	-0,041
-168,110	-29,697	-0,074	-0,031
-167,096	133,722	0,058	-0,055
-166,081	340,835	-0,036	0,051
-165,066	-14,776	-0,094	0,044
-164,052	-200,000	-0,001	-0,170
-163,037	-128,690	0,047	0,005
-162,023	169,000	0,087	-0,090
-161,008	-72,042	-0,084	0,022
-159,993	-144,078	-0,113	-0,008
-158,979	-85,041	0,040	0,009
-157,964	-200,000	-0,011	0,093
-156,950	95,761	-0,035	0,029
-155,935	-200,000	0,007	-0,116
-154,920	-200,000	-0,001	0,011
-153,906	-151,165	0,029	0,002
-152,891	45,878	0,081	0,054
-151,877	-200,000	0,040	0,161
-150,862	252,113	-0,026	0,032
-149,847	800,000	-0,041	-0,085
-148,833	453,625	-0,018	0,029
-147,818	105,715	-0,079	0,068
-146,804	323,818	0,012	0,017
-145,789	-200,000	0,011	0,081
-144,775	-200,000	0,008	0,069
-143,760	47,750	-0,027	0,018
-142,745	50,214	-0,028	0,019
-141,731	-200,000	-0,026	0,141
-140,716	-200,000	-0,003	0,063
-139,702	-200,000	-0,014	0,064
-138,687	-96,280	-0,098	-0,019
-137,672	-200,000	-0,035	-0,139
-136,658	162,277	0,059	-0,060
-135,643	-200,000	-0,022	-0,077
-134,629	-200,000	0,016	-0,127
-133,614	-98,004	-0,050	0,009
-132,599	347,395	0,064	0,091
-131,585	-65,360	-0,070	0,020
-130,570	-5,385	-0,030	0,015
-129,556	-113,955	0,149	0,021
-128,541	101,374	0,008	-0,007
-127,526	-200,000	-0,021	0,090
-126,512	-5,538	0,108	-0,053
-125,497	-55,502	0,055	-0,018
-124,483	27,708	0,087	-0,053
-123,468	-200,000	0,027	-0,137
-122,453	302,660	-0,048	0,065
-121,439	-63,193	-0,080	-0,024
-120,424	-19,158	-0,056	-0,025
-119,410	-10,029	0,177	-0,085
