DTS Sentinel unit serial number:	SN410029Multiplexer serial number:	ORYXHardware model number:	OX2-SRSoftware version number:	ORYX F/W v4,00 Oryx Data Collector v3.7.2.0data status	okinstallation	B4 Nyhavnadifferential loss correction	single-endedforward channel	channel 2reverse channel	N/Adate	2023/12/15time	18:30:13forward acquisition time	300,00reverse acquisition time	0,00gamma	499,1914k internal	0,3139k external	0,3139temperature offset calibration	1,0000default loss term (dB/km)	0,3820temperature slope calibration	1,0000multiplexer offset coefficient	1,0000multiplexer slope coefficient	1,0000fibre end	0,00T internal ref (°C)	19,20T ext. ref 1 (°C)	5,26T ext. ref 2 (°C)	5,38length (m)	temperature (°C)	Stokes	anti-Stokes-744,400	-200,000	-0,001	-0,158
-743,385	-108,633	-0,224	-0,035
-742,371	-44,152	0,199	-0,074
-741,356	39,663	-0,187	0,124
-740,342	-60,045	-0,073	-0,023
-739,327	-86,815	-0,261	0,059
-738,312	0,877	0,098	-0,052
-737,298	72,603	-0,223	0,173
-736,283	-200,000	-0,019	-0,070
-735,269	-71,186	-0,315	0,087
-734,254	-127,882	0,051	0,005
-733,239	-57,706	-0,547	-0,177
-732,225	178,718	0,137	0,148
-731,210	436,729	-0,066	0,106
-730,196	-200,000	-0,019	-0,086
-729,181	-200,000	-0,006	0,019
-728,167	-3,681	0,124	0,063
-727,152	-111,683	-0,067	0,010
-726,137	-107,733	-0,085	-0,014
-725,123	-200,000	-0,001	0,013
-724,108	800,000	0,046	-0,134
-723,094	64,782	-0,058	-0,043
-722,079	-74,608	-0,014	0,004
-721,064	187,075	-0,063	-0,070
-720,050	152,397	0,078	0,079
-719,035	23,836	0,029	-0,018
-718,021	-197,308	-0,227	-0,001
-717,006	-200,000	-0,006	-0,129
-715,991	-200,000	-0,017	-0,225
-714,977	-200,000	-0,014	-0,084
-713,962	129,124	-0,105	-0,099
-712,948	-153,275	0,111	-0,006
-711,933	200,983	-0,036	0,041
-710,918	-48,853	0,063	-0,022
-709,904	685,752	-0,016	0,031
-708,889	-200,000	0,011	-0,054
-707,875	154,175	-0,027	-0,027
-706,860	-20,296	-0,072	0,033
-705,845	0,653	0,011	-0,006
-704,831	-200,000	0,002	0,122
-703,816	-200,000	-0,032	-0,120
-702,802	38,630	-0,120	-0,079
-701,787	-6,485	-0,127	-0,064
-700,772	171,075	0,068	0,072
-699,758	75,209	-0,064	0,050
-698,743	50,927	-0,083	0,058
-697,729	-144,555	0,137	0,009
-696,714	716,977	0,047	-0,092
-695,699	-176,854	-0,185	0,003
-694,685	-12,023	-0,088	0,043
-693,670	504,598	0,075	-0,128
-692,656	-200,000	-0,003	-0,146
-691,641	800,000	-0,022	-0,062
-690,627	415,413	0,063	0,099
-689,612	800,000	0,024	-0,066
-688,597	-200,000	-0,005	-0,119
-687,583	25,820	-0,061	0,038
-686,568	-200,000	-0,004	-0,091
-685,554	101,747	0,052	0,045
-684,539	23,626	0,050	0,031
-683,524	-200,000	0,009	0,147
-682,510	-37,806	-0,034	-0,014
-681,495	59,983	-0,065	-0,047
-680,481	-200,000	-0,014	-0,054
-679,466	-86,709	-0,121	-0,027
-678,451	285,551	0,052	-0,070
-677,437	189,839	0,048	-0,053
-676,422	800,000	0,026	0,083
-675,408	800,000	-0,044	-0,092
-674,393	-200,000	-0,018	-0,077
-673,378	448,487	0,069	-0,112
-672,364	-80,493	-0,132	-0,032
-671,349	-15,190	-0,076	-0,036
-670,335	-200,000	0,019	0,124
-669,320	-200,000	-0,000	-0,068
-668,305	800,000	-0,039	0,112
-667,291	-200,000	-0,009	0,058
-666,276	-63,339	-0,088	0,027
-665,262	-42,027	-0,152	-0,057
-664,247	221,001	-0,041	0,049
-663,232	213,369	0,056	-0,065
-662,218	-12,361	0,184	0,089
-661,203	429,819	-0,073	0,118
-660,189	-133,081	-0,100	0,009
-659,174	800,000	-0,061	-0,139
-658,159	-104,883	0,108	0,018
-657,145	-200,000	-0,005	0,039
-656,130	-200,000	0,013	0,059
-655,116	-46,742	0,068	-0,024
-654,101	-200,000	-0,014	0,050
-653,086	-112,562	-0,106	0,015
-652,072	-72,357	-0,053	-0,014
-651,057	79,805	-0,168	-0,134
-650,043	708,767	-0,048	-0,093
-649,028	-200,000	-0,011	-0,064
-648,014	-200,000	-0,028	0,117
-646,999	245,061	0,037	0,047
-645,984	-200,000	0,004	0,046
-644,970	-141,095	0,025	-0,002
-643,955	46,613	0,074	-0,051
-642,941	-73,451	-0,245	-0,066
-641,926	-92,831	-0,101	-0,021
-640,911	800,000	0,041	-0,121
-639,897	362,105	0,083	0,123
-638,882	232,389	0,052	0,063
-637,868	-54,785	0,068	-0,022
-636,853	4,319	-0,140	0,076
-635,838	327,911	-0,059	-0,084
-634,824	-200,000	0,015	0,111
-633,809	-87,800	-0,055	0,012
-632,795	-33,814	0,044	0,018
-631,780	46,662	0,029	0,020
-630,765	553,797	-0,036	-0,064
-629,751	90,605	-0,058	-0,048
-628,736	109,530	-0,049	-0,044
-627,722	228,932	-0,034	0,041
-626,707	-200,000	-0,005	-0,038
-625,692	12,393	0,054	0,031
-624,678	-145,169	0,045	-0,003
-623,663	233,749	0,054	-0,066
-622,649	-155,536	-0,054	-0,003
-621,634	93,473	-0,049	-0,041
-620,619	-200,000	0,019	-0,064
-619,605	328,056	0,087	0,123
-618,590	-29,234	-0,122	-0,051
-617,576	-129,943	-0,061	0,006
-616,561	-200,000	0,014	0,082
-615,546	631,468	0,043	-0,081
-614,532	-54,700	-0,115	-0,038
-613,517	-200,000	-0,005	-0,108
-612,503	305,221	-0,073	-0,100
-611,488	-168,403	0,074	-0,002
-610,474	0,844	0,037	0,019
-609,459	-101,007	-0,086	0,015
-608,444	-200,000	-0,004	-0,031
-607,430	386,894	0,052	0,080
-606,415	-72,201	-0,079	0,022
-605,401	246,888	0,060	0,075
-604,386	-200,000	-0,000	0,043
-603,371	132,209	0,082	-0,078
-602,357	-192,371	-0,073	-0,000
-601,342	-112,895	-0,141	0,020
-600,328	-200,000	0,023	-0,090
-599,313	49,722	-0,027	-0,019
-598,298	-46,585	0,088	-0,032
-597,284	-59,329	-0,136	-0,043
-596,269	-110,284	-0,042	-0,006
-595,255	-44,571	-0,058	-0,021
-594,240	-47,328	0,081	-0,029
-593,225	-144,234	-0,110	0,007
-592,211	18,637	0,123	-0,073
-591,196	-110,475	0,086	-0,013
-590,182	-200,000	-0,005	-0,043
-589,167	-105,735	-0,042	0,007
-588,152	-64,214	0,052	-0,015
-587,138	59,878	-0,055	-0,040
-586,123	264,760	-0,069	0,089
-585,109	-92,433	-0,055	-0,011
-584,094	-22,928	0,068	-0,030
-583,079	14,903	0,083	0,048
-582,065	-72,320	0,075	0,020
-581,050	-69,831	0,108	0,030
-580,036	-153,273	-0,089	-0,004
-579,021	-0,848	-0,140	0,073
-578,006	-200,000	0,004	0,016
-576,992	-200,000	0,006	-0,085
-575,977	-200,000	-0,021	-0,105
-574,963	94,336	-0,211	0,177
-573,948	360,499	0,026	0,038
-572,934	-200,000	-0,020	0,075
-571,919	227,758	-0,115	-0,138
-570,904	211,080	0,033	-0,038
-569,890	-151,205	0,047	0,003
-568,875	284,629	0,055	0,073
-567,861	-200,000	-0,037	0,140
-566,846	184,063	0,011	0,012
-565,831	85,067	-0,073	0,059
-564,817	243,476	-0,076	0,094
-563,802	-96,618	-0,117	-0,023
-562,788	-200,000	-0,034	0,136
-561,773	800,000	-0,026	0,082
-560,758	116,245	0,074	0,066
-559,744	800,000	-0,022	0,046
-558,729	-200,000	-0,022	0,120
-557,715	-23,509	0,058	0,026
-556,700	800,000	-0,035	-0,084
-555,685	-142,015	-0,059	0,004
-554,671	157,097	-0,022	-0,022
-553,656	-139,332	0,084	-0,007
-552,642	-200,000	-0,002	0,054
-551,627	763,146	0,018	0,037
-550,612	-33,039	-0,043	-0,017
-549,598	-200,000	0,026	-0,201
-548,583	-200,000	-0,011	-0,063
-547,569	261,505	0,017	0,021
-546,554	-200,000	-0,003	0,133
-545,539	-101,083	-0,078	-0,014
-544,525	-200,000	0,003	-0,113
-543,510	405,037	-0,022	-0,034
-542,496	-132,894	-0,144	0,013
-541,481	400,358	-0,108	-0,167
-540,466	-102,009	-0,077	-0,014
-539,452	-200,000	-0,001	-0,106
-538,437	800,000	0,013	-0,037
-537,423	421,365	0,019	-0,030
-536,408	-165,507	-0,141	0,004
-535,393	-8,296	-0,075	0,037
-534,379	-30,031	-0,050	0,021
-533,364	-32,336	0,064	-0,026
-532,350	252,098	-0,004	0,006
-531,335	42,477	-0,019	0,012
-530,321	-88,350	0,055	-0,012
-529,306	-163,609	0,100	0,003
-528,291	800,000	-0,045	-0,101
-527,277	-200,000	0,009	-0,065
-526,262	144,038	-0,030	-0,030
-525,248	142,706	0,106	0,103
-524,233	-100,992	0,114	0,020
-523,218	-146,587	0,128	-0,008
-522,204	105,339	0,053	0,046
-521,189	101,910	-0,114	0,098
-520,175	-200,000	-0,019	0,109
-519,160	76,220	0,028	-0,022
-518,145	-200,000	-0,002	0,108
-517,131	800,000	0,016	-0,042
-516,116	279,783	-0,065	0,085
-515,102	63,720	-0,081	-0,060
-514,087	69,561	-0,058	-0,044
-513,072	35,069	-0,092	-0,059
-512,058	268,994	-0,027	-0,035
-511,043	-199,429	0,074	-0,000
-510,029	-140,348	0,177	-0,013
-509,014	187,368	-0,041	0,045
-507,999	-200,000	0,009	0,078
-506,985	-9,858	-0,128	0,063
-505,970	234,976	0,136	-0,165
-504,956	-113,869	-0,064	-0,009
-503,941	-156,751	0,141	-0,006
-502,926	-200,000	-0,010	-0,089
-501,912	-200,000	-0,025	0,106
-500,897	-200,000	-0,040	0,137
-499,883	-200,000	0,003	0,034
-498,868	-39,872	-0,039	-0,015
-497,853	-76,433	-0,124	0,032
-496,839	-200,000	0,007	0,025
-495,824	-110,253	0,081	-0,012
-494,810	137,641	0,046	0,044
-493,795	367,223	-0,072	0,107
-492,781	89,521	0,167	-0,137
-491,766	-93,782	-0,042	-0,008
-490,751	800,000	0,071	-0,227
-489,737	301,081	-0,047	-0,064
-488,722	3,040	-0,047	-0,025
-487,708	32,977	0,076	-0,048
-486,693	-200,000	-0,015	0,059
-485,678	62,196	0,134	-0,098
-484,664	46,153	-0,111	0,076
-483,649	404,742	0,069	-0,107
-482,635	33,803	-0,031	0,020
-481,620	83,293	0,058	-0,047
-480,605	106,235	0,030	0,026
-479,591	-17,311	0,064	-0,029
-478,576	-200,000	-0,002	-0,036
-477,562	572,542	-0,034	0,061
-476,547	800,000	-0,055	0,128
-475,532	-41,502	0,083	0,031
-474,518	800,000	-0,032	0,091
-473,503	260,772	-0,053	0,067
-472,489	13,697	-0,018	0,010
-471,474	214,923	0,011	-0,013
-470,459	627,114	-0,017	0,032
-469,445	276,211	-0,082	-0,107
-468,430	-104,055	0,126	-0,021
-467,416	-200,000	-0,008	-0,046
-466,401	701,588	0,030	-0,059
-465,386	-40,892	0,014	-0,005
-464,372	65,156	-0,015	-0,011
-463,357	100,012	0,042	0,035
-462,343	67,613	0,011	-0,008
-461,328	15,565	0,090	-0,052
-460,313	-89,558	-0,048	0,010
-459,299	800,000	0,050	-0,135
-458,284	223,949	-0,022	-0,026
-457,270	-200,000	-0,008	-0,051
-456,255	20,654	-0,094	-0,055
-455,241	417,786	0,041	-0,064
-454,226	-24,937	-0,196	0,085
-453,211	800,000	0,012	0,028
-452,197	-112,400	-0,178	-0,026
-451,182	88,338	0,081	0,066
-450,168	22,526	0,039	-0,023
-449,153	-139,100	-0,045	0,004
-448,138	620,708	-0,082	0,151
-447,124	12,579	0,013	0,007
-446,109	66,449	-0,034	0,025
-445,095	-22,280	0,141	0,062
-444,080	8,692	0,156	0,086
-443,065	460,688	-0,083	0,137
-442,051	-200,000	-0,004	-0,077
-441,036	26,140	-0,028	0,017
-440,022	563,506	-0,013	-0,023
-439,007	800,000	0,052	-0,114
-437,992	-200,000	0,010	0,062
-436,978	171,293	0,079	0,083
-435,963	-43,530	-0,019	-0,007
-434,949	-200,000	0,023	-0,083
-433,934	-40,420	0,083	0,031
-432,919	55,494	0,045	-0,032
-431,905	-117,695	-0,090	-0,012
-430,890	327,621	0,097	0,137
-429,876	800,000	0,056	0,131
-428,861	377,879	-0,048	-0,072
-427,846	-68,230	0,151	-0,043
-426,832	2,142	-0,095	0,050
-425,817	115,118	0,040	-0,036
-424,803	-200,000	-0,013	-0,101
-423,788	-48,020	0,092	0,032
-422,773	-200,000	-0,010	0,098
-421,759	800,000	-0,040	0,084
-420,744	-67,943	-0,062	0,017
-419,730	-153,479	0,044	-0,002
-418,715	145,018	-0,168	-0,164
-417,701	26,773	0,060	0,037
-416,686	-109,437	0,244	0,037
-415,671	316,008	-0,049	-0,068
-414,657	32,984	0,050	0,031
-413,642	-42,516	-0,066	-0,024
-412,628	-185,057	0,057	0,001
-411,613	69,824	-0,134	-0,101
-410,598	800,000	0,047	-0,118
-409,584	-200,000	0,007	0,059
-408,569	393,286	0,027	0,041
-407,555	157,415	0,094	0,095
-406,540	22,846	-0,072	0,043
-405,525	12,253	-0,118	-0,066
-404,511	44,689	0,024	0,016
-403,496	-200,000	-0,042	-0,224
-402,482	335,595	-0,074	-0,106
-401,467	157,473	-0,016	0,017
-400,452	22,304	0,020	0,012
-399,438	-57,411	0,107	0,034
-398,423	141,235	0,109	0,105
-397,409	10,286	-0,107	-0,059
-396,394	-28,430	-0,066	-0,028
-395,379	-121,003	0,094	0,011
-394,365	24,988	0,110	-0,067
-393,350	-23,772	0,045	0,019
-392,336	27,589	-0,033	0,020
-391,321	530,618	0,039	0,069
-390,306	-48,504	-0,100	0,035
-389,292	117,430	0,017	0,016
-388,277	7,194	-0,118	0,064
-387,263	103,382	0,102	-0,088
-386,248	-159,775	0,142	-0,006
-385,233	-94,249	-0,124	0,025
-384,219	7,893	0,121	0,066
-383,204	-200,000	-0,020	0,080
-382,190	800,000	0,050	-0,157
-381,175	-117,370	0,065	0,009
-380,160	-163,637	0,128	-0,004
-379,146	469,928	-0,031	-0,051
-378,131	-114,957	0,047	0,006
-377,117	-200,000	-0,025	0,118
-376,102	128,777	0,062	0,057
-375,088	-17,367	-0,071	0,032
-374,073	800,000	-0,032	0,093
-373,058	696,848	-0,049	0,095
-372,044	781,350	0,050	0,100
-371,029	102,065	-0,068	-0,058
-370,015	148,878	0,036	0,035
-369,000	-15,951	0,126	-0,058
-367,985	304,946	0,031	-0,043
-366,971	-27,768	0,094	0,040
-365,956	-122,548	0,110	0,013
-364,942	203,821	0,085	0,097
-363,927	253,373	0,100	-0,125
-362,912	800,000	-0,035	-0,081
-361,898	-53,771	0,103	-0,034
-360,883	670,527	0,027	0,051
-359,869	235,160	0,050	-0,060
-358,854	611,168	0,039	-0,071
-357,839	198,510	0,022	0,025
-356,825	-200,000	-0,006	0,151
-355,810	49,461	-0,064	0,044
-354,796	121,539	-0,036	-0,033
-353,781	-128,522	-0,192	-0,020
-352,766	-200,000	0,005	0,054
-351,752	406,804	-0,038	-0,058
-350,737	-73,984	0,069	0,018
-349,723	-129,535	0,058	0,006
-348,708	237,302	-0,095	-0,115
-347,693	-200,000	0,030	-0,121
-346,679	-21,418	-0,086	-0,038
-345,664	800,000	-0,014	0,037
-344,650	800,000	-0,050	0,130
-343,635	-36,207	0,127	0,050
-342,620	-53,724	0,131	0,043
-341,606	-91,719	0,135	0,028
-340,591	-200,000	0,013	0,125
-339,577	126,920	0,088	0,081
-338,562	-29,027	0,088	0,037
-337,548	173,501	0,099	0,104
-336,533	-149,554	0,128	-0,007
-335,518	266,638	-0,068	0,087
-334,504	-165,801	0,233	0,007
-333,489	188,114	-0,038	-0,042
-332,475	606,005	-0,071	-0,130
-331,460	800,000	-0,040	-0,106
-330,445	-200,000	0,030	-0,154
-329,431	209,392	0,089	0,102
-328,416	-12,229	0,032	0,015
-327,402	161,372	-0,065	-0,066
-326,387	568,291	0,014	-0,024
-325,372	-52,848	-0,108	0,036
-324,358	792,321	-0,065	0,130
-323,343	800,000	-0,057	-0,172
-322,329	252,962	-0,029	0,037
-321,314	800,000	-0,018	0,045
-320,299	-56,774	0,025	-0,008
-319,285	74,474	-0,064	-0,049
-318,270	800,000	-0,031	-0,092
-317,256	626,177	-0,070	-0,129
-316,241	-200,000	-0,011	0,078
-315,226	284,866	0,097	-0,128
-314,212	-7,579	0,123	-0,061
-313,197	-75,314	-0,135	-0,035
-312,183	800,000	0,003	0,007
-311,168	-200,000	0,012	-0,065
-310,153	-66,800	-0,038	-0,011
-309,139	-200,000	0,004	-0,054
-308,124	89,904	0,042	-0,035
-307,110	197,451	-0,071	-0,079
-306,095	800,000	0,022	-0,050
-305,080	-71,584	-0,079	-0,021
-304,066	-111,235	0,099	0,015
-303,051	348,983	0,018	-0,025
-302,037	43,441	-0,070	-0,047
-301,022	800,000	0,077	0,172
-300,008	244,910	0,034	0,042
-298,993	-200,000	-0,008	-0,040
-297,978	213,473	0,055	-0,063
-296,964	-200,000	-0,005	-0,057
-295,949	408,800	0,039	-0,060
-294,935	53,617	0,049	-0,034
-293,920	-141,048	-0,200	0,015
-292,905	-200,000	-0,012	-0,048
-291,891	-200,000	0,007	0,099
-290,876	-200,000	-0,011	0,073
-289,862	-200,000	-0,038	-0,172
-288,847	-200,000	-0,038	-0,131
-287,832	-200,000	0,022	-0,153
-286,818	111,759	0,048	-0,042
-285,803	-200,000	0,028	-0,102
-284,789	34,732	0,105	0,067
-283,774	17,163	0,107	0,062
-282,759	-23,216	0,157	0,068
-281,745	579,378	0,033	-0,060
-280,730	-200,000	-0,004	0,073
-279,716	-200,000	0,016	0,168
-278,701	-149,397	-0,110	0,006
-277,686	-55,960	0,056	0,018
-276,672	-2,649	0,077	0,039
-275,657	-200,000	0,035	-0,152
-274,643	-69,916	-0,079	-0,022
-273,628	169,285	0,061	0,064
-272,613	-200,000	-0,031	0,137
-271,599	-128,400	0,139	0,014
-270,584	231,993	-0,048	-0,057
-269,570	-200,000	0,010	-0,135
-268,555	-200,000	-0,003	0,120
-267,540	14,652	-0,157	-0,089
-266,526	15,368	0,017	-0,010
-265,511	-126,529	-0,081	-0,009
-264,497	-114,740	-0,081	0,011
-263,482	4,480	0,024	0,013
-262,467	295,280	0,089	-0,119
-261,453	-200,000	0,014	0,061
-260,438	-200,000	-0,010	-0,058
-259,424	-58,373	0,019	0,006
-258,409	655,395	0,063	-0,119
-257,395	-107,306	0,149	0,024
-256,380	42,614	0,010	0,006
-255,365	-12,737	0,109	0,051
-254,351	-200,000	0,014	0,215
-253,336	-200,000	-0,010	0,064
-252,322	-1,990	-0,055	-0,028
-251,307	-76,850	0,059	-0,015
-250,292	65,075	-0,068	-0,050
-249,278	211,237	0,048	0,055
-248,263	75,858	-0,147	0,113
-247,249	-117,215	-0,033	-0,004
-246,234	-36,006	0,071	0,028
-245,219	800,000	-0,031	0,085
-244,205	-200,000	0,038	-0,150
-243,190	800,000	-0,067	0,179
-242,176	232,646	0,060	0,072
-241,161	800,000	0,020	0,043
-240,146	51,227	-0,008	0,006
-239,132	-53,057	0,215	0,072
-238,117	-60,388	-0,117	0,036
-237,103	31,821	-0,069	-0,043
-236,088	-150,765	0,090	-0,005
-235,073	800,000	0,024	0,054
-234,059	-200,000	0,023	0,122
-233,044	-41,954	0,033	0,012
-232,030	-76,573	-0,041	-0,010
-231,015	23,770	-0,140	0,084
-230,000	800,000	-0,058	-0,118
-228,986	-200,000	0,006	-0,021
-227,971	-78,442	-0,204	0,050
-226,957	214,471	0,091	0,105
-225,942	-137,312	0,080	0,006
-224,927	-90,768	0,130	0,027
-223,913	-200,000	-0,032	-0,130
-222,898	-200,000	-0,018	-0,113
-221,884	-200,000	0,018	0,198
-220,869	106,882	0,022	0,019
-219,855	-200,000	0,008	0,086
-218,840	76,287	0,068	0,052
-217,825	-49,891	-0,079	-0,027
-216,811	8,865	-0,078	0,042
-215,796	-166,301	-0,086	0,003
-214,782	800,000	-0,048	-0,106
-213,767	284,002	-0,077	0,101
-212,752	70,205	0,113	-0,085
-211,738	38,447	-0,108	-0,070
-210,723	187,821	-0,073	0,079
-209,709	-200,000	0,024	0,081
-208,694	7,725	-0,007	0,004
-207,679	697,697	0,028	-0,053
-206,665	250,443	-0,095	0,118
-205,650	-87,334	0,068	-0,015
-204,636	-200,000	-0,006	-0,022
-203,621	-200,000	-0,004	-0,045
-202,606	-156,841	0,077	0,003
-201,592	52,343	-0,144	-0,099
-200,577	-200,000	-0,007	-0,044
-199,563	-200,000	-0,039	-0,211
-198,548	656,794	0,065	-0,121
-197,533	402,592	-0,004	-0,006
-196,519	-113,405	-0,089	-0,012
-195,504	364,735	0,043	-0,063
-194,490	582,152	-0,027	0,049
-193,475	-200,000	-0,005	-0,033
-192,460	236,707	-0,016	0,020
-191,446	-200,000	-0,002	0,020
-190,431	-200,000	-0,017	0,083
-189,417	-200,000	0,006	0,090
-188,402	-200,000	-0,006	0,233
-187,387	-140,123	0,088	0,007
-186,373	74,921	-0,059	0,045
-185,358	-200,000	-0,031	0,140
-184,344	-167,933	0,199	0,006
-183,329	800,000	0,031	0,086
-182,315	800,000	0,013	-0,028
-181,300	-117,343	-0,102	-0,013
-180,285	178,268	0,041	-0,044
-179,271	29,926	-0,177	-0,109
-178,256	800,000	-0,020	-0,052
-177,242	304,503	-0,051	-0,068
-176,227	744,661	0,041	-0,080
-175,212	52,472	0,031	0,022
-174,198	-85,118	0,078	0,018
-173,183	-25,684	0,073	0,031
-172,169	319,766	0,043	-0,059
-171,154	-200,000	0,008	0,082
-170,139	312,978	-0,047	0,064
-169,125	499,275	0,040	-0,066
-168,110	-200,000	0,007	0,023
-167,096	164,881	-0,088	-0,090
-166,081	-96,673	-0,127	-0,024
-165,066	151,900	-0,062	-0,062
-164,052	-48,248	-0,122	-0,043
-163,037	718,524	0,042	-0,081
-162,023	317,483	-0,062	0,085
-161,008	-200,000	0,012	0,073
-159,993	63,619	-0,033	-0,024
-158,979	451,246	-0,064	-0,103
-157,964	-2,626	-0,103	-0,052
-156,950	-53,669	0,021	-0,007
-155,935	64,524	-0,069	-0,050
-154,920	-200,000	-0,025	0,095
-153,906	-26,150	0,024	-0,010
-152,891	-111,744	0,039	0,006
-151,877	176,217	-0,121	0,128
-150,862	-200,000	-0,038	0,000
-149,847	-54,273	0,023	-0,007
-148,833	800,000	0,032	0,087
-147,818	800,000	0,032	-0,087
-146,804	110,153	-0,110	-0,095
-145,789	-114,188	0,167	0,023
-144,775	28,363	-0,074	-0,045
-143,760	-80,345	-0,025	-0,006
-142,745	-200,000	-0,022	-0,078
-141,731	207,818	0,052	-0,059
-140,716	-200,000	-0,009	0,049
-139,702	-200,000	0,011	-0,057
-138,687	-124,846	-0,035	0,004
-137,672	-22,289	0,178	-0,078
-136,658	290,992	-0,042	0,055
-135,643	13,048	-0,087	-0,049
-134,629	800,000	-0,070	-0,170
-133,614	-200,000	-0,039	0,159
-132,599	-200,000	-0,005	0,018
-131,585	800,000	0,043	0,131
-130,570	-17,580	0,043	-0,020
-129,556	-200,000	-0,033	0,123
-128,541	-200,000	0,031	0,100
-127,526	800,000	0,065	-0,144
-126,512	-200,000	0,012	0,059
-125,497	70,241	0,043	0,032
-124,483	800,000	0,043	-0,098
-123,468	-43,379	-0,068	-0,025
-122,453	-47,906	-0,057	-0,020
-121,439	13,069	-0,050	-0,028
-120,424	-58,088	-0,101	-0,032
-119,410	-100,066	-0,122	0,022
