DTS Sentinel unit serial number:	SN410029Multiplexer serial number:	ORYXHardware model number:	OX2-SRSoftware version number:	ORYX F/W v4,00 Oryx Data Collector v3.7.2.0data status	okinstallation	B4 Nyhavnadifferential loss correction	single-endedforward channel	channel 2reverse channel	N/Adate	2023/12/16time	06:45:13forward acquisition time	300,00reverse acquisition time	0,00gamma	499,1914k internal	0,3127k external	0,3127temperature offset calibration	1,0000default loss term (dB/km)	0,3820temperature slope calibration	1,0000multiplexer offset coefficient	1,0000multiplexer slope coefficient	1,0000fibre end	0,00T internal ref (°C)	22,31T ext. ref 1 (°C)	7,58T ext. ref 2 (°C)	7,77length (m)	temperature (°C)	Stokes	anti-Stokes-744,400	64,309	0,096	0,072
-743,385	-38,736	-0,139	0,054
-742,371	-28,347	0,073	0,031
-741,356	-35,347	-0,115	0,046
-740,342	800,000	-0,016	-0,043
-739,327	-129,692	-0,196	-0,020
-738,312	-121,898	0,122	0,015
-737,298	105,656	-0,166	0,146
-736,283	212,234	0,034	-0,040
-735,269	-40,456	-0,149	0,057
-734,254	-61,645	0,085	-0,026
-733,239	-28,575	-0,300	-0,128
-732,225	-200,000	0,003	-0,162
-731,210	-200,000	0,000	-0,198
-730,196	-200,000	-0,030	-0,139
-729,181	97,764	0,123	-0,105
-728,167	-200,000	-0,022	0,133
-727,152	-200,000	-0,016	-0,055
-726,137	-101,493	-0,174	0,031
-725,123	800,000	0,012	-0,038
-724,108	-7,004	-0,069	-0,035
-723,094	27,788	-0,035	-0,022
-722,079	800,000	-0,055	-0,123
-721,064	-83,228	0,100	0,024
-720,050	-41,657	-0,132	-0,050
-719,035	-79,146	-0,019	0,005
-718,021	800,000	-0,021	-0,049
-717,006	91,843	-0,201	-0,168
-715,991	-2,602	0,085	0,044
-714,977	-27,645	0,095	-0,041
-713,962	84,243	-0,080	0,065
-712,948	800,000	0,081	-0,179
-711,933	35,508	-0,010	-0,007
-710,918	-200,000	-0,017	-0,144
-709,904	-117,941	0,157	0,021
-708,889	162,513	0,023	0,024
-707,875	21,832	-0,126	0,076
-706,860	89,257	0,056	-0,046
-705,845	82,934	0,095	-0,077
-704,831	-200,000	-0,002	-0,130
-703,816	451,033	-0,032	0,052
-702,802	22,066	-0,148	-0,090
-701,787	-172,613	0,085	0,002
-700,772	-92,153	0,135	-0,028
-699,758	800,000	0,057	-0,127
-698,743	196,308	0,018	0,021
-697,729	-5,676	0,090	0,046
-696,714	207,889	0,024	0,028
-695,699	120,148	-0,071	0,066
-694,685	-200,000	-0,006	-0,184
-693,670	-200,000	-0,011	0,039
-692,656	-200,000	0,008	0,041
-691,641	-111,939	-0,046	0,007
-690,627	-200,000	-0,019	-0,063
-689,612	800,000	-0,015	0,041
-688,597	-200,000	-0,023	-0,132
-687,583	7,131	-0,057	-0,031
-686,568	8,054	-0,044	-0,025
-685,554	-61,474	0,044	0,014
-684,539	-132,600	0,082	-0,008
-683,524	-200,000	-0,002	-0,012
-682,510	592,713	-0,026	-0,049
-681,495	-200,000	-0,026	-0,090
-680,481	92,149	-0,010	-0,008
-679,466	800,000	-0,032	-0,077
-678,451	800,000	-0,022	-0,065
-677,437	-2,057	-0,087	-0,045
-676,422	-200,000	-0,029	0,113
-675,408	659,880	0,014	-0,026
-674,393	49,603	-0,085	-0,060
-673,378	235,686	-0,099	-0,121
-672,364	-200,000	-0,017	-0,058
-671,349	138,159	-0,040	-0,039
-670,335	184,222	0,145	-0,159
-669,320	19,642	0,041	-0,025
-668,305	154,153	0,099	-0,101
-667,291	-97,262	0,053	0,010
-666,276	252,659	-0,010	-0,012
-665,262	-200,000	0,021	-0,110
-664,247	-200,000	-0,006	-0,106
-663,232	-156,886	-0,099	0,004
-662,218	127,977	-0,116	0,110
-661,203	-83,727	-0,027	-0,006
-660,189	41,188	0,103	-0,069
-659,174	93,876	-0,056	0,047
-658,159	135,534	-0,146	-0,141
-657,145	-50,395	-0,188	0,066
-656,130	-200,000	-0,016	0,113
-655,116	800,000	-0,021	0,053
-654,101	-200,000	0,016	-0,072
-653,086	-200,000	-0,015	0,089
-652,072	120,522	-0,080	0,074
-651,057	-46,031	-0,091	0,033
-650,043	-132,063	-0,051	-0,005
-649,028	598,707	0,060	-0,111
-648,014	72,167	-0,108	-0,083
-646,999	453,269	0,039	0,064
-645,984	64,332	0,039	-0,029
-644,970	165,798	-0,040	0,042
-643,955	225,864	-0,137	-0,165
-642,941	-200,000	-0,001	-0,050
-641,926	200,329	-0,062	0,071
-640,911	184,888	0,076	-0,084
-639,897	-78,680	0,094	-0,024
-638,882	8,138	-0,073	-0,040
-637,868	226,859	-0,049	-0,059
-636,853	213,286	-0,034	-0,040
-635,838	-59,651	0,077	-0,024
-634,824	500,267	-0,027	0,046
-633,809	123,507	0,112	-0,104
-632,795	-200,000	0,000	0,096
-631,780	-200,000	-0,032	-0,128
-630,765	64,170	-0,022	0,017
-629,751	23,451	0,053	0,032
-628,736	-158,884	-0,039	-0,002
-627,722	-156,481	-0,050	-0,002
-626,707	19,624	-0,148	-0,088
-625,692	800,000	0,023	-0,054
-624,678	130,229	0,075	0,071
-623,663	252,770	0,046	-0,059
-622,649	-3,919	-0,142	-0,073
-621,634	161,516	-0,158	-0,164
-620,619	-149,970	-0,089	0,005
-619,605	-200,000	-0,006	0,023
-618,590	-51,630	0,032	-0,011
-617,576	800,000	-0,052	0,126
-616,561	-200,000	-0,040	0,000
-615,546	677,368	0,050	-0,096
-614,532	34,881	-0,120	-0,078
-613,517	227,218	-0,073	-0,088
-612,503	-200,000	0,004	0,128
-611,488	265,552	-0,072	0,093
-610,474	-200,000	-0,000	0,093
-609,459	480,325	-0,089	-0,150
-608,444	87,699	-0,058	0,048
-607,430	582,459	-0,059	-0,108
-606,415	800,000	0,043	-0,136
-605,401	117,912	-0,045	-0,041
-604,386	42,599	0,087	-0,059
-603,371	170,701	0,062	0,066
-602,357	-200,000	0,009	-0,121
-601,342	-145,190	-0,018	-0,001
-600,328	-200,000	-0,016	0,105
-599,313	-18,440	-0,058	-0,027
-598,298	-200,000	0,041	0,168
-597,284	-31,843	0,072	0,030
-596,269	-15,115	0,026	0,012
-595,255	800,000	0,019	-0,038
-594,240	-15,704	-0,192	-0,090
-593,225	-28,675	-0,095	0,040
-592,211	112,415	-0,106	-0,095
-591,196	220,069	0,072	-0,086
-590,182	-189,630	-0,025	-0,000
-589,167	-110,646	-0,020	-0,003
-588,152	-200,000	-0,025	0,097
-587,138	78,203	-0,018	-0,014
-586,123	-48,907	-0,034	-0,012
-585,109	-200,000	-0,012	-0,045
-584,094	158,841	-0,013	-0,013
-583,079	-200,000	0,002	0,056
-582,065	175,662	0,026	0,028
-581,050	-200,000	0,021	-0,085
-580,036	-200,000	-0,015	-0,125
-579,021	-200,000	-0,005	-0,084
-578,006	-200,000	-0,017	-0,149
-576,992	-200,000	-0,009	-0,093
-575,977	337,126	-0,067	-0,096
-574,963	-77,775	-0,157	0,040
-573,948	-200,000	-0,021	0,105
-572,934	-198,698	-0,056	-0,000
-571,919	331,208	-0,061	-0,087
-570,904	-131,836	0,062	0,006
-569,890	41,724	0,060	-0,040
-568,875	-35,008	-0,109	-0,044
-567,861	-81,791	-0,110	0,026
-566,846	61,334	0,086	0,063
-565,831	-49,764	-0,054	-0,019
-564,817	-30,822	0,063	-0,026
-563,802	-200,000	-0,008	-0,036
-562,788	227,891	-0,034	-0,041
-561,773	-62,295	0,093	-0,028
-560,758	753,870	-0,077	0,155
-559,744	82,269	-0,049	-0,039
-558,729	74,397	0,068	-0,053
-557,715	240,776	0,035	-0,043
-556,700	443,948	-0,062	-0,101
-555,685	-200,000	0,033	0,149
-554,671	-200,000	-0,018	0,138
-553,656	-4,192	-0,036	0,019
-552,642	111,467	0,069	0,062
-551,627	275,033	-0,039	0,051
-550,612	-200,000	-0,006	0,039
-549,598	135,119	0,105	0,101
-548,583	-200,000	0,003	-0,031
-547,569	-200,000	0,022	-0,089
-546,554	393,956	0,060	0,092
-545,539	-188,084	-0,057	-0,001
-544,525	-66,400	-0,140	-0,041
-543,510	317,858	-0,061	-0,085
-542,496	-200,000	0,006	-0,022
-541,481	54,191	0,085	-0,060
-540,466	89,010	-0,103	-0,085
-539,452	64,128	0,077	-0,057
-538,437	-5,147	0,140	0,071
-537,423	113,776	0,066	0,059
-536,408	-57,898	-0,137	-0,044
-535,393	-67,667	0,085	-0,024
-534,379	136,179	-0,112	-0,108
-533,364	281,343	0,067	-0,089
-532,350	800,000	0,040	-0,101
-531,335	-27,314	0,072	-0,031
-530,321	-106,022	0,277	-0,045
-529,306	316,108	-0,083	-0,116
-528,291	169,399	-0,009	-0,010
-527,277	-63,634	-0,130	0,039
-526,262	405,975	-0,084	-0,132
-525,248	-74,170	0,105	-0,028
-524,233	-57,574	0,156	-0,050
-523,218	203,938	0,020	-0,023
-522,204	800,000	-0,026	0,072
-521,189	151,545	-0,081	-0,081
-520,175	61,644	-0,057	0,041
-519,160	293,960	0,038	-0,051
-518,145	800,000	-0,014	0,041
-517,131	408,528	0,062	0,098
-516,116	800,000	0,046	0,111
-515,102	229,719	-0,061	-0,074
-514,087	58,067	0,028	0,020
-513,072	-61,542	-0,174	-0,053
-512,058	15,121	0,064	0,037
-511,043	-200,000	0,014	-0,051
-510,029	-44,981	0,010	0,004
-509,014	138,379	0,090	0,087
-507,999	-34,897	0,088	-0,035
-506,985	373,064	-0,048	0,073
-505,970	234,882	0,075	0,091
-504,956	141,006	0,055	0,054
-503,941	-129,557	0,047	-0,005
-502,926	121,583	0,058	0,053
-501,912	-108,488	0,131	0,021
-500,897	103,320	-0,066	0,057
-499,883	374,856	-0,101	-0,152
-498,868	-90,181	-0,044	0,009
-497,853	-200,000	0,011	-0,053
-496,839	-200,000	-0,007	-0,030
-495,824	56,118	-0,085	0,060
-494,810	-107,345	0,119	0,019
-493,795	-129,678	0,055	0,006
-492,781	190,141	0,046	0,050
-491,766	-200,000	-0,043	-0,190
-490,751	-200,000	-0,025	-0,142
-489,737	0,216	-0,095	0,050
-488,722	51,006	0,059	0,041
-487,708	-49,162	-0,063	-0,022
-486,693	-200,000	0,017	0,057
-485,678	800,000	-0,072	-0,150
-484,664	800,000	-0,030	-0,064
-483,649	-19,065	-0,119	-0,054
-482,635	186,716	0,035	0,038
-481,620	-200,000	0,005	0,127
-480,605	-151,196	0,098	0,005
-479,591	-99,939	0,090	0,016
-478,576	800,000	0,022	-0,060
-477,562	-79,319	0,078	0,019
-476,547	-159,258	-0,042	-0,002
-475,532	-163,311	0,084	0,003
-474,518	-181,556	-0,061	-0,001
-473,503	105,929	0,055	0,048
-472,489	-71,839	-0,151	0,041
-471,474	800,000	0,034	0,096
-470,459	118,853	0,055	0,050
-469,445	-81,947	-0,048	0,011
-468,430	-200,000	0,002	-0,050
-467,416	456,100	0,102	-0,168
-466,401	-200,000	0,006	-0,059
-465,386	582,135	0,053	0,096
-464,372	-200,000	0,008	-0,050
-463,357	-200,000	-0,006	-0,049
-462,343	-102,328	0,124	0,022
-461,328	-73,989	0,016	0,004
-460,313	-71,953	-0,054	0,015
-459,299	-200,000	-0,021	0,081
-458,284	19,890	0,018	-0,011
-457,270	-107,846	0,112	0,018
-456,255	-22,640	-0,070	-0,031
-455,241	151,890	-0,145	-0,145
-454,226	174,290	0,047	-0,050
-453,211	56,122	-0,028	0,020
-452,197	-200,000	0,014	0,186
-451,182	380,583	0,079	0,120
-450,168	206,598	0,073	-0,084
-449,153	10,280	0,066	-0,037
-448,138	-9,053	0,008	0,004
-447,124	329,229	-0,023	0,033
-446,109	379,666	-0,029	0,045
-445,095	124,073	-0,041	-0,037
-444,080	484,366	0,021	-0,035
-443,065	-171,015	0,124	-0,003
-442,051	21,847	-0,079	-0,047
-441,036	141,927	-0,096	0,093
-440,022	-144,997	-0,095	-0,006
-439,007	32,646	-0,060	0,038
-437,992	151,324	0,085	0,085
-436,978	-200,000	-0,005	-0,044
-435,963	-71,739	0,101	0,028
-434,949	-109,633	-0,103	-0,016
-433,934	201,092	-0,140	0,158
-432,919	11,981	0,080	0,045
-431,905	425,277	-0,094	-0,150
-430,890	247,338	0,147	0,183
-429,876	-137,290	0,118	-0,010
-428,861	-200,000	0,062	0,000
-427,846	273,330	-0,072	-0,094
-426,832	-61,758	-0,121	0,037
-425,817	108,045	-0,058	-0,051
-424,803	-113,770	-0,098	0,014
-423,788	-200,000	-0,006	0,094
-422,773	33,479	0,096	0,061
-421,759	-115,529	0,085	0,012
-420,744	-66,643	-0,012	0,003
-419,730	45,304	0,080	-0,054
-418,715	800,000	-0,012	-0,036
-417,701	800,000	-0,021	0,043
-416,686	-168,209	-0,136	-0,004
-415,671	25,604	0,134	-0,082
-414,657	-200,000	0,013	0,080
-413,642	-91,544	-0,062	-0,013
-412,628	182,054	0,056	-0,061
-411,613	-66,985	0,132	0,038
-410,598	34,320	-0,097	-0,062
-409,584	89,262	-0,107	-0,087
-408,569	-200,000	0,037	-0,127
-407,555	286,814	-0,078	0,103
-406,540	261,036	0,036	0,046
-405,525	-200,000	0,035	0,122
-404,511	-33,519	-0,060	0,024
-403,496	156,051	-0,068	0,069
-402,482	36,306	0,101	-0,065
-401,467	30,089	0,034	-0,021
-400,452	800,000	0,023	0,052
-399,438	161,480	-0,078	0,081
-398,423	800,000	-0,081	-0,224
-397,409	800,000	-0,031	-0,067
-396,394	-200,000	0,034	-0,201
-395,379	-99,276	-0,048	-0,009
-394,365	57,077	0,024	-0,017
-393,350	130,071	-0,123	0,116
-392,336	35,535	0,005	0,003
-391,321	-200,000	0,035	0,233
-390,306	665,128	0,058	0,110
-389,292	-200,000	-0,006	0,036
-388,277	-20,570	0,128	0,058
-387,263	800,000	-0,015	-0,041
-386,248	-45,679	0,099	0,036
-385,233	-200,000	-0,007	0,088
-384,219	-2,570	0,072	0,037
-383,204	800,000	-0,032	-0,089
-382,190	-28,615	-0,143	-0,060
-381,175	35,335	-0,143	-0,092
-380,160	133,591	-0,065	-0,062
-379,146	-105,306	0,080	0,013
-378,131	800,000	-0,007	0,021
-377,117	-200,000	-0,029	0,157
-376,102	800,000	-0,073	0,216
-375,088	-200,000	-0,012	0,183
-374,073	-200,000	0,009	-0,069
-373,058	637,413	-0,030	0,055
-372,044	48,362	-0,047	0,032
-371,029	800,000	0,040	0,117
-370,015	230,832	-0,116	0,140
-369,000	92,335	0,133	-0,110
-367,985	76,820	-0,062	0,049
-366,971	-92,028	0,153	-0,031
-365,956	75,062	-0,053	0,041
-364,942	800,000	-0,047	0,099
-363,927	-200,000	-0,018	0,079
-362,912	159,307	0,043	-0,044
-361,898	114,298	-0,120	0,107
-360,883	800,000	-0,064	-0,199
-359,869	645,144	-0,060	-0,113
-358,854	-161,148	-0,123	-0,005
-357,839	-73,176	-0,121	0,032
-356,825	-69,969	-0,053	0,015
-355,810	-82,063	0,214	0,051
-354,796	50,299	0,113	-0,078
-353,781	-200,000	-0,004	0,023
-352,766	800,000	0,021	0,066
-351,752	-81,025	-0,089	-0,021
-350,737	305,571	0,024	-0,032
-349,723	-79,328	0,007	0,002
-348,708	800,000	-0,026	0,059
-347,693	-62,600	-0,077	0,023
-346,679	800,000	-0,039	-0,109
-345,664	-200,000	-0,016	-0,100
-344,650	-143,203	0,078	-0,005
-343,635	184,079	0,076	0,082
-342,620	-200,000	-0,020	-0,113
-341,606	-70,568	0,059	0,016
-340,591	-200,000	0,005	-0,072
-339,577	-200,000	-0,017	-0,058
-338,562	-16,461	0,046	-0,021
-337,548	473,309	0,095	-0,157
-336,533	-200,000	-0,011	0,097
-335,518	85,580	-0,088	0,070
-334,504	51,583	-0,029	0,020
-333,489	-119,606	-0,055	0,007
-332,475	270,745	0,059	-0,077
-331,460	26,868	0,111	0,068
-330,445	-200,000	0,013	0,087
-329,431	-52,141	0,119	0,040
-328,416	-64,806	-0,088	0,026
-327,402	-132,415	0,087	-0,008
-326,387	203,227	-0,045	-0,051
-325,372	-200,000	0,004	-0,097
-324,358	-53,087	0,176	-0,059
-323,343	81,062	0,007	-0,006
-322,329	-122,279	0,163	0,019
-321,314	-200,000	-0,005	0,060
-320,299	800,000	0,019	0,050
-319,285	23,636	0,142	0,086
-318,270	-200,000	0,004	-0,075
-317,256	145,690	-0,032	0,031
-316,241	800,000	0,043	-0,132
-315,226	-42,337	0,160	-0,059
-314,212	-121,451	-0,105	-0,013
-313,197	-200,000	-0,008	0,155
-312,183	766,461	0,032	-0,064
-311,168	31,721	-0,059	0,037
-310,153	249,709	0,040	-0,050
-309,139	-200,000	0,011	0,048
-308,124	157,044	-0,046	-0,047
-307,110	800,000	-0,046	0,145
-306,095	-178,522	-0,045	-0,001
-305,080	107,266	-0,034	0,030
-304,066	245,484	-0,058	0,071
-303,051	-200,000	0,014	0,051
-302,037	-60,607	-0,058	-0,018
-301,022	800,000	0,057	-0,166
-300,008	800,000	0,044	0,128
-298,993	147,964	-0,062	-0,061
-297,978	49,365	-0,101	0,069
-296,964	800,000	-0,060	0,122
-295,949	16,266	0,050	0,029
-294,935	171,490	-0,025	-0,026
-293,920	-200,000	0,017	0,085
-292,905	-88,151	0,084	-0,018
-291,891	800,000	0,034	0,084
-290,876	62,390	0,167	0,122
-289,862	-200,000	0,009	0,189
-288,847	-200,000	-0,063	0,000
-287,832	-142,865	-0,076	0,005
-286,818	800,000	-0,017	-0,045
-285,803	541,372	0,084	0,147
-284,789	55,482	-0,071	0,050
-283,774	-200,000	0,016	-0,115
-282,759	-200,000	-0,021	0,131
-281,745	-11,344	0,062	0,030
-280,730	-200,000	-0,020	-0,109
-279,716	-63,799	-0,127	-0,038
-278,701	800,000	0,005	-0,015
-277,686	-157,706	0,108	-0,005
-276,672	89,009	-0,070	0,057
-275,657	22,929	-0,113	0,068
-274,643	-200,000	0,039	0,143
-273,628	-200,000	0,012	0,061
-272,613	482,947	0,027	0,045
-271,599	225,237	-0,066	0,079
-270,584	52,454	0,049	-0,034
-269,570	17,081	0,037	-0,021
-268,555	88,738	-0,061	0,049
-267,540	376,764	-0,076	-0,114
-266,526	68,588	0,076	-0,057
-265,511	27,881	-0,102	-0,062
-264,497	-200,000	0,018	0,084
-263,482	-200,000	0,020	0,083
-262,467	-132,202	0,074	-0,007
-261,453	355,238	-0,050	-0,073
-260,438	-113,469	0,073	-0,010
-259,424	-11,392	-0,093	0,045
-258,409	33,073	-0,059	0,037
-257,395	692,476	0,051	-0,098
-256,380	522,628	0,076	0,130
-255,365	268,313	0,071	0,091
-254,351	762,852	0,109	0,217
-253,336	-200,000	-0,027	0,134
-252,322	800,000	-0,057	-0,143
-251,307	-200,000	-0,005	0,097
-250,292	-200,000	-0,005	-0,160
-249,278	-146,488	-0,055	0,003
-248,263	800,000	-0,023	0,056
-247,249	-57,345	0,092	-0,029
-246,234	593,414	-0,086	-0,156
-245,219	800,000	-0,064	-0,160
-244,205	442,523	0,042	-0,068
-243,190	391,151	0,117	-0,178
-242,176	-130,612	0,210	-0,020
-241,161	-151,896	-0,132	0,007
-240,146	-110,329	-0,040	0,006
-239,132	-18,608	0,095	-0,043
-238,117	113,277	0,041	0,036
-237,103	-200,000	0,023	0,146
-236,088	273,084	-0,025	0,032
-235,073	-200,000	-0,006	-0,024
-234,059	74,218	-0,015	0,011
-233,044	-200,000	0,052	0,221
-232,030	-200,000	-0,015	0,162
-231,015	-200,000	-0,021	-0,073
-230,000	238,954	0,022	0,027
-228,986	234,832	-0,073	0,088
-227,971	33,102	0,093	0,059
-226,957	-51,850	0,066	0,022
-225,942	98,841	0,043	0,037
-224,927	800,000	0,045	0,128
-223,913	-20,368	0,121	-0,054
-222,898	-97,402	-0,024	0,004
-221,884	138,950	0,100	0,095
-220,869	-200,000	-0,011	0,073
-219,855	522,742	-0,069	0,119
-218,840	225,779	-0,034	0,041
-217,825	-200,000	0,013	-0,202
-216,811	239,373	-0,043	-0,053
-215,796	-200,000	-0,035	-0,114
-214,782	583,802	0,037	-0,067
-213,767	-164,156	0,108	0,004
-212,752	121,584	0,113	0,103
-211,738	239,302	0,050	-0,061
-210,723	275,214	0,055	-0,072
-209,709	-127,007	-0,087	-0,009
-208,694	-86,449	0,080	-0,018
-207,679	208,778	-0,053	0,061
-206,665	-73,932	0,115	-0,030
-205,650	800,000	-0,020	0,048
-204,636	-200,000	-0,023	0,100
-203,621	120,889	0,064	0,058
-202,606	-188,828	0,039	0,000
-201,592	-200,000	-0,025	-0,146
-200,577	-200,000	-0,036	-0,177
-199,563	429,935	-0,049	-0,077
-198,548	-200,000	0,003	0,169
-197,533	-17,858	0,070	-0,032
-196,519	800,000	0,032	-0,071
-195,504	-200,000	-0,008	-0,103
-194,490	35,294	-0,093	-0,060
-193,475	-200,000	-0,005	-0,075
-192,460	-112,602	-0,026	0,004
-191,446	800,000	-0,053	0,123
-190,431	122,800	-0,090	0,082
-189,417	-72,029	0,119	0,032
-188,402	435,101	0,061	-0,097
-187,387	253,362	-0,043	0,054
-186,373	-200,000	0,018	-0,089
-185,358	65,141	-0,128	-0,094
-184,344	81,388	0,076	0,060
-183,329	800,000	0,079	0,172
-182,315	-149,659	0,078	-0,004
-181,300	-193,031	-0,153	0,001
-180,285	-200,000	-0,008	-0,067
-179,271	119,499	-0,044	0,040
-178,256	223,248	-0,065	-0,076
-177,242	-35,362	-0,032	0,013
-176,227	178,742	0,093	-0,100
-175,212	756,075	0,053	-0,105
-174,198	278,784	-0,052	0,068
-173,183	177,108	0,058	-0,061
-172,169	93,324	-0,151	0,124
-171,154	88,320	-0,059	0,047
-170,139	-200,000	0,015	-0,127
-169,125	452,024	-0,045	-0,072
-168,110	128,052	0,103	-0,096
-167,096	582,061	-0,052	0,093
-166,081	84,580	0,097	-0,077
-165,066	-200,000	-0,003	-0,029
-164,052	-110,927	0,138	-0,020
-163,037	276,749	-0,038	0,050
-162,023	46,441	0,018	-0,012
-161,008	16,730	-0,040	0,023
-159,993	-60,980	0,069	0,021
-158,979	-200,000	-0,016	0,052
-157,964	453,335	0,021	0,034
-156,950	174,523	-0,038	0,040
-155,935	-83,261	0,126	0,029
-154,920	-128,226	0,088	0,009
-153,906	800,000	-0,016	0,050
-152,891	-94,984	-0,136	0,026
-151,877	592,485	0,035	0,063
-150,862	694,740	0,074	-0,141
-149,847	-200,000	0,002	-0,066
-148,833	800,000	-0,024	-0,048
-147,818	-200,000	-0,025	-0,085
-146,804	477,574	0,067	0,111
-145,789	800,000	-0,027	-0,063
-144,775	-171,337	0,072	0,002
-143,760	-200,000	0,036	-0,144
-142,745	125,340	-0,072	-0,066
-141,731	434,169	-0,033	-0,052
-140,716	-96,135	0,125	0,024
-139,702	511,361	0,052	0,088
-138,687	-90,678	0,158	-0,033
-137,672	-200,000	-0,017	0,067
-136,658	-17,051	-0,092	0,042
-135,643	-200,000	0,058	-0,243
-134,629	-200,000	-0,003	-0,067
-133,614	-164,410	0,223	0,007
-132,599	278,319	0,048	-0,063
-131,585	-82,285	0,147	0,034
-130,570	706,515	0,024	0,047
-129,556	-81,847	-0,092	0,022
-128,541	271,006	-0,030	-0,038
-127,526	210,164	0,048	-0,055
-126,512	-125,065	0,111	-0,012
-125,497	626,072	0,023	-0,043
-124,483	79,320	0,135	-0,105
-123,468	16,036	-0,051	-0,029
-122,453	-200,000	0,014	-0,049
-121,439	211,685	0,030	0,034
-120,424	-200,000	0,024	-0,112
-119,410	145,110	-0,033	0,032
