DTS Sentinel unit serial number:	SN410029Multiplexer serial number:	ORYXHardware model number:	OX2-SRSoftware version number:	ORYX F/W v4,00 Oryx Data Collector v3.7.2.0data status	okinstallation	B4 Nyhavnadifferential loss correction	single-endedforward channel	channel 2reverse channel	N/Adate	2023/12/15time	15:20:13forward acquisition time	300,00reverse acquisition time	0,00gamma	499,1914k internal	0,3155k external	0,3155temperature offset calibration	1,0000default loss term (dB/km)	0,3820temperature slope calibration	1,0000multiplexer offset coefficient	1,0000multiplexer slope coefficient	1,0000fibre end	0,00T internal ref (°C)	16,17T ext. ref 1 (°C)	2,60T ext. ref 2 (°C)	2,73length (m)	temperature (°C)	Stokes	anti-Stokes-744,400	-66,341	0,065	0,019
-743,385	75,407	-0,108	0,084
-742,371	-121,157	0,145	-0,018
-741,356	-151,665	-0,269	0,014
-740,342	-200,000	-0,005	-0,029
-739,327	-106,723	-0,235	0,038
-738,312	115,846	0,075	0,068
-737,298	-137,882	-0,296	-0,024
-736,283	210,998	0,099	0,115
-735,269	-83,546	-0,214	-0,050
-734,254	128,779	0,123	0,116
-733,239	-110,298	-0,387	-0,059
-732,225	42,140	0,117	0,078
-731,210	152,571	-0,043	0,043
-730,196	-102,881	0,110	0,019
-729,181	-200,000	-0,021	-0,076
-728,167	-200,000	0,013	-0,042
-727,152	2,123	0,069	-0,036
-726,137	23,638	-0,091	-0,055
-725,123	-177,649	-0,150	0,003
-724,108	79,862	-0,018	-0,015
-723,094	193,195	-0,052	-0,058
-722,079	-200,000	-0,032	-0,153
-721,064	-74,878	0,090	-0,024
-720,050	248,825	0,069	0,086
-719,035	99,216	-0,085	-0,072
-718,021	-62,535	-0,212	-0,065
-717,006	-200,000	-0,014	-0,081
-715,991	-93,862	-0,164	0,033
-714,977	-200,000	-0,116	0,000
-713,962	69,334	-0,089	-0,068
-712,948	687,142	0,044	0,086
-711,933	520,357	0,053	0,092
-710,918	800,000	-0,023	-0,047
-709,904	10,229	-0,081	0,045
-708,889	-100,510	-0,110	-0,020
-707,875	-144,502	0,121	-0,008
-706,860	-148,769	0,037	0,002
-705,845	547,237	0,017	0,031
-704,831	-200,000	0,009	0,030
-703,816	450,555	0,029	0,048
-702,802	-143,308	0,084	0,006
-701,787	44,527	-0,035	0,024
-700,772	-172,568	0,073	0,002
-699,758	-200,000	-0,003	-0,071
-698,743	594,219	-0,008	0,015
-697,729	169,965	-0,073	-0,077
-696,714	800,000	-0,033	0,080
-695,699	800,000	-0,044	-0,116
-694,685	702,147	0,066	-0,129
-693,670	5,456	-0,107	0,058
-692,656	33,172	0,093	-0,059
-691,641	-51,271	-0,057	0,019
-690,627	41,407	0,129	-0,086
-689,612	-53,446	-0,106	-0,036
-688,597	2,258	-0,055	0,029
-687,583	106,224	0,064	0,056
-686,568	-61,371	-0,146	0,045
-685,554	308,734	-0,078	0,107
-684,539	35,243	-0,033	-0,022
-683,524	800,000	-0,008	-0,021
-682,510	55,291	-0,024	-0,017
-681,495	-200,000	-0,010	-0,056
-680,481	-200,000	-0,002	0,023
-679,466	-113,891	-0,153	0,022
-678,451	-121,390	-0,026	-0,003
-677,437	215,092	0,048	0,056
-676,422	177,113	0,015	-0,016
-675,408	86,597	-0,049	-0,040
-674,393	-140,828	-0,122	0,009
-673,378	-22,816	-0,059	-0,026
-672,364	-104,548	-0,019	0,003
-671,349	55,739	0,099	-0,070
-670,335	592,340	-0,026	-0,048
-669,320	140,076	0,138	0,134
-668,305	452,020	0,048	-0,079
-667,291	800,000	-0,027	-0,081
-666,276	381,626	-0,064	-0,096
-665,262	800,000	-0,045	-0,142
-664,247	124,173	-0,037	0,034
-663,232	-138,890	-0,184	-0,015
-662,218	-22,945	0,063	-0,028
-661,203	-200,000	-0,013	-0,067
-660,189	45,112	0,059	-0,040
-659,174	-159,716	0,028	-0,001
-658,159	-181,529	-0,083	-0,001
-657,145	388,895	-0,049	-0,076
-656,130	283,374	-0,063	-0,083
-655,116	159,808	0,075	-0,076
-654,101	-57,450	0,121	-0,039
-653,086	-74,554	-0,061	-0,016
-652,072	800,000	-0,068	0,177
-651,057	-200,000	0,022	0,074
-650,043	715,871	0,047	0,092
-649,028	800,000	-0,017	-0,047
-648,014	295,998	0,094	-0,127
-646,999	-64,670	0,028	0,008
-645,984	800,000	-0,025	-0,058
-644,970	539,441	-0,059	-0,103
-643,955	-91,643	-0,074	-0,015
-642,941	-200,000	-0,005	-0,025
-641,926	562,293	-0,035	-0,063
-640,911	510,797	-0,057	0,098
-639,897	-47,234	0,087	-0,031
-638,882	199,503	-0,103	-0,116
-637,868	-6,325	0,082	-0,041
-636,853	800,000	-0,026	-0,065
-635,838	249,239	-0,053	-0,066
-634,824	-200,000	-0,021	-0,091
-633,809	-200,000	-0,017	0,103
-632,795	-117,290	-0,129	0,017
-631,780	-194,976	-0,085	0,000
-630,765	-159,403	-0,138	0,006
-629,751	127,210	0,064	-0,060
-628,736	84,741	-0,067	0,054
-627,722	389,619	0,013	-0,020
-626,707	71,569	0,012	-0,009
-625,692	427,419	-0,088	0,140
-624,678	-117,616	0,132	0,017
-623,663	90,358	0,050	-0,041
-622,649	-1,765	-0,071	-0,036
-621,634	7,114	0,041	-0,023
-620,619	800,000	-0,028	-0,059
-619,605	800,000	0,010	-0,022
-618,590	639,548	0,060	-0,113
-617,576	-107,162	-0,052	-0,008
-616,561	-200,000	-0,203	0,001
-615,546	800,000	0,039	-0,083
-614,532	16,815	0,024	-0,014
-613,517	-200,000	-0,035	-0,130
-612,503	800,000	-0,034	-0,108
-611,488	-144,163	-0,063	0,004
-610,474	-200,000	0,019	0,085
-609,459	-31,373	0,154	-0,063
-608,444	105,824	-0,060	-0,052
-607,430	300,135	-0,055	-0,075
-606,415	800,000	0,028	0,076
-605,401	-43,530	-0,118	-0,043
-604,386	800,000	0,020	0,054
-603,371	558,099	0,054	0,095
-602,357	51,557	-0,118	-0,082
-601,342	800,000	0,050	0,106
-600,328	2,067	-0,117	-0,062
-599,313	800,000	-0,017	-0,041
-598,298	800,000	-0,034	-0,097
-597,284	548,032	0,053	-0,093
-596,269	-200,000	-0,015	-0,050
-595,255	13,832	0,090	0,051
-594,240	15,103	0,036	0,021
-593,225	-50,446	-0,160	0,055
-592,211	-135,783	0,055	0,005
-591,196	-200,000	-0,001	-0,059
-590,182	259,798	0,035	0,045
-589,167	800,000	-0,031	0,066
-588,152	28,282	0,021	0,013
-587,138	-8,047	0,085	-0,042
-586,123	800,000	0,010	-0,024
-585,109	12,204	-0,089	-0,050
-584,094	-200,000	-0,001	0,015
-583,079	-55,507	0,131	0,043
-582,065	-104,331	0,117	-0,020
-581,050	800,000	0,039	-0,112
-580,036	800,000	0,037	-0,098
-579,021	-200,000	-0,025	0,138
-578,006	800,000	-0,061	-0,150
-576,992	176,348	-0,061	-0,066
-575,977	90,037	-0,023	0,019
-574,963	-200,000	0,008	0,072
-573,948	-140,753	0,195	0,015
-572,934	-200,000	-0,002	-0,007
-571,919	187,665	-0,056	0,062
-570,904	301,584	-0,036	0,049
-569,890	-26,286	-0,128	0,055
-568,875	-200,000	0,008	-0,056
-567,861	-102,296	0,048	0,008
-566,846	81,249	0,093	0,074
-565,831	-59,322	-0,044	0,014
-564,817	-24,521	-0,125	-0,054
-563,802	420,347	-0,041	0,064
-562,788	23,394	-0,056	-0,034
-561,773	-200,000	-0,025	0,140
-560,758	48,213	0,055	0,038
-559,744	29,225	0,088	-0,055
-558,729	800,000	0,022	-0,068
-557,715	800,000	0,031	-0,084
-556,700	16,876	-0,122	-0,071
-555,685	245,485	-0,043	-0,053
-554,671	-62,514	-0,040	0,012
-553,656	132,190	-0,072	0,068
-552,642	189,145	-0,037	-0,041
-551,627	800,000	-0,031	-0,064
-550,612	800,000	-0,038	-0,109
-549,598	230,285	-0,072	0,086
-548,583	-200,000	0,010	0,033
-547,569	-69,087	0,074	-0,021
-546,554	-53,790	0,093	0,031
-545,539	344,827	-0,051	-0,074
-544,525	-200,000	0,013	0,046
-543,510	-80,018	-0,114	-0,028
-542,496	-200,000	0,009	0,065
-541,481	800,000	-0,027	-0,065
-540,466	-200,000	-0,040	0,182
-539,452	-33,220	0,081	0,033
-538,437	594,396	0,103	0,187
-537,423	-200,000	0,029	0,102
-536,408	254,471	-0,083	-0,104
-535,393	379,605	0,033	0,050
-534,379	-200,000	-0,002	0,008
-533,364	800,000	-0,034	0,095
-532,350	-28,034	0,137	0,058
-531,335	526,962	-0,054	-0,093
-530,321	-200,000	0,013	0,105
-529,306	-172,589	-0,189	0,004
-528,291	-49,682	-0,147	-0,051
-527,277	75,255	-0,085	0,065
-526,262	800,000	-0,042	0,099
-525,248	-115,221	0,097	-0,013
-524,233	204,058	0,026	-0,030
-523,218	301,820	0,068	0,092
-522,204	677,916	-0,036	0,069
-521,189	-200,000	-0,003	0,096
-520,175	800,000	-0,027	-0,070
-519,160	604,563	0,032	-0,059
-518,145	208,429	-0,040	-0,046
-517,131	-45,074	-0,008	-0,003
-516,116	211,989	-0,021	-0,025
-515,102	233,566	-0,023	-0,028
-514,087	-200,000	0,059	0,204
-513,072	-200,000	0,029	-0,142
-512,058	-200,000	0,013	-0,115
-511,043	20,492	0,099	0,058
-510,029	800,000	-0,022	0,056
-509,014	-100,047	0,111	-0,020
-507,999	-200,000	0,008	0,115
-506,985	800,000	0,011	0,028
-505,970	-62,755	0,060	-0,018
-504,956	-200,000	0,053	0,000
-503,941	800,000	0,050	0,119
-502,926	247,758	0,082	0,101
-501,912	-118,420	0,042	-0,005
-500,897	241,320	-0,067	0,082
-499,883	137,456	-0,034	0,033
-498,868	641,856	-0,098	0,184
-497,853	-110,481	0,100	0,015
-496,839	229,405	-0,119	0,143
-495,824	181,451	0,075	-0,081
-494,810	-73,037	0,099	-0,026
-493,795	-200,000	0,011	0,046
-492,781	-136,673	-0,113	-0,009
-491,766	-107,081	-0,122	0,019
-490,751	-61,701	-0,131	-0,040
-489,737	168,397	0,049	-0,051
-488,722	448,914	0,014	0,023
-487,708	34,037	0,078	0,049
-486,693	586,079	0,024	-0,044
-485,678	40,453	-0,114	-0,075
-484,664	-200,000	0,018	-0,075
-483,649	-200,000	-0,046	-0,169
-482,635	-64,824	0,048	-0,014
-481,620	18,177	-0,119	-0,069
-480,605	800,000	0,052	-0,123
-479,591	4,361	0,142	0,076
-478,576	172,722	0,056	-0,059
-477,562	-83,104	-0,119	0,028
-476,547	-200,000	-0,008	-0,042
-475,532	-200,000	-0,005	0,067
-474,518	78,708	-0,053	0,042
-473,503	89,840	-0,156	0,127
-472,489	800,000	0,026	0,056
-471,474	102,663	0,063	-0,054
-470,459	65,457	-0,066	0,049
-469,445	338,147	0,036	-0,051
-468,430	-200,000	-0,033	-0,160
-467,416	-200,000	0,002	0,156
-466,401	-200,000	0,002	-0,012
-465,386	130,165	0,049	0,046
-464,372	324,606	0,085	0,119
-463,357	-200,000	0,049	-0,193
-462,343	-47,136	-0,095	-0,034
-461,328	-200,000	-0,017	0,058
-460,313	800,000	0,070	0,211
-459,299	-200,000	0,009	0,101
-458,284	465,166	0,008	-0,014
-457,270	-200,000	-0,001	-0,074
-456,255	-64,487	-0,038	-0,011
-455,241	51,994	0,051	-0,035
-454,226	331,233	-0,069	-0,097
-453,211	-147,319	-0,086	-0,005
-452,197	188,609	0,129	0,140
-451,182	-81,638	0,057	-0,014
-450,168	89,597	-0,114	-0,092
-449,153	9,038	0,059	-0,032
-448,138	800,000	-0,024	0,073
-447,124	-200,000	-0,023	-0,091
-446,109	-30,925	0,137	-0,056
-445,095	800,000	0,018	-0,042
-444,080	-88,538	-0,093	0,020
-443,065	-111,627	-0,030	-0,004
-442,051	392,939	-0,019	0,029
-441,036	-200,000	0,035	-0,297
-440,022	128,116	-0,047	-0,044
-439,007	-112,849	0,109	-0,016
-437,992	212,709	-0,072	0,083
-436,978	-5,150	0,125	0,062
-435,963	40,875	-0,110	-0,072
-434,949	791,892	0,010	0,021
-433,934	463,864	-0,058	-0,095
-432,919	800,000	0,027	-0,064
-431,905	87,245	-0,086	0,069
-430,890	-3,625	0,059	-0,030
-429,876	-20,606	0,105	0,047
-428,861	-113,721	-0,047	0,007
-427,846	29,204	0,008	0,005
-426,832	800,000	-0,088	0,197
-425,817	305,289	-0,053	-0,072
-424,803	142,591	-0,068	0,066
-423,788	800,000	0,042	0,110
-422,773	-200,000	-0,009	0,040
-421,759	155,506	0,064	0,064
-420,744	800,000	0,035	-0,078
-419,730	-70,018	-0,081	-0,022
-418,715	-92,866	0,020	-0,004
-417,701	-200,000	0,005	-0,068
-416,686	-121,066	-0,090	-0,011
-415,671	-200,000	-0,002	0,070
-414,657	193,834	-0,016	-0,018
-413,642	32,149	0,031	0,020
-412,628	-200,000	-0,012	-0,120
-411,613	800,000	0,040	-0,109
-410,598	-200,000	-0,003	-0,070
-409,584	-32,237	0,128	0,052
-408,569	-200,000	0,007	-0,039
-407,555	-101,867	0,049	0,009
-406,540	-200,000	-0,007	0,066
-405,525	-47,440	-0,076	-0,027
-404,511	-141,719	-0,108	0,008
-403,496	-172,885	0,056	0,001
-402,482	800,000	-0,034	0,073
-401,467	33,966	0,074	0,047
-400,452	-200,000	0,003	0,067
-399,438	18,809	-0,056	0,032
-398,423	800,000	-0,053	0,122
-397,409	-87,158	0,126	0,028
-396,394	-200,000	0,008	-0,093
-395,379	-75,764	0,022	0,006
-394,365	69,175	0,094	-0,070
-393,350	-200,000	0,004	0,125
-392,336	-200,000	0,016	-0,060
-391,321	800,000	-0,063	-0,199
-390,306	-200,000	-0,005	-0,163
-389,292	647,703	0,047	0,087
-388,277	19,483	0,037	-0,022
-387,263	131,301	0,056	-0,053
-386,248	-200,000	0,018	-0,069
-385,233	-200,000	0,001	0,085
-384,219	-58,609	0,085	-0,027
-383,204	-150,135	0,032	-0,002
-382,190	-200,000	-0,033	-0,165
-381,175	-62,157	-0,021	-0,006
-380,160	268,942	0,050	0,064
-379,146	-200,000	-0,014	-0,057
-378,131	7,913	0,167	0,091
-377,117	25,807	-0,110	0,067
-376,102	-44,302	0,054	-0,020
-375,088	-200,000	-0,003	0,019
-374,073	-154,216	0,024	-0,001
-373,058	694,213	0,057	-0,109
-372,044	367,941	-0,043	-0,063
-371,029	461,781	-0,034	0,055
-370,015	-177,472	0,042	-0,001
-369,000	-177,959	-0,118	0,002
-367,985	-200,000	0,021	-0,081
-366,971	22,463	0,063	0,037
-365,956	-200,000	-0,015	0,107
-364,942	-14,533	0,087	0,041
-363,927	373,672	-0,012	0,018
-362,912	-200,000	-0,024	-0,077
-361,898	-80,247	-0,135	-0,032
-360,883	800,000	0,012	0,039
-359,869	-63,630	-0,044	-0,013
-358,854	800,000	0,038	-0,095
-357,839	145,859	0,115	0,112
-356,825	-55,763	-0,018	0,006
-355,810	251,331	-0,037	0,045
-354,796	619,501	0,075	0,137
-353,781	800,000	0,027	0,078
-352,766	-200,000	0,011	0,072
-351,752	553,736	-0,011	0,019
-350,737	-200,000	-0,005	0,047
-349,723	228,023	-0,070	0,083
-348,708	268,370	0,124	0,158
-347,693	245,413	-0,103	-0,127
-346,679	-4,186	-0,117	-0,059
-345,664	103,009	-0,048	0,041
-344,650	-200,000	-0,022	0,094
-343,635	-50,992	0,058	-0,020
-342,620	-44,568	-0,097	0,035
-341,606	-37,319	-0,089	0,034
-340,591	-25,517	0,073	-0,031
-339,577	227,566	-0,125	-0,147
-338,562	-78,712	-0,125	-0,031
-337,548	800,000	-0,007	-0,019
-336,533	-138,709	-0,059	0,005
-335,518	218,017	0,054	-0,062
-334,504	-200,000	-0,001	0,040
-333,489	214,319	-0,072	-0,083
-332,475	-106,676	-0,099	0,016
-331,460	-200,000	0,012	0,050
-330,445	-200,000	-0,012	0,097
-329,431	85,942	0,082	-0,066
-328,416	-200,000	0,012	-0,075
-327,402	-0,128	0,113	0,058
-326,387	-50,131	-0,087	-0,030
-325,372	-200,000	-0,008	0,124
-324,358	96,079	0,098	-0,081
-323,343	-200,000	0,009	-0,185
-322,329	-11,274	0,019	-0,009
-321,314	321,389	-0,062	0,086
-320,299	38,517	-0,043	0,028
-319,285	557,809	0,064	0,112
-318,270	5,122	0,118	-0,063
-317,256	-200,000	0,001	0,053
-316,241	-133,674	0,100	-0,009
-315,226	69,040	0,047	0,035
-314,212	800,000	0,018	0,047
-313,197	-200,000	0,000	0,098
-312,183	-200,000	-0,003	0,130
-311,168	-105,454	0,075	0,012
-310,153	190,057	-0,131	-0,143
-309,139	46,962	0,026	0,018
-308,124	601,638	0,041	-0,075
-307,110	13,488	-0,040	-0,022
-306,095	-141,499	0,057	-0,004
-305,080	-4,509	-0,063	-0,031
-304,066	-113,062	-0,103	0,015
-303,051	-49,089	-0,116	0,040
-302,037	-200,000	0,035	-0,121
-301,022	-164,371	-0,094	0,003
-300,008	-200,000	0,016	0,093
-298,993	118,546	-0,029	0,026
-297,978	9,560	-0,069	-0,038
-296,964	-50,145	-0,062	0,021
-295,949	118,033	0,027	0,024
-294,935	-200,000	0,030	0,162
-293,920	-169,861	-0,120	-0,003
-292,905	-125,592	0,061	0,007
-291,891	-53,746	-0,134	0,044
-290,876	32,634	0,079	0,049
-289,862	-109,241	-0,041	-0,006
-288,847	12,686	-0,092	0,052
-287,832	-200,000	0,003	-0,034
-286,818	-134,502	0,109	0,010
-285,803	-134,486	0,139	0,012
-284,789	125,746	0,115	0,105
-283,774	-106,163	0,129	-0,021
-282,759	483,229	0,020	0,032
-281,745	-104,594	0,175	0,029
-280,730	27,695	-0,114	-0,069
-279,716	282,691	0,066	0,086
-278,701	800,000	0,037	0,079
-277,686	-200,000	-0,006	-0,037
-276,672	800,000	0,038	0,085
-275,657	146,033	-0,150	-0,146
-274,643	-74,856	-0,026	-0,007
-273,628	-55,095	0,027	-0,009
-272,613	-200,000	0,024	-0,076
-271,599	161,325	0,058	0,058
-270,584	800,000	-0,036	0,074
-269,570	23,148	-0,065	-0,038
-268,555	-200,000	-0,035	0,121
-267,540	-200,000	0,051	-0,188
-266,526	-200,000	-0,009	-0,086
-265,511	10,121	-0,042	-0,023
-264,497	-47,189	0,039	-0,014
-263,482	270,514	0,079	0,100
-262,467	163,576	0,015	-0,016
-261,453	-99,217	0,081	-0,015
-260,438	191,975	-0,051	-0,055
-259,424	-75,370	0,070	0,018
-258,409	800,000	-0,048	0,106
-257,395	-8,803	0,037	-0,018
-256,380	373,079	0,095	-0,140
-255,365	385,013	0,128	-0,191
-254,351	109,141	-0,036	-0,031
-253,336	-200,000	-0,015	-0,050
-252,322	31,379	-0,136	-0,084
-251,307	-83,574	0,126	0,029
-250,292	800,000	0,030	0,062
-249,278	-200,000	-0,007	0,187
-248,263	216,857	-0,048	-0,055
-247,249	10,192	0,150	-0,082
-246,234	-126,188	-0,057	0,006
-245,219	-98,799	-0,057	0,010
-244,205	800,000	0,024	-0,071
-243,190	-75,671	0,046	-0,012
-242,176	-29,696	0,124	0,051
-241,161	75,354	0,081	-0,062
-240,146	15,022	0,157	-0,089
-239,132	-6,931	0,075	0,037
-238,117	132,374	-0,025	-0,023
-237,103	242,415	0,054	0,066
-236,088	-44,734	0,099	0,036
-235,073	20,380	-0,048	0,028
-234,059	57,385	0,065	-0,046
-233,044	-60,515	-0,132	0,040
-232,030	-200,000	-0,028	-0,102
-231,015	800,000	0,038	0,099
-230,000	-120,914	0,081	-0,010
-228,986	-117,653	0,110	0,014
-227,971	22,766	0,104	0,062
-226,957	172,201	-0,150	0,156
-225,942	-145,400	-0,059	0,004
-224,927	-91,463	0,085	-0,017
-223,913	800,000	-0,056	0,122
-222,898	-200,000	-0,009	-0,233
-221,884	-94,070	0,040	-0,008
-220,869	81,485	0,076	-0,060
-219,855	8,022	0,042	-0,023
-218,840	770,992	-0,016	0,032
-217,825	800,000	0,022	0,062
-216,811	-57,785	0,145	-0,046
-215,796	800,000	-0,024	0,055
-214,782	-120,255	0,038	-0,005
-213,767	230,734	0,045	-0,053
-212,752	-200,000	-0,017	0,110
-211,738	156,708	0,027	-0,027
-210,723	45,065	0,110	-0,073
-209,709	-200,000	-0,008	-0,057
-208,694	-200,000	0,010	-0,087
-207,679	-12,472	-0,070	-0,033
-206,665	-200,000	-0,001	0,170
-205,650	46,053	0,124	0,083
-204,636	-156,639	-0,028	0,001
-203,621	-168,614	-0,111	-0,003
-202,606	-95,349	0,194	0,037
-201,592	30,988	-0,049	-0,030
-200,577	-52,864	0,036	0,012
-199,563	-200,000	-0,000	0,019
-198,548	162,299	-0,062	0,062
-197,533	103,490	0,128	0,108
-196,519	375,449	-0,058	0,085
-195,504	800,000	0,023	0,068
-194,490	569,833	0,040	-0,071
-193,475	800,000	0,061	-0,131
-192,460	-200,000	0,001	0,028
-191,446	-167,864	-0,170	-0,005
-190,431	-186,831	0,170	-0,002
-189,417	166,165	-0,075	0,076
-188,402	2,548	-0,129	-0,067
-187,387	-200,000	-0,014	0,106
-186,373	185,683	-0,083	-0,089
-185,358	-153,909	0,142	-0,007
-184,344	-200,000	-0,006	-0,040
-183,329	210,757	-0,084	-0,095
-182,315	800,000	0,023	0,067
-181,300	-34,460	-0,050	-0,020
-180,285	18,365	-0,071	-0,041
-179,271	-200,000	-0,004	-0,157
-178,256	-133,058	0,052	0,005
-177,242	-200,000	0,003	-0,038
-176,227	-18,162	0,071	0,032
-175,212	35,847	-0,054	0,034
-174,198	800,000	-0,039	-0,079
-173,183	-47,087	-0,133	-0,047
-172,169	6,074	-0,111	-0,059
-171,154	202,101	0,032	-0,035
-170,139	63,555	-0,027	-0,020
-169,125	800,000	0,022	0,058
-168,110	89,525	0,103	-0,083
-167,096	-200,000	-0,001	0,012
-166,081	112,458	-0,021	-0,018
-165,066	-119,920	-0,200	-0,024
-164,052	-13,972	-0,038	-0,017
-163,037	-200,000	-0,029	0,131
-162,023	-200,000	0,005	0,120
-161,008	-200,000	0,013	0,166
-159,993	-200,000	-0,015	-0,068
-158,979	800,000	-0,014	-0,039
-157,964	93,325	-0,069	0,056
-156,950	800,000	-0,020	0,053
-155,935	-200,000	-0,001	0,063
-154,920	-97,702	0,103	-0,019
-153,906	-200,000	-0,000	0,039
-152,891	-200,000	-0,012	-0,068
-151,877	-200,000	0,018	0,071
-150,862	800,000	0,038	-0,120
-149,847	-1,928	-0,194	-0,098
-148,833	188,382	0,071	-0,076
-147,818	-200,000	-0,029	-0,137
-146,804	-108,906	0,029	0,004
-145,789	800,000	0,022	0,056
-144,775	-200,000	0,002	0,036
-143,760	93,294	0,072	0,059
-142,745	-73,186	-0,080	0,021
-141,731	46,937	-0,030	0,020
-140,716	-42,191	0,077	0,028
-139,702	800,000	-0,034	0,087
-138,687	800,000	-0,001	-0,001
-137,672	46,856	-0,054	0,036
-136,658	176,806	0,101	-0,105
-135,643	800,000	-0,019	0,052
-134,629	800,000	0,035	0,083
-133,614	102,203	-0,129	0,108
-132,599	156,917	0,083	0,083
-131,585	2,363	0,118	0,061
-130,570	42,135	-0,032	-0,021
-129,556	-192,360	-0,089	-0,001
-128,541	126,446	-0,029	-0,026
-127,526	-200,000	0,000	-0,058
-126,512	-183,485	0,118	0,001
-125,497	-60,701	-0,089	0,027
-124,483	-84,883	-0,036	-0,008
-123,468	-83,459	0,059	-0,014
-122,453	-21,835	-0,116	-0,051
-121,439	-44,428	-0,066	-0,024
-120,424	100,495	-0,101	0,084
-119,410	-108,765	0,063	-0,010
