DTS Sentinel unit serial number:	SN410029Multiplexer serial number:	ORYXHardware model number:	OX2-SRSoftware version number:	ORYX F/W v4,00 Oryx Data Collector v3.7.2.0data status	okinstallation	B4 Nyhavnadifferential loss correction	single-endedforward channel	channel 2reverse channel	N/Adate	2023/12/19time	11:15:13forward acquisition time	300,00reverse acquisition time	0,00gamma	499,1914k internal	0,3128k external	0,3128temperature offset calibration	1,0000default loss term (dB/km)	0,3820temperature slope calibration	1,0000multiplexer offset coefficient	1,0000multiplexer slope coefficient	1,0000fibre end	0,00T internal ref (°C)	19,86T ext. ref 1 (°C)	4,57T ext. ref 2 (°C)	4,51length (m)	temperature (°C)	Stokes	anti-Stokes-744,400	122,619	0,079	-0,073
-743,385	-91,997	-0,195	0,041
-742,371	19,969	0,173	-0,104
-741,356	-121,094	-0,251	0,031
-740,342	449,594	0,025	0,040
-739,327	65,423	-0,155	0,117
-738,312	-200,000	0,028	-0,110
-737,298	-86,969	-0,318	0,072
-736,283	-200,000	0,006	-0,168
-735,269	-44,813	-0,135	0,050
-734,254	-200,000	-0,017	-0,098
-733,239	-8,699	-0,258	-0,128
-732,225	313,779	0,052	-0,073
-731,210	-77,918	-0,057	0,014
-730,196	-113,549	-0,096	0,014
-729,181	-200,000	0,018	-0,066
-728,167	576,730	0,028	0,051
-727,152	-200,000	-0,026	-0,147
-726,137	-200,000	0,013	0,065
-725,123	800,000	-0,007	0,017
-724,108	-200,000	0,049	-0,179
-723,094	-163,119	-0,106	0,004
-722,079	124,958	-0,083	-0,077
-721,064	424,620	0,038	-0,061
-720,050	-200,000	0,003	0,084
-719,035	41,790	-0,059	0,039
-718,021	-92,714	0,010	0,002
-717,006	800,000	0,005	-0,012
-715,991	-101,947	0,073	-0,013
-714,977	407,146	0,081	-0,128
-713,962	49,882	-0,022	0,015
-712,948	-200,000	-0,006	-0,047
-711,933	54,554	-0,034	-0,024
-710,918	-83,066	0,118	0,028
-709,904	309,708	-0,058	-0,081
-708,889	-200,000	-0,006	0,038
-707,875	800,000	-0,041	-0,110
-706,860	193,093	0,085	0,095
-705,845	721,120	-0,080	0,158
-704,831	7,987	-0,043	-0,024
-703,816	315,298	0,086	0,121
-702,802	-200,000	0,042	0,139
-701,787	331,535	0,034	-0,049
-700,772	473,563	-0,079	-0,133
-699,758	-200,000	0,007	0,071
-698,743	15,547	0,118	-0,069
-697,729	-200,000	0,013	0,105
-696,714	83,375	-0,070	0,057
-695,699	-17,957	-0,051	-0,023
-694,685	-200,000	0,022	0,109
-693,670	-75,430	-0,121	-0,032
-692,656	-119,959	-0,138	0,017
-691,641	-200,000	0,000	-0,032
-690,627	695,901	0,039	0,077
-689,612	318,763	-0,032	0,045
-688,597	800,000	0,013	-0,026
-687,583	718,419	0,050	0,099
-686,568	41,937	-0,067	-0,045
-685,554	800,000	0,045	-0,101
-684,539	-200,000	0,010	-0,085
-683,524	292,837	0,039	0,053
-682,510	-125,955	-0,103	0,011
-681,495	-103,943	0,051	0,009
-680,481	66,991	-0,054	-0,041
-679,466	-84,365	0,154	-0,036
-678,451	56,929	-0,029	0,021
-677,437	86,504	-0,095	0,078
-676,422	800,000	-0,037	-0,120
-675,408	-163,984	-0,146	0,005
-674,393	-200,000	0,013	0,061
-673,378	-46,918	-0,108	-0,039
-672,364	263,492	0,038	0,050
-671,349	308,438	-0,078	-0,109
-670,335	300,225	0,076	-0,104
-669,320	-94,917	-0,097	-0,019
-668,305	-200,000	0,005	0,109
-667,291	380,410	0,018	0,028
-666,276	49,166	-0,022	0,015
-665,262	546,732	0,039	-0,070
-664,247	-19,825	-0,074	0,034
-663,232	24,422	0,027	0,016
-662,218	13,415	0,180	0,103
-661,203	-200,000	-0,011	0,043
-660,189	157,338	0,067	0,069
-659,174	319,346	0,047	-0,066
-658,159	-200,000	0,012	-0,122
-657,145	535,985	0,051	-0,090
-656,130	-85,780	0,010	-0,002
-655,116	800,000	-0,015	-0,048
-654,101	800,000	-0,016	0,047
-653,086	187,312	0,019	-0,021
-652,072	-72,301	-0,054	0,015
-651,057	-200,000	-0,020	-0,107
-650,043	443,215	0,057	-0,093
-649,028	-200,000	-0,026	-0,144
-648,014	-30,489	0,050	-0,021
-646,999	93,074	-0,039	-0,032
-645,984	-144,503	-0,100	-0,007
-644,970	79,982	-0,132	-0,105
-643,955	-28,889	-0,125	-0,053
-642,941	-32,653	-0,151	0,062
-641,926	188,985	-0,052	0,057
-640,911	-28,137	0,144	-0,062
-639,897	-18,148	-0,005	-0,002
-638,882	-200,000	-0,021	0,121
-637,868	-200,000	-0,002	0,015
-636,853	-156,139	-0,117	0,005
-635,838	250,102	-0,071	0,090
-634,824	409,116	0,071	-0,112
-633,809	-200,000	0,023	-0,133
-632,795	800,000	0,041	-0,096
-631,780	-200,000	0,001	0,035
-630,765	-200,000	0,021	-0,091
-629,751	-200,000	0,014	-0,075
-628,736	800,000	-0,047	-0,112
-627,722	-200,000	-0,026	-0,198
-626,707	-101,395	-0,083	0,015
-625,692	-106,601	0,088	0,014
-624,678	-200,000	-0,012	0,067
-623,663	172,471	-0,010	-0,011
-622,649	-200,000	-0,011	-0,046
-621,634	-200,000	0,036	-0,120
-620,619	-36,183	-0,124	0,049
-619,605	-200,000	-0,004	-0,016
-618,590	-46,005	0,091	0,033
-617,576	-28,178	0,050	-0,021
-616,561	147,142	-0,043	-0,043
-615,546	-19,471	-0,127	-0,058
-614,532	-200,000	-0,004	-0,026
-613,517	800,000	-0,060	-0,146
-612,503	-128,559	-0,117	-0,012
-611,488	-120,787	0,070	-0,009
-610,474	10,456	0,053	0,030
-609,459	800,000	-0,017	-0,039
-608,444	-200,000	0,001	0,156
-607,430	-200,000	0,029	-0,131
-606,415	-20,130	-0,085	0,039
-605,401	54,541	0,070	-0,050
-604,386	-165,441	0,045	-0,001
-603,371	-58,027	0,079	0,025
-602,357	726,517	-0,070	-0,138
-601,342	361,831	-0,077	-0,115
-600,328	191,229	-0,107	-0,120
-599,313	800,000	-0,029	-0,082
-598,298	-92,300	0,105	-0,022
-597,284	70,779	0,069	0,053
-596,269	292,484	-0,039	-0,053
-595,255	-135,895	0,112	0,010
-594,240	208,756	-0,071	0,082
-593,225	-134,274	0,039	-0,004
-592,211	189,692	-0,030	0,034
-591,196	62,390	0,082	0,061
-590,182	-96,618	0,172	-0,033
-589,167	-200,000	-0,013	0,139
-588,152	-20,015	0,099	0,045
-587,138	-18,325	0,077	0,036
-586,123	800,000	0,019	0,061
-585,109	254,728	0,075	-0,095
-584,094	105,495	-0,075	0,066
-583,079	800,000	0,038	-0,109
-582,065	-54,680	-0,171	-0,057
-581,050	800,000	0,039	0,091
-580,036	-200,000	0,050	-0,172
-579,021	800,000	-0,025	-0,076
-578,006	115,633	-0,165	-0,149
-576,992	-148,008	0,106	0,006
-575,977	172,796	-0,033	0,035
-574,963	-173,780	0,038	0,001
-573,948	-114,521	-0,051	0,007
-572,934	35,604	-0,031	0,020
-571,919	-200,000	-0,001	-0,093
-570,904	-47,333	0,054	-0,019
-569,890	445,924	0,015	0,025
-568,875	232,890	-0,083	-0,101
-567,861	193,162	0,096	-0,107
-566,846	-200,000	-0,014	0,073
-565,831	-88,692	0,125	0,027
-564,817	800,000	-0,017	-0,049
-563,802	-114,099	-0,059	0,008
-562,788	-40,935	0,123	-0,047
-561,773	302,158	-0,033	-0,045
-560,758	-198,873	-0,070	0,000
-559,744	-200,000	0,000	-0,038
-558,729	514,683	-0,008	0,015
-557,715	800,000	0,043	0,107
-556,700	373,860	-0,054	-0,081
-555,685	-200,000	-0,014	0,048
-554,671	402,510	0,013	0,020
-553,656	-200,000	0,032	0,109
-552,642	-200,000	0,004	0,040
-551,627	-97,479	-0,022	-0,004
-550,612	-74,660	-0,114	0,030
-549,598	-200,000	-0,010	-0,056
-548,583	143,539	-0,101	-0,100
-547,569	-200,000	-0,017	-0,127
-546,554	310,037	0,088	0,122
-545,539	29,480	0,045	0,028
-544,525	-200,000	-0,007	-0,061
-543,510	-14,223	-0,142	-0,068
-542,496	-200,000	-0,007	-0,053
-541,481	-170,406	-0,078	-0,002
-540,466	125,534	-0,052	0,049
-539,452	-113,794	0,145	-0,021
-538,437	163,502	-0,094	0,098
-537,423	-200,000	0,003	0,030
-536,408	-21,251	-0,007	0,003
-535,393	59,373	-0,132	-0,096
-534,379	183,201	-0,135	-0,147
-533,364	-200,000	-0,014	-0,104
-532,350	294,127	-0,014	0,020
-531,335	-200,000	-0,013	-0,043
-530,321	383,219	-0,045	0,068
-529,306	800,000	0,078	-0,194
-528,291	614,131	0,048	-0,089
-527,277	113,342	-0,095	-0,085
-526,262	-200,000	0,005	0,036
-525,248	369,701	0,050	0,076
-524,233	179,370	-0,053	-0,058
-523,218	556,102	0,020	-0,036
-522,204	548,963	-0,096	-0,170
-521,189	-103,785	-0,100	0,017
-520,175	-31,369	-0,042	-0,017
-519,160	53,474	-0,134	0,095
-518,145	800,000	-0,038	-0,099
-517,131	-36,748	-0,137	-0,054
-516,116	295,638	0,023	-0,032
-515,102	-42,491	-0,177	0,066
-514,087	52,663	0,025	-0,018
-513,072	-200,000	0,017	-0,104
-512,058	145,697	-0,047	-0,046
-511,043	800,000	-0,045	0,106
-510,029	41,585	0,073	-0,049
-509,014	-200,000	-0,011	-0,136
-507,999	800,000	0,017	0,038
-506,985	-200,000	-0,000	-0,151
-505,970	800,000	-0,044	-0,112
-504,956	-41,896	-0,074	0,028
-503,941	44,675	0,107	0,072
-502,926	-42,061	0,025	-0,009
-501,912	350,421	-0,012	0,018
-500,897	158,318	0,026	-0,027
-499,883	620,555	0,032	-0,060
-498,868	-200,000	0,029	-0,109
-497,853	75,029	-0,146	-0,114
-496,839	213,333	0,074	-0,086
-495,824	-82,300	0,057	0,014
-494,810	-141,530	0,139	0,010
-493,795	337,601	0,031	-0,045
-492,781	-200,000	0,025	-0,101
-491,766	17,866	-0,006	0,004
-490,751	634,790	-0,072	-0,135
-489,737	-25,475	0,107	0,046
-488,722	-22,525	-0,035	0,015
-487,708	-200,000	0,002	-0,015
-486,693	116,063	0,061	0,055
-485,678	311,047	-0,025	0,035
-484,664	800,000	0,037	-0,107
-483,649	18,651	-0,058	-0,034
-482,635	800,000	0,082	0,174
-481,620	80,766	0,214	0,170
-480,605	-200,000	0,009	0,124
-479,591	444,016	0,038	0,062
-478,576	164,442	0,102	0,106
-477,562	-200,000	-0,002	-0,062
-476,547	-113,721	0,047	-0,007
-475,532	39,196	-0,041	-0,027
-474,518	800,000	-0,029	-0,080
-473,503	-91,486	-0,108	0,022
-472,489	-19,053	0,031	0,014
-471,474	-200,000	0,005	0,016
-470,459	685,818	0,051	0,099
-469,445	385,328	-0,084	0,128
-468,430	722,407	-0,002	-0,005
-467,416	-200,000	0,029	0,106
-466,401	-200,000	0,034	-0,117
-465,386	7,504	0,022	-0,012
-464,372	-80,133	0,074	-0,018
-463,357	67,450	0,076	-0,057
-462,343	10,639	-0,104	-0,058
-461,328	-51,936	-0,120	0,041
-460,313	-200,000	0,031	0,158
-459,299	-196,542	-0,102	0,000
-458,284	-21,676	0,051	-0,023
-457,270	-6,754	0,136	-0,068
-456,255	-78,413	-0,190	0,048
-455,241	800,000	0,007	-0,020
-454,226	657,331	-0,083	-0,157
-453,211	-200,000	0,011	0,078
-452,197	63,900	0,020	-0,015
-451,182	277,773	-0,054	0,070
-450,168	-28,215	0,048	0,020
-449,153	800,000	0,041	-0,085
-448,138	-111,946	-0,052	-0,008
-447,124	800,000	-0,035	0,093
-446,109	-40,660	0,031	0,012
-445,095	269,657	0,045	-0,059
-444,080	800,000	0,047	0,144
-443,065	266,757	-0,071	0,091
-442,051	-166,829	-0,048	-0,001
-441,036	392,817	0,058	0,088
-440,022	-60,738	0,091	-0,028
-439,007	-200,000	0,011	-0,051
-437,992	800,000	0,019	0,052
-436,978	800,000	0,047	-0,101
-435,963	37,260	-0,013	-0,009
-434,949	-174,908	0,045	-0,001
-433,934	513,023	0,026	0,045
-432,919	464,520	0,093	0,154
-431,905	673,001	0,039	0,074
-430,890	310,450	0,020	0,027
-429,876	-45,818	-0,099	0,036
-428,861	723,257	0,097	0,191
-427,846	-200,000	0,024	-0,162
-426,832	-11,014	0,028	0,014
-425,817	151,128	-0,121	-0,121
-424,803	-87,956	0,148	0,032
-423,788	-26,798	-0,047	0,020
-422,773	-135,163	0,025	0,002
-421,759	-200,000	-0,018	0,070
-420,744	322,751	-0,072	0,102
-419,730	298,438	0,017	0,023
-418,715	-146,312	0,153	0,010
-417,701	-71,144	0,009	0,003
-416,686	82,351	-0,018	-0,015
-415,671	393,195	0,034	-0,051
-414,657	800,000	-0,050	0,159
-413,642	-130,868	0,016	0,002
-412,628	-200,000	-0,006	0,139
-411,613	688,823	-0,028	0,055
-410,598	-116,145	-0,121	-0,016
-409,584	248,433	-0,021	0,026
-408,569	194,254	0,049	0,054
-407,555	-200,000	-0,004	-0,041
-406,540	-180,728	0,070	0,001
-405,525	747,520	-0,063	-0,125
-404,511	98,794	0,107	-0,091
-403,496	800,000	-0,044	0,110
-402,482	316,702	0,071	0,099
-401,467	542,030	0,051	-0,090
-400,452	597,879	0,039	0,071
-399,438	-200,000	0,002	0,104
-398,423	602,683	0,030	0,055
-397,409	-67,612	-0,006	-0,002
-396,394	-200,000	-0,024	-0,144
-395,379	5,189	-0,161	-0,087
-394,365	-54,134	0,102	-0,034
-393,350	145,066	0,032	-0,032
-392,336	57,908	0,123	0,088
-391,321	-47,894	0,065	-0,023
-390,306	-6,974	-0,227	-0,113
-389,292	23,390	-0,046	0,027
-388,277	-64,836	0,070	0,021
-387,263	90,383	-0,061	0,050
-386,248	2,259	-0,068	-0,036
-385,233	458,651	0,025	0,040
-384,219	663,481	0,087	0,165
-383,204	643,319	0,012	0,022
-382,190	-55,448	-0,062	0,020
-381,175	352,360	0,013	0,019
-380,160	202,142	-0,020	0,023
-379,146	124,034	-0,084	0,077
-378,131	315,060	0,072	0,100
-377,117	323,028	0,046	-0,064
-376,102	-78,559	-0,063	0,016
-375,088	243,266	-0,107	-0,132
-374,073	61,465	-0,092	-0,067
-373,058	307,450	0,065	0,089
-372,044	-114,023	0,194	-0,027
-371,029	800,000	0,004	0,009
-370,015	-25,039	0,031	-0,014
-369,000	-44,789	0,070	0,026
-367,985	-65,977	-0,122	-0,036
-366,971	150,261	0,049	0,049
-365,956	-200,000	-0,000	-0,025
-364,942	-200,000	-0,027	0,087
-363,927	627,287	-0,038	-0,070
-362,912	800,000	0,034	0,086
-361,898	-200,000	0,008	0,069
-360,883	557,059	-0,004	0,007
-359,869	177,348	-0,063	-0,067
-358,854	-200,000	0,001	0,019
-357,839	-15,239	0,148	-0,069
-356,825	-200,000	0,004	-0,020
-355,810	-102,886	0,077	-0,013
-354,796	-137,198	0,043	0,004
-353,781	-155,101	-0,106	-0,005
-352,766	-10,260	0,035	0,017
-351,752	494,611	-0,117	-0,198
-350,737	205,300	-0,052	-0,060
-349,723	88,877	-0,113	0,092
-348,708	-33,010	0,029	-0,012
-347,693	3,032	-0,059	0,031
-346,679	-46,709	-0,071	0,025
-345,664	400,735	-0,048	-0,075
-344,650	-114,667	0,087	-0,012
-343,635	800,000	0,070	0,198
-342,620	280,958	0,092	0,120
-341,606	800,000	0,039	0,114
-340,591	-169,266	-0,176	-0,005
-339,577	-116,794	-0,065	-0,009
-338,562	-157,658	0,126	-0,005
-337,548	800,000	0,061	-0,136
-336,533	-200,000	0,037	0,151
-335,518	86,465	0,110	0,089
-334,504	-200,000	0,011	0,055
-333,489	-121,655	0,139	-0,017
-332,475	-58,666	-0,069	0,022
-331,460	139,256	-0,056	-0,054
-330,445	-13,319	-0,132	-0,063
-329,431	334,567	-0,095	0,135
-328,416	-200,000	0,039	0,176
-327,402	636,493	0,085	0,158
-326,387	67,773	0,042	0,032
-325,372	208,636	-0,073	-0,084
-324,358	77,108	0,057	-0,044
-323,343	324,275	0,079	-0,111
-322,329	267,084	-0,047	-0,061
-321,314	230,083	0,092	0,111
-320,299	460,112	0,022	-0,036
-319,285	82,046	-0,108	0,086
-318,270	-200,000	-0,018	0,200
-317,256	-200,000	-0,034	-0,183
-316,241	-200,000	-0,014	-0,177
-315,226	-125,713	-0,129	0,014
-314,212	-57,016	-0,036	0,011
-313,197	233,198	0,019	-0,023
-312,183	193,747	-0,091	-0,101
-311,168	214,664	0,067	-0,078
-310,153	416,308	0,054	-0,084
-309,139	-90,959	-0,176	0,037
-308,124	-200,000	-0,003	0,275
-307,110	-200,000	0,019	-0,126
-306,095	287,718	0,037	0,049
-305,080	-64,774	0,102	-0,030
-304,066	-200,000	0,000	0,025
-303,051	-30,096	-0,018	-0,007
-302,037	-31,808	0,028	0,011
-301,022	800,000	0,042	0,099
-300,008	-174,469	-0,065	-0,001
-298,993	800,000	0,025	0,063
-297,978	-13,230	0,095	-0,045
-296,964	54,821	0,140	0,099
-295,949	157,442	-0,023	-0,024
-294,935	110,490	-0,044	-0,038
-293,920	-142,400	-0,071	0,005
-292,905	592,544	0,060	0,108
-291,891	-15,276	0,181	0,084
-290,876	157,506	-0,069	0,070
-289,862	86,603	-0,084	-0,068
-288,847	422,609	0,039	0,062
-287,832	-30,272	-0,022	-0,009
-286,818	-42,441	0,121	0,045
-285,803	-143,763	0,144	0,010
-284,789	800,000	-0,011	0,029
-283,774	124,187	0,122	0,112
-282,759	800,000	-0,035	0,072
-281,745	391,063	-0,012	0,019
-280,730	61,681	-0,152	-0,110
-279,716	-89,888	0,035	0,007
-278,701	-55,270	0,085	-0,028
-277,686	424,305	-0,135	0,212
-276,672	-200,000	-0,018	0,071
-275,657	282,992	0,059	0,077
-274,643	-200,000	0,018	-0,207
-273,628	-175,851	-0,053	-0,001
-272,613	-121,111	-0,067	0,008
-271,599	-53,944	0,112	-0,037
-270,584	-131,359	-0,073	0,007
-269,570	299,663	0,067	0,091
-268,555	231,901	-0,071	-0,085
-267,540	48,722	0,083	0,057
-266,526	337,689	-0,097	-0,138
-265,511	-123,348	-0,080	-0,009
-264,497	49,768	-0,073	0,050
-263,482	-200,000	0,023	-0,090
-262,467	53,913	0,064	0,045
-261,453	-200,000	-0,010	0,054
-260,438	-38,790	-0,061	-0,023
-259,424	800,000	0,028	-0,064
-258,409	-200,000	0,005	-0,032
-257,395	751,122	-0,076	-0,150
-256,380	314,689	-0,041	-0,057
-255,365	11,947	0,095	0,053
-254,351	45,038	0,136	0,091
-253,336	800,000	-0,037	0,081
-252,322	-123,949	0,046	-0,005
-251,307	82,072	-0,020	-0,016
-250,292	-200,000	-0,019	0,103
-249,278	-106,845	0,103	-0,016
-248,263	67,118	-0,111	0,082
-247,249	-99,836	-0,092	-0,017
-246,234	-78,096	-0,086	0,021
-245,219	37,832	0,013	0,008
-244,205	-200,000	0,036	0,171
-243,190	124,156	0,008	-0,007
-242,176	-31,746	-0,080	-0,033
-241,161	80,627	0,061	-0,048
-240,146	-169,479	-0,080	-0,002
-239,132	-116,271	0,079	-0,011
-238,117	-200,000	0,002	-0,170
-237,103	288,796	-0,053	-0,071
-236,088	369,460	0,012	-0,018
-235,073	115,010	0,063	0,056
-234,059	-200,000	0,010	-0,098
-233,044	100,713	0,078	0,066
-232,030	219,087	-0,030	-0,035
-231,015	-200,000	-0,001	-0,122
-230,000	-200,000	0,020	-0,139
-228,986	-200,000	0,007	-0,083
-227,971	-131,753	-0,076	0,007
-226,957	800,000	-0,064	0,136
-225,942	83,389	0,105	0,084
-224,927	800,000	-0,035	-0,089
-223,913	84,805	0,122	0,097
-222,898	-200,000	-0,007	-0,049
-221,884	34,492	0,102	-0,065
-220,869	254,869	0,045	-0,056
-219,855	352,968	0,055	-0,080
-218,840	445,384	-0,045	0,072
-217,825	800,000	-0,040	-0,086
-216,811	145,584	0,099	0,096
-215,796	-143,955	-0,127	-0,009
-214,782	800,000	0,027	-0,059
-213,767	-200,000	-0,030	0,152
-212,752	429,841	0,053	0,084
-211,738	-200,000	0,012	0,050
-210,723	-80,254	0,066	0,016
-209,709	-200,000	-0,027	-0,180
-208,694	-100,430	0,102	0,018
-207,679	-200,000	-0,003	0,162
-206,665	-200,000	-0,014	0,066
-205,650	-200,000	0,053	0,209
-204,636	-200,000	-0,014	0,051
-203,621	-200,000	-0,013	0,068
-202,606	690,492	0,035	0,068
-201,592	16,316	-0,072	0,041
-200,577	8,883	0,015	0,008
-199,563	33,842	0,093	0,059
-198,548	-200,000	0,041	0,169
-197,533	-200,000	0,012	0,189
-196,519	335,740	-0,060	0,086
-195,504	-129,134	0,084	0,008
-194,490	-200,000	0,017	-0,087
-193,475	800,000	0,033	0,066
-192,460	-134,711	-0,076	0,007
-191,446	-106,942	-0,065	-0,010
-190,431	62,795	0,134	-0,097
-189,417	-174,858	0,121	-0,002
-188,402	-200,000	-0,003	-0,031
-187,387	-200,000	0,028	-0,140
-186,373	-200,000	0,005	-0,035
-185,358	31,145	0,027	0,017
-184,344	-200,000	-0,011	0,119
-183,329	-200,000	0,003	0,050
-182,315	45,049	0,074	0,050
-181,300	628,581	0,031	-0,056
-180,285	45,662	-0,072	-0,049
-179,271	-93,213	-0,053	0,011
-178,256	231,420	-0,076	0,091
-177,242	-200,000	0,012	-0,184
-176,227	189,505	0,050	0,055
-175,212	296,221	-0,020	-0,027
-174,198	-86,895	0,085	-0,019
-173,183	-175,578	-0,109	0,002
-172,169	800,000	0,031	0,090
-171,154	606,561	-0,038	-0,070
-170,139	293,587	0,006	-0,008
-169,125	205,588	-0,067	0,076
-168,110	-146,308	0,050	-0,003
-167,096	510,875	-0,019	0,032
-166,081	157,244	0,070	-0,071
-165,066	-52,384	-0,103	0,035
-164,052	250,083	0,027	-0,033
-163,037	-88,606	-0,069	-0,015
-162,023	-34,468	-0,049	0,019
-161,008	9,581	0,013	0,007
-159,993	-19,475	0,119	0,054
-158,979	84,420	-0,100	0,080
-157,964	-200,000	0,017	-0,078
-156,950	-200,000	0,017	-0,080
-155,935	165,609	0,026	0,027
-154,920	-200,000	0,013	0,061
-153,906	-200,000	-0,025	0,119
-152,891	145,380	-0,033	-0,032
-151,877	-200,000	0,051	-0,183
-150,862	-71,757	-0,095	-0,026
-149,847	-65,767	0,079	0,023
-148,833	-25,759	0,065	0,028
-147,818	689,530	0,108	0,206
-146,804	-200,000	0,006	-0,073
-145,789	-142,297	0,131	0,009
-144,775	405,633	0,045	0,069
-143,760	-96,292	-0,071	-0,014
-142,745	288,874	-0,064	-0,084
-141,731	-200,000	-0,011	-0,109
-140,716	800,000	-0,045	0,106
-139,702	83,239	0,068	0,053
-138,687	-95,723	-0,063	0,012
-137,672	-53,900	0,149	-0,049
-136,658	-16,110	-0,041	-0,019
-135,643	800,000	0,009	-0,020
-134,629	92,252	-0,045	-0,036
-133,614	102,438	0,020	-0,017
-132,599	-19,881	-0,103	-0,046
-131,585	163,050	0,011	0,011
-130,570	165,706	-0,099	0,102
-129,556	-120,648	-0,061	0,007
-128,541	-146,312	-0,090	-0,006
-127,526	60,173	-0,090	-0,064
-126,512	40,447	-0,105	-0,069
-125,497	-46,977	0,048	-0,017
-124,483	65,378	-0,101	0,074
-123,468	-39,152	-0,121	-0,046
-122,453	800,000	0,064	-0,167
-121,439	-200,000	-0,032	-0,167
-120,424	-65,438	-0,082	-0,024
-119,410	-200,000	0,035	0,000
