DTS Sentinel unit serial number:	SN410029Multiplexer serial number:	ORYXHardware model number:	OX2-SRSoftware version number:	ORYX F/W v4,00 Oryx Data Collector v3.7.2.0data status	okinstallation	B4 Nyhavnadifferential loss correction	single-endedforward channel	channel 2reverse channel	N/Adate	2023/12/19time	00:20:13forward acquisition time	300,00reverse acquisition time	0,00gamma	499,1914k internal	0,3123k external	0,3123temperature offset calibration	1,0000default loss term (dB/km)	0,3820temperature slope calibration	1,0000multiplexer offset coefficient	1,0000multiplexer slope coefficient	1,0000fibre end	0,00T internal ref (°C)	22,17T ext. ref 1 (°C)	6,78T ext. ref 2 (°C)	6,80length (m)	temperature (°C)	Stokes	anti-Stokes-744,400	800,000	-0,033	-0,107
-743,385	87,091	-0,196	0,162
-742,371	-200,000	-0,009	-0,132
-741,356	132,654	-0,151	0,145
-740,342	-126,006	0,087	0,010
-739,327	-59,798	-0,227	0,072
-738,312	-115,550	0,191	-0,026
-737,298	-61,818	-0,236	0,073
-736,283	-179,366	0,060	-0,001
-735,269	32,480	-0,211	0,136
-734,254	284,651	0,096	-0,129
-733,239	-78,309	-0,491	-0,125
-732,225	60,943	0,073	0,054
-731,210	800,000	0,050	0,131
-730,196	-85,395	0,144	0,033
-729,181	-136,330	-0,145	-0,012
-728,167	-200,000	-0,009	0,054
-727,152	800,000	-0,022	-0,071
-726,137	3,436	0,095	-0,052
-725,123	-200,000	0,009	-0,103
-724,108	364,934	-0,070	-0,105
-723,094	-200,000	0,001	-0,073
-722,079	-200,000	0,024	-0,090
-721,064	-115,212	-0,085	-0,012
-720,050	-200,000	-0,009	-0,093
-719,035	-200,000	0,010	-0,040
-718,021	-53,323	-0,062	0,021
-717,006	168,248	-0,072	0,077
-715,991	-52,124	-0,147	-0,050
-714,977	115,095	-0,090	-0,082
-713,962	235,651	0,076	-0,094
-712,948	198,506	0,055	-0,062
-711,933	655,850	0,078	0,150
-710,918	-104,326	-0,163	-0,028
-709,904	-200,000	0,034	-0,136
-708,889	209,699	0,075	0,088
-707,875	157,668	0,098	0,101
-706,860	80,147	-0,074	0,059
-705,845	-200,000	-0,019	0,174
-704,831	-172,798	-0,090	0,002
-703,816	-0,220	0,069	-0,037
-702,802	96,863	-0,035	0,029
-701,787	-200,000	-0,003	-0,055
-700,772	800,000	0,033	-0,088
-699,758	-200,000	-0,017	0,060
-698,743	143,869	0,119	0,118
-697,729	25,865	-0,090	-0,055
-696,714	-200,000	0,012	-0,045
-695,699	-10,228	-0,079	0,039
-694,685	685,861	-0,022	-0,043
-693,670	800,000	-0,024	-0,058
-692,656	-200,000	-0,010	-0,104
-691,641	-200,000	-0,018	-0,094
-690,627	-6,568	0,061	0,031
-689,612	62,154	-0,192	-0,142
-688,597	79,447	-0,029	0,023
-687,583	-121,448	-0,023	-0,003
-686,568	-60,641	-0,039	-0,012
-685,554	-73,686	-0,146	-0,039
-684,539	236,565	0,021	0,026
-683,524	26,963	0,019	-0,012
-682,510	-150,027	-0,034	-0,002
-681,495	28,000	-0,113	0,071
-680,481	10,707	-0,086	0,049
-679,466	216,116	-0,027	0,032
-678,451	800,000	0,029	0,095
-677,437	-200,000	0,005	0,081
-676,422	-167,995	-0,039	-0,001
-675,408	-200,000	0,008	-0,068
-674,393	221,930	-0,079	0,094
-673,378	58,866	-0,090	-0,065
-672,364	2,497	-0,108	-0,058
-671,349	300,090	-0,072	-0,099
-670,335	145,414	0,101	-0,101
-669,320	5,519	-0,052	0,028
-668,305	20,308	-0,041	-0,024
-667,291	-82,206	-0,059	0,014
-666,276	477,132	0,034	-0,058
-665,262	133,657	-0,079	-0,076
-664,247	150,849	-0,100	-0,102
-663,232	-200,000	0,006	-0,037
-662,218	-69,196	-0,039	-0,011
-661,203	-81,631	0,095	-0,023
-660,189	97,277	-0,047	0,040
-659,174	-103,609	-0,128	-0,022
-658,159	185,935	0,041	-0,045
-657,145	-200,000	-0,026	-0,085
-656,130	-200,000	-0,023	-0,101
-655,116	283,717	-0,032	-0,043
-654,101	-112,539	0,091	0,013
-653,086	25,638	-0,048	-0,030
-652,072	123,638	-0,082	-0,077
-651,057	800,000	0,042	-0,088
-650,043	-34,085	-0,060	-0,025
-649,028	-200,000	0,021	-0,070
-648,014	608,529	0,030	-0,056
-646,999	-11,919	-0,105	-0,051
-645,984	366,566	-0,030	-0,045
-644,970	579,181	0,024	0,044
-643,955	-7,045	-0,169	-0,085
-642,941	-59,331	-0,087	-0,028
-641,926	-74,180	0,041	-0,011
-640,911	384,896	0,086	-0,132
-639,897	185,018	0,065	-0,072
-638,882	779,345	-0,028	0,058
-637,868	-200,000	-0,118	0,000
-636,853	-180,187	-0,121	0,002
-635,838	505,978	-0,027	-0,047
-634,824	474,228	-0,083	0,140
-633,809	184,993	-0,072	0,079
-632,795	-65,378	0,067	0,020
-631,780	234,858	-0,056	-0,068
-630,765	-200,000	0,003	-0,081
-629,751	800,000	0,013	-0,030
-628,736	8,954	0,110	-0,061
-627,722	-200,000	0,023	-0,091
-626,707	-200,000	-0,018	0,074
-625,692	-9,120	0,067	-0,033
-624,678	100,564	0,090	0,077
-623,663	-158,196	-0,106	0,005
-622,649	-200,000	0,007	0,046
-621,634	-200,000	0,039	0,207
-620,619	-200,000	-0,019	0,084
-619,605	-121,128	-0,168	0,021
-618,590	714,925	-0,080	0,158
-617,576	257,941	-0,064	0,082
-616,561	-200,000	-0,001	0,010
-615,546	-168,260	-0,111	0,003
-614,532	-200,000	-0,004	-0,034
-613,517	586,906	0,046	-0,084
-612,503	231,051	0,066	0,081
-611,488	-200,000	0,003	0,084
-610,474	-200,000	-0,014	-0,048
-609,459	545,961	-0,052	0,092
-608,444	324,090	0,053	-0,076
-607,430	89,182	0,051	-0,042
-606,415	96,155	-0,059	-0,050
-605,401	142,020	0,118	-0,116
-604,386	800,000	0,015	0,031
-603,371	-41,751	0,047	-0,018
-602,357	-200,000	0,003	0,072
-601,342	-200,000	0,001	0,069
-600,328	-200,000	0,014	-0,082
-599,313	-200,000	0,004	-0,124
-598,298	732,757	0,051	-0,101
-597,284	-131,919	0,099	-0,009
-596,269	-155,090	-0,021	0,001
-595,255	-65,182	-0,215	-0,064
-594,240	40,677	0,047	-0,032
-593,225	61,636	-0,114	-0,084
-592,211	-30,720	-0,210	0,087
-591,196	800,000	0,056	0,142
-590,182	140,278	-0,122	0,119
-589,167	-47,470	0,083	0,030
-588,152	267,760	0,081	0,105
-587,138	-200,000	-0,022	0,078
-586,123	-37,854	-0,147	-0,058
-585,109	109,196	-0,057	-0,050
-584,094	-36,880	0,061	0,024
-583,079	198,088	0,075	-0,085
-582,065	93,056	-0,106	0,088
-581,050	800,000	0,031	0,094
-580,036	-200,000	-0,013	0,098
-579,021	-167,261	-0,132	0,004
-578,006	489,791	0,066	-0,112
-576,992	-85,204	0,185	-0,042
-575,977	-200,000	0,015	-0,121
-574,963	-156,188	-0,092	-0,004
-573,948	-200,000	0,004	0,041
-572,934	-200,000	0,008	-0,077
-571,919	-49,852	-0,078	0,027
-570,904	-134,897	-0,214	-0,019
-569,890	474,331	0,039	-0,065
-568,875	523,205	-0,025	-0,043
-567,861	558,351	0,083	0,149
-566,846	800,000	0,011	0,027
-565,831	800,000	0,015	0,041
-564,817	308,932	-0,038	0,052
-563,802	430,229	0,043	-0,070
-562,788	800,000	0,017	-0,047
-561,773	48,142	0,087	0,060
-560,758	-200,000	0,018	0,083
-559,744	-112,458	-0,086	0,013
-558,729	21,553	0,160	-0,096
-557,715	-200,000	-0,012	-0,122
-556,700	-200,000	-0,017	-0,116
-555,685	800,000	-0,011	0,036
-554,671	29,075	0,098	-0,061
-553,656	-200,000	0,006	-0,045
-552,642	-111,192	-0,105	-0,016
-551,627	-44,833	-0,056	-0,020
-550,612	174,238	0,052	-0,056
-549,598	240,316	0,089	0,110
-548,583	63,604	0,062	0,046
-547,569	54,321	-0,090	-0,064
-546,554	-200,000	0,014	-0,083
-545,539	17,716	0,015	-0,009
-544,525	196,282	0,128	0,144
-543,510	-200,000	0,050	0,173
-542,496	758,537	-0,032	0,065
-541,481	-200,000	0,034	-0,263
-540,466	-93,989	0,062	-0,013
-539,452	-114,392	-0,116	0,016
-538,437	439,151	0,096	0,156
-537,423	-59,964	-0,108	-0,034
-536,408	-200,000	-0,007	-0,061
-535,393	-169,554	0,033	0,001
-534,379	-200,000	0,034	0,115
-533,364	800,000	0,022	-0,053
-532,350	-200,000	-0,005	0,108
-531,335	-200,000	-0,017	0,145
-530,321	-200,000	-0,001	0,127
-529,306	487,687	-0,038	0,064
-528,291	-172,481	-0,095	-0,002
-527,277	367,823	-0,057	0,085
-526,262	120,699	0,015	0,014
-525,248	-200,000	0,017	-0,112
-524,233	-200,000	0,027	0,094
-523,218	402,783	0,055	0,086
-522,204	-200,000	-0,018	0,078
-521,189	55,746	-0,053	-0,038
-520,175	800,000	0,013	-0,029
-519,160	-200,000	0,019	0,151
-518,145	68,286	-0,094	0,071
-517,131	-200,000	0,003	-0,065
-516,116	-82,829	0,132	-0,031
-515,102	-200,000	-0,003	-0,113
-514,087	800,000	0,063	-0,136
-513,072	-200,000	0,006	-0,111
-512,058	430,698	-0,042	0,067
-511,043	800,000	0,023	0,059
-510,029	-200,000	-0,028	0,127
-509,014	392,894	0,086	0,132
-507,999	98,592	-0,099	0,084
-506,985	-101,608	-0,037	-0,007
-505,970	130,735	0,024	-0,023
-504,956	-30,941	-0,109	0,045
-503,941	-200,000	0,016	0,148
-502,926	-29,056	-0,078	-0,033
-501,912	-200,000	-0,003	0,046
-500,897	-9,478	-0,039	0,019
-499,883	-200,000	-0,001	-0,041
-498,868	-74,365	-0,101	-0,027
-497,853	47,415	-0,074	-0,051
-496,839	16,564	0,139	0,081
-495,824	800,000	-0,061	0,170
-494,810	277,476	0,042	0,055
-493,795	-154,543	-0,096	-0,005
-492,781	-66,750	0,079	0,023
-491,766	-200,000	-0,000	-0,056
-490,751	-200,000	0,021	-0,089
-489,737	-200,000	-0,015	-0,056
-488,722	64,419	0,026	-0,019
-487,708	800,000	0,095	0,218
-486,693	253,845	0,040	0,051
-485,678	-200,000	0,012	0,064
-484,664	705,592	0,041	-0,080
-483,649	-200,000	0,017	-0,096
-482,635	-11,833	-0,136	0,066
-481,620	439,983	-0,062	0,101
-480,605	-95,906	0,138	0,027
-479,591	-187,284	0,087	0,001
-478,576	734,210	0,058	0,116
-477,562	-200,000	0,016	-0,077
-476,547	37,477	-0,075	0,049
-475,532	334,071	0,033	0,048
-474,518	-175,793	0,118	0,002
-473,503	800,000	-0,029	0,062
-472,489	-94,207	0,063	0,013
-471,474	-159,233	-0,103	0,004
-470,459	-94,041	-0,061	-0,012
-469,445	-145,238	0,090	0,006
-468,430	-10,388	-0,147	-0,072
-467,416	-200,000	0,021	-0,072
-466,401	-141,667	-0,068	0,005
-465,386	33,250	0,070	-0,044
-464,372	243,617	-0,088	-0,109
-463,357	175,863	-0,123	-0,132
-462,343	307,859	-0,023	-0,032
-461,328	-200,000	-0,010	-0,091
-460,313	800,000	0,010	0,028
-459,299	318,992	-0,008	0,012
-458,284	-200,000	0,010	0,107
-457,270	108,363	-0,067	0,059
-456,255	-200,000	-0,023	-0,086
-455,241	-200,000	0,007	-0,048
-454,226	276,728	0,099	0,130
-453,211	800,000	-0,008	0,022
-452,197	-88,820	0,058	0,013
-451,182	-173,382	-0,016	-0,000
-450,168	71,289	0,115	0,088
-449,153	800,000	0,047	-0,116
-448,138	-73,539	-0,126	0,034
-447,124	-9,708	0,038	-0,019
-446,109	230,305	0,041	0,049
-445,095	-200,000	-0,009	0,118
-444,080	-200,000	-0,004	0,028
-443,065	15,556	0,116	0,067
-442,051	56,253	-0,050	-0,035
-441,036	-92,066	-0,007	0,001
-440,022	-79,432	-0,187	-0,046
-439,007	800,000	-0,037	-0,082
-437,992	235,776	0,025	0,030
-436,978	205,875	0,076	-0,087
-435,963	9,661	-0,077	-0,043
-434,949	383,962	0,072	0,110
-433,934	312,822	-0,088	0,122
-432,919	-200,000	0,006	-0,059
-431,905	204,634	-0,023	0,026
-430,890	293,333	0,064	0,086
-429,876	46,905	-0,045	-0,031
-428,861	396,199	0,014	0,021
-427,846	-200,000	0,004	0,016
-426,832	-200,000	-0,018	-0,062
-425,817	-92,555	-0,065	-0,013
-424,803	-200,000	-0,011	0,110
-423,788	-125,393	0,193	0,021
-422,773	-200,000	-0,001	-0,031
-421,759	385,765	-0,031	-0,047
-420,744	9,715	-0,058	0,032
-419,730	-140,350	-0,060	0,005
-418,715	261,457	-0,044	-0,056
-417,701	-118,946	-0,072	0,009
-416,686	654,061	-0,041	0,078
-415,671	-77,183	0,051	-0,013
-414,657	110,397	0,066	0,059
-413,642	120,764	0,017	0,015
-412,628	92,058	0,043	0,036
-411,613	85,295	-0,016	-0,013
-410,598	-200,000	-0,031	-0,121
-409,584	-143,788	0,122	0,008
-408,569	-200,000	0,003	0,039
-407,555	88,448	0,080	-0,066
-406,540	800,000	-0,027	0,066
-405,525	-200,000	0,002	-0,087
-404,511	-200,000	0,010	-0,077
-403,496	485,763	0,045	-0,075
-402,482	82,916	0,076	-0,061
-401,467	201,472	0,049	-0,055
-400,452	-200,000	0,023	-0,090
-399,438	800,000	0,012	0,026
-398,423	800,000	-0,027	0,073
-397,409	-200,000	-0,001	-0,117
-396,394	42,280	-0,046	0,031
-395,379	783,282	-0,047	0,095
-394,365	148,407	0,014	-0,014
-393,350	543,149	-0,033	0,058
-392,336	-153,016	0,087	0,004
-391,321	584,722	-0,067	-0,122
-390,306	61,122	-0,073	-0,053
-389,292	-74,040	-0,089	-0,023
-388,277	-129,974	-0,077	0,008
-387,263	66,858	-0,068	-0,051
-386,248	-200,000	0,003	0,164
-385,233	355,910	0,056	0,082
-384,219	-200,000	0,041	0,200
-383,204	-189,168	-0,088	-0,001
-382,190	159,278	-0,104	-0,106
-381,175	124,929	0,053	0,049
-380,160	-137,336	-0,096	-0,008
-379,146	-69,765	-0,071	0,020
-378,131	155,793	0,087	0,088
-377,117	800,000	-0,021	0,049
-376,102	-200,000	-0,001	-0,053
-375,088	800,000	0,039	-0,081
-374,073	503,177	0,037	-0,064
-373,058	164,697	0,086	-0,089
-372,044	800,000	-0,016	-0,046
-371,029	800,000	-0,039	-0,082
-370,015	-101,237	0,018	-0,003
-369,000	283,738	-0,042	-0,056
-367,985	-200,000	-0,002	-0,111
-366,971	192,619	-0,061	-0,067
-365,956	-200,000	-0,006	-0,054
-364,942	2,227	-0,071	0,037
-363,927	-64,969	0,135	0,040
-362,912	-106,521	0,125	0,020
-361,898	-33,496	-0,044	-0,018
-360,883	-168,556	0,059	-0,002
-359,869	2,549	-0,186	-0,099
-358,854	-200,000	0,005	-0,041
-357,839	62,251	0,152	0,111
-356,825	-200,000	0,004	0,025
-355,810	-128,423	0,091	0,009
-354,796	-122,476	-0,054	0,006
-353,781	-150,768	0,139	0,008
-352,766	232,900	0,015	-0,019
-351,752	37,442	0,099	-0,064
-350,737	-200,000	0,009	0,059
-349,723	-51,001	0,041	0,014
-348,708	-200,000	0,007	0,080
-347,693	800,000	-0,040	0,084
-346,679	-200,000	0,005	0,031
-345,664	-200,000	0,014	-0,054
-344,650	324,094	0,099	-0,139
-343,635	-92,087	0,064	-0,013
-342,620	569,503	-0,102	0,184
-341,606	800,000	0,030	0,081
-340,591	-200,000	-0,026	-0,105
-339,577	-38,751	-0,099	-0,038
-338,562	-200,000	-0,012	-0,102
-337,548	-200,000	-0,001	0,051
-336,533	212,961	-0,020	-0,023
-335,518	-200,000	-0,012	0,077
-334,504	800,000	0,055	0,130
-333,489	462,135	-0,062	0,102
-332,475	404,110	0,025	-0,039
-331,460	800,000	-0,049	-0,105
-330,445	-6,300	-0,073	0,036
-329,431	95,560	0,120	0,100
-328,416	800,000	-0,011	0,023
-327,402	85,969	-0,021	0,017
-326,387	-200,000	-0,006	-0,064
-325,372	-39,388	-0,070	0,027
-324,358	-200,000	-0,010	0,051
-323,343	235,029	0,163	-0,198
-322,329	526,431	-0,024	-0,041
-321,314	376,705	0,037	-0,056
-320,299	9,210	-0,113	0,063
-319,285	10,393	-0,225	0,125
-318,270	800,000	-0,040	-0,092
-317,256	800,000	-0,031	-0,091
-316,241	184,598	0,082	-0,089
-315,226	-110,302	-0,118	0,018
-314,212	28,415	0,040	-0,025
-313,197	761,567	0,045	-0,090
-312,183	800,000	-0,045	-0,145
-311,168	-67,120	0,052	-0,015
-310,153	169,374	-0,041	-0,043
-309,139	800,000	0,053	-0,163
-308,124	615,864	0,049	-0,090
-307,110	-139,363	0,092	0,007
-306,095	660,149	0,027	-0,052
-305,080	-200,000	0,006	0,030
-304,066	222,779	0,071	0,084
-303,051	-200,000	0,004	-0,016
-302,037	-107,730	0,040	-0,006
-301,022	324,565	0,038	0,054
-300,008	-190,651	-0,157	0,001
-298,993	800,000	0,014	0,035
-297,978	81,274	0,058	0,046
-296,964	-200,000	-0,017	-0,111
-295,949	-172,047	0,116	-0,003
-294,935	3,898	0,076	-0,041
-293,920	-7,979	-0,046	0,023
-292,905	159,382	0,044	-0,045
-291,891	-200,000	-0,059	0,197
-290,876	125,665	0,061	0,056
-289,862	402,306	0,055	-0,085
-288,847	-39,375	-0,155	0,059
-287,832	-62,766	0,086	-0,026
-286,818	80,565	0,032	-0,025
-285,803	-200,000	-0,014	-0,130
-284,789	-43,467	0,067	0,025
-283,774	-200,000	-0,025	0,094
-282,759	-164,482	0,046	0,001
-281,745	-200,000	-0,008	0,066
-280,730	-127,968	-0,101	-0,010
-279,716	412,766	0,043	0,067
-278,701	-79,048	-0,082	-0,020
-277,686	-28,245	-0,028	0,012
-276,672	711,293	0,081	0,158
-275,657	-74,196	-0,104	0,027
-274,643	-79,972	0,041	-0,010
-273,628	65,674	-0,102	-0,076
-272,613	800,000	-0,030	-0,093
-271,599	222,972	0,065	-0,076
-270,584	-200,000	-0,008	0,072
-269,570	-22,751	0,109	-0,048
-268,555	296,338	0,045	0,061
-267,540	-79,283	0,081	0,020
-266,526	492,777	0,011	0,019
-265,511	-200,000	-0,025	-0,162
-264,497	588,731	0,027	-0,048
-263,482	58,393	0,068	0,049
-262,467	160,474	-0,021	-0,022
-261,453	276,822	0,035	-0,045
-260,438	800,000	-0,035	0,092
-259,424	85,129	0,032	0,026
-258,409	253,807	-0,107	0,134
-257,395	-200,000	0,002	-0,072
-256,380	-200,000	-0,044	0,211
-255,365	44,858	-0,075	-0,050
-254,351	-142,813	0,043	0,003
-253,336	-82,964	0,089	-0,021
-252,322	517,803	-0,052	-0,089
-251,307	271,971	-0,060	-0,077
-250,292	-200,000	-0,005	-0,063
-249,278	800,000	-0,018	0,052
-248,263	-200,000	-0,010	0,039
-247,249	-94,065	-0,005	-0,001
-246,234	-24,385	0,066	-0,029
-245,219	-95,493	0,030	0,006
-244,205	398,610	-0,050	-0,076
-243,190	-72,694	-0,103	0,027
-242,176	-26,756	0,017	0,007
-241,161	-58,355	0,098	-0,031
-240,146	-200,000	-0,042	0,143
-239,132	-71,705	0,118	0,032
-238,117	235,394	0,047	0,057
-237,103	402,140	-0,046	-0,070
-236,088	687,316	0,066	0,126
-235,073	163,936	0,043	0,044
-234,059	111,960	0,161	0,142
-233,044	-200,000	-0,024	0,102
-232,030	-200,000	0,027	-0,175
-231,015	416,923	0,052	0,081
-230,000	772,146	-0,023	-0,046
-228,986	-200,000	0,005	-0,066
-227,971	-90,424	0,180	0,038
-226,957	-200,000	-0,031	0,111
-225,942	132,910	0,095	-0,090
-224,927	-13,772	0,004	0,002
-223,913	-108,553	-0,064	0,010
-222,898	800,000	0,017	0,034
-221,884	-22,736	-0,022	-0,010
-220,869	-145,120	0,069	-0,005
-219,855	243,006	0,013	0,016
-218,840	197,858	-0,110	-0,122
-217,825	-4,193	0,072	-0,036
-216,811	-34,964	-0,124	-0,049
-215,796	323,014	-0,104	-0,145
-214,782	-200,000	-0,004	-0,032
-213,767	-200,000	-0,008	-0,110
-212,752	583,125	0,024	-0,043
-211,738	17,458	-0,115	0,066
-210,723	800,000	-0,016	0,036
-209,709	-200,000	0,024	-0,092
-208,694	-200,000	0,014	-0,132
-207,679	-200,000	0,055	-0,206
-206,665	12,351	0,127	0,071
-205,650	-125,859	0,094	-0,010
-204,636	712,971	0,048	0,093
-203,621	103,416	-0,127	0,109
-202,606	-200,000	0,013	-0,143
-201,592	274,703	-0,120	-0,155
-200,577	-35,018	-0,028	0,011
-199,563	-56,536	-0,084	0,027
-198,548	-100,854	0,076	-0,014
-197,533	186,255	-0,026	0,028
-196,519	161,735	-0,031	0,031
-195,504	-200,000	-0,027	-0,133
-194,490	-100,001	0,029	-0,005
-193,475	47,767	-0,053	-0,036
-192,460	-26,708	0,116	-0,049
-191,446	-24,767	0,005	-0,002
-190,431	544,780	-0,078	0,136
-189,417	-200,000	-0,002	0,029
-188,402	-200,000	0,047	-0,158
-187,387	-135,303	0,042	-0,004
-186,373	-200,000	-0,006	0,063
-185,358	800,000	-0,034	-0,105
-184,344	-136,156	0,041	0,003
-183,329	-109,841	0,059	-0,009
-182,315	-200,000	-0,015	-0,055
-181,300	800,000	-0,021	0,048
-180,285	-200,000	-0,002	0,067
-179,271	63,343	-0,164	-0,120
-178,256	800,000	0,020	0,064
-177,242	-57,123	0,096	0,031
-176,227	-96,087	0,064	0,012
-175,212	776,755	0,011	-0,022
-174,198	-28,132	0,175	0,073
-173,183	800,000	0,039	-0,103
-172,169	800,000	-0,037	-0,115
-171,154	-78,623	-0,066	0,016
-170,139	-200,000	-0,010	0,062
-169,125	800,000	0,044	0,107
-168,110	75,514	0,036	0,027
-167,096	800,000	-0,071	0,147
-166,081	-200,000	0,021	0,136
-165,066	-107,937	-0,042	0,007
-164,052	38,817	-0,052	-0,034
-163,037	-200,000	0,001	0,042
-162,023	216,586	0,092	-0,107
-161,008	800,000	-0,042	-0,108
-159,993	-165,565	-0,105	0,003
-158,979	-200,000	0,019	-0,093
-157,964	-116,618	-0,058	-0,008
-156,950	-145,941	-0,117	0,007
-155,935	-145,016	0,010	-0,001
-154,920	234,757	0,045	0,055
-153,906	-116,149	0,180	0,024
-152,891	274,597	0,118	-0,153
-151,877	-200,000	0,007	-0,065
-150,862	628,081	-0,039	-0,072
-149,847	-200,000	-0,018	-0,062
-148,833	134,968	0,032	-0,030
-147,818	109,047	-0,079	-0,069
-146,804	660,458	0,038	-0,072
-145,789	-200,000	-0,016	0,096
-144,775	282,224	-0,034	0,045
-143,760	91,160	0,027	0,022
-142,745	-200,000	0,004	-0,054
-141,731	729,900	-0,021	-0,040
-140,716	-200,000	-0,002	0,039
-139,702	66,330	0,044	0,032
-138,687	-200,000	0,011	0,144
-137,672	-200,000	-0,013	-0,109
-136,658	-125,536	-0,100	0,011
-135,643	-200,000	-0,039	0,127
-134,629	187,034	-0,078	-0,085
-133,614	-200,000	0,011	0,044
-132,599	-107,576	0,094	0,015
-131,585	72,644	-0,066	0,050
-130,570	-128,032	-0,100	0,010
-129,556	45,405	0,096	-0,065
-128,541	-200,000	-0,032	0,137
-127,526	-200,000	-0,040	-0,148
-126,512	-151,841	0,103	0,005
-125,497	-119,260	-0,001	0,000
-124,483	212,410	0,049	-0,056
-123,468	79,088	0,070	0,055
-122,453	-37,110	-0,073	0,028
-121,439	166,277	-0,038	-0,039
-120,424	800,000	0,052	-0,164
