DTS Sentinel unit serial number:	SN410029Multiplexer serial number:	ORYXHardware model number:	OX2-SRSoftware version number:	ORYX F/W v4,00 Oryx Data Collector v3.7.2.0data status	okinstallation	B4 Nyhavnadifferential loss correction	single-endedforward channel	channel 2reverse channel	N/Adate	2023/12/15time	19:10:13forward acquisition time	300,00reverse acquisition time	0,00gamma	499,1914k internal	0,3138k external	0,3138temperature offset calibration	1,0000default loss term (dB/km)	0,3820temperature slope calibration	1,0000multiplexer offset coefficient	1,0000multiplexer slope coefficient	1,0000fibre end	0,00T internal ref (°C)	19,67T ext. ref 1 (°C)	5,29T ext. ref 2 (°C)	5,49length (m)	temperature (°C)	Stokes	anti-Stokes-744,400	-200,000	-0,024	-0,090
-743,385	-94,993	-0,204	0,041
-742,371	348,668	0,052	0,076
-741,356	-56,225	-0,225	0,074
-740,342	92,190	-0,043	-0,036
-739,327	11,272	-0,239	0,135
-738,312	-97,363	-0,065	-0,012
-737,298	-59,259	-0,177	0,056
-736,283	506,663	0,017	-0,029
-735,269	26,926	-0,230	0,143
-734,254	374,792	-0,072	0,109
-733,239	-44,145	-0,380	-0,141
-732,225	-29,792	0,170	-0,072
-731,210	800,000	0,017	0,041
-730,196	463,753	-0,044	-0,074
-729,181	10,443	-0,057	-0,032
-728,167	-86,726	0,038	-0,009
-727,152	-200,000	-0,002	0,147
-726,137	-200,000	-0,024	-0,131
-725,123	3,905	-0,124	0,067
-724,108	444,407	-0,039	0,064
-723,094	-200,000	-0,013	-0,060
-722,079	-200,000	-0,029	-0,131
-721,064	314,924	-0,108	-0,152
-720,050	-200,000	0,004	-0,153
-719,035	-102,282	-0,100	-0,018
-718,021	-200,000	-0,023	-0,139
-717,006	-42,425	-0,094	-0,035
-715,991	-200,000	0,014	-0,089
-714,977	388,628	-0,066	-0,101
-713,962	150,451	0,011	0,012
-712,948	-200,000	-0,025	0,133
-711,933	800,000	0,017	0,046
-710,918	-200,000	0,006	0,031
-709,904	93,738	-0,073	-0,061
-708,889	16,701	-0,114	0,067
-707,875	81,533	-0,075	-0,060
-706,860	57,276	-0,073	0,053
-705,845	800,000	-0,027	0,070
-704,831	29,285	-0,045	0,028
-703,816	612,071	0,050	-0,093
-702,802	-134,441	-0,114	-0,010
-701,787	-200,000	-0,006	-0,096
-700,772	-200,000	-0,002	0,023
-699,758	800,000	-0,033	-0,068
-698,743	-71,879	-0,024	0,007
-697,729	-200,000	0,041	0,139
-696,714	291,172	-0,029	0,039
-695,699	38,521	-0,056	-0,037
-694,685	-200,000	-0,010	-0,060
-693,670	18,060	-0,101	-0,059
-692,656	-62,088	0,075	-0,023
-691,641	-49,973	-0,046	0,016
-690,627	800,000	-0,050	0,109
-689,612	9,966	-0,058	0,032
-688,597	-99,496	-0,071	0,013
-687,583	-54,042	0,073	0,024
-686,568	-25,088	-0,093	0,041
-685,554	12,517	-0,019	0,011
-684,539	363,406	0,088	-0,131
-683,524	800,000	-0,025	-0,080
-682,510	-90,007	0,087	0,019
-681,495	800,000	0,026	-0,057
-680,481	4,933	-0,134	0,073
-679,466	494,250	-0,043	0,074
-678,451	59,955	-0,034	0,025
-677,437	800,000	0,073	-0,200
-676,422	-10,578	0,056	0,027
-675,408	254,655	-0,055	-0,069
-674,393	-14,458	-0,050	-0,024
-673,378	25,598	-0,083	-0,051
-672,364	-200,000	0,009	-0,055
-671,349	-200,000	0,025	-0,220
-670,335	-200,000	0,012	-0,093
-669,320	-27,126	0,093	0,040
-668,305	-29,835	-0,096	0,040
-667,291	-200,000	-0,027	0,117
-666,276	81,758	-0,045	-0,036
-665,262	16,124	0,122	-0,071
-664,247	-125,366	-0,163	-0,018
-663,232	-105,006	-0,067	-0,011
-662,218	-200,000	-0,001	0,023
-661,203	692,595	-0,022	0,043
-660,189	-200,000	-0,007	-0,053
-659,174	42,555	-0,079	-0,053
-658,159	-200,000	-0,009	-0,130
-657,145	800,000	-0,041	0,097
-656,130	800,000	-0,056	-0,123
-655,116	267,374	0,046	0,060
-654,101	411,453	0,033	0,052
-653,086	800,000	-0,043	0,102
-652,072	90,860	0,060	-0,050
-651,057	-37,257	-0,084	0,033
-650,043	164,264	0,036	0,038
-649,028	-200,000	0,026	-0,107
-648,014	800,000	0,059	0,170
-646,999	-82,736	0,181	0,043
-645,984	285,313	-0,014	0,019
-644,970	565,280	-0,028	-0,050
-643,955	48,942	0,084	-0,058
-642,941	423,404	0,009	0,015
-641,926	481,415	0,073	0,124
-640,911	-92,675	-0,026	-0,005
-639,897	73,746	-0,055	0,043
-638,882	-189,624	-0,264	0,002
-637,868	-200,000	-0,020	0,120
-636,853	237,926	-0,062	-0,076
-635,838	-28,697	0,137	-0,058
-634,824	235,038	-0,086	-0,105
-633,809	736,274	0,011	-0,022
-632,795	800,000	-0,051	-0,136
-631,780	-200,000	-0,005	0,071
-630,765	234,520	0,007	0,008
-629,751	-117,503	-0,045	0,006
-628,736	-125,677	-0,182	0,020
-627,722	161,263	-0,112	-0,115
-626,707	202,350	0,038	-0,044
-625,692	800,000	0,029	0,061
-624,678	45,153	-0,049	0,033
-623,663	-200,000	0,001	-0,045
-622,649	-162,475	-0,050	-0,002
-621,634	-56,825	-0,102	-0,033
-620,619	38,339	0,184	-0,121
-619,605	84,891	-0,047	0,038
-618,590	403,733	0,056	-0,088
-617,576	478,624	-0,044	0,073
-616,561	54,967	-0,161	0,115
-615,546	-16,330	0,028	0,013
-614,532	295,368	-0,088	-0,119
-613,517	-34,922	0,039	-0,016
-612,503	-98,961	-0,100	-0,019
-611,488	800,000	0,037	0,088
-610,474	509,504	-0,047	0,082
-609,459	-200,000	0,030	-0,131
-608,444	-200,000	0,004	-0,047
-607,430	216,759	-0,064	0,075
-606,415	-82,881	-0,059	0,014
-605,401	682,759	-0,039	0,074
-604,386	-90,858	-0,128	0,027
-603,371	12,566	0,185	0,105
-602,357	-15,399	0,111	0,052
-601,342	74,225	0,061	0,047
-600,328	-200,000	-0,006	-0,069
-599,313	-142,263	-0,083	-0,006
-598,298	-107,900	0,138	-0,022
-597,284	-200,000	0,004	0,145
-596,269	800,000	0,027	0,062
-595,255	737,489	-0,035	-0,069
-594,240	558,310	-0,052	0,092
-593,225	263,119	-0,063	-0,081
-592,211	100,332	-0,083	-0,071
-591,196	-53,843	-0,031	0,010
-590,182	-200,000	-0,012	-0,056
-589,167	236,320	-0,014	-0,018
-588,152	-200,000	0,005	0,094
-587,138	345,060	0,056	0,082
-586,123	800,000	-0,061	0,169
-585,109	-200,000	0,016	-0,092
-584,094	-200,000	0,002	0,100
-583,079	154,720	0,119	0,121
-582,065	61,066	0,059	0,043
-581,050	-200,000	-0,006	0,062
-580,036	800,000	-0,034	-0,082
-579,021	-25,037	0,090	-0,039
-578,006	-200,000	0,026	0,095
-576,992	285,994	-0,027	0,035
-575,977	-35,348	-0,082	-0,033
-574,963	-37,056	0,094	-0,037
-573,948	7,536	0,058	0,032
-572,934	322,085	-0,037	0,051
-571,919	-122,721	-0,037	0,004
-570,904	-200,000	-0,017	0,071
-569,890	-117,177	-0,136	0,018
-568,875	-50,448	-0,051	-0,018
-567,861	259,533	0,064	-0,082
-566,846	54,150	-0,179	0,127
-565,831	-34,964	0,063	0,025
-564,817	800,000	-0,051	-0,111
-563,802	-147,896	-0,110	-0,007
-562,788	800,000	0,046	-0,096
-561,773	-5,921	0,047	-0,024
-560,758	-13,523	-0,174	-0,083
-559,744	-11,310	0,107	0,052
-558,729	-14,556	0,047	-0,022
-557,715	5,283	-0,115	0,062
-556,700	800,000	0,072	-0,182
-555,685	89,621	-0,115	-0,094
-554,671	-188,840	0,106	0,001
-553,656	-200,000	-0,001	-0,036
-552,642	-200,000	0,000	-0,042
-551,627	-200,000	-0,006	-0,029
-550,612	382,624	-0,060	0,091
-549,598	10,564	0,115	-0,064
-548,583	75,891	0,024	-0,019
-547,569	174,682	0,103	-0,110
-546,554	-42,745	0,011	-0,004
-545,539	350,599	0,072	0,105
-544,525	-109,296	0,058	0,009
-543,510	583,043	0,041	-0,074
-542,496	-200,000	-0,019	-0,154
-541,481	-200,000	0,009	-0,152
-540,466	-200,000	-0,018	-0,141
-539,452	21,067	0,092	0,055
-538,437	800,000	-0,068	0,167
-537,423	-57,706	0,150	-0,048
-536,408	7,997	-0,015	-0,008
-535,393	-200,000	0,010	0,042
-534,379	-5,538	0,048	0,024
-533,364	-200,000	0,017	0,080
-532,350	-192,495	0,041	0,000
-531,335	33,944	-0,063	-0,040
-530,321	-74,632	-0,197	0,052
-529,306	-200,000	-0,011	0,043
-528,291	-79,364	-0,167	0,041
-527,277	148,390	0,049	-0,049
-526,262	187,925	0,034	-0,037
-525,248	408,178	0,036	-0,057
-524,233	-1,935	0,037	-0,019
-523,218	-200,000	-0,000	-0,037
-522,204	-134,506	0,051	0,004
-521,189	576,517	0,040	0,072
-520,175	282,242	-0,059	-0,077
-519,160	174,046	0,017	0,018
-518,145	-200,000	-0,030	0,130
-517,131	-17,376	0,079	-0,037
-516,116	15,511	-0,066	0,038
-515,102	391,422	0,064	-0,098
-514,087	-154,793	-0,048	-0,002
-513,072	-134,041	-0,110	-0,010
-512,058	441,829	-0,041	-0,066
-511,043	-200,000	0,002	0,010
-510,029	-56,838	0,114	-0,037
-509,014	-61,232	0,142	-0,044
-507,999	-200,000	-0,013	-0,101
-506,985	800,000	-0,021	-0,043
-505,970	153,289	0,067	-0,067
-504,956	300,888	-0,089	0,121
-503,941	186,550	-0,023	-0,026
-502,926	409,456	0,068	0,106
-501,912	-100,365	-0,048	-0,009
-500,897	426,709	0,028	0,045
-499,883	-87,574	0,039	-0,009
-498,868	-167,672	-0,046	0,001
-497,853	-135,420	0,063	-0,005
-496,839	-70,014	-0,045	-0,012
-495,824	45,171	-0,037	-0,025
-494,810	-73,987	0,197	0,052
-493,795	36,511	0,185	-0,120
-492,781	94,792	0,106	-0,089
-491,766	-184,635	-0,061	-0,001
-490,751	15,887	0,070	-0,041
-489,737	477,070	-0,032	-0,053
-488,722	-91,479	0,085	0,018
-487,708	-200,000	0,001	0,112
-486,693	-200,000	0,049	0,163
-485,678	734,760	0,037	0,073
-484,664	-19,975	-0,020	-0,009
-483,649	-200,000	0,012	0,137
-482,635	-8,276	0,043	0,021
-481,620	322,082	0,128	0,179
-480,605	7,620	0,144	0,079
-479,591	184,428	0,025	0,027
-478,576	-132,078	-0,090	0,008
-477,562	800,000	0,010	-0,032
-476,547	800,000	-0,019	-0,058
-475,532	-200,000	-0,002	-0,027
-474,518	-146,807	0,154	-0,010
-473,503	15,214	0,144	0,083
-472,489	233,450	-0,080	0,096
-471,474	800,000	0,054	-0,137
-470,459	-200,000	0,000	-0,019
-469,445	-69,628	-0,115	0,032
-468,430	-1,239	-0,067	-0,035
-467,416	-160,273	0,174	0,007
-466,401	-137,268	0,080	0,007
-465,386	-152,849	0,060	0,003
-464,372	-49,439	-0,121	0,042
-463,357	2,905	0,045	0,024
-462,343	65,212	-0,098	-0,073
-461,328	210,026	-0,125	-0,145
-460,313	-148,671	-0,032	0,002
-459,299	-200,000	-0,005	0,097
-458,284	-200,000	0,004	0,030
-457,270	49,447	-0,070	0,048
-456,255	365,729	-0,029	-0,043
-455,241	191,867	-0,014	0,015
-454,226	153,307	-0,050	-0,051
-453,211	800,000	-0,029	0,060
-452,197	800,000	0,007	0,017
-451,182	38,902	-0,075	-0,049
-450,168	800,000	-0,020	-0,053
-449,153	-84,907	0,059	0,013
-448,138	374,179	-0,048	-0,072
-447,124	85,311	-0,112	-0,090
-446,109	355,766	0,024	-0,035
-445,095	-200,000	-0,013	-0,087
-444,080	25,082	0,029	0,018
-443,065	-200,000	0,019	0,099
-442,051	-29,625	-0,014	0,006
-441,036	-200,000	-0,004	-0,032
-440,022	417,953	-0,080	0,126
-439,007	-44,859	0,019	0,007
-437,992	63,253	0,021	-0,015
-436,978	800,000	-0,047	0,115
-435,963	166,085	-0,096	0,100
-434,949	9,643	-0,087	-0,048
-433,934	-148,774	-0,008	0,000
-432,919	800,000	-0,027	0,073
-431,905	143,591	0,069	-0,067
-430,890	501,204	0,017	0,029
-429,876	-23,163	-0,057	-0,025
-428,861	-200,000	-0,001	0,055
-427,846	-89,205	-0,070	0,015
-426,832	324,028	-0,043	-0,060
-425,817	96,413	-0,019	-0,016
-424,803	197,410	-0,051	-0,057
-423,788	-200,000	0,010	-0,038
-422,773	-49,202	0,098	0,034
-421,759	-134,055	0,134	0,012
-420,744	-200,000	-0,012	0,075
-419,730	-200,000	0,002	-0,020
-418,715	-200,000	-0,002	0,022
-417,701	-200,000	0,018	-0,099
-416,686	-200,000	0,018	-0,062
-415,671	411,691	0,047	-0,074
-414,657	-200,000	0,002	-0,057
-413,642	299,806	-0,048	0,065
-412,628	-200,000	-0,033	0,118
-411,613	354,893	0,038	-0,056
-410,598	106,712	0,053	0,046
-409,584	176,127	-0,066	-0,070
-408,569	-200,000	0,033	0,126
-407,555	-50,626	0,078	0,027
-406,540	589,275	-0,113	0,205
-405,525	48,774	0,048	-0,033
-404,511	-200,000	0,011	-0,117
-403,496	-36,375	0,158	-0,062
-402,482	800,000	-0,056	-0,123
-401,467	213,390	-0,023	-0,026
-400,452	-200,000	0,015	0,122
-399,438	800,000	-0,059	0,171
-398,423	-96,634	0,109	-0,021
-397,409	113,005	-0,047	-0,041
-396,394	104,084	-0,045	-0,039
-395,379	800,000	-0,060	-0,155
-394,365	434,814	-0,046	0,073
-393,350	-66,901	0,167	0,048
-392,336	-139,919	0,100	-0,008
-391,321	-178,559	0,054	0,001
-390,306	-200,000	0,017	-0,119
-389,292	-115,110	0,067	-0,009
-388,277	135,533	-0,014	-0,014
-387,263	57,765	-0,099	0,071
-386,248	-122,632	-0,063	0,007
-385,233	-105,588	-0,073	-0,012
-384,219	196,199	-0,046	0,051
-383,204	-106,370	-0,080	0,013
-382,190	21,141	0,153	-0,091
-381,175	-200,000	-0,005	-0,039
-380,160	-200,000	-0,012	-0,080
-379,146	-129,403	-0,098	-0,010
-378,131	0,290	0,235	0,123
-377,117	260,507	0,048	0,060
-376,102	213,943	0,051	-0,059
-375,088	-200,000	-0,004	0,048
-374,073	60,774	-0,021	-0,015
-373,058	20,763	-0,049	-0,029
-372,044	-88,354	0,097	0,021
-371,029	-200,000	-0,006	0,140
-370,015	-12,217	-0,036	0,017
-369,000	-90,777	0,040	0,008
-367,985	520,577	-0,026	-0,044
-366,971	224,839	-0,097	-0,114
-365,956	437,788	0,043	-0,069
-364,942	-200,000	0,013	-0,046
-363,927	405,119	0,064	0,100
-362,912	800,000	0,028	-0,074
-361,898	186,807	-0,056	-0,061
-360,883	-13,972	-0,211	-0,099
-359,869	678,129	0,026	-0,050
-358,854	-44,835	0,165	-0,060
-357,839	-193,810	-0,099	-0,001
-356,825	217,559	0,025	-0,029
-355,810	-200,000	0,009	-0,050
-354,796	209,036	-0,042	-0,048
-353,781	21,183	-0,065	-0,039
-352,766	107,678	-0,086	0,075
-351,752	-165,859	-0,117	-0,004
-350,737	102,685	0,017	-0,014
-349,723	-35,223	-0,119	-0,047
-348,708	54,834	-0,080	0,057
-347,693	-200,000	-0,003	0,119
-346,679	-26,523	-0,053	-0,022
-345,664	203,485	-0,070	-0,080
-344,650	161,475	0,049	-0,050
-343,635	-101,410	0,127	0,022
-342,620	-107,057	0,083	0,013
-341,606	203,928	0,095	-0,108
-340,591	552,315	-0,024	0,043
-339,577	-200,000	-0,013	-0,109
-338,562	-200,000	-0,025	-0,213
-337,548	668,498	-0,091	-0,172
-336,533	-89,933	0,173	0,037
-335,518	580,082	-0,072	0,129
-334,504	240,899	0,138	-0,168
-333,489	-85,277	-0,080	0,018
-332,475	6,856	0,078	0,042
-331,460	-200,000	0,014	0,083
-330,445	-200,000	0,001	-0,155
-329,431	-200,000	-0,027	-0,138
-328,416	656,689	0,021	0,040
-327,402	132,870	0,043	0,040
-326,387	-200,000	-0,057	0,185
-325,372	-200,000	-0,009	0,031
-324,358	-200,000	0,040	0,000
-323,343	800,000	0,051	0,118
-322,329	800,000	0,054	0,171
-321,314	210,194	-0,009	-0,010
-320,299	783,941	-0,025	0,051
-319,285	800,000	-0,028	0,087
-318,270	-200,000	-0,010	-0,128
-317,256	-97,419	-0,155	-0,029
-316,241	-200,000	-0,013	0,065
-315,226	800,000	0,011	0,024
-314,212	-31,363	0,147	0,060
-313,197	-200,000	-0,011	0,143
-312,183	37,465	-0,076	0,049
-311,168	-27,097	0,059	0,025
-310,153	-200,000	-0,005	-0,089
-309,139	237,988	0,018	-0,022
-308,124	482,154	-0,050	0,083
-307,110	-78,613	0,140	0,035
-306,095	800,000	0,043	0,095
-305,080	-200,000	0,001	0,033
-304,066	24,417	-0,088	0,053
-303,051	-200,000	0,003	0,093
-302,037	-77,950	0,100	0,025
-301,022	-21,878	0,012	-0,005
-300,008	225,876	0,066	0,078
-298,993	-106,822	0,102	0,016
-297,978	800,000	0,060	0,166
-296,964	-200,000	-0,006	-0,029
-295,949	-74,668	0,061	0,016
-294,935	-92,837	-0,092	-0,019
-293,920	-103,884	0,047	-0,008
-292,905	-110,452	-0,033	-0,005
-291,891	-103,245	0,061	0,010
-290,876	-200,000	0,006	0,035
-289,862	-29,654	0,016	-0,007
-288,847	-147,745	-0,121	0,007
-287,832	-35,360	0,066	-0,026
-286,818	-138,147	-0,101	-0,008
-285,803	175,021	-0,073	-0,077
-284,789	389,892	0,045	-0,069
-283,774	34,576	-0,133	-0,085
-282,759	-43,528	0,106	0,039
-281,745	-34,727	-0,124	-0,049
-280,730	143,955	0,034	-0,033
-279,716	-200,000	0,027	-0,127
-278,701	-70,318	0,050	-0,014
-277,686	306,856	0,084	0,114
-276,672	800,000	0,024	0,057
-275,657	72,506	-0,019	0,015
-274,643	42,066	-0,049	0,032
-273,628	42,023	0,095	-0,063
-272,613	291,904	0,072	-0,096
-271,599	-0,923	0,046	0,024
-270,584	-200,000	-0,035	-0,119
-269,570	614,669	-0,073	-0,133
-268,555	89,966	-0,085	-0,069
-267,540	-200,000	-0,009	-0,039
-266,526	-126,368	0,060	0,006
-265,511	800,000	0,010	-0,030
-264,497	-200,000	0,005	-0,125
-263,482	40,249	-0,046	0,030
-262,467	800,000	0,005	0,012
-261,453	179,168	-0,140	0,149
-260,438	70,199	0,047	-0,035
-259,424	-200,000	-0,005	-0,081
-258,409	-200,000	0,007	0,051
-257,395	-200,000	-0,070	0,000
-256,380	-200,000	0,020	-0,092
-255,365	-129,550	0,108	0,011
-254,351	-16,909	-0,157	0,072
-253,336	-200,000	0,041	0,188
-252,322	800,000	0,062	0,145
-251,307	800,000	-0,034	0,106
-250,292	800,000	-0,039	-0,118
-249,278	800,000	0,056	0,115
-248,263	-200,000	-0,014	0,070
-247,249	-200,000	-0,026	0,100
-246,234	-14,187	0,037	-0,017
-245,219	203,194	0,074	-0,083
-244,205	800,000	0,046	-0,120
-243,190	-99,666	-0,139	0,025
-242,176	342,469	-0,043	-0,061
-241,161	176,902	0,103	0,109
-240,146	-200,000	-0,013	0,095
-239,132	412,803	0,012	-0,018
-238,117	-42,220	-0,212	-0,078
-237,103	-200,000	0,008	0,051
-236,088	-80,802	0,220	0,053
-235,073	-200,000	0,003	-0,049
-234,059	76,642	0,072	0,055
-233,044	-71,873	0,095	-0,026
-232,030	800,000	0,067	-0,191
-231,015	74,480	0,190	-0,145
-230,000	800,000	-0,074	-0,152
-228,986	-70,079	-0,075	-0,020
-227,971	542,786	0,040	0,070
-226,957	-200,000	0,016	0,056
-225,942	-30,449	0,140	-0,057
-224,927	-35,647	-0,131	-0,052
-223,913	-200,000	-0,011	-0,066
-222,898	800,000	-0,043	-0,098
-221,884	-200,000	-0,018	0,061
-220,869	-67,549	-0,044	0,013
-219,855	800,000	-0,011	0,033
-218,840	-30,606	0,099	0,041
-217,825	54,789	-0,062	0,043
-216,811	800,000	-0,017	0,038
-215,796	310,702	-0,027	-0,037
-214,782	-115,328	-0,065	0,009
-213,767	511,897	0,059	0,101
-212,752	-57,185	-0,107	-0,034
-211,738	328,704	0,093	0,130
-210,723	62,468	0,054	-0,039
-209,709	165,058	-0,039	0,040
-208,694	-148,037	-0,102	0,006
-207,679	-200,000	0,022	0,071
-206,665	800,000	0,063	0,129
-205,650	-46,179	-0,048	-0,017
-204,636	29,104	0,134	0,083
-203,621	66,065	-0,101	0,074
-202,606	-200,000	-0,007	-0,054
-201,592	-135,259	-0,056	-0,005
-200,577	800,000	-0,026	-0,080
-199,563	-144,345	-0,038	-0,003
-198,548	800,000	-0,031	0,068
-197,533	645,361	0,011	-0,021
-196,519	-45,526	0,085	-0,030
-195,504	-132,034	-0,051	-0,005
-194,490	8,710	-0,089	-0,048
-193,475	-200,000	-0,007	-0,038
-192,460	147,660	0,068	0,067
-191,446	297,820	0,142	-0,190
-190,431	-200,000	0,003	0,070
-189,417	236,379	0,110	0,132
-188,402	-200,000	-0,001	-0,046
-187,387	-200,000	0,035	-0,258
-186,373	-170,310	0,042	-0,001
-185,358	-200,000	-0,016	-0,120
-184,344	-131,027	-0,172	0,016
-183,329	21,873	0,030	-0,018
-182,315	339,738	0,022	0,031
-181,300	-200,000	-0,019	-0,089
-180,285	330,484	-0,060	0,085
-179,271	38,802	-0,091	0,059
-178,256	302,903	0,037	-0,050
-177,242	131,167	0,086	-0,080
-176,227	-58,436	-0,092	-0,029
-175,212	-200,000	-0,003	0,072
-174,198	269,157	-0,032	0,041
-173,183	800,000	-0,035	0,101
-172,169	-200,000	0,008	0,138
-171,154	26,559	-0,091	-0,055
-170,139	-200,000	-0,011	0,152
-169,125	41,878	0,073	0,048
-168,110	-131,853	0,047	-0,004
-167,096	184,854	0,024	-0,026
-166,081	-13,748	-0,168	-0,078
-165,066	-102,891	-0,058	-0,010
-164,052	-200,000	0,001	-0,091
-163,037	54,888	0,058	-0,041
-162,023	800,000	-0,037	0,101
-161,008	-61,310	-0,076	0,023
-159,993	800,000	-0,050	-0,136
-158,979	48,000	-0,072	-0,049
-157,964	57,485	0,045	0,032
-156,950	386,190	0,067	-0,100
-155,935	243,413	-0,046	-0,056
-154,920	49,114	-0,046	0,031
-153,906	-200,000	0,023	0,138
-152,891	88,304	-0,051	0,041
-151,877	-47,333	-0,071	-0,025
-150,862	130,533	-0,085	0,079
-149,847	-200,000	-0,007	-0,111
-148,833	800,000	-0,042	-0,102
-147,818	-140,312	0,195	-0,015
-146,804	626,981	0,007	-0,012
-145,789	-55,760	0,069	0,022
-144,775	44,077	0,054	0,036
-143,760	-37,213	-0,069	-0,026
-142,745	-140,093	-0,110	0,008
-141,731	-200,000	0,043	0,139
-140,716	-107,497	-0,071	0,011
-139,702	157,679	0,093	0,093
-138,687	39,980	0,164	-0,107
-137,672	-200,000	-0,005	0,054
-136,658	16,432	0,069	0,040
-135,643	800,000	-0,001	-0,003
-134,629	-6,331	-0,049	0,024
-133,614	59,059	-0,021	-0,015
-132,599	460,365	-0,013	0,021
-131,585	-13,500	-0,027	0,013
-130,570	800,000	0,007	-0,015
-129,556	-200,000	0,015	0,087
-128,541	800,000	0,038	-0,086
-127,526	800,000	0,021	0,044
-126,512	221,004	-0,041	0,048
-125,497	-121,226	0,099	0,012
-124,483	800,000	0,025	0,052
-123,468	291,689	0,023	-0,030
-122,453	486,544	0,082	-0,135
-121,439	-200,000	-0,010	-0,034
-120,424	49,215	0,119	-0,081
-119,410	-200,000	-0,000	-0,010
