DTS Sentinel unit serial number:	SN410029Multiplexer serial number:	ORYXHardware model number:	OX2-SRSoftware version number:	ORYX F/W v4,00 Oryx Data Collector v3.7.2.0data status	okinstallation	B4 Nyhavnadifferential loss correction	single-endedforward channel	channel 2reverse channel	N/Adate	2023/12/16time	04:25:13forward acquisition time	300,00reverse acquisition time	0,00gamma	499,1914k internal	0,3128k external	0,3128temperature offset calibration	1,0000default loss term (dB/km)	0,3820temperature slope calibration	1,0000multiplexer offset coefficient	1,0000multiplexer slope coefficient	1,0000fibre end	0,00T internal ref (°C)	22,00T ext. ref 1 (°C)	7,16T ext. ref 2 (°C)	7,35length (m)	temperature (°C)	Stokes	anti-Stokes-744,400	-70,346	0,083	-0,023
-743,385	15,270	-0,342	0,199
-742,371	800,000	0,014	-0,043
-741,356	-200,000	-0,002	0,127
-740,342	-41,397	0,173	0,066
-739,327	-135,099	-0,217	-0,019
-738,312	-93,733	-0,090	-0,018
-737,298	10,677	-0,274	0,155
-736,283	-200,000	0,005	0,129
-735,269	169,389	-0,171	0,182
-734,254	14,697	-0,035	0,021
-733,239	-126,719	-0,295	-0,032
-732,225	265,433	0,148	0,193
-731,210	-42,615	-0,017	-0,006
-730,196	442,363	-0,028	0,045
-729,181	-198,851	-0,129	0,001
-728,167	-68,016	0,078	-0,022
-727,152	375,628	-0,098	-0,148
-726,137	800,000	0,029	0,095
-725,123	-2,717	0,064	0,033
-724,108	363,074	-0,104	-0,156
-723,094	-200,000	-0,004	-0,055
-722,079	-71,814	-0,108	0,030
-721,064	-63,866	0,073	-0,022
-720,050	800,000	-0,019	-0,051
-719,035	800,000	-0,035	-0,099
-718,021	404,217	-0,067	0,105
-717,006	-70,510	-0,099	-0,028
-715,991	-82,023	-0,158	-0,038
-714,977	83,191	-0,119	-0,096
-713,962	98,382	-0,073	-0,063
-712,948	800,000	0,007	0,018
-711,933	5,612	-0,131	-0,072
-710,918	45,233	-0,078	-0,054
-709,904	-127,356	-0,124	0,013
-708,889	-200,000	-0,014	-0,077
-707,875	72,382	-0,047	-0,036
-706,860	800,000	-0,047	-0,099
-705,845	-1,899	-0,088	-0,046
-704,831	-139,105	0,058	0,005
-703,816	800,000	0,040	-0,083
-702,802	-200,000	0,005	-0,062
-701,787	800,000	-0,014	-0,035
-700,772	99,283	-0,089	-0,077
-699,758	165,614	0,035	-0,037
-698,743	38,831	0,043	0,028
-697,729	-200,000	0,014	0,111
-696,714	-33,089	-0,086	-0,035
-695,699	11,389	-0,076	0,043
-694,685	-200,000	0,015	-0,135
-693,670	322,878	0,094	-0,134
-692,656	-20,388	0,045	0,020
-691,641	642,875	-0,051	0,097
-690,627	-41,117	-0,155	0,059
-689,612	771,118	-0,005	-0,010
-688,597	148,768	-0,048	-0,049
-687,583	-188,489	-0,108	0,001
-686,568	-77,834	-0,004	0,001
-685,554	205,378	-0,004	-0,004
-684,539	185,155	0,063	-0,070
-683,524	133,276	-0,077	0,074
-682,510	-88,337	-0,097	-0,021
-681,495	800,000	-0,039	0,116
-680,481	76,160	0,034	-0,027
-679,466	-200,000	0,005	-0,101
-678,451	-200,000	-0,019	-0,148
-677,437	181,696	-0,072	0,079
-676,422	-10,649	-0,040	0,019
-675,408	26,899	-0,059	-0,036
-674,393	-0,174	-0,074	-0,039
-673,378	83,067	-0,052	-0,042
-672,364	-172,065	-0,040	0,001
-671,349	-200,000	-0,034	-0,115
-670,335	-200,000	-0,016	-0,058
-669,320	174,858	-0,032	0,034
-668,305	800,000	-0,062	0,154
-667,291	368,493	-0,074	-0,111
-666,276	218,890	0,045	-0,053
-665,262	-30,088	-0,164	-0,069
-664,247	-99,376	-0,162	0,030
-663,232	57,551	0,051	0,037
-662,218	289,540	0,057	-0,077
-661,203	206,256	0,012	0,013
-660,189	-99,885	0,036	0,007
-659,174	-18,914	0,117	-0,054
-658,159	800,000	-0,039	0,125
-657,145	89,871	-0,078	0,065
-656,130	146,428	-0,079	0,079
-655,116	5,310	0,075	-0,041
-654,101	-60,943	-0,031	-0,010
-653,086	-200,000	0,016	-0,150
-652,072	-128,126	-0,132	0,014
-651,057	-200,000	0,004	-0,018
-650,043	-82,138	0,150	-0,036
-649,028	320,774	0,069	-0,098
-648,014	-200,000	-0,014	0,153
-646,999	204,303	-0,084	-0,097
-645,984	228,463	-0,032	0,039
-644,970	348,487	0,058	-0,085
-643,955	-200,000	-0,028	-0,167
-642,941	-200,000	-0,020	-0,199
-641,926	-77,711	0,170	0,043
-640,911	-151,344	0,099	-0,005
-639,897	-200,000	0,001	-0,018
-638,882	800,000	-0,027	0,081
-637,868	-28,806	0,075	0,032
-636,853	44,534	-0,148	-0,101
-635,838	26,439	0,048	0,030
-634,824	-200,000	-0,023	0,128
-633,809	-200,000	-0,017	-0,057
-632,795	-62,778	0,106	0,032
-631,780	800,000	-0,070	0,172
-630,765	-50,507	-0,206	0,072
-629,751	232,947	-0,041	0,050
-628,736	-200,000	0,013	-0,096
-627,722	-23,391	0,044	0,020
-626,707	-200,000	0,021	-0,076
-625,692	409,793	0,022	-0,034
-624,678	800,000	0,005	0,012
-623,663	160,702	0,131	-0,136
-622,649	-55,993	0,037	0,012
-621,634	399,831	-0,060	-0,093
-620,619	-62,888	-0,049	0,015
-619,605	334,680	0,070	0,101
-618,590	-200,000	-0,011	0,082
-617,576	-200,000	0,012	-0,109
-616,561	-153,809	-0,121	0,006
-615,546	361,924	0,035	0,053
-614,532	116,115	-0,093	-0,084
-613,517	-200,000	-0,002	-0,021
-612,503	-200,000	0,025	-0,093
-611,488	800,000	0,066	-0,136
-610,474	800,000	-0,026	0,073
-609,459	-107,134	0,126	0,020
-608,444	800,000	-0,006	-0,014
-607,430	416,822	0,035	-0,055
-606,415	107,096	-0,132	-0,116
-605,401	132,797	0,052	-0,050
-604,386	96,160	-0,034	0,029
-603,371	-200,000	0,030	0,105
-602,357	-14,893	-0,113	-0,054
-601,342	-200,000	-0,000	0,053
-600,328	-200,000	0,002	-0,058
-599,313	192,871	0,016	-0,018
-598,298	500,358	0,075	-0,128
-597,284	-200,000	0,001	-0,066
-596,269	800,000	0,036	0,076
-595,255	-161,697	0,161	-0,006
-594,240	462,560	-0,062	-0,103
-593,225	71,856	-0,093	0,071
-592,211	89,597	-0,056	-0,046
-591,196	800,000	0,020	-0,042
-590,182	800,000	0,033	-0,079
-589,167	-162,897	-0,129	-0,005
-588,152	54,531	-0,026	-0,018
-587,138	-200,000	-0,004	0,050
-586,123	-125,870	-0,104	0,011
-585,109	14,457	-0,049	-0,028
-584,094	-162,671	-0,082	-0,003
-583,079	108,357	-0,027	0,024
-582,065	47,798	0,040	-0,028
-581,050	-81,469	0,113	-0,027
-580,036	-200,000	-0,008	0,080
-579,021	646,612	-0,021	0,040
-578,006	800,000	-0,005	0,015
-576,992	-200,000	-0,008	0,087
-575,977	-61,657	-0,136	-0,042
-574,963	-200,000	0,036	0,140
-573,948	224,907	0,035	-0,042
-572,934	201,202	-0,063	-0,072
-571,919	134,966	-0,051	-0,049
-570,904	-200,000	0,011	-0,158
-569,890	-200,000	0,002	-0,065
-568,875	489,375	-0,059	0,100
-567,861	-131,432	0,089	0,009
-566,846	800,000	0,095	0,236
-565,831	-200,000	0,001	-0,020
-564,817	-200,000	-0,011	-0,047
-563,802	-94,274	-0,040	0,008
-562,788	111,621	-0,067	-0,060
-561,773	247,217	-0,031	-0,038
-560,758	133,125	0,020	-0,019
-559,744	-95,724	0,205	-0,040
-558,729	73,562	-0,130	0,100
-557,715	-200,000	-0,029	-0,167
-556,700	-200,000	0,007	-0,135
-555,685	-200,000	-0,028	-0,126
-554,671	-37,804	0,152	0,060
-553,656	-200,000	0,000	0,090
-552,642	20,682	-0,087	0,052
-551,627	-34,193	0,015	0,006
-550,612	7,204	0,048	-0,026
-549,598	-200,000	0,003	-0,075
-548,583	-200,000	-0,030	-0,101
-547,569	111,588	-0,160	-0,143
-546,554	-86,573	0,040	-0,009
-545,539	-62,230	0,135	0,041
-544,525	-200,000	-0,033	0,116
-543,510	-137,018	-0,086	0,007
-542,496	-200,000	-0,003	0,013
-541,481	117,415	-0,040	-0,036
-540,466	-48,501	0,032	-0,011
-539,452	-106,917	0,085	0,014
-538,437	-174,013	0,116	0,002
-537,423	-8,493	-0,027	-0,013
-536,408	-159,670	-0,091	0,004
-535,393	-28,797	0,132	-0,056
-534,379	75,787	-0,012	0,009
-533,364	582,174	-0,045	0,081
-532,350	212,822	0,065	0,076
-531,335	-110,443	0,209	0,032
-530,321	501,477	0,063	0,108
-529,306	-29,259	-0,054	0,023
-528,291	-153,615	-0,104	-0,005
-527,277	389,364	-0,011	-0,017
-526,262	42,777	-0,095	0,064
-525,248	-200,000	-0,009	0,120
-524,233	24,529	0,160	-0,097
-523,218	364,289	-0,077	0,115
-522,204	16,466	0,070	0,040
-521,189	81,062	-0,051	0,040
-520,175	31,794	-0,065	-0,041
-519,160	-61,312	-0,136	0,042
-518,145	800,000	-0,040	-0,084
-517,131	265,980	0,089	0,115
-516,116	-141,258	0,100	-0,007
-515,102	-147,809	0,068	-0,004
-514,087	-52,071	0,055	-0,019
-513,072	-11,216	-0,144	-0,070
-512,058	536,944	0,076	0,134
-511,043	165,889	-0,020	-0,021
-510,029	800,000	0,022	0,055
-509,014	-21,221	0,082	0,037
-507,999	-200,000	-0,011	-0,044
-506,985	-200,000	0,027	0,138
-505,970	-67,012	0,017	0,005
-504,956	800,000	0,070	-0,223
-503,941	201,321	-0,126	-0,144
-502,926	-200,000	0,032	0,251
-501,912	13,054	0,111	0,063
-500,897	61,723	0,026	-0,019
-499,883	800,000	0,031	-0,072
-498,868	-200,000	-0,018	-0,111
-497,853	800,000	-0,010	-0,022
-496,839	-200,000	-0,017	0,063
-495,824	-98,380	0,052	0,010
-494,810	-200,000	0,002	-0,021
-493,795	-167,884	-0,020	-0,001
-492,781	173,055	0,102	-0,109
-491,766	-200,000	0,006	-0,099
-490,751	4,183	-0,023	-0,012
-489,737	6,475	-0,082	-0,045
-488,722	222,189	-0,080	-0,094
-487,708	63,566	-0,091	-0,067
-486,693	15,763	0,061	0,036
-485,678	99,066	-0,066	-0,056
-484,664	-200,000	-0,015	-0,070
-483,649	-161,534	0,044	-0,002
-482,635	-49,448	-0,015	0,005
-481,620	155,715	-0,162	0,165
-480,605	-87,736	0,185	0,041
-479,591	-200,000	-0,002	-0,083
-478,576	12,178	0,082	0,046
-477,562	-200,000	0,013	0,053
-476,547	-156,034	-0,167	0,008
-475,532	-8,089	-0,107	0,053
-474,518	-200,000	0,005	-0,044
-473,503	-96,157	0,012	-0,002
-472,489	-26,958	0,101	0,043
-471,474	-66,634	0,031	-0,009
-470,459	-200,000	-0,013	-0,043
-469,445	-84,862	0,107	0,025
-468,430	11,385	0,037	-0,021
-467,416	-120,265	-0,037	0,005
-466,401	-17,558	0,093	-0,043
-465,386	245,153	0,089	-0,110
-464,372	9,637	0,033	0,019
-463,357	-144,462	0,086	-0,006
-462,343	82,862	-0,136	0,109
-461,328	-200,000	0,013	0,096
-460,313	330,700	0,069	-0,098
-459,299	-200,000	-0,013	0,132
-458,284	-200,000	-0,003	0,033
-457,270	6,146	0,055	0,030
-456,255	-73,216	0,067	0,018
-455,241	-115,355	0,035	0,005
-454,226	-200,000	-0,022	-0,083
-453,211	-8,377	-0,100	-0,049
-452,197	-200,000	0,003	0,059
-451,182	288,366	0,040	0,053
-450,168	-43,923	0,114	0,042
-449,153	-117,744	-0,088	-0,011
-448,138	0,299	0,117	0,061
-447,124	-60,988	-0,015	-0,005
-446,109	-115,227	-0,049	0,007
-445,095	88,300	0,062	0,051
-444,080	14,698	0,092	-0,053
-443,065	-200,000	0,003	-0,083
-442,051	64,670	0,044	0,033
-441,036	-200,000	0,002	-0,008
-440,022	-106,622	0,041	-0,007
-439,007	37,407	-0,030	0,020
-437,992	800,000	0,047	-0,099
-436,978	-200,000	-0,004	0,128
-435,963	267,528	0,043	-0,056
-434,949	25,368	-0,155	-0,095
-433,934	88,165	-0,047	0,038
-432,919	74,828	0,031	0,024
-431,905	258,641	0,008	0,010
-430,890	-200,000	0,025	0,149
-429,876	-62,188	0,141	-0,043
-428,861	-27,708	0,142	0,060
-427,846	-200,000	-0,013	-0,096
-426,832	775,067	0,060	-0,120
-425,817	-200,000	0,013	-0,132
-424,803	214,418	-0,111	-0,129
-423,788	6,358	-0,053	0,029
-422,773	800,000	0,033	0,069
-421,759	-200,000	0,009	0,062
-420,744	390,865	0,058	0,089
-419,730	-2,672	-0,071	0,036
-418,715	58,298	-0,036	-0,026
-417,701	800,000	-0,027	0,072
-416,686	137,568	0,037	0,036
-415,671	-200,000	-0,003	-0,054
-414,657	-23,785	-0,055	0,024
-413,642	189,445	-0,052	0,057
-412,628	-81,404	0,084	0,020
-411,613	800,000	0,027	0,060
-410,598	-60,779	-0,082	0,025
-409,584	800,000	-0,045	0,129
-408,569	456,501	0,040	-0,066
-407,555	558,724	0,006	0,010
-406,540	-200,000	0,009	0,095
-405,525	146,376	-0,136	-0,134
-404,511	18,544	-0,125	-0,073
-403,496	-200,000	-0,001	-0,057
-402,482	-20,899	0,137	-0,061
-401,467	-200,000	-0,020	-0,115
-400,452	-97,148	0,020	0,004
-399,438	-200,000	-0,008	-0,056
-398,423	158,487	0,054	0,055
-397,409	-129,644	0,104	0,010
-396,394	299,120	0,030	0,041
-395,379	-200,000	0,013	0,043
-394,365	-48,260	0,022	0,008
-393,350	291,187	0,027	-0,036
-392,336	88,039	0,052	0,042
-391,321	75,428	0,005	0,004
-390,306	621,522	-0,073	-0,136
-389,292	699,919	-0,042	0,082
-388,277	-29,479	0,051	0,021
-387,263	-200,000	-0,003	0,069
-386,248	-200,000	0,004	-0,139
-385,233	390,669	-0,027	0,042
-384,219	360,170	-0,136	0,200
-383,204	269,931	-0,035	0,045
-382,190	-107,943	0,009	0,001
-381,175	124,593	-0,053	0,049
-380,160	-200,000	0,018	0,087
-379,146	800,000	0,031	0,076
-378,131	-76,678	0,119	-0,030
-377,117	387,741	-0,029	-0,044
-376,102	332,982	0,018	0,025
-375,088	39,875	0,048	0,032
-374,073	0,416	0,104	0,054
-373,058	-155,900	-0,188	0,009
-372,044	97,577	-0,100	-0,084
-371,029	166,388	-0,033	0,034
-370,015	-157,534	0,058	-0,003
-369,000	9,532	-0,142	0,079
-367,985	-200,000	-0,006	0,029
-366,971	23,987	-0,097	-0,058
-365,956	-200,000	-0,017	0,118
-364,942	134,965	0,170	0,162
-363,927	-3,824	-0,061	0,031
-362,912	507,906	-0,042	0,071
-361,898	-13,169	0,092	-0,044
-360,883	-200,000	-0,015	0,081
-359,869	264,343	0,073	-0,094
-358,854	-200,000	-0,005	-0,033
-357,839	141,653	-0,070	0,068
-356,825	-120,517	-0,167	0,021
-355,810	800,000	-0,026	-0,083
-354,796	-200,000	0,012	0,039
-353,781	126,154	-0,089	-0,082
-352,766	800,000	0,011	-0,028
-351,752	800,000	0,014	0,038
-350,737	-91,070	0,140	0,029
-349,723	-200,000	0,010	0,032
-348,708	-200,000	-0,010	0,081
-347,693	-119,222	-0,109	-0,014
-346,679	0,712	-0,089	0,046
-345,664	-200,000	-0,023	0,109
-344,650	253,130	-0,011	-0,013
-343,635	-200,000	-0,005	0,067
-342,620	-200,000	0,014	0,215
-341,606	800,000	0,037	0,106
-340,591	-200,000	0,004	-0,041
-339,577	-25,906	0,027	-0,012
-338,562	713,333	-0,042	-0,082
-337,548	709,769	0,033	-0,063
-336,533	112,559	0,070	-0,062
-335,518	-88,921	-0,091	0,020
-334,504	-149,083	0,047	-0,003
-333,489	324,761	-0,076	-0,107
-332,475	-200,000	-0,021	0,094
-331,460	800,000	0,005	-0,014
-330,445	26,220	-0,034	0,021
-329,431	18,124	-0,024	0,014
-328,416	-95,573	-0,079	0,015
-327,402	-145,753	0,256	-0,016
-326,387	-200,000	0,029	-0,153
-325,372	-55,977	-0,084	-0,027
-324,358	-24,262	-0,157	-0,068
-323,343	-200,000	0,005	-0,046
-322,329	-63,600	0,118	0,035
-321,314	97,683	-0,076	0,064
-320,299	-200,000	0,018	0,081
-319,285	-65,138	-0,079	0,023
-318,270	203,196	0,059	-0,067
-317,256	-111,093	-0,060	0,009
-316,241	166,443	-0,123	0,127
-315,226	-56,695	-0,121	0,039
-314,212	164,479	0,115	0,118
-313,197	-200,000	0,015	-0,070
-312,183	800,000	0,065	0,136
-311,168	-10,067	-0,079	0,038
-310,153	-200,000	0,019	-0,136
-309,139	-200,000	0,042	-0,175
-308,124	800,000	-0,045	0,138
-307,110	-200,000	-0,005	-0,082
-306,095	487,527	0,073	0,123
-305,080	9,052	0,041	-0,023
-304,066	57,792	-0,113	-0,081
-303,051	-200,000	-0,014	0,066
-302,037	343,470	-0,041	-0,059
-301,022	-95,744	0,062	0,012
-300,008	-27,526	0,169	-0,071
-298,993	-200,000	-0,006	0,083
-297,978	-200,000	0,001	0,181
-296,964	3,467	-0,076	-0,041
-295,949	-144,123	-0,104	0,007
-294,935	-200,000	-0,026	0,125
-293,920	-200,000	0,036	0,149
-292,905	149,831	-0,007	0,007
-291,891	11,395	0,110	0,062
-290,876	-200,000	0,019	-0,121
-289,862	450,882	-0,066	-0,106
-288,847	-152,344	-0,029	0,001
-287,832	-48,180	0,173	-0,061
-286,818	467,166	0,084	0,138
-285,803	800,000	0,006	-0,017
-284,789	775,526	-0,056	-0,113
-283,774	-200,000	-0,002	0,110
-282,759	800,000	-0,025	0,059
-281,745	77,773	-0,158	-0,123
-280,730	-200,000	-0,018	0,077
-279,716	131,903	-0,020	0,018
-278,701	-99,106	-0,028	-0,005
-277,686	141,079	0,060	0,058
-276,672	-89,439	-0,063	0,013
-275,657	-30,826	0,107	0,044
-274,643	-148,199	0,158	0,009
-273,628	-52,735	-0,155	0,052
-272,613	732,721	0,055	-0,107
-271,599	158,763	-0,043	-0,044
-270,584	146,752	-0,022	0,021
-269,570	-143,223	0,017	-0,001
-268,555	-60,084	0,042	0,013
-267,540	-200,000	-0,017	-0,057
-266,526	-111,479	-0,111	-0,016
-265,511	-67,238	0,123	0,035
-264,497	176,392	0,129	-0,137
-263,482	760,354	-0,025	0,049
-262,467	202,996	0,024	0,027
-261,453	800,000	-0,037	0,089
-260,438	-44,482	-0,138	-0,050
-259,424	800,000	0,017	0,045
-258,409	-200,000	0,023	-0,079
-257,395	-141,202	0,032	-0,002
-256,380	-200,000	0,026	0,100
-255,365	52,390	0,029	-0,020
-254,351	800,000	-0,065	-0,133
-253,336	-9,463	-0,040	-0,020
-252,322	-152,252	-0,034	-0,002
-251,307	43,373	0,122	-0,081
-250,292	800,000	0,030	0,082
-249,278	557,169	0,016	0,029
-248,263	307,444	0,057	-0,078
-247,249	413,912	-0,034	0,053
-246,234	-200,000	0,026	-0,109
-245,219	-129,325	-0,098	-0,010
-244,205	-64,312	-0,066	-0,019
-243,190	-198,595	0,110	0,000
-242,176	-183,825	-0,087	0,001
-241,161	120,659	0,060	-0,054
-240,146	348,307	0,026	-0,038
-239,132	178,448	-0,039	0,042
-238,117	501,655	-0,119	-0,202
-237,103	-200,000	0,010	-0,066
-236,088	42,838	-0,040	0,027
-235,073	-76,382	0,098	-0,025
-234,059	359,662	-0,069	0,101
-233,044	-59,414	-0,068	-0,021
-232,030	481,399	-0,033	0,055
-231,015	-200,000	-0,025	-0,104
-230,000	-200,000	0,009	-0,032
-228,986	79,020	-0,106	-0,083
-227,971	49,180	0,114	-0,078
-226,957	63,147	0,072	-0,053
-225,942	-48,999	0,114	-0,039
-224,927	550,142	0,026	-0,046
-223,913	-200,000	0,022	0,074
-222,898	152,323	0,034	0,034
-221,884	40,016	-0,024	0,015
-220,869	-200,000	0,015	0,073
-219,855	244,725	0,063	0,077
-218,840	-63,985	0,052	0,015
-217,825	-200,000	-0,017	-0,153
-216,811	42,396	-0,077	-0,051
-215,796	200,246	-0,099	-0,111
-214,782	800,000	-0,051	0,154
-213,767	-15,577	-0,022	0,010
-212,752	12,419	0,070	0,039
-211,738	399,305	-0,045	-0,069
-210,723	105,217	0,068	-0,059
-209,709	-13,274	-0,130	0,061
-208,694	410,174	-0,076	-0,118
-207,679	135,669	-0,106	-0,101
-206,665	-123,314	0,133	0,015
-205,650	-200,000	-0,009	0,068
-204,636	-55,837	-0,108	0,035
-203,621	-200,000	-0,031	0,154
-202,606	143,398	-0,017	0,017
-201,592	357,904	-0,021	0,031
-200,577	-200,000	0,022	-0,088
-199,563	-200,000	0,017	-0,065
-198,548	-147,907	-0,051	-0,003
-197,533	508,116	0,004	-0,006
-196,519	152,337	0,071	0,071
-195,504	47,784	-0,072	0,049
-194,490	135,603	-0,094	-0,089
-193,475	114,920	-0,175	-0,156
-192,460	-163,236	0,047	-0,002
-191,446	164,243	0,020	0,020
-190,431	32,657	-0,082	0,052
-189,417	124,840	-0,063	0,058
-188,402	88,459	-0,093	-0,075
-187,387	327,789	-0,026	-0,037
-186,373	-88,128	0,158	-0,034
-185,358	-200,000	0,033	0,158
-184,344	-18,282	0,109	0,050
-183,329	98,698	-0,054	-0,045
-182,315	24,866	0,076	0,045
-181,300	-65,631	-0,074	0,021
-180,285	-154,970	0,030	0,001
-179,271	289,003	0,085	-0,112
-178,256	51,977	-0,019	-0,013
-177,242	-200,000	0,022	0,213
-176,227	-189,187	0,076	-0,001
-175,212	800,000	-0,019	-0,056
-174,198	76,237	-0,131	0,101
-173,183	-200,000	-0,008	-0,033
-172,169	777,705	-0,031	-0,063
-171,154	-200,000	-0,033	-0,127
-170,139	800,000	0,029	0,061
-169,125	-1,775	0,122	0,062
-168,110	-200,000	-0,006	0,024
-167,096	800,000	-0,063	0,127
-166,081	-123,853	0,068	-0,008
-165,066	-200,000	-0,025	-0,085
-164,052	-115,307	0,067	0,009
-163,037	385,431	0,074	-0,112
-162,023	101,816	0,024	0,020
-161,008	415,232	0,037	0,058
-159,993	-200,000	0,019	0,108
-158,979	-200,000	-0,024	-0,099
-157,964	76,672	0,008	-0,006
-156,950	334,931	-0,046	0,064
-155,935	800,000	0,022	-0,057
-154,920	-58,775	0,044	-0,014
-153,906	-95,388	-0,087	0,017
-152,891	-46,288	0,139	-0,049
-151,877	66,503	-0,051	0,038
-150,862	11,528	0,104	-0,058
-149,847	800,000	-0,026	-0,082
-148,833	-200,000	-0,011	0,080
-147,818	-150,618	0,172	-0,009
-146,804	-200,000	-0,012	0,098
-145,789	-166,815	0,096	0,003
-144,775	118,752	-0,108	0,097
-143,760	-36,835	0,028	0,011
-142,745	23,169	-0,152	0,091
-141,731	-200,000	0,009	0,175
-140,716	-32,118	0,119	0,048
-139,702	-200,000	-0,001	0,023
-138,687	551,648	0,038	-0,067
-137,672	-69,201	-0,015	-0,004
-136,658	800,000	0,074	0,179
-135,643	143,966	0,104	0,101
-134,629	800,000	-0,030	-0,073
-133,614	-9,716	0,049	0,024
-132,599	800,000	-0,016	0,048
-131,585	24,738	0,062	0,037
-130,570	253,371	0,042	0,052
-129,556	-200,000	-0,003	0,035
-128,541	390,736	0,019	0,028
-127,526	152,270	-0,120	0,119
-126,512	180,407	0,076	0,081
-125,497	208,368	0,057	0,065
-124,483	220,277	0,070	0,082
-123,468	-151,070	0,096	-0,005
-122,453	-113,771	-0,029	-0,004
-121,439	8,242	-0,049	-0,027
-120,424	800,000	-0,015	-0,047
-119,410	481,249	0,041	-0,067
-118,395	354,460	0,044	0,064
