DTS Sentinel unit serial number:	SN410029Multiplexer serial number:	ORYXHardware model number:	OX2-SRSoftware version number:	ORYX F/W v4,00 Oryx Data Collector v3.7.2.0data status	okinstallation	B4 Nyhavnadifferential loss correction	single-endedforward channel	channel 2reverse channel	N/Adate	2023/12/19time	12:30:13forward acquisition time	300,00reverse acquisition time	0,00gamma	499,1914k internal	0,3128k external	0,3128temperature offset calibration	1,0000default loss term (dB/km)	0,3820temperature slope calibration	1,0000multiplexer offset coefficient	1,0000multiplexer slope coefficient	1,0000fibre end	0,00T internal ref (°C)	19,57T ext. ref 1 (°C)	4,28T ext. ref 2 (°C)	4,25length (m)	temperature (°C)	Stokes	anti-Stokes-744,400	572,967	0,033	-0,060
-743,385	12,566	-0,263	0,151
-742,371	515,202	0,049	0,086
-741,356	-71,289	-0,199	0,055
-740,342	800,000	0,012	-0,039
-739,327	-60,601	-0,382	0,120
-738,312	172,413	-0,090	0,096
-737,298	-73,161	-0,217	0,059
-736,283	248,917	0,055	-0,070
-735,269	39,220	-0,228	0,151
-734,254	-67,783	0,176	-0,051
-733,239	-100,734	-0,672	-0,122
-732,225	161,589	0,105	0,109
-731,210	800,000	-0,040	0,110
-730,196	326,468	0,061	-0,088
-729,181	284,958	-0,066	-0,088
-728,167	-24,951	-0,114	-0,050
-727,152	800,000	0,033	0,070
-726,137	164,608	-0,023	-0,024
-725,123	800,000	-0,027	0,076
-724,108	186,481	-0,124	-0,137
-723,094	539,595	-0,099	-0,176
-722,079	-87,158	-0,066	-0,015
-721,064	223,655	0,026	-0,031
-720,050	-11,183	-0,031	0,015
-719,035	-35,894	0,056	0,022
-718,021	-200,000	0,009	0,129
-717,006	-200,000	-0,038	-0,170
-715,991	-200,000	-0,015	-0,173
-714,977	-11,519	0,043	-0,021
-713,962	800,000	-0,013	0,029
-712,948	-200,000	0,022	-0,093
-711,933	174,517	0,069	-0,074
-710,918	418,436	-0,086	0,138
-709,904	196,914	-0,144	-0,163
-708,889	-3,847	-0,071	-0,036
-707,875	97,507	0,085	-0,073
-706,860	-53,579	0,060	-0,020
-705,845	513,754	0,030	0,052
-704,831	-168,312	0,130	-0,004
-703,816	-0,995	-0,034	0,018
-702,802	447,085	-0,063	-0,104
-701,787	-200,000	-0,004	-0,048
-700,772	188,666	0,030	-0,034
-699,758	-58,928	-0,138	-0,044
-698,743	64,411	-0,045	-0,033
-697,729	17,588	0,092	-0,054
-696,714	-7,976	-0,123	0,062
-695,699	-200,000	-0,026	-0,123
-694,685	800,000	-0,034	0,080
-693,670	173,247	0,046	0,049
-692,656	-109,921	-0,060	-0,009
-691,641	-142,437	-0,013	0,001
-690,627	-200,000	-0,009	-0,033
-689,612	454,343	0,044	-0,072
-688,597	-79,300	-0,026	0,006
-687,583	800,000	-0,052	-0,169
-686,568	204,104	-0,088	-0,101
-685,554	-200,000	0,012	-0,117
-684,539	-200,000	-0,004	-0,062
-683,524	95,427	-0,060	0,051
-682,510	-10,865	0,083	-0,041
-681,495	-200,000	0,013	-0,210
-680,481	292,732	-0,016	-0,021
-679,466	-24,361	-0,109	0,048
-678,451	-138,526	-0,073	0,006
-677,437	413,306	0,037	0,059
-676,422	227,160	0,014	0,016
-675,408	251,742	0,053	-0,068
-674,393	-175,647	0,060	-0,001
-673,378	-160,108	0,060	-0,002
-672,364	-20,475	-0,021	0,010
-671,349	79,166	-0,119	-0,095
-670,335	800,000	0,033	0,090
-669,320	320,609	0,070	0,099
-668,305	-200,000	0,004	-0,221
-667,291	759,876	0,042	-0,086
-666,276	-34,101	-0,149	-0,060
-665,262	531,570	-0,060	-0,106
-664,247	-6,340	-0,166	-0,084
-663,232	800,000	-0,045	0,137
-662,218	-200,000	0,001	0,210
-661,203	-124,469	0,054	0,006
-660,189	800,000	-0,033	-0,104
-659,174	-105,337	-0,038	0,006
-658,159	-187,503	-0,211	-0,002
-657,145	559,072	-0,056	-0,101
-656,130	800,000	0,057	-0,134
-655,116	-80,242	0,153	-0,038
-654,101	-200,000	0,003	0,050
-653,086	-35,576	0,085	0,034
-652,072	-200,000	0,011	-0,135
-651,057	10,936	0,072	-0,041
-650,043	-98,331	0,096	-0,018
-649,028	23,867	-0,053	0,032
-648,014	337,720	0,063	-0,091
-646,999	-181,729	0,093	-0,001
-645,984	-200,000	0,003	-0,049
-644,970	186,083	-0,122	-0,135
-643,955	238,161	-0,052	0,064
-642,941	800,000	0,053	-0,151
-641,926	800,000	0,044	-0,096
-640,911	-200,000	0,004	0,018
-639,897	-200,000	-0,006	0,160
-638,882	800,000	0,102	0,254
-637,868	-71,934	-0,089	0,024
-636,853	123,729	0,063	-0,058
-635,838	42,772	-0,041	-0,028
-634,824	-200,000	-0,028	-0,120
-633,809	277,168	-0,063	-0,083
-632,795	800,000	0,043	0,101
-631,780	-71,310	0,067	0,018
-630,765	-30,483	0,068	0,028
-629,751	525,175	0,008	0,014
-628,736	-47,026	-0,121	-0,043
-627,722	800,000	-0,028	-0,062
-626,707	69,185	0,139	-0,106
-625,692	197,901	-0,005	-0,005
-624,678	122,573	-0,098	-0,090
-623,663	-89,854	-0,161	-0,035
-622,649	800,000	0,050	-0,146
-621,634	-26,609	-0,089	-0,038
-620,619	48,897	-0,147	0,102
-619,605	272,220	0,102	0,134
-618,590	593,945	0,030	0,055
-617,576	800,000	0,021	-0,051
-616,561	-200,000	0,001	-0,025
-615,546	19,596	0,044	-0,026
-614,532	229,281	-0,120	-0,145
-613,517	-37,068	-0,061	0,024
-612,503	-90,397	-0,012	0,003
-611,488	-87,175	0,102	-0,023
-610,474	356,639	-0,042	-0,062
-609,459	535,697	-0,032	-0,056
-608,444	-200,000	-0,008	0,033
-607,430	-200,000	-0,024	-0,093
-606,415	-132,251	-0,177	-0,017
-605,401	-200,000	-0,011	-0,087
-604,386	71,841	-0,042	-0,032
-603,371	170,831	0,025	0,026
-602,357	80,913	-0,026	0,021
-601,342	-96,638	0,166	0,032
-600,328	300,811	0,090	-0,124
-599,313	-101,786	-0,147	0,026
-598,298	-85,702	-0,148	0,034
-597,284	93,007	0,075	0,063
-596,269	436,255	0,093	0,151
-595,255	800,000	-0,030	-0,063
-594,240	144,120	0,021	0,021
-593,225	-147,345	-0,048	0,003
-592,211	-200,000	-0,168	-0,000
-591,196	566,347	-0,031	0,055
-590,182	800,000	0,061	0,167
-589,167	-9,835	-0,021	0,010
-588,152	108,163	0,061	0,054
-587,138	-130,332	-0,059	-0,006
-586,123	-144,288	-0,018	-0,001
-585,109	-120,901	-0,148	-0,018
-584,094	64,795	0,051	0,038
-583,079	-61,054	0,098	-0,030
-582,065	198,774	-0,053	0,060
-581,050	800,000	-0,031	-0,072
-580,036	-25,240	0,006	-0,003
-579,021	322,439	0,004	-0,006
-578,006	36,576	0,080	-0,052
-576,992	58,774	0,068	0,049
-575,977	-200,000	-0,016	-0,100
-574,963	-200,000	0,017	0,058
-573,948	-131,402	-0,019	-0,002
-572,934	800,000	-0,020	0,045
-571,919	328,765	0,022	-0,031
-570,904	-150,278	-0,104	0,006
-569,890	-200,000	0,024	0,116
-568,875	-49,990	-0,008	-0,003
-567,861	134,061	-0,019	0,019
-566,846	-38,991	-0,030	0,012
-565,831	-200,000	-0,030	-0,106
-564,817	-152,863	-0,141	0,007
-563,802	54,179	-0,131	-0,093
-562,788	603,058	0,071	-0,132
-561,773	145,699	0,088	0,087
-560,758	139,015	0,045	0,044
-559,744	-200,000	-0,012	-0,059
-558,729	251,464	-0,022	-0,028
-557,715	-26,228	-0,091	-0,039
-556,700	55,819	0,060	-0,043
-555,685	-200,000	0,006	-0,132
-554,671	-200,000	-0,014	-0,072
-553,656	-200,000	-0,001	0,028
-552,642	800,000	-0,111	0,268
-551,627	-200,000	-0,005	-0,048
-550,612	-200,000	0,022	-0,081
-549,598	51,282	-0,034	-0,024
-548,583	-42,064	-0,137	-0,051
-547,569	318,203	-0,001	-0,002
-546,554	178,936	0,095	-0,102
-545,539	-59,493	0,070	-0,022
-544,525	640,335	-0,075	0,142
-543,510	236,588	-0,041	-0,050
-542,496	545,164	0,070	-0,124
-541,481	-141,409	-0,242	0,018
-540,466	-5,358	-0,055	-0,028
-539,452	-45,680	0,023	0,009
-538,437	-200,000	-0,018	0,099
-537,423	127,776	-0,052	0,049
-536,408	66,255	0,170	0,127
-535,393	-200,000	-0,034	0,130
-534,379	58,890	-0,053	-0,039
-533,364	-200,000	-0,002	0,135
-532,350	-200,000	-0,019	0,074
-531,335	9,614	0,077	0,043
-530,321	-200,000	0,006	0,143
-529,306	124,024	-0,093	0,086
-528,291	-49,425	-0,062	0,022
-527,277	199,864	-0,041	0,046
-526,262	96,436	0,081	0,068
-525,248	123,070	-0,058	-0,053
-524,233	199,318	0,076	0,086
-523,218	43,559	0,084	-0,057
-522,204	328,049	-0,078	-0,111
-521,189	226,387	-0,095	-0,114
-520,175	800,000	-0,023	-0,060
-519,160	473,604	-0,056	-0,094
-518,145	-130,296	0,058	-0,006
-517,131	-90,164	0,090	0,019
-516,116	-125,298	-0,039	0,004
-515,102	-200,000	-0,004	0,048
-514,087	369,680	-0,023	0,034
-513,072	-26,739	-0,102	0,044
-512,058	800,000	-0,009	0,022
-511,043	-29,625	0,102	0,043
-510,029	-14,898	0,055	0,026
-509,014	-112,594	-0,082	0,012
-507,999	800,000	-0,029	0,080
-506,985	232,328	-0,041	0,050
-505,970	-200,000	0,006	-0,064
-504,956	-200,000	0,022	0,083
-503,941	60,903	-0,017	-0,012
-502,926	-71,795	0,204	0,056
-501,912	81,729	0,039	-0,031
-500,897	69,835	0,060	-0,045
-499,883	-164,056	-0,083	-0,003
-498,868	-153,362	0,028	-0,001
-497,853	371,905	0,039	-0,058
-496,839	137,073	-0,040	-0,039
-495,824	427,382	0,024	0,038
-494,810	2,456	0,101	-0,054
-493,795	-200,000	-0,056	-0,228
-492,781	-59,137	-0,061	-0,019
-491,766	-121,745	-0,037	-0,004
-490,751	383,074	0,075	-0,115
-489,737	800,000	0,051	-0,108
-488,722	800,000	0,034	-0,104
-487,708	482,777	0,052	-0,088
-486,693	530,406	-0,015	0,026
-485,678	226,961	-0,051	0,061
-484,664	800,000	0,035	-0,104
-483,649	-200,000	-0,105	-0,000
-482,635	-200,000	0,010	0,033
-481,620	-42,841	0,082	0,030
-480,605	-139,900	0,048	0,004
-479,591	-200,000	0,023	0,135
-478,576	97,754	-0,059	-0,050
-477,562	-28,551	0,023	-0,010
-476,547	285,958	-0,052	0,069
-475,532	-200,000	0,012	0,050
-474,518	8,256	-0,061	-0,034
-473,503	800,000	0,016	0,041
-472,489	262,918	0,030	-0,039
-471,474	-200,000	0,012	0,184
-470,459	-92,828	0,108	0,022
-469,445	154,107	-0,048	-0,049
-468,430	788,216	-0,058	-0,119
-467,416	-150,191	-0,083	0,005
-466,401	800,000	0,059	0,176
-465,386	-58,179	0,070	-0,022
-464,372	209,386	-0,055	0,064
-463,357	800,000	-0,009	0,024
-462,343	109,584	0,121	0,107
-461,328	84,502	-0,137	-0,110
-460,313	8,609	0,071	0,039
-459,299	335,633	0,052	-0,074
-458,284	70,100	-0,103	-0,078
-457,270	-200,000	0,002	0,008
-456,255	-7,947	-0,067	0,033
-455,241	23,561	0,138	-0,083
-454,226	-68,483	-0,044	0,012
-453,211	63,128	0,092	-0,068
-452,197	800,000	-0,030	0,078
-451,182	-200,000	-0,000	-0,014
-450,168	-200,000	-0,017	0,109
-449,153	800,000	0,043	0,120
-448,138	101,457	-0,015	-0,013
-447,124	-10,621	-0,107	-0,052
-446,109	91,592	0,053	-0,043
-445,095	-200,000	-0,002	-0,093
-444,080	-72,690	-0,051	-0,014
-443,065	-84,300	0,135	0,031
-442,051	800,000	0,024	-0,050
-441,036	30,074	0,052	0,032
-440,022	-200,000	-0,040	-0,148
-439,007	800,000	-0,032	0,072
-437,992	-139,198	0,108	0,008
-436,978	14,918	-0,057	-0,033
-435,963	-41,606	-0,077	-0,029
-434,949	-200,000	-0,033	0,117
-433,934	195,828	0,121	-0,136
-432,919	-200,000	0,017	-0,146
-431,905	-96,369	0,145	0,028
-430,890	220,999	0,028	-0,034
-429,876	187,617	0,026	-0,028
-428,861	-35,373	0,037	0,015
-427,846	-152,668	0,107	0,006
-426,832	-16,489	0,032	-0,015
-425,817	613,756	-0,056	-0,104
-424,803	41,466	0,018	0,012
-423,788	121,619	0,097	0,089
-422,773	-131,165	-0,088	-0,009
-421,759	286,685	0,055	-0,074
-420,744	800,000	-0,007	0,018
-419,730	-125,655	-0,041	0,005
-418,715	288,702	0,022	-0,029
-417,701	338,126	-0,058	-0,083
-416,686	188,768	-0,048	-0,053
-415,671	-200,000	0,038	0,129
-414,657	-200,000	0,018	0,063
-413,642	-200,000	0,014	0,084
-412,628	-80,926	0,036	0,009
-411,613	561,608	-0,109	-0,194
-410,598	43,385	0,028	0,019
-409,584	24,299	0,115	0,070
-408,569	98,418	0,114	0,097
-407,555	38,563	0,084	0,055
-406,540	283,947	-0,070	0,093
-405,525	-71,529	-0,099	-0,027
-404,511	-156,846	0,058	-0,003
-403,496	-200,000	0,027	-0,139
-402,482	221,497	-0,079	-0,094
-401,467	490,262	0,024	-0,040
-400,452	183,759	0,058	0,064
-399,438	39,449	-0,047	-0,031
-398,423	510,250	-0,071	-0,122
-397,409	-192,094	0,032	-0,000
-396,394	51,169	-0,052	-0,036
-395,379	406,422	0,030	0,047
-394,365	-200,000	-0,018	0,066
-393,350	-200,000	0,019	0,101
-392,336	-35,935	0,089	-0,035
-391,321	-130,832	0,046	-0,004
-390,306	-200,000	0,009	-0,060
-389,292	-91,280	-0,148	-0,031
-388,277	-128,739	-0,044	0,004
-387,263	800,000	0,046	0,097
-386,248	624,838	-0,073	-0,135
-385,233	-200,000	0,012	0,066
-384,219	800,000	0,064	0,159
-383,204	800,000	0,032	0,086
-382,190	-8,107	-0,079	0,039
-381,175	-154,235	0,033	0,002
-380,160	-49,815	-0,124	0,043
-379,146	-33,191	0,085	0,034
-378,131	-77,710	-0,110	0,028
-377,117	-69,501	0,027	-0,008
-376,102	82,963	-0,076	0,061
-375,088	636,090	-0,034	0,063
-374,073	221,510	0,071	-0,084
-373,058	800,000	0,001	0,003
-372,044	-200,000	0,052	0,171
-371,029	800,000	-0,053	0,134
-370,015	259,930	0,077	0,098
-369,000	147,355	-0,122	-0,120
-367,985	-200,000	0,026	-0,176
-366,971	695,341	-0,023	0,045
-365,956	-155,694	0,107	-0,005
-364,942	800,000	-0,026	0,057
-363,927	-200,000	0,004	0,046
-362,912	800,000	-0,010	0,027
-361,898	105,852	0,044	-0,038
-360,883	687,755	0,023	0,044
-359,869	11,390	0,010	-0,005
-358,854	29,934	0,053	-0,033
-357,839	-200,000	0,014	0,126
-356,825	559,881	-0,089	0,159
-355,810	-200,000	-0,009	0,113
-354,796	-200,000	-0,001	0,037
-353,781	290,019	0,058	0,078
-352,766	-200,000	-0,014	-0,068
-351,752	800,000	0,024	-0,071
-350,737	-200,000	0,009	-0,031
-349,723	-84,904	0,160	0,037
-348,708	-42,495	0,051	-0,019
-347,693	-137,353	-0,047	-0,004
-346,679	206,031	-0,053	-0,060
-345,664	214,734	0,110	-0,128
-344,650	56,054	-0,053	0,037
-343,635	315,054	0,075	0,104
-342,620	338,157	-0,036	-0,051
-341,606	30,697	-0,084	-0,053
-340,591	624,328	-0,027	-0,050
-339,577	-200,000	-0,034	-0,145
-338,562	800,000	0,062	-0,160
-337,548	-29,992	0,059	-0,024
-336,533	319,906	0,041	-0,058
-335,518	172,929	0,082	-0,087
-334,504	131,252	-0,073	0,068
-333,489	595,571	0,006	0,011
-332,475	47,800	-0,029	-0,020
-331,460	-100,130	-0,231	-0,042
-330,445	234,262	-0,038	-0,046
-329,431	-83,831	-0,062	0,014
-328,416	48,077	0,079	0,054
-327,402	-187,824	0,049	0,000
-326,387	-81,330	-0,069	0,017
-325,372	-135,375	-0,128	0,011
-324,358	800,000	-0,019	-0,057
-323,343	-128,268	-0,077	-0,008
-322,329	-26,093	0,053	-0,023
-321,314	458,046	-0,051	0,084
-320,299	800,000	-0,027	0,087
-319,285	-23,045	0,070	-0,031
-318,270	-51,626	-0,138	-0,047
-317,256	-200,000	0,018	-0,213
-316,241	800,000	-0,047	-0,098
-315,226	296,060	-0,017	0,023
-314,212	63,297	-0,072	0,053
-313,197	-200,000	0,008	-0,136
-312,183	800,000	0,027	-0,058
-311,168	644,338	-0,045	-0,085
-310,153	-200,000	-0,008	0,030
-309,139	-200,000	-0,002	-0,064
-308,124	-200,000	-0,014	-0,121
-307,110	119,517	0,072	0,065
-306,095	596,326	0,045	0,081
-305,080	-24,996	-0,201	0,087
-304,066	92,854	-0,029	0,024
-303,051	-138,623	0,114	0,009
-302,037	800,000	0,011	0,027
-301,022	-200,000	0,014	-0,056
-300,008	-200,000	-0,007	0,083
-298,993	111,555	-0,065	-0,058
-297,978	800,000	-0,062	0,161
-296,964	-200,000	0,029	-0,166
-295,949	453,740	-0,027	-0,044
-294,935	40,641	0,080	-0,053
-293,920	414,096	0,033	0,052
-292,905	-57,574	0,161	0,051
-291,891	800,000	0,040	0,104
-290,876	-200,000	-0,027	0,169
-289,862	78,945	0,085	-0,066
-288,847	80,912	0,053	-0,041
-287,832	26,855	0,095	-0,058
-286,818	-144,892	0,042	-0,003
-285,803	-200,000	-0,010	0,042
-284,789	144,997	0,103	0,100
-283,774	-77,824	-0,060	0,015
-282,759	108,078	0,019	-0,016
-281,745	-200,000	0,022	-0,081
-280,730	79,082	0,149	0,117
-279,716	-67,231	-0,041	-0,012
-278,701	17,491	-0,015	-0,009
-277,686	16,633	0,107	-0,061
-276,672	43,789	0,045	-0,030
-275,657	800,000	0,012	0,035
-274,643	800,000	-0,116	-0,241
-273,628	-145,614	-0,032	0,002
-272,613	-162,769	0,050	0,002
-271,599	91,822	0,149	-0,122
-270,584	-200,000	-0,012	0,103
-269,570	4,020	0,074	-0,039
-268,555	120,505	0,139	-0,126
-267,540	-95,363	0,021	-0,004
-266,526	40,132	0,069	-0,045
-265,511	460,232	0,051	-0,083
-264,497	607,931	0,042	-0,077
-263,482	-75,562	0,034	-0,009
-262,467	-27,639	-0,020	-0,009
-261,453	155,175	0,031	0,031
-260,438	133,941	0,050	0,047
-259,424	167,414	-0,029	0,030
-258,409	-200,000	0,008	0,105
-257,395	208,184	-0,045	0,051
-256,380	800,000	0,023	0,051
-255,365	-131,803	0,040	-0,004
-254,351	46,521	-0,120	-0,081
-253,336	-191,234	0,030	-0,000
-252,322	800,000	0,004	-0,009
-251,307	3,112	-0,107	-0,056
-250,292	800,000	-0,043	0,094
-249,278	-200,000	0,002	0,060
-248,263	12,175	0,138	0,077
-247,249	543,571	0,088	0,153
-246,234	199,084	0,036	0,041
-245,219	-200,000	0,004	-0,137
-244,205	108,527	-0,099	-0,086
-243,190	-200,000	0,008	0,032
-242,176	370,023	0,064	0,095
-241,161	131,240	0,054	-0,051
-240,146	738,543	0,032	0,063
-239,132	81,894	0,045	-0,036
-238,117	30,781	0,070	-0,044
-237,103	-0,791	0,073	-0,037
-236,088	-192,590	-0,063	-0,000
-235,073	-127,910	-0,081	0,008
-234,059	-200,000	-0,015	0,092
-233,044	-17,793	0,112	-0,051
-232,030	783,859	-0,034	-0,068
-231,015	38,411	-0,126	0,082
-230,000	-160,597	-0,032	0,001
-228,986	800,000	0,031	0,077
-227,971	800,000	-0,021	0,058
-226,957	-158,461	0,112	0,005
-225,942	197,595	-0,014	-0,015
-224,927	-152,428	-0,119	0,006
-223,913	-200,000	-0,001	-0,010
-222,898	800,000	0,030	-0,064
-221,884	800,000	-0,017	-0,053
-220,869	-200,000	0,017	0,117
-219,855	-200,000	-0,022	0,095
-218,840	800,000	0,023	0,070
-217,825	53,605	0,068	-0,048
-216,811	800,000	0,091	-0,186
-215,796	-22,450	-0,110	0,049
-214,782	58,222	-0,083	-0,059
-213,767	-110,488	0,065	0,010
-212,752	800,000	0,034	0,098
-211,738	238,015	0,119	0,144
-210,723	122,391	0,022	0,020
-209,709	191,951	-0,021	-0,023
-208,694	14,081	0,050	-0,028
-207,679	135,679	-0,042	0,040
-206,665	236,238	0,141	0,170
-205,650	-200,000	-0,013	0,105
-204,636	-102,112	0,032	-0,006
-203,621	72,557	0,062	-0,047
-202,606	91,709	0,099	-0,081
-201,592	-123,904	-0,124	-0,014
-200,577	-200,000	0,006	0,062
-199,563	413,422	-0,065	0,101
-198,548	800,000	0,010	0,026
-197,533	167,236	-0,079	-0,081
-196,519	155,765	-0,106	0,107
-195,504	-57,989	-0,170	-0,054
-194,490	-50,024	-0,182	-0,062
-193,475	-0,074	-0,088	-0,045
-192,460	800,000	-0,048	0,126
-191,446	800,000	-0,065	0,134
-190,431	611,496	-0,077	0,141
-189,417	300,332	-0,020	-0,026
-188,402	-200,000	-0,013	-0,082
-187,387	-200,000	-0,010	-0,087
-186,373	-54,362	-0,127	0,042
-185,358	800,000	-0,044	0,103
-184,344	-71,751	0,002	0,001
-183,329	-125,183	0,070	-0,008
-182,315	800,000	0,022	-0,063
-181,300	105,929	0,047	-0,040
-180,285	203,645	-0,037	-0,042
-179,271	38,317	-0,106	0,069
-178,256	412,303	0,102	0,158
-177,242	126,789	-0,097	0,090
-176,227	800,000	-0,019	-0,044
-175,212	-152,895	0,052	0,003
-174,198	-54,849	0,023	-0,007
-173,183	57,106	0,096	-0,068
-172,169	-137,472	-0,041	-0,003
-171,154	36,879	-0,026	-0,017
-170,139	66,210	0,086	-0,064
-169,125	-44,901	-0,083	-0,030
-168,110	-93,230	0,175	0,035
-167,096	19,239	-0,036	-0,021
-166,081	-121,419	-0,035	0,004
-165,066	273,203	0,071	-0,091
-164,052	-121,505	-0,174	-0,021
-163,037	149,590	0,178	0,176
-162,023	171,621	0,084	0,088
-161,008	-200,000	0,007	-0,092
-159,993	800,000	0,004	-0,012
-158,979	800,000	-0,035	0,079
-157,964	247,857	-0,048	-0,059
-156,950	352,149	0,049	-0,070
-155,935	-200,000	-0,023	-0,080
-154,920	107,626	-0,027	0,024
-153,906	-200,000	-0,011	0,058
-152,891	17,655	0,108	0,062
-151,877	-93,603	-0,061	-0,012
-150,862	68,161	-0,034	-0,025
-149,847	-107,872	-0,046	-0,007
-148,833	-58,181	0,024	0,008
-147,818	800,000	-0,018	-0,039
-146,804	-77,562	0,225	0,056
-145,789	-154,340	0,034	0,002
-144,775	-200,000	0,004	-0,063
-143,760	800,000	-0,029	0,065
-142,745	800,000	0,033	-0,076
-141,731	20,009	0,055	-0,032
-140,716	-200,000	-0,006	0,030
-139,702	188,166	-0,102	0,110
-138,687	-48,889	0,067	0,023
-137,672	-87,871	0,115	0,025
-136,658	-200,000	-0,004	-0,091
-135,643	-32,882	-0,055	0,022
-134,629	640,147	0,036	0,067
-133,614	479,776	0,020	0,032
-132,599	-200,000	-0,006	0,026
-131,585	-60,354	-0,088	0,027
-130,570	91,678	-0,054	-0,044
-129,556	800,000	-0,030	-0,078
-128,541	105,493	-0,042	-0,036
-127,526	-135,869	0,060	-0,005
-126,512	-200,000	-0,019	0,090
-125,497	207,293	0,130	0,148
-124,483	800,000	-0,040	-0,087
-123,468	517,395	0,068	-0,116
-122,453	335,181	-0,038	0,053
-121,439	-200,000	0,024	-0,108
-120,424	-200,000	-0,152	0,000
-119,410	175,574	-0,039	0,041
