DTS Sentinel unit serial number:	SN410029Multiplexer serial number:	ORYXHardware model number:	OX2-SRSoftware version number:	ORYX F/W v4,00 Oryx Data Collector v3.7.2.0data status	okinstallation	B4 Nyhavnadifferential loss correction	single-endedforward channel	channel 2reverse channel	N/Adate	2023/12/16time	07:55:13forward acquisition time	300,00reverse acquisition time	0,00gamma	499,1914k internal	0,3127k external	0,3127temperature offset calibration	1,0000default loss term (dB/km)	0,3820temperature slope calibration	1,0000multiplexer offset coefficient	1,0000multiplexer slope coefficient	1,0000fibre end	0,00T internal ref (°C)	22,38T ext. ref 1 (°C)	7,98T ext. ref 2 (°C)	8,12length (m)	temperature (°C)	Stokes	anti-Stokes-744,400	-60,424	-0,092	-0,029
-743,385	55,805	-0,197	0,142
-742,371	400,456	0,010	0,016
-741,356	229,010	-0,118	0,144
-740,342	58,904	0,132	0,096
-739,327	68,493	-0,242	0,185
-738,312	478,175	-0,032	-0,055
-737,298	-27,015	-0,295	0,128
-736,283	-200,000	-0,020	-0,111
-735,269	-91,297	-0,202	0,043
-734,254	-47,576	0,118	-0,043
-733,239	20,546	-0,273	-0,164
-732,225	-87,113	0,106	0,024
-731,210	147,313	0,073	-0,073
-730,196	112,888	-0,054	-0,048
-729,181	-81,418	0,079	-0,019
-728,167	-91,270	-0,177	0,037
-727,152	-62,018	-0,031	0,010
-726,137	-200,000	0,003	0,073
-725,123	251,162	0,037	0,047
-724,108	76,839	-0,077	0,061
-723,094	236,666	-0,085	-0,105
-722,079	-200,000	-0,007	-0,065
-721,064	800,000	0,036	-0,115
-720,050	106,819	0,071	0,063
-719,035	23,914	-0,094	0,058
-718,021	-200,000	-0,006	-0,062
-717,006	42,380	-0,130	-0,088
-715,991	-200,000	0,033	-0,116
-714,977	288,291	-0,017	-0,023
-713,962	-31,256	-0,081	-0,034
-712,948	-32,178	-0,077	0,032
-711,933	67,544	-0,171	-0,130
-710,918	-200,000	0,014	0,170
-709,904	-200,000	0,001	-0,012
-708,889	-200,000	-0,009	0,120
-707,875	800,000	-0,032	-0,094
-706,860	-106,752	0,074	-0,012
-705,845	-200,000	-0,007	-0,044
-704,831	-200,000	0,001	-0,061
-703,816	-62,366	0,075	-0,023
-702,802	-200,000	0,002	-0,069
-701,787	122,112	-0,120	-0,112
-700,772	800,000	0,012	-0,035
-699,758	94,880	0,074	-0,063
-698,743	565,427	-0,026	-0,048
-697,729	97,730	-0,046	-0,039
-696,714	-80,160	-0,054	0,013
-695,699	183,050	-0,033	0,036
-694,685	800,000	-0,028	0,059
-693,670	-200,000	0,013	-0,216
-692,656	483,312	0,024	-0,040
-691,641	256,772	-0,034	-0,043
-690,627	-58,548	0,086	0,027
-689,612	-200,000	-0,021	0,141
-688,597	-131,914	0,057	0,005
-687,583	-139,593	-0,091	0,007
-686,568	80,009	0,073	-0,059
-685,554	800,000	-0,044	-0,102
-684,539	382,382	0,053	-0,081
-683,524	745,803	-0,025	0,051
-682,510	-190,291	0,111	0,001
-681,495	-50,270	0,068	0,024
-680,481	-82,491	0,025	-0,006
-679,466	-82,479	-0,084	0,020
-678,451	-200,000	-0,018	0,108
-677,437	-60,646	0,025	0,008
-676,422	520,488	0,059	-0,103
-675,408	241,808	-0,090	0,112
-674,393	-82,980	-0,079	-0,019
-673,378	477,251	-0,028	0,047
-672,364	-71,379	-0,103	-0,028
-671,349	17,298	-0,108	-0,063
-670,335	397,785	-0,094	-0,147
-669,320	-26,612	0,046	-0,020
-668,305	-115,581	-0,119	-0,016
-667,291	211,615	-0,093	-0,109
-666,276	226,012	0,075	0,090
-665,262	-200,000	-0,028	-0,098
-664,247	58,342	-0,081	0,059
-663,232	524,950	0,053	-0,094
-662,218	-110,435	0,110	-0,017
-661,203	732,028	-0,070	0,139
-660,189	16,472	0,043	-0,025
-659,174	-92,515	-0,064	-0,013
-658,159	-193,008	-0,070	0,000
-657,145	-68,762	-0,044	0,013
-656,130	-41,470	-0,042	0,016
-655,116	-200,000	0,004	0,014
-654,101	800,000	0,008	0,022
-653,086	-34,457	-0,068	0,027
-652,072	800,000	0,037	0,100
-651,057	49,742	-0,102	-0,071
-650,043	-115,043	0,088	0,012
-649,028	800,000	-0,056	0,155
-648,014	-200,000	0,003	0,061
-646,999	800,000	-0,007	-0,021
-645,984	-200,000	0,014	0,141
-644,970	800,000	0,049	0,130
-643,955	-177,944	-0,170	0,003
-642,941	-87,046	0,092	0,021
-641,926	-90,511	-0,095	-0,020
-640,911	-101,419	0,108	-0,019
-639,897	-19,072	0,123	-0,057
-638,882	267,585	0,036	0,047
-637,868	-200,000	-0,015	-0,054
-636,853	-200,000	-0,002	-0,065
-635,838	-67,562	0,039	0,011
-634,824	86,338	0,038	0,031
-633,809	656,097	0,046	0,088
-632,795	236,410	0,018	0,022
-631,780	4,454	0,025	0,013
-630,765	-109,164	0,113	-0,018
-629,751	-55,027	-0,154	0,051
-628,736	162,221	0,038	-0,039
-627,722	-110,139	0,057	0,009
-626,707	82,767	-0,047	0,038
-625,692	-200,000	-0,005	0,021
-624,678	139,321	-0,079	0,077
-623,663	-82,744	-0,170	0,041
-622,649	-200,000	-0,004	-0,151
-621,634	59,535	-0,129	0,094
-620,619	-200,000	0,013	-0,125
-619,605	-146,277	-0,064	0,004
-618,590	-200,000	0,039	0,131
-617,576	560,014	0,050	0,089
-616,561	-113,380	-0,076	-0,011
-615,546	68,523	-0,071	-0,054
-614,532	-120,989	-0,076	0,009
-613,517	-200,000	0,002	-0,048
-612,503	800,000	-0,039	0,116
-611,488	-200,000	0,001	0,056
-610,474	616,515	0,026	-0,048
-609,459	-200,000	0,027	0,096
-608,444	-200,000	0,005	-0,030
-607,430	-44,040	0,041	-0,015
-606,415	771,184	-0,060	-0,121
-605,401	-200,000	0,014	0,051
-604,386	-97,627	-0,099	0,019
-603,371	45,438	-0,062	0,043
-602,357	84,478	-0,141	-0,114
-601,342	-200,000	-0,008	-0,081
-600,328	-13,093	-0,107	0,051
-599,313	800,000	-0,039	-0,096
-598,298	-200,000	-0,009	0,155
-597,284	-24,460	0,107	0,047
-596,269	-43,377	0,091	0,034
-595,255	-147,699	-0,076	-0,005
-594,240	-132,087	-0,072	-0,007
-593,225	800,000	0,018	-0,046
-592,211	179,650	0,073	-0,080
-591,196	-200,000	0,021	-0,090
-590,182	25,763	0,133	0,082
-589,167	-200,000	-0,017	0,146
-588,152	800,000	-0,027	-0,074
-587,138	-138,192	-0,021	-0,002
-586,123	-107,184	-0,046	0,007
-585,109	-136,655	-0,048	-0,004
-584,094	-130,594	0,069	-0,007
-583,079	263,198	-0,064	-0,082
-582,065	-42,501	0,045	0,017
-581,050	-116,702	0,068	-0,009
-580,036	18,538	-0,174	-0,103
-579,021	-146,438	0,097	-0,006
-578,006	80,858	-0,027	0,022
-576,992	18,191	-0,098	0,058
-575,977	370,603	-0,032	0,049
-574,963	-200,000	0,005	0,078
-573,948	-176,965	-0,083	0,002
-572,934	800,000	-0,032	0,098
-571,919	800,000	-0,072	-0,159
-570,904	800,000	0,020	-0,041
-569,890	487,832	0,066	-0,111
-568,875	800,000	0,008	-0,017
-567,861	135,142	-0,089	-0,086
-566,846	800,000	0,020	0,044
-565,831	98,708	-0,045	-0,039
-564,817	704,828	0,090	-0,175
-563,802	159,866	-0,039	-0,040
-562,788	-200,000	-0,001	0,133
-561,773	708,206	0,038	0,074
-560,758	84,989	0,088	-0,071
-559,744	77,027	0,018	0,014
-558,729	-159,073	-0,050	-0,002
-557,715	-200,000	0,028	0,092
-556,700	800,000	-0,011	-0,027
-555,685	-15,725	-0,143	-0,067
-554,671	-200,000	-0,007	0,132
-553,656	-27,800	0,098	0,042
-552,642	-96,277	-0,108	0,021
-551,627	1,341	0,068	0,036
-550,612	-200,000	0,026	-0,141
-549,598	-125,161	-0,110	0,012
-548,583	279,617	-0,047	-0,062
-547,569	-95,541	-0,032	0,006
-546,554	-200,000	0,004	0,079
-545,539	-16,597	0,121	-0,056
-544,525	198,248	-0,096	-0,108
-543,510	21,573	0,093	0,056
-542,496	-200,000	0,002	0,073
-541,481	-200,000	0,008	-0,080
-540,466	-116,080	-0,079	-0,011
-539,452	-200,000	0,003	0,032
-538,437	-200,000	0,004	-0,099
-537,423	-200,000	-0,012	0,106
-536,408	-200,000	-0,018	-0,094
-535,393	-107,022	-0,100	-0,016
-534,379	186,370	0,107	-0,118
-533,364	119,718	-0,071	-0,065
-532,350	-19,795	0,106	0,048
-531,335	800,000	-0,055	-0,122
-530,321	-200,000	0,008	0,216
-529,306	-82,543	-0,079	-0,019
-528,291	486,688	0,070	0,118
-527,277	-200,000	-0,005	-0,069
-526,262	186,169	0,130	-0,143
-525,248	800,000	0,010	0,029
-524,233	95,427	-0,108	-0,091
-523,218	349,664	0,049	0,071
-522,204	-66,365	0,057	-0,017
-521,189	674,578	0,020	0,039
-520,175	-200,000	-0,007	0,184
-519,160	175,249	-0,035	-0,038
-518,145	-83,675	-0,062	-0,015
-517,131	-200,000	0,017	0,069
-516,116	800,000	-0,056	0,133
-515,102	21,119	0,064	0,038
-514,087	-200,000	-0,005	0,041
-513,072	-200,000	0,005	0,029
-512,058	447,575	-0,015	-0,024
-511,043	-200,000	0,024	-0,093
-510,029	-200,000	0,018	0,109
-509,014	-200,000	0,022	0,132
-507,999	3,799	0,089	-0,048
-506,985	407,736	-0,024	-0,038
-505,970	-36,848	-0,008	-0,003
-504,956	118,115	-0,119	-0,108
-503,941	-200,000	0,003	0,088
-502,926	-9,963	0,100	0,049
-501,912	-200,000	0,008	0,072
-500,897	233,944	-0,058	0,070
-499,883	-200,000	-0,026	-0,126
-498,868	800,000	0,033	-0,084
-497,853	-137,986	0,084	-0,007
-496,839	380,609	-0,098	-0,149
-495,824	182,349	0,022	0,024
-494,810	-43,583	0,091	0,034
-493,795	-70,519	0,050	-0,014
-492,781	326,178	-0,055	-0,078
-491,766	-107,651	0,075	0,012
-490,751	-94,429	0,053	0,011
-489,737	-59,478	0,030	-0,010
-488,722	269,117	0,033	-0,043
-487,708	62,615	0,138	0,101
-486,693	260,547	-0,072	0,092
-485,678	800,000	0,066	0,142
-484,664	800,000	0,002	0,007
-483,649	113,951	-0,026	-0,023
-482,635	-88,432	-0,037	-0,008
-481,620	-70,449	-0,030	-0,008
-480,605	-200,000	-0,002	-0,039
-479,591	-200,000	-0,012	0,079
-478,576	110,243	0,023	0,021
-477,562	-200,000	0,001	0,107
-476,547	-200,000	0,001	-0,105
-475,532	800,000	-0,010	-0,032
-474,518	-200,000	0,023	-0,099
-473,503	-34,087	-0,068	-0,027
-472,489	-156,388	0,217	0,010
-471,474	128,774	-0,057	-0,053
-470,459	42,472	0,129	-0,086
-469,445	-119,138	-0,079	-0,010
-468,430	177,356	-0,042	-0,046
-467,416	-200,000	0,011	-0,104
-466,401	-139,160	0,174	-0,014
-465,386	-200,000	0,001	0,139
-464,372	-85,467	0,069	0,016
-463,357	129,443	-0,161	-0,151
-462,343	-200,000	0,006	-0,059
-461,328	-200,000	0,008	-0,170
-460,313	4,122	0,035	-0,019
-459,299	-200,000	-0,018	-0,172
-458,284	800,000	-0,036	0,086
-457,270	232,704	-0,095	0,115
-456,255	800,000	-0,061	-0,150
-455,241	-165,344	-0,021	0,001
-454,226	-200,000	-0,007	-0,120
-453,211	649,425	-0,075	0,142
-452,197	-200,000	0,015	-0,055
-451,182	14,074	-0,031	0,018
-450,168	-200,000	-0,050	0,186
-449,153	800,000	0,038	-0,119
-448,138	95,901	-0,026	0,021
-447,124	-135,138	-0,078	0,007
-446,109	521,555	0,066	-0,114
-445,095	-200,000	0,011	0,065
-444,080	-166,755	0,102	0,003
-443,065	164,365	0,053	-0,055
-442,051	-15,383	0,141	-0,066
-441,036	-194,277	-0,071	-0,000
-440,022	-200,000	-0,022	-0,076
-439,007	626,153	-0,063	-0,117
-437,992	-59,146	0,069	0,022
-436,978	104,937	0,089	-0,077
-435,963	-82,081	0,093	0,022
-434,949	247,064	0,026	0,032
-433,934	513,293	-0,097	-0,167
-432,919	-200,000	-0,006	0,103
-431,905	-10,009	0,055	-0,027
-430,890	204,692	0,064	0,074
-429,876	22,548	-0,133	0,080
-428,861	402,425	-0,061	-0,095
-427,846	58,681	0,138	0,100
-426,832	-188,854	-0,085	-0,001
-425,817	7,917	0,032	-0,018
-424,803	-200,000	-0,000	0,023
-423,788	-200,000	0,008	-0,027
-422,773	800,000	0,030	0,077
-421,759	194,340	0,058	0,064
-420,744	-200,000	0,007	-0,141
-419,730	218,807	-0,081	-0,096
-418,715	-72,990	-0,093	0,025
-417,701	567,856	0,042	0,076
-416,686	225,740	-0,040	0,048
-415,671	249,841	0,030	-0,037
-414,657	-200,000	0,010	-0,106
-413,642	-200,000	0,008	-0,090
-412,628	-84,905	0,136	0,031
-411,613	-200,000	0,010	-0,089
-410,598	55,806	-0,037	-0,026
-409,584	800,000	0,018	-0,039
-408,569	150,011	0,057	-0,057
-407,555	288,909	-0,062	0,083
-406,540	-35,371	0,118	0,047
-405,525	-200,000	-0,016	0,150
-404,511	29,089	0,044	0,028
-403,496	62,204	0,093	-0,068
-402,482	684,060	0,040	0,076
-401,467	-200,000	-0,018	0,158
-400,452	-102,685	0,116	0,020
-399,438	-11,819	0,022	0,010
-398,423	237,581	0,015	0,018
-397,409	-55,826	0,076	-0,025
-396,394	-200,000	-0,016	-0,129
-395,379	-112,732	-0,189	0,027
-394,365	-200,000	-0,005	0,032
-393,350	99,109	0,053	0,045
-392,336	-139,436	0,101	-0,008
-391,321	107,501	0,104	-0,091
-390,306	-200,000	0,012	-0,098
-389,292	-167,707	-0,049	-0,001
-388,277	290,740	0,054	-0,073
-387,263	800,000	0,055	-0,176
-386,248	112,471	0,133	0,118
-385,233	60,770	-0,108	0,079
-384,219	465,910	0,046	0,076
-383,204	-145,950	-0,063	0,004
-382,190	-77,288	-0,127	0,032
-381,175	-200,000	0,028	0,093
-380,160	-60,576	0,215	0,067
-379,146	800,000	0,050	0,104
-378,131	-200,000	0,025	0,093
-377,117	-76,962	-0,008	0,002
-376,102	79,912	0,056	-0,044
-375,088	-118,240	0,024	0,003
-374,073	800,000	0,029	-0,068
-373,058	-200,000	0,016	0,066
-372,044	800,000	0,014	0,032
-371,029	493,260	-0,099	0,168
-370,015	800,000	-0,027	-0,061
-369,000	-200,000	0,025	0,121
-367,985	111,009	-0,061	-0,054
-366,971	605,511	-0,058	0,106
-365,956	27,980	-0,101	-0,062
-364,942	-200,000	0,018	-0,092
-363,927	800,000	0,022	0,050
-362,912	-72,086	-0,105	0,028
-361,898	800,000	-0,035	0,083
-360,883	800,000	0,019	-0,056
-359,869	800,000	0,028	-0,067
-358,854	30,200	0,136	0,085
-357,839	-200,000	0,029	0,140
-356,825	156,422	0,067	0,068
-355,810	590,877	0,003	0,006
-354,796	0,594	0,038	-0,020
-353,781	-33,871	-0,152	-0,061
-352,766	137,702	0,063	-0,061
-351,752	277,204	0,126	-0,165
-350,737	-22,271	0,050	0,022
-349,723	233,278	-0,051	-0,062
-348,708	-13,605	0,058	0,027
-347,693	149,839	0,047	-0,047
-346,679	201,895	0,065	-0,073
-345,664	552,220	0,068	0,121
-344,650	800,000	-0,007	-0,017
-343,635	60,284	0,168	0,122
-342,620	79,068	0,165	-0,129
-341,606	24,038	0,002	-0,001
-340,591	-200,000	0,016	-0,078
-339,577	82,704	-0,020	0,016
-338,562	52,364	-0,138	0,096
-337,548	800,000	-0,018	0,037
-336,533	-28,168	0,100	0,042
-335,518	-171,880	0,056	0,001
-334,504	52,514	0,093	0,065
-333,489	119,774	0,052	-0,047
-332,475	800,000	0,033	-0,072
-331,460	800,000	-0,028	0,071
-330,445	180,204	-0,042	0,045
-329,431	-1,609	0,150	-0,077
-328,416	-123,345	-0,032	0,004
-327,402	241,937	0,066	-0,081
-326,387	235,488	-0,050	-0,061
-325,372	321,441	0,064	-0,089
-324,358	-63,145	-0,035	-0,010
-323,343	418,863	0,074	-0,116
-322,329	112,392	0,031	0,028
-321,314	89,449	0,044	-0,036
-320,299	-44,097	0,144	0,052
-319,285	800,000	0,043	-0,109
-318,270	-200,000	0,011	0,163
-317,256	-200,000	-0,020	0,089
-316,241	-77,654	-0,067	-0,017
-315,226	-44,805	-0,039	-0,014
-314,212	-36,874	0,079	-0,031
-313,197	-200,000	-0,009	-0,099
-312,183	228,626	-0,054	-0,064
-311,168	-200,000	0,020	0,157
-310,153	196,080	-0,076	0,085
-309,139	-61,815	0,146	0,044
-308,124	53,041	-0,087	0,061
-307,110	-200,000	0,002	0,026
-306,095	-200,000	-0,003	-0,081
-305,080	31,152	-0,068	0,043
-304,066	-14,117	-0,093	-0,044
-303,051	-200,000	-0,009	-0,094
-302,037	106,951	0,095	0,082
-301,022	724,679	-0,068	-0,132
-300,008	800,000	0,055	0,131
-298,993	252,709	0,138	0,173
-297,978	800,000	-0,025	0,060
-296,964	-200,000	0,003	-0,103
-295,949	-23,465	0,098	-0,043
-294,935	-40,003	-0,124	-0,047
-293,920	-10,436	-0,053	0,026
-292,905	-200,000	0,002	-0,013
-291,891	-111,269	0,188	0,028
-290,876	-172,240	-0,076	0,002
-289,862	800,000	-0,011	-0,023
-288,847	-43,419	-0,128	0,047
-287,832	142,869	0,064	-0,062
-286,818	-200,000	0,001	0,052
-285,803	800,000	0,017	0,038
-284,789	-155,953	0,203	-0,009
-283,774	324,416	0,067	0,093
-282,759	-29,524	0,075	0,031
-281,745	121,052	-0,079	-0,072
-280,730	800,000	0,040	-0,104
-279,716	183,641	-0,076	-0,082
-278,701	-200,000	0,004	-0,064
-277,686	397,381	-0,021	-0,033
-276,672	176,320	0,045	-0,048
-275,657	-124,102	-0,084	-0,009
-274,643	-200,000	-0,045	-0,211
-273,628	-10,440	-0,084	-0,041
-272,613	800,000	-0,038	0,101
-271,599	-87,113	-0,045	0,010
-270,584	800,000	0,027	0,067
-269,570	101,492	0,063	-0,054
-268,555	-176,717	-0,131	0,002
-267,540	800,000	-0,024	0,055
-266,526	223,161	0,065	0,076
-265,511	-56,460	-0,048	0,015
-264,497	-14,656	0,012	0,005
-263,482	-131,949	0,126	-0,012
-262,467	-200,000	0,011	-0,077
-261,453	-35,483	0,078	-0,031
-260,438	279,411	0,055	-0,072
-259,424	-105,692	-0,116	-0,019
-258,409	114,107	-0,093	-0,083
-257,395	-67,876	-0,164	-0,046
-256,380	-114,962	0,095	-0,013
-255,365	-91,599	0,067	0,014
-254,351	82,052	0,093	-0,074
-253,336	379,077	-0,088	-0,132
-252,322	742,745	-0,070	-0,138
-251,307	-112,885	-0,035	-0,005
-250,292	800,000	-0,073	0,158
-249,278	-54,386	0,033	0,011
-248,263	350,053	0,121	0,175
-247,249	184,007	0,064	-0,070
-246,234	104,864	-0,092	-0,079
-245,219	-200,000	0,004	-0,117
-244,205	-200,000	-0,012	0,045
-243,190	-200,000	0,022	0,111
-242,176	-159,519	0,073	-0,003
-241,161	800,000	-0,023	-0,047
-240,146	-200,000	-0,012	0,165
-239,132	493,016	0,026	-0,043
-238,117	31,749	-0,090	0,057
-237,103	63,415	-0,165	0,121
-236,088	-200,000	0,037	0,124
-235,073	-194,780	-0,077	-0,000
-234,059	-156,470	0,022	0,001
-233,044	274,666	0,092	0,119
-232,030	800,000	-0,039	-0,116
-231,015	197,724	-0,024	-0,027
-230,000	-136,894	-0,047	-0,004
-228,986	-200,000	0,012	-0,072
-227,971	800,000	-0,021	0,048
-226,957	800,000	-0,041	0,119
-225,942	-200,000	-0,037	-0,122
-224,927	-92,861	-0,014	0,003
-223,913	-15,921	-0,063	0,029
-222,898	105,612	-0,092	-0,079
-221,884	-200,000	0,014	-0,104
-220,869	-200,000	-0,003	0,110
-219,855	-200,000	-0,012	0,123
-218,840	-200,000	0,004	0,016
-217,825	-36,786	-0,084	-0,033
-216,811	-200,000	0,024	-0,204
-215,796	99,263	-0,124	-0,105
-214,782	-50,758	-0,102	0,035
-213,767	113,187	-0,079	0,070
-212,752	493,783	0,025	0,042
-211,738	-200,000	0,001	0,010
-210,723	-200,000	0,018	0,148
-209,709	555,086	0,125	-0,220
-208,694	16,499	-0,070	-0,040
-207,679	257,563	-0,067	-0,085
-206,665	220,796	0,065	0,076
-205,650	147,110	0,066	-0,065
-204,636	189,777	-0,093	0,102
-203,621	22,662	0,088	0,052
-202,606	-200,000	-0,048	-0,154
-201,592	-200,000	0,044	-0,184
-200,577	-38,191	0,036	0,014
-199,563	-200,000	-0,029	0,178
-198,548	116,484	0,091	0,082
-197,533	16,426	0,086	0,049
-196,519	-157,896	-0,038	-0,002
-195,504	-200,000	-0,020	0,088
-194,490	-29,197	-0,057	0,024
-193,475	-149,009	-0,172	-0,010
-192,460	134,150	0,019	0,018
-191,446	-48,999	0,043	-0,015
-190,431	-200,000	0,007	0,023
-189,417	-33,343	0,065	-0,026
-188,402	-134,167	-0,041	-0,004
-187,387	-139,260	0,056	-0,004
-186,373	109,999	-0,056	0,049
-185,358	-78,304	-0,088	0,022
-184,344	-81,278	0,098	0,023
-183,329	170,571	-0,102	0,106
-182,315	-200,000	-0,006	0,034
-181,300	-200,000	0,001	-0,127
-180,285	-200,000	-0,005	-0,036
-179,271	-200,000	-0,007	0,042
-178,256	68,313	-0,117	0,087
-177,242	-200,000	-0,013	-0,054
-176,227	-200,000	-0,005	0,041
-175,212	-200,000	-0,021	0,094
-174,198	800,000	-0,032	0,068
-173,183	800,000	0,055	-0,116
-172,169	600,849	-0,022	-0,040
-171,154	353,737	-0,080	0,116
-170,139	-147,428	0,105	-0,006
-169,125	380,102	0,060	0,090
-168,110	-35,126	-0,022	0,009
-167,096	-200,000	-0,008	0,062
-166,081	555,345	-0,040	0,070
-165,066	229,587	-0,088	-0,105
-164,052	71,693	-0,050	0,038
-163,037	56,973	-0,168	0,119
-162,023	198,246	-0,048	0,054
-161,008	-200,000	0,003	-0,126
-159,993	-200,000	-0,057	-0,210
-158,979	63,940	-0,046	0,033
-157,964	449,017	-0,044	-0,071
-156,950	-14,536	-0,070	-0,033
-155,935	26,894	-0,081	-0,049
-154,920	-200,000	-0,015	-0,064
-153,906	549,097	0,051	0,089
-152,891	-109,170	-0,081	0,012
-151,877	532,242	-0,059	-0,102
-150,862	137,101	0,031	0,030
-149,847	-200,000	0,000	0,123
-148,833	-200,000	-0,021	0,106
-147,818	368,586	0,055	0,081
-146,804	800,000	0,018	-0,051
-145,789	68,365	-0,059	-0,044
-144,775	141,784	-0,047	0,045
-143,760	111,873	-0,051	-0,045
-142,745	800,000	-0,047	-0,125
-141,731	454,919	-0,010	-0,016
-140,716	-200,000	-0,003	0,078
-139,702	-25,329	-0,020	0,009
-138,687	-32,574	-0,061	-0,024
-137,672	800,000	0,039	-0,097
-136,658	800,000	0,030	-0,079
-135,643	-200,000	-0,006	-0,100
-134,629	81,567	-0,040	0,031
-133,614	-200,000	-0,004	0,025
-132,599	-200,000	-0,012	0,110
-131,585	-200,000	0,021	0,215
-130,570	800,000	-0,047	-0,125
-129,556	-200,000	-0,029	-0,098
-128,541	200,862	0,066	0,074
-127,526	800,000	-0,015	-0,044
-126,512	-200,000	0,014	-0,060
-125,497	367,724	0,077	0,113
-124,483	-200,000	0,016	0,122
-123,468	-200,000	-0,003	-0,042
-122,453	-200,000	0,009	-0,171
-121,439	79,245	-0,101	-0,078
-120,424	-200,000	-0,031	-0,151
