DTS Sentinel unit serial number:	SN410029Multiplexer serial number:	ORYXHardware model number:	OX2-SRSoftware version number:	ORYX F/W v4,00 Oryx Data Collector v3.7.2.0data status	okinstallation	B4 Nyhavnadifferential loss correction	single-endedforward channel	channel 2reverse channel	N/Adate	2023/12/16time	13:25:13forward acquisition time	300,00reverse acquisition time	0,00gamma	499,1914k internal	0,3125k external	0,3125temperature offset calibration	1,0000default loss term (dB/km)	0,3820temperature slope calibration	1,0000multiplexer offset coefficient	1,0000multiplexer slope coefficient	1,0000fibre end	0,00T internal ref (°C)	24,75T ext. ref 1 (°C)	11,18T ext. ref 2 (°C)	11,41length (m)	temperature (°C)	Stokes	anti-Stokes-744,400	228,287	-0,030	-0,037
-743,385	97,173	-0,196	0,167
-742,371	397,138	-0,001	0,002
-741,356	-200,000	0,000	0,185
-740,342	241,752	0,073	-0,091
-739,327	144,822	-0,188	0,187
-738,312	-150,697	0,082	-0,005
-737,298	-63,969	-0,191	0,058
-736,283	334,859	-0,048	-0,069
-735,269	-137,767	-0,309	-0,025
-734,254	-200,000	0,022	-0,108
-733,239	-95,534	-0,438	-0,087
-732,225	-2,747	0,112	0,058
-731,210	-200,000	0,020	0,000
-730,196	39,072	0,080	0,053
-729,181	246,125	0,049	-0,061
-728,167	163,600	-0,104	-0,109
-727,152	-200,000	-0,005	0,045
-726,137	800,000	0,021	-0,063
-725,123	100,925	-0,080	-0,069
-724,108	-20,468	-0,050	0,023
-723,094	-32,188	-0,120	-0,050
-722,079	-117,442	-0,087	0,012
-721,064	-82,559	-0,094	-0,023
-720,050	-127,186	-0,027	0,003
-719,035	-105,484	0,061	0,010
-718,021	-200,000	-0,015	-0,135
-717,006	-5,346	0,026	0,013
-715,991	800,000	-0,086	-0,197
-714,977	-200,000	-0,005	-0,035
-713,962	-56,200	-0,134	-0,044
-712,948	-51,488	0,078	-0,027
-711,933	-89,006	0,165	0,036
-710,918	-171,328	-0,200	0,005
-709,904	188,927	-0,020	0,023
-708,889	119,384	-0,030	-0,028
-707,875	-45,257	-0,004	-0,002
-706,860	681,453	0,028	0,054
-705,845	800,000	0,061	-0,183
-704,831	332,434	0,012	0,017
-703,816	-69,933	-0,102	0,029
-702,802	161,741	0,104	0,108
-701,787	57,353	0,058	-0,042
-700,772	569,875	0,039	-0,072
-699,758	-200,000	-0,003	0,038
-698,743	37,906	0,078	0,052
-697,729	400,606	0,051	-0,079
-696,714	-67,442	0,078	0,023
-695,699	-200,000	-0,017	0,186
-694,685	30,122	-0,119	-0,075
-693,670	-200,000	-0,011	-0,042
-692,656	6,318	0,087	-0,048
-691,641	326,337	-0,083	0,119
-690,627	-200,000	0,034	0,117
-689,612	-8,299	-0,091	0,045
-688,597	-19,479	-0,035	-0,016
-687,583	53,043	0,079	0,056
-686,568	22,367	-0,173	0,105
-685,554	-31,128	0,117	-0,049
-684,539	-20,095	-0,059	0,027
-683,524	77,343	0,019	-0,015
-682,510	35,152	-0,093	0,060
-681,495	3,449	-0,078	-0,042
-680,481	-200,000	0,033	-0,111
-679,466	763,077	-0,013	-0,027
-678,451	79,596	-0,156	-0,125
-677,437	62,151	0,054	-0,040
-676,422	21,502	0,151	-0,091
-675,408	13,352	0,092	-0,053
-674,393	-88,139	0,197	-0,043
-673,378	-126,020	-0,096	-0,011
-672,364	-89,087	-0,110	-0,024
-671,349	156,481	-0,065	0,066
-670,335	800,000	0,099	-0,210
-669,320	140,296	0,037	-0,036
-668,305	331,686	-0,019	-0,028
-667,291	129,401	-0,027	-0,025
-666,276	800,000	-0,034	0,090
-665,262	-200,000	-0,012	-0,120
-664,247	266,583	0,083	0,108
-663,232	-169,444	-0,104	0,003
-662,218	177,972	-0,041	0,045
-661,203	800,000	-0,002	-0,005
-660,189	800,000	-0,048	0,128
-659,174	-200,000	0,003	-0,112
-658,159	-200,000	0,005	0,037
-657,145	182,122	0,041	0,044
-656,130	-67,531	0,162	0,047
-655,116	213,178	0,050	-0,059
-654,101	800,000	0,009	0,026
-653,086	-200,000	-0,002	-0,053
-652,072	24,591	-0,033	-0,020
-651,057	441,113	0,050	-0,081
-650,043	115,214	-0,095	-0,086
-649,028	800,000	-0,045	-0,102
-648,014	-144,410	0,148	-0,010
-646,999	238,811	-0,126	0,156
-645,984	-47,473	-0,161	0,058
-644,970	-200,000	0,042	-0,139
-643,955	459,289	-0,029	0,048
-642,941	60,186	-0,138	0,101
-641,926	800,000	0,037	0,105
-640,911	-28,081	-0,054	-0,023
-639,897	800,000	-0,055	0,123
-638,882	559,886	0,070	0,126
-637,868	-200,000	-0,015	0,059
-636,853	800,000	0,032	0,072
-635,838	-200,000	-0,011	-0,095
-634,824	176,604	-0,082	-0,089
-633,809	28,552	0,038	0,024
-632,795	-80,684	0,034	-0,008
-631,780	357,062	-0,072	-0,106
-630,765	106,348	0,058	-0,051
-629,751	207,996	0,011	-0,012
-628,736	800,000	0,030	-0,066
-627,722	-164,370	-0,049	0,002
-626,707	73,075	-0,042	0,032
-625,692	33,297	0,064	-0,041
-624,678	-117,815	0,127	0,017
-623,663	166,060	-0,059	-0,062
-622,649	-140,995	0,043	0,003
-621,634	-94,372	-0,178	-0,036
-620,619	-125,184	-0,127	0,014
-619,605	298,811	-0,014	0,019
-618,590	-194,387	-0,143	0,001
-617,576	-91,243	0,102	-0,021
-616,561	-87,805	0,103	0,023
-615,546	800,000	-0,051	-0,139
-614,532	-200,000	-0,027	-0,148
-613,517	-200,000	0,026	0,103
-612,503	-76,166	-0,075	0,020
-611,488	-133,879	0,127	-0,012
-610,474	26,454	0,062	-0,039
-609,459	81,257	-0,053	0,043
-608,444	394,713	0,064	-0,100
-607,430	-200,000	0,024	-0,097
-606,415	687,269	0,006	0,013
-605,401	332,607	-0,079	0,113
-604,386	150,714	0,098	0,098
-603,371	-76,707	-0,043	-0,011
-602,357	-23,100	-0,073	0,033
-601,342	201,712	-0,066	0,075
-600,328	177,334	-0,034	-0,037
-599,313	800,000	0,045	-0,139
-598,298	237,563	0,034	-0,042
-597,284	244,723	0,018	0,022
-596,269	-17,915	0,047	-0,022
-595,255	-200,000	-0,029	-0,124
-594,240	800,000	-0,060	-0,182
-593,225	24,791	-0,119	0,073
-592,211	74,546	-0,125	0,097
-591,196	-200,000	-0,001	-0,015
-590,182	800,000	0,056	-0,138
-589,167	-134,068	0,083	-0,008
-588,152	423,721	-0,057	0,091
-587,138	440,009	0,038	-0,062
-586,123	800,000	-0,056	-0,118
-585,109	-200,000	0,008	-0,041
-584,094	217,318	-0,102	-0,120
-583,079	-148,160	0,165	0,010
-582,065	800,000	-0,072	0,218
-581,050	-200,000	-0,014	0,099
-580,036	75,280	-0,066	-0,052
-579,021	526,880	0,047	-0,082
-578,006	-200,000	-0,001	-0,021
-576,992	-170,059	-0,037	-0,001
-575,977	258,987	0,072	-0,092
-574,963	-200,000	0,024	0,101
-573,948	-89,527	-0,088	0,019
-572,934	-200,000	-0,004	0,034
-571,919	800,000	-0,035	-0,098
-570,904	373,528	-0,064	-0,097
-569,890	-56,690	-0,083	0,027
-568,875	32,328	0,071	-0,045
-567,861	-200,000	-0,034	0,116
-566,846	102,934	-0,076	0,066
-565,831	29,495	0,072	-0,045
-564,817	800,000	-0,051	-0,105
-563,802	-123,879	-0,186	-0,021
-562,788	-185,048	0,170	-0,002
-561,773	328,491	-0,029	-0,041
-560,758	-28,409	-0,027	0,011
-559,744	-53,192	-0,026	-0,009
-558,729	-200,000	0,012	0,047
-557,715	-36,323	-0,143	0,057
-556,700	22,025	0,089	-0,054
-555,685	140,347	0,065	0,063
-554,671	800,000	-0,042	0,110
-553,656	73,930	0,047	-0,037
-552,642	-156,113	0,081	0,004
-551,627	141,210	-0,123	0,120
-550,612	-126,257	0,071	-0,008
-549,598	800,000	-0,030	-0,082
-548,583	222,867	0,064	-0,077
-547,569	185,635	-0,094	-0,103
-546,554	-144,240	0,105	0,007
-545,539	-109,786	-0,080	-0,012
-544,525	-200,000	0,008	0,071
-543,510	-200,000	-0,010	-0,040
-542,496	-82,665	-0,082	0,019
-541,481	509,365	-0,087	0,150
-540,466	255,613	-0,080	0,102
-539,452	70,115	0,102	-0,077
-538,437	72,406	0,051	0,040
-537,423	-2,990	0,082	0,042
-536,408	46,070	0,041	0,028
-535,393	-200,000	-0,005	0,081
-534,379	244,524	0,007	-0,008
-533,364	-138,801	0,139	-0,011
-532,350	-46,497	0,087	0,031
-531,335	-0,316	-0,005	0,003
-530,321	322,406	-0,026	0,036
-529,306	156,950	-0,028	0,029
-528,291	-200,000	0,022	-0,124
-527,277	-122,616	0,106	-0,013
-526,262	800,000	-0,013	0,032
-525,248	715,376	-0,070	-0,138
-524,233	727,738	-0,040	-0,079
-523,218	323,050	-0,061	-0,086
-522,204	121,660	0,033	-0,030
-521,189	48,869	-0,130	-0,090
-520,175	-101,842	-0,036	0,006
-519,160	-200,000	-0,028	-0,100
-518,145	20,039	0,085	0,051
-517,131	-200,000	-0,003	-0,024
-516,116	800,000	0,011	-0,028
-515,102	-135,848	-0,052	-0,004
-514,087	-139,043	0,015	-0,001
-513,072	-116,498	-0,082	0,011
-512,058	81,245	0,039	0,031
-511,043	800,000	-0,040	-0,084
-510,029	-200,000	0,059	-0,198
-509,014	89,944	0,058	-0,048
-507,999	27,362	-0,037	-0,023
-506,985	-78,001	0,016	-0,004
-505,970	800,000	-0,081	-0,193
-504,956	108,178	-0,101	0,089
-503,941	-27,180	0,045	-0,019
-502,926	50,792	0,035	0,024
-501,912	-39,171	0,094	-0,036
-500,897	-200,000	0,013	0,053
-499,883	99,415	-0,205	-0,175
-498,868	32,217	0,096	-0,061
-497,853	271,043	-0,062	0,081
-496,839	588,942	-0,060	0,110
-495,824	-200,000	0,038	-0,145
-494,810	15,790	0,126	0,073
-493,795	3,536	0,095	0,051
-492,781	123,914	-0,028	0,026
-491,766	-200,000	-0,008	0,052
-490,751	12,435	-0,051	0,029
-489,737	-52,357	0,127	0,043
-488,722	-44,572	-0,044	-0,016
-487,708	-200,000	0,140	-0,000
-486,693	97,768	-0,070	0,060
-485,678	432,164	-0,028	-0,044
-484,664	364,126	-0,088	-0,131
-483,649	214,109	-0,048	-0,056
-482,635	598,899	-0,060	-0,110
-481,620	-53,078	0,139	0,047
-480,605	-200,000	0,004	0,066
-479,591	73,501	0,027	0,021
-478,576	-200,000	-0,024	-0,146
-477,562	59,270	-0,003	-0,002
-476,547	-3,202	-0,110	-0,056
-475,532	74,913	0,068	-0,053
-474,518	-200,000	0,051	0,187
-473,503	-140,477	-0,132	0,010
-472,489	99,389	-0,066	0,056
-471,474	-93,040	0,139	-0,028
-470,459	-200,000	-0,017	-0,057
-469,445	-136,985	0,035	0,003
-468,430	74,409	-0,072	-0,056
-467,416	72,283	-0,112	-0,086
-466,401	-19,917	0,149	0,068
-465,386	650,579	0,056	0,107
-464,372	-200,000	0,012	0,052
-463,357	101,672	-0,124	-0,107
-462,343	127,384	0,068	-0,064
-461,328	44,913	-0,125	-0,085
-460,313	-15,920	-0,063	-0,029
-459,299	286,613	0,065	0,087
-458,284	779,974	0,021	0,042
-457,270	65,531	-0,132	0,099
-456,255	-200,000	0,003	0,085
-455,241	207,462	0,069	-0,079
-454,226	800,000	0,027	0,059
-453,211	-164,920	0,080	-0,003
-452,197	-21,828	0,015	-0,007
-451,182	3,383	0,083	0,045
-450,168	-27,697	-0,066	0,028
-449,153	-63,041	-0,025	0,007
-448,138	57,182	-0,062	-0,044
-447,124	387,876	-0,092	-0,141
-446,109	-19,242	0,007	0,003
-445,095	800,000	-0,029	0,087
-444,080	167,417	0,065	-0,069
-443,065	-84,600	0,077	0,018
-442,051	800,000	0,047	0,144
-441,036	12,024	0,101	-0,057
-440,022	23,634	-0,123	-0,074
-439,007	-200,000	0,023	-0,138
-437,992	1,912	0,134	-0,071
-436,978	-200,000	0,033	-0,113
-435,963	389,520	0,053	0,081
-434,949	-200,000	0,022	-0,089
-433,934	-200,000	0,022	0,074
-432,919	800,000	-0,050	0,111
-431,905	34,840	-0,048	-0,031
-430,890	576,482	-0,034	-0,061
-429,876	100,545	0,060	-0,052
-428,861	8,093	0,057	-0,032
-427,846	102,504	0,040	0,035
-426,832	-200,000	0,015	0,067
-425,817	-200,000	-0,020	-0,081
-424,803	-46,996	0,070	0,025
-423,788	4,091	0,125	-0,067
-422,773	-99,705	0,091	-0,017
-421,759	-200,000	-0,005	-0,098
-420,744	215,731	-0,089	-0,104
-419,730	83,916	0,025	-0,020
-418,715	-70,320	-0,055	-0,015
-417,701	800,000	-0,052	-0,126
-416,686	38,591	0,088	0,058
-415,671	194,228	0,026	0,029
-414,657	-108,702	0,150	0,023
-413,642	800,000	0,012	0,037
-412,628	205,802	-0,015	0,017
-411,613	20,213	-0,062	0,037
-410,598	387,784	-0,045	0,069
-409,584	800,000	-0,062	-0,128
-408,569	-118,204	0,069	0,009
-407,555	-200,000	0,021	0,072
-406,540	362,349	-0,055	0,082
-405,525	-200,000	-0,029	0,195
-404,511	181,874	-0,093	-0,101
-403,496	-52,797	-0,113	-0,038
-402,482	248,938	0,071	0,088
-401,467	137,243	0,077	0,074
-400,452	304,646	0,070	0,096
-399,438	-200,000	0,031	0,166
-398,423	-200,000	0,007	0,024
-397,409	604,015	0,013	0,023
-396,394	375,859	-0,006	-0,010
-395,379	459,970	-0,015	0,024
-394,365	-200,000	0,001	0,014
-393,350	130,828	0,035	-0,033
-392,336	212,758	0,128	-0,148
-391,321	-93,008	-0,101	0,021
-390,306	-200,000	-0,022	-0,074
-389,292	780,735	-0,056	-0,113
-388,277	-47,997	0,091	0,032
-387,263	-61,550	0,093	0,028
-386,248	115,163	0,028	-0,025
-385,233	-149,758	-0,081	-0,005
-384,219	443,004	-0,032	-0,052
-383,204	-83,817	0,108	0,025
-382,190	-57,057	0,080	-0,026
-381,175	-200,000	0,053	-0,194
-380,160	-100,161	0,190	-0,034
-379,146	383,082	0,020	-0,031
-378,131	363,078	0,053	0,079
-377,117	-78,779	0,049	-0,012
-376,102	800,000	0,042	0,131
-375,088	-200,000	-0,001	0,011
-374,073	565,821	0,022	-0,040
-373,058	76,895	0,038	0,030
-372,044	266,327	0,094	0,120
-371,029	-10,881	0,079	0,038
-370,015	-200,000	-0,033	0,196
-369,000	163,221	-0,032	0,033
-367,985	-90,292	0,029	-0,006
-366,971	-200,000	0,000	0,012
-365,956	27,459	0,024	0,014
-364,942	-178,190	0,060	-0,001
-363,927	-200,000	0,056	0,196
-362,912	502,109	0,045	-0,077
-361,898	217,125	-0,044	-0,052
-360,883	-200,000	-0,018	-0,071
-359,869	-200,000	-0,041	0,148
-358,854	-50,665	0,116	0,040
-357,839	-200,000	-0,012	0,039
-356,825	-48,235	0,104	-0,037
-355,810	-200,000	0,004	0,066
-354,796	332,097	0,027	0,038
-353,781	-200,000	0,008	-0,119
-352,766	591,112	-0,009	0,016
-351,752	143,203	-0,050	0,049
-350,737	-32,479	0,072	0,029
-349,723	522,817	-0,013	0,022
-348,708	376,080	0,020	0,031
-347,693	51,436	0,052	-0,036
-346,679	-73,983	0,076	0,020
-345,664	392,146	-0,066	0,100
-344,650	26,247	0,156	0,095
-343,635	-200,000	0,001	-0,135
-342,620	-200,000	0,022	0,137
-341,606	24,422	-0,075	0,045
-340,591	-78,559	-0,220	-0,055
-339,577	55,399	-0,106	0,075
-338,562	169,480	-0,032	-0,034
-337,548	800,000	0,018	-0,055
-336,533	-200,000	-0,007	0,038
-335,518	-119,982	-0,079	-0,010
-334,504	386,123	-0,049	0,074
-333,489	-200,000	-0,024	-0,155
-332,475	216,909	0,095	-0,111
-331,460	58,133	0,117	-0,084
-330,445	499,035	0,052	-0,088
-329,431	573,116	-0,016	-0,029
-328,416	169,241	-0,084	0,088
-327,402	-84,114	0,032	0,007
-326,387	-122,744	0,094	-0,011
-325,372	-31,733	-0,056	0,023
-324,358	-53,221	-0,072	-0,024
-323,343	-180,364	0,165	-0,002
-322,329	-200,000	0,013	-0,102
-321,314	800,000	-0,040	-0,103
-320,299	223,458	0,129	0,153
-319,285	-130,985	0,059	0,006
-318,270	-200,000	-0,050	-0,164
-317,256	-200,000	0,017	-0,134
-316,241	-101,800	-0,076	-0,013
-315,226	-200,000	-0,008	-0,071
-314,212	800,000	0,047	0,134
-313,197	-200,000	0,014	-0,071
-312,183	-138,952	0,095	0,007
-311,168	-144,419	-0,079	-0,005
-310,153	538,610	-0,024	0,042
-309,139	110,465	-0,090	-0,079
-308,124	784,866	-0,016	0,033
-307,110	800,000	-0,046	0,134
-306,095	-16,825	0,089	-0,041
-305,080	-23,895	0,123	0,053
-304,066	-200,000	-0,028	0,107
-303,051	138,426	0,048	-0,046
-302,037	227,909	0,031	-0,037
-301,022	-200,000	-0,026	-0,115
-300,008	319,884	0,075	0,104
-298,993	157,458	0,087	0,088
-297,978	-200,000	0,011	-0,051
-296,964	-86,339	-0,130	-0,029
-295,949	-157,505	-0,043	-0,002
-294,935	-104,584	-0,022	-0,004
-293,920	-130,459	0,060	-0,006
-292,905	143,300	-0,029	0,028
-291,891	269,062	0,053	0,068
-290,876	291,776	0,065	-0,087
-289,862	-134,047	0,062	-0,006
-288,847	-200,000	-0,002	0,046
-287,832	-46,068	-0,137	-0,049
-286,818	-200,000	-0,021	0,098
-285,803	800,000	0,023	-0,053
-284,789	80,076	0,049	0,039
-283,774	223,120	0,040	-0,047
-282,759	800,000	0,050	0,121
-281,745	-52,150	-0,026	0,009
-280,730	639,814	0,089	-0,167
-279,716	194,491	-0,081	0,090
-278,701	-200,000	-0,008	-0,107
-277,686	-25,511	0,130	0,056
-276,672	598,764	-0,034	0,063
-275,657	612,930	-0,082	0,150
-274,643	46,172	0,111	0,075
-273,628	353,605	-0,057	-0,083
-272,613	-40,249	0,071	0,027
-271,599	-61,283	0,026	0,008
-270,584	-200,000	0,006	0,107
-269,570	800,000	-0,007	-0,021
-268,555	-200,000	-0,021	-0,075
-267,540	447,892	0,081	0,130
-266,526	-32,603	-0,066	-0,027
-265,511	-68,826	-0,105	-0,029
-264,497	21,250	-0,098	-0,058
-263,482	329,186	0,028	-0,040
-262,467	167,114	0,032	0,033
-261,453	539,264	-0,004	0,006
-260,438	19,776	-0,102	0,060
-259,424	800,000	-0,056	0,123
-258,409	-133,034	-0,131	0,012
-257,395	99,571	0,053	0,045
-256,380	-121,931	0,106	0,013
-255,365	-200,000	-0,018	0,070
-254,351	-200,000	0,026	-0,112
-253,336	54,461	0,060	-0,042
-252,322	353,466	-0,045	-0,065
-251,307	-48,683	-0,085	-0,030
-250,292	137,425	-0,047	0,045
-249,278	99,744	-0,037	0,032
-248,263	149,282	-0,019	0,019
-247,249	-105,443	0,063	0,010
-246,234	256,335	-0,096	-0,120
-245,219	14,097	-0,051	0,029
-244,205	28,863	-0,113	0,070
-243,190	-83,507	0,105	0,024
-242,176	17,078	-0,095	-0,055
-241,161	-200,000	-0,009	0,030
-240,146	-46,092	0,080	0,029
-239,132	79,294	-0,123	0,096
-238,117	-83,910	-0,178	-0,041
-237,103	476,798	0,056	-0,093
-236,088	-200,000	-0,023	-0,077
-235,073	800,000	-0,003	-0,006
-234,059	586,090	0,049	0,089
-233,044	-42,135	-0,068	0,025
-232,030	800,000	-0,037	0,111
-231,015	800,000	-0,038	-0,120
-230,000	-200,000	0,011	0,056
-228,986	-200,000	0,047	0,167
-227,971	-200,000	-0,031	-0,113
-226,957	800,000	-0,005	-0,011
-225,942	800,000	0,048	0,126
-224,927	800,000	-0,016	-0,049
-223,913	-21,900	-0,040	0,018
-222,898	-94,879	0,102	-0,020
-221,884	-200,000	-0,002	-0,084
-220,869	800,000	-0,055	0,142
-219,855	800,000	-0,051	0,113
-218,840	-107,670	0,067	-0,011
-217,825	-200,000	-0,058	-0,205
-216,811	55,799	0,034	0,024
-215,796	-200,000	0,023	0,122
-214,782	-27,716	-0,047	-0,020
-213,767	800,000	0,040	0,106
-212,752	-200,000	0,019	0,089
-211,738	162,002	-0,037	-0,037
-210,723	800,000	0,011	-0,030
-209,709	800,000	0,025	-0,079
-208,694	340,634	-0,055	-0,079
-207,679	-200,000	-0,001	0,041
-206,665	-137,906	0,084	-0,007
-205,650	-200,000	0,025	0,106
-204,636	-170,726	0,060	0,001
-203,621	199,042	-0,099	0,111
-202,606	408,594	-0,025	-0,039
-201,592	160,115	-0,123	-0,125
-200,577	-200,000	-0,005	-0,065
-199,563	422,235	-0,052	0,081
-198,548	19,037	0,110	0,064
-197,533	-38,020	-0,040	-0,015
-196,519	41,475	0,117	0,077
-195,504	-145,998	-0,131	0,008
-194,490	236,267	0,031	-0,038
-193,475	-31,206	-0,172	-0,070
-192,460	4,471	0,022	0,012
-191,446	220,720	0,070	-0,082
-190,431	521,490	0,025	-0,043
-189,417	161,646	-0,021	0,022
-188,402	-180,538	-0,064	0,001
-187,387	595,574	-0,059	-0,107
-186,373	-200,000	0,000	-0,064
-185,358	-200,000	0,025	0,143
-184,344	98,976	-0,049	-0,042
-183,329	-31,254	-0,146	0,060
-182,315	-200,000	0,032	0,111
-181,300	800,000	-0,047	0,104
-180,285	-106,414	-0,091	-0,015
-179,271	147,778	-0,070	-0,069
-178,256	654,546	0,041	0,077
-177,242	-59,394	0,099	0,031
-176,227	640,529	0,040	0,074
-175,212	153,807	-0,103	0,103
-174,198	511,398	0,047	-0,079
-173,183	87,435	-0,077	0,062
-172,169	-200,000	0,020	-0,132
-171,154	-71,669	-0,131	0,035
-170,139	164,661	0,066	-0,068
-169,125	-43,740	0,176	-0,064
-168,110	800,000	0,043	-0,090
-167,096	247,771	0,055	0,068
-166,081	513,379	0,027	0,046
-165,066	-66,247	0,078	0,022
-164,052	-200,000	-0,004	0,024
-163,037	42,535	-0,084	0,056
-162,023	-35,469	0,085	-0,033
-161,008	96,179	-0,028	0,023
-159,993	800,000	0,022	-0,061
-158,979	-200,000	0,015	0,053
-157,964	-33,963	0,011	0,004
-156,950	800,000	-0,045	-0,092
-155,935	-200,000	-0,008	0,062
-154,920	-200,000	-0,010	0,125
-153,906	18,842	0,029	0,017
-152,891	281,308	-0,083	0,108
-151,877	800,000	0,067	-0,150
-150,862	-117,095	-0,184	0,024
-149,847	800,000	0,042	0,087
-148,833	-200,000	0,030	-0,122
-147,818	-48,008	0,126	0,044
-146,804	-200,000	-0,003	-0,019
-145,789	-151,607	-0,134	0,007
-144,775	110,441	-0,065	-0,057
-143,760	-6,129	-0,086	-0,043
-142,745	-17,703	0,117	-0,053
-141,731	-1,630	-0,058	-0,029
-140,716	-200,000	0,026	0,087
-139,702	-88,532	0,035	0,008
-138,687	-200,000	-0,021	-0,173
-137,672	120,279	-0,041	0,037
-136,658	-160,327	-0,113	0,004
-135,643	800,000	-0,022	-0,064
-134,629	-41,639	0,110	-0,041
-133,614	-200,000	-0,029	0,131
-132,599	44,660	0,069	0,046
-131,585	128,517	-0,113	-0,105
-130,570	800,000	-0,039	0,090
-129,556	91,498	-0,071	-0,058
-128,541	-103,983	-0,010	-0,002
-127,526	72,138	-0,061	-0,046
-126,512	-39,749	0,028	-0,010
-125,497	-200,000	0,006	-0,068
-124,483	-116,577	-0,079	-0,010
-123,468	149,960	0,027	0,026
-122,453	800,000	0,070	-0,144
-121,439	-200,000	-0,007	0,028
-120,424	335,759	0,063	0,089
-119,410	-20,836	0,171	0,076
-118,395	100,158	-0,068	-0,057
