DTS Sentinel unit serial number:	SN410029Multiplexer serial number:	ORYXHardware model number:	OX2-SRSoftware version number:	ORYX F/W v4,00 Oryx Data Collector v3.7.2.0data status	okinstallation	B4 Nyhavnadifferential loss correction	single-endedforward channel	channel 2reverse channel	N/Adate	2023/12/15time	16:50:13forward acquisition time	300,00reverse acquisition time	0,00gamma	499,1914k internal	0,3144k external	0,3144temperature offset calibration	1,0000default loss term (dB/km)	0,3820temperature slope calibration	1,0000multiplexer offset coefficient	1,0000multiplexer slope coefficient	1,0000fibre end	0,00T internal ref (°C)	17,82T ext. ref 1 (°C)	3,67T ext. ref 2 (°C)	3,82length (m)	temperature (°C)	Stokes	anti-Stokes-744,400	-43,557	0,091	-0,034
-743,385	-11,546	-0,213	0,103
-742,371	-76,500	0,109	-0,028
-741,356	-46,999	-0,147	0,053
-740,342	126,913	0,158	0,148
-739,327	-36,539	-0,289	0,115
-738,312	28,465	0,150	0,094
-737,298	-92,577	-0,351	0,072
-736,283	-200,000	0,019	0,123
-735,269	-74,651	-0,274	0,072
-734,254	-200,000	0,018	0,094
-733,239	-116,288	-0,401	-0,054
-732,225	-64,459	0,169	0,050
-731,210	-4,479	-0,092	-0,047
-730,196	761,802	-0,045	0,091
-729,181	-200,000	-0,015	0,084
-728,167	385,266	0,033	-0,051
-727,152	-8,125	-0,124	-0,062
-726,137	5,986	-0,101	0,055
-725,123	130,527	-0,091	0,087
-724,108	-200,000	0,011	-0,089
-723,094	-200,000	-0,033	-0,209
-722,079	800,000	-0,029	-0,081
-721,064	605,984	-0,054	0,100
-720,050	-200,000	0,013	0,196
-719,035	13,126	-0,168	0,096
-718,021	-200,000	0,003	-0,030
-717,006	446,934	0,057	-0,093
-715,991	800,000	0,052	-0,160
-714,977	800,000	0,056	-0,157
-713,962	-26,561	-0,073	0,031
-712,948	-200,000	0,030	-0,118
-711,933	-200,000	0,002	-0,056
-710,918	-133,284	-0,041	0,004
-709,904	800,000	-0,059	-0,151
-708,889	-61,945	-0,151	-0,046
-707,875	-115,624	-0,137	-0,019
-706,860	139,215	-0,100	-0,097
-705,845	-200,000	-0,010	0,045
-704,831	-200,000	0,020	0,120
-703,816	-117,471	-0,082	-0,011
-702,802	-15,515	-0,060	0,028
-701,787	41,009	-0,083	-0,055
-700,772	584,258	-0,036	-0,066
-699,758	-200,000	0,011	-0,096
-698,743	-24,814	-0,053	0,023
-697,729	800,000	-0,033	0,079
-696,714	338,841	-0,047	0,068
-695,699	-200,000	-0,000	-0,127
-694,685	800,000	-0,056	-0,132
-693,670	514,797	-0,030	-0,053
-692,656	-200,000	0,006	-0,025
-691,641	-23,603	0,085	0,038
-690,627	491,677	-0,051	0,087
-689,612	53,410	-0,140	-0,099
-688,597	800,000	-0,030	0,077
-687,583	-35,736	0,116	0,046
-686,568	54,296	-0,034	-0,024
-685,554	-51,616	0,144	-0,049
-684,539	137,238	0,013	0,012
-683,524	334,357	-0,045	0,065
-682,510	-115,687	0,071	0,010
-681,495	146,720	-0,087	-0,086
-680,481	-4,189	-0,114	-0,058
-679,466	-200,000	-0,014	0,084
-678,451	-200,000	-0,029	-0,214
-677,437	800,000	-0,030	-0,063
-676,422	-94,577	0,102	0,020
-675,408	-200,000	0,018	0,142
-674,393	-77,937	-0,107	-0,027
-673,378	-66,494	-0,085	0,025
-672,364	65,328	-0,071	-0,053
-671,349	-92,764	-0,070	-0,014
-670,335	176,189	0,015	0,016
-669,320	48,597	0,047	-0,033
-668,305	120,598	0,077	0,071
-667,291	-44,451	0,075	0,028
-666,276	-89,249	-0,194	0,042
-665,262	-177,707	-0,056	0,001
-664,247	-180,612	0,107	-0,002
-663,232	800,000	-0,021	-0,064
-662,218	121,724	0,043	-0,040
-661,203	29,819	-0,127	0,080
-660,189	-48,755	-0,112	0,040
-659,174	295,166	-0,116	-0,158
-658,159	112,219	0,075	-0,067
-657,145	800,000	-0,055	-0,147
-656,130	-41,816	-0,064	-0,024
-655,116	269,912	-0,078	0,102
-654,101	-59,592	0,083	0,026
-653,086	-29,657	0,089	-0,037
-652,072	145,415	-0,057	-0,056
-651,057	76,560	-0,111	-0,087
-650,043	22,291	-0,072	-0,043
-649,028	800,000	0,034	-0,098
-648,014	-200,000	0,019	0,081
-646,999	438,795	0,012	-0,020
-645,984	-200,000	-0,018	-0,063
-644,970	372,379	-0,104	-0,157
-643,955	356,122	0,060	-0,088
-642,941	-200,000	0,010	-0,040
-641,926	432,972	0,037	0,059
-640,911	175,494	-0,032	-0,034
-639,897	16,066	-0,064	-0,037
-638,882	-200,000	-0,017	-0,074
-637,868	-200,000	-0,025	-0,098
-636,853	-25,208	0,064	-0,028
-635,838	294,972	-0,059	-0,080
-634,824	463,879	0,029	-0,048
-633,809	-9,660	0,035	0,017
-632,795	-200,000	0,023	-0,084
-631,780	800,000	0,021	0,059
-630,765	115,446	-0,068	-0,061
-629,751	-114,171	-0,067	0,009
-628,736	216,023	-0,054	-0,063
-627,722	800,000	0,076	-0,162
-626,707	-79,684	-0,081	-0,020
-625,692	325,550	0,068	-0,096
-624,678	395,624	0,044	-0,068
-623,663	800,000	-0,035	0,076
-622,649	-99,938	0,056	0,010
-621,634	682,095	0,034	-0,065
-620,619	-47,383	0,124	-0,044
-619,605	-200,000	-0,002	0,010
-618,590	300,605	0,061	0,083
-617,576	706,854	-0,060	0,118
-616,561	11,622	-0,021	-0,012
-615,546	-121,667	-0,104	-0,012
-614,532	268,633	-0,062	-0,080
-613,517	325,570	-0,009	-0,013
-612,503	800,000	-0,033	-0,099
-611,488	184,384	-0,051	-0,056
-610,474	89,850	-0,034	0,028
-609,459	-200,000	-0,017	0,055
-608,444	-30,808	-0,085	0,035
-607,430	171,488	-0,033	-0,035
-606,415	-97,911	-0,147	0,028
-605,401	-12,611	0,063	-0,030
-604,386	50,863	0,135	-0,094
-603,371	14,141	-0,031	0,018
-602,357	-167,151	-0,129	-0,004
-601,342	325,834	-0,104	-0,147
-600,328	409,649	0,051	0,081
-599,313	-200,000	0,039	-0,152
-598,298	41,067	-0,048	-0,032
-597,284	-200,000	0,015	0,058
-596,269	231,432	0,005	0,006
-595,255	196,558	0,080	0,090
-594,240	-4,975	-0,139	0,070
-593,225	418,110	-0,031	0,048
-592,211	800,000	0,064	-0,148
-591,196	-101,550	-0,094	0,017
-590,182	108,133	0,039	0,035
-589,167	-200,000	0,006	-0,091
-588,152	-135,910	0,127	-0,011
-587,138	542,574	-0,088	-0,155
-586,123	-200,000	-0,014	-0,051
-585,109	468,987	0,032	-0,053
-584,094	800,000	-0,036	-0,110
-583,079	335,538	0,032	-0,046
-582,065	-148,402	0,056	-0,003
-581,050	-2,840	0,053	0,027
-580,036	-100,714	0,028	0,005
-579,021	800,000	0,011	-0,023
-578,006	0,450	0,026	-0,013
-576,992	-125,431	0,014	0,002
-575,977	-200,000	0,020	-0,150
-574,963	428,630	-0,033	0,053
-573,948	800,000	-0,021	-0,052
-572,934	-200,000	0,007	0,050
-571,919	800,000	0,034	-0,109
-570,904	-200,000	-0,007	-0,055
-569,890	-200,000	0,015	-0,102
-568,875	800,000	-0,031	-0,074
-567,861	-100,132	0,089	-0,016
-566,846	59,994	0,146	0,106
-565,831	-200,000	0,013	0,088
-564,817	723,732	0,011	0,022
-563,802	800,000	-0,019	0,043
-562,788	793,096	-0,049	0,100
-561,773	-200,000	-0,041	0,188
-560,758	133,130	0,121	0,115
-559,744	-65,004	-0,155	0,046
-558,729	241,195	0,089	-0,110
-557,715	-85,673	-0,015	0,003
-556,700	145,479	-0,087	-0,085
-555,685	-34,431	-0,092	-0,037
-554,671	116,721	-0,046	-0,042
-553,656	-200,000	-0,010	0,046
-552,642	-200,000	-0,003	-0,024
-551,627	-200,000	0,006	-0,099
-550,612	69,394	0,049	0,037
-549,598	154,018	-0,122	-0,123
-548,583	356,877	0,031	-0,045
-547,569	132,857	0,090	-0,085
-546,554	96,686	0,090	-0,075
-545,539	116,438	-0,047	-0,043
-544,525	-191,604	0,065	0,000
-543,510	-173,367	0,119	-0,003
-542,496	-8,238	0,020	0,010
-541,481	36,921	0,032	0,021
-540,466	66,681	0,037	0,028
-539,452	-200,000	-0,016	-0,071
-538,437	306,098	0,060	0,082
-537,423	-61,103	0,106	-0,033
-536,408	-40,843	-0,023	-0,009
-535,393	373,798	-0,003	0,005
-534,379	18,965	0,026	-0,015
-533,364	161,199	-0,069	0,071
-532,350	-93,194	0,301	0,061
-531,335	53,930	-0,055	-0,039
-530,321	800,000	0,057	0,138
-529,306	437,603	0,041	0,065
-528,291	-37,687	-0,105	-0,041
-527,277	-135,195	-0,120	-0,010
-526,262	-200,000	-0,002	-0,050
-525,248	800,000	0,060	-0,166
-524,233	-59,167	0,012	-0,004
-523,218	46,904	0,127	-0,086
-522,204	800,000	-0,017	0,043
-521,189	-200,000	-0,033	-0,117
-520,175	216,842	0,055	0,065
-519,160	440,881	-0,034	-0,055
-518,145	245,856	-0,022	0,027
-517,131	503,547	0,082	-0,140
-516,116	284,578	0,040	0,053
-515,102	-124,424	0,061	0,007
-514,087	70,918	0,047	0,035
-513,072	145,262	0,017	-0,016
-512,058	-146,752	0,032	0,002
-511,043	288,900	0,054	0,072
-510,029	139,107	0,127	0,123
-509,014	87,872	-0,112	0,091
-507,999	624,452	-0,054	-0,101
-506,985	720,263	0,022	0,044
-505,970	350,053	-0,116	0,168
-504,956	-200,000	0,010	-0,169
-503,941	-200,000	-0,017	0,066
-502,926	-95,162	0,074	0,015
-501,912	800,000	0,026	-0,055
-500,897	-3,538	-0,074	0,038
-499,883	345,918	-0,053	0,077
-498,868	-116,126	0,116	-0,016
-497,853	-138,201	-0,060	-0,005
-496,839	-200,000	-0,007	-0,032
-495,824	-35,035	0,074	0,029
-494,810	-30,519	0,149	0,062
-493,795	800,000	-0,003	-0,009
-492,781	279,446	0,075	0,098
-491,766	350,153	-0,094	-0,136
-490,751	-200,000	-0,010	0,049
-489,737	23,515	-0,129	-0,078
-488,722	78,549	0,143	0,112
-487,708	12,641	0,120	0,068
-486,693	157,389	0,031	-0,031
-485,678	-12,918	-0,121	0,057
-484,664	800,000	0,028	-0,058
-483,649	14,771	0,079	0,045
-482,635	4,714	-0,104	0,056
-481,620	63,339	-0,066	0,048
-480,605	-71,453	0,023	0,006
-479,591	259,240	0,129	0,164
-478,576	-141,102	-0,031	-0,002
-477,562	-200,000	0,016	-0,075
-476,547	-93,712	-0,108	0,022
-475,532	-200,000	0,021	-0,078
-474,518	800,000	0,012	-0,030
-473,503	89,607	-0,062	0,050
-472,489	-200,000	-0,002	0,053
-471,474	-200,000	0,029	-0,139
-470,459	-200,000	0,005	0,018
-469,445	-58,660	0,047	0,015
-468,430	-200,000	-0,002	-0,013
-467,416	800,000	-0,014	0,035
-466,401	-76,672	-0,058	-0,015
-465,386	71,117	0,093	-0,071
-464,372	-0,813	-0,130	0,067
-463,357	-104,662	-0,098	-0,016
-462,343	-2,479	-0,088	-0,045
-461,328	554,579	-0,038	-0,067
-460,313	800,000	-0,013	0,034
-459,299	-175,523	-0,048	-0,001
-458,284	-4,379	0,085	-0,043
-457,270	-22,800	0,114	0,050
-456,255	800,000	-0,006	0,012
-455,241	-200,000	0,009	-0,050
-454,226	-57,025	-0,088	-0,028
-453,211	-163,713	0,091	0,003
-452,197	16,526	-0,105	-0,061
-451,182	165,940	0,015	0,015
-450,168	-22,402	-0,042	0,018
-449,153	340,302	-0,039	-0,056
-448,138	-7,500	-0,104	-0,052
-447,124	-200,000	0,017	-0,078
-446,109	149,066	-0,062	0,062
-445,095	-200,000	-0,010	0,074
-444,080	-200,000	0,030	0,097
-443,065	-200,000	-0,002	0,042
-442,051	-174,557	0,206	-0,004
-441,036	-4,852	-0,054	-0,027
-440,022	17,257	-0,049	-0,028
-439,007	-200,000	-0,038	-0,130
-437,992	-105,604	0,055	0,009
-436,978	-74,405	-0,045	-0,012
-435,963	-22,293	-0,086	0,038
-434,949	-84,705	0,068	0,015
-433,934	95,588	0,034	-0,029
-432,919	800,000	-0,059	-0,164
-431,905	-200,000	-0,030	0,136
-430,890	665,660	0,034	-0,064
-429,876	154,410	-0,148	0,148
-428,861	-101,991	-0,118	-0,021
-427,846	66,007	-0,137	0,102
-426,832	-28,007	0,139	-0,058
-425,817	-98,339	0,104	-0,019
-424,803	17,261	-0,085	-0,049
-423,788	800,000	-0,084	0,191
-422,773	800,000	-0,023	0,053
-421,759	-200,000	-0,016	-0,076
-420,744	285,157	-0,060	-0,080
-419,730	-91,629	0,076	0,016
-418,715	-200,000	0,028	-0,157
-417,701	800,000	-0,045	-0,100
-416,686	494,431	0,047	0,079
-415,671	267,453	0,074	0,095
-414,657	650,826	0,032	0,060
-413,642	800,000	-0,008	0,017
-412,628	91,799	0,086	0,071
-411,613	-200,000	0,026	-0,100
-410,598	309,130	0,050	0,068
-409,584	712,405	0,016	0,031
-408,569	800,000	-0,045	0,113
-407,555	-86,554	0,125	0,028
-406,540	231,139	-0,064	0,077
-405,525	24,522	-0,067	-0,041
-404,511	-33,371	-0,113	0,045
-403,496	60,221	-0,050	-0,036
-402,482	-200,000	0,020	0,097
-401,467	-2,019	0,125	-0,064
-400,452	363,188	-0,029	-0,042
-399,438	241,272	-0,086	0,105
-398,423	43,001	-0,077	-0,051
-397,409	256,184	0,100	-0,125
-396,394	-23,811	0,033	-0,014
-395,379	638,499	0,029	-0,054
-394,365	238,680	-0,040	-0,049
-393,350	-64,540	-0,052	0,015
-392,336	-200,000	0,040	0,168
-391,321	-173,215	-0,124	0,003
-390,306	-83,380	-0,161	0,037
-389,292	-128,998	-0,007	0,001
-388,277	-46,522	0,101	-0,036
-387,263	105,554	-0,072	0,062
-386,248	182,282	0,060	0,065
-385,233	-38,272	0,101	0,039
-384,219	316,440	-0,062	0,086
-383,204	315,977	0,051	-0,071
-382,190	-200,000	-0,003	0,014
-381,175	-57,985	0,054	0,017
-380,160	-200,000	-0,028	0,197
-379,146	-200,000	-0,021	-0,087
-378,131	-44,613	0,100	-0,036
-377,117	-92,779	-0,121	0,024
-376,102	26,765	-0,031	-0,019
-375,088	20,758	0,048	0,028
-374,073	-200,000	-0,049	0,163
-373,058	-200,000	-0,026	0,094
-372,044	106,158	-0,022	0,019
-371,029	-200,000	0,026	-0,127
-370,015	97,597	-0,039	-0,032
-369,000	-66,087	0,129	0,037
-367,985	-200,000	-0,004	0,067
-366,971	342,946	0,035	0,049
-365,956	392,234	0,100	0,152
-364,942	63,114	0,078	0,057
-363,927	800,000	0,023	0,047
-362,912	-200,000	0,021	0,070
-361,898	-200,000	0,016	-0,101
-360,883	-32,925	-0,083	0,034
-359,869	219,473	0,050	-0,058
-358,854	800,000	0,037	-0,090
-357,839	69,902	-0,097	-0,073
-356,825	-140,367	-0,027	0,002
-355,810	216,857	0,068	-0,079
-354,796	-51,632	-0,078	-0,026
-353,781	-27,896	0,031	-0,013
-352,766	-200,000	0,002	0,007
-351,752	309,434	-0,018	0,025
-350,737	-189,342	0,091	-0,001
-349,723	-9,997	-0,077	0,037
-348,708	-133,900	0,103	-0,009
-347,693	-72,880	0,079	-0,021
-346,679	38,849	0,070	-0,045
-345,664	215,946	-0,062	0,072
-344,650	-200,000	0,012	0,074
-343,635	-21,562	0,109	-0,048
-342,620	-200,000	0,009	-0,131
-341,606	800,000	-0,015	0,044
-340,591	580,379	0,028	-0,051
-339,577	-79,053	0,095	-0,023
-338,562	297,646	0,079	-0,106
-337,548	637,506	0,052	-0,097
-336,533	-200,000	-0,012	-0,099
-335,518	30,467	0,080	0,049
-334,504	77,701	0,036	-0,028
-333,489	6,220	0,037	0,020
-332,475	-120,192	-0,087	-0,011
-331,460	-26,523	-0,089	-0,038
-330,445	143,185	0,089	0,086
-329,431	-136,044	0,021	0,002
-328,416	-51,474	0,059	0,020
-327,402	37,968	-0,120	-0,078
-326,387	291,095	0,030	0,040
-325,372	-200,000	0,008	-0,114
-324,358	-114,318	-0,058	0,008
-323,343	236,759	0,124	-0,149
-322,329	2,475	-0,043	0,023
-321,314	-200,000	-0,006	-0,029
-320,299	-200,000	0,021	0,101
-319,285	-45,566	0,153	-0,055
-318,270	69,248	-0,114	0,085
-317,256	800,000	0,037	-0,089
-316,241	-85,786	-0,099	-0,022
-315,226	105,140	0,076	0,065
-314,212	-200,000	0,002	0,073
-313,197	76,336	0,106	0,082
-312,183	-50,074	0,098	-0,034
-311,168	70,978	-0,038	0,029
-310,153	338,186	-0,022	0,032
-309,139	211,729	-0,007	-0,008
-308,124	97,589	0,104	-0,087
-307,110	-93,134	0,088	0,018
-306,095	205,932	-0,080	0,090
-305,080	378,705	-0,103	-0,153
-304,066	54,551	-0,027	-0,019
-303,051	-200,000	-0,013	-0,123
-302,037	-74,265	0,020	0,005
-301,022	-200,000	-0,034	0,149
-300,008	63,871	-0,039	0,029
-298,993	-126,001	-0,066	0,007
-297,978	-200,000	0,009	-0,053
-296,964	266,562	0,030	-0,039
-295,949	-99,506	0,119	-0,021
-294,935	142,372	-0,048	-0,047
-293,920	-36,686	-0,122	0,047
-292,905	36,977	0,063	-0,040
-291,891	-82,067	0,065	0,015
-290,876	800,000	-0,009	-0,028
-289,862	50,750	0,066	-0,045
-288,847	-120,183	0,030	-0,004
-287,832	159,696	-0,045	0,045
-286,818	-108,006	0,029	0,004
-285,803	-200,000	-0,050	0,201
-284,789	576,102	0,053	0,095
-283,774	-32,156	-0,108	-0,044
-282,759	-94,242	-0,055	0,011
-281,745	-200,000	-0,023	-0,094
-280,730	48,747	-0,079	0,054
-279,716	695,945	-0,027	-0,052
-278,701	-198,012	0,069	-0,000
-277,686	-200,000	0,019	-0,065
-276,672	-48,069	-0,121	0,042
-275,657	-200,000	-0,001	0,172
-274,643	-54,277	-0,121	-0,040
-273,628	800,000	0,020	0,051
-272,613	-34,742	0,091	0,036
-271,599	318,929	0,055	0,076
-270,584	-200,000	0,033	0,108
-269,570	-28,728	0,038	-0,016
-268,555	10,433	-0,068	-0,038
-267,540	183,036	-0,036	0,038
-266,526	-94,755	-0,029	0,006
-265,511	23,796	0,050	-0,030
-264,497	-200,000	0,008	0,070
-263,482	-144,309	-0,045	0,003
-262,467	571,938	-0,011	0,020
-261,453	-200,000	-0,016	0,085
-260,438	-200,000	-0,020	-0,148
-259,424	116,616	-0,074	-0,066
-258,409	45,780	-0,051	-0,035
-257,395	253,041	-0,041	-0,051
-256,380	44,846	0,057	0,038
-255,365	549,400	-0,040	0,070
-254,351	202,681	0,037	-0,042
-253,336	-200,000	-0,023	-0,078
-252,322	112,257	-0,106	-0,093
-251,307	-19,586	0,058	-0,026
-250,292	236,243	-0,149	0,179
-249,278	28,786	0,078	-0,048
-248,263	-200,000	-0,025	0,107
-247,249	69,239	0,178	0,133
-246,234	-200,000	-0,001	-0,068
-245,219	332,986	-0,080	0,112
-244,205	-165,309	-0,078	-0,002
-243,190	673,504	0,086	0,164
-242,176	-200,000	0,005	-0,026
-241,161	759,540	0,044	0,086
-240,146	176,234	0,080	0,084
-239,132	381,734	0,051	-0,076
-238,117	-200,000	-0,005	-0,105
-237,103	-75,555	-0,102	-0,026
-236,088	-69,659	0,096	0,027
-235,073	118,793	0,044	0,039
-234,059	-200,000	0,013	0,085
-233,044	800,000	0,060	0,159
-232,030	800,000	-0,074	0,153
-231,015	-200,000	0,016	-0,101
-230,000	800,000	-0,029	-0,089
-228,986	-200,000	-0,020	0,086
-227,971	-200,000	0,002	0,095
-226,957	-2,277	0,061	0,031
-225,942	-18,113	-0,088	0,040
-224,927	116,376	0,108	0,096
-223,913	-200,000	0,014	-0,147
-222,898	630,884	-0,002	0,003
-221,884	-74,289	-0,034	-0,009
-220,869	524,214	0,029	0,049
-219,855	57,197	0,084	0,059
-218,840	481,943	-0,016	-0,027
-217,825	800,000	-0,035	0,073
-216,811	-200,000	0,003	-0,077
-215,796	590,841	0,002	-0,004
-214,782	37,647	0,023	0,015
-213,767	554,222	0,018	0,031
-212,752	-200,000	0,035	0,126
-211,738	-200,000	0,034	0,162
-210,723	-102,675	-0,104	0,018
-209,709	189,079	0,034	-0,037
-208,694	-159,726	-0,154	0,006
-207,679	63,666	0,042	-0,030
-206,665	226,550	-0,009	-0,011
-205,650	537,045	0,041	0,070
-204,636	-74,067	-0,114	0,030
-203,621	-12,901	-0,087	0,041
-202,606	-23,295	-0,147	-0,064
-201,592	485,001	-0,058	-0,095
-200,577	77,965	-0,063	0,048
-199,563	24,345	-0,100	0,060
-198,548	-200,000	-0,008	0,151
-197,533	-155,732	-0,127	-0,006
-196,519	800,000	-0,046	-0,107
-195,504	228,921	-0,050	0,059
-194,490	-25,741	0,090	0,038
-193,475	-200,000	0,008	0,042
-192,460	540,053	-0,017	-0,030
-191,446	36,514	0,048	0,030
-190,431	587,616	-0,039	0,069
-189,417	-119,899	0,064	0,008
-188,402	427,768	-0,015	-0,024
-187,387	-140,378	-0,157	0,012
-186,373	49,254	-0,078	0,053
-185,358	-200,000	0,014	-0,108
-184,344	-200,000	-0,002	0,056
-183,329	556,178	0,040	0,070
-182,315	431,976	-0,107	0,168
-181,300	375,802	-0,074	-0,110
-180,285	-200,000	0,019	-0,129
-179,271	-57,408	-0,075	-0,024
-178,256	-115,874	-0,096	-0,013
-177,242	-138,193	-0,024	0,002
-176,227	320,069	0,031	-0,042
-175,212	24,232	-0,071	0,042
-174,198	0,037	-0,078	0,040
-173,183	-95,724	-0,056	-0,011
-172,169	-45,529	0,062	-0,022
-171,154	800,000	-0,064	-0,163
-170,139	78,900	0,142	-0,110
-169,125	1,472	0,085	-0,044
-168,110	800,000	0,026	0,061
-167,096	800,000	0,024	0,065
-166,081	41,384	0,054	-0,035
-165,066	13,787	0,035	0,019
-164,052	-200,000	0,011	0,037
-163,037	-77,145	0,072	0,018
-162,023	-164,225	0,046	0,002
-161,008	-55,694	0,054	-0,017
-159,993	800,000	0,024	-0,072
-158,979	-200,000	-0,042	-0,173
-157,964	-103,214	-0,105	-0,018
-156,950	800,000	0,009	-0,024
-155,935	-200,000	0,015	0,191
-154,920	-200,000	0,003	-0,016
-153,906	-59,698	0,163	0,050
-152,891	427,565	-0,054	0,084
-151,877	-80,881	0,047	-0,011
-150,862	237,857	-0,066	-0,079
-149,847	-40,890	-0,026	-0,010
-148,833	-179,797	-0,111	-0,002
-147,818	-200,000	0,001	-0,090
-146,804	-175,950	-0,059	0,001
-145,789	309,484	0,026	0,036
-144,775	2,159	-0,092	0,048
-143,760	402,628	0,040	-0,061
-142,745	-200,000	-0,023	-0,109
-141,731	800,000	0,015	-0,044
-140,716	188,682	-0,041	0,044
-139,702	21,988	0,067	0,039
-138,687	-200,000	0,013	-0,057
-137,672	115,917	0,013	0,011
-136,658	236,795	-0,041	-0,049
-135,643	-200,000	0,036	0,182
-134,629	-200,000	-0,007	-0,046
-133,614	-200,000	0,039	0,168
-132,599	227,999	0,043	0,051
-131,585	80,277	0,055	0,043
-130,570	416,554	-0,015	-0,023
-129,556	36,260	-0,032	-0,021
-128,541	150,238	-0,035	-0,035
-127,526	254,677	0,123	0,152
-126,512	241,760	-0,052	0,063
-125,497	60,712	0,097	0,069
-124,483	800,000	0,015	-0,035
-123,468	-200,000	-0,105	0,000
-122,453	156,073	0,081	0,081
-121,439	49,099	-0,113	-0,077
-120,424	223,832	0,055	-0,065
-119,410	-200,000	0,006	0,047
-118,395	-97,844	0,043	-0,008
