DTS Sentinel unit serial number:	SN410029Multiplexer serial number:	ORYXHardware model number:	OX2-SRSoftware version number:	ORYX F/W v4,00 Oryx Data Collector v3.7.2.0data status	okinstallation	B4 Nyhavnadifferential loss correction	single-endedforward channel	channel 2reverse channel	N/Adate	2023/12/18time	23:00:13forward acquisition time	300,00reverse acquisition time	0,00gamma	499,1914k internal	0,3124k external	0,3124temperature offset calibration	1,0000default loss term (dB/km)	0,3820temperature slope calibration	1,0000multiplexer offset coefficient	1,0000multiplexer slope coefficient	1,0000fibre end	0,00T internal ref (°C)	22,01T ext. ref 1 (°C)	7,61T ext. ref 2 (°C)	7,72length (m)	temperature (°C)	Stokes	anti-Stokes-744,400	800,000	-0,044	-0,143
-743,385	32,021	-0,267	0,171
-742,371	-200,000	-0,009	-0,135
-741,356	89,973	-0,251	0,209
-740,342	-71,691	0,079	-0,022
-739,327	-76,333	-0,042	-0,011
-738,312	24,626	0,117	-0,072
-737,298	800,000	-0,100	0,219
-736,283	31,094	0,070	-0,044
-735,269	161,568	-0,139	0,145
-734,254	315,097	-0,031	-0,043
-733,239	-112,275	-0,418	-0,062
-732,225	-9,590	0,152	0,075
-731,210	-200,000	0,005	-0,056
-730,196	-200,000	0,001	-0,079
-729,181	-48,648	-0,117	-0,042
-728,167	320,442	0,090	-0,127
-727,152	-57,421	-0,032	-0,011
-726,137	800,000	-0,041	-0,114
-725,123	-78,339	0,021	-0,005
-724,108	-119,970	-0,054	0,007
-723,094	-61,603	-0,157	-0,049
-722,079	-94,249	0,093	-0,019
-721,064	106,349	-0,065	-0,057
-720,050	336,659	0,034	0,050
-719,035	241,957	-0,053	-0,066
-718,021	74,656	-0,053	-0,042
-717,006	51,076	-0,104	-0,073
-715,991	635,256	-0,079	-0,149
-714,977	800,000	-0,066	-0,156
-713,962	160,124	0,057	0,060
-712,948	-200,000	-0,035	-0,182
-711,933	-13,557	0,119	-0,057
-710,918	-67,568	-0,115	0,033
-709,904	72,365	-0,100	0,077
-708,889	-7,230	-0,156	0,078
-707,875	331,097	-0,056	0,081
-706,860	303,325	-0,087	-0,120
-705,845	800,000	-0,026	-0,056
-704,831	800,000	0,016	0,043
-703,816	-138,773	-0,139	-0,011
-702,802	28,655	-0,027	-0,017
-701,787	-142,197	-0,089	-0,006
-700,772	-119,322	0,084	-0,011
-699,758	-65,183	-0,082	-0,024
-698,743	280,121	0,055	0,073
-697,729	108,761	-0,080	0,071
-696,714	-200,000	-0,013	-0,051
-695,699	132,927	0,084	0,081
-694,685	-8,696	-0,098	0,049
-693,670	800,000	0,051	-0,121
-692,656	-12,095	-0,025	0,012
-691,641	-200,000	-0,007	-0,087
-690,627	800,000	-0,020	0,048
-689,612	129,588	-0,099	0,094
-688,597	55,071	0,118	0,084
-687,583	800,000	-0,040	-0,103
-686,568	-85,487	-0,110	0,025
-685,554	-200,000	-0,021	-0,093
-684,539	613,715	0,023	0,043
-683,524	-200,000	0,010	0,052
-682,510	-200,000	-0,002	0,108
-681,495	800,000	0,040	0,117
-680,481	-69,006	0,014	-0,004
-679,466	273,161	-0,052	-0,069
-678,451	-200,000	-0,004	-0,099
-677,437	-39,379	-0,087	-0,034
-676,422	13,307	0,118	0,068
-675,408	800,000	0,018	0,056
-674,393	-64,541	0,084	0,025
-673,378	76,067	-0,056	-0,044
-672,364	-200,000	-0,021	0,115
-671,349	-200,000	-0,002	-0,041
-670,335	68,009	0,119	-0,091
-669,320	800,000	0,022	0,068
-668,305	24,042	-0,059	-0,036
-667,291	800,000	0,030	-0,083
-666,276	174,593	0,027	-0,030
-665,262	-60,805	-0,149	-0,047
-664,247	152,732	0,083	0,085
-663,232	-200,000	-0,001	0,093
-662,218	-73,596	0,117	-0,031
-661,203	206,010	-0,010	0,012
-660,189	80,793	-0,050	-0,040
-659,174	222,751	0,010	-0,012
-658,159	800,000	-0,032	0,075
-657,145	-61,397	-0,148	-0,046
-656,130	800,000	0,055	-0,122
-655,116	800,000	-0,045	-0,123
-654,101	74,766	-0,075	0,058
-653,086	64,114	0,157	-0,117
-652,072	-200,000	0,030	-0,113
-651,057	-1,670	0,027	-0,014
-650,043	40,364	0,087	-0,058
-649,028	-94,020	-0,094	0,019
-648,014	-76,213	-0,038	-0,010
-646,999	-200,000	-0,092	0,000
-645,984	800,000	-0,012	-0,034
-644,970	223,490	-0,043	-0,052
-643,955	-200,000	-0,015	-0,144
-642,941	45,413	-0,147	-0,101
-641,926	-200,000	-0,010	-0,068
-640,911	-27,055	-0,113	-0,049
-639,897	-200,000	0,108	0,000
-638,882	-73,362	-0,044	-0,012
-637,868	-49,685	-0,067	0,023
-636,853	136,470	0,138	-0,134
-635,838	-200,000	0,010	0,041
-634,824	-200,000	-0,018	0,062
-633,809	-200,000	0,025	0,087
-632,795	204,009	0,094	0,108
-631,780	-149,600	-0,014	-0,001
-630,765	-92,996	-0,063	0,013
-629,751	-11,483	-0,066	-0,032
-628,736	299,981	-0,135	0,185
-627,722	690,804	0,029	0,056
-626,707	117,898	-0,043	-0,039
-625,692	332,333	-0,077	-0,110
-624,678	22,771	0,065	0,039
-623,663	-136,451	-0,120	-0,010
-622,649	705,240	0,086	-0,169
-621,634	-60,164	-0,133	0,042
-620,619	151,324	-0,058	-0,059
-619,605	169,635	0,056	-0,059
-618,590	-200,000	0,007	0,086
-617,576	39,076	-0,076	0,050
-616,561	578,566	-0,010	-0,017
-615,546	800,000	0,060	-0,131
-614,532	-200,000	-0,003	-0,069
-613,517	583,701	-0,022	-0,040
-612,503	-200,000	0,009	-0,113
-611,488	-200,000	-0,027	0,117
-610,474	-16,143	0,134	0,063
-609,459	-200,000	0,041	-0,167
-608,444	-108,488	-0,171	-0,027
-607,430	215,745	-0,028	0,033
-606,415	-200,000	-0,011	0,069
-605,401	-67,260	0,067	0,019
-604,386	-33,314	-0,028	0,011
-603,371	-81,496	0,148	-0,036
-602,357	83,255	0,043	0,035
-601,342	334,903	0,028	0,041
-600,328	-200,000	-0,009	-0,050
-599,313	207,704	-0,081	0,094
-598,298	-186,807	-0,073	-0,001
-597,284	417,603	0,011	-0,018
-596,269	740,641	0,082	0,163
-595,255	81,195	-0,071	-0,057
-594,240	509,398	0,050	-0,086
-593,225	101,884	-0,036	0,031
-592,211	-200,000	-0,021	0,146
-591,196	-54,718	0,050	-0,017
-590,182	-200,000	0,002	0,056
-589,167	-200,000	0,019	0,132
-588,152	-200,000	0,007	-0,050
-587,138	-200,000	-0,023	-0,110
-586,123	224,096	0,063	0,075
-585,109	-200,000	0,015	-0,147
-584,094	-165,677	-0,071	-0,002
-583,079	91,516	-0,039	-0,033
-582,065	-142,791	0,093	0,007
-581,050	-55,495	0,147	-0,049
-580,036	233,232	-0,076	0,093
-579,021	-200,000	-0,007	-0,121
-578,006	99,431	-0,051	-0,043
-576,992	535,253	-0,075	0,132
-575,977	-17,625	0,107	-0,049
-574,963	-200,000	0,024	0,185
-573,948	800,000	0,020	0,052
-572,934	-200,000	0,027	-0,101
-571,919	-18,678	-0,091	0,042
-570,904	-200,000	-0,008	-0,069
-569,890	162,590	0,051	0,053
-568,875	28,063	-0,036	0,022
-567,861	55,590	0,055	-0,040
-566,846	154,069	0,097	-0,099
-565,831	-63,021	0,011	0,003
-564,817	68,654	0,055	-0,042
-563,802	800,000	-0,054	-0,130
-562,788	-12,697	-0,158	0,076
-561,773	800,000	0,011	-0,032
-560,758	-67,162	0,052	-0,015
-559,744	-200,000	-0,002	0,040
-558,729	112,010	-0,099	0,088
-557,715	-200,000	-0,009	-0,060
-556,700	-200,000	-0,035	-0,155
-555,685	-200,000	-0,046	-0,245
-554,671	484,094	-0,068	0,115
-553,656	-95,969	-0,042	-0,008
-552,642	-74,294	0,096	-0,026
-551,627	-136,669	-0,112	0,009
-550,612	-96,582	-0,036	0,007
-549,598	-74,402	-0,043	-0,011
-548,583	27,442	0,027	-0,017
-547,569	-104,142	-0,035	0,006
-546,554	179,604	-0,065	-0,070
-545,539	177,789	0,100	0,108
-544,525	163,087	0,033	-0,035
-543,510	110,543	-0,050	-0,044
-542,496	-200,000	0,002	-0,039
-541,481	531,729	-0,057	-0,100
-540,466	94,741	-0,075	-0,063
-539,452	-58,861	0,195	-0,062
-538,437	122,599	0,086	0,079
-537,423	-58,512	0,123	0,039
-536,408	-200,000	-0,013	0,115
-535,393	531,182	-0,025	-0,045
-534,379	-156,444	-0,142	0,006
-533,364	800,000	0,017	-0,051
-532,350	123,304	0,016	0,015
-531,335	34,853	-0,033	0,022
-530,321	13,475	-0,013	0,007
-529,306	800,000	-0,041	0,130
-528,291	471,298	0,044	0,073
-527,277	85,836	-0,137	0,112
-526,262	401,036	0,087	-0,135
-525,248	64,807	0,091	-0,067
-524,233	447,391	0,023	0,038
-523,218	-200,000	0,000	0,086
-522,204	800,000	0,011	-0,026
-521,189	-200,000	0,009	-0,164
-520,175	74,760	-0,166	-0,129
-519,160	288,792	-0,016	0,021
-518,145	-38,464	0,194	0,075
-517,131	544,443	0,063	0,111
-516,116	-94,520	-0,052	-0,010
-515,102	-11,217	0,134	-0,065
-514,087	-8,279	-0,171	0,085
-513,072	800,000	-0,038	-0,079
-512,058	397,731	0,028	0,043
-511,043	21,617	0,125	-0,075
-510,029	-200,000	-0,037	0,143
-509,014	-108,697	-0,163	-0,026
-507,999	474,038	-0,054	0,091
-506,985	-48,308	-0,115	-0,041
-505,970	-1,540	-0,129	0,067
-504,956	800,000	-0,028	-0,074
-503,941	-200,000	0,010	-0,044
-502,926	662,892	-0,060	0,114
-501,912	46,050	-0,020	0,014
-500,897	98,942	0,096	-0,082
-499,883	110,330	-0,163	0,145
-498,868	800,000	0,035	0,080
-497,853	-83,454	-0,099	0,023
-496,839	800,000	0,006	0,019
-495,824	-200,000	0,025	0,186
-494,810	800,000	-0,010	-0,033
-493,795	-200,000	0,002	0,058
-492,781	-200,000	0,002	-0,094
-491,766	-200,000	-0,027	0,139
-490,751	-60,647	0,093	-0,029
-489,737	4,827	0,157	-0,085
-488,722	-200,000	0,014	0,179
-487,708	2,133	0,060	-0,032
-486,693	-137,602	0,124	0,010
-485,678	-83,121	0,092	-0,022
-484,664	800,000	-0,054	-0,119
-483,649	-74,403	-0,065	0,017
-482,635	-138,529	0,076	0,006
-481,620	-114,876	-0,094	-0,013
-480,605	-93,848	0,110	0,022
-479,591	-103,549	-0,051	-0,009
-478,576	-49,573	0,113	0,039
-477,562	410,063	0,044	-0,069
-476,547	53,694	0,050	-0,035
-475,532	15,184	0,060	0,035
-474,518	26,423	0,120	0,074
-473,503	56,368	0,069	0,049
-472,489	-39,383	-0,133	0,051
-471,474	432,318	-0,062	0,099
-470,459	135,925	-0,023	-0,022
-469,445	800,000	-0,044	0,101
-468,430	-50,508	-0,033	0,011
-467,416	-200,000	0,022	0,106
-466,401	14,525	-0,009	-0,005
-465,386	-99,976	0,053	0,010
-464,372	-200,000	-0,006	-0,034
-463,357	266,595	0,075	-0,096
-462,343	429,814	0,012	0,019
-461,328	-50,521	-0,089	-0,031
-460,313	-119,466	0,166	-0,021
-459,299	-200,000	0,047	0,160
-458,284	492,901	0,062	0,106
-457,270	157,414	0,043	0,044
-456,255	800,000	-0,009	-0,024
-455,241	-200,000	-0,017	-0,067
-454,226	800,000	-0,010	-0,027
-453,211	-183,314	0,133	0,002
-452,197	-200,000	-0,009	0,040
-451,182	800,000	0,045	0,104
-450,168	-200,000	0,003	-0,101
-449,153	-200,000	-0,014	-0,073
-448,138	154,296	-0,124	-0,126
-447,124	453,482	0,068	0,112
-446,109	598,996	0,034	-0,062
-445,095	-200,000	0,007	0,159
-444,080	-110,229	0,124	-0,019
-443,065	-108,616	0,073	0,011
-442,051	-200,000	-0,007	-0,032
-441,036	-200,000	0,003	0,080
-440,022	800,000	0,024	0,054
-439,007	295,809	0,020	-0,027
-437,992	800,000	0,045	-0,118
-436,978	-200,000	0,011	0,078
-435,963	-32,053	-0,064	0,026
-434,949	-200,000	-0,019	0,140
-433,934	201,433	-0,054	-0,061
-432,919	365,133	-0,061	-0,091
-431,905	83,192	-0,026	0,021
-430,890	-48,943	0,021	0,008
-429,876	-45,018	0,135	0,049
-428,861	-158,014	0,133	-0,006
-427,846	-57,522	-0,127	0,041
-426,832	9,004	-0,019	0,011
-425,817	196,194	-0,084	-0,094
-424,803	35,943	-0,066	0,042
-423,788	647,517	0,032	0,060
-422,773	-200,000	-0,007	0,034
-421,759	-22,559	0,062	-0,028
-420,744	-7,580	-0,092	-0,046
-419,730	471,578	-0,063	-0,105
-418,715	800,000	0,040	-0,106
-417,701	36,846	-0,066	-0,043
-416,686	194,362	0,014	0,016
-415,671	-162,622	0,142	-0,005
-414,657	12,024	0,149	0,084
-413,642	-93,511	-0,023	0,005
-412,628	-75,774	0,077	-0,020
-411,613	120,710	0,025	0,023
-410,598	-200,000	-0,016	-0,055
-409,584	374,617	0,040	0,060
-408,569	-48,379	0,129	0,045
-407,555	-36,753	-0,089	0,035
-406,540	-200,000	-0,003	0,055
-405,525	744,327	0,021	0,042
-404,511	22,124	-0,093	-0,056
-403,496	18,720	0,093	-0,055
-402,482	78,237	-0,070	-0,055
-401,467	-200,000	-0,005	-0,057
-400,452	-51,756	-0,019	0,006
-399,438	-79,280	0,049	0,012
-398,423	800,000	0,041	-0,098
-397,409	-119,439	-0,172	-0,022
-396,394	-64,122	-0,066	0,020
-395,379	-68,689	-0,106	0,030
-394,365	800,000	-0,057	0,130
-393,350	5,137	-0,176	0,095
-392,336	42,950	0,137	0,092
-391,321	340,859	-0,027	-0,039
-390,306	-200,000	-0,032	-0,143
-389,292	-7,595	-0,123	-0,061
-388,277	-200,000	0,021	-0,100
-387,263	-83,443	-0,127	0,030
-386,248	800,000	0,054	0,121
-385,233	-200,000	0,011	0,164
-384,219	-58,431	-0,053	-0,017
-383,204	7,415	-0,106	0,058
-382,190	198,786	-0,130	-0,147
-381,175	124,005	0,006	-0,005
-380,160	800,000	0,040	-0,084
-379,146	-107,586	0,093	-0,015
-378,131	-200,000	0,002	-0,126
-377,117	300,922	0,026	-0,036
-376,102	-200,000	-0,026	-0,115
-375,088	800,000	-0,052	0,113
-374,073	-200,000	0,028	-0,128
-373,058	180,781	0,075	0,081
-372,044	228,815	-0,038	-0,046
-371,029	-146,475	0,087	-0,005
-370,015	-50,306	-0,087	0,030
-369,000	478,199	0,080	-0,133
-367,985	80,371	-0,045	0,035
-366,971	567,667	-0,055	-0,098
-365,956	188,175	0,076	-0,083
-364,942	-128,835	0,126	0,013
-363,927	-200,000	-0,012	0,145
-362,912	383,594	0,051	0,077
-361,898	-164,947	-0,123	0,004
-360,883	-200,000	0,014	-0,098
-359,869	-153,190	0,035	-0,002
-358,854	126,226	0,040	0,037
-357,839	-200,000	-0,000	0,012
-356,825	-87,290	-0,153	-0,034
-355,810	-200,000	0,003	0,070
-354,796	475,993	0,041	-0,069
-353,781	-23,206	-0,101	-0,045
-352,766	-136,934	0,113	0,009
-351,752	-200,000	0,023	-0,118
-350,737	519,438	0,061	-0,106
-349,723	-200,000	-0,012	-0,075
-348,708	339,694	0,065	0,094
-347,693	175,089	0,039	0,042
-346,679	-145,034	-0,153	0,010
-345,664	226,570	0,094	-0,112
-344,650	800,000	0,013	0,036
-343,635	-147,673	0,060	-0,004
-342,620	800,000	0,038	-0,092
-341,606	-164,112	0,044	0,001
-340,591	-55,580	0,008	-0,002
-339,577	800,000	-0,041	0,101
-338,562	-200,000	-0,039	-0,175
-337,548	525,436	0,025	-0,043
-336,533	86,100	-0,022	0,018
-335,518	800,000	0,031	0,063
-334,504	-200,000	0,002	0,094
-333,489	-72,323	0,151	-0,041
-332,475	-200,000	-0,030	-0,110
-331,460	127,072	-0,014	-0,013
-330,445	-200,000	-0,005	-0,047
-329,431	-200,000	-0,024	0,083
-328,416	800,000	0,037	0,079
-327,402	-135,422	-0,093	-0,008
-326,387	59,572	-0,079	0,057
-325,372	-70,248	-0,032	0,009
-324,358	-200,000	-0,027	-0,105
-323,343	313,428	0,015	0,021
-322,329	133,213	-0,087	-0,083
-321,314	-76,692	0,101	0,026
-320,299	288,677	-0,070	0,093
-319,285	361,057	-0,041	0,060
-318,270	-106,278	-0,130	0,021
-317,256	219,615	-0,081	-0,095
-316,241	800,000	-0,029	-0,068
-315,226	-99,752	0,083	0,015
-314,212	358,697	0,099	0,146
-313,197	503,386	0,089	0,151
-312,183	-60,307	-0,140	-0,043
-311,168	-40,703	0,045	-0,017
-310,153	800,000	-0,044	-0,099
-309,139	800,000	0,041	-0,094
-308,124	297,518	0,027	0,036
-307,110	237,674	0,080	0,097
-306,095	482,039	-0,045	0,075
-305,080	-200,000	0,008	0,043
-304,066	-170,498	0,066	0,002
-303,051	-200,000	-0,009	-0,109
-302,037	-162,750	0,082	-0,003
-301,022	198,432	0,018	-0,020
-300,008	800,000	0,075	0,159
-298,993	542,791	0,086	0,151
-297,978	-67,809	0,059	0,017
-296,964	210,912	-0,059	-0,068
-295,949	800,000	0,026	-0,055
-294,935	565,152	-0,103	-0,183
-293,920	-137,385	0,107	0,009
-292,905	-138,068	0,126	-0,010
-291,891	559,011	-0,044	0,078
-290,876	-127,875	-0,125	-0,013
-289,862	396,787	-0,126	0,194
-288,847	-200,000	0,007	-0,082
-287,832	800,000	-0,027	0,065
-286,818	182,876	-0,067	-0,072
-285,803	403,100	0,070	-0,108
-284,789	362,212	-0,039	0,058
-283,774	800,000	-0,052	0,118
-282,759	367,742	-0,075	0,111
-281,745	800,000	-0,018	0,043
-280,730	-112,903	-0,102	-0,015
-279,716	-147,545	-0,037	-0,002
-278,701	800,000	0,040	-0,099
-277,686	37,705	-0,194	0,126
-276,672	-92,910	0,071	0,014
-275,657	-59,370	-0,131	0,041
-274,643	-16,228	-0,057	-0,026
-273,628	800,000	0,031	-0,088
-272,613	177,335	0,130	-0,139
-271,599	59,623	-0,070	0,050
-270,584	-134,258	0,074	-0,007
-269,570	-125,447	0,073	-0,008
-268,555	282,905	-0,044	0,057
-267,540	417,600	-0,036	-0,057
-266,526	11,122	0,115	-0,064
-265,511	441,827	-0,016	-0,026
-264,497	-28,919	-0,067	0,028
-263,482	17,875	-0,051	0,030
-262,467	-101,700	0,090	0,016
-261,453	267,991	-0,136	0,174
-260,438	-85,602	0,235	-0,053
-259,424	-200,000	-0,004	0,019
-258,409	316,437	-0,017	0,024
-257,395	393,068	0,013	-0,020
-256,380	46,517	0,095	0,064
-255,365	-78,761	0,032	0,008
-254,351	-81,942	0,053	0,013
-253,336	-200,000	-0,004	0,051
-252,322	-200,000	0,005	-0,115
-251,307	-63,615	0,085	-0,025
-250,292	-175,622	-0,120	0,002
-249,278	-200,000	-0,020	-0,078
-248,263	8,555	0,110	0,060
-247,249	-200,000	-0,011	-0,044
-246,234	-200,000	0,019	-0,083
-245,219	693,716	0,037	0,071
-244,205	-200,000	-0,015	-0,088
-243,190	0,161	0,044	-0,023
-242,176	-200,000	0,010	0,148
-241,161	290,429	0,073	0,098
-240,146	10,924	0,042	0,023
-239,132	-200,000	-0,005	-0,021
-238,117	465,492	0,048	-0,078
-237,103	-60,303	-0,121	0,037
-236,088	80,726	-0,102	0,080
-235,073	258,976	0,123	0,156
-234,059	-128,280	0,082	-0,008
-233,044	15,630	-0,058	0,033
-232,030	584,150	-0,086	0,154
-231,015	-80,897	-0,090	-0,022
-230,000	-200,000	-0,016	-0,074
-228,986	253,667	0,026	-0,033
-227,971	209,040	-0,089	0,102
-226,957	192,792	-0,047	-0,052
-225,942	535,571	-0,017	0,030
-224,927	66,449	-0,030	-0,022
-223,913	404,698	-0,017	-0,026
-222,898	800,000	-0,053	-0,128
-221,884	179,605	0,025	-0,027
-220,869	-66,690	0,097	-0,028
-219,855	-153,087	0,018	-0,001
-218,840	-75,023	-0,074	-0,019
-217,825	-154,985	0,049	0,002
-216,811	-45,185	-0,027	0,010
-215,796	-200,000	-0,022	0,098
-214,782	132,487	0,042	0,039
-213,767	-119,609	-0,052	0,007
-212,752	-98,219	-0,028	-0,005
-211,738	-84,273	-0,047	-0,011
-210,723	-200,000	0,013	-0,087
-209,709	-110,822	-0,105	-0,016
-208,694	-200,000	0,003	0,033
-207,679	76,406	-0,084	0,065
-206,665	-41,659	0,115	0,043
-205,650	-104,984	0,054	-0,009
-204,636	233,861	0,107	0,129
-203,621	-87,870	-0,156	0,034
-202,606	482,569	0,017	0,029
-201,592	800,000	-0,030	0,077
-200,577	800,000	0,021	-0,061
-199,563	800,000	0,068	-0,207
-198,548	205,919	0,093	0,106
-197,533	-200,000	0,043	0,146
-196,519	-200,000	0,020	0,083
-195,504	-84,198	0,112	-0,026
-194,490	-200,000	-0,003	0,063
-193,475	68,578	-0,075	0,056
-192,460	-70,093	-0,219	-0,060
-191,446	318,689	0,072	0,100
-190,431	-200,000	0,026	0,098
-189,417	207,776	-0,072	-0,082
-188,402	-50,895	0,140	0,048
-187,387	121,128	-0,096	-0,088
-186,373	-144,426	0,085	0,006
-185,358	22,186	0,039	0,023
-184,344	-75,053	0,141	-0,037
-183,329	-200,000	0,002	-0,042
-182,315	-200,000	-0,019	-0,078
-181,300	800,000	-0,043	-0,099
-180,285	-126,189	0,053	0,006
-179,271	22,197	-0,039	-0,023
-178,256	-27,020	0,106	-0,045
-177,242	-18,240	-0,019	-0,008
-176,227	-200,000	-0,030	-0,190
-175,212	278,375	0,005	0,006
-174,198	800,000	0,024	-0,068
-173,183	577,535	-0,091	-0,163
-172,169	800,000	-0,056	-0,149
-171,154	157,308	0,063	-0,064
-170,139	-200,000	-0,005	-0,033
-169,125	331,894	0,033	-0,046
-168,110	15,713	0,177	0,101
-167,096	38,657	0,075	-0,049
-166,081	-6,451	-0,104	-0,051
-165,066	-15,491	-0,069	-0,032
-164,052	105,663	0,022	0,019
-163,037	178,957	-0,052	0,055
-162,023	-67,093	0,074	0,021
-161,008	-200,000	0,011	0,066
-159,993	1,439	0,109	0,057
-158,979	199,835	0,115	0,129
-157,964	-200,000	-0,001	0,015
-156,950	468,716	-0,040	-0,066
-155,935	800,000	-0,018	-0,050
-154,920	-36,035	0,083	-0,033
-153,906	496,707	0,049	0,082
-152,891	292,110	-0,056	-0,074
-151,877	95,405	0,073	-0,061
-150,862	-40,391	-0,112	0,042
-149,847	-200,000	0,003	0,101
-148,833	-21,958	0,084	-0,037
-147,818	37,027	-0,044	0,028
-146,804	-104,488	0,040	0,007
-145,789	-109,804	0,029	0,004
-144,775	800,000	0,029	0,061
-143,760	-200,000	-0,002	-0,036
-142,745	800,000	-0,044	-0,104
-141,731	800,000	0,024	0,065
-140,716	165,469	-0,064	-0,066
-139,702	22,032	0,083	-0,049
-138,687	800,000	0,027	0,079
-137,672	-134,642	-0,081	-0,007
-136,658	-118,621	-0,153	0,019
-135,643	768,558	0,025	0,049
-134,629	800,000	0,048	0,144
-133,614	-78,550	0,083	0,020
-132,599	-200,000	-0,007	-0,075
-131,585	55,465	-0,018	0,013
-130,570	9,884	-0,132	-0,073
-129,556	-8,309	-0,056	-0,027
-128,541	-200,000	0,005	-0,058
-127,526	-200,000	0,008	0,041
-126,512	-200,000	0,013	-0,145
-125,497	-200,000	-0,005	-0,097
-124,483	-200,000	-0,035	0,129
-123,468	302,895	-0,035	-0,047
-122,453	24,852	-0,045	0,027
-121,439	52,598	-0,033	0,023
-120,424	-136,409	-0,104	-0,009
-119,410	-200,000	0,016	-0,054
