DTS Sentinel unit serial number:	SN410029Multiplexer serial number:	ORYXHardware model number:	OX2-SRSoftware version number:	ORYX F/W v4,00 Oryx Data Collector v3.7.2.0data status	okinstallation	B4 Nyhavnadifferential loss correction	single-endedforward channel	channel 2reverse channel	N/Adate	2023/12/19time	00:55:13forward acquisition time	300,00reverse acquisition time	0,00gamma	499,1914k internal	0,3123k external	0,3123temperature offset calibration	1,0000default loss term (dB/km)	0,3820temperature slope calibration	1,0000multiplexer offset coefficient	1,0000multiplexer slope coefficient	1,0000fibre end	0,00T internal ref (°C)	21,94T ext. ref 1 (°C)	6,28T ext. ref 2 (°C)	6,28length (m)	temperature (°C)	Stokes	anti-Stokes-744,400	-118,924	-0,034	0,004
-743,385	263,961	-0,156	0,203
-742,371	260,459	0,068	-0,088
-741,356	201,716	-0,118	0,136
-740,342	74,801	0,029	-0,023
-739,327	-127,173	-0,164	0,018
-738,312	-127,386	-0,111	0,012
-737,298	-24,014	-0,214	0,095
-736,283	6,094	0,041	-0,023
-735,269	180,127	-0,099	0,108
-734,254	363,205	-0,041	-0,061
-733,239	-63,727	-0,443	-0,135
-732,225	122,912	0,096	0,090
-731,210	446,546	0,067	0,109
-730,196	2,264	0,135	0,073
-729,181	-125,034	0,040	0,004
-728,167	605,633	-0,030	-0,057
-727,152	800,000	-0,058	0,128
-726,137	-200,000	0,036	0,156
-725,123	-80,631	-0,183	-0,045
-724,108	486,999	-0,056	-0,096
-723,094	-159,653	-0,260	0,011
-722,079	-200,000	-0,002	0,078
-721,064	-200,000	0,014	0,071
-720,050	64,728	-0,063	-0,048
-719,035	-200,000	0,019	-0,131
-718,021	144,804	-0,150	0,149
-717,006	341,482	-0,115	-0,168
-715,991	-200,000	-0,026	-0,089
-714,977	800,000	-0,026	-0,085
-713,962	800,000	-0,029	0,068
-712,948	-200,000	-0,016	0,080
-711,933	-171,080	0,076	0,002
-710,918	-200,000	-0,025	0,167
-709,904	365,620	0,019	0,029
-708,889	-83,468	-0,098	-0,023
-707,875	-200,000	-0,026	-0,100
-706,860	62,879	0,023	0,017
-705,845	-19,027	-0,079	0,036
-704,831	-7,123	-0,090	0,045
-703,816	-134,857	-0,095	-0,008
-702,802	72,073	0,092	-0,071
-701,787	-200,000	0,022	-0,076
-700,772	-12,895	0,052	-0,025
-699,758	-200,000	-0,023	0,117
-698,743	-200,000	-0,016	-0,055
-697,729	-200,000	-0,015	0,084
-696,714	-200,000	-0,001	-0,157
-695,699	521,829	0,042	-0,074
-694,685	-200,000	-0,001	0,029
-693,670	-129,412	-0,097	-0,010
-692,656	800,000	0,023	0,065
-691,641	16,655	-0,053	0,031
-690,627	403,342	0,022	-0,034
-689,612	-200,000	0,001	0,070
-688,597	-200,000	-0,002	0,046
-687,583	-2,182	-0,093	-0,048
-686,568	-200,000	0,016	0,075
-685,554	-184,131	0,220	-0,003
-684,539	-28,711	0,033	0,014
-683,524	489,690	-0,027	0,046
-682,510	208,694	-0,022	-0,026
-681,495	-39,438	0,057	0,022
-680,481	-73,473	-0,042	0,011
-679,466	-200,000	-0,005	-0,061
-678,451	800,000	-0,009	-0,030
-677,437	-200,000	-0,002	-0,141
-676,422	-58,461	0,026	-0,008
-675,408	-179,734	0,045	-0,001
-674,393	47,533	-0,075	0,052
-673,378	-52,850	-0,118	-0,040
-672,364	-34,437	0,230	0,093
-671,349	170,408	-0,138	-0,147
-670,335	-200,000	0,027	0,131
-669,320	245,656	0,024	0,030
-668,305	-3,686	-0,081	-0,042
-667,291	-185,544	0,093	0,001
-666,276	-9,560	-0,130	-0,064
-665,262	21,490	-0,149	0,090
-664,247	-200,000	0,010	-0,040
-663,232	-200,000	-0,033	0,142
-662,218	154,906	0,078	0,080
-661,203	-56,507	-0,009	0,003
-660,189	5,649	0,097	-0,053
-659,174	800,000	0,015	-0,034
-658,159	12,076	-0,149	0,085
-657,145	-200,000	-0,018	-0,073
-656,130	159,119	0,090	0,093
-655,116	-200,000	0,021	-0,072
-654,101	-107,250	-0,097	-0,016
-653,086	2,751	0,057	-0,030
-652,072	-28,621	0,092	-0,039
-651,057	326,394	0,016	-0,022
-650,043	194,954	0,144	-0,163
-649,028	28,454	-0,079	-0,050
-648,014	335,045	0,042	-0,061
-646,999	245,834	0,087	-0,109
-645,984	14,176	0,067	-0,039
-644,970	-46,916	-0,151	-0,054
-643,955	-136,941	-0,067	-0,006
-642,941	800,000	-0,041	-0,096
-641,926	-200,000	-0,020	-0,124
-640,911	-126,594	0,151	0,016
-639,897	246,973	0,086	-0,108
-638,882	516,085	0,022	0,038
-637,868	209,697	-0,042	0,049
-636,853	75,116	-0,045	-0,035
-635,838	-9,678	0,086	0,042
-634,824	800,000	-0,058	0,177
-633,809	21,169	-0,065	-0,039
-632,795	-200,000	-0,022	0,124
-631,780	610,114	-0,032	0,059
-630,765	647,532	0,051	-0,097
-629,751	491,442	0,025	0,043
-628,736	26,216	-0,067	0,042
-627,722	-77,952	0,053	0,013
-626,707	11,111	0,056	0,032
-625,692	-6,927	0,038	0,019
-624,678	-200,000	0,021	0,095
-623,663	128,611	0,065	0,062
-622,649	284,348	-0,014	-0,019
-621,634	27,150	-0,136	-0,085
-620,619	492,141	0,068	-0,116
-619,605	-200,000	0,013	-0,057
-618,590	129,099	0,038	-0,036
-617,576	-200,000	-0,006	-0,075
-616,561	30,498	0,085	0,054
-615,546	-153,006	0,159	-0,008
-614,532	-27,547	-0,151	-0,065
-613,517	78,512	0,055	-0,044
-612,503	800,000	0,008	-0,017
-611,488	-36,557	0,144	-0,057
-610,474	-20,612	-0,079	0,036
-609,459	97,982	-0,060	0,051
-608,444	121,341	-0,079	-0,073
-607,430	-200,000	-0,019	-0,091
-606,415	800,000	0,050	-0,116
-605,401	-23,602	0,084	0,037
-604,386	800,000	-0,017	0,036
-603,371	-145,954	0,158	0,010
-602,357	-177,550	0,058	-0,001
-601,342	187,546	-0,057	-0,063
-600,328	711,708	-0,101	-0,199
-599,313	63,253	0,028	0,020
-598,298	-42,113	-0,146	0,055
-597,284	-103,144	-0,139	-0,024
-596,269	-133,868	0,068	-0,006
-595,255	530,251	-0,016	0,029
-594,240	-135,537	-0,007	0,001
-593,225	-143,722	-0,095	0,007
-592,211	-24,636	-0,093	-0,041
-591,196	11,625	-0,122	-0,069
-590,182	212,808	0,094	-0,110
-589,167	-79,000	0,080	-0,020
-588,152	-22,977	-0,032	-0,014
-587,138	424,133	0,030	0,049
-586,123	-200,000	0,000	-0,035
-585,109	-200,000	0,008	-0,101
-584,094	-52,173	-0,153	0,052
-583,079	800,000	-0,034	0,076
-582,065	325,382	-0,036	-0,051
-581,050	-200,000	-0,013	0,133
-580,036	416,265	-0,081	0,128
-579,021	-66,660	-0,039	0,011
-578,006	-132,470	-0,112	0,011
-576,992	-200,000	-0,013	-0,049
-575,977	800,000	-0,022	-0,049
-574,963	503,771	-0,005	-0,008
-573,948	-200,000	0,002	0,101
-572,934	-104,895	-0,012	-0,002
-571,919	800,000	-0,023	0,064
-570,904	-76,343	0,073	0,019
-569,890	-56,852	-0,050	-0,016
-568,875	20,311	-0,026	0,016
-567,861	58,457	-0,089	-0,065
-566,846	800,000	0,020	0,049
-565,831	800,000	0,051	-0,133
-564,817	-67,565	0,042	0,012
-563,802	-200,000	0,003	-0,076
-562,788	-68,719	-0,061	0,017
-561,773	107,692	0,103	-0,091
-560,758	566,528	-0,083	-0,150
-559,744	-200,000	-0,009	0,107
-558,729	172,832	0,097	0,103
-557,715	-200,000	-0,004	0,015
-556,700	5,953	0,093	0,051
-555,685	-200,000	0,041	-0,172
-554,671	538,000	0,032	-0,057
-553,656	166,613	-0,083	0,087
-552,642	-79,580	0,053	0,013
-551,627	291,939	-0,043	0,058
-550,612	185,630	-0,038	0,041
-549,598	27,478	-0,071	0,044
-548,583	99,656	0,042	0,036
-547,569	-23,975	0,095	-0,042
-546,554	-29,618	0,121	0,051
-545,539	60,561	0,100	0,073
-544,525	726,194	-0,011	-0,021
-543,510	54,408	-0,079	0,056
-542,496	105,363	0,092	0,080
-541,481	800,000	-0,012	-0,029
-540,466	107,140	-0,104	-0,091
-539,452	-200,000	0,002	0,015
-538,437	445,671	-0,042	0,069
-537,423	-146,558	0,054	-0,003
-536,408	30,790	0,056	0,035
-535,393	-200,000	0,028	-0,110
-534,379	-200,000	0,010	-0,067
-533,364	-95,930	0,097	-0,019
-532,350	-200,000	0,002	-0,069
-531,335	-124,468	0,117	0,013
-530,321	-200,000	0,007	-0,135
-529,306	110,714	-0,116	-0,104
-528,291	-148,468	-0,077	-0,005
-527,277	-200,000	0,045	-0,148
-526,262	800,000	0,065	-0,146
-525,248	-151,885	0,109	-0,006
-524,233	-21,690	0,001	0,001
-523,218	16,127	0,056	0,032
-522,204	149,810	-0,036	-0,036
-521,189	-200,000	-0,047	-0,154
-520,175	-46,208	-0,129	-0,047
-519,160	-200,000	-0,009	-0,143
-518,145	-200,000	0,018	0,073
-517,131	47,001	-0,097	0,067
-516,116	409,745	-0,057	-0,089
-515,102	99,834	-0,033	0,028
-514,087	376,560	0,028	-0,042
-513,072	-200,000	-0,019	0,091
-512,058	73,842	0,065	-0,050
-511,043	28,517	0,050	0,031
-510,029	800,000	0,038	0,116
-509,014	7,020	0,056	0,031
-507,999	-49,535	-0,098	0,034
-506,985	27,082	-0,026	0,016
-505,970	-200,000	-0,034	0,115
-504,956	-200,000	-0,001	-0,159
-503,941	223,310	-0,098	-0,117
-502,926	38,544	0,053	0,035
-501,912	-16,368	0,104	0,049
-500,897	-137,007	0,139	-0,012
-499,883	38,252	-0,038	-0,025
-498,868	74,238	-0,082	0,063
-497,853	-200,000	-0,013	-0,057
-496,839	-93,121	-0,109	-0,022
-495,824	19,975	0,050	0,030
-494,810	-195,073	-0,070	-0,000
-493,795	-200,000	0,013	0,053
-492,781	800,000	-0,011	-0,023
-491,766	-95,217	-0,156	0,031
-490,751	35,574	0,091	0,059
-489,737	155,113	0,102	0,104
-488,722	87,157	0,074	0,060
-487,708	56,820	0,081	0,058
-486,693	132,087	0,172	0,164
-485,678	50,352	-0,088	0,061
-484,664	-200,000	-0,018	0,090
-483,649	559,335	-0,108	-0,193
-482,635	-200,000	-0,007	-0,049
-481,620	254,213	0,074	0,093
-480,605	122,094	-0,079	0,073
-479,591	314,766	-0,033	0,046
-478,576	342,954	-0,041	0,059
-477,562	800,000	0,016	-0,040
-476,547	0,288	0,089	-0,047
-475,532	-200,000	0,020	-0,158
-474,518	195,834	0,061	-0,068
-473,503	148,362	0,058	0,058
-472,489	-200,000	-0,023	-0,076
-471,474	246,089	-0,068	0,085
-470,459	250,334	-0,110	-0,139
-469,445	-12,686	0,081	0,039
-468,430	-82,301	0,098	0,023
-467,416	139,156	-0,143	-0,138
-466,401	272,625	0,053	0,069
-465,386	142,383	0,042	-0,041
-464,372	-50,724	0,123	-0,043
-463,357	800,000	-0,030	0,080
-462,343	-200,000	0,032	-0,135
-461,328	169,883	0,096	-0,101
-460,313	-200,000	0,009	0,034
-459,299	363,846	-0,069	-0,103
-458,284	800,000	0,050	0,156
-457,270	800,000	0,042	0,128
-456,255	-200,000	0,003	0,010
-455,241	27,376	-0,045	0,028
-454,226	150,082	0,067	0,067
-453,211	-200,000	0,003	-0,044
-452,197	19,942	0,069	-0,041
-451,182	-40,748	0,032	-0,012
-450,168	-200,000	-0,016	0,141
-449,153	-200,000	0,018	-0,078
-448,138	-32,436	-0,094	0,039
-447,124	-119,607	0,055	-0,007
-446,109	-49,985	0,141	0,049
-445,095	-200,000	-0,013	0,126
-444,080	35,686	0,073	-0,047
-443,065	-200,000	-0,009	0,080
-442,051	-71,476	-0,098	-0,027
-441,036	40,398	-0,045	-0,030
-440,022	-200,000	-0,021	-0,114
-439,007	-117,411	0,102	0,013
-437,992	-200,000	-0,015	-0,063
-436,978	-200,000	0,020	-0,071
-435,963	-200,000	0,007	0,094
-434,949	126,333	-0,011	-0,011
-433,934	-61,248	-0,051	-0,016
-432,919	-200,000	-0,023	-0,080
-431,905	-191,698	0,053	0,000
-430,890	800,000	-0,027	0,082
-429,876	-200,000	0,066	0,240
-428,861	-75,733	0,080	0,021
-427,846	-127,180	0,071	0,008
-426,832	154,111	0,022	0,022
-425,817	390,935	-0,033	0,050
-424,803	90,249	-0,109	-0,090
-423,788	-143,130	0,202	0,014
-422,773	-97,830	-0,112	-0,021
-421,759	-87,181	0,036	0,008
-420,744	700,475	-0,088	0,172
-419,730	136,392	0,034	-0,033
-418,715	-200,000	0,025	0,126
-417,701	432,106	-0,067	-0,108
-416,686	93,606	0,045	-0,038
-415,671	-12,778	0,027	-0,013
-414,657	39,980	0,125	-0,083
-413,642	-200,000	0,004	0,029
-412,628	-101,583	-0,121	-0,021
-411,613	704,365	-0,057	-0,111
-410,598	-200,000	0,008	0,049
-409,584	273,291	0,034	-0,045
-408,569	-200,000	0,016	-0,059
-407,555	-18,514	-0,074	0,034
-406,540	-85,916	-0,046	-0,010
-405,525	119,138	0,080	0,073
-404,511	800,000	-0,018	0,053
-403,496	-104,889	-0,032	0,005
-402,482	161,528	-0,057	0,059
-401,467	-200,000	0,014	-0,053
-400,452	1,628	0,053	0,028
-399,438	746,949	-0,028	0,056
-398,423	-200,000	0,019	0,074
-397,409	233,140	-0,066	-0,080
-396,394	55,393	-0,076	-0,054
-395,379	-26,452	-0,066	-0,028
-394,365	132,803	0,023	-0,022
-393,350	169,976	-0,022	-0,023
-392,336	-200,000	-0,006	0,032
-391,321	118,087	-0,036	0,033
-390,306	800,000	0,038	-0,120
-389,292	255,249	-0,041	-0,052
-388,277	362,880	0,034	0,051
-387,263	66,252	0,021	0,016
-386,248	-1,875	0,118	0,061
-385,233	379,220	-0,033	0,050
-384,219	-200,000	-0,013	0,179
-383,204	20,778	0,053	0,031
-382,190	-124,021	-0,104	0,012
-381,175	-85,081	-0,127	0,029
-380,160	326,543	0,088	-0,124
-379,146	36,843	0,173	0,112
-378,131	166,828	0,062	-0,065
-377,117	800,000	0,023	0,068
-376,102	193,244	0,158	0,176
-375,088	-106,918	0,149	0,024
-374,073	179,694	-0,040	0,043
-373,058	800,000	-0,033	-0,079
-372,044	800,000	0,042	0,093
-371,029	-94,239	-0,148	-0,029
-370,015	-200,000	-0,029	-0,112
-369,000	800,000	-0,060	-0,130
-367,985	-160,894	-0,110	0,004
-366,971	-90,990	0,084	-0,018
-365,956	-127,974	-0,080	0,008
-364,942	-200,000	0,020	0,131
-363,927	-59,950	0,052	0,016
-362,912	48,843	-0,047	-0,032
-361,898	57,898	0,039	-0,028
-360,883	632,560	-0,082	-0,153
-359,869	-10,974	0,018	-0,008
-358,854	800,000	-0,015	0,046
-357,839	-200,000	0,001	-0,040
-356,825	103,117	0,034	-0,030
-355,810	800,000	-0,013	-0,030
-354,796	759,026	-0,035	0,070
-353,781	274,583	-0,060	-0,078
-352,766	-200,000	-0,076	-0,267
-351,752	403,272	-0,047	-0,072
-350,737	-200,000	-0,003	0,012
-349,723	65,089	-0,017	0,012
-348,708	94,701	-0,027	-0,023
-347,693	-162,934	0,103	-0,004
-346,679	-118,051	0,071	0,009
-345,664	189,673	0,046	-0,050
-344,650	-200,000	0,025	-0,171
-343,635	-116,385	0,041	-0,006
-342,620	-61,920	0,161	-0,049
-341,606	363,113	0,089	0,131
-340,591	-6,967	-0,082	0,041
-339,577	144,049	-0,157	-0,154
-338,562	800,000	-0,068	-0,150
-337,548	104,091	0,150	-0,130
-336,533	-200,000	-0,028	0,094
-335,518	-200,000	-0,013	-0,085
-334,504	-200,000	-0,003	0,036
-333,489	-63,284	0,161	-0,048
-332,475	391,539	-0,021	0,032
-331,460	-180,555	-0,135	-0,002
-330,445	-194,368	-0,028	0,000
-329,431	800,000	-0,020	-0,057
-328,416	-150,221	-0,104	-0,006
-327,402	394,368	0,024	0,037
-326,387	-200,000	-0,005	0,109
-325,372	20,412	-0,100	0,059
-324,358	351,250	-0,056	-0,081
-323,343	-200,000	-0,005	0,032
-322,329	-200,000	0,027	-0,104
-321,314	191,402	0,086	0,095
-320,299	63,031	-0,060	-0,044
-319,285	491,814	0,035	0,059
-318,270	800,000	-0,037	-0,107
-317,256	-118,279	-0,072	0,009
-316,241	704,075	0,029	-0,057
-315,226	-200,000	-0,001	0,019
-314,212	800,000	0,033	0,085
-313,197	-1,525	-0,026	-0,013
-312,183	-149,179	-0,063	0,004
-311,168	-27,477	-0,056	-0,024
-310,153	-29,977	0,083	-0,035
-309,139	-30,600	0,075	0,031
-308,124	-148,235	0,075	0,004
-307,110	4,870	0,120	0,064
-306,095	800,000	0,023	-0,073
-305,080	40,625	0,094	-0,062
-304,066	352,266	-0,097	0,141
-303,051	800,000	0,017	-0,047
-302,037	-200,000	-0,005	-0,038
-301,022	-62,489	0,082	-0,025
-300,008	-200,000	-0,003	0,016
-298,993	-200,000	0,015	0,095
-297,978	800,000	0,027	0,071
-296,964	-200,000	0,005	0,064
-295,949	270,529	0,016	-0,021
-294,935	-200,000	0,000	-0,063
-293,920	800,000	-0,009	0,028
-292,905	148,449	0,084	-0,083
-291,891	-73,806	0,045	-0,012
-290,876	55,615	-0,074	0,053
-289,862	334,062	0,065	0,092
-288,847	21,205	-0,083	0,049
-287,832	800,000	0,034	-0,085
-286,818	800,000	0,052	-0,126
-285,803	-200,000	0,046	0,167
-284,789	-200,000	0,011	0,151
-283,774	800,000	-0,034	0,107
-282,759	205,012	-0,016	0,019
-281,745	-118,513	0,129	0,016
-280,730	-200,000	0,013	0,089
-279,716	-200,000	0,012	0,071
-278,701	156,274	-0,018	-0,019
-277,686	800,000	0,035	0,080
-276,672	-200,000	-0,015	0,120
-275,657	-152,705	0,138	-0,007
-274,643	-200,000	0,005	-0,073
-273,628	277,008	-0,068	-0,089
-272,613	11,823	-0,116	-0,065
-271,599	232,131	0,079	0,096
-270,584	-13,655	0,169	-0,080
-269,570	97,603	-0,118	0,099
-268,555	-200,000	0,021	0,230
-267,540	-200,000	-0,015	-0,112
-266,526	182,742	-0,012	0,013
-265,511	99,012	0,068	0,057
-264,497	534,381	-0,062	-0,108
-263,482	-200,000	-0,002	-0,046
-262,467	-200,000	0,035	0,138
-261,453	-200,000	-0,016	0,128
-260,438	-200,000	-0,019	-0,127
-259,424	608,195	-0,051	0,094
-258,409	516,557	0,077	-0,133
-257,395	-200,000	0,009	-0,131
-256,380	-85,940	-0,096	-0,022
-255,365	-200,000	-0,009	0,098
-254,351	-200,000	0,006	-0,037
-253,336	-61,966	0,012	-0,004
-252,322	-200,000	-0,020	0,103
-251,307	-180,709	0,063	0,001
-250,292	228,498	-0,073	-0,087
-249,278	-96,032	-0,034	0,007
-248,263	-200,000	0,003	0,100
-247,249	800,000	0,026	0,082
-246,234	-200,000	0,007	0,049
-245,219	800,000	-0,015	-0,039
-244,205	181,311	0,092	-0,099
-243,190	800,000	0,043	0,119
-242,176	-61,815	0,100	-0,030
-241,161	-200,000	0,049	0,190
-240,146	-130,921	0,148	0,014
-239,132	219,040	0,048	0,056
-238,117	182,810	-0,081	0,088
-237,103	60,150	-0,089	-0,065
-236,088	-146,811	-0,088	0,005
-235,073	3,988	0,056	0,030
-234,059	-200,000	-0,002	0,077
-233,044	-200,000	0,012	0,144
-232,030	86,862	0,092	0,074
-231,015	-200,000	-0,011	-0,076
-230,000	-200,000	-0,019	-0,077
-228,986	49,759	0,077	-0,053
-227,971	-200,000	0,030	-0,118
-226,957	-200,000	-0,006	-0,109
-225,942	72,823	-0,137	0,104
-224,927	214,983	0,092	0,107
-223,913	198,832	-0,169	-0,189
-222,898	-200,000	-0,002	-0,139
-221,884	-200,000	-0,002	0,064
-220,869	-11,520	0,086	0,041
-219,855	-200,000	-0,036	0,119
-218,840	-200,000	0,004	-0,028
-217,825	-73,705	0,018	-0,005
-216,811	332,478	-0,065	0,092
-215,796	538,805	-0,057	-0,100
-214,782	-73,981	-0,054	0,014
-213,767	95,403	-0,041	0,034
-212,752	-120,248	-0,023	0,003
-211,738	731,972	0,049	-0,097
-210,723	-3,899	0,099	-0,050
-209,709	-117,864	-0,195	0,025
-208,694	800,000	-0,048	-0,103
-207,679	-43,139	0,038	0,014
-206,665	206,046	-0,048	0,054
-205,650	800,000	0,055	0,167
-204,636	682,364	-0,036	0,069
-203,621	307,505	-0,029	-0,040
-202,606	731,064	-0,012	-0,023
-201,592	119,667	-0,125	0,113
-200,577	61,711	-0,100	-0,072
-199,563	-127,876	-0,072	0,008
-198,548	190,906	0,055	0,060
-197,533	204,071	0,063	0,071
-196,519	521,004	-0,042	0,071
-195,504	-200,000	-0,006	-0,087
-194,490	136,321	-0,091	0,087
-193,475	800,000	0,033	0,083
-192,460	-35,584	0,032	0,012
-191,446	800,000	0,004	-0,011
-190,431	20,969	0,059	0,035
-189,417	542,356	0,043	0,075
-188,402	-200,000	-0,027	-0,141
-187,387	187,498	-0,127	-0,139
-186,373	-200,000	-0,028	-0,188
-185,358	-200,000	0,000	-0,125
-184,344	75,007	0,044	0,033
-183,329	195,938	-0,027	-0,030
-182,315	26,699	0,056	-0,034
-181,300	720,385	-0,058	0,113
-180,285	-124,180	-0,129	-0,015
-179,271	-200,000	0,015	0,123
-178,256	-33,343	-0,021	0,008
-177,242	-200,000	-0,016	-0,070
-176,227	-95,799	-0,062	-0,012
-175,212	51,034	0,036	-0,025
-174,198	-200,000	0,001	0,156
-173,183	324,583	0,018	0,026
-172,169	25,308	-0,171	-0,103
-171,154	-56,037	-0,118	0,038
-170,139	208,508	-0,129	0,147
-169,125	614,970	-0,062	0,113
-168,110	800,000	-0,061	0,182
-167,096	-11,407	0,103	0,049
-166,081	-2,644	-0,168	0,085
-165,066	42,490	-0,208	-0,138
-164,052	-95,200	-0,062	-0,012
-163,037	-200,000	0,018	0,076
-162,023	-60,238	0,202	-0,062
-161,008	65,506	0,011	-0,008
-159,993	-200,000	-0,029	-0,168
-158,979	479,818	0,109	0,180
-157,964	164,713	0,091	-0,094
-156,950	-200,000	-0,008	-0,181
-155,935	-153,113	0,087	-0,004
-154,920	800,000	-0,040	-0,086
-153,906	-200,000	0,019	0,184
-152,891	26,488	-0,092	0,056
-151,877	-200,000	-0,012	0,044
-150,862	-200,000	0,010	0,049
-149,847	261,348	-0,113	-0,143
-148,833	131,399	0,086	0,081
-147,818	800,000	-0,026	0,072
-146,804	-63,746	0,042	0,012
-145,789	-200,000	-0,010	-0,151
-144,775	-200,000	-0,037	-0,182
-143,760	-6,946	-0,162	0,080
-142,745	16,731	-0,107	-0,061
-141,731	-142,098	-0,114	0,008
-140,716	800,000	0,061	0,132
-139,702	-200,000	-0,002	-0,045
-138,687	709,080	0,017	-0,033
-137,672	311,368	-0,013	0,018
-136,658	800,000	-0,035	-0,102
-135,643	-143,972	-0,078	0,005
-134,629	206,825	0,143	-0,162
-133,614	-39,809	0,028	-0,010
-132,599	340,272	0,092	0,131
-131,585	-11,299	-0,106	0,051
-130,570	800,000	0,054	0,123
-129,556	-200,000	-0,009	0,141
-128,541	380,294	-0,013	0,019
-127,526	96,931	-0,016	-0,013
-126,512	213,723	0,017	0,020
-125,497	-53,557	0,127	0,042
-124,483	-78,173	0,099	0,025
-123,468	-14,881	-0,046	-0,021
-122,453	8,533	-0,087	-0,048
-121,439	-200,000	-0,020	-0,093
-120,424	-200,000	-0,041	-0,222
-119,410	-148,429	0,102	-0,006
