DTS Sentinel unit serial number:	SN410029Multiplexer serial number:	ORYXHardware model number:	OX2-SRSoftware version number:	ORYX F/W v4,00 Oryx Data Collector v3.7.2.0data status	okinstallation	B4 Nyhavnadifferential loss correction	single-endedforward channel	channel 2reverse channel	N/Adate	2023/12/18time	20:10:13forward acquisition time	300,00reverse acquisition time	0,00gamma	499,1914k internal	0,3124k external	0,3124temperature offset calibration	1,0000default loss term (dB/km)	0,3820temperature slope calibration	1,0000multiplexer offset coefficient	1,0000multiplexer slope coefficient	1,0000fibre end	0,00T internal ref (°C)	21,87T ext. ref 1 (°C)	7,08T ext. ref 2 (°C)	7,06length (m)	temperature (°C)	Stokes	anti-Stokes-744,400	-32,072	-0,083	0,034
-743,385	-141,690	-0,151	-0,011
-742,371	271,574	0,074	-0,098
-741,356	549,763	-0,068	0,122
-740,342	800,000	0,039	0,105
-739,327	-3,027	-0,208	0,108
-738,312	-200,000	0,007	-0,077
-737,298	-54,672	-0,234	-0,078
-736,283	-200,000	-0,011	0,047
-735,269	75,656	-0,215	0,169
-734,254	-200,000	0,002	-0,063
-733,239	-40,988	-0,420	-0,161
-732,225	-200,000	0,008	0,037
-731,210	88,033	0,086	0,071
-730,196	151,109	0,079	-0,080
-729,181	465,549	-0,029	0,049
-728,167	80,832	-0,148	-0,119
-727,152	-1,025	-0,021	-0,011
-726,137	800,000	-0,009	-0,030
-725,123	-70,010	-0,097	0,027
-724,108	-200,000	0,043	-0,209
-723,094	800,000	0,013	-0,042
-722,079	-32,033	-0,096	-0,040
-721,064	158,383	-0,068	-0,071
-720,050	184,065	-0,083	0,092
-719,035	52,822	-0,080	0,057
-718,021	800,000	0,016	-0,053
-717,006	-117,663	-0,223	-0,030
-715,991	158,235	-0,078	-0,081
-714,977	-60,191	-0,100	-0,032
-713,962	800,000	-0,046	-0,101
-712,948	-143,448	0,103	0,007
-711,933	-200,000	0,009	0,079
-710,918	27,278	-0,071	-0,045
-709,904	800,000	-0,023	-0,073
-708,889	-140,035	-0,187	0,014
-707,875	800,000	-0,066	-0,142
-706,860	-70,268	-0,174	-0,049
-705,845	-200,000	-0,005	-0,125
-704,831	14,817	0,030	0,017
-703,816	800,000	-0,027	0,066
-702,802	800,000	-0,006	0,013
-701,787	-46,180	-0,213	-0,077
-700,772	-200,000	0,013	-0,201
-699,758	-30,887	-0,138	-0,058
-698,743	396,885	0,033	0,052
-697,729	800,000	-0,029	0,088
-696,714	-13,240	-0,041	-0,020
-695,699	-74,389	-0,112	0,030
-694,685	-7,181	0,125	0,063
-693,670	800,000	-0,069	-0,212
-692,656	800,000	0,038	-0,083
-691,641	800,000	0,062	-0,180
-690,627	-200,000	0,009	-0,073
-689,612	800,000	-0,059	-0,160
-688,597	-200,000	-0,001	-0,123
-687,583	35,557	0,122	-0,080
-686,568	-93,757	-0,134	-0,027
-685,554	81,922	0,048	-0,039
-684,539	265,317	-0,009	-0,011
-683,524	-200,000	-0,028	0,098
-682,510	566,739	0,033	0,059
-681,495	-200,000	0,008	-0,149
-680,481	48,103	-0,045	-0,031
-679,466	440,675	0,033	-0,053
-678,451	374,017	0,100	-0,152
-677,437	-85,241	0,025	0,006
-676,422	-200,000	0,010	0,044
-675,408	310,775	-0,028	0,039
-674,393	25,650	-0,092	-0,057
-673,378	-200,000	0,008	-0,048
-672,364	800,000	0,019	-0,042
-671,349	-103,190	-0,096	-0,017
-670,335	66,409	0,071	0,053
-669,320	-53,595	-0,063	-0,021
-668,305	170,910	0,038	0,041
-667,291	-200,000	-0,035	0,144
-666,276	209,546	-0,113	-0,132
-665,262	218,486	0,055	0,066
-664,247	76,142	-0,055	0,043
-663,232	-200,000	-0,010	-0,057
-662,218	-200,000	-0,031	0,104
-661,203	-174,131	0,070	-0,001
-660,189	-30,853	0,042	-0,018
-659,174	104,507	-0,079	0,069
-658,159	-200,000	0,002	-0,020
-657,145	106,502	0,122	0,108
-656,130	72,042	0,061	-0,047
-655,116	10,261	-0,226	0,127
-654,101	-200,000	-0,013	0,066
-653,086	-200,000	0,022	0,083
-652,072	-39,277	-0,080	0,031
-651,057	93,664	-0,058	0,049
-650,043	160,487	-0,069	-0,071
-649,028	-175,884	-0,110	-0,002
-648,014	800,000	0,009	0,026
-646,999	77,597	0,062	-0,049
-645,984	95,044	0,044	0,037
-644,970	-200,000	0,019	-0,099
-643,955	471,197	-0,063	-0,106
-642,941	-3,389	0,046	-0,024
-641,926	800,000	0,010	0,031
-640,911	800,000	-0,031	0,074
-639,897	50,438	0,030	-0,021
-638,882	-77,036	0,143	0,037
-637,868	-137,295	0,050	0,004
-636,853	-200,000	-0,016	-0,097
-635,838	-96,904	0,064	-0,012
-634,824	-154,280	0,151	-0,007
-633,809	280,340	0,054	0,072
-632,795	-200,000	-0,045	0,163
-631,780	-89,248	-0,085	0,018
-630,765	-125,667	0,031	0,003
-629,751	-200,000	-0,030	-0,127
-628,736	27,576	0,022	-0,014
-627,722	-200,000	-0,006	-0,044
-626,707	-200,000	-0,015	0,073
-625,692	-46,057	-0,095	-0,035
-624,678	-200,000	-0,001	-0,044
-623,663	66,189	-0,128	0,096
-622,649	-92,974	-0,098	-0,020
-621,634	-200,000	0,006	0,061
-620,619	-200,000	-0,035	-0,124
-619,605	-97,993	0,138	0,026
-618,590	40,991	-0,036	0,024
-617,576	286,895	0,047	0,063
-616,561	-81,462	-0,119	0,029
-615,546	-38,988	-0,167	0,065
-614,532	568,013	0,073	-0,133
-613,517	-8,810	-0,108	-0,054
-612,503	44,028	-0,110	-0,075
-611,488	-200,000	0,025	-0,129
-610,474	17,407	0,189	-0,111
-609,459	126,371	-0,067	0,062
-608,444	466,250	-0,041	-0,069
-607,430	-200,000	-0,026	-0,135
-606,415	393,335	-0,073	0,112
-605,401	-200,000	0,001	0,023
-604,386	468,207	-0,032	0,054
-603,371	-200,000	-0,017	0,077
-602,357	800,000	-0,047	-0,139
-601,342	255,266	-0,050	-0,063
-600,328	27,416	-0,115	0,072
-599,313	-200,000	-0,013	-0,044
-598,298	-95,507	0,052	0,010
-597,284	-94,925	-0,107	0,021
-596,269	-154,900	0,010	0,000
-595,255	-200,000	-0,023	-0,111
-594,240	800,000	-0,030	-0,098
-593,225	-39,894	0,042	-0,016
-592,211	-200,000	-0,017	0,081
-591,196	-162,690	0,126	0,005
-590,182	-102,686	0,017	0,003
-589,167	-200,000	-0,004	0,054
-588,152	-200,000	0,005	-0,087
-587,138	-4,196	-0,071	-0,036
-586,123	800,000	-0,038	-0,112
-585,109	381,961	0,073	-0,112
-584,094	-30,657	-0,043	-0,018
-583,079	-200,000	0,025	0,086
-582,065	68,383	0,088	-0,067
-581,050	27,108	0,047	0,029
-580,036	-102,115	-0,071	-0,012
-579,021	-158,224	-0,035	0,001
-578,006	224,714	-0,061	-0,074
-576,992	-200,000	0,011	-0,042
-575,977	-45,871	-0,082	-0,030
-574,963	252,045	0,133	0,167
-573,948	212,293	0,087	-0,102
-572,934	148,651	-0,054	-0,054
-571,919	-200,000	0,000	0,015
-570,904	-149,931	-0,067	-0,004
-569,890	618,506	-0,019	0,035
-568,875	206,055	0,025	-0,029
-567,861	-200,000	0,030	0,107
-566,846	-72,862	0,135	0,037
-565,831	38,250	-0,064	-0,042
-564,817	-135,676	-0,113	-0,010
-563,802	800,000	0,012	0,025
-562,788	-142,258	0,027	0,002
-561,773	-200,000	-0,038	0,143
-560,758	137,998	-0,084	0,081
-559,744	-200,000	0,019	0,117
-558,729	81,670	0,104	-0,083
-557,715	8,873	-0,086	-0,048
-556,700	-200,000	-0,003	0,094
-555,685	-200,000	0,003	-0,057
-554,671	210,475	0,099	-0,115
-553,656	370,129	0,050	-0,076
-552,642	0,350	0,045	0,024
-551,627	-104,768	-0,201	0,034
-550,612	-33,296	-0,070	0,028
-549,598	510,155	-0,017	0,029
-548,583	496,743	-0,086	-0,147
-547,569	-200,000	-0,011	0,039
-546,554	-200,000	-0,008	-0,030
-545,539	-200,000	-0,023	0,102
-544,525	38,977	0,073	0,048
-543,510	-106,501	-0,091	0,015
-542,496	258,063	0,039	-0,049
-541,481	-200,000	0,003	-0,124
-540,466	800,000	0,025	-0,059
-539,452	-102,493	0,108	0,019
-538,437	131,531	0,127	-0,121
-537,423	98,864	-0,011	-0,009
-536,408	295,184	-0,025	0,035
-535,393	-165,834	0,127	-0,004
-534,379	-108,126	0,039	-0,006
-533,364	586,820	-0,047	-0,087
-532,350	-200,000	0,002	0,058
-531,335	75,297	0,051	0,040
-530,321	105,300	0,058	-0,051
-529,306	-200,000	-0,031	-0,121
-528,291	-94,894	-0,098	-0,019
-527,277	214,536	-0,088	0,103
-526,262	-118,938	0,148	-0,019
-525,248	377,215	0,060	0,091
-524,233	-4,807	-0,033	0,017
-523,218	200,122	0,106	-0,120
-522,204	300,454	0,027	-0,037
-521,189	-200,000	0,007	-0,071
-520,175	-119,267	-0,013	0,002
-519,160	-200,000	0,018	-0,097
-518,145	483,544	0,028	0,047
-517,131	-67,497	0,094	-0,027
-516,116	563,815	0,092	-0,166
-515,102	-200,000	-0,019	0,136
-514,087	130,306	0,038	-0,036
-513,072	800,000	-0,042	-0,110
-512,058	-132,590	0,135	0,013
-511,043	800,000	-0,057	0,178
-510,029	-75,795	0,174	0,045
-509,014	-26,612	0,166	0,072
-507,999	57,287	-0,024	0,017
-506,985	300,346	-0,097	-0,132
-505,970	136,277	-0,044	0,043
-504,956	-200,000	0,004	-0,042
-503,941	-60,472	0,075	0,023
-502,926	254,556	-0,066	0,083
-501,912	-138,875	-0,039	-0,003
-500,897	83,502	-0,070	0,056
-499,883	-107,185	-0,045	0,007
-498,868	587,632	-0,087	-0,158
-497,853	-47,226	-0,079	0,028
-496,839	-11,747	0,034	-0,017
-495,824	10,343	0,108	0,060
-494,810	197,073	0,047	-0,053
-493,795	143,953	0,059	0,058
-492,781	81,297	0,076	-0,061
-491,766	-200,000	-0,010	-0,199
-490,751	310,441	0,063	-0,088
-489,737	92,426	0,081	-0,067
-488,722	25,781	0,094	-0,058
-487,708	18,383	0,025	0,015
-486,693	800,000	-0,007	-0,016
-485,678	-122,213	0,083	0,010
-484,664	306,104	0,079	-0,108
-483,649	-23,050	-0,061	0,027
-482,635	308,805	0,020	-0,028
-481,620	-96,459	0,225	0,043
-480,605	-101,996	-0,126	0,022
-479,591	800,000	-0,037	0,091
-478,576	800,000	-0,018	0,051
-477,562	103,422	0,043	0,037
-476,547	153,037	-0,078	0,078
-475,532	800,000	-0,013	-0,035
-474,518	177,187	-0,011	0,012
-473,503	-200,000	-0,014	0,159
-472,489	26,582	0,035	0,022
-471,474	-200,000	0,019	0,096
-470,459	-17,935	0,160	-0,074
-469,445	-200,000	0,011	-0,107
-468,430	122,274	0,013	-0,012
-467,416	409,547	-0,033	-0,052
-466,401	800,000	0,022	0,053
-465,386	365,216	0,016	-0,023
-464,372	-49,573	0,013	-0,005
-463,357	-9,749	-0,106	-0,052
-462,343	-200,000	0,011	-0,057
-461,328	800,000	-0,025	0,062
-460,313	-200,000	0,008	0,045
-459,299	438,204	-0,046	-0,074
-458,284	800,000	0,022	0,057
-457,270	-200,000	0,034	-0,116
-456,255	-98,731	0,068	0,013
-455,241	-129,189	-0,229	-0,023
-454,226	-5,269	-0,046	-0,023
-453,211	-21,130	-0,062	0,028
-452,197	-200,000	0,005	0,019
-451,182	-110,766	-0,105	0,016
-450,168	703,350	-0,089	-0,173
-449,153	-133,330	0,068	-0,006
-448,138	37,692	0,094	0,062
-447,124	-27,953	-0,080	0,034
-446,109	-45,917	0,083	-0,030
-445,095	800,000	0,035	-0,084
-444,080	22,466	0,089	0,053
-443,065	-130,542	-0,160	0,016
-442,051	-21,208	0,065	0,029
-441,036	156,017	-0,050	-0,051
-440,022	800,000	0,046	-0,106
-439,007	-11,096	0,043	0,021
-437,992	800,000	-0,055	-0,162
-436,978	478,095	0,081	0,136
-435,963	758,558	-0,059	0,118
-434,949	294,274	-0,099	-0,133
-433,934	-93,555	-0,094	0,019
-432,919	800,000	-0,055	0,127
-431,905	238,608	0,081	0,100
-430,890	509,624	0,024	0,041
-429,876	49,310	0,110	0,076
-428,861	154,520	0,047	-0,047
-427,846	25,487	0,103	0,063
-426,832	-20,921	-0,037	0,017
-425,817	-200,000	0,004	-0,020
-424,803	-39,259	0,099	-0,038
-423,788	-200,000	-0,031	0,143
-422,773	-87,934	0,066	-0,014
-421,759	259,432	-0,031	-0,040
-420,744	-160,960	-0,103	-0,004
-419,730	-34,921	0,090	-0,036
-418,715	28,990	-0,135	-0,084
-417,701	289,231	0,034	0,046
-416,686	800,000	0,040	0,112
-415,671	800,000	0,071	0,179
-414,657	800,000	0,018	0,046
-413,642	738,519	0,127	0,252
-412,628	206,487	-0,018	0,020
-411,613	10,031	-0,198	-0,110
-410,598	312,566	-0,046	0,064
-409,584	800,000	0,023	0,071
-408,569	9,105	0,109	0,061
-407,555	-200,000	0,016	-0,053
-406,540	-13,473	0,030	-0,014
-405,525	-200,000	-0,006	-0,095
-404,511	-200,000	-0,020	-0,146
-403,496	800,000	-0,086	-0,187
-402,482	546,532	-0,060	0,106
-401,467	219,446	0,032	0,038
-400,452	179,756	0,056	0,060
-399,438	-39,659	-0,122	0,047
-398,423	73,820	-0,044	0,034
-397,409	734,290	-0,075	-0,147
-396,394	-23,622	-0,172	-0,076
-395,379	-54,483	-0,107	0,036
-394,365	30,442	0,144	0,090
-393,350	-5,713	0,164	0,083
-392,336	-200,000	0,003	-0,028
-391,321	381,943	-0,062	-0,094
-390,306	-200,000	-0,029	-0,173
-389,292	800,000	0,019	-0,055
-388,277	800,000	-0,018	0,052
-387,263	-141,301	-0,067	-0,005
-386,248	149,704	0,062	-0,062
-385,233	-200,000	-0,016	-0,063
-384,219	317,043	0,079	0,109
-383,204	-167,983	-0,143	0,004
-382,190	720,346	-0,021	-0,042
-381,175	243,738	0,069	-0,086
-380,160	-115,969	0,077	0,010
-379,146	-46,161	-0,047	-0,017
-378,131	-104,871	0,066	-0,011
-377,117	163,547	-0,140	-0,144
-376,102	-200,000	0,006	0,042
-375,088	254,749	-0,086	-0,108
-374,073	232,899	-0,033	-0,040
-373,058	-200,000	-0,003	0,028
-372,044	-200,000	-0,016	0,067
-371,029	-200,000	0,000	0,141
-370,015	201,316	0,073	0,083
-369,000	180,997	-0,147	-0,159
-367,985	-200,000	0,012	-0,135
-366,971	-157,782	-0,006	0,000
-365,956	139,391	-0,042	0,041
-364,942	-200,000	0,037	0,164
-363,927	194,207	0,053	0,060
-362,912	237,107	-0,070	-0,085
-361,898	156,191	0,080	-0,081
-360,883	39,388	-0,064	0,042
-359,869	179,377	0,051	-0,055
-358,854	-6,431	0,132	-0,066
-357,839	800,000	0,017	0,039
-356,825	-85,169	-0,064	0,014
-355,810	299,487	0,133	-0,180
-354,796	-200,000	0,009	-0,056
-353,781	156,520	0,035	0,035
-352,766	56,130	-0,120	0,085
-351,752	-200,000	0,002	-0,077
-350,737	197,763	0,120	0,135
-349,723	79,089	0,076	0,059
-348,708	-200,000	-0,001	0,044
-347,693	23,914	-0,107	-0,065
-346,679	-200,000	-0,001	0,040
-345,664	-8,053	-0,115	0,057
-344,650	-87,086	0,092	0,020
-343,635	-200,000	0,037	0,193
-342,620	58,403	-0,087	0,062
-341,606	474,519	-0,060	0,099
-340,591	240,147	0,039	-0,048
-339,577	800,000	-0,057	-0,175
-338,562	42,191	-0,007	0,004
-337,548	504,146	-0,060	0,102
-336,533	800,000	-0,051	0,124
-335,518	272,998	-0,102	0,132
-334,504	144,201	-0,074	0,072
-333,489	483,990	0,025	-0,042
-332,475	-200,000	-0,027	-0,108
-331,460	-140,336	-0,149	-0,011
-330,445	-123,029	-0,094	0,011
-329,431	-86,618	0,065	0,014
-328,416	-200,000	-0,004	-0,034
-327,402	516,250	-0,040	-0,069
-326,387	-200,000	-0,004	-0,019
-325,372	117,686	0,146	-0,132
-324,358	0,041	-0,125	-0,065
-323,343	-18,907	0,021	-0,010
-322,329	-118,177	0,066	0,009
-321,314	-200,000	-0,019	-0,101
-320,299	261,252	0,081	0,103
-319,285	529,746	-0,019	-0,033
-318,270	29,108	-0,047	-0,029
-317,256	-200,000	0,005	-0,057
-316,241	195,531	0,099	-0,111
-315,226	27,018	0,073	-0,045
-314,212	119,370	-0,086	0,078
-313,197	-194,051	-0,124	0,001
-312,183	125,115	-0,056	0,051
-311,168	2,194	-0,067	-0,035
-310,153	-42,534	-0,092	0,034
-309,139	211,638	0,057	-0,066
-308,124	670,196	0,068	0,130
-307,110	50,493	0,151	-0,104
-306,095	189,933	0,046	-0,051
-305,080	258,475	-0,026	0,032
-304,066	-200,000	-0,021	-0,125
-303,051	-73,891	0,103	0,027
-302,037	418,285	0,038	0,060
-301,022	361,522	-0,061	0,090
-300,008	-17,409	0,135	0,062
-298,993	193,005	0,103	0,114
-297,978	-200,000	0,014	0,060
-296,964	-26,196	-0,044	-0,019
-295,949	-60,524	0,056	0,017
-294,935	-90,387	-0,144	-0,030
-293,920	131,919	0,095	0,089
-292,905	345,945	0,096	0,138
-291,891	-173,831	0,050	-0,001
-290,876	45,073	-0,014	0,010
-289,862	-13,037	0,175	0,083
-288,847	167,582	-0,083	0,087
-287,832	-78,198	-0,053	-0,013
-286,818	800,000	0,010	0,021
-285,803	571,265	-0,011	0,020
-284,789	270,273	0,110	0,142
-283,774	-74,804	0,165	-0,043
-282,759	-200,000	0,025	-0,128
-281,745	758,967	0,039	0,077
-280,730	-106,869	0,023	0,004
-279,716	281,160	0,022	0,028
-278,701	-79,658	0,112	-0,027
-277,686	800,000	0,038	0,078
-276,672	71,748	0,064	0,048
-275,657	-200,000	-0,013	-0,081
-274,643	-200,000	-0,007	-0,121
-273,628	210,583	-0,103	-0,119
-272,613	-200,000	-0,004	0,046
-271,599	104,931	0,029	-0,025
-270,584	-110,643	-0,073	0,011
-269,570	-109,030	-0,094	-0,015
-268,555	-39,858	-0,126	0,048
-267,540	112,524	0,101	0,089
-266,526	800,000	-0,048	-0,099
-265,511	100,031	-0,057	-0,048
-264,497	-200,000	0,010	0,142
-263,482	-200,000	0,004	0,027
-262,467	-200,000	0,029	0,198
-261,453	36,736	0,031	-0,020
-260,438	681,834	-0,029	0,055
-259,424	234,765	0,055	0,066
-258,409	-200,000	-0,031	-0,105
-257,395	-200,000	-0,003	0,065
-256,380	164,780	0,058	0,060
-255,365	-200,000	0,028	-0,154
-254,351	35,719	-0,042	-0,027
-253,336	170,290	0,034	0,035
-252,322	-200,000	0,007	-0,076
-251,307	-200,000	0,012	0,088
-250,292	800,000	0,065	0,140
-249,278	-78,150	-0,085	-0,021
-248,263	-200,000	-0,028	0,094
-247,249	800,000	0,050	0,121
-246,234	-39,187	0,099	-0,038
-245,219	-200,000	-0,014	0,087
-244,205	-71,094	-0,055	-0,015
-243,190	119,427	-0,050	-0,045
-242,176	800,000	-0,006	0,014
-241,161	-49,171	0,054	0,019
-240,146	800,000	-0,029	-0,077
-239,132	126,541	0,026	-0,024
-238,117	-144,006	-0,027	0,002
-237,103	68,287	0,029	-0,021
-236,088	800,000	0,007	-0,014
-235,073	-200,000	0,032	0,261
-234,059	-200,000	0,004	0,048
-233,044	-114,326	0,169	-0,024
-232,030	-200,000	0,000	0,042
-231,015	540,456	-0,083	-0,145
-230,000	84,179	-0,223	-0,178
-228,986	313,935	-0,069	-0,095
-227,971	-200,000	-0,004	0,104
-226,957	278,905	-0,033	0,043
-225,942	-74,306	0,097	0,025
-224,927	81,962	0,022	0,018
-223,913	71,635	-0,110	-0,084
-222,898	-43,389	0,125	0,046
-221,884	451,891	0,054	0,088
-220,869	16,967	0,131	0,076
-219,855	-200,000	-0,013	0,072
-218,840	-200,000	0,028	0,157
-217,825	-102,570	0,069	-0,012
-216,811	-124,317	-0,100	0,011
-215,796	-5,559	-0,016	0,008
-214,782	-104,509	-0,051	0,009
-213,767	617,287	-0,016	0,030
-212,752	385,109	0,050	-0,076
-211,738	-60,645	0,102	-0,031
-210,723	180,741	-0,120	-0,129
-209,709	24,700	-0,035	-0,021
-208,694	-200,000	-0,000	-0,068
-207,679	-82,102	-0,224	-0,053
-206,665	-3,773	-0,074	0,038
-205,650	-85,247	0,076	-0,017
-204,636	-200,000	0,002	0,076
-203,621	-87,746	0,095	-0,021
-202,606	48,875	-0,015	-0,010
-201,592	-52,056	-0,161	-0,054
-200,577	-200,000	-0,003	0,051
-199,563	-200,000	0,001	0,051
-198,548	36,080	0,123	0,079
-197,533	-83,361	-0,074	-0,017
-196,519	100,938	0,074	-0,063
-195,504	221,039	-0,066	0,078
-194,490	-53,930	0,070	0,023
-193,475	62,363	-0,088	0,064
-192,460	142,300	-0,110	0,107
-191,446	-200,000	0,014	-0,117
-190,431	800,000	-0,036	0,081
-189,417	800,000	-0,017	0,043
-188,402	-200,000	0,000	-0,048
-187,387	-200,000	-0,006	-0,078
-186,373	-128,042	0,060	-0,006
-185,358	-131,796	-0,056	-0,005
-184,344	-200,000	0,015	0,080
-183,329	-200,000	0,007	0,027
-182,315	800,000	-0,020	0,056
-181,300	621,303	0,057	-0,105
-180,285	34,541	0,075	0,048
-179,271	-200,000	-0,018	0,067
-178,256	59,252	-0,116	-0,083
-177,242	8,288	0,101	-0,055
-176,227	-200,000	-0,002	0,045
-175,212	152,014	-0,103	0,103
-174,198	222,229	0,051	0,060
-173,183	142,592	-0,067	-0,065
-172,169	800,000	0,028	-0,077
-171,154	-56,649	0,122	-0,039
-170,139	-200,000	-0,012	-0,109
-169,125	171,231	-0,079	0,083
-168,110	240,365	-0,060	-0,073
-167,096	-135,112	-0,078	-0,007
-166,081	410,523	-0,064	0,098
-165,066	-200,000	-0,015	0,056
-164,052	177,767	-0,020	0,021
-163,037	-82,024	0,129	-0,030
-162,023	33,157	0,049	0,031
-161,008	-50,270	0,061	-0,021
-159,993	-7,025	-0,068	-0,034
-158,979	800,000	-0,005	-0,014
-157,964	199,424	-0,141	-0,157
-156,950	-43,422	-0,026	-0,010
-155,935	52,031	0,060	-0,041
-154,920	462,297	-0,026	0,042
-153,906	800,000	-0,020	0,041
-152,891	800,000	-0,047	0,106
-151,877	800,000	0,027	0,059
-150,862	-25,983	-0,122	0,052
-149,847	317,011	-0,076	-0,105
-148,833	-110,849	-0,085	0,013
-147,818	13,778	0,060	0,034
-146,804	-200,000	0,001	-0,015
-145,789	24,001	0,094	-0,056
-144,775	-41,336	0,027	-0,010
-143,760	-200,000	-0,018	-0,150
-142,745	486,884	-0,055	-0,091
-141,731	116,947	0,094	0,084
-140,716	800,000	0,017	0,036
-139,702	-104,178	-0,043	0,007
-138,687	40,467	-0,070	0,046
-137,672	-200,000	-0,027	-0,089
-136,658	59,016	-0,109	-0,078
-135,643	55,643	0,027	-0,019
-134,629	237,304	0,041	-0,049
-133,614	-200,000	0,031	0,110
-132,599	800,000	0,039	-0,089
-131,585	68,719	-0,057	-0,043
-130,570	81,526	0,026	-0,021
-129,556	74,658	0,065	-0,050
-128,541	800,000	-0,085	-0,175
-127,526	800,000	-0,019	-0,047
-126,512	-103,681	0,052	0,009
-125,497	364,532	-0,094	0,137
-124,483	-142,231	0,194	0,014
-123,468	19,137	-0,064	-0,037
-122,453	-17,776	-0,172	-0,078
-121,439	17,484	0,095	0,055
-120,424	-40,510	-0,055	0,021
-119,410	-30,006	-0,011	0,005
