DTS Sentinel unit serial number:	SN410029Multiplexer serial number:	ORYXHardware model number:	OX2-SRSoftware version number:	ORYX F/W v4,00 Oryx Data Collector v3.7.2.0data status	okinstallation	B4 Nyhavnadifferential loss correction	single-endedforward channel	channel 2reverse channel	N/Adate	2023/12/15time	21:35:13forward acquisition time	300,00reverse acquisition time	0,00gamma	499,1914k internal	0,3133k external	0,3133temperature offset calibration	1,0000default loss term (dB/km)	0,3820temperature slope calibration	1,0000multiplexer offset coefficient	1,0000multiplexer slope coefficient	1,0000fibre end	0,00T internal ref (°C)	21,01T ext. ref 1 (°C)	6,35T ext. ref 2 (°C)	6,52length (m)	temperature (°C)	Stokes	anti-Stokes-744,400	-200,000	-0,003	-0,167
-743,385	-122,278	-0,262	0,031
-742,371	422,681	0,067	0,107
-741,356	-200,000	0,012	0,107
-740,342	-107,034	-0,099	-0,016
-739,327	-151,524	-0,066	0,004
-738,312	800,000	0,018	-0,058
-737,298	99,543	-0,193	0,166
-736,283	475,865	0,147	-0,248
-735,269	-144,454	-0,272	0,018
-734,254	69,631	0,111	0,085
-733,239	-33,096	-0,379	-0,155
-732,225	800,000	0,046	0,144
-731,210	85,810	0,079	0,065
-730,196	-71,989	0,042	0,011
-729,181	595,231	-0,066	-0,122
-728,167	-200,000	-0,025	-0,102
-727,152	461,874	0,073	-0,122
-726,137	29,297	-0,061	-0,038
-725,123	141,112	-0,104	-0,102
-724,108	-200,000	-0,017	-0,187
-723,094	-200,000	-0,011	-0,190
-722,079	-185,974	0,063	-0,001
-721,064	-200,000	0,003	0,054
-720,050	-53,791	0,115	-0,039
-719,035	90,816	0,046	0,038
-718,021	-200,000	0,003	-0,071
-717,006	83,117	-0,133	-0,107
-715,991	-22,362	-0,119	0,053
-714,977	621,890	0,021	-0,040
-713,962	-200,000	-0,031	-0,154
-712,948	383,564	0,084	0,128
-711,933	-11,635	0,058	-0,028
-710,918	82,608	-0,066	-0,054
-709,904	121,399	-0,044	-0,041
-708,889	141,997	-0,047	-0,046
-707,875	498,583	-0,038	-0,066
-706,860	-200,000	-0,004	-0,019
-705,845	-50,184	-0,078	0,027
-704,831	8,160	0,099	-0,055
-703,816	-47,320	-0,101	-0,036
-702,802	-168,624	0,125	-0,003
-701,787	294,214	-0,030	0,041
-700,772	-200,000	-0,011	-0,055
-699,758	-200,000	-0,011	0,068
-698,743	800,000	0,025	-0,055
-697,729	-79,429	0,224	0,056
-696,714	-79,018	0,068	0,017
-695,699	332,386	-0,026	-0,037
-694,685	800,000	-0,057	-0,129
-693,670	800,000	0,018	0,037
-692,656	102,755	-0,014	-0,012
-691,641	800,000	0,020	0,049
-690,627	-200,000	-0,001	0,069
-689,612	-200,000	-0,003	-0,013
-688,597	281,402	0,015	0,019
-687,583	90,646	-0,075	0,062
-686,568	56,046	-0,033	-0,024
-685,554	91,714	0,101	-0,084
-684,539	-101,338	0,068	0,012
-683,524	-79,938	-0,170	0,042
-682,510	-200,000	0,043	0,222
-681,495	800,000	0,066	-0,186
-680,481	145,750	-0,086	-0,086
-679,466	-200,000	-0,007	0,038
-678,451	-93,663	0,060	-0,012
-677,437	112,184	0,035	0,032
-676,422	-142,093	0,074	0,005
-675,408	45,397	0,096	-0,066
-674,393	-13,189	0,120	0,057
-673,378	-83,086	-0,020	0,005
-672,364	-200,000	-0,026	-0,161
-671,349	-200,000	0,030	-0,161
-670,335	-45,831	0,149	0,054
-669,320	-68,276	0,108	-0,031
-668,305	-104,555	0,092	0,016
-667,291	295,969	0,070	0,095
-666,276	151,893	0,058	-0,058
-665,262	419,514	0,013	0,021
-664,247	-140,438	-0,044	0,003
-663,232	-200,000	0,016	-0,160
-662,218	-107,806	0,110	-0,018
-661,203	-44,304	-0,089	0,033
-660,189	119,735	0,023	-0,021
-659,174	-200,000	-0,011	0,059
-658,159	800,000	0,045	-0,101
-657,145	463,005	-0,075	-0,125
-656,130	-94,483	-0,106	-0,021
-655,116	164,701	-0,083	-0,087
-654,101	35,433	0,073	-0,047
-653,086	2,992	-0,075	-0,040
-652,072	-0,746	-0,078	-0,041
-651,057	800,000	0,053	-0,117
-650,043	544,462	-0,048	0,085
-649,028	-200,000	0,008	0,095
-648,014	435,881	0,093	0,151
-646,999	761,308	0,035	-0,070
-645,984	800,000	-0,074	0,171
-644,970	516,400	-0,052	0,090
-643,955	-200,000	-0,010	0,043
-642,941	-200,000	0,000	0,117
-641,926	800,000	-0,057	-0,145
-640,911	290,278	-0,048	-0,065
-639,897	-136,305	-0,098	0,008
-638,882	-27,605	0,042	0,018
-637,868	141,613	-0,116	-0,114
-636,853	-200,000	-0,046	-0,188
-635,838	1,147	-0,030	-0,016
-634,824	800,000	-0,048	-0,102
-633,809	-200,000	0,012	-0,107
-632,795	-73,226	0,073	0,020
-631,780	31,677	-0,060	0,038
-630,765	51,910	-0,105	0,074
-629,751	139,960	0,037	-0,036
-628,736	663,126	0,053	0,101
-627,722	-200,000	0,002	-0,108
-626,707	-69,749	0,058	-0,016
-625,692	-76,898	0,080	0,021
-624,678	198,292	0,085	0,097
-623,663	800,000	-0,038	0,087
-622,649	-200,000	-0,029	-0,125
-621,634	800,000	-0,018	0,043
-620,619	276,627	-0,063	0,083
-619,605	-200,000	0,009	0,121
-618,590	171,502	0,107	0,114
-617,576	-200,000	-0,007	0,031
-616,561	15,716	-0,081	0,047
-615,546	800,000	0,028	0,059
-614,532	800,000	-0,035	-0,085
-613,517	-100,105	-0,060	-0,011
-612,503	-78,201	-0,073	0,018
-611,488	-5,580	-0,023	-0,012
-610,474	-200,000	0,030	0,125
-609,459	-200,000	-0,014	0,074
-608,444	800,000	-0,032	-0,084
-607,430	650,464	-0,052	-0,098
-606,415	-200,000	0,023	-0,103
-605,401	800,000	-0,033	0,076
-604,386	402,474	-0,046	0,072
-603,371	410,451	-0,039	0,061
-602,357	771,249	-0,036	-0,073
-601,342	-200,000	0,003	-0,009
-600,328	487,603	0,023	-0,039
-599,313	-39,399	-0,071	-0,027
-598,298	148,404	0,101	-0,101
-597,284	-87,280	-0,028	-0,006
-596,269	182,022	-0,063	-0,068
-595,255	-200,000	-0,011	0,049
-594,240	-200,000	-0,026	-0,129
-593,225	-177,551	0,098	-0,002
-592,211	179,512	-0,116	-0,126
-591,196	59,071	-0,022	-0,016
-590,182	309,318	-0,085	-0,118
-589,167	23,182	-0,076	-0,046
-588,152	276,964	-0,032	0,043
-587,138	-83,828	-0,101	0,024
-586,123	-9,314	-0,121	-0,060
-585,109	-73,973	-0,054	-0,014
-584,094	800,000	-0,034	-0,083
-583,079	53,081	-0,060	0,042
-582,065	-175,332	0,157	0,003
-581,050	32,109	0,100	0,063
-580,036	-40,925	-0,050	-0,019
-579,021	-200,000	-0,006	-0,044
-578,006	-200,000	-0,007	0,050
-576,992	-15,312	0,209	0,098
-575,977	68,625	-0,043	0,033
-574,963	101,213	-0,035	-0,030
-573,948	800,000	0,022	0,069
-572,934	-128,702	-0,114	0,012
-571,919	323,890	-0,086	-0,121
-570,904	264,810	-0,023	-0,030
-569,890	153,695	-0,050	0,051
-568,875	572,952	-0,075	0,136
-567,861	800,000	0,034	0,099
-566,846	609,365	0,037	-0,069
-565,831	800,000	0,016	-0,035
-564,817	-123,121	-0,102	0,012
-563,802	-32,268	0,060	0,025
-562,788	151,943	-0,020	-0,020
-561,773	55,272	-0,023	0,016
-560,758	139,990	-0,099	0,097
-559,744	-139,836	0,076	-0,006
-558,729	-200,000	-0,012	-0,067
-557,715	54,927	-0,060	0,042
-556,700	131,615	-0,067	-0,064
-555,685	-134,865	-0,063	-0,006
-554,671	8,850	-0,062	0,035
-553,656	-200,000	-0,007	-0,079
-552,642	543,398	0,106	0,187
-551,627	-185,749	0,068	0,001
-550,612	22,267	-0,080	-0,048
-549,598	3,048	0,129	0,069
-548,583	-100,354	-0,081	0,015
-547,569	519,915	-0,077	-0,134
-546,554	-97,246	0,123	-0,023
-545,539	800,000	-0,035	-0,097
-544,525	116,091	-0,096	0,087
-543,510	800,000	-0,009	0,025
-542,496	-114,154	-0,175	0,025
-541,481	-200,000	0,015	-0,073
-540,466	84,943	-0,043	-0,035
-539,452	-11,443	-0,124	0,060
-538,437	97,818	-0,018	0,015
-537,423	99,680	-0,069	0,059
-536,408	206,098	-0,030	-0,034
-535,393	-165,490	0,099	0,003
-534,379	800,000	0,033	-0,091
-533,364	291,726	0,049	-0,065
-532,350	23,990	0,044	-0,027
-531,335	-28,285	-0,076	0,032
-530,321	370,543	-0,039	-0,059
-529,306	-200,000	0,008	0,060
-528,291	111,158	-0,135	-0,120
-527,277	269,892	0,101	-0,131
-526,262	697,901	-0,035	0,068
-525,248	-200,000	-0,008	-0,045
-524,233	23,344	0,043	-0,026
-523,218	-55,644	-0,121	0,040
-522,204	-93,162	-0,064	0,013
-521,189	-200,000	-0,015	0,054
-520,175	800,000	0,019	0,056
-519,160	800,000	-0,039	0,087
-518,145	102,809	0,064	0,055
-517,131	-121,094	0,082	-0,010
-516,116	800,000	0,014	-0,045
-515,102	-11,040	0,052	-0,025
-514,087	35,401	-0,069	-0,044
-513,072	-37,512	-0,103	-0,040
-512,058	800,000	-0,051	0,160
-511,043	-103,897	0,127	-0,022
-510,029	-29,845	0,053	0,022
-509,014	368,735	0,050	0,075
-507,999	-43,992	0,138	-0,051
-506,985	-147,768	-0,087	0,005
-505,970	800,000	0,015	-0,033
-504,956	-58,454	-0,145	-0,046
-503,941	-200,000	0,014	0,083
-502,926	-75,509	-0,046	0,012
-501,912	313,104	-0,029	0,040
-500,897	800,000	0,039	-0,085
-499,883	-71,745	0,095	0,026
-498,868	-200,000	0,001	0,067
-497,853	373,199	0,011	-0,016
-496,839	376,897	0,043	0,065
-495,824	-22,762	-0,069	0,031
-494,810	-31,421	-0,114	0,047
-493,795	800,000	0,035	0,093
-492,781	-200,000	0,030	0,261
-491,766	97,318	-0,090	0,076
-490,751	580,255	0,045	0,081
-489,737	-67,210	0,026	-0,008
-488,722	321,242	0,093	0,130
-487,708	154,332	0,049	0,050
-486,693	134,925	0,031	-0,029
-485,678	-200,000	0,001	-0,047
-484,664	173,230	0,035	0,037
-483,649	-200,000	-0,014	-0,058
-482,635	239,469	0,079	-0,097
-481,620	71,856	0,083	0,063
-480,605	653,846	-0,044	0,083
-479,591	800,000	-0,023	0,064
-478,576	291,650	0,044	0,058
-477,562	9,845	-0,127	0,070
-476,547	5,997	-0,039	0,021
-475,532	-200,000	0,019	0,130
-474,518	542,141	0,030	-0,053
-473,503	11,910	0,053	0,030
-472,489	-200,000	0,023	0,088
-471,474	-189,498	-0,078	0,001
-470,459	-200,000	0,007	-0,060
-469,445	-147,300	0,093	0,006
-468,430	123,549	0,076	-0,070
-467,416	472,203	0,103	0,171
-466,401	280,789	0,008	-0,011
-465,386	189,162	-0,092	-0,101
-464,372	-84,993	-0,133	-0,030
-463,357	-165,445	0,093	0,003
-462,343	800,000	-0,053	-0,158
-461,328	19,968	-0,097	-0,057
-460,313	444,884	-0,038	0,061
-459,299	432,558	0,085	0,136
-458,284	-64,246	0,049	0,014
-457,270	-200,000	-0,008	-0,088
-456,255	382,578	-0,038	0,058
-455,241	57,500	-0,085	0,061
-454,226	-200,000	0,001	0,020
-453,211	-200,000	0,029	0,100
-452,197	-200,000	0,017	0,093
-451,182	393,061	-0,024	0,037
-450,168	184,083	0,082	0,089
-449,153	-21,198	-0,103	0,046
-448,138	-158,528	0,148	-0,006
-447,124	-20,150	-0,067	-0,030
-446,109	4,561	0,130	0,070
-445,095	-200,000	0,021	0,111
-444,080	800,000	0,027	0,069
-443,065	82,460	0,032	0,025
-442,051	-200,000	0,003	0,094
-441,036	410,240	-0,123	-0,192
-440,022	173,459	-0,013	-0,013
-439,007	-48,627	0,034	-0,012
-437,992	-200,000	0,043	-0,145
-436,978	-200,000	0,003	-0,098
-435,963	-200,000	-0,022	0,121
-434,949	7,470	0,057	0,031
-433,934	7,701	0,045	0,024
-432,919	406,680	-0,040	-0,062
-431,905	192,595	-0,037	-0,041
-430,890	-109,487	0,196	-0,030
-429,876	-166,871	0,114	-0,003
-428,861	-200,000	0,009	0,104
-427,846	123,527	-0,103	0,095
-426,832	5,105	-0,146	-0,079
-425,817	55,382	-0,043	-0,031
-424,803	94,043	0,122	0,101
-423,788	134,495	0,104	0,099
-422,773	-121,675	0,104	-0,013
-421,759	800,000	-0,065	0,152
-420,744	286,503	0,020	-0,027
-419,730	599,136	-0,047	-0,086
-418,715	653,991	-0,081	0,152
-417,701	16,383	0,025	-0,015
-416,686	245,453	0,040	0,050
-415,671	-81,233	0,100	-0,024
-414,657	-10,737	0,121	-0,058
-413,642	-200,000	-0,002	0,126
-412,628	-200,000	-0,034	-0,113
-411,613	125,220	-0,144	-0,133
-410,598	-76,794	-0,068	-0,017
-409,584	-92,461	0,104	-0,021
-408,569	-200,000	0,014	-0,100
-407,555	-200,000	0,035	0,151
-406,540	800,000	0,030	0,093
-405,525	-93,686	-0,104	0,021
-404,511	-124,869	0,073	0,008
-403,496	-56,661	-0,093	-0,030
-402,482	-3,071	0,102	0,052
-401,467	-200,000	-0,018	-0,077
-400,452	10,332	-0,099	0,055
-399,438	417,730	0,098	0,154
-398,423	-23,810	-0,030	-0,013
-397,409	797,530	-0,080	-0,163
-396,394	407,228	0,020	0,031
-395,379	-200,000	-0,027	0,132
-394,365	235,953	0,113	0,137
-393,350	-75,747	0,058	0,015
-392,336	108,271	0,052	0,045
-391,321	800,000	0,028	0,087
-390,306	690,816	-0,089	-0,172
-389,292	777,067	0,020	0,041
-388,277	-33,267	0,042	0,017
-387,263	413,507	-0,029	0,045
-386,248	460,173	0,052	0,085
-385,233	-200,000	0,000	0,035
-384,219	-200,000	-0,023	0,140
-383,204	-3,465	-0,015	-0,007
-382,190	-200,000	-0,010	-0,075
-381,175	8,177	-0,167	-0,092
-380,160	114,227	0,170	-0,151
-379,146	556,139	0,053	0,094
-378,131	336,553	0,046	-0,066
-377,117	267,335	-0,060	0,077
-376,102	265,114	0,035	0,044
-375,088	-200,000	-0,042	-0,142
-374,073	323,617	-0,036	-0,050
-373,058	-200,000	-0,002	-0,044
-372,044	77,330	-0,041	-0,032
-371,029	-50,339	0,080	-0,027
-370,015	-20,577	-0,063	-0,028
-369,000	439,618	0,029	-0,046
-367,985	800,000	-0,067	-0,154
-366,971	-200,000	0,080	0,000
-365,956	-200,000	-0,032	-0,181
-364,942	800,000	0,040	0,110
-363,927	549,301	0,046	-0,081
-362,912	388,090	-0,027	-0,041
-361,898	-82,296	-0,116	-0,028
-360,883	-200,000	0,028	-0,114
-359,869	800,000	-0,028	0,077
-358,854	-121,615	0,033	0,004
-357,839	312,397	0,019	-0,027
-356,825	-200,000	0,013	0,087
-355,810	-200,000	-0,037	0,130
-354,796	-27,926	-0,196	-0,083
-353,781	166,982	0,046	0,048
-352,766	672,158	-0,025	0,047
-351,752	-200,000	-0,011	-0,215
-350,737	-52,921	0,065	-0,022
-349,723	-145,707	0,165	0,011
-348,708	800,000	-0,047	0,099
-347,693	241,686	0,005	-0,006
-346,679	155,926	-0,047	-0,047
-345,664	-45,793	-0,031	0,011
-344,650	-26,193	-0,099	0,042
-343,635	-30,118	-0,078	-0,032
-342,620	800,000	-0,030	0,067
-341,606	-85,781	0,059	-0,013
-340,591	-118,046	-0,153	0,020
-339,577	-116,098	0,083	0,011
-338,562	220,338	0,062	-0,073
-337,548	-25,811	-0,076	0,033
-336,533	76,621	0,113	-0,088
-335,518	-87,989	0,043	-0,009
-334,504	10,305	-0,132	0,073
-333,489	-139,731	0,149	0,011
-332,475	124,924	-0,080	-0,073
-331,460	-200,000	0,012	-0,108
-330,445	532,993	0,144	-0,250
-329,431	69,090	-0,093	-0,070
-328,416	-122,243	0,089	0,011
-327,402	-16,438	0,055	0,026
-326,387	-154,195	0,122	0,006
-325,372	544,703	-0,040	-0,070
-324,358	-69,810	-0,038	0,010
-323,343	-144,670	0,085	-0,006
-322,329	-147,196	-0,044	-0,003
-321,314	405,184	0,054	-0,084
-320,299	-200,000	-0,001	-0,049
-319,285	-86,840	-0,079	0,017
-318,270	378,515	0,051	-0,076
-317,256	-44,183	-0,083	-0,030
-316,241	328,048	0,065	-0,091
-315,226	-148,875	0,084	-0,005
-314,212	153,404	-0,057	0,058
-313,197	-200,000	-0,005	-0,085
-312,183	16,468	0,064	-0,037
-311,168	126,176	0,066	-0,061
-310,153	-54,515	-0,048	0,016
-309,139	431,070	-0,026	0,042
-308,124	210,184	-0,028	-0,032
-307,110	-91,430	-0,099	0,021
-306,095	-200,000	0,022	0,135
-305,080	91,335	0,090	0,074
-304,066	-200,000	-0,022	-0,111
-303,051	800,000	-0,023	-0,049
-302,037	-103,644	0,090	0,015
-301,022	-200,000	0,018	-0,063
-300,008	33,706	-0,077	0,049
-298,993	102,610	0,033	0,028
-297,978	-200,000	-0,032	-0,113
-296,964	-45,596	0,114	0,041
-295,949	-200,000	0,023	-0,133
-294,935	-200,000	0,010	-0,035
-293,920	-200,000	-0,015	-0,121
-292,905	-44,296	-0,028	-0,010
-291,891	-52,812	0,078	0,026
-290,876	182,535	0,058	0,062
-289,862	800,000	-0,045	-0,117
-288,847	344,712	0,081	-0,116
-287,832	-34,155	-0,165	-0,066
-286,818	344,862	0,050	0,072
-285,803	86,681	0,193	-0,156
-284,789	-200,000	0,005	-0,017
-283,774	800,000	-0,008	0,025
-282,759	-13,012	-0,117	0,055
-281,745	800,000	-0,013	0,038
-280,730	-45,820	-0,048	0,017
-279,716	17,247	0,079	-0,046
-278,701	-80,288	0,066	-0,016
-277,686	-200,000	-0,008	0,142
-276,672	140,521	0,060	-0,058
-275,657	-200,000	-0,018	-0,066
-274,643	90,989	-0,081	0,066
-273,628	208,146	-0,032	0,036
-272,613	-200,000	-0,028	-0,097
-271,599	-200,000	-0,003	-0,053
-270,584	-52,498	-0,150	0,050
-269,570	-200,000	-0,014	0,165
-268,555	800,000	-0,041	0,090
-267,540	-200,000	0,001	-0,202
-266,526	78,693	-0,029	0,023
-265,511	379,432	0,069	0,103
-264,497	-200,000	-0,006	0,094
-263,482	-129,006	0,074	0,007
-262,467	40,684	-0,074	-0,049
-261,453	25,214	-0,144	0,087
-260,438	653,333	0,032	-0,059
-259,424	-65,785	0,131	-0,038
-258,409	800,000	0,006	-0,014
-257,395	800,000	-0,010	0,024
-256,380	572,058	0,047	-0,084
-255,365	415,549	0,045	0,070
-254,351	-165,281	0,031	0,001
-253,336	-89,088	-0,077	0,016
-252,322	398,689	-0,081	-0,125
-251,307	68,132	0,062	-0,046
-250,292	54,284	-0,120	-0,084
-249,278	71,619	0,077	-0,058
-248,263	210,358	-0,067	-0,076
-247,249	11,656	0,018	0,010
-246,234	800,000	0,016	-0,035
-245,219	283,128	0,066	-0,086
-244,205	-5,640	0,133	-0,066
-243,190	-48,107	-0,063	-0,022
-242,176	-94,910	0,015	0,003
-241,161	733,632	0,062	-0,122
-240,146	-200,000	0,004	0,095
-239,132	-200,000	0,007	-0,111
-238,117	642,992	0,055	-0,103
-237,103	-200,000	-0,012	-0,045
-236,088	51,916	0,147	-0,101
-235,073	-126,851	0,111	0,012
-234,059	-200,000	0,020	0,146
-233,044	24,181	-0,095	0,057
-232,030	800,000	-0,057	-0,160
-231,015	-200,000	0,003	-0,054
-230,000	310,216	0,037	0,050
-228,986	249,179	-0,050	0,062
-227,971	-138,571	0,085	0,007
-226,957	-46,612	0,174	0,062
-225,942	-200,000	0,020	0,097
-224,927	-200,000	0,043	0,150
-223,913	38,088	-0,058	-0,038
-222,898	-200,000	-0,009	-0,028
-221,884	72,884	-0,047	-0,035
-220,869	367,167	-0,121	0,179
-219,855	134,961	0,037	-0,035
-218,840	28,924	0,087	0,054
-217,825	-42,597	0,084	-0,031
-216,811	19,603	0,067	-0,039
-215,796	-200,000	0,003	-0,025
-214,782	-124,390	0,051	0,006
-213,767	35,027	-0,083	0,053
-212,752	-147,037	0,031	0,002
-211,738	-122,031	0,122	-0,014
-210,723	800,000	-0,032	0,081
-209,709	800,000	0,031	0,074
-208,694	-123,125	-0,122	0,014
-207,679	127,233	-0,058	-0,053
-206,665	396,932	-0,051	0,078
-205,650	-67,959	0,036	-0,010
-204,636	56,092	0,047	0,033
-203,621	-103,033	0,147	-0,025
-202,606	492,836	0,031	0,051
-201,592	-200,000	-0,028	-0,102
-200,577	-186,620	-0,041	0,000
-199,563	-200,000	0,006	-0,161
-198,548	97,485	-0,006	0,005
-197,533	-200,000	0,013	0,117
-196,519	105,825	0,115	0,099
-195,504	800,000	-0,035	-0,072
-194,490	28,067	-0,080	-0,049
-193,475	49,677	-0,026	0,018
-192,460	-200,000	0,002	-0,042
-191,446	468,965	0,107	0,176
-190,431	-200,000	0,005	0,101
-189,417	-200,000	0,006	0,024
-188,402	97,578	-0,064	0,053
-187,387	228,240	-0,054	0,064
-186,373	-110,947	0,033	0,005
-185,358	800,000	0,020	0,053
-184,344	283,560	0,055	0,073
-183,329	-7,632	0,044	-0,021
-182,315	-200,000	0,016	-0,141
-181,300	548,834	-0,066	0,115
-180,285	-112,512	-0,055	0,008
-179,271	-200,000	-0,026	-0,127
-178,256	-200,000	-0,017	-0,085
-177,242	-200,000	0,004	-0,036
-176,227	315,896	-0,073	-0,101
-175,212	101,446	0,061	0,052
-174,198	702,650	-0,011	0,021
-173,183	800,000	-0,032	-0,088
-172,169	-200,000	-0,013	-0,071
-171,154	-163,992	0,124	0,004
-170,139	-200,000	-0,009	-0,030
-169,125	-78,827	0,066	-0,016
-168,110	351,201	0,063	0,091
-167,096	-137,941	0,024	0,002
-166,081	-200,000	-0,001	-0,013
-165,066	199,347	-0,066	-0,073
-164,052	-200,000	-0,061	-0,222
-163,037	-49,420	0,099	-0,034
-162,023	759,685	-0,018	0,035
-161,008	800,000	0,022	0,063
-159,993	689,212	0,006	0,011
-158,979	-162,192	0,036	-0,001
-157,964	-3,512	-0,082	0,041
-156,950	-200,000	-0,050	-0,173
-155,935	-61,320	0,065	-0,020
-154,920	538,907	0,052	0,090
-153,906	-76,551	0,079	-0,020
-152,891	800,000	-0,053	0,108
-151,877	-200,000	-0,034	-0,182
-150,862	800,000	-0,016	-0,039
-149,847	-83,986	-0,056	-0,013
-148,833	757,156	0,079	-0,156
-147,818	-200,000	0,016	0,171
-146,804	610,753	-0,049	0,089
-145,789	-200,000	-0,029	-0,097
-144,775	800,000	0,035	0,106
-143,760	800,000	-0,021	0,058
-142,745	19,354	-0,136	0,079
-141,731	-90,122	0,082	-0,017
-140,716	247,176	-0,086	-0,105
-139,702	-73,689	0,081	-0,021
-138,687	-200,000	-0,006	-0,023
-137,672	800,000	-0,050	0,123
-136,658	-200,000	0,004	-0,074
-135,643	-6,384	-0,100	0,049
-134,629	508,080	-0,051	-0,085
-133,614	195,308	0,110	0,122
-132,599	-200,000	0,005	0,113
-131,585	-109,406	-0,089	-0,014
-130,570	350,680	-0,039	0,056
-129,556	397,892	0,083	0,126
-128,541	18,359	0,126	-0,073
-127,526	142,755	-0,055	-0,053
-126,512	-200,000	-0,007	-0,083
-125,497	-176,024	0,047	-0,001
-124,483	-4,180	-0,025	0,013
-123,468	401,748	-0,038	-0,057
-122,453	5,427	0,053	0,028
-121,439	-81,436	0,173	-0,041
-120,424	800,000	0,018	-0,043
-119,410	-166,099	-0,040	-0,001
