DTS Sentinel unit serial number:	SN410029Multiplexer serial number:	ORYXHardware model number:	OX2-SRSoftware version number:	ORYX F/W v4,00 Oryx Data Collector v3.7.2.0data status	okinstallation	B4 Nyhavnadifferential loss correction	single-endedforward channel	channel 2reverse channel	N/Adate	2023/12/15time	15:00:13forward acquisition time	300,00reverse acquisition time	0,00gamma	499,1914k internal	0,3157k external	0,3157temperature offset calibration	1,0000default loss term (dB/km)	0,3820temperature slope calibration	1,0000multiplexer offset coefficient	1,0000multiplexer slope coefficient	1,0000fibre end	0,00T internal ref (°C)	15,74T ext. ref 1 (°C)	2,18T ext. ref 2 (°C)	2,32length (m)	temperature (°C)	Stokes	anti-Stokes-744,400	-44,181	0,074	-0,027
-743,385	-165,353	-0,294	0,009
-742,371	149,705	0,133	0,133
-741,356	-94,854	-0,239	0,047
-740,342	3,412	0,177	0,095
-739,327	-143,383	-0,358	0,025
-738,312	12,970	-0,110	0,063
-737,298	-20,016	-0,185	-0,084
-736,283	-55,508	0,126	0,042
-735,269	-45,886	-0,299	0,108
-734,254	-99,563	0,199	0,037
-733,239	-61,711	-0,436	-0,134
-732,225	42,306	0,110	0,073
-731,210	-153,074	-0,022	0,001
-730,196	-72,956	0,038	0,010
-729,181	-74,562	-0,100	-0,026
-728,167	-37,556	-0,101	-0,040
-727,152	125,105	0,066	-0,061
-726,137	62,229	0,157	-0,115
-725,123	46,691	-0,009	-0,006
-724,108	-200,000	-0,017	-0,073
-723,094	-125,124	-0,115	0,013
-722,079	-109,123	0,031	0,005
-721,064	136,781	-0,025	-0,024
-720,050	388,434	0,086	-0,132
-719,035	-45,039	-0,091	0,033
-718,021	-97,502	-0,171	-0,032
-717,006	29,266	0,027	0,017
-715,991	800,000	-0,016	-0,045
-714,977	154,238	0,035	-0,036
-713,962	-93,050	0,067	0,014
-712,948	-59,898	-0,060	0,019
-711,933	-15,690	-0,092	0,043
-710,918	-67,217	-0,112	-0,032
-709,904	-101,377	-0,081	0,014
-708,889	-200,000	-0,031	-0,106
-707,875	800,000	-0,059	-0,184
-706,860	147,040	0,017	0,017
-705,845	-113,606	-0,091	0,013
-704,831	548,826	-0,034	0,060
-703,816	-26,497	0,083	0,035
-702,802	800,000	-0,007	0,014
-701,787	288,821	-0,056	-0,075
-700,772	210,832	-0,127	0,147
-699,758	-105,705	0,084	-0,014
-698,743	125,482	0,028	-0,026
-697,729	271,561	-0,012	0,016
-696,714	205,242	-0,040	0,046
-695,699	-200,000	0,005	0,028
-694,685	192,447	0,048	-0,053
-693,670	396,476	0,055	-0,084
-692,656	-200,000	0,019	-0,063
-691,641	-200,000	0,044	0,180
-690,627	-12,041	0,068	0,033
-689,612	700,162	-0,060	0,117
-688,597	201,246	0,065	-0,074
-687,583	-168,369	-0,158	0,004
-686,568	282,944	-0,038	-0,050
-685,554	-200,000	-0,022	0,071
-684,539	800,000	-0,036	-0,081
-683,524	-139,799	-0,065	-0,005
-682,510	158,825	0,088	0,090
-681,495	364,699	-0,080	-0,119
-680,481	3,618	-0,063	-0,034
-679,466	-200,000	0,007	0,112
-678,451	800,000	-0,034	-0,079
-677,437	800,000	-0,018	0,047
-676,422	91,886	-0,137	-0,114
-675,408	-200,000	0,013	0,130
-674,393	-200,000	0,009	0,046
-673,378	-129,718	0,048	-0,005
-672,364	-39,304	-0,072	0,028
-671,349	-0,503	-0,153	-0,080
-670,335	800,000	0,032	0,084
-669,320	55,103	0,148	-0,105
-668,305	-170,326	-0,100	0,003
-667,291	78,610	-0,032	0,025
-666,276	-104,987	-0,079	0,013
-665,262	20,975	-0,067	-0,040
-664,247	800,000	-0,057	-0,169
-663,232	-200,000	-0,023	-0,166
-662,218	-126,095	0,097	0,011
-661,203	24,499	-0,137	0,083
-660,189	-200,000	0,017	-0,113
-659,174	800,000	-0,041	-0,116
-658,159	-200,000	0,008	-0,044
-657,145	-51,795	-0,171	0,058
-656,130	182,202	-0,039	-0,042
-655,116	-200,000	-0,013	-0,105
-654,101	148,681	-0,147	0,146
-653,086	717,003	-0,030	-0,059
-652,072	8,539	-0,046	0,025
-651,057	-123,542	-0,095	-0,011
-650,043	-200,000	-0,026	0,093
-649,028	800,000	-0,023	-0,067
-648,014	800,000	-0,058	0,153
-646,999	800,000	0,010	-0,029
-645,984	-200,000	-0,019	0,133
-644,970	23,974	-0,119	-0,072
-643,955	-53,586	-0,145	0,048
-642,941	-92,340	-0,135	0,028
-641,926	329,719	0,057	-0,081
-640,911	-200,000	-0,028	0,092
-639,897	800,000	0,039	-0,089
-638,882	-200,000	0,010	0,096
-637,868	-16,373	-0,115	0,053
-636,853	406,497	-0,020	-0,031
-635,838	-200,000	-0,055	-0,181
-634,824	800,000	0,040	-0,116
-633,809	63,692	0,041	-0,030
-632,795	185,482	-0,012	-0,013
-631,780	156,518	0,035	-0,036
-630,765	-21,699	-0,051	-0,023
-629,751	-52,256	-0,105	-0,036
-628,736	-200,000	0,012	0,056
-627,722	114,084	-0,037	-0,033
-626,707	-200,000	0,030	0,126
-625,692	15,694	0,074	0,042
-624,678	-200,000	-0,005	-0,126
-623,663	-200,000	-0,009	0,128
-622,649	-200,000	0,025	0,081
-621,634	-19,909	-0,070	-0,032
-620,619	736,843	-0,048	0,095
-619,605	540,468	0,021	-0,037
-618,590	800,000	-0,039	-0,092
-617,576	800,000	-0,040	0,115
-616,561	8,078	-0,154	-0,084
-615,546	-200,000	0,007	0,062
-614,532	12,946	0,106	-0,060
-613,517	81,040	0,103	0,081
-612,503	12,799	0,021	-0,012
-611,488	21,788	0,100	-0,060
-610,474	-78,122	-0,129	0,032
-609,459	27,991	-0,100	-0,062
-608,444	13,704	-0,108	0,061
-607,430	187,420	0,021	-0,023
-606,415	89,037	-0,110	-0,090
-605,401	-114,119	-0,037	0,005
-604,386	-200,000	0,012	0,102
-603,371	107,786	-0,045	0,039
-602,357	7,345	0,058	0,031
-601,342	-66,924	-0,090	0,026
-600,328	800,000	-0,028	0,070
-599,313	-14,432	-0,057	0,027
-598,298	800,000	-0,017	0,047
-597,284	187,640	-0,018	-0,020
-596,269	79,382	0,068	0,053
-595,255	-54,859	0,074	-0,024
-594,240	578,213	0,075	0,135
-593,225	-61,726	-0,022	-0,007
-592,211	10,093	-0,045	-0,025
-591,196	-122,085	0,090	0,011
-590,182	800,000	0,050	-0,109
-589,167	-102,332	-0,057	0,010
-588,152	800,000	-0,027	0,072
-587,138	580,208	0,074	0,133
-586,123	-40,268	-0,019	-0,007
-585,109	700,895	0,013	0,024
-584,094	-200,000	0,004	0,060
-583,079	-115,037	-0,037	-0,005
-582,065	-17,320	-0,066	-0,030
-581,050	800,000	0,014	0,033
-580,036	-1,490	-0,067	-0,035
-579,021	800,000	-0,070	-0,182
-578,006	749,197	0,020	0,039
-576,992	-8,295	0,159	-0,078
-575,977	800,000	0,028	0,082
-574,963	-200,000	-0,008	0,154
-573,948	-200,000	-0,010	-0,039
-572,934	27,000	0,087	0,054
-571,919	287,225	-0,063	-0,084
-570,904	-200,000	-0,008	0,031
-569,890	164,762	-0,085	-0,088
-568,875	704,333	-0,027	0,052
-567,861	432,653	-0,006	-0,010
-566,846	-24,863	0,071	-0,031
-565,831	800,000	-0,027	0,062
-564,817	-200,000	-0,016	-0,091
-563,802	91,939	-0,014	0,012
-562,788	-177,193	0,185	-0,003
-561,773	-200,000	0,010	-0,126
-560,758	800,000	0,027	-0,080
-559,744	192,827	-0,098	0,108
-558,729	-86,313	0,043	0,010
-557,715	-194,691	-0,105	0,001
-556,700	191,997	-0,043	0,048
-555,685	800,000	0,021	-0,061
-554,671	-200,000	-0,026	-0,134
-553,656	772,012	-0,038	0,075
-552,642	-167,012	0,072	0,002
-551,627	24,088	0,042	-0,025
-550,612	22,598	-0,011	0,007
-549,598	303,242	0,107	-0,145
-548,583	-200,000	-0,119	0,000
-547,569	-200,000	0,014	0,096
-546,554	394,082	0,050	-0,076
-545,539	-200,000	0,057	0,213
-544,525	800,000	-0,006	0,019
-543,510	800,000	0,039	-0,121
-542,496	152,339	0,049	-0,049
-541,481	800,000	0,012	-0,024
-540,466	259,847	-0,070	0,089
-539,452	-65,752	0,123	0,036
-538,437	-200,000	0,019	0,166
-537,423	75,353	0,141	0,109
-536,408	-200,000	0,008	0,036
-535,393	295,986	-0,050	-0,067
-534,379	413,108	-0,040	0,062
-533,364	800,000	-0,040	0,089
-532,350	-200,000	-0,034	-0,193
-531,335	800,000	0,041	0,109
-530,321	800,000	0,048	0,105
-529,306	528,688	-0,047	-0,082
-528,291	137,657	-0,084	-0,080
-527,277	124,480	0,028	-0,026
-526,262	-200,000	0,001	-0,131
-525,248	800,000	0,010	-0,021
-524,233	286,254	0,045	-0,060
-523,218	-200,000	-0,010	0,107
-522,204	-200,000	0,023	0,110
-521,189	127,901	0,042	0,039
-520,175	-200,000	0,022	-0,071
-519,160	218,298	-0,020	-0,023
-518,145	-62,379	0,025	0,008
-517,131	-4,093	0,049	0,025
-516,116	-69,739	0,082	0,023
-515,102	66,635	0,097	-0,072
-514,087	36,626	0,024	0,016
-513,072	133,168	-0,118	-0,112
-512,058	-87,386	0,230	-0,050
-511,043	-200,000	-0,016	-0,127
-510,029	-184,481	-0,172	0,002
-509,014	138,966	-0,035	-0,034
-507,999	404,309	-0,088	-0,136
-506,985	-102,564	0,032	0,006
-505,970	-200,000	-0,032	-0,125
-504,956	41,895	0,031	-0,020
-503,941	70,286	-0,025	-0,019
-502,926	226,327	-0,078	0,093
-501,912	-110,513	0,102	-0,015
-500,897	-57,344	-0,056	0,018
-499,883	484,413	0,040	0,068
-498,868	-96,162	0,100	0,019
-497,853	167,410	-0,102	-0,106
-496,839	234,226	-0,078	-0,094
-495,824	-35,110	-0,117	-0,046
-494,810	296,220	0,009	0,012
-493,795	-88,362	0,143	0,031
-492,781	800,000	-0,041	-0,114
-491,766	241,022	0,076	0,093
-490,751	-67,418	0,071	0,020
-489,737	-200,000	-0,006	0,130
-488,722	-200,000	0,038	-0,147
-487,708	84,131	0,068	0,054
-486,693	-200,000	-0,008	0,051
-485,678	-103,534	-0,199	0,034
-484,664	-200,000	0,017	0,155
-483,649	-200,000	0,000	0,041
-482,635	126,956	0,083	-0,077
-481,620	-55,399	-0,129	0,042
-480,605	800,000	0,020	0,065
-479,591	22,919	0,030	0,018
-478,576	-35,717	-0,139	-0,055
-477,562	-194,851	0,088	0,000
-476,547	800,000	0,015	0,043
-475,532	5,174	0,051	0,027
-474,518	-61,385	-0,118	0,036
-473,503	-50,195	0,189	0,065
-472,489	181,488	0,069	0,075
-471,474	-200,000	-0,009	-0,045
-470,459	43,471	0,071	0,047
-469,445	-67,521	-0,055	0,016
-468,430	-200,000	-0,037	0,130
-467,416	-200,000	-0,013	0,144
-466,401	-200,000	-0,002	0,070
-465,386	134,814	0,081	-0,076
-464,372	-57,944	-0,075	-0,024
-463,357	800,000	0,019	-0,055
-462,343	768,475	-0,043	-0,085
-461,328	-32,381	-0,034	0,014
-460,313	-5,075	0,087	0,043
-459,299	-200,000	0,030	0,127
-458,284	376,521	0,086	0,128
-457,270	110,250	0,054	0,047
-456,255	0,899	0,076	0,040
-455,241	-71,305	-0,190	0,051
-454,226	-13,535	-0,129	-0,061
-453,211	233,296	0,085	0,102
-452,197	-49,081	0,088	-0,031
-451,182	41,848	0,081	0,054
-450,168	253,522	-0,070	0,087
-449,153	-200,000	-0,014	-0,107
-448,138	-200,000	0,010	0,032
-447,124	-200,000	0,003	0,148
-446,109	276,743	-0,050	-0,065
-445,095	-142,576	0,176	0,012
-444,080	-200,000	-0,025	-0,116
-443,065	769,250	-0,080	0,158
-442,051	118,053	0,069	-0,062
-441,036	239,519	0,096	-0,117
-440,022	458,816	0,039	0,064
-439,007	217,969	-0,082	-0,096
-437,992	-21,915	-0,078	0,035
-436,978	-200,000	0,016	0,089
-435,963	800,000	0,022	0,047
-434,949	256,341	0,018	-0,022
-433,934	451,668	-0,054	0,087
-432,919	192,219	-0,020	0,022
-431,905	-42,169	-0,053	0,020
-430,890	8,210	0,106	0,058
-429,876	73,991	0,058	0,044
-428,861	53,472	-0,051	0,036
-427,846	38,058	-0,035	0,023
-426,832	-200,000	0,016	-0,102
-425,817	800,000	0,020	0,058
-424,803	37,130	-0,095	0,061
-423,788	57,389	-0,042	-0,030
-422,773	-200,000	-0,002	-0,092
-421,759	-148,997	0,072	0,004
-420,744	-23,854	-0,061	0,026
-419,730	800,000	-0,039	0,087
-418,715	159,460	-0,065	-0,066
-417,701	-123,834	-0,175	-0,020
-416,686	-200,000	0,027	-0,159
-415,671	-4,436	0,124	-0,062
-414,657	-106,470	0,094	-0,015
-413,642	105,338	0,062	0,054
-412,628	800,000	-0,038	-0,101
-411,613	170,054	-0,137	-0,142
-410,598	-200,000	-0,002	-0,127
-409,584	238,275	-0,028	-0,034
-408,569	-27,649	-0,106	0,044
-407,555	-200,000	-0,004	0,052
-406,540	50,597	-0,060	0,042
-405,525	193,468	0,071	-0,078
-404,511	327,254	0,035	0,049
-403,496	-200,000	0,005	0,018
-402,482	-94,703	0,055	0,011
-401,467	547,517	-0,034	-0,060
-400,452	-49,945	-0,077	0,027
-399,438	88,443	0,066	-0,053
-398,423	393,854	-0,084	-0,127
-397,409	-79,310	0,162	0,040
-396,394	113,619	-0,093	-0,082
-395,379	-50,680	0,073	0,025
-394,365	25,705	-0,048	0,029
-393,350	-200,000	0,029	0,117
-392,336	17,751	0,056	-0,032
-391,321	26,625	-0,086	-0,052
-390,306	-54,845	-0,150	-0,049
-389,292	-200,000	-0,008	-0,076
-388,277	-22,940	0,109	-0,048
-387,263	800,000	-0,019	-0,053
-386,248	-52,032	0,098	-0,033
-385,233	38,601	-0,035	0,022
-384,219	-200,000	0,008	-0,031
-383,204	-200,000	0,038	-0,237
-382,190	130,801	-0,045	0,042
-381,175	594,640	-0,084	-0,152
-380,160	91,617	-0,042	0,034
-379,146	485,259	0,065	0,108
-378,131	-200,000	0,027	-0,173
-377,117	-200,000	0,014	-0,046
-376,102	449,488	-0,020	0,032
-375,088	-172,436	-0,083	0,002
-374,073	-186,070	0,036	0,000
-373,058	-200,000	-0,011	-0,068
-372,044	-192,527	-0,141	-0,001
-371,029	-16,383	0,177	0,081
-370,015	-200,000	-0,017	-0,142
-369,000	-85,147	-0,055	-0,012
-367,985	-200,000	0,000	-0,026
-366,971	800,000	0,025	-0,071
-365,956	404,316	0,052	0,080
-364,942	-200,000	0,017	0,064
-363,927	49,064	-0,060	-0,041
-362,912	70,287	0,066	-0,050
-361,898	96,712	-0,066	-0,055
-360,883	91,411	-0,091	-0,074
-359,869	153,486	-0,017	0,017
-358,854	278,507	-0,045	-0,059
-357,839	-200,000	-0,001	0,085
-356,825	-4,257	-0,132	0,066
-355,810	-200,000	0,002	0,013
-354,796	-7,971	-0,057	0,028
-353,781	-200,000	0,015	-0,070
-352,766	79,618	-0,065	0,051
-351,752	800,000	-0,029	0,082
-350,737	7,781	0,071	-0,038
-349,723	-138,848	-0,063	0,005
-348,708	260,162	0,026	0,032
-347,693	50,262	-0,099	0,068
-346,679	800,000	-0,044	0,104
-345,664	800,000	0,028	-0,088
-344,650	-53,981	-0,021	-0,007
-343,635	-200,000	0,005	0,092
-342,620	-114,445	-0,027	-0,004
-341,606	-9,363	0,086	0,041
-340,591	-130,781	-0,118	0,011
-339,577	800,000	-0,012	-0,032
-338,562	235,091	0,065	-0,078
-337,548	9,729	0,092	0,050
-336,533	-200,000	-0,020	-0,117
-335,518	86,500	0,044	-0,035
-334,504	-200,000	0,000	0,062
-333,489	108,720	-0,044	0,038
-332,475	9,916	0,086	0,047
-331,460	-67,214	-0,127	0,036
-330,445	87,078	-0,129	-0,104
-329,431	-42,708	-0,034	0,013
-328,416	25,633	0,071	0,043
-327,402	-61,010	0,140	-0,043
-326,387	99,524	-0,038	-0,031
-325,372	-65,532	-0,067	-0,019
-324,358	27,854	-0,082	0,050
-323,343	12,616	0,082	-0,046
-322,329	800,000	0,017	0,037
-321,314	-64,483	0,212	-0,062
-320,299	259,450	-0,059	0,075
-319,285	-41,763	-0,152	-0,056
-318,270	44,381	0,124	-0,083
-317,256	-200,000	0,036	0,000
-316,241	128,672	-0,077	0,071
-315,226	-200,000	0,007	-0,102
-314,212	800,000	0,028	-0,074
-313,197	427,635	0,057	0,090
-312,183	66,361	-0,100	0,074
-311,168	-200,000	0,016	-0,057
-310,153	-200,000	0,001	0,041
-309,139	215,916	-0,050	-0,058
-308,124	-200,000	0,005	0,080
-307,110	-36,582	0,120	0,046
-306,095	-200,000	-0,014	-0,073
-305,080	-14,807	-0,114	0,053
-304,066	-200,000	0,005	-0,037
-303,051	-200,000	0,001	-0,074
-302,037	800,000	0,062	0,140
-301,022	303,964	0,088	-0,118
-300,008	19,182	0,064	0,037
-298,993	497,344	0,036	0,059
-297,978	600,233	0,044	-0,080
-296,964	-98,438	-0,146	0,027
-295,949	-200,000	-0,005	-0,163
-294,935	-53,747	-0,086	0,028
-293,920	40,162	-0,049	0,032
-292,905	126,667	0,100	0,092
-291,891	-129,814	0,076	0,008
-290,876	29,173	0,036	0,022
-289,862	30,394	-0,031	0,019
-288,847	-200,000	0,008	-0,087
-287,832	-62,872	0,187	-0,056
-286,818	-200,000	0,006	0,022
-285,803	-148,599	0,071	0,004
-284,789	201,214	0,035	-0,039
-283,774	6,650	-0,091	0,049
-282,759	125,015	0,045	-0,041
-281,745	779,006	-0,025	0,050
-280,730	-200,000	0,021	-0,068
-279,716	-74,360	-0,127	-0,033
-278,701	-112,566	-0,083	-0,012
-277,686	117,986	0,023	0,021
-276,672	800,000	-0,007	-0,020
-275,657	15,598	-0,072	0,041
-274,643	-19,982	-0,136	0,060
-273,628	86,424	-0,026	-0,021
-272,613	213,906	-0,062	-0,071
-271,599	-63,724	0,056	-0,016
-270,584	-17,772	0,111	-0,050
-269,570	800,000	0,025	-0,058
-268,555	-3,525	0,062	0,031
-267,540	208,186	-0,041	0,046
-266,526	-47,085	0,045	0,016
-265,511	-92,685	-0,114	-0,023
-264,497	800,000	-0,022	-0,044
-263,482	319,970	-0,036	0,049
-262,467	15,379	0,034	0,019
-261,453	-85,417	0,113	0,025
-260,438	156,856	-0,062	-0,062
-259,424	-38,890	0,131	-0,050
-258,409	-200,000	0,004	-0,105
-257,395	9,760	0,155	-0,085
-256,380	-200,000	0,035	0,130
-255,365	-200,000	0,019	0,120
-254,351	800,000	0,014	0,032
-253,336	93,204	0,042	0,034
-252,322	-172,540	-0,104	0,002
-251,307	-106,543	-0,054	-0,009
-250,292	-115,687	0,056	0,008
-249,278	661,740	-0,120	0,224
-248,263	-6,200	0,089	0,044
-247,249	-200,000	0,010	0,049
-246,234	-74,272	0,018	-0,005
-245,219	800,000	0,014	-0,030
-244,205	31,478	-0,043	-0,027
-243,190	145,705	0,067	-0,065
-242,176	-36,636	0,040	0,015
-241,161	-35,987	-0,145	0,057
-240,146	-200,000	-0,002	0,069
-239,132	225,329	0,052	-0,061
-238,117	-200,000	0,000	0,040
-237,103	220,509	0,021	0,024
-236,088	-200,000	0,008	-0,095
-235,073	800,000	0,013	-0,036
-234,059	212,108	0,099	0,112
-233,044	-22,809	-0,009	-0,004
-232,030	178,928	0,048	0,051
-231,015	69,744	-0,077	0,058
-230,000	31,523	-0,130	0,080
-228,986	128,129	-0,013	0,012
-227,971	-150,965	-0,063	0,003
-226,957	92,433	0,029	-0,024
-225,942	-16,645	0,091	0,042
-224,927	-200,000	0,007	-0,054
-223,913	-49,876	-0,026	-0,009
-222,898	-55,983	0,133	0,043
-221,884	-166,503	0,152	-0,004
-220,869	145,110	-0,043	0,041
-219,855	-41,504	0,007	0,003
-218,840	-146,914	-0,088	-0,005
-217,825	183,876	0,049	0,052
-216,811	800,000	-0,042	-0,107
-215,796	97,612	-0,125	-0,104
-214,782	800,000	0,055	-0,142
-213,767	800,000	0,033	0,092
-212,752	254,396	0,139	0,172
-211,738	320,189	-0,020	0,027
-210,723	216,754	0,042	-0,049
-209,709	494,011	-0,083	0,138
-208,694	-200,000	-0,001	-0,078
-207,679	216,932	0,008	-0,009
-206,665	512,846	-0,042	0,070
-205,650	17,965	0,041	-0,024
-204,636	-67,625	0,141	-0,040
-203,621	190,184	0,029	0,031
-202,606	-162,411	0,087	0,003
-201,592	-200,000	0,001	-0,099
-200,577	-200,000	0,043	-0,182
-199,563	-200,000	-0,007	0,118
-198,548	-17,081	0,070	0,032
-197,533	359,346	0,040	0,058
-196,519	-200,000	0,019	0,069
-195,504	720,622	-0,062	0,119
-194,490	38,042	0,052	-0,033
-193,475	441,041	-0,041	0,065
-192,460	453,381	0,020	0,032
-191,446	-4,519	0,030	-0,015
-190,431	-63,723	0,030	-0,009
-189,417	-100,770	0,157	0,028
-188,402	800,000	0,035	-0,079
-187,387	484,956	-0,111	-0,183
-186,373	74,554	0,099	-0,075
-185,358	800,000	0,026	-0,068
-184,344	-200,000	0,000	-0,035
-183,329	169,095	-0,162	0,167
-182,315	-200,000	0,026	0,088
-181,300	23,854	0,020	0,012
-180,285	61,090	-0,124	0,089
-179,271	-200,000	0,007	0,084
-178,256	-128,550	0,086	-0,009
-177,242	-200,000	-0,017	-0,074
-176,227	-71,775	0,173	-0,046
-175,212	-87,952	0,036	-0,008
-174,198	343,383	0,032	-0,045
-173,183	53,509	-0,143	-0,099
-172,169	125,798	-0,064	-0,058
-171,154	143,830	0,051	-0,050
-170,139	800,000	0,022	0,054
-169,125	-56,646	-0,164	0,052
-168,110	176,169	0,101	0,106
-167,096	-106,614	-0,040	0,006
-166,081	13,369	-0,215	-0,120
-165,066	-200,000	0,006	-0,088
-164,052	36,891	0,043	-0,027
-163,037	-32,910	-0,058	0,023
-162,023	117,088	0,086	-0,076
-161,008	-98,095	0,181	0,033
-159,993	208,400	0,065	-0,073
-158,979	641,906	-0,034	-0,062
-157,964	-2,476	-0,125	0,063
-156,950	154,600	0,072	-0,071
-155,935	-89,015	-0,033	0,007
-154,920	388,704	-0,026	0,038
-153,906	-73,133	0,021	-0,006
-152,891	800,000	0,024	-0,071
-151,877	-200,000	-0,042	-0,141
-150,862	-170,964	-0,065	-0,002
-149,847	-93,958	0,110	0,022
-148,833	-22,709	0,028	0,012
-147,818	310,008	0,011	-0,015
-146,804	-200,000	-0,012	0,041
-145,789	-200,000	-0,004	-0,024
-144,775	-200,000	-0,004	0,073
-143,760	-50,271	-0,062	-0,021
-142,745	-35,074	-0,092	-0,036
-141,731	-200,000	0,008	0,049
-140,716	-91,582	0,078	0,016
-139,702	87,802	0,022	-0,018
-138,687	-200,000	-0,000	0,028
-137,672	-182,399	-0,137	0,002
-136,658	304,704	0,052	0,070
-135,643	800,000	-0,024	-0,074
-134,629	-119,209	-0,074	0,009
-133,614	-200,000	0,005	0,054
-132,599	800,000	0,082	-0,167
-131,585	-94,309	-0,027	0,005
-130,570	-65,303	0,032	0,009
-129,556	323,015	-0,071	-0,098
-128,541	75,222	-0,102	-0,077
-127,526	800,000	0,048	-0,115
-126,512	430,558	0,035	0,055
-125,497	-88,847	0,143	0,030
-124,483	274,051	-0,056	0,072
-123,468	-70,380	0,084	0,023
-122,453	35,243	-0,068	-0,043
-121,439	800,000	-0,026	0,060
-120,424	29,976	0,067	0,041
-119,410	-200,000	0,013	0,113
-118,395	-200,000	-0,017	-0,070
-117,380	191,053	-0,031	-0,034
