DTS Sentinel unit serial number:	SN410029Multiplexer serial number:	ORYXHardware model number:	OX2-SRSoftware version number:	ORYX F/W v4,00 Oryx Data Collector v3.7.2.0data status	okinstallation	B4 Nyhavnadifferential loss correction	single-endedforward channel	channel 2reverse channel	N/Adate	2023/12/16time	13:05:13forward acquisition time	300,00reverse acquisition time	0,00gamma	499,1914k internal	0,3127k external	0,3127temperature offset calibration	1,0000default loss term (dB/km)	0,3820temperature slope calibration	1,0000multiplexer offset coefficient	1,0000multiplexer slope coefficient	1,0000fibre end	0,00T internal ref (°C)	24,48T ext. ref 1 (°C)	11,02T ext. ref 2 (°C)	11,18length (m)	temperature (°C)	Stokes	anti-Stokes-744,400	104,947	-0,085	-0,075
-743,385	-21,054	-0,300	0,136
-742,371	-200,000	-0,009	-0,052
-741,356	-17,522	-0,194	0,090
-740,342	95,141	0,057	0,048
-739,327	175,799	-0,163	0,176
-738,312	-184,945	-0,086	0,001
-737,298	73,083	-0,133	0,103
-736,283	390,725	-0,075	-0,117
-735,269	435,457	-0,083	0,135
-734,254	82,746	0,018	0,015
-733,239	-115,630	-0,303	-0,042
-732,225	-142,285	0,192	0,014
-731,210	-11,525	0,075	0,037
-730,196	-200,000	-0,004	-0,015
-729,181	-51,421	-0,075	-0,026
-728,167	-123,821	-0,080	0,009
-727,152	126,211	0,076	-0,072
-726,137	-16,989	-0,123	-0,058
-725,123	1,018	-0,161	-0,086
-724,108	348,570	-0,072	-0,106
-723,094	552,366	-0,104	-0,186
-722,079	-65,324	0,068	0,020
-721,064	-200,000	0,005	-0,020
-720,050	800,000	0,038	0,099
-719,035	157,814	-0,019	0,019
-718,021	-200,000	-0,034	-0,181
-717,006	-200,000	-0,001	-0,108
-715,991	-85,733	-0,063	-0,014
-714,977	-55,083	0,119	-0,040
-713,962	-148,276	-0,009	-0,001
-712,948	800,000	0,020	0,065
-711,933	800,000	0,014	0,035
-710,918	265,787	0,043	0,056
-709,904	-200,000	-0,022	-0,078
-708,889	-8,049	-0,045	0,023
-707,875	7,475	-0,114	0,063
-706,860	301,957	0,089	-0,123
-705,845	64,978	-0,005	-0,004
-704,831	215,150	-0,056	-0,066
-703,816	97,008	0,103	0,088
-702,802	-200,000	0,026	-0,129
-701,787	-125,015	-0,162	-0,018
-700,772	412,481	-0,017	-0,027
-699,758	-200,000	0,011	-0,101
-698,743	318,459	-0,023	0,032
-697,729	-200,000	-0,012	0,163
-696,714	491,581	-0,054	0,093
-695,699	78,083	0,040	-0,031
-694,685	-200,000	-0,035	-0,164
-693,670	800,000	-0,028	-0,058
-692,656	-12,186	0,106	-0,051
-691,641	749,464	-0,035	0,071
-690,627	-200,000	-0,032	-0,151
-689,612	-71,431	-0,051	-0,014
-688,597	24,102	-0,102	-0,062
-687,583	510,887	-0,012	-0,020
-686,568	198,704	-0,051	0,058
-685,554	-200,000	0,049	-0,170
-684,539	234,113	0,104	0,128
-683,524	-200,000	-0,003	-0,135
-682,510	164,299	-0,092	0,096
-681,495	-154,003	0,011	0,001
-680,481	-96,227	-0,206	-0,040
-679,466	34,765	-0,059	-0,038
-678,451	-200,000	-0,000	-0,021
-677,437	800,000	-0,047	0,110
-676,422	-49,044	0,120	-0,043
-675,408	409,493	0,041	0,065
-674,393	-49,908	-0,043	0,015
-673,378	-88,938	0,025	-0,005
-672,364	77,194	0,031	0,024
-671,349	471,130	-0,087	-0,145
-670,335	-200,000	0,017	-0,090
-669,320	32,403	0,079	-0,051
-668,305	-200,000	-0,004	-0,053
-667,291	121,569	-0,043	-0,040
-666,276	800,000	-0,064	0,136
-665,262	110,406	0,041	-0,037
-664,247	-200,000	0,000	0,023
-663,232	-200,000	-0,014	-0,071
-662,218	343,482	0,019	-0,027
-661,203	-17,583	-0,129	0,060
-660,189	-162,807	-0,106	-0,004
-659,174	25,600	-0,081	-0,050
-658,159	611,431	0,072	-0,134
-657,145	160,922	-0,030	0,031
-656,130	247,930	0,052	-0,066
-655,116	-5,101	-0,094	0,048
-654,101	59,442	0,196	0,143
-653,086	-35,590	0,010	0,004
-652,072	131,118	-0,098	0,093
-651,057	-169,922	-0,062	-0,002
-650,043	248,141	-0,046	0,058
-649,028	-39,833	-0,125	-0,048
-648,014	-41,275	0,078	0,030
-646,999	38,869	0,113	-0,075
-645,984	3,907	-0,020	-0,011
-644,970	6,061	0,057	-0,031
-643,955	51,831	-0,073	0,051
-642,941	-133,430	-0,093	-0,009
-641,926	197,638	-0,036	0,041
-640,911	157,800	-0,096	-0,099
-639,897	800,000	0,025	-0,078
-638,882	271,593	-0,112	0,147
-637,868	693,530	-0,056	-0,110
-636,853	-137,113	-0,053	0,004
-635,838	-148,281	-0,050	-0,003
-634,824	181,536	-0,032	-0,035
-633,809	-46,660	0,076	-0,028
-632,795	433,902	-0,019	-0,030
-631,780	800,000	-0,031	-0,071
-630,765	165,259	0,031	0,033
-629,751	137,509	-0,072	0,070
-628,736	12,182	-0,112	0,064
-627,722	33,240	0,052	-0,033
-626,707	-37,125	-0,080	-0,032
-625,692	800,000	0,018	-0,043
-624,678	-3,956	-0,103	0,053
-623,663	52,577	-0,101	0,072
-622,649	-200,000	-0,032	-0,119
-621,634	-200,000	-0,011	0,055
-620,619	800,000	0,011	0,026
-619,605	-141,095	-0,116	0,009
-618,590	223,118	-0,010	-0,012
-617,576	-200,000	-0,019	-0,082
-616,561	-200,000	0,016	0,062
-615,546	200,554	-0,039	-0,045
-614,532	20,347	0,016	-0,009
-613,517	-111,859	-0,038	-0,006
-612,503	-105,150	0,071	0,012
-611,488	147,293	0,015	0,015
-610,474	800,000	0,038	0,107
-609,459	763,939	0,007	0,013
-608,444	99,067	-0,113	0,097
-607,430	800,000	-0,061	-0,144
-606,415	-200,000	0,050	-0,238
-605,401	244,604	0,015	0,018
-604,386	18,431	0,155	-0,091
-603,371	-97,411	0,076	-0,014
-602,357	128,988	0,024	-0,023
-601,342	-100,168	-0,211	-0,038
-600,328	-3,936	-0,043	0,022
-599,313	497,251	-0,043	0,074
-598,298	-31,624	-0,053	-0,022
-597,284	-138,910	0,095	0,008
-596,269	-106,242	0,063	0,010
-595,255	-17,365	-0,107	0,049
-594,240	-200,000	0,008	-0,033
-593,225	149,604	-0,133	-0,134
-592,211	120,445	-0,060	-0,055
-591,196	-99,864	0,118	0,022
-590,182	-20,962	0,055	-0,025
-589,167	18,355	-0,144	-0,085
-588,152	142,532	0,065	0,064
-587,138	273,992	0,050	0,066
-586,123	800,000	-0,003	-0,010
-585,109	21,719	-0,069	0,041
-584,094	52,435	0,124	-0,087
-583,079	120,065	-0,149	0,137
-582,065	15,691	0,163	-0,094
-581,050	-200,000	0,023	-0,144
-580,036	184,548	-0,053	0,059
-579,021	-178,777	-0,078	-0,001
-578,006	800,000	0,032	-0,090
-576,992	136,062	0,077	-0,075
-575,977	-57,252	0,028	-0,009
-574,963	335,753	0,043	0,062
-573,948	-125,167	-0,105	0,012
-572,934	478,952	-0,041	0,070
-571,919	407,451	-0,070	-0,109
-570,904	489,904	0,039	-0,067
-569,890	800,000	0,040	0,124
-568,875	-200,000	-0,039	0,132
-567,861	-200,000	-0,082	0,000
-566,846	15,401	-0,059	0,034
-565,831	427,524	-0,035	0,055
-564,817	-92,256	-0,070	0,014
-563,802	87,398	-0,098	-0,080
-562,788	-200,000	0,040	-0,136
-561,773	800,000	0,042	0,088
-560,758	-200,000	-0,028	0,205
-559,744	-200,000	-0,003	-0,020
-558,729	-58,585	-0,065	0,021
-557,715	-200,000	0,007	0,102
-556,700	800,000	-0,023	-0,050
-555,685	-1,317	0,036	-0,019
-554,671	-61,012	0,060	0,018
-553,656	766,117	-0,009	0,017
-552,642	800,000	-0,033	-0,090
-551,627	91,744	0,057	0,048
-550,612	-200,000	-0,033	-0,125
-549,598	90,617	-0,076	-0,063
-548,583	-46,938	-0,063	-0,023
-547,569	89,936	-0,060	-0,050
-546,554	-174,629	0,084	-0,002
-545,539	-200,000	0,003	-0,032
-544,525	-200,000	0,011	-0,104
-543,510	57,220	-0,168	-0,121
-542,496	0,334	-0,081	0,043
-541,481	92,474	0,094	0,078
-540,466	33,711	0,052	-0,033
-539,452	763,884	0,046	-0,092
-538,437	170,231	0,089	0,094
-537,423	614,743	0,028	-0,052
-536,408	217,491	0,036	0,042
-535,393	-200,000	0,010	-0,127
-534,379	800,000	-0,022	-0,050
-533,364	1,236	-0,068	-0,036
-532,350	-200,000	-0,037	0,126
-531,335	781,287	-0,068	0,138
-530,321	-73,929	0,057	0,015
-529,306	-200,000	-0,028	0,118
-528,291	800,000	0,043	-0,100
-527,277	271,657	0,114	-0,149
-526,262	-67,153	-0,064	-0,018
-525,248	32,613	-0,070	0,044
-524,233	334,601	-0,041	0,059
-523,218	-3,320	-0,134	-0,068
-522,204	-200,000	0,009	0,041
-521,189	5,829	-0,108	-0,059
-520,175	66,085	-0,032	-0,024
-519,160	240,206	-0,032	0,039
-518,145	618,363	0,043	0,079
-517,131	398,162	0,083	0,129
-516,116	549,239	0,045	-0,079
-515,102	230,399	0,062	-0,075
-514,087	36,603	0,024	-0,016
-513,072	800,000	0,026	-0,079
-512,058	800,000	0,020	-0,058
-511,043	-42,055	-0,010	-0,004
-510,029	-24,905	0,076	0,033
-509,014	167,618	0,063	0,066
-507,999	-200,000	0,020	0,121
-506,985	-24,205	-0,086	0,038
-505,970	158,626	-0,109	-0,112
-504,956	800,000	0,116	-0,296
-503,941	20,375	-0,025	-0,015
-502,926	27,491	-0,012	0,007
-501,912	-119,914	0,096	0,012
-500,897	-100,304	-0,047	0,008
-499,883	729,927	-0,050	-0,098
-498,868	-73,892	0,211	-0,056
-497,853	800,000	-0,038	-0,110
-496,839	-180,020	-0,084	-0,001
-495,824	-18,643	0,069	-0,032
-494,810	125,282	0,147	0,137
-493,795	-200,000	0,009	0,044
-492,781	342,963	-0,028	-0,040
-491,766	625,178	0,059	-0,111
-490,751	-97,640	-0,109	-0,021
-489,737	545,369	-0,078	-0,137
-488,722	729,632	0,048	-0,095
-487,708	-87,504	0,105	0,023
-486,693	-200,000	-0,045	-0,170
-485,678	800,000	0,068	-0,185
-484,664	108,888	0,057	0,050
-483,649	186,662	-0,024	-0,027
-482,635	6,624	0,074	-0,040
-481,620	-141,594	-0,037	0,003
-480,605	12,186	0,076	0,043
-479,591	-200,000	-0,006	0,041
-478,576	-180,947	-0,075	0,001
-477,562	254,286	-0,060	0,075
-476,547	128,133	-0,064	-0,060
-475,532	135,518	-0,097	-0,093
-474,518	26,133	0,145	-0,089
-473,503	-91,746	0,023	-0,005
-472,489	164,306	0,085	-0,088
-471,474	22,743	0,026	-0,016
-470,459	-115,269	-0,054	0,007
-469,445	377,580	-0,028	0,042
-468,430	302,125	-0,029	-0,040
-467,416	698,828	-0,062	0,121
-466,401	26,444	0,128	-0,078
-465,386	-18,191	0,088	-0,040
-464,372	800,000	-0,017	0,051
-463,357	178,012	0,044	0,047
-462,343	236,455	-0,049	-0,060
-461,328	800,000	-0,019	-0,044
-460,313	-145,668	0,085	0,006
-459,299	-200,000	0,021	0,150
-458,284	7,781	0,067	-0,037
-457,270	87,331	0,091	0,074
-456,255	-200,000	0,019	0,153
-455,241	458,286	0,062	0,101
-454,226	-184,547	0,138	-0,002
-453,211	-7,191	0,099	-0,049
-452,197	-129,419	0,092	0,009
-451,182	30,910	0,128	0,081
-450,168	496,956	-0,038	0,065
-449,153	-200,000	-0,004	-0,058
-448,138	33,922	0,054	-0,035
-447,124	-190,063	-0,082	0,001
-446,109	-200,000	-0,002	0,064
-445,095	-200,000	0,024	-0,096
-444,080	89,201	0,176	0,144
-443,065	25,587	-0,015	0,009
-442,051	800,000	-0,025	0,061
-441,036	-121,372	-0,064	-0,008
-440,022	800,000	-0,059	-0,150
-439,007	19,873	-0,103	-0,061
-437,992	-200,000	0,002	-0,116
-436,978	-200,000	0,028	0,171
-435,963	-200,000	0,010	-0,227
-434,949	-200,000	0,038	-0,136
-433,934	-200,000	-0,009	-0,123
-432,919	-200,000	-0,013	0,163
-431,905	-37,783	-0,025	0,010
-430,890	-19,010	-0,071	-0,032
-429,876	800,000	-0,033	-0,104
-428,861	-200,000	-0,021	-0,073
-427,846	800,000	-0,008	0,023
-426,832	368,149	-0,071	-0,106
-425,817	68,399	0,037	-0,028
-424,803	-200,000	-0,016	0,088
-423,788	109,639	0,123	0,108
-422,773	-121,486	0,205	-0,025
-421,759	800,000	-0,047	0,127
-420,744	-200,000	-0,015	0,093
-419,730	-158,893	-0,031	-0,001
-418,715	42,181	0,017	-0,011
-417,701	107,894	-0,037	-0,033
-416,686	-79,125	0,187	-0,046
-415,671	-81,650	0,094	0,022
-414,657	-95,496	-0,071	-0,014
-413,642	-169,532	-0,157	0,004
-412,628	131,027	0,097	0,091
-411,613	-200,000	0,028	-0,103
-410,598	236,672	0,012	-0,014
-409,584	46,074	0,037	0,025
-408,569	-29,467	0,182	0,076
-407,555	-89,765	0,178	0,038
-406,540	211,216	-0,037	0,043
-405,525	-200,000	0,005	0,122
-404,511	128,352	-0,067	-0,062
-403,496	-136,550	-0,068	0,006
-402,482	53,225	-0,037	0,026
-401,467	-24,718	-0,052	0,023
-400,452	-33,618	0,070	-0,028
-399,438	-200,000	-0,013	0,080
-398,423	-1,320	0,101	0,052
-397,409	-200,000	-0,135	0,000
-396,394	-36,252	-0,068	0,027
-395,379	800,000	-0,051	-0,141
-394,365	-200,000	0,015	0,057
-393,350	244,277	0,069	0,085
-392,336	87,134	-0,113	-0,092
-391,321	-53,864	0,060	0,020
-390,306	800,000	0,032	-0,093
-389,292	-61,911	0,044	-0,013
-388,277	-46,958	0,103	0,037
-387,263	-90,943	0,088	0,018
-386,248	-200,000	0,000	0,048
-385,233	-50,050	-0,078	0,027
-384,219	800,000	-0,051	0,111
-383,204	-86,792	-0,080	-0,018
-382,190	-200,000	0,004	-0,012
-381,175	427,430	0,025	-0,040
-380,160	-63,329	0,114	0,034
-379,146	117,184	-0,046	-0,042
-378,131	-200,000	0,017	-0,060
-377,117	60,017	0,013	-0,009
-376,102	169,918	-0,059	-0,062
-375,088	80,346	-0,059	0,046
-374,073	800,000	0,065	0,138
-373,058	130,020	-0,044	0,041
-372,044	-112,527	0,086	-0,013
-371,029	23,105	0,129	0,078
-370,015	-200,000	0,013	0,064
-369,000	164,591	-0,100	-0,103
-367,985	-74,934	-0,072	0,019
-366,971	-109,500	0,082	0,013
-365,956	99,778	0,014	-0,012
-364,942	172,390	-0,029	0,031
-363,927	-129,954	-0,098	-0,010
-362,912	-17,732	0,077	0,035
-361,898	68,149	-0,061	0,046
-360,883	216,354	0,013	-0,015
-359,869	140,675	0,033	0,032
-358,854	800,000	0,023	0,067
-357,839	-200,000	-0,017	0,140
-356,825	-106,955	-0,091	-0,015
-355,810	213,571	0,066	0,077
-354,796	-200,000	-0,005	-0,085
-353,781	-200,000	0,006	-0,036
-352,766	-10,028	0,180	0,087
-351,752	161,318	-0,034	-0,035
-350,737	800,000	-0,051	-0,109
-349,723	800,000	0,041	0,104
-348,708	-1,361	-0,053	0,027
-347,693	29,736	0,023	-0,014
-346,679	-70,679	-0,056	-0,015
-345,664	-112,005	-0,019	0,003
-344,650	38,205	-0,071	0,046
-343,635	-200,000	-0,003	0,013
-342,620	-33,310	0,076	0,031
-341,606	138,282	-0,047	-0,045
-340,591	-51,054	0,148	0,051
-339,577	-103,980	0,126	0,021
-338,562	28,198	-0,073	0,045
-337,548	-32,250	-0,074	-0,030
-336,533	800,000	0,024	0,064
-335,518	800,000	0,031	0,076
-334,504	-25,662	-0,054	-0,023
-333,489	-200,000	0,024	-0,193
-332,475	-110,709	0,116	0,017
-331,460	-125,860	-0,087	-0,009
-330,445	-200,000	-0,043	-0,148
-329,431	-62,783	-0,029	0,009
-328,416	-32,408	0,056	0,023
-327,402	800,000	-0,023	0,064
-326,387	130,322	-0,022	0,021
-325,372	-98,282	-0,058	-0,011
-324,358	-200,000	0,004	0,012
-323,343	-131,555	-0,083	0,008
-322,329	374,398	0,044	0,066
-321,314	670,305	0,007	0,012
-320,299	-200,000	-0,012	0,044
-319,285	275,429	-0,070	-0,091
-318,270	19,870	-0,094	0,055
-317,256	-172,155	0,014	0,000
-316,241	-24,124	-0,076	0,033
-315,226	14,042	0,027	-0,015
-314,212	99,144	0,099	0,084
-313,197	224,258	-0,071	0,084
-312,183	12,540	0,049	0,027
-311,168	674,646	-0,037	-0,071
-310,153	-79,359	-0,049	-0,012
-309,139	254,764	0,026	0,032
-308,124	103,894	-0,022	-0,019
-307,110	592,402	-0,033	0,061
-306,095	800,000	0,070	0,199
-305,080	800,000	0,070	0,143
-304,066	10,192	0,099	0,055
-303,051	487,314	-0,071	-0,119
-302,037	800,000	-0,037	-0,081
-301,022	-200,000	-0,017	-0,094
-300,008	-63,447	0,037	-0,011
-298,993	-115,391	0,133	0,018
-297,978	-104,083	-0,094	-0,016
-296,964	-55,442	0,072	0,023
-295,949	800,000	-0,030	-0,064
-294,935	800,000	-0,013	-0,039
-293,920	-47,793	0,121	-0,043
-292,905	-124,220	0,193	0,022
-291,891	184,840	0,037	-0,040
-290,876	56,246	-0,058	0,041
-289,862	-40,122	-0,092	0,035
-288,847	35,340	-0,102	-0,065
-287,832	334,022	-0,085	-0,121
-286,818	-54,326	-0,040	-0,013
-285,803	800,000	-0,025	0,071
-284,789	-155,623	-0,082	0,004
-283,774	800,000	0,040	0,098
-282,759	800,000	0,022	-0,053
-281,745	59,883	-0,060	-0,043
-280,730	723,379	-0,053	-0,103
-279,716	-1,769	-0,124	-0,064
-278,701	-119,619	-0,068	0,009
-277,686	4,469	0,108	0,058
-276,672	-200,000	0,002	0,017
-275,657	-59,445	-0,104	-0,033
-274,643	111,625	-0,045	-0,039
-273,628	-38,825	-0,054	0,021
-272,613	88,375	0,074	-0,060
-271,599	11,387	0,052	0,029
-270,584	-95,981	0,126	-0,024
-269,570	-200,000	-0,031	0,099
-268,555	83,535	0,137	0,109
-267,540	800,000	-0,012	0,033
-266,526	7,976	0,025	-0,014
-265,511	-200,000	0,000	-0,139
-264,497	-47,244	0,178	-0,063
-263,482	-69,159	0,118	0,033
-262,467	-200,000	0,027	-0,117
-261,453	-200,000	-0,002	0,057
-260,438	800,000	0,059	0,125
-259,424	800,000	-0,015	0,039
-258,409	-151,296	0,040	-0,002
-257,395	589,731	0,041	-0,075
-256,380	89,012	-0,042	-0,035
-255,365	197,745	-0,134	0,149
-254,351	-118,868	0,115	-0,015
-253,336	239,157	-0,073	-0,089
-252,322	301,758	-0,062	-0,083
-251,307	64,703	0,142	-0,105
-250,292	800,000	0,022	0,068
-249,278	226,811	0,126	0,150
-248,263	116,916	0,013	0,012
-247,249	36,442	-0,022	0,014
-246,234	-200,000	0,008	0,029
-245,219	-95,743	0,058	-0,011
-244,205	108,680	0,022	-0,019
-243,190	800,000	0,021	0,053
-242,176	52,818	0,152	0,106
-241,161	-113,934	0,106	0,015
-240,146	-119,413	-0,104	-0,013
-239,132	-200,000	-0,001	0,018
-238,117	800,000	-0,055	-0,128
-237,103	-200,000	0,006	-0,030
-236,088	14,376	-0,061	-0,034
-235,073	-200,000	-0,005	0,060
-234,059	352,264	-0,069	0,100
-233,044	-200,000	-0,014	-0,114
-232,030	-200,000	-0,023	-0,098
-231,015	-104,616	-0,096	0,016
-230,000	-4,109	-0,059	-0,030
-228,986	-26,876	0,095	-0,040
-227,971	-41,047	0,059	-0,022
-226,957	123,847	0,075	0,069
-225,942	800,000	0,014	0,033
-224,927	485,528	-0,044	0,074
-223,913	142,729	-0,028	-0,027
-222,898	-200,000	0,021	0,103
-221,884	-91,683	-0,037	0,008
-220,869	-44,906	-0,060	-0,022
-219,855	211,171	0,047	-0,055
-218,840	17,917	-0,081	-0,047
-217,825	-163,032	-0,034	-0,001
-216,811	-200,000	-0,014	-0,069
-215,796	-33,284	-0,117	0,047
-214,782	307,294	0,055	0,075
-213,767	336,635	-0,025	0,035
-212,752	-107,315	-0,065	-0,010
-211,738	5,924	-0,054	0,029
-210,723	97,620	0,034	-0,029
-209,709	-200,000	0,010	-0,047
-208,694	-103,158	-0,017	0,003
-207,679	94,520	-0,058	-0,048
-206,665	-200,000	0,012	0,113
-205,650	245,164	-0,103	0,126
-204,636	800,000	0,031	0,087
-203,621	800,000	0,046	0,113
-202,606	800,000	0,027	0,081
-201,592	592,554	0,031	-0,057
-200,577	-183,844	-0,134	-0,002
-199,563	-200,000	0,033	0,227
-198,548	571,958	0,025	0,044
-197,533	257,854	0,010	-0,013
-196,519	-200,000	-0,018	0,080
-195,504	-200,000	-0,002	0,105
-194,490	495,165	-0,043	-0,073
-193,475	85,417	0,140	-0,112
-192,460	-50,321	0,049	-0,017
-191,446	-16,222	-0,102	-0,047
-190,431	600,697	-0,040	0,074
-189,417	800,000	0,047	0,100
-188,402	-200,000	-0,021	0,110
-187,387	-17,785	-0,023	-0,010
-186,373	98,070	-0,022	-0,018
-185,358	459,897	0,010	-0,016
-184,344	16,112	0,030	-0,017
-183,329	-144,363	-0,123	-0,008
-182,315	-64,431	-0,146	0,043
-181,300	-128,231	-0,021	0,002
-180,285	-112,406	-0,051	0,007
-179,271	800,000	0,023	-0,065
-178,256	-200,000	0,012	-0,125
-177,242	133,551	0,095	-0,089
-176,227	-200,000	0,022	0,083
-175,212	471,288	-0,101	0,167
-174,198	800,000	-0,017	0,041
-173,183	800,000	-0,042	-0,091
-172,169	274,286	-0,059	-0,076
-171,154	-142,817	0,170	0,012
-170,139	-89,868	-0,049	0,010
-169,125	130,848	0,098	0,091
-168,110	-93,707	0,080	0,016
-167,096	800,000	-0,057	0,122
-166,081	-148,867	0,090	0,005
-165,066	316,373	0,148	-0,204
-164,052	800,000	0,025	-0,070
-163,037	352,343	-0,048	-0,069
-162,023	-200,000	0,013	0,076
-161,008	243,744	-0,042	0,052
-159,993	-200,000	-0,030	0,115
-158,979	540,348	0,029	-0,050
-157,964	-24,580	-0,139	0,060
-156,950	-64,407	0,070	-0,021
-155,935	-75,843	-0,094	-0,024
-154,920	-200,000	-0,031	0,139
-153,906	800,000	0,005	0,010
-152,891	-59,258	0,064	0,020
-151,877	-118,518	-0,166	0,021
-150,862	-200,000	-0,020	-0,135
-149,847	-200,000	-0,027	-0,088
-148,833	-26,331	0,086	-0,037
-147,818	117,966	-0,084	-0,076
-146,804	240,982	0,099	-0,120
-145,789	-74,986	0,057	0,015
-144,775	225,691	-0,123	0,145
-143,760	-19,345	-0,134	0,060
-142,745	-18,772	-0,065	-0,029
-141,731	-153,692	0,090	0,004
-140,716	-200,000	0,005	0,147
-139,702	147,277	0,070	-0,068
-138,687	-120,064	-0,139	0,017
-137,672	672,922	-0,087	0,165
-136,658	-200,000	0,008	-0,099
-135,643	202,322	-0,004	-0,005
-134,629	-200,000	-0,010	-0,132
-133,614	59,901	0,029	-0,021
-132,599	-200,000	0,024	0,128
-131,585	-184,115	-0,118	-0,001
-130,570	-87,554	0,040	0,009
-129,556	-127,379	-0,093	-0,010
-128,541	-200,000	-0,025	-0,105
-127,526	800,000	-0,021	0,056
-126,512	108,419	0,044	-0,038
-125,497	-200,000	0,015	0,065
-124,483	-113,655	0,096	0,014
-123,468	-200,000	0,005	0,079
-122,453	80,438	-0,030	0,023
-121,439	307,472	0,113	-0,154
-120,424	-100,914	-0,078	0,014
-119,410	-43,832	-0,057	0,021
