DTS Sentinel unit serial number:	SN410029Multiplexer serial number:	ORYXHardware model number:	OX2-SRSoftware version number:	ORYX F/W v4,00 Oryx Data Collector v3.7.2.0data status	okinstallation	B4 Nyhavnadifferential loss correction	single-endedforward channel	channel 2reverse channel	N/Adate	2023/12/18time	17:30:13forward acquisition time	300,00reverse acquisition time	0,00gamma	499,1914k internal	0,3124k external	0,3124temperature offset calibration	1,0000default loss term (dB/km)	0,3820temperature slope calibration	1,0000multiplexer offset coefficient	1,0000multiplexer slope coefficient	1,0000fibre end	0,00T internal ref (°C)	21,69T ext. ref 1 (°C)	7,21T ext. ref 2 (°C)	7,27length (m)	temperature (°C)	Stokes	anti-Stokes-744,400	545,839	0,088	-0,158
-743,385	59,719	-0,158	0,116
-742,371	-200,000	0,021	-0,191
-741,356	-31,280	-0,215	0,090
-740,342	103,816	0,044	-0,039
-739,327	-5,306	-0,297	0,151
-738,312	49,720	-0,057	-0,040
-737,298	-65,734	-0,249	-0,074
-736,283	800,000	0,034	-0,071
-735,269	-107,936	-0,294	0,047
-734,254	220,334	-0,068	-0,082
-733,239	-16,540	-0,332	-0,156
-732,225	271,137	0,071	-0,094
-731,210	407,370	-0,064	0,101
-730,196	114,312	-0,037	0,034
-729,181	-8,695	-0,099	-0,049
-728,167	393,247	-0,009	-0,014
-727,152	83,021	-0,136	-0,110
-726,137	-132,395	-0,136	0,013
-725,123	268,273	-0,030	0,040
-724,108	-200,000	-0,008	-0,125
-723,094	82,105	-0,183	-0,147
-722,079	-200,000	-0,002	0,019
-721,064	-109,314	-0,030	-0,005
-720,050	-68,050	-0,025	-0,007
-719,035	21,911	-0,033	-0,020
-718,021	-9,735	-0,068	0,034
-717,006	-200,000	-0,002	0,081
-715,991	319,342	-0,091	-0,128
-714,977	246,365	-0,027	-0,034
-713,962	800,000	0,018	-0,059
-712,948	398,233	0,058	-0,091
-711,933	227,964	0,038	0,046
-710,918	-103,225	0,079	0,014
-709,904	131,319	-0,076	-0,073
-708,889	-200,000	-0,009	-0,096
-707,875	9,448	-0,030	-0,017
-706,860	-42,366	0,083	-0,031
-705,845	-200,000	0,008	-0,056
-704,831	-200,000	0,011	0,047
-703,816	-77,440	-0,049	0,012
-702,802	515,839	-0,037	0,065
-701,787	-67,201	0,031	-0,009
-700,772	-200,000	-0,002	0,104
-699,758	-200,000	0,018	-0,110
-698,743	485,924	0,024	-0,041
-697,729	46,345	-0,074	-0,051
-696,714	-116,192	-0,021	0,003
-695,699	21,946	-0,089	-0,054
-694,685	800,000	-0,049	-0,136
-693,670	388,404	0,048	-0,074
-692,656	-101,455	0,224	-0,040
-691,641	-200,000	-0,009	-0,037
-690,627	291,991	0,091	0,124
-689,612	365,506	-0,103	-0,155
-688,597	-200,000	-0,002	-0,050
-687,583	800,000	0,015	-0,044
-686,568	800,000	-0,063	-0,139
-685,554	-93,946	0,062	-0,012
-684,539	141,342	0,029	-0,029
-683,524	114,804	0,042	0,038
-682,510	-187,457	-0,086	0,001
-681,495	800,000	-0,049	0,105
-680,481	309,142	-0,089	0,124
-679,466	141,886	-0,105	-0,103
-678,451	362,737	0,035	-0,053
-677,437	-200,000	0,000	-0,050
-676,422	-63,876	-0,086	0,026
-675,408	-200,000	-0,007	0,096
-674,393	-111,149	0,089	-0,013
-673,378	256,515	-0,030	-0,038
-672,364	263,145	-0,093	-0,120
-671,349	-126,950	-0,145	-0,016
-670,335	-200,000	0,008	-0,080
-669,320	57,065	-0,091	-0,066
-668,305	214,369	0,061	0,071
-667,291	-200,000	0,020	0,083
-666,276	66,968	-0,080	0,060
-665,262	-53,210	-0,142	-0,048
-664,247	285,172	-0,082	-0,109
-663,232	-200,000	0,012	-0,094
-662,218	-200,000	-0,009	0,074
-661,203	-200,000	0,027	-0,126
-660,189	118,968	-0,057	-0,052
-659,174	-200,000	-0,039	-0,199
-658,159	513,811	-0,045	-0,079
-657,145	-17,435	0,087	-0,040
-656,130	144,593	0,071	0,070
-655,116	-200,000	-0,001	-0,005
-654,101	800,000	-0,038	-0,092
-653,086	101,916	-0,106	-0,092
-652,072	-200,000	-0,003	-0,019
-651,057	123,855	0,070	-0,066
-650,043	30,754	-0,232	-0,147
-649,028	-145,556	-0,062	0,004
-648,014	800,000	-0,047	-0,114
-646,999	800,000	-0,064	-0,165
-645,984	134,039	-0,057	-0,055
-644,970	391,896	-0,097	-0,150
-643,955	800,000	0,030	-0,092
-642,941	-104,879	0,045	0,008
-641,926	385,923	-0,028	0,043
-640,911	-98,877	-0,014	-0,003
-639,897	-91,517	-0,103	0,022
-638,882	47,498	0,059	-0,041
-637,868	217,031	-0,013	-0,015
-636,853	-76,974	-0,099	0,025
-635,838	-94,021	0,044	0,009
-634,824	800,000	0,037	-0,080
-633,809	-200,000	0,007	-0,053
-632,795	-200,000	0,012	0,063
-631,780	29,392	0,055	-0,034
-630,765	800,000	-0,043	-0,114
-629,751	517,199	0,045	-0,078
-628,736	44,150	-0,126	-0,085
-627,722	-85,705	0,085	-0,019
-626,707	800,000	0,020	-0,053
-625,692	-200,000	0,014	0,100
-624,678	-200,000	0,007	-0,027
-623,663	169,339	-0,065	-0,069
-622,649	119,939	0,032	0,030
-621,634	155,790	-0,081	-0,083
-620,619	507,713	-0,070	-0,121
-619,605	-27,651	-0,009	-0,004
-618,590	358,171	0,081	-0,120
-617,576	415,902	0,080	0,127
-616,561	-105,133	-0,135	0,023
-615,546	-184,500	0,095	-0,001
-614,532	-140,115	-0,040	0,003
-613,517	486,512	0,117	-0,199
-612,503	-200,000	0,016	-0,068
-611,488	-17,836	0,074	0,034
-610,474	66,782	0,069	-0,052
-609,459	134,056	0,076	0,073
-608,444	34,334	-0,077	0,050
-607,430	198,253	-0,013	0,015
-606,415	-200,000	-0,012	-0,140
-605,401	-200,000	-0,001	0,025
-604,386	800,000	0,073	0,215
-603,371	-145,163	-0,025	-0,002
-602,357	800,000	0,076	0,183
-601,342	-200,000	-0,010	0,079
-600,328	51,301	-0,066	-0,047
-599,313	540,714	0,034	-0,060
-598,298	-200,000	0,003	0,019
-597,284	-85,846	-0,076	0,017
-596,269	-200,000	0,013	0,075
-595,255	315,252	-0,089	0,124
-594,240	-62,339	0,091	-0,028
-593,225	800,000	0,047	-0,147
-592,211	-25,310	-0,074	-0,032
-591,196	269,655	0,052	0,067
-590,182	109,092	-0,113	0,100
-589,167	467,472	0,055	-0,092
-588,152	-200,000	-0,051	0,208
-587,138	800,000	0,013	0,031
-586,123	691,241	0,025	0,048
-585,109	420,380	-0,071	-0,114
-584,094	764,514	-0,055	0,111
-583,079	628,753	0,039	-0,074
-582,065	321,611	-0,020	0,028
-581,050	-200,000	-0,014	-0,054
-580,036	182,587	-0,046	0,051
-579,021	800,000	-0,021	-0,057
-578,006	800,000	-0,007	-0,018
-576,992	-91,317	-0,037	0,008
-575,977	14,565	-0,098	0,056
-574,963	800,000	-0,020	0,064
-573,948	-200,000	-0,001	0,159
-572,934	800,000	-0,044	-0,095
-571,919	38,716	-0,131	0,086
-570,904	-170,828	-0,103	0,003
-569,890	58,760	-0,049	-0,035
-568,875	-75,075	-0,019	-0,005
-567,861	-54,215	-0,011	-0,004
-566,846	321,463	-0,069	-0,097
-565,831	800,000	0,017	0,045
-564,817	486,523	-0,138	-0,234
-563,802	-13,709	-0,149	-0,071
-562,788	800,000	-0,043	-0,115
-561,773	-28,073	0,081	-0,034
-560,758	-200,000	0,020	0,076
-559,744	-4,744	0,091	-0,046
-558,729	-200,000	0,019	0,125
-557,715	69,450	-0,063	-0,048
-556,700	-75,209	-0,067	0,017
-555,685	424,048	0,042	0,066
-554,671	50,915	-0,012	0,008
-553,656	-62,175	0,160	0,049
-552,642	198,312	0,036	-0,040
-551,627	-200,000	-0,001	0,030
-550,612	-138,262	0,168	-0,014
-549,598	414,996	0,027	-0,043
-548,583	13,262	0,092	-0,052
-547,569	800,000	0,007	0,020
-546,554	337,049	-0,036	0,052
-545,539	-200,000	0,028	0,128
-544,525	399,499	0,055	0,086
-543,510	476,737	0,032	-0,053
-542,496	800,000	-0,039	-0,111
-541,481	206,261	-0,021	-0,024
-540,466	203,187	-0,092	-0,105
-539,452	308,603	-0,077	0,106
-538,437	355,510	0,042	0,062
-537,423	2,388	-0,053	-0,028
-536,408	197,462	-0,113	0,128
-535,393	26,651	-0,139	-0,086
-534,379	716,485	-0,072	-0,141
-533,364	-200,000	0,016	-0,068
-532,350	136,251	0,073	-0,070
-531,335	155,871	-0,084	0,086
-530,321	62,952	0,053	0,039
-529,306	-67,065	0,111	0,032
-528,291	-86,592	0,039	-0,009
-527,277	463,036	0,021	-0,035
-526,262	-96,099	-0,019	-0,004
-525,248	18,991	-0,064	-0,038
-524,233	800,000	0,005	-0,017
-523,218	800,000	0,067	0,169
-522,204	89,348	-0,106	0,087
-521,189	134,787	-0,101	-0,096
-520,175	16,253	-0,132	0,077
-519,160	-200,000	-0,013	0,050
-518,145	800,000	-0,041	0,089
-517,131	-200,000	-0,006	0,029
-516,116	-200,000	-0,008	-0,082
-515,102	510,708	-0,015	0,026
-514,087	19,670	0,091	-0,054
-513,072	423,865	-0,055	-0,088
-512,058	800,000	-0,047	-0,106
-511,043	193,982	0,154	-0,173
-510,029	-200,000	-0,003	0,117
-509,014	119,928	0,074	0,068
-507,999	41,438	-0,030	0,020
-506,985	54,115	-0,066	0,047
-505,970	-69,090	-0,089	-0,025
-504,956	217,918	0,044	-0,052
-503,941	457,948	0,041	0,068
-502,926	-200,000	0,008	-0,091
-501,912	-115,205	-0,098	0,014
-500,897	-200,000	0,029	0,129
-499,883	-29,565	-0,051	-0,021
-498,868	319,716	-0,123	-0,173
-497,853	-200,000	0,004	0,042
-496,839	107,829	0,114	0,100
-495,824	-71,839	0,082	-0,022
-494,810	130,996	-0,023	0,021
-493,795	800,000	-0,046	0,112
-492,781	-28,390	-0,115	-0,049
-491,766	258,009	-0,064	-0,082
-490,751	-132,228	0,085	-0,008
-489,737	311,547	0,059	-0,082
-488,722	800,000	0,051	-0,139
-487,708	27,664	0,019	-0,011
-486,693	355,037	-0,106	-0,156
-485,678	-200,000	0,003	0,104
-484,664	-29,987	-0,081	-0,034
-483,649	156,370	-0,057	-0,058
-482,635	576,637	-0,031	-0,056
-481,620	208,948	0,168	0,194
-480,605	369,705	-0,061	0,091
-479,591	-100,552	0,068	-0,012
-478,576	-200,000	0,004	0,081
-477,562	-200,000	-0,022	-0,239
-476,547	-200,000	-0,046	-0,160
-475,532	-94,903	0,050	-0,010
-474,518	-200,000	0,014	0,129
-473,503	800,000	-0,066	0,143
-472,489	65,112	0,070	0,052
-471,474	107,934	-0,081	0,072
-470,459	614,614	0,066	-0,123
-469,445	-200,000	0,031	0,148
-468,430	-200,000	0,012	-0,095
-467,416	87,432	0,095	0,078
-466,401	-87,696	-0,092	-0,020
-465,386	-200,000	0,034	-0,126
-464,372	224,230	0,030	-0,035
-463,357	-18,409	-0,111	0,051
-462,343	-200,000	0,010	0,147
-461,328	761,598	0,019	0,038
-460,313	252,264	-0,055	0,069
-459,299	-200,000	-0,009	0,139
-458,284	5,695	0,115	-0,062
-457,270	-42,870	0,047	0,017
-456,255	749,959	0,025	-0,050
-455,241	168,884	-0,086	0,091
-454,226	-200,000	0,028	-0,101
-453,211	-128,893	0,134	0,014
-452,197	631,589	0,062	0,116
-451,182	340,627	0,062	-0,089
-450,168	546,313	0,042	-0,074
-449,153	400,468	-0,020	-0,031
-448,138	-200,000	-0,003	-0,074
-447,124	25,333	0,024	-0,015
-446,109	-111,507	-0,150	-0,022
-445,095	800,000	0,043	0,133
-444,080	-83,555	-0,127	0,030
-443,065	202,910	-0,064	-0,073
-442,051	-70,297	0,055	-0,015
-441,036	114,594	-0,072	0,065
-440,022	94,652	-0,022	-0,019
-439,007	51,089	0,045	0,031
-437,992	-31,031	-0,061	0,025
-436,978	-63,272	0,041	0,012
-435,963	-71,792	0,175	-0,048
-434,949	280,735	0,012	0,015
-433,934	-147,911	0,078	0,005
-432,919	-49,466	-0,082	-0,029
-431,905	52,234	0,105	-0,073
-430,890	800,000	-0,076	-0,182
-429,876	16,282	-0,044	-0,026
-428,861	147,502	-0,090	0,089
-427,846	254,269	-0,036	0,045
-426,832	-200,000	0,014	-0,108
-425,817	-47,324	0,047	-0,017
-424,803	440,818	-0,065	0,106
-423,788	-34,574	-0,069	-0,028
-422,773	-200,000	0,006	-0,067
-421,759	690,986	0,047	0,090
-420,744	800,000	0,003	0,009
-419,730	26,537	-0,111	-0,068
-418,715	263,602	-0,042	0,054
-417,701	411,568	0,050	-0,079
-416,686	-115,188	0,066	0,009
-415,671	-200,000	-0,029	0,111
-414,657	194,191	-0,040	0,045
-413,642	96,958	0,113	0,095
-412,628	256,289	-0,100	0,126
-411,613	-200,000	0,022	-0,087
-410,598	-200,000	0,031	0,124
-409,584	19,166	0,110	0,065
-408,569	138,461	-0,062	0,060
-407,555	510,550	-0,027	0,046
-406,540	-7,985	-0,093	0,046
-405,525	146,361	-0,043	-0,043
-404,511	-88,252	-0,096	-0,021
-403,496	-151,335	-0,151	0,008
-402,482	800,000	-0,030	-0,092
-401,467	325,412	-0,056	-0,080
-400,452	250,059	0,123	-0,154
-399,438	327,335	0,098	-0,138
-398,423	506,796	0,043	-0,073
-397,409	403,001	0,032	0,049
-396,394	291,228	-0,038	0,052
-395,379	44,263	0,061	-0,041
-394,365	263,315	0,086	-0,111
-393,350	-85,831	0,084	-0,019
-392,336	-155,545	0,183	0,008
-391,321	800,000	-0,023	0,063
-390,306	626,074	-0,038	0,070
-389,292	113,655	-0,090	-0,081
-388,277	47,206	0,103	0,070
-387,263	11,521	0,102	-0,057
-386,248	800,000	-0,046	-0,123
-385,233	-200,000	0,008	0,048
-384,219	800,000	-0,026	0,081
-383,204	34,899	0,007	0,004
-382,190	-97,852	-0,065	0,012
-381,175	-200,000	-0,006	-0,040
-380,160	76,787	0,092	-0,072
-379,146	617,752	0,066	0,123
-378,131	10,956	0,073	-0,041
-377,117	-80,013	0,032	-0,008
-376,102	-200,000	-0,019	-0,075
-375,088	-176,433	0,043	0,001
-374,073	380,627	0,061	0,092
-373,058	-145,980	0,100	-0,006
-372,044	64,944	-0,051	0,038
-371,029	-177,467	0,095	0,002
-370,015	-200,000	0,022	0,210
-369,000	800,000	-0,044	-0,135
-367,985	800,000	0,059	0,152
-366,971	284,270	0,007	-0,009
-365,956	73,624	-0,073	-0,056
-364,942	-200,000	0,038	0,181
-363,927	800,000	0,017	0,037
-362,912	143,618	0,116	0,114
-361,898	-200,000	-0,005	0,084
-360,883	567,348	-0,098	-0,175
-359,869	81,678	-0,104	-0,083
-358,854	25,775	0,142	0,087
-357,839	246,710	-0,007	0,008
-356,825	-88,680	0,088	-0,019
-355,810	155,000	0,067	0,067
-354,796	353,015	0,079	-0,116
-353,781	-97,518	-0,095	0,018
-352,766	-132,760	-0,010	-0,001
-351,752	-116,934	-0,104	0,014
-350,737	114,809	0,043	-0,039
-349,723	-159,600	0,206	-0,008
-348,708	-87,928	0,120	-0,026
-347,693	-200,000	0,024	-0,145
-346,679	601,665	0,051	-0,094
-345,664	66,668	0,091	0,068
-344,650	630,800	0,032	0,059
-343,635	126,614	0,076	0,071
-342,620	-200,000	0,007	-0,024
-341,606	102,545	-0,065	0,056
-340,591	-200,000	-0,003	0,031
-339,577	-93,889	-0,020	0,004
-338,562	800,000	-0,039	-0,111
-337,548	-48,451	0,158	-0,056
-336,533	-127,759	0,134	-0,014
-335,518	74,275	0,069	0,053
-334,504	-89,871	-0,028	-0,006
-333,489	-200,000	-0,020	-0,145
-332,475	800,000	0,040	-0,084
-331,460	-82,029	-0,035	-0,008
-330,445	800,000	-0,019	0,052
-329,431	800,000	0,010	-0,022
-328,416	450,822	-0,038	0,062
-327,402	-200,000	0,024	0,087
-326,387	-200,000	-0,002	-0,068
-325,372	148,677	-0,083	0,082
-324,358	288,585	0,040	-0,053
-323,343	-191,876	-0,098	-0,001
-322,329	247,098	0,044	-0,055
-321,314	130,628	0,114	-0,107
-320,299	-200,000	-0,004	0,037
-319,285	780,468	0,048	0,096
-318,270	463,193	-0,026	-0,043
-317,256	800,000	-0,077	-0,173
-316,241	446,792	0,048	-0,078
-315,226	119,345	-0,012	0,011
-314,212	227,605	-0,031	-0,037
-313,197	-35,960	0,137	0,054
-312,183	-200,000	-0,008	-0,028
-311,168	325,023	0,039	-0,055
-310,153	800,000	-0,061	-0,139
-309,139	800,000	-0,026	0,059
-308,124	-188,707	0,056	-0,000
-307,110	304,492	-0,026	0,035
-306,095	595,067	-0,043	0,078
-305,080	-200,000	0,021	0,166
-304,066	188,539	0,049	0,054
-303,051	-186,640	-0,036	-0,000
-302,037	57,569	-0,120	-0,086
-301,022	2,110	0,130	0,069
-300,008	-200,000	0,003	0,018
-298,993	-172,467	-0,068	-0,002
-297,978	-200,000	-0,015	0,144
-296,964	-99,148	-0,056	-0,010
-295,949	46,416	0,023	0,015
-294,935	34,727	-0,065	0,041
-293,920	800,000	0,035	0,100
-292,905	-200,000	0,031	-0,103
-291,891	-200,000	-0,017	0,115
-290,876	-200,000	-0,026	0,089
-289,862	-130,934	-0,096	-0,009
-288,847	91,607	-0,038	0,031
-287,832	800,000	-0,052	0,118
-286,818	-72,311	-0,065	0,018
-285,803	-200,000	0,004	-0,023
-284,789	312,901	0,062	0,085
-283,774	800,000	0,064	0,184
-282,759	-200,000	0,030	0,123
-281,745	126,949	-0,057	0,053
-280,730	463,298	-0,048	-0,079
-279,716	168,143	0,043	-0,045
-278,701	-200,000	0,023	0,075
-277,686	45,397	0,041	-0,028
-276,672	-5,030	-0,080	0,040
-275,657	-200,000	0,016	0,172
-274,643	12,030	-0,100	0,056
-273,628	-24,883	0,040	-0,017
-272,613	-200,000	0,013	0,163
-271,599	-200,000	-0,016	0,100
-270,584	-141,116	-0,125	-0,009
-269,570	-126,189	0,123	-0,013
-268,555	800,000	0,067	-0,137
-267,540	566,321	0,022	-0,039
-266,526	491,820	-0,036	-0,061
-265,511	-25,194	-0,120	0,052
-264,497	-200,000	-0,013	-0,100
-263,482	-19,410	0,090	-0,040
-262,467	800,000	0,042	0,096
-261,453	145,430	0,070	0,068
-260,438	526,457	0,027	-0,047
-259,424	800,000	-0,015	0,047
-258,409	754,010	-0,016	0,032
-257,395	54,052	-0,093	0,065
-256,380	-158,354	0,054	0,002
-255,365	364,314	-0,070	0,103
-254,351	-96,564	-0,149	-0,029
-253,336	89,541	-0,059	-0,048
-252,322	800,000	0,060	-0,130
-251,307	343,665	-0,021	-0,030
-250,292	-90,327	0,093	0,020
-249,278	-103,464	-0,061	0,010
-248,263	-172,262	0,119	-0,003
-247,249	-33,051	0,081	0,033
-246,234	2,766	0,045	0,024
-245,219	-200,000	-0,020	-0,191
-244,205	-200,000	-0,002	-0,115
-243,190	-32,703	-0,021	0,008
-242,176	506,145	-0,044	0,075
-241,161	800,000	0,017	0,048
-240,146	800,000	-0,020	-0,041
-239,132	12,692	-0,046	0,026
-238,117	-162,253	-0,034	-0,001
-237,103	-183,863	-0,077	-0,001
-236,088	-200,000	0,006	-0,132
-235,073	134,792	-0,044	-0,042
-234,059	-115,136	0,078	0,011
-233,044	-60,568	0,096	-0,029
-232,030	-90,795	-0,166	-0,035
-231,015	-72,108	0,176	-0,047
-230,000	-100,468	-0,069	0,012
-228,986	-27,924	0,082	0,034
-227,971	516,154	0,034	-0,059
-226,957	170,909	0,097	0,102
-225,942	-200,000	0,013	-0,096
-224,927	800,000	-0,066	0,140
-223,913	57,923	0,062	0,044
-222,898	726,063	-0,006	-0,011
-221,884	800,000	0,025	-0,076
-220,869	504,557	-0,032	-0,054
-219,855	-86,232	0,181	0,040
-218,840	800,000	-0,054	0,120
-217,825	-200,000	0,000	0,031
-216,811	-139,750	-0,131	-0,010
-215,796	300,650	0,021	0,028
-214,782	-3,540	0,023	-0,012
-213,767	559,968	-0,075	0,133
-212,752	-57,420	0,058	-0,019
-211,738	67,953	-0,063	-0,047
-210,723	-122,970	-0,155	-0,018
-209,709	-200,000	0,008	-0,028
-208,694	-137,543	-0,103	-0,008
-207,679	685,630	-0,050	-0,095
-206,665	-77,419	0,030	-0,008
-205,650	319,148	0,046	0,063
-204,636	800,000	0,035	0,091
-203,621	800,000	0,001	-0,003
-202,606	-101,993	-0,088	0,015
-201,592	-200,000	0,001	-0,155
-200,577	588,708	-0,050	-0,090
-199,563	76,551	0,147	-0,114
-198,548	-102,658	0,171	-0,029
-197,533	174,678	-0,023	0,025
-196,519	275,351	-0,055	0,072
-195,504	-200,000	-0,011	-0,179
-194,490	76,461	0,064	-0,049
-193,475	185,225	0,045	0,049
-192,460	142,056	0,070	-0,068
-191,446	65,620	-0,022	-0,016
-190,431	-200,000	0,024	0,113
-189,417	-200,000	0,018	0,165
-188,402	-35,788	0,069	-0,027
-187,387	608,177	0,065	-0,119
-186,373	-174,022	-0,100	0,002
-185,358	24,845	0,090	-0,054
-184,344	800,000	0,068	0,173
-183,329	16,541	0,094	-0,054
-182,315	-81,421	-0,129	0,031
-181,300	700,089	-0,050	-0,096
-180,285	-111,471	-0,053	-0,008
-179,271	566,134	-0,065	0,115
-178,256	-67,501	-0,129	-0,037
-177,242	-57,958	0,090	0,028
-176,227	537,678	0,076	0,133
-175,212	-200,000	0,022	0,106
-174,198	33,225	-0,131	0,083
-173,183	154,660	-0,056	-0,056
-172,169	-7,411	0,094	-0,046
-171,154	64,856	0,032	0,023
-170,139	-200,000	-0,013	-0,103
-169,125	800,000	0,045	0,094
-168,110	-152,516	-0,121	-0,006
-167,096	-141,325	-0,021	-0,002
-166,081	317,924	0,103	-0,142
-165,066	68,456	-0,108	-0,080
-164,052	93,119	0,073	-0,060
-163,037	800,000	-0,026	0,053
-162,023	-83,100	0,105	0,024
-161,008	-200,000	-0,006	0,146
-159,993	740,983	0,024	-0,047
-158,979	-88,828	0,125	-0,027
-157,964	454,491	-0,076	0,124
-156,950	246,667	0,051	-0,063
-155,935	800,000	-0,041	0,103
-154,920	-136,438	-0,035	-0,003
-153,906	-200,000	-0,019	-0,081
-152,891	-141,148	-0,170	-0,012
-151,877	-51,520	-0,101	-0,034
-150,862	449,742	-0,062	0,100
-149,847	274,179	-0,003	-0,004
-148,833	113,715	0,120	-0,106
-147,818	-200,000	0,009	0,042
-146,804	-58,926	0,043	0,013
-145,789	654,572	-0,057	0,107
-144,775	144,285	-0,031	-0,030
-143,760	-97,075	0,074	-0,014
-142,745	-90,768	-0,141	0,029
-141,731	462,524	0,047	-0,077
-140,716	199,736	-0,068	-0,076
-139,702	-200,000	-0,019	0,089
-138,687	800,000	0,078	0,166
-137,672	-138,330	0,053	-0,004
-136,658	-18,041	0,062	-0,028
-135,643	144,320	-0,073	0,070
-134,629	100,449	0,102	-0,086
-133,614	37,877	0,086	0,055
-132,599	103,665	0,118	0,101
-131,585	-47,362	0,109	0,038
-130,570	-200,000	0,007	0,091
-129,556	-200,000	0,007	-0,065
-128,541	-200,000	0,027	-0,171
-127,526	-71,076	-0,019	0,005
-126,512	-200,000	-0,003	-0,038
-125,497	583,285	0,083	0,148
-124,483	156,317	-0,056	0,056
-123,468	-36,640	-0,038	-0,015
-122,453	-123,576	-0,092	0,010
-121,439	-68,471	-0,122	-0,034
-120,424	-59,310	-0,115	0,036
