DTS Sentinel unit serial number:	SN410029Multiplexer serial number:	ORYXHardware model number:	OX2-SRSoftware version number:	ORYX F/W v4,00 Oryx Data Collector v3.7.2.0data status	okinstallation	B4 Nyhavnadifferential loss correction	single-endedforward channel	channel 2reverse channel	N/Adate	2023/12/19time	00:30:13forward acquisition time	300,00reverse acquisition time	0,00gamma	499,1914k internal	0,3123k external	0,3123temperature offset calibration	1,0000default loss term (dB/km)	0,3820temperature slope calibration	1,0000multiplexer offset coefficient	1,0000multiplexer slope coefficient	1,0000fibre end	0,00T internal ref (°C)	22,12T ext. ref 1 (°C)	6,63T ext. ref 2 (°C)	6,64length (m)	temperature (°C)	Stokes	anti-Stokes-744,400	196,864	0,063	-0,072
-743,385	149,586	-0,122	0,123
-742,371	-147,284	0,091	0,006
-741,356	199,308	-0,194	0,222
-740,342	-200,000	-0,007	0,048
-739,327	15,948	-0,225	0,132
-738,312	-200,000	-0,017	-0,079
-737,298	-83,313	-0,169	0,040
-736,283	-200,000	-0,006	-0,058
-735,269	161,684	-0,164	0,172
-734,254	334,858	-0,015	-0,021
-733,239	4,442	-0,313	-0,170
-732,225	-107,134	-0,044	-0,007
-731,210	800,000	0,023	-0,050
-730,196	800,000	0,036	-0,084
-729,181	-57,117	0,130	-0,042
-728,167	27,401	0,033	-0,020
-727,152	-200,000	-0,006	-0,028
-726,137	-200,000	-0,026	-0,168
-725,123	-200,000	0,052	-0,180
-724,108	800,000	0,042	-0,097
-723,094	-85,742	-0,155	0,036
-722,079	-200,000	-0,036	0,140
-721,064	800,000	-0,025	0,068
-720,050	800,000	0,014	-0,044
-719,035	800,000	0,085	0,185
-718,021	132,999	0,052	0,050
-717,006	259,355	-0,076	-0,098
-715,991	-200,000	0,042	-0,218
-714,977	416,125	-0,040	-0,063
-713,962	-200,000	0,013	-0,071
-712,948	-56,963	0,057	0,019
-711,933	-200,000	-0,001	0,028
-710,918	800,000	0,066	-0,159
-709,904	-113,258	-0,190	0,027
-708,889	249,964	0,071	-0,090
-707,875	43,146	-0,091	-0,062
-706,860	-59,880	0,060	-0,019
-705,845	32,208	0,067	-0,043
-704,831	800,000	-0,071	0,190
-703,816	259,246	-0,059	-0,075
-702,802	-193,603	0,032	0,000
-701,787	-79,959	-0,046	0,012
-700,772	-200,000	0,012	0,063
-699,758	160,579	-0,081	-0,084
-698,743	-104,599	-0,054	0,009
-697,729	-12,580	-0,105	0,051
-696,714	-143,732	0,029	0,002
-695,699	-38,179	-0,130	0,051
-694,685	-200,000	-0,014	0,096
-693,670	-200,000	0,000	-0,042
-692,656	47,349	0,116	-0,080
-691,641	-81,511	-0,058	0,014
-690,627	136,780	0,082	0,079
-689,612	-19,292	0,087	-0,040
-688,597	-200,000	-0,147	0,000
-687,583	-11,484	0,083	-0,040
-686,568	800,000	0,037	-0,112
-685,554	94,920	-0,053	-0,045
-684,539	223,956	-0,066	-0,079
-683,524	-60,483	0,170	0,053
-682,510	315,148	0,047	0,065
-681,495	-54,523	-0,132	-0,044
-680,481	190,825	0,091	-0,102
-679,466	-200,000	-0,013	-0,131
-678,451	230,104	-0,038	-0,047
-677,437	800,000	0,083	-0,208
-676,422	-200,000	0,006	0,052
-675,408	-136,861	0,046	0,004
-674,393	16,695	0,030	0,018
-673,378	-88,047	-0,073	-0,016
-672,364	13,333	-0,121	-0,070
-671,349	-46,588	-0,082	-0,030
-670,335	-91,581	0,126	0,026
-669,320	-125,805	-0,080	-0,009
-668,305	-200,000	0,029	0,096
-667,291	252,554	-0,056	-0,071
-666,276	219,009	-0,076	-0,090
-665,262	-114,287	-0,086	-0,012
-664,247	257,283	-0,024	-0,031
-663,232	-49,044	-0,071	-0,025
-662,218	-200,000	0,040	0,144
-661,203	-31,934	0,036	-0,015
-660,189	67,845	-0,095	0,072
-659,174	-131,958	-0,119	0,011
-658,159	518,684	0,041	-0,071
-657,145	-200,000	-0,013	-0,057
-656,130	-127,836	0,033	0,003
-655,116	143,285	0,077	-0,076
-654,101	140,191	-0,072	0,071
-653,086	-109,334	-0,036	0,006
-652,072	-100,123	0,108	0,020
-651,057	11,619	-0,140	-0,080
-650,043	129,398	0,165	-0,156
-649,028	104,913	-0,029	0,025
-648,014	-184,334	-0,089	0,001
-646,999	231,417	0,084	-0,102
-645,984	800,000	0,037	-0,080
-644,970	-77,158	0,086	0,022
-643,955	-130,906	-0,089	0,009
-642,941	-52,922	-0,066	0,023
-641,926	800,000	-0,054	0,140
-640,911	-200,000	0,016	0,111
-639,897	-65,316	0,082	-0,024
-638,882	-149,137	0,152	-0,009
-637,868	655,062	-0,033	0,063
-636,853	-200,000	-0,007	0,030
-635,838	-200,000	-0,025	-0,160
-634,824	20,941	0,052	-0,031
-633,809	-200,000	0,014	0,047
-632,795	-200,000	-0,005	0,058
-631,780	-200,000	0,017	0,077
-630,765	54,575	-0,101	-0,072
-629,751	800,000	-0,057	-0,144
-628,736	-72,125	0,011	0,003
-627,722	796,484	-0,034	-0,070
-626,707	-200,000	0,017	-0,081
-625,692	-200,000	0,038	0,139
-624,678	-104,945	-0,043	-0,007
-623,663	-9,078	-0,044	0,022
-622,649	-200,000	0,024	-0,101
-621,634	129,409	-0,065	0,061
-620,619	-200,000	-0,001	-0,102
-619,605	-200,000	0,028	-0,106
-618,590	-200,000	0,017	0,113
-617,576	800,000	0,028	-0,062
-616,561	233,835	-0,017	-0,020
-615,546	358,816	-0,017	0,025
-614,532	211,381	-0,104	-0,121
-613,517	12,124	-0,091	-0,052
-612,503	-120,089	-0,105	0,013
-611,488	-200,000	-0,057	0,219
-610,474	800,000	-0,063	0,148
-609,459	-73,189	-0,078	-0,021
-608,444	144,725	-0,055	0,054
-607,430	25,012	0,107	0,066
-606,415	-84,926	-0,184	-0,042
-605,401	37,975	0,032	0,021
-604,386	148,418	-0,042	0,043
-603,371	48,916	0,021	0,015
-602,357	29,145	0,038	0,024
-601,342	800,000	-0,023	0,070
-600,328	-200,000	-0,011	-0,041
-599,313	-71,281	-0,098	0,027
-598,298	37,305	0,017	0,011
-597,284	800,000	0,031	0,069
-596,269	403,794	-0,066	0,104
-595,255	-29,044	-0,033	0,014
-594,240	-191,025	-0,236	-0,002
-593,225	321,227	-0,031	-0,043
-592,211	-200,000	-0,045	-0,199
-591,196	-200,000	0,027	-0,124
-590,182	-19,406	-0,101	-0,046
-589,167	-45,207	0,097	0,036
-588,152	800,000	-0,029	-0,077
-587,138	-200,000	0,019	-0,092
-586,123	365,584	-0,081	-0,121
-585,109	-190,748	0,110	0,001
-584,094	-200,000	0,011	0,060
-583,079	800,000	0,028	-0,067
-582,065	-200,000	-0,034	0,127
-581,050	14,012	0,046	0,026
-580,036	-15,902	-0,018	-0,009
-579,021	16,569	0,146	-0,085
-578,006	121,877	0,039	-0,036
-576,992	165,369	-0,075	-0,079
-575,977	-200,000	0,014	0,065
-574,963	-101,943	0,071	-0,013
-573,948	-32,964	-0,035	-0,014
-572,934	-68,201	0,020	0,006
-571,919	-200,000	-0,001	-0,171
-570,904	800,000	-0,065	0,143
-569,890	-50,445	0,102	-0,035
-568,875	-200,000	0,026	0,088
-567,861	-171,499	0,093	0,002
-566,846	-200,000	0,025	0,122
-565,831	68,848	-0,088	-0,067
-564,817	-42,087	0,041	-0,015
-563,802	118,205	0,079	-0,072
-562,788	646,234	-0,015	-0,028
-561,773	800,000	-0,039	0,117
-560,758	-200,000	-0,006	0,034
-559,744	147,663	-0,030	-0,030
-558,729	205,715	0,034	0,039
-557,715	-163,364	-0,063	-0,002
-556,700	-7,509	-0,031	-0,016
-555,685	800,000	-0,059	0,132
-554,671	-200,000	-0,008	-0,141
-553,656	370,046	-0,045	-0,067
-552,642	-200,000	0,005	0,182
-551,627	237,821	0,064	0,078
-550,612	-200,000	-0,000	0,095
-549,598	9,527	0,047	-0,026
-548,583	800,000	0,031	0,081
-547,569	32,517	0,152	0,097
-546,554	-200,000	-0,015	0,062
-545,539	79,355	-0,052	-0,041
-544,525	-200,000	-0,034	0,156
-543,510	584,248	0,027	-0,049
-542,496	-175,128	-0,055	-0,001
-541,481	-122,683	-0,085	-0,010
-540,466	146,490	-0,048	-0,048
-539,452	-47,256	0,144	0,052
-538,437	-121,921	0,022	-0,003
-537,423	550,140	-0,033	0,058
-536,408	-200,000	0,002	0,128
-535,393	255,133	-0,019	-0,025
-534,379	0,437	-0,113	0,060
-533,364	268,583	0,033	-0,042
-532,350	-34,809	-0,078	0,032
-531,335	667,144	-0,063	0,122
-530,321	-64,839	-0,168	0,050
-529,306	800,000	-0,022	0,059
-528,291	-200,000	-0,051	-0,172
-527,277	-200,000	0,039	-0,149
-526,262	-200,000	-0,013	0,051
-525,248	-200,000	0,008	0,077
-524,233	800,000	0,054	0,132
-523,218	-67,708	-0,044	-0,013
-522,204	800,000	-0,050	-0,121
-521,189	-1,126	0,066	0,034
-520,175	18,686	0,108	-0,064
-519,160	-200,000	-0,018	-0,079
-518,145	170,315	-0,083	0,088
-517,131	36,091	0,032	0,020
-516,116	-200,000	-0,015	-0,098
-515,102	5,315	0,040	0,022
-514,087	308,695	-0,046	-0,064
-513,072	-135,716	-0,047	-0,004
-512,058	-37,972	-0,063	0,025
-511,043	-95,412	0,053	-0,010
-510,029	-81,546	0,111	-0,027
-509,014	800,000	0,014	-0,041
-507,999	97,315	0,088	-0,075
-506,985	124,425	0,051	-0,048
-505,970	-26,258	-0,046	-0,020
-504,956	-71,655	0,017	-0,005
-503,941	127,189	0,024	-0,022
-502,926	386,050	-0,043	-0,065
-501,912	8,157	0,030	0,017
-500,897	94,561	0,033	-0,027
-499,883	307,884	-0,077	0,106
-498,868	800,000	-0,032	-0,089
-497,853	-200,000	0,016	-0,051
-496,839	75,175	0,060	0,047
-495,824	800,000	0,053	-0,158
-494,810	340,934	-0,025	-0,036
-493,795	-200,000	0,011	0,063
-492,781	-89,709	-0,118	-0,025
-491,766	-85,691	-0,049	-0,011
-490,751	800,000	0,028	0,061
-489,737	-118,781	0,081	0,010
-488,722	-200,000	0,037	-0,147
-487,708	50,115	0,090	-0,063
-486,693	465,945	-0,069	0,114
-485,678	-162,778	-0,060	0,002
-484,664	-200,000	-0,023	-0,085
-483,649	-200,000	0,004	0,169
-482,635	-44,800	-0,021	-0,008
-481,620	-43,934	0,186	-0,069
-480,605	-200,000	0,008	-0,056
-479,591	-200,000	-0,000	-0,002
-478,576	65,524	0,167	-0,125
-477,562	-59,882	0,101	0,032
-476,547	-13,286	-0,105	0,050
-475,532	-108,913	0,177	0,028
-474,518	-49,436	0,208	0,073
-473,503	60,274	0,071	0,052
-472,489	-199,946	0,080	0,000
-471,474	-41,793	-0,071	0,027
-470,459	-25,071	-0,042	0,018
-469,445	398,839	0,025	0,038
-468,430	224,040	-0,089	0,106
-467,416	800,000	0,074	-0,216
-466,401	-148,456	0,039	0,002
-465,386	495,174	-0,054	0,093
-464,372	6,855	0,086	0,047
-463,357	184,473	0,092	0,101
-462,343	-200,000	-0,031	-0,141
-461,328	-200,000	0,017	0,096
-460,313	-200,000	-0,014	-0,088
-459,299	480,488	-0,055	-0,092
-458,284	800,000	-0,045	0,110
-457,270	-200,000	0,010	0,077
-456,255	34,601	-0,050	0,032
-455,241	-3,248	-0,080	0,041
-454,226	42,631	0,058	-0,039
-453,211	-200,000	0,003	-0,052
-452,197	32,458	0,123	-0,078
-451,182	-200,000	-0,002	0,053
-450,168	17,079	-0,017	-0,010
-449,153	-32,308	0,125	0,051
-448,138	-41,544	-0,083	-0,031
-447,124	260,348	-0,028	0,036
-446,109	-148,830	0,037	-0,002
-445,095	-15,397	-0,065	0,031
-444,080	639,541	-0,035	0,066
-443,065	-15,782	-0,111	-0,052
-442,051	-61,938	0,115	-0,035
-441,036	243,190	-0,089	-0,111
-440,022	284,340	0,075	0,100
-439,007	-200,000	0,009	-0,137
-437,992	-129,296	-0,088	-0,009
-436,978	-118,374	0,179	-0,023
-435,963	229,755	-0,064	0,077
-434,949	14,494	0,025	-0,014
-433,934	-190,995	0,038	0,000
-432,919	-162,403	-0,064	-0,002
-431,905	-65,315	-0,051	-0,015
-430,890	-27,887	-0,021	0,009
-429,876	-31,432	-0,060	-0,025
-428,861	16,418	0,086	-0,050
-427,846	-140,143	-0,097	-0,007
-426,832	211,629	-0,052	-0,060
-425,817	45,710	0,099	0,067
-424,803	-200,000	-0,002	-0,010
-423,788	800,000	0,052	0,123
-422,773	-84,188	-0,093	0,022
-421,759	3,087	0,076	0,041
-420,744	277,845	0,043	-0,056
-419,730	-200,000	-0,004	-0,032
-418,715	171,434	-0,024	0,026
-417,701	559,474	-0,090	-0,161
-416,686	6,623	-0,054	0,029
-415,671	800,000	0,063	0,136
-414,657	409,860	-0,053	0,083
-413,642	-49,746	-0,152	-0,053
-412,628	137,707	-0,063	0,061
-411,613	-16,814	0,040	0,018
-410,598	-37,364	-0,048	-0,019
-409,584	-200,000	-0,006	-0,074
-408,569	346,668	0,081	0,118
-407,555	-200,000	0,009	-0,130
-406,540	277,359	-0,037	-0,049
-405,525	33,025	0,058	0,037
-404,511	497,519	-0,030	-0,052
-403,496	-79,886	0,067	0,016
-402,482	177,298	-0,039	-0,042
-401,467	-200,000	-0,036	0,127
-400,452	800,000	-0,049	0,118
-399,438	75,900	0,063	-0,049
-398,423	574,173	-0,019	0,033
-397,409	-200,000	-0,001	-0,111
-396,394	71,034	0,092	-0,070
-395,379	451,376	0,038	0,062
-394,365	379,956	0,135	0,204
-393,350	355,594	-0,056	0,082
-392,336	100,524	-0,069	0,059
-391,321	-117,637	0,042	-0,006
-390,306	-200,000	-0,023	0,074
-389,292	-200,000	0,015	-0,115
-388,277	-200,000	0,037	-0,174
-387,263	-106,374	0,260	0,042
-386,248	765,754	-0,018	-0,037
-385,233	60,612	-0,056	0,041
-384,219	-69,503	-0,080	0,022
-383,204	47,874	0,085	-0,058
-382,190	-108,826	-0,167	-0,026
-381,175	-95,132	0,020	-0,004
-380,160	-200,000	-0,023	0,108
-379,146	92,294	0,080	0,066
-378,131	800,000	0,076	0,197
-377,117	94,365	-0,030	-0,025
-376,102	77,671	-0,094	0,074
-375,088	-123,854	-0,111	0,013
-374,073	-181,863	-0,128	-0,002
-373,058	693,007	-0,020	0,039
-372,044	-80,466	0,102	0,025
-371,029	-133,772	-0,062	0,006
-370,015	679,044	0,036	0,068
-369,000	270,438	-0,061	-0,079
-367,985	-179,474	-0,033	0,001
-366,971	334,242	-0,078	0,111
-365,956	-200,000	-0,018	0,071
-364,942	800,000	0,083	0,187
-363,927	-19,426	-0,057	-0,026
-362,912	-82,976	0,051	-0,012
-361,898	-125,478	-0,100	-0,011
-360,883	-154,978	-0,074	-0,003
-359,869	-18,007	0,130	-0,060
-358,854	-200,000	-0,021	0,077
-357,839	240,903	-0,021	0,026
-356,825	-200,000	-0,005	0,051
-355,810	-200,000	0,003	0,137
-354,796	-178,336	0,054	-0,001
-353,781	-74,378	-0,094	0,025
-352,766	370,855	0,035	-0,052
-351,752	117,751	0,068	-0,062
-350,737	298,316	0,080	-0,108
-349,723	-24,333	0,089	-0,039
-348,708	800,000	0,021	0,060
-347,693	-96,670	-0,040	0,008
-346,679	800,000	0,059	-0,130
-345,664	449,224	0,030	-0,048
-344,650	58,627	0,043	0,031
-343,635	-91,974	0,175	0,036
-342,620	-200,000	-0,015	0,127
-341,606	37,630	0,140	0,091
-340,591	800,000	-0,004	0,013
-339,577	384,381	0,067	-0,102
-338,562	-200,000	0,003	-0,012
-337,548	800,000	0,035	0,081
-336,533	-115,287	0,031	-0,004
-335,518	105,464	-0,107	0,093
-334,504	-21,759	-0,101	0,045
-333,489	7,577	0,094	0,052
-332,475	242,765	-0,006	0,007
-331,460	-109,962	-0,102	-0,015
-330,445	-200,000	0,002	-0,030
-329,431	800,000	-0,034	-0,072
-328,416	-200,000	-0,025	0,106
-327,402	405,485	0,036	0,056
-326,387	-89,720	-0,101	-0,022
-325,372	186,765	-0,037	-0,041
-324,358	-92,997	-0,090	0,018
-323,343	-129,215	0,013	0,001
-322,329	302,063	-0,074	0,100
-321,314	-200,000	0,010	0,141
-320,299	800,000	0,030	0,068
-319,285	-68,359	0,040	0,011
-318,270	286,974	-0,075	-0,099
-317,256	-4,086	0,091	0,046
-316,241	-106,321	0,181	-0,029
-315,226	49,533	-0,120	-0,083
-314,212	-95,555	-0,029	-0,006
-313,197	496,013	-0,014	-0,024
-312,183	381,253	-0,075	-0,113
-311,168	800,000	-0,068	-0,165
-310,153	-62,590	-0,136	0,041
-309,139	-14,197	0,075	-0,035
-308,124	-91,937	-0,177	0,036
-307,110	73,554	0,026	0,020
-306,095	-91,417	-0,086	-0,018
-305,080	50,093	0,077	0,053
-304,066	-200,000	-0,003	-0,068
-303,051	3,954	-0,078	-0,042
-302,037	-7,850	-0,088	0,043
-301,022	-82,632	-0,049	-0,011
-300,008	800,000	-0,043	0,093
-298,993	800,000	0,055	-0,114
-297,978	113,216	0,134	0,119
-296,964	144,671	0,077	-0,076
-295,949	167,807	0,036	-0,038
-294,935	279,805	-0,093	-0,122
-293,920	-200,000	-0,018	0,085
-292,905	241,705	0,063	0,077
-291,891	-16,551	-0,058	0,027
-290,876	17,569	-0,041	0,024
-289,862	-200,000	0,027	0,133
-288,847	800,000	-0,041	0,116
-287,832	141,271	-0,061	0,059
-286,818	-200,000	-0,008	-0,100
-285,803	250,628	0,098	-0,122
-284,789	232,511	0,046	0,056
-283,774	-200,000	0,010	0,109
-282,759	63,097	-0,074	-0,054
-281,745	120,349	-0,113	-0,103
-280,730	-200,000	-0,015	-0,110
-279,716	-39,599	0,064	0,025
-278,701	-8,472	0,079	0,039
-277,686	-60,035	-0,060	-0,019
-276,672	-200,000	0,013	0,071
-275,657	-5,082	-0,036	0,018
-274,643	-7,477	0,113	0,056
-273,628	-43,383	-0,075	0,027
-272,613	-200,000	0,042	-0,151
-271,599	800,000	0,059	0,148
-270,584	9,614	0,148	0,082
-269,570	-49,546	-0,071	-0,025
-268,555	-200,000	0,016	0,074
-267,540	140,890	-0,054	0,053
-266,526	275,534	-0,044	0,058
-265,511	127,005	0,058	-0,054
-264,497	-200,000	-0,010	-0,122
-263,482	-200,000	0,009	0,039
-262,467	162,304	-0,065	0,066
-261,453	178,171	-0,067	0,072
-260,438	-200,000	0,013	-0,079
-259,424	6,283	0,067	-0,036
-258,409	671,777	0,045	-0,086
-257,395	-90,984	0,039	0,008
-256,380	800,000	-0,055	-0,133
-255,365	-200,000	0,019	0,093
-254,351	800,000	0,049	0,152
-253,336	626,451	0,037	-0,068
-252,322	-36,759	-0,149	0,058
-251,307	-200,000	-0,021	-0,082
-250,292	211,297	0,009	0,010
-249,278	-200,000	-0,047	0,175
-248,263	-73,769	-0,092	-0,024
-247,249	-146,491	0,092	-0,006
-246,234	241,973	-0,038	-0,046
-245,219	-153,254	-0,171	-0,009
-244,205	-200,000	-0,003	0,036
-243,190	-130,626	0,193	0,019
-242,176	-165,046	0,119	-0,004
-241,161	-66,617	-0,085	-0,024
-240,146	-93,249	-0,157	0,032
-239,132	321,152	-0,044	-0,061
-238,117	800,000	0,030	-0,074
-237,103	-200,000	-0,003	-0,031
-236,088	86,069	0,075	-0,061
-235,073	-200,000	-0,006	0,060
-234,059	75,319	0,064	-0,049
-233,044	404,152	-0,064	-0,099
-232,030	-103,179	0,130	0,022
-231,015	800,000	-0,025	-0,070
-230,000	-200,000	0,008	-0,125
-228,986	-135,353	0,052	-0,004
-227,971	-41,737	-0,017	0,006
-226,957	800,000	-0,046	-0,119
-225,942	-35,723	0,065	-0,026
-224,927	156,658	-0,049	-0,050
-223,913	-154,471	-0,023	-0,001
-222,898	134,107	-0,041	0,039
-221,884	-95,413	0,074	-0,014
-220,869	-200,000	-0,003	-0,054
-219,855	173,884	0,062	-0,066
-218,840	-119,282	0,179	-0,022
-217,825	369,891	0,029	-0,042
-216,811	104,204	0,075	-0,065
-215,796	289,597	-0,101	-0,134
-214,782	79,201	0,062	-0,049
-213,767	-129,524	0,040	0,004
-212,752	-11,992	0,074	0,035
-211,738	-7,509	-0,053	-0,026
-210,723	-27,661	0,133	0,056
-209,709	92,291	-0,067	-0,055
-208,694	329,707	-0,066	-0,093
-207,679	327,519	0,009	-0,013
-206,665	181,714	0,027	0,029
-205,650	10,492	-0,040	0,022
-204,636	577,626	0,034	0,061
-203,621	350,024	-0,048	-0,069
-202,606	157,286	0,078	0,079
-201,592	524,639	0,038	-0,066
-200,577	800,000	0,051	-0,121
-199,563	547,683	-0,034	-0,060
-198,548	-167,119	0,106	0,003
-197,533	-23,716	-0,049	0,021
-196,519	-200,000	-0,018	0,144
-195,504	-200,000	0,021	0,081
-194,490	-200,000	0,001	-0,003
-193,475	-134,230	0,089	-0,008
-192,460	-200,000	0,009	0,038
-191,446	-128,266	0,100	0,010
-190,431	-114,680	0,148	0,020
-189,417	183,564	0,053	0,057
-188,402	-200,000	0,013	-0,057
-187,387	-136,631	-0,163	0,014
-186,373	-87,880	0,082	0,018
-185,358	345,030	0,023	0,033
-184,344	17,341	-0,050	-0,029
-183,329	36,120	0,021	0,013
-182,315	-200,000	-0,030	-0,172
-181,300	-66,666	-0,057	0,016
-180,285	-128,853	-0,127	-0,013
-179,271	459,189	0,020	-0,033
-178,256	-111,413	0,058	-0,008
-177,242	-200,000	-0,035	-0,118
-176,227	-7,708	0,147	0,072
-175,212	-157,221	-0,097	0,004
-174,198	-200,000	-0,020	0,078
-173,183	-146,956	-0,100	0,006
-172,169	313,392	-0,057	0,079
-171,154	248,846	-0,124	-0,153
-170,139	630,917	0,036	-0,066
-169,125	800,000	0,034	-0,081
-168,110	-137,817	0,099	0,008
-167,096	-200,000	-0,001	0,011
-166,081	800,000	-0,025	-0,078
-165,066	30,461	0,042	-0,026
-164,052	800,000	0,013	0,039
-163,037	187,701	-0,075	-0,082
-162,023	800,000	0,053	0,117
-161,008	-200,000	0,000	0,003
-159,993	-200,000	0,036	-0,135
-158,979	18,017	0,079	-0,046
-157,964	241,007	-0,106	-0,129
-156,950	240,687	0,066	-0,080
-155,935	800,000	-0,037	-0,107
-154,920	800,000	0,029	-0,068
-153,906	222,250	0,059	0,069
-152,891	308,329	0,009	0,012
-151,877	553,811	0,070	0,123
-150,862	-117,265	-0,099	-0,013
-149,847	-0,178	0,041	-0,021
-148,833	800,000	-0,058	-0,140
-147,818	-181,088	0,157	0,002
-146,804	230,199	0,042	-0,050
-145,789	173,813	0,046	-0,048
-144,775	536,623	0,058	-0,100
-143,760	800,000	-0,016	-0,035
-142,745	37,091	-0,102	-0,066
-141,731	194,966	-0,124	0,137
-140,716	-45,619	0,130	-0,047
-139,702	69,460	0,144	-0,108
-138,687	-200,000	0,002	0,086
-137,672	-54,330	-0,137	0,045
-136,658	94,327	0,053	-0,044
-135,643	-200,000	0,008	-0,067
-134,629	506,549	-0,065	-0,110
-133,614	6,003	0,119	-0,064
-132,599	-107,660	0,041	0,006
-131,585	347,244	0,021	0,031
-130,570	353,589	-0,039	0,057
-129,556	-122,929	-0,141	-0,016
-128,541	576,139	-0,079	-0,141
-127,526	133,335	0,025	0,023
-126,512	294,678	0,024	0,031
-125,497	-200,000	-0,011	0,166
-124,483	800,000	-0,007	0,023
-123,468	800,000	0,043	0,107
-122,453	-200,000	0,006	-0,054
-121,439	-127,604	-0,108	-0,011
-120,424	-200,000	0,023	0,085
-119,410	-200,000	-0,008	0,032
