DTS Sentinel unit serial number:	SN410029Multiplexer serial number:	ORYXHardware model number:	OX2-SRSoftware version number:	ORYX F/W v4,00 Oryx Data Collector v3.7.2.0data status	okinstallation	B4 Nyhavnadifferential loss correction	single-endedforward channel	channel 2reverse channel	N/Adate	2023/12/19time	09:00:13forward acquisition time	300,00reverse acquisition time	0,00gamma	499,1914k internal	0,3128k external	0,3128temperature offset calibration	1,0000default loss term (dB/km)	0,3820temperature slope calibration	1,0000multiplexer offset coefficient	1,0000multiplexer slope coefficient	1,0000fibre end	0,00T internal ref (°C)	20,62T ext. ref 1 (°C)	5,44T ext. ref 2 (°C)	5,47length (m)	temperature (°C)	Stokes	anti-Stokes-744,400	-65,611	0,127	0,038
-743,385	-87,761	-0,228	-0,051
-742,371	-200,000	-0,003	-0,123
-741,356	25,700	-0,180	0,111
-740,342	44,593	0,143	0,098
-739,327	-88,631	-0,298	0,065
-738,312	257,790	0,042	-0,054
-737,298	12,931	-0,274	0,157
-736,283	125,893	0,045	0,042
-735,269	71,761	-0,094	0,073
-734,254	22,361	0,118	-0,071
-733,239	-118,425	-0,338	-0,044
-732,225	7,959	0,177	0,098
-731,210	-200,000	-0,040	0,147
-730,196	-200,000	0,020	0,068
-729,181	192,576	-0,071	-0,080
-728,167	800,000	-0,016	-0,052
-727,152	800,000	0,029	0,086
-726,137	-85,306	-0,101	-0,023
-725,123	207,836	-0,100	-0,116
-724,108	35,989	-0,051	-0,033
-723,094	-200,000	-0,026	-0,134
-722,079	-200,000	-0,022	-0,104
-721,064	800,000	-0,018	-0,049
-720,050	518,051	0,023	-0,040
-719,035	-200,000	-0,023	0,100
-718,021	-5,332	-0,161	-0,082
-717,006	-98,298	-0,086	0,016
-715,991	-200,000	-0,009	-0,096
-714,977	800,000	-0,011	-0,026
-713,962	-200,000	0,014	-0,084
-712,948	-78,556	-0,091	-0,023
-711,933	800,000	0,053	0,117
-710,918	103,576	-0,059	0,052
-709,904	29,223	-0,075	-0,047
-708,889	-107,680	-0,174	-0,028
-707,875	-50,517	-0,129	-0,045
-706,860	117,449	0,102	0,094
-705,845	-136,210	-0,256	-0,022
-704,831	-54,837	-0,060	-0,020
-703,816	309,214	-0,064	-0,090
-702,802	-200,000	0,004	0,067
-701,787	-200,000	0,017	-0,110
-700,772	724,132	0,034	0,068
-699,758	-108,574	0,028	-0,004
-698,743	115,487	0,152	0,138
-697,729	202,743	-0,048	0,056
-696,714	-22,852	-0,111	-0,049
-695,699	800,000	-0,015	-0,036
-694,685	682,646	-0,079	-0,153
-693,670	-102,072	-0,012	-0,002
-692,656	364,791	-0,123	0,184
-691,641	-200,000	-0,004	0,052
-690,627	-142,206	0,019	-0,001
-689,612	129,922	0,054	-0,052
-688,597	-124,260	0,071	-0,008
-687,583	-200,000	0,024	-0,086
-686,568	800,000	0,024	-0,075
-685,554	90,108	-0,189	-0,157
-684,539	-194,563	0,076	0,000
-683,524	-200,000	-0,017	-0,067
-682,510	409,667	-0,059	0,093
-681,495	-200,000	-0,048	-0,158
-680,481	763,617	-0,031	-0,064
-679,466	-127,769	-0,097	0,010
-678,451	316,334	0,051	0,071
-677,437	99,869	0,042	-0,036
-676,422	800,000	-0,026	0,083
-675,408	800,000	0,026	-0,063
-674,393	800,000	-0,036	0,081
-673,378	204,388	0,063	-0,073
-672,364	-200,000	-0,035	-0,130
-671,349	34,093	0,075	-0,049
-670,335	800,000	0,021	-0,051
-669,320	-200,000	-0,010	0,045
-668,305	42,970	0,026	0,018
-667,291	180,662	-0,047	0,052
-666,276	15,079	-0,105	0,061
-665,262	-200,000	-0,001	0,039
-664,247	20,399	0,107	0,064
-663,232	-54,284	-0,043	0,014
-662,218	-156,390	0,026	-0,001
-661,203	-128,721	-0,124	-0,013
-660,189	-15,044	-0,053	-0,025
-659,174	-120,564	-0,130	-0,016
-658,159	92,656	0,075	-0,063
-657,145	-127,773	-0,124	-0,013
-656,130	-20,482	0,066	-0,030
-655,116	-61,145	-0,040	0,013
-654,101	-57,414	-0,086	-0,028
-653,086	107,352	0,007	-0,006
-652,072	-200,000	-0,016	-0,146
-651,057	89,028	0,080	-0,066
-650,043	800,000	-0,009	-0,030
-649,028	161,220	-0,103	0,107
-648,014	-16,346	0,106	0,050
-646,999	-200,000	-0,020	0,124
-645,984	69,234	-0,040	0,031
-644,970	-200,000	0,002	0,044
-643,955	86,853	-0,119	0,097
-642,941	-200,000	0,006	-0,041
-641,926	162,859	-0,096	-0,100
-640,911	-200,000	-0,029	0,169
-639,897	289,178	0,067	0,090
-638,882	-12,147	0,073	0,035
-637,868	131,838	0,045	0,043
-636,853	658,626	-0,093	-0,178
-635,838	-89,166	-0,143	-0,031
-634,824	-79,867	0,024	0,006
-633,809	480,426	0,069	0,117
-632,795	800,000	0,030	-0,065
-631,780	-200,000	0,005	0,133
-630,765	800,000	-0,033	-0,091
-629,751	-200,000	-0,001	-0,081
-628,736	-200,000	-0,004	0,028
-627,722	206,556	-0,073	-0,084
-626,707	477,060	0,059	-0,099
-625,692	53,311	0,054	-0,038
-624,678	800,000	0,047	0,122
-623,663	-99,698	0,048	0,009
-622,649	575,404	-0,044	0,080
-621,634	217,436	-0,068	0,081
-620,619	-200,000	-0,012	-0,068
-619,605	706,881	-0,030	-0,058
-618,590	-200,000	-0,005	0,102
-617,576	-30,442	0,099	0,041
-616,561	-19,876	-0,171	-0,078
-615,546	-200,000	0,013	-0,084
-614,532	-138,478	-0,103	-0,008
-613,517	5,198	-0,069	0,037
-612,503	159,388	-0,034	0,035
-611,488	289,620	0,067	0,090
-610,474	-200,000	0,013	0,070
-609,459	800,000	0,013	0,028
-608,444	-200,000	-0,010	-0,144
-607,430	153,301	-0,078	-0,080
-606,415	286,225	0,025	0,034
-605,401	-75,039	-0,075	-0,020
-604,386	-200,000	0,013	0,076
-603,371	703,823	0,032	0,062
-602,357	-200,000	0,023	-0,138
-601,342	482,769	-0,009	-0,014
-600,328	-67,223	-0,104	0,030
-599,313	48,471	-0,160	-0,111
-598,298	-200,000	-0,014	-0,135
-597,284	800,000	0,057	0,121
-596,269	20,377	-0,054	0,032
-595,255	273,431	0,037	-0,049
-594,240	724,078	-0,044	0,087
-593,225	-25,913	-0,063	-0,028
-592,211	316,727	0,027	-0,038
-591,196	-20,110	0,007	0,003
-590,182	-200,000	-0,008	0,065
-589,167	800,000	0,015	0,031
-588,152	-132,163	-0,046	-0,004
-587,138	38,751	0,026	0,017
-586,123	83,026	0,152	-0,122
-585,109	65,844	-0,129	-0,097
-584,094	800,000	0,021	-0,054
-583,079	-26,894	0,154	-0,066
-582,065	-16,880	0,056	0,026
-581,050	593,926	-0,057	0,105
-580,036	174,929	0,083	0,089
-579,021	131,405	-0,089	0,085
-578,006	-200,000	-0,008	-0,085
-576,992	-200,000	-0,025	-0,103
-575,977	-134,287	-0,153	0,014
-574,963	-200,000	-0,022	0,135
-573,948	-200,000	0,032	-0,120
-572,934	56,427	0,080	0,058
-571,919	523,439	-0,058	-0,101
-570,904	-19,591	-0,039	-0,018
-569,890	-200,000	0,008	-0,066
-568,875	28,604	0,109	-0,068
-567,861	-200,000	-0,016	0,075
-566,846	-20,344	-0,121	0,055
-565,831	-200,000	0,003	0,033
-564,817	18,938	-0,090	0,053
-563,802	793,689	-0,027	-0,056
-562,788	573,677	-0,059	0,106
-561,773	77,929	-0,027	-0,022
-560,758	-88,161	0,212	-0,047
-559,744	800,000	0,023	0,065
-558,729	-200,000	0,025	-0,119
-557,715	-97,525	0,035	0,007
-556,700	800,000	-0,044	-0,098
-555,685	-64,677	-0,117	-0,035
-554,671	316,624	0,030	-0,042
-553,656	-200,000	-0,035	0,135
-552,642	151,122	0,088	0,088
-551,627	110,318	0,084	-0,075
-550,612	800,000	0,012	-0,033
-549,598	-61,694	-0,239	-0,074
-548,583	118,583	-0,032	0,029
-547,569	-102,207	-0,059	0,010
-546,554	-11,666	-0,038	0,018
-545,539	-200,000	-0,018	-0,075
-544,525	-69,626	0,017	0,005
-543,510	800,000	0,016	-0,049
-542,496	-200,000	-0,094	-0,000
-541,481	-153,555	-0,188	-0,009
-540,466	22,457	-0,148	0,089
-539,452	-118,178	0,202	-0,026
-538,437	88,916	-0,121	0,099
-537,423	800,000	0,017	-0,046
-536,408	-200,000	-0,004	0,021
-535,393	-161,573	-0,080	0,003
-534,379	-149,956	-0,091	-0,005
-533,364	43,432	-0,079	-0,053
-532,350	363,057	0,020	0,030
-531,335	215,911	-0,049	0,057
-530,321	-200,000	0,013	0,197
-529,306	-200,000	0,001	0,021
-528,291	-71,188	-0,027	0,007
-527,277	-8,106	0,102	-0,050
-526,262	152,097	-0,104	0,105
-525,248	-43,353	-0,057	-0,021
-524,233	160,137	0,112	0,115
-523,218	218,097	0,071	-0,084
-522,204	-200,000	-0,007	-0,145
-521,189	148,712	-0,111	0,110
-520,175	800,000	-0,014	0,039
-519,160	-47,794	0,052	-0,019
-518,145	800,000	0,034	0,088
-517,131	155,663	-0,018	-0,018
-516,116	800,000	-0,022	-0,060
-515,102	-77,923	-0,108	0,027
-514,087	-24,797	-0,086	-0,037
-513,072	-87,256	0,145	-0,032
-512,058	601,632	0,071	-0,130
-511,043	-200,000	-0,007	0,050
-510,029	-200,000	-0,002	-0,042
-509,014	-75,588	0,052	0,013
-507,999	-200,000	-0,019	-0,069
-506,985	-200,000	0,009	-0,031
-505,970	800,000	-0,042	-0,132
-504,956	-200,000	0,002	-0,024
-503,941	800,000	-0,022	-0,066
-502,926	-130,573	0,189	0,019
-501,912	198,141	0,031	0,035
-500,897	201,893	-0,098	0,112
-499,883	800,000	0,026	-0,080
-498,868	-200,000	-0,014	-0,059
-497,853	102,189	0,047	0,040
-496,839	360,714	0,091	-0,134
-495,824	-200,000	-0,006	0,028
-494,810	-72,001	-0,088	0,024
-493,795	144,392	0,093	0,092
-492,781	-131,448	0,092	0,009
-491,766	267,498	-0,100	-0,129
-490,751	659,091	0,033	0,063
-489,737	-113,264	-0,035	-0,005
-488,722	427,913	-0,049	-0,079
-487,708	155,407	-0,087	-0,088
-486,693	-149,688	-0,175	0,010
-485,678	99,986	0,076	0,065
-484,664	350,227	0,041	-0,060
-483,649	544,189	-0,028	0,049
-482,635	-200,000	-0,026	-0,149
-481,620	-29,008	-0,066	-0,028
-480,605	-11,571	-0,122	-0,059
-479,591	800,000	-0,040	-0,110
-478,576	-131,590	-0,072	0,007
-477,562	800,000	0,026	-0,082
-476,547	46,403	-0,108	-0,074
-475,532	165,886	0,027	-0,028
-474,518	-200,000	-0,009	-0,056
-473,503	-200,000	0,041	0,138
-472,489	69,124	0,063	-0,048
-471,474	432,850	-0,025	0,040
-470,459	295,763	-0,042	-0,056
-469,445	-99,954	-0,110	-0,020
-468,430	74,697	0,086	0,067
-467,416	-82,246	0,072	-0,017
-466,401	207,272	0,094	0,108
-465,386	-47,138	0,096	-0,034
-464,372	128,971	-0,068	0,064
-463,357	-51,676	-0,073	-0,025
-462,343	520,675	0,052	-0,091
-461,328	316,447	0,082	-0,114
-460,313	192,270	-0,022	0,024
-459,299	-110,944	0,064	-0,010
-458,284	106,998	-0,012	0,011
-457,270	-200,000	0,024	-0,094
-456,255	-200,000	0,034	-0,135
-455,241	800,000	0,036	-0,078
-454,226	-200,000	0,004	0,021
-453,211	-28,373	0,029	-0,012
-452,197	800,000	0,053	0,122
-451,182	322,412	0,107	0,150
-450,168	-200,000	0,003	-0,104
-449,153	170,918	0,017	0,018
-448,138	-41,634	-0,133	0,050
-447,124	134,743	-0,026	-0,025
-446,109	167,955	0,032	-0,034
-445,095	-200,000	-0,001	-0,031
-444,080	-200,000	0,005	0,036
-443,065	6,166	0,107	0,058
-442,051	178,810	-0,055	-0,059
-441,036	-55,268	0,017	-0,006
-440,022	-200,000	-0,017	-0,062
-439,007	58,613	0,072	0,052
-437,992	197,739	-0,018	-0,020
-436,978	99,772	-0,054	0,046
-435,963	-200,000	0,000	0,144
-434,949	53,230	0,207	-0,145
-433,934	-33,792	0,018	-0,007
-432,919	168,892	-0,074	-0,078
-431,905	-173,442	0,027	-0,001
-430,890	-200,000	-0,019	0,132
-429,876	87,016	-0,052	0,042
-428,861	19,769	0,110	0,065
-427,846	17,739	0,091	0,053
-426,832	-200,000	-0,004	-0,128
-425,817	449,175	-0,053	-0,085
-424,803	417,461	0,020	0,032
-423,788	369,941	0,058	-0,087
-422,773	-57,890	-0,053	0,017
-421,759	68,188	0,057	-0,043
-420,744	-200,000	-0,005	0,046
-419,730	7,219	-0,015	0,008
-418,715	-200,000	0,001	-0,033
-417,701	-31,876	-0,007	-0,003
-416,686	-43,237	0,040	0,015
-415,671	-200,000	-0,004	-0,014
-414,657	86,315	0,049	0,040
-413,642	80,181	0,021	-0,017
-412,628	-200,000	0,047	0,231
-411,613	800,000	0,041	0,084
-410,598	-68,486	-0,101	-0,029
-409,584	-52,803	-0,009	0,003
-408,569	377,843	0,058	-0,087
-407,555	-131,062	-0,041	-0,004
-406,540	800,000	0,068	0,161
-405,525	-33,855	-0,103	0,042
-404,511	-200,000	-0,005	0,017
-403,496	21,979	0,058	-0,035
-402,482	261,888	0,028	0,036
-401,467	-162,779	0,094	-0,003
-400,452	156,169	0,076	-0,077
-399,438	222,230	0,081	-0,095
-398,423	-26,031	-0,106	-0,045
-397,409	-49,963	0,067	-0,023
-396,394	121,843	-0,089	-0,081
-395,379	7,062	-0,031	-0,017
-394,365	108,808	0,089	0,078
-393,350	142,120	-0,106	-0,103
-392,336	-43,837	0,087	0,032
-391,321	393,809	-0,074	0,113
-390,306	800,000	-0,044	0,119
-389,292	68,884	-0,051	-0,039
-388,277	178,329	0,078	-0,084
-387,263	-68,431	-0,094	-0,027
-386,248	200,860	0,067	0,075
-385,233	284,857	0,063	-0,083
-384,219	-51,857	-0,110	-0,037
-383,204	800,000	0,027	-0,071
-382,190	-32,450	-0,090	0,037
-381,175	800,000	-0,032	0,095
-380,160	-200,000	-0,020	0,148
-379,146	94,271	0,053	0,045
-378,131	-200,000	-0,006	0,069
-377,117	-200,000	0,008	0,112
-376,102	-200,000	0,014	0,061
-375,088	-89,447	-0,075	0,016
-374,073	-200,000	0,006	-0,066
-373,058	291,865	0,071	0,096
-372,044	-200,000	-0,020	0,084
-371,029	24,242	0,092	0,056
-370,015	423,480	-0,008	0,013
-369,000	-200,000	0,002	-0,072
-367,985	-20,339	0,088	-0,040
-366,971	-65,521	-0,109	-0,032
-365,956	270,307	0,059	0,076
-364,942	209,491	0,079	0,091
-363,927	383,087	0,029	0,044
-362,912	-200,000	0,011	-0,096
-361,898	39,250	0,042	-0,028
-360,883	-64,656	-0,094	-0,028
-359,869	-63,162	0,071	-0,021
-358,854	-11,179	0,183	-0,088
-357,839	11,794	-0,101	0,057
-356,825	141,067	0,086	0,083
-355,810	192,012	0,098	0,108
-354,796	-200,000	0,007	0,062
-353,781	-131,679	-0,099	-0,009
-352,766	800,000	-0,027	0,073
-351,752	-200,000	-0,019	-0,082
-350,737	800,000	0,043	0,099
-349,723	800,000	-0,028	0,068
-348,708	-145,007	0,140	0,009
-347,693	-200,000	-0,013	-0,146
-346,679	265,362	-0,068	-0,088
-345,664	-200,000	0,009	-0,085
-344,650	800,000	0,019	0,054
-343,635	-200,000	-0,007	-0,108
-342,620	-167,830	0,032	0,001
-341,606	634,467	-0,047	0,088
-340,591	-200,000	-0,023	-0,126
-339,577	12,803	-0,145	-0,082
-338,562	160,118	-0,058	0,059
-337,548	800,000	0,068	-0,147
-336,533	24,358	-0,044	0,027
-335,518	-127,316	0,041	0,004
-334,504	-200,000	-0,017	0,086
-333,489	-200,000	0,003	0,026
-332,475	-200,000	0,023	-0,102
-331,460	800,000	-0,064	-0,190
-330,445	-200,000	-0,006	-0,044
-329,431	-129,000	0,112	0,011
-328,416	-200,000	0,007	0,025
-327,402	215,999	-0,089	0,104
-326,387	-200,000	0,002	-0,057
-325,372	155,212	0,102	-0,103
-324,358	-200,000	-0,011	-0,103
-323,343	50,293	0,105	-0,073
-322,329	755,592	0,078	-0,155
-321,314	64,814	-0,016	0,012
-320,299	-200,000	0,001	0,093
-319,285	13,839	0,146	-0,083
-318,270	594,673	-0,067	-0,122
-317,256	-57,524	0,128	-0,041
-316,241	75,936	-0,144	0,111
-315,226	-134,495	0,057	-0,005
-314,212	632,152	0,104	0,194
-313,197	-200,000	-0,015	0,056
-312,183	6,917	0,213	0,116
-311,168	742,509	-0,035	-0,069
-310,153	-65,340	-0,012	0,003
-309,139	800,000	0,000	-0,001
-308,124	-139,879	-0,045	0,003
-307,110	-200,000	-0,042	0,142
-306,095	70,458	0,056	0,042
-305,080	245,506	-0,018	0,022
-304,066	-193,562	-0,097	0,001
-303,051	-16,498	0,124	0,057
-302,037	-123,799	-0,050	0,006
-301,022	-95,077	-0,014	-0,003
-300,008	-200,000	-0,021	-0,094
-298,993	-94,409	0,112	-0,022
-297,978	529,897	0,057	0,099
-296,964	-170,727	0,066	-0,002
-295,949	-200,000	-0,044	-0,163
-294,935	-171,922	-0,130	0,003
-293,920	703,031	0,060	-0,116
-292,905	-200,000	0,001	-0,099
-291,891	171,217	0,102	0,107
-290,876	-200,000	0,030	-0,122
-289,862	-200,000	0,011	0,080
-288,847	-91,453	-0,091	-0,019
-287,832	555,264	-0,016	-0,029
-286,818	-11,554	0,054	0,026
-285,803	504,930	0,046	-0,078
-284,789	800,000	0,050	0,120
-283,774	-200,000	0,042	0,222
-282,759	-105,445	0,219	0,036
-281,745	231,290	-0,079	-0,095
-280,730	64,052	-0,080	-0,059
-279,716	-117,182	0,087	0,011
-278,701	-163,891	0,081	0,003
-277,686	98,758	-0,016	-0,013
-276,672	22,800	0,098	0,059
-275,657	135,041	0,019	-0,018
-274,643	800,000	0,068	-0,174
-273,628	89,327	-0,078	-0,063
-272,613	371,834	-0,024	-0,036
-271,599	-200,000	0,001	0,034
-270,584	27,792	-0,080	-0,049
-269,570	17,734	0,065	0,038
-268,555	46,958	-0,060	0,041
-267,540	-200,000	0,011	-0,146
-266,526	-189,000	-0,025	-0,000
-265,511	-146,090	0,120	-0,008
-264,497	-141,241	-0,043	0,003
-263,482	-200,000	0,010	0,083
-262,467	800,000	-0,012	0,030
-261,453	-49,328	-0,029	0,010
-260,438	-200,000	0,003	0,051
-259,424	-200,000	-0,008	0,031
-258,409	-20,586	-0,146	-0,065
-257,395	144,623	0,058	-0,057
-256,380	-54,804	-0,031	0,010
-255,365	-130,699	-0,045	0,004
-254,351	-46,529	0,120	-0,043
-253,336	22,616	0,153	0,091
-252,322	163,659	-0,051	-0,052
-251,307	321,038	0,075	0,104
-250,292	-200,000	0,016	0,057
-249,278	-112,912	0,106	0,015
-248,263	557,100	-0,063	-0,112
-247,249	35,054	0,078	0,050
-246,234	-140,740	0,083	0,006
-245,219	137,261	-0,125	-0,120
-244,205	497,868	-0,086	-0,145
-243,190	256,301	0,041	0,052
-242,176	-120,691	0,019	0,002
-241,161	-200,000	-0,010	0,045
-240,146	63,605	-0,109	-0,080
-239,132	34,698	0,166	-0,106
-238,117	-200,000	-0,011	-0,044
-237,103	43,627	0,032	0,021
-236,088	-110,083	-0,119	-0,018
-235,073	800,000	0,045	0,111
-234,059	-90,845	0,128	0,027
-233,044	-13,418	-0,088	-0,042
-232,030	-107,576	-0,027	-0,004
-231,015	-200,000	-0,020	-0,068
-230,000	-103,374	-0,107	-0,018
-228,986	800,000	-0,063	-0,162
-227,971	800,000	0,024	-0,077
-226,957	-200,000	0,001	0,132
-225,942	-200,000	-0,014	0,072
-224,927	52,693	0,109	0,076
-223,913	197,606	0,021	-0,024
-222,898	-104,330	0,065	0,011
-221,884	800,000	0,043	-0,130
-220,869	800,000	0,019	-0,050
-219,855	47,920	-0,100	0,068
-218,840	160,374	-0,083	0,084
-217,825	-200,000	-0,002	-0,044
-216,811	800,000	0,013	0,032
-215,796	-120,600	-0,184	-0,022
-214,782	97,489	-0,026	0,022
-213,767	54,626	0,126	0,088
-212,752	-200,000	0,021	0,164
-211,738	-200,000	0,001	-0,029
-210,723	135,422	-0,095	-0,090
-209,709	152,665	0,008	0,008
-208,694	93,173	0,056	-0,046
-207,679	-27,320	-0,049	-0,021
-206,665	321,235	0,039	-0,054
-205,650	-200,000	-0,023	0,101
-204,636	-63,982	0,053	0,016
-203,621	40,728	0,076	-0,050
-202,606	21,719	-0,093	0,055
-201,592	800,000	-0,024	-0,057
-200,577	70,516	0,086	0,064
-199,563	800,000	0,014	0,033
-198,548	131,025	-0,079	-0,074
-197,533	-200,000	0,051	0,208
-196,519	-66,380	-0,032	0,009
-195,504	175,106	-0,029	0,031
-194,490	-110,693	-0,055	0,008
-193,475	88,579	-0,030	0,025
-192,460	-200,000	0,009	0,046
-191,446	-6,485	0,023	0,011
-190,431	-200,000	-0,002	0,138
-189,417	-200,000	-0,004	0,026
-188,402	152,760	-0,032	-0,032
-187,387	-200,000	0,015	-0,107
-186,373	197,887	0,095	0,106
-185,358	-18,721	0,103	0,046
-184,344	-149,419	0,119	0,007
-183,329	264,118	-0,041	0,052
-182,315	-65,243	0,103	0,030
-181,300	-24,920	-0,118	-0,051
-180,285	-127,149	-0,087	0,009
-179,271	-200,000	0,009	-0,126
-178,256	-59,192	0,047	0,015
-177,242	800,000	0,012	-0,029
-176,227	295,531	0,015	-0,019
-175,212	-127,435	0,168	0,018
-174,198	-45,024	-0,133	0,048
-173,183	114,665	-0,045	-0,040
-172,169	-200,000	0,010	0,035
-171,154	-200,000	-0,024	-0,091
-170,139	734,138	0,016	-0,031
-169,125	-200,000	0,024	0,106
-168,110	-15,300	-0,072	0,034
-167,096	-14,670	-0,096	0,045
-166,081	-200,000	-0,015	-0,052
-165,066	93,386	-0,036	0,030
-164,052	-200,000	0,018	0,066
-163,037	-200,000	0,017	0,113
-162,023	425,465	-0,020	-0,032
-161,008	138,719	-0,169	0,162
-159,993	-200,000	0,012	0,088
-158,979	-115,878	-0,078	-0,010
-157,964	-31,738	-0,084	-0,034
-156,950	-200,000	0,019	-0,090
-155,935	295,022	-0,036	0,048
-154,920	-19,168	0,118	0,053
-153,906	196,432	0,040	0,044
-152,891	-11,433	-0,083	-0,040
-151,877	-200,000	0,006	0,038
-150,862	-95,695	-0,023	0,004
-149,847	2,231	0,066	0,035
-148,833	570,385	-0,050	0,089
-147,818	489,959	0,092	0,154
-146,804	-72,220	0,138	-0,037
-145,789	-200,000	0,005	-0,066
-144,775	-60,982	-0,066	0,020
-143,760	173,511	-0,058	-0,061
-142,745	-200,000	-0,035	-0,129
-141,731	-200,000	-0,011	-0,119
-140,716	800,000	-0,017	0,040
-139,702	43,864	-0,052	-0,034
-138,687	-200,000	-0,026	0,143
-137,672	-82,811	-0,111	-0,026
-136,658	-17,260	-0,086	-0,039
-135,643	-200,000	0,004	0,080
-134,629	-27,084	-0,041	0,017
-133,614	146,872	-0,054	0,053
-132,599	232,192	0,071	-0,085
-131,585	800,000	-0,019	0,045
-130,570	141,697	-0,067	-0,064
-129,556	-200,000	0,001	-0,041
-128,541	33,922	0,092	-0,058
-127,526	800,000	-0,032	-0,075
-126,512	0,559	0,175	0,090
-125,497	363,827	0,075	0,109
-124,483	33,732	-0,048	0,031
-123,468	-142,340	0,051	0,004
-122,453	-104,094	-0,148	-0,025
-121,439	-200,000	0,032	-0,128
-120,424	-200,000	0,024	0,085
