DTS Sentinel unit serial number:	SN410029Multiplexer serial number:	ORYXHardware model number:	OX2-SRSoftware version number:	ORYX F/W v4,00 Oryx Data Collector v3.7.2.0data status	okinstallation	B4 Nyhavnadifferential loss correction	single-endedforward channel	channel 2reverse channel	N/Adate	2023/12/15time	14:15:13forward acquisition time	300,00reverse acquisition time	0,00gamma	499,1914k internal	0,3162k external	0,3162temperature offset calibration	1,0000default loss term (dB/km)	0,3820temperature slope calibration	1,0000multiplexer offset coefficient	1,0000multiplexer slope coefficient	1,0000fibre end	0,00T internal ref (°C)	14,64T ext. ref 1 (°C)	1,35T ext. ref 2 (°C)	1,48length (m)	temperature (°C)	Stokes	anti-Stokes-744,400	334,053	0,064	0,092
-743,385	-170,384	-0,349	0,009
-742,371	163,972	0,122	0,127
-741,356	92,313	-0,246	0,204
-740,342	751,914	0,039	0,078
-739,327	-181,341	-0,346	-0,005
-738,312	-126,245	0,126	0,014
-737,298	-149,773	-0,360	0,020
-736,283	-200,000	0,012	0,048
-735,269	-41,582	-0,178	-0,067
-734,254	-91,544	0,109	-0,023
-733,239	-22,882	-0,530	-0,234
-732,225	-71,814	0,080	0,022
-731,210	163,299	0,055	0,057
-730,196	421,563	-0,050	0,079
-729,181	100,453	0,079	-0,067
-728,167	410,979	-0,042	0,065
-727,152	51,027	-0,027	0,019
-726,137	746,998	-0,102	-0,203
-725,123	34,610	0,112	0,072
-724,108	-103,226	-0,040	-0,007
-723,094	-200,000	-0,015	-0,178
-722,079	764,486	-0,042	-0,084
-721,064	-67,683	0,097	-0,028
-720,050	-200,000	-0,009	-0,141
-719,035	-115,381	-0,080	-0,011
-718,021	800,000	0,029	-0,064
-717,006	800,000	-0,045	-0,119
-715,991	385,917	-0,049	-0,075
-714,977	-102,951	0,016	-0,003
-713,962	-10,219	-0,037	-0,018
-712,948	73,620	-0,024	0,018
-711,933	597,151	-0,070	-0,128
-710,918	-168,699	-0,106	0,003
-709,904	56,470	-0,043	0,031
-708,889	-200,000	-0,004	-0,197
-707,875	-200,000	-0,019	-0,087
-706,860	-200,000	-0,009	-0,092
-705,845	135,554	-0,064	-0,061
-704,831	378,378	-0,050	0,075
-703,816	389,201	0,073	0,112
-702,802	24,349	0,041	0,025
-701,787	18,357	0,067	-0,039
-700,772	-200,000	-0,001	-0,015
-699,758	-200,000	0,025	-0,105
-698,743	184,250	0,109	-0,119
-697,729	-200,000	0,027	-0,113
-696,714	-200,000	0,016	-0,084
-695,699	-56,440	0,028	-0,009
-694,685	-200,000	0,012	-0,121
-693,670	647,627	0,044	-0,082
-692,656	-200,000	-0,191	-0,000
-691,641	800,000	0,051	0,110
-690,627	-200,000	-0,021	0,093
-689,612	-200,000	0,013	0,089
-688,597	-111,403	-0,116	-0,017
-687,583	800,000	-0,024	-0,057
-686,568	295,728	-0,038	0,051
-685,554	103,610	0,047	-0,041
-684,539	-99,824	-0,102	0,019
-683,524	-200,000	-0,005	-0,117
-682,510	-64,666	0,095	-0,028
-681,495	-75,770	-0,066	0,017
-680,481	-200,000	0,004	-0,104
-679,466	800,000	0,018	-0,041
-678,451	126,304	0,066	0,061
-677,437	-200,000	-0,008	0,062
-676,422	800,000	0,017	0,054
-675,408	91,435	0,006	0,005
-674,393	41,062	-0,115	0,076
-673,378	-130,764	-0,231	-0,022
-672,364	235,052	0,035	-0,042
-671,349	135,825	-0,138	-0,132
-670,335	112,012	0,123	-0,109
-669,320	-200,000	0,067	-0,000
-668,305	-200,000	-0,010	0,081
-667,291	706,053	-0,049	-0,095
-666,276	-139,744	0,092	0,007
-665,262	316,932	0,097	-0,135
-664,247	-125,365	-0,077	-0,009
-663,232	-89,606	-0,061	-0,013
-662,218	186,129	-0,066	-0,072
-661,203	-89,379	0,153	0,033
-660,189	800,000	-0,065	0,172
-659,174	-200,000	-0,146	-0,000
-658,159	-84,520	-0,080	-0,018
-657,145	209,368	0,085	0,097
-656,130	800,000	-0,062	0,172
-655,116	116,707	0,031	0,028
-654,101	-90,620	-0,086	0,018
-653,086	734,912	-0,042	-0,083
-652,072	174,568	0,024	-0,025
-651,057	-200,000	-0,006	-0,203
-650,043	-109,975	-0,117	0,018
-649,028	-200,000	-0,040	-0,144
-648,014	800,000	-0,056	0,146
-646,999	-120,136	-0,091	0,011
-645,984	-42,761	-0,077	0,029
-644,970	100,086	-0,049	-0,042
-643,955	-83,393	-0,125	0,029
-642,941	326,503	-0,055	-0,078
-641,926	-200,000	-0,008	-0,153
-640,911	-200,000	0,006	0,086
-639,897	111,496	0,114	0,101
-638,882	-200,000	-0,001	-0,038
-637,868	41,918	-0,077	0,051
-636,853	-36,653	-0,118	0,046
-635,838	-51,703	-0,082	0,028
-634,824	65,131	-0,071	-0,053
-633,809	-86,459	0,021	-0,005
-632,795	13,722	-0,107	-0,061
-631,780	-12,186	0,137	-0,065
-630,765	13,673	-0,083	-0,047
-629,751	-43,826	-0,103	0,038
-628,736	370,633	-0,053	-0,079
-627,722	-200,000	-0,001	0,035
-626,707	47,494	0,036	-0,025
-625,692	8,897	-0,065	-0,036
-624,678	652,833	-0,038	0,071
-623,663	305,538	-0,068	0,093
-622,649	-1,691	0,076	0,039
-621,634	-200,000	0,044	-0,169
-620,619	-200,000	-0,016	-0,152
-619,605	-200,000	-0,009	0,090
-618,590	406,550	0,069	0,107
-617,576	-200,000	0,009	-0,131
-616,561	800,000	0,021	0,057
-615,546	470,297	0,023	-0,037
-614,532	-31,288	-0,082	-0,034
-613,517	19,710	-0,091	-0,053
-612,503	-19,603	-0,119	0,054
-611,488	62,587	0,166	0,122
-610,474	-192,528	-0,067	-0,000
-609,459	459,969	-0,028	0,046
-608,444	-155,280	0,095	-0,004
-607,430	602,379	-0,029	-0,052
-606,415	800,000	-0,025	-0,066
-605,401	800,000	-0,058	0,142
-604,386	800,000	-0,038	0,121
-603,371	408,465	-0,062	-0,096
-602,357	140,521	0,061	0,059
-601,342	800,000	0,023	0,058
-600,328	-100,627	0,104	-0,019
-599,313	-200,000	-0,014	0,167
-598,298	-200,000	0,005	0,071
-597,284	-200,000	0,033	-0,112
-596,269	-200,000	-0,037	0,133
-595,255	-144,206	-0,050	-0,003
-594,240	-121,578	0,039	-0,005
-593,225	192,533	0,062	-0,068
-592,211	800,000	0,008	0,018
-591,196	229,728	0,053	0,063
-590,182	800,000	-0,016	0,050
-589,167	314,870	0,045	0,062
-588,152	-97,022	-0,118	0,022
-587,138	-113,683	0,120	0,017
-586,123	-126,452	-0,122	-0,013
-585,109	-16,103	-0,054	-0,025
-584,094	-47,867	-0,066	-0,023
-583,079	-190,493	0,122	0,001
-582,065	79,481	0,013	0,010
-581,050	-200,000	-0,008	0,035
-580,036	-200,000	0,001	-0,070
-579,021	242,004	-0,124	0,151
-578,006	800,000	-0,047	-0,099
-576,992	194,994	-0,085	-0,094
-575,977	487,209	-0,055	0,092
-574,963	800,000	-0,074	0,166
-573,948	160,591	0,062	0,064
-572,934	49,243	-0,042	0,029
-571,919	-74,944	0,114	-0,030
-570,904	-53,747	-0,132	-0,044
-569,890	122,193	-0,049	-0,045
-568,875	-73,291	0,022	-0,006
-567,861	-200,000	0,002	0,075
-566,846	-44,599	0,072	-0,026
-565,831	-200,000	-0,000	-0,085
-564,817	274,483	-0,023	-0,030
-563,802	-102,915	-0,174	-0,030
-562,788	800,000	0,052	-0,161
-561,773	-200,000	-0,012	-0,045
-560,758	332,382	0,029	-0,042
-559,744	521,281	0,024	-0,042
-558,729	800,000	0,025	-0,075
-557,715	800,000	0,006	-0,013
-556,700	101,485	-0,055	-0,046
-555,685	71,619	-0,100	-0,076
-554,671	370,362	-0,037	0,056
-553,656	769,003	0,058	-0,115
-552,642	271,093	0,065	0,084
-551,627	800,000	-0,028	0,080
-550,612	800,000	0,017	-0,053
-549,598	292,591	-0,092	0,123
-548,583	678,274	0,040	0,076
-547,569	303,283	0,032	0,043
-546,554	664,164	0,016	-0,030
-545,539	800,000	0,096	0,202
-544,525	-200,000	-0,017	0,162
-543,510	-39,495	-0,091	-0,035
-542,496	-1,795	-0,178	0,091
-541,481	45,716	-0,037	0,025
-540,466	-200,000	0,023	-0,096
-539,452	-175,408	0,216	-0,004
-538,437	346,000	-0,077	0,111
-537,423	67,914	-0,093	-0,070
-536,408	-200,000	-0,008	-0,112
-535,393	-61,812	-0,055	-0,017
-534,379	-164,366	0,100	-0,003
-533,364	212,115	-0,064	-0,074
-532,350	-43,705	0,035	-0,013
-531,335	743,910	-0,004	-0,008
-530,321	298,330	-0,046	-0,063
-529,306	-49,881	0,249	0,086
-528,291	55,194	0,046	-0,033
-527,277	77,555	-0,124	0,096
-526,262	800,000	-0,030	0,072
-525,248	347,149	0,077	0,111
-524,233	-200,000	-0,004	0,097
-523,218	-200,000	0,015	-0,058
-522,204	244,676	0,074	-0,091
-521,189	512,960	-0,099	-0,170
-520,175	800,000	-0,041	-0,089
-519,160	-6,941	0,093	-0,046
-518,145	388,122	0,102	0,155
-517,131	416,226	0,031	-0,048
-516,116	13,308	0,046	-0,026
-515,102	31,292	-0,089	-0,056
-514,087	194,937	0,031	-0,035
-513,072	447,611	0,030	-0,048
-512,058	-118,748	-0,160	-0,020
-511,043	800,000	0,019	0,052
-510,029	19,454	0,063	-0,037
-509,014	-157,487	0,015	-0,001
-507,999	-0,270	-0,105	-0,054
-506,985	-200,000	-0,020	0,094
-505,970	-114,424	0,096	0,013
-504,956	407,268	0,077	-0,119
-503,941	125,343	0,038	-0,035
-502,926	165,859	0,012	-0,013
-501,912	-14,806	0,087	0,041
-500,897	323,315	0,022	0,030
-499,883	-129,307	-0,201	-0,020
-498,868	133,924	0,017	0,016
-497,853	-16,977	-0,050	0,023
-496,839	78,099	0,119	-0,092
-495,824	47,777	0,064	-0,043
-494,810	-156,042	0,009	0,000
-493,795	118,255	0,075	-0,068
-492,781	190,411	-0,035	-0,039
-491,766	203,133	-0,040	-0,045
-490,751	173,552	-0,099	-0,104
-489,737	800,000	0,032	0,085
-488,722	6,885	0,051	-0,027
-487,708	13,896	0,071	0,040
-486,693	393,028	0,116	0,176
-485,678	85,797	-0,041	-0,033
-484,664	-95,205	0,052	-0,010
-483,649	155,594	0,027	0,027
-482,635	-200,000	-0,015	0,092
-481,620	175,499	-0,087	0,092
-480,605	800,000	0,048	-0,110
-479,591	237,371	0,049	0,059
-478,576	-90,755	0,147	-0,031
-477,562	-14,765	0,090	-0,042
-476,547	-200,000	-0,021	0,072
-475,532	80,683	0,098	-0,077
-474,518	-200,000	-0,021	0,111
-473,503	-200,000	-0,003	0,087
-472,489	50,592	0,078	0,054
-471,474	306,544	-0,017	-0,023
-470,459	-27,264	-0,190	-0,080
-469,445	65,809	0,024	-0,018
-468,430	800,000	0,035	0,079
-467,416	115,175	0,056	0,050
-466,401	87,302	0,124	-0,100
-465,386	-200,000	0,011	-0,055
-464,372	629,737	0,039	0,072
-463,357	-56,183	-0,069	-0,022
-462,343	-153,168	-0,066	0,003
-461,328	-200,000	-0,003	0,055
-460,313	800,000	-0,036	0,102
-459,299	800,000	-0,023	-0,060
-458,284	800,000	0,064	0,199
-457,270	800,000	-0,040	-0,112
-456,255	87,641	-0,065	-0,052
-455,241	58,812	-0,158	0,113
-454,226	-102,720	0,099	-0,017
-453,211	800,000	-0,070	0,154
-452,197	800,000	0,017	-0,048
-451,182	-12,990	-0,072	-0,034
-450,168	800,000	-0,057	0,116
-449,153	-125,523	-0,094	0,010
-448,138	-65,118	0,141	-0,041
-447,124	33,797	-0,102	-0,065
-446,109	-57,470	-0,185	-0,059
-445,095	-75,449	0,025	-0,007
-444,080	144,159	0,059	0,057
-443,065	1,844	0,098	0,051
-442,051	51,699	-0,038	0,026
-441,036	-200,000	-0,002	-0,123
-440,022	-130,144	0,128	0,013
-439,007	698,794	-0,036	0,070
-437,992	-38,305	0,128	0,049
-436,978	-134,184	0,233	0,021
-435,963	-10,851	0,040	0,019
-434,949	800,000	-0,016	0,034
-433,934	193,387	-0,086	-0,094
-432,919	-200,000	-0,001	-0,084
-431,905	-34,749	0,027	0,011
-430,890	-200,000	-0,012	0,080
-429,876	-200,000	-0,017	0,094
-428,861	-62,693	-0,026	-0,008
-427,846	-200,000	-0,001	0,039
-426,832	119,351	-0,079	-0,071
-425,817	143,770	-0,009	-0,008
-424,803	800,000	0,067	-0,182
-423,788	172,977	-0,021	-0,022
-422,773	25,507	0,155	0,093
-421,759	800,000	-0,025	0,050
-420,744	204,121	0,011	0,012
-419,730	800,000	-0,047	-0,110
-418,715	-200,000	-0,025	-0,167
-417,701	-124,950	0,185	0,021
-416,686	-143,281	0,082	-0,006
-415,671	355,108	0,113	-0,164
-414,657	-88,836	-0,031	-0,007
-413,642	-200,000	-0,002	0,090
-412,628	800,000	-0,051	0,128
-411,613	-44,853	-0,086	-0,031
-410,598	-200,000	0,002	0,046
-409,584	-55,191	0,101	0,033
-408,569	-200,000	-0,006	-0,093
-407,555	-99,204	-0,096	-0,017
-406,540	-84,475	0,082	0,019
-405,525	-200,000	0,011	0,087
-404,511	99,717	-0,107	-0,090
-403,496	13,801	-0,044	-0,025
-402,482	67,186	0,177	0,131
-401,467	-63,182	0,070	0,021
-400,452	444,090	-0,085	0,136
-399,438	800,000	0,030	0,079
-398,423	235,673	0,075	-0,090
-397,409	45,534	-0,128	0,086
-396,394	310,846	0,039	0,054
-395,379	800,000	0,007	-0,016
-394,365	-200,000	0,008	0,140
-393,350	-200,000	0,009	-0,034
-392,336	131,293	0,111	0,104
-391,321	609,414	-0,032	-0,058
-390,306	11,711	-0,035	0,019
-389,292	-200,000	-0,012	0,070
-388,277	194,639	-0,063	-0,069
-387,263	160,655	-0,145	0,148
-386,248	-15,586	-0,044	0,020
-385,233	800,000	0,025	0,079
-384,219	-66,721	0,066	-0,019
-383,204	-200,000	0,048	-0,163
-382,190	-32,725	0,029	-0,012
-381,175	-200,000	0,006	0,123
-380,160	187,975	-0,112	-0,122
-379,146	-91,620	0,041	-0,008
-378,131	800,000	0,037	0,086
-377,117	-188,045	-0,094	0,001
-376,102	-200,000	0,002	0,160
-375,088	160,121	-0,101	-0,102
-374,073	289,994	-0,025	0,033
-373,058	-200,000	-0,006	0,049
-372,044	-112,801	-0,104	0,015
-371,029	254,773	0,052	0,065
-370,015	-36,840	-0,088	-0,034
-369,000	415,186	-0,025	0,039
-367,985	669,912	-0,032	-0,060
-366,971	-88,315	-0,088	0,019
-365,956	600,953	0,086	-0,156
-364,942	87,175	0,028	-0,023
-363,927	18,268	0,039	0,022
-362,912	800,000	0,053	-0,108
-361,898	-108,419	-0,047	0,007
-360,883	224,701	-0,065	-0,076
-359,869	-200,000	-0,014	-0,056
-358,854	243,062	-0,029	-0,035
-357,839	722,370	0,074	0,143
-356,825	-32,837	0,048	0,019
-355,810	-67,439	-0,151	0,043
-354,796	697,759	0,041	-0,079
-353,781	33,200	-0,047	0,029
-352,766	-0,799	-0,028	0,014
-351,752	800,000	0,049	-0,102
-350,737	658,695	-0,033	-0,062
-349,723	-72,794	-0,124	-0,033
-348,708	-200,000	-0,007	-0,075
-347,693	-200,000	-0,004	0,016
-346,679	-76,160	-0,082	-0,021
-345,664	-200,000	0,006	-0,088
-344,650	-136,762	0,063	-0,005
-343,635	-65,938	0,097	0,028
-342,620	86,034	0,113	0,090
-341,606	111,881	0,110	0,096
-340,591	-8,189	-0,106	0,052
-339,577	-46,827	-0,038	0,014
-338,562	72,725	-0,105	0,079
-337,548	-200,000	-0,010	0,133
-336,533	99,857	-0,023	0,019
-335,518	9,896	-0,098	0,054
-334,504	-127,035	0,078	0,008
-333,489	-138,567	0,039	-0,003
-332,475	8,955	-0,089	0,048
-331,460	-200,000	-0,008	-0,088
-330,445	-147,236	-0,092	0,006
-329,431	-200,000	0,013	0,049
-328,416	61,942	0,009	0,007
-327,402	126,418	0,096	0,088
-326,387	219,166	0,050	0,057
-325,372	800,000	0,028	-0,062
-324,358	45,582	-0,098	-0,065
-323,343	800,000	-0,030	-0,084
-322,329	357,922	0,017	-0,025
-321,314	154,426	-0,059	0,059
-320,299	-200,000	0,024	-0,100
-319,285	306,164	-0,005	-0,006
-318,270	790,876	-0,030	-0,061
-317,256	-16,905	0,108	-0,049
-316,241	-150,387	0,045	0,002
-315,226	77,997	0,070	-0,054
-314,212	181,729	0,147	-0,156
-313,197	-83,694	-0,061	-0,014
-312,183	-200,000	-0,122	0,000
-311,168	108,168	-0,181	-0,156
-310,153	-200,000	-0,002	-0,104
-309,139	-90,356	0,100	-0,021
-308,124	-200,000	-0,012	-0,048
-307,110	352,411	-0,051	-0,073
-306,095	-66,178	0,142	-0,041
-305,080	-137,257	-0,059	-0,005
-304,066	-175,583	-0,063	-0,001
-303,051	-200,000	0,011	-0,144
-302,037	399,128	-0,093	-0,142
-301,022	33,186	-0,047	-0,030
-300,008	-45,306	0,106	0,038
-298,993	56,012	0,062	-0,043
-297,978	67,510	-0,034	0,025
-296,964	37,053	-0,082	0,052
-295,949	215,768	-0,079	-0,091
-294,935	-69,404	-0,020	0,006
-293,920	-0,252	-0,096	-0,049
-292,905	800,000	0,050	0,156
-291,891	-104,161	-0,036	0,006
-290,876	361,645	-0,031	-0,045
-289,862	-92,926	0,030	-0,006
-288,847	-200,000	0,007	-0,118
-287,832	-111,730	0,189	-0,027
-286,818	-27,027	0,136	-0,057
-285,803	166,024	0,060	-0,062
-284,789	469,729	-0,087	0,142
-283,774	190,496	-0,028	-0,030
-282,759	492,398	0,093	-0,155
-281,745	31,118	0,115	0,071
-280,730	370,011	-0,012	0,018
-279,716	277,775	-0,011	0,014
-278,701	800,000	-0,015	0,040
-277,686	-168,884	0,089	0,002
-276,672	-44,339	-0,046	-0,017
-275,657	118,081	-0,070	-0,062
-274,643	36,436	-0,096	-0,061
-273,628	246,704	-0,100	-0,122
-272,613	-9,108	0,062	-0,030
-271,599	800,000	-0,051	-0,152
-270,584	185,950	0,030	0,032
-269,570	-69,115	0,083	0,023
-268,555	357,390	-0,066	-0,096
-267,540	18,944	0,082	-0,047
-266,526	-57,544	-0,146	-0,046
-265,511	-200,000	-0,029	-0,157
-264,497	-27,894	-0,069	0,029
-263,482	-200,000	0,034	0,139
-262,467	-59,516	0,084	0,026
-261,453	-58,435	-0,061	-0,019
-260,438	104,146	0,068	0,058
-259,424	-200,000	0,004	0,053
-258,409	800,000	-0,061	-0,154
-257,395	-200,000	-0,024	-0,076
-256,380	-200,000	-0,002	0,088
-255,365	800,000	-0,031	0,097
-254,351	268,388	0,049	0,062
-253,336	-11,052	0,091	0,043
-252,322	315,883	0,114	-0,156
-251,307	800,000	-0,032	-0,065
-250,292	-121,731	0,041	0,005
-249,278	-130,774	0,175	0,017
-248,263	-100,170	-0,065	0,012
-247,249	19,898	-0,039	0,023
-246,234	357,752	0,015	-0,021
-245,219	-200,000	-0,031	0,129
-244,205	90,313	-0,100	-0,081
-243,190	800,000	0,034	0,078
-242,176	-200,000	-0,036	0,141
-241,161	520,809	0,074	0,127
-240,146	-119,914	0,093	0,011
-239,132	800,000	-0,017	-0,036
-238,117	110,556	-0,028	0,024
-237,103	-121,734	0,123	-0,014
-236,088	75,806	-0,027	0,021
-235,073	343,777	-0,015	0,022
-234,059	800,000	-0,029	-0,074
-233,044	313,851	0,038	0,052
-232,030	-45,404	-0,074	-0,026
-231,015	29,835	0,021	0,013
-230,000	-200,000	0,004	-0,084
-228,986	-117,599	0,075	0,010
-227,971	-200,000	0,002	0,046
-226,957	536,871	-0,087	0,150
-225,942	-20,232	0,106	0,047
-224,927	18,951	-0,203	0,117
-223,913	387,381	-0,064	-0,095
-222,898	-200,000	0,024	-0,114
-221,884	800,000	0,034	-0,106
-220,869	177,157	-0,011	0,012
-219,855	-140,583	0,097	-0,007
-218,840	538,778	-0,075	-0,129
-217,825	-200,000	0,009	-0,096
-216,811	48,736	0,028	0,019
-215,796	522,026	-0,052	-0,088
-214,782	142,753	0,095	-0,091
-213,767	-114,040	0,108	0,015
-212,752	16,746	-0,059	0,033
-211,738	-49,199	0,152	0,052
-210,723	88,518	0,055	-0,044
-209,709	-51,096	0,031	0,010
-208,694	-146,742	-0,109	-0,007
-207,679	20,832	0,067	-0,039
-206,665	130,881	0,084	-0,078
-205,650	-200,000	0,002	0,076
-204,636	-200,000	-0,005	0,038
-203,621	58,182	-0,110	-0,078
-202,606	488,979	0,031	0,051
-201,592	394,838	-0,044	0,066
-200,577	-84,405	-0,034	0,008
-199,563	81,352	-0,096	0,075
-198,548	34,256	0,122	0,076
-197,533	521,644	0,063	0,108
-196,519	800,000	0,008	-0,026
-195,504	-56,704	0,067	0,021
-194,490	-3,658	-0,050	0,025
-193,475	456,104	-0,065	0,104
-192,460	800,000	0,023	-0,050
-191,446	93,143	0,041	0,034
-190,431	323,540	0,019	0,027
-189,417	-200,000	-0,007	-0,156
-188,402	184,803	0,052	-0,056
-187,387	78,795	-0,105	-0,081
-186,373	221,191	-0,070	-0,082
-185,358	102,041	0,085	0,072
-184,344	16,795	0,137	0,078
-183,329	-41,686	0,046	-0,017
-182,315	106,857	0,024	0,021
-181,300	-29,705	0,091	-0,037
-180,285	22,880	0,096	0,056
-179,271	-200,000	0,007	-0,152
-178,256	-34,769	0,089	-0,035
-177,242	-48,011	0,060	-0,021
-176,227	-200,000	-0,019	0,095
-175,212	728,894	0,024	0,047
-174,198	-23,987	0,150	0,064
-173,183	733,210	-0,046	0,089
-172,169	-200,000	-0,032	-0,132
-171,154	-200,000	-0,016	0,082
-170,139	64,878	-0,051	0,037
-169,125	-100,214	0,127	0,022
-168,110	544,993	-0,118	-0,203
-167,096	104,501	-0,086	0,073
-166,081	-22,182	-0,026	0,011
-165,066	-77,052	-0,110	-0,027
-164,052	321,751	0,070	0,097
-163,037	-200,000	0,015	0,067
-162,023	37,542	-0,061	0,039
-161,008	-31,737	0,108	0,043
-159,993	-115,122	-0,138	0,019
-158,979	-7,363	0,114	0,055
-157,964	250,837	-0,065	0,080
-156,950	-200,000	0,009	-0,031
-155,935	-115,827	0,115	0,015
-154,920	193,468	-0,019	0,021
-153,906	298,547	0,086	0,115
-152,891	12,020	0,049	-0,027
-151,877	134,906	0,055	-0,051
-150,862	75,774	-0,079	-0,060
-149,847	-200,000	-0,026	-0,107
-148,833	-6,468	0,137	-0,067
-147,818	242,458	-0,038	0,046
-146,804	-200,000	-0,021	0,128
-145,789	800,000	0,033	0,086
-144,775	-100,886	-0,089	0,016
-143,760	48,956	-0,060	0,041
-142,745	-200,000	-0,019	-0,128
-141,731	-30,160	-0,036	-0,014
-140,716	-200,000	0,013	0,046
-139,702	80,100	0,151	0,117
-138,687	-4,974	0,182	-0,090
-137,672	178,132	-0,010	-0,010
-136,658	91,982	-0,024	-0,019
-135,643	208,207	-0,080	-0,090
-134,629	301,536	-0,017	0,023
-133,614	-11,126	0,106	-0,050
-132,599	101,269	0,097	-0,081
-131,585	133,923	0,065	0,061
-130,570	222,488	-0,008	0,009
-129,556	321,255	0,031	-0,042
-128,541	135,929	0,007	-0,007
-127,526	135,696	0,050	0,047
-126,512	-23,239	0,149	0,064
-125,497	-200,000	0,011	0,187
-124,483	-70,775	0,068	-0,018
-123,468	-150,150	-0,039	0,002
-122,453	800,000	0,041	-0,091
-121,439	-200,000	0,047	-0,180
-120,424	63,184	0,031	0,023
-119,410	120,256	-0,082	-0,073
