DTS Sentinel unit serial number:	SN410029Multiplexer serial number:	ORYXHardware model number:	OX2-SRSoftware version number:	ORYX F/W v4,00 Oryx Data Collector v3.7.2.0data status	okinstallation	B4 Nyhavnadifferential loss correction	single-endedforward channel	channel 2reverse channel	N/Adate	2023/12/15time	16:30:13forward acquisition time	300,00reverse acquisition time	0,00gamma	499,1914k internal	0,3145k external	0,3145temperature offset calibration	1,0000default loss term (dB/km)	0,3820temperature slope calibration	1,0000multiplexer offset coefficient	1,0000multiplexer slope coefficient	1,0000fibre end	0,00T internal ref (°C)	17,47T ext. ref 1 (°C)	3,43T ext. ref 2 (°C)	3,57length (m)	temperature (°C)	Stokes	anti-Stokes-744,400	-131,621	0,108	0,010
-743,385	-84,959	-0,228	0,052
-742,371	-47,450	0,199	0,071
-741,356	19,193	-0,281	0,167
-740,342	-200,000	0,036	0,127
-739,327	-167,481	-0,280	-0,008
-738,312	800,000	0,041	0,104
-737,298	44,217	-0,185	0,125
-736,283	107,846	-0,053	-0,047
-735,269	-148,846	-0,371	-0,022
-734,254	-74,969	0,079	0,021
-733,239	-61,095	-0,523	-0,162
-732,225	-47,136	0,118	-0,042
-731,210	-44,608	0,090	-0,033
-730,196	683,998	-0,050	-0,098
-729,181	-10,914	-0,153	-0,075
-728,167	800,000	0,037	-0,090
-727,152	-87,057	-0,097	-0,022
-726,137	-200,000	-0,008	-0,178
-725,123	-23,354	-0,030	-0,013
-724,108	-200,000	-0,101	0,000
-723,094	68,364	-0,103	-0,078
-722,079	36,106	0,081	-0,053
-721,064	-200,000	0,016	-0,090
-720,050	-200,000	0,019	-0,109
-719,035	-200,000	0,024	-0,091
-718,021	-200,000	-0,017	-0,159
-717,006	16,923	0,127	-0,074
-715,991	-200,000	-0,010	-0,062
-714,977	74,143	-0,108	-0,084
-713,962	190,521	0,046	-0,051
-712,948	-200,000	-0,010	-0,035
-711,933	-200,000	0,020	-0,086
-710,918	-81,729	-0,154	-0,037
-709,904	-200,000	0,001	-0,031
-708,889	-69,080	0,127	-0,036
-707,875	-56,574	-0,097	0,032
-706,860	20,275	0,022	0,013
-705,845	83,246	-0,117	-0,094
-704,831	-200,000	0,015	0,078
-703,816	-200,000	0,006	0,090
-702,802	66,837	0,095	-0,072
-701,787	800,000	-0,064	-0,157
-700,772	800,000	-0,044	-0,127
-699,758	85,235	-0,044	0,036
-698,743	146,694	0,048	-0,048
-697,729	17,172	0,207	0,121
-696,714	-89,057	0,089	0,019
-695,699	-3,416	-0,042	-0,021
-694,685	183,651	0,102	-0,111
-693,670	800,000	0,037	0,090
-692,656	245,075	-0,072	0,089
-691,641	-79,444	0,038	-0,009
-690,627	277,606	0,010	0,013
-689,612	-159,731	-0,106	-0,004
-688,597	165,076	-0,050	-0,052
-687,583	3,938	-0,080	-0,043
-686,568	-200,000	0,000	0,044
-685,554	31,380	-0,070	-0,045
-684,539	-113,485	0,054	-0,008
-683,524	-200,000	-0,027	-0,178
-682,510	-42,957	-0,036	0,013
-681,495	111,177	0,074	-0,066
-680,481	-26,083	0,076	-0,033
-679,466	772,248	0,031	0,062
-678,451	800,000	-0,049	0,112
-677,437	-200,000	-0,008	0,030
-676,422	209,896	-0,036	-0,042
-675,408	296,162	-0,024	0,033
-674,393	49,602	-0,042	-0,029
-673,378	-200,000	-0,003	-0,122
-672,364	659,129	0,014	-0,027
-671,349	85,273	-0,086	-0,070
-670,335	-86,750	0,123	-0,028
-669,320	7,108	0,086	0,047
-668,305	-200,000	0,013	-0,069
-667,291	800,000	-0,050	-0,146
-666,276	-200,000	0,005	-0,073
-665,262	98,141	-0,152	-0,129
-664,247	-131,961	0,049	0,005
-663,232	-54,786	-0,120	-0,040
-662,218	-143,278	-0,091	0,006
-661,203	-90,834	0,013	0,003
-660,189	-200,000	-0,007	0,088
-659,174	113,463	0,104	0,093
-658,159	-35,106	0,112	0,045
-657,145	-200,000	-0,012	0,083
-656,130	393,098	0,052	0,080
-655,116	-200,000	0,026	-0,154
-654,101	-200,000	0,008	-0,064
-653,086	5,917	-0,033	0,018
-652,072	338,896	-0,068	-0,099
-651,057	519,091	0,055	-0,095
-650,043	-19,762	-0,013	-0,006
-649,028	-139,093	0,097	0,008
-648,014	206,559	-0,069	0,079
-646,999	26,570	-0,056	0,035
-645,984	320,877	-0,021	-0,030
-644,970	-48,805	-0,107	-0,038
-643,955	277,658	-0,080	-0,105
-642,941	164,807	-0,158	-0,164
-641,926	2,082	0,048	0,025
-640,911	118,824	0,047	0,043
-639,897	-118,005	-0,058	0,008
-638,882	-200,000	-0,011	0,057
-637,868	800,000	0,049	-0,148
-636,853	-69,532	-0,075	0,021
-635,838	331,527	0,020	0,029
-634,824	-200,000	-0,023	-0,111
-633,809	43,457	-0,143	0,096
-632,795	311,469	0,019	0,026
-631,780	-26,008	-0,133	0,058
-630,765	132,512	-0,121	-0,115
-629,751	-200,000	0,016	-0,076
-628,736	607,176	-0,105	-0,194
-627,722	800,000	-0,050	-0,134
-626,707	-200,000	-0,006	-0,045
-625,692	-140,219	0,098	0,007
-624,678	800,000	0,040	-0,088
-623,663	-33,002	-0,061	-0,025
-622,649	-120,442	-0,058	0,007
-621,634	266,074	-0,143	-0,185
-620,619	-200,000	0,038	-0,126
-619,605	-68,623	-0,096	-0,027
-618,590	170,492	0,053	-0,056
-617,576	-2,412	0,020	0,010
-616,561	437,913	-0,064	-0,103
-615,546	366,954	0,053	-0,079
-614,532	148,011	-0,021	0,021
-613,517	-200,000	0,005	-0,133
-612,503	96,468	0,063	0,053
-611,488	-200,000	0,000	-0,098
-610,474	71,997	0,075	0,058
-609,459	248,096	-0,055	-0,068
-608,444	-1,901	-0,126	-0,065
-607,430	683,099	-0,052	-0,101
-606,415	189,686	0,029	0,032
-605,401	689,385	-0,018	0,036
-604,386	-28,363	-0,013	0,005
-603,371	800,000	0,032	0,072
-602,357	-200,000	0,015	-0,061
-601,342	-200,000	-0,009	-0,073
-600,328	169,732	0,049	-0,052
-599,313	-18,386	0,084	-0,039
-598,298	-200,000	-0,005	-0,231
-597,284	683,195	-0,047	0,090
-596,269	314,941	0,128	0,178
-595,255	-200,000	0,004	0,077
-594,240	322,390	-0,027	-0,038
-593,225	800,000	0,026	-0,072
-592,211	-43,838	-0,111	0,041
-591,196	-200,000	0,003	0,014
-590,182	-111,670	-0,040	-0,006
-589,167	-38,372	-0,142	0,055
-588,152	470,624	0,050	0,084
-587,138	-64,485	-0,187	0,055
-586,123	800,000	-0,057	-0,123
-585,109	800,000	0,055	-0,127
-584,094	-200,000	-0,015	-0,085
-583,079	800,000	0,069	0,171
-582,065	163,131	0,079	-0,082
-581,050	110,141	-0,116	0,102
-580,036	800,000	0,043	0,105
-579,021	92,684	-0,085	-0,070
-578,006	78,285	-0,146	-0,114
-576,992	165,962	0,086	-0,089
-575,977	-41,948	-0,148	-0,056
-574,963	127,205	0,081	0,076
-573,948	-200,000	0,046	-0,205
-572,934	-85,974	-0,115	-0,026
-571,919	-8,736	0,037	0,018
-570,904	62,554	0,076	-0,056
-569,890	108,786	0,051	-0,044
-568,875	797,189	0,052	0,106
-567,861	623,687	0,086	0,161
-566,846	-54,810	0,115	0,038
-565,831	212,459	0,052	0,060
-564,817	-200,000	-0,001	-0,034
-563,802	2,189	-0,050	0,027
-562,788	265,629	0,045	-0,058
-561,773	297,555	-0,127	-0,172
-560,758	280,036	0,028	0,037
-559,744	205,787	0,070	-0,081
-558,729	-200,000	0,010	-0,049
-557,715	217,823	0,057	0,067
-556,700	-200,000	-0,005	-0,056
-555,685	800,000	-0,011	0,033
-554,671	-200,000	0,025	0,113
-553,656	-122,869	0,104	-0,012
-552,642	-200,000	-0,049	0,160
-551,627	94,403	0,131	-0,109
-550,612	327,409	-0,135	-0,191
-549,598	-79,215	-0,085	-0,021
-548,583	161,596	0,012	-0,012
-547,569	356,756	-0,120	-0,175
-546,554	-157,721	-0,051	-0,002
-545,539	-35,674	0,117	0,046
-544,525	-146,507	0,117	-0,007
-543,510	-200,000	-0,004	-0,042
-542,496	-40,899	0,061	0,023
-541,481	696,971	0,040	0,077
-540,466	800,000	0,016	-0,044
-539,452	-0,599	-0,082	0,043
-538,437	-75,692	0,049	0,013
-537,423	297,747	0,124	0,167
-536,408	6,554	0,098	-0,053
-535,393	624,708	-0,029	-0,055
-534,379	-107,837	-0,052	0,008
-533,364	-200,000	-0,003	-0,047
-532,350	-200,000	0,006	-0,041
-531,335	-200,000	-0,033	0,178
-530,321	50,178	0,143	0,099
-529,306	702,146	-0,065	-0,126
-528,291	-144,665	0,017	-0,001
-527,277	31,433	-0,060	-0,038
-526,262	432,315	-0,037	-0,058
-525,248	-129,353	0,093	-0,009
-524,233	14,873	0,119	0,068
-523,218	459,210	-0,076	0,124
-522,204	-200,000	-0,002	-0,037
-521,189	548,264	-0,058	-0,102
-520,175	-78,352	-0,128	-0,032
-519,160	-200,000	0,020	-0,105
-518,145	-96,247	0,043	0,008
-517,131	-200,000	-0,024	0,098
-516,116	656,696	0,006	-0,011
-515,102	800,000	-0,019	0,042
-514,087	-200,000	-0,017	0,075
-513,072	-200,000	0,005	0,056
-512,058	-46,857	0,128	0,046
-511,043	93,856	0,063	0,052
-510,029	529,473	0,087	0,151
-509,014	97,485	-0,073	0,061
-507,999	-124,390	0,104	-0,012
-506,985	800,000	-0,050	-0,134
-505,970	-159,836	-0,070	0,003
-504,956	273,647	-0,053	-0,069
-503,941	-200,000	0,019	0,124
-502,926	643,584	-0,040	0,075
-501,912	-95,993	0,100	0,019
-500,897	-44,311	0,027	0,010
-499,883	609,019	-0,038	-0,069
-498,868	-76,213	-0,107	-0,027
-497,853	-47,310	-0,115	0,041
-496,839	37,993	-0,037	0,024
-495,824	-11,080	-0,040	-0,019
-494,810	264,315	-0,102	0,131
-493,795	-51,181	-0,013	-0,004
-492,781	-200,000	0,013	-0,051
-491,766	-139,943	-0,047	-0,004
-490,751	-39,821	0,048	0,018
-489,737	-200,000	0,016	-0,208
-488,722	357,079	-0,049	-0,071
-487,708	-74,356	-0,017	0,005
-486,693	666,534	0,057	-0,109
-485,678	244,053	0,060	-0,073
-484,664	-7,666	-0,079	0,039
-483,649	256,247	-0,108	-0,136
-482,635	800,000	0,033	-0,093
-481,620	-151,975	-0,093	-0,005
-480,605	-22,931	-0,079	0,035
-479,591	178,813	0,056	-0,060
-478,576	271,705	-0,073	0,094
-477,562	800,000	-0,056	-0,148
-476,547	-96,037	-0,073	-0,014
-475,532	800,000	-0,019	0,040
-474,518	76,004	0,134	0,104
-473,503	-200,000	-0,008	-0,086
-472,489	382,271	-0,044	-0,066
-471,474	143,565	-0,068	0,067
-470,459	-105,318	0,077	-0,013
-469,445	771,931	-0,105	-0,211
-468,430	-131,540	-0,036	0,003
-467,416	115,584	-0,134	0,120
-466,401	240,118	0,022	0,026
-465,386	800,000	-0,059	0,126
-464,372	800,000	0,022	0,052
-463,357	-82,261	0,036	-0,009
-462,343	-114,047	-0,076	-0,011
-461,328	800,000	0,018	-0,043
-460,313	146,336	0,077	-0,076
-459,299	318,160	0,040	0,055
-458,284	-123,431	-0,108	-0,012
-457,270	653,261	0,038	0,072
-456,255	800,000	-0,043	-0,101
-455,241	321,635	-0,005	-0,007
-454,226	561,738	-0,070	-0,125
-453,211	191,446	-0,045	0,049
-452,197	800,000	-0,033	0,098
-451,182	-182,549	0,093	-0,001
-450,168	-98,836	0,070	-0,013
-449,153	91,830	-0,092	0,075
-448,138	84,790	-0,043	0,035
-447,124	-200,000	0,015	-0,092
-446,109	491,354	-0,062	0,105
-445,095	-143,975	0,190	-0,013
-444,080	-15,345	0,066	0,031
-443,065	-200,000	-0,012	0,050
-442,051	-90,139	-0,057	-0,012
-441,036	-200,000	-0,020	-0,093
-440,022	646,926	0,023	-0,043
-439,007	-200,000	0,004	-0,054
-437,992	-71,151	0,015	0,004
-436,978	800,000	-0,036	-0,086
-435,963	-200,000	-0,001	0,055
-434,949	-17,532	0,117	0,054
-433,934	31,129	0,035	-0,022
-432,919	66,289	-0,079	-0,059
-431,905	-200,000	-0,016	0,080
-430,890	-200,000	0,057	0,201
-429,876	-200,000	-0,017	-0,060
-428,861	349,463	-0,063	0,091
-427,846	-157,701	0,120	0,005
-426,832	-200,000	0,015	0,188
-425,817	-200,000	-0,005	0,060
-424,803	537,606	-0,005	-0,009
-423,788	284,260	-0,063	-0,083
-422,773	-150,280	0,141	0,008
-421,759	69,311	0,027	0,020
-420,744	800,000	0,029	0,067
-419,730	-22,191	-0,034	0,015
-418,715	-200,000	0,022	-0,076
-417,701	-200,000	-0,013	0,128
-416,686	-200,000	0,003	0,185
-415,671	597,554	-0,073	0,133
-414,657	69,986	-0,028	-0,021
-413,642	-200,000	-0,000	0,003
-412,628	-200,000	0,023	0,149
-411,613	33,561	-0,075	-0,048
-410,598	800,000	-0,004	0,012
-409,584	171,288	0,038	0,040
-408,569	163,953	-0,127	0,131
-407,555	800,000	0,096	0,233
-406,540	-200,000	0,000	-0,167
-405,525	-35,709	0,032	-0,013
-404,511	-200,000	-0,015	-0,076
-403,496	800,000	0,018	-0,049
-402,482	800,000	0,020	0,049
-401,467	-200,000	-0,026	0,113
-400,452	-200,000	-0,014	0,055
-399,438	-4,010	0,063	-0,032
-398,423	-38,720	-0,050	-0,019
-397,409	-200,000	-0,008	-0,059
-396,394	103,910	-0,069	0,059
-395,379	-200,000	-0,033	-0,158
-394,365	800,000	-0,019	-0,047
-393,350	-200,000	-0,010	0,053
-392,336	-200,000	0,004	0,020
-391,321	130,470	0,049	-0,045
-390,306	2,975	0,138	0,073
-389,292	-200,000	-0,015	-0,117
-388,277	-47,751	-0,025	-0,009
-387,263	-76,613	0,173	-0,044
-386,248	-200,000	0,038	0,161
-385,233	-154,088	-0,143	-0,007
-384,219	255,040	0,100	0,125
-383,204	-200,000	-0,014	-0,123
-382,190	-200,000	-0,003	-0,210
-381,175	-56,318	-0,150	0,048
-380,160	800,000	0,048	0,110
-379,146	-14,229	-0,016	0,008
-378,131	54,497	-0,040	0,028
-377,117	-9,432	0,202	0,098
-376,102	53,544	0,136	-0,095
-375,088	800,000	-0,037	-0,085
-374,073	-200,000	0,005	-0,202
-373,058	-166,383	0,038	0,001
-372,044	216,037	0,065	0,076
-371,029	24,971	-0,170	0,102
-370,015	-200,000	0,033	0,193
-369,000	1,958	-0,089	-0,047
-367,985	121,059	-0,119	-0,108
-366,971	-108,800	0,076	-0,012
-365,956	243,579	0,059	-0,073
-364,942	800,000	0,037	-0,089
-363,927	-200,000	0,010	0,095
-362,912	-200,000	-0,001	-0,041
-361,898	800,000	0,091	0,237
-360,883	-200,000	-0,034	-0,141
-359,869	-200,000	0,044	0,000
-358,854	-200,000	0,014	0,109
-357,839	-200,000	0,045	0,151
-356,825	58,412	0,081	-0,058
-355,810	800,000	-0,067	-0,175
-354,796	800,000	0,047	-0,124
-353,781	-200,000	-0,010	-0,155
-352,766	61,702	0,089	0,064
-351,752	66,148	0,021	0,015
-350,737	-200,000	0,012	0,094
-349,723	-200,000	0,022	0,113
-348,708	55,153	0,040	-0,028
-347,693	114,053	0,058	0,052
-346,679	253,782	-0,064	-0,080
-345,664	800,000	0,026	0,058
-344,650	248,925	-0,043	-0,053
-343,635	-159,164	0,176	0,007
-342,620	46,410	-0,014	-0,010
-341,606	800,000	0,008	-0,023
-340,591	33,746	0,073	0,046
-339,577	-197,282	-0,139	0,001
-338,562	-200,000	0,024	-0,100
-337,548	505,475	-0,044	0,074
-336,533	-200,000	0,031	0,158
-335,518	-41,108	0,110	0,041
-334,504	-69,223	0,074	0,021
-333,489	-28,642	0,053	0,022
-332,475	718,021	0,050	-0,097
-331,460	-200,000	-0,024	0,079
-330,445	23,385	-0,008	-0,005
-329,431	330,750	0,026	-0,037
-328,416	-93,732	0,038	0,008
-327,402	-200,000	-0,048	0,168
-326,387	186,964	-0,016	-0,017
-325,372	-98,195	0,104	0,019
-324,358	10,821	0,085	0,047
-323,343	2,129	-0,059	-0,031
-322,329	710,693	-0,049	0,094
-321,314	138,077	-0,055	0,053
-320,299	169,262	-0,033	-0,035
-319,285	-73,082	-0,103	0,027
-318,270	-200,000	-0,000	-0,045
-317,256	-129,322	-0,058	-0,006
-316,241	30,619	0,085	-0,053
-315,226	-34,788	0,097	0,038
-314,212	800,000	0,022	0,066
-313,197	800,000	0,023	-0,068
-312,183	-200,000	0,013	-0,050
-311,168	-117,040	-0,116	0,015
-310,153	-76,571	0,121	-0,031
-309,139	59,442	0,099	-0,071
-308,124	-200,000	-0,005	0,081
-307,110	58,082	0,043	-0,031
-306,095	800,000	0,041	0,116
-305,080	-200,000	-0,004	0,105
-304,066	-200,000	-0,002	-0,050
-303,051	774,772	-0,034	-0,068
-302,037	-200,000	0,026	-0,165
-301,022	-21,730	0,126	-0,056
-300,008	565,402	0,014	-0,025
-298,993	312,814	0,007	0,009
-297,978	517,487	-0,029	0,050
-296,964	-200,000	0,004	0,073
-295,949	800,000	-0,048	-0,108
-294,935	428,658	0,072	-0,113
-293,920	123,553	-0,103	0,094
-292,905	315,157	-0,031	0,043
-291,891	800,000	0,037	0,084
-290,876	389,568	-0,054	0,081
-289,862	277,930	-0,154	0,199
-288,847	35,039	-0,039	0,025
-287,832	409,568	0,072	0,112
-286,818	51,795	0,061	0,042
-285,803	-120,953	-0,153	0,018
-284,789	-40,200	0,230	0,087
-283,774	800,000	-0,054	0,118
-282,759	-40,594	-0,138	0,052
-281,745	800,000	0,061	0,127
-280,730	-61,584	-0,076	0,023
-279,716	65,929	0,073	0,054
-278,701	-121,518	0,119	0,014
-277,686	-73,759	0,057	0,015
-276,672	218,529	-0,072	-0,084
-275,657	159,758	-0,098	0,100
-274,643	-200,000	-0,003	-0,031
-273,628	85,936	-0,046	-0,037
-272,613	800,000	-0,028	0,058
-271,599	129,099	0,019	0,017
-270,584	800,000	0,026	0,079
-269,570	-83,647	-0,027	-0,006
-268,555	140,357	-0,089	-0,086
-267,540	-200,000	0,017	0,072
-266,526	-102,965	-0,078	-0,013
-265,511	114,667	0,056	-0,049
-264,497	244,054	-0,017	-0,020
-263,482	-200,000	-0,034	0,173
-262,467	-200,000	-0,031	0,156
-261,453	-23,898	0,105	0,046
-260,438	800,000	-0,041	-0,096
-259,424	800,000	0,023	0,048
-258,409	800,000	0,037	0,104
-257,395	-22,754	0,181	0,079
-256,380	-159,874	-0,064	-0,003
-255,365	-200,000	-0,016	0,117
-254,351	800,000	0,018	-0,054
-253,336	468,429	-0,071	0,116
-252,322	-56,311	-0,102	0,033
-251,307	-5,640	0,035	-0,017
-250,292	800,000	-0,024	-0,077
-249,278	46,436	0,099	-0,067
-248,263	800,000	0,007	-0,018
-247,249	223,595	0,092	-0,107
-246,234	35,157	-0,036	-0,023
-245,219	-46,831	-0,035	-0,012
-244,205	285,703	-0,074	-0,097
-243,190	-200,000	0,016	-0,090
-242,176	800,000	0,049	-0,106
-241,161	800,000	-0,031	-0,086
-240,146	-188,704	0,009	0,000
-239,132	800,000	0,076	0,177
-238,117	-200,000	0,009	-0,059
-237,103	473,991	-0,059	0,097
-236,088	-200,000	0,001	-0,033
-235,073	247,376	0,029	-0,036
-234,059	179,157	0,073	-0,077
-233,044	-104,869	0,024	-0,004
-232,030	-200,000	0,032	-0,183
-231,015	186,029	-0,087	-0,094
-230,000	-10,179	-0,152	0,073
-228,986	-200,000	0,010	-0,048
-227,971	-75,254	0,064	0,016
-226,957	98,377	0,110	0,092
-225,942	439,840	-0,105	-0,166
-224,927	34,503	0,063	-0,040
-223,913	163,735	0,041	-0,042
-222,898	-33,039	-0,036	-0,015
-221,884	800,000	0,027	-0,057
-220,869	-200,000	-0,023	0,087
-219,855	800,000	0,033	0,092
-218,840	9,839	-0,067	-0,037
-217,825	800,000	0,042	-0,100
-216,811	-104,912	-0,177	-0,029
-215,796	800,000	-0,031	0,097
-214,782	17,545	0,119	-0,068
-213,767	24,823	-0,099	-0,059
-212,752	-88,357	0,085	0,018
-211,738	678,713	0,034	0,065
-210,723	2,188	-0,067	0,035
-209,709	800,000	-0,013	-0,032
-208,694	-48,474	0,047	-0,016
-207,679	100,525	-0,082	-0,069
-206,665	63,507	0,088	0,064
-205,650	689,325	-0,068	0,130
-204,636	73,514	-0,105	0,080
-203,621	-56,423	0,087	0,028
-202,606	472,448	-0,053	0,088
-201,592	-200,000	0,022	0,076
-200,577	10,302	0,182	-0,100
-199,563	213,592	0,079	-0,090
-198,548	69,023	0,082	0,061
-197,533	-135,200	-0,085	-0,007
-196,519	245,546	0,032	0,039
-195,504	800,000	0,033	0,087
-194,490	-200,000	-0,008	0,035
-193,475	-200,000	-0,033	0,123
-192,460	24,533	-0,055	0,033
-191,446	-8,087	0,178	0,087
-190,431	-74,367	-0,049	-0,013
-189,417	-178,675	0,085	0,001
-188,402	-79,693	-0,110	-0,027
-187,387	-20,543	-0,124	-0,055
-186,373	-200,000	-0,015	-0,088
-185,358	-200,000	-0,057	-0,236
-184,344	-200,000	0,019	0,082
-183,329	141,992	-0,065	-0,062
-182,315	-57,009	0,066	0,021
-181,300	-200,000	0,023	0,081
-180,285	-68,191	-0,077	0,021
-179,271	-200,000	0,054	0,213
-178,256	171,112	0,047	-0,049
-177,242	104,263	0,139	-0,118
-176,227	476,378	0,004	-0,007
-175,212	800,000	-0,002	-0,004
-174,198	-200,000	0,009	0,065
-173,183	-200,000	0,026	-0,119
-172,169	-48,682	0,155	-0,054
-171,154	139,190	-0,097	-0,092
-170,139	800,000	-0,011	0,032
-169,125	-50,753	-0,036	0,012
-168,110	800,000	0,031	0,091
-167,096	600,517	0,038	-0,069
-166,081	-200,000	0,010	-0,038
-165,066	164,268	0,043	-0,043
-164,052	94,001	0,108	0,089
-163,037	800,000	0,019	-0,047
-162,023	800,000	-0,017	-0,037
-161,008	179,467	0,067	0,071
-159,993	-200,000	0,012	0,065
-158,979	410,444	-0,045	-0,070
-157,964	-25,076	-0,037	0,016
-156,950	11,187	-0,093	0,051
-155,935	280,268	0,019	-0,025
-154,920	-199,045	0,093	-0,000
-153,906	-200,000	-0,002	-0,058
-152,891	111,613	-0,048	0,042
-151,877	-200,000	0,003	-0,047
-150,862	-41,956	-0,119	-0,044
-149,847	134,461	0,066	0,062
-148,833	-26,264	-0,164	0,069
-147,818	-42,322	-0,049	0,018
-146,804	-200,000	0,002	-0,077
-145,789	-200,000	-0,022	0,085
-144,775	-58,563	-0,170	0,053
-143,760	-200,000	-0,005	-0,102
-142,745	667,706	-0,016	-0,031
-141,731	-8,236	-0,149	-0,072
-140,716	716,343	0,035	0,067
-139,702	105,275	0,076	0,065
-138,687	236,309	-0,084	-0,101
-137,672	34,853	-0,113	-0,072
-136,658	110,663	0,125	-0,109
-135,643	-40,669	-0,142	0,053
-134,629	606,779	-0,037	0,067
-133,614	-172,460	-0,045	-0,001
-132,599	77,118	-0,038	0,029
-131,585	800,000	0,013	0,039
-130,570	-84,663	0,139	0,031
-129,556	18,994	0,073	-0,042
-128,541	72,379	0,040	0,030
-127,526	113,014	-0,066	-0,058
-126,512	-108,338	0,055	-0,008
-125,497	-200,000	-0,028	0,150
-124,483	-200,000	-0,005	0,075
-123,468	67,544	-0,012	0,009
-122,453	5,413	0,143	0,076
-121,439	-92,537	-0,032	0,006
-120,424	-200,000	0,013	-0,082
-119,410	483,842	0,077	0,127
