DTS Sentinel unit serial number:	SN410029Multiplexer serial number:	ORYXHardware model number:	OX2-SRSoftware version number:	ORYX F/W v4,00 Oryx Data Collector v3.7.2.0data status	okinstallation	B4 Nyhavnadifferential loss correction	single-endedforward channel	channel 2reverse channel	N/Adate	2023/12/15time	20:45:13forward acquisition time	300,00reverse acquisition time	0,00gamma	499,1914k internal	0,3134k external	0,3134temperature offset calibration	1,0000default loss term (dB/km)	0,3820temperature slope calibration	1,0000multiplexer offset coefficient	1,0000multiplexer slope coefficient	1,0000fibre end	0,00T internal ref (°C)	20,71T ext. ref 1 (°C)	6,11T ext. ref 2 (°C)	6,26length (m)	temperature (°C)	Stokes	anti-Stokes-744,400	124,951	-0,039	0,036
-743,385	59,535	-0,211	0,154
-742,371	250,306	-0,088	0,112
-741,356	26,886	-0,114	0,071
-740,342	800,000	0,018	0,049
-739,327	27,506	-0,320	0,200
-738,312	-30,176	0,121	-0,051
-737,298	-134,058	-0,256	-0,023
-736,283	179,209	0,046	-0,050
-735,269	-135,013	-0,169	0,015
-734,254	-118,217	0,054	-0,007
-733,239	-98,301	-0,452	-0,085
-732,225	205,462	0,093	0,108
-731,210	62,151	-0,021	-0,015
-730,196	-200,000	0,008	0,041
-729,181	11,557	-0,105	-0,059
-728,167	-200,000	-0,020	-0,075
-727,152	13,930	-0,146	-0,084
-726,137	33,767	-0,084	-0,054
-725,123	-200,000	0,003	0,041
-724,108	-13,483	-0,100	-0,048
-723,094	-200,000	0,017	-0,062
-722,079	404,534	-0,110	-0,173
-721,064	352,510	0,016	0,023
-720,050	-200,000	0,022	0,000
-719,035	800,000	0,025	0,055
-718,021	-0,916	-0,083	-0,044
-717,006	401,254	-0,046	-0,073
-715,991	800,000	-0,076	-0,218
-714,977	0,230	-0,065	-0,034
-713,962	-200,000	0,002	0,084
-712,948	800,000	-0,039	0,108
-711,933	-125,177	0,104	0,012
-710,918	488,081	-0,022	-0,038
-709,904	800,000	0,029	0,084
-708,889	-200,000	-0,034	-0,154
-707,875	-104,808	0,085	-0,014
-706,860	422,306	-0,074	0,118
-705,845	-200,000	0,033	0,161
-704,831	255,370	0,087	0,110
-703,816	-37,601	0,089	-0,035
-702,802	-200,000	-0,013	-0,073
-701,787	266,334	-0,008	0,011
-700,772	27,171	-0,092	-0,057
-699,758	-200,000	-0,013	-0,093
-698,743	-5,798	0,068	0,035
-697,729	500,920	0,040	-0,068
-696,714	-200,000	-0,017	0,172
-695,699	588,474	0,056	-0,104
-694,685	-22,414	0,064	-0,028
-693,670	19,395	0,097	-0,058
-692,656	40,395	0,039	-0,026
-691,641	596,232	0,016	-0,030
-690,627	800,000	-0,056	0,140
-689,612	-200,000	-0,001	-0,080
-688,597	800,000	0,036	-0,087
-687,583	-33,502	-0,152	0,062
-686,568	-18,441	-0,102	-0,047
-685,554	465,629	0,092	-0,153
-684,539	-68,364	0,141	-0,040
-683,524	-200,000	-0,014	0,102
-682,510	224,417	0,013	0,015
-681,495	800,000	-0,069	-0,148
-680,481	155,905	0,028	-0,028
-679,466	-200,000	0,028	-0,117
-678,451	800,000	0,018	-0,054
-677,437	9,595	-0,190	-0,107
-676,422	-185,314	-0,243	-0,003
-675,408	-69,470	-0,121	0,034
-674,393	-129,622	0,020	-0,002
-673,378	165,890	-0,026	0,028
-672,364	580,660	-0,081	-0,147
-671,349	250,191	0,021	0,026
-670,335	13,686	0,068	0,039
-669,320	-142,291	0,184	-0,013
-668,305	89,663	0,024	-0,020
-667,291	0,307	0,122	-0,064
-666,276	195,878	-0,060	0,068
-665,262	-103,755	-0,126	0,022
-664,247	-14,355	0,027	0,013
-663,232	99,671	0,012	-0,010
-662,218	-200,000	-0,027	0,100
-661,203	-106,254	0,029	-0,005
-660,189	74,079	0,120	0,093
-659,174	-200,000	0,004	-0,141
-658,159	800,000	0,026	-0,077
-657,145	-35,864	-0,060	0,024
-656,130	800,000	-0,035	-0,096
-655,116	-68,965	-0,063	0,018
-654,101	-94,414	-0,208	-0,042
-653,086	-152,682	-0,077	-0,004
-652,072	112,440	-0,088	-0,079
-651,057	-49,341	0,074	-0,026
-650,043	-200,000	0,037	0,171
-649,028	-44,936	0,061	0,022
-648,014	-124,427	0,093	0,011
-646,999	-6,197	-0,052	-0,026
-645,984	-200,000	-0,000	-0,074
-644,970	-200,000	-0,025	-0,097
-643,955	181,445	0,014	-0,015
-642,941	115,156	0,025	0,023
-641,926	800,000	-0,006	-0,013
-640,911	148,832	0,150	-0,150
-639,897	51,110	0,134	0,094
-638,882	185,776	-0,065	0,072
-637,868	-21,487	-0,138	0,062
-636,853	800,000	-0,055	0,140
-635,838	-123,441	-0,103	0,012
-634,824	-200,000	0,012	0,044
-633,809	-200,000	-0,034	-0,115
-632,795	428,340	-0,074	-0,118
-631,780	-0,821	0,053	-0,028
-630,765	-200,000	-0,006	0,045
-629,751	-200,000	-0,022	-0,076
-628,736	800,000	0,060	-0,173
-627,722	800,000	0,018	0,040
-626,707	561,065	0,048	-0,087
-625,692	-200,000	-0,001	0,049
-624,678	-200,000	-0,007	-0,040
-623,663	50,097	-0,043	0,030
-622,649	-67,627	-0,097	-0,028
-621,634	197,785	-0,031	-0,035
-620,619	496,187	-0,050	-0,085
-619,605	27,773	0,092	-0,057
-618,590	-60,217	0,146	0,046
-617,576	255,286	-0,023	-0,029
-616,561	-200,000	-0,006	0,074
-615,546	59,123	-0,090	-0,066
-614,532	800,000	-0,045	-0,124
-613,517	102,781	-0,103	0,089
-612,503	-71,496	0,042	-0,012
-611,488	73,665	0,061	0,047
-610,474	-136,694	0,122	0,010
-609,459	134,858	-0,045	0,043
-608,444	-79,412	-0,061	0,015
-607,430	343,009	-0,056	0,081
-606,415	414,698	-0,053	0,084
-605,401	800,000	-0,030	0,066
-604,386	429,569	0,018	-0,030
-603,371	-200,000	-0,006	0,066
-602,357	-21,143	0,068	-0,031
-601,342	800,000	-0,036	-0,077
-600,328	-81,658	-0,064	0,015
-599,313	427,461	0,052	-0,083
-598,298	207,908	0,025	0,028
-597,284	332,735	-0,057	0,081
-596,269	12,015	0,056	-0,032
-595,255	-200,000	-0,002	-0,033
-594,240	-11,548	-0,098	-0,047
-593,225	800,000	0,053	-0,113
-592,211	-180,086	-0,129	0,002
-591,196	-200,000	-0,002	0,027
-590,182	50,522	-0,081	0,057
-589,167	615,398	-0,025	0,046
-588,152	-3,587	-0,077	-0,039
-587,138	-200,000	0,028	-0,143
-586,123	280,828	-0,039	-0,051
-585,109	118,117	0,047	0,043
-584,094	800,000	-0,050	-0,129
-583,079	42,559	-0,073	-0,049
-582,065	39,247	0,025	-0,017
-581,050	-83,168	-0,159	0,037
-580,036	263,922	-0,036	0,047
-579,021	800,000	0,015	-0,048
-578,006	-166,770	0,220	-0,007
-576,992	-36,998	0,158	-0,062
-575,977	32,978	-0,073	-0,046
-574,963	700,858	0,039	0,077
-573,948	10,607	-0,054	-0,031
-572,934	258,763	-0,050	-0,064
-571,919	298,487	-0,053	-0,072
-570,904	-200,000	-0,004	-0,022
-569,890	27,583	0,095	-0,059
-568,875	-200,000	0,025	-0,083
-567,861	800,000	-0,031	0,089
-566,846	800,000	-0,016	0,033
-565,831	172,063	-0,052	-0,055
-564,817	800,000	-0,060	0,145
-563,802	60,310	-0,028	-0,021
-562,788	-116,275	-0,125	0,017
-561,773	-200,000	-0,031	-0,124
-560,758	360,076	0,038	-0,057
-559,744	-200,000	-0,001	0,031
-558,729	-67,844	0,012	-0,004
-557,715	0,794	0,075	-0,040
-556,700	76,305	-0,122	-0,095
-555,685	784,425	-0,065	-0,132
-554,671	-200,000	0,007	0,059
-553,656	-200,000	0,003	-0,055
-552,642	-200,000	0,010	-0,079
-551,627	-37,280	0,051	0,020
-550,612	63,031	-0,066	0,049
-549,598	389,769	0,033	-0,051
-548,583	116,326	0,063	0,057
-547,569	-200,000	-0,013	0,046
-546,554	-67,788	0,066	-0,019
-545,539	-58,535	0,029	0,009
-544,525	-16,327	0,062	0,029
-543,510	-200,000	-0,005	0,131
-542,496	47,009	-0,055	-0,037
-541,481	-178,890	0,054	0,001
-540,466	-200,000	-0,011	-0,137
-539,452	39,750	0,139	0,092
-538,437	560,908	0,061	0,108
-537,423	1,111	-0,044	0,023
-536,408	173,117	-0,037	-0,039
-535,393	-200,000	-0,011	-0,063
-534,379	-8,557	-0,044	0,022
-533,364	417,969	-0,041	-0,064
-532,350	144,605	-0,068	0,067
-531,335	800,000	-0,015	-0,032
-530,321	-84,457	0,147	0,034
-529,306	800,000	-0,012	-0,034
-528,291	319,439	0,023	-0,032
-527,277	-68,566	0,023	0,006
-526,262	800,000	0,075	-0,169
-525,248	192,076	-0,051	0,057
-524,233	76,974	0,106	0,083
-523,218	-5,325	-0,118	0,060
-522,204	-200,000	-0,033	0,115
-521,189	227,171	0,033	0,040
-520,175	-49,672	-0,046	0,016
-519,160	-35,831	0,123	0,049
-518,145	800,000	0,065	-0,143
-517,131	123,391	-0,117	-0,108
-516,116	98,526	0,081	0,069
-515,102	-200,000	-0,017	-0,134
-514,087	149,843	0,026	-0,026
-513,072	383,897	-0,055	0,084
-512,058	146,335	0,108	-0,107
-511,043	27,006	-0,065	0,040
-510,029	-200,000	-0,004	-0,036
-509,014	618,931	-0,014	0,027
-507,999	-200,000	-0,009	0,087
-506,985	-40,788	0,066	-0,025
-505,970	-1,845	-0,169	0,087
-504,956	800,000	-0,039	-0,102
-503,941	96,615	-0,056	0,047
-502,926	158,461	-0,008	-0,008
-501,912	-168,420	-0,098	0,003
-500,897	566,172	-0,019	0,034
-499,883	307,942	-0,085	0,117
-498,868	-58,664	0,014	0,004
-497,853	800,000	0,028	-0,079
-496,839	66,996	-0,123	-0,092
-495,824	100,220	-0,067	0,057
-494,810	800,000	0,022	0,048
-493,795	13,740	0,069	-0,039
-492,781	-81,448	-0,079	0,019
-491,766	800,000	0,069	0,147
-490,751	345,126	-0,074	0,108
-489,737	800,000	0,054	0,115
-488,722	-16,279	0,084	0,039
-487,708	-200,000	-0,016	-0,065
-486,693	-200,000	0,016	-0,079
-485,678	-41,004	0,111	-0,042
-484,664	733,660	0,012	0,023
-483,649	800,000	-0,064	0,152
-482,635	-200,000	0,028	0,133
-481,620	135,735	0,070	0,067
-480,605	280,997	-0,040	0,052
-479,591	343,888	0,055	0,080
-478,576	201,181	0,069	-0,078
-477,562	-200,000	-0,004	-0,041
-476,547	-200,000	-0,016	-0,087
-475,532	91,782	-0,016	-0,013
-474,518	-125,381	0,099	-0,011
-473,503	-200,000	0,044	0,205
-472,489	-100,434	0,043	0,008
-471,474	87,253	-0,036	0,029
-470,459	-200,000	0,000	-0,009
-469,445	-13,876	0,051	-0,024
-468,430	800,000	0,046	-0,148
-467,416	-156,983	0,108	0,005
-466,401	495,792	0,055	-0,093
-465,386	417,311	0,090	0,142
-464,372	185,951	-0,095	0,103
-463,357	-200,000	0,023	0,077
-462,343	459,041	0,038	0,062
-461,328	-149,848	0,040	-0,002
-460,313	-200,000	0,003	-0,100
-459,299	147,748	-0,065	0,065
-458,284	482,475	0,069	-0,116
-457,270	800,000	0,028	-0,090
-456,255	333,934	-0,105	-0,150
-455,241	800,000	-0,012	-0,037
-454,226	179,070	0,044	0,047
-453,211	-200,000	-0,005	0,061
-452,197	-161,917	-0,134	0,005
-451,182	-200,000	0,000	0,030
-450,168	-200,000	0,013	0,055
-449,153	173,647	0,046	0,048
-448,138	-200,000	-0,034	-0,176
-447,124	106,047	0,110	-0,096
-446,109	-200,000	-0,017	0,060
-445,095	29,636	0,098	0,061
-444,080	-200,000	-0,009	-0,034
-443,065	45,865	0,133	0,090
-442,051	-200,000	0,030	0,105
-441,036	-200,000	-0,002	-0,114
-440,022	-200,000	-0,030	-0,098
-439,007	-143,677	-0,027	0,002
-437,992	371,853	0,011	0,016
-436,978	189,074	0,053	-0,059
-435,963	800,000	-0,010	0,022
-434,949	330,476	-0,071	0,101
-433,934	510,047	0,070	-0,119
-432,919	304,055	0,038	-0,052
-431,905	638,995	-0,065	0,123
-430,890	255,718	-0,055	0,070
-429,876	-149,142	0,043	0,003
-428,861	-51,242	-0,110	0,038
-427,846	-200,000	0,008	0,153
-426,832	78,542	-0,010	-0,008
-425,817	-200,000	0,001	-0,007
-424,803	26,689	-0,056	-0,034
-423,788	533,339	0,066	-0,115
-422,773	105,037	0,028	0,025
-421,759	-133,672	0,032	0,003
-420,744	800,000	0,039	0,084
-419,730	-200,000	-0,024	-0,090
-418,715	-69,720	0,083	0,023
-417,701	-200,000	0,016	0,077
-416,686	21,342	-0,077	-0,046
-415,671	800,000	0,027	0,054
-414,657	-96,364	-0,085	-0,016
-413,642	-7,610	0,074	-0,037
-412,628	-200,000	0,013	0,065
-411,613	214,718	-0,077	0,090
-410,598	-160,643	-0,054	0,002
-409,584	373,202	-0,082	0,123
-408,569	-43,990	0,030	-0,011
-407,555	800,000	0,052	0,166
-406,540	20,410	0,048	-0,028
-405,525	663,980	-0,042	-0,079
-404,511	800,000	-0,060	-0,123
-403,496	239,028	-0,080	0,097
-402,482	-26,789	0,023	-0,010
-401,467	220,239	-0,016	-0,018
-400,452	443,084	-0,081	-0,130
-399,438	135,076	0,070	0,066
-398,423	800,000	-0,037	-0,096
-397,409	130,454	-0,066	-0,062
-396,394	-37,427	-0,153	-0,059
-395,379	-200,000	0,003	0,045
-394,365	-200,000	0,022	-0,147
-393,350	244,299	0,051	0,063
-392,336	-200,000	0,050	0,170
-391,321	-40,891	-0,131	-0,049
-390,306	-200,000	-0,016	0,151
-389,292	-26,582	-0,129	0,055
-388,277	-131,838	0,096	0,009
-387,263	44,534	0,033	-0,022
-386,248	-159,832	0,101	0,004
-385,233	800,000	0,025	0,070
-384,219	122,343	-0,015	0,014
-383,204	160,811	0,060	-0,061
-382,190	-200,000	-0,001	-0,093
-381,175	-200,000	-0,009	0,046
-380,160	-8,071	-0,103	0,051
-379,146	47,933	0,066	0,045
-378,131	-200,000	0,011	0,112
-377,117	238,250	0,018	0,022
-376,102	-200,000	0,022	-0,221
-375,088	-89,156	-0,056	0,012
-374,073	800,000	-0,013	0,039
-373,058	-89,155	0,122	-0,026
-372,044	-86,557	-0,106	-0,024
-371,029	-171,475	0,144	-0,003
-370,015	-86,095	0,136	-0,030
-369,000	-111,073	-0,125	0,019
-367,985	-200,000	0,032	-0,190
-366,971	-200,000	-0,008	-0,064
-365,956	419,667	0,076	-0,119
-364,942	284,441	0,145	0,191
-363,927	-138,441	-0,043	0,003
-362,912	45,844	-0,056	-0,038
-361,898	-104,969	-0,170	0,028
-360,883	56,325	0,082	-0,058
-359,869	-127,491	-0,051	-0,005
-358,854	162,266	0,045	-0,046
-357,839	-70,808	0,035	0,010
-356,825	800,000	0,011	0,023
-355,810	293,061	0,039	-0,052
-354,796	-200,000	-0,022	0,077
-353,781	-200,000	-0,001	0,113
-352,766	-200,000	0,025	-0,158
-351,752	96,142	0,134	-0,112
-350,737	-70,527	0,196	0,054
-349,723	107,958	0,106	0,093
-348,708	-200,000	-0,002	0,013
-347,693	800,000	0,029	0,072
-346,679	-106,043	-0,058	-0,009
-345,664	176,214	-0,124	-0,132
-344,650	-161,030	-0,046	0,002
-343,635	-83,939	-0,078	-0,018
-342,620	-200,000	0,004	0,113
-341,606	228,958	-0,036	0,043
-340,591	-102,489	0,069	0,012
-339,577	-143,656	-0,054	-0,004
-338,562	59,376	-0,099	-0,071
-337,548	635,103	0,057	-0,105
-336,533	243,633	0,039	0,048
-335,518	3,742	0,150	-0,080
-334,504	403,379	-0,086	0,133
-333,489	541,956	-0,065	0,114
-332,475	-56,008	0,074	-0,024
-331,460	800,000	0,023	-0,050
-330,445	-200,000	0,005	0,080
-329,431	255,839	0,015	0,018
-328,416	-119,465	-0,050	0,006
-327,402	-200,000	0,005	-0,047
-326,387	-93,667	-0,025	-0,005
-325,372	-127,760	-0,118	0,012
-324,358	-90,599	0,041	0,009
-323,343	76,186	0,089	0,068
-322,329	-200,000	0,034	0,168
-321,314	215,054	-0,080	-0,093
-320,299	-200,000	-0,010	0,121
-319,285	367,376	-0,066	0,098
-318,270	112,355	0,038	0,033
-317,256	-70,724	-0,196	-0,054
-316,241	-103,445	0,092	0,016
-315,226	-8,528	-0,072	0,035
-314,212	166,973	-0,043	0,045
-313,197	-200,000	0,010	0,054
-312,183	522,385	-0,056	0,096
-311,168	-200,000	0,015	0,062
-310,153	702,030	-0,049	-0,095
-309,139	40,194	-0,039	-0,026
-308,124	62,256	-0,042	-0,030
-307,110	-200,000	0,014	0,050
-306,095	-200,000	0,043	0,145
-305,080	607,892	-0,024	0,043
-304,066	-200,000	0,009	-0,032
-303,051	800,000	-0,020	0,044
-302,037	-200,000	0,019	0,129
-301,022	-28,318	-0,017	0,007
-300,008	91,094	-0,052	0,043
-298,993	410,092	0,065	0,101
-297,978	-24,153	-0,054	-0,023
-296,964	-112,473	-0,210	0,030
-295,949	-200,000	0,013	0,090
-294,935	-0,965	0,017	0,009
-293,920	-79,533	0,020	0,005
-292,905	-75,469	0,139	0,036
-291,891	146,398	0,022	-0,022
-290,876	800,000	0,010	-0,029
-289,862	-67,901	0,060	0,017
-288,847	231,461	-0,095	-0,114
-287,832	-200,000	-0,018	-0,103
-286,818	177,801	-0,069	-0,073
-285,803	800,000	-0,019	0,053
-284,789	356,390	0,099	0,145
-283,774	8,192	0,013	0,007
-282,759	-200,000	0,010	0,059
-281,745	358,287	-0,111	0,162
-280,730	-71,367	-0,049	-0,013
-279,716	-123,399	-0,052	-0,006
-278,701	185,328	0,127	0,137
-277,686	-200,000	0,003	-0,021
-276,672	-200,000	0,019	-0,204
-275,657	-200,000	0,033	0,123
-274,643	-15,687	0,062	0,029
-273,628	527,631	-0,052	-0,090
-272,613	561,243	0,032	-0,056
-271,599	-33,466	0,085	-0,034
-270,584	413,414	0,026	0,040
-269,570	-57,510	-0,105	-0,033
-268,555	74,164	0,014	0,011
-267,540	-110,474	0,091	-0,014
-266,526	-91,806	-0,109	-0,022
-265,511	38,239	-0,172	0,111
-264,497	120,528	-0,068	0,062
-263,482	502,202	-0,017	-0,029
-262,467	233,397	0,097	0,116
-261,453	247,521	0,051	0,062
-260,438	206,599	-0,070	-0,079
-259,424	-200,000	-0,004	-0,124
-258,409	800,000	-0,028	-0,062
-257,395	177,502	0,041	-0,044
-256,380	-184,731	0,114	0,001
-255,365	456,045	0,062	-0,100
-254,351	-200,000	0,028	0,175
-253,336	4,829	0,123	0,066
-252,322	-107,335	-0,032	-0,005
-251,307	-183,315	0,054	0,001
-250,292	198,219	0,026	-0,029
-249,278	33,368	0,029	0,019
-248,263	375,442	0,027	0,040
-247,249	800,000	-0,006	0,018
-246,234	610,723	-0,052	0,096
-245,219	-84,513	0,049	-0,011
-244,205	1,364	-0,048	-0,025
-243,190	-200,000	0,012	-0,058
-242,176	-134,443	0,149	0,013
-241,161	0,584	-0,035	-0,018
-240,146	-191,696	0,108	0,001
-239,132	-200,000	-0,014	0,076
-238,117	-200,000	0,007	-0,076
-237,103	800,000	0,019	0,049
-236,088	800,000	-0,025	0,061
-235,073	140,624	0,062	0,059
-234,059	457,873	-0,018	-0,029
-233,044	162,096	0,062	-0,063
-232,030	-47,798	-0,099	0,035
-231,015	800,000	0,053	0,116
-230,000	327,029	0,010	-0,013
-228,986	-200,000	-0,046	-0,208
-227,971	-49,980	0,057	0,019
-226,957	633,646	0,060	-0,112
-225,942	23,902	0,035	0,021
-224,927	-101,700	-0,188	-0,033
-223,913	34,172	-0,138	-0,087
-222,898	450,906	0,035	-0,057
-221,884	800,000	-0,062	-0,177
-220,869	250,949	-0,015	-0,018
-219,855	10,128	0,027	0,015
-218,840	-75,059	0,093	-0,024
-217,825	800,000	0,011	-0,023
-216,811	800,000	-0,034	0,074
-215,796	417,856	-0,055	-0,086
-214,782	-200,000	-0,023	0,088
-213,767	515,888	0,018	-0,030
-212,752	-200,000	0,021	0,104
-211,738	142,229	-0,097	0,093
-210,723	-94,337	-0,156	-0,031
-209,709	800,000	0,021	-0,048
-208,694	-200,000	0,015	0,065
-207,679	62,417	-0,092	0,066
-206,665	-200,000	0,006	0,056
-205,650	107,719	0,021	-0,018
-204,636	-95,506	0,038	-0,007
-203,621	-73,957	0,171	-0,045
-202,606	-74,416	-0,129	-0,034
-201,592	134,699	-0,036	-0,034
-200,577	-200,000	0,031	-0,113
-199,563	-116,408	-0,071	0,009
-198,548	-200,000	-0,000	0,048
-197,533	-200,000	0,018	0,064
-196,519	800,000	-0,020	0,044
-195,504	800,000	-0,034	-0,091
-194,490	800,000	-0,029	-0,071
-193,475	-200,000	0,004	0,036
-192,460	-200,000	-0,033	-0,131
-191,446	570,151	-0,046	-0,081
-190,431	-200,000	0,044	0,167
-189,417	56,776	0,094	0,067
-188,402	800,000	0,014	0,029
-187,387	-72,092	-0,020	-0,005
-186,373	-101,587	-0,116	0,020
-185,358	440,285	-0,043	-0,068
-184,344	-200,000	0,015	0,129
-183,329	-127,248	0,100	0,010
-182,315	-75,286	0,053	-0,014
-181,300	44,421	-0,091	-0,061
-180,285	157,066	-0,114	-0,114
-179,271	-200,000	-0,016	0,099
-178,256	800,000	0,050	0,112
-177,242	74,619	0,046	0,035
-176,227	-187,877	0,045	-0,000
-175,212	311,638	-0,045	-0,061
-174,198	-57,998	0,125	0,039
-173,183	-200,000	-0,013	-0,124
-172,169	-118,217	0,059	0,008
-171,154	-200,000	-0,001	-0,137
-170,139	-174,621	0,079	-0,002
-169,125	175,682	-0,017	-0,017
-168,110	209,100	0,069	-0,079
-167,096	303,869	0,058	-0,078
-166,081	16,949	-0,068	-0,039
-165,066	150,886	0,065	-0,065
-164,052	800,000	0,018	0,055
-163,037	-200,000	-0,009	-0,078
-162,023	128,166	0,064	-0,059
-161,008	-200,000	0,011	0,135
-159,993	-200,000	-0,014	-0,114
-158,979	582,669	-0,011	0,020
-157,964	-200,000	-0,023	-0,175
-156,950	342,891	0,079	-0,112
-155,935	800,000	-0,004	0,011
-154,920	14,806	0,024	-0,014
-153,906	3,653	-0,094	-0,049
-152,891	198,156	0,058	0,064
-151,877	-200,000	-0,001	0,080
-150,862	166,696	-0,102	-0,105
-149,847	-171,783	0,129	-0,003
-148,833	121,592	0,066	0,060
-147,818	-110,078	0,130	0,019
-146,804	800,000	-0,004	0,010
-145,789	-200,000	0,010	-0,035
-144,775	237,684	0,015	-0,018
-143,760	800,000	-0,029	-0,062
-142,745	-200,000	-0,059	-0,217
-141,731	200,274	0,040	-0,045
-140,716	-170,422	-0,056	0,001
-139,702	800,000	0,020	0,048
-138,687	-200,000	0,010	0,057
-137,672	73,797	0,087	0,066
-136,658	150,108	-0,012	0,012
-135,643	-200,000	0,025	-0,255
-134,629	-17,622	0,045	-0,020
-133,614	225,820	0,024	0,028
-132,599	-148,672	0,071	0,004
-131,585	-125,289	-0,093	-0,010
-130,570	-200,000	-0,019	-0,085
-129,556	-79,064	-0,072	0,018
-128,541	-200,000	0,009	0,029
-127,526	-169,972	-0,129	0,003
-126,512	-64,496	-0,104	0,030
-125,497	800,000	0,006	0,017
-124,483	118,750	-0,032	0,028
-123,468	-119,675	-0,097	-0,012
-122,453	-68,340	0,032	-0,009
-121,439	800,000	-0,028	-0,081
-120,424	106,170	0,109	0,093
-119,410	174,933	0,067	0,071
