DTS Sentinel unit serial number:	SN410029Multiplexer serial number:	ORYXHardware model number:	OX2-SRSoftware version number:	ORYX F/W v4,00 Oryx Data Collector v3.7.2.0data status	okinstallation	B4 Nyhavnadifferential loss correction	single-endedforward channel	channel 2reverse channel	N/Adate	2023/12/16time	02:50:13forward acquisition time	300,00reverse acquisition time	0,00gamma	499,1914k internal	0,3128k external	0,3128temperature offset calibration	1,0000default loss term (dB/km)	0,3820temperature slope calibration	1,0000multiplexer offset coefficient	1,0000multiplexer slope coefficient	1,0000fibre end	0,00T internal ref (°C)	21,96T ext. ref 1 (°C)	7,10T ext. ref 2 (°C)	7,28length (m)	temperature (°C)	Stokes	anti-Stokes-744,400	38,173	-0,026	-0,017
-743,385	-88,621	-0,237	-0,052
-742,371	13,637	0,023	0,013
-741,356	-82,468	-0,289	0,069
-740,342	30,160	-0,070	0,044
-739,327	-49,491	-0,259	0,091
-738,312	-167,647	0,044	-0,001
-737,298	-126,286	-0,208	0,023
-736,283	73,584	0,117	0,091
-735,269	528,813	-0,167	0,294
-734,254	-13,911	-0,114	-0,055
-733,239	-97,135	-0,334	-0,064
-732,225	-200,000	0,046	0,186
-731,210	-85,187	0,114	0,026
-730,196	-9,211	0,052	0,026
-729,181	-144,774	-0,015	0,001
-728,167	-59,215	-0,008	0,003
-727,152	-27,579	-0,174	0,075
-726,137	-200,000	-0,038	-0,125
-725,123	3,842	0,052	-0,028
-724,108	87,429	-0,042	0,035
-723,094	-200,000	-0,009	-0,031
-722,079	-125,899	-0,096	0,011
-721,064	-105,901	-0,183	0,030
-720,050	-200,000	-0,012	0,095
-719,035	-200,000	-0,011	0,104
-718,021	253,365	-0,125	-0,159
-717,006	289,338	-0,065	-0,088
-715,991	220,077	-0,123	-0,147
-714,977	330,373	-0,015	-0,022
-713,962	-60,216	-0,098	0,031
-712,948	-200,000	0,007	0,063
-711,933	-56,803	0,113	0,037
-710,918	338,140	-0,050	0,072
-709,904	-95,924	-0,027	0,005
-708,889	729,687	-0,065	-0,130
-707,875	71,540	0,076	0,059
-706,860	800,000	0,053	-0,166
-705,845	39,063	0,017	-0,011
-704,831	-200,000	-0,042	0,239
-703,816	15,184	-0,074	0,043
-702,802	-4,857	-0,113	-0,058
-701,787	-20,461	-0,059	0,027
-700,772	193,115	0,024	-0,027
-699,758	-200,000	-0,019	-0,121
-698,743	-44,862	0,087	-0,032
-697,729	-113,287	0,040	-0,006
-696,714	40,820	0,059	-0,039
-695,699	63,774	0,062	0,046
-694,685	-200,000	0,008	-0,147
-693,670	160,588	-0,016	-0,017
-692,656	315,588	-0,024	-0,034
-691,641	800,000	0,059	0,125
-690,627	367,524	0,054	0,081
-689,612	-200,000	-0,008	0,127
-688,597	-177,945	0,107	0,002
-687,583	112,861	0,082	-0,074
-686,568	-128,041	0,119	0,013
-685,554	-200,000	-0,013	-0,101
-684,539	-80,564	-0,122	-0,030
-683,524	329,040	0,053	-0,076
-682,510	-200,000	-0,021	0,071
-681,495	-65,481	-0,090	0,027
-680,481	255,102	-0,031	-0,039
-679,466	434,345	0,039	0,063
-678,451	-131,679	-0,016	-0,001
-677,437	202,329	-0,038	0,043
-676,422	-121,080	0,099	0,012
-675,408	-50,190	-0,180	0,063
-674,393	800,000	-0,018	-0,046
-673,378	800,000	-0,059	0,174
-672,364	37,202	-0,052	-0,034
-671,349	625,994	-0,035	0,066
-670,335	-200,000	-0,026	0,086
-669,320	-100,890	0,100	-0,018
-668,305	-48,465	0,103	-0,037
-667,291	12,524	-0,034	0,019
-666,276	787,375	-0,026	0,053
-665,262	301,959	-0,061	-0,084
-664,247	-200,000	0,025	-0,134
-663,232	-200,000	0,022	-0,083
-662,218	124,232	0,098	-0,091
-661,203	-39,108	-0,043	-0,017
-660,189	-200,000	0,016	0,062
-659,174	-82,211	-0,085	-0,020
-658,159	30,158	-0,069	-0,044
-657,145	-172,499	-0,091	0,002
-656,130	-38,818	0,141	-0,055
-655,116	800,000	0,037	0,080
-654,101	-200,000	0,000	-0,038
-653,086	-200,000	0,035	-0,152
-652,072	-200,000	-0,002	-0,272
-651,057	207,265	-0,039	-0,046
-650,043	-200,000	-0,016	-0,143
-649,028	-181,882	0,060	-0,001
-648,014	-200,000	0,002	-0,049
-646,999	800,000	0,027	0,060
-645,984	-74,893	-0,082	-0,022
-644,970	-68,533	-0,104	-0,030
-643,955	800,000	-0,028	0,079
-642,941	-62,321	-0,063	-0,019
-641,926	21,872	0,088	0,053
-640,911	412,656	-0,101	-0,159
-639,897	120,445	-0,022	0,020
-638,882	2,146	-0,176	-0,094
-637,868	498,295	0,025	-0,043
-636,853	75,569	-0,078	-0,061
-635,838	-86,696	-0,113	-0,025
-634,824	-200,000	-0,029	-0,155
-633,809	36,762	0,086	-0,056
-632,795	28,511	0,078	0,049
-631,780	-111,217	0,091	-0,014
-630,765	115,036	0,084	-0,076
-629,751	-200,000	-0,019	-0,135
-628,736	-116,932	-0,047	0,006
-627,722	-113,294	-0,025	-0,004
-626,707	-42,482	0,113	0,042
-625,692	-40,660	0,098	0,037
-624,678	91,224	-0,110	0,092
-623,663	-200,000	-0,004	0,120
-622,649	-121,996	-0,077	0,009
-621,634	-114,176	-0,198	-0,028
-620,619	-153,053	0,025	-0,001
-619,605	92,445	0,146	-0,122
-618,590	-200,000	-0,002	0,008
-617,576	-200,000	0,017	0,181
-616,561	-104,128	0,027	0,005
-615,546	-53,240	-0,020	0,007
-614,532	800,000	0,022	0,054
-613,517	180,710	0,066	-0,072
-612,503	-178,963	-0,121	0,002
-611,488	-107,191	0,114	0,018
-610,474	549,319	0,084	0,149
-609,459	-28,474	-0,013	-0,006
-608,444	-122,282	-0,079	-0,009
-607,430	-200,000	-0,006	-0,064
-606,415	23,829	-0,076	0,046
-605,401	800,000	-0,045	0,105
-604,386	-200,000	0,010	0,160
-603,371	126,264	-0,102	0,095
-602,357	800,000	-0,052	-0,121
-601,342	1,301	-0,044	0,023
-600,328	167,326	0,071	0,075
-599,313	-69,549	-0,043	0,012
-598,298	-167,252	-0,076	-0,002
-597,284	800,000	0,035	-0,086
-596,269	174,563	-0,025	-0,027
-595,255	-161,397	-0,075	0,003
-594,240	466,148	0,035	0,058
-593,225	46,780	-0,076	-0,052
-592,211	416,937	-0,027	-0,043
-591,196	-103,741	0,063	-0,011
-590,182	382,352	0,051	0,078
-589,167	162,455	-0,057	0,059
-588,152	-67,221	0,028	-0,008
-587,138	-62,307	-0,080	-0,024
-586,123	425,804	-0,040	-0,064
-585,109	800,000	0,051	-0,150
-584,094	-200,000	-0,010	0,144
-583,079	-152,020	0,143	0,008
-582,065	47,902	0,021	-0,014
-581,050	-7,279	0,156	0,078
-580,036	-67,951	-0,111	0,032
-579,021	-177,933	-0,057	0,001
-578,006	178,461	0,063	-0,068
-576,992	-114,031	-0,159	0,022
-575,977	-21,532	-0,104	-0,047
-574,963	87,390	0,060	-0,049
-573,948	800,000	-0,021	0,061
-572,934	-200,000	-0,024	-0,139
-571,919	115,322	0,067	-0,060
-570,904	-200,000	0,004	-0,074
-569,890	-30,066	0,074	-0,031
-568,875	-140,373	-0,138	0,010
-567,861	-120,096	0,150	-0,019
-566,846	332,546	-0,056	0,081
-565,831	800,000	-0,048	-0,122
-564,817	-73,259	-0,086	-0,023
-563,802	20,892	0,093	-0,056
-562,788	800,000	0,046	-0,109
-561,773	84,053	0,006	0,005
-560,758	-117,058	0,058	0,008
-559,744	800,000	0,004	-0,010
-558,729	-200,000	0,021	0,086
-557,715	-96,146	0,128	-0,025
-556,700	-200,000	-0,004	-0,019
-555,685	-200,000	-0,032	-0,191
-554,671	251,569	-0,126	0,159
-553,656	118,474	-0,023	0,021
-552,642	-200,000	0,025	0,093
-551,627	260,461	-0,043	-0,055
-550,612	-44,302	-0,148	-0,055
-549,598	-71,289	0,032	0,009
-548,583	13,898	0,012	0,007
-547,569	800,000	-0,034	-0,098
-546,554	-200,000	-0,050	0,202
-545,539	-148,512	0,112	-0,007
-544,525	353,528	0,030	0,044
-543,510	40,244	-0,168	0,111
-542,496	447,058	-0,078	-0,128
-541,481	269,255	-0,089	0,116
-540,466	-81,121	-0,137	0,033
-539,452	73,508	0,094	0,072
-538,437	363,557	0,111	-0,165
-537,423	-200,000	-0,030	0,131
-536,408	269,416	-0,054	0,070
-535,393	-200,000	-0,022	-0,083
-534,379	800,000	-0,052	-0,147
-533,364	408,766	0,014	-0,022
-532,350	-200,000	0,005	0,048
-531,335	68,455	0,052	-0,039
-530,321	800,000	0,036	-0,077
-529,306	221,695	-0,090	0,107
-528,291	-200,000	-0,027	-0,113
-527,277	-200,000	-0,022	-0,153
-526,262	-200,000	-0,029	-0,141
-525,248	-31,715	0,159	-0,065
-524,233	150,560	-0,031	-0,031
-523,218	91,199	-0,111	0,092
-522,204	73,432	0,055	0,042
-521,189	444,319	0,067	-0,108
-520,175	89,923	0,055	-0,045
-519,160	87,804	-0,106	-0,086
-518,145	800,000	-0,018	0,046
-517,131	-38,908	0,074	-0,029
-516,116	-17,738	-0,101	-0,047
-515,102	-25,579	-0,073	0,032
-514,087	159,769	-0,069	-0,071
-513,072	800,000	-0,046	-0,107
-512,058	-27,980	-0,088	-0,037
-511,043	30,276	0,055	0,035
-510,029	148,442	0,055	0,055
-509,014	-200,000	0,028	0,157
-507,999	-200,000	-0,026	0,115
-506,985	192,217	-0,040	-0,044
-505,970	84,597	-0,057	-0,046
-504,956	336,564	-0,055	0,079
-503,941	800,000	-0,063	-0,135
-502,926	373,858	0,076	-0,114
-501,912	-200,000	0,030	0,136
-500,897	-128,460	-0,207	0,021
-499,883	-200,000	-0,072	0,000
-498,868	-157,199	0,015	0,001
-497,853	800,000	-0,026	0,080
-496,839	240,455	0,035	-0,044
-495,824	731,699	0,038	-0,076
-494,810	-113,366	0,070	0,010
-493,795	30,355	0,099	0,062
-492,781	133,476	0,047	-0,044
-491,766	-50,550	-0,126	-0,043
-490,751	124,344	0,114	-0,105
-489,737	-7,286	0,051	-0,025
-488,722	57,988	-0,011	-0,008
-487,708	474,327	0,062	-0,103
-486,693	-87,063	-0,015	-0,003
-485,678	114,695	0,094	0,084
-484,664	-200,000	-0,029	-0,132
-483,649	-34,280	-0,042	0,017
-482,635	800,000	0,022	0,055
-481,620	-1,069	0,099	0,051
-480,605	124,496	0,141	0,131
-479,591	370,487	0,095	0,142
-478,576	427,509	0,019	-0,031
-477,562	-200,000	-0,031	0,107
-476,547	112,982	0,017	-0,015
-475,532	12,662	0,048	-0,027
-474,518	242,571	0,017	-0,021
-473,503	-200,000	-0,002	0,017
-472,489	501,117	-0,006	-0,010
-471,474	-105,761	0,133	0,022
-470,459	-200,000	0,002	-0,103
-469,445	44,898	0,082	-0,055
-468,430	800,000	-0,010	0,024
-467,416	-200,000	0,024	-0,088
-466,401	-82,192	0,049	0,012
-465,386	178,381	0,104	-0,112
-464,372	-200,000	0,009	-0,115
-463,357	270,525	0,058	0,075
-462,343	-8,940	-0,189	0,093
-461,328	-200,000	-0,008	0,058
-460,313	666,267	0,041	0,079
-459,299	-5,076	0,110	-0,056
-458,284	-63,546	0,047	0,014
-457,270	79,547	0,031	-0,024
-456,255	-70,076	-0,085	-0,024
-455,241	327,877	0,032	0,046
-454,226	-33,388	-0,185	0,075
-453,211	800,000	0,027	0,077
-452,197	-87,619	0,041	-0,009
-451,182	-200,000	0,021	-0,135
-450,168	800,000	0,017	0,039
-449,153	-152,649	0,113	-0,006
-448,138	797,840	-0,056	-0,113
-447,124	208,315	0,006	-0,006
-446,109	-200,000	-0,021	-0,101
-445,095	-88,175	0,201	0,044
-444,080	29,656	-0,057	-0,036
-443,065	-40,604	-0,063	0,024
-442,051	-103,557	0,194	-0,033
-441,036	260,914	0,076	-0,097
-440,022	800,000	0,034	-0,096
-439,007	64,341	0,051	0,038
-437,992	800,000	-0,007	0,020
-436,978	20,247	0,116	-0,069
-435,963	184,120	-0,123	0,134
-434,949	699,795	0,026	0,051
-433,934	77,448	-0,021	-0,016
-432,919	214,758	-0,162	-0,189
-431,905	124,574	0,052	-0,048
-430,890	10,049	-0,080	0,044
-429,876	-152,719	0,139	0,007
-428,861	800,000	-0,035	0,113
-427,846	261,026	-0,056	0,072
-426,832	800,000	-0,010	-0,025
-425,817	28,153	-0,056	-0,035
-424,803	126,116	-0,005	-0,005
-423,788	-168,858	0,127	-0,003
-422,773	731,912	-0,055	0,109
-421,759	330,824	-0,025	0,035
-420,744	-17,966	0,176	0,081
-419,730	800,000	-0,041	0,098
-418,715	789,893	0,011	-0,022
-417,701	-200,000	-0,007	0,093
-416,686	-141,102	0,119	-0,009
-415,671	-200,000	0,004	0,034
-414,657	87,639	0,086	-0,070
-413,642	280,882	-0,073	-0,096
-412,628	478,687	0,030	0,050
-411,613	800,000	0,037	-0,110
-410,598	-54,839	-0,253	0,083
-409,584	22,111	0,055	-0,033
-408,569	684,568	0,040	0,078
-407,555	33,367	0,037	-0,024
-406,540	800,000	-0,050	0,161
-405,525	-28,664	0,062	0,026
-404,511	-129,994	0,073	-0,007
-403,496	-86,309	-0,101	0,023
-402,482	163,302	0,045	-0,047
-401,467	-168,401	0,165	0,005
-400,452	-180,888	0,044	-0,001
-399,438	-137,420	0,125	-0,010
-398,423	-42,876	-0,054	-0,020
-397,409	309,564	0,035	0,048
-396,394	-17,876	-0,047	0,021
-395,379	-103,824	0,021	0,003
-394,365	-200,000	-0,008	-0,115
-393,350	626,065	0,068	0,127
-392,336	151,264	0,040	-0,040
-391,321	757,313	0,033	-0,066
-390,306	800,000	0,029	0,086
-389,292	-27,528	0,057	-0,024
-388,277	-200,000	-0,012	0,139
-387,263	-13,373	0,143	0,068
-386,248	-200,000	-0,005	-0,101
-385,233	800,000	-0,004	-0,010
-384,219	279,774	0,019	0,025
-383,204	214,197	-0,105	0,122
-382,190	74,943	0,044	0,034
-381,175	-200,000	0,018	-0,136
-380,160	-48,178	0,064	-0,023
-379,146	-81,464	0,127	-0,030
-378,131	345,588	0,038	0,055
-377,117	15,442	-0,092	0,053
-376,102	-200,000	0,003	-0,036
-375,088	25,225	0,011	-0,007
-374,073	-200,000	-0,029	-0,147
-373,058	-131,019	-0,146	-0,014
-372,044	269,648	-0,069	0,090
-371,029	15,773	-0,041	0,024
-370,015	337,784	-0,015	0,022
-369,000	-105,111	-0,039	0,007
-367,985	70,138	-0,099	-0,075
-366,971	800,000	0,016	-0,042
-365,956	423,395	-0,053	0,084
-364,942	800,000	0,033	0,100
-363,927	-36,309	0,046	0,018
-362,912	30,244	-0,112	0,070
-361,898	20,456	0,046	-0,027
-360,883	59,495	0,036	-0,026
-359,869	17,145	0,048	-0,028
-358,854	577,129	-0,012	-0,021
-357,839	-181,700	0,124	-0,002
-356,825	219,099	-0,074	0,087
-355,810	159,197	0,055	0,056
-354,796	45,201	0,074	-0,050
-353,781	530,442	-0,055	-0,095
-352,766	-72,541	-0,082	-0,022
-351,752	735,530	0,043	0,084
-350,737	-200,000	-0,011	0,056
-349,723	-150,452	-0,094	0,005
-348,708	-57,252	-0,048	0,015
-347,693	800,000	-0,046	0,126
-346,679	158,081	0,018	-0,019
-345,664	-200,000	0,018	-0,158
-344,650	-200,000	0,024	0,253
-343,635	-46,127	-0,013	0,005
-342,620	25,219	0,021	0,012
-341,606	800,000	0,038	0,098
-340,591	-34,243	-0,097	0,039
-339,577	-200,000	0,001	-0,012
-338,562	-200,000	-0,003	0,040
-337,548	-148,469	0,086	-0,005
-336,533	-200,000	-0,011	0,089
-335,518	-99,900	0,084	-0,015
-334,504	737,143	-0,044	0,086
-333,489	175,675	-0,063	-0,067
-332,475	-1,700	-0,182	-0,094
-331,460	42,964	-0,135	-0,090
-330,445	-200,000	-0,022	0,138
-329,431	800,000	0,023	0,070
-328,416	800,000	0,069	0,158
-327,402	341,897	0,035	0,050
-326,387	-200,000	-0,008	0,122
-325,372	-200,000	0,015	-0,131
-324,358	-200,000	-0,034	-0,147
-323,343	-117,709	-0,044	0,006
-322,329	-88,663	0,104	-0,022
-321,314	800,000	-0,026	0,075
-320,299	-36,249	-0,112	-0,044
-319,285	800,000	-0,027	0,067
-318,270	3,500	-0,090	-0,048
-317,256	34,343	0,089	-0,057
-316,241	800,000	-0,028	0,085
-315,226	-200,000	-0,008	0,059
-314,212	-89,698	0,193	0,041
-313,197	-200,000	0,003	-0,050
-312,183	204,201	-0,039	-0,044
-311,168	800,000	-0,022	-0,048
-310,153	524,611	-0,046	-0,080
-309,139	-58,801	-0,072	0,023
-308,124	800,000	0,040	0,088
-307,110	-13,757	0,013	0,006
-306,095	-172,945	0,101	-0,002
-305,080	35,639	0,040	-0,026
-304,066	125,545	0,059	-0,055
-303,051	-200,000	-0,009	-0,037
-302,037	-70,241	-0,171	-0,047
-301,022	800,000	-0,045	-0,120
-300,008	-22,616	-0,119	0,052
-298,993	-134,017	-0,094	0,008
-297,978	4,814	-0,028	-0,015
-296,964	7,745	-0,131	-0,071
-295,949	-200,000	0,004	0,021
-294,935	1,757	0,125	-0,066
-293,920	201,386	0,040	-0,046
-292,905	81,749	0,069	0,055
-291,891	557,448	0,059	0,105
-290,876	304,070	0,066	0,089
-289,862	-31,446	-0,031	-0,013
-288,847	323,877	-0,117	-0,164
-287,832	800,000	-0,018	-0,041
-286,818	364,631	-0,039	0,058
-285,803	-200,000	0,018	-0,077
-284,789	800,000	0,015	0,034
-283,774	-48,960	-0,060	0,021
-282,759	-38,723	-0,131	-0,050
-281,745	743,172	0,053	0,105
-280,730	-200,000	0,007	-0,030
-279,716	800,000	-0,047	-0,133
-278,701	-123,493	0,155	0,018
-277,686	-200,000	0,014	0,102
-276,672	190,248	-0,023	0,025
-275,657	-200,000	0,028	-0,114
-274,643	-200,000	-0,012	0,062
-273,628	-99,305	0,074	-0,013
-272,613	-200,000	0,013	-0,091
-271,599	-79,207	-0,053	0,013
-270,584	-121,827	0,133	-0,016
-269,570	-30,925	0,066	0,027
-268,555	5,592	-0,059	-0,032
-267,540	0,742	-0,123	0,064
-266,526	195,793	-0,020	0,023
-265,511	267,785	0,023	0,029
-264,497	70,587	0,031	-0,024
-263,482	-73,755	-0,035	0,009
-262,467	-10,211	0,069	0,033
-261,453	296,652	0,009	0,012
-260,438	90,061	0,121	-0,099
-259,424	123,022	-0,056	-0,051
-258,409	-200,000	0,005	0,125
-257,395	235,158	0,043	0,052
-256,380	-121,029	0,094	-0,011
-255,365	800,000	-0,013	0,027
-254,351	98,074	0,142	-0,119
-253,336	93,385	0,035	0,029
-252,322	-88,594	0,042	-0,009
-251,307	-72,980	0,054	0,014
-250,292	138,590	-0,068	0,065
-249,278	-118,314	-0,017	0,002
-248,263	463,608	-0,062	0,102
-247,249	-200,000	0,004	-0,089
-246,234	-200,000	-0,009	-0,037
-245,219	436,328	-0,029	0,046
-244,205	-3,699	0,078	-0,040
-243,190	110,331	-0,030	0,026
-242,176	-91,898	0,037	0,008
-241,161	-104,770	0,021	-0,003
-240,146	-200,000	-0,011	0,048
-239,132	800,000	0,014	-0,037
-238,117	779,534	-0,045	0,091
-237,103	-200,000	0,013	-0,096
-236,088	800,000	-0,003	0,008
-235,073	800,000	0,021	-0,062
-234,059	-136,321	0,048	0,004
-233,044	23,512	0,118	0,071
-232,030	-30,840	-0,075	-0,031
-231,015	98,456	0,063	0,053
-230,000	200,728	0,085	-0,095
-228,986	800,000	0,009	0,023
-227,971	-110,305	-0,032	-0,005
-226,957	116,635	-0,047	0,042
-225,942	65,314	-0,128	-0,094
-224,927	-200,000	0,005	-0,016
-223,913	13,357	-0,012	-0,007
-222,898	-200,000	-0,006	-0,095
-221,884	505,346	-0,022	0,037
-220,869	-34,398	-0,028	0,011
-219,855	217,855	0,033	-0,039
-218,840	800,000	0,041	0,107
-217,825	-200,000	0,019	0,137
-216,811	522,695	-0,019	-0,033
-215,796	-200,000	-0,003	0,120
-214,782	-29,193	0,127	-0,053
-213,767	162,919	0,018	0,019
-212,752	800,000	-0,013	-0,031
-211,738	-11,870	0,073	-0,035
-210,723	800,000	-0,033	0,101
-209,709	-200,000	-0,009	-0,079
-208,694	-200,000	0,006	-0,101
-207,679	-116,002	-0,160	-0,021
-206,665	-99,101	0,114	-0,021
-205,650	-200,000	0,023	0,223
-204,636	-119,370	-0,066	0,008
-203,621	-200,000	0,018	-0,120
-202,606	69,255	0,077	-0,058
-201,592	-30,875	-0,107	0,044
-200,577	357,407	0,063	-0,091
-199,563	-94,274	-0,132	-0,026
-198,548	-72,124	0,152	0,041
-197,533	50,244	-0,147	0,101
-196,519	407,706	-0,017	-0,026
-195,504	-163,503	-0,118	0,004
-194,490	7,234	-0,079	-0,043
-193,475	169,819	-0,110	-0,115
-192,460	42,800	-0,093	-0,061
-191,446	91,662	0,069	0,056
-190,431	-200,000	0,018	0,085
-189,417	-113,086	0,199	0,028
-188,402	-41,155	0,101	0,038
-187,387	-101,166	-0,215	-0,038
-186,373	154,778	-0,052	-0,052
-185,358	79,896	-0,061	-0,048
-184,344	800,000	0,068	0,151
-183,329	567,336	0,039	0,069
-182,315	800,000	0,025	0,058
-181,300	88,315	-0,071	0,057
-180,285	-169,796	-0,064	0,002
-179,271	-79,941	0,031	0,007
-178,256	63,586	0,045	-0,033
-177,242	-200,000	-0,011	0,172
-176,227	-7,324	0,135	-0,066
-175,212	-200,000	0,000	-0,084
-174,198	376,172	-0,078	-0,115
-173,183	123,052	-0,074	0,068
-172,169	-90,361	0,040	0,008
-171,154	-10,912	0,095	-0,046
-170,139	-200,000	-0,004	-0,143
-169,125	800,000	-0,061	-0,126
-168,110	-44,447	-0,050	0,018
-167,096	800,000	0,024	0,051
-166,081	-200,000	0,018	0,063
-165,066	-30,632	-0,203	0,083
-164,052	20,878	-0,069	0,041
-163,037	283,514	0,022	-0,029
-162,023	-1,615	0,112	-0,057
-161,008	182,690	0,086	-0,092
-159,993	272,977	-0,043	0,055
-158,979	11,155	0,058	0,032
-157,964	423,727	-0,061	-0,096
-156,950	-200,000	0,008	0,055
-155,935	-47,167	0,073	0,026
-154,920	38,555	0,020	0,013
-153,906	797,224	-0,047	0,094
-152,891	-28,148	-0,042	0,017
-151,877	153,983	0,030	0,030
-150,862	-200,000	-0,040	-0,151
-149,847	9,406	-0,149	-0,082
-148,833	-60,685	-0,078	-0,024
-147,818	-72,777	0,111	0,030
-146,804	474,770	0,106	0,174
-145,789	673,691	0,040	0,077
-144,775	-200,000	0,000	-0,058
-143,760	800,000	-0,055	-0,139
-142,745	-43,259	0,055	0,020
-141,731	800,000	-0,028	0,070
-140,716	424,775	-0,027	0,042
-139,702	-22,717	0,115	0,050
-138,687	34,019	-0,066	0,041
-137,672	-152,556	-0,035	-0,002
-136,658	-200,000	-0,007	-0,065
-135,643	-200,000	-0,017	-0,097
-134,629	-38,168	0,028	0,011
-133,614	-200,000	-0,005	0,038
-132,599	-115,979	-0,021	-0,003
-131,585	139,035	0,056	-0,054
-130,570	800,000	-0,020	0,043
-129,556	257,139	0,092	0,115
-128,541	-52,635	-0,109	0,036
-127,526	-143,324	-0,063	-0,004
-126,512	391,611	0,023	-0,035
-125,497	189,791	0,014	-0,015
-124,483	18,119	-0,108	-0,062
-123,468	356,668	-0,058	-0,084
-122,453	-90,796	-0,083	-0,017
-121,439	800,000	0,036	0,074
-120,424	-200,000	-0,013	0,072
-119,410	72,013	-0,059	0,044
-118,395	-129,934	0,107	0,010
