DTS Sentinel unit serial number:	SN410029Multiplexer serial number:	ORYXHardware model number:	OX2-SRSoftware version number:	ORYX F/W v4,00 Oryx Data Collector v3.7.2.0data status	okinstallation	B4 Nyhavnadifferential loss correction	single-endedforward channel	channel 2reverse channel	N/Adate	2023/12/18time	22:35:13forward acquisition time	300,00reverse acquisition time	0,00gamma	499,1914k internal	0,3124k external	0,3124temperature offset calibration	1,0000default loss term (dB/km)	0,3820temperature slope calibration	1,0000multiplexer offset coefficient	1,0000multiplexer slope coefficient	1,0000fibre end	0,00T internal ref (°C)	21,87T ext. ref 1 (°C)	7,31T ext. ref 2 (°C)	7,37length (m)	temperature (°C)	Stokes	anti-Stokes-744,400	-200,000	0,000	0,005
-743,385	19,084	-0,193	0,115
-742,371	29,248	-0,016	0,010
-741,356	800,000	-0,081	0,218
-740,342	79,397	-0,084	0,067
-739,327	-116,264	-0,276	0,038
-738,312	297,238	0,061	-0,083
-737,298	-43,345	-0,189	0,071
-736,283	110,304	-0,066	-0,059
-735,269	32,823	-0,275	0,177
-734,254	800,000	0,029	0,063
-733,239	-102,928	-0,429	-0,075
-732,225	140,034	0,091	0,090
-731,210	129,388	-0,076	0,072
-730,196	-36,218	-0,066	-0,027
-729,181	540,561	-0,073	0,129
-728,167	-200,000	0,005	0,098
-727,152	800,000	-0,007	0,016
-726,137	25,543	-0,098	0,061
-725,123	-200,000	-0,011	-0,093
-724,108	497,042	-0,034	-0,058
-723,094	-95,973	-0,131	0,026
-722,079	236,928	0,051	-0,062
-721,064	8,194	-0,046	-0,025
-720,050	-16,945	-0,036	-0,017
-719,035	-26,639	0,072	-0,031
-718,021	396,783	-0,035	-0,055
-717,006	-200,000	-0,019	-0,063
-715,991	305,299	0,026	0,036
-714,977	277,750	0,069	-0,092
-713,962	252,155	0,086	-0,109
-712,948	-200,000	-0,015	0,054
-711,933	-34,307	0,097	-0,039
-710,918	-67,300	-0,039	0,011
-709,904	124,276	-0,061	-0,057
-708,889	-200,000	-0,008	0,059
-707,875	243,597	0,085	0,106
-706,860	745,171	0,079	0,159
-705,845	3,232	-0,056	-0,030
-704,831	-200,000	-0,011	-0,167
-703,816	-40,009	-0,109	-0,042
-702,802	-124,155	-0,109	0,013
-701,787	63,976	-0,084	-0,063
-700,772	-135,968	-0,071	-0,006
-699,758	14,496	0,025	0,015
-698,743	256,080	0,006	0,008
-697,729	155,320	0,098	-0,101
-696,714	88,007	-0,002	0,002
-695,699	-200,000	0,000	-0,099
-694,685	-139,748	0,107	0,008
-693,670	-200,000	-0,041	-0,192
-692,656	272,939	-0,086	-0,113
-691,641	93,102	0,051	0,043
-690,627	-23,428	-0,127	-0,056
-689,612	-200,000	-0,009	0,081
-688,597	57,805	-0,071	-0,052
-687,583	-200,000	-0,022	-0,090
-686,568	800,000	-0,022	-0,052
-685,554	-200,000	0,004	0,027
-684,539	-196,661	0,025	-0,000
-683,524	71,084	-0,118	0,091
-682,510	-46,199	-0,071	0,026
-681,495	110,284	0,027	-0,024
-680,481	-40,216	0,062	-0,024
-679,466	800,000	0,075	-0,174
-678,451	49,841	-0,117	-0,082
-677,437	800,000	-0,030	0,067
-676,422	-200,000	0,014	-0,052
-675,408	-200,000	-0,009	-0,063
-674,393	-92,825	0,059	-0,012
-673,378	242,181	-0,062	-0,077
-672,364	800,000	-0,007	0,019
-671,349	329,900	-0,027	0,038
-670,335	-180,768	0,059	-0,001
-669,320	-200,000	0,005	0,132
-668,305	357,681	-0,030	0,045
-667,291	751,240	0,071	0,143
-666,276	-13,333	-0,116	-0,056
-665,262	-200,000	0,001	-0,032
-664,247	111,393	-0,090	-0,080
-663,232	-200,000	-0,030	0,111
-662,218	-200,000	-0,012	0,083
-661,203	800,000	-0,047	-0,101
-660,189	800,000	0,053	0,115
-659,174	-147,852	-0,017	-0,001
-658,159	-28,228	0,139	-0,059
-657,145	-200,000	0,006	0,046
-656,130	236,868	0,035	-0,043
-655,116	-200,000	-0,010	0,100
-654,101	-25,767	0,120	0,052
-653,086	175,924	0,062	0,067
-652,072	-26,376	-0,051	0,022
-651,057	-66,689	-0,133	0,039
-650,043	-200,000	0,003	-0,031
-649,028	127,289	-0,104	0,098
-648,014	253,465	-0,057	0,072
-646,999	-200,000	0,027	0,134
-645,984	-52,995	-0,074	-0,025
-644,970	-61,369	-0,035	-0,011
-643,955	-200,000	0,028	-0,100
-642,941	374,675	-0,018	0,027
-641,926	-47,445	-0,118	-0,042
-640,911	-77,940	0,218	-0,055
-639,897	629,605	-0,034	-0,064
-638,882	15,989	-0,047	-0,027
-637,868	-200,000	-0,021	0,073
-636,853	287,092	-0,047	-0,063
-635,838	71,811	-0,054	0,041
-634,824	196,988	-0,094	-0,106
-633,809	479,140	0,086	-0,145
-632,795	-142,334	-0,110	0,008
-631,780	-200,000	-0,010	0,067
-630,765	-155,128	-0,132	-0,006
-629,751	-0,105	-0,122	-0,064
-628,736	-200,000	0,020	-0,254
-627,722	-20,608	-0,065	-0,029
-626,707	-200,000	-0,012	-0,075
-625,692	770,196	-0,024	0,048
-624,678	-200,000	0,004	0,117
-623,663	800,000	0,023	0,070
-622,649	800,000	-0,032	0,074
-621,634	-85,500	-0,102	-0,023
-620,619	-200,000	0,003	-0,041
-619,605	-38,611	0,034	-0,013
-618,590	-82,392	0,072	-0,017
-617,576	503,600	0,018	-0,031
-616,561	-200,000	-0,018	0,097
-615,546	-200,000	0,009	-0,094
-614,532	137,086	-0,055	0,053
-613,517	91,883	0,128	0,107
-612,503	-136,004	-0,124	0,011
-611,488	731,575	-0,020	0,039
-610,474	-121,297	-0,049	0,006
-609,459	115,346	-0,115	-0,104
-608,444	-77,008	0,121	0,031
-607,430	374,966	-0,058	-0,087
-606,415	800,000	0,041	-0,129
-605,401	-13,984	-0,125	-0,060
-604,386	-27,025	0,045	0,019
-603,371	188,755	0,117	0,130
-602,357	800,000	0,020	0,061
-601,342	-200,000	-0,006	-0,047
-600,328	671,913	-0,028	-0,053
-599,313	678,741	-0,053	-0,103
-598,298	-147,406	-0,027	0,002
-597,284	-11,078	-0,087	0,042
-596,269	-200,000	0,024	-0,095
-595,255	-63,216	0,064	-0,019
-594,240	53,754	0,124	0,088
-593,225	-128,363	-0,066	0,007
-592,211	-200,000	0,006	-0,065
-591,196	91,529	0,067	0,055
-590,182	-200,000	-0,034	-0,123
-589,167	297,700	0,067	0,091
-588,152	20,607	0,114	0,068
-587,138	-113,048	-0,052	-0,007
-586,123	49,386	0,041	-0,029
-585,109	-200,000	-0,014	0,095
-584,094	-130,292	0,080	-0,008
-583,079	-11,711	0,147	-0,071
-582,065	-200,000	-0,006	0,148
-581,050	-87,536	0,069	0,015
-580,036	183,351	0,098	0,107
-579,021	-79,448	-0,143	-0,036
-578,006	1,321	-0,059	0,031
-576,992	238,847	0,040	-0,050
-575,977	32,353	0,032	-0,021
-574,963	543,203	0,069	0,122
-573,948	-160,455	0,087	0,003
-572,934	582,921	0,022	-0,040
-571,919	221,317	-0,049	0,058
-570,904	-200,000	-0,003	-0,149
-569,890	800,000	-0,037	-0,100
-568,875	-105,259	-0,023	0,004
-567,861	-27,964	0,082	0,035
-566,846	-200,000	0,017	0,146
-565,831	-200,000	-0,020	0,068
-564,817	181,265	-0,052	0,057
-563,802	156,837	-0,059	0,060
-562,788	537,563	-0,060	0,106
-561,773	-34,342	-0,086	-0,035
-560,758	-200,000	0,003	0,080
-559,744	42,701	0,055	0,037
-558,729	-63,161	-0,048	-0,015
-557,715	-200,000	0,023	0,141
-556,700	55,967	-0,127	-0,091
-555,685	-200,000	0,009	-0,059
-554,671	96,887	0,045	0,038
-553,656	-45,256	0,078	-0,028
-552,642	-200,000	-0,008	-0,048
-551,627	89,882	0,095	0,078
-550,612	-105,655	0,076	-0,013
-549,598	417,805	0,086	-0,136
-548,583	800,000	0,048	-0,137
-547,569	190,711	0,056	-0,062
-546,554	467,874	0,019	0,032
-545,539	46,853	-0,046	0,031
-544,525	-22,370	-0,082	0,037
-543,510	147,135	-0,127	-0,127
-542,496	-200,000	-0,014	-0,088
-541,481	800,000	-0,047	-0,108
-540,466	51,385	0,090	0,063
-539,452	800,000	-0,030	-0,075
-538,437	-26,471	-0,069	-0,030
-537,423	538,711	-0,074	0,131
-536,408	-173,963	-0,107	-0,002
-535,393	-125,920	0,142	-0,016
-534,379	739,871	-0,040	-0,079
-533,364	40,902	0,083	-0,055
-532,350	525,196	0,057	-0,100
-531,335	780,042	0,035	-0,070
-530,321	-200,000	0,004	0,028
-529,306	7,569	-0,021	0,012
-528,291	188,521	-0,013	-0,014
-527,277	-36,459	-0,054	-0,021
-526,262	-46,961	0,030	-0,011
-525,248	-96,531	-0,097	0,019
-524,233	129,491	0,053	-0,050
-523,218	-200,000	-0,010	0,042
-522,204	5,222	-0,049	-0,026
-521,189	800,000	0,053	-0,145
-520,175	694,240	0,009	-0,018
-519,160	800,000	-0,028	-0,058
-518,145	-200,000	-0,003	0,012
-517,131	-200,000	-0,023	-0,086
-516,116	800,000	0,035	-0,099
-515,102	224,414	-0,013	0,015
-514,087	-90,351	-0,045	-0,010
-513,072	-200,000	-0,017	-0,076
-512,058	-200,000	0,027	-0,111
-511,043	465,513	-0,081	-0,135
-510,029	35,985	0,074	-0,048
-509,014	800,000	-0,033	-0,072
-507,999	509,324	-0,009	0,016
-506,985	800,000	-0,033	0,092
-505,970	97,617	-0,089	-0,075
-504,956	449,567	-0,017	0,028
-503,941	-200,000	0,011	0,179
-502,926	420,627	0,031	0,049
-501,912	-99,029	-0,102	0,019
-500,897	-47,128	0,076	-0,027
-499,883	653,227	0,036	-0,068
-498,868	18,204	0,014	0,008
-497,853	-200,000	0,008	-0,037
-496,839	-36,347	0,162	-0,064
-495,824	800,000	0,045	0,116
-494,810	575,670	-0,042	0,076
-493,795	-200,000	-0,004	0,097
-492,781	-200,000	0,030	-0,118
-491,766	-181,083	-0,119	0,002
-490,751	493,005	0,064	-0,109
-489,737	-85,762	0,043	0,010
-488,722	-140,568	-0,081	-0,006
-487,708	800,000	0,021	0,046
-486,693	190,962	-0,046	0,051
-485,678	-94,850	-0,073	0,015
-484,664	13,550	-0,163	-0,093
-483,649	800,000	-0,014	0,034
-482,635	-15,369	0,038	0,018
-481,620	305,327	0,061	0,084
-480,605	-200,000	-0,011	0,107
-479,591	-200,000	0,003	0,047
-478,576	800,000	0,029	-0,061
-477,562	56,605	0,041	-0,029
-476,547	61,482	0,097	0,071
-475,532	295,755	-0,025	-0,034
-474,518	18,763	0,033	0,020
-473,503	-112,735	0,072	0,010
-472,489	0,023	-0,190	0,099
-471,474	-200,000	-0,006	0,165
-470,459	277,976	0,021	-0,028
-469,445	-200,000	0,006	-0,089
-468,430	-3,772	-0,027	-0,014
-467,416	-200,000	0,018	-0,166
-466,401	800,000	0,016	0,042
-465,386	-200,000	-0,010	0,109
-464,372	800,000	-0,026	-0,084
-463,357	274,265	-0,086	-0,112
-462,343	-133,320	-0,035	0,003
-461,328	111,728	0,043	-0,038
-460,313	239,919	-0,026	-0,032
-459,299	217,225	0,035	0,042
-458,284	-200,000	-0,001	0,063
-457,270	197,720	-0,043	0,048
-456,255	-200,000	-0,030	0,140
-455,241	-200,000	0,023	0,138
-454,226	223,066	0,094	-0,112
-453,211	26,240	-0,063	0,039
-452,197	800,000	-0,033	0,083
-451,182	-200,000	-0,002	0,019
-450,168	493,313	-0,057	0,096
-449,153	-200,000	0,047	-0,160
-448,138	9,294	0,077	-0,043
-447,124	800,000	0,032	-0,090
-446,109	377,141	0,042	-0,064
-445,095	52,251	0,074	0,052
-444,080	-45,214	0,048	0,018
-443,065	-189,811	0,144	0,001
-442,051	-41,620	0,031	-0,012
-441,036	800,000	-0,076	0,219
-440,022	140,179	0,076	0,073
-439,007	-92,331	-0,103	-0,021
-437,992	39,325	0,058	0,038
-436,978	-200,000	0,004	0,027
-435,963	83,125	0,200	0,160
-434,949	166,015	0,066	0,069
-433,934	-87,208	-0,040	0,009
-432,919	45,993	-0,051	0,035
-431,905	36,880	0,074	-0,048
-430,890	659,520	-0,035	0,067
-429,876	734,150	-0,039	0,077
-428,861	-83,138	-0,174	-0,041
-427,846	95,024	0,084	-0,070
-426,832	44,512	0,139	0,094
-425,817	214,597	-0,081	-0,095
-424,803	-79,872	-0,032	0,008
-423,788	800,000	-0,036	0,090
-422,773	367,568	-0,031	0,047
-421,759	235,507	-0,078	0,095
-420,744	-94,280	0,137	-0,027
-419,730	81,557	-0,157	-0,125
-418,715	-200,000	0,081	-0,000
-417,701	-200,000	0,000	-0,022
-416,686	-112,271	-0,027	0,004
-415,671	-36,360	-0,088	-0,035
-414,657	153,707	-0,064	0,064
-413,642	-200,000	0,009	-0,060
-412,628	-200,000	0,020	-0,115
-411,613	753,483	0,037	0,074
-410,598	420,365	-0,037	0,059
-409,584	-200,000	-0,014	0,087
-408,569	218,320	0,032	0,038
-407,555	146,515	0,063	0,062
-406,540	-200,000	-0,004	-0,103
-405,525	-131,533	-0,096	0,009
-404,511	709,709	-0,033	-0,065
-403,496	-27,953	-0,013	0,006
-402,482	-22,574	0,072	0,032
-401,467	-15,275	-0,060	0,028
-400,452	800,000	-0,021	0,049
-399,438	-161,742	-0,104	-0,004
-398,423	-200,000	0,013	-0,101
-397,409	-26,416	-0,066	0,028
-396,394	127,018	0,082	0,077
-395,379	-200,000	-0,007	-0,041
-394,365	252,199	0,047	0,059
-393,350	606,152	0,064	-0,118
-392,336	800,000	-0,033	0,073
-391,321	-200,000	-0,021	0,115
-390,306	-32,819	-0,081	0,033
-389,292	348,955	-0,034	0,049
-388,277	-41,014	-0,071	-0,027
-387,263	800,000	-0,032	0,069
-386,248	-200,000	0,003	0,018
-385,233	176,973	-0,062	0,067
-384,219	29,046	0,078	-0,049
-383,204	740,770	0,063	-0,125
-382,190	-47,965	-0,149	-0,053
-381,175	-159,613	-0,118	-0,005
-380,160	-200,000	0,017	-0,118
-379,146	62,612	-0,107	0,079
-378,131	-200,000	-0,010	-0,038
-377,117	378,129	-0,027	-0,041
-376,102	800,000	0,045	-0,091
-375,088	-99,033	0,152	0,028
-374,073	165,464	-0,031	-0,033
-373,058	-200,000	0,003	-0,107
-372,044	200,685	0,055	-0,062
-371,029	87,646	-0,080	0,065
-370,015	-11,834	0,140	0,067
-369,000	-50,814	-0,166	0,057
-367,985	153,976	-0,101	0,102
-366,971	800,000	-0,023	0,073
-365,956	-74,375	0,093	-0,024
-364,942	-142,695	-0,045	-0,003
-363,927	-71,907	-0,139	0,038
-362,912	-50,467	-0,037	0,013
-361,898	-200,000	0,011	-0,099
-360,883	-200,000	-0,005	-0,109
-359,869	-0,707	-0,096	-0,050
-358,854	-200,000	-0,031	-0,130
-357,839	-144,538	-0,058	0,004
-356,825	285,461	0,067	0,089
-355,810	23,680	-0,084	-0,050
-354,796	-200,000	0,036	-0,124
-353,781	237,537	0,069	-0,084
-352,766	-200,000	0,039	-0,206
-351,752	311,754	0,075	0,104
-350,737	-200,000	-0,036	0,174
-349,723	-200,000	0,037	-0,145
-348,708	171,548	0,131	0,138
-347,693	100,174	-0,107	-0,091
-346,679	160,041	0,034	0,034
-345,664	800,000	0,034	0,103
-344,650	9,935	-0,065	-0,036
-343,635	800,000	0,035	-0,096
-342,620	131,307	0,096	0,090
-341,606	28,355	0,127	-0,079
-340,591	-200,000	0,018	0,151
-339,577	800,000	0,030	-0,072
-338,562	-140,151	-0,127	0,010
-337,548	453,500	0,113	-0,184
-336,533	800,000	0,018	-0,041
-335,518	644,687	-0,049	0,092
-334,504	247,421	0,037	-0,046
-333,489	-200,000	0,005	-0,024
-332,475	-200,000	0,006	-0,128
-331,460	382,331	0,065	-0,098
-330,445	-200,000	-0,013	0,110
-329,431	7,967	0,097	-0,053
-328,416	-200,000	0,009	-0,051
-327,402	800,000	-0,039	-0,110
-326,387	104,602	-0,026	0,022
-325,372	101,090	-0,032	0,027
-324,358	133,062	0,006	0,005
-323,343	-11,402	0,018	0,009
-322,329	108,962	0,078	-0,069
-321,314	-82,774	-0,075	0,018
-320,299	-200,000	0,023	-0,119
-319,285	391,292	0,050	0,076
-318,270	-200,000	-0,034	-0,135
-317,256	-200,000	-0,030	-0,152
-316,241	-200,000	-0,002	0,075
-315,226	274,157	0,026	0,034
-314,212	-137,798	0,130	0,011
-313,197	-103,621	0,052	-0,009
-312,183	424,756	0,070	-0,110
-311,168	16,003	0,043	0,025
-310,153	-200,000	-0,142	0,000
-309,139	387,929	0,042	0,064
-308,124	800,000	0,034	-0,086
-307,110	-193,241	-0,153	0,001
-306,095	83,913	0,150	0,120
-305,080	288,626	0,010	-0,014
-304,066	800,000	-0,037	-0,086
-303,051	-200,000	0,032	0,189
-302,037	-68,889	0,016	0,004
-301,022	-114,402	0,071	0,010
-300,008	69,801	0,034	-0,025
-298,993	-26,508	0,131	0,056
-297,978	800,000	0,021	0,062
-296,964	50,528	-0,058	-0,040
-295,949	-83,933	0,086	-0,020
-294,935	-75,522	0,116	0,030
-293,920	-200,000	-0,039	0,142
-292,905	-44,131	0,026	-0,009
-291,891	68,843	0,163	-0,123
-290,876	98,908	0,052	-0,044
-289,862	42,599	0,070	-0,047
-288,847	-200,000	-0,020	-0,097
-287,832	134,502	-0,035	-0,033
-286,818	-8,799	0,149	-0,073
-285,803	664,151	0,061	0,116
-284,789	258,180	0,059	0,075
-283,774	-200,000	-0,007	0,111
-282,759	516,807	-0,034	0,058
-281,745	800,000	-0,028	0,069
-280,730	129,020	0,113	-0,106
-279,716	-200,000	-0,017	-0,152
-278,701	800,000	0,023	0,053
-277,686	-172,129	0,091	-0,002
-276,672	217,807	-0,090	-0,106
-275,657	115,753	0,081	0,072
-274,643	-200,000	-0,008	-0,038
-273,628	-200,000	0,005	-0,029
-272,613	-52,265	0,031	0,011
-271,599	171,253	0,037	0,039
-270,584	273,616	0,067	0,087
-269,570	270,002	-0,062	0,080
-268,555	-34,184	0,077	0,031
-267,540	-81,145	0,129	-0,031
-266,526	-105,987	0,013	-0,002
-265,511	-200,000	-0,018	-0,091
-264,497	800,000	0,020	-0,051
-263,482	194,148	0,191	0,212
-262,467	54,474	-0,084	-0,059
-261,453	478,785	-0,048	-0,079
-260,438	-134,974	-0,083	0,007
-259,424	-200,000	-0,019	0,091
-258,409	277,332	0,103	-0,135
-257,395	800,000	0,022	0,046
-256,380	800,000	-0,016	0,038
-255,365	460,488	-0,070	-0,114
-254,351	111,625	-0,114	0,101
-253,336	800,000	-0,011	0,029
-252,322	247,379	0,072	-0,089
-251,307	-192,758	-0,058	0,000
-250,292	225,055	-0,033	0,039
-249,278	-128,471	0,017	-0,002
-248,263	649,009	0,034	0,063
-247,249	-4,142	-0,132	0,066
-246,234	-50,093	-0,108	0,037
-245,219	220,788	-0,057	0,067
-244,205	243,662	-0,072	0,088
-243,190	-23,911	0,045	0,019
-242,176	-200,000	0,023	0,136
-241,161	1,798	-0,046	0,024
-240,146	-200,000	0,014	0,085
-239,132	96,224	-0,048	0,040
-238,117	-200,000	-0,021	-0,174
-237,103	-39,587	-0,144	0,055
-236,088	626,840	-0,106	0,196
-235,073	-200,000	-0,012	0,044
-234,059	-200,000	0,021	0,134
-233,044	-200,000	0,013	0,063
-232,030	50,584	0,025	0,017
-231,015	-141,324	-0,166	-0,012
-230,000	-45,594	-0,054	-0,020
-228,986	533,009	-0,031	0,053
-227,971	74,430	0,044	0,034
-226,957	533,938	-0,031	0,054
-225,942	6,751	0,248	-0,135
-224,927	-200,000	0,032	-0,113
-223,913	-73,524	0,105	-0,028
-222,898	-133,175	-0,168	0,015
-221,884	-162,334	0,164	-0,006
-220,869	23,184	0,162	-0,097
-219,855	-8,702	0,114	-0,056
-218,840	800,000	-0,027	-0,075
-217,825	213,912	-0,113	0,131
-216,811	112,894	0,019	-0,017
-215,796	401,974	-0,098	-0,150
-214,782	72,213	-0,072	-0,055
-213,767	-200,000	-0,004	0,121
-212,752	12,148	0,040	-0,023
-211,738	759,221	-0,029	0,058
-210,723	-200,000	-0,048	0,160
-209,709	319,061	-0,054	-0,075
-208,694	-200,000	-0,032	-0,121
-207,679	-69,762	-0,120	0,033
-206,665	-66,914	0,047	0,014
-205,650	247,504	0,048	-0,059
-204,636	-105,188	0,066	0,011
-203,621	-67,118	-0,074	0,021
-202,606	-101,761	0,004	-0,001
-201,592	800,000	0,034	-0,073
-200,577	177,654	-0,077	-0,081
-199,563	60,876	-0,096	-0,069
-198,548	160,733	0,063	0,064
-197,533	-106,024	0,078	0,013
-196,519	331,997	-0,037	-0,052
-195,504	257,063	0,064	0,081
-194,490	-200,000	-0,047	-0,173
-193,475	103,402	-0,045	0,038
-192,460	183,528	-0,084	0,091
-191,446	-126,402	0,039	0,004
-190,431	-53,446	0,044	-0,015
-189,417	-51,516	-0,053	-0,018
-188,402	142,040	-0,124	-0,120
-187,387	38,212	-0,074	0,048
-186,373	765,766	-0,063	-0,126
-185,358	-72,390	0,035	0,009
-184,344	-200,000	-0,023	0,238
-183,329	54,475	0,125	0,088
-182,315	-21,805	0,046	-0,020
-181,300	-49,195	-0,145	0,050
-180,285	-2,816	-0,063	-0,032
-179,271	327,297	-0,008	0,012
-178,256	211,041	-0,073	0,084
-177,242	483,481	0,077	0,129
-176,227	-75,550	0,069	-0,018
-175,212	800,000	0,014	-0,031
-174,198	-200,000	0,033	0,122
-173,183	-91,275	-0,075	0,016
-172,169	443,162	0,052	-0,084
-171,154	-199,408	-0,084	0,000
-170,139	-122,015	0,112	0,013
-169,125	-69,543	-0,046	0,013
-168,110	-200,000	0,003	-0,032
-167,096	-200,000	0,005	-0,049
-166,081	66,224	0,058	-0,043
-165,066	-26,000	0,141	0,060
-164,052	-13,181	0,053	0,025
-163,037	-11,412	-0,105	-0,050
-162,023	672,703	0,063	-0,120
-161,008	617,661	-0,077	0,141
-159,993	-77,216	0,093	-0,023
-158,979	-41,403	-0,058	0,022
-157,964	-200,000	0,012	0,136
-156,950	-51,410	0,049	-0,017
-155,935	800,000	0,020	0,063
-154,920	-55,197	-0,120	0,039
-153,906	20,346	0,056	0,033
-152,891	-97,512	0,155	0,029
-151,877	167,233	-0,045	0,047
-150,862	457,522	-0,048	0,078
-149,847	-200,000	-0,012	0,045
-148,833	688,209	0,004	-0,008
-147,818	76,683	0,049	0,038
-146,804	155,507	0,095	-0,096
-145,789	259,962	0,066	-0,083
-144,775	360,476	-0,086	-0,126
-143,760	-104,567	-0,170	-0,028
-142,745	800,000	-0,017	-0,048
-141,731	-28,299	-0,081	0,034
-140,716	543,960	0,029	0,051
-139,702	800,000	-0,048	-0,102
-138,687	727,236	-0,058	0,114
-137,672	-200,000	0,015	0,063
-136,658	-200,000	-0,004	0,023
-135,643	-200,000	0,000	0,030
-134,629	45,758	0,158	-0,106
-133,614	-200,000	-0,013	0,052
-132,599	-148,561	0,037	-0,002
-131,585	800,000	0,036	0,101
-130,570	800,000	0,007	-0,016
-129,556	-9,885	0,034	-0,016
-128,541	-61,669	-0,147	-0,045
-127,526	-146,681	0,048	0,003
-126,512	-131,661	-0,103	-0,010
-125,497	299,998	0,113	0,152
-124,483	52,097	-0,023	-0,016
-123,468	-163,314	-0,192	-0,007
-122,453	-200,000	-0,011	-0,085
-121,439	-60,256	-0,006	0,002
-120,424	-49,660	0,027	-0,009
-119,410	-71,010	0,042	0,011
