DTS Sentinel unit serial number:	SN410029Multiplexer serial number:	ORYXHardware model number:	OX2-SRSoftware version number:	ORYX F/W v4,00 Oryx Data Collector v3.7.2.0data status	okinstallation	B4 Nyhavnadifferential loss correction	single-endedforward channel	channel 2reverse channel	N/Adate	2023/12/15time	18:20:13forward acquisition time	300,00reverse acquisition time	0,00gamma	499,1914k internal	0,3141k external	0,3141temperature offset calibration	1,0000default loss term (dB/km)	0,3820temperature slope calibration	1,0000multiplexer offset coefficient	1,0000multiplexer slope coefficient	1,0000fibre end	0,00T internal ref (°C)	19,13T ext. ref 1 (°C)	5,01T ext. ref 2 (°C)	5,14length (m)	temperature (°C)	Stokes	anti-Stokes-744,400	-48,430	0,107	-0,038
-743,385	-200,000	-0,385	-0,001
-742,371	73,050	-0,024	0,019
-741,356	234,939	-0,158	0,194
-740,342	160,934	0,039	-0,040
-739,327	-57,100	-0,377	0,122
-738,312	322,938	0,059	0,084
-737,298	-157,297	-0,176	-0,008
-736,283	30,388	0,085	-0,054
-735,269	207,278	-0,149	0,172
-734,254	63,977	-0,051	0,038
-733,239	-16,702	-0,499	-0,233
-732,225	31,585	0,168	-0,107
-731,210	285,733	0,071	0,095
-730,196	-19,374	0,069	0,032
-729,181	800,000	-0,018	-0,056
-728,167	-31,001	-0,007	0,003
-727,152	107,747	-0,147	0,130
-726,137	570,584	-0,039	-0,070
-725,123	-200,000	0,005	-0,073
-724,108	-12,173	-0,277	-0,134
-723,094	114,973	-0,039	-0,036
-722,079	-200,000	-0,005	0,040
-721,064	-200,000	-0,010	-0,044
-720,050	-35,697	-0,084	0,033
-719,035	-104,529	-0,070	0,012
-718,021	72,914	-0,068	-0,053
-717,006	-129,704	0,077	-0,008
-715,991	191,651	-0,031	-0,034
-714,977	161,382	-0,056	-0,058
-713,962	-200,000	-0,012	0,062
-712,948	60,367	0,081	0,059
-711,933	80,512	-0,086	-0,068
-710,918	-200,000	-0,020	-0,101
-709,904	-1,409	-0,041	-0,021
-708,889	188,899	-0,121	-0,134
-707,875	-82,170	-0,082	-0,020
-706,860	-56,640	0,136	-0,044
-705,845	152,232	0,059	0,060
-704,831	-200,000	0,031	0,105
-703,816	215,754	-0,029	0,034
-702,802	-200,000	-0,013	-0,189
-701,787	17,680	-0,028	-0,017
-700,772	-94,688	-0,136	0,027
-699,758	-200,000	0,010	-0,035
-698,743	530,708	0,023	-0,041
-697,729	-200,000	-0,009	0,058
-696,714	-200,000	0,008	0,101
-695,699	800,000	0,065	-0,175
-694,685	188,706	0,037	-0,041
-693,670	249,901	-0,109	-0,138
-692,656	249,907	0,075	0,094
-691,641	-50,016	0,068	-0,024
-690,627	42,861	0,085	-0,057
-689,612	-89,078	-0,110	-0,024
-688,597	178,899	-0,064	0,069
-687,583	-61,510	-0,202	-0,062
-686,568	-200,000	-0,011	0,071
-685,554	207,894	-0,038	0,045
-684,539	-17,990	0,023	-0,010
-683,524	232,491	0,099	0,120
-682,510	189,827	0,025	0,028
-681,495	800,000	-0,006	0,016
-680,481	800,000	-0,011	0,024
-679,466	800,000	-0,039	-0,092
-678,451	111,451	-0,012	-0,011
-677,437	17,719	-0,145	0,085
-676,422	363,373	-0,066	0,098
-675,408	-200,000	-0,002	0,114
-674,393	800,000	-0,080	0,253
-673,378	498,818	-0,048	-0,082
-672,364	198,156	-0,093	-0,106
-671,349	312,754	-0,081	0,113
-670,335	-11,567	-0,038	-0,018
-669,320	-126,614	-0,027	-0,003
-668,305	800,000	-0,027	0,074
-667,291	-21,091	-0,093	0,042
-666,276	-147,684	-0,044	-0,003
-665,262	800,000	-0,053	-0,166
-664,247	183,291	-0,038	-0,042
-663,232	-200,000	0,027	-0,136
-662,218	-200,000	-0,001	0,035
-661,203	75,848	-0,020	-0,016
-660,189	0,553	0,165	0,087
-659,174	800,000	-0,023	-0,049
-658,159	159,770	-0,047	-0,048
-657,145	-133,552	-0,042	-0,004
-656,130	-200,000	0,003	-0,044
-655,116	-200,000	-0,008	0,044
-654,101	22,193	0,059	0,035
-653,086	116,161	-0,050	-0,045
-652,072	-97,232	0,119	0,023
-651,057	-200,000	-0,011	-0,106
-650,043	122,501	-0,051	0,047
-649,028	800,000	0,042	-0,103
-648,014	158,733	0,073	-0,075
-646,999	-151,594	-0,126	-0,007
-645,984	800,000	0,036	0,084
-644,970	-124,947	-0,055	-0,006
-643,955	-63,929	-0,082	0,025
-642,941	48,910	0,028	-0,019
-641,926	800,000	0,038	0,113
-640,911	22,289	-0,046	0,028
-639,897	-200,000	-0,011	-0,121
-638,882	112,065	0,057	0,051
-637,868	-200,000	-0,013	0,099
-636,853	-47,282	-0,209	-0,075
-635,838	-119,788	0,115	-0,014
-634,824	592,499	-0,029	0,053
-633,809	242,196	-0,071	-0,087
-632,795	106,686	0,045	0,040
-631,780	514,565	-0,045	0,079
-630,765	201,062	-0,036	-0,041
-629,751	271,396	-0,057	0,074
-628,736	85,708	-0,037	0,030
-627,722	-200,000	0,005	-0,059
-626,707	40,831	-0,072	-0,048
-625,692	-200,000	-0,013	0,094
-624,678	-14,038	-0,095	0,045
-623,663	-167,598	0,139	-0,004
-622,649	36,521	-0,084	-0,055
-621,634	800,000	0,042	0,130
-620,619	540,939	-0,038	0,068
-619,605	-29,067	0,172	-0,072
-618,590	190,108	-0,109	0,121
-617,576	-121,880	0,104	-0,013
-616,561	-200,000	0,010	0,073
-615,546	-200,000	0,029	0,191
-614,532	-104,674	-0,044	-0,007
-613,517	10,048	-0,054	0,030
-612,503	631,252	0,023	-0,043
-611,488	-144,512	0,085	0,006
-610,474	79,383	-0,094	0,074
-609,459	-69,411	-0,050	0,014
-608,444	135,872	-0,022	-0,021
-607,430	-17,516	0,071	-0,033
-606,415	-200,000	0,011	0,101
-605,401	110,460	-0,018	-0,016
-604,386	137,234	0,128	0,123
-603,371	96,279	0,110	0,093
-602,357	-138,998	-0,112	0,009
-601,342	144,522	0,044	-0,043
-600,328	744,412	-0,037	-0,073
-599,313	-200,000	-0,015	-0,071
-598,298	-200,000	0,026	-0,097
-597,284	598,380	-0,052	-0,095
-596,269	119,982	-0,064	0,059
-595,255	383,690	0,012	-0,019
-594,240	-200,000	-0,012	-0,070
-593,225	-83,225	0,104	-0,025
-592,211	48,793	-0,091	0,063
-591,196	184,787	0,026	-0,029
-590,182	-200,000	0,018	0,063
-589,167	-200,000	-0,008	0,065
-588,152	399,261	0,047	0,073
-587,138	-200,000	-0,018	-0,135
-586,123	800,000	-0,009	0,022
-585,109	-200,000	-0,019	0,116
-584,094	-200,000	0,001	0,018
-583,079	34,666	0,044	-0,028
-582,065	78,366	-0,050	-0,039
-581,050	-200,000	0,000	0,067
-580,036	800,000	-0,036	-0,092
-579,021	-117,418	-0,113	-0,015
-578,006	-16,846	0,185	-0,086
-576,992	-64,841	0,104	0,031
-575,977	-200,000	-0,010	-0,044
-574,963	598,167	0,027	-0,049
-573,948	800,000	-0,038	0,090
-572,934	-200,000	0,021	0,082
-571,919	111,214	-0,008	0,007
-570,904	-56,776	-0,088	0,029
-569,890	12,180	-0,099	-0,056
-568,875	-29,312	-0,093	0,039
-567,861	59,802	-0,185	0,134
-566,846	-200,000	0,010	-0,075
-565,831	-200,000	-0,008	0,032
-564,817	6,405	-0,075	-0,041
-563,802	25,143	0,100	0,061
-562,788	147,011	-0,094	-0,093
-561,773	-200,000	-0,012	0,125
-560,758	-200,000	-0,002	0,076
-559,744	-9,414	-0,100	-0,049
-558,729	-200,000	-0,011	-0,100
-557,715	800,000	-0,049	0,123
-556,700	58,213	-0,064	-0,046
-555,685	119,823	0,050	0,046
-554,671	800,000	-0,030	-0,070
-553,656	-71,383	0,059	-0,016
-552,642	283,761	0,058	0,077
-551,627	800,000	-0,042	0,092
-550,612	606,800	0,009	0,016
-549,598	-200,000	-0,004	-0,099
-548,583	-200,000	0,002	-0,053
-547,569	729,811	0,015	0,030
-546,554	699,225	-0,045	-0,087
-545,539	-72,181	-0,067	-0,018
-544,525	800,000	0,020	0,065
-543,510	108,191	-0,045	0,039
-542,496	4,467	0,030	0,016
-541,481	800,000	-0,027	-0,064
-540,466	572,887	-0,043	0,077
-539,452	800,000	-0,005	0,013
-538,437	16,192	-0,023	-0,013
-537,423	574,655	-0,018	0,033
-536,408	150,732	0,046	-0,046
-535,393	-200,000	-0,016	-0,194
-534,379	-200,000	-0,014	-0,057
-533,364	4,033	0,059	0,032
-532,350	-33,513	-0,083	-0,034
-531,335	-56,187	-0,030	-0,010
-530,321	519,400	0,031	-0,053
-529,306	15,570	-0,024	0,014
-528,291	-200,000	-0,022	0,111
-527,277	-200,000	-0,010	-0,047
-526,262	-34,129	0,018	-0,007
-525,248	-200,000	0,023	-0,086
-524,233	-17,795	0,105	0,048
-523,218	146,878	0,076	-0,075
-522,204	29,617	-0,034	0,021
-521,189	-161,729	-0,151	-0,006
-520,175	75,763	-0,085	-0,066
-519,160	-200,000	-0,030	-0,161
-518,145	-5,676	0,093	0,047
-517,131	-200,000	0,030	0,246
-516,116	800,000	-0,027	0,056
-515,102	167,109	-0,035	-0,036
-514,087	-59,279	-0,022	0,007
-513,072	129,392	-0,040	-0,038
-512,058	-28,279	0,115	0,048
-511,043	322,821	0,020	-0,029
-510,029	-68,272	-0,164	-0,047
-509,014	-55,000	0,117	0,039
-507,999	-33,413	0,131	-0,053
-506,985	800,000	0,047	-0,105
-505,970	26,766	0,046	-0,028
-504,956	-53,025	0,033	-0,011
-503,941	-34,400	0,021	-0,009
-502,926	-200,000	-0,003	0,045
-501,912	171,167	0,062	0,065
-500,897	-200,000	-0,030	-0,145
-499,883	-200,000	-0,011	0,061
-498,868	800,000	0,056	-0,158
-497,853	-200,000	0,007	-0,164
-496,839	614,880	0,015	0,028
-495,824	511,953	0,018	0,031
-494,810	-200,000	0,026	0,104
-493,795	245,159	-0,014	-0,017
-492,781	-200,000	0,024	-0,133
-491,766	39,859	-0,147	-0,097
-490,751	422,557	-0,041	-0,065
-489,737	800,000	-0,065	-0,140
-488,722	11,675	-0,068	-0,038
-487,708	37,202	0,031	0,020
-486,693	-3,757	0,126	-0,064
-485,678	-200,000	-0,022	-0,142
-484,664	237,404	-0,030	0,037
-483,649	436,555	0,007	-0,011
-482,635	219,870	-0,049	0,057
-481,620	23,211	0,050	0,030
-480,605	-115,999	-0,033	0,004
-479,591	10,184	0,083	0,046
-478,576	77,225	-0,068	-0,053
-477,562	169,805	-0,020	0,021
-476,547	636,514	0,031	0,057
-475,532	312,120	-0,033	0,045
-474,518	212,566	-0,018	0,021
-473,503	241,370	0,023	-0,028
-472,489	-200,000	0,011	0,210
-471,474	-200,000	0,028	0,102
-470,459	-107,962	0,091	-0,014
-469,445	624,655	-0,067	-0,125
-468,430	19,694	0,051	0,030
-467,416	38,652	0,089	0,058
-466,401	24,930	-0,080	0,049
-465,386	-123,515	-0,071	-0,008
-464,372	270,010	0,072	0,093
-463,357	276,042	-0,075	-0,098
-462,343	294,839	0,085	-0,114
-461,328	800,000	0,028	-0,072
-460,313	53,817	-0,080	0,056
-459,299	-6,352	0,123	0,061
-458,284	-200,000	-0,011	0,053
-457,270	800,000	0,031	0,069
-456,255	172,695	0,071	0,075
-455,241	-150,279	-0,072	-0,004
-454,226	36,079	-0,208	-0,134
-453,211	-115,995	0,094	0,013
-452,197	800,000	-0,020	0,046
-451,182	-200,000	-0,012	0,061
-450,168	-200,000	-0,065	0,000
-449,153	800,000	0,021	0,057
-448,138	-200,000	0,001	-0,011
-447,124	304,632	0,054	0,074
-446,109	-200,000	-0,044	0,177
-445,095	-127,791	0,070	-0,007
-444,080	-155,158	0,136	0,006
-443,065	44,400	0,061	0,041
-442,051	-200,000	-0,001	-0,114
-441,036	-149,151	0,084	-0,005
-440,022	-200,000	-0,003	0,045
-439,007	217,691	0,017	-0,020
-437,992	-200,000	0,001	0,122
-436,978	-102,866	-0,076	-0,013
-435,963	156,757	0,077	0,078
-434,949	-200,000	0,007	-0,034
-433,934	-200,000	-0,006	-0,027
-432,919	32,258	-0,194	-0,123
-431,905	-200,000	-0,005	-0,213
-430,890	-200,000	0,006	-0,071
-429,876	-19,725	0,145	0,065
-428,861	721,836	-0,059	0,115
-427,846	-43,398	0,094	0,035
-426,832	17,411	-0,053	0,031
-425,817	-160,222	-0,021	-0,001
-424,803	-200,000	0,043	0,158
-423,788	-1,438	0,027	0,014
-422,773	-127,728	0,179	0,019
-421,759	-200,000	0,012	0,195
-420,744	800,000	0,041	-0,129
-419,730	19,713	0,095	-0,056
-418,715	800,000	-0,036	-0,093
-417,701	10,020	-0,066	-0,037
-416,686	102,518	0,052	0,045
-415,671	-70,376	0,195	0,054
-414,657	-140,216	0,044	-0,003
-413,642	-62,546	0,126	0,038
-412,628	-117,796	0,018	0,002
-411,613	-200,000	-0,020	-0,140
-410,598	-200,000	0,017	0,079
-409,584	800,000	0,030	0,097
-408,569	-83,753	0,113	0,026
-407,555	-71,804	0,159	0,043
-406,540	-200,000	-0,003	0,063
-405,525	374,644	-0,085	-0,127
-404,511	-200,000	-0,011	-0,047
-403,496	-200,000	-0,002	0,118
-402,482	-200,000	0,006	0,051
-401,467	-109,816	-0,021	-0,003
-400,452	-70,394	-0,029	0,008
-399,438	-43,021	0,095	0,035
-398,423	76,932	0,099	-0,077
-397,409	43,447	-0,041	-0,027
-396,394	-32,398	-0,116	-0,047
-395,379	80,076	-0,121	-0,095
-394,365	800,000	0,004	0,010
-393,350	83,783	-0,034	-0,027
-392,336	-200,000	0,058	0,188
-391,321	-200,000	0,024	0,209
-390,306	800,000	-0,025	-0,052
-389,292	58,532	0,042	-0,030
-388,277	-63,556	-0,129	-0,038
-387,263	-200,000	0,019	0,090
-386,248	800,000	-0,043	0,109
-385,233	667,291	-0,013	0,025
-384,219	142,628	-0,087	0,084
-383,204	120,376	-0,061	-0,055
-382,190	800,000	-0,077	0,230
-381,175	-28,580	0,096	-0,040
-380,160	-200,000	-0,031	-0,154
-379,146	100,603	0,041	0,035
-378,131	-200,000	-0,002	0,119
-377,117	238,943	-0,062	0,075
-376,102	800,000	0,067	-0,146
-375,088	189,592	-0,025	-0,027
-374,073	-200,000	0,016	-0,082
-373,058	122,328	0,041	-0,037
-372,044	-200,000	0,001	0,031
-371,029	-155,158	0,024	0,001
-370,015	-200,000	-0,024	0,144
-369,000	100,779	-0,096	-0,082
-367,985	152,948	-0,032	-0,032
-366,971	-11,808	0,093	0,044
-365,956	-200,000	0,023	-0,109
-364,942	-146,751	-0,046	-0,003
-363,927	357,429	-0,046	0,067
-362,912	473,991	-0,056	-0,092
-361,898	82,578	-0,040	0,032
-360,883	72,456	0,055	-0,042
-359,869	220,581	0,042	0,049
-358,854	0,726	0,081	-0,042
-357,839	6,223	-0,019	-0,010
-356,825	-18,435	-0,021	0,009
-355,810	167,092	-0,026	-0,027
-354,796	800,000	0,032	-0,091
-353,781	38,677	-0,144	0,094
-352,766	32,495	0,075	-0,047
-351,752	289,301	0,076	0,100
-350,737	248,245	0,020	-0,024
-349,723	-99,218	0,054	0,010
-348,708	-7,996	-0,076	-0,037
-347,693	-43,624	-0,111	-0,041
-346,679	-86,929	0,212	-0,047
-345,664	800,000	0,042	-0,092
-344,650	136,399	0,073	0,069
-343,635	800,000	-0,023	-0,067
-342,620	-80,017	-0,042	0,010
-341,606	160,108	-0,018	0,018
-340,591	800,000	-0,022	-0,066
-339,577	98,125	-0,087	-0,073
-338,562	800,000	-0,022	-0,051
-337,548	800,000	0,071	0,168
-336,533	-200,000	0,004	0,072
-335,518	-12,906	0,060	-0,029
-334,504	21,106	0,140	0,083
-333,489	-200,000	0,008	0,100
-332,475	7,497	0,048	-0,026
-331,460	-200,000	-0,010	0,113
-330,445	277,818	-0,048	0,063
-329,431	77,608	0,018	0,014
-328,416	30,297	-0,050	-0,031
-327,402	-200,000	-0,021	0,167
-326,387	300,836	0,071	-0,096
-325,372	800,000	0,041	-0,095
-324,358	-200,000	0,021	0,081
-323,343	-200,000	0,032	-0,137
-322,329	800,000	-0,044	-0,108
-321,314	483,114	0,088	-0,146
-320,299	800,000	0,016	-0,049
-319,285	800,000	-0,061	-0,185
-318,270	-37,556	-0,187	-0,072
-317,256	800,000	-0,048	-0,127
-316,241	-200,000	0,084	-0,000
-315,226	33,391	0,147	0,093
-314,212	-52,529	0,062	0,021
-313,197	-200,000	-0,018	0,148
-312,183	800,000	0,063	-0,141
-311,168	9,422	0,110	0,061
-310,153	-166,391	0,052	0,002
-309,139	-85,226	-0,098	-0,022
-308,124	-76,916	0,060	0,015
-307,110	-15,500	-0,139	0,064
-306,095	451,914	0,065	-0,105
-305,080	-71,072	-0,077	0,021
-304,066	124,132	-0,078	-0,072
-303,051	-195,588	-0,103	-0,001
-302,037	-113,276	0,060	0,008
-301,022	-91,363	0,105	0,022
-300,008	-132,528	-0,054	0,005
-298,993	-72,861	0,131	-0,035
-297,978	-200,000	0,003	-0,147
-296,964	6,453	-0,203	-0,110
-295,949	-200,000	-0,002	-0,103
-294,935	-65,087	-0,181	0,053
-293,920	-200,000	-0,004	-0,045
-292,905	40,660	0,108	-0,071
-291,891	269,607	0,054	0,069
-290,876	-48,244	-0,064	-0,022
-289,862	-200,000	0,015	0,138
-288,847	-76,831	-0,249	-0,063
-287,832	-65,920	-0,032	-0,009
-286,818	-200,000	-0,032	-0,109
-285,803	-21,751	0,192	0,085
-284,789	-200,000	0,017	0,149
-283,774	-200,000	0,035	0,149
-282,759	-200,000	0,033	-0,110
-281,745	-76,488	-0,084	0,021
-280,730	-182,984	-0,025	-0,000
-279,716	645,963	0,034	-0,064
-278,701	-90,529	-0,079	0,016
-277,686	8,035	0,055	0,030
-276,672	583,047	0,017	-0,031
-275,657	-200,000	-0,012	0,070
-274,643	-200,000	-0,001	-0,032
-273,628	-28,386	-0,177	-0,074
-272,613	-200,000	-0,025	-0,093
-271,599	6,148	0,164	0,088
-270,584	-18,327	-0,075	0,034
-269,570	-44,215	-0,051	0,018
-268,555	-200,000	0,022	0,129
-267,540	26,241	-0,099	-0,060
-266,526	800,000	0,069	0,149
-265,511	242,060	-0,071	0,087
-264,497	282,031	-0,058	0,075
-263,482	-200,000	-0,000	-0,006
-262,467	253,091	-0,058	0,072
-261,453	-58,335	0,057	0,018
-260,438	16,871	-0,069	0,040
-259,424	-181,002	-0,057	-0,001
-258,409	800,000	0,043	-0,137
-257,395	8,319	-0,153	-0,083
-256,380	-200,000	-0,018	0,160
-255,365	-139,405	-0,023	-0,002
-254,351	540,667	-0,048	-0,083
-253,336	651,234	0,027	-0,051
-252,322	800,000	-0,012	-0,028
-251,307	34,370	-0,062	-0,039
-250,292	-55,690	0,209	-0,068
-249,278	-158,139	0,133	0,006
-248,263	-200,000	0,005	0,025
-247,249	246,196	0,067	0,083
-246,234	26,682	-0,136	-0,083
-245,219	165,505	-0,143	0,147
-244,205	143,210	0,040	-0,039
-243,190	-200,000	0,023	-0,109
-242,176	-41,944	0,091	-0,034
-241,161	800,000	-0,044	0,094
-240,146	171,867	0,046	0,048
-239,132	512,706	-0,036	0,062
-238,117	800,000	-0,037	-0,112
-237,103	40,707	-0,199	0,130
-236,088	6,882	-0,038	0,021
-235,073	493,781	0,041	0,069
-234,059	800,000	0,040	-0,087
-233,044	7,331	-0,055	-0,030
-232,030	-128,639	0,123	0,012
-231,015	800,000	-0,035	-0,087
-230,000	551,985	0,032	-0,056
-228,986	679,166	-0,012	-0,023
-227,971	5,594	-0,058	-0,031
-226,957	61,291	0,031	-0,022
-225,942	-200,000	0,005	-0,080
-224,927	267,924	0,050	0,064
-223,913	-50,150	0,047	0,016
-222,898	800,000	-0,006	0,020
-221,884	294,684	0,091	-0,121
-220,869	-130,310	0,086	0,008
-219,855	-95,346	-0,012	-0,002
-218,840	51,493	-0,157	0,108
-217,825	-36,569	0,037	0,014
-216,811	-200,000	-0,002	0,043
-215,796	239,512	-0,002	0,002
-214,782	-137,912	0,126	0,010
-213,767	386,692	0,060	-0,091
-212,752	143,038	-0,073	0,071
-211,738	-111,645	-0,082	-0,012
-210,723	220,310	0,049	0,057
-209,709	-197,727	-0,124	-0,001
-208,694	-50,294	-0,069	-0,024
-207,679	81,253	0,028	-0,022
-206,665	800,000	-0,050	-0,147
-205,650	-200,000	-0,007	0,222
-204,636	-168,113	0,104	-0,003
-203,621	800,000	0,035	-0,107
-202,606	-45,262	0,169	0,061
-201,592	800,000	0,014	0,036
-200,577	66,294	-0,024	-0,018
-199,563	39,718	0,038	0,024
-198,548	-150,267	0,048	-0,003
-197,533	-32,482	-0,086	0,035
-196,519	-106,041	0,119	0,019
-195,504	-200,000	0,019	-0,110
-194,490	126,796	-0,102	-0,094
-193,475	-105,883	0,048	-0,008
-192,460	161,189	-0,108	0,109
-191,446	260,188	-0,108	0,136
-190,431	-160,894	-0,085	0,003
-189,417	262,468	0,105	0,133
-188,402	800,000	-0,016	-0,051
-187,387	540,672	-0,032	-0,056
-186,373	-200,000	0,007	-0,043
-185,358	-115,286	-0,044	-0,006
-184,344	-200,000	0,006	-0,044
-183,329	800,000	0,051	0,103
-182,315	593,631	-0,055	-0,100
-181,300	775,671	0,010	-0,019
-180,285	94,892	-0,147	-0,121
-179,271	800,000	0,041	-0,114
-178,256	-17,555	0,036	0,016
-177,242	-200,000	-0,005	0,093
-176,227	-36,801	0,080	-0,031
-175,212	-42,048	-0,078	-0,029
-174,198	522,549	0,015	-0,026
-173,183	-200,000	0,014	-0,065
-172,169	-200,000	0,023	-0,154
-171,154	364,188	-0,084	-0,123
-170,139	69,266	0,043	-0,032
-169,125	64,133	0,045	-0,033
-168,110	-33,263	0,104	0,042
-167,096	0,892	0,039	-0,020
-166,081	-38,009	0,056	-0,021
-165,066	-200,000	-0,016	-0,093
-164,052	-200,000	0,027	-0,122
-163,037	-200,000	-0,003	-0,055
-162,023	-200,000	0,006	0,070
-161,008	-200,000	0,003	-0,026
-159,993	423,957	0,082	-0,129
-158,979	210,925	-0,063	0,072
-157,964	377,339	0,060	0,089
-156,950	-102,739	-0,099	0,017
-155,935	48,202	-0,013	-0,009
-154,920	27,775	0,084	0,051
-153,906	-24,502	0,086	0,037
-152,891	663,450	0,040	0,075
-151,877	439,889	-0,088	0,140
-150,862	311,873	0,071	-0,096
-149,847	-200,000	-0,017	-0,062
-148,833	800,000	-0,020	0,063
-147,818	442,372	-0,069	0,110
-146,804	-87,653	-0,051	-0,011
-145,789	-200,000	0,043	0,144
-144,775	73,399	-0,043	-0,033
-143,760	-200,000	0,016	-0,057
-142,745	-200,000	-0,009	-0,109
-141,731	-92,443	-0,156	-0,031
-140,716	-200,000	-0,016	0,129
-139,702	-200,000	0,008	0,065
-138,687	800,000	0,032	-0,083
-137,672	82,739	-0,083	-0,065
-136,658	633,120	-0,078	-0,143
-135,643	-200,000	-0,007	-0,041
-134,629	348,293	-0,010	-0,014
-133,614	138,933	-0,031	-0,030
-132,599	537,283	-0,027	0,047
-131,585	15,567	0,164	-0,093
-130,570	-200,000	0,008	0,034
-129,556	-200,000	0,004	-0,057
-128,541	-75,613	-0,037	0,010
-127,526	-195,147	-0,174	-0,001
-126,512	-88,341	0,120	-0,026
-125,497	57,001	0,147	-0,103
-124,483	236,014	-0,043	0,052
-123,468	-200,000	0,004	0,022
-122,453	147,359	-0,094	-0,092
-121,439	-200,000	-0,031	-0,113
-120,424	-122,301	0,017	0,002
-119,410	138,448	-0,047	0,045
