DTS Sentinel unit serial number:	SN410029Multiplexer serial number:	ORYXHardware model number:	OX2-SRSoftware version number:	ORYX F/W v4,00 Oryx Data Collector v3.7.2.0data status	okinstallation	B4 Nyhavnadifferential loss correction	single-endedforward channel	channel 2reverse channel	N/Adate	2023/12/18time	15:35:13forward acquisition time	300,00reverse acquisition time	0,00gamma	499,1914k internal	0,3149k external	0,3149temperature offset calibration	1,0000default loss term (dB/km)	0,3820temperature slope calibration	1,0000multiplexer offset coefficient	1,0000multiplexer slope coefficient	1,0000fibre end	0,00T internal ref (°C)	15,96T ext. ref 1 (°C)	7,20T ext. ref 2 (°C)	7,30length (m)	temperature (°C)	Stokes	anti-Stokes-744,400	203,345	0,069	-0,079
-743,385	-25,035	-0,342	0,149
-742,371	118,492	0,108	0,098
-741,356	-104,047	-0,160	0,027
-740,342	615,371	-0,069	0,128
-739,327	-14,259	-0,292	0,139
-738,312	-180,703	-0,039	0,001
-737,298	-132,034	-0,320	-0,030
-736,283	-16,090	0,115	0,054
-735,269	-200,000	-0,389	-0,001
-734,254	21,857	-0,121	-0,073
-733,239	8,815	-0,456	-0,253
-732,225	384,399	0,024	0,037
-731,210	132,682	0,141	0,134
-730,196	-194,215	0,030	-0,000
-729,181	-79,663	0,081	-0,020
-728,167	-200,000	0,014	-0,058
-727,152	-109,726	-0,063	0,010
-726,137	-34,802	-0,016	-0,006
-725,123	36,074	-0,107	-0,069
-724,108	-78,797	-0,070	-0,017
-723,094	800,000	-0,027	-0,065
-722,079	-200,000	-0,017	-0,103
-721,064	-200,000	-0,024	-0,155
-720,050	800,000	0,042	0,086
-719,035	502,987	0,056	-0,096
-718,021	139,417	-0,138	0,134
-717,006	500,398	-0,034	-0,058
-715,991	717,274	-0,044	-0,087
-714,977	-200,000	-0,014	-0,050
-713,962	-134,488	0,036	0,003
-712,948	103,785	-0,026	0,023
-711,933	-74,409	-0,234	0,062
-710,918	386,243	0,078	-0,119
-709,904	800,000	-0,017	-0,039
-708,889	-200,000	0,014	-0,120
-707,875	161,246	0,095	-0,098
-706,860	800,000	0,028	0,071
-705,845	-1,694	-0,155	0,080
-704,831	-66,502	0,117	-0,034
-703,816	493,161	-0,017	-0,029
-702,802	596,998	-0,024	-0,045
-701,787	-2,240	-0,169	-0,087
-700,772	141,076	0,139	-0,136
-699,758	125,741	-0,049	-0,046
-698,743	71,998	-0,057	0,044
-697,729	-131,453	-0,135	-0,013
-696,714	-46,158	0,019	0,007
-695,699	15,750	-0,093	0,054
-694,685	-124,007	0,060	-0,007
-693,670	-12,568	-0,106	0,051
-692,656	-200,000	-0,010	0,080
-691,641	-109,327	0,049	-0,008
-690,627	-70,840	-0,027	-0,007
-689,612	800,000	-0,037	0,080
-688,597	187,789	-0,050	0,056
-687,583	-200,000	0,005	-0,136
-686,568	78,551	-0,125	-0,098
-685,554	-73,298	-0,071	0,019
-684,539	-94,916	0,038	0,007
-683,524	-29,007	0,035	-0,015
-682,510	-200,000	-0,026	-0,099
-681,495	-7,076	-0,055	-0,027
-680,481	21,402	-0,109	-0,065
-679,466	800,000	0,072	-0,183
-678,451	-46,705	-0,026	-0,009
-677,437	-200,000	-0,037	0,141
-676,422	13,852	0,143	0,082
-675,408	-20,341	0,071	-0,032
-674,393	800,000	0,034	0,094
-673,378	800,000	-0,020	-0,048
-672,364	-118,940	-0,035	-0,004
-671,349	800,000	-0,066	-0,190
-670,335	684,512	0,086	-0,167
-669,320	-200,000	0,013	-0,069
-668,305	-200,000	0,010	0,091
-667,291	205,138	-0,046	-0,053
-666,276	-29,159	-0,028	0,012
-665,262	-106,781	-0,056	-0,009
-664,247	800,000	0,044	0,112
-663,232	800,000	-0,051	0,107
-662,218	22,264	-0,078	-0,047
-661,203	173,243	-0,071	0,076
-660,189	79,732	0,081	0,064
-659,174	-19,413	-0,018	-0,008
-658,159	-200,000	-0,010	-0,131
-657,145	-200,000	0,024	-0,119
-656,130	326,186	-0,046	-0,065
-655,116	186,146	-0,041	-0,045
-654,101	-90,815	0,097	0,020
-653,086	-26,908	-0,178	0,076
-652,072	-200,000	-0,007	0,127
-651,057	-200,000	-0,004	-0,136
-650,043	-59,331	-0,011	-0,003
-649,028	800,000	-0,040	0,105
-648,014	-56,520	0,102	0,033
-646,999	800,000	0,014	-0,036
-645,984	-104,286	0,135	0,023
-644,970	-200,000	0,002	-0,056
-643,955	0,935	-0,078	-0,041
-642,941	-200,000	-0,028	-0,134
-641,926	-110,623	-0,082	-0,012
-640,911	327,883	0,058	0,083
-639,897	-146,692	-0,058	-0,004
-638,882	-21,597	0,118	0,053
-637,868	-139,776	-0,092	0,007
-636,853	146,205	-0,084	-0,083
-635,838	193,162	-0,015	-0,017
-634,824	800,000	-0,038	-0,080
-633,809	123,681	0,098	0,091
-632,795	503,890	-0,034	-0,058
-631,780	65,227	0,035	0,026
-630,765	800,000	-0,048	-0,121
-629,751	800,000	-0,071	-0,153
-628,736	800,000	0,023	0,050
-627,722	800,000	0,039	0,095
-626,707	138,642	-0,058	-0,056
-625,692	53,552	-0,045	0,031
-624,678	13,901	-0,037	0,021
-623,663	1,532	0,086	-0,046
-622,649	800,000	-0,032	0,079
-621,634	-200,000	0,017	0,122
-620,619	-200,000	0,008	-0,187
-619,605	68,346	-0,090	-0,068
-618,590	445,184	-0,053	0,085
-617,576	472,514	0,074	0,124
-616,561	800,000	0,058	-0,187
-615,546	-200,000	0,003	0,041
-614,532	-56,355	0,074	-0,024
-613,517	800,000	-0,077	-0,229
-612,503	350,593	0,062	-0,091
-611,488	21,344	0,046	-0,028
-610,474	800,000	-0,042	0,119
-609,459	172,264	-0,101	0,107
-608,444	107,399	-0,039	-0,035
-607,430	134,489	-0,023	-0,022
-606,415	74,485	-0,094	0,073
-605,401	600,987	-0,021	0,038
-604,386	800,000	-0,045	0,118
-603,371	800,000	-0,014	0,040
-602,357	119,413	0,056	-0,051
-601,342	121,911	-0,059	-0,054
-600,328	800,000	-0,054	-0,129
-599,313	460,232	0,058	-0,096
-598,298	-82,648	0,039	-0,009
-597,284	151,257	-0,027	-0,027
-596,269	-80,637	0,115	-0,028
-595,255	312,966	0,008	-0,012
-594,240	132,517	0,041	-0,039
-593,225	800,000	-0,037	-0,106
-592,211	-56,501	-0,195	-0,063
-591,196	-200,000	-0,003	-0,020
-590,182	248,514	0,060	0,075
-589,167	-75,562	0,112	0,029
-588,152	102,664	-0,154	-0,133
-587,138	147,551	0,035	-0,035
-586,123	-129,674	0,020	0,002
-585,109	-200,000	0,008	-0,043
-584,094	65,809	0,138	0,103
-583,079	-200,000	0,009	0,052
-582,065	-147,432	0,101	0,006
-581,050	81,883	0,034	-0,027
-580,036	-119,103	-0,113	0,014
-579,021	-1,339	-0,038	-0,020
-578,006	-200,000	0,005	-0,131
-576,992	-67,951	-0,183	-0,052
-575,977	24,637	-0,157	0,095
-574,963	-121,442	0,130	-0,016
-573,948	414,615	0,033	0,051
-572,934	800,000	-0,002	0,007
-571,919	600,059	-0,029	-0,053
-570,904	328,970	-0,132	-0,186
-569,890	-27,146	0,007	0,003
-568,875	800,000	0,038	0,083
-567,861	6,634	0,012	-0,006
-566,846	-104,256	-0,080	0,013
-565,831	-85,068	-0,092	0,021
-564,817	-64,884	-0,060	0,018
-563,802	1,609	-0,164	-0,087
-562,788	-200,000	-0,006	-0,063
-561,773	28,428	0,095	-0,059
-560,758	-58,960	0,023	0,007
-559,744	-200,000	-0,018	0,075
-558,729	664,978	-0,030	-0,058
-557,715	-200,000	-0,033	0,000
-556,700	-200,000	0,019	-0,087
-555,685	421,822	-0,031	0,049
-554,671	47,248	-0,081	-0,055
-553,656	800,000	0,013	0,039
-552,642	-200,000	-0,002	0,012
-551,627	92,316	0,057	-0,047
-550,612	-200,000	0,017	-0,069
-549,598	-200,000	-0,009	0,052
-548,583	800,000	0,051	0,122
-547,569	-200,000	0,026	0,093
-546,554	8,328	0,072	-0,040
-545,539	800,000	0,023	0,053
-544,525	-5,577	-0,057	0,029
-543,510	121,225	-0,133	-0,122
-542,496	800,000	0,058	-0,171
-541,481	-30,917	-0,107	0,044
-540,466	250,986	0,059	-0,074
-539,452	-11,797	0,043	-0,021
-538,437	-200,000	0,004	0,050
-537,423	-45,409	0,098	0,036
-536,408	577,611	0,021	0,037
-535,393	800,000	0,023	-0,053
-534,379	457,156	-0,049	-0,080
-533,364	5,594	0,045	0,024
-532,350	800,000	0,031	0,086
-531,335	663,911	-0,048	0,092
-530,321	-23,799	0,159	0,070
-529,306	726,247	-0,016	-0,031
-528,291	-54,330	0,121	-0,040
-527,277	122,614	-0,083	-0,076
-526,262	-41,723	0,053	-0,020
-525,248	-200,000	0,016	-0,115
-524,233	-33,892	0,081	0,033
-523,218	179,808	-0,055	-0,059
-522,204	90,137	0,038	0,031
-521,189	180,485	0,075	-0,080
-520,175	800,000	0,034	-0,102
-519,160	-86,640	0,047	-0,011
-518,145	800,000	-0,065	0,189
-517,131	30,233	-0,081	0,051
-516,116	275,917	-0,081	0,105
-515,102	800,000	-0,062	0,145
-514,087	-101,141	0,075	0,013
-513,072	101,561	-0,038	-0,032
-512,058	205,653	-0,054	-0,062
-511,043	-200,000	0,009	0,099
-510,029	-141,937	0,158	-0,011
-509,014	636,830	-0,035	-0,065
-507,999	371,202	-0,161	0,240
-506,985	-183,361	-0,107	0,001
-505,970	159,465	0,085	-0,087
-504,956	147,382	-0,064	-0,063
-503,941	159,269	-0,146	-0,148
-502,926	-200,000	-0,014	-0,067
-501,912	-68,346	0,052	0,015
-500,897	89,033	0,075	0,061
-499,883	607,994	-0,013	-0,024
-498,868	764,779	-0,121	-0,242
-497,853	367,589	0,050	0,074
-496,839	128,722	0,078	0,073
-495,824	213,728	0,052	-0,060
-494,810	-200,000	0,024	0,116
-493,795	27,919	0,056	-0,034
-492,781	75,550	-0,023	-0,018
-491,766	123,757	-0,141	-0,130
-490,751	-200,000	-0,002	-0,024
-489,737	36,313	0,070	-0,045
-488,722	-200,000	0,036	0,138
-487,708	12,405	0,126	-0,071
-486,693	-200,000	-0,001	-0,069
-485,678	-47,872	-0,022	-0,008
-484,664	72,205	0,028	-0,021
-483,649	399,077	-0,023	0,035
-482,635	60,596	-0,092	-0,066
-481,620	-117,816	-0,107	0,014
-480,605	301,746	-0,043	-0,058
-479,591	-200,000	-0,006	-0,076
-478,576	-200,000	-0,025	-0,178
-477,562	104,702	-0,114	-0,098
-476,547	-164,662	-0,054	0,002
-475,532	390,122	0,066	0,100
-474,518	110,024	0,056	0,049
-473,503	-62,798	0,095	0,029
-472,489	-150,175	-0,061	0,003
-471,474	335,242	0,051	0,072
-470,459	382,532	-0,041	0,061
-469,445	-23,570	0,049	0,021
-468,430	681,444	-0,023	-0,044
-467,416	-200,000	-0,002	-0,045
-466,401	404,110	0,060	0,092
-465,386	-200,000	0,014	0,077
-464,372	360,674	0,038	0,056
-463,357	-10,378	-0,040	0,019
-462,343	-114,472	0,118	-0,016
-461,328	-65,704	-0,091	-0,027
-460,313	66,354	0,041	-0,030
-459,299	800,000	-0,018	-0,042
-458,284	-200,000	-0,015	0,064
-457,270	202,094	0,067	0,076
-456,255	800,000	-0,021	0,055
-455,241	-200,000	0,013	-0,128
-454,226	-29,242	-0,107	0,045
-453,211	672,816	0,002	-0,004
-452,197	429,396	0,031	0,050
-451,182	-200,000	-0,033	0,108
-450,168	120,059	-0,086	0,078
-449,153	-200,000	0,003	0,014
-448,138	-87,151	-0,182	0,040
-447,124	800,000	-0,038	-0,114
-446,109	-18,760	0,061	0,028
-445,095	383,963	0,084	0,127
-444,080	-15,533	-0,128	0,060
-443,065	-48,603	0,079	-0,028
-442,051	32,663	-0,052	0,033
-441,036	363,403	0,085	0,126
-440,022	171,319	0,094	-0,099
-439,007	593,725	-0,010	-0,018
-437,992	-5,657	0,129	-0,064
-436,978	356,894	-0,062	0,090
-435,963	-200,000	0,008	0,044
-434,949	30,804	-0,072	0,045
-433,934	41,427	-0,036	-0,024
-432,919	139,682	-0,065	-0,063
-431,905	152,620	-0,057	-0,057
-430,890	35,029	0,090	-0,057
-429,876	28,170	0,039	-0,024
-428,861	375,891	0,041	0,061
-427,846	-22,739	0,078	0,034
-426,832	-200,000	0,014	0,080
-425,817	274,507	-0,051	-0,066
-424,803	-94,543	0,093	0,018
-423,788	800,000	-0,011	-0,035
-422,773	-200,000	-0,008	0,061
-421,759	70,678	0,107	-0,081
-420,744	-200,000	0,005	0,031
-419,730	-37,167	0,075	0,029
-418,715	-11,509	0,011	-0,005
-417,701	160,684	0,055	-0,056
-416,686	192,443	-0,047	0,052
-415,671	-168,429	0,054	-0,001
-414,657	573,361	0,057	0,101
-413,642	-155,959	0,025	0,001
-412,628	116,900	-0,033	-0,030
-411,613	-200,000	-0,012	-0,096
-410,598	800,000	0,018	0,037
-409,584	-182,916	0,031	-0,000
-408,569	-155,830	-0,068	-0,003
-407,555	199,896	0,105	0,117
-406,540	451,805	0,044	-0,072
-405,525	8,360	-0,126	0,069
-404,511	800,000	-0,044	-0,120
-403,496	-54,112	-0,046	-0,015
-402,482	-200,000	0,021	-0,083
-401,467	-41,719	-0,046	-0,017
-400,452	-34,448	0,096	-0,038
-399,438	-49,257	-0,095	0,033
-398,423	325,569	0,165	-0,231
-397,409	-21,027	0,104	0,046
-396,394	345,532	0,047	0,067
-395,379	325,276	0,047	-0,066
-394,365	490,941	-0,017	-0,029
-393,350	-200,000	0,013	-0,057
-392,336	109,542	0,057	0,049
-391,321	-200,000	-0,016	0,055
-390,306	-53,789	0,062	0,021
-389,292	186,036	0,075	-0,081
-388,277	67,358	-0,088	0,066
-387,263	107,709	-0,041	-0,035
-386,248	82,482	-0,055	0,044
-385,233	144,514	0,092	-0,089
-384,219	93,774	-0,017	-0,014
-383,204	-106,872	0,009	0,001
-382,190	-200,000	-0,033	-0,139
-381,175	-48,014	0,110	0,039
-380,160	729,770	0,049	-0,096
-379,146	-84,991	-0,170	0,039
-378,131	-200,000	0,010	0,128
-377,117	-200,000	0,006	-0,088
-376,102	700,906	0,018	-0,034
-375,088	158,317	0,102	-0,103
-374,073	-84,172	0,118	-0,027
-373,058	-72,972	0,069	-0,018
-372,044	162,479	0,074	0,076
-371,029	-200,000	-0,019	0,097
-370,015	-164,898	-0,082	0,003
-369,000	332,940	0,027	-0,037
-367,985	45,613	-0,189	0,127
-366,971	147,268	-0,056	-0,055
-365,956	71,191	0,064	-0,049
-364,942	-81,241	-0,062	0,015
-363,927	42,559	-0,093	-0,062
-362,912	81,957	0,133	0,105
-361,898	-157,190	-0,054	-0,002
-360,883	149,982	-0,076	0,075
-359,869	-124,969	0,064	0,007
-358,854	391,936	0,061	-0,093
-357,839	800,000	-0,017	0,053
-356,825	800,000	0,012	0,032
-355,810	-130,128	-0,161	0,016
-354,796	38,985	-0,092	0,060
-353,781	6,852	-0,068	0,037
-352,766	800,000	-0,014	-0,033
-351,752	-200,000	-0,016	0,100
-350,737	321,909	0,026	-0,035
-349,723	800,000	-0,048	0,144
-348,708	-200,000	-0,008	-0,046
-347,693	-98,932	-0,160	-0,029
-346,679	-200,000	0,014	-0,057
-345,664	-127,674	0,129	-0,013
-344,650	-200,000	-0,009	-0,045
-343,635	800,000	0,042	0,136
-342,620	-47,161	0,051	0,018
-341,606	-200,000	0,002	0,061
-340,591	165,718	-0,035	0,036
-339,577	419,111	-0,050	-0,077
-338,562	781,643	-0,046	-0,093
-337,548	-28,868	-0,044	0,018
-336,533	-200,000	-0,008	-0,055
-335,518	-151,818	0,081	0,004
-334,504	-87,472	0,062	0,014
-333,489	-4,077	-0,033	0,016
-332,475	-200,000	0,002	-0,093
-331,460	35,659	0,080	-0,051
-330,445	800,000	-0,053	-0,118
-329,431	193,877	-0,049	0,054
-328,416	289,211	0,093	0,123
-327,402	133,291	-0,098	0,092
-326,387	-200,000	-0,027	0,120
-325,372	800,000	-0,035	0,071
-324,358	-94,693	0,079	-0,016
-323,343	-41,889	0,088	0,033
-322,329	-114,696	0,076	0,010
-321,314	140,781	-0,052	-0,050
-320,299	-200,000	0,026	0,104
-319,285	-200,000	-0,003	-0,063
-318,270	800,000	0,057	-0,148
-317,256	384,851	-0,098	-0,147
-316,241	71,307	0,074	-0,055
-315,226	151,914	-0,063	-0,063
-314,212	-50,837	0,117	-0,040
-313,197	-200,000	0,023	0,103
-312,183	-51,149	0,029	-0,010
-311,168	63,418	-0,130	0,095
-310,153	-200,000	0,017	0,138
-309,139	-200,000	-0,030	0,188
-308,124	-200,000	-0,008	-0,059
-307,110	-200,000	-0,007	0,167
-306,095	286,419	-0,018	-0,023
-305,080	-132,768	-0,044	-0,004
-304,066	460,549	-0,085	-0,138
-303,051	33,797	-0,102	-0,064
-302,037	-200,000	-0,011	-0,145
-301,022	-147,743	0,113	-0,007
-300,008	800,000	0,061	-0,158
-298,993	277,966	-0,054	0,070
-297,978	-200,000	0,011	0,038
-296,964	51,739	-0,103	-0,071
-295,949	90,319	-0,100	0,081
-294,935	800,000	0,071	-0,157
-293,920	-34,637	-0,064	0,025
-292,905	176,220	0,059	-0,063
-291,891	-61,615	0,034	0,010
-290,876	800,000	0,040	0,089
-289,862	384,223	-0,095	0,143
-288,847	-200,000	-0,009	-0,150
-287,832	-200,000	0,023	0,163
-286,818	328,899	0,032	0,045
-285,803	70,280	0,063	0,048
-284,789	-40,994	0,045	-0,017
-283,774	783,483	-0,063	0,126
-282,759	39,777	0,052	-0,034
-281,745	-200,000	0,001	0,093
-280,730	179,927	-0,045	0,048
-279,716	250,214	0,074	-0,092
-278,701	-147,107	0,119	-0,007
-277,686	-200,000	-0,003	-0,017
-276,672	-200,000	0,014	0,075
-275,657	-200,000	0,018	-0,089
-274,643	800,000	0,057	-0,168
-273,628	-164,960	-0,059	0,002
-272,613	274,594	0,042	-0,054
-271,599	800,000	0,038	0,089
-270,584	-54,339	-0,025	0,008
-269,570	47,256	-0,010	0,007
-268,555	63,781	-0,107	0,078
-267,540	-130,555	0,058	0,006
-266,526	-105,807	0,029	-0,005
-265,511	-200,000	0,020	0,090
-264,497	35,034	0,051	0,032
-263,482	581,731	0,034	-0,060
-262,467	344,320	0,073	-0,105
-261,453	398,483	-0,031	0,047
-260,438	800,000	-0,061	-0,143
-259,424	120,452	-0,053	0,047
-258,409	800,000	0,014	-0,042
-257,395	800,000	0,017	-0,053
-256,380	800,000	0,056	0,155
-255,365	320,302	0,118	0,164
-254,351	-200,000	0,001	-0,038
-253,336	496,187	-0,049	-0,082
-252,322	-18,859	-0,085	-0,038
-251,307	-200,000	0,043	-0,224
-250,292	17,958	-0,031	-0,018
-249,278	-48,431	0,107	-0,037
-248,263	-108,689	0,100	-0,015
-247,249	-200,000	-0,032	0,235
-246,234	139,437	0,027	0,026
-245,219	-7,943	-0,067	0,033
-244,205	11,832	0,007	-0,004
-243,190	-76,733	0,050	0,013
-242,176	45,038	-0,105	-0,070
-241,161	-58,486	0,115	0,036
-240,146	230,443	0,025	0,030
-239,132	416,047	-0,009	0,014
-238,117	32,819	-0,086	-0,054
-237,103	-200,000	0,003	0,048
-236,088	-54,062	-0,073	0,024
-235,073	-22,784	0,092	-0,040
-234,059	-68,544	0,106	-0,030
-233,044	91,133	-0,114	0,093
-232,030	394,113	-0,061	-0,093
-231,015	49,381	0,064	-0,043
-230,000	38,010	0,097	0,062
-228,986	172,262	-0,083	-0,087
-227,971	106,898	0,084	0,072
-226,957	25,597	0,132	0,080
-225,942	800,000	0,049	0,129
-224,927	-36,189	0,214	-0,083
-223,913	-200,000	0,001	-0,104
-222,898	19,597	-0,057	0,033
-221,884	-200,000	-0,008	-0,043
-220,869	800,000	0,060	0,134
-219,855	150,880	0,010	0,009
-218,840	199,092	0,063	0,070
-217,825	-107,961	-0,135	-0,021
-216,811	800,000	-0,017	0,044
-215,796	800,000	-0,046	-0,094
-214,782	800,000	0,057	-0,131
-213,767	800,000	0,016	-0,039
-212,752	35,469	0,188	0,119
-211,738	9,211	-0,057	0,031
-210,723	1,197	-0,140	0,072
-209,709	-195,767	0,158	0,001
-208,694	126,956	0,030	-0,028
-207,679	-200,000	-0,014	0,092
-206,665	-42,044	0,101	0,037
-205,650	-45,497	-0,037	0,013
-204,636	-200,000	0,009	0,069
-203,621	-95,265	0,094	-0,018
-202,606	-164,097	-0,055	-0,002
-201,592	-65,227	-0,040	0,011
-200,577	-200,000	-0,026	0,097
-199,563	13,056	0,084	0,047
-198,548	-138,228	-0,118	-0,009
-197,533	-69,437	0,028	0,008
-196,519	-200,000	0,026	0,153
-195,504	137,886	-0,052	-0,049
-194,490	-98,478	-0,083	0,015
-193,475	-180,987	-0,027	-0,000
-192,460	-200,000	-0,003	-0,031
-191,446	268,311	0,059	-0,074
-190,431	-200,000	-0,004	0,098
-189,417	146,888	-0,081	0,078
-188,402	-40,054	-0,086	0,032
-187,387	21,456	-0,078	-0,046
-186,373	-109,717	-0,058	-0,009
-185,358	332,831	0,048	0,068
-184,344	42,676	-0,128	0,084
-183,329	800,000	-0,015	0,035
-182,315	800,000	0,042	-0,090
-181,300	-15,872	0,021	0,010
-180,285	15,898	-0,044	0,025
-179,271	83,032	0,069	-0,054
-178,256	-20,493	-0,025	0,011
-177,242	-200,000	0,023	0,165
-176,227	-114,882	0,178	0,024
-175,212	-200,000	0,004	-0,066
-174,198	91,693	-0,068	0,055
-173,183	-127,723	-0,175	0,018
-172,169	-79,487	-0,111	-0,027
-171,154	800,000	0,041	0,113
-170,139	-90,957	0,076	-0,016
-169,125	-128,917	-0,032	-0,003
-168,110	185,251	0,080	0,086
-167,096	-91,589	0,028	0,006
-166,081	45,852	-0,097	-0,065
-165,066	-200,000	-0,016	-0,202
-164,052	184,509	0,041	-0,043
-163,037	-111,964	0,036	0,005
-162,023	800,000	0,025	-0,053
-161,008	726,614	-0,017	0,034
-159,993	-200,000	0,034	0,121
-158,979	-200,000	0,006	0,056
-157,964	-110,682	-0,168	-0,025
-156,950	135,923	-0,057	0,054
-155,935	-200,000	0,037	0,000
-154,920	76,894	-0,103	0,079
-153,906	800,000	0,015	0,032
-152,891	-152,004	-0,045	0,002
-151,877	-33,602	-0,189	-0,075
-150,862	-200,000	-0,016	-0,055
-149,847	-200,000	0,007	-0,081
-148,833	168,318	-0,093	-0,095
-147,818	-36,454	0,167	0,065
-146,804	800,000	0,034	-0,090
-145,789	181,143	0,089	0,095
-144,775	-200,000	-0,054	0,198
-143,760	-55,768	0,034	-0,011
-142,745	448,684	-0,071	0,114
-141,731	-200,000	0,030	-0,142
-140,716	-200,000	0,006	-0,085
-139,702	74,524	0,094	0,071
-138,687	374,838	-0,060	0,088
-137,672	-49,971	0,068	0,023
-136,658	40,043	0,015	0,010
-135,643	-141,006	0,090	-0,007
-134,629	-12,388	0,076	-0,036
-133,614	-200,000	0,005	-0,044
-132,599	531,335	-0,053	0,090
-131,585	100,651	0,115	-0,096
-130,570	-75,687	0,084	-0,021
-129,556	118,623	0,045	0,040
-128,541	34,260	0,057	0,036
-127,526	800,000	0,023	-0,068
-126,512	108,937	0,124	0,107
-125,497	170,735	0,071	0,073
-124,483	352,928	0,040	0,057
-123,468	631,391	0,026	0,048
-122,453	-137,350	-0,134	0,011
-121,439	-136,306	-0,055	0,005
-120,424	789,227	-0,015	0,030
-119,410	485,041	-0,054	-0,089
-118,395	-105,815	-0,026	0,004
