DTS Sentinel unit serial number:	SN410029Multiplexer serial number:	ORYXHardware model number:	OX2-SRSoftware version number:	ORYX F/W v4,00 Oryx Data Collector v3.7.2.0data status	okinstallation	B4 Nyhavnadifferential loss correction	single-endedforward channel	channel 2reverse channel	N/Adate	2023/12/15time	22:15:13forward acquisition time	300,00reverse acquisition time	0,00gamma	499,1914k internal	0,3132k external	0,3132temperature offset calibration	1,0000default loss term (dB/km)	0,3820temperature slope calibration	1,0000multiplexer offset coefficient	1,0000multiplexer slope coefficient	1,0000fibre end	0,00T internal ref (°C)	21,27T ext. ref 1 (°C)	6,52T ext. ref 2 (°C)	6,71length (m)	temperature (°C)	Stokes	anti-Stokes-744,400	-180,111	0,016	-0,000
-743,385	-57,031	-0,196	0,064
-742,371	-15,406	-0,147	-0,070
-741,356	-46,881	-0,198	0,071
-740,342	-200,000	0,014	-0,120
-739,327	150,109	-0,107	0,108
-738,312	379,130	0,050	-0,076
-737,298	42,973	-0,220	0,149
-736,283	-112,975	0,035	0,005
-735,269	170,913	-0,183	0,195
-734,254	-200,000	0,006	-0,084
-733,239	-123,203	-0,510	-0,060
-732,225	-20,074	0,150	-0,069
-731,210	391,992	0,047	-0,073
-730,196	204,960	-0,074	-0,085
-729,181	-82,867	0,042	-0,010
-728,167	71,412	-0,042	-0,032
-727,152	-200,000	-0,010	0,036
-726,137	-62,256	-0,183	-0,056
-725,123	106,437	-0,159	-0,140
-724,108	-0,254	-0,079	-0,041
-723,094	-93,302	-0,113	0,023
-722,079	-16,744	-0,119	0,056
-721,064	19,837	0,042	-0,025
-720,050	-147,416	-0,087	0,005
-719,035	-107,936	0,076	-0,012
-718,021	597,229	0,013	-0,023
-717,006	-148,837	0,106	-0,006
-715,991	-96,866	-0,137	-0,026
-714,977	-200,000	0,018	-0,063
-713,962	800,000	0,024	0,053
-712,948	151,947	-0,046	-0,046
-711,933	-200,000	-0,025	0,133
-710,918	146,471	0,025	0,025
-709,904	-58,191	-0,069	-0,022
-708,889	-9,046	0,046	-0,023
-707,875	-163,646	-0,171	-0,006
-706,860	800,000	0,052	-0,145
-705,845	50,186	0,064	0,045
-704,831	-200,000	-0,022	0,117
-703,816	173,062	-0,117	0,126
-702,802	-24,331	-0,124	0,055
-701,787	333,441	0,130	-0,187
-700,772	-108,315	-0,216	-0,034
-699,758	-200,000	0,002	-0,019
-698,743	-200,000	0,004	-0,029
-697,729	135,878	0,105	0,102
-696,714	800,000	-0,055	0,118
-695,699	242,117	-0,059	-0,073
-694,685	698,776	-0,018	-0,036
-693,670	-200,000	-0,002	0,017
-692,656	-48,331	-0,054	0,019
-691,641	-200,000	-0,013	-0,191
-690,627	200,024	0,041	-0,047
-689,612	-200,000	0,023	-0,181
-688,597	-141,617	-0,165	-0,012
-687,583	120,044	0,053	0,049
-686,568	-200,000	0,005	-0,096
-685,554	171,420	-0,065	-0,069
-684,539	-103,750	0,198	-0,034
-683,524	273,114	-0,070	-0,093
-682,510	60,686	0,010	-0,007
-681,495	86,736	-0,032	-0,026
-680,481	410,333	-0,092	-0,145
-679,466	20,444	-0,054	-0,033
-678,451	238,274	-0,115	-0,142
-677,437	800,000	0,048	-0,106
-676,422	590,349	0,054	0,098
-675,408	7,010	-0,068	-0,038
-674,393	800,000	-0,041	-0,127
-673,378	46,367	-0,085	-0,058
-672,364	-118,461	-0,034	-0,004
-671,349	342,683	-0,027	0,039
-670,335	439,911	-0,015	0,025
-669,320	126,553	0,098	0,092
-668,305	359,072	-0,047	0,070
-667,291	119,733	-0,035	0,032
-666,276	-200,000	0,005	0,016
-665,262	-200,000	-0,002	-0,012
-664,247	222,859	-0,025	-0,029
-663,232	153,846	-0,035	-0,036
-662,218	482,264	-0,057	0,096
-661,203	800,000	-0,017	-0,038
-660,189	180,037	0,050	-0,054
-659,174	60,426	-0,154	-0,113
-658,159	12,244	-0,108	-0,062
-657,145	-200,000	0,004	0,017
-656,130	-200,000	0,011	0,040
-655,116	800,000	-0,025	-0,083
-654,101	357,691	0,042	-0,062
-653,086	89,596	-0,050	0,042
-652,072	-200,000	0,004	-0,088
-651,057	-200,000	0,007	-0,080
-650,043	-19,376	-0,106	0,049
-649,028	677,952	-0,017	0,033
-648,014	26,957	-0,065	0,040
-646,999	-145,297	-0,175	0,012
-645,984	-200,000	-0,005	0,034
-644,970	662,909	0,031	-0,060
-643,955	800,000	-0,081	-0,173
-642,941	321,242	0,004	0,005
-641,926	-200,000	-0,014	0,055
-640,911	51,248	-0,113	0,080
-639,897	242,734	0,060	-0,074
-638,882	800,000	0,016	0,035
-637,868	-99,653	-0,119	-0,022
-636,853	161,672	-0,040	0,042
-635,838	596,912	-0,051	-0,094
-634,824	-51,239	0,099	0,034
-633,809	150,238	-0,011	-0,011
-632,795	-200,000	-0,019	0,125
-631,780	332,202	0,118	0,169
-630,765	21,315	0,070	-0,042
-629,751	9,730	-0,063	-0,035
-628,736	64,121	-0,045	-0,034
-627,722	-200,000	-0,036	0,132
-626,707	-131,780	-0,126	-0,012
-625,692	800,000	0,034	-0,074
-624,678	-146,289	0,060	-0,004
-623,663	246,963	-0,035	0,044
-622,649	10,334	-0,146	0,082
-621,634	88,157	0,071	0,058
-620,619	18,874	-0,020	-0,012
-619,605	-61,800	-0,031	-0,009
-618,590	14,844	0,037	0,021
-617,576	-62,217	-0,016	-0,005
-616,561	800,000	0,010	0,024
-615,546	-200,000	0,013	-0,254
-614,532	-200,000	-0,050	-0,202
-613,517	800,000	-0,035	-0,105
-612,503	-144,170	0,059	-0,004
-611,488	-174,887	0,068	-0,001
-610,474	154,055	0,052	-0,053
-609,459	344,517	0,058	0,084
-608,444	277,198	-0,051	0,067
-607,430	-200,000	-0,034	-0,113
-606,415	-135,932	-0,149	0,013
-605,401	-200,000	0,004	-0,055
-604,386	110,141	-0,065	0,057
-603,371	-53,585	0,104	0,035
-602,357	-200,000	0,017	-0,100
-601,342	-102,696	-0,141	-0,025
-600,328	-200,000	0,006	-0,034
-599,313	60,629	-0,084	-0,061
-598,298	140,011	0,107	-0,104
-597,284	129,286	0,082	0,077
-596,269	-200,000	-0,002	-0,035
-595,255	250,495	0,064	-0,080
-594,240	800,000	0,041	0,117
-593,225	411,787	-0,079	-0,124
-592,211	229,853	0,083	-0,100
-591,196	194,304	0,039	-0,044
-590,182	-0,504	0,023	-0,012
-589,167	1,559	-0,092	0,049
-588,152	-188,408	-0,124	-0,001
-587,138	22,512	-0,084	-0,050
-586,123	-54,586	-0,107	-0,036
-585,109	-150,186	-0,019	-0,001
-584,094	-200,000	0,026	-0,144
-583,079	-200,000	0,022	0,100
-582,065	-200,000	-0,002	0,104
-581,050	-95,281	0,049	0,010
-580,036	800,000	0,021	0,055
-579,021	624,133	-0,026	-0,049
-578,006	-74,945	-0,052	0,014
-576,992	-27,747	0,049	-0,021
-575,977	37,992	0,151	0,099
-574,963	-200,000	-0,002	-0,024
-573,948	-200,000	-0,033	0,121
-572,934	-2,595	-0,086	0,044
-571,919	800,000	0,028	0,062
-570,904	800,000	-0,024	-0,063
-569,890	101,127	0,092	-0,079
-568,875	285,572	-0,068	-0,091
-567,861	173,692	0,043	-0,045
-566,846	-60,180	0,088	-0,028
-565,831	136,740	-0,061	0,059
-564,817	-29,063	-0,103	0,044
-563,802	-140,359	0,093	-0,007
-562,788	-200,000	-0,012	0,068
-561,773	75,623	-0,036	-0,028
-560,758	-200,000	-0,012	-0,049
-559,744	-27,427	-0,124	0,053
-558,729	386,893	-0,105	0,161
-557,715	147,589	-0,067	0,067
-556,700	-122,375	0,117	0,014
-555,685	66,270	-0,125	-0,094
-554,671	-200,000	0,030	-0,099
-553,656	-20,526	0,053	-0,024
-552,642	96,665	0,077	0,065
-551,627	800,000	0,033	-0,103
-550,612	800,000	0,015	-0,042
-549,598	-200,000	0,015	-0,110
-548,583	800,000	-0,023	-0,050
-547,569	47,833	-0,053	-0,037
-546,554	-200,000	0,008	0,119
-545,539	154,913	-0,042	0,043
-544,525	-200,000	-0,002	-0,036
-543,510	52,088	0,020	0,014
-542,496	-200,000	0,004	-0,106
-541,481	594,136	0,070	-0,128
-540,466	-52,526	-0,072	-0,024
-539,452	-58,324	0,154	0,049
-538,437	-112,073	0,131	0,019
-537,423	-19,676	-0,095	-0,043
-536,408	290,679	0,046	0,062
-535,393	791,557	-0,042	-0,086
-534,379	-166,281	-0,057	0,002
-533,364	289,474	0,059	-0,079
-532,350	28,029	0,103	-0,064
-531,335	-73,819	0,017	-0,005
-530,321	-200,000	-0,004	0,047
-529,306	-200,000	-0,014	-0,069
-528,291	115,522	0,079	0,071
-527,277	-95,985	-0,095	-0,018
-526,262	232,285	-0,038	0,046
-525,248	115,158	-0,010	-0,009
-524,233	-121,132	0,033	-0,004
-523,218	800,000	0,092	0,228
-522,204	143,378	-0,036	0,035
-521,189	-2,652	-0,096	-0,049
-520,175	277,905	0,085	0,112
-519,160	800,000	-0,070	0,157
-518,145	800,000	-0,032	0,099
-517,131	18,444	0,021	-0,013
-516,116	15,685	0,031	-0,018
-515,102	-124,492	0,067	-0,008
-514,087	456,308	-0,060	-0,098
-513,072	325,400	-0,118	-0,166
-512,058	-54,105	0,039	-0,013
-511,043	-17,587	0,059	-0,027
-510,029	-53,148	0,044	-0,015
-509,014	-200,000	0,008	0,043
-507,999	800,000	0,039	-0,101
-506,985	34,135	-0,027	0,018
-505,970	-111,640	0,015	-0,002
-504,956	616,435	-0,089	-0,165
-503,941	32,693	-0,101	-0,064
-502,926	-55,057	-0,165	-0,054
-501,912	-200,000	-0,003	-0,091
-500,897	-75,959	-0,036	-0,009
-499,883	800,000	-0,042	-0,101
-498,868	-200,000	0,015	-0,057
-497,853	170,345	0,132	-0,139
-496,839	-49,957	0,082	-0,029
-495,824	-200,000	-0,046	0,160
-494,810	-200,000	-0,011	-0,061
-493,795	-12,939	0,070	0,033
-492,781	343,779	0,028	0,041
-491,766	283,720	0,042	-0,056
-490,751	328,822	-0,108	-0,154
-489,737	-200,000	-0,003	-0,055
-488,722	45,862	0,033	0,023
-487,708	-200,000	-0,035	0,121
-486,693	146,092	-0,064	0,064
-485,678	250,700	0,032	-0,041
-484,664	387,938	0,027	-0,041
-483,649	4,295	-0,194	-0,104
-482,635	-200,000	0,001	-0,095
-481,620	-64,711	0,041	0,012
-480,605	181,699	0,035	-0,038
-479,591	204,733	-0,054	0,061
-478,576	-200,000	-0,016	-0,103
-477,562	800,000	0,007	-0,020
-476,547	-200,000	-0,003	-0,144
-475,532	-30,278	-0,065	-0,027
-474,518	117,093	-0,051	-0,046
-473,503	-56,815	-0,049	0,016
-472,489	800,000	-0,020	0,049
-471,474	-177,042	0,065	-0,001
-470,459	464,486	-0,028	-0,047
-469,445	800,000	0,070	-0,173
-468,430	230,679	0,051	-0,062
-467,416	-44,097	0,195	0,072
-466,401	96,242	0,102	0,086
-465,386	-200,000	-0,002	0,017
-464,372	-200,000	-0,014	0,064
-463,357	-200,000	-0,024	-0,138
-462,343	800,000	-0,059	-0,144
-461,328	31,573	0,057	-0,036
-460,313	-50,341	-0,057	-0,020
-459,299	395,601	0,026	-0,039
-458,284	-26,067	0,080	0,034
-457,270	-138,653	-0,098	-0,008
-456,255	-49,493	0,105	-0,037
-455,241	-200,000	0,002	-0,067
-454,226	281,939	-0,079	0,105
-453,211	-71,777	0,016	0,004
-452,197	87,147	0,042	-0,034
-451,182	42,007	-0,042	-0,028
-450,168	800,000	0,080	0,182
-449,153	-84,028	-0,016	-0,004
-448,138	-200,000	0,002	0,053
-447,124	59,070	0,037	0,027
-446,109	800,000	-0,008	0,021
-445,095	693,635	0,023	-0,044
-444,080	16,306	0,014	-0,008
-443,065	73,876	-0,032	-0,025
-442,051	265,347	0,033	-0,042
-441,036	-43,458	0,018	-0,007
-440,022	-68,802	-0,101	0,029
-439,007	19,382	0,054	0,032
-437,992	59,165	0,008	-0,006
-436,978	219,541	-0,094	0,111
-435,963	-47,255	-0,093	0,033
-434,949	-200,000	0,024	-0,081
-433,934	-179,100	-0,173	0,003
-432,919	33,450	0,075	0,048
-431,905	800,000	0,056	0,143
-430,890	-89,752	0,059	0,013
-429,876	5,063	0,021	0,011
-428,861	800,000	0,036	0,095
-427,846	-200,000	-0,001	0,060
-426,832	62,369	-0,102	0,074
-425,817	191,506	0,029	-0,033
-424,803	-200,000	0,010	-0,095
-423,788	4,368	0,010	-0,005
-422,773	87,959	-0,126	-0,103
-421,759	800,000	0,035	0,087
-420,744	113,924	0,050	0,044
-419,730	-200,000	-0,023	0,096
-418,715	419,592	0,050	-0,079
-417,701	32,586	-0,077	-0,049
-416,686	69,333	0,098	-0,074
-415,671	27,366	-0,076	0,047
-414,657	-29,508	0,029	-0,012
-413,642	56,023	0,052	0,037
-412,628	-200,000	-0,002	0,010
-411,613	-67,205	-0,078	-0,022
-410,598	-75,184	-0,174	-0,045
-409,584	63,525	-0,090	-0,066
-408,569	-0,173	0,055	0,029
-407,555	122,378	0,036	-0,033
-406,540	46,701	0,058	-0,040
-405,525	-200,000	-0,016	-0,119
-404,511	800,000	-0,008	0,024
-403,496	119,402	-0,027	-0,024
-402,482	-200,000	0,028	-0,144
-401,467	326,655	-0,134	0,189
-400,452	511,816	-0,072	0,124
-399,438	-200,000	0,009	0,063
-398,423	-200,000	-0,054	0,211
-397,409	-158,349	-0,033	0,001
-396,394	-38,324	0,110	-0,043
-395,379	800,000	0,030	0,077
-394,365	-200,000	0,002	0,018
-393,350	-62,038	0,093	-0,028
-392,336	12,721	-0,035	-0,020
-391,321	22,507	0,048	0,029
-390,306	-89,021	-0,165	-0,036
-389,292	-129,804	-0,128	0,013
-388,277	21,830	0,122	-0,073
-387,263	-200,000	0,023	0,130
-386,248	-21,290	-0,029	0,013
-385,233	-114,791	-0,059	0,008
-384,219	-53,790	0,054	-0,018
-383,204	-85,881	0,046	0,010
-382,190	278,108	0,090	-0,118
-381,175	-200,000	0,023	0,136
-380,160	34,321	0,027	-0,017
-379,146	-200,000	-0,014	0,165
-378,131	10,481	-0,080	0,045
-377,117	-200,000	0,012	0,120
-376,102	-200,000	0,009	0,036
-375,088	58,136	-0,024	0,017
-374,073	-200,000	0,011	0,054
-373,058	-31,139	0,080	-0,033
-372,044	575,542	0,070	0,126
-371,029	680,776	0,023	-0,044
-370,015	107,653	0,052	0,045
-369,000	57,490	0,073	-0,052
-367,985	35,638	0,041	-0,027
-366,971	714,865	0,043	0,084
-365,956	-200,000	-0,006	0,054
-364,942	-71,367	-0,129	-0,035
-363,927	-200,000	-0,013	0,190
-362,912	-14,316	-0,100	-0,047
-361,898	60,157	-0,076	0,055
-360,883	-200,000	0,037	-0,129
-359,869	-152,363	-0,048	0,003
-358,854	-66,059	0,120	-0,035
-357,839	-200,000	0,037	0,129
-356,825	-200,000	0,023	0,115
-355,810	-15,877	-0,037	-0,017
-354,796	800,000	-0,041	0,133
-353,781	52,061	0,055	-0,039
-352,766	52,042	-0,118	-0,082
-351,752	12,170	-0,143	-0,081
-350,737	297,077	-0,028	0,037
-349,723	-166,811	0,058	-0,002
-348,708	-200,000	-0,000	0,041
-347,693	-92,243	-0,124	-0,025
-346,679	-4,749	0,130	-0,065
-345,664	-62,803	0,085	-0,026
-344,650	-94,230	0,122	0,024
-343,635	65,894	0,100	0,074
-342,620	5,917	0,073	-0,040
-341,606	229,601	0,025	0,030
-340,591	223,423	-0,088	-0,104
-339,577	-62,275	-0,157	-0,047
-338,562	800,000	0,037	0,111
-337,548	-106,465	0,104	-0,017
-336,533	89,293	-0,056	0,046
-335,518	-14,162	-0,045	0,021
-334,504	-128,024	0,086	0,009
-333,489	76,043	0,100	0,078
-332,475	-29,141	-0,012	-0,005
-331,460	518,136	0,041	0,070
-330,445	800,000	0,049	-0,124
-329,431	425,405	-0,064	0,101
-328,416	55,870	0,183	0,130
-327,402	-100,114	0,112	0,020
-326,387	-200,000	-0,002	0,066
-325,372	51,239	-0,061	-0,043
-324,358	-200,000	0,010	-0,087
-323,343	-184,493	0,110	-0,001
-322,329	260,598	0,066	-0,084
-321,314	352,822	0,028	0,041
-320,299	800,000	0,053	-0,155
-319,285	-200,000	0,011	-0,042
-318,270	87,356	-0,026	-0,021
-317,256	-200,000	0,028	-0,122
-316,241	298,587	-0,047	-0,063
-315,226	-200,000	-0,041	0,280
-314,212	-100,714	0,105	0,019
-313,197	-200,000	0,019	0,079
-312,183	-121,817	-0,117	-0,014
-311,168	-51,452	-0,105	-0,036
-310,153	800,000	-0,028	-0,069
-309,139	103,981	0,071	0,061
-308,124	-8,136	0,050	0,024
-307,110	321,185	0,066	-0,092
-306,095	-200,000	-0,028	0,141
-305,080	770,285	0,075	0,150
-304,066	-200,000	0,010	-0,085
-303,051	-146,867	-0,086	0,005
-302,037	115,165	-0,060	-0,053
-301,022	-200,000	-0,003	-0,092
-300,008	-59,537	-0,055	-0,017
-298,993	-200,000	0,021	0,087
-297,978	66,403	0,094	0,070
-296,964	-200,000	-0,002	0,129
-295,949	-200,000	0,002	0,020
-294,935	-25,691	-0,068	-0,029
-293,920	101,276	-0,053	0,045
-292,905	800,000	0,055	-0,167
-291,891	178,680	0,110	0,118
-290,876	624,286	-0,022	0,041
-289,862	-200,000	-0,009	-0,051
-288,847	-200,000	0,015	-0,065
-287,832	5,946	-0,019	0,010
-286,818	-200,000	0,021	-0,115
-285,803	800,000	0,032	0,075
-284,789	-200,000	0,014	0,045
-283,774	59,099	0,023	-0,017
-282,759	-81,759	-0,011	-0,003
-281,745	367,701	-0,029	-0,043
-280,730	800,000	-0,068	-0,144
-279,716	-24,302	0,092	-0,040
-278,701	-141,982	0,058	0,004
-277,686	-63,206	-0,182	-0,054
-276,672	82,347	-0,058	-0,046
-275,657	-200,000	-0,016	-0,093
-274,643	-45,821	-0,095	-0,034
-273,628	-101,914	0,088	0,015
-272,613	102,810	-0,076	-0,065
-271,599	34,767	0,092	0,059
-270,584	800,000	0,074	0,152
-269,570	-39,496	0,098	0,037
-268,555	10,925	-0,046	-0,025
-267,540	73,353	0,048	0,036
-266,526	-17,627	-0,140	-0,064
-265,511	31,078	0,079	-0,049
-264,497	-61,721	-0,031	0,010
-263,482	-200,000	0,016	-0,143
-262,467	-200,000	0,022	0,135
-261,453	-200,000	-0,021	-0,086
-260,438	-200,000	-0,001	-0,038
-259,424	146,847	0,010	-0,010
-258,409	106,377	0,049	0,042
-257,395	-51,037	-0,047	-0,016
-256,380	-200,000	-0,023	-0,156
-255,365	355,527	0,024	-0,035
-254,351	-16,526	0,060	0,028
-253,336	-4,595	-0,101	0,051
-252,322	168,997	0,070	0,072
-251,307	-14,284	-0,086	0,040
-250,292	-200,000	0,023	0,175
-249,278	-40,631	-0,088	0,033
-248,263	-49,637	0,052	0,018
-247,249	-197,972	0,060	-0,000
-246,234	381,022	-0,044	0,065
-245,219	-108,481	-0,035	0,005
-244,205	-118,456	-0,111	-0,014
-243,190	444,769	0,090	-0,145
-242,176	68,572	-0,043	0,032
-241,161	800,000	0,035	0,088
-240,146	70,882	0,043	0,032
-239,132	-200,000	-0,003	-0,124
-238,117	10,377	-0,037	-0,020
-237,103	286,652	-0,058	-0,076
-236,088	-200,000	0,020	-0,178
-235,073	135,411	0,062	-0,059
-234,059	-84,464	0,019	-0,004
-233,044	-13,213	0,071	-0,033
-232,030	-185,627	-0,048	-0,001
-231,015	282,469	0,014	-0,019
-230,000	664,933	0,048	0,091
-228,986	235,438	0,063	0,076
-227,971	-9,677	-0,072	-0,035
-226,957	46,147	0,067	0,045
-225,942	14,122	-0,090	0,051
-224,927	-200,000	0,011	0,052
-223,913	-200,000	0,013	-0,048
-222,898	90,806	-0,069	-0,056
-221,884	-200,000	0,005	-0,082
-220,869	-2,466	0,098	-0,050
-219,855	-200,000	-0,026	-0,124
-218,840	800,000	-0,075	0,170
-217,825	800,000	-0,018	0,037
-216,811	-4,286	-0,042	-0,021
-215,796	12,984	0,014	0,008
-214,782	-200,000	-0,025	-0,100
-213,767	113,574	0,075	0,066
-212,752	-108,572	0,143	-0,022
-211,738	607,340	-0,059	-0,107
-210,723	-73,382	-0,019	0,005
-209,709	64,974	-0,014	0,010
-208,694	800,000	-0,060	0,160
-207,679	-113,394	0,100	0,014
-206,665	210,665	-0,023	-0,027
-205,650	55,856	-0,047	0,033
-204,636	125,854	0,154	0,142
-203,621	800,000	0,051	0,107
-202,606	-200,000	-0,014	-0,044
-201,592	168,263	-0,048	-0,050
-200,577	-106,146	0,092	-0,015
-199,563	199,222	0,115	0,129
-198,548	606,004	0,004	0,007
-197,533	544,589	0,060	0,105
-196,519	-200,000	0,038	0,145
-195,504	122,193	-0,132	-0,120
-194,490	800,000	-0,052	-0,127
-193,475	-82,536	-0,029	-0,007
-192,460	154,486	-0,070	0,070
-191,446	-200,000	-0,022	0,173
-190,431	23,172	0,129	0,077
-189,417	-200,000	-0,001	0,101
-188,402	242,617	-0,079	0,097
-187,387	99,635	-0,021	0,018
-186,373	-200,000	0,005	-0,088
-185,358	255,536	0,060	0,075
-184,344	148,861	0,029	0,029
-183,329	115,716	-0,074	0,066
-182,315	30,672	-0,014	0,009
-181,300	-200,000	0,003	0,039
-180,285	-164,027	-0,132	-0,004
-179,271	800,000	-0,028	-0,083
-178,256	-200,000	-0,017	0,057
-177,242	-200,000	-0,001	0,014
-176,227	-110,367	-0,107	-0,016
-175,212	-11,499	0,081	0,038
-174,198	429,057	0,120	0,189
-173,183	508,353	0,019	0,033
-172,169	800,000	0,021	-0,050
-171,154	482,413	0,025	-0,042
-170,139	-69,122	-0,041	0,012
-169,125	-99,415	-0,030	0,006
-168,110	-131,953	0,125	-0,012
-167,096	-200,000	0,002	0,085
-166,081	800,000	-0,025	0,063
-165,066	70,058	-0,021	-0,016
-164,052	9,735	0,044	-0,024
-163,037	44,274	-0,037	0,025
-162,023	-93,956	0,109	0,022
-161,008	126,134	-0,072	0,066
-159,993	535,530	-0,067	0,117
-158,979	800,000	-0,033	-0,094
-157,964	161,138	0,121	-0,123
-156,950	39,967	0,021	0,014
-155,935	49,803	0,023	0,016
-154,920	800,000	0,069	-0,140
-153,906	-200,000	-0,027	-0,094
-152,891	-67,841	0,046	0,013
-151,877	-200,000	0,010	0,105
-150,862	-200,000	-0,043	-0,147
-149,847	192,652	-0,086	-0,095
-148,833	191,458	-0,111	-0,121
-147,818	-200,000	-0,029	0,108
-146,804	-200,000	-0,000	-0,029
-145,789	-200,000	0,012	-0,066
-144,775	-200,000	-0,020	-0,095
-143,760	400,127	-0,100	-0,153
-142,745	800,000	-0,043	-0,138
-141,731	-34,683	0,080	0,031
-140,716	-19,993	-0,072	0,032
-139,702	81,385	0,086	0,067
-138,687	800,000	0,067	0,185
-137,672	59,037	-0,021	-0,015
-136,658	-200,000	0,007	-0,095
-135,643	-200,000	-0,009	0,041
-134,629	673,457	0,010	0,019
-133,614	-200,000	-0,005	0,103
-132,599	182,618	-0,125	0,134
-131,585	62,486	-0,101	-0,073
-130,570	-65,364	0,028	0,008
-129,556	24,616	0,025	0,015
-128,541	700,494	-0,030	0,057
-127,526	-200,000	-0,003	0,085
-126,512	800,000	0,058	0,144
-125,497	-64,925	0,140	0,041
-124,483	-74,124	-0,131	0,034
-123,468	-45,131	0,127	0,046
-122,453	-200,000	0,008	0,097
-121,439	123,461	-0,106	-0,097
-120,424	-165,142	0,082	-0,003
-119,410	43,008	-0,080	0,053
