DTS Sentinel unit serial number:	SN410029Multiplexer serial number:	ORYXHardware model number:	OX2-SRSoftware version number:	ORYX F/W v4,00 Oryx Data Collector v3.7.2.0data status	okinstallation	B4 Nyhavnadifferential loss correction	single-endedforward channel	channel 2reverse channel	N/Adate	2023/12/19time	04:25:13forward acquisition time	300,00reverse acquisition time	0,00gamma	499,1914k internal	0,3127k external	0,3127temperature offset calibration	1,0000default loss term (dB/km)	0,3820temperature slope calibration	1,0000multiplexer offset coefficient	1,0000multiplexer slope coefficient	1,0000fibre end	0,00T internal ref (°C)	20,93T ext. ref 1 (°C)	6,17T ext. ref 2 (°C)	6,31length (m)	temperature (°C)	Stokes	anti-Stokes-744,400	457,242	0,068	-0,113
-743,385	22,206	-0,249	0,151
-742,371	-125,539	0,130	0,014
-741,356	88,549	-0,077	0,064
-740,342	141,249	0,102	-0,100
-739,327	-5,787	-0,173	0,088
-738,312	800,000	-0,019	-0,046
-737,298	-166,961	-0,254	0,008
-736,283	-88,373	0,133	0,029
-735,269	83,117	-0,168	0,136
-734,254	169,870	-0,068	0,072
-733,239	-174,570	-0,459	0,010
-732,225	101,977	0,074	-0,065
-731,210	-200,000	0,009	0,080
-730,196	-200,000	-0,006	-0,079
-729,181	331,835	-0,090	-0,129
-728,167	-200,000	-0,003	0,071
-727,152	84,393	-0,096	0,078
-726,137	88,535	-0,068	-0,056
-725,123	-200,000	-0,003	-0,029
-724,108	-200,000	0,013	0,048
-723,094	-200,000	-0,047	-0,182
-722,079	800,000	-0,065	-0,161
-721,064	-200,000	-0,046	-0,158
-720,050	247,866	-0,108	0,136
-719,035	42,383	0,134	-0,090
-718,021	-83,596	-0,072	-0,017
-717,006	9,001	-0,077	0,043
-715,991	-70,359	-0,103	0,029
-714,977	-200,000	0,014	-0,119
-713,962	228,249	-0,090	-0,109
-712,948	196,477	0,086	-0,098
-711,933	-200,000	-0,022	-0,087
-710,918	-111,574	-0,113	-0,017
-709,904	135,488	0,056	-0,054
-708,889	-67,128	-0,049	-0,014
-707,875	268,880	-0,046	0,060
-706,860	566,408	-0,022	0,040
-705,845	-200,000	0,013	-0,046
-704,831	69,787	-0,128	0,098
-703,816	406,242	-0,091	-0,144
-702,802	581,816	0,012	0,022
-701,787	140,504	0,052	-0,051
-700,772	-174,982	-0,086	0,002
-699,758	-57,922	-0,105	0,034
-698,743	-30,245	-0,103	0,043
-697,729	800,000	0,035	0,112
-696,714	8,521	0,009	-0,005
-695,699	-200,000	0,016	0,087
-694,685	-200,000	0,000	-0,091
-693,670	28,724	-0,054	-0,034
-692,656	-200,000	0,015	0,062
-691,641	-165,467	0,125	-0,004
-690,627	107,474	-0,092	0,082
-689,612	-200,000	0,025	0,181
-688,597	80,511	-0,057	-0,046
-687,583	225,989	0,069	-0,083
-686,568	147,898	-0,052	-0,052
-685,554	132,070	-0,081	0,078
-684,539	2,785	0,149	0,080
-683,524	-81,584	-0,126	-0,031
-682,510	183,044	-0,051	-0,056
-681,495	-165,838	-0,127	-0,004
-680,481	305,754	-0,050	-0,069
-679,466	160,076	-0,044	0,046
-678,451	-200,000	0,020	0,093
-677,437	159,566	-0,054	-0,056
-676,422	24,076	0,039	-0,024
-675,408	-4,763	0,145	-0,074
-674,393	-115,344	-0,126	-0,017
-673,378	-141,225	-0,145	-0,011
-672,364	14,252	0,148	-0,086
-671,349	87,757	-0,105	0,087
-670,335	-0,374	0,059	-0,031
-669,320	302,517	0,024	0,033
-668,305	-200,000	0,017	-0,067
-667,291	58,739	-0,123	-0,090
-666,276	101,795	-0,064	-0,056
-665,262	-41,598	-0,078	-0,030
-664,247	-12,214	0,073	-0,035
-663,232	21,735	-0,169	0,102
-662,218	-136,048	0,013	0,001
-661,203	231,433	-0,107	-0,130
-660,189	11,434	0,110	0,062
-659,174	319,819	0,010	-0,015
-658,159	-200,000	-0,027	-0,109
-657,145	-200,000	0,002	-0,086
-656,130	32,373	0,122	-0,078
-655,116	-200,000	-0,012	-0,056
-654,101	-79,946	-0,136	0,034
-653,086	792,700	-0,010	-0,020
-652,072	49,788	-0,059	0,041
-651,057	800,000	-0,033	-0,096
-650,043	6,242	-0,076	0,042
-649,028	8,089	0,069	-0,038
-648,014	-200,000	-0,009	0,114
-646,999	-200,000	-0,001	-0,076
-645,984	324,196	-0,040	0,057
-644,970	-200,000	0,013	-0,163
-643,955	617,769	0,054	-0,101
-642,941	800,000	-0,030	-0,078
-641,926	430,514	-0,008	-0,012
-640,911	2,146	0,037	-0,020
-639,897	-121,767	-0,068	-0,008
-638,882	800,000	-0,086	0,224
-637,868	-123,807	-0,049	0,006
-636,853	-200,000	0,025	-0,099
-635,838	-200,000	0,030	-0,169
-634,824	800,000	-0,061	-0,127
-633,809	19,060	0,102	0,061
-632,795	156,921	0,059	0,060
-631,780	-55,380	0,085	-0,028
-630,765	162,329	-0,104	0,108
-629,751	-153,428	-0,110	-0,006
-628,736	-151,026	-0,069	0,004
-627,722	-200,000	0,001	0,059
-626,707	-200,000	0,005	0,064
-625,692	-84,301	0,157	-0,037
-624,678	101,403	0,114	0,099
-623,663	134,083	-0,066	0,064
-622,649	-143,605	-0,071	-0,005
-621,634	59,689	0,107	-0,078
-620,619	430,602	-0,098	0,158
-619,605	-174,936	-0,055	0,001
-618,590	202,001	0,025	0,028
-617,576	83,422	0,063	0,051
-616,561	800,000	0,010	0,021
-615,546	58,155	-0,047	0,034
-614,532	34,325	-0,064	0,041
-613,517	-200,000	0,003	0,033
-612,503	-173,364	0,129	0,003
-611,488	-117,289	-0,040	-0,005
-610,474	-94,223	0,017	0,003
-609,459	50,094	0,052	0,036
-608,444	-173,123	-0,103	0,002
-607,430	-200,000	0,040	-0,190
-606,415	-200,000	0,015	-0,082
-605,401	-200,000	0,013	-0,080
-604,386	749,228	0,022	0,044
-603,371	33,001	0,053	0,034
-602,357	-125,767	-0,093	0,010
-601,342	-73,041	0,085	0,023
-600,328	34,050	-0,002	0,001
-599,313	-200,000	-0,017	-0,093
-598,298	800,000	0,036	-0,097
-597,284	-200,000	0,010	0,102
-596,269	-200,000	-0,003	0,129
-595,255	210,465	-0,045	-0,052
-594,240	490,524	0,066	-0,112
-593,225	-200,000	-0,002	-0,037
-592,211	133,289	0,102	-0,098
-591,196	-28,196	0,152	-0,065
-590,182	800,000	-0,025	-0,052
-589,167	800,000	-0,052	0,128
-588,152	800,000	-0,028	0,059
-587,138	-154,676	0,129	-0,006
-586,123	-132,186	0,154	-0,015
-585,109	36,470	-0,124	-0,081
-584,094	-71,339	-0,092	-0,025
-583,079	-4,474	0,040	-0,020
-582,065	800,000	0,054	0,116
-581,050	-200,000	0,017	0,140
-580,036	188,624	0,014	0,015
-579,021	-82,514	-0,040	0,010
-578,006	488,627	0,063	0,106
-576,992	-30,454	-0,039	0,016
-575,977	800,000	-0,009	0,022
-574,963	175,984	0,026	-0,028
-573,948	198,971	0,018	0,021
-572,934	-159,703	-0,094	-0,004
-571,919	693,104	-0,044	-0,086
-570,904	-73,647	-0,106	-0,028
-569,890	800,000	-0,011	-0,035
-568,875	-78,845	-0,094	0,023
-567,861	-200,000	0,013	-0,066
-566,846	-200,000	0,002	0,253
-565,831	-200,000	-0,006	0,061
-564,817	521,771	-0,046	0,080
-563,802	800,000	0,023	-0,074
-562,788	57,496	-0,044	-0,032
-561,773	-200,000	0,002	0,122
-560,758	-200,000	0,006	0,053
-559,744	612,139	-0,074	0,137
-558,729	-200,000	-0,004	0,092
-557,715	507,204	0,088	-0,152
-556,700	-200,000	0,015	-0,176
-555,685	800,000	0,033	0,079
-554,671	-131,663	-0,057	0,005
-553,656	800,000	0,048	-0,107
-552,642	-97,161	0,085	0,016
-551,627	-48,038	0,080	-0,028
-550,612	-179,741	-0,054	-0,001
-549,598	474,008	-0,075	-0,125
-548,583	800,000	-0,029	-0,069
-547,569	-73,296	-0,138	0,037
-546,554	244,091	0,082	0,102
-545,539	-200,000	-0,026	0,113
-544,525	132,031	0,071	-0,067
-543,510	800,000	-0,012	-0,029
-542,496	-200,000	0,015	0,084
-541,481	-57,846	-0,050	-0,016
-540,466	-200,000	0,006	-0,056
-539,452	-148,739	-0,054	-0,003
-538,437	-23,221	-0,056	-0,025
-537,423	800,000	-0,067	0,151
-536,408	275,624	0,040	-0,052
-535,393	-142,865	0,054	0,004
-534,379	800,000	-0,047	-0,098
-533,364	-200,000	0,020	-0,082
-532,350	-200,000	0,000	-0,032
-531,335	800,000	0,018	-0,048
-530,321	218,575	0,057	-0,068
-529,306	126,760	-0,039	0,037
-528,291	-125,045	-0,035	0,004
-527,277	-113,263	-0,021	0,003
-526,262	405,587	-0,040	0,063
-525,248	-200,000	0,006	0,080
-524,233	151,912	0,088	0,089
-523,218	-200,000	-0,030	0,102
-522,204	-68,908	-0,134	0,038
-521,189	-13,358	-0,019	0,009
-520,175	-161,294	-0,107	0,004
-519,160	-200,000	0,010	-0,062
-518,145	-200,000	0,006	-0,031
-517,131	-72,322	-0,051	-0,014
-516,116	-120,982	-0,118	0,014
-515,102	-47,030	-0,128	-0,046
-514,087	93,140	-0,078	-0,065
-513,072	-200,000	0,053	-0,190
-512,058	-200,000	-0,030	-0,177
-511,043	-200,000	0,012	-0,058
-510,029	800,000	0,057	0,180
-509,014	-5,462	0,058	0,029
-507,999	255,067	-0,052	0,066
-506,985	163,394	0,033	0,035
-505,970	-124,894	-0,173	0,019
-504,956	461,093	0,013	-0,021
-503,941	80,978	0,039	0,031
-502,926	11,479	0,075	-0,043
-501,912	-200,000	-0,003	0,070
-500,897	-200,000	0,017	-0,057
-499,883	-200,000	0,009	0,043
-498,868	-160,466	-0,253	-0,010
-497,853	259,597	-0,061	-0,077
-496,839	-102,392	0,037	0,006
-495,824	-31,766	-0,094	-0,039
-494,810	-200,000	-0,001	0,003
-493,795	-130,618	0,034	-0,003
-492,781	206,383	0,044	-0,050
-491,766	800,000	0,021	-0,056
-490,751	614,320	-0,078	-0,144
-489,737	-94,093	-0,005	-0,001
-488,722	18,646	0,102	0,060
-487,708	556,357	-0,069	0,123
-486,693	-124,254	-0,110	0,013
-485,678	-200,000	-0,007	-0,030
-484,664	-6,456	0,085	-0,042
-483,649	653,244	-0,078	0,148
-482,635	-200,000	-0,014	0,071
-481,620	-53,561	0,049	0,017
-480,605	517,090	-0,024	-0,042
-479,591	469,063	-0,038	0,063
-478,576	-57,919	-0,072	0,023
-477,562	224,101	-0,114	-0,136
-476,547	10,816	0,058	-0,032
-475,532	-200,000	0,013	0,050
-474,518	-200,000	-0,019	0,150
-473,503	-35,891	-0,080	0,032
-472,489	-200,000	-0,002	0,018
-471,474	800,000	0,058	-0,154
-470,459	-67,616	0,100	-0,029
-469,445	151,495	0,065	-0,066
-468,430	800,000	-0,030	-0,068
-467,416	21,445	0,024	0,014
-466,401	-200,000	0,017	0,090
-465,386	-200,000	-0,016	0,172
-464,372	697,317	-0,052	0,101
-463,357	-43,934	-0,044	0,016
-462,343	46,822	0,114	-0,078
-461,328	113,211	0,096	-0,085
-460,313	281,827	-0,050	-0,066
-459,299	-125,580	0,168	0,018
-458,284	40,679	0,054	0,036
-457,270	-113,140	-0,047	0,007
-456,255	108,134	0,039	-0,034
-455,241	-200,000	0,016	-0,067
-454,226	377,273	-0,042	0,063
-453,211	-60,578	0,021	-0,006
-452,197	-0,752	0,035	-0,018
-451,182	177,276	0,093	0,100
-450,168	417,602	-0,052	-0,082
-449,153	128,572	-0,103	-0,096
-448,138	316,890	0,076	-0,106
-447,124	-200,000	0,008	-0,063
-446,109	393,503	-0,076	-0,117
-445,095	8,797	0,039	0,021
-444,080	-200,000	-0,001	0,059
-443,065	-47,513	-0,067	0,024
-442,051	246,938	-0,032	0,040
-441,036	-200,000	-0,014	-0,170
-440,022	76,211	-0,108	-0,084
-439,007	-100,488	0,106	0,019
-437,992	800,000	-0,028	-0,085
-436,978	800,000	0,063	0,164
-435,963	489,707	0,062	0,105
-434,949	-66,673	-0,112	0,033
-433,934	476,884	0,014	-0,024
-432,919	202,305	-0,019	-0,022
-431,905	-200,000	0,027	-0,121
-430,890	800,000	0,072	0,182
-429,876	473,398	-0,020	-0,033
-428,861	-162,696	0,054	-0,002
-427,846	800,000	0,029	-0,078
-426,832	684,832	-0,076	-0,147
-425,817	-200,000	0,008	-0,110
-424,803	-200,000	0,010	0,110
-423,788	23,976	-0,083	0,050
-422,773	0,099	-0,101	-0,053
-421,759	-165,411	-0,054	-0,002
-420,744	-200,000	-0,012	0,077
-419,730	34,772	-0,044	0,028
-418,715	800,000	-0,023	0,059
-417,701	800,000	-0,037	-0,083
-416,686	-200,000	0,027	-0,095
-415,671	800,000	0,031	0,071
-414,657	571,054	-0,018	-0,033
-413,642	65,540	-0,039	0,029
-412,628	-200,000	-0,011	-0,113
-411,613	-43,055	-0,150	0,056
-410,598	41,183	0,114	-0,075
-409,584	5,883	-0,149	-0,081
-408,569	263,167	0,040	0,051
-407,555	-161,890	0,076	-0,003
-406,540	-64,017	0,065	-0,019
-405,525	226,855	-0,031	-0,037
-404,511	250,887	-0,055	-0,068
-403,496	-200,000	-0,006	0,022
-402,482	177,037	0,059	-0,063
-401,467	22,553	0,139	0,083
-400,452	-200,000	0,044	0,147
-399,438	45,101	-0,136	0,092
-398,423	431,549	0,035	-0,055
-397,409	-35,837	-0,027	-0,011
-396,394	70,397	0,022	0,017
-395,379	-200,000	0,045	0,169
-394,365	-36,169	0,113	0,045
-393,350	47,773	0,197	0,135
-392,336	-89,448	0,122	-0,026
-391,321	-142,867	0,062	0,004
-390,306	158,015	-0,168	-0,171
-389,292	800,000	-0,048	-0,155
-388,277	-57,577	0,119	-0,038
-387,263	-111,557	0,087	-0,013
-386,248	-147,153	-0,053	0,003
-385,233	800,000	-0,036	0,077
-384,219	-16,548	-0,041	-0,019
-383,204	-100,315	-0,077	0,014
-382,190	-43,222	-0,030	0,011
-381,175	-45,266	0,139	-0,050
-380,160	159,989	-0,055	-0,057
-379,146	19,418	-0,016	0,009
-378,131	31,091	-0,067	-0,042
-377,117	800,000	0,038	-0,100
-376,102	231,496	0,084	0,101
-375,088	158,560	-0,059	0,060
-374,073	-196,477	-0,073	0,000
-373,058	-102,400	-0,084	0,015
-372,044	-200,000	0,018	-0,066
-371,029	-142,817	-0,037	0,003
-370,015	800,000	0,006	-0,017
-369,000	-148,142	0,115	-0,007
-367,985	12,155	-0,018	0,010
-366,971	718,042	-0,064	0,124
-365,956	-200,000	0,001	-0,095
-364,942	-44,021	-0,085	-0,031
-363,927	24,399	-0,066	0,040
-362,912	217,922	0,068	0,080
-361,898	-200,000	-0,026	-0,142
-360,883	2,515	0,121	-0,064
-359,869	434,670	-0,019	-0,031
-358,854	374,326	-0,032	0,048
-357,839	800,000	-0,014	-0,030
-356,825	496,394	-0,037	0,063
-355,810	191,560	0,043	-0,048
-354,796	218,766	-0,069	-0,080
-353,781	-200,000	0,027	-0,169
-352,766	-177,391	0,106	0,002
-351,752	-133,343	0,125	0,011
-350,737	38,275	-0,020	0,013
-349,723	437,038	-0,021	-0,033
-348,708	197,762	-0,084	-0,094
-347,693	-97,073	0,025	-0,005
-346,679	-114,489	0,046	0,006
-345,664	-200,000	0,000	-0,054
-344,650	486,920	0,045	0,075
-343,635	149,688	-0,016	-0,015
-342,620	-200,000	0,029	-0,104
-341,606	650,640	0,011	0,020
-340,591	341,374	-0,050	0,072
-339,577	-72,088	0,063	-0,017
-338,562	-50,396	-0,037	0,013
-337,548	-95,277	0,039	0,008
-336,533	-152,773	0,019	0,001
-335,518	-200,000	-0,006	-0,052
-334,504	-157,566	0,166	0,007
-333,489	800,000	-0,071	0,154
-332,475	237,395	0,036	-0,044
-331,460	-200,000	0,010	-0,116
-330,445	325,332	-0,091	0,128
-329,431	-200,000	0,007	0,154
-328,416	-200,000	-0,009	0,163
-327,402	-200,000	0,008	0,125
-326,387	-200,000	0,004	-0,023
-325,372	74,735	-0,047	0,036
-324,358	800,000	-0,038	-0,098
-323,343	135,809	0,075	-0,071
-322,329	-200,000	0,008	0,033
-321,314	58,200	0,038	-0,027
-320,299	-200,000	-0,011	0,117
-319,285	-125,584	-0,063	-0,007
-318,270	-104,054	-0,023	0,004
-317,256	88,558	0,063	-0,052
-316,241	800,000	0,017	0,040
-315,226	-127,892	-0,128	-0,013
-314,212	-146,262	0,189	-0,012
-313,197	233,707	-0,075	0,091
-312,183	-200,000	-0,024	0,116
-311,168	800,000	-0,018	0,038
-310,153	316,659	0,026	0,036
-309,139	-159,678	0,119	-0,005
-308,124	-45,040	0,017	-0,006
-307,110	-200,000	0,000	-0,067
-306,095	93,183	-0,051	0,043
-305,080	232,946	0,037	0,045
-304,066	54,022	-0,079	-0,056
-303,051	99,394	0,063	0,053
-302,037	367,606	-0,029	0,042
-301,022	8,001	0,018	0,010
-300,008	-68,015	-0,080	-0,023
-298,993	456,185	0,113	0,184
-297,978	17,865	-0,068	0,040
-296,964	175,156	-0,020	-0,021
-295,949	800,000	0,061	-0,149
-294,935	800,000	0,055	0,175
-293,920	-112,477	-0,137	-0,020
-292,905	-200,000	0,004	0,066
-291,891	800,000	0,044	0,108
-290,876	15,400	0,034	-0,020
-289,862	-3,414	0,065	-0,033
-288,847	-0,375	-0,140	-0,073
-287,832	-200,000	-0,000	-0,097
-286,818	477,245	0,056	-0,092
-285,803	-114,864	-0,053	-0,007
-284,789	-79,304	0,080	0,020
-283,774	-200,000	-0,003	0,046
-282,759	-89,458	-0,069	-0,015
-281,745	66,993	0,153	-0,114
-280,730	-43,257	-0,115	0,042
-279,716	-200,000	-0,002	-0,144
-278,701	543,775	-0,032	-0,057
-277,686	34,560	-0,063	0,040
-276,672	402,522	0,025	0,038
-275,657	-200,000	0,045	0,148
-274,643	-60,332	-0,044	0,014
-273,628	-59,061	-0,087	0,027
-272,613	-200,000	-0,010	0,143
-271,599	-52,702	-0,021	0,007
-270,584	800,000	-0,017	0,054
-269,570	194,498	-0,075	0,084
-268,555	-26,362	0,012	0,005
-267,540	-200,000	-0,010	0,072
-266,526	432,017	-0,051	-0,081
-265,511	-93,534	-0,083	-0,017
-264,497	-8,355	0,100	0,049
-263,482	155,261	0,093	-0,094
-262,467	-200,000	0,015	0,136
-261,453	-200,000	0,020	0,101
-260,438	-119,604	-0,137	0,017
-259,424	-58,371	0,014	0,004
-258,409	-10,897	-0,028	0,014
-257,395	-196,511	0,085	-0,000
-256,380	-133,410	0,017	0,002
-255,365	800,000	0,044	0,110
-254,351	-12,938	0,037	0,017
-253,336	-18,831	-0,064	0,029
-252,322	-200,000	0,012	-0,040
-251,307	-100,274	-0,194	0,035
-250,292	-200,000	-0,009	-0,049
-249,278	800,000	-0,014	0,041
-248,263	-200,000	-0,004	0,058
-247,249	-167,710	0,152	-0,004
-246,234	-104,433	-0,028	0,005
-245,219	-9,413	0,102	-0,049
-244,205	800,000	0,023	-0,049
-243,190	384,237	0,045	0,067
-242,176	800,000	0,034	0,099
-241,161	235,030	0,029	0,035
-240,146	96,881	0,061	0,051
-239,132	-200,000	-0,012	-0,092
-238,117	-200,000	-0,013	0,055
-237,103	-57,875	-0,100	-0,032
-236,088	400,337	-0,060	0,092
-235,073	-126,332	0,126	0,014
-234,059	7,279	-0,042	0,023
-233,044	279,748	0,084	-0,109
-232,030	-84,222	-0,152	-0,035
-231,015	164,749	-0,045	0,046
-230,000	177,884	0,017	-0,018
-228,986	-1,578	0,069	-0,035
-227,971	182,919	0,065	-0,070
-226,957	-200,000	-0,035	-0,125
-225,942	-20,439	0,122	0,054
-224,927	-4,594	-0,153	-0,077
-223,913	-200,000	-0,010	-0,115
-222,898	13,750	-0,100	-0,056
-221,884	800,000	-0,004	-0,010
-220,869	621,223	0,063	-0,116
-219,855	-111,275	0,109	0,016
-218,840	800,000	0,027	-0,085
-217,825	3,170	-0,071	-0,037
-216,811	-31,506	-0,136	0,056
-215,796	-70,673	-0,046	-0,013
-214,782	800,000	0,030	-0,072
-213,767	-96,185	0,134	0,026
-212,752	800,000	-0,036	0,101
-211,738	-40,589	0,066	-0,025
-210,723	114,812	0,120	-0,106
-209,709	69,602	-0,079	-0,059
-208,694	800,000	0,024	-0,061
-207,679	-200,000	-0,029	-0,121
-206,665	-200,000	-0,014	0,060
-205,650	-200,000	0,004	0,030
-204,636	-103,349	-0,076	0,013
-203,621	-200,000	-0,005	-0,022
-202,606	591,468	-0,038	0,069
-201,592	-124,874	-0,059	0,007
-200,577	-71,034	-0,068	0,019
-199,563	-13,999	0,137	0,064
-198,548	-200,000	0,006	0,043
-197,533	-200,000	0,019	0,083
-196,519	44,326	-0,065	-0,043
-195,504	694,053	-0,037	-0,072
-194,490	-200,000	0,009	-0,097
-193,475	72,797	-0,059	-0,045
-192,460	-200,000	0,016	-0,061
-191,446	209,654	0,072	0,082
-190,431	-52,894	0,192	0,064
-189,417	218,941	0,023	0,027
-188,402	-18,720	-0,137	-0,062
-187,387	-136,857	0,099	-0,008
-186,373	-73,691	0,181	0,048
-185,358	-116,924	-0,077	-0,010
-184,344	-200,000	0,022	-0,087
-183,329	-1,151	0,041	-0,021
-182,315	-200,000	-0,008	0,108
-181,300	-66,629	-0,052	0,015
-180,285	-200,000	0,022	0,095
-179,271	224,560	0,035	0,041
-178,256	800,000	0,029	-0,078
-177,242	-200,000	-0,007	0,064
-176,227	109,951	0,082	0,072
-175,212	103,189	0,054	-0,046
-174,198	-5,818	0,069	0,034
-173,183	311,383	-0,052	0,072
-172,169	-200,000	-0,012	-0,125
-171,154	257,311	-0,048	-0,060
-170,139	-20,790	0,104	-0,046
-169,125	442,309	-0,041	-0,065
-168,110	800,000	0,077	0,182
-167,096	265,475	-0,035	0,045
-166,081	642,565	-0,064	-0,120
-165,066	800,000	0,024	-0,068
-164,052	800,000	0,012	-0,025
-163,037	-128,298	0,085	-0,009
-162,023	730,177	0,025	0,049
-161,008	-200,000	-0,011	-0,053
-159,993	800,000	0,023	0,050
-158,979	-33,556	-0,064	0,026
-157,964	67,151	-0,066	0,049
-156,950	373,909	0,017	-0,026
-155,935	-134,357	0,149	-0,013
-154,920	-200,000	0,016	-0,086
-153,906	182,563	-0,021	0,023
-152,891	-25,167	0,045	0,019
-151,877	-11,168	-0,144	-0,069
-150,862	-200,000	-0,014	-0,063
-149,847	-113,135	0,096	-0,014
-148,833	-125,021	0,056	0,006
-147,818	310,356	0,054	-0,073
-146,804	351,319	-0,094	0,135
-145,789	-95,667	0,107	0,021
-144,775	611,416	0,044	-0,081
-143,760	-39,822	-0,149	-0,056
-142,745	-200,000	0,001	-0,118
-141,731	11,566	-0,042	-0,024
-140,716	59,636	-0,071	0,051
-139,702	-200,000	0,021	0,079
-138,687	192,088	0,042	0,046
-137,672	67,323	-0,038	-0,028
-136,658	107,630	-0,062	0,054
-135,643	-200,000	0,031	-0,141
-134,629	-200,000	0,021	-0,164
-133,614	348,433	-0,033	0,048
-132,599	800,000	0,012	0,029
-131,585	-200,000	-0,007	0,035
-130,570	183,611	0,047	0,050
-129,556	162,633	-0,019	0,019
-128,541	800,000	-0,076	-0,212
-127,526	286,441	0,081	0,107
-126,512	-200,000	0,012	-0,046
-125,497	122,294	-0,061	-0,055
-124,483	33,319	0,015	-0,009
-123,468	171,898	-0,076	0,079
-122,453	-200,000	-0,034	-0,217
-121,439	-200,000	0,002	-0,100
-120,424	103,271	0,110	-0,094
