DTS Sentinel unit serial number:	SN410029Multiplexer serial number:	ORYXHardware model number:	OX2-SRSoftware version number:	ORYX F/W v4,00 Oryx Data Collector v3.7.2.0data status	okinstallation	B4 Nyhavnadifferential loss correction	single-endedforward channel	channel 2reverse channel	N/Adate	2023/12/19time	01:05:13forward acquisition time	300,00reverse acquisition time	0,00gamma	499,1914k internal	0,3123k external	0,3123temperature offset calibration	1,0000default loss term (dB/km)	0,3820temperature slope calibration	1,0000multiplexer offset coefficient	1,0000multiplexer slope coefficient	1,0000fibre end	0,00T internal ref (°C)	21,87T ext. ref 1 (°C)	6,10T ext. ref 2 (°C)	6,10length (m)	temperature (°C)	Stokes	anti-Stokes-744,400	225,779	0,013	-0,016
-743,385	-164,920	-0,201	0,007
-742,371	235,537	0,015	-0,018
-741,356	191,052	-0,102	0,114
-740,342	800,000	0,020	0,065
-739,327	58,354	-0,347	0,253
-738,312	-200,000	-0,002	-0,094
-737,298	-139,628	-0,154	0,012
-736,283	49,514	-0,135	0,095
-735,269	45,257	-0,190	0,130
-734,254	-200,000	-0,033	0,108
-733,239	-66,735	-0,249	0,073
-732,225	87,328	0,110	0,091
-731,210	-74,450	-0,161	0,043
-730,196	-200,000	0,002	-0,035
-729,181	19,675	-0,091	-0,055
-728,167	-3,593	-0,138	-0,071
-727,152	-200,000	0,019	0,073
-726,137	800,000	-0,036	-0,096
-725,123	239,119	0,096	-0,120
-724,108	-54,319	0,035	0,012
-723,094	-200,000	-0,018	-0,099
-722,079	358,873	-0,112	-0,168
-721,064	-3,543	-0,095	-0,049
-720,050	728,225	-0,061	0,122
-719,035	-80,931	-0,143	-0,035
-718,021	-200,000	-0,013	-0,072
-717,006	-200,000	-0,004	-0,052
-715,991	-35,498	-0,170	-0,068
-714,977	419,917	-0,073	-0,117
-713,962	-200,000	-0,004	-0,013
-712,948	-10,669	0,045	0,022
-711,933	77,764	0,054	-0,042
-710,918	132,575	0,040	-0,039
-709,904	-200,000	0,015	-0,143
-708,889	800,000	-0,026	-0,083
-707,875	800,000	-0,052	-0,112
-706,860	-144,439	0,102	-0,007
-705,845	-17,860	0,066	-0,031
-704,831	568,148	-0,050	0,092
-703,816	-62,755	-0,068	-0,021
-702,802	232,590	0,097	-0,119
-701,787	272,397	-0,084	-0,111
-700,772	800,000	0,035	-0,082
-699,758	728,862	-0,052	-0,103
-698,743	-30,897	-0,063	0,026
-697,729	-200,000	0,009	0,038
-696,714	-99,076	0,021	0,004
-695,699	-104,304	0,059	-0,010
-694,685	210,045	-0,021	0,024
-693,670	-155,632	-0,154	-0,007
-692,656	758,694	-0,076	-0,154
-691,641	800,000	-0,015	-0,040
-690,627	-200,000	-0,008	0,080
-689,612	132,194	-0,071	0,068
-688,597	-108,246	-0,047	0,008
-687,583	-200,000	-0,011	-0,058
-686,568	326,830	-0,011	-0,015
-685,554	-112,139	0,060	-0,009
-684,539	47,781	0,039	-0,027
-683,524	-92,195	-0,043	-0,009
-682,510	-48,558	0,053	-0,019
-681,495	-11,983	-0,129	-0,063
-680,481	0,372	0,082	-0,043
-679,466	456,812	-0,037	0,061
-678,451	-200,000	-0,022	-0,079
-677,437	800,000	-0,047	-0,134
-676,422	800,000	-0,002	0,004
-675,408	-199,917	-0,027	0,000
-674,393	-200,000	-0,040	-0,146
-673,378	-48,748	-0,139	-0,049
-672,364	791,746	-0,065	-0,134
-671,349	56,876	0,105	-0,076
-670,335	-200,000	-0,014	-0,098
-669,320	-129,741	0,058	0,006
-668,305	489,381	0,009	-0,015
-667,291	-49,068	-0,055	0,019
-666,276	-200,000	0,000	-0,025
-665,262	-200,000	0,005	-0,054
-664,247	29,705	-0,122	-0,077
-663,232	-200,000	-0,003	-0,059
-662,218	-105,189	0,069	0,012
-661,203	-200,000	0,012	0,077
-660,189	-104,914	-0,027	0,005
-659,174	96,182	-0,061	0,052
-658,159	67,384	-0,089	0,067
-657,145	316,331	-0,042	-0,059
-656,130	-200,000	-0,019	0,180
-655,116	-131,827	0,046	0,004
-654,101	-3,999	0,054	0,028
-653,086	-200,000	-0,033	-0,113
-652,072	163,806	0,092	0,097
-651,057	800,000	0,008	-0,017
-650,043	-156,158	0,017	-0,001
-649,028	-137,628	-0,076	-0,006
-648,014	-109,786	0,043	-0,007
-646,999	46,992	0,044	-0,031
-645,984	-166,832	0,217	-0,007
-644,970	269,090	-0,010	0,013
-643,955	-48,423	-0,070	0,025
-642,941	296,039	0,039	-0,053
-641,926	800,000	-0,039	0,116
-640,911	-130,136	0,095	0,010
-639,897	-43,472	-0,062	0,023
-638,882	800,000	-0,051	-0,127
-637,868	-81,454	-0,038	-0,009
-636,853	-200,000	-0,006	-0,096
-635,838	800,000	-0,087	-0,201
-634,824	-49,553	0,144	0,051
-633,809	-200,000	-0,005	-0,018
-632,795	-86,320	0,130	0,029
-631,780	186,126	0,025	-0,027
-630,765	372,072	-0,069	-0,105
-629,751	24,770	0,021	0,013
-628,736	800,000	-0,046	-0,132
-627,722	65,852	0,064	0,048
-626,707	-30,892	-0,083	-0,035
-625,692	4,071	0,074	0,040
-624,678	662,820	0,072	0,139
-623,663	74,145	-0,075	-0,059
-622,649	-200,000	0,017	-0,153
-621,634	-200,000	-0,013	-0,065
-620,619	-200,000	-0,010	-0,077
-619,605	-200,000	-0,004	0,065
-618,590	-100,436	0,051	0,009
-617,576	59,094	0,038	0,028
-616,561	-55,194	-0,093	-0,031
-615,546	-92,785	0,082	-0,017
-614,532	394,759	0,049	-0,077
-613,517	620,073	0,024	-0,044
-612,503	-33,814	-0,109	0,044
-611,488	50,527	0,029	0,020
-610,474	-200,000	-0,012	0,090
-609,459	-0,993	0,109	0,057
-608,444	-1,157	-0,105	-0,055
-607,430	39,879	-0,063	-0,042
-606,415	169,248	-0,107	-0,113
-605,401	553,762	-0,044	-0,079
-604,386	-141,937	-0,095	-0,007
-603,371	39,748	-0,090	-0,060
-602,357	-171,355	0,057	-0,001
-601,342	25,325	-0,090	0,055
-600,328	800,000	-0,040	0,121
-599,313	-65,275	-0,049	0,014
-598,298	84,649	-0,064	0,052
-597,284	800,000	0,027	0,077
-596,269	-200,000	0,003	0,023
-595,255	62,060	-0,172	0,127
-594,240	-200,000	-0,012	-0,101
-593,225	-93,414	-0,126	0,026
-592,211	800,000	-0,067	-0,145
-591,196	135,995	0,069	-0,067
-590,182	-143,124	-0,078	0,006
-589,167	-200,000	-0,005	0,040
-588,152	-151,469	-0,022	-0,001
-587,138	800,000	0,027	-0,058
-586,123	36,802	-0,057	-0,037
-585,109	-15,842	-0,087	-0,041
-584,094	-200,000	-0,007	0,043
-583,079	464,416	-0,036	0,060
-582,065	-200,000	-0,006	0,079
-581,050	800,000	-0,003	-0,008
-580,036	-27,988	-0,124	-0,053
-579,021	569,559	-0,030	-0,053
-578,006	123,288	-0,064	0,059
-576,992	574,405	0,026	0,047
-575,977	-200,000	-0,019	-0,075
-574,963	83,769	0,047	-0,038
-573,948	800,000	0,022	0,059
-572,934	12,912	-0,059	0,034
-571,919	153,100	0,081	-0,082
-570,904	13,733	-0,096	-0,055
-569,890	152,448	-0,043	-0,043
-568,875	614,905	-0,004	-0,008
-567,861	565,339	0,057	0,103
-566,846	800,000	-0,030	-0,074
-565,831	170,002	-0,049	0,052
-564,817	-12,347	-0,029	0,014
-563,802	-200,000	-0,053	-0,220
-562,788	-59,404	-0,046	-0,015
-561,773	-115,979	-0,046	-0,006
-560,758	-98,994	0,107	0,020
-559,744	91,005	0,054	0,045
-558,729	3,469	-0,014	0,007
-557,715	509,022	0,011	0,019
-556,700	36,853	-0,015	0,010
-555,685	800,000	-0,013	-0,029
-554,671	800,000	0,042	0,086
-553,656	800,000	-0,019	0,039
-552,642	-124,886	-0,045	-0,005
-551,627	800,000	-0,022	0,056
-550,612	144,538	-0,088	0,087
-549,598	-27,489	0,012	0,005
-548,583	175,957	-0,005	-0,005
-547,569	-110,570	0,054	-0,008
-546,554	268,128	-0,127	0,165
-545,539	800,000	-0,032	0,072
-544,525	-200,000	0,029	0,132
-543,510	-57,411	-0,072	0,023
-542,496	-141,924	-0,062	0,005
-541,481	800,000	-0,049	-0,124
-540,466	800,000	0,019	0,041
-539,452	-31,699	0,083	0,034
-538,437	782,175	0,014	0,028
-537,423	-200,000	-0,027	0,158
-536,408	-200,000	0,026	0,091
-535,393	800,000	0,025	0,081
-534,379	-113,030	-0,050	-0,007
-533,364	550,765	0,009	-0,016
-532,350	-49,491	-0,087	-0,030
-531,335	-200,000	-0,014	-0,077
-530,321	-200,000	-0,005	-0,109
-529,306	-200,000	0,021	-0,101
-528,291	-198,723	-0,018	0,000
-527,277	6,346	-0,142	-0,078
-526,262	800,000	-0,036	0,116
-525,248	419,696	-0,083	0,132
-524,233	-200,000	-0,016	0,057
-523,218	149,664	0,127	0,128
-522,204	-200,000	0,010	-0,038
-521,189	-200,000	-0,005	-0,138
-520,175	800,000	0,033	-0,095
-519,160	47,485	-0,063	-0,044
-518,145	98,728	-0,104	-0,089
-517,131	333,500	0,055	0,078
-516,116	-79,323	0,086	0,021
-515,102	-22,376	-0,079	-0,035
-514,087	-102,502	-0,052	0,009
-513,072	-200,000	0,009	-0,039
-512,058	-47,482	0,012	-0,004
-511,043	779,611	0,009	-0,018
-510,029	800,000	-0,013	-0,034
-509,014	800,000	-0,027	0,055
-507,999	220,570	-0,053	0,062
-506,985	-200,000	0,012	-0,069
-505,970	-97,153	-0,133	-0,026
-504,956	6,199	0,104	-0,057
-503,941	193,589	-0,057	-0,063
-502,926	-39,889	-0,040	-0,015
-501,912	39,895	-0,116	0,077
-500,897	800,000	0,055	0,117
-499,883	-200,000	-0,002	0,111
-498,868	362,278	-0,031	-0,046
-497,853	435,855	-0,022	-0,036
-496,839	13,606	0,083	-0,047
-495,824	224,977	-0,025	0,029
-494,810	460,111	0,056	-0,092
-493,795	-61,217	0,134	-0,042
-492,781	214,088	0,024	-0,028
-491,766	146,569	-0,076	-0,076
-490,751	-63,709	0,069	-0,021
-489,737	-104,220	-0,078	0,013
-488,722	800,000	0,012	0,036
-487,708	-168,190	0,152	-0,004
-486,693	-148,033	-0,102	0,006
-485,678	-16,923	0,100	0,046
-484,664	-200,000	-0,009	-0,068
-483,649	728,091	-0,079	-0,157
-482,635	-200,000	-0,041	0,206
-481,620	523,776	0,034	0,060
-480,605	654,259	-0,057	0,107
-479,591	800,000	-0,035	0,107
-478,576	-139,446	-0,168	-0,013
-477,562	-136,902	0,039	-0,003
-476,547	97,012	-0,081	-0,068
-475,532	48,938	-0,143	-0,099
-474,518	-137,021	0,027	0,002
-473,503	-65,689	-0,113	0,033
-472,489	-200,000	-0,002	-0,081
-471,474	47,502	-0,031	-0,021
-470,459	273,860	-0,061	0,079
-469,445	-111,051	-0,122	-0,018
-468,430	-200,000	0,000	0,025
-467,416	-200,000	0,003	0,092
-466,401	-25,893	0,059	0,026
-465,386	-200,000	0,001	0,102
-464,372	800,000	-0,009	-0,024
-463,357	-200,000	0,006	-0,038
-462,343	-200,000	-0,003	-0,093
-461,328	733,821	0,016	0,032
-460,313	800,000	-0,038	0,120
-459,299	-200,000	-0,010	-0,055
-458,284	800,000	-0,040	0,099
-457,270	19,400	0,075	-0,044
-456,255	-200,000	-0,001	0,059
-455,241	225,437	-0,055	-0,066
-454,226	142,941	-0,080	-0,078
-453,211	-41,801	-0,046	-0,017
-452,197	-82,965	0,080	0,019
-451,182	121,507	0,062	-0,057
-450,168	-86,026	0,124	0,028
-449,153	-200,000	-0,001	-0,124
-448,138	800,000	0,028	-0,070
-447,124	800,000	-0,021	-0,045
-446,109	-200,000	0,005	0,100
-445,095	-22,283	0,027	0,012
-444,080	-200,000	0,003	0,015
-443,065	593,002	0,061	-0,112
-442,051	-111,020	0,136	0,020
-441,036	242,831	-0,059	-0,073
-440,022	22,639	-0,078	-0,047
-439,007	-200,000	-0,008	0,056
-437,992	-200,000	-0,015	0,105
-436,978	-200,000	-0,013	0,122
-435,963	800,000	-0,030	0,089
-434,949	800,000	0,042	0,120
-433,934	14,837	-0,068	0,039
-432,919	693,945	0,041	0,079
-431,905	-200,000	0,007	-0,040
-430,890	282,697	-0,010	-0,014
-429,876	-78,967	0,045	0,011
-428,861	-98,551	-0,021	-0,004
-427,846	12,867	0,080	0,046
-426,832	800,000	-0,064	-0,197
-425,817	-123,295	0,139	-0,016
-424,803	-52,405	0,046	-0,015
-423,788	800,000	-0,050	-0,143
-422,773	-124,918	0,013	0,001
-421,759	-90,065	-0,167	0,036
-420,744	-39,835	-0,037	-0,014
-419,730	184,794	0,074	0,081
-418,715	121,401	0,024	0,022
-417,701	236,127	-0,068	0,083
-416,686	132,631	0,025	-0,024
-415,671	-102,624	-0,022	-0,004
-414,657	-200,000	0,026	-0,131
-413,642	414,393	0,026	0,040
-412,628	-110,077	-0,112	-0,017
-411,613	392,466	-0,020	-0,031
-410,598	-200,000	0,010	-0,045
-409,584	-154,796	-0,072	-0,003
-408,569	-200,000	-0,027	0,144
-407,555	800,000	-0,027	0,066
-406,540	-19,571	-0,074	0,034
-405,525	676,889	0,018	0,035
-404,511	-190,665	0,094	0,001
-403,496	-45,234	0,047	-0,017
-402,482	111,996	-0,104	0,092
-401,467	1,784	0,097	-0,051
-400,452	-200,000	-0,006	0,029
-399,438	-152,249	-0,089	-0,005
-398,423	145,229	0,055	-0,054
-397,409	-57,696	-0,102	-0,033
-396,394	-200,000	0,022	-0,107
-395,379	513,781	-0,042	0,073
-394,365	169,243	-0,081	0,085
-393,350	-200,000	0,007	0,044
-392,336	82,858	0,070	-0,056
-391,321	347,759	-0,069	-0,100
-390,306	-200,000	0,013	-0,088
-389,292	146,139	-0,034	0,034
-388,277	68,999	0,053	-0,040
-387,263	-69,391	0,032	0,009
-386,248	-148,724	-0,036	-0,002
-385,233	118,151	0,055	0,050
-384,219	346,197	0,067	-0,097
-383,204	-200,000	-0,012	0,043
-382,190	233,095	0,071	-0,086
-381,175	-105,775	-0,152	-0,025
-380,160	16,223	0,042	0,024
-379,146	-45,414	0,029	0,011
-378,131	176,366	0,046	0,050
-377,117	-50,650	-0,098	-0,034
-376,102	-9,801	-0,079	0,039
-375,088	-200,000	0,025	-0,106
-374,073	50,208	-0,048	-0,034
-373,058	82,258	-0,009	0,007
-372,044	453,001	0,037	0,060
-371,029	-200,000	0,005	0,123
-370,015	-82,023	-0,032	0,008
-369,000	-200,000	0,025	-0,161
-367,985	44,554	0,098	-0,066
-366,971	628,060	0,071	-0,132
-365,956	111,594	-0,099	-0,088
-364,942	-137,840	-0,047	0,004
-363,927	-200,000	0,003	0,018
-362,912	54,327	-0,041	0,029
-361,898	-21,114	0,068	0,030
-360,883	198,518	-0,104	-0,117
-359,869	38,392	0,086	-0,056
-358,854	153,907	0,094	0,095
-357,839	-121,315	0,081	0,010
-356,825	193,676	0,050	-0,056
-355,810	153,826	0,049	-0,050
-354,796	-200,000	0,013	0,099
-353,781	-200,000	-0,007	-0,078
-352,766	800,000	0,042	-0,130
-351,752	-62,992	0,019	0,006
-350,737	-46,399	0,069	0,025
-349,723	-200,000	0,010	0,040
-348,708	-83,797	0,112	-0,026
-347,693	-31,284	0,023	0,009
-346,679	800,000	0,069	-0,157
-345,664	800,000	0,064	-0,145
-344,650	83,805	-0,034	0,027
-343,635	507,719	0,062	-0,106
-342,620	14,482	0,095	0,054
-341,606	-51,670	0,078	-0,027
-340,591	53,076	-0,079	0,055
-339,577	-83,625	0,031	-0,007
-338,562	-200,000	0,029	-0,129
-337,548	290,433	0,116	-0,155
-336,533	-197,991	-0,054	0,000
-335,518	795,696	0,062	0,125
-334,504	800,000	0,004	-0,010
-333,489	-200,000	0,006	0,047
-332,475	-111,189	-0,020	0,003
-331,460	800,000	0,050	-0,108
-330,445	800,000	-0,057	0,153
-329,431	34,917	0,057	0,036
-328,416	800,000	0,033	0,068
-327,402	104,953	-0,080	-0,069
-326,387	-4,384	0,095	0,048
-325,372	800,000	-0,037	0,115
-324,358	800,000	-0,027	-0,084
-323,343	800,000	0,021	-0,046
-322,329	-72,626	0,051	-0,014
-321,314	-123,634	0,130	-0,015
-320,299	-189,252	0,053	0,000
-319,285	-103,511	-0,059	0,010
-318,270	800,000	0,016	0,044
-317,256	30,421	-0,102	0,064
-316,241	800,000	0,062	0,147
-315,226	-200,000	0,009	-0,099
-314,212	-126,747	-0,068	-0,007
-313,197	9,911	0,122	0,068
-312,183	102,387	0,139	0,119
-311,168	-40,349	-0,173	0,066
-310,153	369,503	-0,041	-0,062
-309,139	29,684	0,090	-0,056
-308,124	17,220	0,044	0,025
-307,110	-135,632	0,068	-0,006
-306,095	-90,348	0,093	0,020
-305,080	34,228	0,123	-0,079
-304,066	-200,000	0,025	-0,115
-303,051	-2,479	-0,059	-0,030
-302,037	21,168	0,060	-0,036
-301,022	674,987	0,037	0,071
-300,008	506,936	0,049	0,083
-298,993	-88,337	-0,054	0,012
-297,978	-200,000	0,011	-0,061
-296,964	-76,379	-0,027	0,007
-295,949	-200,000	-0,004	-0,028
-294,935	-200,000	-0,003	-0,016
-293,920	-200,000	0,023	-0,098
-292,905	333,349	-0,059	0,084
-291,891	-114,453	0,096	0,013
-290,876	-200,000	-0,016	0,101
-289,862	-11,345	-0,110	0,053
-288,847	117,883	-0,058	0,052
-287,832	-166,800	0,025	-0,001
-286,818	77,822	-0,042	-0,033
-285,803	-200,000	-0,021	-0,132
-284,789	74,093	0,029	-0,022
-283,774	20,161	0,101	-0,060
-282,759	-63,091	-0,098	0,029
-281,745	-200,000	-0,012	-0,095
-280,730	30,239	-0,039	0,024
-279,716	-200,000	-0,013	-0,042
-278,701	260,004	0,050	-0,063
-277,686	-44,876	0,152	-0,055
-276,672	732,030	0,021	0,042
-275,657	4,071	0,038	-0,021
-274,643	210,533	-0,031	0,035
-273,628	55,458	-0,084	0,059
-272,613	-200,000	-0,013	-0,138
-271,599	223,663	-0,035	-0,041
-270,584	5,047	0,119	-0,064
-269,570	-69,497	-0,023	0,006
-268,555	-80,582	0,137	0,033
-267,540	774,879	-0,022	-0,045
-266,526	153,054	-0,113	-0,113
-265,511	-200,000	0,005	-0,074
-264,497	405,384	0,052	0,080
-263,482	10,542	0,112	0,062
-262,467	60,409	0,143	0,103
-261,453	94,525	-0,049	0,041
-260,438	780,445	-0,045	-0,091
-259,424	-61,427	-0,047	0,014
-258,409	1,641	0,044	-0,023
-257,395	-200,000	-0,001	-0,044
-256,380	-17,255	0,160	-0,074
-255,365	252,276	0,043	-0,054
-254,351	-48,058	0,101	0,035
-253,336	78,686	-0,047	0,037
-252,322	-13,237	0,099	-0,047
-251,307	715,722	0,060	-0,117
-250,292	157,251	0,120	0,121
-249,278	-16,605	-0,084	0,039
-248,263	-103,076	0,216	0,037
-247,249	-60,431	0,026	0,008
-246,234	137,541	-0,051	0,049
-245,219	-73,911	-0,178	0,047
-244,205	-200,000	-0,031	-0,131
-243,190	37,626	0,054	-0,035
-242,176	757,470	0,079	0,158
-241,161	-52,473	0,065	-0,022
-240,146	800,000	-0,059	0,169
-239,132	76,863	-0,027	0,021
-238,117	800,000	-0,052	0,137
-237,103	-200,000	0,030	-0,104
-236,088	70,431	0,115	-0,087
-235,073	-113,910	-0,102	0,014
-234,059	434,428	0,073	0,117
-233,044	800,000	-0,035	0,077
-232,030	-3,116	0,022	0,011
-231,015	555,313	0,028	0,049
-230,000	-148,757	-0,119	-0,007
-228,986	-116,294	0,013	-0,002
-227,971	-200,000	0,005	0,064
-226,957	143,502	0,032	-0,031
-225,942	800,000	0,108	0,230
-224,927	244,442	0,019	0,023
-223,913	800,000	-0,045	-0,110
-222,898	-200,000	0,007	-0,031
-221,884	2,278	0,098	0,052
-220,869	-200,000	-0,011	-0,125
-219,855	-154,076	-0,138	-0,007
-218,840	-200,000	-0,032	0,128
-217,825	-200,000	0,017	-0,141
-216,811	249,332	0,039	0,048
-215,796	-200,000	0,019	0,075
-214,782	-18,164	-0,005	-0,002
-213,767	-93,740	0,068	-0,014
-212,752	-200,000	-0,026	-0,090
-211,738	542,202	-0,050	0,088
-210,723	701,921	0,054	0,105
-209,709	102,754	-0,148	-0,126
-208,694	20,294	-0,119	-0,070
-207,679	-200,000	-0,010	0,077
-206,665	-200,000	-0,053	0,175
-205,650	800,000	-0,023	0,064
-204,636	-154,345	0,072	0,003
-203,621	-18,368	-0,062	0,028
-202,606	-200,000	0,024	0,166
-201,592	800,000	-0,029	-0,081
-200,577	800,000	-0,029	0,093
-199,563	79,428	0,088	0,069
-198,548	-115,549	0,076	-0,010
-197,533	475,769	-0,039	-0,065
-196,519	169,120	0,106	0,111
-195,504	-163,369	0,042	-0,001
-194,490	-200,000	0,013	-0,067
-193,475	488,836	-0,037	0,062
-192,460	800,000	-0,045	0,095
-191,446	111,779	0,127	0,112
-190,431	-200,000	0,007	-0,032
-189,417	72,849	0,056	-0,043
-188,402	545,627	-0,033	-0,057
-187,387	-11,260	-0,067	0,032
-186,373	114,126	-0,073	-0,065
-185,358	44,520	-0,049	-0,033
-184,344	-17,123	0,058	0,026
-183,329	3,873	0,144	0,077
-182,315	-200,000	0,038	0,146
-181,300	-74,760	-0,145	0,038
-180,285	-46,702	0,051	0,018
-179,271	294,469	0,071	-0,095
-178,256	-69,207	0,111	-0,031
-177,242	223,320	0,078	0,092
-176,227	77,347	0,036	0,028
-175,212	-200,000	-0,003	0,015
-174,198	-12,446	0,086	-0,041
-173,183	112,640	0,066	-0,058
-172,169	-40,914	0,128	-0,048
-171,154	-200,000	0,023	-0,146
-170,139	-89,117	-0,104	0,022
-169,125	-200,000	-0,010	0,080
-168,110	800,000	0,017	0,051
-167,096	332,260	-0,047	-0,066
-166,081	-155,922	-0,090	-0,004
-165,066	164,067	-0,014	-0,014
-164,052	-200,000	-0,015	0,146
-163,037	-200,000	0,003	-0,023
-162,023	-200,000	0,001	0,138
-161,008	516,229	-0,081	0,138
-159,993	216,239	0,058	0,067
-158,979	-130,937	-0,055	-0,005
-157,964	-142,138	0,088	-0,006
-156,950	112,546	0,022	-0,019
-155,935	-49,486	0,024	-0,008
-154,920	-200,000	-0,036	-0,130
-153,906	169,690	0,039	-0,041
-152,891	-41,904	-0,150	-0,056
-151,877	-103,030	-0,046	-0,008
-150,862	-200,000	-0,009	0,082
-149,847	-200,000	0,035	-0,140
-148,833	800,000	0,023	-0,066
-147,818	107,153	0,057	0,050
-146,804	-14,079	-0,067	0,031
-145,789	-154,857	-0,039	-0,002
-144,775	117,921	-0,034	0,030
-143,760	-26,955	0,078	-0,033
-142,745	-200,000	-0,045	-0,177
-141,731	-200,000	0,008	-0,120
-140,716	-126,496	-0,022	0,002
-139,702	-89,414	-0,059	-0,013
-138,687	-142,691	0,257	0,018
-137,672	314,149	0,069	0,095
-136,658	-200,000	-0,014	-0,130
-135,643	416,485	0,051	-0,079
-134,629	-200,000	-0,008	-0,045
-133,614	-29,022	0,079	-0,033
-132,599	62,692	0,084	0,061
-131,585	134,855	-0,077	0,073
-130,570	30,880	-0,028	0,017
-129,556	62,443	-0,042	-0,030
-128,541	772,476	-0,088	-0,176
-127,526	295,950	-0,064	-0,085
-126,512	-38,928	-0,074	0,028
-125,497	-79,224	0,090	-0,022
-124,483	-52,916	-0,094	0,031
-123,468	36,856	-0,076	0,049
-122,453	-6,184	-0,081	-0,040
-121,439	-90,561	-0,113	0,024
-120,424	519,079	0,070	-0,120
