DTS Sentinel unit serial number:	SN410029Multiplexer serial number:	ORYXHardware model number:	OX2-SRSoftware version number:	ORYX F/W v4,00 Oryx Data Collector v3.7.2.0data status	okinstallation	B4 Nyhavnadifferential loss correction	single-endedforward channel	channel 2reverse channel	N/Adate	2023/12/18time	18:05:13forward acquisition time	300,00reverse acquisition time	0,00gamma	499,1914k internal	0,3124k external	0,3124temperature offset calibration	1,0000default loss term (dB/km)	0,3820temperature slope calibration	1,0000multiplexer offset coefficient	1,0000multiplexer slope coefficient	1,0000fibre end	0,00T internal ref (°C)	21,88T ext. ref 1 (°C)	7,22T ext. ref 2 (°C)	7,25length (m)	temperature (°C)	Stokes	anti-Stokes-744,400	49,508	-0,026	-0,018
-743,385	-60,557	-0,212	0,067
-742,371	356,198	0,024	-0,035
-741,356	150,449	-0,206	0,208
-740,342	-163,273	0,124	0,004
-739,327	-30,532	-0,215	0,090
-738,312	800,000	-0,069	-0,169
-737,298	124,507	-0,211	0,198
-736,283	36,493	0,065	-0,043
-735,269	-74,451	-0,160	0,043
-734,254	800,000	-0,037	0,099
-733,239	-151,665	-0,360	-0,019
-732,225	800,000	0,036	-0,079
-731,210	-107,684	-0,088	0,014
-730,196	324,003	0,070	-0,099
-729,181	-200,000	-0,008	-0,089
-728,167	800,000	0,028	0,066
-727,152	-164,477	0,047	-0,002
-726,137	-87,865	-0,178	0,040
-725,123	-137,740	-0,062	-0,005
-724,108	93,750	-0,093	0,078
-723,094	72,259	-0,061	-0,047
-722,079	159,864	-0,043	-0,044
-721,064	613,284	-0,094	0,176
-720,050	-200,000	0,012	-0,108
-719,035	800,000	0,009	0,024
-718,021	800,000	-0,027	0,066
-717,006	162,987	-0,041	-0,043
-715,991	800,000	-0,054	-0,119
-714,977	756,900	-0,035	-0,072
-713,962	-37,940	-0,083	0,033
-712,948	-171,945	-0,020	-0,000
-711,933	-149,892	-0,128	-0,007
-710,918	-20,002	-0,092	0,042
-709,904	124,987	-0,078	-0,073
-708,889	39,500	-0,155	-0,103
-707,875	118,083	-0,090	-0,083
-706,860	573,043	-0,052	0,096
-705,845	-75,285	0,074	0,020
-704,831	296,632	-0,024	-0,033
-703,816	-22,959	0,112	-0,050
-702,802	6,788	-0,060	0,033
-701,787	370,930	0,040	-0,061
-700,772	114,106	-0,071	0,064
-699,758	175,325	0,071	0,076
-698,743	20,208	0,066	0,040
-697,729	-200,000	0,003	-0,033
-696,714	800,000	0,042	-0,091
-695,699	-200,000	0,007	-0,049
-694,685	733,495	-0,024	-0,047
-693,670	-12,071	-0,044	-0,022
-692,656	-58,600	0,041	0,013
-691,641	27,080	0,047	0,029
-690,627	335,479	-0,096	0,138
-689,612	153,596	0,055	0,056
-688,597	800,000	-0,027	0,078
-687,583	166,828	-0,088	0,093
-686,568	-200,000	-0,032	-0,119
-685,554	-144,436	-0,021	0,001
-684,539	-91,420	-0,152	-0,032
-683,524	179,988	0,056	-0,062
-682,510	-54,230	-0,098	-0,033
-681,495	800,000	0,013	-0,037
-680,481	214,400	-0,066	-0,078
-679,466	-94,047	-0,133	-0,027
-678,451	-200,000	-0,023	-0,107
-677,437	333,252	0,069	-0,100
-676,422	-200,000	-0,005	-0,038
-675,408	70,415	-0,110	0,084
-674,393	191,659	0,026	-0,029
-673,378	800,000	0,022	-0,053
-672,364	-28,373	0,081	0,034
-671,349	376,785	-0,078	0,118
-670,335	76,999	-0,050	0,039
-669,320	178,925	-0,073	-0,079
-668,305	-29,558	0,077	-0,033
-667,291	800,000	0,027	0,082
-666,276	-8,053	-0,020	0,010
-665,262	-200,000	0,009	-0,035
-664,247	-200,000	-0,017	-0,210
-663,232	716,993	0,033	-0,064
-662,218	-98,835	-0,049	0,009
-661,203	800,000	0,040	0,106
-660,189	-200,000	0,021	0,244
-659,174	75,961	-0,042	0,033
-658,159	800,000	0,040	0,083
-657,145	-68,398	0,099	-0,028
-656,130	519,793	-0,030	0,053
-655,116	-114,548	0,057	-0,008
-654,101	-192,719	0,092	0,001
-653,086	133,156	0,062	0,059
-652,072	352,131	-0,072	-0,106
-651,057	-106,909	-0,082	0,013
-650,043	136,751	0,065	-0,063
-649,028	253,644	-0,101	-0,129
-648,014	46,576	0,036	0,025
-646,999	-200,000	-0,007	0,105
-645,984	-38,129	0,007	0,003
-644,970	-28,491	-0,126	-0,054
-643,955	-77,375	-0,152	-0,039
-642,941	30,787	0,032	0,020
-641,926	800,000	-0,023	0,050
-640,911	800,000	-0,036	0,079
-639,897	172,077	0,039	0,041
-638,882	791,022	0,038	0,078
-637,868	-96,550	0,015	0,003
-636,853	503,215	-0,080	-0,138
-635,838	487,480	-0,052	-0,088
-634,824	-200,000	0,004	-0,069
-633,809	62,652	0,028	0,021
-632,795	142,472	0,056	-0,055
-631,780	218,562	-0,057	-0,068
-630,765	-200,000	0,021	0,107
-629,751	-200,000	-0,057	-0,214
-628,736	132,366	0,053	-0,051
-627,722	-200,000	0,018	-0,081
-626,707	-91,176	0,115	0,024
-625,692	-200,000	0,026	0,186
-624,678	293,112	0,040	-0,054
-623,663	-200,000	-0,007	0,223
-622,649	673,701	-0,043	-0,083
-621,634	306,732	0,078	0,107
-620,619	446,833	-0,042	0,068
-619,605	800,000	0,057	-0,171
-618,590	536,480	-0,003	-0,005
-617,576	183,958	0,034	-0,037
-616,561	17,058	-0,076	0,045
-615,546	318,014	-0,077	0,108
-614,532	104,738	-0,017	-0,015
-613,517	115,775	0,046	-0,042
-612,503	-121,986	0,012	0,001
-611,488	-79,361	0,108	0,027
-610,474	-200,000	0,013	0,087
-609,459	-200,000	0,008	-0,032
-608,444	-122,610	-0,066	0,008
-607,430	-146,336	-0,023	0,001
-606,415	800,000	0,010	-0,021
-605,401	-200,000	0,013	0,109
-604,386	-118,850	0,084	-0,011
-603,371	45,953	0,097	-0,066
-602,357	111,149	0,060	0,054
-601,342	-164,970	-0,048	-0,002
-600,328	135,007	-0,076	-0,073
-599,313	28,701	0,027	-0,017
-598,298	-107,676	-0,021	-0,003
-597,284	125,260	0,056	0,052
-596,269	-200,000	-0,010	0,034
-595,255	22,066	0,071	0,043
-594,240	-84,189	-0,087	-0,020
-593,225	800,000	-0,019	0,052
-592,211	800,000	-0,052	0,144
-591,196	62,348	0,140	-0,104
-590,182	202,504	0,020	-0,023
-589,167	313,128	0,022	0,031
-588,152	-58,593	0,030	0,010
-587,138	-124,986	-0,153	-0,017
-586,123	718,197	0,049	-0,097
-585,109	-1,959	-0,029	-0,015
-584,094	567,581	-0,023	-0,042
-583,079	-22,346	0,033	0,015
-582,065	737,602	0,031	0,062
-581,050	148,219	0,048	-0,048
-580,036	-0,065	0,092	-0,048
-579,021	-43,175	-0,168	-0,063
-578,006	-200,000	-0,030	-0,127
-576,992	-200,000	-0,022	-0,135
-575,977	800,000	-0,045	-0,120
-574,963	200,389	-0,040	0,046
-573,948	126,656	0,096	0,090
-572,934	408,849	-0,028	-0,044
-571,919	788,478	0,034	-0,070
-570,904	-200,000	0,008	-0,038
-569,890	-200,000	-0,031	-0,205
-568,875	-41,617	0,162	-0,061
-567,861	-1,020	0,182	0,095
-566,846	8,688	-0,017	0,009
-565,831	800,000	-0,060	-0,155
-564,817	-71,252	0,070	0,019
-563,802	26,297	-0,146	0,090
-562,788	-143,404	-0,196	-0,014
-561,773	-200,000	0,001	0,047
-560,758	603,917	0,039	0,072
-559,744	-180,078	0,142	0,002
-558,729	800,000	-0,034	0,075
-557,715	-200,000	0,001	-0,041
-556,700	-67,935	-0,083	-0,024
-555,685	167,494	0,080	-0,084
-554,671	-200,000	0,042	-0,141
-553,656	627,093	-0,012	0,022
-552,642	86,423	0,045	-0,037
-551,627	800,000	0,026	0,059
-550,612	-110,895	-0,054	0,008
-549,598	-116,751	-0,107	-0,014
-548,583	118,663	0,054	0,050
-547,569	-43,779	-0,040	-0,015
-546,554	102,144	0,089	-0,076
-545,539	-200,000	0,020	-0,112
-544,525	102,085	-0,093	-0,080
-543,510	-43,848	-0,060	-0,022
-542,496	-51,800	0,119	-0,041
-541,481	-1,747	-0,037	-0,019
-540,466	-200,000	0,001	-0,037
-539,452	329,367	-0,038	0,055
-538,437	55,537	0,135	-0,096
-537,423	-6,188	0,157	0,079
-536,408	71,677	-0,097	-0,074
-535,393	99,814	-0,113	-0,097
-534,379	102,827	0,039	-0,034
-533,364	265,248	-0,023	0,029
-532,350	800,000	0,056	0,137
-531,335	-200,000	0,018	0,087
-530,321	-200,000	-0,010	0,067
-529,306	-62,561	-0,128	-0,039
-528,291	22,150	-0,141	-0,085
-527,277	-76,890	-0,040	-0,010
-526,262	176,399	-0,014	0,016
-525,248	-139,680	-0,063	0,005
-524,233	-98,139	-0,135	0,025
-523,218	112,810	0,066	-0,059
-522,204	687,597	-0,010	0,020
-521,189	-42,535	-0,090	-0,034
-520,175	-18,374	-0,073	0,034
-519,160	55,575	0,085	-0,061
-518,145	139,174	-0,094	-0,091
-517,131	-200,000	-0,001	-0,066
-516,116	72,265	-0,066	0,051
-515,102	-200,000	-0,012	-0,106
-514,087	-35,344	0,031	0,012
-513,072	89,520	-0,095	0,078
-512,058	32,046	0,040	0,025
-511,043	-37,605	0,033	0,013
-510,029	105,024	0,109	0,095
-509,014	-65,445	-0,052	-0,015
-507,999	11,465	0,078	-0,044
-506,985	11,285	-0,122	0,069
-505,970	-27,841	0,064	0,027
-504,956	800,000	-0,046	0,103
-503,941	586,164	-0,077	-0,140
-502,926	-37,464	0,029	0,011
-501,912	-129,638	0,096	-0,010
-500,897	13,108	-0,040	0,023
-499,883	464,850	-0,050	-0,083
-498,868	121,479	-0,026	0,024
-497,853	-116,364	-0,071	0,010
-496,839	88,848	-0,054	0,044
-495,824	-90,139	-0,042	0,009
-494,810	-102,070	-0,139	0,025
-493,795	100,046	0,079	0,067
-492,781	-80,735	-0,103	0,025
-491,766	28,711	0,056	0,035
-490,751	22,231	-0,070	-0,042
-489,737	-106,651	-0,129	0,021
-488,722	55,357	0,161	0,115
-487,708	800,000	-0,029	0,077
-486,693	-200,000	-0,011	0,122
-485,678	800,000	0,011	-0,034
-484,664	-200,000	0,019	-0,199
-483,649	35,658	-0,135	-0,087
-482,635	-200,000	-0,002	-0,079
-481,620	-77,090	0,088	0,022
-480,605	179,705	-0,052	0,056
-479,591	500,597	0,075	0,128
-478,576	237,418	-0,077	0,094
-477,562	-108,233	-0,132	0,021
-476,547	-200,000	0,024	-0,137
-475,532	-76,250	-0,033	-0,008
-474,518	-57,392	0,190	0,061
-473,503	146,047	0,081	0,080
-472,489	24,123	0,016	-0,010
-471,474	-12,751	-0,087	0,042
-470,459	-200,000	-0,009	-0,042
-469,445	532,815	-0,044	-0,077
-468,430	-200,000	0,001	0,012
-467,416	-52,354	0,117	-0,040
-466,401	-47,113	-0,131	0,047
-465,386	-200,000	0,005	0,055
-464,372	290,311	0,052	-0,070
-463,357	-158,704	-0,066	-0,003
-462,343	-200,000	-0,021	-0,140
-461,328	-200,000	-0,009	-0,141
-460,313	800,000	0,040	-0,120
-459,299	-200,000	-0,033	0,146
-458,284	184,461	0,087	-0,095
-457,270	179,086	0,030	0,033
-456,255	-200,000	-0,026	-0,121
-455,241	619,992	0,059	-0,110
-454,226	-15,882	-0,092	0,043
-453,211	800,000	-0,046	0,095
-452,197	-200,000	-0,028	0,094
-451,182	-150,080	0,057	0,003
-450,168	800,000	0,020	0,041
-449,153	-200,000	-0,003	-0,033
-448,138	233,560	0,062	-0,076
-447,124	488,110	-0,043	-0,072
-446,109	611,503	0,034	0,063
-445,095	290,711	-0,094	0,126
-444,080	-200,000	-0,004	0,075
-443,065	-8,401	0,075	0,037
-442,051	-31,665	-0,066	0,027
-441,036	-141,563	-0,175	0,013
-440,022	800,000	-0,016	0,049
-439,007	192,078	0,033	0,037
-437,992	-81,259	-0,032	-0,008
-436,978	-200,000	0,006	0,174
-435,963	347,044	-0,029	0,042
-434,949	-200,000	0,002	-0,025
-433,934	-39,871	0,045	-0,017
-432,919	219,752	0,106	-0,125
-431,905	-200,000	-0,009	0,048
-430,890	800,000	-0,034	0,099
-429,876	-45,908	0,071	-0,026
-428,861	75,065	0,011	0,009
-427,846	-149,396	-0,030	0,002
-426,832	109,320	0,134	-0,118
-425,817	-130,467	-0,090	-0,009
-424,803	-105,954	0,046	0,008
-423,788	-58,067	0,100	-0,032
-422,773	143,840	-0,043	-0,042
-421,759	-200,000	-0,019	0,064
-420,744	800,000	0,063	-0,140
-419,730	166,260	0,086	-0,090
-418,715	120,277	-0,057	-0,052
-417,701	316,350	-0,035	-0,048
-416,686	9,766	0,082	0,046
-415,671	800,000	0,069	0,144
-414,657	223,487	0,013	0,016
-413,642	132,577	-0,020	0,019
-412,628	-157,609	0,164	0,007
-411,613	-200,000	0,000	-0,008
-410,598	-200,000	-0,034	-0,199
-409,584	-74,786	-0,115	0,030
-408,569	484,006	-0,057	0,096
-407,555	422,209	0,052	0,082
-406,540	-77,775	0,062	0,016
-405,525	255,342	-0,095	0,120
-404,511	32,920	-0,070	0,044
-403,496	-4,483	-0,074	-0,038
-402,482	-200,000	-0,009	-0,084
-401,467	45,606	0,091	0,062
-400,452	-200,000	0,037	-0,200
-399,438	144,222	-0,041	-0,040
-398,423	-200,000	-0,007	-0,026
-397,409	-200,000	-0,067	0,000
-396,394	-140,730	-0,016	-0,001
-395,379	800,000	0,034	-0,090
-394,365	-137,421	0,130	0,011
-393,350	800,000	-0,006	0,017
-392,336	161,692	-0,064	-0,066
-391,321	618,863	0,013	-0,024
-390,306	-130,070	-0,050	0,005
-389,292	-158,087	0,025	-0,001
-388,277	-9,472	-0,073	0,036
-387,263	-133,140	0,146	-0,013
-386,248	552,578	0,079	-0,141
-385,233	443,117	0,060	0,097
-384,219	-75,285	0,084	0,022
-383,204	-200,000	0,006	0,027
-382,190	35,719	-0,164	-0,106
-381,175	-200,000	0,004	-0,027
-380,160	-171,150	-0,061	0,001
-379,146	-200,000	0,018	-0,104
-378,131	-53,301	-0,007	0,002
-377,117	-92,807	-0,083	0,017
-376,102	368,185	-0,054	0,080
-375,088	3,223	0,117	0,062
-374,073	663,420	0,026	0,049
-373,058	349,257	0,081	0,117
-372,044	150,392	0,036	0,036
-371,029	770,654	0,067	-0,135
-370,015	800,000	0,035	0,073
-369,000	17,053	0,099	-0,058
-367,985	-95,278	-0,094	-0,018
-366,971	-144,557	-0,028	0,002
-365,956	701,287	-0,082	0,159
-364,942	-200,000	-0,035	0,192
-363,927	74,769	0,080	0,062
-362,912	124,983	0,077	0,071
-361,898	-176,833	-0,109	-0,002
-360,883	-1,048	-0,076	-0,039
-359,869	9,317	-0,097	0,054
-358,854	-200,000	-0,009	-0,064
-357,839	261,293	0,051	-0,065
-356,825	-113,760	0,034	0,005
-355,810	-13,495	0,066	0,031
-354,796	800,000	-0,031	-0,066
-353,781	-89,142	0,084	-0,018
-352,766	104,762	-0,063	0,054
-351,752	-29,047	-0,021	-0,009
-350,737	166,899	0,040	-0,042
-349,723	-71,401	0,065	0,018
-348,708	-190,823	0,026	-0,000
-347,693	-200,000	0,007	-0,035
-346,679	-200,000	0,006	-0,040
-345,664	737,372	-0,084	-0,165
-344,650	111,743	0,128	0,114
-343,635	55,039	0,043	-0,031
-342,620	-78,490	0,034	-0,009
-341,606	-200,000	-0,006	-0,038
-340,591	-94,196	-0,058	-0,012
-339,577	-162,071	-0,129	-0,005
-338,562	161,149	-0,042	-0,043
-337,548	43,269	0,060	-0,040
-336,533	-102,865	0,137	0,024
-335,518	-97,552	0,048	0,009
-334,504	-30,071	-0,062	0,026
-333,489	452,541	-0,032	-0,053
-332,475	-80,560	0,102	0,025
-331,460	-99,924	-0,031	0,006
-330,445	-200,000	-0,006	0,021
-329,431	800,000	0,028	0,060
-328,416	39,918	-0,126	0,083
-327,402	-200,000	-0,005	-0,058
-326,387	-127,338	0,163	0,017
-325,372	1,013	-0,118	0,062
-324,358	-28,480	0,041	0,017
-323,343	-118,940	0,060	-0,008
-322,329	-200,000	0,022	0,092
-321,314	19,831	-0,085	-0,050
-320,299	-79,060	-0,082	-0,020
-319,285	33,160	0,060	-0,038
-318,270	-200,000	-0,016	-0,133
-317,256	-64,124	-0,116	-0,034
-316,241	-3,394	0,133	0,068
-315,226	13,876	-0,062	-0,035
-314,212	248,119	0,095	0,117
-313,197	463,806	-0,024	0,039
-312,183	-190,976	-0,017	0,000
-311,168	-156,155	-0,132	-0,006
-310,153	111,541	-0,037	0,033
-309,139	271,756	-0,024	-0,032
-308,124	-200,000	0,000	-0,029
-307,110	-200,000	-0,000	0,142
-306,095	-72,932	0,082	0,022
-305,080	-39,868	0,140	0,053
-304,066	-34,172	-0,112	-0,045
-303,051	273,481	-0,075	0,098
-302,037	383,261	0,007	0,011
-301,022	-31,590	0,131	0,054
-300,008	381,545	-0,025	0,038
-298,993	631,338	0,034	0,063
-297,978	-102,160	0,045	0,008
-296,964	612,902	-0,007	0,012
-295,949	-200,000	-0,001	0,083
-294,935	341,888	-0,033	-0,048
-293,920	13,858	0,166	-0,094
-292,905	-16,399	0,080	-0,037
-291,891	-50,415	0,091	-0,031
-290,876	-200,000	0,027	-0,096
-289,862	533,906	-0,045	-0,078
-288,847	-150,852	0,042	-0,002
-287,832	161,698	-0,095	0,097
-286,818	780,634	0,068	0,136
-285,803	211,593	0,104	-0,120
-284,789	-64,806	-0,043	0,013
-283,774	21,182	0,012	0,007
-282,759	34,888	0,089	0,057
-281,745	77,014	-0,081	-0,063
-280,730	-168,941	-0,062	-0,002
-279,716	34,867	0,049	-0,032
-278,701	-137,211	0,110	0,009
-277,686	800,000	0,029	0,067
-276,672	36,616	-0,116	-0,075
-275,657	321,764	0,079	-0,110
-274,643	800,000	0,046	-0,110
-273,628	800,000	-0,017	0,036
-272,613	117,850	-0,099	0,090
-271,599	-29,892	-0,080	0,033
-270,584	-200,000	0,030	0,154
-269,570	-69,056	0,060	-0,017
-268,555	-118,061	-0,104	0,013
-267,540	-200,000	-0,002	0,051
-266,526	126,396	-0,073	0,067
-265,511	-200,000	0,012	0,063
-264,497	-200,000	-0,008	-0,050
-263,482	-118,724	0,056	0,007
-262,467	-65,616	0,092	0,027
-261,453	-200,000	0,019	-0,087
-260,438	8,608	-0,035	-0,019
-259,424	314,066	-0,058	0,079
-258,409	-200,000	0,009	0,100
-257,395	-33,443	-0,077	0,031
-256,380	90,477	0,078	0,063
-255,365	-200,000	0,010	0,037
-254,351	601,783	0,043	0,079
-253,336	251,007	-0,050	-0,062
-252,322	800,000	-0,024	0,076
-251,307	-200,000	0,011	0,048
-250,292	-23,075	0,047	0,021
-249,278	42,304	-0,042	0,028
-248,263	-200,000	-0,011	0,058
-247,249	-200,000	-0,007	0,040
-246,234	-200,000	-0,006	0,054
-245,219	-200,000	0,018	0,086
-244,205	7,054	-0,059	0,032
-243,190	41,940	0,074	0,049
-242,176	705,420	-0,034	0,066
-241,161	800,000	-0,006	0,018
-240,146	11,579	-0,064	0,036
-239,132	-200,000	-0,003	-0,028
-238,117	-33,019	-0,040	-0,016
-237,103	-187,660	-0,094	0,001
-236,088	-65,319	-0,054	0,016
-235,073	-200,000	0,014	0,085
-234,059	-2,654	0,167	-0,085
-233,044	-118,507	-0,074	0,009
-232,030	56,692	-0,112	0,080
-231,015	503,934	0,037	-0,062
-230,000	20,349	-0,093	0,055
-228,986	-69,806	0,030	0,008
-227,971	-151,009	0,207	0,011
-226,957	198,851	-0,054	0,061
-225,942	-200,000	0,007	-0,036
-224,927	386,994	-0,033	-0,050
-223,913	-200,000	0,002	-0,126
-222,898	-200,000	0,009	-0,098
-221,884	-155,508	0,113	-0,005
-220,869	-133,404	-0,060	0,005
-219,855	-53,199	0,112	0,037
-218,840	800,000	0,014	-0,039
-217,825	-200,000	0,013	0,061
-216,811	-29,363	-0,011	0,005
-215,796	403,311	-0,040	0,062
-214,782	-200,000	-0,006	-0,097
-213,767	-125,095	-0,074	0,008
-212,752	-200,000	-0,004	-0,072
-211,738	-200,000	0,008	0,099
-210,723	327,777	0,023	-0,032
-209,709	800,000	-0,032	-0,068
-208,694	711,423	-0,016	-0,031
-207,679	135,199	0,076	-0,072
-206,665	135,642	0,020	0,019
-205,650	-77,900	-0,016	0,004
-204,636	56,292	-0,043	0,031
-203,621	-161,792	-0,040	-0,001
-202,606	468,789	-0,106	-0,175
-201,592	157,122	-0,041	-0,041
-200,577	-200,000	-0,011	-0,146
-199,563	23,160	0,090	-0,054
-198,548	-106,138	0,141	0,023
-197,533	-15,520	0,032	-0,015
-196,519	183,103	-0,066	-0,071
-195,504	-200,000	0,004	-0,111
-194,490	-123,318	-0,129	-0,015
-193,475	-134,200	0,092	0,008
-192,460	33,781	0,066	0,042
-191,446	800,000	0,053	0,124
-190,431	800,000	0,059	0,141
-189,417	-200,000	0,016	0,085
-188,402	442,995	-0,052	0,083
-187,387	-200,000	0,004	-0,032
-186,373	-20,243	-0,066	-0,029
-185,358	-33,985	-0,080	-0,032
-184,344	-60,361	0,057	-0,018
-183,329	-200,000	0,029	-0,107
-182,315	-139,023	-0,038	0,003
-181,300	179,504	-0,047	-0,050
-180,285	755,616	-0,004	-0,008
-179,271	-200,000	0,026	-0,107
-178,256	-104,382	-0,122	0,020
-177,242	-38,084	0,075	0,029
-176,227	-200,000	0,002	0,139
-175,212	31,151	-0,146	0,091
-174,198	-20,718	0,093	0,041
-173,183	141,073	-0,125	-0,120
-172,169	266,202	-0,099	-0,126
-171,154	-96,644	-0,125	0,024
-170,139	121,420	0,049	0,045
-169,125	-138,383	0,160	-0,013
-168,110	-200,000	-0,007	-0,031
-167,096	-131,427	0,140	-0,013
-166,081	-200,000	-0,004	-0,087
-165,066	800,000	-0,023	-0,071
-164,052	-200,000	-0,002	0,077
-163,037	800,000	0,010	0,032
-162,023	37,877	0,053	-0,034
-161,008	471,179	-0,037	0,060
-159,993	275,811	0,063	0,082
-158,979	800,000	0,006	-0,017
-157,964	-200,000	0,002	0,093
-156,950	-113,569	0,122	0,017
-155,935	-0,103	0,078	0,040
-154,920	800,000	0,006	0,014
-153,906	12,582	0,070	0,039
-152,891	12,722	-0,060	0,034
-151,877	74,244	-0,054	0,041
-150,862	179,470	0,129	0,138
-149,847	-200,000	0,005	-0,089
-148,833	577,258	0,028	-0,050
-147,818	20,797	-0,169	0,099
-146,804	115,464	-0,071	-0,063
-145,789	-125,946	0,028	-0,003
-144,775	54,520	0,094	-0,066
-143,760	154,454	-0,051	-0,051
-142,745	510,236	0,069	-0,118
-141,731	22,265	-0,145	-0,086
-140,716	-23,129	0,062	-0,027
-139,702	800,000	-0,006	0,014
-138,687	-200,000	-0,021	0,120
-137,672	-28,066	-0,076	0,032
-136,658	-23,674	0,022	0,010
-135,643	509,035	-0,027	-0,045
-134,629	105,259	-0,078	-0,067
-133,614	800,000	0,034	0,070
-132,599	492,625	0,016	0,026
-131,585	12,528	-0,094	0,052
-130,570	-50,338	-0,048	-0,016
-129,556	747,529	-0,053	-0,104
-128,541	-186,552	-0,132	-0,001
-127,526	439,325	-0,040	-0,063
-126,512	800,000	-0,019	0,041
-125,497	-44,579	-0,092	-0,033
-124,483	-200,000	0,010	0,086
-123,468	109,481	0,061	-0,053
-122,453	800,000	-0,095	-0,202
-121,439	-200,000	-0,028	0,143
-120,424	-60,742	0,089	0,027
-119,410	172,209	-0,112	0,117
-118,395	375,758	0,105	0,157
