DTS Sentinel unit serial number:	SN410029Multiplexer serial number:	ORYXHardware model number:	OX2-SRSoftware version number:	ORYX F/W v4,00 Oryx Data Collector v3.7.2.0data status	okinstallation	B4 Nyhavnadifferential loss correction	single-endedforward channel	channel 2reverse channel	N/Adate	2023/12/19time	08:15:13forward acquisition time	300,00reverse acquisition time	0,00gamma	499,1914k internal	0,3126k external	0,3126temperature offset calibration	1,0000default loss term (dB/km)	0,3820temperature slope calibration	1,0000multiplexer offset coefficient	1,0000multiplexer slope coefficient	1,0000fibre end	0,00T internal ref (°C)	20,88T ext. ref 1 (°C)	5,59T ext. ref 2 (°C)	5,69length (m)	temperature (°C)	Stokes	anti-Stokes-744,400	800,000	-0,034	-0,101
-743,385	-47,548	-0,194	0,070
-742,371	-200,000	0,035	-0,159
-741,356	94,600	-0,155	0,131
-740,342	51,706	0,173	0,122
-739,327	-107,103	-0,285	0,046
-738,312	-66,696	0,015	-0,004
-737,298	-85,941	-0,274	0,063
-736,283	-27,695	0,178	-0,076
-735,269	77,983	-0,276	0,219
-734,254	-0,767	0,116	-0,061
-733,239	-121,976	-0,420	-0,051
-732,225	212,191	0,062	0,073
-731,210	65,493	0,053	0,040
-730,196	-45,326	-0,081	-0,030
-729,181	-200,000	0,037	-0,138
-728,167	15,732	0,062	-0,036
-727,152	501,008	-0,053	0,091
-726,137	320,685	-0,102	-0,144
-725,123	-200,000	-0,059	-0,222
-724,108	384,627	-0,087	-0,134
-723,094	24,690	-0,181	-0,111
-722,079	269,664	-0,016	0,020
-721,064	-200,000	-0,014	-0,086
-720,050	182,917	0,046	-0,051
-719,035	-200,000	-0,004	-0,042
-718,021	-3,458	-0,185	-0,095
-717,006	-36,329	-0,115	-0,046
-715,991	695,879	-0,070	-0,138
-714,977	185,243	-0,020	0,022
-713,962	461,153	-0,008	-0,013
-712,948	302,716	0,016	0,023
-711,933	-200,000	-0,000	-0,057
-710,918	-87,234	-0,084	0,019
-709,904	-200,000	-0,008	-0,062
-708,889	-200,000	0,003	-0,144
-707,875	51,469	0,018	-0,013
-706,860	800,000	-0,055	-0,118
-705,845	-156,667	-0,123	-0,006
-704,831	92,568	0,113	-0,095
-703,816	728,882	-0,010	-0,021
-702,802	-88,246	-0,062	-0,014
-701,787	-16,039	-0,067	-0,032
-700,772	177,065	0,026	0,028
-699,758	-200,000	-0,025	-0,164
-698,743	-5,511	0,023	-0,012
-697,729	227,759	0,043	-0,052
-696,714	-200,000	-0,021	0,072
-695,699	205,162	-0,030	-0,035
-694,685	800,000	0,016	-0,045
-693,670	294,347	-0,055	-0,075
-692,656	-91,592	0,029	-0,006
-691,641	163,945	0,049	-0,051
-690,627	-200,000	-0,013	0,044
-689,612	-80,267	-0,034	-0,008
-688,597	15,555	-0,076	0,044
-687,583	1,293	0,030	0,016
-686,568	115,658	0,053	0,049
-685,554	800,000	0,035	-0,077
-684,539	-71,438	0,065	-0,018
-683,524	40,470	0,050	0,033
-682,510	-65,581	0,124	0,037
-681,495	-200,000	-0,021	-0,107
-680,481	-46,101	-0,158	0,057
-679,466	800,000	-0,032	-0,101
-678,451	242,974	-0,070	-0,087
-677,437	800,000	0,015	0,040
-676,422	-20,191	-0,017	0,008
-675,408	-142,914	0,037	0,003
-674,393	-71,246	-0,116	0,032
-673,378	-123,335	-0,129	-0,015
-672,364	-200,000	-0,024	-0,105
-671,349	-200,000	0,009	0,046
-670,335	90,177	0,065	-0,054
-669,320	285,666	0,051	-0,068
-668,305	-132,221	-0,084	0,008
-667,291	103,729	0,080	0,069
-666,276	6,796	-0,087	0,048
-665,262	-200,000	0,001	-0,106
-664,247	-200,000	-0,003	-0,179
-663,232	-24,646	0,120	0,053
-662,218	60,516	-0,134	0,098
-661,203	-200,000	-0,013	0,065
-660,189	103,481	-0,107	0,093
-659,174	800,000	-0,066	-0,190
-658,159	441,620	-0,028	-0,046
-657,145	86,746	-0,051	0,042
-656,130	-59,506	-0,061	-0,019
-655,116	304,395	-0,048	-0,066
-654,101	-100,195	0,094	0,017
-653,086	635,094	-0,030	0,057
-652,072	-200,000	0,002	-0,088
-651,057	800,000	0,046	-0,116
-650,043	-200,000	-0,004	0,016
-649,028	422,675	0,062	0,099
-648,014	285,843	-0,082	0,111
-646,999	-70,062	-0,052	-0,015
-645,984	39,491	-0,062	-0,041
-644,970	78,226	-0,058	-0,046
-643,955	553,140	-0,011	-0,020
-642,941	-189,115	-0,106	-0,001
-641,926	617,683	0,051	-0,096
-640,911	-200,000	0,002	0,082
-639,897	94,646	0,135	0,114
-638,882	-110,172	-0,103	-0,016
-637,868	-191,292	-0,048	-0,000
-636,853	-84,485	-0,100	0,023
-635,838	-200,000	0,003	-0,087
-634,824	-59,089	0,017	0,005
-633,809	393,684	-0,061	0,095
-632,795	-200,000	-0,004	0,052
-631,780	-200,000	0,023	0,107
-630,765	49,440	0,070	-0,049
-629,751	54,553	-0,080	-0,057
-628,736	-200,000	-0,005	-0,104
-627,722	-5,125	0,049	0,025
-626,707	167,508	-0,033	-0,034
-625,692	800,000	-0,008	-0,025
-624,678	74,473	-0,095	-0,074
-623,663	-148,870	-0,087	0,005
-622,649	800,000	0,043	0,092
-621,634	73,360	-0,075	-0,058
-620,619	8,337	0,029	0,016
-619,605	-200,000	-0,014	0,085
-618,590	35,114	-0,097	0,063
-617,576	-177,608	0,118	-0,002
-616,561	-111,467	-0,048	0,007
-615,546	800,000	0,022	-0,049
-614,532	393,057	0,076	-0,118
-613,517	575,083	-0,025	-0,046
-612,503	-60,031	0,117	0,037
-611,488	800,000	0,034	0,088
-610,474	21,484	0,108	-0,065
-609,459	-200,000	-0,000	-0,010
-608,444	-200,000	0,005	-0,042
-607,430	-63,752	0,103	-0,031
-606,415	800,000	0,050	-0,115
-605,401	536,006	0,030	-0,052
-604,386	-121,185	0,056	-0,007
-603,371	18,851	0,088	-0,052
-602,357	-200,000	-0,025	0,180
-601,342	-200,000	0,006	-0,050
-600,328	-200,000	0,003	-0,102
-599,313	563,318	-0,079	-0,143
-598,298	207,840	0,077	-0,090
-597,284	278,076	-0,042	-0,056
-596,269	800,000	-0,029	0,069
-595,255	-200,000	0,011	0,038
-594,240	306,822	0,063	-0,086
-593,225	-171,912	-0,054	0,001
-592,211	-200,000	0,029	-0,137
-591,196	121,736	-0,012	0,011
-590,182	147,205	-0,018	-0,018
-589,167	-200,000	-0,006	0,109
-588,152	-200,000	0,013	-0,056
-587,138	776,922	0,045	-0,092
-586,123	89,379	-0,123	-0,101
-585,109	3,668	0,065	-0,035
-584,094	-34,400	-0,120	-0,048
-583,079	275,743	-0,081	0,106
-582,065	-12,412	0,144	0,069
-581,050	-200,000	0,005	0,045
-580,036	157,822	0,035	0,036
-579,021	-170,712	-0,083	-0,002
-578,006	-165,723	0,036	-0,001
-576,992	800,000	0,037	0,084
-575,977	179,871	-0,144	-0,156
-574,963	800,000	0,035	0,109
-573,948	9,020	0,052	-0,029
-572,934	332,323	0,075	0,108
-571,919	-95,972	-0,098	-0,019
-570,904	-157,357	-0,008	-0,000
-569,890	800,000	-0,004	0,008
-568,875	-200,000	-0,012	-0,125
-567,861	-67,579	0,067	0,019
-566,846	408,483	0,014	0,023
-565,831	-200,000	-0,007	-0,162
-564,817	-200,000	0,009	-0,086
-563,802	-200,000	-0,072	-0,269
-562,788	-95,048	-0,030	-0,006
-561,773	-48,709	0,108	-0,038
-560,758	-124,616	0,157	0,018
-559,744	-116,278	0,052	-0,007
-558,729	407,012	0,033	0,051
-557,715	240,282	-0,038	0,047
-556,700	800,000	-0,036	0,118
-555,685	-4,800	0,026	-0,013
-554,671	-112,973	-0,028	0,004
-553,656	-200,000	-0,028	-0,123
-552,642	-3,921	-0,036	-0,019
-551,627	366,354	0,067	0,100
-550,612	-200,000	0,007	-0,159
-549,598	202,743	-0,012	0,013
-548,583	800,000	0,064	-0,149
-547,569	32,780	0,068	0,043
-546,554	240,793	0,090	0,111
-545,539	-200,000	0,007	0,071
-544,525	523,014	0,029	0,051
-543,510	-98,700	0,058	0,011
-542,496	65,800	0,179	-0,134
-541,481	-141,129	-0,160	-0,012
-540,466	691,030	-0,047	0,091
-539,452	-200,000	0,001	0,068
-538,437	-104,166	0,067	-0,011
-537,423	-38,518	-0,108	0,042
-536,408	151,918	0,072	-0,073
-535,393	148,354	-0,078	-0,078
-534,379	-74,845	0,029	-0,008
-533,364	84,545	0,111	-0,090
-532,350	193,924	0,066	0,074
-531,335	-200,000	0,018	0,086
-530,321	-200,000	0,021	0,150
-529,306	50,483	-0,111	-0,077
-528,291	-200,000	0,014	-0,080
-527,277	100,148	-0,085	-0,073
-526,262	-78,963	-0,045	-0,011
-525,248	33,187	0,031	-0,020
-524,233	23,739	-0,034	0,021
-523,218	-200,000	-0,040	0,133
-522,204	230,120	-0,095	0,115
-521,189	62,721	-0,148	-0,109
-520,175	-17,526	0,083	0,038
-519,160	800,000	0,095	-0,217
-518,145	-116,016	-0,059	-0,008
-517,131	-100,558	0,065	-0,012
-516,116	-138,492	0,124	-0,010
-515,102	-162,598	-0,189	0,007
-514,087	-103,468	0,070	-0,012
-513,072	800,000	0,036	-0,100
-512,058	-53,764	-0,088	-0,030
-511,043	-200,000	0,012	-0,088
-510,029	800,000	0,035	-0,086
-509,014	213,670	0,059	0,069
-507,999	526,258	-0,054	-0,094
-506,985	800,000	0,017	-0,054
-505,970	-200,000	-0,013	0,046
-504,956	800,000	-0,042	-0,133
-503,941	111,846	-0,006	-0,005
-502,926	-84,477	0,030	0,007
-501,912	708,953	0,080	0,157
-500,897	-70,236	0,151	-0,042
-499,883	35,484	-0,149	0,096
-498,868	648,250	-0,052	-0,098
-497,853	800,000	-0,046	0,101
-496,839	-200,000	-0,013	0,104
-495,824	-200,000	-0,005	-0,114
-494,810	128,486	-0,037	-0,034
-493,795	356,067	-0,069	0,101
-492,781	-200,000	-0,016	-0,073
-491,766	676,362	-0,094	-0,182
-490,751	-159,601	-0,144	0,006
-489,737	-193,944	-0,158	0,001
-488,722	14,165	0,147	-0,084
-487,708	-38,305	0,134	0,052
-486,693	-38,322	-0,040	0,015
-485,678	73,313	0,067	0,052
-484,664	152,456	-0,112	0,112
-483,649	470,173	-0,077	0,129
-482,635	1,042	-0,090	-0,047
-481,620	400,811	0,036	-0,056
-480,605	-200,000	-0,015	0,050
-479,591	39,533	0,075	-0,049
-478,576	-200,000	-0,008	0,086
-477,562	-56,324	0,121	-0,039
-476,547	-9,348	0,058	-0,028
-475,532	16,241	-0,056	-0,033
-474,518	800,000	0,013	0,031
-473,503	89,395	0,071	-0,058
-472,489	-23,877	-0,097	0,043
-471,474	743,570	-0,065	0,129
-470,459	4,974	-0,104	-0,056
-469,445	83,091	-0,092	-0,073
-468,430	264,642	-0,073	0,094
-467,416	-12,531	-0,063	-0,030
-466,401	214,254	0,028	0,033
-465,386	-200,000	-0,016	0,132
-464,372	-127,104	-0,058	0,006
-463,357	116,513	-0,118	-0,107
-462,343	-86,456	-0,068	0,015
-461,328	-200,000	0,012	-0,069
-460,313	800,000	-0,048	-0,107
-459,299	489,766	0,039	0,066
-458,284	-200,000	0,002	-0,026
-457,270	213,100	0,060	-0,070
-456,255	452,890	-0,068	-0,112
-455,241	-62,218	0,162	0,049
-454,226	34,062	0,058	0,037
-453,211	-200,000	0,027	-0,126
-452,197	126,083	0,045	0,042
-451,182	-200,000	0,028	0,130
-450,168	-200,000	0,016	0,172
-449,153	-110,437	-0,129	-0,019
-448,138	244,049	0,028	-0,035
-447,124	452,990	-0,015	-0,025
-446,109	255,001	-0,026	0,032
-445,095	800,000	-0,037	0,077
-444,080	569,120	0,062	0,112
-443,065	800,000	-0,029	-0,064
-442,051	800,000	0,069	-0,146
-441,036	-200,000	-0,034	-0,147
-440,022	-68,703	0,125	0,035
-439,007	800,000	0,013	-0,036
-437,992	682,482	-0,026	-0,050
-436,978	-68,424	0,027	0,008
-435,963	119,395	0,049	0,045
-434,949	102,171	-0,139	-0,120
-433,934	-200,000	0,011	-0,043
-432,919	-136,350	0,244	-0,021
-431,905	-200,000	-0,002	-0,058
-430,890	-159,312	0,071	0,003
-429,876	-200,000	0,043	0,160
-428,861	-56,744	0,166	0,054
-427,846	800,000	-0,033	-0,069
-426,832	162,568	-0,060	-0,062
-425,817	-200,000	-0,018	0,069
-424,803	246,685	-0,028	-0,035
-423,788	-117,393	0,091	-0,012
-422,773	-200,000	-0,009	0,043
-421,759	89,382	0,064	0,053
-420,744	800,000	-0,008	-0,019
-419,730	-200,000	0,023	-0,112
-418,715	-200,000	0,019	-0,128
-417,701	15,425	0,065	0,037
-416,686	177,981	0,088	-0,095
-415,671	282,192	0,038	-0,051
-414,657	32,942	0,067	-0,043
-413,642	-200,000	0,015	0,147
-412,628	-124,617	-0,052	0,006
-411,613	308,557	-0,064	-0,087
-410,598	-144,783	-0,139	-0,009
-409,584	149,283	0,109	0,109
-408,569	187,151	-0,069	0,075
-407,555	310,145	0,094	-0,129
-406,540	14,042	-0,162	-0,093
-405,525	-39,445	-0,080	0,031
-404,511	-200,000	-0,042	-0,148
-403,496	-40,630	-0,165	0,062
-402,482	160,015	0,105	-0,108
-401,467	229,368	0,099	-0,119
-400,452	150,389	-0,082	0,081
-399,438	-16,720	0,096	0,045
-398,423	253,305	0,079	-0,099
-397,409	-70,740	0,108	-0,030
-396,394	-34,941	-0,103	-0,041
-395,379	73,769	-0,047	0,036
-394,365	-153,947	0,035	0,002
-393,350	66,564	0,059	-0,044
-392,336	800,000	0,022	0,065
-391,321	38,842	-0,019	0,012
-390,306	-151,160	-0,045	0,002
-389,292	-200,000	-0,035	0,121
-388,277	-60,581	0,044	0,014
-387,263	114,056	0,032	0,028
-386,248	-200,000	-0,012	0,131
-385,233	-200,000	-0,013	0,094
-384,219	-200,000	-0,000	0,016
-383,204	0,196	0,022	0,012
-382,190	800,000	0,030	-0,076
-381,175	-110,539	0,048	-0,007
-380,160	-200,000	0,015	0,073
-379,146	800,000	0,050	0,125
-378,131	-65,780	0,055	0,016
-377,117	-200,000	0,007	-0,042
-376,102	-186,049	0,100	0,001
-375,088	-81,213	-0,098	-0,023
-374,073	-26,787	-0,075	-0,032
-373,058	-200,000	0,032	0,129
-372,044	-37,421	-0,108	0,042
-371,029	-75,920	-0,083	0,021
-370,015	-200,000	0,048	0,185
-369,000	800,000	-0,046	0,110
-367,985	-194,417	0,203	0,001
-366,971	389,619	-0,045	0,068
-365,956	-172,557	0,087	-0,002
-364,942	-48,462	-0,066	0,023
-363,927	298,986	-0,022	-0,030
-362,912	-153,909	0,209	-0,010
-361,898	-200,000	-0,019	0,089
-360,883	449,793	0,026	-0,042
-359,869	-33,151	-0,031	0,012
-358,854	-200,000	-0,026	0,106
-357,839	85,991	0,027	-0,022
-356,825	34,094	0,091	-0,058
-355,810	302,271	-0,107	0,146
-354,796	289,862	-0,049	-0,065
-353,781	-200,000	-0,004	-0,113
-352,766	458,916	0,080	-0,131
-351,752	271,123	-0,009	0,012
-350,737	692,438	0,023	0,044
-349,723	277,303	0,112	0,146
-348,708	212,504	-0,053	0,061
-347,693	-64,572	-0,162	-0,048
-346,679	114,046	0,059	0,053
-345,664	-161,452	-0,114	-0,004
-344,650	662,285	0,045	0,086
-343,635	-75,075	0,055	0,014
-342,620	217,627	0,075	-0,088
-341,606	146,414	0,091	-0,090
-340,591	419,179	0,029	0,045
-339,577	488,199	-0,011	0,018
-338,562	-51,244	-0,079	-0,027
-337,548	-26,268	-0,064	-0,027
-336,533	-200,000	-0,021	0,102
-335,518	580,261	0,066	0,119
-334,504	-200,000	0,030	0,117
-333,489	-97,201	-0,154	0,029
-332,475	-200,000	0,029	-0,191
-331,460	-63,822	-0,158	-0,047
-330,445	-3,506	-0,128	0,065
-329,431	-127,258	0,020	0,002
-328,416	30,861	0,086	0,054
-327,402	-158,361	0,167	0,007
-326,387	-114,541	0,056	0,008
-325,372	-103,646	-0,116	-0,020
-324,358	-200,000	0,002	-0,047
-323,343	-80,934	-0,012	0,003
-322,329	800,000	-0,047	-0,113
-321,314	642,232	0,024	0,046
-320,299	800,000	-0,051	0,117
-319,285	35,928	0,094	-0,060
-318,270	-104,884	-0,120	-0,020
-317,256	506,167	-0,028	0,047
-316,241	-200,000	-0,021	0,076
-315,226	800,000	-0,035	-0,071
-314,212	-22,903	0,164	-0,072
-313,197	487,118	0,039	-0,065
-312,183	229,405	-0,141	0,169
-311,168	190,250	0,021	-0,023
-310,153	38,185	-0,066	-0,043
-309,139	-9,607	-0,085	0,041
-308,124	63,920	-0,070	0,052
-307,110	-200,000	0,013	-0,054
-306,095	-173,254	0,042	0,001
-305,080	-200,000	0,001	-0,096
-304,066	-200,000	0,012	-0,042
-303,051	-104,138	0,053	0,009
-302,037	-200,000	0,032	0,106
-301,022	555,398	-0,035	0,062
-300,008	-172,109	-0,072	-0,002
-298,993	-200,000	-0,023	0,079
-297,978	-200,000	0,000	-0,025
-296,964	42,919	0,062	-0,041
-295,949	-134,384	-0,066	-0,006
-294,935	-200,000	-0,020	0,084
-293,920	15,978	-0,134	0,077
-292,905	48,257	0,078	-0,054
-291,891	-200,000	0,017	-0,108
-290,876	-200,000	0,018	-0,087
-289,862	800,000	0,066	-0,149
-288,847	800,000	0,025	0,057
-287,832	-200,000	0,013	-0,113
-286,818	34,205	-0,072	-0,046
-285,803	-200,000	0,028	0,000
-284,789	126,917	-0,091	0,085
-283,774	800,000	-0,044	0,127
-282,759	-94,062	0,080	0,016
-281,745	41,232	-0,033	0,022
-280,730	525,666	0,044	0,076
-279,716	238,396	-0,063	-0,077
-278,701	800,000	0,036	0,075
-277,686	800,000	0,078	0,192
-276,672	87,087	0,167	0,135
-275,657	-200,000	-0,003	0,083
-274,643	0,109	-0,062	0,032
-273,628	-200,000	-0,011	-0,103
-272,613	-155,835	-0,131	0,006
-271,599	-106,151	0,153	0,025
-270,584	-72,987	0,015	-0,004
-269,570	-200,000	0,012	0,044
-268,555	-6,205	0,010	-0,005
-267,540	-200,000	0,004	0,033
-266,526	-98,044	0,035	-0,007
-265,511	-106,213	-0,050	-0,008
-264,497	364,808	-0,070	-0,104
-263,482	-200,000	0,029	0,118
-262,467	31,070	0,042	0,026
-261,453	-100,097	-0,134	0,024
-260,438	554,822	0,028	-0,049
-259,424	113,389	-0,041	-0,036
-258,409	602,748	-0,042	-0,076
-257,395	134,222	-0,061	-0,057
-256,380	25,018	-0,098	0,059
-255,365	-72,790	-0,012	-0,003
-254,351	800,000	-0,035	-0,077
-253,336	89,320	-0,033	-0,027
-252,322	-1,253	-0,160	0,082
-251,307	-131,396	0,064	-0,006
-250,292	-200,000	-0,030	0,123
-249,278	307,051	-0,027	0,036
-248,263	800,000	0,041	0,106
-247,249	-200,000	-0,025	0,124
-246,234	92,487	-0,046	-0,038
-245,219	-200,000	0,002	0,049
-244,205	800,000	0,023	0,067
-243,190	-200,000	0,002	-0,057
-242,176	347,130	-0,040	0,058
-241,161	800,000	-0,026	0,062
-240,146	-91,274	-0,092	0,019
-239,132	-200,000	0,016	-0,085
-238,117	800,000	0,023	0,055
-237,103	657,043	-0,031	-0,059
-236,088	800,000	0,050	-0,118
-235,073	800,000	0,044	0,100
-234,059	189,684	0,094	0,103
-233,044	180,176	-0,087	0,093
-232,030	223,164	-0,138	-0,162
-231,015	-200,000	0,021	-0,072
-230,000	-138,059	0,085	-0,007
-228,986	-143,574	0,018	0,001
-227,971	800,000	0,023	-0,054
-226,957	35,570	0,152	0,097
-225,942	-200,000	-0,002	0,085
-224,927	436,678	0,090	0,144
-223,913	800,000	-0,024	0,060
-222,898	-22,942	-0,082	-0,036
-221,884	631,854	0,033	-0,062
-220,869	-76,932	0,135	0,034
-219,855	800,000	0,048	0,124
-218,840	-2,875	-0,182	0,092
-217,825	-79,961	0,039	-0,010
-216,811	30,927	-0,093	0,058
-215,796	-137,607	0,038	0,003
-214,782	-200,000	-0,016	-0,096
-213,767	-86,798	-0,084	-0,019
-212,752	-83,639	0,143	0,033
-211,738	341,536	-0,042	0,060
-210,723	26,192	-0,066	-0,040
-209,709	800,000	0,024	0,061
-208,694	-31,577	-0,069	0,028
-207,679	111,741	-0,082	0,072
-206,665	141,378	0,137	-0,133
-205,650	431,818	0,037	0,058
-204,636	-195,677	-0,012	0,000
-203,621	800,000	-0,018	-0,052
-202,606	-61,056	0,083	0,025
-201,592	67,697	-0,113	-0,084
-200,577	-158,512	-0,139	-0,006
-199,563	-129,719	0,092	0,009
-198,548	481,329	0,087	-0,145
-197,533	9,334	0,044	0,024
-196,519	800,000	0,030	-0,070
-195,504	-200,000	0,026	-0,113
-194,490	396,513	-0,084	0,128
-193,475	800,000	0,058	-0,125
-192,460	321,167	0,041	0,058
-191,446	315,283	0,043	0,059
-190,431	103,362	-0,072	0,061
-189,417	-112,131	-0,129	0,019
-188,402	-200,000	0,021	0,070
-187,387	-149,593	0,042	-0,002
-186,373	-200,000	-0,031	-0,150
-185,358	-200,000	0,008	-0,074
-184,344	-27,598	0,129	-0,054
-183,329	-140,560	0,076	-0,006
-182,315	-28,662	0,048	0,020
-181,300	-200,000	-0,006	-0,154
-180,285	-200,000	0,001	-0,029
-179,271	-200,000	-0,006	-0,098
-178,256	26,799	-0,104	0,063
-177,242	355,039	-0,013	0,019
-176,227	21,798	-0,085	-0,050
-175,212	673,329	0,057	0,109
-174,198	-200,000	-0,012	0,173
-173,183	-26,341	-0,047	-0,020
-172,169	-200,000	0,000	-0,066
-171,154	-200,000	-0,014	-0,076
-170,139	-110,452	0,083	-0,012
-169,125	75,621	0,035	-0,027
-168,110	-63,587	0,062	0,018
-167,096	-55,122	-0,044	-0,014
-166,081	-158,391	-0,038	0,002
-165,066	24,642	0,095	0,057
-164,052	800,000	-0,031	0,072
-163,037	-25,476	0,071	-0,030
-162,023	229,480	0,051	0,061
-161,008	-58,659	-0,126	-0,040
-159,993	-176,158	0,193	-0,004
-158,979	637,972	-0,034	-0,063
-157,964	-91,400	0,129	0,027
-156,950	226,319	-0,091	0,108
-155,935	523,263	-0,038	-0,065
-154,920	553,743	-0,064	-0,113
-153,906	25,011	0,016	0,010
-152,891	-200,000	-0,015	0,102
-151,877	81,247	0,071	0,056
-150,862	56,938	-0,052	0,037
-149,847	-24,711	-0,071	0,031
-148,833	734,981	0,039	0,076
-147,818	785,253	-0,015	0,031
-146,804	-14,870	0,069	-0,032
-145,789	512,671	-0,035	-0,060
-144,775	-200,000	0,013	0,077
-143,760	-200,000	0,000	-0,021
-142,745	-85,630	0,147	-0,033
-141,731	4,545	0,103	0,055
-140,716	-200,000	0,011	0,069
-139,702	326,295	0,009	0,012
-138,687	-100,152	0,143	-0,026
-137,672	-140,974	-0,103	-0,008
-136,658	164,808	-0,017	-0,017
-135,643	-18,654	0,110	0,050
-134,629	230,911	-0,112	-0,133
-133,614	279,435	-0,009	-0,012
-132,599	775,003	0,085	-0,170
-131,585	443,291	-0,092	-0,147
-130,570	157,320	0,085	-0,085
-129,556	-76,946	-0,209	0,053
-128,541	-42,084	0,038	-0,014
-127,526	-200,000	-0,005	0,047
-126,512	800,000	-0,036	-0,115
-125,497	250,688	-0,082	0,102
-124,483	-102,837	0,058	-0,010
-123,468	-200,000	0,042	0,173
-122,453	391,381	-0,032	0,049
-121,439	-36,739	-0,066	0,026
-120,424	-68,124	0,191	-0,054
-119,410	800,000	-0,041	0,130
