DTS Sentinel unit serial number:	SN410029Multiplexer serial number:	ORYXHardware model number:	OX2-SRSoftware version number:	ORYX F/W v4,00 Oryx Data Collector v3.7.2.0data status	okinstallation	B4 Nyhavnadifferential loss correction	single-endedforward channel	channel 2reverse channel	N/Adate	2023/12/18time	15:25:14forward acquisition time	300,00reverse acquisition time	0,00gamma	499,1914k internal	0,3161k external	0,3161temperature offset calibration	1,0000default loss term (dB/km)	0,3820temperature slope calibration	1,0000multiplexer offset coefficient	1,0000multiplexer slope coefficient	1,0000fibre end	0,00T internal ref (°C)	14,64T ext. ref 1 (°C)	7,10T ext. ref 2 (°C)	7,20length (m)	temperature (°C)	Stokes	anti-Stokes-744,400	800,000	0,032	-0,098
-743,385	-91,323	-0,220	0,046
-742,371	-5,573	0,127	0,064
-741,356	40,980	-0,325	0,216
-740,342	0,183	0,120	-0,063
-739,327	-103,459	-0,281	0,048
-738,312	10,279	0,064	0,035
-737,298	-97,862	-0,308	-0,058
-736,283	46,069	0,120	0,082
-735,269	15,233	-0,209	0,121
-734,254	-144,892	0,154	0,010
-733,239	-78,230	-0,306	-0,077
-732,225	62,289	0,046	0,034
-731,210	-110,807	0,077	-0,012
-730,196	156,083	-0,058	-0,059
-729,181	-8,461	-0,132	-0,065
-728,167	65,758	0,124	-0,092
-727,152	-200,000	-0,024	-0,097
-726,137	45,668	-0,104	-0,070
-725,123	800,000	-0,051	-0,124
-724,108	-23,584	-0,106	-0,046
-723,094	-61,060	-0,171	-0,053
-722,079	-75,566	-0,193	-0,050
-721,064	800,000	-0,056	-0,119
-720,050	-45,784	0,126	0,045
-719,035	-200,000	-0,028	0,124
-718,021	-129,722	-0,138	-0,014
-717,006	-181,822	-0,177	0,002
-715,991	140,323	-0,062	-0,060
-714,977	-200,000	-0,010	-0,051
-713,962	-200,000	0,009	-0,057
-712,948	-142,744	0,039	0,003
-711,933	800,000	-0,024	-0,058
-710,918	182,953	0,014	-0,016
-709,904	-100,275	-0,113	0,020
-708,889	459,322	-0,107	-0,176
-707,875	352,295	-0,041	0,060
-706,860	-200,000	-0,010	-0,040
-705,845	-200,000	-0,037	-0,156
-704,831	469,326	-0,048	-0,080
-703,816	800,000	0,023	-0,066
-702,802	-200,000	0,009	-0,083
-701,787	-92,675	-0,106	-0,022
-700,772	331,246	0,078	0,110
-699,758	253,613	0,014	0,017
-698,743	609,488	0,078	-0,145
-697,729	-81,271	-0,032	0,008
-696,714	664,447	0,084	0,161
-695,699	-90,065	0,114	-0,024
-694,685	133,287	-0,075	-0,072
-693,670	800,000	-0,018	-0,044
-692,656	-200,000	0,028	-0,115
-691,641	60,118	-0,078	0,057
-690,627	-200,000	-0,012	-0,124
-689,612	270,390	0,042	0,054
-688,597	168,208	-0,067	-0,070
-687,583	800,000	-0,020	-0,064
-686,568	236,362	0,055	-0,067
-685,554	430,229	-0,081	-0,130
-684,539	-48,739	0,036	-0,013
-683,524	51,978	-0,033	-0,023
-682,510	-69,358	-0,120	-0,034
-681,495	56,553	-0,058	0,041
-680,481	-110,385	-0,106	0,016
-679,466	410,333	-0,022	0,034
-678,451	-200,000	-0,002	-0,051
-677,437	-200,000	-0,001	0,054
-676,422	-83,005	-0,107	0,025
-675,408	-25,308	0,043	0,019
-674,393	13,273	-0,159	-0,090
-673,378	-24,700	-0,053	0,023
-672,364	800,000	-0,026	-0,073
-671,349	86,525	-0,072	0,058
-670,335	-200,000	-0,014	-0,073
-669,320	220,836	0,114	0,134
-668,305	88,047	-0,157	0,127
-667,291	670,230	-0,081	-0,154
-666,276	800,000	0,040	-0,082
-665,262	-200,000	-0,040	-0,176
-664,247	228,254	-0,138	-0,165
-663,232	-200,000	-0,002	0,074
-662,218	70,263	0,085	0,065
-661,203	47,392	0,019	0,013
-660,189	-112,754	-0,093	0,013
-659,174	76,941	-0,032	0,025
-658,159	-200,000	-0,026	-0,114
-657,145	105,774	-0,120	0,104
-656,130	-200,000	0,001	-0,101
-655,116	-68,598	0,052	-0,015
-654,101	105,101	-0,056	0,049
-653,086	-75,534	0,127	-0,033
-652,072	800,000	-0,069	-0,213
-651,057	-16,530	-0,042	0,019
-650,043	-30,284	-0,118	-0,049
-649,028	481,203	-0,024	0,041
-648,014	-200,000	-0,022	0,104
-646,999	58,130	0,026	0,019
-645,984	-109,219	0,068	0,010
-644,970	52,514	-0,166	-0,116
-643,955	-200,000	-0,014	-0,048
-642,941	-50,957	0,030	-0,010
-641,926	-200,000	-0,026	-0,123
-640,911	-78,210	-0,077	-0,019
-639,897	30,291	-0,084	0,052
-638,882	216,769	0,022	-0,025
-637,868	57,787	-0,014	0,010
-636,853	2,883	0,050	-0,026
-635,838	183,637	0,098	0,106
-634,824	-131,460	0,039	-0,004
-633,809	-200,000	-0,010	0,037
-632,795	-200,000	0,002	0,128
-631,780	-200,000	0,004	-0,050
-630,765	800,000	-0,032	0,078
-629,751	-200,000	-0,008	-0,103
-628,736	800,000	-0,050	-0,109
-627,722	299,408	-0,041	-0,055
-626,707	-12,104	0,047	0,023
-625,692	-200,000	0,042	0,139
-624,678	90,004	-0,019	-0,016
-623,663	-6,445	-0,085	-0,042
-622,649	-42,831	0,052	-0,019
-621,634	262,752	-0,104	-0,132
-620,619	800,000	0,005	-0,014
-619,605	-200,000	0,018	0,068
-618,590	-78,665	0,089	-0,022
-617,576	-200,000	0,051	0,182
-616,561	-200,000	0,006	-0,020
-615,546	675,737	-0,022	0,042
-614,532	374,275	-0,056	-0,084
-613,517	-200,000	-0,006	0,038
-612,503	-200,000	0,022	-0,095
-611,488	800,000	-0,033	0,089
-610,474	-200,000	0,018	0,104
-609,459	800,000	-0,020	-0,055
-608,444	-73,958	-0,052	0,014
-607,430	800,000	-0,023	0,065
-606,415	-12,213	0,074	-0,035
-605,401	-182,173	0,085	-0,001
-604,386	-113,114	-0,122	-0,017
-603,371	110,756	-0,092	-0,081
-602,357	-24,485	-0,103	-0,045
-601,342	171,936	-0,059	-0,062
-600,328	800,000	0,026	0,067
-599,313	-30,999	0,026	0,011
-598,298	-200,000	-0,013	-0,054
-597,284	-200,000	-0,006	-0,064
-596,269	-200,000	0,009	0,072
-595,255	280,428	0,033	0,043
-594,240	791,158	-0,042	-0,086
-593,225	451,376	-0,040	-0,065
-592,211	212,237	-0,037	-0,043
-591,196	250,487	-0,066	-0,082
-590,182	-108,728	0,141	-0,022
-589,167	57,364	0,110	-0,078
-588,152	-200,000	-0,001	-0,041
-587,138	-103,402	-0,198	-0,034
-586,123	24,300	-0,028	-0,017
-585,109	-200,000	0,018	-0,063
-584,094	43,697	0,132	-0,088
-583,079	410,772	-0,037	-0,058
-582,065	-42,004	-0,042	0,016
-581,050	-200,000	0,011	0,101
-580,036	800,000	-0,038	0,100
-579,021	-149,032	-0,176	-0,010
-578,006	-200,000	0,022	-0,164
-576,992	17,567	-0,130	-0,075
-575,977	577,639	-0,060	-0,107
-574,963	-22,369	0,095	-0,042
-573,948	-44,132	0,090	0,033
-572,934	85,460	-0,037	0,030
-571,919	800,000	-0,069	-0,199
-570,904	-122,316	-0,110	-0,013
-569,890	431,521	0,040	-0,064
-568,875	-47,072	0,067	0,024
-567,861	69,246	0,090	-0,068
-566,846	-200,000	0,030	0,116
-565,831	-131,955	-0,049	-0,005
-564,817	250,157	0,012	-0,015
-563,802	800,000	-0,021	-0,059
-562,788	224,083	-0,036	0,043
-561,773	30,208	0,063	-0,039
-560,758	-56,182	-0,126	0,041
-559,744	327,027	0,092	0,130
-558,729	800,000	-0,085	-0,172
-557,715	-200,000	0,016	-0,053
-556,700	49,692	0,042	-0,029
-555,685	378,668	0,157	-0,236
-554,671	102,958	0,090	0,077
-553,656	0,633	-0,160	-0,083
-552,642	-200,000	-0,008	-0,075
-551,627	-200,000	-0,036	0,122
-550,612	626,492	0,005	-0,010
-549,598	-200,000	0,009	-0,071
-548,583	-142,275	-0,034	-0,002
-547,569	453,586	-0,043	0,070
-546,554	-128,317	-0,050	-0,005
-545,539	800,000	0,051	0,123
-544,525	67,300	-0,088	-0,066
-543,510	-200,000	-0,001	0,083
-542,496	240,572	-0,067	0,081
-541,481	292,628	-0,098	-0,131
-540,466	-19,890	-0,048	-0,022
-539,452	133,583	-0,081	0,077
-538,437	238,928	-0,043	-0,052
-537,423	-200,000	0,009	0,049
-536,408	119,477	-0,047	0,043
-535,393	-200,000	-0,003	0,079
-534,379	800,000	0,030	-0,063
-533,364	397,233	-0,026	0,039
-532,350	398,294	-0,019	0,029
-531,335	756,322	0,099	0,197
-530,321	561,817	-0,018	0,031
-529,306	-200,000	-0,009	-0,096
-528,291	-200,000	0,006	0,038
-527,277	282,460	-0,082	-0,107
-526,262	-105,631	0,050	-0,008
-525,248	800,000	0,022	0,063
-524,233	-115,920	0,369	-0,050
-523,218	-30,498	-0,033	-0,013
-522,204	-35,077	0,024	-0,009
-521,189	739,018	-0,035	-0,069
-520,175	-200,000	0,008	0,036
-519,160	-200,000	0,003	0,034
-518,145	-200,000	-0,009	0,042
-517,131	800,000	-0,054	0,128
-516,116	-47,436	0,070	-0,025
-515,102	40,055	0,096	0,063
-514,087	-18,559	-0,153	-0,069
-513,072	260,252	-0,028	-0,035
-512,058	-140,033	-0,033	0,003
-511,043	-200,000	0,016	-0,075
-510,029	-200,000	0,011	0,102
-509,014	-200,000	-0,027	0,121
-507,999	-77,154	0,058	0,015
-506,985	368,437	0,068	-0,100
-505,970	14,355	0,054	-0,030
-504,956	-129,713	0,065	0,006
-503,941	56,788	0,069	0,049
-502,926	58,232	0,065	-0,047
-501,912	89,100	0,105	0,086
-500,897	-86,124	-0,040	-0,009
-499,883	-83,116	-0,074	-0,017
-498,868	17,824	-0,120	-0,069
-497,853	-146,651	0,108	-0,007
-496,839	800,000	0,046	0,147
-495,824	-55,220	0,119	0,039
-494,810	-65,775	0,102	-0,030
-493,795	122,101	-0,067	0,061
-492,781	-48,314	0,039	-0,014
-491,766	-148,163	0,045	0,003
-490,751	163,667	-0,062	-0,064
-489,737	800,000	0,029	-0,067
-488,722	129,808	-0,079	0,074
-487,708	-97,975	0,050	-0,009
-486,693	67,830	-0,020	-0,015
-485,678	161,945	-0,070	0,072
-484,664	-200,000	-0,062	-0,214
-483,649	104,479	-0,117	-0,100
-482,635	800,000	-0,035	-0,110
-481,620	-200,000	-0,004	-0,079
-480,605	800,000	0,037	0,111
-479,591	-11,799	0,030	0,014
-478,576	127,269	0,134	0,124
-477,562	220,104	-0,127	0,149
-476,547	173,917	-0,050	-0,052
-475,532	298,929	0,015	-0,020
-474,518	389,129	0,036	0,054
-473,503	100,243	-0,048	0,040
-472,489	-109,427	-0,075	0,011
-471,474	146,817	-0,090	0,089
-470,459	-47,954	-0,103	-0,036
-469,445	800,000	0,045	-0,113
-468,430	-35,487	-0,038	-0,015
-467,416	-157,264	-0,046	0,002
-466,401	-20,736	0,123	-0,055
-465,386	-200,000	0,002	-0,040
-464,372	-200,000	-0,011	-0,067
-463,357	-41,502	0,030	-0,011
-462,343	800,000	-0,017	0,040
-461,328	-200,000	0,006	-0,040
-460,313	4,851	-0,038	0,020
-459,299	-51,546	0,042	0,014
-458,284	46,882	0,114	0,077
-457,270	-57,178	-0,036	-0,011
-456,255	-27,261	-0,174	-0,073
-455,241	77,858	0,087	0,067
-454,226	-200,000	0,008	0,087
-453,211	-200,000	0,029	-0,097
-452,197	97,966	0,108	-0,090
-451,182	-177,291	0,175	-0,003
-450,168	773,447	-0,050	-0,099
-449,153	121,594	-0,060	-0,055
-448,138	-200,000	0,005	0,039
-447,124	-3,450	-0,096	-0,049
-446,109	-85,913	-0,015	-0,003
-445,095	-52,004	-0,041	-0,014
-444,080	350,888	-0,035	0,050
-443,065	517,241	-0,061	0,104
-442,051	-134,643	-0,151	-0,013
-441,036	770,865	-0,052	-0,103
-440,022	5,389	0,090	0,048
-439,007	336,120	0,015	-0,021
-437,992	-128,071	-0,058	0,006
-436,978	-200,000	-0,010	0,145
-435,963	40,893	0,031	0,020
-434,949	307,523	0,070	0,095
-433,934	800,000	0,035	0,091
-432,919	310,810	-0,061	0,083
-431,905	-90,480	0,142	0,030
-430,890	-27,505	0,115	-0,048
-429,876	-110,913	-0,072	-0,011
-428,861	-137,590	0,118	-0,010
-427,846	-112,903	0,093	-0,013
-426,832	267,425	-0,068	0,087
-425,817	-200,000	0,017	-0,185
-424,803	71,666	-0,041	0,031
-423,788	-9,665	-0,026	-0,012
-422,773	-200,000	0,040	0,129
-421,759	-29,663	-0,143	-0,059
-420,744	367,749	-0,015	-0,022
-419,730	-56,206	-0,076	-0,024
-418,715	-20,161	-0,094	-0,042
-417,701	168,473	0,086	0,089
-416,686	800,000	-0,046	0,117
-415,671	156,584	0,098	0,098
-414,657	104,363	0,021	0,018
-413,642	177,659	0,070	0,074
-412,628	32,402	-0,037	-0,023
-411,613	36,320	0,049	-0,031
-410,598	-106,901	-0,069	0,011
-409,584	-122,231	0,086	0,010
-408,569	-162,737	0,110	0,004
-407,555	263,293	0,125	0,158
-406,540	800,000	0,023	-0,051
-405,525	-200,000	0,035	-0,118
-404,511	-200,000	0,018	-0,225
-403,496	-93,200	-0,127	0,025
-402,482	-200,000	-0,005	-0,022
-401,467	-73,329	0,070	-0,018
-400,452	-129,693	-0,116	0,011
-399,438	-134,831	-0,056	-0,005
-398,423	-59,864	-0,089	0,028
-397,409	-200,000	-0,003	0,129
-396,394	-200,000	-0,017	0,086
-395,379	-58,079	-0,031	0,010
-394,365	-135,114	0,202	0,017
-393,350	800,000	-0,078	-0,204
-392,336	800,000	0,013	-0,039
-391,321	502,624	0,066	0,112
-390,306	143,417	-0,049	0,047
-389,292	-200,000	0,003	-0,074
-388,277	248,622	0,025	-0,031
-387,263	145,713	0,023	0,023
-386,248	-198,858	0,042	0,000
-385,233	-69,724	0,063	-0,017
-384,219	-200,000	0,006	0,028
-383,204	171,214	0,069	0,072
-382,190	-126,851	-0,079	0,008
-381,175	-200,000	0,008	-0,089
-380,160	-112,976	0,164	-0,023
-379,146	-200,000	0,031	0,122
-378,131	67,304	0,061	-0,045
-377,117	800,000	0,027	-0,066
-376,102	181,396	0,056	0,060
-375,088	584,060	-0,012	0,021
-374,073	113,394	-0,045	-0,040
-373,058	-200,000	0,009	-0,106
-372,044	-152,235	0,173	-0,009
-371,029	80,272	0,043	0,034
-370,015	800,000	0,048	-0,101
-369,000	288,297	-0,011	0,014
-367,985	-8,174	0,092	-0,045
-366,971	-23,261	0,195	-0,085
-365,956	-200,000	-0,002	-0,020
-364,942	-147,204	-0,070	0,004
-363,927	800,000	-0,015	-0,038
-362,912	-73,574	-0,097	-0,026
-361,898	-49,242	-0,096	0,033
-360,883	-72,910	-0,212	-0,056
-359,869	529,039	0,085	-0,146
-358,854	-200,000	0,015	-0,058
-357,839	14,204	0,130	0,073
-356,825	76,761	0,139	0,107
-355,810	339,927	-0,042	-0,060
-354,796	-8,021	-0,108	0,053
-353,781	-6,334	-0,096	-0,047
-352,766	340,933	0,059	-0,084
-351,752	133,601	0,076	-0,072
-350,737	471,543	0,055	0,090
-349,723	-20,211	0,039	-0,017
-348,708	229,351	-0,044	0,052
-347,693	0,814	0,134	0,069
-346,679	-134,378	-0,152	-0,013
-345,664	800,000	-0,022	0,054
-344,650	144,185	0,061	-0,059
-343,635	-200,000	-0,020	-0,120
-342,620	-43,451	0,072	0,026
-341,606	-58,058	0,067	-0,021
-340,591	-137,119	0,084	-0,007
-339,577	-200,000	-0,005	-0,083
-338,562	130,796	-0,146	-0,136
-337,548	28,134	0,110	-0,067
-336,533	-70,307	0,059	-0,016
-335,518	66,385	0,187	-0,138
-334,504	-89,343	0,087	-0,018
-333,489	-200,000	-0,017	-0,144
-332,475	458,199	0,064	-0,103
-331,460	-108,921	-0,101	0,015
-330,445	215,478	0,080	0,092
-329,431	-20,593	0,141	0,062
-328,416	-200,000	0,004	0,083
-327,402	-200,000	-0,006	-0,025
-326,387	167,745	-0,066	0,068
-325,372	-75,860	-0,073	-0,019
-324,358	219,202	-0,075	0,087
-323,343	-200,000	0,002	-0,057
-322,329	800,000	-0,022	0,061
-321,314	98,830	0,058	-0,049
-320,299	-200,000	0,020	0,097
-319,285	800,000	-0,057	0,130
-318,270	-70,924	0,023	-0,006
-317,256	696,583	-0,015	-0,030
-316,241	127,897	-0,044	-0,041
-315,226	-47,651	-0,063	0,022
-314,212	-200,000	-0,022	0,255
-313,197	164,695	0,041	0,042
-312,183	800,000	0,057	0,155
-311,168	-200,000	0,021	-0,073
-310,153	114,808	-0,053	-0,047
-309,139	800,000	0,033	0,078
-308,124	-200,000	0,011	-0,153
-307,110	-200,000	-0,017	-0,088
-306,095	4,954	0,149	0,079
-305,080	54,099	-0,091	-0,063
-304,066	65,379	-0,101	0,074
-303,051	-99,144	0,063	-0,011
-302,037	-200,000	-0,008	0,082
-301,022	-200,000	-0,048	0,188
-300,008	73,408	-0,060	0,046
-298,993	-159,654	0,109	-0,004
-297,978	-29,039	0,090	-0,037
-296,964	-111,037	0,189	-0,028
-295,949	62,634	-0,038	-0,028
-294,935	355,958	-0,052	-0,076
-293,920	800,000	0,036	-0,106
-292,905	-200,000	0,016	-0,098
-291,891	-200,000	-0,028	-0,181
-290,876	800,000	0,053	0,127
-289,862	-52,915	-0,012	-0,004
-288,847	62,661	-0,058	-0,042
-287,832	-72,197	-0,088	-0,023
-286,818	-1,832	-0,072	-0,037
-285,803	-19,799	-0,084	0,038
-284,789	-20,775	-0,123	0,054
-283,774	-0,066	0,034	-0,017
-282,759	-85,983	-0,020	0,004
-281,745	-103,168	-0,133	-0,023
-280,730	-108,283	-0,066	-0,010
-279,716	280,507	0,013	-0,017
-278,701	-200,000	-0,017	0,085
-277,686	-200,000	0,007	-0,068
-276,672	-200,000	0,010	0,142
-275,657	-200,000	-0,015	0,139
-274,643	-200,000	0,023	0,099
-273,628	241,925	-0,025	-0,031
-272,613	800,000	-0,022	-0,068
-271,599	-101,148	0,229	-0,040
-270,584	800,000	0,029	-0,067
-269,570	468,768	0,030	0,049
-268,555	294,525	-0,016	0,022
-267,540	94,901	-0,086	-0,071
-266,526	-200,000	0,009	-0,029
-265,511	332,256	-0,049	-0,069
-264,497	-200,000	0,012	0,116
-263,482	120,343	0,087	0,078
-262,467	-42,342	-0,041	0,015
-261,453	-200,000	0,011	0,055
-260,438	800,000	-0,071	-0,163
-259,424	800,000	0,036	0,089
-258,409	-17,014	0,013	-0,006
-257,395	85,188	-0,204	0,161
-256,380	-200,000	0,006	-0,038
-255,365	-200,000	-0,011	-0,051
-254,351	72,523	-0,075	-0,056
-253,336	-48,643	0,095	-0,033
-252,322	-200,000	-0,001	0,035
-251,307	-200,000	0,017	-0,082
-250,292	-66,066	0,066	0,019
-249,278	177,287	0,064	0,067
-248,263	-79,852	-0,182	0,044
-247,249	51,775	-0,096	0,066
-246,234	-200,000	-0,024	-0,109
-245,219	-200,000	0,036	0,129
-244,205	-70,356	-0,039	0,011
-243,190	163,018	-0,039	-0,040
-242,176	-10,786	-0,107	0,051
-241,161	5,294	-0,047	-0,025
-240,146	53,220	0,086	-0,059
-239,132	75,060	0,082	-0,063
-238,117	800,000	0,025	-0,053
-237,103	364,057	-0,038	0,056
-236,088	-78,900	0,117	0,029
-235,073	-200,000	-0,001	-0,042
-234,059	-200,000	-0,016	-0,129
-233,044	123,767	-0,070	-0,063
-232,030	285,449	-0,056	0,072
-231,015	-2,326	0,095	0,048
-230,000	-200,000	-0,003	0,124
-228,986	-45,511	0,074	0,026
-227,971	89,991	0,088	0,071
-226,957	-110,457	0,076	0,011
-225,942	-122,700	-0,045	-0,005
-224,927	-133,487	-0,095	-0,008
-223,913	-200,000	0,011	0,047
-222,898	-75,045	-0,103	-0,026
-221,884	26,732	0,097	-0,058
-220,869	800,000	0,049	0,105
-219,855	451,477	-0,027	0,043
-218,840	800,000	-0,046	0,110
-217,825	278,780	-0,084	0,108
-216,811	61,713	-0,018	-0,013
-215,796	-14,606	-0,186	-0,086
-214,782	530,741	0,074	-0,126
-213,767	91,642	-0,027	0,022
-212,752	313,419	0,048	0,066
-211,738	-68,597	0,080	-0,022
-210,723	-200,000	0,004	0,021
-209,709	68,364	-0,075	0,055
-208,694	-65,913	-0,098	0,028
-207,679	172,980	-0,055	0,057
-206,665	497,097	0,048	0,081
-205,650	9,970	0,089	-0,049
-204,636	-23,781	-0,034	0,015
-203,621	-200,000	-0,013	0,173
-202,606	27,293	-0,022	-0,013
-201,592	-49,019	0,045	0,016
-200,577	-163,353	0,081	-0,003
-199,563	197,159	-0,114	0,126
-198,548	-40,378	-0,079	-0,029
-197,533	200,197	-0,135	0,150
-196,519	93,793	0,006	-0,005
-195,504	-164,866	0,111	-0,004
-194,490	330,393	-0,031	0,044
-193,475	-45,730	-0,055	-0,020
-192,460	587,184	0,064	-0,115
-191,446	-74,218	0,071	-0,018
-190,431	118,565	0,060	-0,053
-189,417	166,009	0,008	-0,008
-188,402	-32,348	-0,059	0,024
-187,387	-200,000	-0,015	0,079
-186,373	-2,754	0,009	-0,005
-185,358	-160,185	-0,032	0,001
-184,344	41,228	0,174	-0,113
-183,329	-98,992	0,095	-0,017
-182,315	-200,000	0,043	0,187
-181,300	-200,000	-0,010	-0,059
-180,285	89,293	0,031	-0,025
-179,271	800,000	0,042	-0,084
-178,256	90,502	0,069	-0,056
-177,242	616,576	0,015	-0,027
-176,227	-200,000	0,020	0,075
-175,212	-200,000	0,001	0,085
-174,198	-200,000	-0,027	0,097
-173,183	-42,330	-0,028	0,010
-172,169	25,875	-0,166	-0,099
-171,154	-80,226	0,197	-0,047
-170,139	240,004	-0,062	0,074
-169,125	-200,000	-0,010	0,034
-168,110	-81,563	-0,095	0,022
-167,096	-100,291	-0,178	0,031
-166,081	-97,518	-0,064	0,012
-165,066	-72,107	0,154	0,041
-164,052	-57,950	-0,138	-0,043
-163,037	50,340	-0,035	0,024
-162,023	200,569	-0,051	0,056
-161,008	-39,061	0,128	0,048
-159,993	-200,000	0,004	-0,015
-158,979	-200,000	0,033	-0,153
-157,964	-200,000	-0,021	-0,073
-156,950	42,663	0,082	-0,054
-155,935	-200,000	0,010	-0,038
-154,920	-200,000	-0,011	0,114
-153,906	287,940	0,115	0,150
-152,891	-30,963	-0,135	0,054
-151,877	-200,000	0,009	0,138
-150,862	-55,145	-0,058	-0,019
-149,847	211,377	-0,057	-0,064
-148,833	-166,156	-0,121	0,004
-147,818	132,183	0,040	-0,037
-146,804	800,000	0,014	-0,039
-145,789	-200,000	-0,005	-0,069
-144,775	-200,000	-0,002	-0,057
-143,760	44,088	-0,064	-0,042
-142,745	-200,000	-0,005	-0,053
-141,731	800,000	-0,027	0,082
-140,716	-200,000	0,017	0,079
-139,702	-200,000	0,006	0,088
-138,687	105,188	0,107	0,091
-137,672	-200,000	-0,009	0,257
-136,658	95,435	-0,088	0,072
-135,643	-200,000	-0,005	-0,035
-134,629	193,394	-0,074	0,081
-133,614	-80,012	0,043	0,010
-132,599	-200,000	0,037	0,144
-131,585	-158,893	-0,104	0,004
-130,570	800,000	-0,017	-0,046
-129,556	167,650	-0,059	-0,060
-128,541	642,250	-0,057	-0,105
-127,526	-5,296	0,028	0,014
-126,512	800,000	-0,041	0,105
-125,497	120,826	0,066	-0,059
-124,483	63,801	0,040	0,029
-123,468	-200,000	0,002	-0,058
-122,453	11,759	-0,095	-0,052
-121,439	61,564	0,179	0,128
-120,424	35,310	-0,152	-0,096
