DTS Sentinel unit serial number:	SN410029Multiplexer serial number:	ORYXHardware model number:	OX2-SRSoftware version number:	ORYX F/W v4,00 Oryx Data Collector v3.7.2.0data status	okinstallation	B4 Nyhavnadifferential loss correction	single-endedforward channel	channel 2reverse channel	N/Adate	2023/12/19time	11:35:13forward acquisition time	300,00reverse acquisition time	0,00gamma	499,1914k internal	0,3127k external	0,3127temperature offset calibration	1,0000default loss term (dB/km)	0,3820temperature slope calibration	1,0000multiplexer offset coefficient	1,0000multiplexer slope coefficient	1,0000fibre end	0,00T internal ref (°C)	19,76T ext. ref 1 (°C)	4,51T ext. ref 2 (°C)	4,45length (m)	temperature (°C)	Stokes	anti-Stokes-744,400	800,000	0,046	-0,099
-743,385	79,948	-0,199	0,159
-742,371	14,069	0,175	0,101
-741,356	6,434	-0,279	0,154
-740,342	800,000	0,017	-0,047
-739,327	-18,866	-0,305	0,141
-738,312	-200,000	-0,003	-0,024
-737,298	-40,861	-0,215	-0,082
-736,283	800,000	0,012	0,035
-735,269	91,383	-0,177	0,148
-734,254	-56,152	0,078	-0,026
-733,239	-84,483	-0,438	-0,102
-732,225	99,535	0,088	0,076
-731,210	-113,130	0,047	-0,007
-730,196	577,850	-0,007	0,012
-729,181	648,372	-0,020	-0,039
-728,167	-200,000	0,009	-0,060
-727,152	-200,000	-0,018	-0,152
-726,137	800,000	-0,016	-0,053
-725,123	-200,000	-0,015	-0,110
-724,108	30,882	-0,205	-0,130
-723,094	-40,856	0,033	-0,012
-722,079	-200,000	0,022	0,091
-721,064	-36,817	-0,145	-0,057
-720,050	140,699	0,095	-0,093
-719,035	22,954	0,065	-0,040
-718,021	-45,686	-0,081	0,030
-717,006	107,364	-0,026	0,023
-715,991	235,544	-0,094	-0,116
-714,977	-9,048	-0,150	-0,075
-713,962	-48,370	-0,095	-0,034
-712,948	121,022	0,065	0,061
-711,933	172,530	0,074	0,080
-710,918	-200,000	-0,002	0,014
-709,904	402,270	-0,085	-0,133
-708,889	-200,000	0,001	-0,018
-707,875	126,012	0,076	0,071
-706,860	-87,452	-0,107	-0,024
-705,845	48,809	0,052	-0,036
-704,831	800,000	0,035	0,114
-703,816	-200,000	0,027	0,198
-702,802	-200,000	0,006	-0,036
-701,787	145,627	-0,110	-0,110
-700,772	-200,000	-0,017	-0,219
-699,758	9,905	-0,058	-0,032
-698,743	-200,000	-0,005	-0,029
-697,729	-54,593	0,105	0,035
-696,714	40,118	0,120	0,080
-695,699	721,399	0,035	-0,070
-694,685	800,000	-0,002	0,004
-693,670	17,292	0,041	-0,024
-692,656	-79,488	-0,129	0,032
-691,641	190,022	-0,014	-0,016
-690,627	-50,864	0,102	0,035
-689,612	-200,000	-0,019	0,106
-688,597	-10,279	-0,075	-0,037
-687,583	-181,883	0,058	0,001
-686,568	-200,000	-0,032	-0,112
-685,554	-5,595	-0,038	0,019
-684,539	800,000	0,034	-0,072
-683,524	-200,000	0,027	0,133
-682,510	185,709	-0,049	0,054
-681,495	-164,290	0,050	-0,002
-680,481	15,607	0,090	0,053
-679,466	20,989	-0,024	0,015
-678,451	-200,000	-0,007	-0,038
-677,437	-200,000	0,004	-0,050
-676,422	-97,476	0,088	-0,017
-675,408	555,233	-0,109	-0,196
-674,393	800,000	-0,032	-0,098
-673,378	-18,427	-0,098	-0,045
-672,364	-200,000	0,003	-0,091
-671,349	9,333	0,033	0,018
-670,335	-200,000	-0,018	0,084
-669,320	-200,000	-0,014	0,101
-668,305	-93,180	0,143	-0,029
-667,291	202,294	-0,092	0,105
-666,276	-152,111	-0,132	0,007
-665,262	-200,000	0,002	-0,098
-664,247	-43,396	-0,125	-0,047
-663,232	384,527	0,043	0,066
-662,218	519,223	-0,010	0,017
-661,203	186,274	-0,086	-0,095
-660,189	245,822	-0,045	-0,056
-659,174	-91,744	-0,085	0,018
-658,159	210,153	0,020	-0,023
-657,145	476,222	-0,025	0,042
-656,130	78,782	0,085	-0,068
-655,116	63,408	0,044	0,033
-654,101	-200,000	-0,003	-0,043
-653,086	176,045	0,006	-0,006
-652,072	85,070	0,078	-0,063
-651,057	128,696	-0,069	0,066
-650,043	163,201	0,047	0,049
-649,028	800,000	0,061	-0,181
-648,014	-200,000	-0,000	-0,004
-646,999	-200,000	-0,010	-0,133
-645,984	-200,000	0,010	0,038
-644,970	663,347	-0,029	0,057
-643,955	-200,000	0,004	-0,061
-642,941	-200,000	-0,008	-0,063
-641,926	-25,919	0,071	-0,031
-640,911	800,000	0,024	-0,074
-639,897	800,000	0,022	0,060
-638,882	366,770	0,066	-0,098
-637,868	-105,329	-0,013	0,002
-636,853	-180,422	0,040	-0,001
-635,838	800,000	-0,047	-0,120
-634,824	735,912	-0,079	-0,158
-633,809	-200,000	-0,014	-0,141
-632,795	280,885	0,044	0,059
-631,780	211,757	-0,077	0,090
-630,765	-200,000	-0,000	0,146
-629,751	-200,000	0,017	0,061
-628,736	-131,131	-0,144	-0,014
-627,722	-200,000	0,021	-0,117
-626,707	800,000	0,020	0,055
-625,692	173,660	0,096	0,103
-624,678	-23,955	0,015	-0,007
-623,663	-200,000	0,014	-0,059
-622,649	348,983	-0,052	0,076
-621,634	-46,381	-0,110	-0,040
-620,619	97,802	-0,050	0,042
-619,605	62,265	-0,119	0,088
-618,590	-66,433	0,056	-0,016
-617,576	-200,000	-0,008	0,075
-616,561	-116,612	0,049	-0,007
-615,546	246,489	0,038	-0,047
-614,532	148,178	0,049	-0,049
-613,517	-200,000	0,000	-0,144
-612,503	-200,000	-0,001	-0,028
-611,488	312,525	0,025	0,035
-610,474	-10,454	-0,081	0,040
-609,459	-112,818	0,069	-0,010
-608,444	800,000	-0,037	-0,095
-607,430	-46,608	-0,157	-0,057
-606,415	135,229	-0,047	0,045
-605,401	4,755	-0,108	-0,058
-604,386	800,000	-0,026	-0,069
-603,371	3,916	0,080	0,043
-602,357	-146,635	-0,126	-0,008
-601,342	48,430	0,050	0,034
-600,328	800,000	0,011	-0,026
-599,313	-159,240	-0,026	0,001
-598,298	-109,046	-0,106	-0,017
-597,284	800,000	-0,019	-0,049
-596,269	-147,434	0,069	-0,004
-595,255	241,110	0,027	-0,033
-594,240	-130,591	-0,119	-0,012
-593,225	-200,000	0,025	-0,098
-592,211	800,000	-0,043	0,131
-591,196	-63,122	0,079	-0,024
-590,182	800,000	-0,048	0,114
-589,167	-193,567	0,040	-0,000
-588,152	-200,000	-0,009	0,064
-587,138	398,655	0,028	0,044
-586,123	405,103	-0,095	0,148
-585,109	800,000	0,022	-0,065
-584,094	800,000	-0,025	0,060
-583,079	-9,087	0,045	0,022
-582,065	536,042	0,051	0,090
-581,050	527,301	0,032	0,056
-580,036	-200,000	0,016	0,209
-579,021	32,912	0,089	0,057
-578,006	349,327	0,025	-0,037
-576,992	131,470	0,034	0,032
-575,977	-120,735	0,120	-0,015
-574,963	-200,000	0,007	-0,033
-573,948	571,369	0,068	-0,123
-572,934	49,193	-0,078	-0,054
-571,919	800,000	-0,066	-0,201
-570,904	184,128	0,027	-0,030
-569,890	532,749	0,028	-0,049
-568,875	800,000	-0,034	0,089
-567,861	28,151	0,104	-0,065
-566,846	-23,534	-0,020	0,009
-565,831	-30,563	0,079	-0,033
-564,817	-200,000	-0,024	-0,083
-563,802	-200,000	-0,012	-0,165
-562,788	5,510	-0,087	0,048
-561,773	-200,000	-0,031	0,150
-560,758	800,000	-0,031	0,066
-559,744	730,643	0,025	-0,049
-558,729	-30,217	0,073	-0,031
-557,715	-200,000	0,015	-0,057
-556,700	73,137	-0,075	0,058
-555,685	-200,000	0,001	-0,115
-554,671	89,611	0,003	-0,002
-553,656	-96,269	0,100	0,019
-552,642	-65,971	0,221	-0,065
-551,627	-189,921	0,112	0,001
-550,612	520,206	0,012	-0,021
-549,598	485,342	-0,057	-0,097
-548,583	-200,000	-0,042	-0,142
-547,569	800,000	-0,009	-0,029
-546,554	246,217	0,085	0,107
-545,539	254,770	0,063	0,080
-544,525	36,831	-0,137	-0,089
-543,510	800,000	0,023	-0,056
-542,496	86,147	0,026	-0,021
-541,481	334,532	-0,058	0,083
-540,466	98,555	0,085	-0,072
-539,452	-200,000	0,002	0,052
-538,437	-78,737	0,186	0,046
-537,423	-124,646	-0,086	0,010
-536,408	15,224	-0,138	-0,080
-535,393	-34,795	-0,104	-0,042
-534,379	-200,000	-0,013	-0,047
-533,364	800,000	0,024	0,072
-532,350	-71,724	-0,041	0,011
-531,335	179,950	0,035	0,038
-530,321	-8,530	-0,050	-0,025
-529,306	800,000	0,036	-0,107
-528,291	148,699	0,044	-0,044
-527,277	92,998	0,038	-0,032
-526,262	-73,366	-0,155	0,042
-525,248	-46,357	-0,008	0,003
-524,233	-67,212	0,106	0,031
-523,218	-200,000	0,032	0,167
-522,204	-71,276	-0,108	-0,030
-521,189	-58,248	0,124	0,040
-520,175	40,080	-0,067	0,044
-519,160	-100,973	-0,099	0,018
-518,145	-200,000	-0,001	-0,127
-517,131	-64,993	0,016	0,005
-516,116	-10,113	0,071	-0,035
-515,102	263,277	-0,089	0,114
-514,087	-23,696	-0,057	0,025
-513,072	757,826	-0,057	-0,115
-512,058	249,805	0,080	0,101
-511,043	-73,789	-0,052	0,014
-510,029	-104,727	0,016	0,003
-509,014	-46,921	-0,128	-0,046
-507,999	800,000	0,035	0,082
-506,985	800,000	0,024	-0,077
-505,970	800,000	-0,031	0,063
-504,956	-200,000	0,036	-0,145
-503,941	334,941	-0,093	-0,134
-502,926	4,730	-0,044	-0,024
-501,912	-37,238	0,112	0,044
-500,897	42,441	0,074	-0,050
-499,883	-136,073	-0,053	0,005
-498,868	-200,000	-0,016	0,074
-497,853	-145,448	-0,030	-0,002
-496,839	449,727	0,064	-0,105
-495,824	-200,000	-0,004	-0,071
-494,810	-42,460	-0,013	0,005
-493,795	-16,281	-0,104	-0,049
-492,781	800,000	-0,035	-0,113
-491,766	370,306	0,017	-0,025
-490,751	-159,244	-0,089	0,004
-489,737	-114,201	0,178	0,025
-488,722	3,469	-0,095	0,051
-487,708	204,208	0,080	-0,091
-486,693	256,693	-0,048	0,061
-485,678	213,917	-0,073	0,085
-484,664	-170,483	-0,144	-0,004
-483,649	-26,012	-0,036	0,016
-482,635	-80,066	-0,106	0,026
-481,620	-200,000	0,004	0,028
-480,605	668,450	0,017	-0,033
-479,591	-26,505	0,010	-0,004
-478,576	115,775	0,094	0,085
-477,562	615,697	-0,053	-0,099
-476,547	126,344	-0,151	-0,141
-475,532	547,120	0,044	-0,077
-474,518	2,392	0,039	-0,021
-473,503	254,850	0,027	0,035
-472,489	132,532	0,067	0,064
-471,474	-200,000	-0,015	-0,159
-470,459	-200,000	-0,008	-0,039
-469,445	800,000	-0,047	-0,101
-468,430	-54,952	-0,110	0,036
-467,416	114,906	0,106	0,096
-466,401	-200,000	0,000	-0,118
-465,386	-145,392	0,082	0,005
-464,372	800,000	-0,035	-0,085
-463,357	-26,706	0,102	-0,044
-462,343	319,383	0,017	0,024
-461,328	-71,118	-0,143	0,039
-460,313	-90,087	0,096	-0,020
-459,299	248,994	-0,101	0,126
-458,284	19,707	0,132	0,078
-457,270	-56,737	-0,079	-0,026
-456,255	-200,000	-0,010	-0,039
-455,241	-51,321	-0,158	-0,054
-454,226	153,243	-0,013	0,014
-453,211	-200,000	0,009	-0,165
-452,197	73,936	0,029	-0,022
-451,182	800,000	0,058	0,136
-450,168	126,013	0,078	0,072
-449,153	257,777	-0,037	0,047
-448,138	57,605	-0,101	-0,073
-447,124	-147,955	-0,149	-0,009
-446,109	-162,458	0,186	-0,007
-445,095	-200,000	-0,032	0,138
-444,080	70,869	-0,109	0,083
-443,065	-40,653	0,140	0,053
-442,051	-98,260	0,034	-0,006
-441,036	800,000	-0,067	-0,214
-440,022	8,947	-0,119	-0,066
-439,007	800,000	-0,015	0,039
-437,992	-200,000	0,019	0,114
-436,978	179,369	-0,034	0,037
-435,963	476,161	0,049	-0,082
-434,949	49,423	-0,079	-0,054
-433,934	213,253	-0,106	-0,124
-432,919	800,000	-0,073	0,199
-431,905	115,623	-0,060	0,054
-430,890	62,332	-0,045	0,033
-429,876	-200,000	0,006	0,134
-428,861	25,825	-0,039	-0,024
-427,846	17,158	-0,143	-0,083
-426,832	-187,266	0,025	-0,000
-425,817	529,410	-0,047	-0,081
-424,803	-47,970	0,080	0,028
-423,788	-200,000	0,019	0,073
-422,773	-127,700	0,086	0,009
-421,759	-15,635	0,080	0,037
-420,744	-150,021	0,056	-0,003
-419,730	-200,000	-0,009	0,088
-418,715	-200,000	-0,005	-0,071
-417,701	-128,561	0,029	-0,003
-416,686	-200,000	0,006	0,028
-415,671	260,122	-0,061	0,077
-414,657	68,831	-0,052	-0,039
-413,642	800,000	0,030	0,064
-412,628	106,289	-0,143	-0,125
-411,613	-103,171	0,080	-0,014
-410,598	-100,323	-0,136	0,025
-409,584	800,000	0,023	-0,049
-408,569	800,000	0,054	0,162
-407,555	20,896	-0,101	0,060
-406,540	-200,000	0,022	0,094
-405,525	-200,000	-0,024	0,142
-404,511	329,143	-0,037	-0,053
-403,496	-58,565	-0,061	0,019
-402,482	162,199	-0,070	0,072
-401,467	72,850	0,038	0,029
-400,452	-200,000	-0,022	0,089
-399,438	-165,905	-0,057	0,002
-398,423	-200,000	0,003	-0,078
-397,409	-67,596	0,095	-0,027
-396,394	338,032	-0,054	-0,077
-395,379	-121,165	0,060	-0,007
-394,365	410,877	0,040	-0,062
-393,350	800,000	0,037	-0,090
-392,336	-78,254	0,080	0,020
-391,321	773,021	0,012	0,023
-390,306	-82,548	-0,132	0,031
-389,292	109,741	0,089	-0,078
-388,277	290,037	0,069	0,093
-387,263	57,450	-0,024	0,017
-386,248	5,637	0,060	0,032
-385,233	94,697	0,048	0,040
-384,219	-73,085	-0,070	-0,019
-383,204	710,329	0,039	-0,075
-382,190	-188,484	-0,209	-0,002
-381,175	-200,000	-0,005	0,095
-380,160	-200,000	0,026	0,087
-379,146	-111,470	0,144	0,021
-378,131	379,259	-0,063	-0,094
-377,117	435,158	0,075	-0,120
-376,102	22,709	-0,050	0,030
-375,088	100,774	-0,078	-0,067
-374,073	-17,654	0,106	-0,049
-373,058	300,576	-0,031	0,042
-372,044	98,269	0,093	0,078
-371,029	-200,000	-0,008	0,063
-370,015	4,852	0,042	-0,023
-369,000	-200,000	0,026	0,083
-367,985	-26,816	-0,116	0,050
-366,971	45,655	-0,130	-0,088
-365,956	-77,089	0,092	-0,023
-364,942	59,827	0,061	0,044
-363,927	800,000	0,044	0,119
-362,912	-200,000	0,005	0,058
-361,898	36,032	0,057	-0,037
-360,883	136,909	0,011	0,010
-359,869	-59,487	-0,150	0,047
-358,854	-200,000	-0,023	0,083
-357,839	-55,686	0,153	0,050
-356,825	735,937	0,095	0,187
-355,810	-200,000	-0,011	-0,043
-354,796	172,404	0,019	-0,020
-353,781	54,107	-0,079	0,056
-352,766	623,619	0,079	-0,146
-351,752	800,000	0,065	0,206
-350,737	-58,727	0,039	0,012
-349,723	168,249	-0,020	-0,021
-348,708	136,804	0,048	-0,046
-347,693	-110,135	-0,087	0,013
-346,679	89,641	0,110	-0,090
-345,664	-200,000	0,036	-0,123
-344,650	-200,000	0,023	0,083
-343,635	-200,000	0,004	-0,063
-342,620	-200,000	0,041	0,183
-341,606	-102,256	0,132	0,023
-340,591	-135,250	-0,196	0,017
-339,577	-161,450	-0,177	0,007
-338,562	125,859	0,017	-0,016
-337,548	-70,419	-0,043	-0,012
-336,533	-200,000	-0,008	0,033
-335,518	-56,234	0,046	-0,015
-334,504	69,421	0,097	0,073
-333,489	65,469	-0,079	-0,059
-332,475	-200,000	-0,007	-0,082
-331,460	-98,416	-0,097	-0,018
-330,445	251,057	-0,019	0,024
-329,431	-40,824	0,050	-0,019
-328,416	-200,000	0,016	0,061
-327,402	800,000	0,038	0,087
-326,387	-130,615	-0,098	-0,010
-325,372	432,047	0,059	-0,094
-324,358	-96,372	0,109	0,021
-323,343	733,772	-0,027	-0,053
-322,329	-139,092	0,034	0,003
-321,314	-200,000	-0,018	0,075
-320,299	123,408	0,086	0,079
-319,285	175,103	0,028	0,029
-318,270	800,000	0,020	-0,058
-317,256	-112,588	-0,182	0,026
-316,241	800,000	-0,027	-0,064
-315,226	800,000	0,054	0,141
-314,212	398,537	-0,020	0,030
-313,197	-30,906	-0,088	-0,036
-312,183	290,665	0,064	0,086
-311,168	-200,000	0,007	0,068
-310,153	-28,486	-0,091	-0,038
-309,139	-200,000	-0,009	-0,046
-308,124	800,000	-0,019	0,047
-307,110	800,000	0,051	-0,113
-306,095	-71,241	-0,079	-0,021
-305,080	157,582	0,080	-0,081
-304,066	-55,179	-0,134	0,044
-303,051	-200,000	-0,016	0,090
-302,037	165,964	0,044	0,046
-301,022	-48,720	-0,166	-0,058
-300,008	24,874	-0,106	0,064
-298,993	800,000	0,059	0,134
-297,978	141,420	0,048	-0,047
-296,964	63,072	0,098	-0,072
-295,949	-200,000	0,000	0,032
-294,935	-84,270	0,047	-0,011
-293,920	181,105	-0,028	0,030
-292,905	-200,000	-0,030	-0,110
-291,891	-200,000	-0,007	0,067
-290,876	162,071	-0,031	-0,032
-289,862	-19,711	-0,052	0,023
-288,847	363,351	-0,032	-0,046
-287,832	800,000	0,040	-0,099
-286,818	68,832	0,067	-0,050
-285,803	-100,669	0,111	-0,020
-284,789	12,482	0,127	-0,071
-283,774	502,466	-0,041	-0,070
-282,759	234,539	0,087	0,105
-281,745	-112,274	-0,148	0,021
-280,730	-113,434	0,084	0,012
-279,716	800,000	0,034	-0,097
-278,701	-38,542	0,111	0,043
-277,686	-200,000	0,006	-0,039
-276,672	-200,000	0,007	0,081
-275,657	163,608	0,059	0,061
-274,643	286,098	-0,008	0,011
-273,628	73,868	-0,088	0,068
-272,613	800,000	-0,040	0,091
-271,599	-48,167	0,044	-0,015
-270,584	-200,000	-0,019	0,098
-269,570	800,000	0,080	0,173
-268,555	-200,000	-0,011	0,115
-267,540	-10,655	-0,033	-0,016
-266,526	43,309	-0,079	-0,052
-265,511	234,565	-0,094	-0,113
-264,497	66,014	0,079	0,058
-263,482	423,865	0,063	-0,099
-262,467	36,177	0,073	-0,047
-261,453	590,906	0,080	-0,145
-260,438	72,883	0,071	-0,054
-259,424	661,321	0,015	0,027
-258,409	800,000	0,048	-0,126
-257,395	-67,180	0,120	-0,034
-256,380	786,621	-0,031	0,062
-255,365	20,028	0,025	0,015
-254,351	800,000	0,051	0,118
-253,336	-200,000	-0,001	0,026
-252,322	-200,000	0,006	0,077
-251,307	-62,919	0,081	-0,024
-250,292	-200,000	0,010	0,081
-249,278	-54,325	0,115	-0,038
-248,263	677,589	-0,053	-0,101
-247,249	-200,000	-0,018	0,169
-246,234	281,598	0,081	0,106
-245,219	800,000	0,018	-0,042
-244,205	-200,000	0,036	-0,116
-243,190	127,879	0,045	0,042
-242,176	-81,379	0,065	0,015
-241,161	-200,000	-0,001	-0,177
-240,146	210,254	0,066	-0,076
-239,132	-48,440	-0,081	-0,028
-238,117	193,495	-0,093	-0,103
-237,103	800,000	-0,035	-0,082
-236,088	39,619	-0,045	-0,030
-235,073	24,860	0,152	-0,092
-234,059	-84,963	0,048	0,011
-233,044	-200,000	-0,014	-0,105
-232,030	579,010	-0,062	0,111
-231,015	-124,851	0,117	0,013
-230,000	-24,426	-0,121	-0,052
-228,986	133,221	0,016	0,015
-227,971	-200,000	0,008	-0,109
-226,957	314,492	-0,057	-0,079
-225,942	800,000	-0,025	0,055
-224,927	-6,641	0,088	-0,044
-223,913	27,438	0,041	0,025
-222,898	-200,000	0,026	-0,113
-221,884	16,664	0,084	-0,049
-220,869	-200,000	-0,025	0,098
-219,855	-200,000	-0,013	0,147
-218,840	279,853	0,066	0,087
-217,825	800,000	0,019	-0,043
-216,811	79,246	-0,079	0,062
-215,796	-108,752	0,074	0,011
-214,782	-8,019	0,105	0,052
-213,767	83,440	0,141	0,112
-212,752	-189,964	0,049	-0,000
-211,738	-200,000	-0,018	-0,093
-210,723	-69,489	-0,096	0,027
-209,709	-200,000	0,021	-0,088
-208,694	-200,000	-0,017	-0,071
-207,679	364,813	0,133	0,196
-206,665	-200,000	0,022	0,091
-205,650	-8,527	-0,047	0,023
-204,636	800,000	0,023	0,055
-203,621	-200,000	0,007	0,178
-202,606	57,636	-0,040	0,029
-201,592	14,146	-0,129	-0,073
-200,577	-200,000	-0,031	-0,102
-199,563	59,773	0,049	0,035
-198,548	-200,000	-0,017	0,097
-197,533	17,666	0,161	0,093
-196,519	746,580	-0,040	0,079
-195,504	412,295	0,024	0,037
-194,490	-200,000	0,016	0,071
-193,475	-119,738	-0,021	0,003
-192,460	184,419	-0,016	-0,018
-191,446	108,285	-0,013	0,012
-190,431	-46,867	0,102	-0,036
-189,417	331,703	0,034	0,048
-188,402	-70,620	-0,136	0,037
-187,387	-39,389	-0,094	-0,036
-186,373	-152,143	0,086	-0,004
-185,358	382,818	0,078	-0,117
-184,344	-133,835	0,107	-0,010
-183,329	81,071	0,101	0,080
-182,315	-200,000	0,004	0,041
-181,300	-49,254	-0,029	0,010
-180,285	800,000	-0,075	-0,156
-179,271	-200,000	0,002	-0,102
-178,256	-22,606	-0,066	-0,029
-177,242	132,057	0,106	0,100
-176,227	-6,004	-0,106	0,053
-175,212	206,216	-0,101	-0,114
-174,198	213,838	-0,120	0,138
-173,183	234,386	-0,060	-0,072
-172,169	131,195	-0,028	-0,026
-171,154	800,000	0,011	-0,028
-170,139	-200,000	0,026	-0,101
-169,125	563,147	-0,050	-0,088
-168,110	91,480	0,119	0,097
-167,096	-200,000	0,020	0,200
-166,081	224,196	-0,105	-0,124
-165,066	800,000	0,056	-0,117
-164,052	-66,872	-0,152	0,043
-163,037	520,832	-0,058	0,100
-162,023	-103,535	0,067	0,011
-161,008	-167,582	0,033	0,001
-159,993	634,885	0,013	0,024
-158,979	800,000	-0,025	0,078
-157,964	461,430	0,033	0,054
-156,950	800,000	-0,041	-0,101
-155,935	-23,179	-0,011	0,005
-154,920	-59,282	-0,049	-0,015
-153,906	-200,000	0,000	0,078
-152,891	441,007	-0,063	-0,100
-151,877	800,000	-0,034	0,072
-150,862	-200,000	-0,030	0,117
-149,847	43,079	-0,059	-0,039
-148,833	104,229	0,091	0,078
-147,818	252,447	-0,033	0,040
-146,804	-200,000	-0,008	-0,038
-145,789	-127,584	0,097	0,010
-144,775	80,739	0,065	-0,051
-143,760	45,216	0,119	-0,080
-142,745	-29,787	-0,119	-0,049
-141,731	98,163	0,119	0,099
-140,716	96,706	0,132	-0,110
-139,702	595,669	0,103	0,187
-138,687	315,033	-0,019	0,026
-137,672	-24,885	0,040	0,017
-136,658	-82,249	-0,009	0,002
-135,643	-200,000	-0,011	-0,158
-134,629	-200,000	-0,003	-0,070
-133,614	41,000	-0,055	0,036
-132,599	168,103	-0,079	0,082
-131,585	800,000	0,078	0,183
-130,570	-165,318	-0,049	-0,002
-129,556	-16,967	-0,039	0,018
-128,541	-107,072	-0,066	0,010
-127,526	-200,000	0,000	0,097
-126,512	230,395	-0,012	0,014
-125,497	-200,000	0,030	0,169
-124,483	800,000	0,044	0,101
-123,468	180,785	0,052	0,056
-122,453	-200,000	-0,015	-0,080
-121,439	-184,835	0,061	0,001
-120,424	100,360	-0,026	0,022
-119,410	800,000	-0,003	-0,006
-118,395	-123,126	0,179	0,021
