DTS Sentinel unit serial number:	SN410029Multiplexer serial number:	ORYXHardware model number:	OX2-SRSoftware version number:	ORYX F/W v4,00 Oryx Data Collector v3.7.2.0data status	okinstallation	B4 Nyhavnadifferential loss correction	single-endedforward channel	channel 2reverse channel	N/Adate	2023/12/18time	17:25:13forward acquisition time	300,00reverse acquisition time	0,00gamma	499,1914k internal	0,3125k external	0,3125temperature offset calibration	1,0000default loss term (dB/km)	0,3820temperature slope calibration	1,0000multiplexer offset coefficient	1,0000multiplexer slope coefficient	1,0000fibre end	0,00T internal ref (°C)	21,67T ext. ref 1 (°C)	7,23T ext. ref 2 (°C)	7,27length (m)	temperature (°C)	Stokes	anti-Stokes-744,400	-200,000	-0,001	-0,121
-743,385	144,735	-0,177	0,176
-742,371	397,981	-0,026	0,040
-741,356	124,159	-0,226	0,212
-740,342	800,000	-0,058	0,151
-739,327	-27,177	-0,180	0,078
-738,312	96,936	-0,081	-0,069
-737,298	-77,902	-0,174	-0,044
-736,283	268,476	-0,054	-0,071
-735,269	-148,462	-0,166	0,010
-734,254	323,114	0,060	-0,085
-733,239	-119,267	-0,436	-0,056
-732,225	-90,915	0,100	0,021
-731,210	-196,585	0,044	-0,000
-730,196	432,730	-0,070	-0,114
-729,181	-200,000	-0,002	0,045
-728,167	733,613	-0,035	0,069
-727,152	800,000	-0,032	0,084
-726,137	-200,000	0,017	-0,147
-725,123	20,653	-0,022	0,013
-724,108	800,000	0,006	-0,016
-723,094	-151,311	-0,134	-0,007
-722,079	-200,000	-0,003	-0,073
-721,064	-200,000	0,029	-0,122
-720,050	800,000	0,039	-0,101
-719,035	-200,000	-0,007	0,031
-718,021	800,000	0,023	0,058
-717,006	800,000	-0,053	-0,123
-715,991	-200,000	0,065	-0,214
-714,977	1,374	0,061	0,032
-713,962	394,947	-0,036	-0,056
-712,948	-200,000	0,002	0,054
-711,933	-38,241	0,018	0,007
-710,918	752,465	0,038	0,076
-709,904	-32,618	-0,141	-0,058
-708,889	243,368	-0,073	-0,092
-707,875	30,511	-0,067	-0,043
-706,860	-53,914	0,063	0,021
-705,845	110,407	-0,172	0,154
-704,831	-65,656	0,055	-0,016
-703,816	-200,000	-0,033	-0,158
-702,802	800,000	-0,045	0,098
-701,787	-200,000	0,020	-0,145
-700,772	397,118	-0,095	-0,147
-699,758	800,000	0,052	-0,108
-698,743	364,783	0,077	0,116
-697,729	-79,919	0,063	-0,016
-696,714	142,298	-0,028	0,028
-695,699	139,256	0,024	0,023
-694,685	-137,829	-0,129	0,011
-693,670	584,433	-0,042	-0,077
-692,656	-71,608	-0,163	-0,045
-691,641	-200,000	-0,032	0,118
-690,627	149,412	0,050	0,050
-689,612	-132,589	-0,087	-0,008
-688,597	800,000	-0,038	0,090
-687,583	-95,527	-0,190	0,038
-686,568	-123,670	0,084	0,010
-685,554	608,073	-0,040	-0,075
-684,539	-24,544	0,119	-0,052
-683,524	218,966	-0,020	-0,023
-682,510	11,851	0,168	0,096
-681,495	-43,280	-0,083	-0,031
-680,481	97,084	-0,059	-0,050
-679,466	-200,000	-0,004	-0,022
-678,451	667,699	0,030	-0,058
-677,437	401,782	-0,051	-0,080
-676,422	-200,000	-0,014	0,134
-675,408	-4,847	-0,077	0,040
-674,393	234,907	-0,019	0,024
-673,378	87,172	-0,051	0,042
-672,364	117,017	-0,065	0,059
-671,349	-200,000	-0,047	-0,179
-670,335	-107,023	0,102	0,017
-669,320	27,206	-0,113	0,071
-668,305	5,859	-0,048	-0,026
-667,291	-200,000	-0,002	-0,045
-666,276	338,300	0,032	0,046
-665,262	45,175	0,046	-0,031
-664,247	-143,135	-0,040	-0,003
-663,232	98,912	-0,047	-0,040
-662,218	134,552	0,050	-0,048
-661,203	752,514	-0,005	0,010
-660,189	-200,000	0,003	-0,027
-659,174	-14,563	-0,203	-0,097
-658,159	87,852	-0,112	0,092
-657,145	53,971	-0,082	0,058
-656,130	-68,230	0,087	-0,025
-655,116	800,000	-0,030	-0,063
-654,101	-49,604	0,096	0,034
-653,086	-63,260	0,074	0,023
-652,072	-200,000	0,012	-0,112
-651,057	51,971	-0,141	-0,100
-650,043	-200,000	0,006	0,045
-649,028	227,464	-0,059	-0,072
-648,014	29,277	-0,146	-0,092
-646,999	-167,165	-0,067	0,002
-645,984	800,000	-0,021	0,065
-644,970	37,029	-0,035	-0,023
-643,955	-50,098	0,147	-0,051
-642,941	493,024	-0,050	-0,086
-641,926	21,709	-0,079	0,048
-640,911	800,000	-0,034	-0,070
-639,897	-200,000	0,012	-0,078
-638,882	87,424	-0,096	-0,079
-637,868	96,354	0,093	0,079
-636,853	-174,771	-0,081	0,002
-635,838	-16,152	-0,141	-0,066
-634,824	800,000	0,016	0,050
-633,809	-188,043	-0,209	-0,002
-632,795	650,961	-0,073	-0,139
-631,780	27,477	-0,018	0,011
-630,765	800,000	-0,058	0,182
-629,751	-133,111	0,058	0,005
-628,736	107,939	-0,061	-0,054
-627,722	800,000	0,074	-0,205
-626,707	689,610	0,013	0,025
-625,692	147,223	0,052	-0,052
-624,678	800,000	-0,061	0,150
-623,663	63,537	0,020	0,015
-622,649	-200,000	0,018	-0,081
-621,634	-153,183	0,233	-0,012
-620,619	104,152	-0,026	-0,023
-619,605	22,137	0,106	0,064
-618,590	-200,000	0,007	-0,057
-617,576	50,792	0,128	-0,090
-616,561	-43,369	0,011	-0,004
-615,546	181,235	-0,065	-0,071
-614,532	3,211	-0,069	-0,037
-613,517	316,606	0,042	-0,058
-612,503	-43,406	-0,044	-0,016
-611,488	-164,403	-0,091	-0,003
-610,474	316,543	0,067	0,095
-609,459	-200,000	0,016	0,111
-608,444	777,922	0,013	0,026
-607,430	-7,815	-0,053	-0,027
-606,415	73,788	0,083	-0,064
-605,401	-200,000	0,004	0,080
-604,386	-200,000	-0,008	0,034
-603,371	-189,842	-0,014	0,000
-602,357	107,546	0,018	-0,016
-601,342	-123,013	0,019	0,002
-600,328	-200,000	-0,008	-0,107
-599,313	-3,903	0,077	0,039
-598,298	-29,742	-0,091	-0,038
-597,284	-200,000	0,013	0,048
-596,269	-119,009	0,093	-0,012
-595,255	-62,987	0,062	-0,019
-594,240	50,392	-0,146	0,102
-593,225	-75,772	-0,050	0,013
-592,211	720,605	-0,051	-0,101
-591,196	308,434	-0,073	0,101
-590,182	80,320	0,047	-0,037
-589,167	-57,732	0,102	0,033
-588,152	-200,000	-0,001	-0,011
-587,138	-150,818	-0,148	-0,008
-586,123	-44,255	-0,139	0,051
-585,109	-200,000	0,004	-0,056
-584,094	-200,000	0,006	-0,037
-583,079	-200,000	0,002	0,058
-582,065	-200,000	-0,007	-0,053
-581,050	139,043	0,015	0,014
-580,036	800,000	0,037	0,102
-579,021	-4,642	0,049	-0,025
-578,006	143,657	0,037	-0,036
-576,992	178,682	0,084	-0,091
-575,977	272,665	0,008	0,011
-574,963	-200,000	-0,002	-0,091
-573,948	614,922	-0,045	0,084
-572,934	-41,227	0,110	0,042
-571,919	90,899	-0,082	-0,068
-570,904	61,477	-0,105	-0,077
-569,890	-200,000	0,021	-0,140
-568,875	-200,000	-0,033	0,108
-567,861	-55,733	0,080	0,026
-566,846	-73,419	0,115	0,031
-565,831	-4,656	-0,069	-0,035
-564,817	800,000	0,063	0,139
-563,802	-72,913	-0,112	0,030
-562,788	186,542	0,035	-0,039
-561,773	-5,535	-0,069	-0,035
-560,758	215,122	0,051	0,060
-559,744	-155,496	0,026	0,001
-558,729	-200,000	-0,001	-0,156
-557,715	310,114	-0,021	-0,029
-556,700	800,000	0,023	0,066
-555,685	-54,234	0,104	-0,035
-554,671	800,000	0,044	-0,103
-553,656	95,909	-0,050	-0,042
-552,642	35,970	0,145	0,094
-551,627	387,389	0,072	-0,111
-550,612	353,610	0,064	-0,094
-549,598	-59,156	-0,048	-0,015
-548,583	-151,195	-0,109	-0,006
-547,569	66,134	0,067	-0,050
-546,554	158,300	-0,081	0,083
-545,539	800,000	-0,033	0,092
-544,525	206,164	-0,043	0,050
-543,510	-103,345	-0,014	0,002
-542,496	66,364	0,024	0,018
-541,481	-200,000	-0,012	-0,154
-540,466	432,794	0,073	-0,118
-539,452	-136,436	-0,086	0,007
-538,437	-20,143	-0,091	-0,041
-537,423	-200,000	0,006	-0,053
-536,408	-2,873	-0,106	-0,054
-535,393	-200,000	-0,033	-0,183
-534,379	4,667	-0,068	0,037
-533,364	187,128	-0,107	-0,118
-532,350	800,000	0,026	0,070
-531,335	599,750	-0,023	0,042
-530,321	210,912	0,109	0,127
-529,306	800,000	0,037	0,084
-528,291	569,188	0,013	-0,023
-527,277	80,702	0,084	-0,067
-526,262	25,598	-0,065	0,040
-525,248	35,321	0,034	0,022
-524,233	74,505	0,110	0,085
-523,218	674,764	0,033	-0,064
-522,204	-200,000	0,020	0,167
-521,189	99,246	-0,112	-0,096
-520,175	800,000	-0,038	-0,125
-519,160	-200,000	0,028	0,127
-518,145	215,208	0,070	-0,082
-517,131	800,000	-0,031	-0,092
-516,116	800,000	0,018	0,045
-515,102	-76,405	0,095	0,024
-514,087	-91,050	-0,035	-0,007
-513,072	-87,441	-0,072	0,016
-512,058	294,320	-0,054	0,073
-511,043	-134,213	0,127	0,011
-510,029	-181,237	0,038	-0,001
-509,014	800,000	-0,040	-0,084
-507,999	-200,000	0,020	0,117
-506,985	-200,000	-0,014	-0,072
-505,970	-165,284	0,125	-0,004
-504,956	-87,060	0,148	-0,033
-503,941	-41,211	0,090	-0,034
-502,926	56,820	0,045	-0,033
-501,912	800,000	-0,050	0,140
-500,897	65,178	0,016	0,012
-499,883	-200,000	0,019	-0,071
-498,868	800,000	-0,034	-0,101
-497,853	440,969	-0,067	-0,108
-496,839	-200,000	-0,013	0,099
-495,824	-200,000	0,015	0,116
-494,810	-200,000	0,000	-0,071
-493,795	111,899	-0,074	0,066
-492,781	128,258	0,079	-0,074
-491,766	-200,000	0,008	-0,167
-490,751	-200,000	-0,004	-0,077
-489,737	-200,000	-0,017	-0,068
-488,722	9,294	0,011	-0,006
-487,708	800,000	0,038	0,092
-486,693	76,880	-0,043	-0,034
-485,678	5,110	-0,062	0,034
-484,664	800,000	0,052	0,139
-483,649	87,036	-0,052	-0,042
-482,635	800,000	-0,041	0,110
-481,620	294,836	0,024	0,032
-480,605	-138,058	0,093	0,007
-479,591	6,444	-0,102	0,055
-478,576	-101,142	-0,116	0,021
-477,562	219,393	0,057	-0,068
-476,547	-76,608	-0,099	0,025
-475,532	27,551	-0,028	-0,018
-474,518	176,532	-0,080	0,085
-473,503	-200,000	0,006	-0,070
-472,489	-200,000	0,003	-0,032
-471,474	-42,932	-0,069	-0,026
-470,459	1,331	-0,070	-0,037
-469,445	-182,248	-0,226	0,003
-468,430	-82,642	-0,085	-0,020
-467,416	-200,000	-0,024	0,134
-466,401	-37,616	0,076	0,030
-465,386	-112,865	-0,099	-0,014
-464,372	262,821	-0,043	-0,055
-463,357	147,371	0,039	0,039
-462,343	8,813	0,114	-0,063
-461,328	49,102	0,047	0,032
-460,313	274,413	0,062	-0,081
-459,299	-33,867	-0,118	-0,047
-458,284	92,588	0,037	-0,031
-457,270	-200,000	-0,046	0,155
-456,255	800,000	-0,042	0,094
-455,241	-90,873	-0,123	0,026
-454,226	306,159	0,082	0,113
-453,211	-200,000	-0,007	0,220
-452,197	-94,651	0,072	-0,014
-451,182	800,000	0,048	-0,123
-450,168	221,159	-0,031	0,036
-449,153	-200,000	-0,008	0,048
-448,138	-200,000	0,038	0,152
-447,124	18,207	0,036	-0,021
-446,109	156,321	0,027	0,028
-445,095	81,528	0,038	0,031
-444,080	21,768	-0,084	-0,050
-443,065	146,345	-0,082	0,081
-442,051	800,000	-0,029	0,073
-441,036	138,319	-0,068	-0,066
-440,022	58,006	-0,070	0,050
-439,007	55,567	0,106	-0,076
-437,992	437,128	0,056	-0,090
-436,978	800,000	-0,015	-0,042
-435,963	-139,859	-0,082	-0,006
-434,949	-200,000	-0,002	-0,143
-433,934	-105,314	-0,176	0,029
-432,919	-63,655	-0,152	-0,046
-431,905	34,167	0,026	0,017
-430,890	-42,538	0,048	-0,018
-429,876	693,944	-0,050	0,097
-428,861	-122,543	-0,120	0,014
-427,846	-200,000	-0,034	0,142
-426,832	625,079	0,063	0,117
-425,817	245,938	-0,109	-0,135
-424,803	-33,151	-0,094	0,038
-423,788	252,545	0,090	0,113
-422,773	-200,000	-0,014	-0,066
-421,759	-200,000	0,044	0,166
-420,744	-110,133	-0,103	0,016
-419,730	-32,188	-0,027	-0,011
-418,715	-46,283	0,054	0,019
-417,701	-114,497	-0,177	-0,025
-416,686	286,807	-0,010	-0,013
-415,671	606,860	0,050	0,091
-414,657	583,800	-0,057	0,104
-413,642	-20,479	-0,103	0,046
-412,628	-200,000	-0,020	0,115
-411,613	209,279	0,056	0,065
-410,598	-71,994	-0,033	-0,009
-409,584	40,122	0,058	0,038
-408,569	188,275	0,080	-0,088
-407,555	7,349	-0,144	-0,079
-406,540	-22,030	-0,018	-0,008
-405,525	62,238	0,036	-0,027
-404,511	-200,000	-0,034	-0,121
-403,496	117,200	0,069	0,062
-402,482	-86,277	-0,022	-0,005
-401,467	-162,398	0,062	0,002
-400,452	-12,173	0,072	0,034
-399,438	-104,417	-0,089	-0,015
-398,423	-171,647	-0,150	0,004
-397,409	94,098	-0,024	0,020
-396,394	235,548	-0,018	-0,022
-395,379	-13,540	0,074	-0,035
-394,365	782,898	-0,045	0,090
-393,350	277,140	0,046	0,061
-392,336	337,965	-0,043	0,062
-391,321	800,000	0,067	0,162
-390,306	-36,093	-0,124	-0,049
-389,292	379,294	0,027	-0,041
-388,277	800,000	0,029	-0,080
-387,263	-107,156	-0,024	0,004
-386,248	-200,000	0,005	-0,046
-385,233	-106,741	-0,151	-0,024
-384,219	6,465	-0,096	-0,052
-383,204	-96,866	-0,096	-0,018
-382,190	54,441	0,117	0,083
-381,175	-12,925	-0,070	-0,033
-380,160	36,866	-0,028	0,018
-379,146	-113,725	0,061	-0,009
-378,131	-17,530	0,014	0,007
-377,117	-115,037	-0,119	-0,016
-376,102	127,346	-0,071	-0,066
-375,088	88,746	-0,159	-0,130
-374,073	-200,000	-0,005	-0,129
-373,058	99,373	0,121	-0,103
-372,044	-200,000	0,002	0,095
-371,029	242,405	0,113	0,139
-370,015	454,173	0,074	0,120
-369,000	800,000	-0,039	0,122
-367,985	10,331	0,083	0,046
-366,971	107,188	0,079	-0,069
-365,956	649,238	0,042	-0,080
-364,942	34,475	0,040	0,026
-363,927	-83,546	0,082	0,019
-362,912	-15,847	0,079	0,037
-361,898	-9,617	-0,131	0,064
-360,883	800,000	-0,028	-0,067
-359,869	44,258	-0,097	-0,065
-358,854	28,096	0,047	0,029
-357,839	617,709	-0,100	0,185
-356,825	794,906	0,036	0,073
-355,810	562,300	-0,075	0,134
-354,796	-1,114	-0,039	-0,020
-353,781	-52,992	-0,077	0,026
-352,766	-107,470	0,064	-0,010
-351,752	800,000	-0,013	-0,027
-350,737	-107,958	-0,063	-0,010
-349,723	-18,895	0,080	-0,036
-348,708	800,000	0,016	-0,041
-347,693	58,003	-0,061	-0,044
-346,679	75,334	-0,102	-0,079
-345,664	72,173	0,045	-0,035
-344,650	349,885	0,139	-0,202
-343,635	-113,067	0,130	-0,019
-342,620	28,378	-0,082	0,051
-341,606	584,782	0,034	0,062
-340,591	-200,000	0,000	-0,063
-339,577	477,516	0,078	-0,130
-338,562	195,636	-0,083	-0,093
-337,548	368,196	0,044	-0,066
-336,533	-24,704	0,186	-0,081
-335,518	63,502	-0,036	0,026
-334,504	-15,573	0,029	-0,013
-333,489	65,167	0,082	0,061
-332,475	53,777	0,113	0,079
-331,460	-69,702	-0,078	0,022
-330,445	-200,000	-0,027	0,219
-329,431	800,000	0,041	0,108
-328,416	-66,353	0,163	0,047
-327,402	-39,357	0,107	0,041
-326,387	800,000	0,018	-0,052
-325,372	-200,000	-0,000	-0,131
-324,358	694,565	0,044	0,085
-323,343	-200,000	-0,031	-0,138
-322,329	-26,002	0,113	0,049
-321,314	92,133	0,054	0,045
-320,299	141,470	0,113	0,110
-319,285	-113,292	-0,047	0,007
-318,270	83,547	-0,123	0,098
-317,256	-168,920	0,112	-0,003
-316,241	-6,151	-0,158	-0,079
-315,226	-200,000	-0,011	0,083
-314,212	228,394	-0,034	0,041
-313,197	222,821	0,085	-0,100
-312,183	24,677	-0,023	-0,014
-311,168	792,266	-0,041	-0,083
-310,153	-93,907	0,131	-0,026
-309,139	462,388	0,068	-0,112
-308,124	-190,195	-0,131	-0,001
-307,110	344,916	-0,032	-0,046
-306,095	-171,761	0,127	-0,003
-305,080	-200,000	0,007	0,120
-304,066	377,761	-0,073	0,109
-303,051	3,601	-0,098	-0,052
-302,037	-3,544	0,100	-0,051
-301,022	800,000	-0,028	-0,067
-300,008	144,997	0,008	-0,008
-298,993	-200,000	-0,019	-0,065
-297,978	-162,883	-0,122	-0,004
-296,964	270,669	0,048	-0,062
-295,949	-108,874	0,060	0,009
-294,935	-62,306	0,057	0,017
-293,920	800,000	-0,029	0,064
-292,905	256,099	-0,055	-0,069
-291,891	367,793	0,028	0,041
-290,876	-153,463	0,216	0,011
-289,862	50,332	-0,009	-0,006
-288,847	-59,368	0,114	-0,036
-287,832	-200,000	0,001	0,077
-286,818	-200,000	-0,006	-0,054
-285,803	22,661	0,041	-0,025
-284,789	94,583	-0,104	0,086
-283,774	800,000	0,034	-0,083
-282,759	-200,000	0,013	-0,046
-281,745	-190,506	0,132	0,001
-280,730	-200,000	-0,006	-0,083
-279,716	-106,514	-0,145	0,023
-278,701	799,120	-0,044	-0,089
-277,686	-39,577	0,045	-0,017
-276,672	800,000	-0,036	0,080
-275,657	393,814	-0,044	-0,067
-274,643	9,991	-0,104	-0,057
-273,628	-74,645	-0,049	-0,013
-272,613	-21,966	0,110	-0,049
-271,599	-2,763	0,054	0,027
-270,584	392,612	-0,053	0,080
-269,570	38,582	0,074	0,048
-268,555	-200,000	0,002	-0,066
-267,540	778,513	0,029	-0,058
-266,526	-200,000	0,003	-0,016
-265,511	-200,000	0,044	-0,164
-264,497	-26,667	-0,132	0,056
-263,482	-130,264	0,097	0,010
-262,467	800,000	0,031	0,091
-261,453	-48,672	0,031	-0,011
-260,438	-200,000	0,025	-0,140
-259,424	-200,000	-0,001	-0,079
-258,409	-200,000	0,006	-0,059
-257,395	-59,364	-0,087	0,027
-256,380	-200,000	0,004	-0,087
-255,365	800,000	-0,014	-0,040
-254,351	-18,680	-0,045	0,020
-253,336	-200,000	-0,009	-0,082
-252,322	-21,525	-0,122	-0,054
-251,307	-197,294	0,111	-0,000
-250,292	-138,647	0,110	0,009
-249,278	131,296	-0,043	-0,040
-248,263	241,175	0,077	-0,095
-247,249	583,180	-0,051	-0,092
-246,234	-200,000	0,002	0,102
-245,219	800,000	-0,012	-0,029
-244,205	147,340	0,025	-0,025
-243,190	-145,446	-0,017	0,001
-242,176	355,598	0,085	0,124
-241,161	800,000	-0,023	0,063
-240,146	-106,413	0,136	0,022
-239,132	46,000	-0,081	0,055
-238,117	-200,000	-0,015	-0,067
-237,103	155,165	-0,114	-0,115
-236,088	800,000	0,024	0,067
-235,073	-76,306	0,043	0,011
-234,059	-92,877	0,072	0,015
-233,044	-5,902	0,090	0,045
-232,030	-200,000	-0,008	0,146
-231,015	-108,613	-0,069	-0,011
-230,000	-46,140	0,024	-0,009
-228,986	-200,000	-0,019	0,082
-227,971	-26,468	0,136	0,058
-226,957	-9,515	-0,051	0,025
-225,942	-200,000	-0,023	0,076
-224,927	-4,688	-0,130	0,065
-223,913	800,000	0,023	0,068
-222,898	122,675	-0,158	-0,145
-221,884	800,000	-0,069	0,147
-220,869	-0,566	0,040	-0,021
-219,855	-54,554	0,042	-0,014
-218,840	506,826	0,035	0,059
-217,825	-93,680	-0,083	-0,017
-216,811	-200,000	-0,001	0,035
-215,796	800,000	0,009	0,026
-214,782	-138,561	-0,168	-0,013
-213,767	27,754	-0,033	0,020
-212,752	3,240	0,029	0,015
-211,738	474,245	-0,016	0,027
-210,723	-34,287	0,091	0,036
-209,709	-200,000	-0,001	-0,074
-208,694	-200,000	-0,009	-0,037
-207,679	222,383	0,047	-0,056
-206,665	-200,000	0,041	0,136
-205,650	-123,740	0,180	0,021
-204,636	-50,032	0,031	0,011
-203,621	362,256	0,032	-0,047
-202,606	-200,000	0,000	0,099
-201,592	-200,000	-0,002	-0,187
-200,577	-62,125	0,134	-0,041
-199,563	-200,000	-0,007	0,074
-198,548	-35,717	-0,112	0,044
-197,533	38,045	-0,050	-0,032
-196,519	14,357	0,010	0,006
-195,504	457,970	-0,020	-0,032
-194,490	-200,000	0,011	0,117
-193,475	-90,442	-0,183	0,038
-192,460	-200,000	0,041	-0,202
-191,446	91,462	-0,011	-0,009
-190,431	388,486	0,072	0,109
-189,417	10,381	-0,045	-0,025
-188,402	47,299	-0,101	0,069
-187,387	651,265	0,009	0,017
-186,373	-200,000	0,015	0,055
-185,358	364,619	0,047	-0,069
-184,344	-118,038	0,185	0,024
-183,329	-10,703	0,060	-0,029
-182,315	253,812	0,116	0,145
-181,300	72,227	-0,029	-0,022
-180,285	800,000	-0,035	-0,097
-179,271	-154,160	-0,085	0,004
-178,256	800,000	0,048	0,113
-177,242	-115,366	-0,098	-0,013
-176,227	800,000	0,024	0,065
-175,212	-200,000	-0,005	0,162
-174,198	800,000	-0,017	-0,047
-173,183	-200,000	0,055	-0,214
-172,169	-21,348	0,062	-0,027
-171,154	19,702	0,146	0,085
-170,139	-137,164	0,124	0,010
-169,125	-115,476	0,125	0,017
-168,110	-111,533	0,083	0,012
-167,096	-200,000	-0,008	0,025
-166,081	-109,959	0,122	-0,018
-165,066	182,668	-0,094	0,101
-164,052	-92,832	0,070	0,014
-163,037	800,000	-0,007	-0,016
-162,023	800,000	0,021	0,059
-161,008	-24,200	0,022	0,010
-159,993	-68,754	0,089	-0,025
-158,979	766,064	0,041	-0,082
-157,964	42,729	0,108	0,071
-156,950	3,835	-0,114	0,060
-155,935	-32,691	0,106	0,043
-154,920	45,295	0,025	-0,017
-153,906	-200,000	0,021	0,072
-152,891	71,172	0,026	-0,019
-151,877	-67,058	0,121	-0,034
-150,862	-112,791	-0,114	-0,016
-149,847	41,487	-0,199	-0,131
-148,833	151,139	0,019	0,019
-147,818	543,564	0,038	0,066
-146,804	-200,000	-0,012	0,230
-145,789	641,596	0,055	0,102
-144,775	227,089	-0,087	-0,103
-143,760	323,314	0,030	-0,042
-142,745	800,000	0,032	0,084
-141,731	458,946	-0,064	0,104
-140,716	37,233	0,065	0,042
-139,702	-173,872	0,142	-0,003
-138,687	46,422	0,066	0,044
-137,672	229,597	-0,070	-0,084
-136,658	167,493	-0,018	-0,018
-135,643	-182,600	-0,170	0,002
-134,629	738,374	-0,024	0,047
-133,614	59,579	0,137	0,098
-132,599	49,431	-0,076	0,052
-131,585	800,000	-0,026	0,079
-130,570	20,607	0,027	-0,016
-129,556	26,943	0,057	-0,035
-128,541	-200,000	0,019	-0,069
-127,526	-200,000	-0,006	-0,082
-126,512	67,356	0,071	-0,052
-125,497	-3,728	0,089	0,045
-124,483	-200,000	-0,024	-0,102
-123,468	800,000	-0,040	-0,095
-122,453	42,875	0,107	0,071
-121,439	118,324	-0,040	0,036
-120,424	800,000	0,028	-0,076
-119,410	-45,300	-0,060	-0,022
-118,395	800,000	-0,026	-0,058
