DTS Sentinel unit serial number:	SN410029Multiplexer serial number:	ORYXHardware model number:	OX2-SRSoftware version number:	ORYX F/W v4,00 Oryx Data Collector v3.7.2.0data status	okinstallation	B4 Nyhavnadifferential loss correction	single-endedforward channel	channel 2reverse channel	N/Adate	2023/12/15time	19:40:13forward acquisition time	300,00reverse acquisition time	0,00gamma	499,1914k internal	0,3138k external	0,3138temperature offset calibration	1,0000default loss term (dB/km)	0,3820temperature slope calibration	1,0000multiplexer offset coefficient	1,0000multiplexer slope coefficient	1,0000fibre end	0,00T internal ref (°C)	20,03T ext. ref 1 (°C)	5,55T ext. ref 2 (°C)	5,70length (m)	temperature (°C)	Stokes	anti-Stokes-744,400	749,508	-0,036	-0,073
-743,385	-138,446	-0,384	-0,031
-742,371	500,982	-0,034	0,059
-741,356	-4,403	-0,158	0,081
-740,342	-47,522	0,137	-0,049
-739,327	-161,103	-0,290	-0,011
-738,312	-24,404	0,102	-0,045
-737,298	-109,448	-0,314	-0,049
-736,283	-74,658	0,139	-0,037
-735,269	-107,859	-0,231	-0,037
-734,254	135,569	0,049	0,047
-733,239	-147,923	-0,487	-0,030
-732,225	-113,206	0,238	0,034
-731,210	70,404	0,098	0,075
-730,196	-43,521	0,063	0,023
-729,181	-61,135	0,035	-0,011
-728,167	-118,537	0,080	-0,010
-727,152	-200,000	0,010	-0,072
-726,137	-71,870	-0,124	-0,034
-725,123	18,629	-0,130	-0,077
-724,108	278,937	-0,073	-0,097
-723,094	-200,000	0,000	-0,122
-722,079	52,978	-0,040	-0,029
-721,064	-97,065	-0,061	-0,012
-720,050	-200,000	-0,004	-0,112
-719,035	30,299	-0,094	-0,059
-718,021	800,000	-0,034	-0,105
-717,006	-82,078	-0,112	0,027
-715,991	-200,000	-0,006	0,022
-714,977	-150,368	-0,096	0,005
-713,962	-200,000	-0,003	-0,093
-712,948	-69,834	0,073	0,020
-711,933	800,000	-0,033	0,098
-710,918	-200,000	0,009	-0,081
-709,904	-200,000	-0,033	-0,188
-708,889	800,000	-0,089	-0,195
-707,875	800,000	-0,054	-0,131
-706,860	607,772	0,051	-0,094
-705,845	92,825	-0,072	-0,060
-704,831	-6,865	-0,076	-0,038
-703,816	-46,727	0,013	0,005
-702,802	-200,000	-0,024	0,079
-701,787	-101,764	-0,096	-0,017
-700,772	-200,000	-0,004	-0,070
-699,758	-200,000	-0,010	-0,115
-698,743	161,692	0,034	-0,036
-697,729	-200,000	0,027	0,109
-696,714	-200,000	-0,001	-0,075
-695,699	-200,000	-0,031	0,101
-694,685	-161,608	0,168	0,006
-693,670	11,539	-0,103	-0,058
-692,656	-78,416	0,106	-0,027
-691,641	800,000	0,030	-0,076
-690,627	-50,966	-0,022	0,008
-689,612	-200,000	0,008	-0,094
-688,597	-33,148	-0,050	0,020
-687,583	-200,000	-0,090	0,000
-686,568	800,000	0,039	-0,085
-685,554	217,944	-0,095	-0,113
-684,539	497,748	0,025	0,043
-683,524	55,569	-0,043	-0,031
-682,510	119,376	-0,079	0,072
-681,495	-146,881	-0,094	-0,006
-680,481	-200,000	-0,012	-0,058
-679,466	800,000	-0,040	-0,085
-678,451	-123,649	-0,152	0,018
-677,437	-27,393	0,085	-0,036
-676,422	509,385	-0,038	-0,065
-675,408	-143,051	-0,033	-0,002
-674,393	-49,308	-0,134	-0,047
-673,378	205,307	0,069	-0,080
-672,364	5,525	-0,053	-0,029
-671,349	800,000	0,027	-0,059
-670,335	117,501	-0,095	-0,086
-669,320	509,252	0,043	0,075
-668,305	80,967	-0,038	0,030
-667,291	41,520	-0,120	0,080
-666,276	-184,779	0,095	-0,001
-665,262	132,567	-0,091	0,087
-664,247	174,742	-0,134	-0,143
-663,232	-200,000	0,019	-0,088
-662,218	-200,000	0,000	0,082
-661,203	800,000	0,015	0,033
-660,189	-25,853	0,117	-0,051
-659,174	161,486	-0,066	-0,068
-658,159	34,780	-0,141	0,091
-657,145	-200,000	-0,005	0,075
-656,130	170,525	0,128	-0,136
-655,116	-103,297	0,164	-0,028
-654,101	7,221	-0,074	0,041
-653,086	219,332	0,054	0,064
-652,072	-200,000	-0,019	-0,064
-651,057	-200,000	0,002	-0,066
-650,043	7,045	0,094	0,052
-649,028	220,574	0,085	-0,101
-648,014	-96,057	0,084	-0,016
-646,999	-124,879	-0,051	0,006
-645,984	367,806	-0,016	0,024
-644,970	-200,000	0,000	-0,046
-643,955	800,000	-0,064	-0,134
-642,941	800,000	-0,030	-0,095
-641,926	-137,876	0,045	0,004
-640,911	124,750	-0,078	-0,073
-639,897	800,000	0,046	-0,101
-638,882	-107,099	0,008	-0,001
-637,868	800,000	-0,049	0,125
-636,853	-200,000	0,011	-0,091
-635,838	118,365	-0,036	-0,033
-634,824	-68,976	-0,132	-0,037
-633,809	-200,000	-0,019	-0,103
-632,795	4,167	-0,093	0,050
-631,780	800,000	-0,047	-0,124
-630,765	186,153	-0,075	0,082
-629,751	63,290	-0,092	0,068
-628,736	48,459	0,048	-0,033
-627,722	-200,000	0,006	0,075
-626,707	-154,589	-0,052	0,003
-625,692	-200,000	-0,007	-0,097
-624,678	609,380	-0,048	0,089
-623,663	9,567	0,018	-0,010
-622,649	800,000	-0,070	-0,201
-621,634	800,000	-0,007	-0,016
-620,619	-87,369	0,085	0,019
-619,605	411,376	-0,029	-0,046
-618,590	-200,000	-0,023	-0,106
-617,576	800,000	-0,023	-0,063
-616,561	-84,785	-0,036	0,008
-615,546	-200,000	-0,005	0,073
-614,532	223,981	-0,067	-0,079
-613,517	-61,134	-0,228	0,071
-612,503	241,627	0,091	0,113
-611,488	-200,000	0,016	0,087
-610,474	382,723	0,069	0,105
-609,459	-28,445	0,112	0,048
-608,444	-66,673	-0,108	-0,031
-607,430	452,817	-0,039	-0,063
-606,415	-138,321	-0,132	0,011
-605,401	-200,000	0,001	-0,082
-604,386	800,000	-0,021	0,057
-603,371	130,985	0,064	0,061
-602,357	476,920	-0,004	-0,007
-601,342	-38,605	0,037	-0,014
-600,328	-66,011	-0,061	-0,018
-599,313	-200,000	-0,010	0,000
-598,298	-200,000	-0,017	-0,110
-597,284	-61,356	0,136	-0,042
-596,269	-27,889	-0,052	0,022
-595,255	-140,981	0,072	0,005
-594,240	223,027	-0,065	0,077
-593,225	-69,388	-0,136	0,038
-592,211	336,828	0,046	0,067
-591,196	182,555	-0,085	-0,093
-590,182	-42,477	0,043	0,016
-589,167	126,088	0,144	-0,135
-588,152	160,492	0,037	0,039
-587,138	251,697	-0,108	0,135
-586,123	200,682	-0,150	-0,171
-585,109	-200,000	-0,008	0,042
-584,094	800,000	-0,033	-0,097
-583,079	-28,186	-0,145	0,061
-582,065	564,587	-0,014	-0,025
-581,050	149,212	-0,064	0,064
-580,036	-200,000	-0,034	0,181
-579,021	-200,000	0,038	-0,153
-578,006	800,000	0,039	-0,127
-576,992	47,385	0,128	-0,088
-575,977	-88,136	-0,119	-0,026
-574,963	72,569	0,037	-0,029
-573,948	-54,836	-0,043	-0,014
-572,934	11,938	0,037	-0,021
-571,919	274,404	-0,069	-0,090
-570,904	-104,256	-0,135	0,023
-569,890	-200,000	0,024	-0,181
-568,875	800,000	0,034	-0,091
-567,861	-200,000	0,024	0,169
-566,846	-18,257	-0,051	-0,023
-565,831	28,937	-0,039	-0,024
-564,817	-200,000	0,004	-0,086
-563,802	114,647	0,093	0,083
-562,788	-38,845	-0,053	-0,021
-561,773	-200,000	0,114	0,000
-560,758	-200,000	-0,033	-0,124
-559,744	-200,000	-0,009	0,074
-558,729	96,692	0,048	0,040
-557,715	13,446	-0,064	-0,037
-556,700	-200,000	-0,012	-0,090
-555,685	-114,428	-0,097	-0,014
-554,671	-144,878	0,120	0,008
-553,656	46,279	0,060	-0,041
-552,642	-176,711	0,087	0,002
-551,627	208,893	-0,088	0,101
-550,612	-180,907	-0,028	0,000
-549,598	-35,285	-0,097	-0,039
-548,583	-41,618	-0,047	-0,018
-547,569	-200,000	0,107	0,000
-546,554	316,198	0,050	-0,070
-545,539	-200,000	0,007	-0,076
-544,525	800,000	-0,030	0,064
-543,510	800,000	0,034	-0,074
-542,496	454,887	-0,055	-0,089
-541,481	800,000	-0,007	-0,020
-540,466	-200,000	0,003	-0,010
-539,452	102,548	0,027	-0,024
-538,437	47,354	0,116	0,080
-537,423	21,806	-0,061	0,037
-536,408	-39,747	-0,026	-0,010
-535,393	33,578	0,050	-0,032
-534,379	-16,182	-0,061	-0,028
-533,364	-200,000	0,009	-0,124
-532,350	-200,000	-0,008	0,148
-531,335	135,559	-0,019	-0,018
-530,321	277,065	0,066	-0,087
-529,306	101,415	-0,021	0,018
-528,291	24,403	-0,158	-0,096
-527,277	-164,183	0,047	0,002
-526,262	-200,000	0,029	0,107
-525,248	-153,079	0,075	0,004
-524,233	188,098	0,126	0,139
-523,218	800,000	-0,010	-0,024
-522,204	800,000	0,025	-0,073
-521,189	87,406	-0,090	-0,074
-520,175	45,057	0,095	0,064
-519,160	800,000	-0,033	-0,071
-518,145	-200,000	0,024	-0,111
-517,131	-90,586	0,113	-0,024
-516,116	-200,000	0,004	-0,165
-515,102	-200,000	-0,020	0,078
-514,087	-200,000	-0,002	0,161
-513,072	55,926	0,111	0,079
-512,058	-194,245	-0,022	-0,000
-511,043	-177,958	0,040	0,001
-510,029	263,245	0,076	-0,097
-509,014	234,935	0,053	0,065
-507,999	28,909	0,037	-0,023
-506,985	800,000	0,017	-0,040
-505,970	-156,552	0,097	-0,004
-504,956	800,000	0,028	-0,061
-503,941	-32,340	0,038	0,016
-502,926	-91,539	0,162	-0,034
-501,912	-200,000	-0,005	0,017
-500,897	-200,000	-0,005	0,093
-499,883	-200,000	-0,001	-0,007
-498,868	456,647	-0,020	-0,032
-497,853	-47,280	0,125	0,044
-496,839	466,868	0,008	-0,014
-495,824	-156,190	0,028	0,001
-494,810	48,297	0,090	0,062
-493,795	-200,000	0,014	0,105
-492,781	-59,372	-0,162	0,051
-491,766	-62,129	0,027	0,008
-490,751	-12,714	0,115	-0,055
-489,737	7,357	0,036	-0,019
-488,722	-122,987	0,162	0,019
-487,708	-200,000	-0,016	-0,093
-486,693	-92,266	0,098	-0,020
-485,678	-200,000	0,010	0,035
-484,664	-200,000	-0,020	-0,077
-483,649	-200,000	0,003	-0,092
-482,635	800,000	0,029	-0,072
-481,620	409,653	-0,061	-0,095
-480,605	211,392	0,047	-0,054
-479,591	298,793	-0,056	-0,076
-478,576	119,764	-0,012	0,011
-477,562	13,588	-0,069	-0,039
-476,547	187,348	-0,095	0,105
-475,532	-200,000	-0,017	-0,065
-474,518	-200,000	-0,017	0,067
-473,503	250,349	0,067	0,083
-472,489	-72,854	-0,047	0,013
-471,474	443,402	-0,060	0,097
-470,459	266,529	-0,052	0,066
-469,445	48,084	0,053	-0,036
-468,430	104,798	0,134	-0,116
-467,416	-200,000	-0,009	0,031
-466,401	138,147	-0,030	-0,029
-465,386	-200,000	-0,012	-0,084
-464,372	262,796	0,056	0,071
-463,357	-200,000	-0,002	0,038
-462,343	13,407	-0,179	-0,102
-461,328	397,037	-0,166	-0,255
-460,313	800,000	-0,026	-0,059
-459,299	187,975	0,068	-0,074
-458,284	-200,000	-0,027	0,087
-457,270	98,395	0,055	0,047
-456,255	62,005	-0,094	-0,068
-455,241	16,187	-0,144	-0,083
-454,226	-97,216	-0,248	-0,047
-453,211	-181,523	0,123	0,002
-452,197	-200,000	-0,008	0,071
-451,182	-200,000	-0,021	0,109
-450,168	407,082	0,012	0,018
-449,153	139,279	-0,049	-0,047
-448,138	539,823	-0,058	0,102
-447,124	-200,000	0,009	0,103
-446,109	800,000	-0,066	-0,188
-445,095	38,879	-0,045	-0,029
-444,080	74,843	-0,163	0,126
-443,065	800,000	-0,031	-0,081
-442,051	104,552	-0,069	-0,060
-441,036	636,682	-0,048	-0,089
-440,022	-63,813	0,193	0,057
-439,007	800,000	-0,043	-0,109
-437,992	-200,000	-0,015	-0,100
-436,978	64,416	0,027	0,020
-435,963	800,000	-0,020	0,048
-434,949	-54,216	-0,020	0,007
-433,934	18,995	-0,094	0,055
-432,919	775,554	-0,057	-0,114
-431,905	-35,288	0,061	-0,024
-430,890	319,165	-0,084	0,117
-429,876	-200,000	0,025	0,149
-428,861	367,936	0,074	0,110
-427,846	9,473	0,137	-0,076
-426,832	-200,000	-0,012	-0,061
-425,817	800,000	-0,020	-0,049
-424,803	-120,071	-0,090	0,011
-423,788	800,000	0,007	0,022
-422,773	-148,799	0,174	-0,010
-421,759	-119,540	0,056	-0,007
-420,744	800,000	0,047	0,109
-419,730	-200,000	0,014	-0,136
-418,715	377,634	-0,076	-0,114
-417,701	800,000	-0,052	0,122
-416,686	117,178	0,022	-0,020
-415,671	-200,000	0,009	-0,082
-414,657	-44,538	0,135	0,049
-413,642	-46,120	0,130	-0,047
-412,628	-50,936	-0,048	-0,017
-411,613	-125,912	-0,092	-0,010
-410,598	-93,442	-0,069	0,014
-409,584	-200,000	0,003	0,040
-408,569	-200,000	-0,026	0,095
-407,555	-20,872	-0,035	0,016
-406,540	526,515	0,075	0,130
-405,525	-58,240	-0,179	0,057
-404,511	-200,000	-0,006	-0,042
-403,496	-135,948	0,110	-0,009
-402,482	-200,000	0,024	-0,083
-401,467	-13,791	0,174	0,082
-400,452	800,000	0,017	0,046
-399,438	-200,000	-0,029	0,104
-398,423	-92,151	-0,114	0,023
-397,409	-200,000	0,002	-0,207
-396,394	508,319	0,056	0,095
-395,379	800,000	0,020	0,043
-394,365	-200,000	0,002	-0,095
-393,350	-75,423	0,072	-0,019
-392,336	-80,861	-0,111	-0,027
-391,321	235,809	0,044	-0,054
-390,306	63,617	-0,125	0,092
-389,292	-194,652	-0,027	0,000
-388,277	-53,340	0,081	-0,027
-387,263	-51,799	0,074	0,025
-386,248	232,222	0,109	0,131
-385,233	-200,000	0,018	0,157
-384,219	223,142	0,056	0,067
-383,204	800,000	0,005	-0,013
-382,190	-133,886	-0,053	-0,005
-381,175	536,345	0,055	-0,096
-380,160	-200,000	0,011	0,073
-379,146	-80,829	0,076	-0,018
-378,131	-200,000	0,009	0,055
-377,117	742,093	0,007	0,014
-376,102	452,346	-0,095	-0,154
-375,088	170,195	-0,015	-0,016
-374,073	800,000	0,007	-0,020
-373,058	473,028	0,029	-0,048
-372,044	-47,189	0,104	-0,037
-371,029	800,000	0,028	0,057
-370,015	-19,488	-0,090	0,040
-369,000	52,171	-0,080	-0,055
-367,985	670,914	-0,059	-0,113
-366,971	-200,000	-0,027	-0,127
-365,956	602,484	-0,078	0,143
-364,942	800,000	0,044	0,129
-363,927	-200,000	0,027	0,167
-362,912	800,000	0,077	0,157
-361,898	-17,627	-0,118	0,054
-360,883	800,000	-0,042	0,101
-359,869	190,503	-0,090	-0,099
-358,854	-200,000	0,013	0,097
-357,839	458,119	-0,052	0,085
-356,825	-200,000	-0,016	-0,058
-355,810	267,531	-0,020	0,026
-354,796	414,375	-0,023	-0,036
-353,781	-200,000	0,001	-0,055
-352,766	-200,000	-0,019	0,080
-351,752	117,741	0,027	0,025
-350,737	-200,000	-0,019	0,169
-349,723	-111,477	-0,177	0,026
-348,708	800,000	-0,021	0,057
-347,693	-129,344	-0,084	-0,008
-346,679	-200,000	0,019	-0,103
-345,664	800,000	0,015	-0,041
-344,650	-200,000	0,020	0,109
-343,635	133,768	0,102	0,097
-342,620	277,044	-0,065	-0,085
-341,606	-200,000	-0,014	0,076
-340,591	800,000	0,040	0,103
-339,577	-200,000	-0,005	0,053
-338,562	800,000	0,024	0,060
-337,548	-72,615	0,130	-0,035
-336,533	91,563	0,066	-0,054
-335,518	-200,000	-0,017	-0,057
-334,504	-200,000	-0,014	0,093
-333,489	800,000	-0,007	0,018
-332,475	280,276	-0,040	0,052
-331,460	-86,190	-0,106	-0,024
-330,445	722,456	0,022	0,043
-329,431	-158,316	0,049	0,002
-328,416	-200,000	-0,023	0,174
-327,402	-20,748	0,065	0,029
-326,387	53,025	0,047	0,033
-325,372	-200,000	0,019	-0,141
-324,358	-200,000	0,010	-0,089
-323,343	182,085	0,018	-0,020
-322,329	19,749	0,042	0,025
-321,314	531,558	0,083	0,143
-320,299	-200,000	-0,011	0,066
-319,285	800,000	-0,058	0,169
-318,270	-33,762	-0,111	-0,044
-317,256	208,378	-0,119	-0,136
-316,241	800,000	0,045	-0,139
-315,226	-171,723	0,096	0,002
-314,212	290,256	0,021	0,027
-313,197	800,000	0,016	-0,040
-312,183	-18,654	-0,133	0,060
-311,168	-10,794	0,157	-0,076
-310,153	75,540	0,071	-0,055
-309,139	381,583	-0,041	-0,062
-308,124	-200,000	0,012	0,098
-307,110	-200,000	-0,005	0,045
-306,095	-61,235	0,103	0,031
-305,080	-92,005	0,122	-0,025
-304,066	-109,708	-0,088	0,013
-303,051	-185,701	0,022	-0,000
-302,037	429,992	-0,025	-0,040
-301,022	-21,264	-0,046	0,020
-300,008	-200,000	-0,015	0,051
-298,993	93,871	0,069	0,057
-297,978	-200,000	-0,003	0,017
-296,964	-102,562	0,082	0,014
-295,949	-200,000	-0,017	0,097
-294,935	800,000	-0,027	0,068
-293,920	35,613	-0,114	-0,073
-292,905	-22,942	0,091	0,040
-291,891	-95,380	0,100	0,019
-290,876	-27,388	0,058	0,024
-289,862	-94,084	0,094	0,019
-288,847	-41,497	-0,076	-0,028
-287,832	-121,723	0,119	0,014
-286,818	146,041	0,052	0,050
-285,803	378,016	0,106	-0,159
-284,789	2,786	0,083	0,044
-283,774	285,960	0,042	-0,055
-282,759	-200,000	0,006	0,059
-281,745	82,773	-0,108	-0,085
-280,730	184,840	0,035	0,038
-279,716	-18,416	0,048	0,022
-278,701	-171,376	-0,037	-0,001
-277,686	17,261	0,143	0,082
-276,672	170,945	0,090	0,094
-275,657	-40,048	-0,108	0,041
-274,643	-200,000	-0,005	0,111
-273,628	-200,000	-0,006	0,078
-272,613	-200,000	-0,006	0,048
-271,599	-128,361	0,101	0,010
-270,584	45,116	0,115	0,077
-269,570	-200,000	0,006	0,047
-268,555	615,702	-0,015	0,028
-267,540	800,000	0,005	-0,015
-266,526	-200,000	0,000	-0,142
-265,511	-200,000	0,003	-0,036
-264,497	611,637	0,043	-0,079
-263,482	-128,865	0,017	0,002
-262,467	694,739	0,073	0,141
-261,453	222,446	-0,073	0,085
-260,438	800,000	0,033	0,093
-259,424	241,419	-0,101	-0,123
-258,409	242,330	-0,092	-0,112
-257,395	800,000	0,041	-0,126
-256,380	479,077	0,097	-0,161
-255,365	270,249	-0,047	0,060
-254,351	-47,246	0,101	0,036
-253,336	-200,000	0,003	0,081
-252,322	-200,000	-0,010	-0,119
-251,307	194,668	-0,064	0,071
-250,292	-75,308	0,119	0,031
-249,278	41,757	0,083	0,054
-248,263	286,146	0,060	-0,079
-247,249	87,394	0,037	-0,030
-246,234	-31,508	-0,055	-0,023
-245,219	-200,000	-0,026	-0,180
-244,205	-200,000	-0,009	-0,043
-243,190	-200,000	-0,017	-0,124
-242,176	-200,000	0,015	-0,139
-241,161	-200,000	0,015	0,099
-240,146	-200,000	-0,019	0,101
-239,132	800,000	-0,050	-0,103
-238,117	-49,955	-0,021	-0,007
-237,103	-200,000	0,001	-0,008
-236,088	389,033	-0,126	0,191
-235,073	-83,775	-0,039	0,009
-234,059	-55,610	-0,173	0,056
-233,044	-55,829	-0,115	-0,037
-232,030	351,484	0,085	-0,123
-231,015	-76,999	-0,088	-0,022
-230,000	92,399	0,107	-0,088
-228,986	66,643	0,084	-0,062
-227,971	139,506	0,047	0,045
-226,957	-18,756	-0,092	-0,041
-225,942	-200,000	-0,013	0,084
-224,927	419,708	-0,087	-0,135
-223,913	287,111	-0,127	0,167
-222,898	-200,000	0,008	-0,119
-221,884	143,474	0,035	-0,033
-220,869	-200,000	0,011	0,085
-219,855	293,078	-0,101	0,134
-218,840	-13,348	0,051	0,024
-217,825	-59,193	-0,095	-0,030
-216,811	-41,853	-0,099	-0,037
-215,796	-17,622	-0,048	-0,022
-214,782	0,714	-0,027	-0,014
-213,767	800,000	-0,029	0,075
-212,752	-89,876	0,074	-0,016
-211,738	800,000	-0,049	0,132
-210,723	-91,241	0,116	0,024
-209,709	104,719	-0,118	-0,101
-208,694	637,372	-0,073	-0,135
-207,679	629,782	0,059	-0,109
-206,665	219,157	-0,089	-0,103
-205,650	732,816	-0,068	0,133
-204,636	348,746	0,068	0,098
-203,621	-134,644	0,166	0,014
-202,606	-33,166	0,059	0,024
-201,592	-17,670	0,072	0,033
-200,577	-200,000	0,020	0,082
-199,563	-32,036	0,135	-0,054
-198,548	-128,910	0,155	-0,016
-197,533	51,178	0,113	0,078
-196,519	0,475	0,048	-0,025
-195,504	-47,054	0,083	-0,029
-194,490	800,000	0,013	0,031
-193,475	296,740	-0,079	-0,105
-192,460	565,573	-0,005	-0,009
-191,446	580,858	-0,116	0,207
-190,431	44,721	0,081	0,054
-189,417	480,532	-0,025	0,041
-188,402	423,183	0,026	0,041
-187,387	26,595	-0,162	0,098
-186,373	199,249	0,068	-0,075
-185,358	-200,000	0,003	-0,097
-184,344	-200,000	0,014	0,071
-183,329	800,000	0,024	0,068
-182,315	458,723	-0,072	0,117
-181,300	-198,096	-0,074	0,000
-180,285	67,064	-0,076	-0,056
-179,271	145,818	0,002	0,002
-178,256	-179,037	-0,072	-0,001
-177,242	-40,876	0,098	-0,037
-176,227	-200,000	0,000	0,009
-175,212	727,959	-0,035	-0,068
-174,198	800,000	0,026	0,080
-173,183	-20,820	-0,112	0,050
-172,169	-158,128	0,045	0,002
-171,154	-134,127	-0,042	-0,004
-170,139	-112,802	0,130	-0,019
-169,125	-65,274	-0,071	-0,021
-168,110	129,816	0,108	0,100
-167,096	-174,880	0,053	0,001
-166,081	-200,000	-0,003	0,138
-165,066	-200,000	0,001	0,005
-164,052	716,016	-0,035	0,068
-163,037	800,000	-0,004	-0,012
-162,023	-123,087	0,072	0,008
-161,008	-6,528	0,033	0,016
-159,993	258,075	-0,033	-0,042
-158,979	82,284	0,036	-0,028
-157,964	592,271	-0,043	0,078
-156,950	-108,341	-0,055	-0,008
-155,935	-199,441	-0,077	-0,000
-154,920	-200,000	0,008	0,040
-153,906	-56,535	0,161	0,052
-152,891	694,178	-0,016	-0,031
-151,877	800,000	-0,034	-0,098
-150,862	-148,970	-0,051	-0,003
-149,847	15,641	0,156	-0,089
-148,833	523,960	-0,041	0,070
-147,818	-108,289	-0,076	-0,012
-146,804	149,485	-0,083	-0,082
-145,789	-12,272	-0,051	0,024
-144,775	-138,448	-0,086	0,007
-143,760	729,283	-0,007	-0,013
-142,745	33,750	0,151	-0,095
-141,731	-93,154	-0,152	0,030
-140,716	-200,000	0,099	0,000
-139,702	553,750	0,033	-0,058
-138,687	800,000	0,038	0,078
-137,672	190,118	-0,061	0,066
-136,658	-200,000	-0,003	-0,018
-135,643	648,375	-0,011	0,020
-134,629	445,156	0,075	0,120
-133,614	-64,419	0,159	-0,046
-132,599	134,232	-0,107	0,100
-131,585	266,879	0,077	0,097
-130,570	134,530	-0,083	0,078
-129,556	234,191	-0,019	-0,023
-128,541	800,000	-0,044	-0,123
-127,526	800,000	-0,007	0,018
-126,512	800,000	0,058	-0,120
-125,497	43,039	-0,085	0,056
-124,483	321,839	0,075	0,103
-123,468	163,864	0,083	-0,085
-122,453	205,488	0,009	-0,010
-121,439	-200,000	-0,031	0,101
-120,424	-200,000	-0,010	0,052
