DTS Sentinel unit serial number:	SN410029Multiplexer serial number:	ORYXHardware model number:	OX2-SRSoftware version number:	ORYX F/W v4,00 Oryx Data Collector v3.7.2.0data status	okinstallation	B4 Nyhavnadifferential loss correction	single-endedforward channel	channel 2reverse channel	N/Adate	2023/12/19time	12:25:13forward acquisition time	300,00reverse acquisition time	0,00gamma	499,1914k internal	0,3128k external	0,3128temperature offset calibration	1,0000default loss term (dB/km)	0,3820temperature slope calibration	1,0000multiplexer offset coefficient	1,0000multiplexer slope coefficient	1,0000fibre end	0,00T internal ref (°C)	19,58T ext. ref 1 (°C)	4,37T ext. ref 2 (°C)	4,37length (m)	temperature (°C)	Stokes	anti-Stokes-744,400	371,115	0,026	-0,040
-743,385	-92,083	-0,163	0,034
-742,371	-182,541	0,122	0,002
-741,356	-95,380	-0,158	0,031
-740,342	94,107	0,020	-0,017
-739,327	-55,741	-0,281	0,093
-738,312	339,053	0,067	-0,097
-737,298	-120,452	-0,185	0,023
-736,283	119,184	-0,062	-0,057
-735,269	-146,189	-0,219	-0,014
-734,254	-49,408	-0,069	-0,024
-733,239	-151,097	-0,360	0,020
-732,225	-5,765	0,149	-0,076
-731,210	-200,000	0,008	-0,051
-730,196	177,991	0,010	-0,010
-729,181	-64,937	0,095	-0,028
-728,167	81,763	0,096	-0,077
-727,152	-200,000	-0,002	0,068
-726,137	-89,016	0,058	0,013
-725,123	-200,000	-0,044	-0,191
-724,108	534,804	-0,107	-0,189
-723,094	20,448	-0,197	-0,118
-722,079	800,000	-0,082	-0,218
-721,064	101,735	-0,060	-0,052
-720,050	-200,000	-0,031	-0,108
-719,035	-84,022	-0,051	0,012
-718,021	251,236	-0,049	0,062
-717,006	257,720	-0,140	-0,180
-715,991	243,619	-0,071	-0,088
-714,977	340,778	0,037	-0,055
-713,962	-143,270	-0,038	-0,003
-712,948	-200,000	0,011	0,045
-711,933	-106,782	-0,077	0,013
-710,918	-93,217	-0,075	-0,015
-709,904	526,706	-0,056	-0,098
-708,889	338,995	-0,075	-0,109
-707,875	77,692	-0,132	0,104
-706,860	-28,936	-0,099	-0,042
-705,845	-200,000	0,005	-0,022
-704,831	-32,823	-0,073	0,030
-703,816	45,942	-0,109	0,075
-702,802	-200,000	0,019	-0,137
-701,787	104,169	-0,036	0,031
-700,772	6,900	-0,052	0,029
-699,758	756,384	0,035	0,070
-698,743	800,000	-0,041	-0,086
-697,729	-106,447	-0,147	-0,024
-696,714	655,413	0,033	-0,063
-695,699	-19,515	-0,063	-0,029
-694,685	158,263	-0,135	0,139
-693,670	-200,000	-0,004	-0,023
-692,656	-36,572	0,066	0,026
-691,641	-200,000	0,032	0,186
-690,627	-200,000	0,009	0,189
-689,612	61,372	-0,072	0,053
-688,597	5,949	0,046	0,025
-687,583	-200,000	0,019	-0,205
-686,568	-128,141	-0,114	-0,012
-685,554	149,809	-0,006	0,006
-684,539	71,410	-0,050	0,039
-683,524	115,776	0,063	-0,057
-682,510	383,039	-0,054	-0,082
-681,495	635,270	-0,025	0,048
-680,481	800,000	-0,056	-0,156
-679,466	310,470	-0,131	-0,182
-678,451	800,000	-0,002	-0,006
-677,437	-139,498	-0,039	0,003
-676,422	800,000	-0,074	0,153
-675,408	800,000	0,023	-0,071
-674,393	-56,074	-0,093	-0,030
-673,378	491,113	-0,032	0,055
-672,364	-24,156	0,062	0,027
-671,349	-200,000	-0,026	-0,117
-670,335	338,794	-0,027	0,039
-669,320	800,000	0,038	0,113
-668,305	295,851	0,060	0,081
-667,291	-200,000	-0,003	0,025
-666,276	-160,605	0,037	0,001
-665,262	-200,000	0,005	-0,030
-664,247	14,812	-0,183	0,106
-663,232	223,395	-0,023	-0,028
-662,218	-200,000	-0,006	-0,026
-661,203	85,553	-0,028	0,023
-660,189	211,183	-0,076	-0,089
-659,174	-200,000	0,011	0,095
-658,159	140,376	-0,068	0,067
-657,145	353,214	0,051	0,076
-656,130	-200,000	0,019	0,088
-655,116	-93,862	0,028	0,006
-654,101	-146,643	0,108	0,007
-653,086	120,385	0,071	0,066
-652,072	-172,027	0,123	-0,003
-651,057	-19,512	0,100	-0,046
-650,043	-45,234	-0,049	-0,018
-649,028	65,430	-0,147	0,110
-648,014	-82,093	0,130	0,031
-646,999	-6,065	-0,080	0,040
-645,984	-7,243	-0,077	0,038
-644,970	-86,427	-0,072	0,016
-643,955	-200,000	0,008	0,092
-642,941	-88,925	-0,143	-0,031
-641,926	233,331	0,078	-0,096
-640,911	-104,397	-0,026	0,004
-639,897	-104,061	0,033	-0,006
-638,882	-87,068	-0,070	0,016
-637,868	33,625	-0,138	0,089
-636,853	-200,000	0,016	-0,060
-635,838	249,214	-0,096	-0,121
-634,824	-200,000	0,026	-0,207
-633,809	118,907	-0,127	0,116
-632,795	-200,000	-0,008	0,118
-631,780	35,604	0,174	0,113
-630,765	80,170	-0,086	-0,068
-629,751	800,000	0,037	-0,110
-628,736	-98,881	0,115	0,021
-627,722	-200,000	-0,040	-0,155
-626,707	800,000	0,030	0,092
-625,692	-123,661	0,163	-0,019
-624,678	-200,000	0,003	0,050
-623,663	-91,565	0,093	-0,020
-622,649	-124,893	-0,119	-0,013
-621,634	-200,000	-0,006	-0,138
-620,619	800,000	0,044	0,108
-619,605	-200,000	-0,006	0,069
-618,590	57,160	0,032	0,023
-617,576	72,556	-0,084	-0,065
-616,561	434,654	-0,051	-0,083
-615,546	-200,000	0,025	-0,103
-614,532	-151,609	0,082	0,004
-613,517	-200,000	-0,031	-0,176
-612,503	83,723	-0,063	-0,051
-611,488	136,167	-0,045	-0,044
-610,474	374,562	-0,035	0,053
-609,459	444,357	0,029	-0,047
-608,444	425,002	0,042	-0,068
-607,430	-127,695	-0,060	-0,006
-606,415	55,766	-0,049	-0,035
-605,401	100,524	0,119	-0,102
-604,386	-159,810	0,084	-0,003
-603,371	694,384	0,061	-0,119
-602,357	-66,462	-0,121	0,035
-601,342	41,433	0,042	0,028
-600,328	-53,079	0,130	-0,044
-599,313	16,158	-0,051	0,030
-598,298	-200,000	0,002	-0,078
-597,284	83,574	0,118	0,095
-596,269	53,769	0,073	-0,052
-595,255	-200,000	-0,005	0,108
-594,240	-41,918	-0,132	0,050
-593,225	-61,066	-0,096	-0,030
-592,211	-126,003	-0,048	0,005
-591,196	-200,000	0,005	0,027
-590,182	311,275	0,028	-0,039
-589,167	-200,000	0,001	-0,017
-588,152	-88,788	0,096	0,021
-587,138	-200,000	-0,016	0,072
-586,123	167,830	-0,005	-0,005
-585,109	-200,000	0,002	-0,049
-584,094	-83,377	0,057	0,013
-583,079	243,563	-0,045	-0,056
-582,065	-110,841	0,122	-0,018
-581,050	219,675	-0,065	-0,077
-580,036	-137,018	-0,009	0,001
-579,021	26,708	-0,101	0,062
-578,006	-200,000	0,035	-0,114
-576,992	-49,485	0,056	-0,020
-575,977	-200,000	0,010	-0,057
-574,963	-42,394	-0,061	0,023
-573,948	-82,656	0,101	-0,024
-572,934	368,929	0,096	-0,144
-571,919	-200,000	0,005	-0,051
-570,904	-200,000	-0,054	-0,198
-569,890	-50,364	0,048	-0,017
-568,875	-43,148	0,035	0,013
-567,861	800,000	0,047	0,123
-566,846	800,000	0,034	0,103
-565,831	-72,844	-0,044	0,012
-564,817	231,847	-0,092	-0,112
-563,802	-200,000	-0,023	-0,105
-562,788	-200,000	-0,008	0,034
-561,773	-200,000	-0,008	0,065
-560,758	647,350	0,034	-0,065
-559,744	300,424	-0,055	0,075
-558,729	71,629	0,142	0,109
-557,715	177,160	-0,055	0,060
-556,700	-84,484	0,072	0,017
-555,685	800,000	0,017	-0,051
-554,671	53,992	-0,053	0,038
-553,656	-200,000	-0,001	-0,015
-552,642	70,289	-0,133	0,102
-551,627	800,000	0,026	0,079
-550,612	17,915	-0,126	0,074
-549,598	152,453	-0,096	-0,097
-548,583	84,768	-0,054	0,044
-547,569	800,000	0,042	0,115
-546,554	800,000	-0,026	-0,081
-545,539	-26,103	0,106	-0,046
-544,525	10,207	-0,094	0,053
-543,510	-18,150	-0,197	-0,091
-542,496	218,735	-0,073	-0,086
-541,481	-200,000	0,004	-0,043
-540,466	-200,000	-0,024	-0,100
-539,452	-23,675	-0,092	0,040
-538,437	-200,000	-0,011	-0,058
-537,423	-89,077	0,123	0,027
-536,408	79,902	0,045	-0,036
-535,393	273,189	-0,052	-0,068
-534,379	-200,000	-0,006	-0,025
-533,364	-12,717	-0,073	-0,035
-532,350	275,832	0,113	-0,149
-531,335	-175,420	0,061	0,001
-530,321	-178,077	0,166	0,003
-529,306	405,796	-0,020	-0,031
-528,291	-200,000	0,028	-0,114
-527,277	-200,000	-0,025	-0,087
-526,262	800,000	0,005	0,014
-525,248	-1,049	-0,047	0,024
-524,233	800,000	0,025	-0,079
-523,218	-121,159	0,027	0,003
-522,204	116,675	-0,116	-0,105
-521,189	23,684	0,065	0,039
-520,175	7,357	0,036	-0,020
-519,160	712,022	0,079	0,156
-518,145	578,959	0,083	0,150
-517,131	667,753	0,091	0,174
-516,116	-12,906	0,140	-0,067
-515,102	12,636	-0,086	0,049
-514,087	800,000	-0,029	0,079
-513,072	508,935	0,084	-0,144
-512,058	88,451	-0,049	-0,040
-511,043	161,734	0,057	-0,059
-510,029	49,958	-0,032	-0,022
-509,014	-200,000	0,034	0,160
-507,999	511,983	-0,018	0,032
-506,985	-148,901	-0,075	-0,004
-505,970	270,591	0,045	-0,059
-504,956	-200,000	0,000	0,006
-503,941	-26,851	0,056	0,024
-502,926	-200,000	-0,026	0,167
-501,912	22,574	0,078	-0,047
-500,897	800,000	-0,013	0,033
-499,883	-171,580	-0,076	-0,002
-498,868	-170,405	-0,030	0,001
-497,853	379,787	-0,027	0,042
-496,839	621,049	-0,029	-0,055
-495,824	800,000	-0,027	-0,080
-494,810	77,107	0,064	-0,050
-493,795	60,233	-0,060	-0,043
-492,781	-200,000	0,006	0,100
-491,766	19,650	-0,078	0,046
-490,751	-107,705	0,072	-0,011
-489,737	800,000	0,031	0,095
-488,722	-103,714	0,026	-0,005
-487,708	800,000	0,035	0,112
-486,693	-200,000	-0,020	0,083
-485,678	124,772	0,071	0,066
-484,664	101,495	-0,020	0,017
-483,649	127,550	-0,141	0,132
-482,635	-9,664	-0,117	0,057
-481,620	-114,008	0,049	0,007
-480,605	313,754	-0,047	-0,065
-479,591	-124,467	-0,172	0,019
-478,576	-200,000	-0,019	0,085
-477,562	744,613	-0,071	-0,142
-476,547	-2,554	0,087	-0,045
-475,532	800,000	0,056	0,128
-474,518	141,125	0,069	-0,068
-473,503	186,397	0,040	0,044
-472,489	41,862	-0,074	0,049
-471,474	120,750	0,116	0,106
-470,459	-200,000	-0,017	-0,144
-469,445	-200,000	0,004	-0,056
-468,430	-83,571	0,098	-0,023
-467,416	45,908	0,057	0,039
-466,401	800,000	0,036	0,109
-465,386	-80,150	0,035	0,009
-464,372	1,141	-0,031	-0,016
-463,357	579,877	0,030	0,054
-462,343	84,017	-0,058	-0,046
-461,328	78,486	-0,110	-0,087
-460,313	4,069	0,118	0,064
-459,299	-200,000	0,010	0,053
-458,284	17,759	0,143	0,084
-457,270	-200,000	0,008	0,073
-456,255	110,190	0,068	0,060
-455,241	-200,000	0,002	-0,055
-454,226	300,499	0,020	-0,028
-453,211	199,319	-0,071	0,080
-452,197	-9,407	-0,107	-0,052
-451,182	36,492	-0,045	-0,029
-450,168	-200,000	0,025	0,116
-449,153	-5,153	-0,116	-0,058
-448,138	800,000	0,015	-0,042
-447,124	34,745	0,035	-0,023
-446,109	-159,172	0,087	-0,004
-445,095	3,681	0,176	0,094
-444,080	105,316	0,039	-0,034
-443,065	274,415	-0,074	0,097
-442,051	800,000	-0,001	-0,003
-441,036	800,000	0,034	0,090
-440,022	45,942	-0,117	-0,080
-439,007	-183,762	0,064	0,001
-437,992	-106,398	0,135	-0,022
-436,978	-47,206	-0,149	0,053
-435,963	-68,635	0,131	-0,037
-434,949	-200,000	0,017	0,086
-433,934	-78,103	-0,073	-0,018
-432,919	-200,000	0,006	-0,043
-431,905	445,219	0,048	-0,078
-430,890	800,000	0,009	0,024
-429,876	521,503	0,064	-0,110
-428,861	341,868	0,095	-0,137
-427,846	229,852	-0,085	0,102
-426,832	-52,956	0,116	-0,039
-425,817	429,258	-0,019	-0,030
-424,803	-200,000	0,003	0,093
-423,788	-77,897	0,030	0,008
-422,773	214,177	0,079	0,093
-421,759	550,394	-0,041	-0,072
-420,744	65,993	-0,039	0,029
-419,730	303,467	-0,063	-0,086
-418,715	-107,333	-0,049	-0,008
-417,701	-105,915	0,152	-0,025
-416,686	-200,000	0,002	0,014
-415,671	-200,000	-0,002	0,034
-414,657	563,285	0,039	-0,069
-413,642	-24,334	-0,065	-0,028
-412,628	311,854	-0,010	0,014
-411,613	438,829	-0,102	-0,164
-410,598	-151,391	-0,101	0,005
-409,584	386,235	0,031	0,047
-408,569	278,919	-0,054	0,071
-407,555	-144,940	-0,069	-0,005
-406,540	800,000	0,027	0,082
-405,525	351,490	0,039	-0,057
-404,511	443,798	0,088	-0,143
-403,496	103,291	0,075	-0,064
-402,482	106,872	0,076	-0,066
-401,467	16,986	0,037	0,021
-400,452	-30,487	0,078	-0,032
-399,438	422,057	-0,030	0,047
-398,423	-4,144	-0,167	0,084
-397,409	291,745	0,050	0,067
-396,394	314,769	-0,062	-0,086
-395,379	-26,208	-0,085	0,036
-394,365	-66,067	0,044	-0,013
-393,350	-150,370	-0,088	0,005
-392,336	-78,137	0,051	0,013
-391,321	-129,451	-0,132	-0,013
-390,306	42,394	-0,065	0,043
-389,292	800,000	-0,013	-0,034
-388,277	-62,686	0,102	-0,031
-387,263	800,000	0,044	0,140
-386,248	76,307	0,120	0,093
-385,233	-200,000	-0,008	-0,139
-384,219	-200,000	-0,025	-0,112
-383,204	800,000	-0,035	-0,108
-382,190	-200,000	0,034	-0,200
-381,175	289,719	0,053	0,071
-380,160	-141,031	0,104	0,008
-379,146	9,677	0,088	-0,049
-378,131	-83,132	-0,120	0,028
-377,117	-89,551	0,045	-0,010
-376,102	-41,459	-0,101	-0,038
-375,088	361,721	0,062	-0,091
-374,073	-200,000	-0,001	-0,062
-373,058	800,000	-0,017	0,044
-372,044	404,973	0,027	-0,041
-371,029	527,620	-0,030	0,053
-370,015	-155,945	-0,011	-0,001
-369,000	-200,000	-0,002	0,116
-367,985	63,154	0,111	-0,082
-366,971	-200,000	-0,015	0,052
-365,956	-200,000	0,036	0,186
-364,942	800,000	-0,062	0,162
-363,927	100,375	0,039	0,033
-362,912	31,858	-0,035	0,022
-361,898	800,000	0,065	-0,204
-360,883	-69,123	-0,056	-0,016
-359,869	800,000	0,016	-0,040
-358,854	-200,000	0,002	0,154
-357,839	-108,500	0,105	0,016
-356,825	369,760	0,088	0,130
-355,810	148,737	0,112	-0,111
-354,796	36,518	-0,056	-0,036
-353,781	800,000	-0,007	-0,019
-352,766	-200,000	0,010	-0,064
-351,752	746,808	0,035	0,069
-350,737	21,380	-0,070	0,041
-349,723	329,662	0,099	0,140
-348,708	-200,000	-0,020	-0,085
-347,693	114,356	0,036	0,032
-346,679	-74,457	-0,180	-0,047
-345,664	-110,059	-0,075	0,011
-344,650	42,489	-0,043	-0,028
-343,635	-44,242	0,184	0,067
-342,620	99,847	-0,042	-0,036
-341,606	-200,000	0,003	0,031
-340,591	798,417	-0,049	0,100
-339,577	800,000	-0,021	0,056
-338,562	800,000	-0,047	-0,122
-337,548	-200,000	-0,005	-0,067
-336,533	359,249	0,096	0,142
-335,518	-200,000	0,008	-0,167
-334,504	85,571	0,067	0,054
-333,489	-93,100	-0,090	0,018
-332,475	800,000	-0,006	0,018
-331,460	-115,788	-0,126	-0,017
-330,445	-200,000	0,020	0,099
-329,431	-95,261	0,059	0,012
-328,416	-102,091	0,056	0,010
-327,402	-171,781	0,100	-0,002
-326,387	-24,591	-0,085	0,037
-325,372	800,000	0,026	0,077
-324,358	800,000	-0,048	-0,137
-323,343	-150,371	0,095	-0,005
-322,329	108,076	0,073	0,064
-321,314	-4,413	-0,113	0,057
-320,299	48,170	0,150	0,103
-319,285	800,000	-0,018	0,037
-318,270	-200,000	-0,042	0,160
-317,256	-200,000	0,003	-0,071
-316,241	471,747	-0,026	-0,043
-315,226	-200,000	-0,032	-0,137
-314,212	-102,867	0,157	0,027
-313,197	-200,000	0,001	0,072
-312,183	-108,492	0,023	-0,004
-311,168	800,000	-0,013	-0,030
-310,153	-200,000	-0,023	-0,146
-309,139	581,873	-0,022	0,040
-308,124	30,394	-0,033	0,021
-307,110	-143,223	-0,045	-0,003
-306,095	-200,000	0,048	0,284
-305,080	-28,925	0,107	0,045
-304,066	800,000	0,005	-0,012
-303,051	301,231	-0,059	-0,079
-302,037	-200,000	-0,024	-0,083
-301,022	44,605	0,041	0,027
-300,008	-95,478	-0,134	-0,026
-298,993	-56,904	0,035	0,011
-297,978	-200,000	0,012	0,206
-296,964	23,508	-0,154	0,093
-295,949	-200,000	0,011	-0,129
-294,935	192,673	0,033	-0,036
-293,920	-200,000	0,023	-0,082
-292,905	-111,441	0,075	0,011
-291,891	95,085	0,104	0,087
-290,876	-59,371	-0,060	-0,019
-289,862	-83,945	-0,085	0,020
-288,847	60,238	-0,092	0,067
-287,832	22,207	-0,023	0,014
-286,818	-200,000	-0,012	0,111
-285,803	109,496	0,067	-0,059
-284,789	4,459	-0,152	0,081
-283,774	-200,000	0,003	0,103
-282,759	800,000	-0,033	0,085
-281,745	-18,417	0,085	-0,039
-280,730	-135,716	-0,182	0,016
-279,716	621,917	-0,055	-0,101
-278,701	-130,710	0,072	-0,007
-277,686	744,359	-0,028	0,055
-276,672	205,436	-0,056	0,064
-275,657	-33,087	-0,152	-0,061
-274,643	594,062	-0,098	0,178
-273,628	100,944	-0,031	-0,027
-272,613	-85,601	-0,037	0,008
-271,599	149,016	0,062	-0,061
-270,584	612,393	0,046	-0,084
-269,570	-65,074	0,066	-0,019
-268,555	-45,292	0,042	0,015
-267,540	-73,690	-0,057	0,015
-266,526	645,769	0,067	0,125
-265,511	800,000	-0,037	-0,117
-264,497	325,009	0,040	0,056
-263,482	-9,660	-0,099	0,048
-262,467	102,390	0,018	-0,015
-261,453	165,106	0,052	-0,054
-260,438	743,258	0,025	0,050
-259,424	-139,626	-0,106	0,008
-258,409	-200,000	-0,001	-0,007
-257,395	77,394	0,051	-0,040
-256,380	-200,000	-0,000	0,053
-255,365	-200,000	-0,042	0,141
-254,351	-200,000	0,016	-0,123
-253,336	-156,633	-0,097	0,004
-252,322	59,150	-0,065	-0,047
-251,307	-29,460	-0,030	0,013
-250,292	122,987	0,031	0,028
-249,278	722,785	-0,062	-0,122
-248,263	-39,195	-0,031	0,012
-247,249	-200,000	-0,019	0,069
-246,234	-1,379	0,119	0,061
-245,219	800,000	-0,024	-0,071
-244,205	800,000	0,049	-0,101
-243,190	32,026	0,088	0,055
-242,176	259,140	-0,035	0,044
-241,161	-200,000	0,013	0,144
-240,146	-200,000	-0,007	-0,056
-239,132	553,482	0,105	0,185
-238,117	-88,089	0,052	0,011
-237,103	246,651	0,045	0,056
-236,088	81,515	-0,056	-0,044
-235,073	800,000	0,045	-0,117
-234,059	-184,192	0,099	-0,001
-233,044	6,471	-0,066	0,036
-232,030	286,491	-0,039	0,051
-231,015	-200,000	0,021	0,123
-230,000	-200,000	-0,002	-0,143
-228,986	-16,787	-0,098	0,045
-227,971	545,255	0,071	-0,124
-226,957	-200,000	0,003	0,068
-225,942	-200,000	-0,008	0,124
-224,927	800,000	-0,034	-0,079
-223,913	-158,297	-0,028	-0,001
-222,898	-200,000	-0,034	-0,129
-221,884	36,309	0,100	0,064
-220,869	-6,953	0,145	0,072
-219,855	800,000	-0,081	-0,168
-218,840	229,259	0,105	-0,125
-217,825	248,808	-0,050	-0,062
-216,811	-200,000	-0,002	-0,085
-215,796	-79,337	-0,147	0,036
-214,782	800,000	0,042	-0,107
-213,767	364,276	-0,028	-0,041
-212,752	-200,000	0,021	-0,075
-211,738	-200,000	0,009	-0,065
-210,723	14,597	-0,039	0,022
-209,709	-200,000	0,003	-0,154
-208,694	-200,000	-0,005	-0,019
-207,679	-200,000	0,003	0,067
-206,665	800,000	-0,009	-0,023
-205,650	-200,000	-0,001	0,071
-204,636	800,000	0,037	-0,084
-203,621	-17,278	-0,089	-0,041
-202,606	800,000	-0,047	0,113
-201,592	-167,002	-0,075	0,002
-200,577	-200,000	-0,004	0,039
-199,563	-18,845	-0,052	-0,024
-198,548	-77,905	-0,022	0,005
-197,533	-32,521	0,078	0,031
-196,519	234,261	-0,047	-0,056
-195,504	108,224	-0,145	0,126
-194,490	800,000	-0,047	-0,115
-193,475	-56,467	0,027	0,009
-192,460	-47,553	0,046	-0,016
-191,446	-126,777	0,041	0,004
-190,431	302,338	0,035	0,047
-189,417	174,337	-0,062	0,065
-188,402	123,463	-0,054	-0,050
-187,387	-104,416	-0,034	-0,006
-186,373	166,460	0,081	-0,083
-185,358	548,551	-0,068	0,120
-184,344	136,839	0,045	0,043
-183,329	-200,000	-0,004	0,084
-182,315	-200,000	-0,015	-0,081
-181,300	494,178	-0,011	-0,018
-180,285	-66,046	0,095	-0,028
-179,271	-200,000	-0,035	0,122
-178,256	-143,563	0,117	-0,008
-177,242	-200,000	0,016	-0,155
-176,227	-200,000	0,000	-0,043
-175,212	-60,226	-0,050	-0,015
-174,198	657,059	0,022	-0,041
-173,183	-62,447	0,017	0,005
-172,169	-23,752	-0,067	0,029
-171,154	-61,718	-0,101	-0,031
-170,139	-159,067	0,155	-0,006
-169,125	229,298	0,120	0,143
-168,110	-200,000	-0,035	0,135
-167,096	397,372	-0,068	0,104
-166,081	-200,000	-0,011	-0,040
-165,066	800,000	-0,034	0,087
-164,052	800,000	0,013	0,038
-163,037	-72,748	0,091	-0,024
-162,023	-200,000	-0,003	-0,143
-161,008	524,473	-0,025	0,043
-159,993	800,000	-0,015	-0,032
-158,979	279,585	-0,035	-0,045
-157,964	-200,000	-0,013	-0,060
-156,950	-200,000	0,020	-0,154
-155,935	-200,000	0,003	-0,049
-154,920	-0,976	-0,055	0,028
-153,906	-47,714	-0,107	0,037
-152,891	-83,647	0,120	0,028
-151,877	-128,649	0,025	0,002
-150,862	-8,409	-0,066	-0,032
-149,847	-200,000	-0,014	-0,072
-148,833	-200,000	-0,012	-0,040
-147,818	-200,000	-0,060	0,290
-146,804	800,000	-0,080	0,255
-145,789	47,760	-0,087	-0,059
-144,775	161,291	-0,022	-0,022
-143,760	800,000	-0,010	-0,023
-142,745	-97,276	0,086	0,016
-141,731	-128,998	0,081	0,008
-140,716	-53,725	-0,133	0,044
-139,702	-62,206	0,074	-0,022
-138,687	-200,000	0,013	-0,075
-137,672	47,720	0,014	-0,010
-136,658	-63,469	0,089	-0,026
-135,643	-34,292	-0,155	0,061
-134,629	-200,000	-0,046	-0,281
-133,614	-200,000	-0,033	-0,113
-132,599	-95,317	0,105	0,020
-131,585	-37,088	-0,047	0,018
-130,570	-200,000	0,027	0,102
-129,556	-200,000	-0,007	-0,042
-128,541	-200,000	0,012	0,135
-127,526	33,171	0,068	-0,043
-126,512	-0,001	-0,031	0,016
-125,497	120,908	-0,078	0,071
-124,483	800,000	0,045	0,137
-123,468	-0,895	-0,134	0,069
-122,453	642,887	-0,062	0,115
-121,439	-90,879	0,060	-0,012
-120,424	-55,481	-0,059	-0,019
-119,410	-26,547	0,067	0,028
