DTS Sentinel unit serial number:	SN410029Multiplexer serial number:	ORYXHardware model number:	OX2-SRSoftware version number:	ORYX F/W v4,00 Oryx Data Collector v3.7.2.0data status	okinstallation	B4 Nyhavnadifferential loss correction	single-endedforward channel	channel 2reverse channel	N/Adate	2023/12/16time	09:15:13forward acquisition time	300,00reverse acquisition time	0,00gamma	499,1914k internal	0,3126k external	0,3126temperature offset calibration	1,0000default loss term (dB/km)	0,3820temperature slope calibration	1,0000multiplexer offset coefficient	1,0000multiplexer slope coefficient	1,0000fibre end	0,00T internal ref (°C)	22,93T ext. ref 1 (°C)	8,81T ext. ref 2 (°C)	8,99length (m)	temperature (°C)	Stokes	anti-Stokes-744,400	800,000	-0,019	-0,040
-743,385	190,283	-0,127	0,142
-742,371	-200,000	-0,033	-0,172
-741,356	126,251	-0,184	0,173
-740,342	-200,000	0,005	-0,023
-739,327	-82,503	-0,301	0,072
-738,312	311,142	-0,044	-0,062
-737,298	-76,146	-0,255	0,066
-736,283	173,126	-0,036	-0,038
-735,269	800,000	-0,054	0,126
-734,254	104,817	-0,077	0,068
-733,239	-102,608	-0,334	-0,059
-732,225	800,000	-0,020	-0,054
-731,210	-200,000	0,005	0,027
-730,196	100,169	-0,060	-0,051
-729,181	-200,000	-0,022	-0,127
-728,167	27,907	0,055	0,035
-727,152	-9,734	0,114	0,056
-726,137	27,005	-0,049	0,031
-725,123	-45,883	-0,140	-0,051
-724,108	-135,083	-0,110	-0,010
-723,094	800,000	0,036	-0,097
-722,079	-200,000	0,011	-0,048
-721,064	-200,000	0,006	-0,075
-720,050	-50,540	-0,092	-0,032
-719,035	-200,000	-0,011	0,053
-718,021	800,000	0,028	-0,072
-717,006	800,000	-0,048	-0,135
-715,991	1,075	-0,230	-0,122
-714,977	-92,315	0,113	-0,024
-713,962	-84,964	-0,170	0,039
-712,948	800,000	-0,025	0,080
-711,933	297,997	-0,021	0,028
-710,918	-118,120	-0,052	-0,007
-709,904	800,000	0,024	-0,067
-708,889	-81,240	-0,048	-0,012
-707,875	-200,000	-0,015	-0,165
-706,860	-200,000	-0,014	-0,067
-705,845	-48,257	-0,035	-0,012
-704,831	-74,870	0,127	0,034
-703,816	800,000	-0,043	0,095
-702,802	800,000	-0,031	0,066
-701,787	-200,000	-0,003	-0,053
-700,772	230,094	-0,065	0,079
-699,758	-200,000	-0,002	0,082
-698,743	-86,791	-0,086	0,019
-697,729	-80,099	-0,105	-0,026
-696,714	-34,852	0,111	-0,045
-695,699	-200,000	0,002	-0,142
-694,685	-107,189	-0,037	0,006
-693,670	56,032	-0,113	0,081
-692,656	-20,131	0,081	-0,037
-691,641	-170,656	0,140	-0,004
-690,627	423,783	0,052	0,083
-689,612	-35,895	-0,056	0,022
-688,597	800,000	-0,054	0,124
-687,583	-90,338	-0,110	0,024
-686,568	-200,000	0,011	-0,121
-685,554	-200,000	-0,095	0,000
-684,539	-76,202	-0,143	-0,037
-683,524	-7,168	-0,179	-0,090
-682,510	-189,635	-0,010	0,000
-681,495	87,049	-0,170	-0,140
-680,481	-106,060	0,074	-0,012
-679,466	243,443	0,056	-0,070
-678,451	380,199	-0,085	0,130
-677,437	-78,353	0,121	-0,031
-676,422	800,000	-0,027	-0,083
-675,408	-200,000	-0,022	-0,143
-674,393	114,754	-0,093	-0,085
-673,378	-35,620	-0,084	0,034
-672,364	-84,201	0,068	0,016
-671,349	-118,571	-0,194	0,025
-670,335	-89,495	0,108	-0,023
-669,320	800,000	0,060	-0,126
-668,305	-200,000	0,015	-0,069
-667,291	800,000	-0,079	-0,184
-666,276	-200,000	-0,009	-0,049
-665,262	263,001	-0,094	-0,121
-664,247	58,332	-0,102	-0,074
-663,232	800,000	0,044	-0,108
-662,218	0,421	0,031	-0,016
-661,203	57,842	0,052	-0,038
-660,189	30,359	0,092	-0,059
-659,174	800,000	-0,026	-0,055
-658,159	-200,000	0,008	-0,053
-657,145	-200,000	-0,015	-0,088
-656,130	-123,123	0,040	0,005
-655,116	78,048	-0,052	0,041
-654,101	716,487	-0,018	-0,035
-653,086	368,934	-0,039	0,059
-652,072	800,000	-0,043	-0,096
-651,057	800,000	-0,042	-0,111
-650,043	147,453	0,055	0,055
-649,028	3,075	0,061	-0,033
-648,014	-165,688	0,037	-0,001
-646,999	-35,774	-0,060	-0,024
-645,984	120,723	0,082	0,076
-644,970	-43,975	0,077	-0,028
-643,955	-111,844	-0,068	-0,010
-642,941	-151,612	-0,067	0,004
-641,926	169,048	-0,093	-0,099
-640,911	204,114	-0,063	-0,073
-639,897	-200,000	-0,001	-0,025
-638,882	800,000	-0,074	-0,203
-637,868	-200,000	-0,005	-0,030
-636,853	-58,028	-0,087	-0,028
-635,838	28,095	-0,098	0,061
-634,824	92,631	-0,013	0,011
-633,809	88,623	0,090	-0,074
-632,795	-102,793	0,068	0,012
-631,780	-200,000	-0,010	0,062
-630,765	-146,141	0,115	-0,007
-629,751	-200,000	0,019	-0,072
-628,736	800,000	-0,052	-0,109
-627,722	800,000	0,029	0,060
-626,707	84,875	-0,038	-0,031
-625,692	443,703	0,056	0,091
-624,678	-200,000	0,012	0,056
-623,663	-200,000	0,003	-0,067
-622,649	76,480	-0,037	0,029
-621,634	-200,000	-0,007	-0,054
-620,619	-96,732	-0,060	-0,012
-619,605	169,960	-0,045	-0,047
-618,590	-84,647	-0,109	-0,025
-617,576	-200,000	-0,013	-0,051
-616,561	139,205	0,061	-0,060
-615,546	-40,022	-0,075	0,029
-614,532	256,355	0,053	-0,067
-613,517	-120,405	-0,038	-0,005
-612,503	255,116	0,025	-0,031
-611,488	288,012	0,011	0,015
-610,474	10,536	0,139	0,078
-609,459	-25,838	-0,102	-0,044
-608,444	173,335	-0,097	-0,104
-607,430	-200,000	-0,057	-0,203
-606,415	-65,120	-0,102	-0,030
-605,401	51,222	-0,049	0,035
-604,386	800,000	0,031	0,095
-603,371	-112,212	0,082	-0,012
-602,357	-28,724	0,073	0,031
-601,342	-90,713	-0,084	-0,018
-600,328	-158,501	-0,063	-0,003
-599,313	-70,233	-0,071	-0,020
-598,298	-4,785	0,131	-0,066
-597,284	-200,000	-0,012	0,070
-596,269	24,677	0,042	-0,026
-595,255	-200,000	-0,003	0,033
-594,240	-83,849	0,130	-0,030
-593,225	-200,000	-0,012	-0,097
-592,211	270,555	0,041	-0,054
-591,196	-146,425	0,084	0,005
-590,182	59,514	-0,060	-0,044
-589,167	111,138	0,111	-0,099
-588,152	-200,000	0,008	-0,047
-587,138	800,000	0,012	0,029
-586,123	-200,000	0,004	-0,018
-585,109	42,356	-0,030	-0,020
-584,094	800,000	0,037	-0,109
-583,079	-169,986	0,176	0,005
-582,065	194,184	0,085	0,095
-581,050	78,336	-0,090	0,071
-580,036	800,000	-0,023	-0,072
-579,021	-85,867	-0,060	0,014
-578,006	103,367	-0,062	-0,054
-576,992	40,861	-0,078	0,052
-575,977	-58,417	0,106	-0,034
-574,963	370,692	-0,033	-0,049
-573,948	2,391	-0,048	-0,026
-572,934	2,162	0,130	0,069
-571,919	-124,470	0,027	-0,003
-570,904	121,752	-0,075	-0,069
-569,890	-160,869	0,081	-0,003
-568,875	476,995	0,036	-0,060
-567,861	444,931	0,039	0,063
-566,846	69,307	0,054	-0,041
-565,831	800,000	0,078	0,187
-564,817	-48,124	0,035	0,012
-563,802	15,299	-0,050	0,029
-562,788	60,844	0,112	-0,082
-561,773	-200,000	-0,002	-0,074
-560,758	-25,769	0,050	0,022
-559,744	70,079	0,101	0,077
-558,729	44,303	-0,121	-0,082
-557,715	36,643	-0,018	-0,012
-556,700	-200,000	-0,018	0,062
-555,685	488,498	-0,012	0,020
-554,671	-106,419	-0,033	-0,005
-553,656	434,497	0,114	0,183
-552,642	-200,000	0,013	0,054
-551,627	483,550	0,055	0,092
-550,612	-200,000	0,015	0,103
-549,598	92,754	0,025	-0,021
-548,583	158,137	0,008	0,008
-547,569	178,508	-0,028	0,031
-546,554	800,000	-0,039	0,102
-545,539	-140,751	-0,074	0,006
-544,525	-200,000	0,020	0,084
-543,510	-54,095	-0,093	0,031
-542,496	-200,000	-0,031	-0,113
-541,481	173,466	0,061	-0,065
-540,466	254,308	-0,033	0,041
-539,452	-62,995	0,103	0,031
-538,437	800,000	0,019	0,041
-537,423	102,964	0,025	-0,022
-536,408	-200,000	0,007	-0,074
-535,393	800,000	-0,020	0,063
-534,379	-200,000	0,033	-0,140
-533,364	800,000	0,011	-0,032
-532,350	245,666	0,083	0,104
-531,335	238,137	0,007	0,008
-530,321	-200,000	0,016	0,116
-529,306	-135,558	0,116	0,010
-528,291	70,424	0,073	0,056
-527,277	-200,000	-0,019	-0,072
-526,262	-181,837	-0,100	-0,001
-525,248	167,157	0,047	0,050
-524,233	-200,000	0,002	0,123
-523,218	-200,000	0,034	0,130
-522,204	-43,425	0,135	0,050
-521,189	-7,104	-0,061	-0,031
-520,175	748,667	-0,047	0,095
-519,160	167,349	-0,077	-0,081
-518,145	203,895	0,046	-0,053
-517,131	-130,207	0,111	-0,011
-516,116	43,391	0,038	0,026
-515,102	429,906	0,057	0,092
-514,087	-26,850	-0,067	0,029
-513,072	687,884	-0,070	-0,135
-512,058	-200,000	-0,007	-0,225
-511,043	264,971	-0,026	-0,033
-510,029	137,070	0,093	0,089
-509,014	-200,000	-0,002	0,153
-507,999	196,725	0,079	0,089
-506,985	144,999	0,063	0,062
-505,970	800,000	0,030	0,069
-504,956	800,000	0,025	-0,054
-503,941	800,000	-0,036	0,091
-502,926	-200,000	-0,001	0,123
-501,912	-61,164	0,141	-0,044
-500,897	-58,612	-0,056	0,018
-499,883	800,000	-0,039	-0,086
-498,868	800,000	0,032	-0,076
-497,853	-200,000	0,023	0,173
-496,839	42,022	0,061	0,041
-495,824	101,177	0,042	-0,036
-494,810	91,518	-0,040	-0,033
-493,795	-143,406	0,133	-0,009
-492,781	-36,645	-0,067	-0,026
-491,766	102,902	-0,044	0,038
-490,751	-14,785	0,059	0,028
-489,737	800,000	-0,036	-0,113
-488,722	633,700	0,035	0,066
-487,708	-39,506	-0,104	0,040
-486,693	800,000	-0,031	-0,098
-485,678	290,519	-0,077	-0,104
-484,664	175,121	0,091	-0,097
-483,649	-88,919	0,032	0,007
-482,635	-9,949	0,030	-0,015
-481,620	5,824	0,089	-0,049
-480,605	-121,808	0,010	-0,001
-479,591	-200,000	0,004	0,055
-478,576	139,621	0,082	-0,080
-477,562	233,043	0,030	-0,036
-476,547	800,000	0,024	-0,065
-475,532	-18,566	0,102	-0,047
-474,518	394,360	-0,006	-0,010
-473,503	-94,060	0,041	0,008
-472,489	-200,000	0,006	0,047
-471,474	-200,000	0,006	0,073
-470,459	800,000	-0,003	-0,010
-469,445	800,000	0,017	-0,046
-468,430	511,874	0,035	0,060
-467,416	200,295	0,030	-0,034
-466,401	-139,448	0,115	-0,009
-465,386	-44,561	0,067	0,025
-464,372	-127,693	-0,013	-0,001
-463,357	-38,298	-0,163	0,063
-462,343	168,260	-0,022	0,023
-461,328	83,651	-0,027	0,022
-460,313	123,145	0,109	-0,101
-459,299	-29,152	-0,067	0,028
-458,284	32,132	-0,054	-0,034
-457,270	96,267	0,110	0,093
-456,255	307,116	0,076	0,105
-455,241	-140,475	0,005	0,000
-454,226	633,832	0,010	0,018
-453,211	800,000	-0,030	0,083
-452,197	36,218	0,119	-0,077
-451,182	-38,699	0,054	0,021
-450,168	628,511	-0,039	-0,073
-449,153	159,071	0,022	0,022
-448,138	-200,000	-0,019	-0,078
-447,124	-20,177	-0,096	-0,043
-446,109	105,558	-0,063	-0,054
-445,095	437,995	0,072	-0,116
-444,080	-200,000	0,029	0,099
-443,065	316,843	-0,041	0,057
-442,051	-200,000	-0,015	0,122
-441,036	-138,401	0,066	-0,005
-440,022	-200,000	0,012	-0,164
-439,007	36,731	0,071	0,046
-437,992	191,303	0,114	0,127
-436,978	44,703	0,158	0,107
-435,963	-122,702	-0,166	0,020
-434,949	800,000	0,023	0,065
-433,934	24,996	-0,110	0,067
-432,919	229,126	-0,037	-0,045
-431,905	171,412	-0,045	-0,047
-430,890	721,382	0,022	-0,043
-429,876	4,919	0,120	0,065
-428,861	138,672	0,077	0,075
-427,846	-200,000	-0,020	-0,145
-426,832	31,116	-0,045	0,029
-425,817	238,427	-0,058	0,072
-424,803	121,721	0,029	0,026
-423,788	-200,000	-0,012	-0,043
-422,773	-109,231	0,166	-0,026
-421,759	239,097	-0,052	0,064
-420,744	800,000	-0,014	0,032
-419,730	47,858	-0,089	0,061
-418,715	221,382	0,075	-0,089
-417,701	14,935	0,083	0,048
-416,686	-10,969	0,118	0,057
-415,671	1,270	0,051	0,027
-414,657	47,447	-0,125	0,085
-413,642	-48,234	0,080	-0,028
-412,628	71,837	-0,055	0,042
-411,613	-94,642	-0,049	0,010
-410,598	477,021	-0,091	-0,152
-409,584	278,748	-0,059	0,078
-408,569	54,282	0,014	0,010
-407,555	-200,000	-0,012	-0,058
-406,540	-200,000	0,015	0,052
-405,525	312,735	-0,040	0,055
-404,511	-111,708	-0,158	0,023
-403,496	-200,000	-0,017	0,067
-402,482	201,416	0,109	0,123
-401,467	-200,000	0,006	-0,040
-400,452	24,709	-0,107	0,065
-399,438	139,398	0,094	0,091
-398,423	-29,996	-0,112	0,047
-397,409	-25,923	0,053	0,023
-396,394	800,000	0,037	-0,106
-395,379	-112,515	-0,181	-0,026
-394,365	237,924	-0,043	0,052
-393,350	14,449	0,083	0,047
-392,336	139,114	-0,030	0,029
-391,321	-200,000	-0,039	-0,222
-390,306	492,347	0,038	-0,064
-389,292	-164,906	-0,116	-0,004
-388,277	-135,484	-0,174	0,015
-387,263	44,579	0,032	-0,021
-386,248	-200,000	0,005	0,141
-385,233	27,319	0,088	0,054
-384,219	-200,000	-0,008	-0,158
-383,204	-43,635	-0,066	-0,024
-382,190	-128,258	0,050	-0,005
-381,175	-200,000	0,017	-0,086
-380,160	-200,000	0,034	0,198
-379,146	430,334	0,070	0,111
-378,131	-200,000	-0,028	0,099
-377,117	83,833	-0,079	0,063
-376,102	800,000	0,040	-0,103
-375,088	379,516	-0,014	0,021
-374,073	107,783	-0,112	0,098
-373,058	-17,141	0,076	0,035
-372,044	-200,000	0,074	0,000
-371,029	-48,640	-0,163	-0,057
-370,015	-113,580	-0,148	0,021
-369,000	-200,000	0,006	-0,050
-367,985	459,479	-0,059	-0,096
-366,971	800,000	0,011	-0,035
-365,956	-200,000	0,033	0,164
-364,942	231,995	-0,061	0,073
-363,927	118,222	0,034	0,031
-362,912	-200,000	-0,005	0,141
-361,898	-200,000	0,004	0,053
-360,883	-200,000	0,015	-0,086
-359,869	96,410	-0,100	-0,084
-358,854	-16,482	-0,090	0,042
-357,839	-69,506	-0,077	0,022
-356,825	-200,000	-0,004	0,042
-355,810	122,425	-0,063	0,058
-354,796	55,038	0,010	0,007
-353,781	-97,079	-0,008	0,002
-352,766	-34,215	-0,048	-0,019
-351,752	750,801	0,055	-0,110
-350,737	343,036	0,067	0,097
-349,723	-82,672	0,036	-0,008
-348,708	136,695	-0,068	-0,065
-347,693	230,061	0,044	0,052
-346,679	61,657	-0,175	-0,128
-345,664	-150,052	0,035	0,002
-344,650	-200,000	0,008	0,060
-343,635	-151,473	0,087	0,005
-342,620	170,293	0,049	0,051
-341,606	800,000	0,056	0,113
-340,591	-200,000	0,010	0,150
-339,577	87,776	-0,032	-0,026
-338,562	-113,904	-0,134	-0,019
-337,548	448,790	0,063	0,102
-336,533	-132,510	0,076	0,007
-335,518	48,078	-0,036	0,024
-334,504	727,926	-0,065	0,128
-333,489	67,096	-0,060	-0,045
-332,475	800,000	0,050	-0,113
-331,460	75,739	0,071	0,055
-330,445	304,669	-0,013	-0,018
-329,431	-39,980	-0,111	-0,042
-328,416	80,146	0,090	0,071
-327,402	-131,866	0,065	0,006
-326,387	131,556	0,038	-0,035
-325,372	-5,552	0,073	0,037
-324,358	31,124	-0,106	0,066
-323,343	-200,000	-0,004	-0,125
-322,329	555,529	0,025	0,044
-321,314	-194,504	-0,042	0,000
-320,299	731,765	0,055	0,107
-319,285	136,756	0,059	-0,056
-318,270	198,087	-0,078	-0,087
-317,256	30,914	-0,059	-0,037
-316,241	44,825	0,037	-0,025
-315,226	60,564	0,072	-0,052
-314,212	68,848	-0,023	-0,017
-313,197	-45,467	0,071	-0,025
-312,183	-200,000	0,029	0,131
-311,168	-43,503	-0,066	0,024
-310,153	-200,000	-0,021	-0,071
-309,139	-172,076	0,071	0,002
-308,124	333,922	0,055	0,079
-307,110	-123,535	0,150	-0,017
-306,095	-161,385	-0,196	0,007
-305,080	335,635	-0,053	0,075
-304,066	-73,562	-0,096	0,025
-303,051	228,660	0,110	-0,131
-302,037	638,190	-0,051	-0,095
-301,022	-200,000	-0,017	-0,063
-300,008	800,000	0,046	-0,119
-298,993	94,950	-0,035	-0,029
-297,978	36,418	-0,076	0,049
-296,964	-200,000	-0,022	-0,098
-295,949	100,439	-0,104	-0,089
-294,935	-200,000	-0,034	-0,113
-293,920	-162,852	-0,101	-0,004
-292,905	97,954	0,097	-0,082
-291,891	-83,202	0,042	-0,010
-290,876	-1,838	-0,120	-0,061
-289,862	-21,667	-0,061	0,027
-288,847	641,702	-0,043	-0,080
-287,832	-125,592	-0,061	-0,007
-286,818	-43,071	0,012	-0,005
-285,803	-40,112	0,034	0,013
-284,789	-200,000	0,010	0,102
-283,774	-122,701	0,055	-0,006
-282,759	-84,736	0,018	0,004
-281,745	-200,000	0,003	-0,134
-280,730	-200,000	-0,010	-0,114
-279,716	145,973	-0,026	-0,026
-278,701	-200,000	0,011	0,067
-277,686	-65,598	-0,074	0,022
-276,672	-46,919	0,093	-0,033
-275,657	218,110	0,096	-0,112
-274,643	12,461	0,068	-0,038
-273,628	146,879	-0,019	0,018
-272,613	656,242	0,110	-0,208
-271,599	19,638	-0,050	0,029
-270,584	132,044	0,037	0,035
-269,570	-200,000	-0,008	0,070
-268,555	800,000	-0,063	0,142
-267,540	-200,000	-0,024	0,087
-266,526	76,055	0,119	-0,092
-265,511	-200,000	-0,007	-0,125
-264,497	778,966	-0,081	0,163
-263,482	800,000	-0,013	0,039
-262,467	40,784	-0,159	0,105
-261,453	33,924	0,058	0,037
-260,438	-200,000	-0,004	-0,140
-259,424	103,887	-0,064	-0,055
-258,409	-200,000	0,040	-0,129
-257,395	-1,301	0,146	-0,075
-256,380	48,124	-0,115	0,078
-255,365	-200,000	0,011	0,163
-254,351	-22,677	-0,027	0,012
-253,336	-41,009	-0,059	-0,022
-252,322	800,000	-0,027	0,064
-251,307	-200,000	0,015	0,105
-250,292	349,680	0,017	0,024
-249,278	-66,336	-0,017	0,005
-248,263	-200,000	0,009	0,081
-247,249	800,000	0,043	0,129
-246,234	201,281	-0,066	0,075
-245,219	604,483	-0,024	0,043
-244,205	359,363	-0,064	-0,094
-243,190	71,662	-0,030	0,023
-242,176	-200,000	-0,012	0,075
-241,161	800,000	0,041	0,127
-240,146	-200,000	-0,023	-0,085
-239,132	47,198	0,023	0,015
-238,117	326,587	0,063	0,088
-237,103	800,000	0,041	0,091
-236,088	-200,000	-0,010	0,056
-235,073	-200,000	0,014	0,081
-234,059	369,458	0,074	0,110
-233,044	337,300	-0,059	0,083
-232,030	-15,226	-0,115	0,054
-231,015	-42,126	0,049	-0,018
-230,000	800,000	-0,048	-0,106
-228,986	138,740	-0,057	-0,054
-227,971	-200,000	-0,018	0,076
-226,957	95,407	0,039	0,033
-225,942	255,580	-0,023	-0,028
-224,927	-200,000	-0,008	0,086
-223,913	263,997	-0,021	-0,026
-222,898	-200,000	-0,012	-0,096
-221,884	-138,010	-0,082	0,007
-220,869	-0,576	-0,047	-0,024
-219,855	-88,236	0,075	-0,016
-218,840	-92,559	0,024	-0,005
-217,825	-200,000	0,005	-0,126
-216,811	-16,298	-0,131	-0,060
-215,796	49,723	-0,094	0,065
-214,782	-31,043	-0,057	-0,024
-213,767	397,485	0,093	-0,143
-212,752	-76,621	-0,030	-0,008
-211,738	-19,210	0,151	-0,068
-210,723	-120,641	0,070	-0,009
-209,709	454,522	-0,036	-0,058
-208,694	501,964	-0,019	-0,032
-207,679	800,000	0,014	0,034
-206,665	-192,528	0,076	-0,001
-205,650	800,000	-0,023	-0,048
-204,636	-200,000	-0,061	0,196
-203,621	-100,060	-0,120	-0,022
-202,606	19,100	-0,028	0,016
-201,592	-42,317	0,061	-0,023
-200,577	-200,000	-0,034	-0,122
-199,563	-32,792	-0,049	-0,020
-198,548	-44,812	0,101	0,037
-197,533	-70,188	0,067	0,018
-196,519	-119,458	0,042	0,005
-195,504	-141,444	0,039	0,003
-194,490	201,597	0,026	-0,029
-193,475	-14,193	-0,197	-0,092
-192,460	-31,539	-0,056	-0,023
-191,446	457,856	-0,056	-0,091
-190,431	-128,569	0,113	-0,012
-189,417	-54,419	0,042	0,014
-188,402	349,271	-0,122	-0,176
-187,387	645,353	-0,083	-0,155
-186,373	-200,000	0,008	-0,035
-185,358	31,045	-0,049	-0,031
-184,344	-29,302	0,017	0,007
-183,329	-60,524	-0,040	0,012
-182,315	777,327	-0,029	0,057
-181,300	-200,000	-0,005	0,046
-180,285	753,347	-0,018	-0,036
-179,271	-135,810	-0,099	-0,008
-178,256	-200,000	0,000	0,027
-177,242	-13,199	0,045	-0,021
-176,227	450,698	0,033	-0,054
-175,212	-75,943	-0,140	0,036
-174,198	-200,000	-0,001	0,049
-173,183	-200,000	-0,001	-0,156
-172,169	-58,832	0,014	-0,004
-171,154	61,351	-0,043	0,031
-170,139	-200,000	0,028	-0,096
-169,125	800,000	-0,020	0,055
-168,110	-37,567	0,087	-0,034
-167,096	24,473	0,086	0,052
-166,081	800,000	-0,068	-0,151
-165,066	800,000	-0,048	-0,135
-164,052	-117,159	0,019	-0,002
-163,037	280,870	-0,061	0,079
-162,023	-21,448	0,095	0,042
-161,008	-10,078	-0,084	-0,040
-159,993	-62,748	-0,038	-0,011
-158,979	490,714	-0,043	-0,072
-157,964	800,000	0,059	-0,159
-156,950	-66,273	0,061	-0,017
-155,935	-119,618	-0,076	0,009
-154,920	21,843	0,115	0,068
-153,906	141,061	-0,089	0,086
-152,891	187,083	0,075	0,082
-151,877	-58,690	-0,024	0,007
-150,862	85,631	0,077	0,062
-149,847	222,425	-0,077	0,090
-148,833	-200,000	-0,003	-0,018
-147,818	165,899	-0,040	0,041
-146,804	-105,853	-0,067	0,011
-145,789	-200,000	-0,004	0,050
-144,775	18,243	-0,096	0,056
-143,760	-55,662	0,091	-0,030
-142,745	592,472	0,027	0,048
-141,731	-200,000	0,002	0,036
-140,716	248,858	0,050	-0,062
-139,702	-35,736	-0,098	0,039
-138,687	224,291	-0,039	0,046
-137,672	-200,000	-0,008	-0,054
-136,658	-200,000	0,006	0,276
-135,643	-176,244	-0,037	0,001
-134,629	87,568	0,056	-0,045
-133,614	71,683	-0,100	-0,076
-132,599	8,271	0,015	-0,008
-131,585	347,012	-0,045	0,065
-130,570	222,797	0,142	-0,167
-129,556	-200,000	0,005	-0,094
-128,541	-15,490	-0,105	0,049
-127,526	138,247	0,026	-0,025
-126,512	-200,000	0,002	0,090
-125,497	-200,000	-0,016	-0,087
-124,483	239,886	-0,045	-0,055
-123,468	350,175	-0,054	-0,078
-122,453	800,000	-0,041	-0,095
-121,439	-59,028	-0,121	-0,038
-120,424	-200,000	0,023	-0,104
-119,410	-102,377	-0,057	-0,010
