DTS Sentinel unit serial number:	SN410029Multiplexer serial number:	ORYXHardware model number:	OX2-SRSoftware version number:	ORYX F/W v4,00 Oryx Data Collector v3.7.2.0data status	okinstallation	B4 Nyhavnadifferential loss correction	single-endedforward channel	channel 2reverse channel	N/Adate	2023/12/16time	08:00:14forward acquisition time	300,00reverse acquisition time	0,00gamma	499,1914k internal	0,3127k external	0,3127temperature offset calibration	1,0000default loss term (dB/km)	0,3820temperature slope calibration	1,0000multiplexer offset coefficient	1,0000multiplexer slope coefficient	1,0000fibre end	0,00T internal ref (°C)	22,40T ext. ref 1 (°C)	8,05T ext. ref 2 (°C)	8,18length (m)	temperature (°C)	Stokes	anti-Stokes-744,400	-44,245	0,059	0,022
-743,385	-112,234	-0,240	-0,036
-742,371	-134,115	0,088	0,008
-741,356	-17,226	-0,158	0,074
-740,342	283,093	-0,059	0,079
-739,327	17,883	-0,293	0,173
-738,312	75,566	0,093	-0,073
-737,298	36,375	-0,243	0,159
-736,283	15,581	0,099	-0,058
-735,269	71,548	-0,192	0,148
-734,254	-183,308	0,183	-0,002
-733,239	-114,129	-0,492	0,070
-732,225	-1,323	0,131	0,068
-731,210	-200,000	-0,001	-0,063
-730,196	1,316	0,030	-0,016
-729,181	351,846	0,061	-0,090
-728,167	-129,243	-0,076	-0,008
-727,152	-200,000	-0,005	0,050
-726,137	-105,202	-0,095	0,016
-725,123	-200,000	0,017	0,213
-724,108	-135,808	-0,048	0,004
-723,094	-145,885	0,121	-0,008
-722,079	-200,000	0,006	-0,113
-721,064	-135,992	0,090	0,008
-720,050	-173,718	-0,037	-0,001
-719,035	800,000	-0,060	0,139
-718,021	-80,264	0,041	-0,010
-717,006	-200,000	0,013	-0,078
-715,991	9,203	-0,209	-0,117
-714,977	-137,470	-0,086	-0,007
-713,962	103,883	-0,075	0,065
-712,948	71,497	-0,017	-0,013
-711,933	-200,000	-0,005	0,116
-710,918	-77,225	-0,081	0,021
-709,904	-200,000	0,016	-0,082
-708,889	378,329	-0,105	-0,160
-707,875	-200,000	0,018	0,130
-706,860	52,626	0,066	0,047
-705,845	-200,000	-0,002	0,109
-704,831	20,279	0,116	0,069
-703,816	-200,000	-0,001	-0,042
-702,802	-135,235	-0,074	-0,006
-701,787	-82,086	0,063	-0,015
-700,772	-27,138	-0,007	-0,003
-699,758	173,045	0,054	-0,057
-698,743	-200,000	-0,007	0,091
-697,729	329,774	0,043	-0,061
-696,714	800,000	-0,015	0,049
-695,699	-83,908	-0,120	0,028
-694,685	9,401	0,053	0,030
-693,670	-14,330	-0,110	0,052
-692,656	-200,000	-0,023	-0,140
-691,641	-200,000	0,002	0,066
-690,627	-200,000	0,020	0,071
-689,612	800,000	0,028	0,078
-688,597	-176,027	-0,073	0,001
-687,583	-86,739	-0,053	-0,012
-686,568	0,197	0,031	-0,016
-685,554	800,000	0,051	-0,116
-684,539	-200,000	0,014	0,135
-683,524	-200,000	0,014	0,049
-682,510	57,954	0,075	-0,055
-681,495	-59,671	-0,157	-0,050
-680,481	-200,000	-0,046	-0,189
-679,466	105,776	-0,050	-0,044
-678,451	108,680	0,051	-0,045
-677,437	-200,000	-0,011	0,072
-676,422	-200,000	-0,016	-0,130
-675,408	506,742	0,047	0,080
-674,393	-200,000	0,013	-0,099
-673,378	452,834	-0,011	0,019
-672,364	-200,000	0,004	0,148
-671,349	-72,180	0,143	-0,039
-670,335	-200,000	0,017	-0,107
-669,320	-61,430	0,008	-0,003
-668,305	9,097	0,148	-0,083
-667,291	13,769	0,128	-0,074
-666,276	154,300	-0,061	-0,063
-665,262	-150,351	-0,101	-0,006
-664,247	-102,656	0,094	-0,017
-663,232	408,753	0,040	-0,063
-662,218	-200,000	-0,054	0,215
-661,203	-73,747	-0,061	0,016
-660,189	-88,830	0,013	-0,003
-659,174	800,000	0,014	-0,038
-658,159	-76,556	0,124	-0,032
-657,145	110,941	-0,126	0,113
-656,130	89,248	0,117	0,097
-655,116	-200,000	0,019	0,069
-654,101	-143,182	-0,057	0,004
-653,086	-200,000	0,006	-0,107
-652,072	-78,179	-0,067	0,017
-651,057	149,618	-0,081	0,082
-650,043	9,122	0,029	0,016
-649,028	-64,153	-0,122	-0,037
-648,014	-17,648	0,048	-0,022
-646,999	-200,000	0,017	0,081
-645,984	800,000	-0,039	0,089
-644,970	-140,635	-0,075	-0,006
-643,955	107,861	-0,039	0,034
-642,941	21,615	-0,114	0,069
-641,926	28,374	-0,055	-0,034
-640,911	-200,000	0,006	0,100
-639,897	684,116	0,118	0,230
-638,882	800,000	0,056	0,156
-637,868	-62,354	-0,176	-0,054
-636,853	82,715	-0,062	-0,050
-635,838	614,967	-0,068	-0,128
-634,824	135,871	0,077	-0,074
-633,809	-119,018	0,131	0,017
-632,795	550,643	-0,030	0,053
-631,780	113,691	-0,044	-0,040
-630,765	-56,443	-0,066	0,022
-629,751	-95,284	-0,107	0,021
-628,736	-200,000	0,001	-0,056
-627,722	75,111	-0,032	0,025
-626,707	461,059	-0,004	-0,006
-625,692	194,515	-0,057	-0,064
-624,678	17,436	0,157	0,092
-623,663	472,269	-0,007	0,011
-622,649	241,378	-0,066	-0,082
-621,634	800,000	-0,020	-0,056
-620,619	77,861	-0,102	-0,080
-619,605	38,958	-0,051	0,034
-618,590	66,233	0,089	-0,067
-617,576	-200,000	0,003	-0,021
-616,561	800,000	0,053	0,137
-615,546	377,540	-0,035	-0,052
-614,532	-200,000	0,026	-0,135
-613,517	280,879	-0,025	0,033
-612,503	309,872	-0,021	-0,029
-611,488	-200,000	0,011	0,091
-610,474	322,827	0,018	0,025
-609,459	-111,187	-0,125	-0,019
-608,444	181,875	0,055	0,060
-607,430	324,409	0,012	-0,017
-606,415	800,000	-0,042	-0,119
-605,401	79,417	0,038	-0,030
-604,386	-82,507	-0,007	0,002
-603,371	386,010	0,012	0,018
-602,357	-92,836	-0,072	0,015
-601,342	-66,774	-0,088	-0,026
-600,328	-83,539	-0,144	0,034
-599,313	-96,640	0,066	-0,013
-598,298	-74,972	-0,071	0,019
-597,284	-70,234	0,072	0,020
-596,269	788,460	-0,049	0,099
-595,255	156,064	-0,075	0,077
-594,240	243,647	-0,028	-0,035
-593,225	-200,000	0,003	-0,072
-592,211	-18,575	-0,030	0,014
-591,196	-200,000	0,041	0,146
-590,182	-78,502	-0,107	-0,027
-589,167	-132,817	0,023	0,002
-588,152	189,994	-0,023	-0,026
-587,138	63,300	-0,055	0,041
-586,123	109,382	-0,076	-0,068
-585,109	800,000	-0,046	-0,129
-584,094	-200,000	-0,009	0,041
-583,079	-33,298	0,136	0,055
-582,065	30,459	-0,126	0,080
-581,050	-200,000	0,027	0,095
-580,036	4,316	0,042	0,023
-579,021	282,519	0,065	0,087
-578,006	294,587	0,117	-0,159
-576,992	180,904	0,080	0,087
-575,977	800,000	-0,022	-0,069
-574,963	-200,000	0,040	-0,151
-573,948	-200,000	0,004	0,078
-572,934	-82,427	0,055	-0,013
-571,919	121,025	-0,032	-0,030
-570,904	117,488	-0,081	-0,074
-569,890	16,583	0,061	0,036
-568,875	-200,000	-0,026	0,117
-567,861	312,992	0,055	-0,076
-566,846	-49,776	0,099	0,034
-565,831	6,696	-0,067	0,037
-564,817	-85,757	0,080	-0,018
-563,802	19,816	0,046	-0,027
-562,788	13,974	0,162	0,093
-561,773	800,000	0,025	0,059
-560,758	49,458	-0,057	-0,040
-559,744	-46,233	-0,072	0,026
-558,729	-200,000	0,018	0,112
-557,715	-176,103	0,093	-0,002
-556,700	44,780	-0,085	0,058
-555,685	-47,135	0,073	-0,026
-554,671	8,605	0,035	-0,019
-553,656	800,000	0,036	0,088
-552,642	-48,620	0,081	0,029
-551,627	-140,004	-0,120	-0,009
-550,612	-155,148	0,114	-0,005
-549,598	-100,504	-0,041	-0,007
-548,583	-46,339	0,031	-0,011
-547,569	417,860	0,020	0,032
-546,554	-15,706	0,075	-0,035
-545,539	402,347	-0,040	-0,063
-544,525	800,000	0,015	0,030
-543,510	-35,186	0,010	0,004
-542,496	-200,000	-0,127	0,000
-541,481	800,000	-0,019	-0,050
-540,466	-149,556	0,069	0,004
-539,452	-70,200	0,096	0,027
-538,437	-200,000	-0,002	0,034
-537,423	108,936	0,080	0,071
-536,408	118,832	0,059	-0,054
-535,393	4,676	-0,185	0,100
-534,379	-20,426	0,214	-0,097
-533,364	182,931	0,096	-0,104
-532,350	800,000	-0,022	-0,063
-531,335	-46,699	0,064	0,023
-530,321	254,806	-0,027	0,034
-529,306	-200,000	-0,028	0,125
-528,291	-149,240	0,063	0,004
-527,277	-78,241	-0,093	0,023
-526,262	405,549	0,051	-0,079
-525,248	-92,780	-0,088	0,018
-524,233	327,386	0,048	0,068
-523,218	254,518	0,099	0,126
-522,204	-12,907	0,066	0,032
-521,189	60,043	-0,114	-0,083
-520,175	228,069	0,066	0,080
-519,160	526,623	0,055	-0,096
-518,145	-3,921	-0,174	0,089
-517,131	-125,871	0,072	-0,008
-516,116	-19,841	0,125	0,057
-515,102	800,000	-0,061	-0,170
-514,087	-167,299	0,059	-0,002
-513,072	-200,000	0,019	-0,123
-512,058	800,000	-0,058	-0,163
-511,043	800,000	0,018	0,042
-510,029	603,370	-0,011	0,021
-509,014	-88,657	0,212	0,046
-507,999	-97,553	0,093	0,018
-506,985	-200,000	-0,035	0,167
-505,970	800,000	0,108	0,229
-504,956	154,306	0,056	-0,057
-503,941	33,942	-0,174	-0,112
-502,926	-44,811	0,208	-0,076
-501,912	66,884	-0,114	0,086
-500,897	-200,000	-0,003	-0,135
-499,883	309,424	0,092	0,127
-498,868	800,000	0,042	0,097
-497,853	-200,000	-0,006	-0,027
-496,839	800,000	-0,037	-0,105
-495,824	-200,000	-0,004	0,032
-494,810	800,000	-0,037	0,103
-493,795	59,519	-0,088	0,064
-492,781	800,000	0,031	0,092
-491,766	131,189	-0,114	-0,108
-490,751	-153,975	0,034	-0,002
-489,737	-89,193	-0,025	0,005
-488,722	123,035	0,108	0,100
-487,708	-200,000	-0,025	-0,119
-486,693	-55,101	-0,038	-0,013
-485,678	-7,192	-0,117	0,058
-484,664	368,113	-0,008	-0,011
-483,649	252,020	0,047	-0,060
-482,635	41,440	0,032	0,021
-481,620	-100,025	-0,057	0,010
-480,605	761,319	0,055	0,110
-479,591	-200,000	-0,015	0,055
-478,576	-136,809	-0,098	0,008
-477,562	797,591	-0,055	-0,113
-476,547	763,628	0,044	-0,089
-475,532	-84,018	-0,059	-0,014
-474,518	-32,069	0,023	-0,010
-473,503	525,656	-0,048	0,083
-472,489	-200,000	-0,004	0,062
-471,474	328,932	-0,015	-0,022
-470,459	2,188	0,124	-0,066
-469,445	-70,020	-0,091	0,025
-468,430	153,333	0,046	-0,047
-467,416	-111,584	0,071	0,010
-466,401	70,398	-0,081	-0,061
-465,386	-200,000	-0,008	0,034
-464,372	296,089	0,046	-0,062
-463,357	4,893	-0,135	0,073
-462,343	-200,000	0,022	-0,080
-461,328	-200,000	-0,008	-0,140
-460,313	800,000	0,058	0,150
-459,299	800,000	0,020	-0,054
-458,284	800,000	-0,049	-0,111
-457,270	125,850	-0,088	0,082
-456,255	475,998	-0,041	-0,069
-455,241	67,912	-0,033	0,025
-454,226	-200,000	0,001	0,018
-453,211	800,000	0,008	-0,024
-452,197	-200,000	-0,005	-0,046
-451,182	-200,000	0,009	-0,124
-450,168	184,640	-0,092	-0,100
-449,153	800,000	-0,044	0,106
-448,138	-38,794	-0,044	-0,017
-447,124	-93,527	-0,106	0,021
-446,109	-180,710	-0,107	-0,002
-445,095	-129,932	0,107	0,011
-444,080	151,562	0,065	-0,065
-443,065	-200,000	-0,016	-0,069
-442,051	154,438	-0,042	-0,042
-441,036	45,971	-0,068	0,046
-440,022	2,515	-0,036	-0,019
-439,007	-200,000	0,032	0,108
-437,992	133,576	0,068	-0,065
-436,978	-28,039	0,129	-0,055
-435,963	800,000	-0,075	0,219
-434,949	-81,152	0,034	0,008
-433,934	-58,155	0,183	-0,058
-432,919	-172,876	-0,102	-0,002
-431,905	442,376	-0,016	0,026
-430,890	-48,526	0,084	-0,030
-429,876	800,000	0,003	-0,007
-428,861	-200,000	0,007	-0,061
-427,846	-200,000	0,004	-0,131
-426,832	49,369	0,047	-0,033
-425,817	338,157	-0,032	0,046
-424,803	-50,892	0,007	0,002
-423,788	-200,000	-0,009	0,066
-422,773	-200,000	0,004	-0,097
-421,759	-30,234	0,107	0,044
-420,744	-108,289	0,133	-0,021
-419,730	-200,000	0,012	0,075
-418,715	-200,000	0,002	0,102
-417,701	46,145	-0,033	-0,022
-416,686	-200,000	-0,020	-0,112
-415,671	-77,211	-0,025	-0,006
-414,657	800,000	0,034	-0,076
-413,642	96,400	-0,064	0,054
-412,628	-200,000	0,005	0,071
-411,613	201,538	0,092	0,104
-410,598	800,000	-0,016	0,040
-409,584	-200,000	0,003	0,020
-408,569	-200,000	0,018	-0,059
-407,555	-54,462	-0,056	0,019
-406,540	-40,020	0,102	-0,039
-405,525	-140,880	0,066	-0,005
-404,511	82,168	0,051	-0,040
-403,496	-200,000	0,013	-0,072
-402,482	-49,012	0,065	0,023
-401,467	67,570	0,100	-0,075
-400,452	318,820	-0,044	-0,062
-399,438	-90,652	-0,057	0,012
-398,423	142,150	-0,073	-0,071
-397,409	-78,172	-0,157	-0,039
-396,394	-42,702	-0,064	0,024
-395,379	-200,000	-0,019	-0,122
-394,365	148,086	-0,099	-0,099
-393,350	4,212	-0,058	-0,031
-392,336	13,469	0,076	0,043
-391,321	800,000	-0,006	-0,019
-390,306	3,044	-0,107	-0,057
-389,292	150,116	-0,026	-0,026
-388,277	-200,000	-0,019	-0,084
-387,263	-200,000	0,025	0,115
-386,248	-156,921	-0,022	-0,001
-385,233	-200,000	0,047	0,000
-384,219	-119,118	-0,084	-0,011
-383,204	-18,972	-0,049	-0,022
-382,190	122,975	-0,044	-0,040
-381,175	-158,338	0,071	-0,003
-380,160	-200,000	0,034	-0,130
-379,146	-200,000	0,014	0,091
-378,131	-38,487	0,088	-0,034
-377,117	441,502	-0,066	0,107
-376,102	68,223	-0,039	-0,029
-375,088	51,454	-0,081	-0,056
-374,073	800,000	0,043	-0,120
-373,058	-200,000	0,002	0,127
-372,044	800,000	-0,043	0,128
-371,029	156,867	-0,061	0,061
-370,015	149,751	0,087	0,086
-369,000	-200,000	0,018	-0,060
-367,985	-89,835	-0,065	-0,014
-366,971	800,000	-0,044	-0,114
-365,956	-200,000	0,009	0,064
-364,942	-76,764	0,110	-0,028
-363,927	-147,646	0,155	0,009
-362,912	25,147	-0,039	-0,024
-361,898	800,000	0,007	-0,016
-360,883	-80,248	-0,150	0,036
-359,869	800,000	-0,055	-0,154
-358,854	14,160	0,051	-0,029
-357,839	279,005	0,065	0,085
-356,825	-200,000	-0,001	0,124
-355,810	-47,446	-0,121	-0,043
-354,796	-200,000	-0,010	0,060
-353,781	185,230	0,063	0,068
-352,766	800,000	-0,055	-0,129
-351,752	168,814	0,075	-0,079
-350,737	22,929	0,115	-0,069
-349,723	800,000	0,063	-0,168
-348,708	160,300	0,046	-0,047
-347,693	-57,143	-0,078	-0,025
-346,679	272,907	-0,072	-0,093
-345,664	-146,847	-0,103	-0,006
-344,650	-200,000	-0,006	0,094
-343,635	-73,336	0,084	-0,022
-342,620	186,379	-0,039	0,043
-341,606	398,191	-0,005	0,008
-340,591	-200,000	0,021	-0,096
-339,577	-200,000	-0,014	-0,171
-338,562	-144,912	-0,207	-0,014
-337,548	29,550	0,066	-0,041
-336,533	-200,000	-0,001	0,097
-335,518	150,382	0,047	0,047
-334,504	-200,000	0,004	0,062
-333,489	800,000	-0,017	-0,043
-332,475	0,860	-0,104	0,055
-331,460	-200,000	-0,002	0,011
-330,445	-33,750	0,076	-0,031
-329,431	-200,000	-0,013	-0,098
-328,416	800,000	0,030	-0,079
-327,402	-200,000	0,009	0,114
-326,387	-102,585	0,015	0,003
-325,372	-4,437	-0,092	0,047
-324,358	-200,000	-0,005	-0,075
-323,343	126,404	-0,160	0,148
-322,329	-200,000	-0,024	-0,151
-321,314	800,000	-0,056	0,120
-320,299	427,146	-0,041	0,066
-319,285	250,081	0,065	-0,081
-318,270	158,382	-0,008	-0,008
-317,256	800,000	-0,017	-0,041
-316,241	149,990	0,138	0,137
-315,226	-22,748	0,030	0,013
-314,212	271,872	0,080	-0,103
-313,197	-80,905	-0,084	0,020
-312,183	700,095	-0,070	-0,136
-311,168	-124,887	0,148	-0,017
-310,153	222,829	-0,051	0,060
-309,139	24,089	-0,132	-0,079
-308,124	139,194	0,015	-0,015
-307,110	-200,000	-0,014	0,130
-306,095	-200,000	0,007	-0,091
-305,080	88,524	-0,039	-0,032
-304,066	800,000	-0,029	0,077
-303,051	370,832	-0,069	-0,103
-302,037	120,043	0,034	-0,031
-301,022	-54,202	-0,104	0,034
-300,008	86,689	0,103	0,083
-298,993	800,000	-0,074	0,151
-297,978	-167,132	-0,054	-0,002
-296,964	-91,165	0,037	0,008
-295,949	-43,838	-0,058	0,021
-294,935	157,880	-0,059	0,060
-293,920	85,198	0,070	-0,056
-292,905	554,644	-0,006	-0,011
-291,891	-200,000	-0,008	-0,098
-290,876	72,047	0,071	-0,054
-289,862	-89,049	-0,121	-0,026
-288,847	79,706	-0,079	-0,062
-287,832	70,559	0,037	-0,028
-286,818	96,249	-0,037	0,031
-285,803	-162,729	-0,078	0,003
-284,789	-25,394	0,054	0,023
-283,774	-59,164	-0,035	0,011
-282,759	372,118	0,035	0,053
-281,745	-105,505	-0,040	0,007
-280,730	20,517	-0,091	-0,054
-279,716	169,755	0,040	0,041
-278,701	800,000	0,031	0,088
-277,686	-200,000	0,008	0,099
-276,672	211,272	0,075	-0,086
-275,657	429,190	0,077	-0,122
-274,643	26,784	0,056	-0,034
-273,628	-160,077	-0,046	-0,002
-272,613	-25,585	0,097	-0,041
-271,599	29,257	0,103	-0,064
-270,584	800,000	-0,048	-0,136
-269,570	-32,177	0,086	0,035
-268,555	-3,777	0,122	0,062
-267,540	350,214	-0,081	-0,117
-266,526	-46,395	0,070	0,025
-265,511	-102,314	-0,069	-0,012
-264,497	-200,000	0,023	0,136
-263,482	-95,054	0,006	-0,001
-262,467	579,577	-0,013	-0,024
-261,453	314,215	0,007	-0,009
-260,438	-82,118	-0,137	-0,032
-259,424	-200,000	0,008	0,074
-258,409	-129,037	-0,106	-0,011
-257,395	800,000	0,043	0,099
-256,380	416,524	-0,053	0,083
-255,365	-11,777	0,108	0,051
-254,351	-130,482	0,134	-0,013
-253,336	128,902	0,109	0,102
-252,322	-26,173	-0,124	-0,053
-251,307	-40,189	0,081	-0,031
-250,292	800,000	-0,014	-0,039
-249,278	-50,052	0,056	0,019
-248,263	800,000	0,039	0,099
-247,249	800,000	-0,038	0,085
-246,234	-19,460	-0,034	-0,015
-245,219	-200,000	-0,016	-0,094
-244,205	93,178	0,036	-0,029
-243,190	-83,929	0,100	-0,023
-242,176	8,683	0,175	0,096
-241,161	428,915	-0,038	-0,060
-240,146	-150,738	-0,081	-0,004
-239,132	-182,290	0,037	0,000
-238,117	800,000	-0,039	-0,098
-237,103	660,009	-0,062	-0,118
-236,088	635,955	-0,057	0,106
-235,073	736,369	0,018	0,036
-234,059	14,498	0,152	0,086
-233,044	800,000	0,025	-0,079
-232,030	-200,000	-0,002	-0,144
-231,015	-161,556	-0,078	0,003
-230,000	117,632	-0,050	-0,045
-228,986	-120,494	0,024	0,003
-227,971	577,055	0,082	0,147
-226,957	152,652	0,051	0,051
-225,942	-56,027	0,099	-0,032
-224,927	-24,627	-0,028	-0,012
-223,913	239,118	-0,024	-0,029
-222,898	789,894	-0,007	0,015
-221,884	32,898	0,154	0,097
-220,869	78,299	-0,045	-0,035
-219,855	226,106	0,043	-0,051
-218,840	701,490	0,052	0,100
-217,825	800,000	0,029	-0,086
-216,811	112,022	-0,073	-0,065
-215,796	89,126	-0,140	-0,114
-214,782	-7,797	0,068	0,033
-213,767	545,165	0,035	0,062
-212,752	383,219	-0,135	0,204
-211,738	21,442	-0,051	0,030
-210,723	-9,214	0,041	-0,020
-209,709	800,000	-0,095	-0,199
-208,694	-0,866	0,009	0,004
-207,679	-200,000	0,002	0,059
-206,665	-137,373	-0,092	0,008
-205,650	127,277	0,061	0,056
-204,636	788,264	0,050	0,100
-203,621	23,294	-0,090	0,054
-202,606	545,270	-0,064	-0,112
-201,592	73,112	-0,070	-0,053
-200,577	-69,600	0,062	-0,017
-199,563	-45,222	-0,101	-0,036
-198,548	416,588	0,011	-0,016
-197,533	-200,000	-0,006	-0,027
-196,519	-200,000	0,008	0,074
-195,504	133,829	0,082	0,078
-194,490	-30,253	-0,124	-0,051
-193,475	800,000	-0,020	0,046
-192,460	454,634	0,051	0,083
-191,446	565,048	0,050	0,089
-190,431	-59,094	-0,046	0,014
-189,417	169,626	0,098	0,102
-188,402	239,857	0,066	0,080
-187,387	-33,745	-0,072	-0,029
-186,373	268,615	0,091	-0,116
-185,358	-14,197	0,092	-0,043
-184,344	342,620	0,058	-0,084
-183,329	-200,000	-0,008	0,157
-182,315	-200,000	-0,009	0,097
-181,300	-93,601	-0,169	0,034
-180,285	-15,045	0,029	0,013
-179,271	5,499	-0,129	-0,069
-178,256	-200,000	-0,001	0,109
-177,242	-200,000	0,012	0,109
-176,227	-180,330	0,062	-0,001
-175,212	42,036	0,103	0,068
-174,198	31,852	0,068	-0,042
-173,183	46,821	-0,181	-0,122
-172,169	-200,000	-0,013	-0,063
-171,154	-99,171	0,112	0,020
-170,139	35,362	-0,045	-0,029
-169,125	-200,000	0,036	-0,150
-168,110	105,171	0,103	0,088
-167,096	-163,530	0,073	0,002
-166,081	138,979	-0,065	-0,062
-165,066	122,175	0,020	0,018
-164,052	-200,000	0,002	-0,055
-163,037	153,915	-0,067	-0,067
-162,023	662,134	-0,032	-0,060
-161,008	281,663	0,062	0,081
-159,993	800,000	0,039	0,090
-158,979	29,567	0,039	-0,024
-157,964	800,000	-0,014	0,043
-156,950	-200,000	-0,001	0,095
-155,935	397,300	0,029	0,044
-154,920	181,788	0,090	-0,096
-153,906	800,000	0,036	0,111
-152,891	-33,906	0,052	0,021
-151,877	-104,650	-0,065	-0,011
-150,862	-200,000	0,037	-0,163
-149,847	-52,154	-0,070	0,023
-148,833	325,367	0,030	-0,041
-147,818	-40,408	0,026	0,010
-146,804	7,431	-0,050	-0,027
-145,789	-68,724	0,067	0,019
-144,775	52,681	0,104	-0,072
-143,760	-200,000	0,004	-0,058
-142,745	-70,044	-0,159	-0,044
-141,731	-200,000	0,004	0,083
-140,716	-200,000	-0,006	-0,045
-139,702	-35,388	0,064	0,025
-138,687	11,661	0,118	0,066
-137,672	-200,000	0,007	0,088
-136,658	-200,000	0,004	0,106
-135,643	758,003	-0,074	-0,147
-134,629	800,000	0,039	0,086
-133,614	238,978	0,036	-0,043
-132,599	-177,486	0,068	0,001
-131,585	-200,000	0,063	-0,000
-130,570	16,923	-0,058	-0,033
-129,556	52,951	0,118	-0,082
-128,541	87,116	-0,032	-0,025
-127,526	-200,000	-0,003	0,078
-126,512	-200,000	0,012	0,181
-125,497	659,782	0,018	0,033
-124,483	-92,435	0,247	0,050
-123,468	85,535	-0,100	0,080
-122,453	800,000	0,050	-0,109
-121,439	121,904	-0,063	-0,057
-120,424	309,096	-0,104	-0,141
-119,410	226,937	-0,053	0,063
-118,395	800,000	0,048	0,146
