DTS Sentinel unit serial number:	SN410029Multiplexer serial number:	ORYXHardware model number:	OX2-SRSoftware version number:	ORYX F/W v4,00 Oryx Data Collector v3.7.2.0data status	okinstallation	B4 Nyhavnadifferential loss correction	single-endedforward channel	channel 2reverse channel	N/Adate	2023/12/15time	18:50:13forward acquisition time	300,00reverse acquisition time	0,00gamma	499,1914k internal	0,3138k external	0,3138temperature offset calibration	1,0000default loss term (dB/km)	0,3820temperature slope calibration	1,0000multiplexer offset coefficient	1,0000multiplexer slope coefficient	1,0000fibre end	0,00T internal ref (°C)	19,40T ext. ref 1 (°C)	5,39T ext. ref 2 (°C)	5,51length (m)	temperature (°C)	Stokes	anti-Stokes-744,400	-29,401	0,185	0,078
-743,385	-147,312	-0,319	-0,020
-742,371	-200,000	-0,001	0,010
-741,356	-45,013	-0,253	0,093
-740,342	-96,848	0,237	0,046
-739,327	-131,057	-0,325	0,032
-738,312	-109,897	0,097	0,015
-737,298	-76,186	-0,307	0,080
-736,283	111,046	0,171	-0,153
-735,269	-85,311	-0,292	0,067
-734,254	1,080	0,140	0,075
-733,239	-2,172	-0,311	-0,162
-732,225	-110,267	0,125	-0,019
-731,210	590,293	0,085	0,156
-730,196	33,272	0,019	0,012
-729,181	10,677	0,043	0,024
-728,167	-200,000	0,008	-0,037
-727,152	405,515	-0,038	-0,059
-726,137	483,775	-0,046	-0,078
-725,123	-200,000	0,011	0,038
-724,108	64,227	0,028	0,021
-723,094	4,908	-0,021	-0,012
-722,079	49,257	-0,065	0,045
-721,064	195,106	-0,057	-0,064
-720,050	-200,000	-0,003	-0,160
-719,035	431,791	-0,066	-0,106
-718,021	-105,132	-0,039	0,006
-717,006	800,000	0,040	-0,123
-715,991	611,632	-0,094	-0,174
-714,977	44,804	-0,141	-0,096
-713,962	-28,439	0,057	-0,024
-712,948	-181,327	-0,090	0,001
-711,933	800,000	-0,044	-0,133
-710,918	-200,000	0,004	0,025
-709,904	388,832	0,046	0,071
-708,889	-200,000	0,028	-0,169
-707,875	800,000	-0,039	-0,100
-706,860	-200,000	0,003	0,044
-705,845	737,431	0,078	0,156
-704,831	172,271	0,079	0,085
-703,816	-121,122	-0,061	0,007
-702,802	-200,000	0,005	-0,195
-701,787	-200,000	0,004	-0,027
-700,772	-200,000	0,025	-0,110
-699,758	6,875	0,198	-0,109
-698,743	-13,754	0,100	0,048
-697,729	800,000	-0,050	0,108
-696,714	112,712	-0,094	-0,084
-695,699	26,747	-0,093	0,057
-694,685	-200,000	-0,007	-0,032
-693,670	800,000	-0,018	0,049
-692,656	-200,000	-0,006	-0,064
-691,641	-154,031	0,020	0,001
-690,627	800,000	-0,022	-0,049
-689,612	470,683	0,012	0,020
-688,597	-51,512	-0,055	0,019
-687,583	71,352	0,045	-0,034
-686,568	800,000	-0,017	0,053
-685,554	-200,000	0,001	-0,012
-684,539	574,362	-0,016	-0,028
-683,524	136,610	-0,081	0,078
-682,510	-130,649	0,146	0,014
-681,495	389,043	0,070	-0,108
-680,481	76,910	-0,104	-0,082
-679,466	-200,000	-0,016	-0,056
-678,451	76,363	-0,067	-0,052
-677,437	-200,000	-0,017	-0,064
-676,422	328,275	-0,100	0,143
-675,408	800,000	0,037	0,078
-674,393	-49,645	-0,049	0,017
-673,378	-200,000	-0,009	-0,029
-672,364	50,263	-0,139	-0,097
-671,349	800,000	-0,073	-0,159
-670,335	-200,000	0,006	0,066
-669,320	278,965	-0,057	0,075
-668,305	-127,551	-0,173	0,018
-667,291	10,082	0,043	-0,024
-666,276	622,303	0,033	0,061
-665,262	56,928	-0,152	-0,110
-664,247	800,000	-0,026	0,066
-663,232	28,802	0,067	-0,042
-662,218	77,611	0,065	-0,051
-661,203	16,378	-0,079	-0,046
-660,189	-38,562	-0,042	-0,016
-659,174	-78,436	-0,113	0,028
-658,159	-83,007	0,114	0,027
-657,145	446,311	0,011	0,018
-656,130	-75,202	0,082	-0,022
-655,116	-200,000	-0,013	0,103
-654,101	-200,000	-0,006	-0,066
-653,086	187,470	0,041	-0,046
-652,072	-37,710	-0,103	-0,040
-651,057	-78,058	0,131	-0,033
-650,043	-200,000	-0,021	-0,081
-649,028	68,900	-0,093	0,071
-648,014	-200,000	-0,007	-0,102
-646,999	776,023	-0,019	0,039
-645,984	217,717	-0,084	0,099
-644,970	478,618	-0,032	0,054
-643,955	-200,000	0,002	-0,083
-642,941	-104,386	-0,125	0,021
-641,926	-75,717	-0,027	-0,007
-640,911	800,000	-0,019	-0,055
-639,897	45,874	-0,027	0,019
-638,882	6,212	0,069	-0,037
-637,868	171,776	0,035	-0,037
-636,853	800,000	0,030	-0,088
-635,838	-200,000	-0,025	-0,125
-634,824	-34,662	0,106	-0,043
-633,809	-200,000	0,006	0,086
-632,795	800,000	0,060	0,149
-631,780	185,517	-0,102	-0,112
-630,765	-134,567	0,107	-0,009
-629,751	-87,001	-0,127	-0,028
-628,736	-200,000	0,031	-0,147
-627,722	16,388	-0,045	-0,026
-626,707	354,858	0,113	-0,167
-625,692	-200,000	0,012	0,115
-624,678	198,899	-0,106	-0,120
-623,663	-70,956	0,067	0,018
-622,649	-124,687	-0,074	-0,008
-621,634	-200,000	-0,006	0,022
-620,619	234,445	0,115	-0,140
-619,605	-73,817	-0,129	-0,034
-618,590	-200,000	0,006	0,058
-617,576	-29,354	0,087	0,037
-616,561	291,724	0,066	-0,088
-615,546	-141,483	-0,076	0,006
-614,532	168,177	0,071	-0,075
-613,517	75,843	-0,085	0,067
-612,503	800,000	0,039	0,101
-611,488	312,917	-0,005	-0,007
-610,474	800,000	-0,003	0,008
-609,459	800,000	0,023	-0,051
-608,444	419,881	0,039	-0,062
-607,430	785,171	-0,079	-0,160
-606,415	236,588	0,024	-0,029
-605,401	-200,000	-0,022	-0,092
-604,386	380,452	-0,020	-0,031
-603,371	78,788	0,082	0,065
-602,357	-200,000	0,023	0,103
-601,342	61,225	0,095	-0,069
-600,328	378,265	0,043	-0,065
-599,313	-29,762	0,094	-0,039
-598,298	-9,501	-0,080	-0,039
-597,284	-30,549	-0,114	-0,048
-596,269	-77,945	0,053	-0,013
-595,255	-200,000	0,021	0,077
-594,240	-20,489	-0,009	0,004
-593,225	-200,000	-0,034	-0,229
-592,211	-70,516	-0,038	0,010
-591,196	-200,000	-0,003	-0,169
-590,182	523,187	0,042	-0,073
-589,167	-200,000	0,048	-0,207
-588,152	270,604	0,074	-0,096
-587,138	5,042	0,044	0,024
-586,123	-200,000	-0,012	-0,180
-585,109	51,041	-0,074	-0,051
-584,094	75,021	-0,029	0,022
-583,079	-200,000	0,026	0,093
-582,065	-200,000	0,007	-0,098
-581,050	70,818	0,057	0,043
-580,036	562,661	-0,074	-0,133
-579,021	44,172	-0,064	0,043
-578,006	-63,068	-0,042	-0,013
-576,992	259,641	0,105	-0,134
-575,977	-84,994	-0,129	-0,030
-574,963	-102,074	0,112	0,020
-573,948	462,635	-0,024	0,039
-572,934	-165,641	-0,017	-0,001
-571,919	800,000	-0,036	-0,103
-570,904	800,000	-0,014	-0,045
-569,890	118,356	-0,130	-0,118
-568,875	749,427	-0,070	0,139
-567,861	496,064	0,015	0,026
-566,846	217,468	0,077	0,090
-565,831	657,231	0,024	-0,046
-564,817	337,733	-0,082	-0,118
-563,802	-200,000	-0,040	-0,150
-562,788	71,101	-0,074	-0,056
-561,773	176,838	-0,080	0,086
-560,758	-200,000	0,002	-0,066
-559,744	6,115	-0,045	-0,024
-558,729	-200,000	-0,009	0,043
-557,715	266,168	0,030	-0,039
-556,700	238,792	-0,083	-0,102
-555,685	-200,000	0,009	-0,030
-554,671	-26,527	0,020	0,009
-553,656	-200,000	0,019	-0,076
-552,642	173,151	0,029	0,031
-551,627	67,403	-0,040	0,030
-550,612	192,585	-0,028	0,031
-549,598	39,672	-0,054	-0,036
-548,583	332,905	0,047	-0,067
-547,569	788,957	-0,057	-0,116
-546,554	-200,000	0,000	-0,003
-545,539	181,999	0,090	0,097
-544,525	-200,000	-0,019	0,122
-543,510	-166,171	-0,109	-0,003
-542,496	-200,000	-0,011	-0,057
-541,481	-200,000	0,008	-0,029
-540,466	-200,000	-0,029	0,107
-539,452	258,180	0,034	-0,043
-538,437	-200,000	-0,003	0,128
-537,423	-35,730	0,082	0,032
-536,408	-80,457	-0,103	0,025
-535,393	-200,000	-0,019	-0,067
-534,379	50,561	0,099	-0,069
-533,364	29,981	-0,112	-0,070
-532,350	249,703	0,069	0,087
-531,335	800,000	0,029	0,075
-530,321	66,798	0,064	0,048
-529,306	800,000	-0,034	-0,080
-528,291	8,230	0,051	0,028
-527,277	-200,000	-0,009	-0,119
-526,262	-200,000	0,020	-0,104
-525,248	-52,925	0,099	0,033
-524,233	89,354	0,069	-0,056
-523,218	57,307	-0,041	-0,030
-522,204	-113,895	-0,045	-0,006
-521,189	800,000	0,024	-0,064
-520,175	84,365	-0,050	0,040
-519,160	-57,550	-0,023	-0,007
-518,145	378,023	-0,096	-0,145
-517,131	135,719	0,049	-0,047
-516,116	800,000	0,043	0,128
-515,102	-200,000	0,038	0,145
-514,087	-144,260	-0,128	-0,009
-513,072	572,392	0,048	0,087
-512,058	-119,283	-0,022	-0,003
-511,043	800,000	0,018	0,038
-510,029	-200,000	-0,009	0,072
-509,014	-200,000	0,003	-0,071
-507,999	800,000	0,019	0,051
-506,985	800,000	-0,072	-0,151
-505,970	800,000	-0,053	0,132
-504,956	315,592	0,021	0,029
-503,941	493,164	0,019	-0,031
-502,926	256,390	0,016	0,020
-501,912	800,000	0,059	0,135
-500,897	800,000	-0,038	0,084
-499,883	-200,000	-0,024	-0,133
-498,868	-200,000	0,008	-0,026
-497,853	654,642	-0,024	-0,046
-496,839	-136,344	0,088	0,007
-495,824	80,018	0,152	-0,120
-494,810	800,000	0,050	0,117
-493,795	-200,000	0,006	0,057
-492,781	-200,000	-0,004	0,064
-491,766	8,705	-0,137	0,076
-490,751	-200,000	0,003	0,071
-489,737	-115,773	0,095	-0,013
-488,722	-200,000	-0,063	-0,228
-487,708	-97,439	0,096	0,018
-486,693	152,080	-0,205	0,206
-485,678	-87,482	0,019	0,004
-484,664	222,537	-0,091	-0,107
-483,649	-9,442	0,042	-0,020
-482,635	800,000	-0,015	-0,045
-481,620	197,405	0,032	0,036
-480,605	-200,000	0,008	0,141
-479,591	800,000	-0,028	-0,081
-478,576	302,212	0,088	0,120
-477,562	-143,949	0,094	-0,006
-476,547	526,487	-0,087	0,150
-475,532	-27,168	0,101	0,043
-474,518	-200,000	-0,018	0,094
-473,503	93,615	0,038	-0,032
-472,489	-52,304	0,104	-0,035
-471,474	520,254	0,045	-0,077
-470,459	211,872	-0,085	-0,098
-469,445	800,000	0,033	-0,071
-468,430	-142,650	-0,061	-0,004
-467,416	-200,000	-0,011	-0,037
-466,401	31,035	0,122	0,077
-465,386	85,472	-0,069	0,056
-464,372	74,607	-0,038	0,029
-463,357	-196,148	-0,020	0,000
-462,343	-36,087	-0,119	-0,047
-461,328	-200,000	-0,004	0,017
-460,313	39,103	0,130	-0,085
-459,299	-200,000	-0,015	0,118
-458,284	214,530	0,136	0,159
-457,270	-200,000	0,024	0,120
-456,255	190,735	-0,107	0,118
-455,241	800,000	-0,102	-0,229
-454,226	-21,746	0,074	0,033
-453,211	-200,000	-0,000	0,031
-452,197	172,572	0,086	0,091
-451,182	-44,580	0,151	-0,055
-450,168	800,000	-0,056	0,155
-449,153	800,000	0,088	-0,197
-448,138	-12,795	-0,101	0,048
-447,124	-200,000	-0,010	0,034
-446,109	-173,000	0,137	0,003
-445,095	-200,000	0,004	0,025
-444,080	800,000	0,017	0,036
-443,065	10,307	-0,082	-0,045
-442,051	-200,000	0,035	-0,198
-441,036	66,309	-0,041	0,030
-440,022	800,000	-0,016	-0,048
-439,007	57,059	0,102	-0,073
-437,992	5,561	0,018	0,010
-436,978	103,017	-0,018	0,016
-435,963	800,000	-0,041	0,089
-434,949	131,862	-0,042	0,040
-433,934	-155,220	-0,202	0,010
-432,919	-200,000	-0,011	-0,039
-431,905	62,711	0,149	-0,109
-430,890	39,519	-0,041	-0,027
-429,876	-140,379	0,204	0,015
-428,861	65,721	-0,049	0,037
-427,846	104,732	0,067	0,058
-426,832	322,703	-0,030	0,042
-425,817	32,479	-0,171	-0,108
-424,803	141,671	0,109	-0,105
-423,788	47,297	-0,047	0,032
-422,773	83,182	-0,038	0,030
-421,759	-161,394	0,052	0,002
-420,744	-120,453	0,093	-0,011
-419,730	54,646	-0,183	0,129
-418,715	767,820	-0,052	-0,104
-417,701	-200,000	0,004	0,023
-416,686	217,801	-0,041	-0,048
-415,671	-108,109	-0,030	0,005
-414,657	-200,000	0,008	0,027
-413,642	274,776	-0,024	-0,032
-412,628	-33,050	-0,027	-0,011
-411,613	48,667	-0,006	0,004
-410,598	800,000	0,034	0,104
-409,584	-200,000	-0,004	0,137
-408,569	200,173	-0,022	-0,025
-407,555	-200,000	-0,051	0,172
-406,540	-200,000	-0,005	0,083
-405,525	-47,449	0,099	0,035
-404,511	160,882	0,041	0,042
-403,496	-200,000	-0,010	-0,187
-402,482	-200,000	0,007	-0,026
-401,467	-200,000	0,003	-0,042
-400,452	-200,000	0,010	0,114
-399,438	-200,000	-0,007	0,121
-398,423	455,869	0,008	0,013
-397,409	137,442	-0,085	0,082
-396,394	328,225	-0,066	-0,093
-395,379	-200,000	-0,002	-0,067
-394,365	-59,817	0,053	0,016
-393,350	111,929	0,123	0,108
-392,336	-58,544	-0,071	0,023
-391,321	-96,838	0,102	-0,019
-390,306	7,064	-0,113	-0,061
-389,292	33,248	0,090	0,057
-388,277	-65,074	-0,096	-0,028
-387,263	-200,000	0,012	-0,072
-386,248	-200,000	0,006	0,062
-385,233	-200,000	0,001	0,127
-384,219	-13,268	0,056	-0,027
-383,204	-200,000	0,009	-0,088
-382,190	103,543	-0,035	-0,030
-381,175	778,850	0,024	0,049
-380,160	-107,029	0,028	0,005
-379,146	800,000	-0,016	-0,043
-378,131	184,521	-0,079	0,085
-377,117	-200,000	-0,025	-0,085
-376,102	-119,339	-0,112	0,014
-375,088	-115,240	-0,050	-0,007
-374,073	-26,760	-0,161	-0,069
-373,058	-74,857	0,090	-0,023
-372,044	77,414	0,106	0,083
-371,029	158,203	0,037	0,038
-370,015	300,788	-0,020	0,027
-369,000	-200,000	-0,016	0,083
-367,985	-61,010	-0,093	0,029
-366,971	26,983	-0,039	0,024
-365,956	-200,000	-0,004	0,077
-364,942	-200,000	-0,002	-0,069
-363,927	55,359	0,013	-0,009
-362,912	-200,000	-0,025	0,145
-361,898	594,105	-0,050	-0,091
-360,883	15,217	-0,073	-0,042
-359,869	-200,000	0,010	-0,052
-358,854	-41,878	-0,063	-0,023
-357,839	39,836	0,100	-0,065
-356,825	-101,274	0,022	0,004
-355,810	-183,217	-0,086	0,001
-354,796	-83,567	-0,017	-0,004
-353,781	397,669	0,079	-0,121
-352,766	118,824	-0,088	0,079
-351,752	-60,051	0,036	0,011
-350,737	800,000	-0,028	-0,076
-349,723	470,403	-0,109	0,179
-348,708	-200,000	0,021	0,150
-347,693	800,000	0,019	0,057
-346,679	297,788	0,048	0,065
-345,664	-46,442	0,091	0,032
-344,650	129,626	-0,064	0,060
-343,635	379,560	-0,014	-0,022
-342,620	349,986	0,040	-0,058
-341,606	800,000	-0,020	-0,041
-340,591	-200,000	-0,032	-0,109
-339,577	-200,000	-0,018	-0,125
-338,562	513,160	-0,062	0,106
-337,548	800,000	0,022	-0,054
-336,533	-64,113	0,044	0,013
-335,518	-148,171	0,064	0,004
-334,504	-200,000	0,002	0,021
-333,489	-73,566	0,090	0,024
-332,475	43,575	-0,125	-0,083
-331,460	709,244	-0,046	-0,089
-330,445	12,565	0,048	-0,027
-329,431	314,744	0,025	-0,034
-328,416	-200,000	-0,040	0,145
-327,402	-200,000	0,011	-0,081
-326,387	-32,467	0,130	0,053
-325,372	800,000	0,032	-0,070
-324,358	339,313	0,042	-0,060
-323,343	-200,000	-0,002	-0,110
-322,329	800,000	0,010	0,029
-321,314	-200,000	0,013	0,115
-320,299	-74,449	0,113	0,030
-319,285	-90,454	0,055	0,012
-318,270	138,155	-0,073	0,070
-317,256	6,830	-0,080	0,043
-316,241	194,741	-0,023	0,025
-315,226	451,105	0,010	0,017
-314,212	8,597	0,063	-0,035
-313,197	-200,000	0,020	0,128
-312,183	638,179	0,001	-0,001
-311,168	-12,478	0,038	-0,018
-310,153	147,953	0,123	0,121
-309,139	108,030	0,055	-0,047
-308,124	68,907	0,062	0,046
-307,110	444,853	0,041	-0,066
-306,095	800,000	0,022	0,056
-305,080	-200,000	0,019	0,143
-304,066	-200,000	0,009	0,077
-303,051	-65,147	-0,208	0,061
-302,037	800,000	0,069	-0,209
-301,022	20,879	0,049	-0,029
-300,008	354,259	0,035	0,051
-298,993	23,212	-0,046	-0,027
-297,978	-73,952	0,033	0,009
-296,964	800,000	0,028	-0,080
-295,949	-73,166	-0,089	0,024
-294,935	800,000	-0,043	0,094
-293,920	178,886	-0,042	0,045
-292,905	301,529	0,092	0,125
-291,891	-56,469	0,106	-0,034
-290,876	-4,707	-0,083	0,042
-289,862	800,000	0,016	0,052
-288,847	-106,040	-0,059	0,010
-287,832	359,267	-0,028	0,041
-286,818	800,000	-0,027	0,065
-285,803	800,000	-0,009	0,025
-284,789	-98,601	0,171	0,032
-283,774	-103,247	0,075	-0,013
-282,759	205,997	0,086	-0,097
-281,745	-106,276	-0,122	0,020
-280,730	-104,973	-0,087	0,014
-279,716	182,155	-0,061	0,065
-278,701	208,370	0,081	0,093
-277,686	59,735	0,064	0,046
-276,672	800,000	0,038	0,119
-275,657	267,300	-0,119	-0,152
-274,643	-200,000	0,001	0,030
-273,628	424,792	-0,079	-0,124
-272,613	800,000	0,027	0,056
-271,599	-200,000	0,020	-0,072
-270,584	45,645	0,082	0,055
-269,570	3,578	0,126	-0,067
-268,555	-61,675	-0,037	-0,011
-267,540	143,735	-0,045	-0,044
-266,526	-46,226	-0,152	0,054
-265,511	800,000	-0,018	-0,052
-264,497	-178,044	0,108	0,002
-263,482	-126,863	0,113	-0,012
-262,467	185,808	-0,071	0,077
-261,453	-14,193	0,124	-0,058
-260,438	-200,000	0,018	-0,136
-259,424	33,353	-0,151	-0,095
-258,409	173,947	-0,074	0,078
-257,395	800,000	-0,042	-0,104
-256,380	-200,000	0,009	0,081
-255,365	-200,000	-0,008	0,031
-254,351	-200,000	0,041	0,165
-253,336	-55,021	-0,176	-0,057
-252,322	-157,975	0,064	-0,003
-251,307	239,975	-0,099	-0,120
-250,292	294,962	-0,027	0,037
-249,278	-27,746	-0,081	0,034
-248,263	800,000	0,036	-0,078
-247,249	-195,191	0,019	-0,000
-246,234	-90,638	-0,081	0,017
-245,219	414,969	-0,057	0,088
-244,205	153,560	0,076	-0,076
-243,190	-103,375	0,195	-0,033
-242,176	-200,000	-0,047	-0,172
-241,161	-105,574	0,056	-0,009
-240,146	276,766	0,108	-0,141
-239,132	-143,941	-0,026	0,002
-238,117	-154,814	-0,160	-0,008
-237,103	-200,000	-0,002	-0,077
-236,088	129,226	0,046	0,042
-235,073	717,757	0,032	0,063
-234,059	-200,000	-0,010	0,037
-233,044	72,717	0,099	0,075
-232,030	154,706	0,097	0,097
-231,015	343,342	0,080	-0,114
-230,000	-5,180	-0,061	-0,030
-228,986	-106,623	-0,080	0,013
-227,971	669,918	0,026	0,049
-226,957	800,000	-0,012	0,029
-225,942	317,429	0,033	0,046
-224,927	503,685	-0,030	0,050
-223,913	137,940	0,033	0,031
-222,898	-200,000	0,014	-0,092
-221,884	-200,000	0,019	0,160
-220,869	-112,296	0,055	0,008
-219,855	800,000	-0,095	0,224
-218,840	-107,734	0,103	0,016
-217,825	800,000	0,050	0,119
-216,811	225,606	-0,091	0,107
-215,796	-87,717	-0,135	-0,029
-214,782	116,293	0,120	-0,107
-213,767	121,893	0,067	0,061
-212,752	20,986	0,074	0,043
-211,738	-8,864	0,058	-0,028
-210,723	-200,000	-0,003	0,021
-209,709	86,988	-0,076	0,061
-208,694	-200,000	0,005	-0,149
-207,679	-187,787	-0,024	-0,000
-206,665	-5,052	-0,099	0,049
-205,650	-96,581	0,086	0,016
-204,636	-200,000	0,003	0,133
-203,621	-50,432	-0,081	-0,028
-202,606	-200,000	-0,001	0,054
-201,592	106,162	0,047	0,041
-200,577	54,640	-0,177	-0,124
-199,563	180,745	0,064	-0,068
-198,548	-200,000	-0,010	0,078
-197,533	-118,758	0,109	-0,014
-196,519	-78,744	-0,072	0,018
-195,504	562,301	0,023	-0,040
-194,490	489,084	-0,050	-0,083
-193,475	278,364	0,065	-0,084
-192,460	-200,000	0,009	0,092
-191,446	166,611	-0,032	0,033
-190,431	-88,046	0,133	0,029
-189,417	38,319	0,143	0,092
-188,402	257,952	0,076	0,095
-187,387	-57,150	0,098	0,031
-186,373	800,000	-0,026	-0,060
-185,358	-105,564	-0,036	0,006
-184,344	-200,000	0,037	0,163
-183,329	-4,882	-0,066	-0,033
-182,315	23,588	-0,037	0,022
-181,300	-78,391	-0,050	-0,012
-180,285	-200,000	0,010	0,070
-179,271	-200,000	-0,043	-0,152
-178,256	-200,000	0,029	-0,124
-177,242	-158,262	0,078	0,003
-176,227	-84,579	0,099	0,023
-175,212	-47,607	-0,013	-0,005
-174,198	56,027	-0,086	-0,060
-173,183	-200,000	0,013	-0,044
-172,169	800,000	-0,037	0,097
-171,154	95,045	-0,076	0,062
-170,139	-200,000	-0,033	0,131
-169,125	-182,383	0,148	0,002
-168,110	-200,000	0,000	0,015
-167,096	115,181	-0,108	-0,095
-166,081	-134,853	-0,022	-0,002
-165,066	-112,236	-0,064	0,009
-164,052	103,731	-0,010	-0,009
-163,037	-36,751	0,083	0,032
-162,023	-200,000	0,009	-0,095
-161,008	-174,205	-0,048	-0,001
-159,993	-176,790	-0,036	0,001
-158,979	792,601	0,045	0,090
-157,964	-107,436	-0,103	0,016
-156,950	-200,000	-0,010	0,036
-155,935	-200,000	-0,001	-0,018
-154,920	688,336	-0,028	-0,054
-153,906	302,218	0,138	0,186
-152,891	-167,910	-0,109	-0,003
-151,877	395,930	-0,068	-0,104
-150,862	-200,000	-0,051	-0,200
-149,847	800,000	-0,063	0,186
-148,833	121,318	-0,043	0,039
-147,818	-90,058	0,118	-0,025
-146,804	-109,685	0,172	0,026
-145,789	-59,810	0,048	-0,015
-144,775	-125,380	-0,100	-0,011
-143,760	105,528	0,020	-0,017
-142,745	-58,187	-0,147	-0,046
-141,731	-200,000	-0,014	0,145
-140,716	800,000	-0,018	0,037
-139,702	65,149	0,159	0,116
-138,687	-90,355	-0,142	0,030
-137,672	-200,000	0,025	-0,080
-136,658	-200,000	-0,054	0,176
-135,643	334,628	-0,058	0,082
-134,629	-200,000	0,039	-0,144
-133,614	39,830	-0,061	0,040
-132,599	-200,000	-0,005	-0,026
-131,585	-4,913	0,101	0,050
-130,570	-200,000	-0,014	0,085
-129,556	-19,977	-0,081	-0,036
-128,541	-69,473	-0,021	0,006
-127,526	179,635	-0,038	-0,041
-126,512	-90,004	-0,125	0,026
-125,497	322,544	0,087	0,120
-124,483	264,076	0,028	-0,035
-123,468	337,050	0,031	0,043
-122,453	237,352	-0,073	-0,087
-121,439	-157,741	0,074	0,003
-120,424	800,000	0,036	-0,092
-119,410	288,701	0,064	-0,084
