DTS Sentinel unit serial number:	SN410029Multiplexer serial number:	ORYXHardware model number:	OX2-SRSoftware version number:	ORYX F/W v4,00 Oryx Data Collector v3.7.2.0data status	okinstallation	B4 Nyhavnadifferential loss correction	single-endedforward channel	channel 2reverse channel	N/Adate	2023/12/16time	02:10:13forward acquisition time	300,00reverse acquisition time	0,00gamma	499,1914k internal	0,3128k external	0,3128temperature offset calibration	1,0000default loss term (dB/km)	0,3820temperature slope calibration	1,0000multiplexer offset coefficient	1,0000multiplexer slope coefficient	1,0000fibre end	0,00T internal ref (°C)	21,93T ext. ref 1 (°C)	7,21T ext. ref 2 (°C)	7,40length (m)	temperature (°C)	Stokes	anti-Stokes-744,400	487,310	0,076	-0,130
-743,385	-59,882	-0,341	0,108
-742,371	-39,007	-0,037	0,015
-741,356	-21,974	-0,250	0,113
-740,342	-69,468	-0,119	0,034
-739,327	277,349	-0,103	0,137
-738,312	219,836	-0,065	-0,077
-737,298	-53,792	-0,155	0,052
-736,283	-200,000	-0,008	-0,036
-735,269	198,002	-0,203	0,232
-734,254	-125,349	0,113	-0,013
-733,239	-123,846	-0,435	0,050
-732,225	-60,300	0,119	0,037
-731,210	409,826	0,062	0,098
-730,196	800,000	-0,010	-0,022
-729,181	800,000	-0,056	-0,134
-728,167	800,000	0,030	0,067
-727,152	42,629	-0,060	-0,040
-726,137	-200,000	-0,039	-0,156
-725,123	55,067	-0,114	-0,082
-724,108	7,328	-0,108	-0,060
-723,094	246,208	0,076	-0,095
-722,079	131,584	-0,076	-0,073
-721,064	-100,353	-0,165	-0,030
-720,050	123,102	0,016	-0,015
-719,035	161,780	-0,011	-0,012
-718,021	-200,000	-0,003	0,061
-717,006	-70,031	-0,071	-0,020
-715,991	-124,761	-0,104	-0,012
-714,977	-73,940	0,054	0,015
-713,962	-200,000	-0,041	0,140
-712,948	154,295	-0,028	-0,028
-711,933	-45,145	0,077	0,028
-710,918	-200,000	0,032	-0,164
-709,904	-200,000	-0,023	-0,147
-708,889	488,939	0,055	0,093
-707,875	67,856	-0,117	-0,089
-706,860	-200,000	-0,003	-0,117
-705,845	236,383	-0,023	0,029
-704,831	187,329	-0,071	-0,079
-703,816	33,662	-0,159	0,102
-702,802	-7,622	-0,082	-0,041
-701,787	800,000	0,011	0,023
-700,772	-200,000	-0,017	-0,059
-699,758	-90,713	-0,112	0,024
-698,743	107,656	0,079	0,070
-697,729	-200,000	-0,013	0,098
-696,714	-12,800	-0,160	-0,077
-695,699	-200,000	-0,013	0,165
-694,685	517,463	0,083	-0,144
-693,670	-26,329	0,117	-0,051
-692,656	800,000	-0,043	0,108
-691,641	228,356	-0,040	-0,049
-690,627	149,210	-0,096	0,097
-689,612	-144,366	0,107	-0,007
-688,597	126,883	-0,044	-0,041
-687,583	-98,869	-0,048	-0,009
-686,568	60,962	0,080	-0,059
-685,554	214,703	-0,089	-0,104
-684,539	-63,357	0,072	-0,022
-683,524	-200,000	-0,028	0,096
-682,510	229,390	0,075	0,091
-681,495	-103,286	-0,184	0,032
-680,481	-200,000	0,012	-0,056
-679,466	-44,643	0,055	0,020
-678,451	-66,504	0,027	0,008
-677,437	74,128	-0,068	-0,053
-676,422	-200,000	-0,007	-0,072
-675,408	193,240	-0,102	0,114
-674,393	-89,282	0,052	0,011
-673,378	800,000	-0,060	-0,173
-672,364	308,913	0,019	0,027
-671,349	-200,000	0,020	-0,099
-670,335	-155,361	0,045	-0,002
-669,320	-59,731	0,011	-0,004
-668,305	3,719	0,084	0,045
-667,291	-200,000	-0,019	-0,157
-666,276	-200,000	0,006	-0,053
-665,262	50,751	-0,093	-0,065
-664,247	0,534	0,108	-0,057
-663,232	-131,740	-0,100	0,010
-662,218	51,305	0,177	0,124
-661,203	-200,000	0,014	0,061
-660,189	-200,000	0,018	0,068
-659,174	-200,000	-0,038	-0,179
-658,159	41,033	-0,115	-0,077
-657,145	-19,273	-0,086	0,039
-656,130	-77,766	0,145	0,037
-655,116	24,090	0,044	-0,027
-654,101	-121,202	0,076	-0,009
-653,086	800,000	-0,013	-0,031
-652,072	-144,690	-0,131	-0,009
-651,057	-74,926	-0,134	0,035
-650,043	-37,413	-0,109	0,043
-649,028	492,304	-0,079	-0,136
-648,014	-200,000	0,017	-0,121
-646,999	473,440	-0,083	0,139
-645,984	122,485	0,068	0,063
-644,970	264,107	0,027	0,035
-643,955	-200,000	-0,021	0,083
-642,941	-200,000	-0,016	-0,156
-641,926	624,275	0,021	-0,039
-640,911	-19,873	-0,053	0,024
-639,897	94,750	0,046	0,039
-638,882	61,356	-0,108	-0,079
-637,868	216,608	-0,086	-0,101
-636,853	800,000	-0,059	-0,173
-635,838	-200,000	0,013	-0,099
-634,824	-200,000	0,003	0,039
-633,809	-65,077	0,075	0,022
-632,795	189,720	0,046	0,051
-631,780	-200,000	-0,008	0,058
-630,765	-200,000	0,028	-0,145
-629,751	24,696	-0,057	-0,035
-628,736	-40,015	-0,130	0,050
-627,722	25,808	-0,041	-0,025
-626,707	184,857	0,088	-0,097
-625,692	55,551	0,016	0,012
-624,678	188,161	-0,119	0,132
-623,663	-92,407	-0,061	0,013
-622,649	575,288	0,009	-0,017
-621,634	-150,330	0,113	-0,006
-620,619	139,050	-0,074	-0,072
-619,605	-154,492	0,083	0,004
-618,590	-7,284	0,068	0,034
-617,576	-31,054	-0,048	0,020
-616,561	-200,000	-0,017	0,092
-615,546	-119,469	-0,166	-0,021
-614,532	476,707	-0,023	-0,038
-613,517	39,560	-0,081	0,054
-612,503	-200,000	0,031	0,119
-611,488	-200,000	0,035	0,141
-610,474	-178,328	-0,022	-0,000
-609,459	404,793	0,028	0,044
-608,444	269,850	-0,067	-0,087
-607,430	800,000	0,058	-0,130
-606,415	-143,518	-0,097	-0,007
-605,401	800,000	0,012	0,030
-604,386	-22,187	0,081	0,036
-603,371	-200,000	0,010	0,079
-602,357	325,923	0,072	0,102
-601,342	-6,533	0,033	-0,017
-600,328	254,285	-0,033	-0,042
-599,313	-95,056	-0,096	0,019
-598,298	-70,800	0,114	0,032
-597,284	-166,489	-0,016	-0,000
-596,269	-200,000	0,012	-0,123
-595,255	19,476	0,107	0,064
-594,240	188,796	0,020	-0,022
-593,225	-96,155	-0,086	0,017
-592,211	800,000	0,044	-0,092
-591,196	120,919	0,091	-0,084
-590,182	-145,115	0,084	-0,006
-589,167	231,067	-0,039	-0,047
-588,152	800,000	-0,022	0,050
-587,138	63,789	-0,068	0,050
-586,123	-200,000	-0,010	0,098
-585,109	-9,530	-0,026	-0,013
-584,094	-137,440	0,137	0,011
-583,079	-65,518	-0,073	0,022
-582,065	-4,960	-0,098	0,050
-581,050	737,942	-0,060	-0,121
-580,036	-131,871	-0,080	-0,008
-579,021	432,165	0,077	-0,125
-578,006	343,910	-0,115	-0,168
-576,992	-167,548	0,035	0,001
-575,977	-125,786	0,139	0,015
-574,963	-200,000	0,024	-0,085
-573,948	-191,861	-0,162	0,001
-572,934	342,923	-0,036	0,052
-571,919	182,271	-0,140	-0,152
-570,904	231,619	-0,110	-0,133
-569,890	-200,000	0,042	-0,150
-568,875	215,471	0,051	0,060
-567,861	5,445	0,058	0,032
-566,846	629,092	-0,089	0,166
-565,831	-140,799	0,084	-0,006
-564,817	237,051	0,040	0,049
-563,802	-75,411	-0,161	0,042
-562,788	-128,264	-0,063	0,007
-561,773	-24,546	0,091	0,040
-560,758	-9,151	-0,165	-0,081
-559,744	-155,873	0,106	-0,005
-558,729	-174,207	-0,132	-0,003
-557,715	301,191	0,072	-0,099
-556,700	45,583	0,078	-0,053
-555,685	183,992	0,028	-0,031
-554,671	49,067	0,090	-0,062
-553,656	-41,936	-0,005	0,002
-552,642	-200,000	-0,007	0,034
-551,627	-150,032	-0,012	0,001
-550,612	319,107	0,034	-0,048
-549,598	261,895	0,043	-0,056
-548,583	-200,000	-0,037	-0,163
-547,569	70,994	0,016	-0,012
-546,554	32,130	-0,035	0,022
-545,539	469,635	0,036	0,060
-544,525	-135,057	-0,088	0,008
-543,510	-138,386	-0,157	-0,013
-542,496	-126,532	0,047	-0,005
-541,481	18,703	-0,047	-0,028
-540,466	289,833	-0,014	0,019
-539,452	-3,820	-0,159	0,081
-538,437	-27,848	0,082	-0,035
-537,423	-141,068	-0,130	-0,010
-536,408	95,155	-0,070	0,059
-535,393	231,961	0,034	0,041
-534,379	75,795	-0,072	0,056
-533,364	800,000	-0,026	-0,083
-532,350	800,000	0,029	-0,062
-531,335	-200,000	-0,003	-0,020
-530,321	-124,779	0,105	0,012
-529,306	35,761	0,135	0,088
-528,291	4,782	-0,095	-0,052
-527,277	800,000	0,034	-0,100
-526,262	-200,000	-0,023	0,076
-525,248	218,633	0,045	-0,053
-524,233	215,420	0,060	0,071
-523,218	-115,388	0,028	-0,004
-522,204	170,038	0,008	-0,008
-521,189	-17,959	-0,106	-0,049
-520,175	-200,000	-0,026	-0,161
-519,160	38,220	0,088	0,057
-518,145	-200,000	-0,037	0,141
-517,131	-68,663	0,180	-0,051
-516,116	57,922	-0,066	-0,047
-515,102	-200,000	0,026	-0,093
-514,087	800,000	-0,026	-0,064
-513,072	243,174	-0,072	0,089
-512,058	-106,926	-0,100	0,016
-511,043	-114,033	0,055	-0,008
-510,029	-68,437	0,084	-0,024
-509,014	-200,000	-0,010	-0,052
-507,999	-200,000	0,019	-0,119
-506,985	13,582	0,111	-0,064
-505,970	30,312	-0,154	-0,097
-504,956	-50,807	-0,080	0,027
-503,941	94,620	-0,028	0,023
-502,926	-181,226	-0,072	0,001
-501,912	186,786	0,063	0,069
-500,897	800,000	0,053	0,111
-499,883	-200,000	0,016	0,095
-498,868	531,101	0,052	0,091
-497,853	-108,870	-0,120	-0,019
-496,839	-92,151	0,073	-0,015
-495,824	27,567	0,146	-0,090
-494,810	51,124	-0,095	-0,067
-493,795	800,000	-0,013	-0,033
-492,781	-25,891	0,078	-0,034
-491,766	-117,925	-0,106	-0,014
-490,751	-200,000	0,008	-0,180
-489,737	-167,104	0,153	-0,004
-488,722	-20,082	-0,084	0,038
-487,708	-200,000	-0,011	-0,079
-486,693	800,000	0,061	0,128
-485,678	-106,282	-0,187	-0,031
-484,664	567,994	0,049	-0,088
-483,649	157,361	-0,081	0,082
-482,635	-200,000	0,013	-0,046
-481,620	543,930	0,048	-0,084
-480,605	47,801	0,137	0,094
-479,591	-75,728	-0,092	0,024
-478,576	-66,171	0,063	0,018
-477,562	-200,000	-0,006	0,020
-476,547	57,989	-0,083	-0,060
-475,532	629,268	-0,071	-0,132
-474,518	143,098	0,153	0,150
-473,503	-200,000	0,018	-0,113
-472,489	-200,000	0,010	0,053
-471,474	-200,000	0,019	-0,090
-470,459	380,541	0,027	-0,041
-469,445	-136,358	0,095	0,008
-468,430	800,000	0,019	0,040
-467,416	75,043	0,077	-0,060
-466,401	164,561	0,013	0,013
-465,386	-200,000	0,025	0,124
-464,372	-200,000	0,020	0,144
-463,357	-89,626	0,100	-0,021
-462,343	-67,562	-0,050	-0,014
-461,328	306,916	-0,032	-0,044
-460,313	-200,000	-0,027	-0,097
-459,299	-200,000	0,029	0,099
-458,284	-200,000	-0,005	0,116
-457,270	-200,000	-0,004	0,058
-456,255	650,929	-0,024	-0,046
-455,241	-200,000	-0,003	-0,088
-454,226	-102,142	-0,122	0,021
-453,211	800,000	-0,026	-0,072
-452,197	-12,226	-0,037	-0,018
-451,182	51,506	0,113	-0,079
-450,168	91,566	-0,032	-0,026
-449,153	-85,924	-0,077	0,017
-448,138	90,493	-0,049	-0,041
-447,124	744,677	-0,051	0,101
-446,109	737,049	-0,034	-0,068
-445,095	152,297	-0,072	0,072
-444,080	-44,590	0,030	-0,011
-443,065	-180,505	0,143	-0,002
-442,051	250,018	-0,047	0,059
-441,036	166,167	0,086	-0,090
-440,022	800,000	-0,035	-0,077
-439,007	68,183	-0,008	0,006
-437,992	25,461	0,140	0,086
-436,978	800,000	-0,027	-0,080
-435,963	208,723	0,044	0,051
-434,949	-22,060	0,112	-0,050
-433,934	125,333	-0,062	0,058
-432,919	-63,221	-0,023	-0,007
-431,905	67,513	-0,081	0,061
-430,890	401,635	0,058	0,090
-429,876	-136,327	0,062	-0,005
-428,861	359,019	0,055	-0,081
-427,846	194,588	-0,024	-0,027
-426,832	800,000	0,047	0,106
-425,817	124,844	0,044	0,041
-424,803	-45,416	-0,101	0,037
-423,788	433,428	-0,104	-0,167
-422,773	143,491	0,033	0,032
-421,759	-90,742	0,075	-0,016
-420,744	-74,463	0,165	0,043
-419,730	376,795	0,068	0,102
-418,715	-79,633	-0,112	-0,028
-417,701	-200,000	-0,004	0,062
-416,686	-90,970	0,035	0,007
-415,671	62,547	0,086	0,063
-414,657	50,137	0,050	0,034
-413,642	518,048	-0,028	0,049
-412,628	82,686	-0,055	-0,044
-411,613	430,138	-0,078	-0,124
-410,598	180,216	-0,084	-0,091
-409,584	436,171	0,028	-0,044
-408,569	8,404	0,251	0,138
-407,555	-200,000	0,013	0,138
-406,540	-131,551	-0,139	-0,013
-405,525	125,370	0,052	-0,048
-404,511	-200,000	0,004	-0,168
-403,496	136,886	0,071	0,068
-402,482	-85,581	0,062	-0,014
-401,467	-64,371	0,053	-0,016
-400,452	208,155	0,119	0,137
-399,438	800,000	0,047	0,096
-398,423	-44,730	0,115	-0,042
-397,409	-121,926	-0,081	-0,010
-396,394	-44,737	-0,056	-0,020
-395,379	182,831	-0,031	-0,034
-394,365	-93,974	0,141	0,028
-393,350	-200,000	-0,023	0,114
-392,336	-200,000	-0,016	0,053
-391,321	134,612	-0,034	-0,032
-390,306	-162,464	-0,086	0,003
-389,292	21,382	-0,074	0,044
-388,277	488,194	0,036	-0,060
-387,263	800,000	-0,029	0,081
-386,248	241,333	-0,036	0,044
-385,233	-166,450	-0,038	0,001
-384,219	-35,410	0,044	-0,017
-383,204	-120,627	-0,073	0,009
-382,190	-35,769	-0,091	-0,036
-381,175	-200,000	0,005	0,128
-380,160	-108,242	0,110	0,017
-379,146	79,029	0,033	0,026
-378,131	-127,845	0,053	-0,006
-377,117	-200,000	0,017	-0,068
-376,102	115,334	0,018	0,016
-375,088	181,216	0,038	0,041
-374,073	233,662	-0,032	0,039
-373,058	-200,000	-0,004	0,054
-372,044	12,587	0,085	-0,048
-371,029	-200,000	0,087	0,000
-370,015	160,725	-0,135	0,139
-369,000	110,341	-0,070	0,061
-367,985	-200,000	-0,011	-0,174
-366,971	800,000	0,016	-0,053
-365,956	156,204	-0,047	-0,047
-364,942	73,968	-0,012	0,010
-363,927	800,000	-0,034	0,101
-362,912	800,000	0,047	0,105
-361,898	383,577	-0,001	-0,002
-360,883	279,313	-0,037	-0,048
-359,869	-200,000	0,043	-0,163
-358,854	-5,051	0,134	0,067
-357,839	71,602	0,134	0,102
-356,825	73,660	-0,052	0,040
-355,810	-12,281	-0,060	-0,029
-354,796	800,000	0,005	0,013
-353,781	-23,453	-0,033	0,014
-352,766	-200,000	-0,032	-0,228
-351,752	345,483	0,092	-0,133
-350,737	-200,000	-0,050	0,209
-349,723	1,177	0,044	0,023
-348,708	286,247	0,041	-0,054
-347,693	-200,000	-0,001	0,008
-346,679	13,256	-0,086	-0,049
-345,664	-200,000	0,005	-0,044
-344,650	656,530	0,013	-0,025
-343,635	71,466	-0,075	-0,057
-342,620	31,025	-0,031	-0,019
-341,606	-200,000	0,009	0,128
-340,591	44,639	0,024	0,016
-339,577	224,555	-0,020	0,024
-338,562	59,958	0,109	0,079
-337,548	103,129	-0,149	-0,128
-336,533	-200,000	0,000	-0,007
-335,518	800,000	-0,027	-0,076
-334,504	-13,333	-0,021	0,010
-333,489	-106,926	0,024	0,004
-332,475	-127,400	-0,051	-0,005
-331,460	800,000	0,011	0,029
-330,445	-13,377	-0,081	-0,038
-329,431	-200,000	0,000	0,102
-328,416	-141,588	0,088	-0,006
-327,402	-76,249	0,135	0,034
-326,387	-42,240	0,040	-0,015
-325,372	223,462	-0,047	-0,055
-324,358	-157,546	0,046	0,002
-323,343	-169,573	0,026	0,001
-322,329	-43,786	0,074	-0,027
-321,314	201,190	0,064	0,072
-320,299	21,469	-0,038	0,023
-319,285	0,566	0,047	0,025
-318,270	-4,161	-0,081	-0,041
-317,256	274,201	-0,066	0,085
-316,241	537,558	-0,008	-0,014
-315,226	800,000	0,027	-0,075
-314,212	800,000	0,027	-0,076
-313,197	-47,490	-0,065	0,023
-312,183	-200,000	-0,027	0,096
-311,168	-200,000	-0,007	-0,041
-310,153	668,987	0,036	0,069
-309,139	-94,135	-0,090	0,018
-308,124	40,746	0,058	0,038
-307,110	-200,000	0,003	0,070
-306,095	202,897	-0,098	0,111
-305,080	-8,083	0,021	-0,011
-304,066	-200,000	0,010	-0,121
-303,051	419,997	0,023	-0,036
-302,037	28,698	0,036	0,022
-301,022	800,000	-0,012	-0,030
-300,008	-172,599	0,060	-0,001
-298,993	-200,000	0,031	0,136
-297,978	197,205	-0,046	0,052
-296,964	-98,134	-0,089	-0,017
-295,949	248,822	-0,035	-0,044
-294,935	273,186	0,061	-0,079
-293,920	51,919	-0,155	-0,108
-292,905	619,002	0,079	0,147
-291,891	-73,019	0,120	0,032
-290,876	-167,453	-0,055	-0,002
-289,862	-200,000	0,004	-0,042
-288,847	-200,000	-0,017	0,125
-287,832	-200,000	-0,015	-0,121
-286,818	-60,940	0,054	0,017
-285,803	-200,000	0,002	-0,036
-284,789	11,029	0,044	0,025
-283,774	-200,000	-0,000	0,085
-282,759	30,105	0,065	0,040
-281,745	-200,000	0,024	-0,234
-280,730	530,487	-0,080	-0,139
-279,716	-182,365	-0,086	0,001
-278,701	187,701	0,067	-0,073
-277,686	313,257	0,040	0,055
-276,672	-29,308	-0,058	0,024
-275,657	-81,602	-0,060	0,014
-274,643	-200,000	-0,023	-0,099
-273,628	3,484	-0,126	-0,067
-272,613	-76,806	0,098	-0,025
-271,599	47,305	0,107	0,073
-270,584	-200,000	0,010	0,052
-269,570	-200,000	-0,018	0,077
-268,555	800,000	-0,010	-0,028
-267,540	-200,000	0,012	-0,049
-266,526	800,000	0,043	-0,104
-265,511	176,940	0,037	0,039
-264,497	-200,000	0,000	-0,049
-263,482	62,838	0,123	-0,090
-262,467	-200,000	-0,006	-0,044
-261,453	205,357	0,114	-0,129
-260,438	-200,000	-0,011	0,120
-259,424	-101,113	0,042	0,007
-258,409	-134,175	0,016	0,001
-257,395	-65,589	-0,155	-0,045
-256,380	349,217	-0,038	0,055
-255,365	-131,588	0,085	0,008
-254,351	-85,517	0,141	0,032
-253,336	183,662	-0,103	0,112
-252,322	-65,121	-0,092	-0,027
-251,307	39,322	-0,141	-0,092
-250,292	800,000	-0,056	0,152
-249,278	121,620	0,071	0,065
-248,263	-200,000	-0,016	0,189
-247,249	800,000	0,027	0,072
-246,234	-5,418	0,086	0,043
-245,219	800,000	0,022	-0,053
-244,205	600,121	0,064	-0,117
-243,190	800,000	-0,038	-0,101
-242,176	-18,294	-0,123	0,056
-241,161	-37,481	-0,049	0,019
-240,146	-200,000	0,016	-0,066
-239,132	-44,069	-0,044	0,016
-238,117	-7,026	0,144	0,071
-237,103	36,046	0,125	0,080
-236,088	122,414	-0,049	0,045
-235,073	-2,815	-0,058	-0,029
-234,059	-26,795	-0,037	-0,016
-233,044	281,198	-0,065	-0,085
-232,030	-200,000	-0,007	0,032
-231,015	-200,000	0,009	-0,092
-230,000	-200,000	0,054	-0,181
-228,986	91,336	-0,099	0,081
-227,971	-200,000	0,008	0,064
-226,957	-200,000	-0,019	0,072
-225,942	547,443	-0,068	0,119
-224,927	-49,886	0,055	-0,019
-223,913	106,389	-0,015	0,013
-222,898	268,799	0,065	-0,084
-221,884	-105,535	-0,054	-0,009
-220,869	-45,727	-0,171	0,061
-219,855	2,253	0,016	-0,008
-218,840	-200,000	-0,015	-0,066
-217,825	-82,109	-0,092	-0,022
-216,811	202,563	-0,015	-0,017
-215,796	800,000	-0,019	0,049
-214,782	117,849	0,072	0,065
-213,767	-131,324	-0,141	0,013
-212,752	47,828	0,078	0,053
-211,738	51,716	0,111	0,077
-210,723	-200,000	0,009	-0,034
-209,709	-200,000	0,005	-0,042
-208,694	-102,874	0,138	0,024
-207,679	429,746	0,031	0,050
-206,665	45,003	0,115	0,077
-205,650	249,699	-0,107	0,133
-204,636	460,782	0,061	0,099
-203,621	-66,744	0,037	-0,011
-202,606	126,704	-0,023	-0,022
-201,592	-200,000	-0,003	-0,081
-200,577	171,272	-0,057	-0,059
-199,563	-87,522	0,071	0,016
-198,548	481,798	0,067	0,112
-197,533	800,000	-0,038	0,087
-196,519	729,148	0,036	0,070
-195,504	135,868	0,111	0,105
-194,490	-27,852	-0,156	0,065
-193,475	34,815	0,013	0,008
-192,460	800,000	-0,036	-0,082
-191,446	169,478	-0,098	-0,102
-190,431	-106,664	-0,018	-0,003
-189,417	-200,000	-0,003	0,038
-188,402	-200,000	0,005	0,090
-187,387	-198,873	0,206	0,001
-186,373	380,424	-0,066	-0,098
-185,358	-90,896	-0,121	0,025
-184,344	-200,000	-0,019	-0,071
-183,329	800,000	-0,027	-0,055
-182,315	-82,402	0,074	0,017
-181,300	207,172	-0,104	0,118
-180,285	629,250	-0,039	0,072
-179,271	-71,198	-0,106	0,029
-178,256	32,232	0,164	0,103
-177,242	-151,749	0,112	-0,006
-176,227	350,519	0,112	0,162
-175,212	-90,911	0,032	-0,007
-174,198	262,654	-0,046	0,059
-173,183	59,877	-0,081	0,058
-172,169	-16,218	-0,118	-0,054
-171,154	200,542	0,067	-0,075
-170,139	394,477	0,034	-0,052
-169,125	-56,406	0,050	-0,016
-168,110	-78,704	-0,159	-0,039
-167,096	-200,000	0,005	-0,019
-166,081	-200,000	-0,015	-0,097
-165,066	622,035	0,053	0,098
-164,052	-200,000	0,002	0,064
-163,037	-1,506	0,086	0,044
-162,023	-123,450	0,254	-0,029
-161,008	140,687	0,015	0,014
-159,993	-41,111	-0,014	0,005
-158,979	82,169	-0,140	-0,110
-157,964	324,181	0,032	-0,045
-156,950	-33,071	-0,034	0,014
-155,935	-94,959	-0,089	0,017
-154,920	-200,000	0,004	0,039
-153,906	27,512	-0,056	-0,034
-152,891	-200,000	-0,011	0,083
-151,877	519,673	0,040	-0,069
-150,862	-145,576	0,070	-0,004
-149,847	-116,195	-0,060	-0,008
-148,833	-180,705	-0,042	-0,001
-147,818	385,133	-0,063	-0,094
-146,804	63,514	0,098	0,072
-145,789	-200,000	0,018	0,142
-144,775	71,069	0,042	-0,032
-143,760	-200,000	-0,011	-0,098
-142,745	299,637	0,089	-0,120
-141,731	-108,141	-0,140	-0,022
-140,716	429,996	0,053	-0,084
-139,702	-0,652	-0,073	-0,038
-138,687	-200,000	-0,013	0,144
-137,672	-134,034	-0,160	-0,014
-136,658	211,600	-0,114	-0,131
-135,643	107,122	-0,082	-0,071
-134,629	-200,000	0,003	-0,048
-133,614	280,650	-0,012	0,015
-132,599	-200,000	0,002	0,038
-131,585	-18,206	-0,090	0,041
-130,570	-200,000	0,017	0,057
-129,556	800,000	-0,023	-0,058
-128,541	800,000	-0,029	-0,092
-127,526	-200,000	0,029	-0,130
-126,512	-200,000	-0,004	-0,079
-125,497	-200,000	-0,027	0,091
-124,483	-155,853	0,115	0,005
-123,468	602,719	-0,064	-0,116
-122,453	-168,090	0,037	0,001
-121,439	-27,978	-0,087	-0,036
-120,424	800,000	-0,070	-0,161
-119,410	-143,807	0,046	0,003
