DTS Sentinel unit serial number:	SN410029Multiplexer serial number:	ORYXHardware model number:	OX2-SRSoftware version number:	ORYX F/W v4,00 Oryx Data Collector v3.7.2.0data status	okinstallation	B4 Nyhavnadifferential loss correction	single-endedforward channel	channel 2reverse channel	N/Adate	2023/12/19time	06:30:13forward acquisition time	300,00reverse acquisition time	0,00gamma	499,1914k internal	0,3127k external	0,3127temperature offset calibration	1,0000default loss term (dB/km)	0,3820temperature slope calibration	1,0000multiplexer offset coefficient	1,0000multiplexer slope coefficient	1,0000fibre end	0,00T internal ref (°C)	21,18T ext. ref 1 (°C)	6,51T ext. ref 2 (°C)	6,62length (m)	temperature (°C)	Stokes	anti-Stokes-744,400	-200,000	0,018	-0,103
-743,385	215,710	-0,103	0,122
-742,371	309,898	-0,025	-0,035
-741,356	155,937	-0,201	0,206
-740,342	800,000	0,055	-0,131
-739,327	48,436	-0,224	0,156
-738,312	-15,772	0,070	0,033
-737,298	-3,435	-0,128	0,066
-736,283	-84,643	0,076	-0,018
-735,269	60,852	-0,269	0,198
-734,254	597,113	0,047	-0,088
-733,239	-51,174	-0,374	-0,130
-732,225	233,590	-0,029	0,036
-731,210	-13,744	0,068	0,033
-730,196	800,000	0,030	0,092
-729,181	683,699	-0,045	-0,088
-728,167	310,260	-0,035	0,049
-727,152	251,872	-0,033	0,041
-726,137	-37,108	-0,197	-0,078
-725,123	800,000	-0,017	-0,052
-724,108	-200,000	0,007	-0,104
-723,094	-117,645	-0,031	0,004
-722,079	-26,335	0,072	0,031
-721,064	-10,145	-0,029	-0,014
-720,050	26,809	0,115	-0,072
-719,035	-103,596	-0,131	0,023
-718,021	800,000	-0,027	0,071
-717,006	-0,736	-0,019	-0,010
-715,991	548,461	-0,098	-0,176
-714,977	-200,000	0,006	0,020
-713,962	-4,442	-0,077	0,040
-712,948	-141,188	-0,137	0,010
-711,933	283,381	0,028	0,037
-710,918	-200,000	-0,008	0,055
-709,904	-121,697	-0,073	-0,009
-708,889	-125,006	-0,036	-0,004
-707,875	-46,321	-0,130	-0,047
-706,860	-200,000	0,010	0,086
-705,845	-0,821	-0,077	0,040
-704,831	-94,494	0,081	-0,016
-703,816	320,297	-0,068	0,096
-702,802	-1,989	-0,093	-0,048
-701,787	-58,508	-0,022	0,007
-700,772	800,000	-0,044	-0,137
-699,758	-200,000	0,008	-0,137
-698,743	35,221	0,052	-0,034
-697,729	800,000	0,056	0,174
-696,714	33,962	-0,031	0,020
-695,699	-81,836	0,082	-0,020
-694,685	82,792	-0,141	-0,114
-693,670	-86,269	-0,139	0,032
-692,656	435,492	-0,039	0,064
-691,641	-200,000	-0,005	-0,027
-690,627	35,782	-0,017	-0,011
-689,612	800,000	-0,020	-0,052
-688,597	-200,000	-0,014	-0,147
-687,583	240,260	0,063	-0,078
-686,568	670,943	-0,026	-0,050
-685,554	-200,000	-0,036	-0,185
-684,539	800,000	0,031	-0,073
-683,524	-83,914	0,145	0,034
-682,510	800,000	0,057	0,128
-681,495	-45,978	-0,112	0,041
-680,481	197,774	-0,118	0,134
-679,466	-200,000	-0,024	-0,110
-678,451	-154,519	-0,061	-0,003
-677,437	65,461	0,170	-0,127
-676,422	52,509	-0,117	0,083
-675,408	800,000	-0,034	0,102
-674,393	-152,959	0,024	0,001
-673,378	-132,365	-0,081	0,008
-672,364	-200,000	0,006	0,036
-671,349	133,260	-0,094	0,090
-670,335	800,000	-0,020	0,045
-669,320	736,764	0,026	-0,052
-668,305	774,601	0,061	0,124
-667,291	-100,835	-0,113	0,020
-666,276	29,658	-0,089	0,056
-665,262	-85,040	-0,109	0,025
-664,247	222,149	0,027	-0,032
-663,232	-200,000	0,011	0,050
-662,218	271,223	0,045	0,059
-661,203	-46,153	0,080	0,029
-660,189	-94,275	-0,143	-0,029
-659,174	-200,000	0,049	-0,201
-658,159	-120,689	0,101	-0,013
-657,145	-102,826	-0,092	0,016
-656,130	800,000	0,038	0,115
-655,116	-32,624	0,079	-0,033
-654,101	460,739	0,069	-0,114
-653,086	194,330	-0,045	0,051
-652,072	104,193	-0,025	-0,022
-651,057	-57,343	-0,086	-0,028
-650,043	439,244	-0,069	-0,113
-649,028	800,000	-0,037	-0,121
-648,014	-75,266	0,045	0,012
-646,999	142,693	0,022	-0,022
-645,984	-28,047	-0,029	0,012
-644,970	800,000	-0,022	0,056
-643,955	-13,665	-0,087	-0,042
-642,941	-200,000	-0,015	-0,093
-641,926	-158,206	-0,057	-0,002
-640,911	-86,413	-0,028	0,006
-639,897	-200,000	0,001	0,008
-638,882	800,000	-0,055	0,120
-637,868	800,000	0,089	0,215
-636,853	30,611	-0,064	-0,040
-635,838	201,841	-0,053	-0,061
-634,824	-200,000	0,040	-0,135
-633,809	689,589	0,072	0,140
-632,795	800,000	0,057	0,122
-631,780	40,007	0,038	0,026
-630,765	-59,232	-0,148	-0,047
-629,751	-105,429	-0,057	0,009
-628,736	-41,940	-0,028	-0,011
-627,722	400,306	0,043	0,068
-626,707	18,890	-0,041	0,024
-625,692	109,924	-0,102	0,091
-624,678	14,850	-0,041	-0,023
-623,663	-200,000	-0,008	-0,061
-622,649	-200,000	0,004	-0,122
-621,634	-7,269	-0,198	-0,099
-620,619	800,000	0,043	0,114
-619,605	704,288	0,056	0,109
-618,590	301,718	0,012	-0,016
-617,576	280,596	0,058	0,076
-616,561	60,461	-0,066	0,048
-615,546	-117,337	0,051	-0,007
-614,532	-100,874	-0,199	0,036
-613,517	-30,718	-0,046	-0,019
-612,503	202,179	-0,073	0,083
-611,488	-13,869	0,060	-0,029
-610,474	800,000	-0,020	0,063
-609,459	139,172	-0,067	-0,065
-608,444	309,437	0,031	-0,043
-607,430	-200,000	-0,010	-0,106
-606,415	-152,816	0,045	-0,002
-605,401	125,837	0,024	0,022
-604,386	-86,160	0,121	-0,027
-603,371	212,203	-0,015	0,018
-602,357	319,499	-0,029	-0,040
-601,342	-50,292	0,087	0,030
-600,328	800,000	0,055	0,158
-599,313	-139,053	-0,143	0,011
-598,298	26,247	-0,059	-0,036
-597,284	398,811	0,021	0,033
-596,269	202,179	0,144	-0,164
-595,255	-200,000	0,001	0,105
-594,240	-200,000	-0,026	-0,092
-593,225	-200,000	-0,047	-0,183
-592,211	230,542	-0,052	-0,064
-591,196	-34,242	-0,156	0,063
-590,182	-200,000	0,007	0,079
-589,167	-200,000	0,002	-0,018
-588,152	-65,638	-0,117	-0,034
-587,138	-200,000	-0,018	0,138
-586,123	-200,000	-0,016	0,077
-585,109	476,753	-0,001	-0,001
-584,094	189,067	-0,098	0,108
-583,079	-50,841	-0,041	-0,014
-582,065	256,504	-0,054	-0,069
-581,050	56,771	0,053	0,038
-580,036	-30,004	0,022	-0,009
-579,021	-200,000	-0,103	0,000
-578,006	-123,842	0,038	-0,004
-576,992	-75,434	-0,123	0,032
-575,977	-200,000	0,022	0,107
-574,963	-200,000	0,002	-0,037
-573,948	-95,518	0,060	0,012
-572,934	257,926	-0,022	0,028
-571,919	286,632	-0,073	-0,098
-570,904	226,906	0,039	0,047
-569,890	751,104	-0,022	0,043
-568,875	353,102	0,051	0,075
-567,861	58,358	-0,031	0,022
-566,846	586,912	0,053	0,097
-565,831	243,231	-0,093	-0,116
-564,817	118,293	-0,041	-0,038
-563,802	27,380	-0,066	0,041
-562,788	-175,848	-0,064	0,001
-561,773	155,402	-0,100	0,102
-560,758	196,487	-0,069	-0,078
-559,744	-67,856	0,127	-0,036
-558,729	-200,000	-0,031	0,131
-557,715	-200,000	-0,011	-0,043
-556,700	495,982	0,036	-0,062
-555,685	-160,119	0,075	-0,003
-554,671	-75,632	0,067	-0,017
-553,656	586,257	0,069	-0,127
-552,642	-200,000	-0,006	0,043
-551,627	-200,000	-0,025	0,166
-550,612	800,000	-0,016	-0,046
-549,598	-115,498	-0,075	-0,010
-548,583	-104,383	-0,039	-0,007
-547,569	129,538	0,046	0,043
-546,554	351,666	-0,034	0,051
-545,539	-94,413	-0,039	-0,008
-544,525	585,718	0,049	0,090
-543,510	-200,000	-0,005	0,082
-542,496	-135,443	0,068	0,006
-541,481	-103,157	-0,067	0,012
-540,466	-200,000	0,007	0,085
-539,452	-200,000	-0,034	-0,122
-538,437	695,167	-0,047	-0,092
-537,423	-200,000	0,022	-0,098
-536,408	299,976	-0,036	0,049
-535,393	-200,000	0,042	-0,197
-534,379	-200,000	0,000	-0,048
-533,364	-35,489	-0,100	-0,040
-532,350	56,225	0,084	0,060
-531,335	-200,000	0,012	0,088
-530,321	-200,000	-0,049	0,167
-529,306	-200,000	0,017	-0,195
-528,291	15,152	0,042	0,024
-527,277	30,420	-0,084	-0,053
-526,262	41,395	-0,077	-0,052
-525,248	800,000	-0,054	-0,143
-524,233	-116,188	0,072	0,010
-523,218	63,139	0,047	0,035
-522,204	485,304	-0,083	0,140
-521,189	116,496	-0,046	-0,042
-520,175	343,073	0,059	-0,086
-519,160	800,000	0,017	0,056
-518,145	366,059	0,058	0,086
-517,131	148,919	0,107	0,107
-516,116	-200,000	0,009	0,106
-515,102	107,729	-0,133	0,117
-514,087	-43,355	-0,061	-0,023
-513,072	-156,352	-0,210	-0,010
-512,058	-108,409	0,112	-0,018
-511,043	-200,000	0,012	-0,072
-510,029	-59,176	-0,037	-0,012
-509,014	-75,514	0,120	-0,031
-507,999	800,000	-0,055	-0,123
-506,985	284,683	-0,053	-0,070
-505,970	96,337	-0,036	0,031
-504,956	-70,715	0,072	0,020
-503,941	726,013	0,036	0,071
-502,926	-94,687	0,074	-0,015
-501,912	-200,000	-0,034	0,119
-500,897	6,446	-0,109	0,060
-499,883	-63,484	0,035	0,011
-498,868	800,000	-0,039	-0,108
-497,853	-200,000	-0,011	-0,100
-496,839	444,892	-0,078	0,127
-495,824	69,042	-0,024	-0,018
-494,810	-105,473	-0,032	0,005
-493,795	250,722	-0,058	0,073
-492,781	-31,262	0,061	-0,025
-491,766	-200,000	0,048	-0,199
-490,751	-1,103	0,108	0,056
-489,737	800,000	0,032	0,098
-488,722	-200,000	0,012	0,150
-487,708	-85,305	0,040	-0,009
-486,693	-200,000	-0,004	0,103
-485,678	301,897	0,050	0,068
-484,664	-80,560	0,098	-0,024
-483,649	-166,272	-0,175	0,005
-482,635	3,346	0,042	-0,023
-481,620	158,991	-0,040	0,041
-480,605	792,844	-0,038	0,078
-479,591	800,000	0,086	0,181
-478,576	-43,235	0,052	-0,019
-477,562	-48,925	0,141	0,050
-476,547	73,802	-0,079	-0,061
-475,532	-200,000	0,022	0,159
-474,518	800,000	-0,011	-0,034
-473,503	17,849	0,056	-0,033
-472,489	-29,209	0,072	0,030
-471,474	247,943	0,033	-0,041
-470,459	-82,953	0,116	0,027
-469,445	121,537	-0,070	-0,064
-468,430	337,468	0,082	0,118
-467,416	-137,968	-0,042	-0,003
-466,401	84,513	0,031	0,025
-465,386	-200,000	-0,004	0,107
-464,372	51,414	0,124	-0,087
-463,357	95,389	-0,142	-0,119
-462,343	225,017	-0,090	-0,107
-461,328	800,000	0,037	-0,108
-460,313	158,829	0,098	0,100
-459,299	112,505	0,060	0,053
-458,284	-61,141	0,070	-0,022
-457,270	-200,000	-0,018	0,093
-456,255	-200,000	-0,013	0,205
-455,241	175,507	-0,068	-0,073
-454,226	-131,332	-0,113	0,011
-453,211	293,400	0,039	0,053
-452,197	-100,932	0,037	-0,007
-451,182	-73,598	-0,028	-0,007
-450,168	166,184	-0,062	0,065
-449,153	54,602	0,093	0,066
-448,138	420,988	-0,031	-0,049
-447,124	-117,659	-0,111	-0,015
-446,109	-200,000	0,046	-0,154
-445,095	-200,000	0,025	-0,108
-444,080	-12,483	-0,072	0,034
-443,065	-200,000	0,009	0,053
-442,051	566,529	-0,032	-0,058
-441,036	112,023	-0,073	0,065
-440,022	-200,000	0,015	0,083
-439,007	621,352	-0,061	0,113
-437,992	132,687	0,061	0,058
-436,978	544,521	-0,056	-0,099
-435,963	205,887	-0,020	-0,022
-434,949	-124,615	0,048	0,005
-433,934	416,169	-0,120	-0,189
-432,919	235,993	-0,038	-0,046
-431,905	1,665	0,045	0,024
-430,890	101,063	0,107	-0,092
-429,876	-42,761	0,069	-0,026
-428,861	311,202	0,069	0,096
-427,846	-200,000	0,027	-0,120
-426,832	96,477	0,060	-0,050
-425,817	-46,342	-0,068	0,024
-424,803	-52,133	-0,044	-0,015
-423,788	800,000	0,016	0,047
-422,773	320,609	-0,068	0,095
-421,759	800,000	0,030	0,067
-420,744	-101,205	-0,175	0,031
-419,730	97,193	-0,024	0,020
-418,715	-200,000	-0,001	-0,146
-417,701	228,512	-0,068	0,082
-416,686	-40,618	-0,105	-0,040
-415,671	-200,000	-0,018	0,176
-414,657	-68,581	-0,020	-0,006
-413,642	507,887	-0,044	-0,075
-412,628	-200,000	0,016	-0,096
-411,613	121,258	-0,078	-0,072
-410,598	-200,000	0,009	-0,193
-409,584	164,882	0,060	-0,062
-408,569	-43,750	-0,080	0,029
-407,555	26,859	0,064	-0,039
-406,540	14,703	0,113	-0,065
-405,525	67,344	-0,030	-0,022
-404,511	800,000	-0,074	0,169
-403,496	-112,517	0,141	0,020
-402,482	-151,206	-0,119	0,006
-401,467	161,368	0,092	-0,095
-400,452	13,173	0,116	0,066
-399,438	-36,191	-0,040	0,016
-398,423	-200,000	-0,004	0,108
-397,409	-62,820	0,053	0,016
-396,394	-200,000	-0,000	-0,137
-395,379	-5,609	-0,136	-0,068
-394,365	-200,000	0,008	-0,057
-393,350	-200,000	-0,028	-0,093
-392,336	198,496	-0,027	0,030
-391,321	-200,000	0,016	0,075
-390,306	598,604	0,059	-0,107
-389,292	-42,221	0,093	0,035
-388,277	-200,000	0,013	-0,103
-387,263	150,431	-0,096	0,095
-386,248	357,804	0,103	0,152
-385,233	111,559	0,048	0,042
-384,219	295,400	0,048	-0,065
-383,204	10,281	-0,047	-0,026
-382,190	-200,000	-0,069	-0,234
-381,175	-139,588	0,102	0,008
-380,160	-147,367	0,137	-0,008
-379,146	-24,582	0,126	-0,055
-378,131	-4,812	-0,072	-0,036
-377,117	615,658	-0,024	-0,045
-376,102	-48,020	-0,067	-0,024
-375,088	-200,000	-0,010	-0,065
-374,073	-200,000	-0,021	-0,084
-373,058	-200,000	-0,006	0,133
-372,044	282,763	0,020	0,027
-371,029	-200,000	-0,000	-0,013
-370,015	255,770	0,071	0,090
-369,000	-101,507	-0,050	-0,009
-367,985	381,708	0,079	-0,120
-366,971	6,995	-0,118	-0,064
-365,956	-200,000	0,002	-0,044
-364,942	-200,000	-0,000	0,152
-363,927	-30,570	0,124	0,051
-362,912	-136,345	-0,114	0,010
-361,898	-115,403	0,086	-0,012
-360,883	-102,257	-0,069	-0,012
-359,869	20,898	0,021	0,012
-358,854	-200,000	-0,004	0,104
-357,839	728,759	0,040	0,078
-356,825	800,000	0,007	-0,022
-355,810	-75,262	0,121	0,031
-354,796	800,000	0,080	-0,170
-353,781	155,006	0,034	-0,034
-352,766	99,064	-0,108	-0,092
-351,752	800,000	-0,042	-0,090
-350,737	496,532	-0,062	0,104
-349,723	149,658	0,041	0,041
-348,708	522,749	-0,025	-0,043
-347,693	800,000	-0,002	0,003
-346,679	-124,984	-0,112	-0,012
-345,664	17,700	0,208	-0,121
-344,650	-32,208	0,073	-0,030
-343,635	-136,678	0,068	0,006
-342,620	-139,460	0,122	0,009
-341,606	-57,102	0,068	-0,022
-340,591	214,596	-0,058	0,067
-339,577	-164,489	-0,091	-0,003
-338,562	-91,959	-0,043	-0,009
-337,548	-200,000	0,000	-0,022
-336,533	-35,046	0,027	-0,011
-335,518	222,824	-0,047	-0,055
-334,504	-200,000	0,021	-0,082
-333,489	550,605	-0,053	0,093
-332,475	293,698	-0,027	-0,036
-331,460	103,717	-0,143	-0,123
-330,445	219,250	0,037	-0,043
-329,431	-90,513	0,153	-0,032
-328,416	-200,000	0,000	0,007
-327,402	-200,000	-0,002	0,115
-326,387	800,000	-0,032	0,097
-325,372	56,616	-0,046	-0,033
-324,358	800,000	0,020	0,063
-323,343	129,547	-0,018	-0,017
-322,329	60,762	0,026	-0,018
-321,314	46,562	-0,106	0,072
-320,299	24,588	0,157	0,095
-319,285	800,000	0,040	0,117
-318,270	800,000	-0,025	-0,081
-317,256	-200,000	0,011	-0,137
-316,241	-19,795	0,153	-0,069
-315,226	-106,423	0,090	0,015
-314,212	800,000	0,023	-0,052
-313,197	414,630	-0,103	0,162
-312,183	800,000	0,028	-0,085
-311,168	800,000	0,018	-0,046
-310,153	195,731	-0,067	-0,075
-309,139	-200,000	-0,010	0,049
-308,124	179,373	0,093	0,100
-307,110	128,217	0,181	-0,168
-306,095	-29,508	0,118	0,049
-305,080	294,923	0,052	0,069
-304,066	-142,923	-0,183	0,013
-303,051	-200,000	-0,012	0,051
-302,037	-103,026	-0,037	0,006
-301,022	-75,166	0,083	-0,021
-300,008	-65,550	0,147	0,043
-298,993	-52,162	-0,071	0,024
-297,978	57,304	-0,043	0,031
-296,964	-119,681	0,083	-0,010
-295,949	-107,666	-0,077	-0,012
-294,935	-200,000	-0,015	0,058
-293,920	33,018	-0,046	0,029
-292,905	-200,000	-0,002	0,077
-291,891	-26,016	0,100	0,043
-290,876	-97,305	0,082	-0,015
-289,862	-16,259	0,096	-0,045
-288,847	-20,233	-0,090	-0,040
-287,832	29,367	-0,154	-0,095
-286,818	39,426	0,101	-0,066
-285,803	800,000	0,009	0,026
-284,789	-66,791	0,063	0,018
-283,774	-6,237	0,057	-0,028
-282,759	-133,603	-0,096	-0,009
-281,745	551,989	-0,047	-0,082
-280,730	113,357	-0,049	-0,043
-279,716	562,794	-0,039	0,069
-278,701	-75,428	-0,095	-0,024
-277,686	140,984	0,146	0,141
-276,672	-67,705	0,091	-0,026
-275,657	48,920	-0,083	0,057
-274,643	-76,889	-0,073	-0,018
-273,628	800,000	-0,054	-0,123
-272,613	-200,000	-0,003	-0,111
-271,599	335,962	0,087	-0,124
-270,584	78,350	0,080	0,062
-269,570	-200,000	-0,046	0,164
-268,555	800,000	0,014	0,033
-267,540	193,313	0,044	0,049
-266,526	61,997	-0,120	-0,087
-265,511	40,668	-0,101	-0,066
-264,497	154,333	0,024	-0,024
-263,482	18,345	-0,035	0,020
-262,467	526,845	-0,029	-0,050
-261,453	673,339	-0,060	-0,114
-260,438	-102,541	0,150	-0,026
-259,424	79,602	0,063	0,049
-258,409	373,796	-0,011	-0,016
-257,395	800,000	-0,017	0,054
-256,380	-128,626	-0,145	0,015
-255,365	494,271	0,020	0,034
-254,351	-137,049	-0,018	-0,001
-253,336	-133,551	-0,133	-0,012
-252,322	800,000	-0,021	-0,045
-251,307	292,772	0,103	-0,137
-250,292	-200,000	0,055	-0,201
-249,278	-200,000	0,006	0,104
-248,263	800,000	0,047	0,125
-247,249	-58,887	-0,040	-0,013
-246,234	-200,000	0,027	-0,098
-245,219	-200,000	-0,024	0,162
-244,205	-200,000	-0,053	-0,186
-243,190	-15,153	-0,034	0,016
-242,176	-200,000	0,023	0,111
-241,161	800,000	-0,078	0,213
-240,146	800,000	-0,021	0,067
-239,132	-200,000	0,011	0,067
-238,117	-131,591	-0,134	0,013
-237,103	-155,418	0,040	-0,002
-236,088	-18,778	-0,078	-0,035
-235,073	-17,216	-0,047	0,022
-234,059	119,289	0,035	0,031
-233,044	79,931	0,101	0,079
-232,030	-34,022	0,129	-0,051
-231,015	-200,000	-0,001	-0,030
-230,000	-124,787	-0,146	-0,016
-228,986	40,119	-0,051	-0,033
-227,971	349,168	0,048	-0,069
-226,957	-137,462	0,099	-0,008
-225,942	214,541	-0,041	0,048
-224,927	-200,000	0,027	-0,136
-223,913	-200,000	-0,011	-0,063
-222,898	800,000	0,013	-0,034
-221,884	-11,243	0,160	-0,077
-220,869	800,000	-0,046	-0,100
-219,855	800,000	0,037	-0,096
-218,840	800,000	0,011	-0,028
-217,825	424,184	-0,066	0,105
-216,811	800,000	-0,023	0,056
-215,796	800,000	-0,061	-0,156
-214,782	-200,000	0,003	0,039
-213,767	12,529	-0,036	-0,020
-212,752	-200,000	0,031	-0,126
-211,738	248,763	0,033	0,041
-210,723	-200,000	0,001	0,053
-209,709	291,158	0,022	0,029
-208,694	365,881	-0,016	-0,024
-207,679	-200,000	-0,007	-0,078
-206,665	-200,000	-0,011	-0,089
-205,650	-200,000	-0,023	0,114
-204,636	-8,722	0,152	0,074
-203,621	-51,689	-0,074	-0,025
-202,606	3,525	0,026	0,014
-201,592	625,619	0,045	0,083
-200,577	800,000	-0,027	-0,059
-199,563	-200,000	0,021	-0,072
-198,548	116,928	0,095	-0,085
-197,533	800,000	0,008	0,020
-196,519	800,000	0,043	0,099
-195,504	417,492	0,078	-0,121
-194,490	-200,000	-0,013	-0,115
-193,475	183,266	0,048	-0,052
-192,460	-200,000	0,033	-0,123
-191,446	-200,000	0,005	0,056
-190,431	-143,111	0,120	0,008
-189,417	-200,000	0,007	0,155
-188,402	-200,000	-0,021	0,129
-187,387	800,000	-0,003	0,005
-186,373	395,603	-0,051	-0,077
-185,358	-200,000	0,008	0,088
-184,344	-53,973	0,175	-0,058
-183,329	707,369	-0,034	0,066
-182,315	-200,000	0,014	0,059
-181,300	15,523	0,080	0,046
-180,285	-200,000	-0,004	0,103
-179,271	243,953	0,088	-0,108
-178,256	-200,000	-0,049	0,000
-177,242	51,437	0,088	-0,061
-176,227	-200,000	0,015	0,113
-175,212	800,000	-0,047	0,147
-174,198	87,512	-0,060	-0,048
-173,183	800,000	-0,058	-0,146
-172,169	29,193	0,061	0,037
-171,154	-63,923	-0,164	-0,049
-170,139	-200,000	-0,008	0,074
-169,125	-19,553	-0,098	-0,044
-168,110	8,043	0,073	0,040
-167,096	-39,177	0,157	-0,060
-166,081	-59,573	-0,116	0,036
-165,066	-200,000	-0,007	0,023
-164,052	14,503	0,080	-0,046
-163,037	800,000	0,049	0,116
-162,023	77,999	0,146	0,114
-161,008	800,000	0,022	0,067
-159,993	329,705	0,046	0,065
-158,979	119,397	-0,104	-0,094
-157,964	781,225	0,082	-0,164
-156,950	244,963	0,029	-0,035
-155,935	-200,000	0,007	-0,059
-154,920	-134,521	0,060	0,005
-153,906	-200,000	-0,005	0,094
-152,891	-60,615	-0,028	-0,009
-151,877	237,715	-0,093	-0,112
-150,862	-84,384	0,058	0,013
-149,847	-200,000	-0,008	-0,049
-148,833	800,000	-0,046	-0,094
-147,818	7,366	-0,144	0,078
-146,804	179,827	-0,107	0,114
-145,789	244,852	0,060	0,073
-144,775	209,302	-0,145	0,165
-143,760	800,000	-0,008	-0,022
-142,745	-115,092	0,019	-0,003
-141,731	143,395	0,034	-0,033
-140,716	221,919	-0,076	0,089
-139,702	193,396	-0,103	0,114
-138,687	-107,557	0,112	0,018
-137,672	-153,994	0,123	-0,006
-136,658	-200,000	-0,025	-0,100
-135,643	43,831	-0,102	-0,068
-134,629	779,354	0,043	-0,086
-133,614	-200,000	-0,014	0,085
-132,599	-77,291	0,120	0,030
-131,585	297,575	0,064	-0,086
-130,570	75,225	-0,089	0,068
-129,556	328,109	-0,075	-0,105
-128,541	655,647	0,027	0,050
-127,526	594,690	-0,054	0,097
-126,512	-48,216	-0,063	0,022
-125,497	176,273	0,069	-0,073
-124,483	-200,000	0,029	0,112
-123,468	-52,705	0,122	0,041
-122,453	143,143	-0,095	-0,092
-121,439	45,133	0,066	-0,044
-120,424	-31,169	0,134	0,055
