DTS Sentinel unit serial number:	SN410029Multiplexer serial number:	ORYXHardware model number:	OX2-SRSoftware version number:	ORYX F/W v4,00 Oryx Data Collector v3.7.2.0data status	okinstallation	B4 Nyhavnadifferential loss correction	single-endedforward channel	channel 2reverse channel	N/Adate	2023/12/19time	10:00:13forward acquisition time	300,00reverse acquisition time	0,00gamma	499,1914k internal	0,3127k external	0,3127temperature offset calibration	1,0000default loss term (dB/km)	0,3820temperature slope calibration	1,0000multiplexer offset coefficient	1,0000multiplexer slope coefficient	1,0000fibre end	0,00T internal ref (°C)	20,26T ext. ref 1 (°C)	4,92T ext. ref 2 (°C)	4,88length (m)	temperature (°C)	Stokes	anti-Stokes-744,400	-26,381	0,097	0,042
-743,385	372,280	-0,096	0,146
-742,371	462,683	-0,042	0,069
-741,356	-168,139	-0,207	0,006
-740,342	-200,000	0,019	0,077
-739,327	90,512	-0,080	0,066
-738,312	-103,568	0,032	0,006
-737,298	-120,443	-0,250	0,031
-736,283	-29,254	0,099	-0,042
-735,269	-146,121	-0,210	-0,014
-734,254	800,000	-0,036	0,090
-733,239	-82,451	-0,403	-0,097
-732,225	-107,896	0,202	0,032
-731,210	87,842	-0,016	0,013
-730,196	52,052	0,034	0,024
-729,181	-60,536	-0,068	0,021
-728,167	-200,000	-0,021	-0,135
-727,152	-200,000	-0,005	-0,056
-726,137	26,849	-0,111	-0,069
-725,123	-49,265	-0,060	0,021
-724,108	75,381	-0,124	-0,097
-723,094	-200,000	0,012	-0,064
-722,079	-156,197	-0,113	-0,005
-721,064	373,453	-0,075	-0,113
-720,050	33,443	-0,052	0,033
-719,035	161,001	-0,057	-0,059
-718,021	-43,513	0,021	0,008
-717,006	-105,673	-0,085	-0,014
-715,991	157,622	-0,069	0,071
-714,977	681,786	-0,099	-0,192
-713,962	-200,000	0,018	-0,094
-712,948	197,777	0,041	0,047
-711,933	-114,783	0,053	-0,007
-710,918	-200,000	-0,012	-0,139
-709,904	107,627	-0,096	0,085
-708,889	202,787	-0,048	0,055
-707,875	31,736	-0,140	0,089
-706,860	800,000	-0,033	0,071
-705,845	-25,758	0,094	-0,041
-704,831	623,136	-0,054	-0,101
-703,816	800,000	0,033	0,070
-702,802	-154,543	-0,165	-0,008
-701,787	396,397	-0,106	0,164
-700,772	774,711	-0,098	-0,199
-699,758	-46,772	-0,071	0,026
-698,743	-153,224	-0,145	0,007
-697,729	800,000	0,003	0,010
-696,714	27,410	-0,106	-0,066
-695,699	147,120	0,024	0,024
-694,685	800,000	0,039	0,099
-693,670	1,677	-0,029	0,016
-692,656	-47,502	0,139	-0,050
-691,641	-192,685	-0,038	-0,000
-690,627	800,000	0,020	0,044
-689,612	1,161	-0,034	0,018
-688,597	196,838	-0,016	-0,018
-687,583	800,000	-0,042	-0,091
-686,568	800,000	0,027	-0,068
-685,554	-200,000	-0,001	-0,100
-684,539	-173,876	0,193	0,004
-683,524	-71,345	0,045	-0,012
-682,510	296,964	0,020	0,027
-681,495	194,271	-0,029	-0,033
-680,481	800,000	-0,062	-0,131
-679,466	44,904	-0,060	-0,041
-678,451	-200,000	0,003	0,036
-677,437	-200,000	-0,012	0,130
-676,422	293,631	0,068	0,092
-675,408	-200,000	0,002	-0,034
-674,393	336,545	0,043	-0,062
-673,378	8,075	-0,009	-0,005
-672,364	295,747	-0,056	-0,076
-671,349	53,555	-0,131	-0,093
-670,335	7,243	-0,012	-0,007
-669,320	142,322	-0,053	-0,052
-668,305	109,592	-0,021	0,019
-667,291	125,939	0,096	0,090
-666,276	21,667	-0,120	-0,072
-665,262	212,076	-0,088	-0,103
-664,247	304,910	-0,066	-0,091
-663,232	94,166	-0,100	-0,084
-662,218	-80,938	0,117	0,029
-661,203	-96,090	0,033	-0,007
-660,189	60,832	-0,055	0,040
-659,174	-23,620	-0,079	-0,035
-658,159	205,523	-0,016	0,018
-657,145	32,961	-0,055	-0,035
-656,130	30,537	0,121	-0,076
-655,116	569,150	0,006	-0,010
-654,101	-53,249	0,083	-0,028
-653,086	46,738	-0,107	0,074
-652,072	91,408	0,091	-0,076
-651,057	70,090	-0,060	-0,046
-650,043	383,389	-0,040	-0,062
-649,028	121,236	-0,064	-0,059
-648,014	-88,660	0,018	0,004
-646,999	-101,671	0,048	0,008
-645,984	-200,000	-0,031	0,138
-644,970	134,693	0,024	-0,023
-643,955	-5,547	0,027	0,014
-642,941	-200,000	-0,001	-0,054
-641,926	-200,000	-0,013	-0,068
-640,911	-200,000	0,033	-0,113
-639,897	-200,000	-0,002	-0,017
-638,882	-22,055	-0,094	-0,042
-637,868	65,958	0,095	0,071
-636,853	-135,332	-0,111	-0,010
-635,838	-200,000	-0,006	0,031
-634,824	-34,827	-0,122	0,049
-633,809	40,552	0,110	0,074
-632,795	508,749	-0,025	0,043
-631,780	91,861	0,072	0,060
-630,765	128,861	0,040	-0,038
-629,751	583,119	-0,069	0,125
-628,736	-114,684	-0,111	-0,016
-627,722	300,642	-0,022	-0,030
-626,707	423,468	0,017	0,028
-625,692	670,062	0,056	-0,108
-624,678	-2,474	0,068	0,035
-623,663	118,039	-0,044	0,040
-622,649	-44,295	-0,142	0,052
-621,634	800,000	0,035	-0,094
-620,619	289,800	0,039	-0,052
-619,605	-61,536	0,067	0,021
-618,590	-93,507	0,047	0,009
-617,576	800,000	0,045	0,125
-616,561	-43,561	-0,160	0,059
-615,546	800,000	-0,061	0,128
-614,532	289,562	-0,076	-0,102
-613,517	534,489	-0,031	-0,055
-612,503	441,192	-0,049	0,080
-611,488	-146,916	0,135	-0,008
-610,474	780,614	0,031	0,064
-609,459	-20,291	-0,117	-0,053
-608,444	-28,330	-0,051	-0,022
-607,430	-200,000	-0,023	-0,079
-606,415	-135,612	-0,075	-0,007
-605,401	-160,945	-0,149	-0,006
-604,386	-200,000	0,025	0,145
-603,371	-4,705	0,059	-0,030
-602,357	-200,000	0,000	-0,006
-601,342	-200,000	0,017	-0,066
-600,328	533,852	-0,062	-0,109
-599,313	-47,407	0,170	-0,061
-598,298	-200,000	-0,004	0,017
-597,284	-138,848	0,108	0,009
-596,269	462,378	-0,039	0,065
-595,255	800,000	-0,052	-0,128
-594,240	800,000	0,017	-0,036
-593,225	-148,544	-0,124	0,007
-592,211	75,354	-0,175	-0,137
-591,196	388,699	0,080	-0,123
-590,182	693,435	-0,034	0,067
-589,167	800,000	0,016	0,045
-588,152	-53,911	-0,053	0,018
-587,138	-200,000	-0,003	-0,059
-586,123	-81,591	-0,088	0,021
-585,109	46,762	-0,123	-0,084
-584,094	-14,678	-0,124	-0,059
-583,079	67,763	0,085	-0,064
-582,065	-200,000	-0,035	0,131
-581,050	78,027	0,061	0,048
-580,036	-200,000	0,015	-0,061
-579,021	88,849	-0,088	0,072
-578,006	308,604	-0,052	-0,072
-576,992	-200,000	-0,019	-0,086
-575,977	-200,000	-0,021	0,090
-574,963	-57,398	0,112	-0,036
-573,948	-103,604	0,070	-0,012
-572,934	71,819	-0,030	0,023
-571,919	-50,709	-0,035	-0,012
-570,904	-200,000	-0,026	-0,121
-569,890	-200,000	0,009	-0,111
-568,875	-57,283	0,023	-0,007
-567,861	-65,278	-0,058	-0,017
-566,846	-200,000	0,017	0,115
-565,831	246,305	0,081	0,101
-564,817	-20,862	0,085	-0,039
-563,802	-21,553	-0,082	0,037
-562,788	-69,595	-0,084	0,023
-561,773	-42,505	0,071	0,027
-560,758	474,518	0,054	0,090
-559,744	-200,000	0,026	-0,150
-558,729	55,534	0,048	-0,034
-557,715	132,625	-0,032	0,030
-556,700	-52,654	-0,119	-0,040
-555,685	-200,000	-0,001	-0,061
-554,671	93,372	-0,126	0,105
-553,656	4,777	0,118	0,064
-552,642	-108,736	-0,052	-0,008
-551,627	290,406	-0,077	0,104
-550,612	-200,000	-0,044	0,157
-549,598	206,277	-0,041	-0,048
-548,583	-200,000	-0,001	0,009
-547,569	-102,364	-0,020	0,004
-546,554	-87,240	0,134	0,030
-545,539	-200,000	0,017	0,081
-544,525	256,076	-0,053	0,067
-543,510	67,674	-0,040	0,030
-542,496	33,278	-0,016	0,010
-541,481	230,920	-0,033	-0,040
-540,466	66,356	0,017	0,013
-539,452	107,622	0,131	-0,115
-538,437	-100,862	0,029	-0,005
-537,423	-97,456	-0,022	-0,004
-536,408	491,634	-0,037	-0,062
-535,393	112,861	-0,040	-0,036
-534,379	-4,797	-0,084	-0,043
-533,364	-1,140	-0,019	-0,010
-532,350	-92,564	0,042	0,009
-531,335	344,863	-0,020	-0,029
-530,321	-200,000	-0,003	0,046
-529,306	47,894	0,038	0,026
-528,291	800,000	-0,018	0,040
-527,277	133,119	0,092	-0,088
-526,262	29,411	0,092	-0,057
-525,248	-200,000	-0,030	-0,135
-524,233	-40,347	0,130	-0,050
-523,218	-200,000	0,020	-0,088
-522,204	262,960	0,053	-0,068
-521,189	202,975	-0,031	-0,036
-520,175	800,000	-0,013	0,039
-519,160	800,000	0,043	0,134
-518,145	245,444	-0,042	-0,053
-517,131	-200,000	0,035	0,117
-516,116	-142,194	-0,038	-0,003
-515,102	342,510	-0,039	0,057
-514,087	-200,000	0,007	-0,131
-513,072	193,974	0,046	-0,052
-512,058	800,000	-0,015	-0,038
-511,043	268,020	0,078	0,101
-510,029	554,054	0,045	0,079
-509,014	31,645	0,082	0,052
-507,999	-200,000	0,008	-0,062
-506,985	-200,000	-0,017	-0,078
-505,970	800,000	-0,059	-0,138
-504,956	800,000	0,041	-0,092
-503,941	-200,000	-0,007	-0,035
-502,926	2,817	0,097	-0,052
-501,912	-75,306	-0,191	-0,050
-500,897	-84,989	0,098	0,022
-499,883	-200,000	-0,005	-0,060
-498,868	-19,252	-0,045	-0,020
-497,853	755,943	-0,057	-0,115
-496,839	17,020	0,031	0,018
-495,824	287,389	0,082	0,109
-494,810	44,279	0,081	0,055
-493,795	62,872	0,038	-0,028
-492,781	-87,541	-0,061	-0,013
-491,766	-200,000	-0,004	-0,086
-490,751	30,165	0,027	-0,017
-489,737	-65,466	0,151	-0,044
-488,722	61,582	0,075	-0,055
-487,708	-11,283	0,121	0,058
-486,693	-129,434	-0,126	0,013
-485,678	-61,893	-0,029	-0,009
-484,664	44,327	-0,084	-0,057
-483,649	-200,000	0,024	0,103
-482,635	8,631	-0,041	0,022
-481,620	799,193	-0,046	-0,095
-480,605	505,027	-0,048	0,082
-479,591	-135,560	-0,075	0,007
-478,576	-200,000	-0,001	-0,122
-477,562	-108,776	-0,054	-0,008
-476,547	283,105	0,070	-0,093
-475,532	322,117	0,053	-0,075
-474,518	368,479	0,064	-0,096
-473,503	424,241	0,064	0,101
-472,489	168,472	0,116	0,122
-471,474	20,732	-0,085	-0,051
-470,459	21,317	0,114	-0,068
-469,445	-50,066	0,078	-0,027
-468,430	-52,021	-0,029	-0,010
-467,416	142,621	0,025	0,024
-466,401	159,227	0,057	0,058
-465,386	188,646	0,046	-0,051
-464,372	-101,876	-0,177	-0,031
-463,357	-200,000	-0,008	-0,112
-462,343	-200,000	0,013	-0,103
-461,328	800,000	-0,036	-0,080
-460,313	-200,000	0,011	-0,148
-459,299	-200,000	0,024	0,124
-458,284	285,476	0,069	0,091
-457,270	466,017	0,024	0,040
-456,255	-200,000	-0,006	-0,041
-455,241	-200,000	0,004	0,014
-454,226	800,000	0,034	-0,098
-453,211	-44,452	-0,069	-0,025
-452,197	-75,494	0,087	0,023
-451,182	139,148	-0,011	0,011
-450,168	650,592	-0,040	0,076
-449,153	164,828	-0,098	-0,102
-448,138	-174,562	0,130	0,003
-447,124	369,706	-0,078	-0,116
-446,109	800,000	-0,025	-0,060
-445,095	-200,000	0,031	-0,203
-444,080	492,357	-0,082	0,138
-443,065	800,000	-0,039	-0,099
-442,051	-200,000	-0,001	0,098
-441,036	-200,000	0,003	0,018
-440,022	9,144	-0,014	0,008
-439,007	437,172	0,043	0,069
-437,992	-57,284	-0,028	0,009
-436,978	-76,483	0,087	-0,022
-435,963	-200,000	-0,003	0,039
-434,949	0,794	0,079	0,041
-433,934	-200,000	0,001	-0,186
-432,919	-102,211	-0,085	0,015
-431,905	108,645	0,074	-0,065
-430,890	115,927	0,127	0,115
-429,876	51,686	0,091	-0,063
-428,861	-200,000	0,016	-0,101
-427,846	800,000	-0,041	-0,093
-426,832	77,312	-0,047	-0,037
-425,817	-61,580	-0,126	0,039
-424,803	219,867	0,047	-0,055
-423,788	62,879	0,053	-0,039
-422,773	-125,600	0,199	0,022
-421,759	-200,000	-0,016	0,097
-420,744	800,000	-0,040	0,111
-419,730	800,000	-0,053	-0,128
-418,715	-89,963	-0,086	-0,018
-417,701	-73,235	-0,045	-0,012
-416,686	135,584	0,109	-0,104
-415,671	-200,000	-0,002	0,094
-414,657	238,030	0,040	0,049
-413,642	-200,000	-0,035	0,178
-412,628	76,633	0,047	0,036
-411,613	800,000	-0,026	0,055
-410,598	-200,000	0,021	-0,104
-409,584	-13,296	-0,058	-0,028
-408,569	-50,831	-0,107	-0,037
-407,555	-67,889	0,090	-0,026
-406,540	-200,000	0,006	-0,072
-405,525	734,744	0,054	0,106
-404,511	-197,690	-0,164	-0,001
-403,496	-200,000	0,009	0,031
-402,482	156,091	0,158	0,161
-401,467	-159,913	-0,043	0,002
-400,452	2,226	-0,120	0,064
-399,438	448,434	-0,012	-0,020
-398,423	394,031	-0,028	0,042
-397,409	481,763	0,025	0,041
-396,394	164,167	-0,057	0,059
-395,379	154,995	0,073	0,074
-394,365	756,585	0,031	-0,062
-393,350	-200,000	0,004	0,034
-392,336	601,951	-0,012	0,023
-391,321	-59,533	-0,037	-0,011
-390,306	-167,533	0,111	0,003
-389,292	-200,000	-0,020	-0,095
-388,277	50,604	0,126	-0,087
-387,263	-157,665	-0,061	-0,003
-386,248	164,354	0,176	0,183
-385,233	800,000	0,013	-0,035
-384,219	396,061	0,042	0,065
-383,204	-200,000	-0,028	-0,103
-382,190	-200,000	-0,017	-0,107
-381,175	223,052	-0,037	0,044
-380,160	516,605	-0,041	0,071
-379,146	-59,697	0,112	-0,035
-378,131	800,000	0,048	0,101
-377,117	-78,565	-0,065	-0,016
-376,102	185,275	0,037	-0,041
-375,088	42,193	0,061	-0,041
-374,073	800,000	-0,040	0,104
-373,058	358,041	-0,033	0,048
-372,044	-200,000	-0,004	0,050
-371,029	-200,000	0,029	0,173
-370,015	800,000	-0,045	-0,111
-369,000	-150,554	-0,118	-0,007
-367,985	-200,000	-0,017	-0,079
-366,971	88,721	-0,043	-0,035
-365,956	-28,585	0,075	-0,031
-364,942	-56,635	0,129	0,042
-363,927	-107,239	0,084	0,013
-362,912	-200,000	0,011	-0,046
-361,898	272,903	-0,044	0,058
-360,883	144,496	-0,090	0,088
-359,869	81,436	-0,019	-0,015
-358,854	-200,000	0,041	0,203
-357,839	273,264	0,081	0,105
-356,825	66,019	0,051	0,038
-355,810	553,032	-0,067	-0,118
-354,796	800,000	-0,031	-0,097
-353,781	696,403	0,026	-0,051
-352,766	83,211	-0,150	-0,120
-351,752	-17,012	0,012	0,005
-350,737	800,000	0,030	0,077
-349,723	297,129	0,006	-0,008
-348,708	-19,502	0,016	-0,007
-347,693	33,133	-0,127	-0,081
-346,679	-4,255	-0,070	-0,036
-345,664	286,897	-0,068	0,090
-344,650	10,808	0,024	-0,014
-343,635	5,846	-0,106	0,057
-342,620	223,073	0,087	0,103
-341,606	186,775	-0,079	0,086
-340,591	-81,548	0,097	-0,023
-339,577	-67,704	-0,076	-0,022
-338,562	-121,258	0,070	0,008
-337,548	-81,486	-0,021	-0,005
-336,533	138,025	-0,036	-0,034
-335,518	784,148	0,030	0,060
-334,504	268,227	-0,020	-0,026
-333,489	14,890	-0,031	-0,017
-332,475	-200,000	-0,018	-0,114
-331,460	57,631	0,093	-0,067
-330,445	-184,302	0,052	0,001
-329,431	-30,071	0,140	0,058
-328,416	-107,292	-0,029	-0,005
-327,402	95,551	0,052	0,043
-326,387	28,629	-0,044	0,027
-325,372	-91,697	0,026	-0,005
-324,358	-200,000	-0,009	-0,051
-323,343	319,350	0,014	-0,019
-322,329	25,835	0,009	-0,005
-321,314	796,553	0,070	0,143
-320,299	-54,831	0,050	-0,016
-319,285	553,055	0,022	0,039
-318,270	358,549	0,054	0,080
-317,256	-200,000	-0,002	-0,074
-316,241	-200,000	0,001	0,099
-315,226	-115,490	0,076	0,010
-314,212	276,744	-0,054	-0,071
-313,197	-200,000	-0,009	0,040
-312,183	800,000	-0,050	0,131
-311,168	515,141	0,059	-0,102
-310,153	-171,827	0,058	0,001
-309,139	-127,485	-0,042	0,004
-308,124	14,083	0,043	0,025
-307,110	-127,528	-0,169	0,018
-306,095	13,752	0,204	0,116
-305,080	-200,000	-0,025	0,182
-304,066	-93,804	0,094	-0,019
-303,051	-38,742	-0,055	0,021
-302,037	45,462	-0,053	-0,036
-301,022	-200,000	0,022	0,098
-300,008	-60,454	-0,067	-0,021
-298,993	-200,000	-0,005	0,030
-297,978	-107,136	0,098	-0,016
-296,964	140,094	0,061	-0,059
-295,949	-127,330	-0,058	0,006
-294,935	466,370	-0,059	-0,097
-293,920	52,220	0,046	0,032
-292,905	764,604	0,027	-0,055
-291,891	797,284	0,047	-0,094
-290,876	67,984	0,045	0,034
-289,862	-151,385	-0,024	0,001
-288,847	559,495	0,044	0,079
-287,832	100,314	-0,099	-0,084
-286,818	-200,000	-0,025	0,115
-285,803	-88,365	0,063	-0,014
-284,789	186,987	0,040	-0,043
-283,774	11,627	0,059	-0,033
-282,759	-200,000	-0,013	-0,054
-281,745	-28,715	0,017	0,007
-280,730	-103,422	0,086	0,015
-279,716	288,150	-0,043	0,057
-278,701	-131,851	0,153	0,014
-277,686	-200,000	0,000	0,041
-276,672	100,616	-0,029	0,024
-275,657	755,812	-0,017	0,033
-274,643	800,000	-0,051	-0,119
-273,628	-200,000	0,003	-0,140
-272,613	800,000	0,041	-0,099
-271,599	-33,400	0,166	-0,067
-270,584	-11,759	0,078	-0,037
-269,570	-200,000	-0,012	-0,199
-268,555	-200,000	-0,013	-0,073
-267,540	134,401	0,045	0,043
-266,526	-45,643	-0,158	-0,057
-265,511	-112,499	0,083	-0,012
-264,497	800,000	0,015	-0,033
-263,482	-70,919	0,049	0,013
-262,467	652,612	-0,062	-0,118
-261,453	90,447	0,090	0,074
-260,438	-92,522	-0,124	-0,025
-259,424	-106,551	-0,031	-0,005
-258,409	-103,090	-0,035	-0,006
-257,395	127,393	0,113	0,105
-256,380	123,292	0,064	0,058
-255,365	540,576	0,032	0,055
-254,351	100,924	-0,050	0,043
-253,336	800,000	-0,029	-0,082
-252,322	-160,767	-0,180	0,007
-251,307	-120,118	-0,026	0,003
-250,292	-90,880	-0,075	0,016
-249,278	-200,000	-0,000	-0,027
-248,263	516,391	0,072	0,123
-247,249	226,724	0,035	0,042
-246,234	-200,000	0,056	-0,260
-245,219	-200,000	-0,013	0,069
-244,205	-127,015	0,139	0,015
-243,190	-42,601	-0,120	-0,044
-242,176	-200,000	-0,003	-0,048
-241,161	-143,033	0,025	-0,002
-240,146	342,710	0,021	0,030
-239,132	242,312	0,030	0,037
-238,117	-200,000	-0,029	0,171
-237,103	12,326	-0,043	0,024
-236,088	-61,124	0,058	0,018
-235,073	175,371	-0,094	0,100
-234,059	-38,102	0,007	0,003
-233,044	30,275	-0,030	0,019
-232,030	-102,901	-0,121	0,021
-231,015	519,909	-0,035	0,060
-230,000	-200,000	-0,004	-0,110
-228,986	-200,000	-0,006	-0,051
-227,971	463,932	0,010	0,016
-226,957	-99,322	-0,094	-0,017
-225,942	-3,553	-0,049	0,025
-224,927	800,000	0,032	0,077
-223,913	108,413	-0,146	0,127
-222,898	-173,104	-0,067	0,001
-221,884	40,934	0,048	-0,032
-220,869	-200,000	0,015	0,136
-219,855	-26,578	-0,041	-0,017
-218,840	380,691	-0,043	-0,064
-217,825	344,788	0,042	0,060
-216,811	-200,000	-0,026	-0,096
-215,796	-59,588	-0,054	-0,017
-214,782	324,398	-0,076	-0,106
-213,767	211,294	0,032	0,037
-212,752	79,601	0,147	0,115
-211,738	147,803	-0,046	-0,045
-210,723	294,795	0,095	0,127
-209,709	800,000	0,069	0,140
-208,694	-28,518	-0,108	0,045
-207,679	-200,000	0,231	0,000
-206,665	800,000	0,032	-0,090
-205,650	-32,876	-0,082	0,033
-204,636	200,909	0,135	0,151
-203,621	-200,000	0,012	0,062
-202,606	-21,767	0,068	0,030
-201,592	-60,230	-0,124	0,038
-200,577	-200,000	-0,001	0,046
-199,563	800,000	0,047	-0,108
-198,548	-110,441	0,096	0,014
-197,533	142,623	0,048	0,046
-196,519	-200,000	-0,020	0,117
-195,504	-38,358	0,055	-0,021
-194,490	388,483	-0,028	-0,042
-193,475	39,155	0,017	-0,011
-192,460	-33,420	-0,112	-0,045
-191,446	-200,000	0,027	0,147
-190,431	800,000	-0,015	0,041
-189,417	0,210	-0,072	0,038
-188,402	-76,721	-0,069	0,017
-187,387	-113,767	-0,075	-0,011
-186,373	-6,443	-0,049	-0,024
-185,358	-40,266	-0,113	0,043
-184,344	53,529	-0,116	-0,081
-183,329	33,962	-0,016	0,010
-182,315	207,613	-0,023	-0,027
-181,300	24,263	-0,119	-0,071
-180,285	800,000	0,025	-0,067
-179,271	-174,180	-0,096	0,002
-178,256	-125,141	0,062	0,007
-177,242	-114,239	0,032	-0,004
-176,227	-51,672	0,072	-0,024
-175,212	83,461	0,034	0,027
-174,198	800,000	0,043	0,098
-173,183	-80,101	-0,073	-0,018
-172,169	-200,000	-0,014	-0,066
-171,154	160,177	-0,062	-0,062
-170,139	30,629	0,062	0,039
-169,125	557,777	0,069	0,121
-168,110	299,709	-0,102	0,138
-167,096	-200,000	0,004	0,169
-166,081	-200,000	-0,027	-0,115
-165,066	109,867	0,025	-0,022
-164,052	-35,851	0,119	-0,046
-163,037	31,816	-0,103	0,064
-162,023	122,751	0,016	0,014
-161,008	28,454	-0,058	-0,035
-159,993	-60,730	0,073	0,022
-158,979	519,555	-0,081	-0,138
-157,964	-200,000	-0,006	-0,040
-156,950	417,027	-0,044	0,069
-155,935	-200,000	-0,001	-0,074
-154,920	123,577	-0,097	0,088
-153,906	405,097	0,036	0,055
-152,891	-200,000	-0,001	0,078
-151,877	800,000	-0,019	0,050
-150,862	-56,102	-0,103	0,033
-149,847	-68,637	-0,060	-0,017
-148,833	15,337	0,062	0,035
-147,818	800,000	-0,028	0,066
-146,804	800,000	-0,038	0,115
-145,789	112,686	0,069	-0,061
-144,775	-156,507	-0,203	-0,009
-143,760	325,549	0,056	-0,078
-142,745	-200,000	0,013	-0,172
-141,731	654,731	-0,030	-0,057
-140,716	52,740	0,108	0,075
-139,702	-200,000	0,005	0,023
-138,687	800,000	0,053	0,108
-137,672	800,000	-0,026	-0,060
-136,658	-200,000	-0,002	-0,081
-135,643	-74,871	-0,157	0,041
-134,629	-200,000	0,009	0,109
-133,614	743,931	0,029	0,057
-132,599	129,833	-0,141	0,131
-131,585	-63,981	0,035	-0,010
-130,570	-45,182	0,078	0,028
-129,556	25,939	-0,016	-0,010
-128,541	800,000	-0,021	-0,066
-127,526	436,096	-0,034	-0,055
-126,512	48,578	-0,137	-0,093
-125,497	-1,617	0,088	0,045
-124,483	-116,622	-0,074	0,010
-123,468	-200,000	-0,019	0,083
-122,453	342,674	-0,037	-0,053
-121,439	592,694	0,036	0,066
-120,424	800,000	-0,049	-0,102
-119,410	-55,824	-0,038	0,012
