DTS Sentinel unit serial number:	SN410029Multiplexer serial number:	ORYXHardware model number:	OX2-SRSoftware version number:	ORYX F/W v4,00 Oryx Data Collector v3.7.2.0data status	okinstallation	B4 Nyhavnadifferential loss correction	single-endedforward channel	channel 2reverse channel	N/Adate	2023/12/16time	01:15:13forward acquisition time	300,00reverse acquisition time	0,00gamma	499,1914k internal	0,3129k external	0,3129temperature offset calibration	1,0000default loss term (dB/km)	0,3820temperature slope calibration	1,0000multiplexer offset coefficient	1,0000multiplexer slope coefficient	1,0000fibre end	0,00T internal ref (°C)	21,91T ext. ref 1 (°C)	6,99T ext. ref 2 (°C)	7,19length (m)	temperature (°C)	Stokes	anti-Stokes-744,400	-200,000	-0,014	-0,060
-743,385	111,750	-0,166	0,149
-742,371	-84,800	0,151	-0,035
-741,356	-98,452	-0,232	0,044
-740,342	-107,997	0,149	-0,024
-739,327	26,137	-0,200	0,124
-738,312	-94,256	0,037	0,007
-737,298	48,788	-0,090	0,063
-736,283	317,394	0,051	-0,072
-735,269	-54,483	-0,231	0,077
-734,254	20,874	0,017	-0,010
-733,239	-71,772	-0,354	-0,098
-732,225	110,634	-0,030	-0,026
-731,210	-18,390	0,049	0,023
-730,196	610,372	-0,111	-0,207
-729,181	-200,000	0,010	-0,127
-728,167	198,639	0,097	0,111
-727,152	10,112	0,015	0,009
-726,137	384,078	0,037	0,058
-725,123	-94,904	0,053	0,011
-724,108	507,666	-0,028	-0,049
-723,094	30,428	-0,052	0,033
-722,079	490,760	-0,038	-0,065
-721,064	-180,836	0,128	-0,002
-720,050	191,850	-0,118	0,133
-719,035	202,738	-0,043	0,049
-718,021	-139,615	0,103	0,008
-717,006	130,903	-0,145	-0,138
-715,991	243,387	0,019	0,024
-714,977	96,250	0,020	-0,017
-713,962	-145,234	0,088	0,006
-712,948	476,464	0,007	-0,011
-711,933	60,591	0,155	0,114
-710,918	506,634	0,052	0,089
-709,904	-133,446	-0,089	-0,008
-708,889	-101,930	-0,153	-0,027
-707,875	8,388	-0,055	-0,031
-706,860	800,000	-0,013	0,038
-705,845	-200,000	0,011	-0,091
-704,831	-20,318	-0,019	0,009
-703,816	800,000	-0,063	-0,145
-702,802	-96,273	-0,052	-0,010
-701,787	635,620	-0,013	-0,025
-700,772	200,583	-0,056	-0,064
-699,758	800,000	-0,030	0,090
-698,743	-24,854	0,143	-0,063
-697,729	14,078	-0,126	0,073
-696,714	246,561	-0,074	0,093
-695,699	111,044	-0,096	0,085
-694,685	400,635	-0,075	-0,117
-693,670	645,148	0,020	0,038
-692,656	131,632	0,088	0,084
-691,641	700,918	-0,056	0,111
-690,627	685,926	-0,047	0,092
-689,612	-200,000	0,003	0,045
-688,597	-84,985	-0,067	-0,015
-687,583	134,401	-0,088	-0,085
-686,568	379,691	0,034	0,052
-685,554	-90,383	-0,059	-0,013
-684,539	-77,902	0,027	0,007
-683,524	-12,419	-0,060	-0,029
-682,510	-169,466	0,100	0,003
-681,495	800,000	0,068	-0,190
-680,481	111,226	-0,127	-0,114
-679,466	-200,000	0,004	-0,032
-678,451	-200,000	0,002	-0,023
-677,437	425,930	0,021	0,033
-676,422	800,000	-0,044	0,115
-675,408	56,042	0,087	0,063
-674,393	-114,488	-0,130	0,018
-673,378	-200,000	-0,006	-0,064
-672,364	-200,000	0,028	-0,110
-671,349	605,406	-0,015	0,028
-670,335	48,398	-0,139	0,097
-669,320	-200,000	0,004	0,027
-668,305	-200,000	0,014	-0,089
-667,291	315,717	0,040	0,056
-666,276	-32,496	-0,160	0,066
-665,262	-200,000	-0,007	0,092
-664,247	800,000	0,023	-0,056
-663,232	658,007	0,036	0,069
-662,218	800,000	0,035	0,102
-661,203	800,000	-0,030	0,091
-660,189	252,327	-0,053	-0,067
-659,174	5,827	-0,039	0,021
-658,159	200,207	0,033	0,037
-657,145	-200,000	-0,014	-0,053
-656,130	800,000	-0,023	-0,065
-655,116	800,000	0,020	0,052
-654,101	800,000	0,027	-0,061
-653,086	800,000	0,011	-0,027
-652,072	-156,800	0,076	-0,003
-651,057	171,663	-0,044	-0,047
-650,043	-89,598	0,064	0,014
-649,028	-200,000	-0,037	-0,204
-648,014	-98,489	0,127	-0,024
-646,999	800,000	0,031	0,086
-645,984	-200,000	0,001	0,043
-644,970	43,666	-0,163	-0,111
-643,955	-200,000	-0,005	0,049
-642,941	412,335	-0,064	-0,101
-641,926	421,990	-0,055	-0,088
-640,911	47,154	-0,057	0,039
-639,897	195,764	0,069	0,077
-638,882	-77,623	0,048	-0,012
-637,868	-109,949	0,078	-0,012
-636,853	153,311	-0,044	-0,044
-635,838	235,382	-0,078	-0,096
-634,824	800,000	0,028	-0,075
-633,809	-117,848	0,097	-0,013
-632,795	544,153	-0,023	0,041
-631,780	784,110	-0,050	0,101
-630,765	-131,527	-0,171	-0,016
-629,751	800,000	0,029	-0,066
-628,736	-68,404	-0,073	0,021
-627,722	-200,000	-0,007	-0,097
-626,707	-126,124	0,052	0,006
-625,692	347,475	-0,043	-0,063
-624,678	-130,373	0,006	0,001
-623,663	27,252	-0,066	-0,041
-622,649	124,084	-0,098	-0,091
-621,634	219,782	0,074	0,088
-620,619	-200,000	0,011	-0,070
-619,605	-200,000	-0,000	-0,056
-618,590	245,699	0,065	-0,081
-617,576	-84,355	0,091	0,021
-616,561	150,769	-0,062	-0,062
-615,546	-200,000	0,008	-0,068
-614,532	478,583	-0,033	-0,055
-613,517	-150,148	0,112	0,006
-612,503	-25,190	-0,083	-0,036
-611,488	38,617	0,060	-0,040
-610,474	-85,041	-0,049	-0,011
-609,459	29,459	0,031	-0,020
-608,444	17,443	-0,014	0,009
-607,430	36,572	-0,117	0,077
-606,415	681,078	0,026	-0,051
-605,401	246,722	0,042	0,053
-604,386	419,459	0,066	0,106
-603,371	-200,000	-0,025	0,163
-602,357	108,311	0,153	-0,135
-601,342	1,050	-0,130	0,069
-600,328	-200,000	0,017	-0,086
-599,313	30,739	0,070	-0,044
-598,298	-160,040	0,020	-0,001
-597,284	800,000	-0,019	0,049
-596,269	133,920	0,060	0,057
-595,255	-96,727	0,057	-0,011
-594,240	321,364	0,091	-0,129
-593,225	800,000	0,022	-0,062
-592,211	800,000	0,032	-0,069
-591,196	-200,000	-0,002	0,039
-590,182	800,000	-0,031	-0,071
-589,167	-200,000	0,011	0,045
-588,152	800,000	0,036	0,095
-587,138	-200,000	-0,001	-0,069
-586,123	800,000	-0,038	-0,091
-585,109	9,604	0,031	-0,017
-584,094	295,128	0,021	-0,029
-583,079	305,667	0,038	0,052
-582,065	800,000	-0,024	0,055
-581,050	-200,000	0,014	0,077
-580,036	-19,390	-0,130	0,059
-579,021	-200,000	-0,016	-0,098
-578,006	17,319	-0,040	0,023
-576,992	-200,000	0,023	0,097
-575,977	-118,121	-0,142	-0,018
-574,963	-162,559	0,150	0,005
-573,948	686,330	0,016	0,031
-572,934	111,703	-0,014	0,012
-571,919	67,678	0,058	0,044
-570,904	578,181	0,023	-0,042
-569,890	-56,135	0,055	0,018
-568,875	179,796	0,029	-0,031
-567,861	-200,000	0,003	-0,063
-566,846	800,000	-0,038	-0,090
-565,831	-169,357	0,086	-0,002
-564,817	-200,000	-0,034	-0,151
-563,802	391,058	0,029	0,045
-562,788	-200,000	0,011	0,059
-561,773	30,605	0,066	0,042
-560,758	-47,681	-0,046	-0,016
-559,744	170,197	0,100	0,106
-558,729	-200,000	-0,016	-0,081
-557,715	-79,753	0,109	-0,027
-556,700	-107,955	-0,043	0,007
-555,685	10,008	-0,105	-0,059
-554,671	-48,074	0,081	0,029
-553,656	-38,922	-0,169	0,065
-552,642	130,101	0,096	0,091
-551,627	532,058	0,090	0,158
-550,612	-200,000	-0,018	-0,109
-549,598	-130,868	-0,132	0,013
-548,583	746,262	-0,041	-0,082
-547,569	-200,000	0,001	-0,040
-546,554	330,622	-0,091	-0,130
-545,539	32,496	0,098	0,062
-544,525	-200,000	0,001	0,087
-543,510	-125,744	0,062	-0,007
-542,496	511,670	-0,077	-0,134
-541,481	-13,887	-0,065	0,031
-540,466	659,384	0,015	-0,028
-539,452	-89,817	0,135	0,029
-538,437	-11,121	-0,066	-0,032
-537,423	800,000	0,042	0,120
-536,408	-28,461	-0,112	-0,047
-535,393	-200,000	0,006	-0,090
-534,379	-117,717	-0,123	0,016
-533,364	-19,735	-0,048	-0,022
-532,350	318,095	0,048	-0,067
-531,335	-58,402	-0,154	-0,049
-530,321	-3,407	-0,035	-0,018
-529,306	111,310	0,034	0,030
-528,291	129,425	0,048	0,045
-527,277	-200,000	0,004	-0,091
-526,262	588,713	-0,037	0,068
-525,248	325,981	0,024	-0,034
-524,233	-2,098	0,043	0,022
-523,218	310,430	-0,065	0,090
-522,204	-200,000	-0,001	0,026
-521,189	-98,346	0,038	-0,007
-520,175	800,000	-0,071	0,159
-519,160	-126,463	-0,047	0,005
-518,145	27,828	0,095	-0,059
-517,131	85,115	-0,086	-0,069
-516,116	513,767	0,084	0,146
-515,102	83,143	0,066	0,053
-514,087	-200,000	-0,001	-0,081
-513,072	387,603	0,039	-0,059
-512,058	-121,961	-0,075	0,009
-511,043	-80,298	0,236	0,058
-510,029	800,000	0,013	0,038
-509,014	608,157	0,053	-0,097
-507,999	20,676	-0,102	-0,061
-506,985	-17,932	0,082	0,038
-505,970	192,215	-0,113	-0,126
-504,956	180,859	0,103	-0,112
-503,941	-126,096	-0,120	0,013
-502,926	-200,000	-0,007	-0,077
-501,912	309,207	-0,037	-0,051
-500,897	-200,000	-0,006	0,028
-499,883	800,000	0,038	-0,084
-498,868	67,022	-0,040	0,030
-497,853	46,315	0,067	0,046
-496,839	-200,000	-0,001	0,071
-495,824	181,106	0,097	0,105
-494,810	-106,514	0,111	0,018
-493,795	76,690	-0,024	0,019
-492,781	-128,247	-0,087	-0,009
-491,766	-200,000	-0,027	-0,148
-490,751	800,000	0,011	-0,030
-489,737	800,000	0,024	0,061
-488,722	-200,000	0,055	0,196
-487,708	-200,000	0,007	0,044
-486,693	91,699	0,096	-0,079
-485,678	528,928	0,039	0,068
-484,664	800,000	0,016	-0,036
-483,649	-200,000	0,009	-0,093
-482,635	-39,262	0,067	-0,026
-481,620	60,479	0,131	0,095
-480,605	50,962	0,055	0,039
-479,591	72,564	-0,041	-0,032
-478,576	-82,721	-0,048	0,011
-477,562	101,367	-0,025	0,022
-476,547	-200,000	-0,005	-0,203
-475,532	9,011	0,026	-0,014
-474,518	-200,000	0,025	-0,128
-473,503	-17,165	0,026	-0,012
-472,489	-200,000	0,004	0,111
-471,474	-200,000	0,016	-0,060
-470,459	397,837	-0,076	-0,117
-469,445	-200,000	0,005	0,023
-468,430	524,994	-0,075	-0,131
-467,416	-123,927	0,059	-0,007
-466,401	7,951	-0,041	-0,023
-465,386	800,000	0,043	-0,137
-464,372	-200,000	-0,003	0,017
-463,357	-200,000	-0,016	-0,141
-462,343	-200,000	0,016	-0,078
-461,328	-200,000	-0,001	-0,082
-460,313	-200,000	0,033	0,109
-459,299	167,784	-0,028	-0,030
-458,284	29,274	-0,129	0,080
-457,270	-87,810	-0,140	-0,031
-456,255	-142,109	0,114	0,008
-455,241	-43,822	-0,084	0,031
-454,226	-47,106	0,028	0,010
-453,211	160,912	0,085	-0,088
-452,197	769,708	0,044	0,089
-451,182	-200,000	-0,010	0,053
-450,168	-109,165	-0,048	-0,007
-449,153	27,263	-0,100	0,062
-448,138	800,000	-0,016	0,033
-447,124	23,608	-0,130	-0,078
-446,109	-200,000	0,001	0,003
-445,095	613,820	0,080	-0,148
-444,080	33,196	0,124	0,079
-443,065	800,000	-0,034	0,070
-442,051	800,000	0,027	-0,070
-441,036	-200,000	-0,007	-0,070
-440,022	91,449	0,060	-0,049
-439,007	-200,000	0,012	0,085
-437,992	-35,856	-0,121	0,048
-436,978	-142,174	0,125	-0,009
-435,963	-65,577	0,087	0,026
-434,949	-173,771	-0,129	0,003
-433,934	-200,000	0,008	0,057
-432,919	267,569	0,106	-0,137
-431,905	800,000	-0,035	-0,082
-430,890	-200,000	0,009	-0,071
-429,876	-200,000	-0,018	0,070
-428,861	122,424	-0,051	0,047
-427,846	541,819	-0,034	0,060
-426,832	-200,000	0,014	-0,070
-425,817	336,312	-0,053	0,076
-424,803	206,420	0,064	-0,073
-423,788	-56,375	-0,077	0,025
-422,773	-101,419	0,111	0,020
-421,759	110,410	0,161	0,142
-420,744	170,716	-0,109	-0,115
-419,730	650,978	-0,014	0,027
-418,715	78,835	-0,084	0,066
-417,701	-75,912	0,100	-0,026
-416,686	-147,083	-0,022	-0,001
-415,671	-86,578	0,082	-0,018
-414,657	-138,462	-0,059	-0,005
-413,642	-49,750	0,056	0,019
-412,628	244,990	-0,036	-0,045
-411,613	-200,000	-0,002	0,073
-410,598	800,000	-0,032	0,097
-409,584	-200,000	-0,034	0,117
-408,569	800,000	0,070	0,146
-407,555	123,212	0,096	0,089
-406,540	48,794	0,070	-0,048
-405,525	-200,000	-0,005	0,080
-404,511	-200,000	0,020	0,071
-403,496	204,221	0,001	-0,001
-402,482	-159,991	0,106	0,004
-401,467	-182,089	0,034	-0,000
-400,452	-101,342	0,026	0,005
-399,438	-34,409	-0,118	0,047
-398,423	800,000	-0,035	0,104
-397,409	-200,000	-0,009	-0,041
-396,394	800,000	0,017	0,036
-395,379	-193,625	-0,111	-0,001
-394,365	-200,000	0,002	-0,156
-393,350	-64,195	-0,057	0,017
-392,336	-21,628	0,043	0,019
-391,321	98,420	-0,077	-0,065
-390,306	-200,000	-0,004	-0,061
-389,292	340,780	-0,058	-0,083
-388,277	-200,000	-0,012	0,078
-387,263	-58,985	-0,053	0,017
-386,248	20,089	0,148	0,087
-385,233	52,877	0,076	-0,053
-384,219	-48,149	-0,041	0,014
-383,204	-200,000	-0,022	0,088
-382,190	225,274	-0,061	0,073
-381,175	-126,440	0,107	0,012
-380,160	186,713	0,093	0,101
-379,146	-137,074	0,092	0,008
-378,131	-175,880	0,110	0,002
-377,117	800,000	0,037	-0,078
-376,102	52,327	0,074	0,052
-375,088	5,495	0,012	0,006
-374,073	-3,644	0,060	-0,030
-373,058	0,020	0,056	-0,029
-372,044	-122,916	-0,117	0,014
-371,029	780,900	0,027	0,055
-370,015	126,169	-0,110	0,102
-369,000	-103,847	-0,125	0,021
-367,985	-46,442	-0,106	0,038
-366,971	800,000	-0,023	-0,067
-365,956	-200,000	-0,022	0,142
-364,942	-18,374	0,084	0,039
-363,927	-97,819	-0,042	-0,008
-362,912	-200,000	-0,007	-0,044
-361,898	-200,000	0,015	-0,164
-360,883	55,196	-0,066	-0,047
-359,869	-200,000	0,003	0,070
-358,854	9,591	0,082	0,045
-357,839	-41,994	0,139	-0,052
-356,825	-200,000	-0,014	-0,050
-355,810	60,840	0,103	-0,075
-354,796	-118,508	-0,060	0,008
-353,781	49,766	0,040	-0,027
-352,766	215,380	-0,038	0,045
-351,752	800,000	-0,047	0,111
-350,737	1,476	0,142	0,074
-349,723	-200,000	0,015	0,185
-348,708	-169,232	-0,247	0,007
-347,693	140,969	0,008	0,008
-346,679	177,465	-0,062	-0,066
-345,664	-83,500	0,046	0,011
-344,650	-200,000	-0,032	-0,134
-343,635	484,629	0,055	0,092
-342,620	-200,000	0,016	0,076
-341,606	240,439	0,054	-0,066
-340,591	-26,510	-0,033	0,014
-339,577	-157,170	0,107	-0,005
-338,562	-113,414	0,073	0,010
-337,548	800,000	0,055	-0,123
-336,533	800,000	-0,028	-0,083
-335,518	26,286	0,068	0,042
-334,504	225,367	0,109	-0,130
-333,489	-73,089	-0,111	-0,030
-332,475	148,720	-0,121	-0,120
-331,460	800,000	-0,048	-0,138
-330,445	85,947	0,047	-0,038
-329,431	210,402	-0,075	0,086
-328,416	-55,627	0,219	-0,071
-327,402	-200,000	0,005	0,092
-326,387	-161,574	-0,062	-0,002
-325,372	87,681	-0,079	-0,064
-324,358	-200,000	0,009	-0,089
-323,343	-200,000	0,143	0,000
-322,329	137,651	-0,073	-0,070
-321,314	94,887	0,050	0,042
-320,299	-200,000	0,062	0,219
-319,285	-200,000	0,000	-0,003
-318,270	-200,000	-0,009	-0,052
-317,256	800,000	-0,016	-0,034
-316,241	-200,000	-0,013	0,090
-315,226	16,072	-0,120	0,069
-314,212	-103,957	0,014	-0,002
-313,197	-116,929	-0,025	-0,003
-312,183	-136,602	-0,090	0,008
-311,168	163,513	-0,106	-0,109
-310,153	-120,016	0,120	-0,015
-309,139	-34,620	0,111	0,044
-308,124	-130,224	0,087	-0,009
-307,110	-200,000	0,011	-0,082
-306,095	18,063	0,066	0,038
-305,080	678,668	-0,022	-0,041
-304,066	-86,349	-0,105	-0,023
-303,051	85,980	0,091	-0,073
-302,037	-60,984	-0,033	-0,010
-301,022	-132,269	0,071	-0,007
-300,008	-200,000	-0,006	-0,109
-298,993	-116,021	0,089	-0,012
-297,978	-26,800	0,079	0,034
-296,964	-82,082	-0,132	0,031
-295,949	-113,588	-0,063	0,009
-294,935	125,390	-0,079	0,073
-293,920	800,000	-0,034	-0,102
-292,905	-200,000	0,035	0,158
-291,891	115,794	0,061	0,055
-290,876	-101,033	-0,154	0,027
-289,862	800,000	-0,014	0,038
-288,847	51,677	-0,032	-0,022
-287,832	-200,000	-0,034	-0,131
-286,818	-96,102	0,097	-0,019
-285,803	242,095	0,124	0,152
-284,789	800,000	0,068	0,199
-283,774	-200,000	0,022	0,134
-282,759	157,782	0,038	0,038
-281,745	262,011	-0,095	0,120
-280,730	129,919	-0,081	0,076
-279,716	134,970	-0,075	-0,071
-278,701	-157,431	0,109	0,005
-277,686	408,778	-0,048	-0,074
-276,672	559,165	-0,014	0,025
-275,657	105,220	-0,017	0,015
-274,643	800,000	0,034	0,103
-273,628	800,000	0,021	-0,043
-272,613	-83,445	-0,119	0,028
-271,599	-200,000	-0,007	0,074
-270,584	800,000	0,043	0,122
-269,570	-200,000	0,000	0,127
-268,555	426,230	-0,055	0,087
-267,540	110,031	-0,038	0,033
-266,526	196,417	0,016	-0,017
-265,511	358,914	-0,051	-0,075
-264,497	800,000	-0,080	-0,198
-263,482	-0,577	-0,184	-0,095
-262,467	-27,925	-0,036	0,015
-261,453	800,000	-0,000	0,001
-260,438	-88,333	-0,127	-0,028
-259,424	-200,000	-0,019	-0,097
-258,409	243,342	-0,056	-0,068
-257,395	-200,000	0,006	-0,060
-256,380	-200,000	0,014	0,091
-255,365	55,318	-0,046	-0,033
-254,351	411,357	-0,055	-0,086
-253,336	-200,000	-0,008	0,068
-252,322	423,245	-0,022	-0,034
-251,307	359,876	0,038	-0,056
-250,292	601,894	0,044	-0,081
-249,278	20,636	0,128	-0,076
-248,263	-200,000	0,015	-0,062
-247,249	800,000	-0,006	0,012
-246,234	48,897	-0,080	-0,055
-245,219	-200,000	-0,018	0,168
-244,205	-85,595	-0,124	0,028
-243,190	800,000	-0,043	0,133
-242,176	98,647	0,145	0,122
-241,161	191,236	0,088	0,096
-240,146	32,221	-0,051	0,032
-239,132	-74,221	0,050	-0,013
-238,117	76,730	0,056	-0,044
-237,103	145,262	-0,112	-0,110
-236,088	95,745	-0,035	0,029
-235,073	211,316	0,021	0,024
-234,059	-132,176	0,016	-0,001
-233,044	192,874	0,069	0,076
-232,030	-97,447	-0,162	0,030
-231,015	-200,000	-0,008	-0,033
-230,000	-200,000	0,002	-0,087
-228,986	92,373	0,074	-0,060
-227,971	-46,544	0,020	-0,007
-226,957	15,733	0,057	0,032
-225,942	800,000	-0,035	-0,071
-224,927	81,971	-0,042	-0,033
-223,913	542,839	-0,066	0,115
-222,898	739,351	-0,033	-0,064
-221,884	154,508	0,029	-0,029
-220,869	800,000	0,026	0,082
-219,855	364,965	-0,043	0,063
-218,840	23,040	0,142	0,085
-217,825	-108,535	0,096	-0,015
-216,811	-200,000	0,013	-0,166
-215,796	2,403	-0,050	0,026
-214,782	89,307	0,019	-0,015
-213,767	25,099	0,049	0,029
-212,752	800,000	0,042	0,096
-211,738	-200,000	0,020	0,101
-210,723	455,835	0,059	0,096
-209,709	106,201	-0,087	0,075
-208,694	356,737	-0,006	-0,009
-207,679	408,044	-0,044	0,069
-206,665	-68,932	0,051	-0,014
-205,650	-200,000	-0,012	-0,069
-204,636	800,000	0,013	-0,034
-203,621	-200,000	0,017	-0,111
-202,606	-200,000	0,023	-0,090
-201,592	15,102	-0,107	-0,061
-200,577	800,000	-0,011	0,024
-199,563	12,131	0,108	-0,060
-198,548	-21,182	-0,113	0,050
-197,533	-200,000	0,000	0,061
-196,519	296,702	0,091	0,122
-195,504	800,000	0,030	-0,073
-194,490	800,000	-0,021	-0,053
-193,475	13,547	-0,127	0,072
-192,460	660,397	-0,055	0,103
-191,446	161,796	-0,029	0,030
-190,431	-200,000	-0,003	0,097
-189,417	-200,000	-0,002	0,044
-188,402	-200,000	-0,004	-0,024
-187,387	-138,995	-0,094	0,007
-186,373	125,877	-0,065	-0,060
-185,358	391,926	0,041	0,062
-184,344	-200,000	-0,016	0,124
-183,329	284,840	0,021	0,027
-182,315	288,762	0,022	0,029
-181,300	-200,000	0,010	0,071
-180,285	21,063	-0,143	0,084
-179,271	-200,000	-0,032	-0,105
-178,256	93,849	0,038	-0,031
-177,242	111,873	0,098	-0,086
-176,227	-169,460	0,165	0,004
-175,212	-146,338	0,034	0,002
-174,198	27,203	0,050	0,030
-173,183	-200,000	0,015	-0,057
-172,169	162,927	-0,081	-0,083
-171,154	-200,000	-0,008	-0,049
-170,139	800,000	-0,029	-0,072
-169,125	-114,046	0,098	0,014
-168,110	161,105	-0,168	0,171
-167,096	7,298	-0,046	-0,025
-166,081	222,159	-0,065	-0,076
-165,066	-55,050	-0,044	0,014
-164,052	-63,599	-0,032	-0,009
-163,037	40,550	-0,024	0,016
-162,023	-148,726	-0,189	0,011
-161,008	681,439	0,054	0,103
-159,993	-200,000	0,037	0,134
-158,979	200,099	-0,047	-0,052
-157,964	800,000	-0,043	-0,118
-156,950	-2,706	-0,062	0,031
-155,935	132,375	-0,068	0,064
-154,920	128,548	0,082	0,076
-153,906	-200,000	-0,002	0,105
-152,891	-30,024	0,083	-0,034
-151,877	-39,563	-0,051	-0,019
-150,862	-200,000	0,160	-0,000
-149,847	-155,909	-0,051	-0,002
-148,833	800,000	-0,072	-0,165
-147,818	242,528	0,104	-0,127
-146,804	13,079	0,046	0,026
-145,789	-154,160	-0,042	0,002
-144,775	-103,586	-0,089	-0,015
-143,760	-57,681	-0,043	-0,014
-142,745	-10,243	-0,017	0,008
-141,731	-200,000	-0,032	0,135
-140,716	800,000	-0,070	0,177
-139,702	260,628	0,054	0,068
-138,687	339,262	-0,021	-0,030
-137,672	800,000	-0,023	0,057
-136,658	121,288	-0,030	0,027
-135,643	243,093	0,047	-0,058
-134,629	19,577	-0,044	0,025
-133,614	8,085	0,145	-0,079
-132,599	59,361	-0,093	0,066
-131,585	680,291	-0,058	0,111
-130,570	534,531	0,020	0,034
-129,556	-47,861	0,070	-0,024
-128,541	-200,000	0,020	-0,115
-127,526	53,179	0,033	0,023
-126,512	-134,892	-0,059	-0,005
-125,497	267,679	-0,057	-0,072
-124,483	173,879	-0,055	-0,058
-123,468	-66,856	0,143	-0,041
-122,453	17,991	-0,038	0,022
-121,439	99,887	-0,053	0,045
-120,424	800,000	-0,050	-0,113
-119,410	-200,000	0,026	0,000
-118,395	160,041	0,090	0,091
