DTS Sentinel unit serial number:	SN410029Multiplexer serial number:	ORYXHardware model number:	OX2-SRSoftware version number:	ORYX F/W v4,00 Oryx Data Collector v3.7.2.0data status	okinstallation	B4 Nyhavnadifferential loss correction	single-endedforward channel	channel 2reverse channel	N/Adate	2023/12/18time	23:05:13forward acquisition time	300,00reverse acquisition time	0,00gamma	499,1914k internal	0,3124k external	0,3124temperature offset calibration	1,0000default loss term (dB/km)	0,3820temperature slope calibration	1,0000multiplexer offset coefficient	1,0000multiplexer slope coefficient	1,0000fibre end	0,00T internal ref (°C)	22,06T ext. ref 1 (°C)	7,68T ext. ref 2 (°C)	7,74length (m)	temperature (°C)	Stokes	anti-Stokes-744,400	-200,000	-0,024	-0,096
-743,385	-171,710	-0,179	0,004
-742,371	800,000	0,064	-0,147
-741,356	-6,262	-0,270	0,137
-740,342	85,564	0,105	0,086
-739,327	-154,366	-0,239	0,012
-738,312	-200,000	0,020	-0,076
-737,298	-151,037	-0,199	0,011
-736,283	-9,484	0,038	0,019
-735,269	-62,038	-0,296	0,092
-734,254	-200,000	0,011	-0,037
-733,239	-140,254	-0,454	-0,035
-732,225	450,750	0,072	0,118
-731,210	-200,000	-0,007	-0,098
-730,196	-200,000	0,045	-0,211
-729,181	256,646	-0,011	0,014
-728,167	-200,000	-0,022	0,125
-727,152	-130,998	-0,022	-0,002
-726,137	225,729	-0,017	0,020
-725,123	98,113	-0,219	0,188
-724,108	-60,978	-0,090	0,028
-723,094	-200,000	0,030	-0,161
-722,079	-125,577	0,040	-0,004
-721,064	-74,535	-0,099	0,026
-720,050	-113,932	-0,052	-0,007
-719,035	-52,502	0,124	0,042
-718,021	-144,145	-0,162	-0,011
-717,006	-200,000	0,007	-0,067
-715,991	68,809	0,040	-0,031
-714,977	-83,790	-0,045	0,011
-713,962	-17,695	-0,169	-0,079
-712,948	-13,027	-0,069	-0,033
-711,933	343,686	-0,070	-0,102
-710,918	-200,000	-0,005	0,065
-709,904	-200,000	0,000	-0,011
-708,889	-200,000	-0,003	-0,121
-707,875	233,108	-0,049	-0,061
-706,860	-200,000	0,019	-0,195
-705,845	62,998	0,050	0,037
-704,831	-100,159	0,151	-0,028
-703,816	100,946	-0,066	-0,057
-702,802	338,217	-0,060	-0,087
-701,787	414,064	-0,081	-0,129
-700,772	97,648	0,089	-0,076
-699,758	291,404	-0,067	-0,090
-698,743	383,952	0,040	0,062
-697,729	122,666	0,047	-0,044
-696,714	-11,557	0,018	-0,009
-695,699	27,671	-0,094	-0,059
-694,685	-200,000	-0,010	-0,112
-693,670	-99,479	-0,090	0,017
-692,656	-200,000	0,040	-0,145
-691,641	-200,000	-0,008	-0,069
-690,627	-64,392	0,047	-0,014
-689,612	67,004	0,060	-0,045
-688,597	13,779	0,089	-0,051
-687,583	-62,577	-0,092	0,028
-686,568	45,234	0,062	0,043
-685,554	-93,467	0,041	-0,008
-684,539	157,151	0,054	-0,056
-683,524	158,252	0,036	-0,037
-682,510	-200,000	0,032	0,156
-681,495	-200,000	-0,007	-0,079
-680,481	-3,663	-0,045	0,023
-679,466	-123,399	-0,267	-0,031
-678,451	540,624	0,036	-0,065
-677,437	800,000	-0,029	0,072
-676,422	184,210	-0,056	0,061
-675,408	-86,506	-0,113	-0,026
-674,393	325,102	-0,008	0,011
-673,378	-200,000	-0,020	-0,079
-672,364	-200,000	-0,030	-0,114
-671,349	-120,410	-0,109	-0,014
-670,335	27,043	0,085	-0,053
-669,320	-5,980	-0,078	-0,040
-668,305	-48,012	0,047	0,017
-667,291	-200,000	-0,013	-0,145
-666,276	144,365	-0,042	-0,042
-665,262	-200,000	-0,024	-0,248
-664,247	-100,903	-0,018	-0,003
-663,232	163,528	0,106	-0,110
-662,218	-75,126	0,143	-0,038
-661,203	735,679	-0,092	-0,185
-660,189	-200,000	0,016	-0,061
-659,174	-108,436	-0,177	-0,028
-658,159	406,884	0,031	0,049
-657,145	111,980	-0,120	-0,108
-656,130	-87,182	0,173	-0,039
-655,116	398,178	0,080	-0,125
-654,101	800,000	-0,064	0,148
-653,086	358,570	0,039	-0,058
-652,072	-200,000	0,016	-0,057
-651,057	800,000	-0,004	0,010
-650,043	52,672	0,097	-0,069
-649,028	24,964	0,035	-0,021
-648,014	-151,317	0,116	0,006
-646,999	-96,317	0,105	0,021
-645,984	-200,000	-0,006	-0,047
-644,970	-200,000	-0,082	0,000
-643,955	800,000	-0,024	-0,069
-642,941	800,000	-0,016	-0,052
-641,926	580,056	0,053	-0,098
-640,911	-200,000	0,008	-0,053
-639,897	0,753	0,123	0,065
-638,882	-154,943	0,072	0,003
-637,868	-107,756	0,109	0,017
-636,853	235,181	-0,118	-0,145
-635,838	656,570	0,028	-0,054
-634,824	49,690	-0,042	-0,029
-633,809	-149,213	0,025	0,001
-632,795	9,536	0,064	-0,036
-631,780	-130,246	0,090	-0,009
-630,765	-88,265	0,084	-0,019
-629,751	709,691	-0,033	0,064
-628,736	-38,093	0,038	-0,015
-627,722	800,000	-0,018	0,047
-626,707	-116,516	-0,066	-0,009
-625,692	-59,041	-0,017	0,005
-624,678	-90,589	0,138	0,029
-623,663	800,000	-0,035	-0,096
-622,649	-200,000	0,013	-0,169
-621,634	11,170	-0,028	-0,016
-620,619	-200,000	-0,001	0,016
-619,605	-200,000	0,037	-0,124
-618,590	-200,000	-0,006	0,000
-617,576	-200,000	-0,005	0,074
-616,561	-64,375	-0,037	0,011
-615,546	423,277	-0,067	0,107
-614,532	-200,000	0,010	0,047
-613,517	364,658	0,060	0,090
-612,503	237,166	-0,037	-0,046
-611,488	-7,171	0,139	0,070
-610,474	-93,652	0,104	-0,021
-609,459	784,906	-0,028	-0,056
-608,444	219,322	-0,058	-0,069
-607,430	-106,068	-0,186	0,031
-606,415	-150,110	-0,172	0,010
-605,401	13,598	0,052	0,030
-604,386	268,624	-0,057	0,074
-603,371	-39,014	0,019	0,008
-602,357	506,022	0,016	0,027
-601,342	800,000	0,035	-0,076
-600,328	102,959	-0,076	-0,066
-599,313	-130,426	-0,052	0,005
-598,298	218,331	-0,124	-0,147
-597,284	38,186	-0,046	-0,030
-596,269	642,021	0,048	0,092
-595,255	301,109	-0,064	0,087
-594,240	-200,000	-0,006	0,057
-593,225	-94,737	-0,077	0,015
-592,211	-200,000	0,002	-0,105
-591,196	-117,980	0,039	0,005
-590,182	-200,000	0,001	-0,024
-589,167	366,527	0,030	0,045
-588,152	800,000	-0,074	0,155
-587,138	-180,987	0,154	0,002
-586,123	-77,870	-0,024	0,006
-585,109	-200,000	0,012	-0,091
-584,094	295,463	0,083	-0,113
-583,079	-68,243	0,034	0,010
-582,065	196,213	-0,039	0,044
-581,050	81,218	-0,063	0,051
-580,036	447,216	-0,023	-0,038
-579,021	800,000	-0,034	-0,106
-578,006	-200,000	0,016	0,082
-576,992	-15,643	-0,034	-0,016
-575,977	-200,000	-0,002	0,062
-574,963	608,767	0,043	0,079
-573,948	-41,589	0,080	0,030
-572,934	-173,955	-0,057	-0,001
-571,919	-52,062	-0,065	-0,022
-570,904	-200,000	0,004	-0,028
-569,890	-137,655	-0,113	0,009
-568,875	-200,000	0,005	-0,044
-567,861	-200,000	-0,021	-0,073
-566,846	160,832	-0,042	0,044
-565,831	-184,997	0,124	0,001
-564,817	-129,758	-0,028	0,003
-563,802	-200,000	-0,007	0,051
-562,788	-17,460	-0,108	-0,050
-561,773	-152,364	0,033	0,002
-560,758	-181,930	0,211	0,003
-559,744	87,582	-0,034	0,028
-558,729	-54,339	0,058	0,019
-557,715	-200,000	-0,011	-0,060
-556,700	-109,658	-0,141	-0,022
-555,685	-200,000	-0,023	0,076
-554,671	-1,217	-0,125	0,065
-553,656	-61,685	-0,022	-0,007
-552,642	289,683	-0,005	-0,007
-551,627	-200,000	0,007	-0,088
-550,612	800,000	0,048	-0,151
-549,598	-200,000	-0,008	0,041
-548,583	128,997	0,028	-0,026
-547,569	590,709	-0,023	0,042
-546,554	213,219	0,130	0,152
-545,539	-200,000	0,006	0,082
-544,525	-114,904	0,075	0,010
-543,510	101,302	-0,081	0,070
-542,496	-112,834	-0,170	0,025
-541,481	800,000	-0,029	0,082
-540,466	99,000	0,042	-0,036
-539,452	-63,873	-0,153	-0,046
-538,437	-200,000	-0,017	0,086
-537,423	23,906	0,113	0,069
-536,408	797,600	-0,038	-0,078
-535,393	36,599	-0,165	0,107
-534,379	800,000	0,034	-0,091
-533,364	89,100	-0,086	-0,071
-532,350	-200,000	-0,000	0,076
-531,335	-25,475	-0,158	0,069
-530,321	221,145	0,029	-0,034
-529,306	488,443	0,024	0,041
-528,291	-66,926	-0,052	-0,015
-527,277	-14,623	-0,074	0,035
-526,262	-32,677	0,141	0,058
-525,248	22,791	0,172	0,104
-524,233	55,195	0,096	0,068
-523,218	408,160	-0,041	0,064
-522,204	800,000	0,030	0,064
-521,189	-67,827	0,063	-0,018
-520,175	69,499	0,013	0,010
-519,160	404,673	0,005	-0,008
-518,145	-73,976	0,140	-0,037
-517,131	-111,704	0,105	0,016
-516,116	-200,000	-0,022	0,103
-515,102	288,431	-0,041	0,055
-514,087	186,876	-0,063	0,070
-513,072	-45,572	-0,135	-0,049
-512,058	-64,113	-0,088	-0,026
-511,043	-71,042	0,096	-0,026
-510,029	800,000	-0,012	-0,026
-509,014	-11,864	0,019	-0,009
-507,999	41,244	0,075	-0,050
-506,985	800,000	-0,024	0,075
-505,970	140,433	-0,063	0,061
-504,956	4,245	-0,016	0,008
-503,941	149,323	-0,040	-0,040
-502,926	-63,413	-0,039	-0,012
-501,912	283,064	0,058	0,076
-500,897	289,985	-0,096	0,129
-499,883	172,035	-0,088	0,093
-498,868	-128,059	0,019	0,002
-497,853	800,000	-0,021	-0,050
-496,839	136,097	-0,068	-0,065
-495,824	101,785	-0,086	-0,074
-494,810	-200,000	-0,016	-0,082
-493,795	65,982	-0,021	-0,015
-492,781	800,000	0,009	-0,021
-491,766	-200,000	0,001	0,078
-490,751	-178,488	-0,136	-0,002
-489,737	-121,306	-0,058	-0,007
-488,722	-200,000	-0,033	0,186
-487,708	-93,260	0,149	-0,030
-486,693	800,000	-0,075	0,177
-485,678	-200,000	-0,039	0,142
-484,664	174,837	0,081	-0,087
-483,649	408,200	0,051	0,080
-482,635	-67,334	-0,130	0,037
-481,620	-200,000	0,008	0,032
-480,605	269,473	-0,081	0,105
-479,591	-200,000	0,014	0,183
-478,576	442,746	-0,004	-0,006
-477,562	-53,295	0,024	-0,008
-476,547	-22,437	-0,088	0,039
-475,532	160,827	-0,114	0,118
-474,518	-200,000	-0,013	0,059
-473,503	-200,000	0,040	0,140
-472,489	12,882	-0,102	0,058
-471,474	-200,000	0,017	-0,096
-470,459	-88,462	0,096	0,021
-469,445	188,220	-0,053	0,058
-468,430	385,604	-0,061	0,093
-467,416	102,084	-0,042	-0,036
-466,401	-200,000	-0,021	0,115
-465,386	-24,496	0,079	0,035
-464,372	-70,473	0,136	0,038
-463,357	-200,000	-0,000	-0,055
-462,343	350,620	0,034	-0,049
-461,328	169,217	-0,109	0,115
-460,313	-126,690	-0,055	0,006
-459,299	-166,159	-0,068	-0,002
-458,284	-80,467	0,152	0,037
-457,270	-65,140	0,123	0,036
-456,255	57,186	-0,058	-0,042
-455,241	84,732	-0,124	0,100
-454,226	-200,000	-0,028	-0,092
-453,211	-200,000	0,031	-0,185
-452,197	7,683	0,097	-0,053
-451,182	356,962	-0,076	-0,113
-450,168	-54,194	-0,043	0,014
-449,153	-51,756	0,053	0,018
-448,138	-82,027	-0,179	-0,043
-447,124	28,395	-0,012	-0,007
-446,109	-200,000	-0,020	-0,071
-445,095	47,886	0,036	-0,025
-444,080	-99,015	0,113	-0,021
-443,065	-10,371	-0,107	0,052
-442,051	-50,573	0,117	-0,040
-441,036	-200,000	0,014	-0,074
-440,022	-200,000	-0,009	-0,108
-439,007	-14,098	-0,095	0,045
-437,992	-200,000	0,009	0,072
-436,978	-50,122	0,145	-0,050
-435,963	-165,475	0,082	0,003
-434,949	-23,441	-0,105	-0,046
-433,934	-200,000	0,042	-0,180
-432,919	782,236	0,033	-0,066
-431,905	745,923	-0,043	-0,086
-430,890	157,042	-0,064	-0,065
-429,876	-113,180	0,178	-0,025
-428,861	111,890	0,116	0,103
-427,846	-200,000	-0,006	-0,032
-426,832	-62,624	0,092	-0,028
-425,817	-200,000	0,005	-0,028
-424,803	-119,577	0,104	-0,013
-423,788	124,301	0,112	-0,104
-422,773	200,108	0,093	0,105
-421,759	96,760	-0,028	-0,024
-420,744	-200,000	-0,031	-0,168
-419,730	800,000	-0,020	-0,045
-418,715	46,571	0,177	-0,121
-417,701	60,593	-0,152	-0,111
-416,686	-200,000	0,021	-0,149
-415,671	-200,000	0,010	0,045
-414,657	-200,000	-0,002	0,032
-413,642	-152,732	-0,099	0,005
-412,628	93,825	-0,095	-0,079
-411,613	41,078	-0,056	0,037
-410,598	-200,000	0,002	-0,116
-409,584	-200,000	-0,001	0,076
-408,569	60,694	0,069	0,050
-407,555	800,000	-0,072	0,156
-406,540	-200,000	0,004	-0,088
-405,525	385,760	0,022	0,034
-404,511	800,000	-0,065	-0,154
-403,496	-200,000	-0,004	0,038
-402,482	35,185	0,175	0,112
-401,467	255,333	-0,101	0,128
-400,452	491,964	0,098	0,166
-399,438	800,000	-0,069	0,141
-398,423	-200,000	-0,009	0,084
-397,409	-200,000	0,008	-0,128
-396,394	-91,855	0,083	0,017
-395,379	-57,420	0,212	0,068
-394,365	-200,000	0,028	-0,180
-393,350	-112,281	-0,076	-0,011
-392,336	21,120	0,035	-0,021
-391,321	-200,000	-0,043	-0,221
-390,306	-35,630	0,074	-0,030
-389,292	-200,000	-0,043	-0,167
-388,277	-78,722	-0,138	-0,034
-387,263	87,397	0,066	-0,054
-386,248	-10,862	-0,102	-0,049
-385,233	-200,000	0,057	0,188
-384,219	207,260	-0,124	0,142
-383,204	82,108	-0,078	-0,062
-382,190	-19,608	0,170	-0,077
-381,175	-200,000	0,000	-0,091
-380,160	83,254	-0,064	-0,051
-379,146	-200,000	-0,016	0,062
-378,131	-104,905	0,054	-0,009
-377,117	-9,553	0,097	0,047
-376,102	598,154	0,075	-0,138
-375,088	-8,627	0,008	-0,004
-374,073	571,549	-0,050	0,090
-373,058	800,000	-0,007	-0,013
-372,044	-4,117	0,051	0,026
-371,029	-200,000	0,007	-0,048
-370,015	800,000	0,046	0,095
-369,000	-200,000	-0,022	-0,220
-367,985	-200,000	-0,005	-0,079
-366,971	99,669	-0,019	-0,016
-365,956	733,019	0,053	0,105
-364,942	-200,000	-0,012	0,128
-363,927	692,129	0,075	0,145
-362,912	390,710	-0,076	0,117
-361,898	-200,000	0,015	0,114
-360,883	23,060	-0,068	-0,041
-359,869	800,000	-0,043	-0,092
-358,854	159,858	0,036	0,036
-357,839	257,276	-0,070	-0,088
-356,825	800,000	0,034	0,103
-355,810	-15,588	0,052	-0,024
-354,796	800,000	0,038	0,099
-353,781	62,646	-0,069	-0,050
-352,766	-200,000	-0,004	0,037
-351,752	-200,000	0,040	0,138
-350,737	-56,837	0,152	0,049
-349,723	89,425	0,031	0,026
-348,708	290,695	-0,035	-0,047
-347,693	800,000	-0,045	0,111
-346,679	102,676	-0,012	-0,010
-345,664	497,611	0,085	-0,144
-344,650	-91,757	0,132	0,027
-343,635	145,005	0,035	0,035
-342,620	-122,412	-0,025	-0,003
-341,606	144,915	0,073	-0,071
-340,591	800,000	-0,017	0,042
-339,577	-85,011	-0,134	0,031
-338,562	-98,733	-0,104	0,019
-337,548	46,654	0,031	-0,021
-336,533	-200,000	-0,008	0,098
-335,518	800,000	0,085	0,175
-334,504	-101,925	0,086	-0,015
-333,489	-200,000	-0,020	-0,066
-332,475	-200,000	-0,017	-0,134
-331,460	50,285	-0,101	-0,070
-330,445	-64,581	-0,077	0,023
-329,431	254,804	-0,066	-0,083
-328,416	-54,308	-0,066	-0,022
-327,402	494,035	-0,046	0,077
-326,387	800,000	-0,051	0,126
-325,372	-200,000	0,000	-0,100
-324,358	-200,000	0,008	0,094
-323,343	250,922	-0,061	-0,076
-322,329	30,886	-0,029	0,018
-321,314	75,744	0,152	0,118
-320,299	181,947	0,020	-0,021
-319,285	401,145	0,003	0,004
-318,270	-46,082	0,053	-0,019
-317,256	-37,829	-0,086	-0,033
-316,241	800,000	0,048	-0,113
-315,226	-200,000	-0,026	0,083
-314,212	-77,303	-0,105	-0,027
-313,197	357,681	0,086	0,127
-312,183	-22,429	0,100	0,044
-311,168	-200,000	-0,035	-0,217
-310,153	-72,009	-0,039	0,010
-309,139	20,608	-0,075	0,044
-308,124	-200,000	-0,001	-0,065
-307,110	-200,000	0,007	0,055
-306,095	-122,209	-0,036	0,004
-305,080	-97,646	-0,064	-0,012
-304,066	800,000	0,022	-0,062
-303,051	-34,865	-0,124	-0,049
-302,037	-69,008	0,077	0,022
-301,022	-200,000	-0,029	-0,097
-300,008	-112,320	0,039	0,006
-298,993	800,000	0,027	0,084
-297,978	27,081	0,161	0,099
-296,964	599,569	-0,070	-0,129
-295,949	-200,000	0,016	-0,062
-294,935	-166,204	0,250	-0,008
-293,920	153,702	0,047	0,047
-292,905	-128,999	0,106	0,011
-291,891	-177,041	0,114	-0,002
-290,876	-200,000	-0,007	0,053
-289,862	369,228	0,073	0,109
-288,847	-99,998	-0,205	0,037
-287,832	800,000	-0,052	0,137
-286,818	800,000	0,029	0,080
-285,803	-200,000	0,035	0,143
-284,789	-15,889	0,070	-0,032
-283,774	-200,000	0,003	-0,017
-282,759	436,270	0,042	0,067
-281,745	-200,000	0,031	-0,169
-280,730	-60,143	0,074	0,023
-279,716	595,848	-0,073	-0,133
-278,701	285,975	0,050	-0,067
-277,686	140,889	0,058	-0,056
-276,672	-45,377	-0,043	0,016
-275,657	-126,803	0,076	0,008
-274,643	102,186	-0,077	-0,066
-273,628	-200,000	-0,014	0,115
-272,613	26,865	0,035	-0,021
-271,599	-35,986	0,073	-0,029
-270,584	92,494	0,102	0,084
-269,570	800,000	-0,035	-0,106
-268,555	30,912	-0,024	-0,015
-267,540	-200,000	-0,022	-0,161
-266,526	580,785	-0,071	0,127
-265,511	279,503	0,067	-0,088
-264,497	49,848	0,061	0,042
-263,482	-200,000	0,001	0,094
-262,467	800,000	0,037	0,093
-261,453	-134,697	0,116	0,010
-260,438	360,407	-0,065	-0,096
-259,424	31,084	-0,098	0,061
-258,409	-50,790	-0,118	-0,041
-257,395	15,963	0,130	-0,075
-256,380	-36,880	0,079	0,031
-255,365	800,000	0,039	-0,100
-254,351	-200,000	0,009	-0,076
-253,336	-200,000	0,030	-0,130
-252,322	-200,000	-0,028	-0,101
-251,307	-179,034	0,148	-0,002
-250,292	-200,000	-0,007	-0,064
-249,278	-200,000	-0,006	0,184
-248,263	-193,917	-0,041	-0,000
-247,249	-24,053	0,019	0,008
-246,234	-200,000	0,004	-0,029
-245,219	72,246	-0,072	-0,055
-244,205	-200,000	0,001	-0,035
-243,190	-181,258	-0,130	0,002
-242,176	372,678	-0,083	0,123
-241,161	124,176	0,023	0,021
-240,146	365,588	-0,007	-0,011
-239,132	-34,791	-0,059	0,024
-238,117	800,000	0,027	-0,075
-237,103	-70,958	0,096	-0,026
-236,088	138,395	0,036	-0,034
-235,073	740,317	-0,024	0,047
-234,059	5,208	-0,042	0,022
-233,044	800,000	0,037	-0,102
-232,030	-97,076	-0,118	0,022
-231,015	-21,060	0,096	-0,043
-230,000	800,000	-0,025	-0,068
-228,986	-54,329	-0,089	-0,029
-227,971	180,646	-0,040	-0,043
-226,957	-107,766	0,100	0,016
-225,942	-200,000	0,017	0,060
-224,927	-198,274	0,079	0,000
-223,913	-119,390	-0,240	0,030
-222,898	-200,000	0,015	-0,071
-221,884	-200,000	-0,007	0,110
-220,869	84,078	-0,071	0,056
-219,855	161,779	0,080	0,082
-218,840	-200,000	0,014	-0,084
-217,825	633,507	-0,049	-0,091
-216,811	800,000	-0,039	-0,115
-215,796	-98,947	-0,007	-0,001
-214,782	800,000	-0,039	-0,095
-213,767	800,000	0,009	-0,025
-212,752	26,368	0,216	0,132
-211,738	-19,651	-0,030	-0,013
-210,723	206,694	-0,045	0,052
-209,709	800,000	-0,050	-0,117
-208,694	180,484	-0,078	-0,084
-207,679	335,767	-0,020	0,029
-206,665	-30,158	0,021	-0,009
-205,650	800,000	0,034	0,104
-204,636	754,020	0,056	0,112
-203,621	337,777	-0,006	0,008
-202,606	32,413	-0,069	-0,043
-201,592	48,517	0,036	0,025
-200,577	-130,589	-0,103	-0,010
-199,563	38,818	0,050	-0,032
-198,548	-200,000	-0,016	0,104
-197,533	800,000	0,017	-0,043
-196,519	73,961	-0,024	-0,018
-195,504	-89,858	-0,067	0,014
-194,490	-90,112	-0,094	-0,020
-193,475	305,605	-0,029	-0,039
-192,460	283,862	-0,043	-0,056
-191,446	24,847	0,082	0,050
-190,431	131,157	0,101	-0,095
-189,417	-200,000	0,019	0,076
-188,402	800,000	-0,037	-0,082
-187,387	-200,000	-0,010	-0,048
-186,373	154,979	0,023	0,023
-185,358	135,160	-0,069	0,066
-184,344	-97,837	-0,157	-0,029
-183,329	4,758	0,101	-0,054
-182,315	-125,884	0,062	-0,007
-181,300	-157,751	0,053	0,002
-180,285	141,148	0,028	-0,027
-179,271	800,000	-0,102	-0,236
-178,256	219,948	0,051	0,060
-177,242	247,142	-0,082	0,101
-176,227	-134,807	0,048	-0,004
-175,212	800,000	-0,039	-0,090
-174,198	-200,000	0,005	-0,071
-173,183	800,000	0,036	-0,098
-172,169	-87,771	0,088	-0,019
-171,154	-200,000	-0,005	0,039
-170,139	-200,000	-0,030	0,188
-169,125	-200,000	-0,026	0,136
-168,110	-75,785	0,053	0,014
-167,096	128,851	0,031	0,028
-166,081	725,401	-0,023	-0,045
-165,066	-75,544	-0,067	0,017
-164,052	800,000	0,039	0,116
-163,037	107,661	-0,039	0,033
-162,023	552,762	0,025	-0,044
-161,008	-45,005	-0,107	0,039
-159,993	-200,000	-0,043	-0,168
-158,979	212,404	0,084	-0,097
-157,964	-140,119	0,097	0,007
-156,950	-96,646	-0,069	0,013
-155,935	80,603	0,071	0,056
-154,920	176,046	-0,037	-0,039
-153,906	-60,058	0,080	0,025
-152,891	-42,678	-0,138	-0,051
-151,877	-200,000	-0,036	0,119
-150,862	92,810	-0,102	-0,084
-149,847	580,739	0,028	-0,050
-148,833	14,894	-0,083	0,047
-147,818	294,212	-0,054	-0,073
-146,804	10,078	-0,105	0,058
-145,789	-200,000	-0,019	-0,070
-144,775	-34,532	0,124	0,049
-143,760	-181,819	-0,215	-0,003
-142,745	798,337	-0,024	-0,048
-141,731	96,396	-0,108	-0,090
-140,716	-200,000	0,004	0,118
-139,702	-63,439	0,163	-0,048
-138,687	236,389	0,031	0,038
-137,672	-200,000	0,015	0,088
-136,658	800,000	-0,009	-0,024
-135,643	37,091	-0,056	-0,036
-134,629	114,227	-0,025	-0,022
-133,614	147,345	-0,015	0,014
-132,599	252,109	0,056	0,070
-131,585	17,993	0,062	0,036
-130,570	800,000	-0,042	-0,092
-129,556	12,978	-0,042	-0,023
-128,541	-200,000	-0,024	-0,154
-127,526	-200,000	-0,031	-0,111
-126,512	-156,329	0,065	0,003
-125,497	-142,862	0,065	-0,005
-124,483	137,873	0,052	-0,050
-123,468	-19,907	-0,085	-0,038
-122,453	-9,301	0,137	0,066
-121,439	-68,591	-0,082	0,023
