DTS Sentinel unit serial number:	SN410029Multiplexer serial number:	ORYXHardware model number:	OX2-SRSoftware version number:	ORYX F/W v4,00 Oryx Data Collector v3.7.2.0data status	okinstallation	B4 Nyhavnadifferential loss correction	single-endedforward channel	channel 2reverse channel	N/Adate	2023/12/18time	16:30:13forward acquisition time	300,00reverse acquisition time	0,00gamma	499,1914k internal	0,3132k external	0,3132temperature offset calibration	1,0000default loss term (dB/km)	0,3820temperature slope calibration	1,0000multiplexer offset coefficient	1,0000multiplexer slope coefficient	1,0000fibre end	0,00T internal ref (°C)	20,35T ext. ref 1 (°C)	7,74T ext. ref 2 (°C)	7,85length (m)	temperature (°C)	Stokes	anti-Stokes-744,400	23,466	-0,085	-0,052
-743,385	-79,465	-0,179	0,045
-742,371	1,571	-0,060	0,032
-741,356	-120,365	-0,229	0,029
-740,342	66,708	0,037	-0,028
-739,327	259,198	-0,183	0,235
-738,312	-164,858	-0,089	0,003
-737,298	23,805	-0,229	0,140
-736,283	-97,403	0,125	0,024
-735,269	-100,220	-0,229	-0,042
-734,254	-200,000	0,007	-0,051
-733,239	-42,280	-0,261	0,099
-732,225	-53,797	0,295	-0,099
-731,210	558,051	0,085	0,153
-730,196	358,436	-0,041	-0,060
-729,181	3,614	0,176	-0,095
-728,167	-52,355	0,129	-0,044
-727,152	800,000	-0,059	-0,163
-726,137	-12,130	-0,094	0,046
-725,123	221,991	-0,092	-0,110
-724,108	76,907	-0,029	-0,023
-723,094	800,000	-0,072	-0,153
-722,079	399,930	-0,079	-0,124
-721,064	-37,496	0,043	-0,017
-720,050	36,169	-0,017	0,011
-719,035	800,000	-0,026	-0,062
-718,021	800,000	0,013	-0,035
-717,006	-200,000	0,021	0,082
-715,991	-200,000	-0,001	0,024
-714,977	-86,464	0,029	0,007
-713,962	463,424	-0,097	-0,162
-712,948	544,425	-0,050	-0,089
-711,933	-28,463	-0,041	0,017
-710,918	-23,220	-0,099	-0,044
-709,904	613,593	0,071	-0,133
-708,889	-89,164	-0,102	0,022
-707,875	800,000	0,056	-0,137
-706,860	-65,440	0,087	0,026
-705,845	58,871	0,098	0,071
-704,831	46,943	0,104	0,072
-703,816	182,501	0,035	-0,039
-702,802	222,875	0,053	0,063
-701,787	524,729	-0,049	-0,085
-700,772	420,750	-0,080	-0,127
-699,758	7,561	0,095	-0,053
-698,743	-200,000	-0,002	-0,055
-697,729	800,000	-0,004	-0,013
-696,714	-46,970	-0,030	0,011
-695,699	103,870	-0,116	-0,101
-694,685	1,353	0,156	0,083
-693,670	-200,000	0,054	-0,220
-692,656	800,000	-0,026	0,061
-691,641	-200,000	-0,003	-0,008
-690,627	-32,969	-0,065	0,026
-689,612	-61,555	-0,091	0,028
-688,597	192,427	0,020	-0,022
-687,583	125,681	-0,062	0,058
-686,568	-200,000	-0,011	0,069
-685,554	103,046	0,103	0,090
-684,539	7,717	-0,075	-0,042
-683,524	-200,000	-0,006	-0,088
-682,510	410,110	0,074	0,117
-681,495	-200,000	0,022	-0,075
-680,481	112,054	-0,022	0,020
-679,466	149,359	-0,112	-0,113
-678,451	-200,000	0,005	-0,164
-677,437	-58,436	-0,020	-0,006
-676,422	352,042	0,031	0,045
-675,408	-200,000	0,018	-0,124
-674,393	-79,329	-0,067	-0,017
-673,378	-200,000	0,001	-0,054
-672,364	-181,831	-0,075	-0,001
-671,349	624,010	-0,086	-0,161
-670,335	493,460	0,073	-0,125
-669,320	557,335	0,067	-0,120
-668,305	186,887	-0,004	-0,004
-667,291	800,000	-0,034	-0,107
-666,276	800,000	-0,011	-0,033
-665,262	-44,567	-0,145	-0,053
-664,247	-200,000	-0,005	-0,107
-663,232	-200,000	-0,160	-0,000
-662,218	-4,431	-0,034	-0,017
-661,203	800,000	0,027	-0,072
-660,189	-161,197	-0,092	0,003
-659,174	68,725	0,133	-0,101
-658,159	-30,687	0,059	-0,025
-657,145	626,418	-0,036	-0,067
-656,130	800,000	-0,007	-0,020
-655,116	692,585	-0,025	0,049
-654,101	800,000	0,037	0,101
-653,086	89,443	0,059	0,048
-652,072	-38,312	-0,103	-0,040
-651,057	-1,815	-0,093	-0,048
-650,043	800,000	-0,023	-0,073
-649,028	-200,000	0,023	-0,090
-648,014	800,000	-0,035	-0,096
-646,999	-33,679	0,157	-0,064
-645,984	9,607	0,049	-0,027
-644,970	68,503	-0,121	-0,092
-643,955	-200,000	0,021	-0,139
-642,941	352,363	-0,095	0,140
-641,926	-200,000	-0,010	0,118
-640,911	188,589	0,028	0,031
-639,897	-200,000	-0,025	0,085
-638,882	-24,528	0,069	0,030
-637,868	-12,577	-0,145	-0,070
-636,853	-178,147	0,139	0,002
-635,838	180,373	0,080	-0,087
-634,824	-200,000	-0,030	0,170
-633,809	-110,607	0,041	-0,006
-632,795	-5,844	-0,042	0,021
-631,780	20,110	0,079	-0,047
-630,765	-200,000	0,002	0,176
-629,751	-121,849	-0,035	-0,004
-628,736	229,645	0,152	-0,184
-627,722	-200,000	-0,012	-0,111
-626,707	-52,174	0,096	-0,033
-625,692	800,000	0,031	0,089
-624,678	205,656	0,066	0,076
-623,663	547,620	-0,031	-0,056
-622,649	300,146	-0,022	-0,030
-621,634	7,519	-0,163	0,090
-620,619	-146,817	0,029	-0,002
-619,605	332,184	0,037	-0,053
-618,590	408,802	0,048	-0,076
-617,576	-119,452	0,089	0,011
-616,561	-102,287	-0,071	0,012
-615,546	-132,927	-0,052	0,005
-614,532	-22,672	-0,085	-0,038
-613,517	38,356	0,078	0,051
-612,503	217,827	-0,036	-0,042
-611,488	-200,000	-0,011	0,066
-610,474	-11,347	0,195	-0,095
-609,459	382,885	0,059	0,089
-608,444	631,047	-0,028	-0,053
-607,430	800,000	-0,039	-0,086
-606,415	-94,301	-0,110	-0,022
-605,401	51,776	-0,080	0,056
-604,386	800,000	0,093	0,241
-603,371	800,000	0,047	0,125
-602,357	38,478	0,100	-0,066
-601,342	-200,000	0,003	0,079
-600,328	209,669	-0,055	0,064
-599,313	800,000	0,039	-0,120
-598,298	149,188	0,148	-0,148
-597,284	800,000	-0,041	0,110
-596,269	110,006	-0,037	0,033
-595,255	300,566	-0,044	0,061
-594,240	-28,479	-0,127	-0,054
-593,225	-200,000	0,004	0,071
-592,211	-200,000	0,001	-0,091
-591,196	-200,000	-0,006	-0,025
-590,182	-200,000	-0,018	0,083
-589,167	-200,000	-0,018	-0,082
-588,152	34,240	0,013	-0,009
-587,138	-200,000	0,010	-0,073
-586,123	-12,957	-0,196	-0,094
-585,109	285,412	0,045	-0,060
-584,094	800,000	-0,034	-0,079
-583,079	-200,000	-0,016	0,081
-582,065	92,824	0,107	0,089
-581,050	48,055	-0,049	0,034
-580,036	353,035	-0,035	0,051
-579,021	-120,548	-0,118	-0,015
-578,006	800,000	0,032	-0,083
-576,992	73,179	-0,062	0,048
-575,977	89,072	0,045	0,037
-574,963	-38,515	0,119	0,046
-573,948	-63,214	0,099	-0,030
-572,934	-11,633	0,054	0,026
-571,919	398,143	-0,050	0,078
-570,904	357,132	0,034	-0,050
-569,890	-200,000	-0,010	0,044
-568,875	-200,000	0,020	0,078
-567,861	57,986	-0,094	0,068
-566,846	-194,994	0,086	0,000
-565,831	-200,000	0,013	0,076
-564,817	800,000	-0,017	-0,035
-563,802	234,452	0,030	-0,036
-562,788	-200,000	0,005	-0,025
-561,773	-200,000	-0,009	0,110
-560,758	-200,000	-0,031	0,213
-559,744	800,000	0,037	-0,099
-558,729	-200,000	0,000	-0,060
-557,715	-18,540	-0,100	-0,046
-556,700	-200,000	0,011	-0,039
-555,685	-120,237	-0,156	-0,019
-554,671	-34,024	-0,057	0,023
-553,656	-52,075	-0,064	0,022
-552,642	-141,234	0,108	0,008
-551,627	606,625	0,013	0,024
-550,612	-200,000	-0,021	-0,131
-549,598	-54,947	-0,098	-0,032
-548,583	634,958	-0,070	0,132
-547,569	-200,000	-0,001	-0,015
-546,554	-106,371	0,130	-0,021
-545,539	-67,364	0,117	0,034
-544,525	115,341	0,035	-0,031
-543,510	87,952	0,094	0,077
-542,496	-200,000	0,014	-0,074
-541,481	56,902	-0,080	0,058
-540,466	800,000	-0,024	-0,056
-539,452	25,836	0,028	0,017
-538,437	0,819	-0,101	-0,053
-537,423	800,000	-0,037	0,094
-536,408	29,403	0,099	0,062
-535,393	-137,804	-0,150	0,012
-534,379	-5,665	0,058	-0,029
-533,364	800,000	0,034	0,090
-532,350	-200,000	-0,008	-0,166
-531,335	-79,607	-0,098	-0,024
-530,321	245,276	0,038	-0,047
-529,306	122,178	-0,096	0,088
-528,291	-200,000	-0,008	-0,054
-527,277	-20,246	-0,101	-0,046
-526,262	-200,000	0,006	-0,101
-525,248	-200,000	0,000	-0,101
-524,233	-200,000	-0,009	-0,041
-523,218	116,698	0,144	-0,130
-522,204	-200,000	-0,028	-0,104
-521,189	27,192	-0,037	0,023
-520,175	86,509	-0,042	0,034
-519,160	207,147	-0,033	-0,038
-518,145	53,528	0,101	0,071
-517,131	-200,000	0,003	0,053
-516,116	800,000	0,027	-0,074
-515,102	-31,656	-0,115	-0,047
-514,087	68,209	-0,129	0,098
-513,072	324,041	-0,104	-0,146
-512,058	370,618	-0,043	-0,064
-511,043	121,028	-0,053	0,049
-510,029	76,334	-0,044	0,034
-509,014	-131,052	0,167	-0,016
-507,999	-106,901	-0,036	0,006
-506,985	800,000	-0,035	-0,087
-505,970	-200,000	-0,012	-0,049
-504,956	59,807	-0,136	-0,099
-503,941	126,679	0,066	-0,061
-502,926	69,352	-0,050	-0,038
-501,912	258,910	-0,075	0,096
-500,897	26,155	0,052	-0,032
-499,883	20,134	-0,076	-0,045
-498,868	-52,736	0,093	-0,031
-497,853	507,729	0,047	-0,081
-496,839	-200,000	0,009	0,028
-495,824	98,519	0,101	-0,086
-494,810	800,000	-0,030	0,081
-493,795	800,000	-0,073	0,153
-492,781	-70,770	0,186	-0,051
-491,766	800,000	-0,042	-0,123
-490,751	-200,000	-0,006	-0,096
-489,737	-200,000	-0,024	0,096
-488,722	-151,501	-0,010	0,001
-487,708	-200,000	-0,005	0,065
-486,693	-54,394	0,065	-0,022
-485,678	-117,900	-0,111	-0,014
-484,664	-140,632	-0,141	0,011
-483,649	-133,283	-0,140	-0,013
-482,635	-76,536	0,052	0,013
-481,620	-200,000	-0,001	0,021
-480,605	112,620	-0,085	-0,076
-479,591	-200,000	0,001	-0,089
-478,576	800,000	-0,012	-0,024
-477,562	416,318	-0,039	-0,061
-476,547	-96,783	-0,045	-0,009
-475,532	-50,172	-0,043	0,015
-474,518	-200,000	0,008	-0,045
-473,503	-200,000	0,011	0,047
-472,489	-80,993	-0,137	0,033
-471,474	136,907	0,078	0,075
-470,459	-65,871	-0,120	-0,035
-469,445	800,000	-0,063	-0,154
-468,430	800,000	0,021	0,050
-467,416	-200,000	-0,001	-0,115
-466,401	-47,489	0,116	0,041
-465,386	45,362	-0,063	-0,043
-464,372	-46,762	-0,188	-0,067
-463,357	154,889	0,031	-0,032
-462,343	-130,071	-0,047	-0,005
-461,328	-200,000	0,005	-0,028
-460,313	-170,486	-0,056	0,001
-459,299	-113,514	0,166	0,024
-458,284	-46,537	0,023	-0,008
-457,270	196,551	0,059	-0,066
-456,255	-200,000	-0,006	-0,124
-455,241	474,752	0,058	-0,096
-454,226	-200,000	0,001	-0,068
-453,211	-110,212	0,011	0,002
-452,197	-43,116	0,110	0,041
-451,182	160,161	-0,020	0,021
-450,168	398,882	-0,031	0,048
-449,153	336,707	-0,169	-0,242
-448,138	-200,000	0,015	0,076
-447,124	-200,000	0,011	0,045
-446,109	29,812	0,138	-0,086
-445,095	744,830	0,084	0,166
-444,080	800,000	-0,034	-0,079
-443,065	-77,048	0,069	-0,017
-442,051	631,957	0,010	-0,019
-441,036	-200,000	0,034	-0,189
-440,022	-181,601	-0,116	-0,002
-439,007	-62,341	0,155	0,047
-437,992	-200,000	-0,033	-0,119
-436,978	800,000	0,050	0,110
-435,963	581,042	0,060	0,108
-434,949	-92,153	0,080	-0,016
-433,934	-8,798	0,039	0,019
-432,919	800,000	0,044	-0,093
-431,905	273,375	-0,094	-0,122
-430,890	60,199	-0,118	-0,086
-429,876	38,866	0,044	-0,029
-428,861	-86,104	0,070	-0,016
-427,846	-200,000	0,004	0,103
-426,832	-29,496	0,022	-0,009
-425,817	-146,175	-0,204	-0,013
-424,803	61,769	-0,093	-0,068
-423,788	-200,000	-0,017	0,125
-422,773	441,302	0,051	-0,082
-421,759	63,726	0,068	0,050
-420,744	-27,992	-0,054	-0,023
-419,730	800,000	0,035	-0,105
-418,715	423,979	-0,061	-0,096
-417,701	-200,000	-0,014	0,196
-416,686	800,000	0,046	-0,116
-415,671	19,912	-0,010	0,006
-414,657	-200,000	0,010	0,062
-413,642	444,499	-0,080	0,129
-412,628	343,688	0,071	0,102
-411,613	288,418	-0,028	-0,037
-410,598	-200,000	0,012	-0,110
-409,584	175,342	-0,028	0,030
-408,569	800,000	0,022	0,057
-407,555	104,536	0,105	0,091
-406,540	-23,825	0,053	0,023
-405,525	-200,000	-0,019	0,069
-404,511	56,671	-0,165	0,117
-403,496	800,000	-0,020	-0,043
-402,482	255,089	-0,065	0,082
-401,467	-200,000	-0,017	0,169
-400,452	-88,328	-0,037	-0,008
-399,438	-118,454	0,076	-0,010
-398,423	9,763	0,038	-0,021
-397,409	-200,000	0,020	-0,075
-396,394	-105,940	0,096	-0,016
-395,379	-132,054	0,067	0,006
-394,365	-200,000	0,006	0,065
-393,350	324,856	0,034	0,048
-392,336	-200,000	0,004	-0,027
-391,321	-87,130	-0,080	-0,018
-390,306	800,000	-0,039	0,082
-389,292	21,822	0,029	-0,017
-388,277	-38,513	0,099	0,038
-387,263	664,665	0,066	-0,125
-386,248	-200,000	0,005	0,094
-385,233	300,285	0,071	0,096
-384,219	-200,000	0,033	0,000
-383,204	203,728	-0,044	-0,050
-382,190	800,000	0,026	0,077
-381,175	-161,431	0,096	-0,004
-380,160	506,596	0,069	0,118
-379,146	800,000	0,040	0,123
-378,131	46,563	0,012	-0,008
-377,117	-87,058	-0,038	-0,008
-376,102	126,094	-0,014	0,013
-375,088	258,874	-0,101	-0,128
-374,073	207,417	-0,032	-0,037
-373,058	-153,694	0,011	-0,001
-372,044	209,027	0,060	0,068
-371,029	800,000	0,054	0,146
-370,015	9,817	0,053	-0,029
-369,000	800,000	0,048	-0,128
-367,985	800,000	-0,068	-0,145
-366,971	800,000	-0,005	-0,011
-365,956	-25,458	0,092	0,040
-364,942	187,618	-0,051	0,056
-363,927	327,077	-0,027	-0,038
-362,912	196,020	-0,144	0,161
-361,898	427,808	0,024	0,037
-360,883	41,828	0,081	-0,053
-359,869	-200,000	0,024	-0,085
-358,854	-81,380	0,043	-0,010
-357,839	800,000	-0,005	-0,009
-356,825	-29,926	0,153	0,064
-355,810	-200,000	-0,020	-0,103
-354,796	-112,804	0,047	0,007
-353,781	-74,101	-0,047	-0,012
-352,766	-200,000	-0,017	0,059
-351,752	-123,775	0,097	0,011
-350,737	800,000	0,038	-0,118
-349,723	-6,462	0,090	0,045
-348,708	286,686	0,094	0,125
-347,693	542,098	-0,040	0,071
-346,679	796,196	0,039	0,080
-345,664	-200,000	-0,002	-0,128
-344,650	800,000	0,035	0,093
-343,635	-200,000	0,000	0,015
-342,620	-100,153	0,162	0,029
-341,606	481,593	0,047	-0,078
-340,591	302,069	-0,040	-0,055
-339,577	-195,932	-0,051	0,000
-338,562	9,821	0,108	0,060
-337,548	303,066	-0,060	0,081
-336,533	-72,377	0,077	0,021
-335,518	-200,000	0,016	0,052
-334,504	134,159	0,110	-0,105
-333,489	32,581	-0,219	0,138
-332,475	-87,495	0,058	-0,013
-331,460	134,312	-0,015	-0,014
-330,445	-161,894	-0,051	0,002
-329,431	463,475	0,047	-0,077
-328,416	800,000	0,058	0,151
-327,402	-109,847	0,108	-0,016
-326,387	563,961	-0,078	0,138
-325,372	-200,000	0,017	0,079
-324,358	-200,000	-0,018	-0,075
-323,343	-13,720	-0,056	0,027
-322,329	-94,669	0,092	-0,018
-321,314	-120,555	-0,048	0,006
-320,299	450,109	0,101	0,163
-319,285	569,398	-0,026	0,047
-318,270	-41,782	-0,069	0,026
-317,256	66,820	-0,121	0,090
-316,241	-47,561	0,064	-0,023
-315,226	128,434	0,111	0,104
-314,212	-200,000	0,023	0,076
-313,197	800,000	0,035	0,099
-312,183	193,291	0,088	-0,098
-311,168	606,692	-0,026	0,048
-310,153	-200,000	0,001	-0,070
-309,139	577,854	0,021	-0,037
-308,124	-34,089	-0,027	0,011
-307,110	420,029	0,031	0,049
-306,095	475,787	0,050	0,082
-305,080	615,446	0,086	-0,157
-304,066	460,702	0,019	-0,031
-303,051	-127,765	-0,110	-0,011
-302,037	800,000	-0,045	-0,123
-301,022	800,000	-0,023	0,069
-300,008	-2,058	0,118	0,060
-298,993	-126,964	-0,068	0,007
-297,978	-200,000	-0,029	0,107
-296,964	-200,000	-0,010	0,094
-295,949	800,000	0,036	-0,102
-294,935	-135,029	-0,167	-0,015
-293,920	-11,095	-0,095	-0,046
-292,905	33,619	0,051	0,032
-291,891	-116,593	-0,045	-0,006
-290,876	-200,000	0,018	0,093
-289,862	143,494	0,059	0,057
-288,847	-200,000	-0,026	0,162
-287,832	-53,829	-0,081	0,027
-286,818	-200,000	0,005	0,049
-285,803	-200,000	-0,001	-0,204
-284,789	-35,416	0,048	-0,019
-283,774	41,483	0,024	-0,016
-282,759	-200,000	-0,021	0,083
-281,745	-136,215	-0,077	-0,006
-280,730	-93,641	0,121	-0,024
-279,716	278,691	0,101	-0,132
-278,701	800,000	-0,053	-0,116
-277,686	-200,000	-0,015	-0,118
-276,672	273,945	0,065	0,085
-275,657	800,000	0,043	0,132
-274,643	4,060	-0,127	-0,067
-273,628	606,022	-0,064	-0,118
-272,613	113,784	-0,030	0,026
-271,599	800,000	-0,011	-0,026
-270,584	30,025	0,069	0,043
-269,570	-0,740	0,151	0,078
-268,555	800,000	0,049	0,141
-267,540	7,691	-0,083	0,045
-266,526	21,826	-0,093	-0,055
-265,511	168,402	0,068	-0,071
-264,497	47,536	-0,117	-0,079
-263,482	-200,000	0,013	-0,055
-262,467	-91,526	0,086	-0,018
-261,453	-61,219	-0,037	-0,011
-260,438	-110,756	-0,101	-0,015
-259,424	-47,129	-0,101	-0,036
-258,409	-200,000	0,016	-0,088
-257,395	-48,396	-0,095	-0,033
-256,380	-163,886	0,030	0,001
-255,365	-55,263	-0,035	-0,011
-254,351	148,064	0,069	0,068
-253,336	39,775	-0,052	-0,034
-252,322	-34,111	-0,140	-0,056
-251,307	306,708	-0,121	-0,165
-250,292	-46,282	0,040	-0,014
-249,278	425,611	0,067	0,105
-248,263	-58,721	-0,055	-0,017
-247,249	-64,122	-0,068	0,020
-246,234	489,750	0,074	0,124
-245,219	11,712	0,052	-0,029
-244,205	-70,565	-0,061	-0,017
-243,190	-20,925	-0,172	-0,077
-242,176	-36,625	0,006	0,002
-241,161	-200,000	-0,004	0,144
-240,146	267,258	0,040	0,051
-239,132	-96,250	0,143	0,027
-238,117	-168,921	-0,159	0,004
-237,103	-96,291	0,085	-0,016
-236,088	-200,000	-0,014	0,194
-235,073	189,640	-0,017	-0,018
-234,059	-200,000	-0,035	0,138
-233,044	-46,655	0,082	0,029
-232,030	-31,876	-0,114	0,046
-231,015	147,507	-0,020	-0,019
-230,000	108,574	-0,175	-0,152
-228,986	82,140	0,015	-0,012
-227,971	-200,000	-0,013	0,074
-226,957	209,317	-0,069	0,079
-225,942	176,212	0,019	-0,020
-224,927	-131,276	0,193	0,018
-223,913	-200,000	0,017	-0,162
-222,898	-60,481	-0,095	-0,029
-221,884	-200,000	-0,014	-0,133
-220,869	9,047	0,065	0,036
-219,855	-200,000	0,009	0,066
-218,840	-200,000	0,008	-0,027
-217,825	117,105	0,022	0,019
-216,811	-200,000	-0,012	0,072
-215,796	800,000	-0,034	0,095
-214,782	327,186	0,056	-0,078
-213,767	-33,693	0,134	-0,053
-212,752	-141,660	0,015	-0,001
-211,738	5,633	0,096	-0,052
-210,723	-200,000	0,013	0,052
-209,709	454,738	0,003	0,006
-208,694	800,000	0,033	-0,068
-207,679	315,713	-0,035	-0,048
-206,665	288,260	0,020	0,026
-205,650	99,602	-0,087	0,073
-204,636	800,000	-0,006	0,015
-203,621	18,817	0,017	-0,010
-202,606	800,000	-0,016	-0,042
-201,592	-43,402	-0,037	-0,013
-200,577	-200,000	-0,006	-0,136
-199,563	-69,434	0,031	-0,009
-198,548	90,446	-0,066	-0,054
-197,533	-200,000	0,009	0,054
-196,519	7,468	-0,048	-0,026
-195,504	9,756	-0,140	-0,077
-194,490	800,000	-0,045	-0,132
-193,475	369,154	0,092	-0,136
-192,460	-200,000	-0,029	0,114
-191,446	78,877	0,030	-0,023
-190,431	92,913	-0,039	0,032
-189,417	122,806	0,027	-0,025
-188,402	-200,000	0,016	0,102
-187,387	-200,000	-0,031	0,108
-186,373	-200,000	-0,158	0,000
-185,358	-115,059	-0,050	-0,007
-184,344	-121,431	0,180	-0,022
-183,329	-200,000	-0,013	0,045
-182,315	-200,000	0,007	-0,034
-181,300	800,000	-0,017	0,049
-180,285	115,947	-0,027	-0,024
-179,271	1,834	-0,024	0,013
-178,256	559,566	-0,017	-0,030
-177,242	290,855	0,065	-0,086
-176,227	283,704	0,114	0,150
-175,212	-95,627	-0,017	-0,003
-174,198	800,000	0,023	0,074
-173,183	217,909	-0,019	0,022
-172,169	-24,167	-0,180	-0,078
-171,154	41,267	0,101	-0,066
-170,139	-200,000	0,007	0,083
-169,125	136,167	0,054	0,051
-168,110	-200,000	-0,004	0,069
-167,096	-200,000	-0,026	-0,085
-166,081	800,000	-0,080	-0,181
-165,066	541,149	0,007	0,012
-164,052	-32,993	0,125	-0,050
-163,037	-51,045	0,073	-0,025
-162,023	-200,000	-0,004	-0,048
-161,008	197,123	0,045	-0,049
-159,993	80,064	-0,041	0,032
-158,979	17,716	-0,071	0,041
-157,964	142,168	-0,076	0,073
-156,950	20,788	0,140	0,082
-155,935	-106,796	-0,076	0,012
-154,920	-19,218	0,173	0,078
-153,906	800,000	-0,057	0,143
-152,891	-200,000	-0,022	0,104
-151,877	-2,984	-0,059	0,030
-150,862	800,000	0,012	-0,031
-149,847	-200,000	-0,017	0,131
-148,833	-9,307	0,077	0,037
-147,818	708,738	0,042	0,080
-146,804	97,319	0,113	-0,094
-145,789	95,839	-0,111	0,092
-144,775	65,406	-0,093	0,068
-143,760	182,557	0,032	-0,034
-142,745	678,464	-0,052	-0,099
-141,731	-200,000	0,034	-0,139
-140,716	-42,093	0,059	0,022
-139,702	-200,000	0,035	0,128
-138,687	13,394	0,025	-0,014
-137,672	89,935	-0,148	0,120
-136,658	800,000	-0,025	-0,073
-135,643	-200,000	-0,018	-0,107
-134,629	120,903	-0,184	-0,166
-133,614	130,490	-0,058	-0,054
-132,599	-200,000	0,001	-0,008
-131,585	-200,000	0,025	0,109
-130,570	-200,000	-0,003	-0,178
-129,556	-200,000	-0,044	0,143
-128,541	135,008	-0,087	-0,082
-127,526	-200,000	-0,040	-0,160
-126,512	-16,602	0,108	0,049
-125,497	5,467	0,137	0,073
-124,483	-200,000	0,021	-0,152
-123,468	175,926	0,098	-0,104
-122,453	800,000	-0,040	-0,113
-121,439	545,456	-0,064	-0,112
-120,424	-200,000	-0,002	-0,107
-119,410	800,000	-0,040	-0,099
