DTS Sentinel unit serial number:	SN410029Multiplexer serial number:	ORYXHardware model number:	OX2-SRSoftware version number:	ORYX F/W v4,00 Oryx Data Collector v3.7.2.0data status	okinstallation	B4 Nyhavnadifferential loss correction	single-endedforward channel	channel 2reverse channel	N/Adate	2023/12/18time	19:25:13forward acquisition time	300,00reverse acquisition time	0,00gamma	499,1914k internal	0,3124k external	0,3124temperature offset calibration	1,0000default loss term (dB/km)	0,3820temperature slope calibration	1,0000multiplexer offset coefficient	1,0000multiplexer slope coefficient	1,0000fibre end	0,00T internal ref (°C)	21,87T ext. ref 1 (°C)	6,96T ext. ref 2 (°C)	6,99length (m)	temperature (°C)	Stokes	anti-Stokes-744,400	289,677	-0,018	0,024
-743,385	348,475	-0,107	0,158
-742,371	-150,725	-0,200	0,011
-741,356	-26,809	-0,223	0,097
-740,342	12,624	0,070	-0,040
-739,327	-138,558	-0,217	0,017
-738,312	386,453	0,031	-0,048
-737,298	141,453	-0,141	0,140
-736,283	270,758	0,111	-0,146
-735,269	133,513	-0,210	0,202
-734,254	-76,973	0,089	0,023
-733,239	-92,915	-0,449	-0,093
-732,225	-114,432	0,064	-0,009
-731,210	-16,906	0,149	0,070
-730,196	106,983	0,081	-0,071
-729,181	-137,629	-0,037	-0,003
-728,167	705,998	-0,075	-0,147
-727,152	106,981	0,012	0,011
-726,137	-82,893	-0,143	-0,034
-725,123	184,832	-0,086	-0,095
-724,108	-200,000	-0,029	-0,112
-723,094	72,369	-0,109	0,085
-722,079	-200,000	-0,002	-0,051
-721,064	-200,000	0,015	-0,071
-720,050	298,600	0,091	-0,125
-719,035	358,008	0,021	-0,031
-718,021	505,183	-0,005	-0,009
-717,006	-83,615	-0,115	-0,027
-715,991	604,583	-0,066	-0,123
-714,977	745,348	-0,056	-0,113
-713,962	590,656	-0,066	0,121
-712,948	-161,823	-0,125	0,005
-711,933	322,856	-0,033	-0,047
-710,918	-77,684	0,060	-0,015
-709,904	-200,000	-0,009	-0,069
-708,889	800,000	0,055	-0,126
-707,875	-200,000	-0,044	-0,169
-706,860	-112,931	-0,085	-0,012
-705,845	-200,000	-0,039	0,170
-704,831	-200,000	-0,004	0,156
-703,816	396,475	-0,075	0,117
-702,802	-142,933	0,052	-0,004
-701,787	115,339	-0,028	-0,025
-700,772	-12,762	-0,063	-0,030
-699,758	730,976	0,024	-0,047
-698,743	-78,293	0,020	0,005
-697,729	800,000	-0,041	0,107
-696,714	229,534	0,042	-0,052
-695,699	198,536	-0,105	-0,119
-694,685	-107,207	-0,091	0,015
-693,670	800,000	-0,037	-0,085
-692,656	-200,000	0,010	-0,173
-691,641	31,179	0,052	-0,033
-690,627	77,997	0,087	0,069
-689,612	170,058	-0,030	-0,032
-688,597	800,000	-0,029	0,069
-687,583	800,000	0,023	0,076
-686,568	-200,000	0,005	-0,032
-685,554	30,008	-0,102	0,064
-684,539	141,505	0,107	-0,105
-683,524	92,333	-0,066	0,056
-682,510	19,247	0,179	0,107
-681,495	201,418	-0,052	-0,060
-680,481	-200,000	0,008	-0,087
-679,466	195,320	-0,173	-0,196
-678,451	95,479	-0,160	-0,135
-677,437	-200,000	-0,011	0,088
-676,422	-200,000	-0,015	-0,065
-675,408	-82,625	0,030	-0,007
-674,393	-200,000	-0,017	-0,106
-673,378	-66,367	-0,162	0,048
-672,364	119,451	-0,023	0,021
-671,349	-200,000	-0,008	-0,028
-670,335	-82,277	0,201	-0,048
-669,320	-62,986	0,074	-0,023
-668,305	800,000	0,005	0,011
-667,291	220,389	0,120	-0,143
-666,276	-13,693	-0,034	0,016
-665,262	-200,000	-0,026	-0,089
-664,247	-83,534	0,073	-0,017
-663,232	-200,000	-0,022	-0,084
-662,218	101,442	0,038	-0,033
-661,203	-126,343	-0,068	-0,007
-660,189	-98,102	-0,093	0,018
-659,174	117,759	-0,017	0,016
-658,159	-200,000	0,029	-0,154
-657,145	-95,660	-0,151	-0,030
-656,130	611,448	0,075	0,140
-655,116	154,261	0,094	0,095
-654,101	-28,022	0,161	-0,069
-653,086	-200,000	-0,003	-0,097
-652,072	-200,000	0,015	0,061
-651,057	-113,632	-0,137	-0,020
-650,043	-200,000	0,017	0,093
-649,028	-200,000	0,011	-0,089
-648,014	-200,000	0,024	0,130
-646,999	36,818	-0,039	-0,026
-645,984	253,047	0,116	-0,148
-644,970	800,000	0,045	-0,116
-643,955	-13,043	-0,073	-0,035
-642,941	-200,000	-0,007	-0,050
-641,926	244,957	0,035	-0,044
-640,911	-200,000	0,007	-0,024
-639,897	144,211	-0,038	0,038
-638,882	-75,820	-0,054	0,014
-637,868	246,505	-0,048	-0,061
-636,853	-87,017	-0,021	-0,005
-635,838	-200,000	0,011	-0,066
-634,824	38,721	-0,039	0,026
-633,809	-155,181	0,109	0,005
-632,795	31,737	0,059	-0,037
-631,780	81,052	0,146	0,116
-630,765	92,045	-0,079	-0,066
-629,751	221,890	-0,074	-0,089
-628,736	159,535	0,063	-0,066
-627,722	-200,000	0,012	-0,081
-626,707	-168,768	0,038	-0,001
-625,692	-200,000	-0,014	0,083
-624,678	-72,318	-0,134	0,037
-623,663	-4,809	-0,045	-0,023
-622,649	157,801	-0,047	0,048
-621,634	-130,371	-0,132	-0,013
-620,619	268,571	-0,007	-0,009
-619,605	-200,000	0,037	-0,129
-618,590	287,452	-0,084	0,113
-617,576	410,432	0,030	0,047
-616,561	485,683	-0,083	-0,140
-615,546	58,701	-0,123	0,089
-614,532	-135,101	-0,072	-0,006
-613,517	242,681	-0,101	-0,126
-612,503	104,509	0,044	-0,039
-611,488	800,000	-0,012	-0,031
-610,474	439,055	-0,044	0,071
-609,459	800,000	-0,021	-0,056
-608,444	203,578	-0,038	0,044
-607,430	-200,000	0,004	-0,037
-606,415	-81,168	-0,121	-0,029
-605,401	39,754	-0,121	0,080
-604,386	800,000	-0,014	0,032
-603,371	350,955	-0,036	0,053
-602,357	-200,000	0,005	-0,105
-601,342	16,906	-0,035	-0,020
-600,328	20,366	-0,051	-0,030
-599,313	404,392	-0,044	-0,069
-598,298	481,864	0,024	-0,040
-597,284	54,560	-0,061	0,043
-596,269	170,551	-0,026	-0,027
-595,255	-93,560	0,025	0,005
-594,240	800,000	0,029	-0,082
-593,225	454,564	0,010	-0,017
-592,211	67,527	-0,059	0,044
-591,196	-200,000	-0,003	0,019
-590,182	-109,750	0,193	0,030
-589,167	58,059	0,083	0,060
-588,152	-200,000	-0,003	0,047
-587,138	61,062	0,042	-0,031
-586,123	800,000	-0,014	0,034
-585,109	-56,976	-0,088	-0,029
-584,094	160,297	-0,072	0,074
-583,079	-84,098	0,070	0,016
-582,065	-110,054	0,076	-0,012
-581,050	260,659	0,015	0,020
-580,036	416,778	-0,038	-0,060
-579,021	800,000	-0,031	-0,097
-578,006	59,831	-0,103	0,075
-576,992	-200,000	0,046	0,161
-575,977	428,636	-0,008	0,013
-574,963	-200,000	-0,001	0,067
-573,948	-200,000	-0,024	-0,150
-572,934	-200,000	-0,012	0,127
-571,919	2,744	0,169	-0,090
-570,904	-126,359	-0,097	-0,011
-569,890	-200,000	-0,000	-0,097
-568,875	64,311	0,066	-0,049
-567,861	-200,000	0,003	-0,027
-566,846	-200,000	0,021	-0,121
-565,831	-183,511	0,075	-0,001
-564,817	-200,000	0,014	-0,134
-563,802	-200,000	-0,015	0,144
-562,788	-200,000	0,001	0,014
-561,773	-151,053	0,030	0,002
-560,758	446,468	0,030	0,048
-559,744	800,000	-0,016	0,050
-558,729	-85,174	0,102	-0,023
-557,715	102,651	-0,098	0,084
-556,700	-86,843	0,090	0,020
-555,685	-125,144	0,058	-0,006
-554,671	-200,000	-0,012	-0,053
-553,656	436,984	0,069	-0,112
-552,642	800,000	0,012	0,036
-551,627	71,116	0,074	0,056
-550,612	800,000	-0,040	-0,124
-549,598	-200,000	-0,035	-0,168
-548,583	87,319	0,103	-0,084
-547,569	-200,000	0,008	-0,124
-546,554	-160,399	0,114	-0,004
-545,539	800,000	0,031	0,096
-544,525	305,807	-0,096	0,132
-543,510	133,025	-0,027	-0,026
-542,496	-115,547	-0,127	-0,018
-541,481	125,566	-0,077	-0,072
-540,466	374,708	0,012	-0,018
-539,452	156,614	0,021	0,021
-538,437	677,147	0,042	0,081
-537,423	-186,132	0,034	0,000
-536,408	-200,000	-0,001	-0,041
-535,393	-24,644	-0,037	0,016
-534,379	-200,000	0,002	0,113
-533,364	-148,455	0,110	-0,007
-532,350	-139,155	0,108	0,009
-531,335	545,159	0,011	0,020
-530,321	-200,000	-0,011	-0,101
-529,306	95,598	-0,116	-0,097
-528,291	42,205	-0,138	-0,092
-527,277	800,000	-0,042	-0,137
-526,262	631,241	-0,033	0,062
-525,248	-110,853	0,122	-0,018
-524,233	290,572	-0,067	-0,090
-523,218	149,986	-0,093	0,094
-522,204	486,218	-0,092	-0,156
-521,189	-200,000	0,014	-0,129
-520,175	39,655	0,024	-0,016
-519,160	800,000	-0,038	0,082
-518,145	800,000	-0,049	0,116
-517,131	214,788	0,024	-0,028
-516,116	800,000	0,005	0,012
-515,102	745,673	-0,009	-0,018
-514,087	-200,000	-0,005	0,029
-513,072	354,797	0,041	-0,060
-512,058	-73,511	0,095	0,025
-511,043	-200,000	0,015	0,120
-510,029	-200,000	-0,021	0,102
-509,014	79,063	0,055	0,043
-507,999	270,225	0,123	-0,160
-506,985	23,369	-0,132	0,080
-505,970	345,467	-0,041	0,060
-504,956	44,740	-0,109	-0,074
-503,941	-68,815	0,115	-0,033
-502,926	52,042	0,063	0,045
-501,912	-200,000	-0,015	0,222
-500,897	51,289	0,064	0,045
-499,883	-200,000	-0,002	-0,106
-498,868	-200,000	0,009	-0,131
-497,853	800,000	0,023	0,048
-496,839	-59,783	0,009	-0,003
-495,824	156,471	0,067	-0,068
-494,810	-87,891	0,104	0,023
-493,795	-200,000	-0,005	0,019
-492,781	-91,718	-0,125	0,026
-491,766	-62,514	0,138	0,042
-490,751	-39,687	-0,099	0,038
-489,737	446,530	0,033	0,053
-488,722	-200,000	0,006	-0,064
-487,708	-124,779	0,101	0,011
-486,693	-200,000	0,000	0,086
-485,678	76,777	0,044	-0,034
-484,664	-200,000	-0,036	0,129
-483,649	260,825	-0,024	0,030
-482,635	-72,725	-0,058	-0,016
-481,620	613,693	0,033	-0,062
-480,605	-200,000	0,015	0,090
-479,591	-200,000	0,010	0,039
-478,576	-200,000	-0,004	-0,183
-477,562	800,000	-0,029	-0,080
-476,547	-200,000	0,029	-0,105
-475,532	13,523	-0,096	0,055
-474,518	-200,000	0,009	0,059
-473,503	-200,000	0,024	0,119
-472,489	35,985	0,095	-0,061
-471,474	2,496	-0,096	-0,051
-470,459	164,182	-0,077	0,080
-469,445	429,054	-0,050	0,080
-468,430	-200,000	0,007	-0,110
-467,416	-45,253	0,046	-0,017
-466,401	-135,994	0,085	0,007
-465,386	-60,022	0,078	-0,025
-464,372	103,491	0,025	0,022
-463,357	266,680	0,054	-0,070
-462,343	-105,579	-0,094	0,016
-461,328	-41,483	0,054	-0,020
-460,313	189,476	0,025	0,027
-459,299	127,399	0,024	0,022
-458,284	800,000	-0,022	0,066
-457,270	-200,000	-0,005	0,077
-456,255	-200,000	0,009	-0,049
-455,241	-200,000	0,010	-0,108
-454,226	-147,522	0,070	-0,004
-453,211	-200,000	-0,009	-0,037
-452,197	-200,000	-0,010	0,094
-451,182	-200,000	-0,005	0,125
-450,168	800,000	-0,016	0,037
-449,153	545,486	0,048	0,086
-448,138	-25,842	0,047	-0,020
-447,124	-11,286	0,020	0,010
-446,109	-200,000	0,001	-0,142
-445,095	249,035	0,057	-0,072
-444,080	-125,224	0,130	-0,014
-443,065	769,460	0,031	-0,062
-442,051	-63,680	-0,093	-0,028
-441,036	100,864	0,109	-0,093
-440,022	-193,679	-0,094	0,001
-439,007	502,498	-0,041	0,070
-437,992	-69,725	-0,064	-0,018
-436,978	800,000	-0,012	-0,027
-435,963	50,007	0,054	0,038
-434,949	-14,381	-0,127	0,060
-433,934	75,923	-0,131	-0,102
-432,919	-25,290	0,108	-0,047
-431,905	-101,651	0,048	0,009
-430,890	300,671	-0,063	0,086
-429,876	479,982	0,075	-0,125
-428,861	-200,000	-0,017	-0,055
-427,846	468,727	-0,059	-0,098
-426,832	800,000	0,027	-0,084
-425,817	254,218	-0,061	0,077
-424,803	800,000	-0,080	-0,182
-423,788	70,651	0,168	0,128
-422,773	800,000	-0,004	0,011
-421,759	217,235	-0,073	0,085
-420,744	-186,504	0,043	-0,000
-419,730	800,000	-0,006	-0,016
-418,715	-152,077	-0,063	0,003
-417,701	89,169	-0,063	-0,051
-416,686	255,922	0,124	0,156
-415,671	-127,608	-0,068	0,007
-414,657	180,065	-0,008	0,009
-413,642	124,683	-0,060	-0,056
-412,628	67,131	0,038	0,028
-411,613	-62,208	-0,076	-0,023
-410,598	-200,000	-0,000	-0,131
-409,584	-173,132	0,101	-0,002
-408,569	23,107	-0,070	-0,042
-407,555	-88,568	0,041	-0,009
-406,540	-20,771	-0,157	-0,071
-405,525	165,135	-0,127	-0,132
-404,511	3,724	0,023	0,012
-403,496	-200,000	0,000	0,028
-402,482	800,000	-0,028	0,087
-401,467	136,901	0,063	0,061
-400,452	163,302	-0,015	0,016
-399,438	-24,716	0,119	-0,052
-398,423	69,682	-0,084	0,063
-397,409	144,285	-0,111	0,109
-396,394	800,000	-0,035	-0,083
-395,379	8,219	0,092	-0,051
-394,365	94,829	0,045	0,038
-393,350	293,275	0,111	0,149
-392,336	222,764	-0,050	0,059
-391,321	49,079	0,080	0,055
-390,306	145,761	0,014	-0,014
-389,292	102,487	0,049	0,042
-388,277	800,000	0,057	-0,141
-387,263	-200,000	0,009	-0,056
-386,248	282,204	0,052	0,068
-385,233	-43,363	-0,111	0,041
-384,219	-196,192	-0,194	0,001
-383,204	591,386	-0,064	0,116
-382,190	-192,215	-0,062	0,000
-381,175	133,400	-0,108	0,102
-380,160	-200,000	-0,035	0,126
-379,146	-200,000	0,001	0,120
-378,131	-85,616	0,155	0,035
-377,117	-123,458	-0,120	-0,014
-376,102	-200,000	-0,010	-0,070
-375,088	800,000	0,018	-0,058
-374,073	54,310	0,141	-0,100
-373,058	582,205	0,009	-0,017
-372,044	151,088	0,036	0,036
-371,029	-200,000	-0,014	0,072
-370,015	36,509	0,114	-0,074
-369,000	378,637	-0,076	0,115
-367,985	112,334	-0,058	-0,051
-366,971	446,571	-0,060	0,097
-365,956	-55,425	-0,084	-0,027
-364,942	201,113	-0,016	0,018
-363,927	-200,000	-0,003	0,024
-362,912	228,363	0,070	0,084
-361,898	-58,285	0,069	0,022
-360,883	-153,895	-0,141	0,007
-359,869	30,318	0,082	-0,051
-358,854	-12,323	0,078	0,037
-357,839	494,724	0,071	0,120
-356,825	-200,000	-0,000	0,057
-355,810	588,239	-0,022	-0,040
-354,796	-118,785	0,098	-0,012
-353,781	289,610	-0,027	-0,036
-352,766	-87,226	0,070	0,015
-351,752	602,399	-0,042	0,077
-350,737	277,737	0,068	0,089
-349,723	-148,392	-0,026	-0,002
-348,708	-100,046	-0,091	0,017
-347,693	-200,000	0,011	-0,084
-346,679	800,000	-0,017	0,038
-345,664	800,000	-0,043	0,136
-344,650	800,000	0,029	-0,062
-343,635	-200,000	-0,030	0,131
-342,620	101,435	0,031	0,026
-341,606	800,000	-0,056	-0,128
-340,591	-200,000	-0,029	-0,123
-339,577	-61,527	0,154	0,047
-338,562	13,167	-0,074	0,042
-337,548	135,193	0,014	0,013
-336,533	23,096	-0,109	-0,066
-335,518	357,490	0,078	0,115
-334,504	-149,144	0,100	-0,006
-333,489	148,904	-0,055	-0,055
-332,475	-97,764	0,030	-0,006
-331,460	22,135	-0,126	-0,075
-330,445	110,367	0,055	-0,048
-329,431	-81,840	0,022	-0,005
-328,416	-200,000	-0,032	0,134
-327,402	-46,352	-0,046	-0,017
-326,387	203,370	0,005	-0,006
-325,372	800,000	0,020	-0,049
-324,358	-200,000	-0,018	-0,059
-323,343	154,434	-0,076	-0,076
-322,329	-73,766	0,037	0,010
-321,314	-200,000	-0,019	-0,061
-320,299	-91,210	0,090	0,019
-319,285	66,398	0,127	0,095
-318,270	-106,300	0,117	0,019
-317,256	-200,000	-0,002	0,007
-316,241	-36,137	-0,141	-0,056
-315,226	40,602	0,044	0,029
-314,212	-138,044	0,091	-0,007
-313,197	312,233	0,008	-0,011
-312,183	21,308	0,136	-0,081
-311,168	193,845	-0,112	0,124
-310,153	33,079	-0,143	0,091
-309,139	28,103	0,058	-0,036
-308,124	-87,807	-0,048	0,010
-307,110	-109,127	0,176	0,027
-306,095	132,357	-0,095	0,089
-305,080	380,206	-0,049	-0,074
-304,066	-78,502	0,047	0,012
-303,051	-200,000	0,032	-0,123
-302,037	-200,000	0,020	-0,069
-301,022	-200,000	0,020	-0,101
-300,008	-109,556	-0,066	0,010
-298,993	43,471	0,146	0,097
-297,978	50,258	0,104	0,072
-296,964	-200,000	-0,034	0,194
-295,949	-42,303	0,007	-0,002
-294,935	-195,930	-0,191	0,001
-293,920	800,000	-0,045	-0,100
-292,905	-14,907	-0,032	-0,015
-291,891	31,775	0,046	-0,029
-290,876	-200,000	0,004	-0,077
-289,862	-200,000	0,010	-0,144
-288,847	544,339	-0,071	-0,125
-287,832	25,998	-0,034	-0,021
-286,818	132,822	-0,138	0,131
-285,803	800,000	-0,040	0,119
-284,789	186,167	0,013	-0,015
-283,774	221,411	-0,033	-0,039
-282,759	800,000	-0,031	-0,080
-281,745	-200,000	0,032	-0,225
-280,730	-107,565	-0,236	0,037
-279,716	-200,000	-0,028	-0,106
-278,701	-119,666	0,073	-0,009
-277,686	177,115	0,069	0,073
-276,672	106,084	0,071	-0,061
-275,657	50,367	0,039	-0,027
-274,643	800,000	0,004	-0,010
-273,628	-200,000	0,003	0,086
-272,613	778,778	0,033	0,066
-271,599	722,743	-0,044	0,086
-270,584	-153,244	0,208	0,010
-269,570	800,000	0,037	0,092
-268,555	255,948	-0,078	-0,098
-267,540	-200,000	0,015	-0,107
-266,526	800,000	0,059	-0,156
-265,511	-132,256	0,156	-0,015
-264,497	10,943	-0,071	0,039
-263,482	-0,722	-0,041	0,021
-262,467	800,000	-0,044	0,112
-261,453	187,682	0,057	0,062
-260,438	-107,838	-0,069	0,011
-259,424	-88,951	0,069	-0,015
-258,409	125,316	0,039	-0,036
-257,395	173,099	0,052	0,054
-256,380	-200,000	0,032	0,182
-255,365	-200,000	0,000	0,006
-254,351	44,372	-0,095	-0,063
-253,336	53,777	-0,099	-0,070
-252,322	141,524	0,041	0,040
-251,307	430,159	0,024	-0,038
-250,292	-52,588	-0,085	0,028
-249,278	-7,876	0,196	0,096
-248,263	274,564	0,049	0,064
-247,249	53,824	0,131	-0,092
-246,234	-200,000	0,007	0,033
-245,219	345,060	-0,020	0,028
-244,205	800,000	0,037	-0,105
-243,190	-105,691	0,100	0,016
-242,176	800,000	-0,006	-0,017
-241,161	-97,388	0,070	-0,013
-240,146	42,864	0,023	0,015
-239,132	774,231	0,020	-0,041
-238,117	59,686	0,041	-0,029
-237,103	-200,000	0,006	-0,207
-236,088	298,227	0,013	0,018
-235,073	-68,094	-0,030	-0,009
-234,059	78,433	-0,021	-0,016
-233,044	-200,000	-0,008	0,031
-232,030	-200,000	0,017	-0,120
-231,015	2,441	-0,037	-0,019
-230,000	800,000	0,042	-0,112
-228,986	-200,000	0,009	-0,116
-227,971	122,326	0,056	0,051
-226,957	-200,000	0,001	-0,035
-225,942	-70,589	0,139	0,038
-224,927	478,304	0,052	0,086
-223,913	-85,880	-0,216	-0,048
-222,898	-200,000	-0,021	0,088
-221,884	496,315	-0,062	-0,105
-220,869	-153,835	0,061	-0,003
-219,855	-109,225	0,140	-0,021
-218,840	6,411	0,021	0,011
-217,825	-123,161	-0,099	0,011
-216,811	-34,999	-0,165	0,065
-215,796	-200,000	0,026	0,088
-214,782	504,445	-0,040	0,068
-213,767	-21,735	0,043	-0,019
-212,752	183,140	-0,094	0,102
-211,738	-101,133	0,166	0,029
-210,723	1,131	-0,035	-0,018
-209,709	-53,154	0,096	0,032
-208,694	-200,000	0,025	-0,136
-207,679	-42,059	-0,130	0,048
-206,665	-28,312	0,085	-0,036
-205,650	50,936	0,135	0,093
-204,636	800,000	0,032	0,096
-203,621	118,265	0,079	-0,071
-202,606	318,328	0,050	-0,069
-201,592	-37,192	-0,126	0,049
-200,577	-200,000	0,031	-0,130
-199,563	-200,000	0,006	-0,027
-198,548	66,419	-0,025	0,018
-197,533	453,654	0,089	0,143
-196,519	-200,000	-0,006	0,083
-195,504	213,534	-0,032	0,037
-194,490	-119,453	-0,033	0,004
-193,475	-200,000	-0,057	-0,186
-192,460	107,777	-0,033	-0,029
-191,446	102,615	0,033	-0,028
-190,431	230,256	-0,065	0,077
-189,417	95,973	-0,096	0,080
-188,402	-3,394	-0,022	-0,011
-187,387	-200,000	-0,000	0,095
-186,373	-162,605	-0,038	0,001
-185,358	800,000	0,036	0,087
-184,344	71,732	0,121	0,092
-183,329	-200,000	0,004	0,087
-182,315	147,419	-0,026	-0,025
-181,300	-66,559	-0,040	0,012
-180,285	800,000	0,036	-0,084
-179,271	-43,163	-0,192	-0,071
-178,256	96,296	0,115	0,096
-177,242	-117,193	0,034	0,004
-176,227	41,524	-0,077	0,051
-175,212	693,861	0,009	0,018
-174,198	441,751	-0,024	0,038
-173,183	241,681	0,034	-0,041
-172,169	800,000	-0,036	0,074
-171,154	5,738	-0,117	0,063
-170,139	2,053	0,060	-0,032
-169,125	339,332	0,021	0,030
-168,110	-46,475	0,103	0,037
-167,096	1,503	0,053	-0,028
-166,081	-200,000	-0,011	0,095
-165,066	97,082	-0,062	0,052
-164,052	-200,000	-0,028	0,097
-163,037	-12,986	-0,131	0,062
-162,023	-39,293	0,095	-0,036
-161,008	-200,000	0,002	0,057
-159,993	-139,522	-0,159	-0,012
-158,979	611,419	-0,052	-0,095
-157,964	-40,824	0,060	-0,023
-156,950	60,754	-0,105	0,076
-155,935	353,146	-0,051	0,074
-154,920	-41,216	0,070	0,026
-153,906	-200,000	0,001	0,051
-152,891	591,038	-0,056	0,102
-151,877	800,000	-0,067	0,144
-150,862	106,023	-0,080	-0,069
-149,847	-200,000	-0,006	0,092
-148,833	-200,000	-0,014	0,067
-147,818	-78,578	0,103	0,025
-146,804	800,000	0,005	0,013
-145,789	24,017	0,020	0,012
-144,775	-200,000	0,101	0,000
-143,760	614,301	0,051	-0,093
-142,745	420,753	-0,074	-0,116
-141,731	-200,000	-0,000	0,118
-140,716	-60,305	0,061	0,019
-139,702	-200,000	-0,004	0,037
-138,687	800,000	0,008	0,020
-137,672	252,874	-0,034	0,043
-136,658	800,000	-0,032	-0,102
-135,643	800,000	0,023	-0,060
-134,629	-25,407	-0,166	0,071
-133,614	92,343	0,100	-0,082
-132,599	509,256	-0,039	0,066
-131,585	-68,492	0,111	0,031
-130,570	-200,000	-0,015	0,092
-129,556	76,101	-0,115	-0,088
-128,541	-50,982	-0,038	0,013
-127,526	-200,000	-0,011	0,077
-126,512	800,000	0,055	-0,124
-125,497	-200,000	0,003	-0,087
-124,483	-200,000	0,018	0,127
-123,468	-200,000	0,010	0,037
-122,453	422,911	0,043	-0,068
-121,439	284,128	-0,017	-0,023
-120,424	-95,109	-0,050	0,010
-119,410	-37,104	0,110	0,042
