DTS Sentinel unit serial number:	SN410029Multiplexer serial number:	ORYXHardware model number:	OX2-SRSoftware version number:	ORYX F/W v4,00 Oryx Data Collector v3.7.2.0data status	okinstallation	B4 Nyhavnadifferential loss correction	single-endedforward channel	channel 2reverse channel	N/Adate	2023/12/19time	06:45:14forward acquisition time	300,00reverse acquisition time	0,00gamma	499,1914k internal	0,3126k external	0,3126temperature offset calibration	1,0000default loss term (dB/km)	0,3820temperature slope calibration	1,0000multiplexer offset coefficient	1,0000multiplexer slope coefficient	1,0000fibre end	0,00T internal ref (°C)	21,19T ext. ref 1 (°C)	6,55T ext. ref 2 (°C)	6,65length (m)	temperature (°C)	Stokes	anti-Stokes-744,400	-49,486	0,049	0,017
-743,385	158,776	-0,170	0,176
-742,371	-111,638	0,061	0,009
-741,356	-149,222	-0,212	0,012
-740,342	-9,502	0,083	0,041
-739,327	-61,130	-0,142	0,044
-738,312	-139,251	-0,061	-0,005
-737,298	-115,766	-0,225	0,031
-736,283	-200,000	-0,006	-0,149
-735,269	203,657	-0,177	0,204
-734,254	-17,986	-0,087	0,040
-733,239	-56,204	-0,435	-0,143
-732,225	22,853	0,145	-0,088
-731,210	76,242	0,019	0,015
-730,196	-41,392	0,134	0,051
-729,181	-200,000	0,002	-0,040
-728,167	-57,455	-0,066	-0,021
-727,152	-89,960	-0,104	-0,022
-726,137	-114,326	-0,070	0,010
-725,123	-133,422	-0,129	0,012
-724,108	10,111	-0,215	-0,121
-723,094	-86,904	-0,068	0,015
-722,079	11,306	-0,097	-0,055
-721,064	194,449	-0,094	0,106
-720,050	-200,000	0,021	0,073
-719,035	-200,000	0,012	0,147
-718,021	-200,000	0,001	0,031
-717,006	-102,698	-0,166	0,029
-715,991	-200,000	-0,012	-0,081
-714,977	233,462	-0,080	-0,098
-713,962	411,317	-0,099	0,157
-712,948	755,650	0,025	-0,050
-711,933	-200,000	0,000	-0,065
-710,918	6,677	-0,121	0,066
-709,904	69,221	-0,038	-0,029
-708,889	-200,000	-0,014	-0,099
-707,875	-101,396	0,065	-0,012
-706,860	800,000	-0,028	-0,085
-705,845	107,797	0,055	-0,048
-704,831	800,000	0,081	-0,201
-703,816	-22,061	0,071	-0,032
-702,802	-200,000	-0,004	-0,097
-701,787	-200,000	-0,008	-0,046
-700,772	-7,703	-0,024	0,012
-699,758	800,000	-0,028	-0,087
-698,743	407,793	0,055	0,086
-697,729	190,798	0,067	0,075
-696,714	-200,000	0,022	-0,101
-695,699	-200,000	-0,008	-0,103
-694,685	-200,000	0,009	0,068
-693,670	-34,973	0,025	-0,010
-692,656	-12,238	-0,085	0,041
-691,641	345,650	-0,024	0,035
-690,627	-75,514	-0,026	-0,007
-689,612	-6,411	0,106	-0,054
-688,597	-200,000	-0,003	-0,142
-687,583	-200,000	-0,018	-0,135
-686,568	800,000	-0,040	-0,084
-685,554	800,000	-0,030	-0,090
-684,539	4,221	-0,059	0,032
-683,524	-91,851	0,061	0,013
-682,510	408,466	-0,056	0,088
-681,495	89,537	-0,053	-0,044
-680,481	-200,000	-0,014	-0,095
-679,466	21,242	0,117	-0,070
-678,451	283,271	0,029	-0,038
-677,437	-31,119	-0,093	0,039
-676,422	-155,960	-0,130	0,006
-675,408	800,000	0,006	0,014
-674,393	43,528	0,087	-0,059
-673,378	-200,000	-0,013	-0,057
-672,364	-95,573	-0,059	-0,012
-671,349	800,000	0,023	-0,052
-670,335	304,747	0,035	-0,049
-669,320	-200,000	-0,040	0,137
-668,305	109,870	0,101	0,090
-667,291	17,002	-0,060	0,035
-666,276	-10,669	-0,138	-0,068
-665,262	72,434	-0,131	-0,102
-664,247	295,474	-0,065	-0,089
-663,232	-108,715	0,104	0,016
-662,218	-117,894	-0,083	0,011
-661,203	-200,000	0,003	0,124
-660,189	133,181	0,049	-0,047
-659,174	129,658	-0,046	-0,044
-658,159	-60,081	-0,025	0,008
-657,145	-182,406	-0,110	-0,001
-656,130	370,742	0,011	0,017
-655,116	-66,463	-0,077	-0,023
-654,101	44,066	0,032	-0,022
-653,086	-124,624	0,107	0,012
-652,072	800,000	0,018	0,056
-651,057	257,303	-0,043	-0,056
-650,043	325,540	0,034	0,048
-649,028	-70,828	-0,031	-0,009
-648,014	-200,000	0,013	-0,105
-646,999	-200,000	0,031	0,101
-645,984	-86,245	0,058	0,013
-644,970	97,467	0,047	-0,040
-643,955	-200,000	0,008	-0,116
-642,941	36,936	-0,125	-0,082
-641,926	800,000	-0,024	-0,079
-640,911	704,660	0,017	-0,033
-639,897	800,000	0,017	-0,043
-638,882	485,610	-0,036	-0,061
-637,868	134,133	-0,057	-0,054
-636,853	-200,000	0,008	-0,146
-635,838	-200,000	0,005	-0,034
-634,824	180,549	-0,057	-0,062
-633,809	59,271	-0,048	0,035
-632,795	-200,000	0,015	-0,080
-631,780	645,218	-0,038	0,073
-630,765	6,243	-0,032	-0,018
-629,751	432,151	0,060	-0,097
-628,736	49,986	-0,189	-0,132
-627,722	95,010	0,155	0,131
-626,707	19,841	-0,053	-0,031
-625,692	-1,286	0,035	0,018
-624,678	-200,000	-0,013	0,106
-623,663	32,597	-0,093	-0,060
-622,649	18,435	0,041	0,024
-621,634	-200,000	0,047	-0,166
-620,619	302,861	-0,094	-0,130
-619,605	800,000	0,038	-0,087
-618,590	113,187	0,048	0,043
-617,576	414,438	-0,040	-0,064
-616,561	-84,470	-0,068	-0,016
-615,546	38,645	0,025	-0,016
-614,532	-94,916	-0,169	-0,034
-613,517	-22,092	0,097	0,044
-612,503	-200,000	0,005	-0,021
-611,488	23,181	0,092	0,056
-610,474	-200,000	-0,017	0,061
-609,459	38,144	-0,089	0,058
-608,444	800,000	0,022	-0,071
-607,430	-200,000	0,052	-0,188
-606,415	-21,784	-0,155	-0,069
-605,401	-200,000	0,005	-0,068
-604,386	-29,502	0,063	-0,027
-603,371	-10,995	-0,046	-0,023
-602,357	350,325	-0,039	0,057
-601,342	183,246	-0,059	0,065
-600,328	131,899	-0,086	-0,082
-599,313	-101,294	-0,155	0,028
-598,298	163,956	-0,030	-0,031
-597,284	482,417	0,047	0,079
-596,269	361,415	-0,026	-0,038
-595,255	-200,000	-0,006	-0,064
-594,240	151,487	-0,071	0,071
-593,225	541,459	-0,028	-0,049
-592,211	148,374	-0,059	-0,059
-591,196	-46,115	0,103	-0,037
-590,182	-200,000	-0,000	0,126
-589,167	-47,423	0,172	-0,062
-588,152	-92,895	0,142	0,029
-587,138	-126,538	0,145	-0,016
-586,123	68,445	-0,078	-0,059
-585,109	-200,000	-0,014	-0,062
-584,094	-200,000	-0,001	0,012
-583,079	-49,488	0,118	-0,041
-582,065	117,919	0,040	0,037
-581,050	455,693	-0,047	0,078
-580,036	23,605	-0,041	0,025
-579,021	28,320	-0,036	0,023
-578,006	800,000	-0,069	-0,142
-576,992	-119,584	-0,126	-0,016
-575,977	-137,654	-0,142	-0,012
-574,963	800,000	0,063	0,144
-573,948	-174,924	-0,158	-0,003
-572,934	-98,457	-0,110	-0,021
-571,919	-16,031	0,126	-0,059
-570,904	326,510	0,023	0,033
-569,890	305,375	-0,013	-0,019
-568,875	236,670	-0,083	0,102
-567,861	-62,922	-0,079	-0,024
-566,846	-59,380	0,150	0,047
-565,831	-64,716	-0,026	-0,008
-564,817	-200,000	0,010	-0,068
-563,802	800,000	-0,040	-0,103
-562,788	800,000	0,050	-0,134
-561,773	235,120	-0,090	-0,110
-560,758	237,526	0,059	-0,072
-559,744	-200,000	0,019	0,095
-558,729	800,000	-0,027	0,079
-557,715	225,497	0,042	0,050
-556,700	-89,066	0,099	-0,022
-555,685	-200,000	0,007	0,046
-554,671	239,412	-0,061	-0,075
-553,656	482,623	0,020	0,034
-552,642	-200,000	-0,008	0,069
-551,627	-88,816	0,076	-0,016
-550,612	800,000	0,048	0,100
-549,598	54,940	-0,093	0,066
-548,583	264,037	0,056	-0,072
-547,569	-200,000	0,009	-0,106
-546,554	800,000	-0,036	0,086
-545,539	-200,000	0,009	0,130
-544,525	615,645	0,042	0,078
-543,510	106,593	-0,054	-0,047
-542,496	-200,000	0,003	-0,080
-541,481	239,444	-0,091	-0,112
-540,466	137,244	-0,053	-0,051
-539,452	154,161	0,047	-0,047
-538,437	177,486	0,086	-0,093
-537,423	-200,000	-0,015	-0,081
-536,408	800,000	-0,057	0,165
-535,393	298,055	0,033	0,045
-534,379	-36,334	0,080	0,032
-533,364	800,000	-0,034	-0,082
-532,350	152,174	0,033	-0,033
-531,335	-94,773	0,113	-0,023
-530,321	-31,383	-0,056	0,023
-529,306	-200,000	-0,001	-0,093
-528,291	-155,663	-0,130	0,006
-527,277	92,575	-0,085	-0,071
-526,262	-200,000	0,027	-0,135
-525,248	-84,089	0,017	0,004
-524,233	-200,000	0,042	0,169
-523,218	386,045	0,024	-0,037
-522,204	33,763	-0,010	-0,007
-521,189	15,318	0,061	-0,035
-520,175	-200,000	0,003	-0,086
-519,160	271,068	0,053	-0,068
-518,145	800,000	0,047	0,120
-517,131	353,231	-0,034	-0,049
-516,116	-200,000	0,020	0,089
-515,102	-5,028	0,138	0,070
-514,087	36,035	-0,170	0,110
-513,072	-142,421	-0,170	0,012
-512,058	-76,361	0,090	-0,023
-511,043	329,397	0,012	-0,017
-510,029	29,259	0,085	0,053
-509,014	312,919	-0,122	0,169
-507,999	-200,000	-0,035	-0,119
-506,985	147,803	0,069	0,069
-505,970	-200,000	0,006	-0,050
-504,956	-82,703	0,070	-0,017
-503,941	418,674	-0,105	0,166
-502,926	-9,724	0,043	-0,021
-501,912	-200,000	0,001	-0,154
-500,897	-200,000	-0,016	-0,059
-499,883	-125,867	0,077	0,008
-498,868	-172,057	-0,021	-0,000
-497,853	800,000	0,042	-0,132
-496,839	-32,581	-0,007	-0,003
-495,824	57,264	-0,031	-0,022
-494,810	102,215	-0,096	-0,083
-493,795	-83,378	0,114	-0,027
-492,781	-136,112	-0,093	-0,008
-491,766	4,186	-0,031	-0,017
-490,751	-75,565	-0,110	-0,029
-489,737	47,605	0,119	0,082
-488,722	98,219	0,061	-0,051
-487,708	-86,934	0,106	-0,024
-486,693	-200,000	0,007	-0,051
-485,678	170,323	0,089	0,094
-484,664	33,675	-0,100	-0,064
-483,649	135,425	-0,077	-0,074
-482,635	-96,039	0,100	0,019
-481,620	-200,000	0,024	-0,153
-480,605	350,296	-0,075	0,110
-479,591	-200,000	0,002	-0,019
-478,576	-135,340	0,038	0,003
-477,562	110,209	-0,045	-0,040
-476,547	312,332	-0,063	-0,088
-475,532	-76,880	0,079	0,020
-474,518	137,292	0,039	0,038
-473,503	800,000	0,020	0,050
-472,489	188,021	-0,041	-0,046
-471,474	800,000	-0,022	0,055
-470,459	800,000	-0,056	-0,166
-469,445	800,000	-0,016	-0,036
-468,430	49,888	0,096	0,067
-467,416	104,269	-0,020	-0,018
-466,401	-200,000	-0,003	0,119
-465,386	510,062	-0,076	0,130
-464,372	420,173	0,089	0,141
-463,357	-75,050	-0,168	0,044
-462,343	66,245	0,009	-0,007
-461,328	19,460	-0,050	0,030
-460,313	800,000	0,026	0,082
-459,299	525,152	0,077	0,135
-458,284	52,798	0,085	-0,060
-457,270	96,330	0,019	0,016
-456,255	122,687	0,089	-0,082
-455,241	694,299	-0,018	0,035
-454,226	216,892	0,096	-0,112
-453,211	-99,478	-0,108	-0,020
-452,197	148,393	0,084	0,083
-451,182	-86,751	-0,075	0,017
-450,168	-112,141	-0,065	-0,009
-449,153	358,302	-0,042	-0,062
-448,138	-200,000	-0,003	-0,073
-447,124	-200,000	-0,005	-0,048
-446,109	-66,701	0,067	0,019
-445,095	-87,384	-0,075	0,017
-444,080	-200,000	0,020	0,065
-443,065	-1,685	-0,038	-0,020
-442,051	-24,457	-0,007	-0,003
-441,036	-122,449	-0,122	-0,014
-440,022	-200,000	-0,020	0,079
-439,007	137,294	0,119	0,114
-437,992	-200,000	0,022	0,098
-436,978	-200,000	-0,005	0,068
-435,963	-200,000	0,003	0,129
-434,949	-52,774	0,082	-0,028
-433,934	-200,000	-0,025	-0,132
-432,919	-200,000	-0,009	-0,092
-431,905	1,744	-0,035	-0,019
-430,890	-115,856	0,048	0,007
-429,876	628,974	0,044	-0,083
-428,861	-200,000	0,021	0,069
-427,846	2,105	-0,024	0,013
-426,832	-200,000	0,014	-0,054
-425,817	695,272	-0,071	0,137
-424,803	86,662	-0,097	-0,078
-423,788	66,559	0,134	0,100
-422,773	-123,286	0,064	-0,007
-421,759	-200,000	0,005	0,053
-420,744	-200,000	-0,014	0,065
-419,730	656,703	-0,022	-0,041
-418,715	800,000	-0,010	-0,024
-417,701	-71,880	0,066	0,018
-416,686	56,883	0,107	-0,076
-415,671	56,550	0,108	0,077
-414,657	165,110	0,072	0,075
-413,642	800,000	0,028	-0,066
-412,628	-200,000	-0,024	0,125
-411,613	-59,403	-0,158	-0,050
-410,598	-9,184	0,028	-0,014
-409,584	-1,131	0,105	-0,054
-408,569	800,000	0,018	0,046
-407,555	-200,000	-0,001	-0,059
-406,540	-200,000	0,033	0,285
-405,525	-28,355	0,107	0,045
-404,511	46,379	-0,102	0,070
-403,496	-55,686	-0,097	-0,032
-402,482	164,840	0,061	-0,064
-401,467	55,217	0,059	0,042
-400,452	-138,371	0,188	0,015
-399,438	-165,208	-0,012	-0,000
-398,423	-200,000	-0,038	-0,168
-397,409	-200,000	-0,012	-0,043
-396,394	800,000	0,064	-0,147
-395,379	800,000	0,051	-0,149
-394,365	-200,000	0,002	-0,208
-393,350	-200,000	0,013	0,119
-392,336	-200,000	-0,033	0,161
-391,321	225,913	-0,030	-0,036
-390,306	4,225	0,134	-0,072
-389,292	-147,710	0,053	-0,003
-388,277	-200,000	0,001	-0,139
-387,263	19,292	-0,097	0,057
-386,248	47,319	0,092	0,062
-385,233	-4,782	-0,083	0,042
-384,219	298,802	-0,008	-0,011
-383,204	81,401	-0,111	-0,088
-382,190	-200,000	-0,010	0,067
-381,175	800,000	-0,041	0,102
-380,160	-62,850	0,117	0,035
-379,146	-120,787	-0,018	0,002
-378,131	-200,000	-0,003	0,040
-377,117	84,684	0,040	0,032
-376,102	494,672	-0,085	-0,144
-375,088	215,917	-0,088	-0,102
-374,073	-200,000	0,009	0,048
-373,058	-32,087	0,028	0,011
-372,044	3,611	-0,026	0,014
-371,029	-127,361	0,104	-0,011
-370,015	-200,000	-0,014	0,069
-369,000	-128,797	0,083	-0,008
-367,985	347,618	-0,038	-0,055
-366,971	-9,684	-0,020	0,010
-365,956	521,635	-0,036	-0,062
-364,942	36,719	-0,018	0,012
-363,927	0,188	-0,061	0,032
-362,912	79,188	0,031	0,025
-361,898	-200,000	-0,001	-0,087
-360,883	800,000	-0,048	-0,101
-359,869	-73,797	-0,237	-0,063
-358,854	692,452	-0,061	0,118
-357,839	-128,389	0,083	0,009
-356,825	-85,844	0,127	-0,029
-355,810	-200,000	-0,003	0,059
-354,796	123,819	0,056	-0,051
-353,781	800,000	-0,044	-0,103
-352,766	514,761	0,043	-0,073
-351,752	-165,696	0,146	-0,005
-350,737	-81,085	0,192	0,046
-349,723	62,078	0,199	0,145
-348,708	-63,391	0,055	0,016
-347,693	86,044	0,062	0,050
-346,679	-200,000	0,013	0,152
-345,664	-200,000	0,008	-0,094
-344,650	106,421	0,043	0,037
-343,635	569,066	0,021	0,037
-342,620	494,768	0,049	-0,083
-341,606	516,382	-0,095	-0,163
-340,591	-2,318	0,016	-0,008
-339,577	233,301	-0,031	-0,037
-338,562	527,334	0,024	0,042
-337,548	-16,290	-0,127	0,059
-336,533	199,274	0,061	-0,069
-335,518	155,897	-0,037	-0,037
-334,504	-71,627	-0,045	0,012
-333,489	-2,276	-0,056	-0,029
-332,475	555,302	-0,040	-0,071
-331,460	107,298	-0,159	0,138
-330,445	-153,295	0,104	-0,005
-329,431	236,906	-0,039	0,048
-328,416	80,060	0,042	0,033
-327,402	-200,000	-0,175	0,000
-326,387	-95,354	-0,048	0,009
-325,372	-200,000	-0,018	-0,106
-324,358	132,957	-0,065	0,061
-323,343	735,938	-0,003	-0,005
-322,329	157,602	0,100	0,101
-321,314	-67,446	0,071	0,020
-320,299	-200,000	0,021	0,072
-319,285	85,300	-0,055	0,044
-318,270	286,598	-0,051	0,068
-317,256	146,572	-0,073	0,072
-316,241	-147,234	0,103	0,006
-315,226	-52,170	0,089	-0,030
-314,212	273,785	0,053	-0,069
-313,197	-108,022	-0,109	-0,017
-312,183	612,823	0,023	0,043
-311,168	-171,237	0,058	0,001
-310,153	135,023	-0,178	-0,170
-309,139	529,668	0,031	-0,055
-308,124	-80,805	-0,061	0,015
-307,110	-108,445	-0,069	-0,011
-306,095	-126,966	0,002	0,000
-305,080	29,109	-0,058	0,036
-304,066	-200,000	0,037	-0,240
-303,051	-75,660	-0,135	-0,035
-302,037	-200,000	0,008	0,064
-301,022	294,634	-0,021	-0,028
-300,008	800,000	0,098	0,201
-298,993	-200,000	0,035	0,146
-297,978	800,000	0,030	0,082
-296,964	309,738	-0,103	-0,142
-295,949	46,268	0,045	-0,030
-294,935	800,000	0,022	-0,054
-293,920	-132,088	-0,063	0,006
-292,905	151,129	0,021	0,020
-291,891	-200,000	-0,006	0,045
-290,876	470,713	-0,067	0,110
-289,862	102,981	0,097	-0,083
-288,847	-99,186	-0,052	0,009
-287,832	408,537	0,052	-0,080
-286,818	6,522	0,133	-0,072
-285,803	-200,000	-0,038	0,158
-284,789	-200,000	0,010	0,124
-283,774	417,296	-0,015	0,024
-282,759	-200,000	0,026	-0,144
-281,745	108,210	-0,052	-0,046
-280,730	800,000	-0,068	0,144
-279,716	86,022	0,119	-0,096
-278,701	269,047	0,063	0,081
-277,686	-61,196	0,151	0,046
-276,672	530,650	-0,046	-0,079
-275,657	-200,000	-0,008	0,091
-274,643	-200,000	0,010	-0,089
-273,628	118,990	-0,081	0,073
-272,613	-112,589	-0,092	0,013
-271,599	-147,417	0,079	-0,005
-270,584	-48,617	-0,094	-0,033
-269,570	-1,133	0,008	0,004
-268,555	-200,000	-0,032	0,148
-267,540	-126,453	0,191	-0,020
-266,526	800,000	0,010	-0,028
-265,511	20,759	-0,038	0,022
-264,497	73,543	-0,011	0,009
-263,482	800,000	-0,017	-0,052
-262,467	-23,894	0,107	0,047
-261,453	641,710	-0,051	0,096
-260,438	87,162	0,014	0,012
-259,424	-97,082	-0,131	-0,025
-258,409	-200,000	-0,014	0,053
-257,395	8,649	-0,030	0,017
-256,380	711,487	0,027	0,053
-255,365	-200,000	0,033	0,122
-254,351	156,368	-0,033	-0,033
-253,336	800,000	-0,076	-0,168
-252,322	-41,683	-0,118	0,044
-251,307	73,288	0,096	-0,073
-250,292	-72,819	0,144	-0,038
-249,278	1,411	-0,085	0,045
-248,263	-200,000	0,002	0,023
-247,249	-18,888	0,099	0,045
-246,234	191,245	0,032	0,036
-245,219	-165,160	-0,077	-0,002
-244,205	3,172	-0,154	0,082
-243,190	73,340	0,109	0,083
-242,176	81,710	0,064	-0,051
-241,161	153,583	-0,107	0,108
-240,146	-151,138	0,119	-0,006
-239,132	-59,655	-0,046	0,014
-238,117	548,970	0,052	-0,091
-237,103	26,266	-0,092	-0,056
-236,088	744,038	-0,036	0,072
-235,073	-79,334	0,230	0,057
-234,059	541,044	0,097	0,169
-233,044	800,000	-0,008	0,016
-232,030	-0,568	-0,175	-0,090
-231,015	-200,000	-0,018	0,092
-230,000	-59,233	-0,060	0,019
-228,986	75,129	-0,061	0,047
-227,971	253,058	-0,048	0,060
-226,957	800,000	-0,013	0,036
-225,942	329,031	0,026	-0,036
-224,927	163,299	-0,028	0,029
-223,913	86,622	-0,092	-0,074
-222,898	20,031	-0,137	0,081
-221,884	-200,000	-0,011	-0,055
-220,869	-50,907	-0,097	-0,033
-219,855	-200,000	0,084	-0,000
-218,840	-200,000	-0,035	0,143
-217,825	-131,219	0,035	0,003
-216,811	800,000	-0,010	0,030
-215,796	-200,000	-0,011	-0,088
-214,782	800,000	0,056	-0,134
-213,767	108,543	-0,094	-0,082
-212,752	-115,429	0,057	0,008
-211,738	-200,000	-0,042	0,150
-210,723	-200,000	-0,038	0,145
-209,709	85,672	-0,022	-0,018
-208,694	32,870	0,104	-0,066
-207,679	93,503	0,077	0,064
-206,665	-8,071	-0,075	-0,037
-205,650	39,890	-0,064	0,042
-204,636	800,000	0,064	0,156
-203,621	-54,177	-0,027	-0,009
-202,606	146,554	0,076	0,074
-201,592	65,409	-0,063	0,047
-200,577	-7,863	-0,088	0,043
-199,563	800,000	0,035	0,103
-198,548	800,000	0,045	-0,093
-197,533	290,326	0,080	0,107
-196,519	-200,000	0,011	-0,145
-195,504	-200,000	0,007	0,062
-194,490	-200,000	0,004	-0,032
-193,475	234,622	-0,114	-0,137
-192,460	151,775	-0,057	0,056
-191,446	-125,059	0,181	-0,020
-190,431	469,799	-0,060	0,098
-189,417	73,943	0,031	-0,024
-188,402	-200,000	0,002	-0,029
-187,387	268,907	-0,077	-0,099
-186,373	-14,998	-0,060	0,028
-185,358	800,000	-0,065	-0,177
-184,344	-200,000	0,018	0,214
-183,329	498,544	-0,027	0,046
-182,315	-160,026	0,035	-0,001
-181,300	-89,903	0,124	-0,026
-180,285	744,739	-0,034	-0,066
-179,271	-200,000	-0,002	-0,016
-178,256	468,692	0,030	0,049
-177,242	800,000	0,037	0,090
-176,227	-92,839	0,090	-0,018
-175,212	284,867	0,103	0,135
-174,198	-95,000	-0,118	0,023
-173,183	-200,000	0,001	0,110
-172,169	-46,552	-0,056	-0,020
-171,154	-200,000	-0,024	0,080
-170,139	167,399	0,049	-0,051
-169,125	-42,165	-0,068	0,025
-168,110	-200,000	0,001	0,071
-167,096	150,524	0,035	-0,035
-166,081	-200,000	0,006	0,043
-165,066	-200,000	-0,042	-0,176
-164,052	-200,000	0,011	0,043
-163,037	-160,215	-0,030	0,001
-162,023	210,416	0,126	0,144
-161,008	98,160	0,100	0,084
-159,993	-200,000	0,011	-0,059
-158,979	90,116	0,018	0,014
-157,964	-200,000	0,012	-0,055
-156,950	800,000	-0,070	-0,153
-155,935	-41,116	0,128	-0,048
-154,920	-200,000	-0,006	0,080
-153,906	-66,609	0,128	-0,037
-152,891	-200,000	-0,009	0,082
-151,877	-200,000	-0,001	0,051
-150,862	130,398	0,093	-0,087
-149,847	-112,882	0,171	0,024
-148,833	-200,000	0,000	0,102
-147,818	309,125	-0,042	0,058
-146,804	445,053	0,075	0,120
-145,789	800,000	0,027	0,069
-144,775	800,000	-0,029	0,064
-143,760	17,786	-0,107	0,062
-142,745	-200,000	-0,014	-0,105
-141,731	24,891	0,116	-0,070
-140,716	465,182	0,072	0,117
-139,702	-14,324	0,060	0,028
-138,687	-23,317	-0,047	0,020
-137,672	-200,000	0,027	-0,131
-136,658	-124,810	0,076	0,008
-135,643	611,440	-0,041	0,076
-134,629	501,757	0,076	0,128
-133,614	-200,000	0,024	0,107
-132,599	125,997	0,095	0,087
-131,585	800,000	-0,047	0,146
-130,570	-155,126	-0,077	-0,004
-129,556	127,009	-0,089	0,082
-128,541	185,100	0,060	-0,065
-127,526	-86,145	0,034	0,008
-126,512	-100,967	0,060	0,011
-125,497	-39,793	0,090	-0,034
-124,483	800,000	-0,060	-0,122
-123,468	398,529	-0,056	0,085
-122,453	263,256	-0,064	0,081
-121,439	76,153	-0,075	-0,058
-120,424	406,548	-0,051	-0,078
-119,410	800,000	0,034	0,095
-118,395	42,019	-0,101	0,066
