DTS Sentinel unit serial number:	SN410029Multiplexer serial number:	ORYXHardware model number:	OX2-SRSoftware version number:	ORYX F/W v4,00 Oryx Data Collector v3.7.2.0data status	okinstallation	B4 Nyhavnadifferential loss correction	single-endedforward channel	channel 2reverse channel	N/Adate	2023/12/16time	10:55:13forward acquisition time	300,00reverse acquisition time	0,00gamma	499,1914k internal	0,3126k external	0,3126temperature offset calibration	1,0000default loss term (dB/km)	0,3820temperature slope calibration	1,0000multiplexer offset coefficient	1,0000multiplexer slope coefficient	1,0000fibre end	0,00T internal ref (°C)	23,48T ext. ref 1 (°C)	9,12T ext. ref 2 (°C)	9,30length (m)	temperature (°C)	Stokes	anti-Stokes-744,400	189,498	0,105	-0,117
-743,385	-130,102	-0,153	0,015
-742,371	406,859	0,027	-0,043
-741,356	152,662	-0,136	0,139
-740,342	800,000	0,024	0,074
-739,327	70,014	-0,141	0,108
-738,312	800,000	-0,021	-0,060
-737,298	-132,259	-0,296	0,028
-736,283	37,038	0,080	-0,052
-735,269	-28,153	-0,123	-0,053
-734,254	22,954	-0,050	-0,030
-733,239	-25,932	-0,365	-0,159
-732,225	96,083	0,142	-0,121
-731,210	15,229	0,103	0,060
-730,196	-137,782	0,016	0,001
-729,181	-144,840	0,054	0,004
-728,167	140,798	0,052	-0,052
-727,152	273,936	0,095	-0,125
-726,137	-100,963	-0,082	0,015
-725,123	267,633	-0,054	0,070
-724,108	-63,232	-0,075	0,023
-723,094	599,953	0,062	-0,116
-722,079	-200,000	-0,038	-0,163
-721,064	681,304	0,024	-0,047
-720,050	689,404	-0,003	-0,005
-719,035	800,000	-0,036	0,089
-718,021	299,623	-0,043	-0,059
-717,006	-32,296	0,097	-0,040
-715,991	112,989	0,077	-0,069
-714,977	156,615	-0,027	-0,028
-713,962	800,000	0,024	-0,072
-712,948	-200,000	-0,001	0,017
-711,933	366,042	-0,032	-0,048
-710,918	7,452	0,087	-0,048
-709,904	800,000	-0,052	-0,114
-708,889	-98,605	-0,075	0,014
-707,875	240,311	0,042	-0,052
-706,860	374,134	-0,011	-0,017
-705,845	800,000	-0,036	0,086
-704,831	-75,421	-0,035	-0,009
-703,816	43,581	-0,012	0,008
-702,802	-168,752	-0,072	0,002
-701,787	279,657	-0,117	-0,155
-700,772	61,284	0,026	-0,019
-699,758	-200,000	0,014	0,074
-698,743	197,836	-0,082	-0,093
-697,729	-166,308	0,058	0,002
-696,714	-1,390	0,086	-0,045
-695,699	-200,000	0,020	-0,068
-694,685	800,000	-0,089	-0,203
-693,670	800,000	-0,021	-0,061
-692,656	366,454	0,028	0,042
-691,641	800,000	-0,075	-0,214
-690,627	10,425	-0,094	0,053
-689,612	-84,153	0,094	-0,022
-688,597	58,619	0,122	0,089
-687,583	-165,445	-0,130	-0,004
-686,568	114,068	-0,081	-0,073
-685,554	800,000	0,038	0,109
-684,539	112,265	0,083	0,075
-683,524	96,963	-0,048	0,041
-682,510	134,776	0,096	-0,092
-681,495	212,166	-0,061	-0,072
-680,481	237,482	-0,051	-0,063
-679,466	-200,000	-0,016	-0,111
-678,451	-200,000	0,006	-0,124
-677,437	800,000	0,059	0,123
-676,422	-200,000	0,001	0,149
-675,408	800,000	0,042	0,094
-674,393	-99,940	-0,079	-0,015
-673,378	-200,000	-0,007	-0,042
-672,364	51,651	0,099	-0,070
-671,349	47,209	-0,056	-0,039
-670,335	-30,549	-0,071	-0,030
-669,320	800,000	0,046	0,104
-668,305	800,000	0,022	0,070
-667,291	332,107	-0,071	-0,102
-666,276	231,419	-0,037	0,045
-665,262	223,287	0,035	-0,042
-664,247	-200,000	-0,004	-0,056
-663,232	-200,000	-0,017	0,111
-662,218	73,786	-0,069	0,054
-661,203	-12,718	0,055	-0,027
-660,189	-18,393	0,033	-0,015
-659,174	-200,000	-0,011	-0,110
-658,159	-64,742	-0,144	-0,043
-657,145	-25,483	-0,026	-0,011
-656,130	152,866	-0,070	0,071
-655,116	800,000	0,055	0,147
-654,101	126,981	-0,049	-0,046
-653,086	-153,281	-0,162	0,008
-652,072	221,030	-0,122	0,145
-651,057	-200,000	-0,010	-0,063
-650,043	-12,374	-0,075	-0,036
-649,028	800,000	0,031	-0,095
-648,014	-200,000	0,012	0,068
-646,999	262,523	-0,024	-0,031
-645,984	379,588	-0,022	-0,033
-644,970	466,481	-0,080	-0,133
-643,955	-158,298	-0,014	-0,001
-642,941	100,964	-0,024	-0,021
-641,926	-32,913	-0,029	0,012
-640,911	120,674	0,023	0,021
-639,897	170,475	0,090	0,096
-638,882	-200,000	0,004	-0,159
-637,868	-200,000	0,018	-0,092
-636,853	251,411	-0,076	0,096
-635,838	-200,000	0,000	-0,031
-634,824	-200,000	0,006	-0,051
-633,809	26,809	-0,186	-0,115
-632,795	800,000	0,043	-0,088
-631,780	-200,000	-0,011	0,177
-630,765	621,346	-0,041	-0,077
-629,751	38,679	0,093	0,061
-628,736	-132,545	0,078	0,007
-627,722	800,000	-0,033	0,098
-626,707	100,334	0,108	-0,093
-625,692	71,000	0,018	-0,014
-624,678	-200,000	0,006	0,138
-623,663	558,805	-0,058	-0,105
-622,649	165,615	-0,061	0,064
-621,634	-24,228	-0,060	-0,027
-620,619	416,376	-0,016	-0,026
-619,605	344,652	0,056	0,082
-618,590	10,668	0,092	0,052
-617,576	56,310	0,131	-0,094
-616,561	146,147	-0,072	-0,072
-615,546	-200,000	0,018	-0,133
-614,532	800,000	-0,013	0,035
-613,517	-200,000	0,010	0,047
-612,503	74,008	-0,087	0,068
-611,488	-65,863	0,074	0,022
-610,474	82,749	0,137	0,111
-609,459	88,166	-0,011	0,009
-608,444	346,563	-0,122	-0,179
-607,430	76,134	0,128	-0,100
-606,415	800,000	-0,041	-0,104
-605,401	-33,136	-0,104	-0,043
-604,386	-75,346	0,181	-0,047
-603,371	800,000	-0,024	0,067
-602,357	-67,724	0,023	0,007
-601,342	224,641	-0,047	-0,056
-600,328	-200,000	-0,016	-0,152
-599,313	800,000	0,022	0,057
-598,298	-200,000	0,008	0,076
-597,284	800,000	0,015	0,036
-596,269	-12,512	-0,053	-0,025
-595,255	-142,865	-0,034	0,002
-594,240	12,175	-0,106	0,060
-593,225	-7,092	-0,054	-0,027
-592,211	-142,704	-0,039	-0,003
-591,196	-137,338	0,048	-0,004
-590,182	425,270	-0,063	-0,101
-589,167	208,917	-0,099	0,115
-588,152	-43,852	-0,084	0,031
-587,138	104,073	-0,032	0,028
-586,123	240,095	-0,050	-0,061
-585,109	328,209	0,005	-0,007
-584,094	-109,912	-0,148	-0,023
-583,079	61,767	0,095	-0,070
-582,065	-132,042	-0,043	0,004
-581,050	301,239	-0,105	0,143
-580,036	-200,000	-0,010	-0,107
-579,021	138,299	-0,089	-0,087
-578,006	-200,000	0,003	-0,049
-576,992	-1,950	0,065	-0,034
-575,977	-51,773	0,156	0,053
-574,963	191,347	0,030	0,033
-573,948	800,000	-0,070	0,150
-572,934	70,928	-0,145	-0,111
-571,919	-34,604	-0,051	0,020
-570,904	-200,000	0,000	-0,029
-569,890	-74,580	-0,112	-0,030
-568,875	-64,503	0,086	0,026
-567,861	-42,215	-0,085	0,032
-566,846	58,963	0,074	-0,054
-565,831	-200,000	-0,006	-0,020
-564,817	-37,340	-0,127	-0,050
-563,802	-157,968	0,140	-0,006
-562,788	-169,533	0,145	0,004
-561,773	800,000	0,048	-0,147
-560,758	353,006	0,031	-0,046
-559,744	-200,000	-0,026	0,108
-558,729	101,510	0,090	0,077
-557,715	-89,380	-0,122	0,026
-556,700	535,514	-0,015	0,026
-555,685	182,790	0,086	0,094
-554,671	-134,515	-0,072	-0,006
-553,656	-200,000	0,076	-0,000
-552,642	-101,497	-0,038	0,007
-551,627	618,696	0,050	-0,094
-550,612	243,524	0,022	0,027
-549,598	800,000	-0,019	-0,046
-548,583	-68,025	-0,162	0,046
-547,569	800,000	-0,011	0,027
-546,554	161,378	0,034	0,035
-545,539	321,562	-0,067	0,094
-544,525	-200,000	0,012	0,062
-543,510	-200,000	-0,016	0,097
-542,496	83,551	0,070	-0,056
-541,481	-200,000	-0,007	-0,102
-540,466	-161,187	0,150	-0,006
-539,452	371,768	0,041	0,062
-538,437	-200,000	0,033	0,129
-537,423	161,073	-0,054	0,056
-536,408	-84,722	-0,124	-0,029
-535,393	-19,350	0,072	-0,033
-534,379	472,454	0,045	0,076
-533,364	-27,234	-0,194	0,083
-532,350	-82,406	0,081	-0,019
-531,335	-15,575	0,102	-0,048
-530,321	800,000	0,038	-0,081
-529,306	146,208	0,022	0,022
-528,291	800,000	0,012	0,028
-527,277	-12,937	-0,048	0,023
-526,262	769,721	-0,009	0,018
-525,248	-161,674	0,054	0,002
-524,233	469,976	0,027	0,045
-523,218	-200,000	0,020	0,156
-522,204	800,000	-0,021	0,044
-521,189	30,077	-0,051	0,032
-520,175	-97,065	-0,076	0,015
-519,160	89,857	0,108	-0,089
-518,145	-156,958	-0,045	-0,002
-517,131	634,984	-0,024	0,045
-516,116	-25,873	0,054	-0,023
-515,102	26,493	0,062	0,038
-514,087	-200,000	-0,019	-0,085
-513,072	275,522	0,052	-0,068
-512,058	526,314	-0,063	-0,110
-511,043	-200,000	0,005	-0,023
-510,029	90,273	-0,115	-0,095
-509,014	-36,412	0,073	0,029
-507,999	-24,913	-0,070	-0,031
-506,985	224,348	-0,091	-0,108
-505,970	502,524	-0,072	-0,123
-504,956	73,967	-0,062	-0,048
-503,941	499,538	-0,011	0,019
-502,926	-25,913	-0,015	-0,007
-501,912	185,826	0,066	0,072
-500,897	96,127	-0,032	0,027
-499,883	800,000	-0,019	-0,062
-498,868	145,360	-0,040	-0,039
-497,853	800,000	-0,033	-0,084
-496,839	800,000	-0,072	-0,190
-495,824	800,000	-0,036	0,110
-494,810	-200,000	0,002	0,024
-493,795	66,215	-0,178	0,133
-492,781	-62,224	0,100	0,031
-491,766	-140,036	0,076	-0,006
-490,751	51,032	-0,048	-0,033
-489,737	87,331	0,016	0,013
-488,722	-74,653	0,060	0,016
-487,708	-92,658	-0,179	0,037
-486,693	788,004	-0,050	0,103
-485,678	800,000	0,038	0,079
-484,664	800,000	0,028	0,090
-483,649	-2,644	-0,075	-0,039
-482,635	-26,371	0,028	-0,012
-481,620	1,710	0,153	-0,081
-480,605	101,545	-0,024	0,021
-479,591	304,816	-0,093	-0,128
-478,576	-92,527	0,068	0,014
-477,562	34,604	0,069	0,045
-476,547	-62,711	-0,054	0,016
-475,532	-172,261	0,119	0,003
-474,518	-200,000	-0,003	-0,015
-473,503	-149,181	0,111	-0,006
-472,489	-21,191	0,108	-0,048
-471,474	-200,000	-0,017	0,069
-470,459	-62,597	0,036	-0,011
-469,445	-33,475	-0,066	0,027
-468,430	-200,000	-0,047	-0,180
-467,416	159,273	-0,043	-0,044
-466,401	26,732	0,112	-0,069
-465,386	-87,823	-0,049	0,011
-464,372	269,894	0,030	0,039
-463,357	475,104	0,084	0,141
-462,343	-200,000	0,021	-0,079
-461,328	-200,000	0,011	0,104
-460,313	-49,320	0,111	0,039
-459,299	217,564	-0,007	0,009
-458,284	-132,267	0,058	0,005
-457,270	348,131	0,070	0,102
-456,255	268,356	0,027	-0,034
-455,241	800,000	-0,030	-0,082
-454,226	-122,653	-0,030	0,004
-453,211	-200,000	-0,012	0,069
-452,197	7,072	0,101	0,055
-451,182	-112,743	-0,179	0,026
-450,168	-200,000	-0,002	-0,074
-449,153	-96,483	0,020	-0,004
-448,138	167,070	0,059	-0,062
-447,124	773,173	-0,054	-0,110
-446,109	-105,669	-0,095	0,016
-445,095	-159,510	0,130	0,005
-444,080	-200,000	-0,020	0,250
-443,065	-44,255	0,074	0,027
-442,051	-33,111	-0,052	0,021
-441,036	34,722	0,060	0,039
-440,022	535,994	0,049	0,087
-439,007	481,181	-0,031	-0,053
-437,992	134,665	0,067	-0,064
-436,978	243,900	0,065	0,081
-435,963	139,095	-0,079	0,076
-434,949	296,469	0,129	-0,174
-433,934	800,000	-0,039	-0,080
-432,919	-200,000	-0,002	-0,041
-431,905	800,000	-0,033	-0,096
-430,890	-1,012	0,010	-0,005
-429,876	779,776	0,083	-0,169
-428,861	172,912	-0,064	-0,068
-427,846	620,350	-0,004	0,007
-426,832	-138,256	-0,110	-0,009
-425,817	137,250	-0,087	-0,084
-424,803	228,660	0,042	-0,050
-423,788	223,762	0,028	0,033
-422,773	-200,000	-0,011	-0,051
-421,759	-200,000	0,058	0,224
-420,744	168,891	-0,128	0,134
-419,730	332,782	0,071	-0,102
-418,715	184,413	0,051	-0,056
-417,701	800,000	-0,092	-0,189
-416,686	-200,000	0,001	-0,127
-415,671	556,212	0,072	0,127
-414,657	13,453	0,130	0,074
-413,642	38,823	-0,061	0,040
-412,628	-200,000	-0,003	-0,093
-411,613	50,813	-0,088	-0,061
-410,598	800,000	-0,021	0,055
-409,584	800,000	-0,011	-0,026
-408,569	236,768	0,073	-0,089
-407,555	-26,501	0,127	-0,054
-406,540	182,229	-0,076	-0,082
-405,525	-200,000	0,031	-0,105
-404,511	370,966	0,034	0,050
-403,496	250,654	0,063	0,079
-402,482	42,242	-0,022	-0,014
-401,467	232,484	0,034	0,041
-400,452	776,453	0,059	0,119
-399,438	245,283	0,041	0,051
-398,423	-200,000	0,020	-0,077
-397,409	-200,000	-0,015	-0,146
-396,394	-147,960	0,055	0,003
-395,379	-103,417	0,176	-0,030
-394,365	-32,507	0,168	0,069
-393,350	205,540	0,023	-0,026
-392,336	-200,000	-0,001	0,083
-391,321	88,741	-0,100	0,081
-390,306	342,894	0,042	-0,061
-389,292	-200,000	0,017	-0,101
-388,277	391,310	0,053	-0,080
-387,263	-159,296	-0,031	-0,001
-386,248	449,684	-0,084	0,137
-385,233	-51,738	0,100	-0,034
-384,219	134,691	0,093	-0,089
-383,204	14,316	0,080	-0,046
-382,190	-57,244	0,078	0,025
-381,175	63,075	-0,154	-0,113
-380,160	230,026	0,059	-0,071
-379,146	176,973	0,104	-0,112
-378,131	4,507	-0,060	0,032
-377,117	57,083	-0,112	-0,080
-376,102	-99,683	-0,049	0,009
-375,088	-10,879	-0,151	-0,073
-374,073	127,355	0,053	0,049
-373,058	731,384	0,104	0,205
-372,044	484,929	0,065	0,110
-371,029	34,087	0,107	-0,068
-370,015	-200,000	-0,006	0,024
-369,000	-200,000	-0,026	-0,135
-367,985	116,109	-0,110	0,099
-366,971	-111,391	0,105	0,016
-365,956	-200,000	-0,006	-0,109
-364,942	34,491	0,085	-0,054
-363,927	766,261	0,029	0,057
-362,912	-200,000	0,014	0,071
-361,898	-81,502	-0,069	0,016
-360,883	-200,000	0,010	-0,132
-359,869	800,000	0,024	0,058
-358,854	-2,774	0,080	-0,041
-357,839	800,000	0,035	0,086
-356,825	41,933	0,091	0,060
-355,810	-200,000	0,016	-0,069
-354,796	-78,349	0,032	-0,008
-353,781	-200,000	0,006	0,026
-352,766	249,710	-0,048	0,060
-351,752	-93,203	-0,048	0,010
-350,737	114,249	-0,022	0,020
-349,723	-169,820	0,211	0,005
-348,708	-83,582	0,131	-0,030
-347,693	800,000	0,030	-0,070
-346,679	96,064	0,082	0,069
-345,664	203,839	-0,045	-0,051
-344,650	-200,000	0,001	-0,149
-343,635	300,379	-0,059	-0,080
-342,620	389,586	-0,028	0,043
-341,606	800,000	-0,035	0,080
-340,591	623,143	-0,028	-0,051
-339,577	-90,806	-0,145	0,030
-338,562	-62,025	0,032	0,010
-337,548	119,290	0,070	0,064
-336,533	-47,417	-0,062	0,022
-335,518	-200,000	0,023	0,104
-334,504	355,816	0,069	-0,101
-333,489	28,970	0,085	0,053
-332,475	-200,000	-0,004	0,142
-331,460	-87,190	-0,051	-0,011
-330,445	37,085	0,045	0,029
-329,431	408,514	-0,063	0,097
-328,416	463,493	-0,047	0,077
-327,402	-130,205	0,081	0,008
-326,387	36,344	-0,101	0,065
-325,372	229,195	-0,050	0,060
-324,358	440,067	-0,081	0,130
-323,343	-200,000	0,024	-0,106
-322,329	-155,539	0,090	-0,004
-321,314	87,534	0,013	-0,011
-320,299	70,259	-0,057	0,043
-319,285	13,822	-0,093	0,053
-318,270	34,141	-0,041	-0,026
-317,256	63,037	-0,135	0,099
-316,241	-51,561	0,084	0,028
-315,226	800,000	-0,036	0,080
-314,212	1,830	-0,047	0,025
-313,197	301,563	0,011	-0,015
-312,183	-59,255	0,077	-0,024
-311,168	-4,830	-0,042	0,021
-310,153	2,727	-0,094	0,050
-309,139	295,806	0,071	-0,095
-308,124	133,524	0,047	0,044
-307,110	59,571	0,083	-0,060
-306,095	-32,950	0,140	-0,057
-305,080	462,308	-0,049	-0,080
-304,066	-94,048	0,142	-0,028
-303,051	-200,000	-0,005	-0,041
-302,037	105,104	-0,104	-0,090
-301,022	-200,000	0,013	0,043
-300,008	-64,610	-0,127	0,038
-298,993	104,767	0,074	0,064
-297,978	-200,000	0,006	0,104
-296,964	450,970	-0,026	0,041
-295,949	-78,570	-0,086	-0,021
-294,935	407,888	0,047	-0,074
-293,920	144,596	-0,006	0,006
-292,905	194,526	-0,023	-0,026
-291,891	477,280	0,050	0,084
-290,876	449,374	0,050	0,081
-289,862	436,417	-0,069	0,110
-288,847	280,450	-0,027	-0,036
-287,832	5,743	-0,061	0,033
-286,818	-107,134	0,062	0,010
-285,803	-200,000	-0,048	0,000
-284,789	-0,578	0,135	-0,070
-283,774	-200,000	-0,012	0,116
-282,759	-27,769	0,146	-0,062
-281,745	415,609	-0,017	-0,027
-280,730	182,091	0,022	0,023
-279,716	-100,846	0,049	-0,009
-278,701	327,750	0,051	0,071
-277,686	-181,635	0,067	0,001
-276,672	-111,204	0,123	0,018
-275,657	185,566	-0,043	-0,046
-274,643	145,899	-0,050	-0,049
-273,628	800,000	0,058	-0,128
-272,613	800,000	0,068	-0,154
-271,599	-27,621	0,063	0,027
-270,584	-132,205	0,116	-0,011
-269,570	107,114	0,058	0,050
-268,555	-200,000	-0,036	0,141
-267,540	74,305	0,105	-0,080
-266,526	104,018	0,046	-0,040
-265,511	-96,405	-0,075	0,014
-264,497	-200,000	-0,000	0,101
-263,482	423,359	0,014	0,023
-262,467	800,000	0,057	0,142
-261,453	32,917	-0,103	0,065
-260,438	18,277	-0,011	0,006
-259,424	233,160	-0,042	0,051
-258,409	99,183	0,010	-0,009
-257,395	224,443	0,038	-0,046
-256,380	386,129	0,050	-0,076
-255,365	26,601	-0,082	-0,050
-254,351	800,000	0,053	0,132
-253,336	174,190	-0,071	0,076
-252,322	-200,000	-0,008	-0,083
-251,307	-47,657	-0,113	-0,040
-250,292	-137,214	-0,064	-0,005
-249,278	106,759	0,062	0,054
-248,263	-147,815	0,073	0,004
-247,249	-200,000	0,027	0,149
-246,234	93,917	-0,051	0,042
-245,219	-131,937	0,036	0,003
-244,205	-200,000	-0,013	-0,132
-243,190	-177,614	-0,015	-0,000
-242,176	800,000	0,026	-0,068
-241,161	-137,133	-0,069	-0,006
-240,146	-131,413	-0,032	0,003
-239,132	443,680	-0,059	0,095
-238,117	-200,000	-0,009	0,083
-237,103	125,530	0,063	0,058
-236,088	-200,000	-0,014	0,156
-235,073	-106,292	-0,104	-0,017
-234,059	800,000	0,059	0,160
-233,044	78,225	-0,113	-0,088
-232,030	-67,386	0,082	-0,023
-231,015	333,554	-0,070	-0,098
-230,000	76,781	-0,077	0,060
-228,986	-120,992	0,096	0,012
-227,971	-200,000	-0,004	0,046
-226,957	800,000	0,040	0,094
-225,942	-64,609	-0,059	-0,017
-224,927	800,000	0,046	0,100
-223,913	-200,000	0,000	-0,024
-222,898	-200,000	-0,015	0,204
-221,884	135,247	0,026	-0,024
-220,869	-61,121	-0,135	-0,041
-219,855	-200,000	-0,007	-0,088
-218,840	-200,000	0,001	0,099
-217,825	-3,650	-0,047	-0,024
-216,811	200,957	-0,093	0,104
-215,796	244,112	0,058	-0,071
-214,782	-200,000	-0,020	0,107
-213,767	120,457	0,036	0,033
-212,752	800,000	0,079	0,196
-211,738	-29,484	-0,117	0,049
-210,723	-200,000	-0,017	-0,060
-209,709	574,115	-0,050	-0,090
-208,694	-108,033	-0,117	-0,018
-207,679	346,969	0,023	-0,033
-206,665	-200,000	0,014	-0,072
-205,650	-66,634	-0,078	-0,022
-204,636	-98,459	-0,076	-0,014
-203,621	208,246	-0,025	-0,029
-202,606	-149,528	0,109	0,006
-201,592	-200,000	-0,023	-0,118
-200,577	60,198	-0,121	-0,087
-199,563	-200,000	-0,021	-0,080
-198,548	-200,000	0,005	0,098
-197,533	-200,000	0,006	-0,126
-196,519	-21,468	-0,028	0,012
-195,504	800,000	-0,038	0,084
-194,490	-200,000	0,048	0,164
-193,475	264,804	-0,076	-0,096
-192,460	34,269	0,116	0,074
-191,446	800,000	0,015	-0,044
-190,431	800,000	-0,008	-0,024
-189,417	-117,896	0,038	0,005
-188,402	-200,000	0,004	-0,112
-187,387	231,756	0,022	-0,027
-186,373	-121,724	-0,064	-0,008
-185,358	498,940	-0,119	-0,201
-184,344	800,000	0,027	-0,069
-183,329	46,960	-0,090	0,061
-182,315	379,977	0,075	0,113
-181,300	21,601	0,086	0,051
-180,285	-200,000	-0,019	-0,066
-179,271	-36,965	-0,055	-0,021
-178,256	231,222	-0,115	0,137
-177,242	-43,636	-0,086	-0,031
-176,227	-200,000	-0,006	-0,035
-175,212	-132,555	-0,054	-0,005
-174,198	-71,832	-0,072	-0,019
-173,183	-22,467	-0,035	0,015
-172,169	278,573	0,125	-0,163
-171,154	143,846	-0,045	-0,043
-170,139	-39,350	-0,017	-0,006
-169,125	-200,000	-0,006	0,054
-168,110	57,248	0,107	-0,076
-167,096	154,861	-0,068	0,068
-166,081	-173,955	-0,018	-0,000
-165,066	3,191	-0,144	-0,076
-164,052	260,398	-0,040	-0,050
-163,037	-100,866	0,054	0,010
-162,023	-200,000	-0,033	0,111
-161,008	-200,000	-0,036	0,155
-159,993	503,409	0,030	0,051
-158,979	-200,000	-0,006	-0,022
-157,964	-96,428	-0,068	-0,013
-156,950	86,279	-0,077	-0,062
-155,935	-200,000	-0,016	0,053
-154,920	540,290	-0,062	-0,108
-153,906	800,000	0,025	0,062
-152,891	-200,000	-0,001	0,032
-151,877	271,073	0,061	0,078
-150,862	-200,000	-0,008	-0,102
-149,847	800,000	0,031	-0,073
-148,833	718,034	0,016	-0,031
-147,818	-30,804	-0,103	-0,042
-146,804	-200,000	0,011	0,074
-145,789	-200,000	0,009	0,077
-144,775	-5,860	0,100	0,049
-143,760	644,186	-0,080	0,150
-142,745	266,232	0,081	-0,103
-141,731	-132,881	0,108	-0,010
-140,716	800,000	-0,032	0,067
-139,702	117,172	0,041	-0,037
-138,687	269,719	-0,007	-0,009
-137,672	39,698	0,067	0,044
-136,658	-200,000	-0,007	-0,042
-135,643	666,023	-0,052	-0,098
-134,629	85,055	-0,154	0,123
-133,614	-200,000	0,010	0,051
-132,599	-71,055	0,142	-0,039
-131,585	147,439	-0,163	0,159
-130,570	72,679	0,023	0,017
-129,556	67,207	-0,073	0,054
-128,541	-200,000	0,014	-0,092
-127,526	-22,787	-0,099	-0,043
-126,512	425,844	0,095	0,149
-125,497	576,624	0,035	0,063
-124,483	-109,354	-0,053	-0,008
-123,468	26,718	-0,081	0,050
-122,453	800,000	-0,049	-0,112
-121,439	30,413	-0,061	-0,038
-120,424	-200,000	-0,005	-0,075
-119,410	26,428	-0,021	0,013
