DTS Sentinel unit serial number:	SN410029Multiplexer serial number:	ORYXHardware model number:	OX2-SRSoftware version number:	ORYX F/W v4,00 Oryx Data Collector v3.7.2.0data status	okinstallation	B4 Nyhavnadifferential loss correction	single-endedforward channel	channel 2reverse channel	N/Adate	2023/12/15time	14:25:13forward acquisition time	300,00reverse acquisition time	0,00gamma	499,1914k internal	0,3161k external	0,3161temperature offset calibration	1,0000default loss term (dB/km)	0,3820temperature slope calibration	1,0000multiplexer offset coefficient	1,0000multiplexer slope coefficient	1,0000fibre end	0,00T internal ref (°C)	14,92T ext. ref 1 (°C)	1,52T ext. ref 2 (°C)	1,67length (m)	temperature (°C)	Stokes	anti-Stokes-744,400	-118,642	0,119	0,015
-743,385	-166,822	-0,171	-0,005
-742,371	62,046	0,072	0,053
-741,356	-158,306	-0,300	0,013
-740,342	-84,762	0,108	-0,025
-739,327	-120,537	-0,343	0,042
-738,312	235,931	0,071	-0,087
-737,298	-103,954	-0,336	0,057
-736,283	-200,000	-0,020	0,204
-735,269	-145,206	-0,217	0,014
-734,254	-104,591	0,188	0,032
-733,239	-19,407	-0,633	-0,288
-732,225	22,430	0,216	0,130
-731,210	-200,000	0,051	0,249
-730,196	142,354	0,025	-0,024
-729,181	-200,000	-0,021	-0,078
-728,167	173,792	-0,061	-0,064
-727,152	-200,000	-0,003	0,033
-726,137	178,529	-0,092	0,099
-725,123	800,000	0,039	-0,081
-724,108	800,000	-0,081	-0,186
-723,094	46,405	-0,083	-0,056
-722,079	-49,709	0,006	0,002
-721,064	-60,601	0,090	0,028
-720,050	283,978	0,047	0,062
-719,035	404,412	-0,041	0,064
-718,021	42,892	0,072	-0,048
-717,006	-200,000	-0,015	-0,062
-715,991	-134,590	-0,127	-0,011
-714,977	-200,000	0,022	-0,117
-713,962	-44,885	0,195	-0,071
-712,948	62,706	-0,037	0,028
-711,933	529,661	-0,088	-0,154
-710,918	-124,353	0,022	-0,003
-709,904	-44,654	-0,077	-0,028
-708,889	800,000	0,068	-0,206
-707,875	37,209	-0,060	-0,039
-706,860	-200,000	0,023	-0,079
-705,845	800,000	0,043	-0,103
-704,831	-34,827	0,056	-0,023
-703,816	-17,113	-0,136	-0,063
-702,802	-200,000	-0,006	-0,041
-701,787	220,066	0,037	-0,044
-700,772	-94,892	0,073	0,014
-699,758	192,450	-0,080	0,089
-698,743	-138,275	-0,013	0,001
-697,729	19,833	-0,054	-0,032
-696,714	-86,119	-0,167	0,038
-695,699	426,349	-0,073	-0,116
-694,685	-136,394	-0,083	0,007
-693,670	225,432	-0,167	-0,199
-692,656	69,586	0,047	-0,036
-691,641	-92,912	0,058	-0,012
-690,627	-200,000	0,005	0,033
-689,612	165,637	0,092	0,095
-688,597	-15,040	-0,010	-0,005
-687,583	800,000	-0,030	-0,081
-686,568	-83,918	-0,075	-0,018
-685,554	-69,955	-0,110	0,031
-684,539	-24,441	-0,140	0,061
-683,524	800,000	0,042	-0,094
-682,510	-108,894	0,116	0,018
-681,495	-50,539	0,124	-0,043
-680,481	84,543	-0,106	-0,086
-679,466	-40,530	-0,066	-0,025
-678,451	799,494	0,022	0,045
-677,437	-200,000	-0,000	0,008
-676,422	-166,643	-0,133	0,004
-675,408	182,227	-0,106	0,115
-674,393	-200,000	0,020	-0,160
-673,378	-200,000	0,037	-0,147
-672,364	374,114	0,030	-0,046
-671,349	-200,000	-0,020	-0,129
-670,335	56,955	-0,053	0,038
-669,320	-200,000	0,014	-0,069
-668,305	800,000	-0,055	0,134
-667,291	490,286	-0,043	-0,072
-666,276	11,166	0,038	-0,021
-665,262	199,983	-0,071	-0,080
-664,247	411,514	0,026	0,040
-663,232	87,236	0,082	-0,067
-662,218	-200,000	0,024	0,139
-661,203	-70,139	-0,029	0,008
-660,189	-56,759	0,101	-0,033
-659,174	225,443	-0,037	-0,044
-658,159	-4,175	-0,047	0,024
-657,145	-8,494	0,087	0,043
-656,130	613,002	-0,061	0,112
-655,116	221,369	-0,060	-0,070
-654,101	291,756	-0,055	0,074
-653,086	-18,059	-0,051	0,023
-652,072	-136,060	-0,066	-0,006
-651,057	275,208	-0,060	-0,078
-650,043	-51,978	-0,079	0,027
-649,028	-31,626	0,173	-0,071
-648,014	622,066	-0,030	-0,056
-646,999	324,091	-0,022	-0,031
-645,984	-105,071	-0,109	0,018
-644,970	283,182	-0,053	-0,071
-643,955	77,986	-0,074	-0,058
-642,941	49,190	-0,088	-0,061
-641,926	-4,155	0,106	0,054
-640,911	-200,000	-0,009	-0,099
-639,897	108,285	0,039	-0,034
-638,882	71,423	-0,077	0,058
-637,868	-200,000	-0,005	0,022
-636,853	-200,000	-0,044	-0,161
-635,838	540,160	0,014	-0,025
-634,824	-43,430	-0,040	0,015
-633,809	-200,000	0,041	-0,169
-632,795	-48,486	-0,084	0,030
-631,780	800,000	0,037	0,095
-630,765	-73,738	-0,093	0,025
-629,751	155,006	-0,132	0,133
-628,736	441,030	-0,012	0,019
-627,722	-25,898	-0,225	-0,097
-626,707	-90,958	0,099	-0,021
-625,692	53,703	0,092	0,064
-624,678	-17,921	-0,071	-0,032
-623,663	-150,830	-0,065	0,004
-622,649	12,148	-0,101	-0,057
-621,634	73,612	-0,014	0,011
-620,619	-95,866	-0,089	-0,017
-619,605	-200,000	0,014	0,059
-618,590	-200,000	-0,022	0,161
-617,576	800,000	-0,047	-0,100
-616,561	800,000	-0,058	-0,119
-615,546	204,214	-0,100	-0,114
-614,532	-195,192	-0,158	-0,001
-613,517	290,770	-0,063	-0,084
-612,503	26,165	0,113	-0,069
-611,488	614,079	0,004	0,008
-610,474	800,000	-0,079	0,169
-609,459	-200,000	-0,007	0,038
-608,444	-112,808	-0,062	-0,009
-607,430	418,202	-0,066	0,104
-606,415	-114,250	-0,117	-0,016
-605,401	-200,000	0,007	-0,087
-604,386	-22,989	-0,103	-0,045
-603,371	103,888	0,023	0,020
-602,357	29,071	-0,086	-0,053
-601,342	800,000	0,057	0,123
-600,328	-200,000	-0,019	-0,164
-599,313	800,000	0,023	-0,053
-598,298	-32,198	0,106	0,043
-597,284	188,991	-0,087	0,096
-596,269	-200,000	-0,002	-0,088
-595,255	-88,576	0,135	0,029
-594,240	-131,120	-0,130	-0,013
-593,225	-104,647	0,038	0,006
-592,211	-50,761	-0,056	-0,019
-591,196	800,000	-0,057	0,145
-590,182	-28,127	-0,061	-0,026
-589,167	35,708	-0,058	-0,037
-588,152	92,844	0,066	0,055
-587,138	-78,385	-0,068	-0,017
-586,123	271,612	-0,068	-0,088
-585,109	-35,895	-0,013	0,005
-584,094	42,428	-0,043	-0,028
-583,079	-76,780	0,101	0,026
-582,065	-115,823	0,030	0,004
-581,050	119,582	0,149	-0,135
-580,036	-200,000	-0,013	-0,190
-579,021	-200,000	-0,010	-0,063
-578,006	800,000	-0,023	-0,059
-576,992	137,945	0,019	-0,018
-575,977	-200,000	0,026	0,190
-574,963	416,171	-0,030	0,046
-573,948	-200,000	0,027	0,097
-572,934	164,319	0,056	0,058
-571,919	-99,642	0,085	-0,016
-570,904	-10,040	-0,080	0,039
-569,890	-142,382	0,088	0,006
-568,875	-200,000	0,008	-0,046
-567,861	-200,000	0,013	-0,041
-566,846	-81,880	0,068	-0,016
-565,831	-66,712	-0,090	-0,026
-564,817	123,162	0,103	-0,095
-563,802	91,655	-0,007	-0,006
-562,788	-200,000	-0,008	-0,112
-561,773	-200,000	-0,005	-0,035
-560,758	-183,108	-0,087	-0,001
-559,744	800,000	0,026	-0,081
-558,729	393,384	-0,087	0,133
-557,715	-82,904	-0,163	-0,038
-556,700	-200,000	0,024	-0,120
-555,685	-55,956	-0,093	0,030
-554,671	127,099	0,083	-0,077
-553,656	-200,000	-0,011	0,098
-552,642	-200,000	0,026	0,115
-551,627	148,503	0,028	-0,027
-550,612	-49,528	-0,121	-0,042
-549,598	102,946	-0,120	-0,103
-548,583	20,051	-0,129	0,076
-547,569	-200,000	-0,026	0,087
-546,554	-200,000	-0,019	0,065
-545,539	-200,000	0,021	-0,105
-544,525	-166,377	0,107	0,003
-543,510	-186,095	-0,053	0,001
-542,496	21,275	-0,106	-0,063
-541,481	-91,928	0,066	-0,014
-540,466	-15,338	0,072	-0,033
-539,452	472,298	-0,023	-0,039
-538,437	-100,971	-0,064	0,011
-537,423	-200,000	0,054	-0,184
-536,408	77,010	-0,091	0,071
-535,393	-64,382	-0,240	0,071
-534,379	-200,000	0,000	0,016
-533,364	440,155	-0,023	0,037
-532,350	-97,354	0,006	-0,001
-531,335	44,859	0,118	-0,079
-530,321	163,207	0,115	-0,118
-529,306	-200,000	0,021	-0,134
-528,291	800,000	-0,070	-0,179
-527,277	272,638	0,026	0,034
-526,262	800,000	0,020	-0,044
-525,248	348,127	0,062	-0,089
-524,233	800,000	-0,042	0,097
-523,218	76,416	0,105	-0,081
-522,204	-200,000	0,006	0,129
-521,189	800,000	-0,025	-0,074
-520,175	53,277	-0,041	-0,029
-519,160	-96,881	0,071	0,013
-518,145	-74,490	-0,043	-0,011
-517,131	-18,571	0,054	0,025
-516,116	-53,420	0,027	-0,009
-515,102	-200,000	0,013	0,053
-514,087	-200,000	-0,014	-0,086
-513,072	800,000	0,070	-0,150
-512,058	149,336	-0,112	-0,111
-511,043	26,334	0,053	0,032
-510,029	-185,907	0,224	0,002
-509,014	-77,388	-0,022	-0,005
-507,999	9,954	-0,139	0,077
-506,985	191,239	-0,019	-0,021
-505,970	-82,696	-0,046	0,011
-504,956	90,812	-0,132	0,108
-503,941	-118,586	-0,040	-0,005
-502,926	37,181	0,095	0,061
-501,912	-54,988	0,031	0,010
-500,897	44,734	-0,037	-0,025
-499,883	58,345	-0,102	0,073
-498,868	-100,209	0,043	-0,008
-497,853	-200,000	0,022	0,079
-496,839	-200,000	-0,014	-0,121
-495,824	11,446	-0,035	0,019
-494,810	512,402	-0,070	0,119
-493,795	532,472	0,060	0,104
-492,781	-200,000	0,029	-0,099
-491,766	-117,244	-0,185	-0,024
-490,751	-35,879	-0,088	0,035
-489,737	800,000	0,043	0,119
-488,722	-200,000	-0,020	0,076
-487,708	-200,000	-0,009	0,054
-486,693	800,000	0,053	0,112
-485,678	156,784	0,022	0,023
-484,664	-200,000	-0,011	0,083
-483,649	119,541	0,139	-0,126
-482,635	106,374	0,030	-0,026
-481,620	88,703	-0,013	-0,011
-480,605	553,347	-0,134	0,235
-479,591	-130,135	0,038	0,004
-478,576	-166,243	-0,108	0,003
-477,562	800,000	-0,039	-0,092
-476,547	-54,818	0,043	0,014
-475,532	-45,797	-0,114	0,041
-474,518	-73,390	0,046	0,012
-473,503	390,749	0,073	0,111
-472,489	70,278	0,113	0,085
-471,474	6,910	-0,029	-0,016
-470,459	-200,000	-0,013	0,136
-469,445	-200,000	0,002	0,036
-468,430	60,934	0,092	-0,067
-467,416	118,284	0,041	0,037
-466,401	-142,015	-0,012	0,001
-465,386	-200,000	0,006	0,059
-464,372	800,000	-0,035	0,082
-463,357	705,266	-0,026	0,051
-462,343	800,000	-0,017	0,051
-461,328	-79,922	-0,009	-0,002
-460,313	800,000	0,039	-0,091
-459,299	800,000	0,028	0,065
-458,284	598,593	0,069	0,125
-457,270	30,979	0,020	0,012
-456,255	-48,270	-0,059	0,021
-455,241	800,000	-0,038	-0,116
-454,226	800,000	-0,059	-0,119
-453,211	84,770	0,048	0,038
-452,197	-111,756	0,087	-0,013
-451,182	-200,000	-0,002	-0,085
-450,168	-131,892	-0,196	0,018
-449,153	153,149	-0,101	0,101
-448,138	-105,455	0,024	-0,004
-447,124	800,000	0,088	-0,271
-446,109	-200,000	0,012	0,052
-445,095	0,669	0,023	-0,012
-444,080	370,847	-0,068	-0,101
-443,065	-40,111	-0,013	0,005
-442,051	800,000	-0,025	-0,061
-441,036	172,823	-0,053	-0,056
-440,022	800,000	-0,029	-0,090
-439,007	-200,000	-0,011	-0,167
-437,992	-104,145	0,100	0,017
-436,978	-167,145	0,044	0,001
-435,963	-97,319	-0,037	-0,007
-434,949	-200,000	0,034	0,118
-433,934	-65,076	-0,013	0,004
-432,919	424,719	-0,019	-0,029
-431,905	-23,418	-0,115	0,050
-430,890	-200,000	0,018	0,135
-429,876	800,000	0,049	0,137
-428,861	39,850	0,046	0,030
-427,846	-194,057	0,170	0,001
-426,832	800,000	-0,020	-0,054
-425,817	800,000	0,060	-0,162
-424,803	237,011	0,037	0,044
-423,788	46,947	-0,069	-0,047
-422,773	-200,000	-0,006	0,117
-421,759	-200,000	0,008	-0,084
-420,744	169,072	0,038	0,040
-419,730	-144,503	-0,104	-0,007
-418,715	-200,000	0,011	-0,041
-417,701	394,169	-0,051	-0,077
-416,686	-200,000	0,003	-0,032
-415,671	-132,856	-0,080	0,007
-414,657	280,974	0,079	0,103
-413,642	-152,171	0,134	0,007
-412,628	-77,268	-0,121	-0,030
-411,613	175,801	0,011	-0,012
-410,598	-200,000	0,025	0,087
-409,584	106,576	-0,057	-0,049
-408,569	800,000	0,022	-0,059
-407,555	-53,653	-0,076	0,025
-406,540	554,493	0,048	0,083
-405,525	165,681	0,071	-0,073
-404,511	-39,605	-0,096	0,036
-403,496	-23,631	-0,053	-0,023
-402,482	-200,000	0,011	0,096
-401,467	262,416	0,060	-0,076
-400,452	800,000	-0,025	-0,079
-399,438	-200,000	-0,009	-0,127
-398,423	59,408	-0,013	0,009
-397,409	-19,928	0,091	-0,040
-396,394	-200,000	0,003	-0,146
-395,379	17,704	0,162	-0,093
-394,365	-200,000	-0,000	0,045
-393,350	46,117	0,126	0,085
-392,336	387,991	-0,115	0,173
-391,321	-200,000	-0,007	-0,078
-390,306	-104,031	0,034	-0,006
-389,292	-45,458	-0,004	-0,001
-388,277	-200,000	-0,023	0,082
-387,263	-97,701	0,100	-0,019
-386,248	800,000	-0,044	0,095
-385,233	-200,000	-0,001	0,028
-384,219	22,865	-0,094	-0,056
-383,204	181,091	0,055	-0,059
-382,190	23,101	0,053	0,031
-381,175	-200,000	0,024	-0,109
-380,160	152,698	-0,136	0,136
-379,146	34,464	-0,045	0,029
-378,131	28,502	0,047	0,029
-377,117	350,365	0,117	0,169
-376,102	800,000	0,028	-0,079
-375,088	53,724	-0,047	0,033
-374,073	-127,114	-0,141	0,015
-373,058	133,672	0,093	-0,088
-372,044	-21,104	0,068	-0,030
-371,029	-104,674	-0,136	0,022
-370,015	171,818	0,066	0,069
-369,000	10,229	-0,100	0,055
-367,985	-200,000	-0,019	-0,067
-366,971	139,416	0,015	-0,014
-365,956	-41,673	-0,172	-0,064
-364,942	-42,003	0,117	-0,043
-363,927	52,244	-0,072	-0,050
-362,912	488,350	0,034	-0,057
-361,898	53,401	0,048	-0,033
-360,883	478,911	-0,072	-0,118
-359,869	-68,632	0,086	0,024
-358,854	-73,722	0,025	-0,007
-357,839	-92,430	0,123	0,025
-356,825	92,848	0,136	0,111
-355,810	-74,433	0,100	0,026
-354,796	-102,117	0,092	-0,016
-353,781	800,000	-0,065	-0,134
-352,766	421,421	-0,081	-0,126
-351,752	-4,480	0,102	-0,051
-350,737	299,319	-0,046	-0,061
-349,723	-117,034	0,079	-0,010
-348,708	-60,803	0,071	-0,022
-347,693	-108,658	-0,021	0,003
-346,679	191,279	0,059	0,065
-345,664	-200,000	-0,020	0,082
-344,650	72,595	0,099	0,075
-343,635	800,000	0,029	0,070
-342,620	53,373	0,027	0,019
-341,606	-163,578	-0,080	0,003
-340,591	-136,774	-0,038	0,003
-339,577	800,000	0,052	-0,158
-338,562	-67,691	-0,053	0,015
-337,548	-200,000	-0,016	-0,114
-336,533	408,032	-0,057	0,087
-335,518	-41,822	-0,013	0,005
-334,504	378,476	-0,008	0,013
-333,489	33,474	0,091	0,057
-332,475	-200,000	-0,001	-0,006
-331,460	-200,000	0,039	0,126
-330,445	-49,946	-0,048	0,016
-329,431	164,673	0,045	0,046
-328,416	103,794	0,082	0,070
-327,402	800,000	0,042	-0,120
-326,387	500,352	0,069	0,116
-325,372	-200,000	0,010	-0,123
-324,358	732,178	-0,041	-0,081
-323,343	418,059	-0,069	-0,107
-322,329	-122,217	0,063	0,007
-321,314	769,853	0,021	0,041
-320,299	800,000	0,035	0,077
-319,285	800,000	0,007	0,019
-318,270	12,402	0,028	-0,016
-317,256	776,264	-0,074	-0,148
-316,241	-40,932	0,026	0,010
-315,226	-200,000	0,009	0,145
-314,212	-200,000	-0,039	0,132
-313,197	-98,012	-0,081	0,015
-312,183	-200,000	0,020	0,073
-311,168	140,814	-0,051	0,049
-310,153	-109,108	0,121	0,018
-309,139	331,510	-0,078	0,110
-308,124	-200,000	0,028	0,175
-307,110	-200,000	-0,013	0,124
-306,095	112,378	-0,099	0,087
-305,080	52,134	0,066	0,046
-304,066	-200,000	-0,041	-0,186
-303,051	727,091	-0,037	-0,072
-302,037	-200,000	-0,016	-0,053
-301,022	47,225	0,025	0,017
-300,008	19,075	0,077	-0,045
-298,993	800,000	0,097	0,243
-297,978	-200,000	0,018	0,066
-296,964	-119,352	-0,098	0,012
-295,949	-171,032	0,044	-0,001
-294,935	87,390	0,054	0,043
-293,920	-29,236	0,103	0,043
-292,905	-200,000	0,019	0,062
-291,891	725,972	-0,018	-0,035
-290,876	800,000	0,019	0,044
-289,862	-118,268	-0,016	-0,002
-288,847	348,481	-0,057	-0,082
-287,832	-200,000	0,018	-0,095
-286,818	779,639	0,011	-0,021
-285,803	-89,962	0,083	0,017
-284,789	-152,083	0,081	0,004
-283,774	-113,771	0,078	0,011
-282,759	737,603	0,062	-0,121
-281,745	-86,091	0,072	0,016
-280,730	-138,112	0,075	-0,006
-279,716	-200,000	0,030	0,098
-278,701	32,578	-0,019	0,012
-277,686	800,000	0,036	0,095
-276,672	26,909	0,132	-0,080
-275,657	397,350	0,025	0,037
-274,643	620,126	0,085	-0,155
-273,628	58,622	-0,112	-0,080
-272,613	-200,000	-0,001	-0,061
-271,599	-40,147	0,119	0,045
-270,584	10,396	-0,048	0,027
-269,570	-41,699	-0,064	0,024
-268,555	78,664	0,143	-0,111
-267,540	132,787	-0,095	0,089
-266,526	-94,069	-0,072	0,014
-265,511	-200,000	-0,011	0,068
-264,497	403,670	0,065	-0,099
-263,482	-200,000	0,025	0,088
-262,467	-200,000	0,053	-0,182
-261,453	-55,397	-0,044	-0,014
-260,438	-200,000	-0,007	0,051
-259,424	-163,144	-0,091	-0,003
-258,409	792,532	0,006	-0,013
-257,395	-145,180	0,068	-0,004
-256,380	-113,450	0,068	0,009
-255,365	800,000	-0,028	0,057
-254,351	-200,000	0,014	-0,071
-253,336	478,802	-0,103	-0,169
-252,322	800,000	-0,035	-0,102
-251,307	-190,451	0,026	-0,000
-250,292	-200,000	0,013	0,047
-249,278	-14,216	0,080	-0,037
-248,263	21,811	0,012	0,007
-247,249	14,375	-0,093	0,052
-246,234	103,470	0,036	-0,031
-245,219	322,738	-0,080	0,110
-244,205	109,969	-0,060	-0,052
-243,190	-150,890	0,006	-0,000
-242,176	305,717	0,125	0,169
-241,161	-200,000	0,004	0,119
-240,146	-200,000	0,011	0,061
-239,132	-190,796	0,070	-0,001
-238,117	417,943	-0,067	0,104
-237,103	517,196	-0,050	-0,086
-236,088	-200,000	-0,044	-0,170
-235,073	308,653	0,072	0,097
-234,059	-136,231	0,065	0,005
-233,044	-88,799	-0,047	-0,010
-232,030	643,423	0,042	-0,077
-231,015	-121,233	-0,129	-0,015
-230,000	29,377	0,031	-0,019
-228,986	-200,000	0,003	0,069
-227,971	44,941	0,135	-0,090
-226,957	601,202	0,062	-0,112
-225,942	290,905	0,086	-0,113
-224,927	204,569	0,060	-0,067
-223,913	-200,000	0,002	0,042
-222,898	-200,000	-0,013	-0,054
-221,884	-43,133	0,081	0,029
-220,869	-200,000	-0,032	0,145
-219,855	-200,000	0,038	-0,000
-218,840	800,000	0,059	0,171
-217,825	-40,456	-0,055	0,021
-216,811	-96,556	0,029	0,005
-215,796	-200,000	0,012	-0,053
-214,782	800,000	0,042	-0,132
-213,767	-200,000	0,001	-0,038
-212,752	-200,000	0,002	0,201
-211,738	120,532	-0,009	-0,008
-210,723	-96,916	0,088	0,017
-209,709	-142,575	-0,055	-0,004
-208,694	-71,653	-0,103	-0,028
-207,679	435,348	-0,059	-0,094
-206,665	-200,000	-0,026	0,104
-205,650	81,515	0,072	0,056
-204,636	65,717	0,089	0,065
-203,621	316,805	0,035	0,048
-202,606	-128,278	-0,111	0,011
-201,592	116,807	-0,052	-0,046
-200,577	19,625	-0,063	-0,036
-199,563	-123,218	-0,035	-0,004
-198,548	490,200	0,061	0,101
-197,533	-200,000	0,003	0,098
-196,519	800,000	-0,022	0,067
-195,504	-200,000	-0,001	-0,037
-194,490	800,000	-0,065	-0,141
-193,475	-200,000	0,004	-0,148
-192,460	800,000	-0,086	-0,201
-191,446	-200,000	0,001	0,004
-190,431	41,234	0,085	0,055
-189,417	-96,216	0,028	0,005
-188,402	-200,000	0,039	0,130
-187,387	-46,736	-0,090	0,031
-186,373	354,749	0,063	0,090
-185,358	-106,967	-0,026	0,004
-184,344	384,896	0,068	0,101
-183,329	-200,000	-0,018	0,125
-182,315	800,000	0,027	0,079
-181,300	54,902	0,114	0,079
-180,285	-41,381	-0,090	0,033
-179,271	-200,000	-0,016	0,102
-178,256	-55,404	0,061	0,020
-177,242	295,943	0,120	-0,159
-176,227	109,529	0,075	0,065
-175,212	800,000	0,020	-0,045
-174,198	-52,823	0,091	-0,030
-173,183	641,099	-0,062	-0,114
-172,169	320,110	0,088	-0,120
-171,154	-2,289	0,008	0,004
-170,139	27,751	-0,118	0,071
-169,125	800,000	0,049	0,131
-168,110	-57,303	-0,108	-0,034
-167,096	-200,000	-0,003	-0,052
-166,081	66,664	0,095	0,069
-165,066	-119,905	-0,179	0,022
-164,052	-200,000	-0,004	0,016
-163,037	-200,000	0,011	0,188
-162,023	-121,029	0,159	0,019
-161,008	339,923	-0,054	0,076
-159,993	-13,408	0,114	0,053
-158,979	-91,940	0,103	-0,021
-157,964	223,003	-0,121	-0,141
-156,950	-105,803	-0,079	-0,013
-155,935	-163,396	0,055	0,002
-154,920	118,633	0,072	0,064
-153,906	-54,286	-0,015	-0,005
-152,891	-151,520	-0,113	0,006
-151,877	369,449	-0,048	-0,070
-150,862	-200,000	0,009	-0,124
-149,847	-200,000	-0,011	-0,177
-148,833	42,206	0,086	0,056
-147,818	460,377	0,048	0,077
-146,804	-10,353	0,074	-0,035
-145,789	-192,615	0,136	0,001
-144,775	309,003	-0,053	0,072
-143,760	14,463	-0,025	-0,014
-142,745	-88,167	-0,087	0,019
-141,731	-200,000	-0,007	0,063
-140,716	-200,000	0,007	0,138
-139,702	800,000	-0,026	0,067
-138,687	800,000	0,033	0,092
-137,672	-65,446	0,100	0,029
-136,658	-200,000	0,020	-0,110
-135,643	-26,491	0,014	-0,006
-134,629	-200,000	-0,015	-0,079
-133,614	231,896	-0,081	0,096
-132,599	144,339	-0,060	0,058
-131,585	263,374	-0,039	0,049
-130,570	-82,816	-0,017	0,004
-129,556	-163,576	-0,088	0,003
-128,541	-152,441	-0,202	0,010
-127,526	-200,000	-0,004	0,025
-126,512	-5,623	-0,065	-0,032
-125,497	-18,772	0,110	-0,049
-124,483	314,595	-0,059	0,081
-123,468	-135,773	0,073	-0,006
-122,453	-200,000	0,008	-0,027
-121,439	-67,392	-0,107	-0,030
-120,424	-200,000	0,016	0,178
-119,410	-200,000	-0,037	0,144
