DTS Sentinel unit serial number:	SN410029Multiplexer serial number:	ORYXHardware model number:	OX2-SRSoftware version number:	ORYX F/W v4,00 Oryx Data Collector v3.7.2.0data status	okinstallation	B4 Nyhavnadifferential loss correction	single-endedforward channel	channel 2reverse channel	N/Adate	2023/12/16time	07:50:13forward acquisition time	300,00reverse acquisition time	0,00gamma	499,1914k internal	0,3127k external	0,3127temperature offset calibration	1,0000default loss term (dB/km)	0,3820temperature slope calibration	1,0000multiplexer offset coefficient	1,0000multiplexer slope coefficient	1,0000fibre end	0,00T internal ref (°C)	22,37T ext. ref 1 (°C)	7,88T ext. ref 2 (°C)	8,03length (m)	temperature (°C)	Stokes	anti-Stokes-744,400	-80,695	-0,161	-0,039
-743,385	53,367	-0,275	0,196
-742,371	-117,331	-0,013	-0,002
-741,356	800,000	-0,088	0,210
-740,342	198,948	0,072	0,082
-739,327	355,482	-0,079	0,118
-738,312	-200,000	0,001	-0,128
-737,298	-44,230	-0,196	0,073
-736,283	-122,065	0,151	0,018
-735,269	52,221	-0,150	0,106
-734,254	-18,555	-0,170	0,078
-733,239	-121,852	-0,338	-0,041
-732,225	367,410	0,039	-0,058
-731,210	-31,465	0,113	0,047
-730,196	-200,000	0,000	0,023
-729,181	113,766	-0,115	-0,104
-728,167	800,000	0,010	0,021
-727,152	-2,772	-0,126	0,065
-726,137	-138,948	-0,144	0,011
-725,123	480,425	-0,100	-0,170
-724,108	345,388	-0,040	-0,059
-723,094	-200,000	-0,011	-0,065
-722,079	363,588	-0,045	0,067
-721,064	-1,843	-0,069	-0,036
-720,050	-200,000	-0,024	-0,092
-719,035	230,727	-0,136	-0,165
-718,021	800,000	-0,030	-0,069
-717,006	33,289	0,096	0,062
-715,991	-44,990	-0,150	-0,055
-714,977	275,901	-0,054	-0,072
-713,962	-141,068	0,087	0,007
-712,948	-28,612	-0,146	0,062
-711,933	-93,033	0,002	-0,001
-710,918	-66,391	0,075	-0,022
-709,904	-200,000	-0,030	-0,138
-708,889	-200,000	0,013	-0,073
-707,875	520,716	0,108	-0,188
-706,860	58,857	0,041	0,030
-705,845	-108,074	-0,036	0,006
-704,831	23,410	0,134	-0,082
-703,816	800,000	0,005	-0,012
-702,802	-39,358	0,130	-0,050
-701,787	-200,000	0,001	-0,059
-700,772	800,000	-0,081	-0,174
-699,758	800,000	-0,050	0,112
-698,743	71,391	-0,070	0,054
-697,729	-200,000	0,007	0,071
-696,714	-200,000	-0,007	-0,038
-695,699	-200,000	-0,012	-0,054
-694,685	567,303	0,049	0,089
-693,670	800,000	-0,054	-0,131
-692,656	-200,000	0,002	-0,008
-691,641	-200,000	-0,019	-0,090
-690,627	-170,536	-0,050	0,001
-689,612	82,725	0,050	-0,040
-688,597	-200,000	-0,042	-0,137
-687,583	238,126	-0,088	-0,108
-686,568	319,781	-0,051	-0,073
-685,554	-108,048	0,097	0,015
-684,539	-104,535	0,048	-0,008
-683,524	318,626	-0,053	0,075
-682,510	-78,233	0,024	0,006
-681,495	-94,221	-0,125	0,025
-680,481	715,622	-0,026	-0,052
-679,466	800,000	-0,025	-0,069
-678,451	800,000	0,043	-0,089
-677,437	-4,483	-0,057	-0,029
-676,422	560,506	0,034	0,062
-675,408	-86,170	0,085	-0,019
-674,393	236,452	-0,029	-0,035
-673,378	800,000	0,057	-0,178
-672,364	257,938	0,035	-0,045
-671,349	-200,000	-0,017	-0,058
-670,335	-200,000	0,001	0,012
-669,320	800,000	0,012	0,029
-668,305	359,961	0,084	-0,126
-667,291	33,135	-0,027	0,018
-666,276	-200,000	0,001	0,068
-665,262	73,708	-0,113	-0,088
-664,247	374,544	0,024	-0,036
-663,232	-82,370	-0,117	0,028
-662,218	84,845	0,064	0,052
-661,203	-200,000	0,035	0,124
-660,189	800,000	-0,060	-0,167
-659,174	573,713	-0,062	-0,113
-658,159	570,294	-0,064	0,115
-657,145	-29,270	-0,131	0,055
-656,130	-56,677	0,094	0,031
-655,116	682,592	-0,059	0,115
-654,101	-106,347	0,033	0,005
-653,086	-13,423	0,176	-0,084
-652,072	233,458	0,042	-0,051
-651,057	170,638	-0,174	-0,185
-650,043	800,000	0,063	-0,182
-649,028	-34,713	-0,030	0,012
-648,014	306,152	-0,037	0,051
-646,999	-28,915	0,044	-0,019
-645,984	-1,275	-0,049	0,026
-644,970	-63,532	-0,100	0,030
-643,955	800,000	-0,018	-0,046
-642,941	-79,304	0,013	0,003
-641,926	-200,000	-0,008	-0,075
-640,911	-200,000	-0,002	-0,039
-639,897	-200,000	0,014	0,100
-638,882	-67,908	-0,041	-0,012
-637,868	241,630	0,092	-0,114
-636,853	242,317	0,041	-0,051
-635,838	147,584	0,043	-0,043
-634,824	-200,000	-0,000	0,046
-633,809	-200,000	-0,030	-0,240
-632,795	-96,691	0,068	0,013
-631,780	800,000	0,074	0,195
-630,765	800,000	-0,026	0,067
-629,751	-144,209	-0,019	0,001
-628,736	-200,000	-0,015	-0,086
-627,722	-200,000	-0,022	-0,157
-626,707	-96,505	0,054	-0,011
-625,692	101,982	-0,043	-0,038
-624,678	274,209	0,024	-0,032
-623,663	138,378	-0,058	0,057
-622,649	166,507	-0,034	-0,036
-621,634	371,273	-0,100	-0,151
-620,619	0,504	-0,122	-0,064
-619,605	268,456	0,094	-0,122
-618,590	312,374	-0,046	0,064
-617,576	122,260	0,046	0,042
-616,561	321,605	0,067	0,095
-615,546	78,366	-0,037	0,029
-614,532	5,057	-0,249	-0,136
-613,517	-75,904	0,081	0,021
-612,503	800,000	0,049	-0,136
-611,488	800,000	-0,014	-0,035
-610,474	68,798	-0,036	-0,027
-609,459	-114,862	0,103	0,014
-608,444	-111,873	0,057	-0,008
-607,430	-108,589	-0,062	0,010
-606,415	-200,000	-0,003	0,036
-605,401	-37,667	0,114	0,045
-604,386	800,000	-0,023	0,059
-603,371	800,000	0,068	0,204
-602,357	9,749	-0,076	-0,042
-601,342	-65,954	-0,112	-0,033
-600,328	318,195	0,056	0,078
-599,313	-81,086	0,074	0,018
-598,298	-200,000	0,022	0,074
-597,284	800,000	0,017	0,046
-596,269	-62,087	0,190	-0,058
-595,255	281,286	-0,071	-0,094
-594,240	7,641	0,058	0,032
-593,225	-90,319	-0,070	0,015
-592,211	97,708	-0,120	-0,102
-591,196	278,031	-0,099	-0,131
-590,182	-144,598	0,051	-0,003
-589,167	-55,105	0,159	0,053
-588,152	243,711	0,009	0,011
-587,138	43,701	0,106	-0,072
-586,123	-32,647	-0,179	-0,073
-585,109	-31,306	0,105	0,043
-584,094	-15,540	0,023	-0,011
-583,079	-200,000	0,004	-0,022
-582,065	-200,000	-0,001	0,037
-581,050	-200,000	-0,000	0,069
-580,036	-88,948	0,018	-0,004
-579,021	-8,678	-0,033	-0,016
-578,006	-93,211	-0,091	-0,019
-576,992	54,541	0,073	0,052
-575,977	107,473	0,148	-0,131
-574,963	-42,234	-0,013	0,005
-573,948	-200,000	0,010	0,113
-572,934	-2,674	0,096	-0,049
-571,919	-200,000	-0,007	-0,060
-570,904	-71,852	-0,018	0,005
-569,890	-119,364	-0,124	0,016
-568,875	800,000	0,010	-0,021
-567,861	90,954	-0,105	0,087
-566,846	-200,000	0,030	0,169
-565,831	-113,246	-0,094	-0,014
-564,817	-120,342	-0,100	0,012
-563,802	-200,000	0,010	0,080
-562,788	-43,900	-0,038	-0,014
-561,773	-200,000	0,021	-0,081
-560,758	168,757	0,035	-0,037
-559,744	-115,170	-0,070	0,010
-558,729	-139,890	0,085	0,007
-557,715	-13,259	-0,059	-0,028
-556,700	-107,236	-0,150	-0,024
-555,685	226,807	0,079	0,095
-554,671	604,106	-0,046	0,085
-553,656	162,400	-0,027	-0,028
-552,642	800,000	-0,049	0,102
-551,627	349,698	0,068	0,099
-550,612	-200,000	-0,009	0,041
-549,598	-121,039	0,033	0,004
-548,583	-72,064	-0,142	-0,039
-547,569	-200,000	0,025	-0,088
-546,554	-59,036	0,061	0,019
-545,539	1,478	0,155	-0,082
-544,525	81,492	-0,069	-0,055
-543,510	102,117	-0,089	0,076
-542,496	47,171	0,025	-0,017
-541,481	-200,000	0,017	0,119
-540,466	-39,382	0,079	-0,030
-539,452	-200,000	0,001	-0,038
-538,437	22,928	0,057	0,035
-537,423	800,000	-0,022	-0,049
-536,408	2,305	-0,026	-0,014
-535,393	184,712	-0,059	-0,065
-534,379	800,000	-0,021	-0,068
-533,364	-200,000	-0,011	-0,076
-532,350	-165,993	0,119	-0,004
-531,335	800,000	-0,081	0,170
-530,321	198,318	0,078	-0,088
-529,306	195,621	0,036	-0,040
-528,291	179,273	0,016	-0,017
-527,277	800,000	-0,041	0,100
-526,262	-200,000	-0,027	0,144
-525,248	90,608	0,137	0,113
-524,233	800,000	0,021	0,064
-523,218	68,656	0,080	0,060
-522,204	-200,000	-0,072	0,000
-521,189	-200,000	-0,011	0,121
-520,175	800,000	0,031	-0,071
-519,160	-200,000	-0,022	-0,093
-518,145	-200,000	0,014	0,215
-517,131	-200,000	-0,054	0,197
-516,116	800,000	0,036	0,090
-515,102	21,693	-0,053	-0,032
-514,087	-137,828	-0,136	0,011
-513,072	83,264	-0,045	-0,036
-512,058	307,249	-0,044	0,061
-511,043	800,000	-0,057	0,183
-510,029	556,713	0,058	0,104
-509,014	300,936	0,068	0,093
-507,999	549,533	-0,089	0,158
-506,985	445,647	0,077	0,126
-505,970	800,000	0,033	-0,068
-504,956	9,957	-0,137	0,076
-503,941	-84,715	0,138	-0,032
-502,926	-69,184	0,061	-0,017
-501,912	139,699	-0,034	0,033
-500,897	-200,000	0,028	0,092
-499,883	800,000	-0,030	-0,090
-498,868	-200,000	0,004	-0,045
-497,853	20,749	0,160	0,096
-496,839	-146,498	-0,114	-0,007
-495,824	-200,000	-0,020	0,087
-494,810	-200,000	0,007	0,049
-493,795	346,189	-0,074	0,108
-492,781	-7,845	0,098	-0,049
-491,766	-41,047	0,074	0,028
-490,751	12,121	0,022	-0,012
-489,737	-85,998	0,056	-0,013
-488,722	462,754	0,092	0,152
-487,708	44,404	0,141	-0,095
-486,693	-33,546	-0,102	-0,042
-485,678	-31,056	0,133	-0,055
-484,664	-200,000	-0,039	-0,177
-483,649	581,259	0,050	-0,091
-482,635	-200,000	0,000	-0,167
-481,620	-21,779	0,181	-0,081
-480,605	-41,960	0,094	0,035
-479,591	-14,771	-0,081	-0,038
-478,576	119,025	0,052	-0,048
-477,562	-63,348	-0,121	0,037
-476,547	-200,000	0,001	-0,037
-475,532	144,464	0,015	-0,015
-474,518	-33,236	0,136	0,055
-473,503	292,557	0,128	0,172
-472,489	-123,020	-0,062	-0,007
-471,474	47,015	-0,063	0,043
-470,459	800,000	-0,067	-0,156
-469,445	-32,698	0,135	0,055
-468,430	800,000	-0,005	0,013
-467,416	800,000	0,014	0,035
-466,401	719,087	-0,022	-0,044
-465,386	-200,000	-0,024	0,145
-464,372	338,812	0,041	0,058
-463,357	-160,020	-0,137	-0,005
-462,343	-27,226	-0,096	-0,041
-461,328	-136,572	-0,149	0,013
-460,313	-84,374	0,094	-0,022
-459,299	-200,000	-0,003	-0,082
-458,284	364,369	0,020	0,030
-457,270	-200,000	0,005	0,082
-456,255	800,000	0,050	0,107
-455,241	297,856	-0,062	-0,084
-454,226	62,371	0,030	-0,022
-453,211	635,673	-0,024	0,045
-452,197	-76,183	0,093	0,024
-451,182	-14,113	0,062	-0,029
-450,168	-162,464	0,104	0,004
-449,153	359,050	-0,046	0,068
-448,138	13,578	0,098	0,056
-447,124	201,745	-0,051	-0,058
-446,109	-200,000	0,003	-0,054
-445,095	-13,320	0,080	-0,038
-444,080	-82,392	0,136	-0,032
-443,065	-182,321	-0,096	0,001
-442,051	800,000	0,010	-0,025
-441,036	327,792	-0,035	0,049
-440,022	81,405	-0,061	-0,049
-439,007	540,027	-0,054	-0,096
-437,992	-200,000	0,022	-0,103
-436,978	202,764	-0,031	0,035
-435,963	140,294	0,031	0,030
-434,949	-142,956	-0,109	-0,008
-433,934	-200,000	0,020	-0,134
-432,919	309,430	-0,056	-0,077
-431,905	78,799	-0,048	0,038
-430,890	-144,765	0,133	-0,009
-429,876	-186,248	0,107	0,001
-428,861	136,896	0,129	0,124
-427,846	800,000	-0,044	0,097
-426,832	-200,000	0,005	-0,059
-425,817	189,877	-0,037	-0,041
-424,803	228,913	-0,047	0,056
-423,788	-200,000	0,006	0,062
-422,773	800,000	-0,027	-0,064
-421,759	-199,566	0,137	-0,001
-420,744	800,000	-0,012	-0,035
-419,730	-66,566	-0,152	-0,044
-418,715	531,168	-0,047	0,082
-417,701	-4,291	-0,031	-0,016
-416,686	-200,000	0,013	-0,120
-415,671	-44,707	0,114	-0,042
-414,657	-200,000	0,010	-0,050
-413,642	134,621	0,071	-0,067
-412,628	43,679	0,105	0,070
-411,613	-28,741	-0,039	0,017
-410,598	214,142	0,049	0,058
-409,584	220,082	-0,038	-0,045
-408,569	800,000	0,050	0,152
-407,555	-200,000	-0,027	0,150
-406,540	235,091	-0,089	0,108
-405,525	-100,867	0,072	-0,013
-404,511	-184,728	-0,115	-0,001
-403,496	2,902	0,020	0,011
-402,482	20,871	0,074	0,044
-401,467	24,541	-0,073	0,044
-400,452	-200,000	0,014	0,104
-399,438	295,015	0,112	0,152
-398,423	442,428	-0,011	-0,017
-397,409	466,124	-0,013	-0,021
-396,394	695,623	-0,050	-0,097
-395,379	-200,000	0,032	-0,144
-394,365	-53,227	-0,081	-0,027
-393,350	-5,179	-0,054	0,027
-392,336	-200,000	-0,003	0,127
-391,321	-84,026	0,027	0,006
-390,306	-26,244	-0,090	-0,038
-389,292	-83,983	-0,132	0,031
-388,277	-152,736	0,040	-0,002
-387,263	30,687	0,080	-0,050
-386,248	-14,763	0,195	0,092
-385,233	78,546	0,045	0,035
-384,219	423,081	-0,037	0,058
-383,204	-200,000	-0,013	-0,052
-382,190	-22,958	0,043	0,019
-381,175	800,000	0,011	0,031
-380,160	10,744	-0,076	0,042
-379,146	46,158	-0,040	-0,027
-378,131	800,000	0,042	0,104
-377,117	-103,885	-0,156	-0,026
-376,102	65,506	-0,017	-0,013
-375,088	229,234	-0,033	-0,039
-374,073	256,474	-0,034	-0,043
-373,058	244,725	0,151	0,187
-372,044	144,574	0,035	-0,034
-371,029	81,900	0,070	0,056
-370,015	-200,000	-0,012	-0,097
-369,000	800,000	-0,034	-0,104
-367,985	-26,474	0,123	0,053
-366,971	800,000	-0,006	-0,016
-365,956	800,000	0,023	0,049
-364,942	404,289	-0,017	-0,026
-363,927	-200,000	0,020	0,108
-362,912	40,849	0,026	-0,017
-361,898	775,490	-0,024	0,048
-360,883	-150,535	0,143	0,008
-359,869	588,603	-0,040	-0,072
-358,854	-94,852	0,124	-0,024
-357,839	110,210	0,057	0,051
-356,825	-145,621	0,079	0,005
-355,810	-200,000	0,001	-0,057
-354,796	-105,269	-0,100	-0,017
-353,781	563,828	0,060	0,107
-352,766	-200,000	-0,024	-0,154
-351,752	169,823	0,028	-0,029
-350,737	-153,507	-0,087	0,004
-349,723	800,000	0,061	0,169
-348,708	-17,844	-0,093	-0,043
-347,693	75,543	0,069	-0,053
-346,679	3,894	-0,120	0,064
-345,664	-200,000	0,015	0,052
-344,650	119,453	0,070	0,064
-343,635	629,438	-0,054	0,101
-342,620	-89,286	0,071	0,015
-341,606	-200,000	0,017	-0,058
-340,591	800,000	-0,055	-0,145
-339,577	-200,000	0,017	-0,092
-338,562	-15,144	-0,086	-0,040
-337,548	529,825	-0,049	-0,085
-336,533	668,923	0,043	0,082
-335,518	-76,277	0,096	-0,025
-334,504	117,588	0,054	-0,049
-333,489	464,693	-0,072	0,119
-332,475	46,425	-0,106	-0,072
-331,460	-62,368	0,121	-0,037
-330,445	-21,836	-0,076	0,034
-329,431	800,000	0,039	0,084
-328,416	-200,000	-0,018	-0,100
-327,402	251,750	-0,036	0,046
-326,387	-179,378	0,183	-0,003
-325,372	281,521	-0,074	0,097
-324,358	-200,000	0,019	0,075
-323,343	93,657	-0,157	-0,130
-322,329	-200,000	-0,002	-0,006
-321,314	-200,000	-0,027	0,156
-320,299	110,637	0,093	-0,082
-319,285	-83,253	0,148	0,034
-318,270	-200,000	-0,023	0,126
-317,256	800,000	0,072	-0,158
-316,241	293,677	-0,042	-0,056
-315,226	-200,000	-0,005	-0,055
-314,212	67,885	0,044	-0,033
-313,197	19,836	0,013	0,008
-312,183	-74,511	0,089	-0,023
-311,168	800,000	-0,009	-0,027
-310,153	241,135	0,062	-0,076
-309,139	734,971	-0,061	-0,120
-308,124	783,409	-0,037	-0,074
-307,110	146,790	-0,068	0,066
-306,095	800,000	-0,019	0,053
-305,080	800,000	-0,049	0,129
-304,066	2,397	0,019	0,010
-303,051	-41,464	0,060	0,023
-302,037	309,171	-0,053	0,073
-301,022	287,112	0,023	-0,031
-300,008	-47,184	0,122	-0,043
-298,993	146,596	0,083	0,081
-297,978	-72,769	0,087	0,023
-296,964	123,947	-0,061	-0,056
-295,949	18,343	-0,115	-0,067
-294,935	-37,967	-0,059	0,023
-293,920	448,390	-0,039	-0,063
-292,905	202,541	-0,074	0,083
-291,891	800,000	0,070	0,189
-290,876	-200,000	-0,008	0,113
-289,862	-49,128	0,055	0,019
-288,847	800,000	0,018	-0,039
-287,832	-72,337	-0,098	-0,026
-286,818	800,000	0,041	-0,132
-285,803	-200,000	-0,013	-0,081
-284,789	-161,225	-0,067	-0,003
-283,774	-81,544	-0,131	-0,031
-282,759	-15,280	0,098	0,046
-281,745	-2,154	0,012	-0,006
-280,730	219,975	-0,030	-0,036
-279,716	79,385	-0,053	0,041
-278,701	-200,000	0,021	-0,078
-277,686	104,045	0,016	0,013
-276,672	-200,000	0,020	0,086
-275,657	-39,236	-0,032	0,012
-274,643	136,411	-0,015	-0,014
-273,628	241,960	0,027	-0,034
-272,613	-200,000	-0,025	-0,090
-271,599	-200,000	0,020	0,069
-270,584	800,000	-0,056	-0,143
-269,570	-34,090	-0,155	0,062
-268,555	767,981	0,079	-0,158
-267,540	-200,000	-0,007	-0,066
-266,526	743,442	-0,068	-0,134
-265,511	660,104	-0,010	0,019
-264,497	-78,057	-0,188	-0,047
-263,482	-39,005	0,222	0,085
-262,467	800,000	-0,028	-0,076
-261,453	-67,126	-0,108	-0,031
-260,438	117,705	-0,093	0,084
-259,424	267,113	-0,087	-0,112
-258,409	385,321	-0,093	-0,141
-257,395	-200,000	0,001	0,027
-256,380	507,032	0,028	0,047
-255,365	-200,000	-0,000	0,026
-254,351	-200,000	-0,000	-0,142
-253,336	116,619	-0,015	0,013
-252,322	-67,138	-0,107	-0,031
-251,307	58,044	0,096	-0,068
-250,292	160,565	-0,057	-0,058
-249,278	77,542	-0,091	-0,070
-248,263	-80,859	0,027	-0,007
-247,249	-126,250	-0,045	-0,005
-246,234	-143,302	0,165	-0,011
-245,219	260,047	-0,025	-0,032
-244,205	-53,287	-0,090	-0,030
-243,190	-142,444	0,022	0,002
-242,176	215,048	-0,085	-0,099
-241,161	19,482	0,035	-0,021
-240,146	-200,000	0,003	0,031
-239,132	-200,000	-0,012	-0,077
-238,117	9,917	-0,062	0,034
-237,103	-23,933	-0,095	-0,041
-236,088	-92,045	0,112	-0,023
-235,073	-29,548	-0,003	0,001
-234,059	-79,270	0,066	0,016
-233,044	-200,000	-0,005	-0,048
-232,030	170,190	-0,126	-0,132
-231,015	-169,320	-0,118	-0,003
-230,000	-137,314	-0,090	-0,007
-228,986	-19,197	0,087	-0,039
-227,971	-178,889	0,175	-0,003
-226,957	7,119	-0,050	0,027
-225,942	231,192	0,044	-0,053
-224,927	286,902	0,023	0,030
-223,913	800,000	-0,035	0,083
-222,898	800,000	0,058	-0,184
-221,884	41,493	0,082	-0,054
-220,869	-200,000	0,001	-0,098
-219,855	528,319	-0,017	-0,030
-218,840	89,288	0,158	0,129
-217,825	9,025	0,095	0,052
-216,811	344,152	0,030	0,043
-215,796	-200,000	-0,026	-0,165
-214,782	-19,458	-0,195	0,088
-213,767	228,623	-0,116	0,138
-212,752	-200,000	0,023	0,100
-211,738	671,461	0,040	0,076
-210,723	178,952	0,011	-0,012
-209,709	800,000	0,028	-0,068
-208,694	800,000	0,059	-0,132
-207,679	-200,000	-0,004	-0,113
-206,665	67,287	-0,108	0,080
-205,650	-9,052	0,136	0,066
-204,636	-200,000	-0,010	0,055
-203,621	-50,243	-0,030	-0,010
-202,606	-32,592	-0,043	0,017
-201,592	180,162	0,080	-0,085
-200,577	-200,000	0,002	-0,137
-199,563	358,296	0,025	-0,037
-198,548	157,548	0,132	-0,134
-197,533	800,000	-0,029	-0,063
-196,519	-19,669	-0,083	0,037
-195,504	800,000	0,048	-0,119
-194,490	199,610	0,094	-0,105
-193,475	-103,574	-0,158	0,027
-192,460	-200,000	0,015	0,154
-191,446	151,313	-0,054	0,053
-190,431	-200,000	-0,007	0,114
-189,417	424,506	-0,037	0,058
-188,402	273,634	-0,011	-0,015
-187,387	-149,183	-0,188	0,011
-186,373	162,674	0,042	-0,043
-185,358	800,000	0,040	-0,118
-184,344	-200,000	0,017	0,138
-183,329	134,896	-0,039	-0,037
-182,315	-121,768	0,100	-0,012
-181,300	800,000	-0,030	0,092
-180,285	-200,000	0,000	0,085
-179,271	423,545	-0,084	-0,133
-178,256	-200,000	-0,083	0,000
-177,242	431,940	0,103	-0,163
-176,227	-135,829	-0,126	-0,011
-175,212	100,715	-0,050	0,043
-174,198	30,663	0,058	-0,036
-173,183	5,826	0,006	0,003
-172,169	55,088	-0,096	0,067
-171,154	-78,373	-0,076	0,019
-170,139	-124,448	0,085	-0,010
-169,125	520,062	0,034	-0,058
-168,110	-200,000	0,001	0,128
-167,096	-200,000	-0,033	-0,107
-166,081	-34,507	-0,033	0,013
-165,066	-124,201	-0,048	0,005
-164,052	176,236	-0,116	-0,122
-163,037	-200,000	0,024	-0,129
-162,023	-102,064	0,149	0,026
-161,008	113,714	-0,059	0,053
-159,993	-200,000	-0,015	0,072
-158,979	-200,000	-0,017	0,120
-157,964	-105,079	-0,187	0,031
-156,950	-51,287	0,062	-0,021
-155,935	265,153	-0,036	0,046
-154,920	-200,000	0,024	0,094
-153,906	173,675	0,052	0,055
-152,891	800,000	-0,019	0,054
-151,877	69,289	-0,095	-0,071
-150,862	234,638	-0,052	-0,062
-149,847	-62,419	0,028	-0,008
-148,833	62,756	-0,030	-0,022
-147,818	-22,851	-0,095	0,041
-146,804	41,069	-0,124	0,082
-145,789	342,809	0,039	0,056
-144,775	800,000	-0,037	0,114
-143,760	-200,000	-0,004	-0,083
-142,745	15,448	-0,063	-0,036
-141,731	40,747	0,064	0,042
-140,716	-86,098	-0,009	0,002
-139,702	156,977	0,030	0,030
-138,687	800,000	0,033	0,087
-137,672	-130,180	-0,048	0,005
-136,658	-200,000	0,020	0,097
-135,643	129,310	0,054	-0,051
-134,629	800,000	-0,019	0,052
-133,614	800,000	-0,015	-0,045
-132,599	-200,000	0,025	0,104
-131,585	-200,000	-0,011	0,100
-130,570	-200,000	-0,020	-0,078
-129,556	800,000	-0,028	-0,059
-128,541	26,136	-0,109	-0,066
-127,526	-75,848	0,062	-0,016
-126,512	8,277	0,097	0,053
-125,497	60,522	-0,105	0,076
-124,483	-102,864	0,108	0,019
-123,468	-48,748	0,059	0,021
-122,453	-18,906	0,014	0,006
-121,439	136,495	0,115	-0,109
-120,424	21,279	-0,028	0,017
-119,410	298,871	-0,050	-0,066
