DTS Sentinel unit serial number:	SN410029Multiplexer serial number:	ORYXHardware model number:	OX2-SRSoftware version number:	ORYX F/W v4,00 Oryx Data Collector v3.7.2.0data status	okinstallation	B4 Nyhavnadifferential loss correction	single-endedforward channel	channel 2reverse channel	N/Adate	2023/12/19time	03:20:13forward acquisition time	300,00reverse acquisition time	0,00gamma	499,1914k internal	0,3125k external	0,3125temperature offset calibration	1,0000default loss term (dB/km)	0,3820temperature slope calibration	1,0000multiplexer offset coefficient	1,0000multiplexer slope coefficient	1,0000fibre end	0,00T internal ref (°C)	21,14T ext. ref 1 (°C)	5,78T ext. ref 2 (°C)	5,72length (m)	temperature (°C)	Stokes	anti-Stokes-744,400	131,645	0,041	0,040
-743,385	9,138	-0,213	0,120
-742,371	-52,230	0,131	-0,045
-741,356	-126,101	-0,288	-0,032
-740,342	-200,000	0,005	0,059
-739,327	-90,279	-0,360	-0,077
-738,312	-200,000	-0,008	-0,123
-737,298	-108,351	-0,341	0,054
-736,283	-83,522	0,062	0,015
-735,269	129,535	-0,145	0,138
-734,254	-98,651	0,121	0,023
-733,239	-74,277	-0,385	-0,103
-732,225	713,792	0,049	-0,096
-731,210	404,188	0,052	0,081
-730,196	-126,886	0,045	-0,005
-729,181	-200,000	0,019	-0,211
-728,167	281,832	0,043	0,058
-727,152	-200,000	0,001	0,039
-726,137	-200,000	0,010	-0,116
-725,123	-200,000	-0,017	-0,077
-724,108	200,125	-0,156	-0,179
-723,094	-18,083	-0,096	-0,045
-722,079	800,000	-0,042	-0,129
-721,064	-55,948	0,073	0,024
-720,050	800,000	-0,029	-0,085
-719,035	800,000	-0,031	-0,086
-718,021	64,230	0,070	-0,052
-717,006	-31,117	-0,249	0,104
-715,991	-200,000	0,009	-0,132
-714,977	19,611	0,067	-0,040
-713,962	800,000	-0,029	-0,071
-712,948	-38,750	0,094	-0,037
-711,933	800,000	-0,046	-0,124
-710,918	147,043	-0,089	-0,089
-709,904	800,000	-0,040	-0,123
-708,889	800,000	-0,031	-0,102
-707,875	800,000	-0,025	-0,073
-706,860	136,677	-0,021	0,020
-705,845	-200,000	-0,011	-0,050
-704,831	224,249	-0,103	-0,124
-703,816	503,231	0,022	-0,037
-702,802	-10,675	-0,071	0,035
-701,787	274,974	-0,048	-0,063
-700,772	226,496	-0,025	0,030
-699,758	800,000	-0,026	0,057
-698,743	-113,450	-0,119	-0,017
-697,729	800,000	-0,005	0,016
-696,714	112,498	0,097	-0,088
-695,699	18,034	-0,176	0,104
-694,685	61,712	0,039	0,029
-693,670	98,850	0,061	0,052
-692,656	353,326	-0,035	0,052
-691,641	76,494	0,015	-0,012
-690,627	-13,319	-0,022	0,010
-689,612	-33,692	0,041	-0,017
-688,597	800,000	-0,026	0,076
-687,583	-14,349	0,100	-0,048
-686,568	121,953	0,125	-0,116
-685,554	630,557	0,058	-0,110
-684,539	435,508	0,077	-0,125
-683,524	147,147	-0,051	0,051
-682,510	-176,673	0,118	-0,002
-681,495	800,000	-0,042	0,088
-680,481	262,305	-0,064	-0,082
-679,466	283,056	-0,077	-0,103
-678,451	-44,348	-0,051	0,019
-677,437	191,732	0,085	0,095
-676,422	539,826	0,012	0,021
-675,408	-102,310	0,095	0,017
-674,393	282,452	-0,081	0,108
-673,378	800,000	0,021	0,056
-672,364	-95,169	0,048	0,009
-671,349	-110,590	-0,064	0,010
-670,335	-169,700	0,179	0,005
-669,320	-200,000	0,003	-0,080
-668,305	-85,086	0,053	-0,012
-667,291	60,707	0,067	-0,049
-666,276	11,703	-0,086	-0,049
-665,262	-80,368	-0,019	0,005
-664,247	-180,620	-0,089	-0,001
-663,232	71,589	-0,141	0,108
-662,218	629,726	0,019	0,036
-661,203	187,435	-0,048	-0,054
-660,189	-165,133	0,049	0,002
-659,174	-200,000	-0,007	0,102
-658,159	800,000	-0,074	-0,191
-657,145	666,805	-0,059	-0,113
-656,130	108,130	0,037	-0,033
-655,116	373,708	0,028	-0,043
-654,101	-32,656	0,032	0,013
-653,086	-125,504	-0,053	-0,006
-652,072	47,959	-0,140	-0,097
-651,057	171,695	-0,084	-0,089
-650,043	83,727	-0,146	0,118
-649,028	128,756	0,053	-0,050
-648,014	49,971	0,121	-0,085
-646,999	269,271	0,055	-0,071
-645,984	259,786	0,033	0,042
-644,970	204,517	-0,058	0,067
-643,955	-200,000	0,012	0,067
-642,941	0,136	0,042	-0,022
-641,926	-107,677	0,048	0,008
-640,911	74,192	-0,087	0,068
-639,897	-71,387	0,194	0,053
-638,882	-95,343	-0,073	-0,014
-637,868	-200,000	0,000	-0,029
-636,853	88,252	0,024	0,020
-635,838	-200,000	0,020	-0,072
-634,824	-189,915	-0,071	-0,001
-633,809	-60,726	-0,076	0,024
-632,795	800,000	-0,031	0,098
-631,780	800,000	-0,037	-0,089
-630,765	-100,652	0,138	-0,025
-629,751	-15,427	-0,167	0,079
-628,736	800,000	-0,032	-0,090
-627,722	57,486	-0,163	-0,118
-626,707	77,233	-0,040	-0,032
-625,692	382,003	0,050	0,076
-624,678	98,700	0,102	-0,088
-623,663	115,776	-0,160	-0,145
-622,649	-200,000	-0,030	-0,117
-621,634	-2,020	0,035	0,018
-620,619	-175,133	-0,084	0,002
-619,605	-71,548	0,064	-0,018
-618,590	-107,707	-0,101	-0,016
-617,576	179,532	-0,051	-0,056
-616,561	-200,000	0,017	0,090
-615,546	-200,000	0,020	0,175
-614,532	-118,921	-0,079	0,010
-613,517	-200,000	-0,014	-0,084
-612,503	-45,671	0,060	0,022
-611,488	800,000	-0,052	-0,111
-610,474	-68,691	-0,067	0,019
-609,459	-28,410	-0,106	-0,045
-608,444	-70,329	0,120	-0,034
-607,430	180,015	-0,090	0,097
-606,415	-41,834	0,008	-0,003
-605,401	-49,182	-0,126	0,044
-604,386	-200,000	0,016	0,198
-603,371	244,289	0,030	-0,037
-602,357	799,059	0,043	0,089
-601,342	121,890	-0,090	-0,083
-600,328	-27,267	-0,053	-0,023
-599,313	-200,000	0,021	-0,073
-598,298	137,088	0,100	0,096
-597,284	-200,000	-0,006	0,031
-596,269	359,426	-0,040	0,060
-595,255	-166,278	0,055	0,002
-594,240	-200,000	-0,007	0,067
-593,225	-132,438	-0,109	-0,010
-592,211	238,113	-0,033	0,040
-591,196	-91,731	0,066	-0,014
-590,182	800,000	0,035	0,075
-589,167	800,000	0,035	0,104
-588,152	-96,779	0,116	0,022
-587,138	86,556	0,085	0,070
-586,123	-200,000	0,006	-0,114
-585,109	21,093	-0,087	-0,052
-584,094	36,860	-0,040	-0,026
-583,079	-200,000	0,000	0,093
-582,065	800,000	0,011	0,026
-581,050	416,913	-0,067	0,106
-580,036	-71,357	-0,083	-0,023
-579,021	-54,095	-0,101	-0,034
-578,006	794,660	-0,106	-0,216
-576,992	62,816	0,026	-0,019
-575,977	87,551	0,127	-0,104
-574,963	-200,000	0,005	-0,041
-573,948	-58,327	0,061	-0,019
-572,934	164,817	0,044	-0,046
-571,919	-38,851	-0,048	0,019
-570,904	800,000	0,009	0,024
-569,890	-91,665	-0,035	-0,007
-568,875	800,000	-0,016	-0,036
-567,861	202,155	0,045	0,052
-566,846	67,643	-0,077	0,058
-565,831	-67,101	-0,042	0,012
-564,817	184,139	-0,063	-0,069
-563,802	-87,234	-0,025	-0,006
-562,788	-143,110	-0,108	-0,008
-561,773	4,247	-0,071	0,039
-560,758	233,259	0,045	0,055
-559,744	261,924	0,054	0,070
-558,729	-200,000	0,009	0,030
-557,715	-141,716	-0,153	0,011
-556,700	-200,000	0,006	0,109
-555,685	-200,000	-0,009	-0,038
-554,671	-200,000	0,005	0,036
-553,656	439,959	0,037	0,060
-552,642	-64,781	-0,167	0,050
-551,627	179,609	-0,030	-0,032
-550,612	398,121	0,030	-0,047
-549,598	-138,720	-0,025	0,002
-548,583	10,600	-0,093	-0,052
-547,569	800,000	-0,065	-0,203
-546,554	-100,680	0,099	-0,018
-545,539	-111,018	-0,070	0,011
-544,525	77,028	0,076	0,060
-543,510	-37,114	-0,019	0,007
-542,496	162,844	0,010	-0,010
-541,481	-9,647	-0,092	-0,045
-540,466	-200,000	-0,016	-0,084
-539,452	239,936	0,051	-0,063
-538,437	144,647	0,049	-0,048
-537,423	-95,082	0,041	0,008
-536,408	-151,445	0,219	-0,012
-535,393	27,931	-0,131	-0,081
-534,379	-138,004	-0,049	0,004
-533,364	-59,654	0,048	-0,015
-532,350	127,207	0,064	0,060
-531,335	800,000	0,029	0,083
-530,321	800,000	0,007	-0,023
-529,306	544,427	0,054	0,096
-528,291	-31,882	-0,118	0,048
-527,277	800,000	-0,014	-0,042
-526,262	136,632	-0,067	-0,064
-525,248	2,472	-0,095	0,050
-524,233	-135,991	0,189	0,016
-523,218	243,878	-0,076	0,094
-522,204	571,743	-0,067	0,121
-521,189	66,820	-0,118	-0,089
-520,175	211,177	-0,043	0,050
-519,160	87,201	0,124	-0,101
-518,145	-180,292	-0,038	-0,001
-517,131	-101,394	0,111	-0,020
-516,116	-105,985	-0,119	0,020
-515,102	-31,514	-0,007	0,003
-514,087	-42,659	0,041	0,015
-513,072	-98,402	0,083	-0,016
-512,058	262,908	-0,072	0,092
-511,043	636,877	-0,029	-0,055
-510,029	-149,232	-0,050	0,003
-509,014	17,872	0,089	0,052
-507,999	-86,175	0,126	0,028
-506,985	-168,627	-0,113	0,003
-505,970	35,216	-0,042	0,027
-504,956	108,261	0,054	0,048
-503,941	164,258	0,036	-0,037
-502,926	-155,354	0,122	-0,006
-501,912	-200,000	-0,012	0,064
-500,897	-63,271	0,032	0,010
-499,883	4,674	0,021	0,011
-498,868	-40,551	-0,108	-0,041
-497,853	-200,000	0,047	-0,159
-496,839	-200,000	0,012	0,045
-495,824	-94,347	0,095	-0,019
-494,810	-99,611	-0,094	-0,017
-493,795	173,374	0,112	-0,120
-492,781	360,937	0,080	0,119
-491,766	-85,882	0,175	0,040
-490,751	-18,847	-0,058	-0,026
-489,737	-135,490	0,112	-0,010
-488,722	800,000	-0,037	0,113
-487,708	555,634	0,080	0,142
-486,693	-120,715	0,120	0,015
-485,678	-200,000	0,004	0,030
-484,664	-31,748	-0,188	-0,077
-483,649	-166,875	0,048	-0,001
-482,635	8,621	-0,101	-0,056
-481,620	800,000	0,019	0,046
-480,605	-200,000	0,009	0,091
-479,591	800,000	-0,018	-0,049
-478,576	-144,318	-0,140	-0,009
-477,562	-200,000	0,003	-0,022
-476,547	-14,094	0,036	0,017
-475,532	-200,000	-0,015	0,124
-474,518	-65,699	0,015	0,004
-473,503	-200,000	-0,025	0,134
-472,489	43,004	-0,051	0,034
-471,474	-155,828	0,051	0,002
-470,459	-108,459	-0,051	0,008
-469,445	-132,043	-0,027	-0,003
-468,430	20,002	-0,041	0,024
-467,416	205,056	-0,041	0,047
-466,401	523,812	0,044	0,076
-465,386	68,645	-0,043	0,032
-464,372	-54,521	0,100	0,033
-463,357	73,784	-0,054	-0,042
-462,343	-39,599	-0,127	0,049
-461,328	357,698	0,063	-0,093
-460,313	-200,000	-0,006	-0,153
-459,299	12,872	0,079	-0,045
-458,284	103,140	-0,002	-0,002
-457,270	21,232	-0,027	0,016
-456,255	-200,000	-0,001	-0,054
-455,241	60,000	0,147	0,107
-454,226	-200,000	-0,000	-0,054
-453,211	-111,061	-0,060	0,009
-452,197	-2,582	0,065	0,033
-451,182	-31,890	-0,061	-0,025
-450,168	-25,934	-0,067	0,029
-449,153	53,996	-0,040	-0,028
-448,138	-151,226	-0,081	0,004
-447,124	-24,249	-0,049	-0,021
-446,109	-70,847	-0,131	0,036
-445,095	800,000	0,018	0,051
-444,080	-131,081	0,054	0,005
-443,065	-85,371	-0,027	-0,006
-442,051	800,000	-0,059	-0,123
-441,036	692,482	-0,041	0,080
-440,022	-0,166	-0,244	0,127
-439,007	-32,724	-0,075	0,030
-437,992	-34,533	0,156	-0,062
-436,978	299,700	-0,059	0,081
-435,963	238,088	0,049	0,060
-434,949	-160,564	-0,120	0,005
-433,934	-200,000	-0,004	0,030
-432,919	-54,277	-0,068	-0,023
-431,905	-191,851	-0,072	0,001
-430,890	437,226	-0,057	0,091
-429,876	170,087	-0,118	0,124
-428,861	-200,000	-0,012	0,148
-427,846	-79,937	0,024	-0,006
-426,832	712,186	0,049	-0,096
-425,817	-128,822	-0,171	0,017
-424,803	800,000	0,046	-0,097
-423,788	-200,000	0,012	-0,123
-422,773	-200,000	0,036	0,131
-421,759	31,109	0,045	0,028
-420,744	593,890	0,048	-0,088
-419,730	800,000	0,056	0,146
-418,715	-200,000	0,008	0,046
-417,701	-100,439	-0,081	0,015
-416,686	-194,384	0,088	0,001
-415,671	178,131	0,084	-0,090
-414,657	-200,000	-0,004	0,062
-413,642	-35,873	0,113	-0,045
-412,628	-92,841	0,090	0,018
-411,613	618,331	-0,028	0,051
-410,598	167,827	0,038	-0,040
-409,584	-200,000	0,025	0,095
-408,569	-46,820	0,054	0,019
-407,555	-99,063	-0,101	-0,019
-406,540	-200,000	0,005	0,027
-405,525	123,295	0,025	-0,023
-404,511	160,884	-0,114	-0,117
-403,496	90,324	-0,076	-0,062
-402,482	-200,000	-0,005	-0,041
-401,467	-156,205	0,082	-0,004
-400,452	130,222	0,103	0,097
-399,438	-200,000	-0,004	0,090
-398,423	-47,430	-0,107	-0,038
-397,409	-41,990	-0,132	0,049
-396,394	120,404	0,012	-0,011
-395,379	-200,000	0,010	-0,108
-394,365	800,000	-0,026	-0,067
-393,350	-200,000	0,033	-0,150
-392,336	419,406	0,092	-0,145
-391,321	800,000	-0,061	-0,137
-390,306	34,422	-0,114	-0,073
-389,292	100,423	0,074	0,063
-388,277	-91,786	0,144	0,030
-387,263	-6,081	0,171	-0,085
-386,248	482,318	0,042	-0,071
-385,233	800,000	0,032	-0,077
-384,219	-200,000	0,010	0,067
-383,204	-58,665	0,078	-0,025
-382,190	57,646	0,056	-0,040
-381,175	-108,974	-0,013	0,002
-380,160	59,444	-0,100	0,073
-379,146	320,565	0,066	0,092
-378,131	42,532	0,058	0,039
-377,117	246,271	0,094	0,117
-376,102	-23,525	-0,033	0,015
-375,088	-176,858	-0,147	0,003
-374,073	16,680	0,015	0,009
-373,058	-200,000	-0,029	-0,158
-372,044	777,375	0,056	0,113
-371,029	-200,000	0,013	-0,062
-370,015	-200,000	0,013	0,071
-369,000	-200,000	-0,007	-0,050
-367,985	482,467	0,062	-0,104
-366,971	-200,000	-0,007	-0,034
-365,956	-200,000	-0,019	-0,143
-364,942	74,226	0,102	0,078
-363,927	140,629	-0,084	0,081
-362,912	-45,813	0,069	-0,025
-361,898	493,477	0,086	0,146
-360,883	101,331	-0,134	-0,115
-359,869	-200,000	0,024	-0,249
-358,854	245,289	-0,035	-0,043
-357,839	49,315	-0,009	0,006
-356,825	800,000	-0,026	0,067
-355,810	107,162	0,074	-0,064
-354,796	-200,000	-0,005	-0,091
-353,781	100,782	0,029	0,025
-352,766	-1,807	-0,045	-0,023
-351,752	-200,000	0,024	-0,083
-350,737	-200,000	0,011	-0,066
-349,723	800,000	-0,025	-0,064
-348,708	800,000	0,039	-0,124
-347,693	-74,793	0,194	-0,051
-346,679	0,360	-0,064	-0,034
-345,664	-200,000	0,000	-0,086
-344,650	-200,000	-0,023	-0,175
-343,635	168,243	0,021	0,022
-342,620	-126,923	0,139	-0,015
-341,606	-8,447	-0,083	-0,041
-340,591	-200,000	0,007	0,079
-339,577	-24,627	-0,107	-0,047
-338,562	-38,556	0,058	-0,022
-337,548	61,628	0,097	-0,071
-336,533	-200,000	0,010	-0,290
-335,518	381,968	0,026	-0,039
-334,504	-150,833	0,125	-0,007
-333,489	-200,000	-0,008	0,073
-332,475	-200,000	0,007	0,031
-331,460	800,000	-0,044	0,133
-330,445	142,575	0,063	-0,062
-329,431	273,914	-0,029	0,038
-328,416	-200,000	-0,014	0,174
-327,402	-200,000	0,000	-0,080
-326,387	211,582	0,056	0,065
-325,372	153,466	0,024	0,024
-324,358	39,373	-0,058	0,038
-323,343	-200,000	-0,017	0,073
-322,329	-22,083	0,087	0,039
-321,314	800,000	-0,030	0,063
-320,299	104,332	-0,026	0,022
-319,285	-68,845	-0,090	0,025
-318,270	355,195	0,047	0,069
-317,256	-113,723	-0,155	-0,022
-316,241	-200,000	-0,011	-0,112
-315,226	800,000	0,051	0,119
-314,212	-81,876	0,023	-0,005
-313,197	-200,000	0,029	0,240
-312,183	352,644	-0,035	0,050
-311,168	239,334	-0,033	-0,041
-310,153	423,053	-0,019	-0,030
-309,139	800,000	-0,046	-0,110
-308,124	15,986	0,056	-0,032
-307,110	-200,000	0,007	0,044
-306,095	-67,222	0,079	-0,022
-305,080	-44,719	0,100	-0,036
-304,066	-200,000	-0,008	0,085
-303,051	-200,000	-0,003	-0,166
-302,037	800,000	0,013	-0,037
-301,022	-56,819	-0,041	-0,013
-300,008	-115,619	0,207	0,028
-298,993	-87,464	0,055	0,012
-297,978	-200,000	0,007	0,035
-296,964	-157,305	-0,012	0,001
-295,949	787,371	-0,015	-0,030
-294,935	800,000	-0,016	-0,045
-293,920	-200,000	0,012	-0,048
-292,905	-200,000	0,026	0,111
-291,891	122,779	0,144	-0,132
-290,876	-200,000	0,002	-0,010
-289,862	-54,609	-0,089	0,029
-288,847	120,631	0,055	-0,050
-287,832	-70,146	0,024	-0,007
-286,818	-136,755	0,059	-0,005
-285,803	26,903	0,127	0,077
-284,789	78,880	0,013	-0,010
-283,774	800,000	0,053	-0,155
-282,759	-200,000	-0,002	-0,027
-281,745	-106,984	-0,078	-0,013
-280,730	10,194	-0,091	-0,051
-279,716	-79,671	-0,031	-0,008
-278,701	-54,428	0,084	0,028
-277,686	-160,935	0,111	0,004
-276,672	16,075	-0,095	-0,055
-275,657	146,795	0,062	-0,061
-274,643	-50,554	-0,173	0,059
-273,628	245,108	-0,049	-0,060
-272,613	-200,000	0,004	-0,097
-271,599	-200,000	0,016	0,123
-270,584	800,000	0,020	0,058
-269,570	-122,452	0,069	-0,008
-268,555	-34,282	-0,139	0,056
-267,540	383,823	-0,035	-0,052
-266,526	60,594	-0,141	-0,102
-265,511	800,000	0,040	-0,125
-264,497	800,000	0,013	0,041
-263,482	-200,000	0,001	-0,086
-262,467	-200,000	0,016	0,080
-261,453	209,588	-0,125	0,144
-260,438	-200,000	-0,017	-0,098
-259,424	-200,000	-0,004	0,020
-258,409	255,786	0,065	-0,081
-257,395	332,206	0,048	0,069
-256,380	800,000	-0,058	0,140
-255,365	-200,000	0,038	0,151
-254,351	797,989	0,038	-0,077
-253,336	-200,000	0,005	-0,058
-252,322	179,472	-0,101	-0,108
-251,307	800,000	-0,014	-0,037
-250,292	120,715	-0,051	-0,046
-249,278	133,866	-0,052	-0,050
-248,263	6,152	0,162	0,088
-247,249	-113,536	0,076	-0,011
-246,234	40,552	0,066	-0,043
-245,219	-200,000	-0,029	0,128
-244,205	512,657	0,030	-0,051
-243,190	-59,765	0,076	0,024
-242,176	-200,000	0,006	-0,088
-241,161	111,831	-0,101	0,089
-240,146	-200,000	-0,021	0,174
-239,132	-165,019	0,046	0,001
-238,117	165,033	0,043	0,045
-237,103	652,417	-0,059	0,111
-236,088	3,587	0,012	-0,006
-235,073	497,432	0,053	0,090
-234,059	-79,558	0,020	0,005
-233,044	800,000	0,012	-0,028
-232,030	170,072	0,030	-0,031
-231,015	-69,243	-0,045	-0,013
-230,000	69,948	0,108	-0,082
-228,986	-51,252	-0,091	-0,031
-227,971	740,186	-0,049	0,096
-226,957	-200,000	-0,034	0,150
-225,942	-200,000	-0,007	0,082
-224,927	-84,569	-0,162	-0,037
-223,913	-13,393	0,050	0,024
-222,898	-200,000	-0,006	0,042
-221,884	-200,000	-0,002	-0,065
-220,869	75,576	0,109	0,084
-219,855	171,971	0,066	-0,069
-218,840	-200,000	0,022	0,105
-217,825	-110,131	-0,111	0,017
-216,811	411,106	0,093	0,144
-215,796	800,000	-0,023	0,069
-214,782	-200,000	-0,038	-0,205
-213,767	800,000	-0,075	0,154
-212,752	-69,515	0,034	-0,009
-211,738	382,086	0,101	0,152
-210,723	-156,047	-0,160	-0,007
-209,709	-83,292	-0,077	0,018
-208,694	-118,138	-0,137	0,018
-207,679	96,552	0,023	-0,019
-206,665	-145,432	0,119	-0,008
-205,650	174,804	0,099	0,104
-204,636	-200,000	0,016	0,079
-203,621	36,102	-0,099	-0,063
-202,606	-151,652	0,103	0,005
-201,592	-16,024	-0,030	0,014
-200,577	-157,706	0,181	-0,008
-199,563	-16,438	0,129	0,060
-198,548	-96,402	0,098	0,019
-197,533	-200,000	-0,041	-0,153
-196,519	-200,000	0,023	0,127
-195,504	-91,019	0,100	0,021
-194,490	-19,730	0,065	-0,029
-193,475	-115,054	0,072	0,010
-192,460	-91,099	-0,084	0,017
-191,446	39,129	0,083	-0,054
-190,431	-32,940	-0,067	-0,027
-189,417	305,823	0,020	0,027
-188,402	-137,333	-0,108	-0,009
-187,387	800,000	0,044	-0,138
-186,373	91,452	-0,096	0,078
-185,358	-200,000	-0,010	-0,056
-184,344	-118,531	0,049	-0,006
-183,329	-200,000	0,022	0,081
-182,315	260,258	-0,066	0,083
-181,300	-53,484	-0,063	0,021
-180,285	-200,000	-0,004	-0,064
-179,271	800,000	0,068	-0,171
-178,256	356,353	0,026	-0,038
-177,242	-46,338	-0,047	0,017
-176,227	3,850	0,095	0,050
-175,212	-200,000	0,009	0,056
-174,198	-200,000	-0,008	0,068
-173,183	42,627	-0,088	-0,058
-172,169	-29,300	-0,025	-0,011
-171,154	475,709	-0,099	-0,164
-170,139	800,000	0,024	0,062
-169,125	-200,000	-0,025	0,082
-168,110	41,008	0,089	0,058
-167,096	800,000	0,015	0,039
-166,081	-200,000	-0,004	-0,031
-165,066	36,460	-0,161	-0,103
-164,052	394,814	-0,071	0,108
-163,037	-12,784	0,231	-0,109
-162,023	-70,711	0,101	0,028
-161,008	800,000	-0,032	0,068
-159,993	-200,000	-0,001	-0,050
-158,979	404,144	-0,073	-0,113
-157,964	358,746	0,067	-0,098
-156,950	774,212	-0,069	0,138
-155,935	-200,000	-0,010	-0,069
-154,920	-39,679	0,087	-0,033
-153,906	270,009	0,004	-0,006
-152,891	173,164	-0,060	-0,063
-151,877	800,000	-0,011	0,029
-150,862	-200,000	-0,019	-0,072
-149,847	-200,000	-0,023	-0,111
-148,833	126,031	-0,047	-0,043
-147,818	185,165	0,047	0,050
-146,804	367,598	-0,080	0,118
-145,789	800,000	-0,052	0,115
-144,775	-200,000	-0,000	-0,022
-143,760	-200,000	-0,045	-0,170
-142,745	-200,000	0,004	0,023
-141,731	263,790	0,027	0,034
-140,716	64,994	0,061	-0,045
-139,702	-35,369	-0,042	0,017
-138,687	-57,681	0,060	0,019
-137,672	800,000	-0,075	0,155
-136,658	-200,000	0,021	-0,095
-135,643	-28,062	-0,098	-0,041
-134,629	321,829	-0,014	0,020
-133,614	-94,113	-0,127	0,025
-132,599	-200,000	-0,003	-0,073
-131,585	-200,000	-0,013	0,082
-130,570	-200,000	-0,021	-0,079
-129,556	-10,748	-0,060	0,029
-128,541	158,121	-0,072	-0,073
-127,526	-156,391	0,067	0,003
-126,512	-136,846	0,073	0,006
-125,497	-143,368	-0,135	0,009
-124,483	-200,000	0,042	0,147
-123,468	-200,000	0,007	-0,115
-122,453	-39,856	-0,151	0,057
-121,439	244,911	-0,071	0,087
-120,424	42,345	0,054	0,036
-119,410	-106,166	0,124	-0,020
