DTS Sentinel unit serial number:	SN410029Multiplexer serial number:	ORYXHardware model number:	OX2-SRSoftware version number:	ORYX F/W v4,00 Oryx Data Collector v3.7.2.0data status	okinstallation	B4 Nyhavnadifferential loss correction	single-endedforward channel	channel 2reverse channel	N/Adate	2023/12/15time	21:25:13forward acquisition time	300,00reverse acquisition time	0,00gamma	499,1914k internal	0,3133k external	0,3133temperature offset calibration	1,0000default loss term (dB/km)	0,3820temperature slope calibration	1,0000multiplexer offset coefficient	1,0000multiplexer slope coefficient	1,0000fibre end	0,00T internal ref (°C)	20,95T ext. ref 1 (°C)	6,19T ext. ref 2 (°C)	6,38length (m)	temperature (°C)	Stokes	anti-Stokes-744,400	-200,000	0,000	0,068
-743,385	-26,370	-0,231	0,100
-742,371	4,943	0,125	0,068
-741,356	42,461	-0,200	0,135
-740,342	112,316	-0,048	-0,043
-739,327	-12,142	-0,187	0,090
-738,312	146,587	0,062	-0,062
-737,298	72,922	-0,173	0,134
-736,283	-200,000	0,001	0,019
-735,269	381,376	-0,141	0,215
-734,254	-73,714	0,117	0,031
-733,239	-117,005	-0,445	-0,060
-732,225	-95,023	0,124	0,025
-731,210	232,792	-0,040	0,049
-730,196	800,000	-0,055	-0,168
-729,181	-200,000	-0,004	0,022
-728,167	-50,656	-0,160	0,056
-727,152	-108,216	0,065	0,010
-726,137	-100,235	0,062	0,011
-725,123	36,458	-0,142	-0,093
-724,108	323,246	-0,067	-0,095
-723,094	-157,210	-0,149	0,007
-722,079	-200,000	-0,025	-0,146
-721,064	-200,000	-0,007	-0,123
-720,050	-91,061	-0,105	-0,022
-719,035	-68,120	0,099	0,028
-718,021	800,000	-0,023	0,053
-717,006	-63,682	-0,090	0,027
-715,991	462,896	-0,033	-0,054
-714,977	-200,000	-0,008	0,072
-713,962	-96,262	-0,213	0,041
-712,948	25,210	0,113	-0,069
-711,933	-200,000	0,006	-0,075
-710,918	800,000	-0,029	-0,080
-709,904	121,373	0,041	-0,038
-708,889	-184,224	-0,046	-0,001
-707,875	-116,623	-0,138	-0,019
-706,860	762,478	-0,014	0,028
-705,845	-48,985	0,085	0,030
-704,831	-200,000	-0,003	-0,069
-703,816	800,000	0,027	-0,058
-702,802	-200,000	0,001	-0,119
-701,787	800,000	0,035	-0,107
-700,772	-200,000	-0,013	0,075
-699,758	-33,679	-0,093	0,038
-698,743	220,149	-0,112	0,133
-697,729	3,018	-0,074	-0,040
-696,714	-200,000	0,009	0,117
-695,699	-200,000	-0,005	-0,060
-694,685	-200,000	0,011	0,037
-693,670	121,501	-0,021	-0,019
-692,656	-200,000	0,007	-0,187
-691,641	-200,000	0,036	0,138
-690,627	175,315	0,115	0,124
-689,612	-36,584	-0,084	-0,033
-688,597	159,516	-0,065	-0,067
-687,583	-107,398	-0,187	-0,030
-686,568	-136,610	0,041	0,003
-685,554	179,514	-0,066	-0,072
-684,539	624,675	0,061	-0,115
-683,524	-108,805	-0,074	0,012
-682,510	-58,786	-0,068	-0,022
-681,495	-41,275	-0,054	-0,020
-680,481	561,591	-0,056	-0,101
-679,466	-49,072	-0,228	-0,081
-678,451	110,781	-0,025	-0,023
-677,437	222,375	-0,047	-0,056
-676,422	223,044	0,066	-0,079
-675,408	134,171	0,165	0,159
-674,393	185,756	-0,071	-0,079
-673,378	-200,000	0,017	-0,082
-672,364	-98,486	0,018	-0,003
-671,349	46,573	-0,165	-0,113
-670,335	756,596	0,073	0,147
-669,320	-200,000	0,010	0,115
-668,305	-56,356	0,027	0,009
-667,291	650,028	0,021	0,041
-666,276	-122,424	-0,040	0,005
-665,262	152,274	-0,049	-0,049
-664,247	-54,728	-0,098	0,033
-663,232	286,689	0,048	-0,065
-662,218	189,711	-0,026	0,029
-661,203	-200,000	0,001	0,101
-660,189	-113,848	0,076	0,011
-659,174	-200,000	-0,012	-0,046
-658,159	-200,000	0,019	-0,105
-657,145	-12,547	0,065	-0,031
-656,130	800,000	-0,030	-0,081
-655,116	8,603	0,091	0,050
-654,101	-200,000	0,023	-0,122
-653,086	521,924	0,068	-0,118
-652,072	800,000	-0,038	-0,092
-651,057	-200,000	-0,010	-0,054
-650,043	800,000	0,045	-0,136
-649,028	37,943	-0,047	-0,031
-648,014	105,216	0,086	0,075
-646,999	-200,000	-0,025	0,170
-645,984	-200,000	-0,023	-0,105
-644,970	483,489	-0,077	-0,130
-643,955	800,000	-0,020	-0,056
-642,941	564,206	-0,034	-0,061
-641,926	-200,000	-0,020	-0,093
-640,911	-200,000	0,001	-0,057
-639,897	122,563	0,049	0,045
-638,882	800,000	0,008	-0,022
-637,868	800,000	0,046	-0,098
-636,853	17,374	-0,110	0,064
-635,838	-3,378	-0,027	-0,014
-634,824	800,000	0,051	-0,107
-633,809	-197,943	0,254	-0,001
-632,795	292,414	0,080	-0,108
-631,780	-106,134	0,161	0,027
-630,765	181,187	-0,093	-0,101
-629,751	-75,006	-0,060	-0,016
-628,736	-200,000	-0,007	-0,123
-627,722	165,019	-0,037	-0,039
-626,707	14,506	0,023	0,014
-625,692	67,224	0,096	0,072
-624,678	-200,000	0,001	0,101
-623,663	78,102	0,042	0,033
-622,649	144,831	-0,077	-0,076
-621,634	42,535	-0,107	0,072
-620,619	-200,000	0,019	0,102
-619,605	-177,048	-0,071	0,001
-618,590	-64,021	0,032	0,010
-617,576	101,778	-0,063	0,054
-616,561	147,455	-0,021	-0,021
-615,546	612,650	-0,057	0,106
-614,532	800,000	-0,039	0,112
-613,517	39,176	-0,065	-0,043
-612,503	800,000	0,040	0,091
-611,488	-200,000	-0,001	0,068
-610,474	-95,023	0,077	0,015
-609,459	649,746	0,035	0,066
-608,444	-167,107	-0,063	0,002
-607,430	-200,000	-0,066	-0,268
-606,415	-200,000	0,013	-0,080
-605,401	-155,351	0,053	0,002
-604,386	-200,000	0,002	-0,040
-603,371	-200,000	-0,016	0,054
-602,357	-147,050	-0,061	0,004
-601,342	621,703	0,028	-0,052
-600,328	-82,655	-0,074	-0,018
-599,313	437,210	-0,084	0,136
-598,298	-87,427	0,023	0,005
-597,284	800,000	-0,040	-0,091
-596,269	-88,211	-0,141	0,031
-595,255	119,443	0,087	-0,079
-594,240	800,000	-0,015	-0,040
-593,225	134,116	-0,115	0,111
-592,211	262,543	-0,071	0,092
-591,196	800,000	-0,044	-0,114
-590,182	-200,000	0,003	0,041
-589,167	-88,253	0,038	0,008
-588,152	-200,000	-0,019	0,127
-587,138	-200,000	0,005	-0,072
-586,123	463,968	0,065	-0,108
-585,109	289,210	0,030	-0,040
-584,094	-43,217	0,067	0,025
-583,079	55,678	0,116	0,083
-582,065	-200,000	0,004	-0,065
-581,050	-57,697	0,080	0,026
-580,036	-139,078	0,055	0,004
-579,021	-27,723	-0,057	0,024
-578,006	800,000	0,031	0,071
-576,992	308,947	0,014	-0,019
-575,977	-33,017	0,069	-0,028
-574,963	-93,298	0,022	0,004
-573,948	-15,491	-0,030	0,014
-572,934	176,185	0,091	0,097
-571,919	3,723	0,055	0,030
-570,904	-63,858	0,046	-0,014
-569,890	-200,000	-0,007	-0,092
-568,875	-117,110	0,143	-0,019
-567,861	449,714	0,038	-0,063
-566,846	131,222	-0,024	0,023
-565,831	62,136	-0,097	-0,071
-564,817	710,522	-0,042	-0,081
-563,802	-70,782	-0,046	-0,013
-562,788	-200,000	-0,032	-0,132
-561,773	-104,720	0,050	0,008
-560,758	800,000	-0,035	-0,103
-559,744	427,851	0,032	0,052
-558,729	-200,000	-0,024	0,082
-557,715	-51,563	-0,062	0,021
-556,700	-123,577	-0,073	0,008
-555,685	69,919	-0,099	0,075
-554,671	524,679	0,053	0,093
-553,656	800,000	-0,024	-0,077
-552,642	552,780	-0,054	0,096
-551,627	800,000	0,035	0,110
-550,612	0,556	0,118	-0,062
-549,598	-127,751	-0,060	0,006
-548,583	298,897	0,057	0,077
-547,569	-200,000	0,028	-0,126
-546,554	-200,000	0,008	-0,044
-545,539	190,145	-0,060	-0,067
-544,525	169,990	0,065	0,069
-543,510	304,830	-0,079	-0,108
-542,496	-2,801	-0,181	-0,093
-541,481	-190,831	-0,075	0,001
-540,466	651,201	-0,091	-0,172
-539,452	-157,356	-0,051	-0,002
-538,437	-128,565	-0,024	0,002
-537,423	-59,855	0,146	0,046
-536,408	-127,705	-0,092	-0,010
-535,393	-27,114	-0,093	0,040
-534,379	-200,000	-0,051	-0,187
-533,364	538,478	0,066	0,117
-532,350	78,003	0,091	0,072
-531,335	105,348	0,039	-0,034
-530,321	-200,000	0,013	0,047
-529,306	-200,000	-0,016	0,112
-528,291	800,000	0,068	-0,169
-527,277	359,635	-0,061	-0,091
-526,262	-200,000	-0,042	0,164
-525,248	-200,000	-0,005	0,065
-524,233	-92,396	0,235	0,048
-523,218	800,000	0,028	-0,058
-522,204	800,000	0,040	0,102
-521,189	800,000	-0,013	-0,038
-520,175	316,076	0,068	0,094
-519,160	104,799	0,035	-0,030
-518,145	800,000	-0,021	-0,067
-517,131	359,935	0,042	0,062
-516,116	194,781	-0,053	0,059
-515,102	-200,000	-0,008	-0,065
-514,087	449,694	0,021	0,035
-513,072	259,568	0,059	-0,075
-512,058	-92,924	0,047	0,009
-511,043	206,563	-0,057	-0,065
-510,029	-41,448	0,013	0,005
-509,014	40,317	0,095	0,063
-507,999	89,663	0,098	0,080
-506,985	-200,000	-0,035	0,123
-505,970	300,702	0,090	-0,122
-504,956	-136,188	-0,086	-0,007
-503,941	-70,187	0,019	0,005
-502,926	-63,898	-0,189	0,057
-501,912	139,586	0,083	-0,081
-500,897	115,575	-0,042	-0,038
-499,883	-141,588	-0,062	0,005
-498,868	798,641	0,018	-0,037
-497,853	-200,000	0,016	0,065
-496,839	-143,882	-0,029	0,002
-495,824	-41,288	-0,080	0,030
-494,810	-32,933	0,062	0,025
-493,795	-200,000	-0,006	-0,037
-492,781	800,000	0,032	0,073
-491,766	-200,000	0,001	-0,170
-490,751	44,397	0,014	-0,010
-489,737	-200,000	0,008	-0,039
-488,722	-200,000	0,031	-0,101
-487,708	-200,000	0,004	-0,060
-486,693	800,000	-0,060	0,132
-485,678	602,647	0,041	-0,075
-484,664	283,123	-0,177	-0,234
-483,649	-174,283	-0,031	0,001
-482,635	-200,000	0,011	0,065
-481,620	228,443	0,016	-0,020
-480,605	94,351	0,085	0,071
-479,591	76,991	-0,070	-0,055
-478,576	128,948	0,002	0,002
-477,562	-144,043	0,097	0,007
-476,547	-94,516	-0,143	-0,028
-475,532	-91,151	0,036	0,008
-474,518	135,289	0,015	0,015
-473,503	-112,769	-0,129	-0,019
-472,489	286,192	-0,090	0,120
-471,474	5,084	-0,124	0,067
-470,459	800,000	-0,019	-0,050
-469,445	800,000	-0,043	-0,114
-468,430	167,713	0,090	-0,094
-467,416	549,114	-0,100	-0,177
-466,401	-22,556	0,130	-0,058
-465,386	0,243	-0,218	-0,114
-464,372	501,796	0,046	-0,078
-463,357	98,127	0,070	0,060
-462,343	-88,757	-0,068	0,015
-461,328	-113,100	0,081	-0,012
-460,313	459,812	0,031	-0,052
-459,299	177,192	-0,059	0,063
-458,284	-129,980	0,192	0,019
-457,270	-200,000	-0,037	0,132
-456,255	-53,444	-0,109	0,036
-455,241	-200,000	-0,008	-0,135
-454,226	-191,677	-0,157	0,001
-453,211	170,076	0,074	0,078
-452,197	-196,019	-0,037	-0,000
-451,182	-29,764	0,132	0,055
-450,168	202,542	-0,016	-0,018
-449,153	-47,240	0,059	-0,021
-448,138	426,130	-0,013	-0,020
-447,124	-70,627	0,081	0,022
-446,109	-200,000	0,009	0,077
-445,095	-3,177	-0,129	-0,066
-444,080	116,568	0,162	0,146
-443,065	-84,896	-0,070	-0,016
-442,051	-149,575	0,116	0,007
-441,036	-104,839	0,105	0,018
-440,022	800,000	-0,042	-0,092
-439,007	800,000	-0,047	0,121
-437,992	-181,468	0,087	0,001
-436,978	-57,272	0,050	-0,016
-435,963	363,390	0,040	0,059
-434,949	-200,000	0,026	0,162
-433,934	-200,000	-0,001	-0,075
-432,919	-32,532	-0,220	-0,090
-431,905	13,472	0,084	-0,048
-430,890	800,000	0,033	0,075
-429,876	160,107	0,028	-0,029
-428,861	-64,910	0,075	0,022
-427,846	564,776	0,036	0,065
-426,832	-200,000	-0,025	-0,090
-425,817	-49,168	0,077	0,027
-424,803	237,949	0,050	-0,061
-423,788	-123,109	0,164	0,019
-422,773	800,000	0,080	0,169
-421,759	781,410	0,037	0,075
-420,744	-200,000	-0,003	0,055
-419,730	-70,798	0,067	0,018
-418,715	800,000	0,052	0,163
-417,701	783,260	0,054	-0,108
-416,686	537,414	-0,006	-0,010
-415,671	1,039	0,119	-0,062
-414,657	34,178	0,049	-0,031
-413,642	-74,888	-0,050	-0,013
-412,628	99,811	-0,060	-0,051
-411,613	-75,810	0,021	-0,005
-410,598	-28,009	-0,028	0,012
-409,584	520,147	0,044	0,077
-408,569	-200,000	0,011	0,045
-407,555	-58,083	-0,060	0,019
-406,540	-200,000	-0,016	-0,156
-405,525	-106,242	-0,116	0,019
-404,511	-24,777	-0,041	-0,018
-403,496	-67,761	-0,107	-0,031
-402,482	800,000	0,012	0,033
-401,467	456,281	-0,028	0,046
-400,452	68,756	0,065	0,049
-399,438	349,194	0,100	0,145
-398,423	800,000	0,060	-0,126
-397,409	-200,000	-0,002	-0,031
-396,394	-123,078	-0,111	0,013
-395,379	800,000	0,051	-0,120
-394,365	410,893	0,055	0,086
-393,350	18,339	0,010	0,006
-392,336	-200,000	-0,019	0,136
-391,321	-162,436	0,174	0,006
-390,306	116,167	0,121	0,109
-389,292	7,549	0,071	-0,039
-388,277	80,345	-0,039	-0,031
-387,263	800,000	-0,016	-0,052
-386,248	80,348	-0,059	-0,047
-385,233	800,000	0,036	-0,095
-384,219	724,603	0,017	0,034
-383,204	-200,000	-0,021	-0,184
-382,190	643,226	-0,068	-0,127
-381,175	-68,594	-0,095	-0,027
-380,160	-49,310	0,142	-0,049
-379,146	800,000	0,044	0,092
-378,131	157,389	0,026	0,026
-377,117	214,317	-0,071	0,082
-376,102	-0,919	-0,069	0,035
-375,088	68,708	0,139	-0,105
-374,073	-40,793	-0,042	-0,016
-373,058	-9,702	0,062	0,030
-372,044	301,805	-0,076	-0,104
-371,029	-82,582	0,046	0,011
-370,015	531,794	0,068	0,119
-369,000	620,703	-0,014	0,026
-367,985	11,793	-0,073	-0,041
-366,971	159,707	-0,092	-0,094
-365,956	800,000	-0,040	-0,092
-364,942	73,092	0,086	0,066
-363,927	732,686	-0,024	0,046
-362,912	118,134	-0,108	0,097
-361,898	-49,331	-0,084	-0,029
-360,883	252,149	0,038	0,047
-359,869	-200,000	-0,005	-0,033
-358,854	690,945	0,022	-0,043
-357,839	-142,552	-0,058	0,004
-356,825	379,875	0,033	-0,050
-355,810	77,525	0,083	0,065
-354,796	-200,000	0,003	0,123
-353,781	-200,000	-0,011	-0,042
-352,766	435,814	-0,053	0,084
-351,752	-200,000	-0,017	-0,085
-350,737	-200,000	-0,015	-0,063
-349,723	-154,194	0,098	0,005
-348,708	-60,738	0,104	0,032
-347,693	-90,396	-0,194	-0,041
-346,679	-126,891	0,028	-0,003
-345,664	329,825	-0,085	-0,120
-344,650	800,000	0,057	0,141
-343,635	-200,000	0,041	0,144
-342,620	-200,000	-0,005	0,150
-341,606	171,926	0,057	0,060
-340,591	11,925	-0,058	-0,032
-339,577	-200,000	-0,002	-0,099
-338,562	271,158	0,022	0,029
-337,548	-200,000	-0,015	0,050
-336,533	-200,000	-0,002	0,068
-335,518	800,000	0,034	0,070
-334,504	7,721	-0,025	-0,013
-333,489	93,026	0,066	-0,055
-332,475	-200,000	0,017	-0,063
-331,460	800,000	0,047	-0,109
-330,445	-61,144	0,050	0,015
-329,431	-63,772	0,201	0,060
-328,416	800,000	0,046	-0,100
-327,402	800,000	-0,018	-0,051
-326,387	-31,859	0,029	0,012
-325,372	-56,044	-0,071	0,023
-324,358	800,000	-0,010	-0,029
-323,343	-200,000	0,017	-0,068
-322,329	214,540	0,043	0,050
-321,314	1,266	-0,082	0,043
-320,299	91,911	0,114	0,093
-319,285	800,000	0,047	0,108
-318,270	-178,767	-0,071	-0,001
-317,256	-200,000	-0,029	-0,113
-316,241	-200,000	0,025	-0,115
-315,226	274,728	0,061	-0,079
-314,212	178,985	0,057	0,061
-313,197	122,707	0,069	0,063
-312,183	-200,000	-0,043	0,169
-311,168	71,977	-0,090	0,068
-310,153	134,509	-0,062	-0,058
-309,139	-200,000	-0,021	-0,161
-308,124	-190,099	-0,113	0,001
-307,110	694,872	0,098	0,188
-306,095	-200,000	-0,033	0,129
-305,080	662,875	-0,052	0,098
-304,066	-37,641	-0,033	0,013
-303,051	178,200	0,112	-0,120
-302,037	390,629	-0,081	-0,123
-301,022	-200,000	-0,012	-0,056
-300,008	-128,624	0,123	0,013
-298,993	-156,868	0,015	0,001
-297,978	-76,266	-0,077	-0,020
-296,964	-200,000	0,000	0,085
-295,949	800,000	0,031	-0,096
-294,935	59,419	-0,008	0,005
-293,920	-29,971	-0,059	-0,024
-292,905	-200,000	0,015	-0,071
-291,891	-79,475	0,009	-0,002
-290,876	-62,077	0,153	0,046
-289,862	61,478	-0,132	0,096
-288,847	37,526	-0,053	0,034
-287,832	49,553	-0,057	0,039
-286,818	-28,697	0,086	-0,036
-285,803	463,736	0,078	-0,127
-284,789	-200,000	-0,034	0,116
-283,774	800,000	0,045	0,109
-282,759	701,131	-0,054	0,105
-281,745	-200,000	-0,015	0,049
-280,730	800,000	0,042	0,117
-279,716	-42,663	0,061	0,023
-278,701	38,936	-0,091	0,059
-277,686	-63,436	0,099	0,029
-276,672	-178,881	0,074	-0,001
-275,657	-84,837	-0,115	-0,026
-274,643	-100,393	-0,130	-0,023
-273,628	-200,000	-0,010	-0,105
-272,613	-200,000	-0,011	0,049
-271,599	100,625	-0,112	0,095
-270,584	800,000	-0,014	-0,036
-269,570	-76,436	0,061	-0,016
-268,555	-197,932	-0,104	-0,000
-267,540	137,363	-0,112	0,107
-266,526	57,137	0,095	0,067
-265,511	-200,000	0,010	-0,115
-264,497	-53,185	0,094	-0,031
-263,482	-77,481	0,063	0,016
-262,467	420,097	0,060	0,094
-261,453	20,309	-0,081	-0,047
-260,438	-18,515	0,026	0,012
-259,424	-145,874	-0,131	0,008
-258,409	-200,000	-0,011	-0,091
-257,395	-39,103	-0,060	-0,023
-256,380	-200,000	0,005	0,060
-255,365	800,000	-0,050	0,110
-254,351	-200,000	0,002	0,058
-253,336	257,644	-0,125	-0,157
-252,322	432,985	-0,021	-0,033
-251,307	625,241	0,027	-0,050
-250,292	207,991	0,016	0,018
-249,278	-200,000	0,043	0,147
-248,263	-6,538	0,069	0,034
-247,249	-99,891	0,091	-0,016
-246,234	5,029	-0,170	-0,091
-245,219	-161,944	-0,125	-0,005
-244,205	800,000	-0,034	-0,073
-243,190	64,982	0,050	-0,037
-242,176	45,945	0,100	0,067
-241,161	-200,000	0,015	0,107
-240,146	-120,984	0,117	-0,014
-239,132	-19,320	0,154	-0,069
-238,117	-18,504	0,035	-0,016
-237,103	-200,000	-0,010	-0,067
-236,088	-110,415	0,115	0,017
-235,073	15,845	0,114	-0,065
-234,059	-145,871	0,076	0,005
-233,044	800,000	0,023	0,061
-232,030	141,860	-0,153	-0,148
-231,015	-200,000	-0,005	-0,045
-230,000	-200,000	-0,024	-0,149
-228,986	4,228	-0,119	-0,063
-227,971	71,758	0,044	0,033
-226,957	-32,774	0,096	0,039
-225,942	13,694	-0,077	0,043
-224,927	-93,409	-0,084	0,017
-223,913	286,160	0,080	-0,106
-222,898	96,036	-0,060	-0,050
-221,884	148,684	-0,121	0,120
-220,869	800,000	0,017	-0,054
-219,855	-33,714	-0,032	-0,013
-218,840	134,792	0,055	-0,052
-217,825	-200,000	-0,038	0,153
-216,811	13,410	0,068	0,038
-215,796	573,212	-0,008	0,014
-214,782	109,147	0,070	-0,061
-213,767	649,545	0,063	-0,119
-212,752	-200,000	-0,007	-0,029
-211,738	216,604	-0,075	0,087
-210,723	800,000	-0,041	0,087
-209,709	42,137	-0,052	0,034
-208,694	-200,000	0,023	0,076
-207,679	-200,000	0,002	0,021
-206,665	800,000	0,033	-0,090
-205,650	-129,733	-0,134	-0,013
-204,636	144,377	0,035	0,034
-203,621	-2,829	-0,053	-0,027
-202,606	84,378	-0,075	-0,060
-201,592	-103,002	-0,087	0,015
-200,577	104,970	-0,078	-0,067
-199,563	-72,807	-0,026	0,007
-198,548	90,164	0,095	0,077
-197,533	-143,691	0,100	-0,007
-196,519	52,536	-0,106	0,074
-195,504	800,000	-0,027	0,063
-194,490	12,218	-0,086	-0,048
-193,475	-200,000	0,001	-0,188
-192,460	360,764	0,049	-0,071
-191,446	-200,000	-0,013	0,041
-190,431	82,228	0,054	0,042
-189,417	110,300	0,058	0,050
-188,402	-48,024	-0,059	-0,021
-187,387	453,411	-0,062	0,101
-186,373	11,810	0,027	-0,015
-185,358	-163,432	-0,156	-0,005
-184,344	192,193	0,122	0,134
-183,329	-95,607	-0,039	0,008
-182,315	-8,902	-0,058	0,028
-181,300	800,000	-0,044	0,109
-180,285	560,617	-0,075	-0,133
-179,271	333,997	0,044	-0,061
-178,256	800,000	-0,014	-0,044
-177,242	800,000	0,047	0,125
-176,227	311,417	0,085	0,117
-175,212	46,787	0,028	0,019
-174,198	151,266	-0,096	0,095
-173,183	-200,000	0,000	-0,222
-172,169	-200,000	-0,024	-0,144
-171,154	75,314	-0,021	0,016
-170,139	-200,000	-0,010	0,032
-169,125	205,456	0,105	-0,118
-168,110	61,462	0,038	0,028
-167,096	800,000	-0,038	0,104
-166,081	800,000	0,027	-0,068
-165,066	343,117	-0,121	0,173
-164,052	-200,000	-0,056	0,000
-163,037	139,312	-0,040	-0,039
-162,023	800,000	-0,010	0,025
-161,008	-200,000	-0,004	0,081
-159,993	-200,000	0,031	0,148
-158,979	-200,000	0,004	-0,032
-157,964	-182,033	-0,046	-0,001
-156,950	-41,826	-0,090	-0,033
-155,935	-122,701	0,069	0,008
-154,920	230,894	-0,079	-0,094
-153,906	-163,545	0,071	0,002
-152,891	-71,541	-0,080	0,022
-151,877	142,747	-0,052	-0,050
-150,862	-150,058	-0,093	-0,005
-149,847	-200,000	0,008	0,117
-148,833	-93,946	-0,202	-0,040
-147,818	-200,000	-0,038	-0,128
-146,804	-93,705	-0,082	0,016
-145,789	722,196	-0,027	0,052
-144,775	-112,149	0,032	-0,005
-143,760	238,570	0,012	-0,014
-142,745	800,000	-0,025	0,075
-141,731	-169,221	0,100	0,003
-140,716	80,582	-0,098	0,076
-139,702	-50,711	0,117	-0,040
-138,687	800,000	0,040	-0,121
-137,672	-177,389	-0,203	-0,004
-136,658	89,087	-0,084	-0,068
-135,643	-10,899	0,118	-0,056
-134,629	800,000	0,041	-0,106
-133,614	800,000	-0,057	0,181
-132,599	144,095	0,087	0,084
-131,585	-33,695	-0,069	0,028
-130,570	399,656	0,078	0,119
-129,556	-200,000	0,019	0,199
-128,541	-200,000	-0,036	0,131
-127,526	800,000	-0,008	-0,019
-126,512	-3,186	0,076	-0,038
-125,497	-47,211	0,060	0,021
-124,483	-25,401	0,019	-0,008
-123,468	800,000	0,051	-0,113
-122,453	-200,000	0,008	-0,077
-121,439	257,920	-0,023	-0,028
-120,424	79,169	-0,066	0,051
-119,410	-60,312	-0,158	0,048
