DTS Sentinel unit serial number:	SN410029Multiplexer serial number:	ORYXHardware model number:	OX2-SRSoftware version number:	ORYX F/W v4,00 Oryx Data Collector v3.7.2.0data status	okinstallation	B4 Nyhavnadifferential loss correction	single-endedforward channel	channel 2reverse channel	N/Adate	2023/12/18time	17:40:13forward acquisition time	300,00reverse acquisition time	0,00gamma	499,1914k internal	0,3124k external	0,3124temperature offset calibration	1,0000default loss term (dB/km)	0,3820temperature slope calibration	1,0000multiplexer offset coefficient	1,0000multiplexer slope coefficient	1,0000fibre end	0,00T internal ref (°C)	21,77T ext. ref 1 (°C)	7,21T ext. ref 2 (°C)	7,26length (m)	temperature (°C)	Stokes	anti-Stokes-744,400	-74,774	0,015	-0,004
-743,385	143,888	-0,184	0,183
-742,371	-155,246	0,066	-0,003
-741,356	180,182	-0,186	0,204
-740,342	634,973	0,019	-0,035
-739,327	84,186	-0,173	0,141
-738,312	800,000	-0,049	-0,147
-737,298	204,491	-0,049	0,057
-736,283	175,094	-0,125	-0,135
-735,269	-75,619	-0,230	0,060
-734,254	-43,644	-0,009	-0,003
-733,239	-65,474	-0,322	-0,096
-732,225	-132,599	0,200	0,019
-731,210	-0,578	0,121	0,064
-730,196	-32,329	0,028	-0,012
-729,181	297,231	-0,038	-0,052
-728,167	51,312	-0,032	0,023
-727,152	-12,339	0,093	0,045
-726,137	11,239	-0,185	0,105
-725,123	800,000	0,030	-0,067
-724,108	-200,000	-0,009	-0,172
-723,094	369,517	-0,038	-0,057
-722,079	-200,000	0,019	-0,110
-721,064	763,559	0,009	-0,019
-720,050	-147,443	-0,096	0,006
-719,035	800,000	-0,030	-0,087
-718,021	-200,000	0,031	-0,121
-717,006	-47,949	-0,043	0,015
-715,991	-63,793	-0,134	-0,041
-714,977	1,528	-0,127	-0,068
-713,962	-19,049	0,199	-0,092
-712,948	800,000	0,063	-0,134
-711,933	-111,719	-0,198	0,030
-710,918	-200,000	-0,013	-0,083
-709,904	-70,999	0,067	0,019
-708,889	18,038	-0,149	-0,088
-707,875	171,770	-0,131	-0,140
-706,860	800,000	0,009	-0,024
-705,845	11,716	0,071	0,041
-704,831	91,085	-0,126	-0,105
-703,816	-45,902	-0,084	0,031
-702,802	672,416	-0,011	-0,022
-701,787	4,039	-0,076	-0,041
-700,772	800,000	-0,054	-0,118
-699,758	-200,000	-0,009	-0,064
-698,743	-117,539	0,241	0,032
-697,729	-200,000	0,010	-0,049
-696,714	-65,202	-0,118	0,035
-695,699	800,000	-0,047	0,101
-694,685	209,346	-0,022	-0,025
-693,670	122,014	0,058	-0,054
-692,656	800,000	0,034	-0,098
-691,641	800,000	0,032	-0,079
-690,627	-200,000	-0,001	-0,062
-689,612	468,038	0,107	-0,179
-688,597	89,439	-0,046	-0,038
-687,583	-45,760	-0,071	-0,026
-686,568	-120,555	-0,061	0,008
-685,554	-111,759	-0,197	-0,029
-684,539	800,000	0,054	-0,122
-683,524	-200,000	0,004	-0,078
-682,510	-82,376	0,103	0,025
-681,495	43,344	-0,064	-0,043
-680,481	177,573	0,122	-0,133
-679,466	800,000	0,049	0,126
-678,451	0,738	0,040	-0,021
-677,437	-78,501	0,059	-0,015
-676,422	800,000	0,052	-0,142
-675,408	-125,485	-0,090	0,010
-674,393	-18,798	0,035	-0,016
-673,378	-200,000	-0,013	0,063
-672,364	-70,034	-0,156	-0,044
-671,349	-200,000	-0,003	-0,060
-670,335	160,252	0,030	-0,031
-669,320	-130,583	-0,060	0,006
-668,305	800,000	-0,037	-0,096
-667,291	-200,000	-0,003	-0,033
-666,276	-187,256	-0,098	0,001
-665,262	7,540	-0,067	0,037
-664,247	-18,945	-0,063	0,029
-663,232	43,729	-0,236	-0,160
-662,218	267,188	0,080	-0,104
-661,203	38,552	-0,049	0,033
-660,189	-200,000	-0,053	0,216
-659,174	-200,000	-0,019	-0,089
-658,159	68,120	-0,053	-0,040
-657,145	-200,000	0,024	-0,118
-656,130	179,390	0,059	0,064
-655,116	-17,104	-0,049	-0,023
-654,101	573,285	0,051	0,093
-653,086	-125,617	0,049	0,005
-652,072	167,992	-0,098	-0,103
-651,057	800,000	-0,004	-0,009
-650,043	110,335	-0,013	-0,012
-649,028	-20,055	-0,079	0,036
-648,014	260,777	-0,012	0,015
-646,999	-110,991	-0,152	0,023
-645,984	105,976	-0,072	0,063
-644,970	-200,000	0,032	0,109
-643,955	79,935	0,031	0,025
-642,941	-36,090	-0,039	0,015
-641,926	45,368	0,101	-0,069
-640,911	-150,034	0,121	0,007
-639,897	800,000	-0,025	-0,078
-638,882	320,091	0,036	-0,051
-637,868	-86,641	0,064	-0,014
-636,853	83,979	-0,131	0,106
-635,838	800,000	-0,071	0,217
-634,824	-133,811	-0,050	0,005
-633,809	47,800	-0,021	-0,015
-632,795	390,982	0,058	0,090
-631,780	107,012	-0,047	-0,042
-630,765	112,902	-0,088	-0,079
-629,751	-200,000	-0,004	-0,100
-628,736	78,704	-0,166	-0,132
-627,722	138,802	-0,091	-0,089
-626,707	34,719	0,131	0,085
-625,692	217,737	0,079	0,094
-624,678	453,608	-0,033	0,054
-623,663	72,802	0,061	-0,047
-622,649	-27,547	-0,113	-0,048
-621,634	-72,424	-0,038	0,010
-620,619	800,000	-0,054	-0,117
-619,605	-64,979	-0,074	-0,022
-618,590	482,569	0,044	-0,075
-617,576	-81,842	-0,086	-0,021
-616,561	128,633	0,037	0,035
-615,546	147,067	0,034	-0,034
-614,532	800,000	-0,070	-0,146
-613,517	36,416	0,050	0,033
-612,503	-18,740	0,078	-0,036
-611,488	-100,087	0,159	0,029
-610,474	-101,905	0,063	0,011
-609,459	-23,716	0,007	-0,003
-608,444	122,955	-0,053	-0,049
-607,430	392,509	0,070	-0,109
-606,415	-200,000	-0,026	-0,123
-605,401	144,089	-0,042	-0,042
-604,386	-17,227	0,107	-0,050
-603,371	-109,134	0,089	0,014
-602,357	800,000	-0,041	-0,118
-601,342	416,898	-0,051	0,082
-600,328	16,661	-0,099	-0,058
-599,313	800,000	0,060	-0,156
-598,298	-200,000	0,023	0,116
-597,284	-77,947	0,053	0,013
-596,269	289,186	0,046	0,061
-595,255	208,861	-0,100	0,116
-594,240	800,000	-0,024	-0,072
-593,225	322,010	-0,041	-0,058
-592,211	-18,424	0,045	0,021
-591,196	173,610	-0,114	0,122
-590,182	-165,520	0,133	0,004
-589,167	-14,211	0,077	0,037
-588,152	217,012	-0,020	-0,024
-587,138	-169,128	-0,096	-0,003
-586,123	581,913	0,029	-0,053
-585,109	-200,000	0,024	-0,086
-584,094	-105,001	-0,032	-0,005
-583,079	226,097	0,068	-0,082
-582,065	722,472	0,090	-0,179
-581,050	16,001	0,076	-0,044
-580,036	227,386	-0,072	0,086
-579,021	167,456	0,043	0,046
-578,006	464,998	-0,078	-0,130
-576,992	-200,000	0,008	0,053
-575,977	-79,121	0,159	0,040
-574,963	800,000	0,041	-0,103
-573,948	304,564	0,033	-0,045
-572,934	-141,681	-0,063	-0,005
-571,919	-200,000	-0,041	-0,139
-570,904	224,863	-0,048	-0,057
-569,890	-62,702	0,042	0,013
-568,875	-200,000	-0,013	-0,154
-567,861	-35,209	0,133	-0,053
-566,846	54,038	-0,070	-0,050
-565,831	800,000	-0,003	-0,009
-564,817	800,000	-0,060	0,181
-563,802	273,287	0,071	0,094
-562,788	800,000	-0,048	-0,120
-561,773	9,559	0,102	-0,057
-560,758	58,834	-0,089	-0,065
-559,744	65,665	0,088	0,066
-558,729	48,030	-0,071	-0,049
-557,715	-172,353	0,075	-0,002
-556,700	-35,060	0,065	-0,026
-555,685	800,000	-0,027	-0,079
-554,671	800,000	-0,066	0,138
-553,656	-99,345	-0,055	-0,010
-552,642	-181,009	0,163	0,002
-551,627	800,000	0,017	-0,038
-550,612	-22,090	0,026	-0,012
-549,598	0,085	0,039	-0,021
-548,583	-200,000	-0,056	-0,245
-547,569	-200,000	-0,027	-0,118
-546,554	-8,890	-0,064	0,031
-545,539	91,136	0,016	0,013
-544,525	800,000	0,035	0,104
-543,510	-200,000	-0,017	0,068
-542,496	-200,000	-0,001	-0,079
-541,481	800,000	-0,070	0,194
-540,466	-101,594	0,151	0,027
-539,452	141,911	-0,056	-0,055
-538,437	-25,502	-0,123	-0,053
-537,423	-101,753	-0,051	0,009
-536,408	-144,735	-0,021	-0,001
-535,393	201,200	-0,064	-0,073
-534,379	142,701	0,084	-0,083
-533,364	571,585	-0,078	-0,141
-532,350	643,954	-0,037	-0,070
-531,335	383,604	0,041	-0,063
-530,321	-40,801	0,132	0,050
-529,306	-105,324	0,181	-0,030
-528,291	148,007	0,063	-0,063
-527,277	-200,000	0,000	-0,035
-526,262	288,519	0,079	-0,105
-525,248	-200,000	-0,003	-0,103
-524,233	-96,822	0,081	0,016
-523,218	-80,944	-0,218	-0,053
-522,204	143,923	0,073	0,071
-521,189	241,554	-0,112	-0,138
-520,175	190,217	0,073	-0,081
-519,160	-27,530	-0,085	-0,037
-518,145	-45,136	-0,068	0,025
-517,131	-86,659	0,098	-0,022
-516,116	795,029	0,044	-0,090
-515,102	-200,000	-0,010	-0,108
-514,087	414,287	0,054	-0,085
-513,072	800,000	-0,044	0,110
-512,058	-200,000	0,009	0,093
-511,043	-200,000	0,015	0,080
-510,029	441,203	0,015	-0,025
-509,014	-200,000	0,010	-0,050
-507,999	-200,000	-0,026	-0,103
-506,985	-200,000	0,008	-0,060
-505,970	526,062	-0,040	-0,070
-504,956	183,399	-0,069	0,075
-503,941	-134,949	0,050	-0,004
-502,926	-200,000	0,224	0,001
-501,912	-200,000	-0,012	0,149
-500,897	-19,884	0,018	0,008
-499,883	-12,494	-0,141	-0,068
-498,868	173,977	-0,003	-0,003
-497,853	-54,647	-0,094	-0,031
-496,839	-200,000	0,010	-0,078
-495,824	-68,212	-0,091	-0,026
-494,810	-200,000	0,002	-0,097
-493,795	-1,307	-0,067	-0,035
-492,781	-32,242	-0,087	-0,036
-491,766	800,000	-0,029	-0,079
-490,751	23,174	-0,079	-0,048
-489,737	-103,449	-0,106	-0,018
-488,722	-94,199	-0,184	0,037
-487,708	-62,787	0,076	0,023
-486,693	450,294	-0,034	0,056
-485,678	-120,556	0,022	0,003
-484,664	214,573	-0,095	-0,111
-483,649	-174,646	-0,079	0,002
-482,635	702,823	-0,081	-0,157
-481,620	-83,494	0,064	-0,015
-480,605	-200,000	0,005	0,068
-479,591	-62,514	0,038	-0,012
-478,576	-47,751	0,090	-0,032
-477,562	629,970	-0,016	-0,030
-476,547	378,803	0,034	-0,051
-475,532	-137,888	-0,141	-0,011
-474,518	-89,049	0,059	0,013
-473,503	332,173	0,027	0,038
-472,489	-50,083	-0,077	-0,027
-471,474	-97,059	-0,055	0,011
-470,459	85,606	-0,042	-0,034
-469,445	-127,583	0,107	0,011
-468,430	-19,255	0,157	-0,071
-467,416	800,000	-0,019	-0,043
-466,401	18,244	-0,069	-0,041
-465,386	800,000	-0,012	0,034
-464,372	716,829	-0,042	-0,082
-463,357	800,000	0,023	-0,049
-462,343	-200,000	0,001	-0,005
-461,328	13,630	-0,128	-0,073
-460,313	-200,000	-0,019	0,063
-459,299	214,423	0,074	0,087
-458,284	-49,113	-0,025	-0,009
-457,270	58,944	-0,178	0,129
-456,255	-23,419	0,086	-0,038
-455,241	-172,886	-0,154	0,003
-454,226	463,147	0,027	0,044
-453,211	-113,327	-0,168	-0,024
-452,197	25,287	0,087	0,053
-451,182	-30,138	0,078	0,032
-450,168	-200,000	-0,005	0,106
-449,153	748,958	0,034	-0,067
-448,138	-200,000	-0,011	0,080
-447,124	-163,578	0,019	0,001
-446,109	59,720	0,051	0,037
-445,095	425,099	0,083	0,132
-444,080	-200,000	-0,018	0,061
-443,065	-200,000	-0,006	0,074
-442,051	-200,000	0,005	-0,101
-441,036	800,000	-0,065	-0,158
-440,022	333,630	0,047	-0,068
-439,007	-127,114	0,084	-0,009
-437,992	45,803	0,035	-0,024
-436,978	222,610	0,072	-0,085
-435,963	7,493	0,147	0,081
-434,949	800,000	0,006	-0,015
-433,934	-115,129	-0,127	-0,018
-432,919	63,477	-0,059	-0,043
-431,905	63,009	0,067	-0,049
-430,890	574,637	-0,027	-0,049
-429,876	115,215	0,070	0,063
-428,861	400,789	-0,078	0,120
-427,846	13,535	0,138	0,079
-426,832	365,889	-0,058	0,086
-425,817	-200,000	0,012	-0,074
-424,803	-200,000	-0,041	-0,147
-423,788	50,802	0,057	-0,040
-422,773	-90,983	0,068	-0,014
-421,759	-60,428	-0,040	-0,012
-420,744	605,171	0,090	0,166
-419,730	-155,834	-0,190	0,009
-418,715	-122,520	-0,055	0,006
-417,701	-200,000	0,005	0,030
-416,686	311,064	-0,025	-0,035
-415,671	96,547	0,124	0,105
-414,657	-200,000	0,016	-0,054
-413,642	-5,059	0,118	0,060
-412,628	202,518	-0,021	0,024
-411,613	179,323	-0,032	0,034
-410,598	210,947	0,071	0,082
-409,584	-78,610	-0,202	0,050
-408,569	-140,307	0,105	0,008
-407,555	800,000	-0,040	-0,110
-406,540	-200,000	-0,020	0,144
-405,525	80,913	-0,034	-0,027
-404,511	-19,990	-0,138	-0,063
-403,496	414,984	-0,018	0,028
-402,482	451,116	0,081	-0,132
-401,467	-200,000	0,029	0,138
-400,452	-200,000	-0,012	0,165
-399,438	-200,000	-0,024	0,090
-398,423	-140,085	-0,120	0,009
-397,409	693,585	0,011	0,022
-396,394	800,000	0,024	0,068
-395,379	-47,572	0,036	0,013
-394,365	7,657	0,125	-0,069
-393,350	800,000	0,053	-0,130
-392,336	800,000	-0,002	-0,005
-391,321	800,000	-0,050	-0,151
-390,306	-88,224	-0,093	0,020
-389,292	800,000	0,035	-0,093
-388,277	671,654	-0,019	-0,037
-387,263	-200,000	-0,006	0,162
-386,248	-72,516	0,201	0,054
-385,233	-39,370	-0,052	0,020
-384,219	13,162	0,127	0,072
-383,204	-23,033	-0,100	-0,044
-382,190	746,354	0,004	0,009
-381,175	-200,000	0,024	0,107
-380,160	-95,763	0,074	0,014
-379,146	-200,000	-0,001	0,059
-378,131	301,926	-0,055	0,074
-377,117	164,919	-0,040	-0,041
-376,102	101,727	0,146	0,125
-375,088	458,907	-0,042	0,069
-374,073	-122,575	0,115	-0,014
-373,058	800,000	-0,039	0,089
-372,044	-200,000	0,015	0,067
-371,029	38,378	0,058	0,038
-370,015	389,811	-0,068	0,104
-369,000	-33,964	0,106	-0,043
-367,985	-39,189	-0,152	-0,058
-366,971	119,596	0,123	0,112
-365,956	-200,000	-0,010	-0,101
-364,942	174,803	-0,107	-0,113
-363,927	-24,674	0,096	-0,042
-362,912	800,000	0,036	0,113
-361,898	173,588	-0,110	0,117
-360,883	-198,200	0,128	0,001
-359,869	-200,000	-0,021	0,149
-358,854	71,950	-0,065	0,050
-357,839	455,355	0,027	0,044
-356,825	800,000	0,031	0,078
-355,810	73,729	-0,022	-0,017
-354,796	-200,000	-0,002	0,067
-353,781	49,321	-0,113	-0,078
-352,766	-81,874	-0,057	0,013
-351,752	-143,596	0,099	0,007
-350,737	800,000	0,037	0,096
-349,723	-200,000	-0,023	0,107
-348,708	191,029	-0,123	0,136
-347,693	652,014	-0,017	-0,032
-346,679	-200,000	0,029	0,174
-345,664	-200,000	-0,000	-0,045
-344,650	800,000	0,017	0,051
-343,635	-200,000	0,025	0,128
-342,620	21,786	0,060	0,036
-341,606	-200,000	-0,012	-0,090
-340,591	-200,000	0,017	0,083
-339,577	-22,360	0,057	0,025
-338,562	-128,660	-0,092	-0,009
-337,548	545,639	0,029	0,051
-336,533	129,642	0,088	-0,082
-335,518	-53,101	0,110	0,037
-334,504	800,000	-0,050	-0,135
-333,489	66,366	0,069	-0,051
-332,475	251,131	-0,103	0,129
-331,460	138,063	0,005	-0,004
-330,445	-150,169	-0,112	-0,006
-329,431	-70,664	0,125	0,034
-328,416	33,449	0,067	0,042
-327,402	443,898	0,057	0,093
-326,387	14,627	-0,079	0,045
-325,372	-200,000	-0,076	-0,249
-324,358	-200,000	-0,049	-0,203
-323,343	-200,000	0,000	-0,112
-322,329	-74,323	0,077	-0,020
-321,314	381,471	-0,073	0,111
-320,299	71,345	0,089	0,068
-319,285	-54,579	-0,060	-0,020
-318,270	-200,000	-0,004	0,037
-317,256	-131,552	0,067	0,006
-316,241	-108,027	0,113	-0,018
-315,226	-200,000	0,017	0,070
-314,212	-200,000	-0,003	-0,021
-313,197	52,491	-0,100	-0,070
-312,183	40,105	-0,072	0,047
-311,168	800,000	0,033	-0,099
-310,153	-72,953	0,044	0,012
-309,139	-88,966	-0,126	0,027
-308,124	298,629	-0,041	0,055
-307,110	752,203	0,048	0,095
-306,095	38,246	0,027	0,018
-305,080	800,000	0,020	0,057
-304,066	-60,518	-0,053	-0,017
-303,051	800,000	0,015	0,043
-302,037	125,124	0,073	0,067
-301,022	-200,000	-0,003	-0,098
-300,008	110,006	0,073	-0,064
-298,993	-100,811	-0,096	0,017
-297,978	382,989	0,054	-0,081
-296,964	-70,926	0,104	0,029
-295,949	136,395	-0,131	-0,125
-294,935	76,629	0,058	-0,045
-293,920	-85,793	0,062	-0,014
-292,905	-200,000	0,047	0,159
-291,891	74,138	-0,083	0,064
-290,876	-200,000	0,004	0,096
-289,862	3,225	0,051	0,027
-288,847	234,827	-0,032	-0,039
-287,832	505,814	0,018	0,030
-286,818	36,049	0,116	0,074
-285,803	-91,218	-0,067	0,014
-284,789	800,000	0,008	0,020
-283,774	800,000	-0,025	0,079
-282,759	263,157	-0,103	0,131
-281,745	132,309	0,028	-0,026
-280,730	-100,322	-0,122	0,022
-279,716	-200,000	0,027	-0,100
-278,701	66,142	-0,110	0,082
-277,686	-68,592	0,048	-0,013
-276,672	800,000	-0,041	0,106
-275,657	214,472	0,047	-0,055
-274,643	-200,000	-0,001	-0,086
-273,628	89,110	0,061	-0,050
-272,613	800,000	0,019	-0,047
-271,599	-36,796	-0,061	-0,024
-270,584	-162,746	0,089	-0,003
-269,570	-200,000	0,000	0,024
-268,555	-200,000	0,016	0,120
-267,540	79,610	0,012	0,009
-266,526	-17,819	0,045	0,021
-265,511	331,671	0,081	-0,115
-264,497	-16,653	-0,162	0,075
-263,482	-200,000	-0,008	0,165
-262,467	343,272	0,016	0,024
-261,453	-82,212	0,025	-0,006
-260,438	614,875	-0,082	-0,151
-259,424	10,800	0,078	0,044
-258,409	-200,000	0,008	-0,062
-257,395	-89,759	-0,163	0,035
-256,380	119,056	0,144	0,130
-255,365	-200,000	-0,019	0,085
-254,351	115,475	0,109	0,098
-253,336	411,337	-0,086	0,134
-252,322	-65,335	-0,129	0,038
-251,307	-200,000	-0,007	0,064
-250,292	42,189	0,105	0,070
-249,278	240,270	0,032	0,040
-248,263	-7,558	-0,084	0,041
-247,249	-200,000	0,010	0,041
-246,234	5,823	0,103	0,055
-245,219	-19,504	0,066	0,030
-244,205	-175,650	0,117	0,002
-243,190	-200,000	-0,005	0,107
-242,176	-114,888	0,069	-0,010
-241,161	429,776	0,039	0,062
-240,146	-56,828	-0,073	-0,023
-239,132	378,320	-0,047	0,071
-238,117	122,625	0,076	0,070
-237,103	-49,662	-0,083	-0,029
-236,088	-174,395	0,042	0,001
-235,073	604,232	-0,037	0,068
-234,059	-200,000	0,015	0,107
-233,044	-162,018	0,209	0,008
-232,030	-103,873	-0,034	0,006
-231,015	12,978	0,111	0,062
-230,000	98,018	0,084	-0,070
-228,986	-48,070	0,011	-0,004
-227,971	255,020	-0,029	0,036
-226,957	-200,000	0,005	0,076
-225,942	277,473	-0,042	0,055
-224,927	350,899	-0,047	0,068
-223,913	195,032	0,028	0,031
-222,898	29,318	-0,078	-0,048
-221,884	-169,269	-0,131	0,003
-220,869	148,420	0,039	0,038
-219,855	-200,000	0,016	-0,059
-218,840	393,619	0,006	-0,009
-217,825	-200,000	0,010	-0,091
-216,811	136,316	0,045	-0,043
-215,796	86,427	-0,075	-0,060
-214,782	800,000	-0,020	0,051
-213,767	-200,000	0,003	-0,104
-212,752	-31,764	0,066	-0,027
-211,738	-34,454	0,066	-0,026
-210,723	453,650	0,054	-0,087
-209,709	27,083	-0,150	-0,092
-208,694	-30,468	-0,068	0,028
-207,679	800,000	0,018	0,041
-206,665	800,000	0,036	-0,103
-205,650	46,735	-0,038	-0,026
-204,636	267,676	-0,054	-0,069
-203,621	695,117	0,067	0,129
-202,606	177,726	-0,076	0,081
-201,592	-200,000	0,000	-0,099
-200,577	132,142	-0,070	-0,066
-199,563	134,338	0,044	0,041
-198,548	587,051	0,044	0,079
-197,533	273,682	-0,056	-0,072
-196,519	-200,000	-0,014	0,064
-195,504	-176,907	0,066	-0,001
-194,490	635,956	-0,086	-0,159
-193,475	363,620	-0,059	-0,087
-192,460	-43,841	-0,102	-0,037
-191,446	707,188	-0,011	0,021
-190,431	-5,932	-0,121	0,060
-189,417	-200,000	0,001	0,091
-188,402	-200,000	-0,004	-0,015
-187,387	204,215	-0,051	0,057
-186,373	-200,000	-0,002	0,018
-185,358	-200,000	0,024	-0,096
-184,344	-200,000	-0,006	-0,101
-183,329	79,265	0,116	-0,091
-182,315	800,000	-0,040	0,109
-181,300	-23,712	0,049	0,021
-180,285	108,094	0,038	-0,033
-179,271	42,572	0,073	-0,048
-178,256	-200,000	-0,002	0,010
-177,242	-5,117	-0,033	-0,016
-176,227	-200,000	-0,002	-0,012
-175,212	336,769	0,039	-0,056
-174,198	800,000	0,034	-0,069
-173,183	-200,000	0,010	0,084
-172,169	376,243	0,027	-0,041
-171,154	269,803	0,086	0,110
-170,139	-172,842	-0,063	0,001
-169,125	37,866	-0,024	-0,015
-168,110	800,000	-0,028	-0,082
-167,096	-184,732	-0,028	0,000
-166,081	327,472	-0,049	0,069
-165,066	45,816	-0,069	0,047
-164,052	324,665	0,076	0,106
-163,037	-42,741	-0,017	-0,006
-162,023	-175,907	0,097	-0,002
-161,008	120,549	-0,117	-0,106
-159,993	397,330	-0,038	0,058
-158,979	-21,668	-0,062	0,027
-157,964	-104,040	0,091	-0,015
-156,950	-82,388	-0,166	-0,039
-155,935	-42,968	0,049	0,018
-154,920	800,000	0,036	-0,078
-153,906	800,000	0,024	0,049
-152,891	281,598	0,041	-0,053
-151,877	21,731	-0,117	0,069
-150,862	-200,000	0,018	0,062
-149,847	124,154	-0,045	0,041
-148,833	-53,418	-0,118	-0,039
-147,818	103,983	-0,073	0,062
-146,804	56,479	0,058	0,041
-145,789	800,000	-0,018	-0,051
-144,775	9,673	0,020	-0,011
-143,760	-200,000	-0,029	-0,135
-142,745	10,653	0,023	-0,013
-141,731	207,236	0,036	0,040
-140,716	38,551	0,089	0,058
-139,702	9,399	-0,129	-0,071
-138,687	27,792	0,167	0,102
-137,672	737,394	-0,056	0,110
-136,658	15,636	-0,024	0,014
-135,643	-200,000	-0,019	-0,078
-134,629	314,777	-0,123	0,170
-133,614	-200,000	0,008	0,150
-132,599	117,382	0,070	0,062
-131,585	-98,637	-0,093	-0,017
-130,570	-85,169	0,080	-0,018
-129,556	364,131	0,052	0,077
-128,541	588,360	-0,029	0,053
-127,526	96,035	0,132	0,110
-126,512	-200,000	0,003	-0,019
-125,497	16,608	0,085	0,049
-124,483	445,840	-0,047	0,076
-123,468	-200,000	-0,023	0,090
-122,453	374,903	-0,078	-0,116
-121,439	49,767	-0,161	-0,110
-120,424	299,174	0,058	-0,079
-119,410	68,576	-0,081	0,060
-118,395	800,000	0,028	0,076
