DTS Sentinel unit serial number:	SN410029Multiplexer serial number:	ORYXHardware model number:	OX2-SRSoftware version number:	ORYX F/W v4,00 Oryx Data Collector v3.7.2.0data status	okinstallation	B4 Nyhavnadifferential loss correction	single-endedforward channel	channel 2reverse channel	N/Adate	2023/12/16time	06:05:13forward acquisition time	300,00reverse acquisition time	0,00gamma	499,1914k internal	0,3128k external	0,3128temperature offset calibration	1,0000default loss term (dB/km)	0,3820temperature slope calibration	1,0000multiplexer offset coefficient	1,0000multiplexer slope coefficient	1,0000fibre end	0,00T internal ref (°C)	22,25T ext. ref 1 (°C)	7,55T ext. ref 2 (°C)	7,73length (m)	temperature (°C)	Stokes	anti-Stokes-744,400	-200,000	-0,028	-0,109
-743,385	71,738	-0,112	0,086
-742,371	-184,461	0,157	0,002
-741,356	-13,418	-0,167	0,080
-740,342	-115,161	0,056	-0,008
-739,327	32,901	-0,287	0,185
-738,312	800,000	-0,015	0,032
-737,298	-108,694	-0,185	0,029
-736,283	73,771	0,041	-0,032
-735,269	-76,821	-0,243	0,063
-734,254	-200,000	-0,029	0,098
-733,239	-105,439	-0,395	-0,066
-732,225	1,497	0,076	0,041
-731,210	74,022	-0,121	0,095
-730,196	800,000	-0,059	-0,161
-729,181	-76,470	-0,042	0,011
-728,167	800,000	0,005	0,012
-727,152	20,262	-0,142	0,085
-726,137	-112,759	-0,244	-0,036
-725,123	423,962	0,071	-0,114
-724,108	-71,246	-0,154	-0,043
-723,094	-136,305	0,064	-0,005
-722,079	0,414	-0,150	-0,079
-721,064	-200,000	0,013	-0,148
-720,050	288,355	-0,064	0,086
-719,035	25,424	-0,102	0,063
-718,021	-200,000	-0,026	-0,149
-717,006	9,986	0,033	0,019
-715,991	-200,000	-0,007	0,029
-714,977	-158,027	-0,103	-0,004
-713,962	-200,000	-0,039	-0,179
-712,948	-162,867	-0,104	0,004
-711,933	-84,973	-0,059	0,014
-710,918	661,870	-0,023	0,044
-709,904	-200,000	-0,037	-0,153
-708,889	308,253	-0,027	-0,038
-707,875	-76,401	-0,069	-0,018
-706,860	-200,000	0,000	-0,083
-705,845	-200,000	0,011	-0,077
-704,831	-62,795	0,037	-0,011
-703,816	800,000	-0,035	0,078
-702,802	-200,000	-0,174	0,000
-701,787	-200,000	0,005	-0,101
-700,772	800,000	-0,032	-0,080
-699,758	321,944	-0,031	0,043
-698,743	-186,420	0,063	0,001
-697,729	330,888	-0,064	0,092
-696,714	-200,000	-0,014	-0,061
-695,699	36,255	0,048	-0,031
-694,685	427,777	-0,042	-0,068
-693,670	-29,381	-0,062	0,026
-692,656	800,000	-0,042	-0,134
-691,641	183,047	0,017	0,018
-690,627	800,000	-0,032	0,076
-689,612	36,465	0,087	0,057
-688,597	162,437	-0,042	0,044
-687,583	-143,448	-0,125	-0,009
-686,568	-120,000	0,072	-0,009
-685,554	-200,000	-0,014	-0,055
-684,539	-119,589	0,073	-0,009
-683,524	-200,000	-0,014	-0,058
-682,510	-200,000	-0,007	-0,071
-681,495	460,721	-0,007	-0,011
-680,481	-200,000	-0,001	-0,014
-679,466	-184,451	-0,081	-0,001
-678,451	-49,752	0,048	-0,017
-677,437	800,000	-0,070	0,146
-676,422	-89,983	0,063	0,014
-675,408	-113,569	-0,249	0,036
-674,393	368,729	-0,074	-0,111
-673,378	-127,868	-0,127	0,013
-672,364	-172,333	-0,140	0,003
-671,349	-200,000	0,004	-0,043
-670,335	429,218	-0,041	-0,066
-669,320	-12,586	-0,118	0,057
-668,305	338,927	0,089	0,129
-667,291	76,039	-0,076	-0,059
-666,276	-53,262	-0,096	0,033
-665,262	-200,000	0,014	-0,055
-664,247	-200,000	0,022	0,155
-663,232	-200,000	-0,010	0,111
-662,218	61,701	0,008	-0,006
-661,203	-200,000	0,012	0,097
-660,189	-47,102	0,095	0,034
-659,174	-79,272	-0,033	-0,008
-658,159	-191,637	0,122	0,001
-657,145	-200,000	0,010	-0,141
-656,130	-42,451	0,134	0,050
-655,116	-70,939	0,155	0,043
-654,101	-200,000	0,065	0,227
-653,086	-64,322	-0,071	-0,021
-652,072	29,167	0,085	0,054
-651,057	92,177	-0,109	-0,091
-650,043	426,910	0,002	-0,004
-649,028	190,162	-0,060	0,067
-648,014	-200,000	-0,015	-0,073
-646,999	800,000	0,064	0,150
-645,984	800,000	-0,020	0,050
-644,970	-181,954	-0,111	0,002
-643,955	145,563	-0,080	-0,080
-642,941	-200,000	0,014	-0,129
-641,926	-63,911	0,054	-0,016
-640,911	12,017	0,118	-0,067
-639,897	206,805	-0,071	0,082
-638,882	237,963	0,010	0,013
-637,868	-200,000	-0,011	-0,094
-636,853	785,577	-0,038	-0,078
-635,838	-12,330	0,033	-0,016
-634,824	79,048	0,056	-0,045
-633,809	-200,000	-0,011	-0,092
-632,795	-22,543	-0,096	0,043
-631,780	-110,140	-0,118	0,018
-630,765	-104,014	-0,113	0,019
-629,751	-200,000	-0,003	-0,023
-628,736	800,000	-0,048	-0,113
-627,722	-200,000	-0,006	0,041
-626,707	-68,802	-0,129	0,037
-625,692	554,034	-0,055	0,099
-624,678	800,000	-0,049	0,116
-623,663	80,695	-0,083	-0,066
-622,649	154,237	-0,087	-0,089
-621,634	251,686	-0,071	-0,090
-620,619	-60,035	0,046	0,015
-619,605	-8,423	-0,039	-0,020
-618,590	-94,427	-0,084	0,017
-617,576	800,000	-0,042	-0,091
-616,561	-41,432	0,073	0,028
-615,546	135,062	-0,034	-0,032
-614,532	405,804	0,059	-0,092
-613,517	-163,508	-0,097	-0,003
-612,503	-2,588	0,076	-0,040
-611,488	119,240	-0,046	-0,042
-610,474	800,000	0,036	0,088
-609,459	191,324	-0,060	0,067
-608,444	-135,010	-0,074	0,006
-607,430	-152,290	-0,234	0,012
-606,415	-200,000	0,010	-0,043
-605,401	357,649	0,064	0,095
-604,386	-23,676	-0,275	0,121
-603,371	-89,219	-0,040	-0,009
-602,357	800,000	0,019	-0,045
-601,342	325,233	0,064	-0,090
-600,328	439,992	-0,085	0,137
-599,313	159,916	0,069	-0,072
-598,298	334,265	0,060	-0,086
-597,284	-1,414	0,046	-0,024
-596,269	-1,859	0,036	-0,019
-595,255	-66,736	-0,042	-0,012
-594,240	243,275	0,004	-0,005
-593,225	-200,000	-0,026	-0,157
-592,211	245,606	-0,086	-0,107
-591,196	800,000	-0,014	-0,036
-590,182	800,000	0,029	-0,077
-589,167	476,649	0,043	0,073
-588,152	-78,419	0,110	0,028
-587,138	-32,672	-0,138	-0,057
-586,123	-76,816	-0,104	0,027
-585,109	788,466	0,019	-0,039
-584,094	277,174	-0,049	-0,064
-583,079	800,000	-0,039	0,121
-582,065	467,462	0,075	-0,124
-581,050	-64,122	0,042	-0,013
-580,036	-137,947	-0,091	-0,007
-579,021	45,712	-0,023	0,016
-578,006	800,000	-0,022	-0,060
-576,992	800,000	0,072	-0,207
-575,977	800,000	0,020	0,061
-574,963	232,348	0,054	0,065
-573,948	-200,000	0,002	0,071
-572,934	-154,566	-0,161	0,008
-571,919	-7,912	0,082	-0,041
-570,904	-200,000	0,006	-0,121
-569,890	17,234	0,029	-0,017
-568,875	-200,000	-0,046	-0,162
-567,861	-109,504	-0,037	-0,006
-566,846	800,000	-0,053	-0,149
-565,831	85,145	-0,136	-0,110
-564,817	397,182	-0,031	-0,049
-563,802	-200,000	0,027	0,101
-562,788	32,559	-0,146	-0,093
-561,773	152,821	-0,112	0,114
-560,758	-200,000	-0,015	0,061
-559,744	334,650	-0,060	-0,086
-558,729	-4,761	0,046	0,023
-557,715	-71,675	-0,047	-0,013
-556,700	-75,353	-0,122	-0,032
-555,685	-25,557	0,048	0,021
-554,671	-200,000	-0,001	-0,030
-553,656	506,996	-0,054	-0,092
-552,642	-134,656	-0,076	0,007
-551,627	-70,574	-0,074	0,021
-550,612	800,000	0,024	0,078
-549,598	133,112	-0,066	0,063
-548,583	800,000	0,015	-0,041
-547,569	-167,868	-0,132	-0,004
-546,554	-200,000	-0,034	0,206
-545,539	220,387	0,069	0,081
-544,525	59,236	0,028	-0,020
-543,510	-200,000	-0,015	0,120
-542,496	-120,867	0,090	0,011
-541,481	-114,888	-0,069	0,010
-540,466	-22,538	0,088	-0,039
-539,452	-200,000	0,021	0,123
-538,437	99,689	0,065	-0,055
-537,423	108,341	0,104	-0,091
-536,408	-72,405	-0,098	-0,027
-535,393	28,409	-0,065	0,040
-534,379	63,678	-0,051	-0,038
-533,364	118,108	-0,097	-0,089
-532,350	134,247	-0,064	0,062
-531,335	3,535	0,160	0,086
-530,321	249,710	0,021	0,026
-529,306	554,026	-0,055	0,099
-528,291	-200,000	-0,016	0,055
-527,277	-80,058	-0,047	-0,012
-526,262	312,574	0,034	0,047
-525,248	-115,924	-0,095	-0,013
-524,233	256,679	-0,081	0,103
-523,218	800,000	-0,025	0,055
-522,204	-12,263	0,063	-0,030
-521,189	39,623	-0,053	0,035
-520,175	-200,000	0,002	-0,067
-519,160	-200,000	-0,001	-0,070
-518,145	-200,000	-0,002	-0,032
-517,131	-200,000	0,017	0,100
-516,116	80,306	0,033	0,026
-515,102	-99,329	0,124	0,023
-514,087	164,581	-0,051	-0,053
-513,072	-200,000	0,002	0,019
-512,058	-200,000	0,005	0,052
-511,043	-200,000	0,000	0,017
-510,029	800,000	-0,005	0,013
-509,014	-145,014	-0,174	-0,012
-507,999	296,276	0,080	0,109
-506,985	225,924	-0,082	-0,099
-505,970	395,570	-0,077	-0,119
-504,956	-48,576	0,066	0,023
-503,941	51,027	0,107	-0,075
-502,926	-200,000	0,006	-0,070
-501,912	-200,000	-0,004	-0,033
-500,897	132,450	0,058	-0,055
-499,883	-110,705	-0,071	-0,011
-498,868	268,370	0,118	-0,152
-497,853	-13,285	0,024	-0,012
-496,839	800,000	0,056	0,157
-495,824	302,932	0,051	0,070
-494,810	-113,907	0,170	0,024
-493,795	-84,560	0,065	-0,015
-492,781	584,492	-0,034	0,061
-491,766	159,978	-0,002	0,002
-490,751	73,297	-0,109	-0,084
-489,737	-131,812	-0,047	0,004
-488,722	297,415	-0,034	-0,046
-487,708	-200,000	-0,009	0,138
-486,693	-56,869	0,094	0,030
-485,678	-96,087	0,145	0,028
-484,664	-8,356	-0,066	0,033
-483,649	76,258	-0,083	-0,065
-482,635	-109,719	-0,046	0,007
-481,620	800,000	0,024	-0,064
-480,605	-200,000	0,004	0,127
-479,591	326,891	-0,028	0,040
-478,576	-101,849	0,038	-0,007
-477,562	269,519	0,024	0,031
-476,547	-66,320	-0,190	-0,055
-475,532	135,486	-0,041	-0,039
-474,518	-200,000	0,012	0,080
-473,503	102,864	0,032	-0,027
-472,489	-84,806	-0,037	-0,008
-471,474	188,489	0,110	0,121
-470,459	252,779	-0,092	0,116
-469,445	257,996	-0,053	-0,067
-468,430	-55,812	-0,076	0,025
-467,416	-89,073	0,037	-0,008
-466,401	-89,973	0,128	-0,027
-465,386	-18,587	-0,070	0,032
-464,372	248,159	-0,022	0,028
-463,357	-200,000	0,019	0,072
-462,343	800,000	-0,037	-0,110
-461,328	-9,290	-0,048	-0,023
-460,313	-200,000	-0,001	0,017
-459,299	-73,911	0,115	-0,031
-458,284	-128,079	0,119	-0,012
-457,270	75,309	0,132	0,102
-456,255	211,725	-0,064	-0,075
-455,241	-200,000	0,007	-0,091
-454,226	441,060	-0,015	0,024
-453,211	-68,345	0,054	0,015
-452,197	600,728	-0,048	0,089
-451,182	125,553	0,174	0,161
-450,168	-200,000	0,018	0,139
-449,153	-24,361	0,044	0,019
-448,138	368,017	-0,083	0,124
-447,124	-10,731	0,059	-0,028
-446,109	-4,920	0,045	0,023
-445,095	-113,960	0,081	0,011
-444,080	-105,416	0,087	0,014
-443,065	-200,000	0,011	-0,119
-442,051	-200,000	-0,008	-0,091
-441,036	-68,313	-0,049	-0,014
-440,022	-200,000	0,023	0,076
-439,007	55,983	-0,060	0,042
-437,992	95,439	0,073	-0,061
-436,978	800,000	0,012	0,038
-435,963	-200,000	-0,003	0,035
-434,949	-49,988	-0,069	0,024
-433,934	800,000	-0,022	-0,057
-432,919	-200,000	0,005	0,031
-431,905	-104,269	-0,072	-0,012
-430,890	67,233	0,039	-0,029
-429,876	53,237	-0,012	-0,009
-428,861	-200,000	-0,021	0,096
-427,846	-59,680	0,081	-0,025
-426,832	90,355	-0,023	0,019
-425,817	-200,000	0,012	-0,065
-424,803	183,690	-0,075	-0,082
-423,788	-88,946	0,020	-0,004
-422,773	61,720	0,062	0,045
-421,759	-4,502	0,091	0,046
-420,744	123,893	0,053	-0,048
-419,730	-200,000	0,005	0,120
-418,715	-98,740	-0,103	0,019
-417,701	-200,000	0,013	0,134
-416,686	285,322	0,085	0,112
-415,671	800,000	0,026	0,072
-414,657	-113,289	0,055	-0,008
-413,642	-200,000	0,018	0,069
-412,628	-50,142	-0,071	0,024
-411,613	-51,895	0,092	0,031
-410,598	800,000	0,014	0,045
-409,584	125,599	0,012	0,011
-408,569	8,280	-0,023	-0,013
-407,555	800,000	0,084	0,182
-406,540	123,985	0,063	0,058
-405,525	139,298	0,032	0,031
-404,511	-130,920	-0,060	0,006
-403,496	-160,814	-0,088	0,003
-402,482	800,000	0,028	0,060
-401,467	-20,406	-0,043	-0,020
-400,452	-0,488	0,016	0,008
-399,438	800,000	-0,028	-0,064
-398,423	95,778	0,073	0,061
-397,409	-95,934	-0,115	-0,022
-396,394	626,154	-0,075	-0,139
-395,379	64,595	-0,052	-0,039
-394,365	230,650	0,099	0,119
-393,350	458,191	0,093	0,152
-392,336	-200,000	0,010	0,044
-391,321	11,152	0,041	-0,023
-390,306	74,463	-0,052	0,040
-389,292	-91,971	-0,107	-0,022
-388,277	800,000	0,062	0,129
-387,263	-13,789	0,089	0,042
-386,248	-16,540	0,142	-0,066
-385,233	-163,923	0,109	-0,004
-384,219	160,095	-0,061	0,063
-383,204	-7,786	-0,125	-0,062
-382,190	-109,376	0,150	0,023
-381,175	800,000	-0,061	-0,194
-380,160	90,040	0,025	-0,021
-379,146	94,309	0,106	0,089
-378,131	659,693	0,045	-0,085
-377,117	-56,032	-0,084	0,027
-376,102	800,000	0,021	0,061
-375,088	-200,000	0,021	-0,189
-374,073	91,141	0,073	0,060
-373,058	234,793	0,087	0,106
-372,044	93,649	0,086	0,071
-371,029	204,168	-0,057	-0,065
-370,015	-200,000	-0,003	0,063
-369,000	109,401	0,087	-0,077
-367,985	216,342	-0,102	-0,119
-366,971	80,037	-0,057	0,045
-365,956	218,126	0,078	0,091
-364,942	106,287	0,081	0,070
-363,927	-147,150	-0,082	-0,005
-362,912	-142,700	0,133	0,009
-361,898	78,395	0,082	-0,064
-360,883	11,459	-0,104	-0,059
-359,869	38,654	-0,087	0,057
-358,854	-126,898	-0,121	-0,013
-357,839	-31,731	-0,061	-0,025
-356,825	382,010	-0,023	0,034
-355,810	-173,059	0,069	0,002
-354,796	77,595	-0,176	0,138
-353,781	-6,109	0,142	0,071
-352,766	-125,013	0,078	-0,009
-351,752	233,204	0,035	0,042
-350,737	-64,274	0,103	-0,031
-349,723	198,785	0,049	0,055
-348,708	-72,601	-0,112	0,030
-347,693	-102,692	0,068	0,012
-346,679	52,894	-0,121	-0,085
-345,664	800,000	-0,044	0,116
-344,650	138,651	0,130	0,125
-343,635	800,000	-0,038	0,122
-342,620	135,422	-0,009	-0,009
-341,606	-58,218	-0,073	-0,023
-340,591	36,872	-0,026	0,017
-339,577	-20,351	-0,093	0,042
-338,562	-121,022	-0,056	-0,007
-337,548	-200,000	0,004	-0,018
-336,533	800,000	-0,020	0,048
-335,518	-8,172	-0,106	0,052
-334,504	800,000	0,026	0,062
-333,489	-200,000	0,012	0,205
-332,475	-200,000	0,005	0,110
-331,460	-111,384	-0,123	0,018
-330,445	-200,000	0,008	0,104
-329,431	800,000	-0,043	0,096
-328,416	800,000	0,012	-0,026
-327,402	181,044	-0,115	0,124
-326,387	800,000	0,063	-0,149
-325,372	776,503	-0,020	-0,039
-324,358	-166,980	-0,159	0,005
-323,343	90,834	0,054	0,045
-322,329	56,178	-0,060	-0,043
-321,314	800,000	0,025	0,062
-320,299	-49,168	0,163	-0,057
-319,285	-200,000	0,005	-0,137
-318,270	-200,000	0,039	-0,200
-317,256	-89,903	-0,057	0,012
-316,241	-174,869	0,117	-0,002
-315,226	342,300	-0,065	0,093
-314,212	800,000	-0,007	-0,019
-313,197	382,046	0,039	0,059
-312,183	-19,599	0,041	-0,019
-311,168	395,063	-0,063	-0,097
-310,153	800,000	-0,056	-0,132
-309,139	439,879	-0,049	-0,079
-308,124	-200,000	0,001	0,069
-307,110	-62,697	-0,080	-0,024
-306,095	-6,658	-0,048	-0,024
-305,080	120,971	-0,014	0,013
-304,066	-200,000	-0,022	-0,072
-303,051	-200,000	-0,028	-0,122
-302,037	106,164	0,028	-0,024
-301,022	-200,000	0,020	-0,139
-300,008	137,732	0,062	0,059
-298,993	90,809	0,006	-0,005
-297,978	283,613	-0,064	0,084
-296,964	-200,000	0,013	0,059
-295,949	-200,000	-0,013	-0,063
-294,935	800,000	0,020	-0,044
-293,920	116,508	-0,047	-0,042
-292,905	800,000	0,035	0,092
-291,891	36,809	0,164	0,106
-290,876	-200,000	-0,007	-0,066
-289,862	57,682	0,080	-0,057
-288,847	-102,168	0,113	-0,020
-287,832	101,396	-0,026	-0,022
-286,818	10,771	-0,157	0,087
-285,803	210,588	0,100	-0,115
-284,789	16,135	0,144	0,083
-283,774	97,865	0,081	-0,068
-282,759	-200,000	0,026	0,097
-281,745	-12,866	-0,058	0,027
-280,730	217,006	0,068	-0,079
-279,716	-168,494	0,039	-0,001
-278,701	-200,000	0,008	0,087
-277,686	800,000	0,019	-0,041
-276,672	57,949	0,042	-0,030
-275,657	-90,643	-0,169	-0,035
-274,643	-139,203	0,186	-0,014
-273,628	416,528	-0,041	-0,064
-272,613	-200,000	0,003	-0,042
-271,599	9,729	-0,124	0,068
-270,584	65,802	-0,043	0,032
-269,570	800,000	0,023	0,066
-268,555	-98,281	0,089	-0,017
-267,540	-200,000	0,006	-0,172
-266,526	56,305	-0,058	-0,041
-265,511	-104,474	0,061	-0,010
-264,497	21,661	0,100	-0,059
-263,482	-200,000	-0,003	0,039
-262,467	-152,197	-0,011	0,001
-261,453	167,506	-0,095	0,099
-260,438	-68,046	-0,078	0,022
-259,424	185,154	0,043	0,047
-258,409	543,776	-0,062	-0,108
-257,395	333,037	0,049	-0,070
-256,380	500,617	-0,068	-0,115
-255,365	-200,000	-0,010	0,218
-254,351	105,914	0,037	-0,032
-253,336	-31,869	-0,110	0,045
-252,322	125,673	0,088	-0,081
-251,307	-200,000	-0,001	0,011
-250,292	-88,882	0,174	0,037
-249,278	-4,210	0,125	-0,063
-248,263	7,074	-0,020	-0,011
-247,249	82,394	-0,115	0,091
-246,234	-127,191	0,063	-0,007
-245,219	-48,776	-0,105	0,036
-244,205	-1,004	0,108	-0,055
-243,190	800,000	-0,052	-0,136
-242,176	174,686	0,066	0,069
-241,161	800,000	-0,005	0,014
-240,146	-200,000	-0,031	0,126
-239,132	-11,643	0,106	0,050
-238,117	-111,684	-0,122	-0,018
-237,103	-119,992	0,193	0,024
-236,088	800,000	0,038	0,097
-235,073	42,419	0,030	0,020
-234,059	210,118	0,030	-0,034
-233,044	-75,140	-0,045	0,012
-232,030	-16,230	0,093	-0,043
-231,015	800,000	0,030	-0,078
-230,000	-200,000	0,003	-0,087
-228,986	511,500	0,034	-0,058
-227,971	459,508	-0,025	-0,041
-226,957	74,571	0,125	-0,096
-225,942	-46,983	-0,089	0,031
-224,927	157,232	0,042	-0,043
-223,913	355,398	-0,093	-0,135
-222,898	-200,000	-0,023	-0,088
-221,884	800,000	0,036	-0,091
-220,869	-79,773	0,054	-0,013
-219,855	177,083	-0,075	0,080
-218,840	97,510	0,080	0,067
-217,825	139,016	-0,078	-0,075
-216,811	249,626	0,041	0,050
-215,796	-200,000	-0,025	-0,130
-214,782	41,415	-0,159	-0,105
-213,767	-122,454	0,053	0,006
-212,752	175,334	0,069	-0,073
-211,738	-173,591	0,197	0,004
-210,723	-22,552	0,093	-0,041
-209,709	559,988	0,049	-0,086
-208,694	-200,000	-0,021	-0,077
-207,679	-107,888	0,167	0,026
-206,665	11,543	0,070	-0,039
-205,650	424,936	-0,059	0,092
-204,636	-140,540	0,094	-0,007
-203,621	800,000	-0,050	0,141
-202,606	-72,096	0,221	0,059
-201,592	-65,458	-0,094	-0,027
-200,577	161,153	0,049	-0,050
-199,563	17,558	-0,084	-0,048
-198,548	-92,936	-0,054	0,011
-197,533	-200,000	-0,001	-0,030
-196,519	419,703	-0,061	-0,095
-195,504	800,000	-0,017	0,042
-194,490	800,000	0,030	-0,075
-193,475	-200,000	0,008	-0,042
-192,460	182,296	0,056	-0,060
-191,446	-97,123	-0,031	0,006
-190,431	313,257	0,019	-0,027
-189,417	800,000	0,031	0,095
-188,402	63,788	0,045	0,033
-187,387	800,000	-0,045	-0,098
-186,373	-200,000	0,031	-0,129
-185,358	-145,404	-0,161	0,010
-184,344	69,491	0,122	0,091
-183,329	-200,000	0,001	0,051
-182,315	42,776	0,124	0,082
-181,300	-174,954	0,098	0,002
-180,285	-105,540	0,053	-0,009
-179,271	5,513	0,082	-0,044
-178,256	-200,000	0,020	0,113
-177,242	231,526	0,098	0,117
-176,227	154,464	0,064	0,064
-175,212	65,648	0,057	0,042
-174,198	-80,849	-0,087	0,021
-173,183	621,900	-0,054	-0,100
-172,169	263,698	-0,019	-0,024
-171,154	-200,000	-0,009	-0,139
-170,139	-200,000	-0,007	-0,130
-169,125	262,557	0,084	0,107
-168,110	-200,000	0,018	-0,072
-167,096	81,241	-0,079	-0,062
-166,081	-178,850	0,052	-0,001
-165,066	333,782	-0,089	-0,126
-164,052	184,171	0,031	-0,034
-163,037	-40,824	0,125	-0,047
-162,023	338,943	-0,019	0,027
-161,008	-200,000	0,008	0,070
-159,993	181,947	0,072	0,077
-158,979	-200,000	-0,020	-0,125
-157,964	800,000	-0,019	-0,054
-156,950	-115,416	-0,147	-0,020
-155,935	-72,773	-0,208	0,055
-154,920	-200,000	0,025	0,168
-153,906	-118,340	0,087	-0,011
-152,891	-33,937	0,030	-0,012
-151,877	328,861	-0,095	-0,133
-150,862	-200,000	-0,017	-0,070
-149,847	800,000	0,027	0,056
-148,833	-97,772	-0,092	-0,017
-147,818	767,047	0,008	0,016
-146,804	498,786	0,049	0,083
-145,789	-154,394	-0,097	0,005
-144,775	175,786	0,075	0,079
-143,760	-116,309	-0,077	0,010
-142,745	203,125	0,032	-0,036
-141,731	86,963	-0,079	0,063
-140,716	-200,000	0,055	0,245
-139,702	800,000	-0,019	0,040
-138,687	-2,901	0,060	0,030
-137,672	495,388	0,088	0,147
-136,658	-165,559	-0,069	-0,002
-135,643	-140,659	0,073	-0,005
-134,629	800,000	0,023	-0,067
-133,614	118,821	-0,016	-0,014
-132,599	85,493	0,055	-0,044
-131,585	-18,524	0,040	0,018
-130,570	-200,000	-0,008	0,099
-129,556	314,343	-0,020	0,027
-128,541	-47,757	-0,129	0,045
-127,526	-200,000	-0,013	0,043
-126,512	-45,928	0,025	-0,009
-125,497	-60,096	0,011	-0,003
-124,483	365,631	-0,035	0,052
-123,468	-67,590	-0,080	-0,023
-122,453	-4,979	-0,104	-0,052
-121,439	-27,786	-0,065	-0,027
-120,424	-200,000	0,002	0,034
-119,410	50,559	0,114	0,078
