DTS Sentinel unit serial number:	SN410029Multiplexer serial number:	ORYXHardware model number:	OX2-SRSoftware version number:	ORYX F/W v4,00 Oryx Data Collector v3.7.2.0data status	okinstallation	B4 Nyhavnadifferential loss correction	single-endedforward channel	channel 2reverse channel	N/Adate	2023/12/18time	21:15:13forward acquisition time	300,00reverse acquisition time	0,00gamma	499,1914k internal	0,3124k external	0,3124temperature offset calibration	1,0000default loss term (dB/km)	0,3820temperature slope calibration	1,0000multiplexer offset coefficient	1,0000multiplexer slope coefficient	1,0000fibre end	0,00T internal ref (°C)	21,85T ext. ref 1 (°C)	7,13T ext. ref 2 (°C)	7,07length (m)	temperature (°C)	Stokes	anti-Stokes-744,400	-104,030	0,071	-0,012
-743,385	84,100	-0,176	0,144
-742,371	-200,000	-0,012	-0,139
-741,356	108,740	-0,205	0,183
-740,342	-96,901	0,121	0,023
-739,327	-5,041	-0,341	0,174
-738,312	-148,210	-0,027	-0,002
-737,298	-41,738	-0,223	0,085
-736,283	2,334	-0,087	0,047
-735,269	-13,604	-0,294	0,141
-734,254	-200,000	0,008	-0,114
-733,239	-123,325	-0,444	-0,052
-732,225	666,495	0,095	0,184
-731,210	111,899	-0,029	-0,026
-730,196	179,617	-0,102	-0,112
-729,181	53,324	-0,034	-0,024
-728,167	62,105	-0,061	-0,046
-727,152	-25,544	-0,122	0,053
-726,137	800,000	0,007	0,021
-725,123	54,386	-0,069	-0,050
-724,108	322,097	-0,091	-0,129
-723,094	-50,871	-0,010	-0,003
-722,079	-200,000	0,051	-0,196
-721,064	-84,726	0,064	0,015
-720,050	314,829	-0,021	-0,030
-719,035	-30,484	-0,154	0,065
-718,021	11,957	-0,027	0,015
-717,006	612,705	-0,033	-0,062
-715,991	178,029	0,067	0,072
-714,977	357,592	-0,037	-0,056
-713,962	-91,641	-0,065	-0,014
-712,948	-135,730	-0,081	0,007
-711,933	-200,000	-0,016	0,103
-710,918	71,148	-0,051	-0,039
-709,904	-48,404	0,025	-0,009
-708,889	74,329	-0,049	0,038
-707,875	77,679	-0,141	-0,111
-706,860	-125,924	-0,063	0,007
-705,845	-180,840	0,066	0,001
-704,831	1,313	-0,178	-0,095
-703,816	-34,000	0,083	0,034
-702,802	534,027	-0,046	0,082
-701,787	370,682	0,035	-0,053
-700,772	325,684	-0,089	-0,127
-699,758	691,271	-0,037	-0,073
-698,743	-200,000	0,032	0,178
-697,729	-200,000	-0,001	0,059
-696,714	106,816	-0,081	-0,071
-695,699	-82,470	-0,031	-0,007
-694,685	800,000	0,042	0,094
-693,670	-200,000	-0,018	-0,069
-692,656	-101,914	-0,074	-0,013
-691,641	-200,000	0,028	0,114
-690,627	-125,545	-0,046	0,005
-689,612	280,634	-0,038	-0,051
-688,597	128,140	-0,038	-0,036
-687,583	520,377	-0,034	-0,059
-686,568	211,937	0,048	-0,056
-685,554	-200,000	-0,034	-0,146
-684,539	800,000	0,050	-0,113
-683,524	263,607	0,054	-0,070
-682,510	-200,000	0,015	0,106
-681,495	-126,827	0,035	-0,004
-680,481	800,000	0,065	-0,165
-679,466	202,985	-0,083	-0,095
-678,451	515,140	-0,057	-0,099
-677,437	-99,271	0,033	0,006
-676,422	-73,623	-0,068	-0,018
-675,408	-200,000	-0,000	0,033
-674,393	-0,476	-0,109	0,057
-673,378	38,060	-0,141	-0,093
-672,364	-134,121	-0,108	-0,010
-671,349	-200,000	-0,020	0,088
-670,335	10,072	0,047	-0,027
-669,320	-200,000	0,038	-0,164
-668,305	-200,000	-0,009	-0,099
-667,291	-131,074	-0,042	-0,004
-666,276	167,942	-0,071	-0,075
-665,262	-53,454	-0,039	-0,013
-664,247	371,835	-0,035	0,054
-663,232	-200,000	0,009	-0,051
-662,218	419,197	-0,031	0,049
-661,203	567,260	-0,045	-0,081
-660,189	-200,000	0,002	-0,014
-659,174	-200,000	-0,005	-0,096
-658,159	-200,000	0,016	0,102
-657,145	223,740	-0,128	-0,153
-656,130	-55,192	0,051	0,017
-655,116	610,754	-0,043	0,079
-654,101	-200,000	0,015	0,082
-653,086	-200,000	-0,034	-0,117
-652,072	266,161	-0,046	-0,059
-651,057	29,843	-0,026	-0,016
-650,043	25,066	0,082	-0,050
-649,028	302,380	0,100	0,137
-648,014	800,000	0,039	-0,120
-646,999	800,000	0,049	-0,144
-645,984	-131,758	0,110	0,011
-644,970	82,481	-0,064	-0,051
-643,955	-200,000	-0,023	-0,109
-642,941	-36,367	-0,176	0,070
-641,926	-148,596	0,060	-0,004
-640,911	-200,000	0,030	-0,133
-639,897	434,853	0,044	0,071
-638,882	-62,331	-0,075	-0,023
-637,868	-103,569	-0,165	0,028
-636,853	315,651	-0,038	0,053
-635,838	-40,073	-0,098	-0,038
-634,824	288,104	-0,066	-0,089
-633,809	-23,256	-0,024	-0,011
-632,795	-200,000	-0,003	0,020
-631,780	383,906	0,042	0,064
-630,765	-185,472	-0,059	-0,001
-629,751	-200,000	-0,000	0,050
-628,736	-25,084	0,060	-0,026
-627,722	253,855	0,063	-0,080
-626,707	6,686	-0,068	-0,037
-625,692	-200,000	0,005	-0,208
-624,678	800,000	-0,031	-0,088
-623,663	-13,893	0,071	-0,034
-622,649	269,076	-0,049	-0,063
-621,634	22,749	-0,044	-0,027
-620,619	-200,000	-0,016	-0,063
-619,605	800,000	-0,027	-0,062
-618,590	-200,000	-0,045	0,151
-617,576	78,917	-0,010	-0,008
-616,561	12,528	-0,051	0,029
-615,546	-200,000	0,024	-0,082
-614,532	454,690	-0,077	-0,128
-613,517	-200,000	-0,006	-0,029
-612,503	238,640	-0,033	0,040
-611,488	279,710	0,029	0,038
-610,474	-113,266	-0,025	-0,004
-609,459	-200,000	0,016	0,184
-608,444	-7,698	-0,121	-0,061
-607,430	-200,000	-0,021	-0,205
-606,415	-200,000	0,003	0,090
-605,401	800,000	0,021	0,051
-604,386	214,105	0,039	-0,046
-603,371	80,692	-0,043	-0,035
-602,357	147,428	-0,063	-0,063
-601,342	800,000	-0,043	-0,124
-600,328	113,079	-0,118	-0,106
-599,313	-97,491	-0,135	-0,026
-598,298	-177,770	0,210	-0,004
-597,284	-47,530	0,012	0,004
-596,269	-55,572	-0,061	0,020
-595,255	-4,469	0,083	0,042
-594,240	800,000	-0,019	-0,046
-593,225	-200,000	-0,023	-0,144
-592,211	-200,000	-0,024	-0,093
-591,196	578,658	-0,039	-0,071
-590,182	-84,117	0,052	-0,012
-589,167	40,347	0,007	-0,005
-588,152	56,607	0,048	0,034
-587,138	-127,614	0,106	0,011
-586,123	-81,797	0,059	0,014
-585,109	-200,000	-0,001	-0,155
-584,094	-200,000	0,010	-0,156
-583,079	-186,804	-0,066	0,001
-582,065	82,086	0,043	0,034
-581,050	670,357	0,052	0,101
-580,036	429,464	-0,018	-0,029
-579,021	209,184	-0,015	-0,017
-578,006	117,486	-0,097	-0,088
-576,992	434,795	-0,037	-0,060
-575,977	268,499	0,022	0,028
-574,963	410,680	-0,056	0,089
-573,948	800,000	0,028	0,082
-572,934	-34,006	-0,105	-0,043
-571,919	-200,000	-0,004	-0,135
-570,904	800,000	-0,034	0,077
-569,890	-183,651	-0,218	-0,003
-568,875	800,000	0,071	0,175
-567,861	39,753	0,108	-0,072
-566,846	28,153	-0,119	-0,074
-565,831	-110,899	-0,091	0,014
-564,817	20,271	-0,106	-0,063
-563,802	61,914	-0,113	-0,083
-562,788	-200,000	-0,023	-0,180
-561,773	63,163	0,130	-0,097
-560,758	800,000	0,042	0,105
-559,744	800,000	0,017	0,055
-558,729	208,966	0,059	0,068
-557,715	233,708	-0,106	0,129
-556,700	-200,000	0,045	-0,173
-555,685	-165,341	-0,102	-0,003
-554,671	800,000	-0,038	-0,092
-553,656	800,000	0,032	-0,070
-552,642	-200,000	-0,015	0,208
-551,627	800,000	-0,030	-0,068
-550,612	79,501	0,050	-0,040
-549,598	273,587	-0,106	-0,139
-548,583	515,029	0,049	0,085
-547,569	114,311	-0,055	0,050
-546,554	-111,322	0,148	-0,022
-545,539	-200,000	0,018	-0,087
-544,525	693,053	-0,040	-0,078
-543,510	-200,000	0,012	0,066
-542,496	281,669	-0,006	0,009
-541,481	-27,119	0,107	-0,046
-540,466	752,791	-0,025	-0,051
-539,452	127,166	0,023	-0,022
-538,437	-200,000	0,007	0,111
-537,423	78,788	-0,029	0,023
-536,408	-127,258	-0,122	-0,013
-535,393	-200,000	0,005	0,076
-534,379	191,093	-0,103	-0,115
-533,364	-15,032	-0,074	-0,035
-532,350	-73,225	0,175	0,047
-531,335	-200,000	-0,021	0,112
-530,321	302,335	-0,078	-0,107
-529,306	-200,000	0,002	0,117
-528,291	-28,823	-0,024	0,010
-527,277	-118,646	0,119	-0,015
-526,262	-109,629	-0,091	-0,014
-525,248	773,042	0,042	-0,085
-524,233	-81,098	0,010	0,002
-523,218	800,000	-0,035	0,072
-522,204	191,128	-0,054	0,060
-521,189	704,774	0,029	-0,057
-520,175	426,560	0,059	-0,094
-519,160	3,813	-0,053	0,029
-518,145	-200,000	-0,006	0,103
-517,131	-200,000	0,008	0,057
-516,116	136,433	0,046	0,044
-515,102	-98,458	-0,110	0,021
-514,087	424,026	-0,075	-0,119
-513,072	-200,000	0,008	-0,060
-512,058	377,170	-0,035	-0,054
-511,043	-200,000	-0,004	-0,074
-510,029	-200,000	0,033	-0,163
-509,014	800,000	-0,038	0,116
-507,999	11,278	0,057	0,032
-506,985	22,918	-0,085	0,052
-505,970	-200,000	0,004	-0,072
-504,956	-30,575	-0,126	-0,052
-503,941	800,000	-0,045	-0,113
-502,926	-74,108	0,082	-0,022
-501,912	-113,366	0,080	-0,012
-500,897	800,000	-0,021	0,047
-499,883	373,299	-0,063	-0,096
-498,868	-115,981	-0,104	-0,014
-497,853	-199,032	-0,088	0,000
-496,839	51,813	0,053	0,037
-495,824	-70,507	0,119	0,033
-494,810	21,009	0,101	-0,060
-493,795	337,979	-0,104	0,149
-492,781	800,000	-0,016	0,044
-491,766	-200,000	-0,033	-0,139
-490,751	-200,000	0,011	-0,110
-489,737	-139,782	-0,154	0,012
-488,722	-87,171	0,083	-0,018
-487,708	152,569	0,099	0,100
-486,693	-106,082	0,087	-0,014
-485,678	800,000	0,025	-0,074
-484,664	68,944	0,040	-0,030
-483,649	-200,000	-0,003	-0,072
-482,635	-200,000	0,011	-0,047
-481,620	-63,219	-0,134	0,040
-480,605	689,915	0,083	0,161
-479,591	-125,070	0,128	-0,014
-478,576	325,115	0,093	0,132
-477,562	-200,000	-0,033	-0,121
-476,547	443,366	-0,076	-0,123
-475,532	73,470	0,087	0,067
-474,518	-30,353	0,079	-0,033
-473,503	326,224	-0,006	0,009
-472,489	40,794	0,084	-0,056
-471,474	9,429	-0,083	0,046
-470,459	-200,000	0,008	-0,083
-469,445	-200,000	0,000	-0,119
-468,430	-200,000	-0,010	-0,036
-467,416	800,000	-0,034	-0,091
-466,401	-200,000	-0,008	0,155
-465,386	244,100	-0,052	0,065
-464,372	-200,000	0,023	0,115
-463,357	-7,892	-0,087	-0,043
-462,343	66,377	-0,049	-0,037
-461,328	-200,000	-0,005	-0,053
-460,313	41,840	0,049	0,033
-459,299	-200,000	0,002	0,072
-458,284	-42,179	0,107	0,040
-457,270	-200,000	0,007	-0,069
-456,255	-200,000	-0,003	0,015
-455,241	161,046	-0,075	-0,077
-454,226	800,000	-0,035	-0,100
-453,211	800,000	-0,108	-0,232
-452,197	349,601	0,047	-0,069
-451,182	284,622	-0,062	0,083
-450,168	800,000	0,030	-0,081
-449,153	-164,119	-0,122	-0,004
-448,138	55,573	-0,150	-0,107
-447,124	59,829	0,084	-0,061
-446,109	42,964	-0,069	0,047
-445,095	800,000	-0,050	0,147
-444,080	800,000	0,079	0,215
-443,065	-200,000	0,007	0,102
-442,051	-200,000	0,010	-0,081
-441,036	-17,562	-0,095	0,044
-440,022	-200,000	0,045	-0,149
-439,007	13,578	0,126	0,072
-437,992	-146,423	-0,164	-0,010
-436,978	121,249	-0,054	0,049
-435,963	800,000	0,015	0,042
-434,949	482,826	-0,020	-0,034
-433,934	-15,693	-0,031	0,015
-432,919	188,469	-0,123	-0,135
-431,905	485,948	0,126	-0,212
-430,890	-200,000	-0,016	0,100
-429,876	-84,183	0,129	-0,030
-428,861	-200,000	0,027	0,156
-427,846	-158,623	-0,153	-0,006
-426,832	-113,928	-0,067	0,009
-425,817	44,349	0,112	0,075
-424,803	800,000	0,032	0,075
-423,788	94,327	-0,035	-0,029
-422,773	38,275	0,050	0,033
-421,759	-200,000	0,008	0,051
-420,744	-107,328	0,020	0,003
-419,730	-200,000	-0,032	-0,138
-418,715	-200,000	-0,008	-0,046
-417,701	202,604	-0,028	0,032
-416,686	501,879	-0,027	0,046
-415,671	263,972	-0,094	0,120
-414,657	800,000	0,048	0,143
-413,642	-30,484	0,112	0,046
-412,628	647,731	0,015	-0,029
-411,613	83,748	0,045	0,036
-410,598	398,352	0,082	0,126
-409,584	-200,000	-0,000	0,078
-408,569	85,743	0,127	0,103
-407,555	800,000	-0,001	-0,003
-406,540	633,052	0,063	-0,118
-405,525	357,002	0,008	0,012
-404,511	-200,000	-0,009	0,082
-403,496	-157,305	-0,136	0,006
-402,482	-27,498	-0,014	0,006
-401,467	615,089	0,051	0,094
-400,452	-160,508	0,073	0,003
-399,438	174,409	0,030	-0,032
-398,423	1,573	-0,073	-0,038
-397,409	-67,429	0,124	-0,036
-396,394	300,314	-0,007	-0,009
-395,379	265,751	-0,077	0,099
-394,365	-200,000	0,005	0,057
-393,350	-200,000	-0,007	0,115
-392,336	-74,125	0,230	0,061
-391,321	-95,137	0,076	-0,015
-390,306	-200,000	-0,009	0,080
-389,292	157,016	-0,027	-0,027
-388,277	-200,000	0,010	-0,129
-387,263	800,000	-0,024	-0,068
-386,248	136,350	0,077	0,074
-385,233	399,774	0,090	0,139
-384,219	55,530	0,049	-0,035
-383,204	-105,736	0,043	-0,007
-382,190	800,000	-0,126	-0,265
-381,175	47,195	0,055	0,037
-380,160	800,000	-0,087	0,216
-379,146	274,437	0,083	0,109
-378,131	168,004	-0,064	-0,067
-377,117	73,041	0,083	-0,064
-376,102	542,550	0,108	-0,190
-375,088	800,000	-0,099	-0,228
-374,073	800,000	0,034	0,079
-373,058	104,774	0,080	0,069
-372,044	-120,235	0,103	0,013
-371,029	-32,997	0,040	0,016
-370,015	-200,000	0,025	0,091
-369,000	-120,016	-0,022	-0,003
-367,985	284,410	0,065	-0,087
-366,971	-63,489	-0,078	0,023
-365,956	265,866	0,087	0,112
-364,942	187,607	-0,075	0,082
-363,927	-134,699	0,061	0,005
-362,912	-134,794	-0,012	0,001
-361,898	23,574	-0,140	0,084
-360,883	99,927	-0,071	0,061
-359,869	-200,000	0,004	-0,095
-358,854	-30,043	0,080	-0,033
-357,839	-54,902	0,196	-0,064
-356,825	-132,163	0,128	-0,012
-355,810	98,904	-0,017	-0,014
-354,796	-200,000	-0,018	-0,085
-353,781	-200,000	-0,042	-0,148
-352,766	800,000	-0,022	-0,071
-351,752	800,000	0,036	0,110
-350,737	32,781	0,002	0,001
-349,723	-200,000	0,019	0,096
-348,708	-17,509	-0,045	-0,021
-347,693	48,864	0,053	-0,036
-346,679	176,288	-0,050	0,054
-345,664	-200,000	-0,011	0,074
-344,650	539,269	0,084	0,148
-343,635	-56,065	-0,082	0,027
-342,620	800,000	0,009	0,020
-341,606	-64,872	0,053	0,016
-340,591	-188,442	0,121	0,001
-339,577	-165,429	-0,007	0,000
-338,562	324,851	0,060	-0,085
-337,548	-200,000	-0,007	0,073
-336,533	-64,530	0,142	0,042
-335,518	-28,853	0,111	-0,047
-334,504	8,369	0,069	0,038
-333,489	47,582	0,170	-0,116
-332,475	-200,000	-0,054	-0,181
-331,460	-114,136	-0,128	-0,018
-330,445	-136,187	-0,165	-0,014
-329,431	412,634	0,026	-0,041
-328,416	205,119	-0,057	0,065
-327,402	43,943	-0,075	-0,050
-326,387	-28,870	-0,019	-0,008
-325,372	94,082	-0,085	0,071
-324,358	-200,000	0,010	-0,095
-323,343	612,474	0,044	0,081
-322,329	-200,000	-0,013	-0,091
-321,314	-67,887	0,068	-0,019
-320,299	800,000	0,035	0,101
-319,285	-200,000	0,028	0,108
-318,270	800,000	-0,014	0,038
-317,256	-200,000	-0,011	0,059
-316,241	-55,461	-0,096	0,031
-315,226	-25,030	0,044	0,019
-314,212	216,380	0,107	0,124
-313,197	-200,000	0,039	0,207
-312,183	50,609	0,051	-0,036
-311,168	800,000	-0,036	-0,083
-310,153	403,032	-0,052	-0,080
-309,139	221,576	-0,102	-0,121
-308,124	-49,791	-0,088	0,030
-307,110	-200,000	0,016	0,070
-306,095	336,833	-0,079	-0,112
-305,080	-99,120	-0,034	0,006
-304,066	800,000	-0,029	-0,066
-303,051	800,000	0,012	-0,036
-302,037	51,208	-0,052	-0,036
-301,022	-200,000	0,031	0,172
-300,008	453,438	0,067	0,109
-298,993	-200,000	0,031	-0,122
-297,978	473,365	-0,074	-0,122
-296,964	374,328	0,031	-0,046
-295,949	-80,494	-0,066	0,016
-294,935	-200,000	0,016	0,055
-293,920	-200,000	-0,005	0,116
-292,905	-200,000	0,005	-0,021
-291,891	462,307	0,057	0,093
-290,876	788,537	-0,021	0,042
-289,862	800,000	0,018	0,042
-288,847	-200,000	-0,020	-0,133
-287,832	-42,075	-0,159	0,059
-286,818	-23,355	0,093	0,041
-285,803	455,306	-0,048	0,078
-284,789	800,000	-0,016	0,046
-283,774	-200,000	0,009	-0,059
-282,759	-200,000	-0,010	-0,038
-281,745	-200,000	0,002	0,068
-280,730	75,743	-0,050	0,038
-279,716	-200,000	0,019	-0,089
-278,701	23,168	-0,063	-0,038
-277,686	-147,677	0,080	-0,005
-276,672	800,000	0,048	0,137
-275,657	183,505	-0,084	0,091
-274,643	-200,000	0,001	-0,046
-273,628	527,498	-0,077	-0,133
-272,613	-25,593	-0,096	0,041
-271,599	253,029	0,087	-0,109
-270,584	-200,000	0,023	0,114
-269,570	-158,003	-0,043	-0,002
-268,555	-104,921	0,120	0,020
-267,540	-130,464	-0,041	0,004
-266,526	-200,000	-0,003	-0,088
-265,511	-9,037	0,041	0,020
-264,497	-200,000	0,007	0,050
-263,482	232,380	0,085	0,102
-262,467	260,294	-0,057	0,073
-261,453	-200,000	0,014	-0,117
-260,438	-200,000	0,026	-0,107
-259,424	-11,846	-0,026	-0,013
-258,409	547,030	0,035	-0,062
-257,395	158,165	0,050	0,050
-256,380	445,192	-0,052	-0,083
-255,365	-200,000	0,014	0,148
-254,351	800,000	-0,036	0,073
-253,336	287,031	-0,063	0,084
-252,322	319,729	-0,040	-0,056
-251,307	-200,000	0,000	-0,064
-250,292	-200,000	0,007	0,033
-249,278	-95,532	0,046	0,009
-248,263	-37,214	0,021	-0,008
-247,249	307,887	0,098	0,134
-246,234	149,027	-0,045	0,044
-245,219	-200,000	-0,006	-0,082
-244,205	33,725	-0,047	0,029
-243,190	-200,000	-0,021	0,132
-242,176	-149,600	0,059	-0,003
-241,161	32,359	0,061	0,038
-240,146	-34,541	0,043	-0,017
-239,132	223,903	0,161	0,191
-238,117	-30,058	-0,171	0,071
-237,103	-200,000	0,007	-0,041
-236,088	468,709	-0,095	0,156
-235,073	7,324	0,073	-0,040
-234,059	-50,687	0,190	0,065
-233,044	800,000	0,034	0,070
-232,030	-33,577	0,095	-0,038
-231,015	800,000	-0,014	0,040
-230,000	800,000	-0,049	-0,151
-228,986	233,880	-0,019	0,022
-227,971	-200,000	-0,034	0,143
-226,957	522,012	-0,043	0,074
-225,942	127,778	-0,088	0,082
-224,927	800,000	-0,051	-0,126
-223,913	-200,000	-0,039	-0,140
-222,898	-200,000	0,001	0,018
-221,884	-200,000	0,028	-0,108
-220,869	-68,439	0,084	-0,024
-219,855	73,963	0,056	0,043
-218,840	-200,000	-0,009	0,116
-217,825	-200,000	-0,018	0,096
-216,811	-200,000	0,008	-0,072
-215,796	-200,000	-0,009	0,074
-214,782	-15,025	-0,062	-0,029
-213,767	121,663	0,046	-0,042
-212,752	-200,000	0,019	-0,105
-211,738	95,221	-0,060	0,050
-210,723	800,000	-0,017	0,045
-209,709	-192,915	0,036	0,000
-208,694	99,788	0,052	-0,044
-207,679	676,405	0,017	0,032
-206,665	-200,000	0,013	0,066
-205,650	265,494	0,068	0,086
-204,636	-200,000	-0,010	0,157
-203,621	591,833	0,013	0,023
-202,606	55,113	0,070	-0,049
-201,592	800,000	-0,030	0,068
-200,577	-200,000	-0,004	0,057
-199,563	127,118	-0,066	0,061
-198,548	87,711	0,046	0,037
-197,533	-13,357	0,114	0,054
-196,519	800,000	-0,072	-0,153
-195,504	226,840	0,042	-0,050
-194,490	191,221	-0,038	-0,042
-193,475	-0,533	0,115	-0,060
-192,460	537,967	-0,024	-0,042
-191,446	-111,745	-0,073	0,011
-190,431	-133,918	0,177	0,016
-189,417	30,889	-0,068	0,042
-188,402	105,912	0,128	-0,110
-187,387	-26,720	0,069	-0,029
-186,373	-200,000	-0,033	0,179
-185,358	800,000	0,071	-0,164
-184,344	75,961	0,118	0,091
-183,329	-61,518	0,108	-0,033
-182,315	117,845	0,052	0,047
-181,300	329,064	-0,067	-0,094
-180,285	-200,000	0,002	0,089
-179,271	-108,597	-0,133	-0,021
-178,256	-200,000	-0,013	0,053
-177,242	83,003	0,067	0,053
-176,227	223,577	0,070	0,083
-175,212	-82,701	-0,056	-0,013
-174,198	601,173	0,031	0,057
-173,183	50,508	-0,050	-0,035
-172,169	800,000	0,043	0,089
-171,154	-6,442	0,078	0,038
-170,139	-174,868	0,059	0,001
-169,125	800,000	-0,047	0,097
-168,110	800,000	-0,059	-0,144
-167,096	-135,865	-0,064	0,005
-166,081	93,166	0,055	-0,045
-165,066	459,782	0,058	-0,094
-164,052	800,000	0,043	-0,113
-163,037	80,931	0,106	-0,083
-162,023	44,135	-0,168	0,112
-161,008	800,000	0,083	0,176
-159,993	-32,369	-0,102	-0,041
-158,979	60,198	-0,126	0,091
-157,964	53,005	-0,094	-0,065
-156,950	-200,000	-0,008	0,091
-155,935	-86,120	0,150	0,033
-154,920	-200,000	-0,027	0,111
-153,906	-119,611	-0,165	0,021
-152,891	800,000	0,051	0,127
-151,877	288,334	-0,071	0,094
-150,862	-200,000	-0,020	0,074
-149,847	-200,000	-0,026	-0,095
-148,833	453,975	0,031	0,050
-147,818	-62,345	0,140	-0,042
-146,804	236,282	0,047	0,057
-145,789	235,904	-0,092	0,111
-144,775	576,343	-0,114	0,204
-143,760	-18,350	0,028	0,013
-142,745	81,768	-0,057	-0,045
-141,731	-200,000	0,001	0,117
-140,716	154,593	0,114	-0,114
-139,702	-200,000	-0,032	0,158
-138,687	34,623	-0,124	0,079
-137,672	-112,159	0,093	0,013
-136,658	397,080	-0,085	-0,130
-135,643	141,521	-0,057	-0,055
-134,629	173,497	0,065	0,069
-133,614	242,645	-0,090	0,110
-132,599	481,684	0,019	0,032
-131,585	318,283	-0,034	0,047
-130,570	61,830	0,061	0,045
-129,556	-200,000	-0,041	0,153
-128,541	92,555	-0,118	0,097
-127,526	267,397	-0,029	0,038
-126,512	179,515	0,074	-0,079
-125,497	123,683	0,068	0,063
-124,483	-60,125	-0,043	-0,013
-123,468	-132,013	0,091	0,009
-122,453	238,671	-0,022	0,026
-121,439	643,838	-0,052	0,097
-120,424	-86,715	0,090	0,020
