DTS Sentinel unit serial number:	SN410029Multiplexer serial number:	ORYXHardware model number:	OX2-SRSoftware version number:	ORYX F/W v4,00 Oryx Data Collector v3.7.2.0data status	okinstallation	B4 Nyhavnadifferential loss correction	single-endedforward channel	channel 2reverse channel	N/Adate	2023/12/19time	13:05:13forward acquisition time	300,00reverse acquisition time	0,00gamma	499,1914k internal	0,3128k external	0,3128temperature offset calibration	1,0000default loss term (dB/km)	0,3820temperature slope calibration	1,0000multiplexer offset coefficient	1,0000multiplexer slope coefficient	1,0000fibre end	0,00T internal ref (°C)	19,42T ext. ref 1 (°C)	4,43T ext. ref 2 (°C)	4,40length (m)	temperature (°C)	Stokes	anti-Stokes-744,400	-200,000	-0,010	-0,036
-743,385	-116,259	-0,262	-0,036
-742,371	353,485	0,055	0,081
-741,356	-90,433	-0,262	0,056
-740,342	46,635	0,182	-0,125
-739,327	-124,997	-0,296	-0,033
-738,312	800,000	0,033	-0,088
-737,298	-59,756	-0,174	0,055
-736,283	800,000	0,025	-0,070
-735,269	46,781	-0,214	0,148
-734,254	-200,000	0,008	-0,074
-733,239	21,146	-0,300	-0,181
-732,225	-138,890	0,250	0,020
-731,210	153,498	-0,088	0,089
-730,196	378,652	0,011	-0,016
-729,181	-29,767	-0,063	-0,027
-728,167	-200,000	-0,002	-0,083
-727,152	-200,000	0,000	-0,005
-726,137	-57,773	-0,047	-0,015
-725,123	-200,000	0,010	-0,037
-724,108	-121,360	-0,171	-0,021
-723,094	-172,682	-0,154	-0,004
-722,079	98,520	0,027	0,023
-721,064	603,576	0,035	0,065
-720,050	-22,964	0,045	-0,020
-719,035	411,878	-0,026	-0,041
-718,021	50,371	-0,063	0,044
-717,006	220,643	-0,081	-0,096
-715,991	-200,000	0,026	-0,186
-714,977	100,795	0,114	-0,099
-713,962	-52,466	-0,047	-0,016
-712,948	-200,000	-0,087	0,000
-711,933	18,770	0,076	0,045
-710,918	-32,572	-0,114	0,047
-709,904	-200,000	0,013	-0,056
-708,889	-53,177	-0,087	-0,029
-707,875	-101,858	-0,066	-0,012
-706,860	-18,273	0,040	0,019
-705,845	-200,000	-0,029	-0,095
-704,831	-51,443	0,065	0,022
-703,816	79,424	0,069	-0,055
-702,802	147,040	-0,058	-0,058
-701,787	102,930	0,062	-0,054
-700,772	-200,000	0,008	-0,077
-699,758	-200,000	-0,000	-0,145
-698,743	-22,456	-0,094	0,042
-697,729	538,108	0,053	-0,094
-696,714	245,935	-0,033	0,042
-695,699	149,037	0,104	0,105
-694,685	800,000	-0,015	-0,042
-693,670	277,530	0,035	0,047
-692,656	722,318	-0,021	0,042
-691,641	-200,000	0,024	-0,124
-690,627	-163,367	0,148	-0,005
-689,612	71,178	-0,094	-0,073
-688,597	147,688	0,063	0,063
-687,583	800,000	-0,071	-0,221
-686,568	-81,462	-0,137	-0,033
-685,554	-15,690	-0,038	0,018
-684,539	481,620	0,004	0,006
-683,524	-67,572	0,114	0,033
-682,510	28,201	0,061	-0,038
-681,495	577,628	-0,008	-0,014
-680,481	-65,784	-0,093	0,027
-679,466	200,406	-0,052	-0,059
-678,451	-200,000	0,011	-0,046
-677,437	366,836	0,048	-0,072
-676,422	800,000	0,026	-0,077
-675,408	-119,930	-0,104	-0,013
-674,393	-124,071	0,036	-0,004
-673,378	96,675	-0,057	-0,049
-672,364	-22,571	-0,052	0,023
-671,349	-6,374	-0,107	0,054
-670,335	-141,167	0,100	0,007
-669,320	298,397	-0,052	-0,071
-668,305	-200,000	0,006	0,062
-667,291	254,527	0,038	-0,048
-666,276	800,000	-0,029	-0,071
-665,262	188,459	-0,108	-0,119
-664,247	56,955	-0,027	-0,020
-663,232	-26,762	0,132	0,057
-662,218	800,000	0,030	0,094
-661,203	503,427	0,051	-0,087
-660,189	258,502	0,019	-0,025
-659,174	-200,000	-0,028	-0,252
-658,159	18,010	-0,073	-0,043
-657,145	-200,000	-0,007	-0,030
-656,130	-38,563	-0,110	-0,043
-655,116	191,465	0,030	0,033
-654,101	8,809	-0,112	-0,063
-653,086	30,189	0,111	-0,070
-652,072	-200,000	-0,032	-0,123
-651,057	-1,458	-0,115	-0,060
-650,043	-200,000	-0,003	-0,031
-649,028	-118,935	-0,128	0,016
-648,014	-200,000	-0,019	0,110
-646,999	-45,419	-0,085	0,031
-645,984	-141,601	-0,043	-0,003
-644,970	800,000	0,020	-0,049
-643,955	-80,780	0,077	0,019
-642,941	-200,000	-0,004	-0,207
-641,926	-200,000	-0,025	-0,087
-640,911	800,000	0,013	0,030
-639,897	-3,914	0,085	-0,044
-638,882	-161,584	0,092	0,003
-637,868	-146,130	-0,167	0,011
-636,853	-200,000	0,007	0,151
-635,838	584,915	-0,034	-0,062
-634,824	-73,988	-0,058	0,016
-633,809	489,856	0,023	0,038
-632,795	-153,205	0,120	0,006
-631,780	579,948	0,029	0,053
-630,765	-52,023	-0,215	0,074
-629,751	-121,533	-0,025	-0,003
-628,736	-200,000	0,001	-0,077
-627,722	-200,000	-0,022	-0,092
-626,707	-200,000	-0,026	-0,137
-625,692	24,368	-0,071	0,043
-624,678	267,083	-0,086	0,111
-623,663	53,876	-0,068	-0,048
-622,649	465,653	-0,083	-0,139
-621,634	357,074	0,050	-0,074
-620,619	-6,839	0,149	-0,075
-619,605	2,668	-0,168	-0,090
-618,590	166,891	0,021	-0,022
-617,576	-200,000	0,026	0,120
-616,561	-200,000	-0,014	-0,047
-615,546	-200,000	-0,003	-0,143
-614,532	-200,000	-0,006	-0,082
-613,517	800,000	-0,025	0,065
-612,503	-156,117	-0,011	0,001
-611,488	-200,000	0,015	-0,122
-610,474	0,642	0,070	-0,037
-609,459	2,098	0,044	-0,023
-608,444	-63,764	-0,134	-0,040
-607,430	152,457	-0,036	0,036
-606,415	149,502	-0,084	-0,084
-605,401	800,000	0,025	-0,059
-604,386	-200,000	0,007	0,036
-603,371	458,313	-0,045	0,074
-602,357	490,540	0,007	-0,013
-601,342	154,255	-0,084	0,086
-600,328	-151,064	-0,056	-0,003
-599,313	80,503	-0,064	-0,051
-598,298	-104,755	-0,045	-0,008
-597,284	798,192	0,040	-0,082
-596,269	47,591	0,135	0,093
-595,255	-200,000	0,001	-0,025
-594,240	426,627	-0,060	0,096
-593,225	604,090	-0,075	-0,139
-592,211	800,000	0,087	-0,210
-591,196	-89,379	0,111	0,024
-590,182	160,823	-0,048	0,050
-589,167	-74,911	-0,148	-0,039
-588,152	128,059	0,046	-0,044
-587,138	-200,000	-0,007	-0,088
-586,123	800,000	0,028	-0,091
-585,109	-111,503	-0,084	0,013
-584,094	240,156	0,093	0,115
-583,079	-200,000	-0,021	-0,121
-582,065	-104,935	-0,097	0,016
-581,050	800,000	-0,062	0,140
-580,036	-120,472	-0,106	0,013
-579,021	-15,039	-0,136	-0,064
-578,006	-68,904	-0,122	0,035
-576,992	800,000	0,026	0,061
-575,977	800,000	-0,042	-0,092
-574,963	687,259	-0,093	-0,181
-573,948	-91,992	0,033	0,007
-572,934	-200,000	0,001	0,005
-571,919	-59,329	-0,151	-0,048
-570,904	-40,660	-0,084	-0,032
-569,890	800,000	-0,056	-0,171
-568,875	570,202	0,065	-0,117
-567,861	187,752	0,037	0,041
-566,846	146,660	-0,038	0,038
-565,831	800,000	-0,052	-0,140
-564,817	-200,000	-0,014	0,059
-563,802	-3,388	0,042	0,022
-562,788	4,019	-0,197	-0,106
-561,773	150,896	-0,051	-0,051
-560,758	800,000	-0,035	-0,108
-559,744	-111,407	-0,110	-0,016
-558,729	-17,491	-0,054	0,025
-557,715	-200,000	-0,010	-0,082
-556,700	32,323	-0,151	-0,096
-555,685	-200,000	-0,008	-0,073
-554,671	-200,000	0,002	-0,078
-553,656	-140,686	0,073	-0,006
-552,642	-45,992	0,090	0,033
-551,627	39,654	-0,037	-0,025
-550,612	-200,000	0,018	-0,099
-549,598	-14,430	-0,043	-0,021
-548,583	-147,746	0,121	0,007
-547,569	-10,289	-0,079	0,038
-546,554	409,516	0,043	0,067
-545,539	-200,000	0,029	0,103
-544,525	-94,921	-0,031	0,006
-543,510	-118,691	-0,062	-0,008
-542,496	-200,000	-0,006	0,119
-541,481	800,000	-0,037	-0,081
-540,466	369,377	0,085	-0,128
-539,452	-166,011	0,155	-0,005
-538,437	47,272	0,038	0,026
-537,423	96,229	0,072	0,061
-536,408	775,064	0,033	-0,067
-535,393	469,181	0,035	0,058
-534,379	800,000	-0,035	-0,087
-533,364	452,674	0,069	-0,114
-532,350	34,755	-0,042	0,027
-531,335	147,034	0,027	0,027
-530,321	-146,170	-0,011	0,001
-529,306	-145,656	-0,018	0,001
-528,291	-149,680	-0,152	0,009
-527,277	-104,004	-0,038	-0,007
-526,262	182,816	0,109	0,118
-525,248	107,893	-0,103	0,090
-524,233	800,000	0,034	0,078
-523,218	-200,000	-0,004	-0,108
-522,204	-200,000	0,006	0,085
-521,189	800,000	-0,072	-0,215
-520,175	-103,940	0,107	0,018
-519,160	800,000	-0,033	0,097
-518,145	682,182	0,052	0,100
-517,131	121,986	-0,040	-0,037
-516,116	22,163	0,088	0,053
-515,102	-200,000	-0,009	0,052
-514,087	-200,000	-0,008	0,143
-513,072	-200,000	0,003	0,103
-512,058	800,000	-0,052	-0,116
-511,043	800,000	-0,039	0,083
-510,029	-48,144	0,075	-0,027
-509,014	-92,886	-0,129	0,026
-507,999	-127,266	-0,021	0,002
-506,985	800,000	-0,033	-0,069
-505,970	800,000	0,023	0,060
-504,956	800,000	-0,054	-0,134
-503,941	-42,649	-0,094	-0,035
-502,926	-200,000	0,002	0,197
-501,912	129,212	-0,058	0,054
-500,897	52,704	-0,089	0,063
-499,883	102,635	0,126	-0,109
-498,868	138,209	0,028	0,028
-497,853	354,236	-0,054	-0,080
-496,839	-61,850	0,040	-0,012
-495,824	-200,000	0,001	0,162
-494,810	-200,000	-0,003	-0,048
-493,795	-31,117	0,056	0,023
-492,781	17,617	0,024	0,014
-491,766	800,000	-0,024	0,076
-490,751	-200,000	-0,038	-0,157
-489,737	800,000	0,037	-0,105
-488,722	-13,054	0,086	0,041
-487,708	241,028	0,051	0,062
-486,693	-89,866	-0,038	-0,008
-485,678	-176,335	-0,146	0,003
-484,664	-151,050	0,155	-0,008
-483,649	800,000	0,010	0,024
-482,635	398,838	-0,092	-0,143
-481,620	-200,000	-0,002	0,049
-480,605	155,337	-0,064	-0,064
-479,591	-139,351	0,141	-0,011
-478,576	-24,945	-0,132	0,057
-477,562	-5,156	-0,008	-0,004
-476,547	31,846	0,029	-0,018
-475,532	741,521	-0,016	0,031
-474,518	-58,972	0,062	-0,020
-473,503	1,930	0,032	-0,017
-472,489	-200,000	0,022	0,112
-471,474	141,676	-0,094	-0,092
-470,459	104,697	-0,026	-0,023
-469,445	800,000	0,041	-0,089
-468,430	137,150	-0,142	-0,136
-467,416	-39,847	-0,029	0,011
-466,401	579,804	-0,031	0,055
-465,386	357,430	0,039	0,058
-464,372	-200,000	0,011	0,119
-463,357	-133,002	0,069	-0,006
-462,343	-147,323	0,084	0,005
-461,328	64,141	-0,059	-0,044
-460,313	-105,427	-0,078	-0,013
-459,299	364,978	0,083	0,123
-458,284	743,084	0,066	0,132
-457,270	800,000	0,007	0,015
-456,255	-200,000	0,023	-0,204
-455,241	-200,000	0,004	-0,015
-454,226	800,000	0,014	-0,035
-453,211	-200,000	0,025	-0,087
-452,197	800,000	0,028	0,063
-451,182	800,000	-0,033	0,091
-450,168	-200,000	0,021	-0,076
-449,153	-200,000	-0,021	0,076
-448,138	587,929	-0,039	-0,072
-447,124	-200,000	0,001	0,060
-446,109	259,150	-0,021	-0,027
-445,095	59,871	-0,052	-0,038
-444,080	-51,816	0,085	0,029
-443,065	60,605	0,114	0,083
-442,051	747,599	0,033	-0,065
-441,036	-200,000	-0,011	-0,066
-440,022	-200,000	0,013	-0,075
-439,007	9,726	0,170	0,094
-437,992	71,453	0,111	0,085
-436,978	194,777	-0,044	0,049
-435,963	241,474	0,041	0,050
-434,949	163,989	-0,083	-0,086
-433,934	27,248	-0,073	0,045
-432,919	800,000	-0,053	-0,129
-431,905	126,888	-0,013	-0,012
-430,890	54,607	0,041	-0,029
-429,876	119,269	0,050	0,045
-428,861	-200,000	0,002	0,046
-427,846	-200,000	-0,011	-0,045
-426,832	-200,000	0,003	-0,101
-425,817	366,179	0,047	-0,071
-424,803	-200,000	-0,017	-0,077
-423,788	-200,000	0,041	0,175
-422,773	-133,427	0,067	0,006
-421,759	149,052	0,066	-0,066
-420,744	-200,000	-0,019	0,112
-419,730	-50,354	-0,039	-0,014
-418,715	800,000	-0,031	-0,084
-417,701	161,384	0,001	0,001
-416,686	92,785	-0,053	-0,044
-415,671	564,536	0,032	0,056
-414,657	-200,000	0,022	0,076
-413,642	354,794	-0,097	0,142
-412,628	-111,896	-0,114	-0,017
-411,613	396,895	0,034	-0,053
-410,598	-161,283	0,175	-0,007
-409,584	-17,952	0,115	-0,053
-408,569	-200,000	0,001	0,110
-407,555	-200,000	0,026	0,097
-406,540	-200,000	0,072	-0,266
-405,525	130,772	-0,080	-0,075
-404,511	0,069	-0,059	-0,031
-403,496	-85,601	-0,064	0,014
-402,482	-200,000	0,034	0,121
-401,467	337,558	0,030	0,043
-400,452	227,756	0,027	-0,032
-399,438	-200,000	0,023	0,124
-398,423	454,704	0,014	0,023
-397,409	29,115	-0,059	-0,037
-396,394	-53,313	-0,146	0,049
-395,379	326,823	-0,035	0,049
-394,365	-200,000	-0,001	0,171
-393,350	10,366	0,141	0,079
-392,336	149,924	-0,110	-0,109
-391,321	-161,309	-0,024	-0,001
-390,306	800,000	0,065	-0,162
-389,292	800,000	-0,060	-0,146
-388,277	399,630	-0,077	0,120
-387,263	74,876	0,131	-0,101
-386,248	263,568	-0,100	0,128
-385,233	683,822	0,044	0,084
-384,219	800,000	0,045	-0,097
-383,204	630,299	0,032	-0,059
-382,190	-128,027	-0,148	-0,015
-381,175	29,311	0,090	-0,056
-380,160	-200,000	-0,037	-0,121
-379,146	-200,000	0,015	0,112
-378,131	-22,878	0,142	0,063
-377,117	-34,573	0,050	-0,020
-376,102	-200,000	-0,000	-0,020
-375,088	-16,412	-0,031	-0,014
-374,073	-200,000	-0,004	-0,038
-373,058	255,266	0,021	0,026
-372,044	-128,089	0,066	-0,007
-371,029	-0,162	0,091	0,047
-370,015	53,596	-0,093	0,066
-369,000	-23,202	0,087	0,038
-367,985	-200,000	-0,010	-0,082
-366,971	83,647	-0,054	0,043
-365,956	-46,690	0,102	0,036
-364,942	-200,000	-0,039	0,135
-363,927	-200,000	0,000	0,022
-362,912	-200,000	0,021	0,104
-361,898	-113,754	-0,079	0,011
-360,883	-200,000	-0,009	0,031
-359,869	-55,820	0,151	-0,049
-358,854	800,000	0,036	-0,109
-357,839	-106,653	0,195	0,031
-356,825	615,684	0,019	0,035
-355,810	519,039	-0,033	-0,057
-354,796	-34,100	-0,031	0,013
-353,781	1,410	0,068	-0,035
-352,766	110,728	0,079	-0,069
-351,752	800,000	-0,047	0,130
-350,737	-92,954	0,007	-0,001
-349,723	800,000	0,038	0,083
-348,708	-30,754	0,022	0,009
-347,693	78,170	-0,123	-0,097
-346,679	800,000	0,068	-0,176
-345,664	-98,298	-0,239	-0,045
-344,650	245,746	0,059	-0,073
-343,635	565,009	0,007	0,013
-342,620	57,256	-0,041	-0,029
-341,606	-200,000	-0,016	0,082
-340,591	374,481	0,043	0,064
-339,577	800,000	0,024	-0,053
-338,562	-200,000	0,011	0,164
-337,548	-101,937	0,073	0,013
-336,533	800,000	-0,023	-0,054
-335,518	-200,000	-0,064	0,212
-334,504	493,275	-0,052	0,087
-333,489	91,201	-0,023	-0,019
-332,475	543,346	0,019	-0,033
-331,460	132,520	0,140	-0,133
-330,445	800,000	0,050	-0,103
-329,431	-130,742	-0,012	-0,001
-328,416	-200,000	0,025	0,233
-327,402	-178,583	0,063	-0,001
-326,387	800,000	0,034	0,097
-325,372	-200,000	-0,009	-0,040
-324,358	-200,000	0,046	-0,154
-323,343	-120,738	0,110	0,013
-322,329	185,772	-0,056	-0,061
-321,314	-200,000	-0,008	0,077
-320,299	-127,347	0,045	0,005
-319,285	-200,000	-0,000	-0,082
-318,270	800,000	0,010	0,022
-317,256	178,261	0,100	-0,106
-316,241	-200,000	0,002	0,015
-315,226	132,631	0,050	-0,047
-314,212	-79,302	0,071	0,017
-313,197	-64,575	0,084	-0,025
-312,183	-82,244	-0,115	0,027
-311,168	800,000	-0,091	-0,197
-310,153	-146,620	-0,114	-0,007
-309,139	-15,475	0,079	-0,037
-308,124	800,000	0,004	0,009
-307,110	-33,242	0,148	0,060
-306,095	25,159	0,101	0,061
-305,080	295,166	0,049	-0,065
-304,066	238,092	-0,015	-0,018
-303,051	-141,281	-0,063	-0,005
-302,037	-82,941	0,150	0,035
-301,022	395,069	0,016	-0,024
-300,008	150,994	0,124	-0,124
-298,993	575,098	-0,034	0,061
-297,978	289,734	-0,066	0,088
-296,964	17,272	0,122	0,071
-295,949	171,154	0,026	-0,027
-294,935	-39,344	-0,060	-0,023
-293,920	762,408	0,055	0,109
-292,905	183,418	-0,064	0,070
-291,891	-132,083	0,129	0,012
-290,876	-115,145	-0,141	0,019
-289,862	-5,555	-0,045	0,023
-288,847	-200,000	-0,016	-0,119
-287,832	-63,769	-0,077	-0,023
-286,818	33,970	0,068	0,043
-285,803	800,000	0,054	0,171
-284,789	-161,694	0,104	0,004
-283,774	-153,433	-0,139	-0,007
-282,759	-4,504	0,044	-0,022
-281,745	-12,725	-0,218	0,103
-280,730	247,383	0,035	-0,043
-279,716	190,081	-0,027	-0,030
-278,701	-154,753	0,158	-0,008
-277,686	399,629	0,049	0,076
-276,672	148,702	0,072	-0,072
-275,657	800,000	0,050	0,137
-274,643	477,529	0,057	0,094
-273,628	-200,000	-0,011	-0,044
-272,613	-44,411	0,171	-0,062
-271,599	150,594	0,026	0,026
-270,584	6,286	-0,075	0,040
-269,570	-200,000	0,018	0,095
-268,555	-0,739	0,071	0,037
-267,540	-55,003	-0,055	0,018
-266,526	-200,000	0,000	0,010
-265,511	800,000	-0,008	0,023
-264,497	-34,098	-0,054	-0,022
-263,482	85,718	-0,074	-0,059
-262,467	-38,766	-0,091	0,035
-261,453	135,269	0,103	0,098
-260,438	75,293	0,146	0,113
-259,424	-200,000	-0,008	-0,147
-258,409	-196,487	-0,037	-0,000
-257,395	-200,000	0,006	0,035
-256,380	800,000	-0,057	0,119
-255,365	207,832	0,014	0,016
-254,351	55,710	-0,049	-0,034
-253,336	109,232	0,090	0,078
-252,322	800,000	0,033	-0,097
-251,307	-92,984	-0,018	-0,004
-250,292	-82,344	-0,039	-0,009
-249,278	-62,972	0,088	0,026
-248,263	-86,681	-0,037	0,008
-247,249	-200,000	0,014	-0,076
-246,234	-18,034	0,150	-0,068
-245,219	-84,399	-0,058	0,013
-244,205	515,896	-0,031	0,052
-243,190	358,203	-0,064	0,093
-242,176	-200,000	0,024	0,152
-241,161	358,884	-0,053	0,077
-240,146	800,000	-0,047	-0,097
-239,132	202,969	-0,041	-0,047
-238,117	-200,000	0,019	-0,067
-237,103	-34,342	-0,094	-0,037
-236,088	-85,357	0,015	0,003
-235,073	-125,489	-0,124	-0,014
-234,059	800,000	0,073	0,150
-233,044	-200,000	0,014	-0,071
-232,030	-200,000	-0,026	0,103
-231,015	-200,000	0,009	-0,109
-230,000	248,095	-0,035	-0,044
-228,986	-200,000	-0,000	-0,085
-227,971	73,139	-0,025	-0,019
-226,957	177,834	-0,032	0,034
-225,942	800,000	0,057	0,151
-224,927	644,709	-0,091	0,171
-223,913	-200,000	0,000	0,066
-222,898	-200,000	0,000	0,068
-221,884	251,764	0,027	0,034
-220,869	226,427	-0,103	0,122
-219,855	800,000	0,048	0,144
-218,840	31,612	-0,032	0,020
-217,825	-6,311	-0,114	0,057
-216,811	-200,000	0,015	-0,122
-215,796	-200,000	0,008	0,040
-214,782	20,154	0,049	0,028
-213,767	13,282	-0,059	0,033
-212,752	-67,006	0,121	0,035
-211,738	609,032	0,086	0,158
-210,723	-16,624	0,067	-0,031
-209,709	225,831	-0,138	0,164
-208,694	200,100	0,007	0,008
-207,679	-62,765	0,086	0,026
-206,665	481,344	0,031	-0,051
-205,650	540,133	-0,061	0,105
-204,636	226,799	0,090	-0,107
-203,621	-101,998	0,037	-0,006
-202,606	800,000	-0,033	-0,101
-201,592	800,000	-0,038	-0,100
-200,577	-17,313	-0,082	0,038
-199,563	366,283	-0,020	0,030
-198,548	433,779	-0,045	0,071
-197,533	97,781	-0,067	0,056
-196,519	-131,736	0,121	-0,011
-195,504	-200,000	-0,002	0,040
-194,490	317,430	0,013	0,017
-193,475	-200,000	-0,002	0,022
-192,460	202,621	-0,052	0,059
-191,446	-112,154	0,119	-0,017
-190,431	398,090	-0,014	0,022
-189,417	-200,000	-0,030	0,154
-188,402	70,539	0,118	0,089
-187,387	-200,000	0,004	-0,120
-186,373	-200,000	-0,034	-0,159
-185,358	73,399	0,063	0,048
-184,344	146,036	0,048	-0,047
-183,329	-42,916	-0,031	-0,011
-182,315	571,106	-0,023	-0,041
-181,300	-79,167	-0,119	-0,029
-180,285	342,891	0,035	0,050
-179,271	-95,748	-0,059	0,011
-178,256	-200,000	-0,016	-0,051
-177,242	93,842	0,063	-0,052
-176,227	97,812	0,099	0,083
-175,212	160,911	0,109	0,111
-174,198	416,110	-0,013	-0,020
-173,183	-200,000	-0,028	-0,173
-172,169	310,711	-0,063	-0,086
-171,154	-200,000	-0,002	0,076
-170,139	-200,000	0,002	-0,139
-169,125	92,903	0,055	0,045
-168,110	273,203	0,057	0,073
-167,096	493,585	-0,065	-0,110
-166,081	-126,341	-0,057	-0,006
-165,066	76,051	-0,053	-0,041
-164,052	-200,000	-0,006	0,160
-163,037	-25,340	0,004	-0,002
-162,023	-13,611	0,144	0,068
-161,008	186,516	-0,031	0,033
-159,993	-86,259	0,129	0,029
-158,979	141,453	0,047	-0,045
-157,964	183,902	-0,094	-0,101
-156,950	561,036	-0,064	-0,113
-155,935	282,248	0,034	-0,045
-154,920	54,948	0,123	-0,086
-153,906	190,395	0,091	0,100
-152,891	714,214	-0,054	0,105
-151,877	31,334	-0,017	-0,011
-150,862	34,827	-0,059	0,037
-149,847	-200,000	0,018	-0,132
-148,833	453,064	0,062	-0,100
-147,818	82,615	0,094	0,074
-146,804	800,000	0,018	0,041
-145,789	267,419	0,031	-0,040
-144,775	303,661	0,087	-0,117
-143,760	50,883	-0,179	-0,123
-142,745	800,000	0,026	-0,070
-141,731	-200,000	-0,004	-0,029
-140,716	193,199	-0,033	-0,037
-139,702	-200,000	0,013	0,067
-138,687	-200,000	0,028	0,112
-137,672	-200,000	0,008	0,031
-136,658	-146,322	0,108	-0,007
-135,643	178,572	-0,063	-0,067
-134,629	-200,000	-0,008	-0,112
-133,614	-9,019	-0,111	-0,054
-132,599	-110,358	0,135	-0,020
-131,585	-200,000	0,025	-0,097
-130,570	-93,908	-0,026	-0,005
-129,556	-103,722	0,106	-0,018
-128,541	128,425	-0,048	0,045
-127,526	800,000	-0,044	0,095
-126,512	82,863	0,083	-0,066
-125,497	800,000	-0,008	-0,020
-124,483	-5,967	0,122	0,060
-123,468	353,145	0,031	0,045
-122,453	229,566	-0,020	-0,024
-121,439	-66,565	-0,119	0,034
-120,424	160,439	0,037	0,038
-119,410	-200,000	0,013	0,123
