DTS Sentinel unit serial number:	SN410029Multiplexer serial number:	ORYXHardware model number:	OX2-SRSoftware version number:	ORYX F/W v4,00 Oryx Data Collector v3.7.2.0data status	okinstallation	B4 Nyhavnadifferential loss correction	single-endedforward channel	channel 2reverse channel	N/Adate	2023/12/18time	22:10:13forward acquisition time	300,00reverse acquisition time	0,00gamma	499,1914k internal	0,3124k external	0,3124temperature offset calibration	1,0000default loss term (dB/km)	0,3820temperature slope calibration	1,0000multiplexer offset coefficient	1,0000multiplexer slope coefficient	1,0000fibre end	0,00T internal ref (°C)	21,86T ext. ref 1 (°C)	7,21T ext. ref 2 (°C)	7,15length (m)	temperature (°C)	Stokes	anti-Stokes-744,400	66,407	0,111	-0,084
-743,385	77,266	-0,176	0,139
-742,371	-6,925	0,099	0,050
-741,356	57,510	-0,069	0,051
-740,342	-16,230	0,212	0,100
-739,327	-131,468	-0,378	0,037
-738,312	232,913	0,056	0,069
-737,298	-13,684	-0,187	0,090
-736,283	-141,136	0,086	-0,006
-735,269	121,090	-0,117	0,108
-734,254	80,548	-0,061	-0,049
-733,239	-79,420	-0,335	-0,084
-732,225	-200,000	-0,007	0,075
-731,210	-200,000	-0,015	0,187
-730,196	-40,093	-0,134	0,052
-729,181	31,779	-0,063	-0,041
-728,167	800,000	-0,019	-0,048
-727,152	-200,000	0,011	-0,062
-726,137	78,089	-0,092	-0,073
-725,123	-132,109	-0,096	0,009
-724,108	-200,000	-0,027	-0,155
-723,094	83,608	0,061	-0,049
-722,079	-161,660	-0,178	-0,007
-721,064	800,000	0,018	-0,050
-720,050	137,304	-0,058	0,057
-719,035	59,600	-0,056	-0,041
-718,021	259,880	-0,038	-0,049
-717,006	-65,276	-0,122	-0,036
-715,991	-5,660	-0,075	-0,038
-714,977	177,846	-0,046	-0,050
-713,962	581,569	-0,039	-0,071
-712,948	800,000	-0,057	0,147
-711,933	19,362	-0,053	0,032
-710,918	-141,020	-0,149	0,011
-709,904	800,000	-0,036	-0,080
-708,889	115,930	0,022	-0,020
-707,875	18,479	-0,055	-0,033
-706,860	41,248	-0,146	0,098
-705,845	-125,658	-0,025	0,003
-704,831	191,400	-0,077	-0,086
-703,816	-99,222	0,043	0,008
-702,802	800,000	-0,007	-0,021
-701,787	800,000	-0,091	-0,193
-700,772	85,031	-0,074	-0,061
-699,758	-115,976	0,131	0,018
-698,743	-85,302	0,134	0,031
-697,729	-15,928	-0,167	0,079
-696,714	457,204	-0,016	0,027
-695,699	-200,000	-0,015	-0,059
-694,685	53,674	-0,042	0,030
-693,670	-73,431	0,123	0,033
-692,656	800,000	0,041	0,120
-691,641	-200,000	0,004	0,048
-690,627	74,202	0,046	-0,036
-689,612	-116,145	0,090	0,012
-688,597	98,365	-0,080	0,068
-687,583	633,100	0,092	0,175
-686,568	601,427	-0,021	-0,040
-685,554	676,027	-0,062	-0,119
-684,539	34,699	0,125	-0,081
-683,524	-200,000	-0,045	0,168
-682,510	-200,000	-0,001	-0,050
-681,495	527,175	-0,051	0,090
-680,481	41,157	0,013	0,009
-679,466	-48,449	-0,146	-0,052
-678,451	7,397	0,009	0,005
-677,437	341,249	-0,022	0,033
-676,422	-200,000	-0,022	0,125
-675,408	510,393	-0,048	-0,084
-674,393	-200,000	-0,016	0,112
-673,378	-5,086	-0,105	-0,054
-672,364	655,142	0,018	-0,034
-671,349	-200,000	0,000	0,117
-670,335	800,000	-0,025	0,074
-669,320	-68,760	0,044	0,013
-668,305	-200,000	0,002	-0,008
-667,291	93,795	-0,045	-0,038
-666,276	-42,965	-0,040	-0,015
-665,262	146,619	-0,145	-0,145
-664,247	-33,607	-0,064	-0,026
-663,232	-200,000	0,031	-0,128
-662,218	745,174	-0,052	-0,104
-661,203	-200,000	-0,017	0,110
-660,189	3,492	-0,056	0,030
-659,174	800,000	-0,020	0,046
-658,159	91,664	-0,020	0,017
-657,145	212,236	0,050	0,059
-656,130	800,000	0,030	0,086
-655,116	84,383	-0,113	0,092
-654,101	-200,000	-0,005	0,055
-653,086	77,294	-0,143	0,113
-652,072	-87,501	-0,080	-0,018
-651,057	-200,000	0,033	-0,110
-650,043	509,943	-0,064	-0,111
-649,028	217,280	-0,027	-0,032
-648,014	207,263	0,053	-0,061
-646,999	19,989	-0,058	0,035
-645,984	-25,805	-0,040	0,017
-644,970	-101,441	-0,099	0,018
-643,955	315,606	-0,026	-0,037
-642,941	-200,000	-0,021	-0,152
-641,926	5,283	-0,019	-0,010
-640,911	-200,000	-0,003	0,053
-639,897	800,000	-0,048	0,135
-638,882	-200,000	0,025	0,117
-637,868	59,566	-0,050	0,036
-636,853	79,515	0,041	0,032
-635,838	-100,556	0,076	0,014
-634,824	-200,000	0,047	-0,218
-633,809	-200,000	0,014	0,058
-632,795	98,126	-0,049	-0,042
-631,780	82,849	-0,062	0,050
-630,765	60,106	0,075	-0,055
-629,751	58,888	0,033	0,024
-628,736	-25,541	-0,115	0,050
-627,722	-87,876	-0,073	-0,016
-626,707	375,533	-0,018	0,028
-625,692	-200,000	0,000	-0,031
-624,678	-200,000	0,001	0,226
-623,663	-24,979	0,024	0,011
-622,649	43,244	-0,137	0,093
-621,634	215,725	-0,068	0,080
-620,619	422,656	0,054	-0,087
-619,605	-95,293	0,180	-0,036
-618,590	-30,171	0,072	-0,030
-617,576	-86,399	0,121	-0,027
-616,561	-161,940	-0,093	-0,003
-615,546	42,892	0,065	0,044
-614,532	319,676	-0,040	-0,057
-613,517	800,000	0,024	0,057
-612,503	116,209	-0,015	-0,014
-611,488	58,194	-0,056	-0,041
-610,474	-195,763	-0,054	-0,000
-609,459	82,511	0,102	0,082
-608,444	44,461	0,089	-0,061
-607,430	-200,000	-0,014	-0,070
-606,415	88,019	0,087	-0,071
-605,401	-200,000	-0,001	-0,125
-604,386	-200,000	-0,008	-0,097
-603,371	-38,902	0,097	0,038
-602,357	-74,969	-0,116	0,031
-601,342	22,402	0,107	0,065
-600,328	24,866	-0,108	-0,066
-599,313	-23,391	-0,112	-0,049
-598,298	598,488	0,031	-0,058
-597,284	42,366	0,028	0,019
-596,269	-200,000	0,002	0,076
-595,255	-124,854	-0,065	0,007
-594,240	800,000	-0,047	-0,115
-593,225	67,907	0,088	-0,066
-592,211	-200,000	0,006	-0,060
-591,196	-94,404	0,098	0,020
-590,182	55,173	-0,026	-0,019
-589,167	-200,000	0,014	-0,064
-588,152	35,789	0,122	0,079
-587,138	334,127	0,042	-0,061
-586,123	-53,481	-0,107	0,036
-585,109	-95,033	-0,057	0,011
-584,094	-200,000	0,003	-0,103
-583,079	53,443	-0,064	0,045
-582,065	-25,163	0,040	-0,017
-581,050	-78,551	0,100	-0,025
-580,036	-142,413	-0,094	0,007
-579,021	454,817	-0,045	0,074
-578,006	-142,346	0,035	-0,003
-576,992	377,754	0,063	0,095
-575,977	-110,860	0,093	-0,014
-574,963	55,611	-0,110	0,079
-573,948	-200,000	-0,003	-0,027
-572,934	455,643	-0,011	-0,018
-571,919	11,991	-0,061	0,035
-570,904	180,018	-0,049	-0,053
-569,890	68,241	-0,154	-0,116
-568,875	40,578	-0,018	0,012
-567,861	800,000	0,010	0,023
-566,846	7,311	-0,093	-0,051
-565,831	370,734	0,025	-0,037
-564,817	-200,000	0,016	0,069
-563,802	800,000	0,024	0,073
-562,788	210,435	-0,122	-0,142
-561,773	523,547	0,040	-0,070
-560,758	-200,000	0,027	-0,101
-559,744	-200,000	0,027	0,153
-558,729	-200,000	0,005	-0,066
-557,715	800,000	-0,028	0,077
-556,700	800,000	-0,042	0,093
-555,685	800,000	-0,010	-0,025
-554,671	366,938	-0,021	-0,031
-553,656	311,173	0,086	0,119
-552,642	-200,000	0,030	-0,137
-551,627	25,341	-0,033	0,020
-550,612	9,328	-0,105	-0,058
-549,598	-200,000	0,008	-0,109
-548,583	19,457	-0,169	-0,100
-547,569	800,000	-0,062	-0,146
-546,554	-127,790	0,209	0,022
-545,539	-62,240	-0,098	-0,030
-544,525	-200,000	0,022	-0,100
-543,510	331,490	-0,031	-0,044
-542,496	800,000	-0,033	0,081
-541,481	39,361	-0,043	-0,028
-540,466	-200,000	-0,009	-0,079
-539,452	-200,000	-0,000	0,038
-538,437	800,000	-0,023	0,067
-537,423	768,130	0,032	0,065
-536,408	-94,574	0,120	0,024
-535,393	17,971	-0,077	0,046
-534,379	800,000	-0,066	-0,164
-533,364	390,857	0,065	-0,099
-532,350	-170,301	0,132	-0,003
-531,335	48,685	-0,078	0,054
-530,321	-194,329	-0,153	-0,001
-529,306	-49,899	-0,047	0,016
-528,291	119,023	-0,029	-0,027
-527,277	229,272	0,008	-0,010
-526,262	33,151	-0,124	-0,079
-525,248	-16,691	0,015	-0,007
-524,233	800,000	0,024	0,055
-523,218	-200,000	-0,034	-0,155
-522,204	131,387	0,038	0,036
-521,189	3,662	0,022	-0,012
-520,175	-200,000	0,029	-0,154
-519,160	-200,000	-0,005	-0,038
-518,145	184,277	0,059	-0,064
-517,131	-17,343	0,112	0,052
-516,116	23,937	-0,090	0,055
-515,102	-200,000	-0,016	-0,064
-514,087	-78,978	-0,051	0,013
-513,072	800,000	-0,026	-0,064
-512,058	-200,000	-0,022	-0,080
-511,043	27,059	0,061	0,038
-510,029	-200,000	-0,002	-0,041
-509,014	-92,588	-0,026	-0,005
-507,999	168,848	0,080	-0,084
-506,985	-200,000	-0,012	-0,153
-505,970	-134,898	-0,132	0,012
-504,956	-200,000	0,001	0,005
-503,941	-200,000	0,005	-0,017
-502,926	800,000	0,025	-0,054
-501,912	-13,960	0,077	0,037
-500,897	52,381	-0,103	-0,073
-499,883	-200,000	0,020	0,071
-498,868	293,263	-0,015	0,020
-497,853	-6,866	-0,053	-0,027
-496,839	746,945	-0,051	-0,102
-495,824	-173,248	0,035	-0,001
-494,810	-87,237	0,158	0,035
-493,795	-4,020	-0,104	-0,053
-492,781	256,888	0,107	-0,136
-491,766	-200,000	0,037	-0,157
-490,751	220,560	0,016	0,019
-489,737	800,000	0,019	0,046
-488,722	-200,000	0,034	0,203
-487,708	126,399	0,084	0,079
-486,693	-200,000	0,032	0,114
-485,678	800,000	-0,031	0,084
-484,664	-107,695	-0,057	0,009
-483,649	-82,374	-0,037	-0,009
-482,635	522,550	-0,050	-0,087
-481,620	-119,361	0,189	-0,024
-480,605	-200,000	0,010	0,057
-479,591	-175,973	0,097	-0,002
-478,576	800,000	-0,013	0,039
-477,562	250,748	0,020	-0,025
-476,547	178,453	-0,133	-0,144
-475,532	-200,000	-0,015	-0,128
-474,518	-200,000	-0,026	0,095
-473,503	574,082	0,061	-0,110
-472,489	135,533	0,051	0,049
-471,474	-155,233	-0,032	0,001
-470,459	74,510	-0,078	0,060
-469,445	-177,757	-0,262	-0,005
-468,430	225,088	0,062	-0,074
-467,416	-200,000	0,004	0,099
-466,401	-200,000	-0,001	0,016
-465,386	800,000	0,022	0,051
-464,372	-188,326	0,066	-0,001
-463,357	-132,187	-0,120	0,011
-462,343	800,000	0,043	-0,093
-461,328	347,723	0,038	-0,056
-460,313	-37,435	-0,133	-0,052
-459,299	391,440	0,080	0,122
-458,284	441,394	-0,006	0,010
-457,270	-185,663	-0,028	0,000
-456,255	347,863	0,070	-0,102
-455,241	-200,000	0,022	-0,086
-454,226	-4,866	-0,111	0,056
-453,211	-145,595	0,086	0,006
-452,197	-8,476	-0,091	-0,045
-451,182	800,000	0,040	0,109
-450,168	800,000	-0,024	0,059
-449,153	141,916	-0,055	0,054
-448,138	-200,000	0,026	-0,101
-447,124	800,000	0,040	-0,093
-446,109	128,016	-0,032	-0,030
-445,095	-26,810	-0,066	0,028
-444,080	-200,000	-0,010	0,054
-443,065	215,023	-0,072	0,084
-442,051	564,427	0,058	0,105
-441,036	-131,093	-0,124	-0,012
-440,022	-10,185	0,016	0,008
-439,007	-95,466	-0,018	-0,004
-437,992	162,604	0,082	-0,085
-436,978	-129,466	0,021	-0,002
-435,963	-200,000	-0,003	0,010
-434,949	-1,960	-0,023	-0,012
-433,934	237,164	-0,024	0,030
-432,919	62,877	-0,066	-0,049
-431,905	-200,000	0,053	0,172
-430,890	548,760	0,056	0,099
-429,876	800,000	0,040	0,110
-428,861	103,067	0,013	-0,011
-427,846	462,188	0,073	-0,121
-426,832	-173,863	-0,060	0,001
-425,817	267,563	0,049	-0,063
-424,803	280,350	-0,050	-0,066
-423,788	-200,000	0,003	0,102
-422,773	-68,600	-0,025	0,007
-421,759	217,863	-0,039	0,046
-420,744	-200,000	-0,025	0,105
-419,730	-149,996	-0,154	-0,009
-418,715	74,547	0,054	0,041
-417,701	-200,000	0,014	-0,074
-416,686	800,000	-0,040	-0,092
-415,671	18,378	0,199	0,117
-414,657	800,000	0,028	0,077
-413,642	-84,904	0,050	0,011
-412,628	-200,000	-0,004	0,104
-411,613	-200,000	0,016	-0,167
-410,598	598,499	-0,107	-0,196
-409,584	800,000	-0,031	0,079
-408,569	596,264	-0,072	-0,131
-407,555	-200,000	-0,016	-0,059
-406,540	782,119	0,033	-0,067
-405,525	-200,000	-0,034	-0,177
-404,511	134,483	0,046	-0,043
-403,496	174,945	0,135	0,143
-402,482	-200,000	0,025	-0,083
-401,467	334,027	0,054	0,077
-400,452	-57,133	0,012	-0,004
-399,438	-200,000	0,027	-0,167
-398,423	181,841	0,031	0,034
-397,409	-200,000	-0,035	-0,203
-396,394	-74,078	0,045	-0,012
-395,379	800,000	-0,021	0,066
-394,365	24,947	0,067	0,041
-393,350	800,000	0,035	-0,075
-392,336	49,711	0,031	0,021
-391,321	-200,000	0,016	0,198
-390,306	-200,000	0,015	0,087
-389,292	379,672	-0,047	-0,071
-388,277	362,076	0,077	-0,113
-387,263	31,996	0,047	-0,030
-386,248	-200,000	-0,015	0,092
-385,233	-200,000	0,020	0,129
-384,219	-200,000	-0,004	-0,083
-383,204	800,000	-0,056	-0,116
-382,190	-200,000	0,027	0,089
-381,175	-8,289	-0,068	-0,033
-380,160	-200,000	0,032	0,120
-379,146	23,885	0,083	-0,050
-378,131	476,744	-0,032	-0,053
-377,117	-200,000	0,021	-0,128
-376,102	-200,000	-0,007	-0,091
-375,088	198,684	-0,021	-0,023
-374,073	-139,246	-0,160	-0,012
-373,058	800,000	-0,011	-0,031
-372,044	136,601	0,065	0,062
-371,029	-100,145	-0,100	0,018
-370,015	-200,000	-0,021	0,213
-369,000	31,922	0,087	-0,055
-367,985	-43,360	-0,163	-0,060
-366,971	205,151	0,055	0,062
-365,956	53,430	-0,120	-0,085
-364,942	800,000	0,057	-0,152
-363,927	-200,000	-0,009	0,075
-362,912	-200,000	0,018	0,092
-361,898	-138,124	-0,094	0,008
-360,883	-200,000	0,014	0,089
-359,869	-70,574	0,080	-0,022
-358,854	397,306	0,057	-0,087
-357,839	-167,299	0,111	0,003
-356,825	-77,450	-0,123	-0,031
-355,810	92,213	-0,081	0,067
-354,796	77,919	-0,086	-0,067
-353,781	93,983	-0,028	-0,024
-352,766	232,265	-0,041	0,050
-351,752	-25,928	0,066	-0,028
-350,737	95,016	0,046	-0,038
-349,723	237,597	0,021	0,026
-348,708	254,916	0,124	0,156
-347,693	121,384	0,039	0,035
-346,679	142,430	0,047	-0,046
-345,664	264,813	-0,123	0,157
-344,650	800,000	-0,065	-0,156
-343,635	-200,000	0,022	-0,071
-342,620	-3,763	0,059	-0,030
-341,606	800,000	-0,027	0,069
-340,591	800,000	0,031	0,072
-339,577	-200,000	-0,002	-0,013
-338,562	-200,000	0,021	-0,079
-337,548	28,265	-0,017	0,011
-336,533	145,982	-0,156	0,153
-335,518	-78,426	-0,058	0,014
-334,504	-131,350	0,098	-0,009
-333,489	12,696	-0,141	-0,080
-332,475	-56,919	-0,036	-0,012
-331,460	-142,813	-0,089	0,006
-330,445	410,866	-0,059	-0,092
-329,431	92,409	0,037	-0,030
-328,416	-62,928	-0,099	0,030
-327,402	-200,000	0,020	0,124
-326,387	-200,000	-0,026	0,145
-325,372	764,906	-0,024	-0,048
-324,358	-106,884	0,137	0,022
-323,343	-200,000	-0,014	-0,094
-322,329	-7,568	0,061	0,030
-321,314	800,000	0,044	-0,091
-320,299	161,466	-0,067	-0,069
-319,285	85,632	0,066	0,053
-318,270	-126,502	0,094	0,010
-317,256	231,425	-0,043	0,051
-316,241	273,743	0,005	-0,007
-315,226	-83,798	-0,069	-0,016
-314,212	130,293	-0,105	-0,099
-313,197	193,545	0,084	0,093
-312,183	508,235	0,073	0,124
-311,168	91,570	-0,043	0,036
-310,153	397,181	-0,021	-0,032
-309,139	171,276	-0,128	-0,135
-308,124	-200,000	-0,015	0,099
-307,110	468,496	0,039	0,065
-306,095	-114,461	0,032	0,004
-305,080	50,709	0,083	0,058
-304,066	83,654	-0,165	0,132
-303,051	-170,182	-0,171	-0,004
-302,037	-18,691	-0,183	0,083
-301,022	-122,297	0,067	0,008
-300,008	69,951	-0,041	-0,031
-298,993	-200,000	0,022	0,110
-297,978	215,380	0,093	0,108
-296,964	140,125	-0,053	0,051
-295,949	-47,261	-0,094	0,033
-294,935	31,331	0,110	0,069
-293,920	800,000	0,050	0,117
-292,905	-200,000	0,003	0,105
-291,891	155,470	-0,076	0,076
-290,876	-114,283	-0,133	-0,019
-289,862	-32,635	0,021	-0,009
-288,847	-92,187	-0,131	-0,027
-287,832	152,640	0,142	-0,142
-286,818	-200,000	0,037	0,136
-285,803	-200,000	0,007	0,060
-284,789	747,436	0,054	0,107
-283,774	21,834	-0,090	-0,054
-282,759	-100,679	0,127	-0,023
-281,745	66,620	0,057	-0,042
-280,730	637,309	-0,058	0,108
-279,716	100,988	-0,075	0,063
-278,701	-48,961	0,198	0,069
-277,686	478,246	0,057	-0,094
-276,672	800,000	-0,041	-0,092
-275,657	-43,915	-0,085	-0,031
-274,643	-200,000	0,002	0,070
-273,628	-159,436	0,077	0,003
-272,613	-61,177	-0,046	-0,014
-271,599	-35,803	0,047	-0,018
-270,584	-200,000	0,032	0,135
-269,570	-162,710	0,174	-0,006
-268,555	606,244	-0,028	-0,051
-267,540	-143,637	0,081	0,006
-266,526	800,000	-0,006	0,019
-265,511	-117,459	-0,103	-0,013
-264,497	-92,959	-0,081	-0,016
-263,482	193,169	0,156	0,173
-262,467	800,000	0,039	0,102
-261,453	-74,442	-0,113	0,030
-260,438	39,885	0,103	-0,067
-259,424	332,498	-0,047	0,067
-258,409	800,000	0,087	-0,248
-257,395	87,544	0,015	-0,012
-256,380	-67,702	0,123	-0,035
-255,365	261,279	0,055	0,070
-254,351	75,862	-0,055	-0,043
-253,336	800,000	0,064	-0,199
-252,322	186,768	-0,099	-0,108
-251,307	-62,037	0,082	0,025
-250,292	38,886	0,033	0,021
-249,278	-200,000	-0,012	0,095
-248,263	-128,543	0,055	-0,006
-247,249	-200,000	-0,029	0,121
-246,234	-109,387	-0,113	0,017
-245,219	-45,474	-0,122	0,044
-244,205	800,000	0,025	-0,063
-243,190	57,222	0,110	0,079
-242,176	132,983	0,042	0,039
-241,161	-124,115	0,108	0,012
-240,146	120,545	-0,083	0,075
-239,132	85,637	0,092	-0,074
-238,117	800,000	0,003	-0,008
-237,103	148,120	0,064	0,064
-236,088	800,000	0,057	-0,132
-235,073	-117,550	-0,033	0,004
-234,059	-143,827	-0,042	-0,003
-233,044	-200,000	0,008	0,038
-232,030	-22,619	-0,100	-0,044
-231,015	65,115	0,014	-0,010
-230,000	-35,349	0,113	-0,045
-228,986	-200,000	0,027	-0,144
-227,971	800,000	0,018	0,053
-226,957	540,614	-0,015	-0,026
-225,942	-36,004	0,127	0,050
-224,927	-200,000	-0,008	0,061
-223,913	-200,000	-0,020	-0,087
-222,898	292,622	0,057	-0,075
-221,884	-132,784	0,201	-0,018
-220,869	-200,000	-0,007	0,067
-219,855	-200,000	-0,008	0,078
-218,840	335,127	-0,012	-0,017
-217,825	-61,649	0,067	-0,020
-216,811	-97,211	-0,060	0,011
-215,796	-200,000	0,002	0,118
-214,782	-105,266	-0,045	0,007
-213,767	177,324	0,022	0,024
-212,752	-12,128	0,073	-0,035
-211,738	133,018	0,027	-0,026
-210,723	-127,092	0,087	0,009
-209,709	-152,801	-0,106	0,005
-208,694	-100,762	-0,086	0,015
-207,679	-200,000	0,014	-0,079
-206,665	-200,000	0,004	0,052
-205,650	-153,943	0,002	0,000
-204,636	-135,366	0,051	-0,004
-203,621	-200,000	-0,005	0,029
-202,606	-166,427	-0,070	0,002
-201,592	27,969	0,046	-0,028
-200,577	100,085	-0,115	-0,097
-199,563	-134,754	-0,071	0,006
-198,548	800,000	0,101	0,234
-197,533	-200,000	-0,018	0,063
-196,519	800,000	0,052	0,141
-195,504	800,000	-0,049	0,132
-194,490	-120,909	-0,102	0,012
-193,475	259,446	-0,075	-0,095
-192,460	245,316	0,053	0,065
-191,446	-200,000	0,002	-0,017
-190,431	68,796	-0,067	0,050
-189,417	-141,140	0,096	-0,007
-188,402	176,158	0,104	0,110
-187,387	88,969	-0,088	-0,071
-186,373	232,301	0,060	0,071
-185,358	-106,927	0,097	-0,016
-184,344	-91,826	-0,040	-0,008
-183,329	437,053	-0,048	-0,077
-182,315	432,360	0,048	-0,076
-181,300	38,213	0,054	-0,035
-180,285	-179,331	0,045	-0,001
-179,271	7,529	-0,051	0,028
-178,256	-200,000	-0,012	-0,046
-177,242	-9,341	0,091	-0,044
-176,227	-119,470	0,089	-0,011
-175,212	-60,762	0,085	0,026
-174,198	-144,248	0,047	0,003
-173,183	-200,000	-0,025	-0,100
-172,169	-200,000	-0,016	-0,099
-171,154	39,841	0,085	-0,055
-170,139	-24,326	-0,123	-0,053
-169,125	-61,219	0,178	0,054
-168,110	-55,577	-0,072	0,023
-167,096	-200,000	0,020	0,124
-166,081	-200,000	-0,034	0,121
-165,066	784,245	-0,057	-0,115
-164,052	800,000	-0,028	-0,065
-163,037	800,000	-0,084	0,252
-162,023	800,000	0,029	-0,062
-161,008	800,000	0,041	0,102
-159,993	800,000	-0,032	0,065
-158,979	-38,426	-0,013	-0,005
-157,964	-200,000	0,026	0,113
-156,950	256,941	0,036	-0,045
-155,935	800,000	-0,022	0,053
-154,920	-168,953	0,060	0,002
-153,906	-200,000	0,012	0,063
-152,891	186,832	0,046	0,049
-151,877	-23,451	0,068	0,029
-150,862	-48,677	-0,112	-0,039
-149,847	800,000	-0,046	-0,101
-148,833	-200,000	0,001	-0,061
-147,818	-200,000	0,008	0,041
-146,804	350,680	-0,046	0,066
-145,789	-200,000	-0,014	-0,113
-144,775	555,499	0,030	0,052
-143,760	-4,126	-0,032	0,016
-142,745	65,353	-0,118	-0,087
-141,731	-188,028	0,101	-0,001
-140,716	237,297	0,081	0,098
-139,702	-200,000	0,025	-0,113
-138,687	57,417	-0,072	-0,051
-137,672	-160,093	-0,073	0,003
-136,658	800,000	-0,060	-0,142
-135,643	722,215	0,049	0,096
-134,629	-180,242	0,153	-0,002
-133,614	-146,275	-0,157	0,010
-132,599	242,661	0,048	-0,059
-131,585	130,512	-0,053	0,049
-130,570	-146,895	-0,126	0,008
-129,556	-200,000	-0,025	-0,098
-128,541	-164,199	-0,053	-0,002
-127,526	-41,923	0,092	0,034
-126,512	169,144	0,088	-0,091
-125,497	-167,214	0,058	-0,002
-124,483	-30,700	-0,065	0,026
-123,468	-200,000	-0,047	0,155
-122,453	-200,000	-0,007	-0,051
-121,439	-200,000	0,036	-0,152
-120,424	-101,801	0,069	-0,012
-119,410	-200,000	-0,015	-0,106
