DTS Sentinel unit serial number:	SN410029Multiplexer serial number:	ORYXHardware model number:	OX2-SRSoftware version number:	ORYX F/W v4,00 Oryx Data Collector v3.7.2.0data status	okinstallation	B3 Nyhavnadifferential loss correction	single-endedforward channel	channel 1reverse channel	N/Adate	2023/11/28time	15:22:30forward acquisition time	300,00reverse acquisition time	0,00gamma	499,1914k internal	0,3177k external	0,3177temperature offset calibration	1,0000default loss term (dB/km)	0,3820temperature slope calibration	1,0000multiplexer offset coefficient	1,0000multiplexer slope coefficient	1,0000fibre end	0,00T internal ref (°C)	7,30T ext. ref 1 (°C)	-7,58T ext. ref 2 (°C)	-7,75length (m)	temperature (°C)	Stokes	anti-Stokes-744,400	67,944	-0,321	-0,241
-743,385	-200,000	0,064	0,256
-742,371	-200,000	-0,041	-0,190
-741,356	-200,000	0,025	0,422
-740,342	-200,000	-0,106	-0,343
-739,327	800,000	-0,136	0,418
-738,312	9,229	-0,225	-0,124
-737,298	-200,000	-0,005	0,322
-736,283	310,194	-0,162	-0,222
-735,269	-200,000	0,030	0,298
-734,254	-35,649	-0,225	-0,089
-733,239	-12,517	-0,151	0,072
-732,225	438,796	-0,146	-0,234
-731,210	-124,286	0,106	-0,012
-730,196	-200,000	0,001	0,013
-729,181	-32,833	0,034	0,014
-728,167	-200,000	-0,014	-0,181
-727,152	-200,000	-0,027	0,088
-726,137	468,342	-0,057	0,095
-725,123	-198,476	-0,159	-0,001
-724,108	-41,283	-0,071	0,027
-723,094	800,000	0,056	-0,179
-722,079	54,429	0,091	-0,064
-721,064	-200,000	-0,005	-0,034
-720,050	101,060	-0,096	0,082
-719,035	-58,976	0,017	0,005
-718,021	-200,000	-0,038	-0,123
-717,006	800,000	-0,078	-0,177
-715,991	800,000	0,027	0,077
-714,977	129,713	-0,095	-0,089
-713,962	-200,000	0,006	0,077
-712,948	268,383	-0,056	-0,072
-711,933	-200,000	-0,023	0,129
-710,918	800,000	-0,060	-0,172
-709,904	-7,786	-0,087	-0,043
-708,889	-149,823	-0,063	-0,004
-707,875	5,050	0,048	-0,026
-706,860	481,748	0,023	0,038
-705,845	800,000	0,038	0,088
-704,831	-70,543	0,124	-0,034
-703,816	-200,000	-0,014	-0,048
-702,802	-65,600	-0,041	0,012
-701,787	-200,000	-0,000	-0,093
-700,772	518,940	0,031	-0,054
-699,758	-35,793	-0,037	0,015
-698,743	-7,782	-0,077	-0,038
-697,729	214,523	0,027	-0,032
-696,714	-100,402	-0,075	-0,013
-695,699	-200,000	0,051	0,247
-694,685	-114,403	-0,126	-0,017
-693,670	-200,000	0,009	0,080
-692,656	40,128	0,052	0,034
-691,641	-200,000	0,034	-0,131
-690,627	-41,552	0,113	-0,042
-689,612	8,958	-0,045	0,025
-688,597	-106,801	0,067	-0,011
-687,583	56,517	0,069	0,049
-686,568	-100,506	0,125	-0,022
-685,554	-200,000	-0,017	-0,076
-684,539	666,477	0,038	-0,073
-683,524	754,652	-0,005	0,010
-682,510	-53,273	0,068	0,023
-681,495	124,818	-0,050	-0,046
-680,481	800,000	-0,043	-0,124
-679,466	-200,000	-0,018	0,072
-678,451	-12,770	0,036	-0,017
-677,437	712,165	-0,063	-0,123
-676,422	800,000	-0,015	-0,040
-675,408	95,737	0,076	0,064
-674,393	800,000	-0,061	-0,132
-673,378	-200,000	-0,005	-0,187
-672,364	223,833	-0,146	-0,173
-671,349	-200,000	-0,010	-0,071
-670,335	-3,346	-0,045	-0,023
-669,320	800,000	0,029	-0,074
-668,305	800,000	0,005	0,016
-667,291	689,783	-0,028	0,054
-666,276	-200,000	0,010	-0,039
-665,262	-38,962	-0,196	-0,075
-664,247	-118,340	-0,077	-0,010
-663,232	-200,000	0,017	0,084
-662,218	287,895	-0,086	0,115
-661,203	-21,844	-0,090	0,040
-660,189	521,836	-0,071	-0,122
-659,174	-55,908	-0,056	0,018
-658,159	-200,000	-0,017	-0,120
-657,145	-32,003	0,078	-0,032
-656,130	380,295	-0,030	-0,046
-655,116	113,813	0,110	0,098
-654,101	-73,747	-0,070	-0,019
-653,086	-200,000	0,037	0,198
-652,072	209,863	-0,027	0,030
-651,057	656,317	-0,068	-0,128
-650,043	-200,000	0,009	-0,048
-649,028	-200,000	0,007	-0,108
-648,014	157,505	-0,039	0,040
-646,999	-200,000	0,009	-0,156
-645,984	-10,987	-0,068	-0,033
-644,970	-200,000	0,026	-0,095
-643,955	68,560	0,101	0,076
-642,941	-64,742	-0,133	-0,039
-641,926	-113,615	0,166	0,023
-640,911	-110,323	-0,123	-0,018
-639,897	36,763	-0,069	-0,044
-638,882	-15,830	0,044	-0,020
-637,868	-139,054	0,118	0,009
-636,853	-200,000	-0,001	-0,005
-635,838	800,000	-0,050	-0,106
-634,824	-46,863	-0,076	0,027
-633,809	349,730	-0,073	-0,106
-632,795	800,000	0,026	0,077
-631,780	317,205	0,097	0,134
-630,765	16,894	-0,066	-0,038
-629,751	95,222	0,050	0,042
-628,736	336,036	-0,044	0,063
-627,722	800,000	-0,052	-0,111
-626,707	660,389	0,078	-0,146
-625,692	-59,972	0,014	0,004
-624,678	-58,440	0,069	0,022
-623,663	14,814	-0,092	-0,053
-622,649	474,735	-0,039	0,064
-621,634	800,000	0,025	-0,065
-620,619	-200,000	-0,031	-0,140
-619,605	282,766	0,026	-0,034
-618,590	-152,048	0,075	0,004
-617,576	800,000	0,059	-0,157
-616,561	-200,000	0,016	-0,153
-615,546	-200,000	-0,004	-0,014
-614,532	36,539	0,093	-0,060
-613,517	800,000	-0,007	0,020
-612,503	304,029	0,058	0,078
-611,488	128,072	0,060	0,055
-610,474	-200,000	-0,025	0,128
-609,459	67,214	0,031	-0,023
-608,444	-40,805	-0,105	0,040
-607,430	-38,389	0,034	-0,013
-606,415	-77,795	0,008	0,002
-605,401	540,270	0,015	0,026
-604,386	-135,959	0,027	0,002
-603,371	106,775	-0,014	-0,012
-602,357	-200,000	0,016	0,192
-601,342	6,868	-0,052	-0,028
-600,328	-200,000	-0,006	0,117
-599,313	242,220	-0,116	-0,141
-598,298	-200,000	0,013	0,118
-597,284	-106,255	0,035	0,006
-596,269	800,000	-0,004	0,011
-595,255	-27,535	0,087	0,037
-594,240	-31,460	-0,137	0,056
-593,225	-20,162	-0,084	0,037
-592,211	800,000	0,052	-0,147
-591,196	800,000	-0,048	-0,133
-590,182	-134,297	0,035	-0,003
-589,167	324,533	0,043	-0,061
-588,152	-20,020	-0,155	0,069
-587,138	320,399	0,066	0,092
-586,123	-116,068	-0,039	-0,005
-585,109	800,000	-0,037	-0,105
-584,094	-175,649	-0,003	0,000
-583,079	593,294	-0,071	-0,127
-582,065	131,267	-0,068	0,064
-581,050	158,982	0,017	0,017
-580,036	-7,639	-0,040	-0,020
-579,021	-200,000	0,010	0,090
-578,006	187,248	-0,127	-0,138
-576,992	-75,566	-0,133	0,034
-575,977	-200,000	-0,028	0,125
-574,963	-74,565	0,137	0,036
-573,948	-200,000	0,033	0,131
-572,934	83,355	-0,100	0,079
-571,919	29,322	0,094	-0,058
-570,904	-200,000	0,015	-0,166
-569,890	-200,000	-0,041	-0,207
-568,875	-148,536	0,044	0,003
-567,861	32,331	0,176	0,110
-566,846	5,721	-0,148	0,080
-565,831	-200,000	-0,020	0,086
-564,817	800,000	0,030	0,089
-563,802	-33,176	-0,140	-0,056
-562,788	-81,477	0,063	0,015
-561,773	65,853	-0,095	0,070
-560,758	678,239	-0,083	0,157
-559,744	360,968	0,065	0,095
-558,729	132,035	-0,084	0,079
-557,715	84,069	0,063	-0,050
-556,700	125,119	0,086	-0,079
-555,685	688,912	-0,019	0,037
-554,671	800,000	0,056	0,155
-553,656	-149,100	0,044	0,003
-552,642	591,109	0,066	0,119
-551,627	-73,939	-0,183	0,048
-550,612	-125,940	-0,034	0,004
-549,598	-146,526	-0,117	0,007
-548,583	-104,005	-0,073	-0,012
-547,569	-200,000	0,001	0,022
-546,554	187,232	0,082	-0,089
-545,539	252,048	0,093	0,115
-544,525	-11,689	-0,073	0,035
-543,510	800,000	0,049	0,108
-542,496	263,065	0,048	-0,061
-541,481	-200,000	0,006	-0,092
-540,466	-120,144	-0,067	-0,008
-539,452	0,487	0,067	-0,035
-538,437	800,000	-0,043	0,098
-537,423	-151,630	0,157	-0,008
-536,408	310,621	-0,043	0,059
-535,393	-200,000	-0,019	0,063
-534,379	-28,191	0,029	-0,012
-533,364	-200,000	-0,021	0,092
-532,350	-18,196	0,078	0,035
-531,335	-200,000	0,042	0,136
-530,321	3,784	0,132	0,070
-529,306	82,057	0,042	-0,033
-528,291	163,456	-0,138	-0,141
-527,277	68,783	0,032	-0,024
-526,262	493,293	0,057	-0,095
-525,248	42,953	-0,052	0,034
-524,233	-2,840	0,087	-0,044
-523,218	-200,000	0,013	0,075
-522,204	9,922	0,088	0,048
-521,189	-134,040	-0,041	-0,004
-520,175	-79,726	-0,146	0,035
-519,160	39,382	0,094	-0,061
-518,145	-200,000	-0,025	0,188
-517,131	-138,104	0,050	-0,004
-516,116	197,751	-0,050	0,055
-515,102	-200,000	-0,000	-0,022
-514,087	102,833	-0,065	-0,055
-513,072	-200,000	-0,001	-0,077
-512,058	-200,000	0,014	0,088
-511,043	28,187	0,023	0,014
-510,029	139,647	-0,070	0,067
-509,014	370,342	0,036	0,052
-507,999	65,279	0,105	-0,077
-506,985	-62,418	0,174	-0,052
-505,970	-128,821	-0,093	0,009
-504,956	799,353	-0,089	-0,180
-503,941	-53,687	0,168	-0,055
-502,926	-200,000	-0,053	0,191
-501,912	-118,186	-0,040	-0,005
-500,897	62,584	0,061	-0,044
-499,883	-25,559	-0,088	0,038
-498,868	-87,603	0,154	-0,034
-497,853	114,366	0,049	-0,044
-496,839	-47,192	-0,007	0,002
-495,824	-26,230	-0,027	0,011
-494,810	800,000	0,051	0,106
-493,795	41,487	0,101	0,066
-492,781	-103,177	-0,188	0,032
-491,766	-30,295	-0,057	-0,023
-490,751	-135,230	0,030	-0,003
-489,737	-76,598	-0,078	-0,020
-488,722	192,538	-0,042	0,046
-487,708	35,823	0,144	0,092
-486,693	-200,000	0,016	0,053
-485,678	-47,712	-0,137	-0,048
-484,664	-191,400	0,068	-0,000
-483,649	72,270	-0,126	-0,095
-482,635	795,008	-0,082	0,165
-481,620	-200,000	-0,012	0,062
-480,605	223,902	0,018	0,021
-479,591	-200,000	0,023	-0,097
-478,576	800,000	-0,042	0,099
-477,562	-200,000	0,005	-0,105
-476,547	401,773	-0,021	-0,032
-475,532	382,427	-0,063	0,095
-474,518	-130,261	-0,104	-0,010
-473,503	224,261	0,072	0,085
-472,489	63,101	0,081	0,059
-471,474	-200,000	-0,014	-0,069
-470,459	-200,000	-0,000	0,018
-469,445	174,075	-0,038	-0,040
-468,430	-200,000	-0,035	-0,136
-467,416	-129,083	0,150	-0,015
-466,401	15,941	0,094	-0,053
-465,386	-47,392	0,176	0,062
-464,372	-138,298	-0,039	-0,003
-463,357	-37,957	-0,181	-0,069
-462,343	83,476	0,051	-0,040
-461,328	-97,517	-0,056	0,010
-460,313	800,000	-0,036	0,084
-459,299	-200,000	0,000	0,070
-458,284	197,850	0,073	-0,081
-457,270	787,464	-0,051	0,102
-456,255	-45,719	-0,117	0,042
-455,241	452,026	0,067	0,107
-454,226	-200,000	0,005	0,046
-453,211	-50,830	0,027	0,009
-452,197	-200,000	-0,001	-0,017
-451,182	-35,880	0,057	0,022
-450,168	251,435	0,054	-0,066
-449,153	19,781	-0,132	-0,077
-448,138	-200,000	-0,033	-0,130
-447,124	-200,000	0,046	-0,181
-446,109	-200,000	0,007	-0,033
-445,095	580,423	0,038	0,067
-444,080	130,046	0,075	0,069
-443,065	-200,000	0,001	0,085
-442,051	-200,000	-0,019	0,078
-441,036	34,528	0,018	-0,011
-440,022	-114,222	-0,079	-0,011
-439,007	265,005	-0,022	0,027
-437,992	800,000	-0,010	-0,030
-436,978	15,325	0,027	-0,016
-435,963	28,478	0,075	0,046
-434,949	-94,332	-0,164	-0,032
-433,934	-13,857	-0,146	0,068
-432,919	538,243	-0,048	0,082
-431,905	20,481	0,053	0,031
-430,890	37,175	-0,055	-0,035
-429,876	438,657	0,111	-0,176
-428,861	29,028	0,074	0,045
-427,846	-200,000	0,012	-0,201
-426,832	-200,000	0,001	0,038
-425,817	575,453	0,061	0,108
-424,803	111,529	0,059	0,051
-423,788	174,120	-0,103	0,108
-422,773	58,310	-0,060	-0,043
-421,759	131,115	0,152	0,141
-420,744	262,123	-0,075	-0,094
-419,730	12,306	-0,052	-0,029
-418,715	-200,000	-0,000	-0,072
-417,701	-105,684	-0,040	0,007
-416,686	-44,160	-0,051	0,018
-415,671	159,721	0,047	-0,048
-414,657	-0,393	-0,075	0,039
-413,642	-107,540	-0,047	-0,007
-412,628	-200,000	0,023	-0,116
-411,613	85,331	-0,082	-0,065
-410,598	148,001	-0,085	0,083
-409,584	-48,870	0,186	-0,064
-408,569	341,916	-0,049	0,070
-407,555	343,718	0,094	0,133
-406,540	800,000	-0,028	0,076
-405,525	461,296	-0,076	-0,123
-404,511	96,760	-0,024	-0,020
-403,496	11,348	-0,105	0,058
-402,482	-200,000	-0,011	-0,099
-401,467	104,466	0,103	-0,088
-400,452	-20,044	0,140	0,062
-399,438	-98,024	-0,015	0,003
-398,423	-20,586	-0,118	0,052
-397,409	-200,000	-0,033	-0,131
-396,394	-200,000	0,006	-0,023
-395,379	-118,785	-0,101	0,013
-394,365	385,359	0,053	-0,079
-393,350	320,043	0,087	0,120
-392,336	-48,135	-0,141	-0,049
-391,321	800,000	0,033	-0,069
-390,306	6,994	-0,085	0,045
-389,292	11,838	-0,091	-0,050
-388,277	-200,000	0,013	-0,074
-387,263	800,000	-0,043	0,092
-386,248	-70,554	0,134	0,037
-385,233	121,502	-0,023	0,021
-384,219	447,589	-0,025	-0,040
-383,204	800,000	-0,032	-0,090
-382,190	320,510	-0,061	-0,084
-381,175	198,318	-0,089	-0,098
-380,160	-118,637	0,091	0,011
-379,146	266,232	0,019	0,025
-378,131	297,283	0,095	0,127
-377,117	-59,641	-0,139	-0,043
-376,102	-91,997	-0,085	-0,017
-375,088	12,001	0,092	-0,051
-374,073	800,000	-0,038	0,112
-373,058	-200,000	0,004	-0,023
-372,044	58,941	0,080	0,057
-371,029	-200,000	-0,040	0,197
-370,015	-84,972	0,071	-0,016
-369,000	-200,000	0,000	-0,150
-367,985	72,813	-0,135	-0,101
-366,971	800,000	-0,021	0,047
-365,956	800,000	0,031	-0,078
-364,942	-71,225	0,079	0,021
-363,927	152,238	0,023	0,023
-362,912	800,000	-0,043	-0,095
-361,898	-2,327	0,115	-0,058
-360,883	208,970	0,091	-0,103
-359,869	-200,000	0,025	-0,095
-358,854	259,316	-0,135	0,168
-357,839	-200,000	0,001	-0,071
-356,825	98,837	0,135	-0,113
-355,810	-72,312	0,052	-0,014
-354,796	430,643	-0,017	-0,027
-353,781	385,527	0,085	-0,127
-352,766	-200,000	-0,016	0,118
-351,752	-32,861	0,045	0,018
-350,737	-77,814	0,155	-0,038
-349,723	-200,000	-0,010	0,060
-348,708	555,909	0,075	-0,131
-347,693	163,492	0,090	0,091
-346,679	268,763	-0,049	-0,062
-345,664	800,000	0,068	-0,172
-344,650	800,000	0,015	-0,044
-343,635	6,329	0,014	0,008
-342,620	-200,000	0,023	0,110
-341,606	-35,661	0,084	0,033
-340,591	176,188	-0,110	-0,115
-339,577	-200,000	0,002	0,029
-338,562	86,652	-0,063	-0,050
-337,548	63,624	-0,080	0,058
-336,533	-200,000	0,020	0,091
-335,518	-200,000	0,004	-0,044
-334,504	82,349	0,101	0,079
-333,489	800,000	-0,029	-0,079
-332,475	-94,274	-0,130	-0,025
-331,460	800,000	-0,037	-0,105
-330,445	-122,429	-0,074	0,009
-329,431	162,739	0,143	0,144
-328,416	263,453	0,072	0,091
-327,402	31,823	-0,039	-0,024
-326,387	800,000	0,027	-0,062
-325,372	-200,000	-0,023	-0,085
-324,358	19,735	0,086	-0,050
-323,343	-200,000	-0,025	0,082
-322,329	-110,711	-0,015	0,002
-321,314	-111,517	0,145	-0,021
-320,299	-200,000	-0,004	0,012
-319,285	48,116	-0,019	0,013
-318,270	166,871	0,164	0,168
-317,256	-200,000	0,011	0,060
-316,241	37,048	0,089	-0,056
-315,226	-35,476	0,062	0,024
-314,212	629,971	0,063	0,115
-313,197	-129,723	-0,178	0,017
-312,183	181,557	0,082	-0,087
-311,168	-200,000	-0,023	0,128
-310,153	-37,196	-0,140	-0,054
-309,139	-200,000	-0,002	0,019
-308,124	-122,120	0,115	-0,013
-307,110	-118,763	0,146	0,018
-306,095	800,000	0,025	0,059
-305,080	-200,000	-0,008	-0,036
-304,066	-45,500	0,087	0,031
-303,051	-34,291	-0,097	0,038
-302,037	-85,245	-0,031	-0,007
-301,022	-148,406	0,039	0,002
-300,008	-200,000	-0,026	-0,109
-298,993	-106,887	0,123	0,019
-297,978	800,000	-0,019	-0,053
-296,964	-200,000	0,002	-0,091
-295,949	90,734	0,036	-0,029
-294,935	6,671	-0,094	-0,050
-293,920	800,000	0,040	0,121
-292,905	-87,238	-0,204	0,044
-291,891	738,238	-0,050	-0,097
-290,876	-200,000	-0,016	0,093
-289,862	385,333	-0,026	-0,039
-288,847	367,898	0,101	0,148
-287,832	7,278	-0,045	-0,024
-286,818	169,329	0,072	0,074
-285,803	121,065	0,100	0,090
-284,789	327,692	0,099	0,137
-283,774	-200,000	0,010	0,052
-282,759	355,814	-0,047	0,067
-281,745	47,572	-0,045	0,030
-280,730	187,011	0,060	-0,064
-279,716	-189,358	0,138	-0,001
-278,701	-54,320	0,074	0,024
-277,686	494,190	0,065	0,108
-276,672	-200,000	-0,024	0,083
-275,657	152,579	-0,030	0,029
-274,643	-200,000	-0,066	0,000
-273,628	-109,859	-0,103	-0,015
-272,613	-127,684	0,034	0,003
-271,599	800,000	-0,034	-0,071
-270,584	-200,000	0,014	0,078
-269,570	-200,000	0,020	0,075
-268,555	414,506	-0,056	0,087
-267,540	800,000	-0,005	0,014
-266,526	184,890	-0,103	-0,110
-265,511	-108,802	0,081	-0,012
-264,497	-75,361	-0,050	0,013
-263,482	-200,000	0,019	0,120
-262,467	50,188	-0,045	0,031
-261,453	800,000	0,024	-0,075
-260,438	19,991	-0,147	-0,085
-259,424	100,620	-0,083	-0,070
-258,409	-200,000	0,014	-0,118
-257,395	509,750	0,022	0,036
-256,380	-87,688	0,099	-0,021
-255,365	456,856	0,073	0,117
-254,351	-130,634	-0,048	0,005
-253,336	-150,423	-0,102	-0,006
-252,322	-200,000	-0,032	-0,126
-251,307	-40,144	-0,122	0,045
-250,292	-200,000	0,020	-0,145
-249,278	38,532	0,073	0,046
-248,263	17,420	-0,109	0,062
-247,249	226,443	0,047	0,054
-246,234	197,338	-0,022	-0,024
-245,219	263,556	-0,054	0,067
-244,205	-200,000	-0,006	-0,052
-243,190	-200,000	0,013	-0,077
-242,176	-200,000	-0,002	0,073
-241,161	800,000	-0,029	-0,080
-240,146	-158,302	0,076	0,003
-239,132	-200,000	0,016	0,059
-238,117	-200,000	-0,002	-0,018
-237,103	794,138	-0,064	-0,126
-236,088	-200,000	0,031	0,126
-235,073	-151,975	-0,053	-0,003
-234,059	729,017	0,080	0,155
-233,044	288,668	0,031	0,041
-232,030	-95,718	-0,127	-0,024
-231,015	581,611	-0,030	-0,053
-230,000	106,120	-0,066	-0,056
-228,986	259,295	-0,008	0,010
-227,971	669,233	-0,032	0,060
-226,957	329,105	0,032	0,044
-225,942	-149,407	0,094	-0,005
-224,927	95,874	-0,157	-0,129
-223,913	-200,000	-0,039	-0,172
-222,898	24,092	-0,046	0,027
-221,884	-142,338	-0,125	-0,009
-220,869	-200,000	0,025	-0,144
-219,855	47,239	0,082	-0,055
-218,840	800,000	0,014	-0,036
-217,825	-200,000	-0,008	-0,052
-216,811	209,933	0,077	-0,086
-215,796	-45,037	-0,110	-0,039
-214,782	-155,805	0,061	0,003
-213,767	-200,000	0,000	-0,034
-212,752	576,589	0,033	-0,058
-211,738	800,000	-0,018	0,048
-210,723	-18,969	-0,158	0,070
-209,709	800,000	-0,031	-0,067
-208,694	161,112	-0,157	-0,157
-207,679	-200,000	-0,011	-0,064
-206,665	800,000	-0,011	-0,030
-205,650	185,588	0,069	0,074
-204,636	489,062	-0,060	0,099
-203,621	-106,645	0,074	-0,012
-202,606	800,000	-0,009	0,024
-201,592	92,768	0,028	-0,023
-200,577	-200,000	-0,026	-0,104
-199,563	-200,000	-0,006	0,131
-198,548	-110,574	-0,058	0,008
-197,533	84,058	0,046	0,036
-196,519	-119,142	-0,050	0,006
-195,504	196,914	-0,077	-0,085
-194,490	119,415	-0,131	-0,116
-193,475	-200,000	-0,020	0,104
-192,460	423,964	-0,101	-0,157
-191,446	-200,000	0,015	0,138
-190,431	26,246	-0,062	0,037
-189,417	800,000	-0,012	0,026
-188,402	115,599	0,107	0,094
-187,387	608,156	-0,078	-0,139
-186,373	800,000	0,025	0,064
-185,358	-200,000	0,030	-0,108
-184,344	403,810	-0,026	0,039
-183,329	28,917	-0,024	-0,014
-182,315	-111,418	0,152	0,022
-181,300	-8,372	0,088	0,042
-180,285	122,200	0,043	-0,038
-179,271	-54,787	0,124	0,040
-178,256	-60,734	-0,036	-0,011
-177,242	-200,000	0,039	-0,215
-176,227	317,125	0,089	-0,121
-175,212	-6,665	-0,035	-0,017
-174,198	-200,000	0,008	0,090
-173,183	163,313	-0,066	-0,067
-172,169	-200,000	0,033	-0,152
-171,154	17,470	0,091	0,052
-170,139	66,746	0,102	0,075
-169,125	380,301	0,083	-0,122
-168,110	47,292	-0,045	-0,030
-167,096	8,667	0,055	-0,030
-166,081	21,941	-0,053	0,031
-165,066	272,694	0,027	0,035
-164,052	218,770	-0,096	0,110
-163,037	76,234	0,096	0,073
-162,023	-200,000	-0,008	0,033
-161,008	538,778	0,059	0,100
-159,993	-200,000	0,007	-0,054
-158,979	141,499	-0,090	0,086
-157,964	-163,661	0,054	-0,002
-156,950	-200,000	-0,000	-0,036
-155,935	-179,877	0,119	0,002
-154,920	126,641	0,052	-0,048
-153,906	66,208	0,050	0,036
-152,891	183,036	-0,022	-0,024
-151,877	800,000	0,002	-0,006
-150,862	594,473	-0,070	-0,125
-149,847	177,098	-0,051	0,053
-148,833	-39,797	0,047	-0,017
-147,818	800,000	0,023	-0,054
-146,804	343,011	0,072	0,101
-145,789	-200,000	0,001	-0,006
-144,775	800,000	0,021	0,044
-143,760	-200,000	0,002	-0,103
-142,745	-89,638	-0,078	0,016
-141,731	-57,608	0,059	0,019
-140,716	248,881	0,038	0,046
-139,702	-200,000	-0,018	0,173
-138,687	800,000	-0,039	0,090
-137,672	800,000	-0,038	-0,083
-136,658	-200,000	0,030	-0,128
-135,643	172,546	-0,047	0,048
-134,629	800,000	-0,041	-0,087
-133,614	236,067	0,084	0,100
-132,599	800,000	0,010	0,025
-131,585	98,841	0,062	-0,051
-130,570	-200,000	0,041	0,213
-129,556	-200,000	-0,028	-0,096
-128,541	51,986	0,057	-0,039
-127,526	-200,000	0,013	-0,066
-126,512	223,779	-0,089	-0,103
-125,497	87,738	-0,078	0,061
-124,483	-102,994	0,097	0,016
-123,468	-158,638	0,023	-0,001
-122,453	67,701	-0,022	0,016
-121,439	241,908	-0,084	-0,101
-120,424	65,884	-0,036	-0,026
-119,410	-145,300	0,059	0,004
