DTS Sentinel unit serial number:	SN410029Multiplexer serial number:	ORYXHardware model number:	OX2-SRSoftware version number:	ORYX F/W v4,00 Oryx Data Collector v3.7.2.0data status	okinstallation	B3 Nyhavnadifferential loss correction	single-endedforward channel	channel 1reverse channel	N/Adate	2023/11/28time	11:32:31forward acquisition time	300,00reverse acquisition time	0,00gamma	499,1914k internal	0,3151k external	0,3151temperature offset calibration	1,0000default loss term (dB/km)	0,3820temperature slope calibration	1,0000multiplexer offset coefficient	1,0000multiplexer slope coefficient	1,0000fibre end	0,00T internal ref (°C)	9,15T ext. ref 1 (°C)	-7,62T ext. ref 2 (°C)	-7,83length (m)	temperature (°C)	Stokes	anti-Stokes-744,400	800,000	-0,151	-0,369
-743,385	-200,000	0,036	0,218
-742,371	93,454	-0,141	-0,118
-741,356	-200,000	0,033	0,342
-740,342	800,000	-0,118	-0,380
-739,327	800,000	0,104	0,263
-738,312	217,413	-0,191	-0,225
-737,298	-200,000	0,001	0,229
-736,283	11,196	-0,330	-0,186
-735,269	-200,000	0,081	0,296
-734,254	311,815	-0,125	-0,174
-733,239	83,705	-0,162	0,130
-732,225	38,394	-0,189	-0,124
-731,210	185,745	0,137	0,151
-730,196	241,051	-0,090	-0,111
-729,181	596,631	-0,031	0,058
-728,167	-200,000	0,005	0,047
-727,152	230,936	0,067	-0,081
-726,137	-51,176	-0,110	0,038
-725,123	-36,404	-0,067	0,026
-724,108	-200,000	0,010	-0,108
-723,094	227,998	0,073	-0,088
-722,079	166,974	-0,072	0,075
-721,064	-200,000	-0,005	0,068
-720,050	-128,428	0,017	0,002
-719,035	86,135	-0,116	0,095
-718,021	199,289	-0,053	-0,060
-717,006	300,849	-0,114	-0,156
-715,991	800,000	0,022	-0,068
-714,977	-200,000	-0,005	-0,021
-713,962	-200,000	0,040	0,189
-712,948	-200,000	0,016	-0,094
-711,933	-134,291	0,047	-0,004
-710,918	-200,000	-0,009	-0,050
-709,904	48,994	0,028	-0,019
-708,889	800,000	0,018	-0,049
-707,875	-200,000	-0,004	-0,087
-706,860	800,000	0,032	-0,076
-705,845	477,044	-0,035	-0,059
-704,831	-200,000	-0,011	0,075
-703,816	132,155	0,055	-0,052
-702,802	-200,000	-0,027	-0,107
-701,787	151,452	0,161	-0,162
-700,772	184,102	-0,004	-0,004
-699,758	102,383	0,091	0,079
-698,743	-130,613	0,129	-0,013
-697,729	28,476	0,111	0,069
-696,714	800,000	0,079	0,202
-695,699	-57,091	0,016	0,005
-694,685	36,760	0,130	-0,085
-693,670	149,356	0,137	-0,137
-692,656	-104,468	0,144	0,024
-691,641	-200,000	-0,016	0,084
-690,627	-128,867	0,184	0,019
-689,612	223,453	0,043	-0,052
-688,597	26,458	0,009	-0,005
-687,583	150,714	-0,204	-0,204
-686,568	-18,573	-0,083	-0,038
-685,554	-84,357	-0,092	0,021
-684,539	68,665	0,100	0,075
-683,524	114,399	0,056	0,050
-682,510	-103,179	0,071	0,012
-681,495	-65,984	-0,049	0,014
-680,481	-47,792	-0,058	0,021
-679,466	87,184	0,039	-0,032
-678,451	-200,000	0,002	-0,101
-677,437	-174,163	-0,205	-0,004
-676,422	222,780	0,076	0,091
-675,408	671,417	-0,051	0,098
-674,393	-24,042	-0,097	0,042
-673,378	-200,000	-0,007	-0,065
-672,364	-200,000	0,000	-0,050
-671,349	109,374	-0,020	0,018
-670,335	-200,000	-0,019	-0,123
-669,320	800,000	-0,032	-0,066
-668,305	232,229	0,103	-0,124
-667,291	100,388	-0,051	-0,044
-666,276	-192,422	-0,046	-0,000
-665,262	774,631	0,033	0,067
-664,247	315,086	-0,078	0,108
-663,232	-200,000	0,010	-0,069
-662,218	-42,912	0,012	0,004
-661,203	-102,410	0,040	-0,007
-660,189	800,000	-0,029	0,062
-659,174	-170,077	-0,050	-0,001
-658,159	-200,000	0,012	-0,132
-657,145	-200,000	-0,023	-0,157
-656,130	-70,051	-0,041	0,011
-655,116	-130,360	0,102	0,010
-654,101	800,000	0,038	-0,089
-653,086	131,562	0,043	-0,041
-652,072	50,427	0,019	0,013
-651,057	-119,808	-0,049	0,006
-650,043	503,366	-0,112	-0,191
-649,028	31,086	-0,038	-0,024
-648,014	800,000	-0,013	-0,039
-646,999	-76,734	0,029	-0,007
-645,984	-200,000	0,001	-0,050
-644,970	140,260	0,062	-0,060
-643,955	11,411	0,013	-0,007
-642,941	-19,256	-0,112	-0,051
-641,926	124,353	0,004	-0,004
-640,911	215,165	-0,041	-0,048
-639,897	-146,694	0,121	0,008
-638,882	-200,000	-0,024	0,100
-637,868	-200,000	-0,001	0,068
-636,853	800,000	0,038	-0,093
-635,838	503,122	0,045	-0,077
-634,824	308,963	-0,059	-0,081
-633,809	800,000	0,031	0,089
-632,795	-200,000	0,014	0,114
-631,780	-200,000	0,039	0,151
-630,765	800,000	0,027	0,082
-629,751	800,000	-0,077	-0,206
-628,736	-83,062	-0,206	0,048
-627,722	-200,000	0,025	0,113
-626,707	196,516	0,023	0,026
-625,692	-156,420	0,131	-0,006
-624,678	-63,776	0,177	-0,053
-623,663	-40,379	0,060	-0,023
-622,649	80,487	-0,073	-0,057
-621,634	-200,000	0,004	-0,129
-620,619	-48,767	0,074	-0,026
-619,605	800,000	-0,005	0,013
-618,590	455,325	-0,034	-0,056
-617,576	-130,887	0,127	-0,012
-616,561	-200,000	-0,009	0,204
-615,546	-75,395	-0,167	0,043
-614,532	41,601	0,116	-0,077
-613,517	800,000	0,047	-0,117
-612,503	393,359	0,030	0,046
-611,488	378,056	-0,045	-0,067
-610,474	438,938	-0,003	0,004
-609,459	-200,000	-0,019	-0,086
-608,444	-192,502	-0,160	-0,001
-607,430	-200,000	0,010	-0,120
-606,415	800,000	-0,024	0,050
-605,401	431,332	0,044	-0,071
-604,386	-21,783	-0,074	0,033
-603,371	-19,860	-0,063	-0,028
-602,357	-31,396	0,028	-0,012
-601,342	-200,000	-0,001	-0,094
-600,328	-104,535	-0,161	-0,027
-599,313	800,000	0,029	0,063
-598,298	800,000	-0,028	-0,059
-597,284	173,222	0,036	-0,038
-596,269	87,568	0,081	0,066
-595,255	-16,953	-0,137	-0,063
-594,240	800,000	-0,030	-0,074
-593,225	-5,503	-0,045	0,023
-592,211	-170,536	-0,103	-0,003
-591,196	-102,714	-0,168	0,029
-590,182	-200,000	-0,008	0,068
-589,167	270,925	-0,054	-0,070
-588,152	340,194	0,048	-0,070
-587,138	-92,507	-0,204	-0,042
-586,123	-200,000	-0,018	-0,094
-585,109	800,000	-0,065	-0,182
-584,094	800,000	-0,021	-0,047
-583,079	104,750	-0,042	0,036
-582,065	300,756	0,073	-0,100
-581,050	6,543	0,044	0,024
-580,036	-86,431	0,107	0,024
-579,021	-14,211	-0,077	-0,036
-578,006	-200,000	0,008	-0,059
-576,992	-200,000	-0,013	-0,087
-575,977	76,761	-0,048	-0,038
-574,963	-65,807	0,108	0,032
-573,948	-43,670	-0,093	0,034
-572,934	538,850	0,045	0,078
-571,919	-123,068	0,039	0,005
-570,904	-1,891	-0,056	0,029
-569,890	210,229	0,059	-0,068
-568,875	-200,000	0,007	-0,065
-567,861	-119,420	0,085	0,011
-566,846	398,040	-0,056	0,086
-565,831	-14,858	-0,086	-0,040
-564,817	27,294	-0,048	0,030
-563,802	-200,000	-0,013	-0,072
-562,788	17,483	-0,065	-0,038
-561,773	82,680	-0,074	0,059
-560,758	545,269	-0,035	0,061
-559,744	399,466	-0,074	0,114
-558,729	800,000	0,037	-0,090
-557,715	-129,074	-0,210	-0,021
-556,700	245,534	-0,036	0,044
-555,685	308,180	-0,028	-0,038
-554,671	800,000	0,001	0,001
-553,656	-86,079	0,022	0,005
-552,642	-194,753	-0,061	0,000
-551,627	-41,601	-0,057	-0,021
-550,612	-200,000	0,029	-0,222
-549,598	-200,000	-0,001	0,084
-548,583	-200,000	-0,001	0,072
-547,569	800,000	-0,040	0,108
-546,554	-200,000	-0,007	0,034
-545,539	800,000	0,011	0,034
-544,525	-96,580	-0,084	0,016
-543,510	-48,728	-0,061	0,022
-542,496	-52,688	-0,266	-0,090
-541,481	0,471	-0,160	-0,084
-540,466	-197,437	0,077	0,000
-539,452	-120,161	0,077	-0,009
-538,437	-52,075	0,141	0,048
-537,423	334,194	-0,092	-0,131
-536,408	-200,000	-0,019	0,131
-535,393	178,756	0,019	-0,021
-534,379	207,710	0,039	-0,045
-533,364	-200,000	-0,041	-0,165
-532,350	800,000	-0,012	-0,028
-531,335	347,556	0,073	0,106
-530,321	-200,000	-0,034	0,172
-529,306	-200,000	-0,003	-0,054
-528,291	-200,000	-0,017	0,077
-527,277	-135,390	-0,069	0,006
-526,262	471,919	-0,099	-0,164
-525,248	-200,000	-0,003	0,034
-524,233	800,000	0,030	-0,062
-523,218	-86,023	0,153	0,034
-522,204	115,137	-0,046	-0,042
-521,189	-200,000	0,012	-0,147
-520,175	-200,000	-0,016	-0,107
-519,160	315,706	0,042	-0,058
-518,145	-125,445	-0,121	-0,013
-517,131	-6,091	0,077	0,038
-516,116	722,143	0,043	-0,083
-515,102	439,035	-0,050	-0,080
-514,087	-113,180	-0,122	0,017
-513,072	61,879	-0,068	-0,049
-512,058	800,000	-0,033	-0,091
-511,043	111,289	-0,017	-0,015
-510,029	45,390	0,061	0,041
-509,014	-20,906	0,063	0,028
-507,999	-64,426	-0,022	-0,006
-506,985	247,900	-0,080	-0,099
-505,970	-200,000	0,013	-0,184
-504,956	800,000	-0,018	-0,049
-503,941	-81,323	-0,071	0,017
-502,926	-200,000	0,030	-0,205
-501,912	233,268	-0,046	0,055
-500,897	39,170	0,054	0,035
-499,883	-81,758	0,204	-0,049
-498,868	83,804	0,068	-0,054
-497,853	194,970	0,038	0,042
-496,839	4,846	0,091	-0,049
-495,824	176,802	0,045	0,048
-494,810	446,378	0,080	0,129
-493,795	25,772	0,053	-0,032
-492,781	-143,473	-0,127	0,009
-491,766	53,117	0,020	0,014
-490,751	800,000	-0,030	-0,078
-489,737	-154,898	0,107	0,005
-488,722	-200,000	-0,004	0,024
-487,708	-200,000	-0,020	0,173
-486,693	-178,728	0,210	-0,003
-485,678	-200,000	-0,019	0,141
-484,664	246,522	-0,083	-0,102
-483,649	-106,377	-0,054	0,009
-482,635	144,459	0,014	0,013
-481,620	161,615	0,024	0,025
-480,605	301,693	-0,068	0,092
-479,591	188,587	0,098	0,107
-478,576	800,000	-0,008	-0,024
-477,562	118,384	0,003	-0,003
-476,547	114,822	0,043	-0,038
-475,532	472,112	0,039	0,065
-474,518	554,722	-0,041	0,072
-473,503	135,958	0,091	-0,087
-472,489	509,003	-0,041	0,070
-471,474	20,823	0,106	0,063
-470,459	699,359	-0,025	0,048
-469,445	-19,524	-0,015	-0,007
-468,430	92,467	-0,121	0,099
-467,416	8,696	0,174	0,096
-466,401	800,000	-0,092	0,208
-465,386	103,865	-0,106	0,091
-464,372	16,685	-0,104	-0,060
-463,357	233,036	0,038	-0,045
-462,343	-200,000	-0,015	-0,138
-461,328	800,000	0,062	-0,165
-460,313	133,387	-0,049	-0,047
-459,299	578,630	-0,088	-0,157
-458,284	35,961	0,053	-0,034
-457,270	101,773	-0,037	-0,031
-456,255	471,582	-0,104	-0,171
-455,241	-200,000	0,013	-0,078
-454,226	42,636	0,177	-0,118
-453,211	800,000	-0,019	-0,055
-452,197	-63,896	-0,015	-0,005
-451,182	800,000	0,006	0,014
-450,168	-200,000	-0,006	0,160
-449,153	-193,576	0,121	-0,001
-448,138	-39,063	-0,145	0,056
-447,124	382,845	0,095	-0,143
-446,109	84,558	0,078	0,063
-445,095	58,420	-0,078	0,056
-444,080	50,969	0,092	-0,063
-443,065	94,814	0,062	0,052
-442,051	-200,000	-0,011	0,162
-441,036	334,552	-0,020	0,028
-440,022	-200,000	0,061	-0,210
-439,007	-185,647	-0,163	0,002
-437,992	-135,340	0,141	0,012
-436,978	-83,857	0,104	0,024
-435,963	27,054	-0,052	0,032
-434,949	-30,665	0,130	0,053
-433,934	43,786	-0,040	0,027
-432,919	800,000	0,017	0,045
-431,905	800,000	-0,010	0,026
-430,890	-77,001	0,062	-0,016
-429,876	77,199	0,098	0,076
-428,861	-50,651	0,058	0,020
-427,846	63,296	0,075	0,055
-426,832	-200,000	0,015	0,066
-425,817	74,464	-0,040	-0,031
-424,803	800,000	0,048	-0,149
-423,788	-200,000	-0,033	0,167
-422,773	800,000	-0,032	0,089
-421,759	-95,704	0,124	0,024
-420,744	305,438	0,062	-0,084
-419,730	12,151	-0,157	0,088
-418,715	-200,000	0,039	-0,164
-417,701	333,246	-0,018	-0,025
-416,686	-162,157	0,120	-0,004
-415,671	800,000	-0,057	0,118
-414,657	-151,679	0,033	0,002
-413,642	94,561	0,047	0,039
-412,628	109,677	-0,144	0,126
-411,613	-70,638	0,020	-0,005
-410,598	529,661	0,011	-0,018
-409,584	112,502	0,034	0,030
-408,569	3,330	-0,204	0,108
-407,555	16,319	0,137	-0,079
-406,540	-119,216	0,122	0,015
-405,525	-200,000	-0,021	0,078
-404,511	5,216	-0,088	0,047
-403,496	588,525	0,027	-0,049
-402,482	800,000	-0,005	0,015
-401,467	66,573	0,206	-0,153
-400,452	9,371	-0,085	-0,047
-399,438	21,637	0,100	0,059
-398,423	-200,000	0,019	0,084
-397,409	107,302	0,020	-0,018
-396,394	-93,259	-0,205	0,041
-395,379	800,000	0,002	-0,004
-394,365	800,000	-0,070	0,156
-393,350	-200,000	0,032	0,199
-392,336	800,000	0,062	0,141
-391,321	800,000	-0,038	-0,083
-390,306	-200,000	0,001	-0,130
-389,292	56,424	-0,225	-0,159
-388,277	-200,000	-0,010	-0,064
-387,263	800,000	-0,018	0,052
-386,248	800,000	-0,024	0,052
-385,233	199,302	-0,059	0,067
-384,219	169,802	-0,066	0,069
-383,204	649,560	0,015	0,029
-382,190	62,097	-0,095	-0,069
-381,175	-11,251	-0,051	0,024
-380,160	48,953	-0,147	-0,100
-379,146	-94,639	0,304	0,060
-378,131	-111,653	-0,064	0,009
-377,117	-56,030	0,093	-0,030
-376,102	392,740	-0,040	-0,061
-375,088	146,262	-0,129	-0,126
-374,073	127,890	0,039	0,036
-373,058	-200,000	-0,004	0,036
-372,044	800,000	-0,048	0,111
-371,029	-173,048	0,073	-0,002
-370,015	197,024	0,043	-0,047
-369,000	-200,000	0,001	-0,071
-367,985	133,498	0,184	-0,173
-366,971	-182,168	-0,147	0,002
-365,956	742,043	0,032	0,063
-364,942	259,401	-0,012	0,015
-363,927	-200,000	0,027	0,088
-362,912	-32,102	0,075	-0,030
-361,898	297,490	0,069	-0,092
-360,883	-200,000	0,019	-0,238
-359,869	-25,041	-0,152	-0,065
-358,854	-200,000	-0,012	0,103
-357,839	708,561	0,024	0,047
-356,825	-200,000	-0,026	-0,100
-355,810	514,593	0,080	0,136
-354,796	-200,000	-0,000	-0,028
-353,781	74,058	-0,028	-0,021
-352,766	-65,026	0,102	0,030
-351,752	-48,363	0,117	0,041
-350,737	565,671	0,031	0,055
-349,723	-44,304	0,161	0,058
-348,708	-11,150	0,073	0,035
-347,693	211,293	-0,053	-0,061
-346,679	-176,165	-0,105	0,002
-345,664	223,969	0,020	0,024
-344,650	-200,000	0,000	-0,096
-343,635	523,935	0,031	0,053
-342,620	171,609	0,114	-0,119
-341,606	571,253	-0,025	-0,044
-340,591	-51,887	-0,146	-0,049
-339,577	-200,000	0,007	-0,046
-338,562	-200,000	0,006	-0,032
-337,548	262,824	0,063	0,080
-336,533	10,975	-0,060	-0,033
-335,518	-200,000	-0,007	0,124
-334,504	-189,549	-0,064	-0,001
-333,489	-157,586	0,129	0,006
-332,475	-134,578	-0,015	0,001
-331,460	-200,000	0,026	-0,094
-330,445	-0,850	0,042	0,021
-329,431	348,602	-0,068	0,098
-328,416	492,834	0,082	0,137
-327,402	113,544	0,011	-0,010
-326,387	-134,844	-0,015	0,001
-325,372	621,158	-0,038	0,070
-324,358	66,885	0,014	0,010
-323,343	-200,000	-0,017	-0,076
-322,329	-200,000	-0,021	-0,098
-321,314	-149,533	0,086	-0,005
-320,299	233,923	-0,082	0,098
-319,285	13,454	-0,066	0,037
-318,270	23,427	0,024	0,014
-317,256	-3,981	-0,057	-0,029
-316,241	800,000	-0,055	-0,162
-315,226	-200,000	-0,010	0,044
-314,212	284,547	-0,051	-0,067
-313,197	800,000	-0,025	0,066
-312,183	76,857	-0,115	0,089
-311,168	235,686	-0,074	-0,089
-310,153	117,243	-0,175	-0,156
-309,139	-37,309	-0,110	0,043
-308,124	-170,170	-0,042	-0,001
-307,110	800,000	0,026	0,058
-306,095	800,000	0,031	0,084
-305,080	-108,641	-0,044	-0,007
-304,066	-200,000	-0,030	-0,147
-303,051	376,889	0,054	-0,081
-302,037	-8,339	-0,108	-0,052
-301,022	-81,017	0,135	0,032
-300,008	133,490	0,061	-0,057
-298,993	800,000	-0,008	0,025
-297,978	800,000	-0,033	0,091
-296,964	-200,000	0,018	0,072
-295,949	-89,702	0,024	-0,005
-294,935	-80,589	-0,064	0,015
-293,920	-200,000	-0,010	0,113
-292,905	-200,000	-0,012	0,110
-291,891	384,032	0,128	0,191
-290,876	510,605	0,061	-0,103
-289,862	262,821	-0,134	0,170
-288,847	-140,059	-0,131	0,010
-287,832	-200,000	-0,005	0,074
-286,818	275,310	0,108	0,140
-285,803	-64,365	0,038	0,011
-284,789	131,332	0,067	-0,063
-283,774	65,540	-0,016	-0,012
-282,759	642,410	-0,053	-0,098
-281,745	-200,000	-0,020	-0,119
-280,730	800,000	0,015	-0,034
-279,716	164,164	0,144	-0,147
-278,701	174,372	-0,060	0,063
-277,686	724,995	-0,052	0,102
-276,672	276,824	-0,032	0,041
-275,657	-200,000	-0,002	-0,026
-274,643	-118,341	-0,165	-0,021
-273,628	-164,230	0,079	-0,003
-272,613	-200,000	-0,024	-0,090
-271,599	-92,203	0,132	-0,027
-270,584	50,375	-0,056	0,038
-269,570	-200,000	-0,008	0,165
-268,555	-73,485	0,038	0,010
-267,540	557,243	0,026	0,046
-266,526	800,000	-0,006	0,018
-265,511	-200,000	-0,014	-0,102
-264,497	-200,000	-0,005	0,040
-263,482	14,913	0,156	0,088
-262,467	-35,128	0,087	0,034
-261,453	-38,676	-0,158	0,060
-260,438	397,108	0,074	-0,113
-259,424	322,918	-0,083	-0,114
-258,409	195,924	-0,129	-0,142
-257,395	-200,000	0,013	0,076
-256,380	83,205	0,033	-0,026
-255,365	473,258	0,036	0,059
-254,351	168,246	0,033	-0,035
-253,336	194,709	0,076	0,084
-252,322	-54,895	0,031	0,010
-251,307	25,039	-0,058	0,035
-250,292	480,306	-0,099	0,163
-249,278	190,660	0,027	-0,030
-248,263	86,796	0,080	0,064
-247,249	-200,000	-0,002	0,013
-246,234	-200,000	-0,002	-0,044
-245,219	10,535	0,022	0,012
-244,205	261,879	-0,062	-0,078
-243,190	-15,513	0,064	0,030
-242,176	239,015	-0,042	0,050
-241,161	-108,330	0,107	-0,017
-240,146	800,000	0,027	0,062
-239,132	347,914	-0,025	-0,036
-238,117	3,438	-0,109	0,057
-237,103	546,076	-0,018	-0,031
-236,088	137,449	0,093	0,088
-235,073	116,096	0,064	-0,057
-234,059	-153,162	-0,115	0,006
-233,044	-200,000	0,020	0,123
-232,030	757,291	0,062	0,121
-231,015	121,062	0,023	-0,021
-230,000	138,910	-0,071	-0,068
-228,986	-98,547	0,051	0,009
-227,971	800,000	0,027	0,085
-226,957	-200,000	0,018	0,132
-225,942	611,074	0,037	0,068
-224,927	-151,975	0,126	-0,007
-223,913	71,946	-0,147	0,111
-222,898	800,000	0,038	-0,106
-221,884	-78,077	0,051	0,013
-220,869	260,336	0,068	-0,086
-219,855	-103,205	0,152	0,026
-218,840	422,391	0,034	0,053
-217,825	-94,665	-0,058	0,011
-216,811	88,894	-0,113	0,091
-215,796	4,251	0,152	-0,080
-214,782	-63,670	-0,209	0,062
-213,767	-200,000	0,011	-0,163
-212,752	135,923	0,059	0,055
-211,738	-200,000	-0,024	0,088
-210,723	-130,466	0,075	0,007
-209,709	159,806	-0,068	-0,069
-208,694	-62,367	-0,016	0,005
-207,679	-39,865	-0,046	0,017
-206,665	101,656	-0,069	0,058
-205,650	-92,795	0,076	0,015
-204,636	-92,222	0,138	-0,028
-203,621	-200,000	0,011	0,056
-202,606	18,742	0,104	-0,060
-201,592	391,880	0,088	-0,133
-200,577	581,919	0,028	0,049
-199,563	65,244	-0,066	0,048
-198,548	-93,706	-0,065	-0,013
-197,533	101,185	0,086	0,073
-196,519	-130,977	-0,115	-0,011
-195,504	-200,000	0,046	-0,150
-194,490	131,753	0,111	-0,103
-193,475	151,361	-0,091	-0,090
-192,460	800,000	-0,014	-0,033
-191,446	440,515	-0,076	0,120
-190,431	800,000	0,063	0,199
-189,417	-200,000	0,008	0,047
-188,402	800,000	-0,037	0,095
-187,387	122,182	0,095	0,086
-186,373	385,567	-0,099	-0,148
-185,358	-7,313	0,133	0,065
-184,344	-200,000	0,011	0,057
-183,329	-87,132	-0,056	0,012
-182,315	154,270	0,101	0,100
-181,300	25,016	0,051	0,031
-180,285	-40,603	0,080	0,030
-179,271	-200,000	-0,029	-0,095
-178,256	-200,000	-0,013	0,069
-177,242	800,000	0,041	0,090
-176,227	128,859	-0,059	0,054
-175,212	-18,353	0,134	0,060
-174,198	276,224	-0,069	-0,089
-173,183	-200,000	-0,008	-0,097
-172,169	99,811	-0,050	-0,042
-171,154	81,842	0,092	-0,072
-170,139	162,797	0,063	-0,064
-169,125	-85,987	0,103	0,023
-168,110	-200,000	0,003	-0,050
-167,096	91,139	-0,043	0,035
-166,081	504,138	0,060	-0,101
-165,066	800,000	-0,075	-0,152
-164,052	-200,000	-0,006	0,069
-163,037	102,517	0,064	0,054
-162,023	-200,000	-0,003	0,176
-161,008	81,897	0,052	-0,041
-159,993	163,877	-0,024	-0,024
-158,979	-29,530	-0,066	-0,027
-157,964	-53,086	0,038	-0,012
-156,950	-200,000	0,003	-0,100
-155,935	-200,000	0,008	0,033
-154,920	-29,278	-0,070	0,029
-153,906	47,858	0,133	0,090
-152,891	-200,000	0,003	0,162
-151,877	800,000	0,034	0,080
-150,862	-200,000	-0,002	0,019
-149,847	-200,000	-0,030	-0,186
-148,833	446,949	-0,091	0,145
-147,818	-200,000	-0,004	0,031
-146,804	375,998	-0,042	0,062
-145,789	30,614	-0,069	-0,042
-144,775	-200,000	0,001	-0,097
-143,760	24,629	-0,219	-0,131
-142,745	-99,121	-0,132	-0,024
-141,731	721,491	0,067	0,129
-140,716	800,000	-0,021	0,047
-139,702	800,000	0,064	0,185
-138,687	-98,135	0,057	-0,010
-137,672	-3,509	-0,131	-0,066
-136,658	-200,000	-0,002	0,109
-135,643	-24,331	-0,105	0,045
-134,629	-200,000	-0,000	0,005
-133,614	616,364	0,071	0,129
-132,599	-200,000	-0,018	0,118
-131,585	-200,000	-0,002	0,052
-130,570	246,249	0,059	0,072
-129,556	800,000	0,033	0,067
-128,541	-30,094	-0,051	0,021
-127,526	-180,509	0,132	-0,002
-126,512	-31,691	0,103	-0,042
-125,497	-88,945	0,103	0,022
-124,483	9,270	-0,051	-0,028
-123,468	-23,912	-0,028	-0,012
-122,453	-200,000	-0,034	-0,212
-121,439	259,589	-0,057	-0,071
-120,424	-200,000	-0,013	-0,098
-119,410	-200,000	-0,005	-0,070
-118,395	683,426	0,087	0,164
