DTS Sentinel unit serial number:	SN410029Multiplexer serial number:	ORYXHardware model number:	OX2-SRSoftware version number:	ORYX F/W v4,00 Oryx Data Collector v3.7.2.0data status	okinstallation	B3 Nyhavnadifferential loss correction	single-endedforward channel	channel 1reverse channel	N/Adate	2023/11/28time	14:12:30forward acquisition time	300,00reverse acquisition time	0,00gamma	499,1914k internal	0,3142k external	0,3142temperature offset calibration	1,0000default loss term (dB/km)	0,3820temperature slope calibration	1,0000multiplexer offset coefficient	1,0000multiplexer slope coefficient	1,0000fibre end	0,00T internal ref (°C)	7,55T ext. ref 1 (°C)	-7,67T ext. ref 2 (°C)	-7,84length (m)	temperature (°C)	Stokes	anti-Stokes-744,400	800,000	-0,119	-0,286
-743,385	-200,000	-0,061	0,203
-742,371	161,399	-0,160	-0,165
-741,356	-200,000	0,053	0,373
-740,342	-140,565	-0,132	-0,010
-739,327	-200,000	0,015	0,281
-738,312	384,873	-0,298	-0,456
-737,298	800,000	-0,118	0,270
-736,283	284,440	-0,174	-0,233
-735,269	-200,000	-0,024	0,198
-734,254	426,111	-0,092	-0,147
-733,239	164,569	-0,145	0,151
-732,225	418,330	-0,157	-0,249
-731,210	-68,602	0,229	0,065
-730,196	5,936	-0,064	-0,035
-729,181	-94,875	-0,040	0,008
-728,167	-73,673	-0,104	0,028
-727,152	-44,182	-0,157	-0,058
-726,137	800,000	-0,027	0,067
-725,123	32,346	-0,067	0,043
-724,108	-200,000	-0,021	-0,132
-723,094	-200,000	0,023	-0,084
-722,079	800,000	-0,053	-0,135
-721,064	-200,000	0,017	-0,135
-720,050	715,106	-0,018	-0,035
-719,035	-200,000	-0,007	-0,079
-718,021	103,123	0,073	-0,064
-717,006	24,795	-0,061	0,037
-715,991	207,013	-0,031	-0,036
-714,977	-200,000	0,015	-0,181
-713,962	-45,283	-0,042	-0,015
-712,948	-200,000	0,007	0,041
-711,933	800,000	0,017	-0,053
-710,918	-200,000	-0,091	0,000
-709,904	-200,000	-0,012	0,060
-708,889	427,359	0,027	-0,044
-707,875	123,438	-0,117	-0,109
-706,860	138,563	0,061	-0,059
-705,845	10,711	-0,092	0,052
-704,831	369,286	0,111	0,166
-703,816	124,798	0,092	-0,086
-702,802	75,889	-0,071	-0,056
-701,787	286,547	0,079	-0,106
-700,772	7,539	-0,045	0,025
-699,758	48,282	-0,059	0,041
-698,743	-200,000	0,013	0,130
-697,729	2,525	0,124	0,066
-696,714	-8,232	-0,092	-0,046
-695,699	-200,000	-0,004	-0,055
-694,685	-25,138	-0,015	0,007
-693,670	-7,202	-0,152	-0,076
-692,656	99,751	0,098	0,084
-691,641	-200,000	-0,006	0,045
-690,627	-77,713	0,089	-0,023
-689,612	-176,839	-0,075	0,001
-688,597	-92,250	0,113	-0,023
-687,583	-100,984	-0,169	-0,030
-686,568	399,730	-0,052	0,080
-685,554	-90,504	-0,186	-0,039
-684,539	385,989	0,078	0,119
-683,524	800,000	-0,007	-0,014
-682,510	-28,375	-0,084	-0,035
-681,495	-38,418	0,078	-0,030
-680,481	-102,302	0,035	-0,006
-679,466	-12,592	0,075	0,036
-678,451	650,736	-0,032	-0,062
-677,437	800,000	-0,034	-0,099
-676,422	411,225	0,034	0,054
-675,408	-60,740	-0,049	-0,015
-674,393	47,399	0,154	-0,106
-673,378	41,213	-0,077	0,051
-672,364	-200,000	-0,010	0,047
-671,349	-93,666	0,052	-0,011
-670,335	38,766	-0,047	0,031
-669,320	-132,475	0,103	0,010
-668,305	-49,997	0,031	0,011
-667,291	75,781	0,064	0,050
-666,276	-39,941	0,090	0,034
-665,262	393,962	-0,060	-0,093
-664,247	-90,027	0,074	-0,016
-663,232	575,849	0,086	-0,156
-662,218	50,424	-0,099	0,069
-661,203	-200,000	0,029	0,138
-660,189	-200,000	-0,024	-0,128
-659,174	202,777	0,018	0,020
-658,159	380,431	-0,051	-0,078
-657,145	-131,748	-0,019	0,002
-656,130	80,819	0,108	0,086
-655,116	-150,342	0,022	-0,001
-654,101	116,577	0,106	0,096
-653,086	-200,000	0,002	0,019
-652,072	800,000	0,039	-0,102
-651,057	-108,250	-0,036	0,006
-650,043	-94,792	-0,073	0,014
-649,028	468,371	0,041	-0,068
-648,014	196,634	-0,036	-0,040
-646,999	28,997	0,044	0,027
-645,984	-25,271	0,196	-0,085
-644,970	49,916	-0,085	-0,059
-643,955	180,964	-0,084	-0,092
-642,941	-200,000	0,004	-0,148
-641,926	214,444	-0,058	-0,068
-640,911	283,912	-0,052	0,069
-639,897	-200,000	-0,020	0,080
-638,882	281,362	-0,028	-0,037
-637,868	-200,000	-0,029	0,162
-636,853	-200,000	0,025	-0,125
-635,838	-200,000	0,006	-0,032
-634,824	-13,738	0,097	-0,046
-633,809	800,000	0,030	0,067
-632,795	-144,390	0,120	0,008
-631,780	-98,446	-0,089	0,017
-630,765	158,856	-0,058	-0,060
-629,751	8,086	-0,192	0,106
-628,736	-200,000	0,005	-0,087
-627,722	-200,000	0,014	-0,149
-626,707	-200,000	0,003	0,064
-625,692	-114,018	-0,055	0,008
-624,678	-44,221	-0,084	0,031
-623,663	80,485	-0,052	0,041
-622,649	-104,764	-0,021	-0,004
-621,634	-55,217	-0,153	0,050
-620,619	326,909	-0,079	-0,112
-619,605	-105,691	0,065	-0,011
-618,590	121,216	0,150	0,138
-617,576	-177,335	-0,112	0,002
-616,561	76,756	-0,030	0,024
-615,546	-135,407	-0,053	-0,005
-614,532	800,000	0,057	-0,141
-613,517	-7,530	-0,030	0,015
-612,503	41,193	-0,109	0,073
-611,488	-9,221	0,200	-0,098
-610,474	295,980	-0,011	0,015
-609,459	-107,797	-0,067	-0,011
-608,444	81,167	-0,034	-0,027
-607,430	-200,000	-0,043	-0,219
-606,415	-200,000	-0,023	-0,103
-605,401	-200,000	-0,023	-0,077
-604,386	68,053	0,081	0,061
-603,371	379,243	-0,040	-0,060
-602,357	-5,944	0,087	0,044
-601,342	151,086	0,040	0,040
-600,328	136,873	-0,072	0,070
-599,313	-92,977	-0,098	-0,020
-598,298	487,419	-0,015	0,025
-597,284	-85,114	0,140	-0,032
-596,269	800,000	0,047	0,135
-595,255	529,968	0,068	0,120
-594,240	447,844	0,061	0,100
-593,225	-83,871	-0,173	0,040
-592,211	800,000	-0,023	-0,060
-591,196	31,914	-0,012	-0,007
-590,182	648,737	0,075	0,141
-589,167	-200,000	-0,010	0,074
-588,152	56,207	-0,056	-0,040
-587,138	377,441	0,123	-0,186
-586,123	172,636	-0,138	-0,146
-585,109	19,910	0,063	-0,037
-584,094	120,228	0,079	-0,073
-583,079	292,691	-0,068	0,091
-582,065	-200,000	-0,003	0,085
-581,050	-200,000	-0,019	-0,082
-580,036	800,000	0,044	0,106
-579,021	-67,280	-0,153	-0,044
-578,006	800,000	-0,024	-0,062
-576,992	-130,904	-0,061	-0,006
-575,977	-102,048	0,062	0,011
-574,963	111,975	-0,028	-0,025
-573,948	359,180	-0,056	0,082
-572,934	255,749	0,039	-0,050
-571,919	-39,965	0,055	0,021
-570,904	-28,641	-0,079	0,033
-569,890	156,536	0,056	-0,057
-568,875	800,000	0,024	-0,049
-567,861	-111,275	-0,060	-0,009
-566,846	-58,456	-0,067	-0,021
-565,831	55,789	0,077	0,055
-564,817	-113,043	-0,064	0,009
-563,802	-200,000	-0,008	-0,139
-562,788	17,376	0,021	-0,012
-561,773	-65,214	0,029	0,009
-560,758	97,338	-0,041	-0,035
-559,744	69,734	0,116	0,088
-558,729	327,122	-0,036	-0,050
-557,715	-200,000	0,013	-0,183
-556,700	-93,487	-0,130	0,026
-555,685	-69,032	-0,030	0,008
-554,671	-85,986	0,126	-0,028
-553,656	-111,500	-0,182	0,027
-552,642	-146,019	0,141	0,009
-551,627	-67,653	0,065	0,019
-550,612	800,000	0,049	-0,115
-549,598	39,846	-0,088	0,058
-548,583	800,000	-0,039	-0,127
-547,569	800,000	0,052	-0,118
-546,554	14,885	0,052	0,030
-545,539	364,747	0,056	0,083
-544,525	383,976	0,034	0,052
-543,510	-200,000	-0,003	-0,046
-542,496	88,776	-0,090	-0,074
-541,481	800,000	-0,035	-0,079
-540,466	-200,000	-0,016	-0,130
-539,452	-200,000	0,003	-0,035
-538,437	-101,376	0,048	-0,008
-537,423	64,083	0,104	0,077
-536,408	-154,837	-0,069	0,003
-535,393	-40,806	-0,049	0,019
-534,379	800,000	0,015	0,037
-533,364	339,715	-0,066	-0,094
-532,350	327,633	-0,074	-0,104
-531,335	492,959	-0,067	-0,114
-530,321	97,923	0,081	0,069
-529,306	800,000	-0,033	0,095
-528,291	-108,039	-0,034	0,005
-527,277	-132,411	-0,049	0,005
-526,262	-200,000	0,014	0,054
-525,248	116,131	0,052	0,046
-524,233	732,332	-0,033	0,065
-523,218	-62,730	0,008	-0,002
-522,204	-74,828	-0,033	-0,009
-521,189	-39,635	0,016	-0,006
-520,175	2,880	-0,108	0,058
-519,160	-106,775	-0,145	0,023
-518,145	-126,757	0,111	-0,012
-517,131	800,000	-0,016	0,048
-516,116	49,974	0,030	0,021
-515,102	456,333	0,068	0,111
-514,087	33,433	-0,136	-0,087
-513,072	506,675	-0,034	0,059
-512,058	-78,781	0,139	0,035
-511,043	-3,005	-0,069	0,035
-510,029	31,621	0,182	-0,114
-509,014	49,821	-0,024	0,016
-507,999	247,675	0,081	0,101
-506,985	221,061	0,026	0,031
-505,970	800,000	0,067	-0,213
-504,956	-78,465	0,165	0,041
-503,941	460,762	0,011	0,017
-502,926	-19,982	0,091	0,041
-501,912	-57,597	0,104	0,033
-500,897	247,206	-0,039	-0,048
-499,883	413,892	-0,033	0,052
-498,868	-160,246	-0,045	-0,002
-497,853	119,913	-0,004	-0,003
-496,839	533,208	0,091	0,158
-495,824	800,000	0,071	0,176
-494,810	640,410	0,034	0,064
-493,795	-86,768	-0,091	0,020
-492,781	-200,000	0,021	0,094
-491,766	495,624	-0,062	-0,106
-490,751	-200,000	0,007	-0,155
-489,737	-69,331	-0,131	-0,037
-488,722	-200,000	0,001	-0,053
-487,708	-200,000	-0,002	0,017
-486,693	99,155	-0,042	-0,035
-485,678	25,089	-0,084	0,051
-484,664	-200,000	-0,009	-0,054
-483,649	-200,000	0,008	-0,138
-482,635	-158,505	-0,042	-0,002
-481,620	-72,373	0,167	-0,045
-480,605	-200,000	-0,003	-0,093
-479,591	242,776	-0,061	-0,075
-478,576	-112,366	0,088	0,013
-477,562	245,699	-0,023	-0,029
-476,547	82,067	0,009	-0,007
-475,532	523,208	-0,023	-0,040
-474,518	-163,140	0,054	-0,002
-473,503	800,000	0,058	0,146
-472,489	800,000	-0,031	0,073
-471,474	-44,219	-0,062	-0,023
-470,459	800,000	0,045	0,135
-469,445	-72,305	-0,219	-0,059
-468,430	-200,000	0,021	-0,100
-467,416	212,314	0,108	-0,125
-466,401	-163,471	-0,143	-0,005
-465,386	695,707	-0,022	-0,043
-464,372	800,000	0,053	-0,126
-463,357	123,462	-0,051	0,047
-462,343	43,818	-0,090	-0,060
-461,328	800,000	-0,061	-0,174
-460,313	-102,381	0,177	0,031
-459,299	800,000	0,024	-0,062
-458,284	-77,541	-0,062	-0,016
-457,270	-177,751	-0,091	0,002
-456,255	-60,695	0,040	0,012
-455,241	-93,742	0,022	-0,004
-454,226	-200,000	0,010	-0,038
-453,211	292,226	-0,032	0,043
-452,197	-58,564	-0,061	0,019
-451,182	-200,000	-0,006	0,043
-450,168	237,797	0,091	-0,111
-449,153	129,667	0,102	0,096
-448,138	-115,937	0,080	-0,011
-447,124	-66,153	-0,058	0,017
-446,109	-198,347	0,035	-0,000
-445,095	-75,106	-0,093	-0,024
-444,080	30,290	0,060	0,037
-443,065	580,655	0,081	0,147
-442,051	161,107	0,094	0,097
-441,036	152,802	-0,137	-0,137
-440,022	-79,635	-0,061	-0,015
-439,007	229,774	0,042	-0,050
-437,992	-37,820	0,172	-0,067
-436,978	-100,024	-0,046	-0,008
-435,963	5,960	0,106	0,058
-434,949	19,765	-0,042	-0,025
-433,934	45,694	-0,062	-0,042
-432,919	511,403	0,037	-0,063
-431,905	197,182	-0,033	-0,037
-430,890	-64,779	-0,031	-0,009
-429,876	121,890	0,102	0,093
-428,861	366,226	0,079	-0,118
-427,846	735,556	0,064	-0,126
-426,832	-79,056	0,045	-0,011
-425,817	49,934	-0,170	-0,117
-424,803	638,089	0,007	-0,013
-423,788	31,881	-0,055	0,035
-422,773	-117,656	0,060	-0,008
-421,759	-200,000	-0,014	-0,079
-420,744	-200,000	0,012	0,119
-419,730	-58,737	-0,032	0,010
-418,715	20,071	-0,131	0,077
-417,701	-33,568	-0,049	-0,020
-416,686	-200,000	0,005	0,053
-415,671	784,420	0,019	0,039
-414,657	793,631	-0,030	0,060
-413,642	-200,000	0,026	0,099
-412,628	570,131	-0,052	-0,093
-411,613	-200,000	-0,006	-0,061
-410,598	-200,000	-0,022	0,220
-409,584	181,804	0,072	-0,077
-408,569	49,680	-0,104	0,071
-407,555	-44,531	0,153	0,056
-406,540	-200,000	-0,022	0,080
-405,525	138,405	-0,035	0,033
-404,511	372,662	-0,056	0,083
-403,496	-122,013	-0,091	0,011
-402,482	84,992	-0,045	-0,036
-401,467	124,426	0,051	0,047
-400,452	-200,000	-0,027	0,212
-399,438	263,298	0,082	0,104
-398,423	-134,343	0,095	0,008
-397,409	279,064	-0,044	-0,057
-396,394	129,370	0,101	-0,094
-395,379	-190,973	0,078	-0,001
-394,365	275,726	0,021	-0,028
-393,350	43,955	0,152	0,102
-392,336	-108,780	0,022	0,003
-391,321	-19,699	0,192	0,086
-390,306	-200,000	-0,046	-0,186
-389,292	355,762	-0,064	-0,093
-388,277	373,478	-0,041	-0,061
-387,263	199,960	0,099	-0,111
-386,248	94,059	0,070	-0,058
-385,233	257,373	0,057	0,072
-384,219	800,000	-0,028	0,062
-383,204	-200,000	-0,001	-0,125
-382,190	29,065	0,038	-0,024
-381,175	-200,000	-0,015	0,074
-380,160	59,557	0,111	-0,080
-379,146	-99,794	0,053	0,010
-378,131	-200,000	0,011	-0,058
-377,117	-99,990	0,116	-0,021
-376,102	-121,376	-0,107	0,013
-375,088	-53,097	-0,061	-0,020
-374,073	-200,000	-0,007	-0,046
-373,058	15,204	-0,052	-0,030
-372,044	-43,053	0,090	0,033
-371,029	558,925	-0,036	-0,064
-370,015	309,784	-0,076	0,104
-369,000	-200,000	-0,032	-0,131
-367,985	211,443	0,027	-0,031
-366,971	41,300	-0,099	0,065
-365,956	-62,741	-0,041	-0,012
-364,942	-75,166	-0,082	0,021
-363,927	84,248	0,144	0,115
-362,912	68,956	0,062	0,046
-361,898	-59,629	-0,073	-0,023
-360,883	83,053	-0,046	0,036
-359,869	510,240	0,042	-0,072
-358,854	604,138	0,077	-0,141
-357,839	-200,000	0,000	-0,021
-356,825	96,543	0,123	0,103
-355,810	30,858	0,133	0,083
-354,796	-78,284	-0,117	0,029
-353,781	-93,120	-0,127	0,026
-352,766	-14,219	-0,010	-0,005
-351,752	319,098	0,043	0,060
-350,737	-9,025	0,054	0,026
-349,723	-200,000	0,013	0,083
-348,708	46,682	-0,048	0,033
-347,693	120,313	-0,051	0,046
-346,679	-72,851	-0,069	0,018
-345,664	89,392	0,101	0,082
-344,650	800,000	0,039	-0,112
-343,635	-200,000	0,047	0,179
-342,620	15,515	0,100	0,057
-341,606	54,305	-0,110	0,077
-340,591	182,496	0,075	0,081
-339,577	-49,929	0,054	-0,019
-338,562	32,697	0,050	-0,032
-337,548	800,000	0,015	0,042
-336,533	-19,043	-0,065	0,029
-335,518	-118,380	0,031	-0,004
-334,504	-157,622	-0,095	0,004
-333,489	800,000	0,047	-0,116
-332,475	547,102	0,057	-0,100
-331,460	-200,000	0,003	-0,035
-330,445	800,000	0,036	-0,115
-329,431	-200,000	0,027	0,115
-328,416	-136,749	-0,120	-0,010
-327,402	800,000	0,012	-0,026
-326,387	800,000	-0,026	-0,053
-325,372	231,401	-0,085	-0,102
-324,358	-200,000	-0,007	-0,031
-323,343	-120,685	-0,096	0,012
-322,329	-128,091	-0,057	0,006
-321,314	-200,000	0,047	0,172
-320,299	183,229	0,029	-0,031
-319,285	-53,650	0,014	0,005
-318,270	-98,495	-0,058	0,011
-317,256	-100,896	-0,117	-0,021
-316,241	-85,781	0,108	0,024
-315,226	-180,654	0,041	0,001
-314,212	252,295	0,027	0,034
-313,197	-141,430	0,096	-0,007
-312,183	31,652	-0,068	0,043
-311,168	-200,000	-0,008	-0,128
-310,153	518,726	-0,027	-0,047
-309,139	800,000	-0,062	-0,159
-308,124	-78,621	-0,095	-0,023
-307,110	-186,738	0,179	0,002
-306,095	118,289	-0,078	0,070
-305,080	800,000	0,020	-0,051
-304,066	45,565	-0,067	-0,045
-303,051	140,648	0,060	-0,058
-302,037	23,893	-0,064	0,039
-301,022	113,903	0,087	0,077
-300,008	-34,922	0,105	0,042
-298,993	-200,000	0,004	0,098
-297,978	-84,865	-0,067	0,015
-296,964	390,492	0,021	0,031
-295,949	-2,562	-0,186	0,094
-294,935	-127,393	-0,075	0,008
-293,920	-76,857	-0,101	0,025
-292,905	800,000	-0,063	0,135
-291,891	-200,000	-0,015	0,135
-290,876	-200,000	-0,008	0,086
-289,862	172,324	-0,119	-0,125
-288,847	111,846	0,022	0,019
-287,832	800,000	-0,049	0,144
-286,818	-200,000	0,018	0,067
-285,803	800,000	-0,016	0,048
-284,789	-53,932	0,085	-0,028
-283,774	-11,157	-0,057	0,027
-282,759	217,154	0,023	-0,027
-281,745	-200,000	0,002	-0,090
-280,730	96,225	0,030	-0,025
-279,716	498,728	0,046	0,077
-278,701	-200,000	-0,036	0,171
-277,686	108,620	-0,084	0,073
-276,672	60,778	0,115	-0,083
-275,657	-86,437	0,087	0,019
-274,643	190,151	-0,066	0,072
-273,628	-134,949	-0,175	-0,015
-272,613	-200,000	0,007	-0,044
-271,599	-200,000	-0,017	-0,145
-270,584	800,000	0,009	-0,029
-269,570	800,000	0,083	0,223
-268,555	107,970	0,019	-0,016
-267,540	-5,202	0,074	0,037
-266,526	32,736	-0,037	-0,023
-265,511	-65,193	0,112	0,033
-264,497	728,224	-0,047	0,092
-263,482	40,604	-0,026	0,017
-262,467	-200,000	0,001	0,152
-261,453	800,000	0,013	-0,036
-260,438	-27,367	0,012	0,005
-259,424	-200,000	-0,003	-0,064
-258,409	10,747	-0,085	0,047
-257,395	27,966	-0,128	0,078
-256,380	-80,250	0,154	0,037
-255,365	62,912	-0,068	-0,050
-254,351	-200,000	-0,001	0,030
-253,336	-112,884	0,034	0,005
-252,322	-200,000	0,014	-0,182
-251,307	74,933	-0,149	-0,114
-250,292	800,000	0,048	-0,145
-249,278	-200,000	0,023	0,122
-248,263	800,000	0,002	-0,007
-247,249	188,250	-0,023	-0,025
-246,234	133,270	-0,086	-0,081
-245,219	12,800	-0,112	-0,063
-244,205	-46,754	0,081	0,029
-243,190	-107,245	-0,141	0,022
-242,176	198,435	0,068	-0,076
-241,161	173,185	0,070	0,073
-240,146	-200,000	0,014	-0,092
-239,132	-200,000	0,041	0,134
-238,117	800,000	0,009	0,018
-237,103	696,526	-0,020	-0,039
-236,088	-200,000	0,015	0,128
-235,073	517,767	0,028	0,047
-234,059	97,206	0,088	0,073
-233,044	800,000	0,017	-0,040
-232,030	136,632	-0,053	0,050
-231,015	-14,985	-0,097	0,045
-230,000	294,675	0,033	0,044
-228,986	280,329	0,037	0,048
-227,971	-200,000	0,036	0,213
-226,957	800,000	0,079	-0,186
-225,942	-200,000	-0,001	-0,114
-224,927	-58,345	-0,084	0,026
-223,913	800,000	-0,032	0,073
-222,898	81,203	0,095	-0,075
-221,884	-36,516	0,053	0,020
-220,869	142,088	0,070	0,068
-219,855	312,958	0,079	0,108
-218,840	16,041	-0,052	-0,030
-217,825	-167,544	0,006	-0,000
-216,811	161,204	0,103	-0,105
-215,796	-200,000	-0,013	0,118
-214,782	290,718	0,162	-0,214
-213,767	-200,000	0,008	-0,030
-212,752	343,067	-0,024	0,034
-211,738	-200,000	-0,020	0,094
-210,723	-14,507	0,162	0,076
-209,709	-200,000	-0,029	-0,129
-208,694	-94,506	-0,123	0,024
-207,679	-76,355	0,082	-0,021
-206,665	84,580	0,143	-0,113
-205,650	-191,138	0,037	-0,000
-204,636	95,444	-0,015	0,012
-203,621	7,320	0,045	0,024
-202,606	-200,000	-0,048	-0,186
-201,592	-155,821	0,072	0,003
-200,577	62,395	-0,091	-0,066
-199,563	-130,554	0,132	-0,013
-198,548	-14,940	-0,153	0,071
-197,533	-49,736	0,088	-0,030
-196,519	347,237	-0,077	0,110
-195,504	138,363	0,065	-0,062
-194,490	800,000	-0,040	-0,082
-193,475	210,808	0,038	0,043
-192,460	586,531	-0,045	0,081
-191,446	-134,420	0,150	0,013
-190,431	800,000	-0,084	0,171
-189,417	800,000	0,038	-0,100
-188,402	800,000	-0,044	0,129
-187,387	403,859	-0,019	0,029
-186,373	579,713	0,079	-0,141
-185,358	62,041	-0,047	0,034
-184,344	-200,000	-0,021	0,148
-183,329	-27,612	-0,090	-0,038
-182,315	800,000	0,045	0,097
-181,300	-51,004	-0,014	-0,005
-180,285	-200,000	-0,007	-0,054
-179,271	0,007	-0,086	-0,044
-178,256	800,000	-0,015	0,043
-177,242	100,443	-0,130	0,109
-176,227	37,036	-0,054	0,035
-175,212	-200,000	0,021	0,095
-174,198	-200,000	0,017	-0,073
-173,183	185,797	-0,073	-0,079
-172,169	58,006	-0,121	-0,086
-171,154	800,000	0,022	-0,069
-170,139	-200,000	0,117	0,000
-169,125	-200,000	-0,013	0,102
-168,110	-5,081	0,084	-0,042
-167,096	800,000	0,072	0,189
-166,081	-146,010	-0,059	-0,004
-165,066	14,369	-0,138	-0,078
-164,052	-14,079	0,027	0,013
-163,037	80,529	-0,046	-0,036
-162,023	2,459	0,135	0,071
-161,008	-148,191	0,115	0,007
-159,993	95,385	-0,109	-0,090
-158,979	12,759	-0,083	0,046
-157,964	-16,161	0,030	0,014
-156,950	21,459	0,109	-0,064
-155,935	-115,075	-0,075	0,010
-154,920	159,007	0,062	0,063
-153,906	-64,270	0,035	0,010
-152,891	237,730	-0,085	-0,102
-151,877	-200,000	0,012	-0,103
-150,862	-200,000	0,008	-0,032
-149,847	800,000	0,022	-0,045
-148,833	328,692	-0,039	0,055
-147,818	-200,000	-0,040	0,142
-146,804	34,025	0,026	-0,016
-145,789	-120,621	0,126	0,015
-144,775	-123,458	-0,087	0,010
-143,760	-200,000	0,061	-0,212
-142,745	800,000	-0,060	-0,135
-141,731	170,445	0,044	0,046
-140,716	504,185	-0,080	0,135
-139,702	96,361	0,079	0,066
-138,687	-200,000	0,006	0,061
-137,672	154,025	0,095	-0,095
-136,658	87,969	-0,057	0,046
-135,643	126,163	-0,061	0,056
-134,629	-200,000	0,003	0,053
-133,614	43,909	0,065	0,043
-132,599	369,730	-0,030	0,044
-131,585	-200,000	0,008	-0,026
-130,570	398,013	0,044	0,067
-129,556	93,860	-0,031	-0,025
-128,541	800,000	0,036	-0,112
-127,526	-104,754	0,090	0,015
-126,512	225,124	0,053	-0,062
-125,497	800,000	0,028	0,078
-124,483	42,117	0,127	0,083
-123,468	127,893	-0,146	0,135
-122,453	-56,007	0,109	-0,035
-121,439	-152,411	-0,086	0,004
-120,424	3,738	0,116	0,061
-119,410	-200,000	0,016	-0,105
-118,395	68,122	0,087	-0,064
-117,380	-115,834	0,130	-0,017
