DTS Sentinel unit serial number:	SN410029Multiplexer serial number:	ORYXHardware model number:	OX2-SRSoftware version number:	ORYX F/W v4,00 Oryx Data Collector v3.7.2.0data status	okinstallation	B3 Nyhavnadifferential loss correction	single-endedforward channel	channel 1reverse channel	N/Adate	2023/11/28time	10:27:30forward acquisition time	300,00reverse acquisition time	0,00gamma	499,1914k internal	0,3141k external	0,3141temperature offset calibration	1,0000default loss term (dB/km)	0,3820temperature slope calibration	1,0000multiplexer offset coefficient	1,0000multiplexer slope coefficient	1,0000fibre end	0,00T internal ref (°C)	10,02T ext. ref 1 (°C)	-6,79T ext. ref 2 (°C)	-7,04length (m)	temperature (°C)	Stokes	anti-Stokes-744,400	185,575	-0,139	-0,153
-743,385	800,000	-0,092	0,249
-742,371	-200,000	-0,067	-0,252
-741,356	188,372	-0,290	0,321
-740,342	-40,033	-0,199	-0,076
-739,327	-200,000	-0,048	0,285
-738,312	784,419	-0,144	-0,294
-737,298	163,655	-0,198	0,207
-736,283	800,000	-0,054	-0,117
-735,269	140,825	-0,198	0,194
-734,254	-120,680	-0,062	0,008
-733,239	-17,708	-0,225	0,104
-732,225	800,000	-0,029	-0,066
-731,210	-200,000	-0,016	0,198
-730,196	-200,000	0,002	-0,041
-729,181	-63,905	0,090	0,027
-728,167	-11,672	-0,092	-0,045
-727,152	-19,106	-0,132	-0,061
-726,137	69,573	0,067	0,051
-725,123	240,801	-0,058	0,072
-724,108	-126,691	-0,023	0,002
-723,094	772,656	0,042	-0,084
-722,079	308,750	-0,068	-0,094
-721,064	91,749	-0,048	-0,040
-720,050	-144,041	-0,115	-0,008
-719,035	-117,735	-0,025	0,003
-718,021	800,000	-0,039	0,096
-717,006	-187,652	-0,067	0,001
-715,991	-195,801	-0,249	0,001
-714,977	300,476	-0,097	-0,133
-713,962	-200,000	-0,001	-0,029
-712,948	265,832	0,065	0,085
-711,933	378,851	-0,009	0,014
-710,918	-17,963	-0,074	-0,034
-709,904	-139,077	0,033	0,003
-708,889	768,333	0,032	-0,065
-707,875	-109,330	-0,196	-0,030
-706,860	-25,836	0,112	-0,048
-705,845	314,639	0,055	-0,077
-704,831	15,066	0,141	0,082
-703,816	54,656	-0,066	-0,047
-702,802	284,403	-0,049	-0,066
-701,787	-170,851	-0,027	-0,001
-700,772	-120,807	-0,188	-0,023
-699,758	70,943	0,110	-0,084
-698,743	349,864	0,076	0,111
-697,729	463,776	0,054	-0,090
-696,714	264,032	0,067	-0,086
-695,699	-71,944	-0,101	0,028
-694,685	146,175	-0,088	0,087
-693,670	-102,400	0,111	0,020
-692,656	262,562	-0,066	-0,085
-691,641	65,639	0,141	0,105
-690,627	-200,000	0,002	0,014
-689,612	-75,359	0,028	0,007
-688,597	31,363	-0,041	0,026
-687,583	-200,000	-0,004	-0,074
-686,568	-7,772	-0,040	0,020
-685,554	145,521	-0,078	0,078
-684,539	-200,000	0,013	-0,104
-683,524	171,226	0,053	0,056
-682,510	-200,000	0,007	-0,099
-681,495	-43,166	-0,137	0,051
-680,481	338,037	-0,032	-0,046
-679,466	-200,000	-0,014	-0,056
-678,451	-200,000	0,013	-0,111
-677,437	-158,696	0,133	-0,006
-676,422	-9,339	0,042	-0,021
-675,408	0,244	0,132	-0,069
-674,393	25,898	-0,018	0,011
-673,378	-162,893	-0,067	0,002
-672,364	-200,000	-0,012	-0,127
-671,349	70,291	0,055	-0,042
-670,335	193,462	0,019	0,022
-669,320	34,170	-0,043	0,028
-668,305	35,144	-0,102	0,066
-667,291	-25,967	-0,100	0,044
-666,276	107,289	-0,052	-0,045
-665,262	-200,000	-0,022	-0,111
-664,247	206,112	-0,023	0,027
-663,232	225,948	-0,034	0,041
-662,218	-200,000	-0,014	0,093
-661,203	-200,000	0,019	0,120
-660,189	800,000	0,027	0,066
-659,174	-200,000	-0,026	-0,123
-658,159	-31,146	-0,184	-0,076
-657,145	-61,166	0,020	-0,006
-656,130	-200,000	0,001	-0,039
-655,116	-172,722	0,106	-0,002
-654,101	-200,000	0,014	-0,245
-653,086	325,877	0,048	-0,068
-652,072	-200,000	0,008	-0,085
-651,057	251,367	0,027	-0,034
-650,043	21,961	0,023	0,014
-649,028	123,101	-0,040	0,037
-648,014	800,000	0,044	-0,096
-646,999	559,556	0,025	0,044
-645,984	58,896	-0,021	-0,015
-644,970	-200,000	0,008	-0,150
-643,955	-87,544	-0,150	-0,033
-642,941	-200,000	-0,003	-0,099
-641,926	-200,000	-0,006	-0,073
-640,911	-200,000	0,031	0,114
-639,897	-200,000	0,006	0,133
-638,882	-200,000	0,030	-0,156
-637,868	16,324	0,128	-0,074
-636,853	-200,000	-0,029	-0,106
-635,838	676,518	-0,063	-0,121
-634,824	10,679	0,114	0,064
-633,809	496,092	0,033	0,056
-632,795	-184,472	-0,047	-0,001
-631,780	400,436	0,049	-0,076
-630,765	297,521	-0,042	-0,058
-629,751	-200,000	0,019	-0,064
-628,736	284,299	0,059	-0,079
-627,722	413,901	0,045	0,071
-626,707	-200,000	0,009	0,094
-625,692	-48,508	0,057	0,020
-624,678	800,000	0,024	0,075
-623,663	-200,000	0,010	-0,090
-622,649	171,295	-0,041	0,043
-621,634	-200,000	-0,012	-0,063
-620,619	-200,000	0,004	-0,107
-619,605	-123,569	0,139	0,016
-618,590	470,154	0,036	0,060
-617,576	199,654	0,079	0,090
-616,561	645,230	0,038	0,071
-615,546	-75,346	-0,110	0,029
-614,532	39,625	-0,050	0,033
-613,517	54,064	0,094	-0,067
-612,503	-200,000	-0,017	-0,127
-611,488	-1,477	0,045	0,023
-610,474	666,959	-0,011	-0,021
-609,459	100,833	0,103	-0,088
-608,444	800,000	-0,048	-0,107
-607,430	-52,869	-0,144	-0,049
-606,415	-12,143	-0,139	0,067
-605,401	-200,000	-0,016	0,136
-604,386	77,015	0,089	0,069
-603,371	-104,006	0,074	-0,013
-602,357	-200,000	0,022	-0,108
-601,342	318,875	-0,095	-0,134
-600,328	800,000	0,019	-0,060
-599,313	800,000	0,025	-0,052
-598,298	-92,649	0,112	0,023
-597,284	-39,522	-0,120	0,046
-596,269	-200,000	0,021	-0,091
-595,255	-200,000	0,010	0,085
-594,240	-200,000	0,016	-0,090
-593,225	100,825	0,106	-0,091
-592,211	-81,840	-0,107	-0,025
-591,196	-179,070	0,059	0,001
-590,182	417,565	0,053	-0,084
-589,167	56,292	0,073	-0,052
-588,152	-200,000	0,014	-0,077
-587,138	204,914	-0,079	0,090
-586,123	-200,000	-0,008	-0,105
-585,109	800,000	0,030	-0,095
-584,094	140,781	-0,056	0,054
-583,079	75,629	0,055	-0,043
-582,065	800,000	-0,037	-0,103
-581,050	397,481	0,032	0,049
-580,036	-91,556	-0,158	0,033
-579,021	-200,000	-0,004	-0,020
-578,006	228,400	0,017	-0,021
-576,992	292,229	-0,061	0,082
-575,977	320,822	0,119	0,167
-574,963	395,225	-0,050	0,077
-573,948	-32,656	0,128	-0,052
-572,934	-200,000	-0,023	0,098
-571,919	-200,000	-0,017	-0,061
-570,904	-200,000	-0,010	0,058
-569,890	125,346	-0,061	-0,057
-568,875	88,272	0,112	-0,092
-567,861	21,375	-0,145	0,086
-566,846	800,000	0,032	0,073
-565,831	-46,338	0,014	0,005
-564,817	429,519	-0,055	-0,088
-563,802	-123,620	-0,107	0,012
-562,788	-79,919	-0,006	0,001
-561,773	-200,000	0,007	0,051
-560,758	-47,744	0,050	0,018
-559,744	190,140	0,039	0,043
-558,729	800,000	-0,066	-0,157
-557,715	43,247	0,150	0,101
-556,700	800,000	-0,028	-0,077
-555,685	-113,790	-0,047	-0,007
-554,671	-13,857	-0,061	0,029
-553,656	-97,063	0,086	-0,016
-552,642	-200,000	0,007	-0,037
-551,627	108,692	-0,029	0,025
-550,612	448,436	-0,057	-0,092
-549,598	-200,000	0,027	-0,127
-548,583	0,348	-0,069	-0,036
-547,569	-200,000	-0,017	-0,134
-546,554	219,193	0,033	-0,039
-545,539	293,507	-0,019	-0,026
-544,525	800,000	0,030	0,082
-543,510	-94,149	-0,132	0,026
-542,496	-43,047	-0,038	0,014
-541,481	-200,000	-0,015	-0,229
-540,466	120,968	0,050	-0,046
-539,452	219,378	-0,108	0,127
-538,437	134,267	-0,101	0,096
-537,423	100,642	0,023	0,020
-536,408	18,802	-0,095	-0,056
-535,393	-200,000	-0,013	-0,115
-534,379	57,348	-0,127	-0,091
-533,364	800,000	-0,034	0,098
-532,350	-200,000	-0,006	-0,050
-531,335	189,953	0,035	0,038
-530,321	-112,077	0,056	0,008
-529,306	-200,000	0,001	-0,113
-528,291	132,752	-0,053	-0,050
-527,277	-87,813	-0,215	-0,047
-526,262	-84,170	0,141	-0,033
-525,248	215,784	0,085	-0,099
-524,233	-102,761	-0,103	0,018
-523,218	-200,000	0,002	0,129
-522,204	-117,314	0,174	-0,023
-521,189	303,267	0,014	-0,019
-520,175	800,000	-0,042	-0,121
-519,160	362,854	0,013	0,019
-518,145	-84,648	-0,164	-0,038
-517,131	120,524	0,139	0,127
-516,116	-200,000	-0,006	-0,064
-515,102	-75,394	-0,096	0,025
-514,087	393,838	-0,042	-0,065
-513,072	-103,192	-0,013	0,002
-512,058	99,592	0,036	-0,031
-511,043	800,000	-0,037	-0,080
-510,029	183,731	0,028	0,030
-509,014	450,572	-0,049	0,080
-507,999	-200,000	-0,007	-0,030
-506,985	62,347	-0,120	0,088
-505,970	800,000	-0,044	-0,095
-504,956	206,265	0,048	0,055
-503,941	506,723	0,056	0,095
-502,926	355,030	0,042	0,062
-501,912	-38,169	0,069	-0,027
-500,897	-160,998	-0,060	-0,002
-499,883	49,899	0,047	-0,033
-498,868	691,018	0,078	-0,152
-497,853	762,083	-0,025	-0,049
-496,839	635,978	0,046	0,087
-495,824	459,612	-0,051	-0,083
-494,810	800,000	0,038	-0,079
-493,795	-82,552	0,020	0,005
-492,781	-200,000	0,004	-0,061
-491,766	-200,000	-0,029	-0,120
-490,751	800,000	-0,040	-0,105
-489,737	-21,999	-0,015	-0,006
-488,722	239,165	0,109	0,134
-487,708	800,000	-0,021	0,050
-486,693	800,000	0,056	0,149
-485,678	800,000	0,025	0,056
-484,664	153,935	-0,127	-0,128
-483,649	-200,000	0,015	-0,134
-482,635	572,123	-0,099	-0,178
-481,620	-169,811	0,126	-0,003
-480,605	-19,341	-0,096	-0,043
-479,591	43,515	-0,060	0,040
-478,576	551,388	0,044	0,077
-477,562	800,000	0,076	-0,202
-476,547	-9,913	0,092	0,045
-475,532	233,927	-0,025	0,031
-474,518	-32,760	-0,021	-0,008
-473,503	30,923	0,095	0,059
-472,489	-200,000	0,021	0,107
-471,474	800,000	0,055	0,123
-470,459	800,000	0,012	-0,035
-469,445	444,612	-0,078	-0,127
-468,430	-8,855	-0,064	-0,031
-467,416	95,645	-0,016	-0,013
-466,401	-5,523	0,095	0,048
-465,386	-200,000	-0,008	0,156
-464,372	162,181	-0,079	-0,081
-463,357	800,000	-0,007	0,015
-462,343	-200,000	-0,019	-0,181
-461,328	-105,765	-0,038	-0,006
-460,313	334,083	-0,080	0,114
-459,299	214,727	0,153	0,178
-458,284	105,632	0,084	0,073
-457,270	3,463	-0,042	0,022
-456,255	-172,968	-0,043	0,001
-455,241	260,212	-0,047	0,060
-454,226	-10,987	0,098	0,047
-453,211	-67,526	-0,119	0,034
-452,197	800,000	-0,024	0,068
-451,182	-72,323	-0,064	-0,017
-450,168	-115,456	0,032	0,004
-449,153	-200,000	-0,018	-0,077
-448,138	800,000	-0,011	-0,030
-447,124	-138,298	-0,054	0,004
-446,109	-96,235	-0,071	-0,014
-445,095	-159,415	0,051	-0,002
-444,080	-94,436	-0,162	0,032
-443,065	800,000	0,015	-0,048
-442,051	262,113	0,024	-0,030
-441,036	681,286	-0,046	-0,089
-440,022	86,280	0,029	-0,023
-439,007	-34,098	-0,091	-0,036
-437,992	-200,000	-0,023	0,092
-436,978	-200,000	0,003	-0,191
-435,963	-20,736	-0,033	-0,015
-434,949	-122,433	-0,093	-0,011
-433,934	800,000	-0,055	0,116
-432,919	150,607	-0,059	0,059
-431,905	-27,729	-0,125	-0,053
-430,890	489,610	-0,031	0,052
-429,876	-49,350	-0,057	0,020
-428,861	-200,000	0,023	0,151
-427,846	-166,200	-0,135	0,004
-426,832	-200,000	0,000	-0,014
-425,817	195,936	-0,079	-0,088
-424,803	-120,570	-0,076	0,009
-423,788	260,264	-0,051	0,065
-422,773	355,863	0,068	0,100
-421,759	-103,885	0,213	0,036
-420,744	116,235	0,050	-0,044
-419,730	120,732	0,091	0,082
-418,715	104,592	-0,071	-0,061
-417,701	-200,000	-0,043	0,149
-416,686	-200,000	-0,007	0,185
-415,671	-200,000	0,016	0,170
-414,657	-87,218	0,100	-0,022
-413,642	-70,475	0,191	0,053
-412,628	-108,346	-0,129	-0,020
-411,613	800,000	-0,106	-0,232
-410,598	254,816	-0,075	-0,094
-409,584	-87,782	0,053	0,012
-408,569	800,000	-0,067	0,169
-407,555	-200,000	0,002	0,040
-406,540	-200,000	-0,027	0,098
-405,525	-21,584	-0,157	-0,070
-404,511	-106,737	-0,082	-0,013
-403,496	493,549	0,062	-0,105
-402,482	-125,540	0,102	0,011
-401,467	-200,000	-0,006	-0,080
-400,452	800,000	0,021	0,046
-399,438	-0,074	0,016	-0,008
-398,423	619,399	0,006	-0,010
-397,409	-200,000	0,012	-0,163
-396,394	323,024	-0,015	0,020
-395,379	119,805	0,030	0,027
-394,365	-97,368	0,123	-0,023
-393,350	74,108	0,092	0,071
-392,336	155,794	0,116	-0,117
-391,321	-114,510	0,069	0,010
-390,306	800,000	0,037	-0,083
-389,292	-200,000	0,009	0,047
-388,277	54,485	0,069	0,049
-387,263	-140,486	0,117	0,009
-386,248	52,959	0,043	0,030
-385,233	104,181	0,031	-0,027
-384,219	-57,712	0,054	-0,017
-383,204	27,458	0,025	-0,015
-382,190	473,052	0,044	0,073
-381,175	-200,000	0,004	0,037
-380,160	5,271	-0,067	-0,036
-379,146	122,591	0,072	0,066
-378,131	262,583	-0,077	0,098
-377,117	800,000	0,026	0,071
-376,102	-74,866	-0,051	-0,013
-375,088	-84,235	0,037	0,009
-374,073	-200,000	0,054	-0,202
-373,058	-200,000	0,031	-0,153
-372,044	-109,605	0,093	-0,014
-371,029	250,883	0,068	0,084
-370,015	800,000	-0,011	-0,028
-369,000	11,697	-0,031	-0,017
-367,985	800,000	0,033	-0,080
-366,971	217,950	-0,073	-0,085
-365,956	-114,209	0,143	-0,020
-364,942	-200,000	0,032	0,127
-363,927	-200,000	0,029	-0,108
-362,912	103,681	-0,079	-0,068
-361,898	287,542	-0,023	-0,031
-360,883	-200,000	0,008	-0,037
-359,869	-6,632	-0,089	0,044
-358,854	-152,565	0,065	0,003
-357,839	-200,000	0,003	0,043
-356,825	-179,293	-0,040	0,001
-355,810	800,000	-0,060	0,131
-354,796	-200,000	-0,004	0,037
-353,781	37,017	-0,142	0,092
-352,766	186,836	-0,053	-0,058
-351,752	-90,645	0,104	0,022
-350,737	9,797	0,122	0,067
-349,723	168,292	0,090	0,093
-348,708	-11,423	-0,069	0,033
-347,693	-80,268	-0,017	-0,004
-346,679	-200,000	-0,112	-0,000
-345,664	-200,000	-0,022	-0,115
-344,650	-200,000	0,001	-0,095
-343,635	155,431	0,028	0,028
-342,620	-144,136	-0,098	0,007
-341,606	340,932	0,039	0,055
-340,591	220,301	-0,061	-0,071
-339,577	-200,000	0,031	-0,125
-338,562	-200,000	-0,019	0,071
-337,548	555,386	0,067	0,118
-336,533	4,762	0,031	-0,017
-335,518	-200,000	0,026	0,102
-334,504	202,165	0,092	0,104
-333,489	137,221	-0,107	0,102
-332,475	104,664	-0,111	-0,096
-331,460	122,487	0,103	-0,094
-330,445	-200,000	0,012	-0,056
-329,431	-42,368	-0,102	-0,038
-328,416	-200,000	-0,027	0,109
-327,402	800,000	0,056	0,155
-326,387	-200,000	-0,018	-0,060
-325,372	77,397	-0,068	-0,053
-324,358	-200,000	0,002	-0,052
-323,343	-200,000	0,003	-0,064
-322,329	-89,864	-0,071	-0,015
-321,314	138,244	0,044	0,042
-320,299	-200,000	0,007	0,046
-319,285	-200,000	0,012	0,094
-318,270	269,932	-0,036	0,046
-317,256	71,973	-0,079	-0,060
-316,241	-32,959	-0,149	-0,060
-315,226	727,166	0,024	0,047
-314,212	58,041	-0,032	0,023
-313,197	-154,478	0,092	0,004
-312,183	-200,000	-0,026	-0,091
-311,168	44,600	0,063	0,042
-310,153	-108,089	0,142	0,022
-309,139	-200,000	-0,021	0,109
-308,124	-200,000	-0,000	-0,064
-307,110	-200,000	-0,017	-0,058
-306,095	73,971	0,046	0,035
-305,080	-61,870	0,051	-0,015
-304,066	800,000	0,004	-0,010
-303,051	-52,930	0,104	0,035
-302,037	521,807	-0,053	-0,091
-301,022	800,000	-0,008	0,016
-300,008	-120,485	0,130	0,016
-298,993	800,000	-0,027	0,078
-297,978	40,083	-0,039	-0,026
-296,964	-178,847	0,101	-0,002
-295,949	-103,290	-0,083	-0,014
-294,935	218,356	0,038	0,045
-293,920	81,270	0,146	0,115
-292,905	800,000	0,033	0,101
-291,891	-148,549	-0,131	-0,008
-290,876	395,909	0,063	-0,096
-289,862	-200,000	0,041	-0,143
-288,847	251,813	0,110	-0,136
-287,832	203,702	-0,083	-0,094
-286,818	-200,000	-0,031	0,117
-285,803	-171,645	0,065	-0,002
-284,789	409,579	-0,111	0,171
-283,774	-101,579	0,076	0,013
-282,759	800,000	0,023	-0,050
-281,745	-99,610	0,072	-0,013
-280,730	-103,448	-0,033	-0,006
-279,716	800,000	-0,047	0,124
-278,701	-5,480	-0,089	0,044
-277,686	-200,000	0,006	-0,033
-276,672	-159,329	0,062	0,002
-275,657	-200,000	-0,003	0,158
-274,643	241,202	-0,020	0,024
-273,628	-87,001	0,170	-0,037
-272,613	-200,000	0,002	0,108
-271,599	-200,000	0,034	0,133
-270,584	-56,922	-0,120	0,038
-269,570	82,716	0,053	-0,042
-268,555	800,000	-0,037	0,089
-267,540	316,506	-0,006	0,008
-266,526	-200,000	-0,001	-0,226
-265,511	770,589	0,049	0,097
-264,497	-200,000	0,015	-0,154
-263,482	-200,000	0,010	0,111
-262,467	202,977	-0,055	0,061
-261,453	-128,885	-0,160	0,016
-260,438	-200,000	0,031	0,144
-259,424	-144,632	-0,070	0,005
-258,409	15,340	0,013	0,008
-257,395	-94,474	0,061	0,012
-256,380	312,802	0,062	0,085
-255,365	153,546	-0,079	0,079
-254,351	194,405	0,145	0,160
-253,336	-79,975	0,056	0,013
-252,322	-98,714	-0,102	-0,019
-251,307	800,000	0,041	-0,090
-250,292	-3,141	0,089	-0,045
-249,278	9,279	0,020	0,011
-248,263	800,000	0,051	0,119
-247,249	-2,890	0,117	0,059
-246,234	-200,000	-0,007	-0,094
-245,219	-200,000	-0,003	0,065
-244,205	-8,314	0,065	-0,032
-243,190	-200,000	-0,002	0,040
-242,176	262,047	-0,076	0,096
-241,161	130,197	0,082	-0,076
-240,146	113,220	-0,134	0,118
-239,132	-121,708	0,045	-0,005
-238,117	-137,227	-0,139	0,011
-237,103	-199,370	-0,201	0,001
-236,088	-182,531	0,057	0,001
-235,073	573,355	-0,062	0,111
-234,059	-82,402	0,065	-0,015
-233,044	-200,000	0,029	0,138
-232,030	-117,850	-0,085	0,011
-231,015	800,000	0,026	-0,080
-230,000	164,819	-0,082	-0,084
-228,986	36,544	-0,111	-0,071
-227,971	-96,586	0,123	0,023
-226,957	-60,046	-0,070	-0,022
-225,942	325,635	-0,017	-0,024
-224,927	142,678	0,070	-0,067
-223,913	-2,184	-0,099	-0,050
-222,898	-200,000	0,002	0,075
-221,884	155,585	-0,102	-0,102
-220,869	800,000	0,036	0,096
-219,855	-200,000	-0,006	0,031
-218,840	-200,000	-0,000	0,154
-217,825	232,564	0,066	-0,079
-216,811	456,536	-0,026	-0,042
-215,796	-200,000	-0,013	-0,154
-214,782	-200,000	-0,019	-0,121
-213,767	-200,000	0,017	0,158
-212,752	149,760	0,074	0,073
-211,738	-53,410	0,117	-0,039
-210,723	800,000	-0,017	-0,037
-209,709	38,804	-0,100	0,065
-208,694	-3,309	-0,122	-0,061
-207,679	440,364	-0,046	0,072
-206,665	344,449	0,028	0,039
-205,650	157,879	0,057	0,057
-204,636	544,654	-0,029	-0,051
-203,621	397,499	0,015	0,023
-202,606	-200,000	0,037	0,129
-201,592	-109,032	-0,141	0,022
-200,577	-200,000	0,015	-0,090
-199,563	131,203	0,032	-0,030
-198,548	-200,000	-0,017	0,091
-197,533	800,000	-0,008	0,020
-196,519	625,444	0,071	0,130
-195,504	522,851	-0,031	0,054
-194,490	512,678	-0,047	0,080
-193,475	800,000	0,049	-0,140
-192,460	518,598	0,026	0,045
-191,446	-36,472	-0,046	0,018
-190,431	169,828	0,122	0,126
-189,417	8,083	0,070	-0,038
-188,402	584,138	-0,087	0,155
-187,387	469,452	-0,058	-0,096
-186,373	-200,000	-0,015	-0,107
-185,358	-200,000	0,005	0,025
-184,344	-17,124	0,119	-0,054
-183,329	-200,000	0,025	0,082
-182,315	-190,076	0,043	-0,000
-181,300	-200,000	0,006	0,119
-180,285	76,001	-0,047	-0,036
-179,271	138,792	0,067	-0,064
-178,256	-44,837	0,091	0,033
-177,242	148,293	0,069	-0,068
-176,227	-200,000	-0,041	-0,171
-175,212	648,671	0,068	0,127
-174,198	800,000	0,016	0,035
-173,183	-99,134	-0,238	0,043
-172,169	-200,000	0,012	-0,060
-171,154	-136,911	0,014	0,001
-170,139	313,780	0,114	0,156
-169,125	30,400	-0,067	0,041
-168,110	-200,000	0,029	0,119
-167,096	-68,308	-0,113	-0,032
-166,081	180,457	0,075	-0,080
-165,066	-76,808	-0,066	-0,017
-164,052	-156,831	0,067	-0,003
-163,037	165,139	-0,030	-0,031
-162,023	-58,824	-0,115	-0,036
-161,008	73,611	0,059	0,045
-159,993	-87,204	-0,100	0,022
-158,979	779,190	0,036	0,071
-157,964	-200,000	0,031	-0,128
-156,950	384,865	-0,047	-0,071
-155,935	159,323	0,060	-0,060
-154,920	-72,548	0,134	0,036
-153,906	-131,005	0,096	0,009
-152,891	167,362	-0,016	0,017
-151,877	172,744	0,034	-0,035
-150,862	377,640	-0,089	-0,132
-149,847	-163,109	-0,048	-0,002
-148,833	-183,659	0,097	0,001
-147,818	-200,000	0,005	0,021
-146,804	-116,572	-0,038	0,005
-145,789	140,787	0,041	-0,040
-144,775	400,933	-0,048	0,073
-143,760	41,945	0,050	0,033
-142,745	-200,000	-0,019	-0,111
-141,731	-38,108	0,163	0,062
-140,716	-200,000	-0,017	0,080
-139,702	15,016	0,023	0,013
-138,687	-119,037	-0,026	0,003
-137,672	7,225	0,032	-0,017
-136,658	-200,000	0,001	-0,145
-135,643	752,324	0,054	-0,105
-134,629	800,000	0,045	-0,095
-133,614	-200,000	-0,030	-0,098
-132,599	800,000	0,027	0,067
-131,585	800,000	-0,047	-0,117
-130,570	-6,425	0,105	-0,052
-129,556	-4,405	-0,138	0,069
-128,541	-123,342	0,074	0,008
-127,526	-200,000	0,004	0,085
-126,512	131,924	0,067	0,063
-125,497	-104,536	0,047	0,008
-124,483	800,000	0,032	-0,089
-123,468	85,435	0,079	0,063
-122,453	362,301	-0,078	0,113
-121,439	-200,000	0,012	-0,044
-120,424	-130,641	0,048	-0,005
