DTS Sentinel unit serial number:	SN410029Multiplexer serial number:	ORYXHardware model number:	OX2-SRSoftware version number:	ORYX F/W v4,00 Oryx Data Collector v3.7.2.0data status	okinstallation	B3 Nyhavnadifferential loss correction	single-endedforward channel	channel 1reverse channel	N/Adate	2023/11/28time	13:12:30forward acquisition time	300,00reverse acquisition time	0,00gamma	499,1914k internal	0,3138k external	0,3138temperature offset calibration	1,0000default loss term (dB/km)	0,3820temperature slope calibration	1,0000multiplexer offset coefficient	1,0000multiplexer slope coefficient	1,0000fibre end	0,00T internal ref (°C)	8,02T ext. ref 1 (°C)	-7,56T ext. ref 2 (°C)	-7,76length (m)	temperature (°C)	Stokes	anti-Stokes-744,400	652,090	-0,137	-0,262
-743,385	60,788	0,228	0,168
-742,371	67,522	-0,185	-0,140
-741,356	-200,000	0,036	0,404
-740,342	568,122	-0,099	-0,180
-739,327	-200,000	-0,003	0,283
-738,312	171,404	-0,154	-0,165
-737,298	478,741	-0,055	0,092
-736,283	370,762	-0,162	-0,245
-735,269	-200,000	-0,051	0,299
-734,254	502,690	-0,180	-0,310
-733,239	-104,907	-0,282	-0,048
-732,225	330,206	-0,106	-0,151
-731,210	32,650	0,150	0,096
-730,196	800,000	-0,021	-0,051
-729,181	202,037	-0,068	-0,078
-728,167	210,475	-0,077	-0,090
-727,152	-114,602	0,108	0,015
-726,137	800,000	-0,029	-0,078
-725,123	10,835	-0,118	-0,066
-724,108	653,855	0,047	0,089
-723,094	-39,464	-0,089	0,035
-722,079	-200,000	-0,014	0,053
-721,064	-136,147	-0,173	-0,015
-720,050	800,000	0,055	0,114
-719,035	394,271	0,077	0,119
-718,021	-200,000	-0,011	-0,062
-717,006	-83,216	-0,101	-0,024
-715,991	560,255	0,012	-0,022
-714,977	-184,785	-0,075	0,001
-713,962	241,784	-0,080	-0,099
-712,948	-200,000	-0,003	-0,040
-711,933	-95,734	0,088	0,017
-710,918	270,997	0,047	-0,062
-709,904	572,933	0,068	-0,124
-708,889	-15,871	-0,212	0,100
-707,875	289,581	0,047	-0,063
-706,860	24,278	0,152	-0,093
-705,845	-64,172	0,126	-0,038
-704,831	496,165	-0,050	-0,086
-703,816	800,000	-0,046	-0,132
-702,802	200,573	-0,059	-0,067
-701,787	115,909	-0,057	-0,052
-700,772	-10,780	-0,066	0,032
-699,758	-200,000	-0,010	-0,097
-698,743	117,045	0,056	0,051
-697,729	-134,290	-0,111	-0,010
-696,714	-37,283	0,126	-0,050
-695,699	-66,332	-0,028	0,008
-694,685	-200,000	-0,015	-0,083
-693,670	-71,363	0,032	-0,009
-692,656	-122,551	0,096	-0,011
-691,641	20,834	-0,041	-0,025
-690,627	-118,209	0,115	-0,015
-689,612	800,000	0,028	0,092
-688,597	-59,523	-0,022	0,007
-687,583	4,173	-0,043	0,023
-686,568	-200,000	-0,049	-0,172
-685,554	39,197	0,073	0,048
-684,539	-54,137	-0,013	-0,004
-683,524	-106,403	0,053	-0,009
-682,510	-57,838	-0,066	-0,021
-681,495	-200,000	0,058	-0,189
-680,481	-200,000	-0,018	-0,067
-679,466	243,446	-0,086	-0,106
-678,451	52,759	-0,023	-0,017
-677,437	-49,510	-0,114	-0,040
-676,422	-97,671	-0,020	-0,004
-675,408	-177,879	-0,161	-0,003
-674,393	-90,064	0,057	0,012
-673,378	800,000	0,049	-0,152
-672,364	-200,000	-0,006	0,021
-671,349	-200,000	0,031	-0,205
-670,335	800,000	0,040	-0,111
-669,320	-143,378	0,129	0,009
-668,305	-41,964	0,060	0,023
-667,291	-87,296	-0,178	0,040
-666,276	800,000	-0,014	-0,035
-665,262	-200,000	-0,002	0,018
-664,247	-57,546	-0,039	0,013
-663,232	-16,827	0,103	-0,048
-662,218	120,774	-0,063	0,058
-661,203	-200,000	0,019	0,071
-660,189	-153,782	-0,087	0,004
-659,174	-200,000	0,006	-0,030
-658,159	30,497	-0,003	0,002
-657,145	-200,000	0,003	-0,062
-656,130	16,269	0,030	-0,017
-655,116	-6,575	0,158	0,080
-654,101	-142,463	0,050	-0,004
-653,086	92,188	-0,052	-0,044
-652,072	-183,407	0,086	0,001
-651,057	29,723	-0,132	-0,083
-650,043	34,938	-0,114	-0,074
-649,028	-90,398	-0,070	0,015
-648,014	51,680	0,057	0,040
-646,999	36,011	-0,128	0,083
-645,984	800,000	-0,023	-0,061
-644,970	-11,526	0,075	-0,036
-643,955	-61,161	-0,242	-0,075
-642,941	215,504	0,049	-0,058
-641,926	38,291	0,035	-0,023
-640,911	-154,886	-0,006	-0,000
-639,897	-200,000	0,009	-0,098
-638,882	-200,000	0,012	-0,099
-637,868	104,333	0,045	0,039
-636,853	-25,507	-0,053	-0,023
-635,838	-200,000	0,028	-0,103
-634,824	-200,000	-0,012	0,084
-633,809	80,110	0,033	-0,026
-632,795	-89,549	-0,096	0,021
-631,780	-200,000	-0,002	-0,044
-630,765	101,898	-0,075	-0,065
-629,751	151,685	0,086	-0,087
-628,736	800,000	-0,047	-0,114
-627,722	800,000	0,023	0,058
-626,707	-45,846	0,023	0,008
-625,692	292,564	0,105	0,142
-624,678	-200,000	0,016	-0,074
-623,663	-200,000	-0,005	-0,068
-622,649	-15,643	-0,033	0,016
-621,634	-200,000	0,021	-0,209
-620,619	-9,173	0,122	-0,060
-619,605	-56,558	0,065	0,021
-618,590	184,992	0,008	-0,009
-617,576	42,372	-0,094	-0,063
-616,561	106,598	0,027	-0,024
-615,546	-200,000	0,019	0,068
-614,532	39,787	0,080	-0,053
-613,517	-200,000	0,009	0,064
-612,503	-200,000	-0,018	-0,125
-611,488	-16,513	-0,060	0,028
-610,474	-97,287	0,052	-0,010
-609,459	65,634	-0,074	0,055
-608,444	-90,352	-0,088	-0,019
-607,430	-200,000	-0,017	-0,070
-606,415	800,000	-0,045	-0,127
-605,401	-80,888	-0,138	-0,034
-604,386	339,443	-0,062	-0,090
-603,371	252,004	0,050	0,063
-602,357	113,562	-0,017	0,015
-601,342	-200,000	-0,004	0,017
-600,328	432,803	0,017	0,027
-599,313	-99,248	-0,082	0,015
-598,298	-145,119	0,072	-0,005
-597,284	800,000	0,014	0,039
-596,269	211,837	0,013	0,016
-595,255	-200,000	0,017	-0,183
-594,240	280,157	-0,086	-0,114
-593,225	-200,000	0,007	0,110
-592,211	-121,253	-0,122	0,015
-591,196	-200,000	0,008	0,119
-590,182	34,415	0,097	0,062
-589,167	211,629	-0,045	0,053
-588,152	140,174	-0,020	0,020
-587,138	-77,544	0,057	-0,014
-586,123	97,817	0,054	-0,046
-585,109	619,219	-0,052	0,097
-584,094	-200,000	0,021	0,107
-583,079	-95,741	-0,043	-0,008
-582,065	85,310	0,012	-0,010
-581,050	-63,862	-0,010	0,003
-580,036	75,424	-0,051	0,040
-579,021	245,630	-0,060	0,074
-578,006	800,000	-0,028	0,059
-576,992	-3,575	-0,067	-0,034
-575,977	800,000	-0,016	0,040
-574,963	-47,092	0,060	0,021
-573,948	800,000	-0,007	-0,019
-572,934	-75,199	-0,018	-0,005
-571,919	37,996	-0,039	-0,026
-570,904	-73,468	-0,144	-0,039
-569,890	-50,699	0,070	0,024
-568,875	-200,000	0,000	0,102
-567,861	-59,122	0,077	0,024
-566,846	-20,388	0,087	-0,039
-565,831	-200,000	0,008	-0,065
-564,817	185,750	-0,089	-0,098
-563,802	-62,020	0,096	0,029
-562,788	800,000	0,042	-0,086
-561,773	-200,000	0,022	-0,137
-560,758	34,376	0,064	0,041
-559,744	800,000	-0,011	0,034
-558,729	280,617	0,090	0,119
-557,715	-75,751	0,163	0,042
-556,700	-63,879	-0,163	-0,049
-555,685	398,300	-0,003	-0,004
-554,671	-200,000	-0,007	0,116
-553,656	-92,485	0,262	0,054
-552,642	-200,000	0,002	0,121
-551,627	-200,000	-0,043	0,186
-550,612	44,291	-0,025	0,017
-549,598	177,958	-0,039	0,042
-548,583	800,000	-0,013	-0,039
-547,569	-173,919	-0,121	-0,003
-546,554	-200,000	0,016	-0,121
-545,539	152,340	0,058	-0,058
-544,525	-200,000	-0,004	-0,013
-543,510	19,404	-0,111	-0,065
-542,496	-93,088	-0,119	-0,024
-541,481	800,000	0,024	-0,064
-540,466	-200,000	-0,018	-0,095
-539,452	-200,000	-0,013	-0,233
-538,437	-200,000	0,029	0,110
-537,423	800,000	0,056	0,145
-536,408	-23,879	-0,042	-0,018
-535,393	800,000	-0,036	-0,074
-534,379	-44,727	-0,070	0,026
-533,364	231,058	-0,029	-0,034
-532,350	800,000	-0,026	0,076
-531,335	800,000	-0,041	0,089
-530,321	-57,493	0,048	0,015
-529,306	120,750	-0,029	0,027
-528,291	800,000	-0,017	-0,042
-527,277	91,018	-0,245	-0,202
-526,262	-2,781	-0,113	-0,058
-525,248	325,757	0,022	0,031
-524,233	-200,000	-0,031	0,118
-523,218	-200,000	-0,001	0,137
-522,204	-200,000	-0,010	0,033
-521,189	-200,000	0,003	0,044
-520,175	63,585	-0,103	-0,076
-519,160	115,453	0,098	0,088
-518,145	-107,139	-0,089	-0,014
-517,131	-200,000	-0,007	0,034
-516,116	-200,000	-0,047	0,171
-515,102	800,000	0,021	0,065
-514,087	-106,630	0,041	0,007
-513,072	139,377	-0,102	-0,099
-512,058	305,793	0,047	0,064
-511,043	800,000	-0,033	-0,068
-510,029	-200,000	0,004	0,098
-509,014	-200,000	0,006	-0,021
-507,999	257,066	0,012	-0,016
-506,985	477,440	-0,039	0,065
-505,970	-49,229	-0,132	-0,046
-504,956	-165,993	0,113	0,003
-503,941	117,440	0,017	0,016
-502,926	175,348	0,084	0,089
-501,912	3,045	0,092	0,049
-500,897	162,237	-0,083	-0,085
-499,883	303,168	-0,065	-0,089
-498,868	-4,399	-0,153	0,077
-497,853	-39,718	0,117	-0,045
-496,839	108,767	0,059	-0,052
-495,824	224,813	-0,077	-0,092
-494,810	-200,000	0,003	0,043
-493,795	115,909	0,113	0,102
-492,781	143,625	-0,095	-0,093
-491,766	-83,773	-0,104	0,024
-490,751	-3,554	-0,103	-0,053
-489,737	249,569	0,082	-0,103
-488,722	65,395	-0,145	0,108
-487,708	-8,700	0,014	-0,007
-486,693	50,424	-0,065	0,045
-485,678	-200,000	-0,001	-0,124
-484,664	-63,377	-0,113	-0,034
-483,649	-151,210	-0,058	0,003
-482,635	218,922	0,018	-0,022
-481,620	85,367	0,064	-0,051
-480,605	800,000	0,038	0,109
-479,591	296,508	0,047	-0,064
-478,576	-56,212	-0,028	0,009
-477,562	800,000	0,043	-0,098
-476,547	229,508	-0,043	0,052
-475,532	591,601	-0,068	0,124
-474,518	-200,000	-0,009	-0,071
-473,503	64,897	0,039	-0,029
-472,489	-200,000	0,011	0,081
-471,474	363,633	0,110	-0,163
-470,459	-81,075	-0,098	-0,024
-469,445	-200,000	0,015	-0,054
-468,430	-200,000	-0,011	-0,086
-467,416	718,411	0,059	-0,116
-466,401	394,072	0,055	-0,084
-465,386	60,071	-0,003	-0,002
-464,372	-81,394	-0,071	0,017
-463,357	-45,452	0,106	-0,038
-462,343	800,000	-0,078	-0,212
-461,328	-57,588	-0,018	0,006
-460,313	-61,903	0,067	0,020
-459,299	94,796	0,061	0,051
-458,284	-28,312	-0,057	-0,024
-457,270	-120,199	0,074	-0,009
-456,255	794,289	-0,065	-0,132
-455,241	232,368	-0,066	-0,080
-454,226	6,345	0,085	0,046
-453,211	800,000	0,059	0,129
-452,197	90,341	-0,068	-0,056
-451,182	800,000	-0,080	0,216
-450,168	800,000	0,051	0,160
-449,153	397,798	-0,027	-0,041
-448,138	-200,000	0,010	-0,077
-447,124	-189,816	-0,093	0,001
-446,109	762,209	-0,065	-0,131
-445,095	-62,790	0,102	0,031
-444,080	-45,573	0,104	0,038
-443,065	-67,909	0,146	-0,041
-442,051	328,062	-0,057	0,080
-441,036	258,254	-0,066	-0,084
-440,022	-200,000	0,029	0,198
-439,007	266,764	-0,050	0,065
-437,992	74,430	0,135	0,104
-436,978	-47,404	0,093	-0,033
-435,963	800,000	-0,062	0,140
-434,949	227,367	-0,087	-0,103
-433,934	-64,078	0,046	-0,014
-432,919	-92,872	0,047	0,010
-431,905	800,000	-0,049	0,156
-430,890	-35,118	-0,070	0,028
-429,876	180,252	0,044	-0,047
-428,861	496,601	-0,027	0,045
-427,846	-6,400	-0,119	-0,059
-426,832	-93,011	-0,148	0,030
-425,817	-18,686	-0,063	0,029
-424,803	-200,000	0,015	-0,080
-423,788	-200,000	-0,010	0,040
-422,773	-130,333	0,109	0,011
-421,759	93,687	-0,017	-0,014
-420,744	64,720	-0,043	-0,032
-419,730	-36,152	0,140	-0,055
-418,715	800,000	-0,055	-0,131
-417,701	381,179	-0,088	-0,132
-416,686	348,939	0,048	0,070
-415,671	130,815	0,124	0,116
-414,657	800,000	-0,037	0,108
-413,642	-168,181	-0,108	-0,003
-412,628	-200,000	-0,019	0,086
-411,613	7,550	0,082	0,045
-410,598	-115,014	0,067	0,009
-409,584	-99,907	0,058	0,010
-408,569	-65,273	-0,088	-0,026
-407,555	115,358	0,120	0,107
-406,540	272,314	-0,014	-0,019
-405,525	254,217	0,067	-0,084
-404,511	259,521	-0,051	-0,064
-403,496	120,571	-0,170	-0,155
-402,482	628,127	-0,069	-0,127
-401,467	147,505	0,199	0,197
-400,452	12,390	-0,110	-0,062
-399,438	-34,443	-0,115	-0,046
-398,423	-200,000	0,003	-0,034
-397,409	800,000	-0,045	0,124
-396,394	518,874	-0,062	0,107
-395,379	-155,423	0,083	-0,004
-394,365	474,575	-0,028	-0,047
-393,350	291,234	0,073	0,098
-392,336	-68,778	-0,088	0,025
-391,321	800,000	0,058	-0,155
-390,306	-200,000	0,027	-0,184
-389,292	-26,380	-0,091	-0,039
-388,277	63,596	0,060	0,044
-387,263	-200,000	0,020	0,073
-386,248	155,366	0,149	0,150
-385,233	800,000	0,008	0,018
-384,219	800,000	-0,026	-0,064
-383,204	-200,000	0,020	-0,092
-382,190	-200,000	0,000	0,048
-381,175	400,778	-0,051	0,079
-380,160	-200,000	-0,034	0,132
-379,146	-55,169	0,014	0,005
-378,131	-195,781	0,128	-0,001
-377,117	179,231	-0,083	0,089
-376,102	169,707	0,131	0,137
-375,088	654,285	-0,042	-0,079
-374,073	-88,131	-0,080	-0,017
-373,058	-107,018	0,093	-0,015
-372,044	-200,000	0,001	0,121
-371,029	-200,000	-0,036	0,125
-370,015	-63,278	0,102	0,030
-369,000	207,616	0,063	-0,072
-367,985	242,774	0,125	-0,153
-366,971	-13,120	0,069	-0,033
-365,956	-200,000	-0,024	0,125
-364,942	-28,339	0,138	0,058
-363,927	210,360	0,068	0,078
-362,912	-165,424	-0,186	-0,006
-361,898	543,480	0,009	0,016
-360,883	800,000	-0,029	-0,082
-359,869	800,000	0,032	-0,065
-358,854	88,632	-0,052	0,042
-357,839	-91,915	0,072	-0,015
-356,825	-169,180	0,106	0,003
-355,810	49,455	0,049	0,034
-354,796	329,113	-0,073	0,102
-353,781	-44,838	-0,015	0,006
-352,766	-54,826	0,047	-0,016
-351,752	-93,220	-0,145	-0,029
-350,737	-200,000	-0,001	0,077
-349,723	79,266	0,131	0,103
-348,708	-200,000	0,000	-0,008
-347,693	289,839	0,054	0,071
-346,679	-200,000	-0,005	0,055
-345,664	163,947	-0,100	0,103
-344,650	21,768	-0,046	0,027
-343,635	118,510	0,056	-0,051
-342,620	-137,493	0,106	-0,009
-341,606	800,000	0,016	0,047
-340,591	134,146	0,091	0,086
-339,577	232,662	0,094	-0,113
-338,562	-200,000	-0,003	-0,081
-337,548	-200,000	0,002	0,048
-336,533	527,692	0,069	-0,119
-335,518	-200,000	-0,006	-0,028
-334,504	-164,405	0,072	-0,002
-333,489	331,365	-0,071	-0,101
-332,475	-81,228	0,048	-0,012
-331,460	800,000	-0,043	-0,103
-330,445	25,889	-0,054	0,033
-329,431	-93,563	-0,128	0,026
-328,416	223,284	0,062	0,073
-327,402	370,214	0,072	0,107
-326,387	209,167	0,034	-0,038
-325,372	-18,909	-0,081	-0,037
-324,358	99,417	-0,135	-0,114
-323,343	265,671	-0,078	0,099
-322,329	-25,139	0,020	-0,009
-321,314	800,000	0,023	0,055
-320,299	86,412	0,096	0,077
-319,285	72,318	-0,065	0,049
-318,270	58,895	-0,036	0,026
-317,256	-41,668	-0,067	-0,025
-316,241	-200,000	-0,032	0,152
-315,226	-200,000	0,005	0,099
-314,212	-150,151	0,132	-0,007
-313,197	-200,000	-0,002	0,039
-312,183	-200,000	-0,013	-0,099
-311,168	-78,338	-0,063	0,016
-310,153	-200,000	-0,017	-0,093
-309,139	-1,792	0,026	-0,014
-308,124	-74,318	0,048	-0,013
-307,110	-150,913	-0,070	0,004
-306,095	-200,000	-0,020	-0,068
-305,080	-180,681	0,126	-0,002
-304,066	-200,000	-0,019	-0,096
-303,051	-200,000	-0,002	-0,073
-302,037	144,302	-0,154	-0,150
-301,022	403,706	-0,085	-0,131
-300,008	-17,830	0,063	-0,029
-298,993	-200,000	-0,019	0,095
-297,978	800,000	-0,081	0,184
-296,964	-200,000	-0,002	-0,028
-295,949	174,310	-0,037	-0,039
-294,935	-200,000	-0,012	0,121
-293,920	800,000	-0,054	-0,139
-292,905	-8,743	0,187	-0,091
-291,891	-110,923	-0,053	0,008
-290,876	202,778	0,134	0,151
-289,862	800,000	0,047	-0,108
-288,847	-200,000	-0,006	-0,052
-287,832	-89,746	-0,075	-0,016
-286,818	56,507	0,027	-0,019
-285,803	800,000	0,022	-0,062
-284,789	-200,000	-0,008	0,063
-283,774	-200,000	-0,001	0,013
-282,759	800,000	0,027	-0,067
-281,745	168,254	0,059	-0,062
-280,730	-100,116	-0,074	-0,013
-279,716	173,805	0,074	-0,077
-278,701	-200,000	0,008	0,025
-277,686	70,277	0,071	0,054
-276,672	-94,391	-0,166	-0,033
-275,657	-200,000	-0,016	-0,090
-274,643	-200,000	0,006	-0,103
-273,628	128,181	-0,095	-0,088
-272,613	800,000	-0,043	-0,097
-271,599	-14,729	0,077	0,036
-270,584	48,283	0,055	0,038
-269,570	-147,622	-0,126	0,008
-268,555	-134,877	0,020	-0,002
-267,540	-24,910	-0,061	0,026
-266,526	-200,000	0,012	-0,145
-265,511	-45,923	-0,127	-0,045
-264,497	-179,809	-0,070	0,001
-263,482	-200,000	0,007	-0,035
-262,467	-200,000	0,004	0,021
-261,453	-200,000	-0,023	0,197
-260,438	380,558	-0,026	0,039
-259,424	11,979	-0,056	-0,031
-258,409	632,597	0,004	-0,008
-257,395	-115,637	0,114	0,015
-256,380	59,657	0,045	-0,032
-255,365	-151,115	-0,081	0,004
-254,351	127,086	0,084	-0,077
-253,336	-77,797	-0,041	-0,010
-252,322	226,512	-0,072	-0,085
-251,307	224,796	-0,049	-0,058
-250,292	-84,587	0,126	-0,029
-249,278	800,000	-0,010	0,030
-248,263	-74,428	0,149	0,039
-247,249	-200,000	0,039	0,151
-246,234	-200,000	-0,042	-0,191
-245,219	434,728	-0,076	-0,121
-244,205	-200,000	-0,034	-0,143
-243,190	88,386	0,120	-0,097
-242,176	61,450	0,172	-0,124
-241,161	-72,035	-0,072	-0,019
-240,146	326,792	-0,007	0,010
-239,132	-27,389	-0,096	-0,041
-238,117	40,109	-0,111	-0,072
-237,103	-74,217	-0,037	-0,010
-236,088	800,000	-0,095	0,194
-235,073	225,670	0,063	-0,074
-234,059	58,819	0,070	0,050
-233,044	800,000	0,019	-0,047
-232,030	-197,665	0,049	0,000
-231,015	800,000	-0,022	-0,059
-230,000	800,000	-0,106	-0,226
-228,986	-31,544	0,076	-0,031
-227,971	-200,000	-0,015	0,093
-226,957	665,972	-0,008	0,015
-225,942	-68,427	0,096	0,027
-224,927	71,968	-0,048	0,036
-223,913	-200,000	-0,028	0,108
-222,898	-200,000	-0,023	0,145
-221,884	89,395	0,126	0,102
-220,869	-50,098	0,102	0,035
-219,855	-131,999	0,086	-0,008
-218,840	-100,039	0,158	0,028
-217,825	-200,000	0,008	-0,075
-216,811	-200,000	0,001	0,061
-215,796	-36,023	-0,127	-0,049
-214,782	800,000	-0,022	0,071
-213,767	-76,209	-0,038	0,010
-212,752	-200,000	-0,008	0,071
-211,738	-200,000	-0,051	0,200
-210,723	85,633	0,053	0,042
-209,709	800,000	0,033	0,083
-208,694	-48,645	-0,074	-0,026
-207,679	-200,000	0,012	0,062
-206,665	186,188	0,071	-0,077
-205,650	349,889	0,058	0,084
-204,636	90,149	0,156	0,127
-203,621	-161,518	0,085	0,003
-202,606	449,536	-0,030	0,048
-201,592	800,000	0,082	-0,181
-200,577	305,365	-0,016	-0,022
-199,563	800,000	0,026	0,070
-198,548	800,000	0,017	-0,037
-197,533	146,072	0,049	0,048
-196,519	800,000	-0,025	0,070
-195,504	389,329	-0,076	-0,115
-194,490	175,412	-0,083	0,087
-193,475	-69,390	-0,138	0,038
-192,460	694,989	0,056	0,108
-191,446	-171,986	-0,108	-0,002
-190,431	-200,000	0,043	0,168
-189,417	164,069	0,077	0,078
-188,402	200,317	0,051	-0,057
-187,387	-127,108	-0,105	0,011
-186,373	-39,419	0,093	-0,035
-185,358	-140,045	0,095	-0,007
-184,344	-9,638	0,115	-0,055
-183,329	480,273	0,027	0,044
-182,315	800,000	-0,061	0,152
-181,300	44,952	-0,042	0,028
-180,285	292,863	-0,032	-0,042
-179,271	93,033	-0,126	-0,103
-178,256	-200,000	-0,056	-0,200
-177,242	220,392	0,087	0,102
-176,227	-71,157	0,124	0,033
-175,212	800,000	0,054	-0,120
-174,198	800,000	0,024	0,051
-173,183	-114,755	-0,058	0,008
-172,169	29,897	0,052	-0,032
-171,154	51,525	0,141	-0,097
-170,139	800,000	0,062	0,129
-169,125	-200,000	0,004	0,114
-168,110	-69,796	0,143	-0,039
-167,096	800,000	0,015	-0,040
-166,081	80,372	-0,057	0,045
-165,066	9,486	0,038	-0,021
-164,052	-200,000	-0,008	0,027
-163,037	155,172	-0,047	0,047
-162,023	-200,000	0,014	0,117
-161,008	687,760	-0,033	0,063
-159,993	29,911	0,088	-0,054
-158,979	800,000	0,007	0,018
-157,964	327,183	-0,059	-0,083
-156,950	-200,000	-0,004	-0,105
-155,935	-200,000	-0,007	0,042
-154,920	-78,872	0,247	0,061
-153,906	695,786	0,038	0,072
-152,891	-200,000	-0,014	0,099
-151,877	442,757	0,026	-0,041
-150,862	-200,000	-0,027	-0,133
-149,847	800,000	0,038	0,080
-148,833	-109,810	-0,020	0,003
-147,818	800,000	-0,030	0,069
-146,804	233,827	-0,047	-0,056
-145,789	-56,070	-0,043	0,014
-144,775	-200,000	0,000	0,120
-143,760	227,982	0,048	-0,057
-142,745	-200,000	-0,030	-0,116
-141,731	-200,000	-0,003	-0,053
-140,716	307,964	-0,112	0,152
-139,702	17,748	0,063	0,037
-138,687	-92,253	-0,085	0,017
-137,672	800,000	0,033	-0,078
-136,658	-18,121	0,044	-0,020
-135,643	17,488	0,065	-0,038
-134,629	-200,000	0,009	-0,164
-133,614	-200,000	-0,002	0,010
-132,599	-149,127	-0,072	-0,004
-131,585	-39,267	0,143	0,054
-130,570	-88,785	-0,051	-0,011
-129,556	-200,000	-0,021	-0,078
-128,541	74,279	0,131	-0,100
-127,526	-57,388	0,089	-0,028
-126,512	10,204	-0,119	-0,065
-125,497	-112,869	0,141	0,020
-124,483	-131,197	0,177	0,017
-123,468	375,475	-0,025	-0,036
-122,453	-28,666	0,091	0,038
-121,439	-200,000	0,029	-0,108
-120,424	105,616	-0,099	-0,084
