DTS Sentinel unit serial number:	SN410029Multiplexer serial number:	ORYXHardware model number:	OX2-SRSoftware version number:	ORYX F/W v4,00 Oryx Data Collector v3.7.2.0data status	okinstallation	B3 Nyhavnadifferential loss correction	single-endedforward channel	channel 1reverse channel	N/Adate	2023/11/28time	12:47:31forward acquisition time	300,00reverse acquisition time	0,00gamma	499,1914k internal	0,3138k external	0,3138temperature offset calibration	1,0000default loss term (dB/km)	0,3820temperature slope calibration	1,0000multiplexer offset coefficient	1,0000multiplexer slope coefficient	1,0000fibre end	0,00T internal ref (°C)	8,28T ext. ref 1 (°C)	-7,68T ext. ref 2 (°C)	-7,86length (m)	temperature (°C)	Stokes	anti-Stokes-744,400	-200,000	-0,081	-0,325
-743,385	369,297	-0,172	0,259
-742,371	437,169	0,041	-0,066
-741,356	-200,000	0,054	0,253
-740,342	172,597	-0,168	-0,179
-739,327	800,000	-0,091	0,215
-738,312	388,216	-0,143	-0,220
-737,298	440,488	-0,152	0,248
-736,283	364,772	-0,169	-0,253
-735,269	-200,000	0,004	0,142
-734,254	17,559	-0,187	-0,110
-733,239	-44,865	-0,322	0,118
-732,225	-200,000	-0,025	-0,252
-731,210	800,000	0,074	0,241
-730,196	800,000	0,021	-0,058
-729,181	101,701	0,019	0,017
-728,167	-200,000	0,013	0,141
-727,152	-200,000	-0,012	-0,090
-726,137	254,275	-0,179	-0,227
-725,123	27,569	-0,096	-0,060
-724,108	-139,919	-0,078	-0,006
-723,094	190,424	0,044	-0,049
-722,079	268,469	-0,060	-0,079
-721,064	261,926	-0,024	0,031
-720,050	-24,127	-0,092	0,040
-719,035	87,440	-0,074	0,061
-718,021	-160,837	-0,032	0,001
-717,006	-68,780	-0,102	0,029
-715,991	800,000	-0,052	-0,116
-714,977	-200,000	-0,010	-0,112
-713,962	800,000	-0,019	0,044
-712,948	-200,000	-0,004	0,100
-711,933	301,343	0,102	-0,140
-710,918	457,478	-0,111	-0,184
-709,904	-200,000	0,030	-0,125
-708,889	135,179	-0,037	-0,036
-707,875	218,866	-0,042	-0,050
-706,860	358,872	-0,030	0,045
-705,845	86,040	0,052	0,042
-704,831	-127,397	-0,151	-0,016
-703,816	122,215	-0,135	-0,125
-702,802	800,000	0,051	0,107
-701,787	523,133	-0,059	-0,102
-700,772	-30,500	-0,082	0,034
-699,758	800,000	0,031	0,076
-698,743	800,000	-0,049	-0,118
-697,729	205,282	0,065	0,075
-696,714	-34,738	0,034	0,014
-695,699	586,376	-0,057	0,105
-694,685	-71,379	-0,056	-0,016
-693,670	800,000	-0,044	-0,096
-692,656	800,000	-0,047	-0,126
-691,641	-35,109	0,087	0,035
-690,627	-140,806	0,228	0,017
-689,612	66,777	-0,104	0,078
-688,597	800,000	0,031	0,083
-687,583	-154,646	-0,057	-0,003
-686,568	144,727	-0,112	-0,111
-685,554	-55,144	0,061	-0,020
-684,539	544,321	0,036	-0,065
-683,524	-51,978	0,127	0,043
-682,510	-19,366	-0,120	0,055
-681,495	-116,846	-0,123	0,016
-680,481	-200,000	-0,006	0,092
-679,466	271,312	-0,042	-0,054
-678,451	660,916	0,032	-0,061
-677,437	103,163	0,065	0,056
-676,422	-7,025	-0,078	-0,039
-675,408	-42,314	0,125	-0,047
-674,393	800,000	-0,039	0,116
-673,378	-42,734	-0,128	0,048
-672,364	636,786	-0,059	-0,112
-671,349	-200,000	-0,010	-0,066
-670,335	800,000	0,015	0,031
-669,320	183,339	0,068	0,074
-668,305	47,419	-0,114	0,078
-667,291	800,000	-0,012	0,032
-666,276	71,017	-0,032	-0,025
-665,262	800,000	0,053	-0,132
-664,247	333,191	-0,060	-0,085
-663,232	17,119	0,112	0,065
-662,218	61,039	-0,025	-0,018
-661,203	-200,000	0,006	0,027
-660,189	188,113	-0,076	0,085
-659,174	110,589	0,057	-0,051
-658,159	438,679	0,033	0,054
-657,145	571,084	-0,016	0,029
-656,130	-42,756	-0,116	0,043
-655,116	-200,000	0,013	0,076
-654,101	-200,000	-0,017	0,080
-653,086	9,617	0,110	0,061
-652,072	377,193	-0,027	0,041
-651,057	22,252	-0,090	0,054
-650,043	800,000	0,017	0,050
-649,028	17,606	-0,102	-0,060
-648,014	618,331	0,020	0,037
-646,999	-108,340	-0,097	0,015
-645,984	-8,184	-0,057	0,028
-644,970	-200,000	-0,003	-0,046
-643,955	-200,000	-0,031	-0,154
-642,941	-46,483	0,028	-0,010
-641,926	-70,819	-0,155	0,043
-640,911	-164,455	0,092	0,003
-639,897	-200,000	-0,005	0,089
-638,882	-122,761	-0,050	-0,006
-637,868	-132,899	-0,096	0,009
-636,853	-200,000	-0,003	-0,076
-635,838	771,289	-0,063	0,127
-634,824	-74,851	-0,041	-0,011
-633,809	221,182	0,073	0,086
-632,795	180,237	0,127	0,137
-631,780	-200,000	-0,010	0,088
-630,765	-200,000	-0,032	0,181
-629,751	-200,000	-0,014	-0,157
-628,736	461,327	-0,067	-0,111
-627,722	56,960	-0,069	-0,049
-626,707	-26,123	0,033	-0,014
-625,692	39,501	0,082	-0,054
-624,678	800,000	0,040	-0,101
-623,663	-47,281	0,050	0,018
-622,649	54,791	-0,047	0,034
-621,634	136,552	0,070	0,068
-620,619	31,727	-0,084	-0,054
-619,605	-200,000	-0,010	-0,072
-618,590	-200,000	0,014	0,050
-617,576	-200,000	-0,015	0,098
-616,561	800,000	0,034	0,082
-615,546	-8,643	0,103	0,051
-614,532	-133,452	-0,070	0,006
-613,517	144,515	0,082	-0,080
-612,503	-200,000	0,003	0,142
-611,488	-200,000	-0,006	0,189
-610,474	169,044	-0,101	0,107
-609,459	-200,000	0,016	-0,086
-608,444	-11,463	0,141	-0,068
-607,430	-200,000	-0,020	-0,105
-606,415	284,237	-0,080	-0,107
-605,401	193,722	-0,073	0,082
-604,386	139,543	-0,041	0,040
-603,371	800,000	0,028	0,072
-602,357	111,083	-0,043	-0,038
-601,342	146,405	0,054	0,053
-600,328	-92,862	-0,096	0,020
-599,313	387,702	-0,060	-0,091
-598,298	-101,132	-0,125	-0,022
-597,284	-82,084	0,056	0,013
-596,269	-22,406	-0,087	0,039
-595,255	-200,000	0,015	0,133
-594,240	250,931	0,083	0,104
-593,225	-200,000	0,014	-0,057
-592,211	-200,000	0,011	-0,078
-591,196	-51,293	0,017	-0,006
-590,182	-200,000	0,018	-0,071
-589,167	-200,000	-0,005	-0,126
-588,152	87,311	0,093	-0,076
-587,138	414,324	-0,039	-0,061
-586,123	20,527	-0,056	0,033
-585,109	-102,321	0,059	0,010
-584,094	-101,342	0,051	-0,009
-583,079	-120,370	0,031	0,004
-582,065	-77,533	0,006	-0,002
-581,050	196,317	-0,075	0,084
-580,036	287,418	-0,066	-0,088
-579,021	-200,000	-0,029	0,102
-578,006	103,698	0,020	-0,017
-576,992	-44,210	-0,063	-0,023
-575,977	581,664	0,069	-0,125
-574,963	-129,848	0,144	0,014
-573,948	-115,614	-0,058	-0,008
-572,934	-71,107	-0,079	-0,022
-571,919	-3,607	0,063	-0,032
-570,904	47,924	-0,072	-0,050
-569,890	361,987	-0,065	0,097
-568,875	-101,121	0,031	-0,005
-567,861	-98,262	0,074	-0,014
-566,846	105,237	-0,144	-0,125
-565,831	-74,065	-0,015	-0,004
-564,817	-11,742	-0,075	0,036
-563,802	-63,942	-0,029	0,009
-562,788	11,167	-0,118	0,066
-561,773	91,058	-0,071	0,058
-560,758	-10,284	0,086	-0,042
-559,744	141,046	0,046	0,045
-558,729	-87,708	0,042	0,009
-557,715	610,469	0,030	0,055
-556,700	-85,613	-0,061	-0,014
-555,685	800,000	-0,024	-0,072
-554,671	-200,000	-0,011	0,077
-553,656	20,968	-0,083	-0,050
-552,642	800,000	0,020	-0,061
-551,627	11,139	-0,045	0,025
-550,612	431,817	-0,068	-0,110
-549,598	227,504	-0,038	0,046
-548,583	-200,000	-0,017	-0,058
-547,569	382,113	-0,098	-0,149
-546,554	-166,767	0,114	-0,003
-545,539	-200,000	0,017	0,113
-544,525	11,452	0,070	0,039
-543,510	541,861	0,035	-0,062
-542,496	800,000	-0,023	0,073
-541,481	-36,855	-0,090	-0,035
-540,466	-9,511	0,085	0,042
-539,452	495,310	0,105	0,179
-538,437	800,000	-0,032	0,069
-537,423	-200,000	0,005	0,037
-536,408	-81,736	-0,049	-0,012
-535,393	-84,495	0,046	-0,011
-534,379	767,268	0,078	-0,157
-533,364	-51,382	0,052	0,018
-532,350	102,715	0,099	-0,085
-531,335	315,265	0,058	0,080
-530,321	800,000	0,059	0,134
-529,306	-47,717	0,135	0,048
-528,291	-48,147	0,124	0,044
-527,277	-59,850	-0,040	0,013
-526,262	149,560	0,086	-0,086
-525,248	-26,358	0,123	-0,053
-524,233	-96,293	0,138	-0,027
-523,218	-200,000	-0,026	-0,149
-522,204	152,973	0,045	-0,046
-521,189	-200,000	-0,019	0,163
-520,175	324,848	0,072	-0,102
-519,160	256,870	0,101	-0,128
-518,145	-66,400	0,158	-0,046
-517,131	-200,000	-0,008	0,091
-516,116	158,615	0,053	0,054
-515,102	277,814	0,039	-0,052
-514,087	178,081	-0,118	-0,126
-513,072	-133,384	-0,112	0,010
-512,058	488,204	-0,030	0,051
-511,043	23,460	-0,028	-0,017
-510,029	25,309	0,161	0,098
-509,014	405,851	-0,047	0,073
-507,999	568,928	0,009	0,015
-506,985	-200,000	-0,039	-0,153
-505,970	182,797	-0,072	-0,078
-504,956	-44,644	-0,072	0,026
-503,941	166,094	0,098	-0,102
-502,926	-99,567	0,076	0,014
-501,912	467,210	0,059	0,098
-500,897	66,722	0,155	0,116
-499,883	70,656	0,029	0,022
-498,868	-123,872	0,076	-0,009
-497,853	292,063	0,053	0,072
-496,839	-139,969	0,099	0,008
-495,824	-161,959	0,111	-0,004
-494,810	-172,119	-0,183	0,004
-493,795	50,039	0,073	-0,051
-492,781	62,608	0,028	0,021
-491,766	-196,480	-0,057	-0,000
-490,751	-85,173	-0,115	-0,026
-489,737	-37,369	0,079	-0,031
-488,722	15,948	-0,032	0,018
-487,708	-61,395	0,066	0,020
-486,693	109,804	-0,026	0,023
-485,678	-168,644	0,061	0,002
-484,664	-200,000	0,019	-0,215
-483,649	6,339	0,076	-0,041
-482,635	-9,477	0,040	-0,019
-481,620	304,927	0,081	-0,111
-480,605	-37,366	0,115	0,045
-479,591	30,935	0,110	0,069
-478,576	64,524	0,126	0,093
-477,562	-115,479	0,148	-0,020
-476,547	-200,000	0,003	-0,199
-475,532	383,787	0,019	-0,028
-474,518	-200,000	0,005	0,084
-473,503	598,774	0,044	-0,081
-472,489	26,515	0,038	-0,023
-471,474	164,209	-0,106	-0,109
-470,459	-74,768	-0,060	-0,016
-469,445	-200,000	-0,011	0,218
-468,430	-200,000	0,020	0,068
-467,416	-121,766	0,050	0,006
-466,401	276,459	-0,027	0,035
-465,386	148,466	-0,074	0,073
-464,372	-200,000	-0,003	0,017
-463,357	-122,019	0,130	-0,016
-462,343	51,385	-0,134	-0,093
-461,328	-81,842	-0,046	-0,011
-460,313	159,991	0,089	0,091
-459,299	-200,000	0,029	0,184
-458,284	-32,351	0,092	0,038
-457,270	-73,396	0,017	-0,005
-456,255	-119,154	0,162	0,021
-455,241	49,462	0,038	0,026
-454,226	-200,000	-0,015	0,048
-453,211	-33,380	-0,135	0,055
-452,197	715,276	0,047	0,093
-451,182	488,380	0,084	-0,142
-450,168	470,703	-0,032	-0,053
-449,153	-200,000	0,003	0,081
-448,138	48,992	-0,053	-0,036
-447,124	9,972	-0,044	-0,024
-446,109	800,000	-0,011	0,026
-445,095	800,000	0,029	0,082
-444,080	99,849	0,046	0,039
-443,065	800,000	-0,038	-0,088
-442,051	-95,960	-0,004	-0,001
-441,036	-65,487	-0,103	-0,030
-440,022	800,000	0,015	0,032
-439,007	-121,364	0,106	-0,013
-437,992	800,000	0,025	0,066
-436,978	42,124	-0,043	-0,029
-435,963	-110,104	0,078	0,012
-434,949	-82,193	0,050	0,012
-433,934	-36,825	0,032	-0,012
-432,919	-117,417	-0,135	-0,018
-431,905	-200,000	0,060	-0,205
-430,890	-200,000	0,022	0,116
-429,876	30,573	0,105	0,066
-428,861	-61,778	0,026	0,008
-427,846	276,062	0,025	0,033
-426,832	120,282	0,025	-0,023
-425,817	800,000	-0,084	-0,224
-424,803	119,820	-0,018	-0,017
-423,788	442,379	-0,011	0,018
-422,773	-200,000	-0,021	-0,136
-421,759	644,724	0,044	-0,082
-420,744	-3,941	0,093	0,047
-419,730	387,337	-0,020	-0,030
-418,715	336,575	-0,088	-0,126
-417,701	-44,423	-0,077	0,028
-416,686	463,398	-0,034	0,056
-415,671	800,000	-0,027	0,073
-414,657	800,000	0,067	0,169
-413,642	227,665	-0,066	0,079
-412,628	-122,491	-0,089	0,011
-411,613	-139,521	0,022	-0,002
-410,598	450,942	0,051	-0,083
-409,584	76,400	0,090	-0,069
-408,569	163,524	0,034	0,035
-407,555	-200,000	-0,013	0,073
-406,540	-48,657	-0,099	0,034
-405,525	117,219	-0,044	-0,040
-404,511	304,079	-0,053	-0,072
-403,496	-179,371	-0,063	0,001
-402,482	-200,000	-0,007	0,039
-401,467	268,442	0,099	-0,127
-400,452	-103,853	-0,070	0,012
-399,438	31,905	0,136	-0,086
-398,423	-29,442	-0,204	-0,085
-397,409	151,522	0,104	-0,104
-396,394	266,285	-0,085	-0,109
-395,379	-130,586	-0,165	0,016
-394,365	-200,000	-0,016	0,133
-393,350	9,636	0,104	0,058
-392,336	302,893	-0,072	0,098
-391,321	163,886	0,103	-0,106
-390,306	-78,880	-0,113	-0,028
-389,292	3,198	0,066	-0,035
-388,277	115,210	-0,106	-0,095
-387,263	-200,000	0,030	0,212
-386,248	390,750	0,039	0,059
-385,233	29,869	0,123	0,076
-384,219	-179,768	-0,143	0,002
-383,204	-119,586	-0,105	0,013
-382,190	97,292	-0,056	-0,047
-381,175	197,789	-0,031	-0,034
-380,160	99,496	-0,081	0,069
-379,146	450,559	0,032	0,053
-378,131	409,321	0,042	0,066
-377,117	-200,000	-0,011	0,041
-376,102	-200,000	0,007	-0,063
-375,088	111,746	-0,100	-0,089
-374,073	800,000	0,070	-0,158
-373,058	-14,935	0,080	0,037
-372,044	800,000	0,032	-0,071
-371,029	-100,638	0,106	-0,019
-370,015	-38,413	-0,111	-0,043
-369,000	225,862	0,079	-0,094
-367,985	-148,155	0,037	0,002
-366,971	263,910	0,063	-0,080
-365,956	10,697	-0,033	0,018
-364,942	-200,000	0,017	0,127
-363,927	-155,116	0,121	-0,006
-362,912	-139,854	0,063	0,005
-361,898	107,976	-0,056	-0,049
-360,883	610,251	-0,082	-0,150
-359,869	800,000	0,036	-0,082
-358,854	406,997	0,020	-0,031
-357,839	182,503	-0,021	-0,023
-356,825	95,866	0,063	-0,053
-355,810	-200,000	0,020	0,183
-354,796	-120,214	-0,114	-0,014
-353,781	-200,000	-0,005	-0,039
-352,766	-77,814	-0,115	-0,029
-351,752	50,835	0,029	-0,020
-350,737	-125,733	0,188	0,021
-349,723	-39,225	0,078	0,030
-348,708	800,000	0,031	0,069
-347,693	800,000	0,017	0,049
-346,679	-111,803	-0,064	0,009
-345,664	-129,129	-0,091	-0,009
-344,650	108,001	-0,015	-0,013
-343,635	14,464	0,128	0,073
-342,620	473,897	0,017	-0,028
-341,606	800,000	0,072	0,165
-340,591	-118,228	0,060	-0,008
-339,577	-21,497	-0,051	-0,023
-338,562	349,478	0,075	-0,109
-337,548	800,000	-0,010	0,031
-336,533	213,549	0,095	0,110
-335,518	-200,000	-0,039	0,273
-334,504	-200,000	0,033	0,158
-333,489	395,538	-0,076	-0,117
-332,475	-49,347	-0,068	0,024
-331,460	-37,989	-0,063	-0,024
-330,445	-87,225	0,067	0,015
-329,431	-200,000	0,014	-0,049
-328,416	-99,054	0,087	0,016
-327,402	565,254	-0,031	0,055
-326,387	209,303	-0,060	0,068
-325,372	800,000	-0,016	0,036
-324,358	-200,000	0,023	-0,213
-323,343	188,917	-0,027	0,029
-322,329	-200,000	0,005	0,130
-321,314	228,489	-0,014	0,016
-320,299	800,000	0,039	0,082
-319,285	-200,000	-0,019	-0,089
-318,270	66,714	-0,083	0,061
-317,256	-200,000	-0,011	-0,104
-316,241	-101,013	0,233	0,041
-315,226	800,000	0,020	0,050
-314,212	-200,000	-0,025	-0,083
-313,197	-138,079	0,041	0,003
-312,183	85,621	0,081	-0,065
-311,168	109,643	-0,096	-0,084
-310,153	122,933	-0,146	0,134
-309,139	-200,000	-0,018	0,195
-308,124	588,413	-0,036	-0,065
-307,110	-110,370	-0,128	0,019
-306,095	28,185	0,046	0,029
-305,080	-200,000	-0,008	-0,123
-304,066	344,763	-0,046	-0,066
-303,051	800,000	-0,037	-0,105
-302,037	219,383	-0,082	0,095
-301,022	-18,335	0,068	-0,031
-300,008	-200,000	-0,011	0,078
-298,993	194,223	-0,097	0,107
-297,978	-200,000	0,004	-0,107
-296,964	66,722	0,010	-0,008
-295,949	-76,205	-0,078	0,020
-294,935	-42,337	-0,040	-0,015
-293,920	-6,931	0,089	0,044
-292,905	122,541	0,055	0,050
-291,891	-105,108	-0,166	0,027
-290,876	-87,690	0,069	0,015
-289,862	800,000	-0,036	0,090
-288,847	90,094	-0,128	-0,104
-287,832	75,258	0,137	-0,105
-286,818	99,434	-0,180	-0,151
-285,803	320,363	-0,074	-0,102
-284,789	31,953	0,054	-0,034
-283,774	303,698	0,062	-0,084
-282,759	101,750	-0,069	0,058
-281,745	-10,343	-0,088	-0,043
-280,730	121,162	0,055	0,050
-279,716	23,503	0,022	0,013
-278,701	-65,772	-0,033	-0,009
-277,686	-2,934	0,148	0,075
-276,672	-75,455	-0,033	-0,008
-275,657	176,566	-0,063	-0,067
-274,643	-89,145	-0,091	-0,019
-273,628	95,479	-0,087	-0,072
-272,613	-200,000	0,003	-0,118
-271,599	-53,860	0,133	-0,044
-270,584	-64,078	0,156	-0,046
-269,570	800,000	-0,026	0,064
-268,555	-148,877	0,046	-0,003
-267,540	800,000	-0,043	-0,121
-266,526	179,912	-0,039	-0,041
-265,511	-200,000	0,016	-0,061
-264,497	-1,329	0,119	-0,061
-263,482	800,000	-0,064	-0,141
-262,467	-200,000	0,009	0,032
-261,453	-200,000	0,005	-0,023
-260,438	-138,693	0,049	0,004
-259,424	-56,064	-0,137	-0,044
-258,409	92,767	-0,133	0,110
-257,395	-200,000	-0,019	-0,192
-256,380	-200,000	0,021	0,145
-255,365	-200,000	0,009	0,060
-254,351	-200,000	0,022	-0,146
-253,336	173,450	0,033	-0,035
-252,322	-200,000	0,004	0,048
-251,307	800,000	0,047	-0,101
-250,292	209,698	0,053	0,060
-249,278	130,164	0,081	0,075
-248,263	800,000	0,083	0,222
-247,249	800,000	-0,065	0,185
-246,234	424,521	-0,082	0,129
-245,219	-92,492	-0,189	0,038
-244,205	-71,923	-0,079	-0,021
-243,190	800,000	-0,060	0,128
-242,176	-58,527	0,021	0,007
-241,161	-200,000	-0,014	0,145
-240,146	-78,670	0,069	-0,017
-239,132	800,000	0,022	-0,046
-238,117	717,896	0,037	-0,071
-237,103	800,000	-0,021	-0,059
-236,088	-100,086	0,120	-0,022
-235,073	207,789	-0,044	-0,050
-234,059	800,000	-0,037	0,080
-233,044	-110,201	-0,084	0,013
-232,030	26,761	0,094	0,057
-231,015	-200,000	0,008	-0,165
-230,000	312,269	-0,036	0,049
-228,986	-200,000	0,005	0,021
-227,971	-200,000	-0,005	0,032
-226,957	-200,000	0,016	0,054
-225,942	635,236	-0,014	0,026
-224,927	-24,920	-0,037	-0,016
-223,913	-83,933	0,073	-0,017
-222,898	800,000	-0,048	-0,099
-221,884	-200,000	-0,001	-0,046
-220,869	-200,000	-0,022	0,132
-219,855	664,116	0,041	-0,077
-218,840	-200,000	0,010	0,143
-217,825	-200,000	0,019	-0,115
-216,811	-200,000	0,006	0,046
-215,796	-200,000	-0,006	0,130
-214,782	-135,237	-0,212	-0,018
-213,767	-138,138	0,067	0,005
-212,752	-200,000	0,042	0,140
-211,738	-200,000	0,024	-0,119
-210,723	474,724	-0,028	-0,046
-209,709	399,845	0,024	-0,037
-208,694	800,000	-0,024	0,056
-207,679	-64,895	0,001	0,000
-206,665	-200,000	-0,025	0,141
-205,650	-123,106	0,116	-0,013
-204,636	133,717	0,070	0,066
-203,621	-68,142	-0,042	0,012
-202,606	1,238	-0,080	0,042
-201,592	-200,000	0,017	-0,237
-200,577	392,573	0,026	-0,039
-199,563	120,303	-0,059	0,053
-198,548	-200,000	-0,016	0,117
-197,533	147,151	-0,100	0,098
-196,519	372,429	0,058	-0,086
-195,504	96,336	-0,119	0,099
-194,490	800,000	-0,069	-0,186
-193,475	614,566	-0,087	-0,158
-192,460	-103,855	0,111	-0,019
-191,446	434,697	-0,050	0,079
-190,431	161,206	-0,037	0,038
-189,417	-200,000	-0,021	-0,100
-188,402	-200,000	0,012	0,043
-187,387	-83,736	-0,121	0,028
-186,373	757,934	0,048	0,094
-185,358	286,626	-0,026	0,034
-184,344	-200,000	0,000	0,054
-183,329	373,318	0,046	0,068
-182,315	166,276	-0,037	-0,038
-181,300	-148,221	-0,115	-0,007
-180,285	-200,000	-0,002	0,096
-179,271	127,714	-0,022	0,020
-178,256	-116,364	0,064	0,009
-177,242	-124,240	0,035	-0,004
-176,227	1,177	-0,058	0,030
-175,212	36,945	-0,043	0,027
-174,198	-200,000	-0,030	-0,150
-173,183	214,177	-0,141	-0,162
-172,169	-38,105	-0,053	0,020
-171,154	-41,203	0,085	0,031
-170,139	-200,000	0,017	0,147
-169,125	-121,037	-0,043	-0,005
-168,110	-129,033	0,015	0,002
-167,096	-200,000	-0,015	-0,065
-166,081	427,745	-0,049	-0,078
-165,066	-200,000	0,013	-0,091
-164,052	70,344	-0,075	-0,056
-163,037	-200,000	-0,010	0,052
-162,023	800,000	-0,027	0,060
-161,008	141,949	0,078	0,075
-159,993	-200,000	-0,020	-0,131
-158,979	-200,000	0,001	-0,026
-157,964	-17,782	-0,113	-0,051
-156,950	-172,334	0,021	0,000
-155,935	800,000	-0,034	0,076
-154,920	-200,000	-0,013	0,053
-153,906	-200,000	-0,000	-0,042
-152,891	484,423	0,012	-0,020
-151,877	106,920	-0,103	0,088
-150,862	37,199	0,088	0,056
-149,847	36,562	-0,102	-0,065
-148,833	-46,385	0,025	0,009
-147,818	-134,035	0,136	-0,012
-146,804	-200,000	0,040	0,152
-145,789	800,000	0,010	0,025
-144,775	-200,000	0,008	0,094
-143,760	800,000	-0,021	-0,046
-142,745	-140,050	0,048	0,004
-141,731	-31,312	0,057	0,023
-140,716	-141,691	0,105	0,008
-139,702	-200,000	0,004	-0,054
-138,687	-4,015	0,095	0,047
-137,672	800,000	-0,048	-0,106
-136,658	24,070	-0,072	-0,043
-135,643	297,884	0,069	0,092
-134,629	-2,831	-0,091	0,046
-133,614	-200,000	0,030	0,155
-132,599	579,129	0,111	0,198
-131,585	-120,573	-0,055	-0,007
-130,570	-176,299	0,062	-0,001
-129,556	40,392	-0,130	-0,085
-128,541	185,684	-0,055	-0,059
-127,526	-200,000	-0,006	0,022
-126,512	-200,000	0,010	0,157
-125,497	246,200	0,096	0,117
-124,483	-115,409	0,112	0,015
-123,468	3,206	-0,134	-0,071
-122,453	74,955	-0,055	0,042
-121,439	-10,771	0,058	-0,028
-120,424	-200,000	-0,011	0,042
-119,410	104,518	0,015	-0,013
