DTS Sentinel unit serial number:	SN410029Multiplexer serial number:	ORYXHardware model number:	OX2-SRSoftware version number:	ORYX F/W v4,00 Oryx Data Collector v3.7.2.0data status	okinstallation	B3 Nyhavnadifferential loss correction	single-endedforward channel	channel 1reverse channel	N/Adate	2023/11/28time	10:37:30forward acquisition time	300,00reverse acquisition time	0,00gamma	499,1914k internal	0,3145k external	0,3145temperature offset calibration	1,0000default loss term (dB/km)	0,3820temperature slope calibration	1,0000multiplexer offset coefficient	1,0000multiplexer slope coefficient	1,0000fibre end	0,00T internal ref (°C)	9,82T ext. ref 1 (°C)	-7,02T ext. ref 2 (°C)	-7,24length (m)	temperature (°C)	Stokes	anti-Stokes-744,400	553,581	-0,187	-0,334
-743,385	-200,000	0,011	0,314
-742,371	-87,689	-0,162	-0,036
-741,356	-200,000	-0,018	0,308
-740,342	323,421	-0,201	-0,285
-739,327	26,538	-0,136	0,084
-738,312	33,875	-0,155	-0,100
-737,298	-200,000	-0,008	0,176
-736,283	602,654	-0,202	-0,374
-735,269	-200,000	-0,035	0,343
-734,254	760,007	-0,113	-0,228
-733,239	263,710	-0,196	0,253
-732,225	376,199	-0,140	-0,213
-731,210	2,351	0,135	0,072
-730,196	-57,708	-0,025	-0,008
-729,181	-43,257	0,080	-0,030
-728,167	-57,406	-0,081	0,026
-727,152	0,541	0,080	0,042
-726,137	-152,608	-0,137	0,007
-725,123	88,103	-0,125	-0,103
-724,108	557,683	-0,038	0,068
-723,094	-88,395	-0,120	-0,026
-722,079	146,384	-0,090	-0,090
-721,064	-200,000	0,015	0,051
-720,050	800,000	-0,058	0,176
-719,035	39,099	-0,111	0,073
-718,021	800,000	-0,052	0,171
-717,006	-200,000	-0,038	0,000
-715,991	276,733	-0,101	-0,133
-714,977	-86,218	-0,111	0,025
-713,962	-200,000	-0,001	-0,009
-712,948	8,134	0,031	0,017
-711,933	266,943	0,037	0,048
-710,918	-200,000	-0,019	0,087
-709,904	152,230	-0,064	-0,065
-708,889	27,445	0,034	0,021
-707,875	-200,000	-0,001	-0,080
-706,860	104,215	-0,147	0,127
-705,845	-27,168	0,041	-0,018
-704,831	73,769	-0,079	0,061
-703,816	-200,000	-0,015	0,171
-702,802	215,837	-0,095	-0,112
-701,787	93,086	-0,081	0,068
-700,772	112,539	0,077	-0,069
-699,758	209,600	-0,035	-0,041
-698,743	-65,903	-0,044	0,013
-697,729	800,000	0,044	0,091
-696,714	-200,000	0,042	0,139
-695,699	19,700	-0,148	-0,088
-694,685	112,733	-0,095	-0,085
-693,670	108,294	0,057	-0,051
-692,656	38,876	-0,128	-0,084
-691,641	-22,280	0,106	-0,047
-690,627	800,000	-0,016	0,039
-689,612	-200,000	0,002	-0,083
-688,597	18,341	-0,153	-0,090
-687,583	306,553	0,052	-0,072
-686,568	-200,000	0,020	-0,085
-685,554	-30,547	-0,014	-0,006
-684,539	-200,000	0,011	0,046
-683,524	46,638	-0,118	-0,081
-682,510	-2,433	0,055	0,028
-681,495	354,826	0,066	0,097
-680,481	-104,719	-0,112	0,019
-679,466	17,547	-0,107	-0,063
-678,451	71,309	0,056	0,043
-677,437	-49,313	0,056	-0,019
-676,422	-37,267	0,094	-0,037
-675,408	32,564	-0,116	-0,074
-674,393	800,000	0,031	-0,094
-673,378	-200,000	-0,043	-0,148
-672,364	180,794	-0,024	0,026
-671,349	348,705	-0,062	0,090
-670,335	-113,789	0,078	-0,011
-669,320	13,681	-0,101	-0,058
-668,305	-41,431	-0,075	0,028
-667,291	800,000	-0,023	-0,074
-666,276	-25,039	-0,122	-0,053
-665,262	651,007	-0,048	0,092
-664,247	-71,147	0,057	0,016
-663,232	138,316	0,024	-0,023
-662,218	-200,000	-0,028	0,000
-661,203	265,730	0,025	0,032
-660,189	39,008	-0,066	0,043
-659,174	46,371	-0,002	0,001
-658,159	199,031	-0,065	-0,074
-657,145	-138,007	0,138	-0,011
-656,130	800,000	0,033	-0,084
-655,116	93,153	-0,076	0,063
-654,101	-6,091	-0,048	0,024
-653,086	-85,622	-0,120	0,027
-652,072	69,653	-0,057	0,043
-651,057	-92,130	-0,100	-0,021
-650,043	-36,432	0,040	-0,016
-649,028	152,475	0,027	-0,027
-648,014	427,476	-0,020	0,032
-646,999	800,000	0,048	0,131
-645,984	-200,000	0,093	0,000
-644,970	-200,000	0,048	-0,219
-643,955	-46,671	-0,122	-0,044
-642,941	-45,966	-0,158	0,057
-641,926	-130,130	0,084	0,008
-640,911	800,000	-0,010	0,023
-639,897	6,671	0,030	-0,016
-638,882	-33,678	0,111	-0,045
-637,868	134,374	-0,105	-0,100
-636,853	440,656	-0,034	-0,055
-635,838	244,794	0,035	0,044
-634,824	800,000	0,023	0,064
-633,809	-91,100	0,090	-0,019
-632,795	-2,951	0,105	0,054
-631,780	114,704	-0,097	-0,087
-630,765	-200,000	0,003	0,020
-629,751	800,000	-0,017	-0,045
-628,736	145,662	-0,057	-0,056
-627,722	283,794	0,043	-0,057
-626,707	-97,310	-0,085	-0,016
-625,692	207,247	0,052	-0,060
-624,678	-200,000	0,038	0,172
-623,663	200,959	-0,111	-0,126
-622,649	-96,074	-0,136	-0,026
-621,634	322,341	-0,081	0,115
-620,619	-200,000	-0,006	0,031
-619,605	389,107	0,014	0,021
-618,590	-200,000	0,009	0,100
-617,576	-200,000	0,011	0,080
-616,561	481,504	-0,070	-0,117
-615,546	-200,000	0,012	-0,136
-614,532	797,112	-0,035	-0,072
-613,517	-61,235	-0,128	-0,039
-612,503	549,452	0,055	-0,098
-611,488	-97,287	0,094	0,018
-610,474	-158,465	0,047	-0,002
-609,459	800,000	0,028	0,091
-608,444	645,787	0,039	-0,074
-607,430	-97,127	-0,138	0,026
-606,415	-34,920	-0,135	0,054
-605,401	-89,592	0,128	0,027
-604,386	97,742	-0,093	0,079
-603,371	-200,000	-0,016	0,094
-602,357	527,574	-0,005	-0,010
-601,342	-36,860	-0,051	-0,020
-600,328	52,056	-0,050	-0,035
-599,313	-74,901	0,065	-0,017
-598,298	-75,360	-0,150	0,039
-597,284	-116,993	0,065	-0,009
-596,269	-200,000	-0,011	-0,071
-595,255	743,922	0,065	-0,130
-594,240	176,601	0,064	-0,068
-593,225	39,721	0,110	-0,073
-592,211	800,000	-0,031	-0,064
-591,196	324,497	0,077	-0,109
-590,182	100,923	0,077	0,066
-589,167	800,000	-0,016	-0,042
-588,152	-100,790	-0,070	0,013
-587,138	294,489	-0,058	0,078
-586,123	488,640	-0,112	-0,189
-585,109	-200,000	-0,010	-0,123
-584,094	-23,184	0,044	-0,019
-583,079	800,000	0,012	0,025
-582,065	36,542	-0,046	0,030
-581,050	-200,000	-0,003	-0,053
-580,036	9,316	0,112	-0,062
-579,021	-17,027	-0,178	-0,082
-578,006	390,199	-0,075	-0,115
-576,992	-200,000	0,019	-0,157
-575,977	-118,631	0,127	0,016
-574,963	322,028	0,071	0,099
-573,948	257,461	-0,084	-0,107
-572,934	74,857	0,076	-0,058
-571,919	-200,000	-0,038	-0,164
-570,904	-200,000	0,019	-0,121
-569,890	-67,238	0,047	-0,013
-568,875	1,861	0,072	0,038
-567,861	-85,848	0,026	0,006
-566,846	375,331	0,033	0,049
-565,831	800,000	-0,030	0,085
-564,817	27,799	0,065	0,040
-563,802	-200,000	-0,011	0,063
-562,788	500,564	-0,045	-0,077
-561,773	-200,000	0,005	-0,132
-560,758	800,000	-0,015	0,044
-559,744	29,407	0,096	-0,060
-558,729	41,864	-0,011	-0,008
-557,715	-62,211	-0,165	0,050
-556,700	195,025	-0,105	-0,117
-555,685	-133,092	-0,124	-0,011
-554,671	-46,058	-0,095	0,034
-553,656	265,568	0,053	0,068
-552,642	800,000	-0,067	0,156
-551,627	-130,542	-0,043	0,004
-550,612	-200,000	-0,013	0,078
-549,598	-200,000	-0,026	-0,090
-548,583	-200,000	-0,001	-0,051
-547,569	800,000	-0,016	0,047
-546,554	74,472	0,102	0,079
-545,539	-200,000	-0,006	-0,050
-544,525	-83,942	-0,144	0,033
-543,510	155,686	-0,066	-0,067
-542,496	-200,000	-0,002	0,023
-541,481	-200,000	-0,002	-0,161
-540,466	-200,000	-0,019	-0,115
-539,452	-200,000	-0,006	0,072
-538,437	-200,000	-0,029	-0,100
-537,423	800,000	0,011	0,028
-536,408	-200,000	-0,012	-0,050
-535,393	-98,852	-0,132	-0,024
-534,379	-149,670	0,096	0,005
-533,364	-27,889	-0,052	-0,022
-532,350	-200,000	-0,014	-0,092
-531,335	174,036	0,116	-0,123
-530,321	-200,000	0,005	0,078
-529,306	-200,000	-0,006	0,046
-528,291	-100,711	-0,145	0,026
-527,277	-177,823	-0,146	-0,003
-526,262	86,183	0,064	-0,052
-525,248	43,086	0,113	0,076
-524,233	79,891	0,075	0,059
-523,218	-200,000	0,022	0,122
-522,204	-94,192	-0,136	-0,027
-521,189	-200,000	0,003	-0,199
-520,175	-200,000	0,017	0,142
-519,160	193,148	-0,004	-0,005
-518,145	39,073	-0,019	0,013
-517,131	-200,000	0,034	0,122
-516,116	89,640	-0,063	0,051
-515,102	-200,000	0,001	-0,064
-514,087	70,796	0,031	0,023
-513,072	-96,534	0,008	-0,002
-512,058	87,740	0,085	-0,069
-511,043	313,881	0,017	-0,024
-510,029	-29,104	0,112	-0,047
-509,014	-88,346	-0,098	0,021
-507,999	-47,989	0,177	0,062
-506,985	-81,222	-0,177	-0,042
-505,970	-200,000	0,005	-0,088
-504,956	-55,327	-0,164	0,054
-503,941	-25,796	0,179	-0,077
-502,926	95,679	0,051	0,042
-501,912	800,000	0,036	0,100
-500,897	503,992	-0,054	0,093
-499,883	-128,985	-0,024	0,002
-498,868	-94,609	-0,031	-0,006
-497,853	-200,000	-0,008	0,028
-496,839	-131,082	0,087	0,008
-495,824	-200,000	-0,001	-0,007
-494,810	-83,275	0,056	0,013
-493,795	10,246	0,028	-0,015
-492,781	420,411	0,058	-0,092
-491,766	30,317	-0,074	-0,046
-490,751	-200,000	0,009	-0,101
-489,737	800,000	-0,091	0,207
-488,722	-56,436	0,051	0,016
-487,708	-200,000	0,035	0,187
-486,693	-70,091	0,010	0,003
-485,678	205,698	-0,067	-0,077
-484,664	-70,238	-0,038	0,011
-483,649	-66,028	0,090	-0,026
-482,635	481,508	0,100	-0,167
-481,620	178,743	-0,023	0,025
-480,605	-200,000	0,005	0,094
-479,591	-53,874	0,044	-0,015
-478,576	800,000	-0,048	0,152
-477,562	121,828	-0,043	0,039
-476,547	219,578	0,054	0,064
-475,532	631,186	-0,053	0,098
-474,518	58,426	0,053	0,038
-473,503	-12,195	0,163	0,078
-472,489	-200,000	0,008	0,111
-471,474	110,092	0,045	-0,040
-470,459	70,526	0,057	0,043
-469,445	-49,991	0,019	-0,007
-468,430	-74,030	0,033	0,009
-467,416	-54,679	-0,105	0,034
-466,401	271,179	0,115	0,148
-465,386	-22,074	0,114	0,050
-464,372	404,097	0,085	0,131
-463,357	110,569	0,046	-0,040
-462,343	165,623	0,027	-0,028
-461,328	-200,000	0,003	-0,030
-460,313	548,877	0,043	0,076
-459,299	800,000	-0,031	0,074
-458,284	326,326	-0,016	0,023
-457,270	703,976	-0,064	-0,125
-456,255	655,739	-0,040	0,076
-455,241	-200,000	0,015	0,080
-454,226	800,000	0,006	-0,013
-453,211	100,373	-0,083	-0,071
-452,197	800,000	0,037	-0,087
-451,182	13,563	-0,039	-0,022
-450,168	800,000	-0,015	0,038
-449,153	-116,852	-0,062	0,008
-448,138	800,000	-0,020	0,046
-447,124	-200,000	0,018	-0,088
-446,109	-154,347	0,141	-0,007
-445,095	116,666	0,058	-0,052
-444,080	67,326	-0,036	0,027
-443,065	-106,054	0,004	0,001
-442,051	-200,000	0,023	-0,097
-441,036	-200,000	-0,024	0,171
-440,022	-200,000	-0,009	0,148
-439,007	-40,598	0,107	-0,040
-437,992	-200,000	0,024	0,135
-436,978	-165,172	0,131	-0,004
-435,963	-200,000	0,006	0,056
-434,949	-200,000	0,023	-0,114
-433,934	154,338	-0,076	0,076
-432,919	-60,875	0,105	0,032
-431,905	150,155	-0,051	-0,051
-430,890	-131,512	0,056	-0,005
-429,876	-57,777	0,060	-0,019
-428,861	-200,000	-0,027	0,127
-427,846	-200,000	-0,030	-0,106
-426,832	-109,725	-0,173	-0,026
-425,817	800,000	0,048	-0,110
-424,803	-48,300	-0,091	0,032
-423,788	19,217	0,086	0,050
-422,773	-29,950	0,076	0,031
-421,759	52,571	-0,114	0,079
-420,744	-200,000	0,016	0,071
-419,730	688,641	0,058	-0,111
-418,715	145,314	-0,125	-0,122
-417,701	-76,175	-0,088	0,022
-416,686	-200,000	-0,028	0,118
-415,671	-200,000	0,002	0,052
-414,657	102,291	0,084	-0,072
-413,642	800,000	0,052	-0,126
-412,628	57,035	-0,075	0,053
-411,613	800,000	-0,027	0,064
-410,598	-200,000	0,040	-0,235
-409,584	292,666	-0,025	-0,034
-408,569	204,603	-0,075	-0,085
-407,555	-109,800	0,192	0,029
-406,540	-82,377	0,040	-0,009
-405,525	-126,422	-0,142	0,015
-404,511	609,959	0,064	-0,117
-403,496	722,284	-0,088	-0,171
-402,482	-200,000	-0,024	-0,088
-401,467	-200,000	0,004	0,071
-400,452	-31,409	-0,072	0,029
-399,438	-88,699	0,056	-0,012
-398,423	-132,870	-0,072	0,007
-397,409	-140,092	-0,029	-0,002
-396,394	-200,000	0,000	-0,019
-395,379	33,672	0,115	-0,073
-394,365	-118,012	-0,098	-0,013
-393,350	77,168	-0,024	0,019
-392,336	-51,583	0,057	0,019
-391,321	800,000	0,017	-0,044
-390,306	343,385	-0,053	0,077
-389,292	264,593	-0,034	0,043
-388,277	-79,363	0,068	-0,017
-387,263	38,695	-0,033	0,021
-386,248	-75,990	-0,095	-0,024
-385,233	800,000	-0,031	-0,068
-384,219	268,583	0,093	-0,119
-383,204	-126,458	-0,066	-0,007
-382,190	158,787	-0,063	-0,064
-381,175	201,107	0,126	-0,141
-380,160	-3,138	0,060	0,030
-379,146	6,777	0,033	0,018
-378,131	800,000	0,030	0,061
-377,117	46,116	-0,027	0,018
-376,102	47,396	-0,064	0,044
-375,088	689,700	0,041	0,078
-374,073	-136,782	-0,031	0,003
-373,058	133,747	-0,089	0,084
-372,044	-200,000	-0,046	0,255
-371,029	260,774	-0,042	0,053
-370,015	-200,000	0,022	-0,102
-369,000	800,000	-0,018	0,049
-367,985	20,700	-0,066	0,039
-366,971	102,987	-0,076	0,065
-365,956	-200,000	0,002	0,115
-364,942	-145,056	0,135	0,009
-363,927	-187,769	0,052	0,000
-362,912	-112,492	0,020	-0,003
-361,898	-70,394	-0,060	0,016
-360,883	-51,111	-0,050	-0,017
-359,869	-200,000	-0,014	-0,085
-358,854	181,538	-0,079	0,085
-357,839	0,546	0,110	-0,057
-356,825	11,649	-0,033	0,019
-355,810	-124,724	-0,153	-0,017
-354,796	131,607	0,044	0,042
-353,781	253,014	-0,036	-0,045
-352,766	51,430	0,100	-0,069
-351,752	30,672	-0,057	-0,036
-350,737	16,716	0,186	0,107
-349,723	-200,000	0,041	0,268
-348,708	18,494	-0,079	0,046
-347,693	642,290	-0,002	-0,004
-346,679	82,354	-0,087	-0,068
-345,664	498,832	0,042	-0,072
-344,650	-188,115	-0,033	0,000
-343,635	-121,202	0,098	-0,012
-342,620	-75,293	-0,081	0,021
-341,606	172,088	0,041	-0,043
-340,591	-107,801	0,085	-0,013
-339,577	-68,632	-0,088	-0,025
-338,562	94,500	-0,128	0,106
-337,548	125,349	-0,069	0,063
-336,533	260,251	0,017	0,021
-335,518	142,834	0,061	0,059
-334,504	235,894	-0,077	0,093
-333,489	258,947	-0,067	0,084
-332,475	-200,000	0,000	0,072
-331,460	87,950	-0,075	-0,060
-330,445	-200,000	-0,000	-0,154
-329,431	15,219	0,109	-0,062
-328,416	-82,910	0,077	-0,018
-327,402	36,191	-0,154	0,098
-326,387	800,000	-0,022	-0,065
-325,372	505,526	-0,044	-0,074
-324,358	-13,646	-0,125	0,059
-323,343	-16,457	0,027	0,012
-322,329	225,191	-0,005	-0,006
-321,314	-200,000	-0,049	-0,164
-320,299	-113,470	0,117	-0,016
-319,285	-28,446	-0,086	0,036
-318,270	51,917	0,064	-0,044
-317,256	-200,000	0,006	0,043
-316,241	-98,636	-0,067	0,012
-315,226	686,706	0,076	0,144
-314,212	118,068	0,022	0,019
-313,197	-0,094	-0,191	0,098
-312,183	-200,000	0,001	0,073
-311,168	-108,711	-0,116	-0,018
-310,153	-17,298	-0,021	-0,010
-309,139	-200,000	0,003	0,061
-308,124	45,691	-0,118	-0,080
-307,110	-119,301	-0,105	-0,013
-306,095	11,098	-0,016	-0,009
-305,080	-200,000	0,030	0,097
-304,066	0,594	-0,173	0,090
-303,051	-200,000	0,004	-0,209
-302,037	-200,000	-0,008	-0,104
-301,022	260,389	0,057	-0,072
-300,008	97,117	0,057	0,048
-298,993	800,000	0,019	-0,045
-297,978	-19,833	0,079	-0,035
-296,964	800,000	-0,090	0,211
-295,949	159,790	0,136	0,138
-294,935	-200,000	0,002	0,120
-293,920	-129,678	0,182	0,018
-292,905	84,389	-0,051	0,041
-291,891	-160,593	0,065	0,002
-290,876	208,471	-0,085	0,097
-289,862	550,614	0,028	-0,049
-288,847	-8,596	-0,112	-0,055
-287,832	-15,203	0,089	0,041
-286,818	120,284	-0,109	0,099
-285,803	800,000	0,073	0,163
-284,789	-200,000	-0,002	-0,073
-283,774	-200,000	0,015	0,067
-282,759	738,872	0,072	-0,141
-281,745	179,531	-0,052	-0,056
-280,730	75,096	0,099	-0,076
-279,716	391,172	-0,026	-0,039
-278,701	-27,315	0,161	0,068
-277,686	275,670	0,068	0,088
-276,672	36,684	0,026	0,016
-275,657	-200,000	0,003	0,069
-274,643	585,101	-0,011	-0,019
-273,628	748,684	0,058	0,115
-272,613	95,326	0,027	0,022
-271,599	493,225	0,042	-0,071
-270,584	-49,705	0,026	-0,009
-269,570	800,000	0,064	0,133
-268,555	377,843	-0,075	0,112
-267,540	269,435	-0,046	-0,059
-266,526	352,471	0,056	-0,082
-265,511	-112,422	0,162	-0,023
-264,497	800,000	-0,026	-0,066
-263,482	-123,565	0,104	-0,012
-262,467	-200,000	0,004	0,077
-261,453	211,467	-0,065	-0,075
-260,438	72,722	-0,041	-0,031
-259,424	-46,490	0,039	0,014
-258,409	-11,532	0,103	-0,049
-257,395	800,000	0,025	0,060
-256,380	-111,098	-0,065	0,010
-255,365	-79,117	-0,091	0,022
-254,351	-16,758	0,057	0,026
-253,336	546,123	-0,010	-0,018
-252,322	800,000	-0,040	-0,096
-251,307	255,230	0,153	-0,191
-250,292	-111,162	-0,052	-0,008
-249,278	-200,000	-0,008	0,083
-248,263	800,000	0,077	0,175
-247,249	744,895	-0,032	-0,063
-246,234	-1,804	0,064	-0,033
-245,219	-137,954	-0,138	-0,011
-244,205	330,383	0,110	-0,155
-243,190	-200,000	0,019	-0,067
-242,176	259,222	0,044	0,056
-241,161	-67,638	0,130	-0,037
-240,146	-63,729	-0,052	0,015
-239,132	800,000	-0,012	-0,032
-238,117	348,510	0,052	0,075
-237,103	352,164	0,067	0,096
-236,088	-200,000	-0,009	0,046
-235,073	650,254	0,008	-0,014
-234,059	173,811	0,068	-0,071
-233,044	165,196	-0,057	-0,058
-232,030	-77,438	-0,033	-0,008
-231,015	229,097	-0,045	0,054
-230,000	754,446	-0,038	-0,076
-228,986	-200,000	0,027	-0,097
-227,971	-111,809	-0,058	0,008
-226,957	-19,400	-0,039	0,017
-225,942	800,000	0,081	0,164
-224,927	-27,394	0,016	0,007
-223,913	800,000	-0,072	0,152
-222,898	145,103	-0,055	0,054
-221,884	-200,000	0,016	-0,112
-220,869	-200,000	-0,004	0,064
-219,855	27,349	0,097	-0,059
-218,840	-79,183	0,080	-0,020
-217,825	213,042	-0,039	-0,044
-216,811	-122,040	-0,066	0,008
-215,796	160,432	0,074	-0,075
-214,782	583,725	-0,075	-0,135
-213,767	-36,239	0,035	0,014
-212,752	227,162	0,095	0,113
-211,738	585,800	0,057	-0,102
-210,723	-65,404	-0,044	0,013
-209,709	-75,494	-0,054	0,014
-208,694	43,437	-0,071	-0,047
-207,679	48,931	-0,061	-0,042
-206,665	-28,216	0,205	0,086
-205,650	-200,000	0,040	0,162
-204,636	-37,259	-0,125	0,048
-203,621	-200,000	-0,003	0,029
-202,606	800,000	-0,044	-0,137
-201,592	-49,697	-0,037	0,013
-200,577	-200,000	-0,010	-0,053
-199,563	-200,000	-0,012	-0,100
-198,548	-200,000	0,018	-0,097
-197,533	-14,435	-0,110	0,051
-196,519	-138,547	0,074	0,006
-195,504	-140,743	0,049	-0,004
-194,490	-200,000	-0,021	-0,137
-193,475	-200,000	0,008	0,031
-192,460	-200,000	0,003	0,049
-191,446	464,342	0,004	-0,007
-190,431	715,602	-0,037	0,071
-189,417	-200,000	0,002	-0,039
-188,402	216,898	0,023	0,026
-187,387	-125,966	0,147	-0,016
-186,373	-32,173	0,015	0,006
-185,358	-115,544	0,106	0,014
-184,344	303,950	-0,053	-0,072
-183,329	-162,130	0,153	-0,005
-182,315	-200,000	-0,018	0,069
-181,300	-200,000	-0,002	0,066
-180,285	166,528	-0,056	0,057
-179,271	83,700	0,104	-0,082
-178,256	-13,452	-0,092	-0,043
-177,242	-200,000	-0,037	0,135
-176,227	-129,628	0,048	0,005
-175,212	60,274	0,072	0,052
-174,198	-139,525	-0,062	0,005
-173,183	-46,280	-0,032	-0,011
-172,169	800,000	0,044	0,091
-171,154	-19,086	-0,172	0,077
-170,139	-17,358	0,128	0,058
-169,125	-200,000	-0,034	0,184
-168,110	-50,476	0,095	-0,032
-167,096	17,226	-0,023	0,013
-166,081	74,449	-0,187	-0,142
-165,066	-37,878	-0,056	0,021
-164,052	212,643	-0,018	-0,020
-163,037	204,808	0,065	-0,073
-162,023	-23,464	0,121	0,052
-161,008	121,120	0,047	0,043
-159,993	429,882	-0,021	-0,033
-158,979	-22,153	0,177	0,077
-157,964	800,000	-0,046	-0,122
-156,950	195,155	-0,124	-0,136
-155,935	800,000	-0,057	-0,141
-154,920	52,355	0,081	-0,056
-153,906	110,874	0,094	0,082
-152,891	-53,489	-0,106	-0,035
-151,877	-200,000	-0,023	-0,106
-150,862	156,228	0,040	-0,040
-149,847	601,702	-0,029	-0,053
-148,833	-56,012	0,127	0,041
-147,818	-200,000	-0,026	0,204
-146,804	800,000	0,078	0,200
-145,789	-200,000	-0,009	0,101
-144,775	-153,258	-0,221	0,011
-143,760	76,921	0,011	0,008
-142,745	-9,031	0,095	-0,046
-141,731	268,743	0,046	-0,059
-140,716	800,000	0,048	0,096
-139,702	-200,000	-0,013	0,135
-138,687	317,396	-0,047	0,065
-137,672	106,397	-0,058	0,050
-136,658	228,342	-0,038	-0,045
-135,643	88,268	-0,098	-0,078
-134,629	40,594	-0,009	0,006
-133,614	-137,633	0,190	-0,015
-132,599	-200,000	-0,028	-0,110
-131,585	687,827	-0,050	0,096
-130,570	-100,458	-0,069	0,012
-129,556	-200,000	-0,023	-0,112
-128,541	-16,726	-0,177	-0,080
-127,526	-97,843	0,059	-0,011
-126,512	-200,000	0,008	-0,073
-125,497	-157,405	0,103	0,004
-124,483	-200,000	-0,002	0,041
-123,468	-200,000	0,027	0,097
-122,453	376,974	-0,051	0,075
-121,439	237,405	-0,025	0,030
-120,424	215,976	0,065	-0,075
-119,410	634,639	0,082	0,150
