DTS Sentinel unit serial number:	SN410029Multiplexer serial number:	ORYXHardware model number:	OX2-SRSoftware version number:	ORYX F/W v4,00 Oryx Data Collector v3.7.2.0data status	okinstallation	B3 Nyhavnadifferential loss correction	single-endedforward channel	channel 1reverse channel	N/Adate	2023/11/28time	17:42:30forward acquisition time	300,00reverse acquisition time	0,00gamma	499,1914k internal	0,3166k external	0,3166temperature offset calibration	1,0000default loss term (dB/km)	0,3820temperature slope calibration	1,0000multiplexer offset coefficient	1,0000multiplexer slope coefficient	1,0000fibre end	0,00T internal ref (°C)	7,32T ext. ref 1 (°C)	-7,62T ext. ref 2 (°C)	-7,77length (m)	temperature (°C)	Stokes	anti-Stokes-744,400	-200,000	-0,081	-0,361
-743,385	800,000	-0,066	0,210
-742,371	105,413	-0,113	-0,099
-741,356	800,000	-0,075	0,233
-740,342	-200,000	0,039	-0,307
-739,327	680,115	-0,119	0,228
-738,312	598,232	-0,194	-0,356
-737,298	-200,000	-0,076	0,324
-736,283	-28,937	-0,196	-0,082
-735,269	-200,000	0,063	0,312
-734,254	-52,675	-0,273	-0,092
-733,239	-46,088	-0,179	-0,064
-732,225	524,465	-0,168	-0,291
-731,210	800,000	-0,030	0,099
-730,196	-39,517	-0,029	0,011
-729,181	69,026	0,099	0,075
-728,167	-200,000	0,017	-0,222
-727,152	-13,107	-0,024	0,011
-726,137	-33,845	-0,120	-0,049
-725,123	-139,180	-0,236	-0,018
-724,108	122,694	-0,074	-0,068
-723,094	1,811	0,080	-0,042
-722,079	356,438	-0,095	-0,139
-721,064	313,604	0,045	0,062
-720,050	663,083	-0,003	0,007
-719,035	49,681	-0,190	-0,131
-718,021	64,795	-0,091	-0,067
-717,006	13,603	-0,067	-0,038
-715,991	800,000	0,075	-0,164
-714,977	-200,000	-0,036	-0,155
-713,962	193,627	-0,048	-0,053
-712,948	11,678	0,082	0,046
-711,933	-200,000	0,013	0,119
-710,918	-2,298	0,023	-0,012
-709,904	-200,000	0,014	-0,047
-708,889	37,666	-0,078	-0,050
-707,875	269,423	-0,059	-0,076
-706,860	-167,976	-0,117	-0,003
-705,845	800,000	-0,033	-0,099
-704,831	-200,000	-0,042	0,189
-703,816	428,582	-0,072	0,115
-702,802	297,559	-0,013	-0,017
-701,787	-69,556	-0,053	-0,015
-700,772	-74,667	0,035	-0,009
-699,758	-63,320	0,095	0,028
-698,743	543,837	0,089	0,156
-697,729	-200,000	0,064	0,229
-696,714	-74,279	-0,015	0,004
-695,699	28,374	-0,099	0,061
-694,685	44,999	0,083	-0,056
-693,670	-78,688	0,021	-0,005
-692,656	412,078	-0,037	0,058
-691,641	800,000	-0,010	0,023
-690,627	-200,000	0,003	0,165
-689,612	-102,181	-0,028	-0,005
-688,597	-200,000	0,005	0,024
-687,583	-200,000	0,037	-0,177
-686,568	-200,000	-0,038	-0,241
-685,554	-119,309	0,055	0,007
-684,539	687,113	-0,039	0,075
-683,524	-200,000	0,027	0,104
-682,510	-200,000	-0,007	0,037
-681,495	-104,950	-0,039	-0,007
-680,481	-65,083	-0,179	0,053
-679,466	-200,000	0,028	0,142
-678,451	-26,274	-0,107	-0,046
-677,437	800,000	-0,027	-0,075
-676,422	-200,000	0,013	0,048
-675,408	-147,789	-0,112	0,007
-674,393	800,000	-0,043	-0,093
-673,378	-57,043	-0,107	0,034
-672,364	-200,000	-0,000	-0,018
-671,349	639,499	0,054	-0,101
-670,335	800,000	-0,042	-0,086
-669,320	-125,567	0,036	0,004
-668,305	-24,980	-0,072	0,031
-667,291	276,547	-0,035	-0,046
-666,276	-95,808	-0,070	-0,014
-665,262	-200,000	0,006	-0,080
-664,247	-200,000	-0,041	-0,162
-663,232	83,227	0,019	-0,015
-662,218	800,000	0,070	0,175
-661,203	42,227	0,061	0,040
-660,189	-101,908	-0,024	-0,004
-659,174	9,737	-0,049	-0,027
-658,159	600,768	0,038	-0,069
-657,145	-200,000	-0,019	-0,154
-656,130	-200,000	0,019	-0,085
-655,116	800,000	0,066	-0,197
-654,101	-200,000	-0,011	0,104
-653,086	-74,570	0,165	-0,043
-652,072	-27,144	-0,115	0,049
-651,057	-200,000	-0,014	-0,058
-650,043	-168,260	-0,154	-0,004
-649,028	204,555	0,030	-0,034
-648,014	-200,000	-0,023	0,133
-646,999	98,189	0,027	0,023
-645,984	-200,000	-0,011	0,136
-644,970	800,000	-0,014	0,033
-643,955	-200,000	0,008	0,054
-642,941	-94,534	-0,140	-0,028
-641,926	196,611	0,071	-0,079
-640,911	800,000	0,062	0,149
-639,897	21,517	0,110	0,065
-638,882	-174,862	0,190	0,004
-637,868	-144,807	-0,125	-0,008
-636,853	27,885	-0,077	0,048
-635,838	484,031	-0,057	-0,095
-634,824	31,524	0,069	0,044
-633,809	102,099	-0,141	0,120
-632,795	316,209	0,082	0,114
-631,780	-166,329	-0,037	0,001
-630,765	800,000	-0,039	-0,100
-629,751	-72,230	-0,198	-0,053
-628,736	224,237	-0,059	0,070
-627,722	-33,304	0,125	-0,050
-626,707	-128,221	-0,092	-0,009
-625,692	800,000	0,011	0,025
-624,678	-200,000	0,010	0,060
-623,663	93,368	0,029	-0,024
-622,649	52,746	-0,077	-0,054
-621,634	-200,000	0,008	-0,088
-620,619	-42,393	-0,068	0,025
-619,605	800,000	0,007	0,021
-618,590	-158,681	-0,103	0,004
-617,576	-49,978	-0,064	0,022
-616,561	800,000	0,039	-0,105
-615,546	70,294	-0,094	0,071
-614,532	-200,000	-0,001	0,043
-613,517	-140,831	0,107	-0,008
-612,503	800,000	0,025	0,077
-611,488	369,480	0,031	-0,045
-610,474	331,563	0,084	0,118
-609,459	-118,139	-0,091	0,012
-608,444	117,194	-0,056	-0,050
-607,430	-200,000	-0,022	-0,112
-606,415	-125,188	0,088	0,010
-605,401	-200,000	-0,001	0,071
-604,386	283,574	0,029	0,038
-603,371	99,616	-0,043	0,036
-602,357	-111,258	-0,099	-0,015
-601,342	-48,325	-0,128	-0,045
-600,328	5,022	-0,108	0,058
-599,313	-200,000	0,049	-0,211
-598,298	214,930	0,032	0,038
-597,284	-200,000	0,001	0,004
-596,269	98,232	0,041	-0,034
-595,255	-200,000	0,021	-0,129
-594,240	268,420	-0,047	-0,060
-593,225	-200,000	-0,003	0,015
-592,211	-14,900	-0,121	-0,056
-591,196	-14,240	0,049	0,023
-590,182	-200,000	0,050	0,165
-589,167	487,802	0,063	0,105
-588,152	-200,000	0,034	0,113
-587,138	143,615	0,130	0,126
-586,123	-134,647	-0,159	-0,014
-585,109	364,805	0,038	-0,056
-584,094	800,000	0,033	-0,086
-583,079	188,486	0,017	-0,019
-582,065	32,400	0,124	0,078
-581,050	-200,000	0,001	0,107
-580,036	249,412	0,060	0,074
-579,021	-158,249	-0,066	0,003
-578,006	-200,000	-0,021	0,085
-576,992	-200,000	0,013	-0,156
-575,977	-200,000	0,025	-0,093
-574,963	800,000	0,033	-0,080
-573,948	-43,939	0,142	-0,052
-572,934	-22,736	0,047	0,021
-571,919	-41,896	-0,058	0,021
-570,904	188,967	0,063	-0,069
-569,890	41,858	-0,028	0,018
-568,875	-200,000	-0,005	0,058
-567,861	56,109	-0,081	0,057
-566,846	128,491	0,199	0,185
-565,831	-11,566	-0,014	-0,007
-564,817	-65,415	-0,130	-0,038
-563,802	-200,000	0,004	-0,088
-562,788	-200,000	-0,036	-0,152
-561,773	319,348	0,027	0,038
-560,758	185,717	0,049	0,053
-559,744	30,062	-0,087	0,054
-558,729	195,110	0,028	0,032
-557,715	542,774	-0,055	0,096
-556,700	264,433	-0,088	-0,112
-555,685	-200,000	-0,007	-0,054
-554,671	-84,361	0,051	0,012
-553,656	-50,479	0,096	-0,033
-552,642	-200,000	0,005	-0,133
-551,627	48,802	-0,016	0,011
-550,612	393,096	-0,040	0,061
-549,598	278,403	-0,062	-0,081
-548,583	-93,093	-0,080	-0,016
-547,569	395,174	0,053	-0,081
-546,554	60,406	0,028	0,020
-545,539	547,864	0,013	0,022
-544,525	522,158	-0,070	0,120
-543,510	483,722	-0,044	-0,074
-542,496	-129,564	0,054	0,005
-541,481	800,000	-0,025	-0,063
-540,466	246,706	0,033	-0,041
-539,452	-200,000	-0,011	-0,061
-538,437	17,428	0,067	0,039
-537,423	125,799	0,020	-0,019
-536,408	-200,000	-0,022	0,193
-535,393	800,000	-0,024	-0,065
-534,379	-69,294	-0,101	0,028
-533,364	800,000	-0,036	-0,087
-532,350	100,450	0,113	0,096
-531,335	-41,826	0,108	-0,040
-530,321	-98,412	0,071	0,013
-529,306	-200,000	-0,004	0,068
-528,291	-59,172	-0,127	0,040
-527,277	-200,000	-0,006	-0,030
-526,262	-200,000	-0,009	-0,052
-525,248	-200,000	-0,019	0,140
-524,233	-200,000	0,001	-0,058
-523,218	-200,000	0,007	0,115
-522,204	128,575	0,084	0,078
-521,189	146,474	-0,091	-0,089
-520,175	61,603	-0,026	-0,019
-519,160	220,458	-0,068	0,080
-518,145	29,667	0,146	0,091
-517,131	359,066	-0,041	0,060
-516,116	-200,000	-0,014	0,097
-515,102	459,170	-0,046	-0,075
-514,087	143,975	-0,063	0,061
-513,072	-200,000	-0,026	-0,094
-512,058	691,805	0,061	-0,117
-511,043	-200,000	-0,007	-0,069
-510,029	214,056	0,059	0,068
-509,014	228,592	-0,028	0,033
-507,999	800,000	0,056	-0,143
-506,985	-70,106	-0,141	-0,039
-505,970	800,000	-0,050	-0,153
-504,956	-70,415	0,040	0,011
-503,941	800,000	0,032	0,071
-502,926	-200,000	0,018	0,076
-501,912	800,000	0,009	0,020
-500,897	-187,663	0,087	-0,001
-499,883	-200,000	-0,035	0,161
-498,868	800,000	-0,080	-0,192
-497,853	70,641	-0,039	0,029
-496,839	34,149	0,077	0,049
-495,824	800,000	-0,027	0,072
-494,810	800,000	0,038	0,084
-493,795	800,000	0,045	0,114
-492,781	155,619	-0,084	-0,084
-491,766	75,007	-0,073	-0,056
-490,751	-200,000	-0,028	-0,183
-489,737	-200,000	-0,002	-0,075
-488,722	800,000	0,010	0,021
-487,708	-200,000	-0,002	0,040
-486,693	161,043	0,025	0,025
-485,678	-122,758	0,184	-0,021
-484,664	100,825	-0,037	-0,031
-483,649	-53,114	-0,096	0,032
-482,635	-200,000	-0,026	-0,175
-481,620	492,691	-0,008	-0,014
-480,605	-53,252	-0,092	0,031
-479,591	-66,644	0,042	0,012
-478,576	29,945	-0,072	-0,045
-477,562	331,813	0,095	0,134
-476,547	-101,358	-0,069	-0,012
-475,532	379,839	-0,024	0,036
-474,518	800,000	-0,040	0,127
-473,503	-136,799	0,099	0,008
-472,489	143,870	0,069	0,067
-471,474	385,504	-0,041	0,061
-470,459	-8,631	0,102	-0,050
-469,445	-200,000	-0,050	-0,198
-468,430	-200,000	-0,009	0,050
-467,416	-200,000	0,027	0,153
-466,401	-16,079	-0,050	-0,023
-465,386	-70,157	-0,070	-0,019
-464,372	-44,386	0,154	0,056
-463,357	-200,000	0,005	0,039
-462,343	800,000	0,041	0,095
-461,328	507,790	-0,052	0,088
-460,313	3,126	-0,056	-0,030
-459,299	264,489	-0,063	0,080
-458,284	425,514	0,029	0,045
-457,270	-118,910	0,080	-0,010
-456,255	-200,000	0,012	-0,113
-455,241	-122,780	0,014	-0,002
-454,226	-200,000	-0,006	-0,039
-453,211	-200,000	-0,038	0,152
-452,197	761,679	0,029	-0,057
-451,182	306,816	0,062	0,084
-450,168	-72,555	0,030	0,008
-449,153	69,245	-0,110	-0,082
-448,138	-123,817	-0,039	-0,004
-447,124	-60,075	-0,125	-0,039
-446,109	-200,000	0,005	0,043
-445,095	-136,127	0,066	0,006
-444,080	478,775	0,040	0,066
-443,065	800,000	0,048	-0,109
-442,051	-85,638	-0,046	-0,010
-441,036	-116,714	0,103	-0,014
-440,022	800,000	-0,040	-0,113
-439,007	305,985	-0,071	0,097
-437,992	-63,260	0,151	-0,045
-436,978	-40,587	0,112	-0,042
-435,963	-46,052	0,024	-0,009
-434,949	-107,891	-0,088	0,014
-433,934	-200,000	0,015	-0,122
-432,919	140,827	-0,074	-0,071
-431,905	365,420	-0,039	-0,057
-430,890	-34,906	-0,020	0,008
-429,876	-200,000	0,002	0,008
-428,861	-200,000	0,002	-0,076
-427,846	204,561	-0,147	-0,166
-426,832	-200,000	-0,044	0,149
-425,817	-194,129	0,176	0,001
-424,803	69,711	0,072	-0,054
-423,788	317,492	-0,021	-0,029
-422,773	348,882	0,037	-0,053
-421,759	-5,589	-0,140	-0,069
-420,744	800,000	-0,050	-0,151
-419,730	-74,577	0,184	-0,048
-418,715	220,895	-0,053	-0,062
-417,701	800,000	0,035	-0,071
-416,686	800,000	0,040	-0,084
-415,671	750,221	0,105	0,207
-414,657	279,601	0,054	-0,070
-413,642	-51,611	-0,006	0,002
-412,628	22,046	0,097	-0,058
-411,613	-200,000	-0,016	-0,215
-410,598	-200,000	0,006	-0,088
-409,584	597,904	-0,014	0,025
-408,569	726,193	-0,048	-0,093
-407,555	214,502	0,102	0,118
-406,540	-71,362	-0,085	-0,023
-405,525	98,271	0,048	-0,040
-404,511	-200,000	0,005	-0,083
-403,496	517,675	-0,097	-0,166
-402,482	-84,387	0,094	-0,021
-401,467	369,849	0,018	0,027
-400,452	-200,000	0,004	0,028
-399,438	-23,985	0,094	0,041
-398,423	-135,167	-0,155	0,013
-397,409	-135,819	-0,086	0,007
-396,394	63,349	0,020	-0,014
-395,379	49,610	0,080	-0,054
-394,365	113,497	0,058	-0,051
-393,350	-107,551	-0,180	0,028
-392,336	-72,317	0,168	-0,045
-391,321	800,000	0,044	-0,122
-390,306	227,943	-0,039	-0,046
-389,292	-140,460	-0,096	0,007
-388,277	800,000	0,046	-0,095
-387,263	-200,000	0,027	0,124
-386,248	800,000	0,018	-0,052
-385,233	257,334	-0,047	0,059
-384,219	800,000	0,071	-0,152
-383,204	-32,458	-0,067	-0,027
-382,190	-200,000	0,029	-0,103
-381,175	800,000	0,045	0,101
-380,160	800,000	0,079	0,181
-379,146	304,256	0,101	0,136
-378,131	-45,580	0,092	-0,033
-377,117	-128,646	0,042	-0,004
-376,102	-23,144	0,164	0,071
-375,088	121,173	-0,022	-0,020
-374,073	51,514	0,030	0,020
-373,058	800,000	0,029	0,076
-372,044	-200,000	-0,023	-0,094
-371,029	12,414	0,111	0,062
-370,015	-10,823	-0,084	-0,040
-369,000	-2,103	-0,038	0,019
-367,985	800,000	-0,046	-0,127
-366,971	52,902	0,028	0,019
-365,956	538,556	0,024	-0,041
-364,942	800,000	0,032	0,086
-363,927	101,884	-0,132	0,111
-362,912	238,839	0,045	0,054
-361,898	123,775	-0,055	0,050
-360,883	17,972	-0,187	-0,108
-359,869	-200,000	0,010	0,042
-358,854	800,000	0,073	0,163
-357,839	6,897	-0,022	0,012
-356,825	205,852	0,056	-0,063
-355,810	800,000	-0,036	0,080
-354,796	265,753	-0,098	-0,124
-353,781	-86,620	-0,096	0,021
-352,766	-200,000	-0,002	-0,100
-351,752	-200,000	-0,007	-0,060
-350,737	355,584	0,033	0,047
-349,723	-76,408	0,027	-0,007
-348,708	800,000	0,008	-0,024
-347,693	-117,294	-0,101	0,013
-346,679	531,956	-0,052	-0,089
-345,664	59,968	-0,048	-0,034
-344,650	-110,627	-0,102	0,015
-343,635	-200,000	-0,021	0,121
-342,620	484,724	0,075	0,125
-341,606	-148,330	-0,056	0,003
-340,591	-29,294	-0,028	0,012
-339,577	99,333	-0,052	0,044
-338,562	11,536	-0,093	-0,052
-337,548	21,699	-0,094	0,055
-336,533	233,664	0,091	-0,108
-335,518	-200,000	0,021	0,100
-334,504	359,049	0,030	0,043
-333,489	-200,000	0,007	-0,041
-332,475	-116,005	0,076	0,010
-331,460	88,066	-0,153	-0,123
-330,445	81,873	0,095	0,075
-329,431	389,104	0,108	-0,163
-328,416	131,602	0,084	0,078
-327,402	219,608	-0,019	0,023
-326,387	779,899	-0,055	-0,110
-325,372	154,977	0,023	0,023
-324,358	8,180	-0,089	-0,048
-323,343	15,648	0,066	0,038
-322,329	619,372	0,029	0,052
-321,314	-200,000	-0,034	0,131
-320,299	800,000	-0,015	-0,034
-319,285	-110,406	-0,111	0,016
-318,270	358,513	-0,101	0,146
-317,256	-200,000	-0,021	-0,068
-316,241	71,409	0,019	0,014
-315,226	227,201	0,048	0,057
-314,212	606,868	0,069	0,125
-313,197	-200,000	-0,012	0,077
-312,183	800,000	0,022	0,066
-311,168	21,678	-0,075	0,044
-310,153	-200,000	-0,009	0,063
-309,139	-200,000	0,003	0,090
-308,124	7,300	0,074	0,040
-307,110	17,291	0,185	0,106
-306,095	271,372	0,095	0,122
-305,080	800,000	0,071	0,145
-304,066	-126,331	0,089	-0,009
-303,051	800,000	0,049	0,126
-302,037	181,614	-0,100	0,106
-301,022	29,587	-0,112	-0,069
-300,008	786,877	-0,071	-0,142
-298,993	-88,331	0,069	-0,015
-297,978	215,264	-0,026	-0,030
-296,964	800,000	-0,061	0,143
-295,949	762,408	0,029	0,058
-294,935	-41,690	0,161	-0,059
-293,920	-200,000	-0,009	-0,032
-292,905	219,839	-0,033	0,038
-291,891	-200,000	0,049	-0,160
-290,876	800,000	-0,029	-0,078
-289,862	-78,308	0,156	0,038
-288,847	-200,000	-0,007	0,030
-287,832	-85,692	-0,018	0,004
-286,818	96,365	0,046	-0,038
-285,803	204,909	0,103	0,116
-284,789	108,539	-0,031	-0,027
-283,774	-200,000	-0,020	0,098
-282,759	-200,000	0,027	0,103
-281,745	-200,000	0,010	-0,035
-280,730	-200,000	0,015	0,105
-279,716	-21,224	0,124	0,054
-278,701	763,736	0,041	-0,081
-277,686	628,898	0,054	-0,100
-276,672	161,134	-0,053	0,053
-275,657	196,086	0,079	-0,087
-274,643	-146,246	-0,037	0,002
-273,628	557,547	-0,049	-0,086
-272,613	80,215	0,081	-0,063
-271,599	-103,969	0,060	-0,010
-270,584	800,000	0,008	-0,020
-269,570	-94,385	0,152	0,030
-268,555	208,544	0,035	0,039
-267,540	-200,000	0,006	-0,054
-266,526	149,211	-0,067	0,066
-265,511	147,981	0,074	0,072
-264,497	34,801	-0,069	0,044
-263,482	202,168	0,046	0,052
-262,467	100,495	0,097	0,081
-261,453	89,189	-0,050	-0,040
-260,438	-200,000	0,018	-0,073
-259,424	-200,000	-0,007	-0,031
-258,409	68,321	0,054	-0,040
-257,395	45,018	-0,076	-0,050
-256,380	-40,033	0,091	-0,034
-255,365	187,606	-0,065	-0,070
-254,351	45,601	-0,047	0,032
-253,336	331,267	-0,032	0,045
-252,322	-156,607	-0,045	0,002
-251,307	800,000	0,026	-0,056
-250,292	498,361	0,059	-0,098
-249,278	-106,534	0,076	0,012
-248,263	-200,000	-0,001	0,050
-247,249	370,609	-0,071	0,105
-246,234	-200,000	-0,014	-0,084
-245,219	-102,123	-0,064	-0,011
-244,205	-200,000	-0,024	0,000
-243,190	-200,000	-0,002	0,016
-242,176	516,816	-0,024	0,041
-241,161	-39,931	0,054	0,020
-240,146	-23,606	-0,245	0,106
-239,132	6,510	0,082	-0,044
-238,117	800,000	0,048	0,144
-237,103	-147,948	0,041	-0,002
-236,088	70,043	-0,070	-0,052
-235,073	415,560	0,011	-0,017
-234,059	-27,733	-0,068	0,028
-233,044	-200,000	0,017	0,091
-232,030	-16,470	-0,103	-0,047
-231,015	-200,000	-0,004	0,038
-230,000	800,000	0,033	-0,070
-228,986	648,127	-0,032	0,059
-227,971	-17,548	0,122	0,055
-226,957	-200,000	-0,058	0,204
-225,942	-50,206	0,062	0,021
-224,927	-200,000	0,028	0,102
-223,913	12,653	0,046	-0,026
-222,898	-200,000	0,009	0,037
-221,884	430,386	0,062	0,097
-220,869	69,610	0,036	-0,027
-219,855	252,712	-0,032	-0,040
-218,840	-108,973	0,098	0,015
-217,825	-200,000	-0,024	0,086
-216,811	-59,809	-0,154	-0,047
-215,796	-193,698	0,047	-0,000
-214,782	376,143	-0,082	-0,121
-213,767	82,112	-0,059	-0,046
-212,752	48,233	-0,093	0,062
-211,738	193,261	0,069	-0,076
-210,723	399,406	0,052	-0,079
-209,709	-168,363	-0,157	0,004
-208,694	-11,317	-0,150	-0,071
-207,679	136,093	0,065	-0,061
-206,665	-200,000	0,006	-0,063
-205,650	25,896	-0,077	-0,046
-204,636	122,332	0,070	-0,063
-203,621	29,714	-0,057	0,035
-202,606	-148,524	-0,107	0,006
-201,592	-137,581	0,046	0,004
-200,577	117,110	-0,081	0,071
-199,563	-200,000	0,033	-0,141
-198,548	-80,664	0,071	0,017
-197,533	-20,851	0,117	0,052
-196,519	-200,000	-0,025	0,131
-195,504	-49,651	-0,014	0,005
-194,490	13,724	-0,095	0,053
-193,475	74,819	0,119	-0,090
-192,460	181,944	-0,053	-0,056
-191,446	550,009	0,021	0,036
-190,431	-118,305	-0,072	-0,009
-189,417	-200,000	0,003	-0,082
-188,402	157,403	0,021	-0,021
-187,387	71,040	-0,099	-0,074
-186,373	277,371	-0,026	0,034
-185,358	-100,130	-0,012	0,002
-184,344	538,913	-0,077	0,132
-183,329	357,272	0,076	-0,110
-182,315	15,061	-0,135	-0,076
-181,300	800,000	-0,031	-0,066
-180,285	-38,392	-0,040	-0,015
-179,271	612,998	0,018	-0,033
-178,256	486,702	0,024	-0,040
-177,242	5,715	0,096	-0,051
-176,227	136,507	-0,085	0,080
-175,212	463,227	-0,056	0,091
-174,198	-200,000	0,026	-0,170
-173,183	93,262	-0,074	-0,060
-172,169	224,382	0,052	0,061
-171,154	-99,546	0,050	0,009
-170,139	250,658	-0,092	-0,113
-169,125	-4,262	0,071	-0,035
-168,110	88,596	0,081	0,065
-167,096	-200,000	0,032	0,139
-166,081	-141,095	-0,024	0,002
-165,066	113,141	-0,141	-0,123
-164,052	-200,000	-0,011	-0,083
-163,037	-200,000	-0,002	-0,154
-162,023	220,836	-0,024	-0,027
-161,008	-200,000	-0,001	0,052
-159,993	351,262	0,056	0,080
-158,979	-75,395	-0,141	0,036
-157,964	800,000	-0,051	-0,139
-156,950	800,000	-0,056	-0,120
-155,935	52,743	0,190	-0,130
-154,920	-200,000	0,004	0,039
-153,906	5,180	0,122	-0,064
-152,891	-200,000	-0,010	-0,095
-151,877	-75,809	0,182	-0,046
-150,862	-72,079	-0,063	-0,017
-149,847	-144,189	0,086	-0,006
-148,833	-154,273	-0,153	0,007
-147,818	26,041	0,085	0,051
-146,804	54,843	-0,066	0,046
-145,789	316,899	0,035	0,048
-144,775	-200,000	0,022	0,074
-143,760	20,442	-0,057	0,033
-142,745	155,541	-0,075	0,075
-141,731	-121,005	0,105	0,012
-140,716	61,001	0,132	-0,094
-139,702	55,190	-0,139	0,096
-138,687	560,281	0,045	0,079
-137,672	-200,000	-0,007	-0,028
-136,658	-71,920	-0,091	-0,024
-135,643	-128,893	0,096	-0,010
-134,629	6,310	0,125	0,066
-133,614	-200,000	-0,009	0,059
-132,599	629,675	0,027	0,049
-131,585	116,256	0,085	0,075
-130,570	96,646	0,142	-0,117
-129,556	-200,000	0,008	0,100
-128,541	163,382	-0,043	-0,043
-127,526	800,000	0,051	-0,132
-126,512	-116,919	-0,126	-0,016
-125,497	-200,000	0,011	-0,038
-124,483	-200,000	-0,011	0,091
-123,468	-200,000	-0,019	-0,082
-122,453	-118,755	-0,019	0,002
-121,439	-112,336	0,116	-0,016
-120,424	161,874	-0,074	-0,075
-119,410	-36,571	0,064	0,025
