DTS Sentinel unit serial number:	SN410029Multiplexer serial number:	ORYXHardware model number:	OX2-SRSoftware version number:	ORYX F/W v4,00 Oryx Data Collector v3.7.2.0data status	okinstallation	B3 Nyhavnadifferential loss correction	single-endedforward channel	channel 1reverse channel	N/Adate	2023/11/28time	12:02:30forward acquisition time	300,00reverse acquisition time	0,00gamma	499,1914k internal	0,3144k external	0,3144temperature offset calibration	1,0000default loss term (dB/km)	0,3820temperature slope calibration	1,0000multiplexer offset coefficient	1,0000multiplexer slope coefficient	1,0000fibre end	0,00T internal ref (°C)	8,78T ext. ref 1 (°C)	-7,48T ext. ref 2 (°C)	-7,71length (m)	temperature (°C)	Stokes	anti-Stokes-744,400	419,540	-0,184	-0,292
-743,385	-200,000	-0,052	0,282
-742,371	198,541	-0,059	-0,067
-741,356	-200,000	-0,061	0,264
-740,342	-132,859	-0,173	-0,016
-739,327	-200,000	0,074	0,255
-738,312	386,352	-0,145	-0,222
-737,298	266,836	-0,106	0,137
-736,283	35,392	-0,230	-0,149
-735,269	-200,000	0,010	0,437
-734,254	800,000	-0,082	-0,240
-733,239	32,533	-0,222	0,142
-732,225	281,974	-0,201	-0,267
-731,210	-200,000	0,037	0,225
-730,196	-41,632	-0,144	-0,055
-729,181	408,743	0,035	-0,055
-728,167	-200,000	0,033	-0,108
-727,152	-200,000	-0,051	-0,209
-726,137	-25,001	-0,132	-0,058
-725,123	451,361	-0,036	-0,058
-724,108	-200,000	-0,023	-0,131
-723,094	67,070	-0,060	0,045
-722,079	-200,000	-0,023	-0,087
-721,064	-2,085	0,122	-0,063
-720,050	-58,316	0,076	0,024
-719,035	-54,567	-0,075	0,025
-718,021	-98,027	-0,163	-0,031
-717,006	243,067	0,081	-0,101
-715,991	-45,668	-0,170	-0,062
-714,977	-200,000	-0,017	0,074
-713,962	319,060	0,017	-0,024
-712,948	-13,639	-0,169	-0,081
-711,933	90,771	0,052	0,043
-710,918	-200,000	-0,014	-0,069
-709,904	-200,000	0,018	-0,165
-708,889	-76,821	-0,081	-0,021
-707,875	325,031	-0,128	-0,182
-706,860	-32,886	-0,038	-0,015
-705,845	-7,517	0,101	0,051
-704,831	-72,598	-0,041	-0,011
-703,816	42,729	0,045	-0,030
-702,802	162,986	0,164	-0,170
-701,787	-53,480	0,063	-0,021
-700,772	-96,035	0,016	0,003
-699,758	-9,645	-0,082	0,040
-698,743	-200,000	0,010	0,122
-697,729	-124,776	0,047	0,005
-696,714	59,453	0,035	-0,026
-695,699	-103,096	-0,056	0,010
-694,685	-2,418	-0,110	-0,057
-693,670	597,044	-0,065	-0,119
-692,656	-37,185	-0,120	-0,047
-691,641	3,291	0,130	0,070
-690,627	-200,000	-0,005	0,091
-689,612	-200,000	-0,001	-0,073
-688,597	-82,195	0,018	0,004
-687,583	-200,000	0,000	0,085
-686,568	128,785	0,025	-0,024
-685,554	624,224	0,074	-0,138
-684,539	-200,000	0,009	0,087
-683,524	-200,000	-0,045	0,163
-682,510	-78,854	0,093	0,023
-681,495	-15,598	-0,094	-0,044
-680,481	-111,593	-0,053	0,008
-679,466	-28,627	-0,084	0,035
-678,451	88,270	-0,034	-0,028
-677,437	54,821	-0,036	0,026
-676,422	-45,429	0,068	0,025
-675,408	-26,784	-0,095	0,041
-674,393	154,322	0,107	0,108
-673,378	265,034	0,070	-0,090
-672,364	-200,000	-0,013	-0,048
-671,349	156,724	-0,115	-0,117
-670,335	-96,742	0,076	-0,015
-669,320	-97,783	0,041	0,008
-668,305	800,000	0,028	0,076
-667,291	309,003	-0,083	0,115
-666,276	-97,971	-0,099	-0,019
-665,262	167,111	-0,084	-0,088
-664,247	-97,605	-0,098	0,019
-663,232	241,900	0,036	0,045
-662,218	-0,949	0,083	-0,043
-661,203	-175,792	0,147	0,003
-660,189	-84,824	0,036	0,008
-659,174	-187,967	-0,216	-0,002
-658,159	334,866	0,023	-0,033
-657,145	122,719	-0,086	-0,079
-656,130	1,721	-0,094	-0,050
-655,116	42,950	0,050	-0,033
-654,101	800,000	0,064	-0,200
-653,086	-117,269	0,091	-0,012
-652,072	-200,000	-0,017	-0,073
-651,057	91,825	-0,108	-0,089
-650,043	64,482	-0,059	-0,044
-649,028	607,187	-0,056	-0,103
-648,014	-136,301	0,075	0,006
-646,999	-200,000	0,026	0,181
-645,984	-94,530	-0,054	-0,011
-644,970	-34,984	-0,043	0,017
-643,955	250,812	-0,102	-0,129
-642,941	-118,927	-0,157	-0,020
-641,926	344,082	-0,031	-0,045
-640,911	-51,678	-0,179	-0,061
-639,897	488,221	-0,049	-0,082
-638,882	-200,000	0,035	-0,117
-637,868	-200,000	-0,019	-0,081
-636,853	397,961	-0,046	0,071
-635,838	-200,000	-0,014	-0,121
-634,824	-200,000	-0,010	-0,117
-633,809	37,916	-0,057	-0,038
-632,795	-200,000	0,039	0,154
-631,780	54,395	0,011	-0,008
-630,765	97,005	-0,177	-0,150
-629,751	543,266	0,012	-0,021
-628,736	13,046	-0,041	-0,023
-627,722	-96,781	-0,092	-0,018
-626,707	-120,864	0,038	0,005
-625,692	40,317	-0,041	0,027
-624,678	-3,963	-0,104	0,053
-623,663	-200,000	-0,042	-0,151
-622,649	-33,009	0,036	0,015
-621,634	-183,738	-0,069	0,001
-620,619	-200,000	-0,006	-0,077
-619,605	345,120	0,101	0,147
-618,590	-200,000	0,019	-0,062
-617,576	-200,000	0,015	0,092
-616,561	331,241	0,065	-0,093
-615,546	800,000	-0,050	-0,119
-614,532	-200,000	-0,011	-0,106
-613,517	800,000	0,047	0,105
-612,503	50,829	0,034	-0,024
-611,488	800,000	-0,045	0,137
-610,474	543,281	0,051	0,090
-609,459	-200,000	-0,034	-0,175
-608,444	-200,000	0,000	0,026
-607,430	98,095	0,048	-0,041
-606,415	34,891	-0,057	0,036
-605,401	396,369	-0,050	0,077
-604,386	-156,994	-0,067	-0,003
-603,371	800,000	0,024	0,069
-602,357	-200,000	0,012	-0,043
-601,342	90,310	-0,071	-0,058
-600,328	800,000	-0,040	-0,106
-599,313	800,000	-0,073	-0,156
-598,298	-200,000	-0,005	-0,101
-597,284	-45,372	-0,074	-0,027
-596,269	-82,311	-0,031	0,007
-595,255	-200,000	0,001	0,120
-594,240	-127,495	-0,052	-0,005
-593,225	569,807	-0,038	-0,069
-592,211	800,000	0,014	-0,033
-591,196	-45,354	0,102	0,037
-590,182	-200,000	-0,067	0,229
-589,167	14,819	0,084	0,048
-588,152	-23,152	0,042	-0,019
-587,138	-50,364	-0,093	0,032
-586,123	167,266	-0,080	-0,084
-585,109	-8,533	0,053	-0,026
-584,094	-200,000	-0,002	-0,055
-583,079	-200,000	0,034	0,131
-582,065	345,041	-0,016	-0,023
-581,050	-200,000	0,033	0,126
-580,036	-200,000	0,017	-0,115
-579,021	-15,231	0,033	-0,016
-578,006	-95,056	-0,159	-0,031
-576,992	20,294	-0,133	-0,079
-575,977	-200,000	-0,034	0,158
-574,963	404,472	-0,027	0,042
-573,948	167,898	0,044	-0,046
-572,934	800,000	-0,035	-0,073
-571,919	128,761	-0,155	-0,145
-570,904	-21,985	0,149	-0,066
-569,890	-39,920	-0,020	0,008
-568,875	-200,000	-0,014	0,057
-567,861	48,612	0,156	0,107
-566,846	90,055	-0,020	0,016
-565,831	170,264	-0,123	0,130
-564,817	544,056	-0,018	-0,032
-563,802	277,314	-0,047	-0,062
-562,788	-200,000	0,016	0,061
-561,773	-136,356	-0,073	0,006
-560,758	800,000	-0,063	0,156
-559,744	21,858	0,071	0,043
-558,729	800,000	0,046	-0,104
-557,715	-70,557	-0,121	0,033
-556,700	282,401	-0,078	-0,103
-555,685	-129,340	-0,021	-0,002
-554,671	-200,000	-0,002	0,103
-553,656	496,438	-0,012	0,020
-552,642	630,725	0,019	0,036
-551,627	96,453	-0,058	0,049
-550,612	-123,810	-0,106	0,012
-549,598	800,000	0,024	-0,059
-548,583	-8,356	-0,071	0,035
-547,569	332,882	-0,059	0,083
-546,554	83,427	0,036	0,028
-545,539	-47,738	0,064	-0,023
-544,525	-35,255	-0,112	0,045
-543,510	194,327	0,058	-0,065
-542,496	43,410	-0,111	-0,075
-541,481	-200,000	-0,027	-0,098
-540,466	-20,824	0,151	-0,068
-539,452	-85,109	-0,011	0,003
-538,437	491,547	0,056	0,095
-537,423	-18,595	0,109	-0,050
-536,408	74,177	-0,075	-0,058
-535,393	-63,203	-0,042	0,013
-534,379	-200,000	-0,009	0,063
-533,364	-200,000	-0,007	0,068
-532,350	-36,481	0,073	-0,029
-531,335	-126,241	0,144	0,016
-530,321	-200,000	0,037	-0,142
-529,306	800,000	-0,017	0,043
-528,291	160,522	0,036	-0,037
-527,277	24,248	-0,095	-0,058
-526,262	-200,000	0,022	-0,110
-525,248	494,568	-0,047	-0,080
-524,233	123,635	0,123	0,114
-523,218	800,000	0,047	0,117
-522,204	73,256	-0,057	0,044
-521,189	16,572	0,150	-0,087
-520,175	-200,000	-0,070	-0,269
-519,160	415,797	-0,060	-0,095
-518,145	81,618	0,180	0,143
-517,131	32,310	-0,116	0,073
-516,116	10,011	0,056	0,031
-515,102	800,000	-0,010	-0,022
-514,087	266,486	0,061	-0,078
-513,072	751,035	0,048	-0,096
-512,058	-200,000	-0,037	-0,143
-511,043	269,557	0,065	-0,083
-510,029	434,950	0,062	0,099
-509,014	-200,000	0,022	0,076
-507,999	580,685	0,019	0,035
-506,985	-14,983	0,102	0,048
-505,970	93,366	-0,077	-0,064
-504,956	-97,886	0,081	-0,015
-503,941	44,063	-0,051	0,034
-502,926	-200,000	-0,005	0,087
-501,912	-200,000	-0,009	-0,066
-500,897	72,763	0,052	0,040
-499,883	551,699	0,072	0,127
-498,868	179,980	-0,024	0,026
-497,853	-101,972	0,139	-0,024
-496,839	100,973	0,057	0,049
-495,824	-8,746	-0,043	-0,021
-494,810	-35,096	0,046	-0,018
-493,795	-30,692	0,014	-0,006
-492,781	-200,000	0,021	-0,093
-491,766	-2,860	-0,137	-0,070
-490,751	-132,896	-0,292	0,027
-489,737	-46,643	0,112	0,040
-488,722	390,352	0,082	-0,125
-487,708	48,896	-0,041	-0,028
-486,693	-30,137	0,073	0,030
-485,678	-133,337	0,150	0,014
-484,664	-84,442	-0,223	-0,051
-483,649	103,638	-0,079	-0,068
-482,635	190,952	-0,101	0,111
-481,620	800,000	-0,031	0,091
-480,605	-200,000	-0,008	0,118
-479,591	800,000	0,011	-0,032
-478,576	140,339	-0,044	0,042
-477,562	-200,000	0,017	-0,132
-476,547	800,000	-0,051	-0,141
-475,532	-85,154	0,083	0,019
-474,518	76,267	-0,121	-0,093
-473,503	-59,985	-0,049	0,015
-472,489	800,000	0,022	0,059
-471,474	800,000	0,053	0,167
-470,459	314,903	0,104	-0,144
-469,445	800,000	-0,019	-0,045
-468,430	-200,000	0,020	-0,105
-467,416	-200,000	-0,003	-0,083
-466,401	-200,000	0,001	0,055
-465,386	210,077	-0,058	-0,067
-464,372	157,649	0,037	-0,037
-463,357	2,693	-0,154	-0,082
-462,343	-200,000	0,031	0,110
-461,328	89,254	0,021	0,017
-460,313	800,000	-0,044	-0,112
-459,299	42,203	-0,109	-0,072
-458,284	-115,742	0,121	0,016
-457,270	-105,735	0,197	0,032
-456,255	-200,000	-0,010	-0,045
-455,241	-200,000	-0,015	-0,127
-454,226	489,049	-0,115	-0,192
-453,211	525,355	0,074	0,128
-452,197	396,504	0,067	0,103
-451,182	-200,000	0,175	0,000
-450,168	-191,350	-0,155	0,001
-449,153	-200,000	-0,031	0,137
-448,138	800,000	-0,016	-0,033
-447,124	85,326	0,009	0,007
-446,109	52,464	-0,024	-0,017
-445,095	0,196	-0,053	-0,028
-444,080	80,056	0,103	-0,081
-443,065	-48,406	-0,071	0,025
-442,051	-200,000	0,014	0,051
-441,036	-139,919	-0,101	-0,008
-440,022	343,779	0,075	-0,108
-439,007	124,002	0,081	-0,074
-437,992	-200,000	0,017	-0,078
-436,978	-119,629	-0,103	-0,013
-435,963	347,517	0,067	0,097
-434,949	-48,545	0,143	-0,050
-433,934	-200,000	-0,022	0,122
-432,919	-191,908	-0,183	0,001
-431,905	-200,000	-0,037	0,126
-430,890	71,122	-0,029	0,022
-429,876	800,000	0,038	-0,086
-428,861	-112,811	0,130	-0,019
-427,846	-70,452	-0,094	-0,026
-426,832	-200,000	-0,002	-0,023
-425,817	7,026	-0,152	-0,083
-424,803	-110,322	0,066	0,010
-423,788	-200,000	0,033	0,117
-422,773	291,408	0,083	0,111
-421,759	-53,167	0,048	0,016
-420,744	-73,081	-0,096	0,025
-419,730	-91,489	0,131	0,027
-418,715	-200,000	0,045	-0,165
-417,701	42,184	-0,049	-0,032
-416,686	-71,283	0,074	-0,020
-415,671	32,092	0,112	-0,070
-414,657	-200,000	-0,002	0,141
-413,642	169,200	-0,044	0,046
-412,628	263,830	-0,058	-0,074
-411,613	-116,128	-0,060	-0,008
-410,598	800,000	0,019	-0,051
-409,584	800,000	-0,044	0,117
-408,569	-200,000	-0,001	0,056
-407,555	-200,000	-0,005	-0,155
-406,540	519,784	0,078	0,134
-405,525	-200,000	0,001	0,068
-404,511	160,646	-0,028	0,029
-403,496	-200,000	-0,024	-0,087
-402,482	-200,000	-0,007	0,030
-401,467	-200,000	0,046	0,185
-400,452	-200,000	-0,009	-0,070
-399,438	324,317	0,031	0,043
-398,423	22,957	-0,157	-0,094
-397,409	683,943	-0,050	-0,095
-396,394	-103,166	-0,045	-0,008
-395,379	-54,473	0,105	-0,034
-394,365	134,241	0,073	0,069
-393,350	-126,352	0,136	0,015
-392,336	-200,000	0,008	0,091
-391,321	-94,171	0,017	-0,003
-390,306	800,000	-0,067	-0,141
-389,292	-200,000	0,019	0,109
-388,277	100,858	-0,049	0,042
-387,263	-200,000	0,010	0,067
-386,248	-68,777	0,153	-0,043
-385,233	46,005	0,053	-0,036
-384,219	-37,452	0,025	-0,010
-383,204	-116,663	-0,135	0,018
-382,190	-200,000	0,012	0,056
-381,175	-153,021	-0,119	-0,006
-380,160	187,265	0,052	-0,057
-379,146	-200,000	0,003	0,057
-378,131	800,000	0,058	0,147
-377,117	-41,738	0,093	0,035
-376,102	122,508	0,120	-0,110
-375,088	-200,000	-0,020	0,082
-374,073	-58,867	-0,034	-0,011
-373,058	-49,476	0,105	0,036
-372,044	113,824	0,093	-0,083
-371,029	5,246	0,134	0,072
-370,015	185,711	0,014	0,015
-369,000	-200,000	0,061	-0,221
-367,985	283,551	-0,095	-0,125
-366,971	-200,000	-0,011	0,091
-365,956	-200,000	0,024	0,112
-364,942	-71,899	0,043	0,011
-363,927	-13,414	0,170	0,080
-362,912	25,575	-0,066	-0,040
-361,898	800,000	-0,057	0,123
-360,883	-104,566	0,067	-0,011
-359,869	135,606	0,096	0,092
-358,854	296,348	-0,081	0,108
-357,839	170,864	0,042	0,044
-356,825	-103,140	0,165	0,028
-355,810	-200,000	-0,030	0,145
-354,796	-139,087	-0,124	-0,010
-353,781	-163,617	-0,073	0,002
-352,766	-123,555	-0,079	0,009
-351,752	158,765	0,115	-0,117
-350,737	-200,000	-0,010	0,086
-349,723	-200,000	0,011	0,050
-348,708	84,620	-0,018	-0,014
-347,693	458,705	-0,029	-0,048
-346,679	-104,693	-0,099	0,016
-345,664	-103,373	-0,198	-0,034
-344,650	-8,374	0,051	0,025
-343,635	71,173	0,089	0,067
-342,620	678,502	0,050	0,094
-341,606	-115,485	-0,142	0,019
-340,591	7,455	-0,040	0,022
-339,577	-44,323	-0,171	0,062
-338,562	513,710	0,072	-0,123
-337,548	310,354	-0,071	0,097
-336,533	-200,000	0,016	0,057
-335,518	167,222	-0,099	-0,103
-334,504	1,378	0,075	-0,039
-333,489	-115,995	-0,097	-0,013
-332,475	532,698	0,118	-0,204
-331,460	-119,675	-0,130	-0,016
-330,445	-79,811	0,125	-0,030
-329,431	-157,434	-0,027	0,001
-328,416	-200,000	0,027	0,228
-327,402	187,692	-0,128	0,139
-326,387	752,216	-0,022	0,043
-325,372	-200,000	-0,000	-0,202
-324,358	102,225	-0,035	0,030
-323,343	47,219	0,105	-0,071
-322,329	800,000	0,057	0,122
-321,314	-98,432	0,079	0,015
-320,299	78,456	0,140	0,109
-319,285	180,592	0,019	-0,021
-318,270	-200,000	0,004	-0,038
-317,256	-200,000	0,006	-0,074
-316,241	-200,000	-0,012	-0,075
-315,226	299,948	0,058	0,077
-314,212	121,621	0,151	0,137
-313,197	-99,030	0,117	0,021
-312,183	-112,189	-0,106	0,015
-311,168	40,514	-0,119	-0,078
-310,153	-41,274	-0,037	0,014
-309,139	800,000	-0,038	-0,085
-308,124	-200,000	-0,027	0,088
-307,110	-4,665	0,141	0,071
-306,095	-200,000	0,017	-0,065
-305,080	-50,453	-0,057	0,019
-304,066	-168,088	-0,045	-0,001
-303,051	-47,559	0,086	0,030
-302,037	787,544	-0,021	0,041
-301,022	800,000	0,039	-0,107
-300,008	297,252	-0,023	-0,031
-298,993	-200,000	0,005	-0,042
-297,978	35,325	0,109	0,069
-296,964	-179,824	-0,115	-0,002
-295,949	175,664	0,044	0,046
-294,935	130,571	-0,065	-0,060
-293,920	50,559	0,101	-0,069
-292,905	-200,000	-0,027	0,126
-291,891	53,572	0,082	-0,057
-290,876	6,787	-0,083	0,045
-289,862	-125,819	-0,081	-0,009
-288,847	480,834	0,056	-0,093
-287,832	-200,000	0,026	-0,129
-286,818	-156,441	-0,075	0,003
-285,803	-91,848	-0,007	0,001
-284,789	161,092	0,060	-0,061
-283,774	-125,791	0,087	-0,009
-282,759	129,906	-0,058	0,054
-281,745	452,993	0,074	-0,119
-280,730	550,525	-0,067	0,118
-279,716	-33,776	-0,102	-0,041
-278,701	-200,000	-0,013	-0,046
-277,686	-148,194	0,047	-0,003
-276,672	132,634	0,150	0,141
-275,657	-200,000	-0,070	0,000
-274,643	-76,445	-0,128	0,033
-273,628	-39,432	-0,123	0,047
-272,613	-99,272	0,124	-0,023
-271,599	265,045	-0,070	0,089
-270,584	29,545	0,116	-0,072
-269,570	-100,282	0,132	0,024
-268,555	-121,990	0,056	0,007
-267,540	220,258	0,023	-0,027
-266,526	232,945	-0,099	-0,119
-265,511	-37,053	-0,135	-0,052
-264,497	-200,000	0,023	0,114
-263,482	599,880	-0,050	0,091
-262,467	-49,004	-0,035	-0,012
-261,453	-113,731	-0,040	-0,006
-260,438	-182,723	-0,166	0,002
-259,424	-76,851	0,048	0,012
-258,409	-199,573	0,096	-0,000
-257,395	421,482	0,047	0,073
-256,380	62,159	0,049	-0,035
-255,365	264,474	-0,107	0,135
-254,351	171,521	0,153	0,160
-253,336	418,487	-0,043	-0,067
-252,322	-200,000	-0,003	0,020
-251,307	41,663	0,074	-0,049
-250,292	-181,771	-0,153	-0,002
-249,278	-85,161	0,217	0,049
-248,263	316,869	-0,111	0,153
-247,249	-200,000	0,006	-0,040
-246,234	-41,498	-0,048	0,018
-245,219	-61,477	-0,148	-0,045
-244,205	800,000	-0,003	0,009
-243,190	-111,029	-0,080	-0,012
-242,176	314,200	0,060	0,082
-241,161	-200,000	-0,015	0,051
-240,146	145,546	0,072	0,070
-239,132	-67,283	0,033	0,009
-238,117	581,093	-0,031	-0,056
-237,103	30,253	0,134	-0,083
-236,088	-9,416	0,064	-0,031
-235,073	-200,000	0,031	-0,110
-234,059	-13,795	0,109	0,051
-233,044	192,717	0,001	-0,001
-232,030	-200,000	0,065	-0,234
-231,015	99,672	-0,111	-0,093
-230,000	45,978	0,084	0,056
-228,986	87,174	-0,084	-0,068
-227,971	-200,000	-0,017	0,081
-226,957	-200,000	-0,039	0,177
-225,942	-200,000	0,005	0,151
-224,927	-200,000	0,002	-0,075
-223,913	76,284	0,085	-0,065
-222,898	-200,000	0,008	-0,086
-221,884	349,630	0,062	-0,090
-220,869	323,406	-0,078	0,108
-219,855	-79,654	0,137	-0,033
-218,840	-200,000	-0,028	0,147
-217,825	656,619	-0,041	-0,077
-216,811	-26,649	0,052	0,022
-215,796	-200,000	-0,003	-0,064
-214,782	-105,362	0,119	0,019
-213,767	163,170	-0,094	0,096
-212,752	800,000	0,038	0,101
-211,738	-200,000	-0,000	0,095
-210,723	-200,000	0,009	0,271
-209,709	-142,109	-0,134	-0,010
-208,694	-44,254	0,103	-0,037
-207,679	-62,513	0,068	0,020
-206,665	324,438	0,027	-0,038
-205,650	800,000	-0,035	0,094
-204,636	-168,054	0,072	0,002
-203,621	-200,000	-0,007	0,100
-202,606	800,000	0,016	-0,045
-201,592	-29,466	0,079	0,033
-200,577	104,328	-0,058	-0,049
-199,563	305,376	0,064	0,087
-198,548	800,000	0,037	0,082
-197,533	-102,264	-0,073	0,013
-196,519	800,000	0,016	-0,035
-195,504	196,597	-0,144	-0,159
-194,490	223,279	-0,048	0,056
-193,475	-200,000	-0,015	-0,145
-192,460	-137,730	0,031	0,003
-191,446	-200,000	-0,008	0,054
-190,431	-150,472	0,074	0,004
-189,417	53,944	0,100	0,070
-188,402	-160,288	0,142	0,005
-187,387	800,000	0,020	-0,051
-186,373	800,000	-0,027	-0,063
-185,358	-105,288	0,075	-0,012
-184,344	-99,856	0,026	-0,005
-183,329	225,106	0,076	0,089
-182,315	800,000	-0,062	0,126
-181,300	-192,223	-0,052	-0,000
-180,285	117,749	0,131	-0,117
-179,271	133,494	-0,110	-0,103
-178,256	800,000	-0,023	-0,063
-177,242	58,690	-0,016	-0,012
-176,227	456,424	0,109	0,176
-175,212	-200,000	-0,028	0,137
-174,198	-16,564	0,058	-0,027
-173,183	-128,586	-0,108	-0,011
-172,169	189,056	-0,122	-0,133
-171,154	-158,933	0,160	0,006
-170,139	-3,442	-0,065	-0,033
-169,125	-200,000	-0,012	0,049
-168,110	800,000	0,057	0,115
-167,096	-13,624	0,059	0,028
-166,081	77,401	0,083	-0,064
-165,066	-188,953	-0,061	0,001
-164,052	800,000	-0,036	-0,106
-163,037	-200,000	-0,003	-0,131
-162,023	-200,000	-0,018	0,121
-161,008	-70,883	0,098	0,026
-159,993	518,613	-0,015	-0,025
-158,979	335,351	0,039	-0,054
-157,964	-88,352	-0,047	-0,010
-156,950	51,727	-0,120	-0,082
-155,935	-74,593	-0,103	-0,027
-154,920	439,965	0,086	0,137
-153,906	800,000	0,034	-0,084
-152,891	17,302	0,042	-0,024
-151,877	168,859	0,016	0,017
-150,862	-90,621	-0,164	-0,034
-149,847	224,928	-0,051	0,060
-148,833	104,608	-0,078	0,066
-147,818	-119,177	0,038	0,005
-146,804	-200,000	0,024	0,222
-145,789	9,902	-0,184	-0,101
-144,775	800,000	0,049	0,102
-143,760	-54,967	-0,096	-0,031
-142,745	44,718	0,052	-0,034
-141,731	345,181	-0,062	-0,089
-140,716	-91,412	-0,170	-0,035
-139,702	130,316	-0,052	0,048
-138,687	800,000	-0,040	-0,127
-137,672	800,000	-0,022	-0,047
-136,658	800,000	0,017	-0,043
-135,643	-200,000	0,004	-0,208
-134,629	418,302	-0,075	0,116
-133,614	81,666	-0,089	-0,070
-132,599	-94,276	0,104	-0,020
-131,585	-200,000	-0,004	-0,136
-130,570	-200,000	-0,015	-0,075
-129,556	321,199	-0,079	-0,109
-128,541	260,366	0,067	-0,084
-127,526	800,000	-0,103	-0,212
-126,512	19,898	-0,055	0,032
-125,497	92,254	0,032	0,026
-124,483	-46,259	-0,040	-0,014
-123,468	-200,000	-0,008	-0,097
-122,453	-200,000	0,008	0,030
-121,439	-200,000	-0,004	-0,049
-120,424	-200,000	0,004	0,036
