DTS Sentinel unit serial number:	SN410029Multiplexer serial number:	ORYXHardware model number:	OX2-SRSoftware version number:	ORYX F/W v4,00 Oryx Data Collector v3.7.2.0data status	okinstallation	B3 Nyhavnadifferential loss correction	single-endedforward channel	channel 1reverse channel	N/Adate	2023/11/28time	14:02:30forward acquisition time	300,00reverse acquisition time	0,00gamma	499,1914k internal	0,3140k external	0,3140temperature offset calibration	1,0000default loss term (dB/km)	0,3820temperature slope calibration	1,0000multiplexer offset coefficient	1,0000multiplexer slope coefficient	1,0000fibre end	0,00T internal ref (°C)	7,61T ext. ref 1 (°C)	-7,77T ext. ref 2 (°C)	-7,94length (m)	temperature (°C)	Stokes	anti-Stokes-744,400	253,310	-0,145	-0,183
-743,385	-200,000	-0,056	0,275
-742,371	288,924	-0,198	-0,266
-741,356	-200,000	-0,026	0,294
-740,342	-2,239	-0,199	-0,103
-739,327	-200,000	-0,023	0,266
-738,312	49,272	-0,272	-0,189
-737,298	712,445	-0,136	0,268
-736,283	383,167	-0,090	-0,138
-735,269	-200,000	-0,020	0,234
-734,254	130,794	-0,305	-0,291
-733,239	25,283	-0,306	0,188
-732,225	606,623	-0,106	-0,196
-731,210	762,283	0,053	0,107
-730,196	84,683	0,057	-0,046
-729,181	41,797	-0,041	0,027
-728,167	23,162	0,122	0,074
-727,152	800,000	-0,045	-0,115
-726,137	252,701	-0,051	-0,065
-725,123	260,488	-0,063	-0,081
-724,108	88,153	-0,065	-0,053
-723,094	-141,725	-0,092	-0,007
-722,079	-200,000	-0,028	-0,135
-721,064	-200,000	-0,016	-0,065
-720,050	-111,713	-0,150	-0,022
-719,035	178,676	-0,083	-0,090
-718,021	-127,340	-0,085	-0,009
-717,006	96,923	-0,144	-0,122
-715,991	392,961	-0,085	-0,131
-714,977	800,000	-0,042	-0,119
-713,962	-67,860	-0,078	0,022
-712,948	106,738	-0,041	0,036
-711,933	-200,000	0,015	0,094
-710,918	-47,931	0,064	0,023
-709,904	-53,341	-0,190	0,064
-708,889	13,887	0,083	-0,048
-707,875	58,769	-0,114	-0,083
-706,860	265,099	0,043	-0,056
-705,845	195,224	-0,089	-0,100
-704,831	328,904	-0,045	0,064
-703,816	534,790	-0,023	-0,040
-702,802	-46,958	0,054	-0,019
-701,787	586,149	0,018	-0,033
-700,772	800,000	-0,023	-0,062
-699,758	800,000	0,056	-0,171
-698,743	-200,000	-0,027	0,092
-697,729	641,400	-0,040	0,075
-696,714	237,226	-0,059	-0,073
-695,699	-92,906	0,048	0,010
-694,685	800,000	-0,008	-0,022
-693,670	-111,904	0,119	0,018
-692,656	800,000	-0,022	-0,048
-691,641	-200,000	-0,041	0,187
-690,627	800,000	0,031	0,064
-689,612	92,811	-0,026	0,022
-688,597	-58,763	-0,110	-0,035
-687,583	-200,000	0,007	-0,157
-686,568	-200,000	0,034	-0,160
-685,554	426,905	0,057	-0,091
-684,539	1,060	0,034	-0,018
-683,524	-113,277	0,079	-0,011
-682,510	470,846	-0,034	0,057
-681,495	-83,690	-0,111	-0,026
-680,481	-200,000	-0,012	-0,147
-679,466	-200,000	0,008	-0,036
-678,451	320,507	0,088	-0,123
-677,437	34,773	-0,038	0,025
-676,422	-37,744	0,080	0,031
-675,408	-200,000	0,010	0,107
-674,393	383,543	-0,008	-0,013
-673,378	-118,171	-0,227	0,030
-672,364	16,931	-0,112	-0,065
-671,349	-1,305	-0,133	-0,069
-670,335	800,000	-0,011	-0,030
-669,320	430,068	0,019	0,030
-668,305	-138,720	-0,131	0,010
-667,291	-200,000	0,005	-0,082
-666,276	278,821	0,068	-0,090
-665,262	-93,407	-0,088	-0,018
-664,247	-200,000	-0,020	0,079
-663,232	-167,620	-0,095	0,003
-662,218	115,193	-0,045	-0,041
-661,203	800,000	0,026	0,057
-660,189	-4,371	-0,081	0,041
-659,174	-31,305	-0,024	0,010
-658,159	-200,000	-0,034	-0,201
-657,145	-200,000	-0,041	-0,154
-656,130	-47,183	0,111	0,040
-655,116	-80,856	-0,097	0,024
-654,101	-126,483	0,042	-0,005
-653,086	550,206	0,039	-0,069
-652,072	-77,544	-0,059	0,015
-651,057	-114,678	-0,011	-0,002
-650,043	-66,147	0,106	0,031
-649,028	4,177	0,048	-0,026
-648,014	-200,000	0,002	-0,104
-646,999	800,000	-0,039	-0,123
-645,984	725,491	-0,034	0,067
-644,970	800,000	-0,040	-0,090
-643,955	89,800	-0,092	-0,076
-642,941	-103,721	-0,056	0,010
-641,926	54,935	-0,034	0,024
-640,911	800,000	0,047	0,105
-639,897	61,016	-0,083	0,061
-638,882	790,287	-0,006	-0,013
-637,868	148,770	-0,065	-0,065
-636,853	-200,000	0,008	-0,086
-635,838	299,380	-0,080	-0,109
-634,824	-141,041	-0,147	-0,011
-633,809	602,036	0,078	-0,143
-632,795	145,246	0,057	-0,056
-631,780	419,896	0,032	-0,050
-630,765	-0,402	-0,112	-0,059
-629,751	-200,000	0,007	-0,065
-628,736	-200,000	-0,034	-0,121
-627,722	-63,364	0,108	-0,033
-626,707	800,000	0,037	-0,116
-625,692	-53,684	-0,120	-0,040
-624,678	68,955	0,075	-0,057
-623,663	478,038	0,043	0,073
-622,649	249,611	-0,018	-0,023
-621,634	-200,000	0,022	-0,082
-620,619	-12,080	-0,093	-0,045
-619,605	-200,000	0,008	-0,028
-618,590	-125,303	-0,067	-0,007
-617,576	800,000	-0,056	-0,120
-616,561	250,998	0,021	0,027
-615,546	774,622	-0,047	-0,096
-614,532	800,000	0,053	-0,135
-613,517	-115,720	-0,085	0,012
-612,503	-71,370	-0,088	-0,024
-611,488	-135,618	0,112	-0,010
-610,474	800,000	-0,034	0,080
-609,459	121,777	-0,024	0,022
-608,444	-87,220	-0,044	-0,010
-607,430	-4,914	-0,098	-0,049
-606,415	129,423	0,062	-0,058
-605,401	-200,000	0,027	-0,106
-604,386	-200,000	0,008	0,084
-603,371	312,042	0,059	0,082
-602,357	44,013	0,102	-0,069
-601,342	249,756	0,029	0,036
-600,328	800,000	0,009	-0,024
-599,313	77,564	0,043	0,033
-598,298	-200,000	-0,007	-0,030
-597,284	800,000	-0,013	0,026
-596,269	411,321	-0,032	0,050
-595,255	-0,884	-0,073	-0,038
-594,240	25,089	-0,031	-0,019
-593,225	217,300	-0,073	0,085
-592,211	800,000	-0,036	-0,092
-591,196	-200,000	0,004	-0,030
-590,182	80,897	0,037	-0,030
-589,167	129,079	0,042	0,040
-588,152	745,519	-0,052	0,103
-587,138	23,384	-0,061	-0,037
-586,123	-23,299	-0,144	-0,064
-585,109	-200,000	-0,025	-0,132
-584,094	177,925	0,031	-0,034
-583,079	171,521	0,106	0,113
-582,065	260,805	0,038	0,049
-581,050	-49,900	-0,062	0,021
-580,036	-200,000	0,016	-0,093
-579,021	800,000	-0,047	-0,146
-578,006	800,000	-0,068	-0,142
-576,992	-200,000	0,043	-0,154
-575,977	-200,000	0,012	-0,080
-574,963	800,000	0,053	0,127
-573,948	-200,000	-0,017	-0,135
-572,934	-33,642	-0,027	0,011
-571,919	499,761	-0,051	-0,087
-570,904	-57,477	0,115	-0,037
-569,890	800,000	-0,050	-0,138
-568,875	724,133	0,041	0,081
-567,861	800,000	0,050	0,135
-566,846	-200,000	-0,011	0,055
-565,831	36,991	-0,044	-0,029
-564,817	-200,000	0,028	0,106
-563,802	545,773	0,078	-0,138
-562,788	494,270	0,064	-0,108
-561,773	457,869	-0,103	-0,168
-560,758	-49,825	0,039	-0,013
-559,744	-56,126	0,095	0,031
-558,729	-200,000	-0,021	0,108
-557,715	20,548	-0,043	-0,026
-556,700	140,374	-0,084	-0,081
-555,685	-185,626	0,073	0,001
-554,671	488,345	0,028	0,047
-553,656	-200,000	-0,020	0,153
-552,642	58,742	-0,025	-0,018
-551,627	64,296	0,091	0,067
-550,612	-119,686	-0,107	-0,013
-549,598	-78,488	0,037	-0,009
-548,583	-200,000	0,007	-0,106
-547,569	-111,338	0,030	-0,005
-546,554	800,000	-0,057	0,142
-545,539	124,491	-0,113	0,105
-544,525	-56,720	0,058	-0,019
-543,510	800,000	0,041	-0,109
-542,496	437,206	-0,051	-0,083
-541,481	-185,527	-0,132	0,001
-540,466	6,465	-0,149	0,081
-539,452	21,684	-0,059	-0,036
-538,437	180,031	0,043	0,047
-537,423	623,572	-0,046	0,086
-536,408	-19,605	0,022	-0,010
-535,393	-50,777	0,098	0,034
-534,379	-137,168	-0,032	-0,003
-533,364	800,000	0,020	0,045
-532,350	196,730	0,078	0,088
-531,335	50,715	-0,078	-0,054
-530,321	800,000	0,016	-0,050
-529,306	274,971	-0,050	0,065
-528,291	800,000	0,048	0,138
-527,277	800,000	0,054	-0,136
-526,262	247,896	-0,031	-0,039
-525,248	-200,000	-0,013	0,102
-524,233	-122,221	0,039	-0,005
-523,218	-200,000	-0,007	-0,056
-522,204	-200,000	0,009	0,135
-521,189	-44,624	-0,086	0,032
-520,175	-37,967	0,075	-0,029
-519,160	-200,000	0,010	-0,064
-518,145	736,122	-0,026	-0,051
-517,131	-104,987	0,163	-0,027
-516,116	-200,000	0,001	0,064
-515,102	-200,000	-0,004	0,086
-514,087	224,118	0,043	-0,051
-513,072	42,007	-0,012	-0,008
-512,058	-67,619	-0,086	-0,025
-511,043	-200,000	-0,005	0,017
-510,029	-199,411	-0,018	0,000
-509,014	298,903	0,088	0,119
-507,999	215,380	-0,003	0,004
-506,985	-200,000	-0,013	-0,055
-505,970	800,000	0,006	0,017
-504,956	800,000	0,080	-0,171
-503,941	-47,531	0,094	0,033
-502,926	429,431	0,063	0,100
-501,912	92,795	0,128	0,106
-500,897	70,986	-0,021	-0,016
-499,883	-200,000	-0,004	0,017
-498,868	-200,000	0,007	0,043
-497,853	-200,000	0,002	-0,150
-496,839	-31,638	0,025	0,010
-495,824	-12,311	0,085	-0,040
-494,810	424,813	-0,043	-0,068
-493,795	273,336	-0,006	-0,008
-492,781	107,699	0,057	0,050
-491,766	1,084	-0,098	-0,052
-490,751	-66,424	-0,094	0,027
-489,737	-26,867	-0,054	0,023
-488,722	192,056	-0,035	-0,039
-487,708	-200,000	-0,039	0,137
-486,693	-14,249	0,157	0,074
-485,678	-75,255	0,010	-0,003
-484,664	-114,947	0,068	-0,009
-483,649	800,000	0,009	-0,020
-482,635	400,878	-0,071	-0,110
-481,620	146,071	-0,098	0,097
-480,605	297,647	0,042	0,056
-479,591	-0,743	-0,069	-0,036
-478,576	19,936	-0,082	-0,049
-477,562	444,552	-0,044	0,070
-476,547	-71,220	-0,074	0,020
-475,532	-200,000	0,028	-0,159
-474,518	18,597	-0,072	0,042
-473,503	-200,000	-0,038	0,159
-472,489	-49,814	-0,038	-0,013
-471,474	311,506	0,028	-0,038
-470,459	-87,396	-0,142	-0,031
-469,445	800,000	-0,042	-0,126
-468,430	-200,000	0,003	-0,079
-467,416	388,114	0,118	0,180
-466,401	-169,015	0,148	-0,004
-465,386	114,339	0,086	0,077
-464,372	-71,450	-0,108	-0,030
-463,357	-200,000	-0,007	-0,139
-462,343	-200,000	-0,013	-0,043
-461,328	800,000	-0,050	0,152
-460,313	800,000	0,008	0,020
-459,299	-140,418	0,158	-0,012
-458,284	344,094	0,026	0,037
-457,270	131,522	0,048	0,045
-456,255	-69,352	-0,108	0,030
-455,241	-82,305	0,126	-0,030
-454,226	-102,277	-0,166	0,029
-453,211	-38,824	0,072	-0,028
-452,197	596,939	0,040	0,073
-451,182	281,331	-0,089	0,117
-450,168	-200,000	-0,005	-0,042
-449,153	547,146	-0,057	-0,100
-448,138	730,741	-0,018	0,035
-447,124	-142,691	-0,114	-0,008
-446,109	-200,000	0,035	0,113
-445,095	-200,000	-0,037	0,163
-444,080	-200,000	-0,010	-0,070
-443,065	-200,000	0,009	0,150
-442,051	92,581	0,101	-0,084
-441,036	588,741	-0,047	0,086
-440,022	-9,586	-0,174	0,085
-439,007	800,000	-0,071	-0,157
-437,992	78,099	0,009	0,007
-436,978	278,437	-0,051	0,067
-435,963	513,700	0,036	0,061
-434,949	-19,173	-0,091	0,041
-433,934	-39,164	-0,037	-0,014
-432,919	800,000	-0,054	-0,130
-431,905	6,037	0,048	-0,026
-430,890	-107,318	0,043	-0,007
-429,876	-131,795	0,056	-0,005
-428,861	133,123	-0,060	-0,057
-427,846	-41,050	0,063	-0,024
-426,832	34,739	-0,051	-0,033
-425,817	-200,000	0,006	0,030
-424,803	-200,000	0,014	-0,136
-423,788	-200,000	-0,004	-0,043
-422,773	16,359	-0,058	-0,034
-421,759	-200,000	-0,008	0,092
-420,744	-200,000	0,006	0,020
-419,730	-200,000	-0,006	0,072
-418,715	-200,000	-0,007	-0,141
-417,701	800,000	-0,019	0,044
-416,686	45,798	-0,095	-0,064
-415,671	-114,763	-0,041	-0,006
-414,657	243,448	0,075	0,092
-413,642	-13,093	0,098	-0,047
-412,628	189,077	-0,112	0,123
-411,613	-98,318	-0,035	0,007
-410,598	-200,000	0,024	-0,184
-409,584	-28,343	0,135	-0,057
-408,569	-98,925	0,165	0,030
-407,555	-47,029	0,123	0,044
-406,540	-17,272	0,087	0,040
-405,525	21,969	-0,083	0,049
-404,511	800,000	-0,013	0,033
-403,496	-70,391	0,147	-0,040
-402,482	-200,000	-0,038	-0,138
-401,467	-158,447	-0,015	-0,001
-400,452	257,116	0,048	-0,060
-399,438	197,513	-0,050	-0,056
-398,423	-143,484	-0,048	0,003
-397,409	-69,477	-0,173	0,048
-396,394	-200,000	0,030	-0,216
-395,379	182,458	0,035	-0,038
-394,365	-71,634	0,109	-0,030
-393,350	800,000	0,043	-0,113
-392,336	138,658	-0,022	-0,021
-391,321	800,000	-0,054	-0,167
-390,306	139,109	0,061	-0,058
-389,292	-200,000	-0,031	-0,303
-388,277	10,906	0,111	-0,062
-387,263	-200,000	0,003	-0,068
-386,248	-31,742	-0,038	0,016
-385,233	-165,688	0,064	0,002
-384,219	-200,000	0,014	0,074
-383,204	550,637	-0,055	-0,096
-382,190	24,259	0,101	0,061
-381,175	394,408	0,022	0,033
-380,160	-81,016	0,061	0,015
-379,146	182,042	-0,076	-0,081
-378,131	800,000	0,065	0,136
-377,117	800,000	-0,030	-0,071
-376,102	-200,000	0,035	0,127
-375,088	-200,000	0,008	-0,102
-374,073	800,000	0,046	-0,115
-373,058	-120,453	0,205	0,025
-372,044	54,026	-0,084	0,059
-371,029	-200,000	0,025	0,107
-370,015	-162,782	0,067	0,002
-369,000	27,102	-0,021	0,013
-367,985	8,375	-0,095	-0,052
-366,971	-200,000	-0,025	-0,100
-365,956	800,000	-0,046	0,116
-364,942	-1,069	0,092	-0,048
-363,927	-60,216	-0,092	-0,028
-362,912	-90,722	-0,058	-0,012
-361,898	-12,233	0,176	-0,084
-360,883	-131,088	-0,176	0,017
-359,869	-200,000	0,009	-0,038
-358,854	-123,738	-0,143	0,016
-357,839	-56,683	0,137	-0,044
-356,825	64,993	-0,073	0,053
-355,810	-114,006	0,068	0,010
-354,796	-130,797	-0,099	-0,010
-353,781	141,248	-0,119	-0,115
-352,766	-118,668	-0,029	0,004
-351,752	-200,000	-0,007	-0,071
-350,737	-200,000	0,003	0,042
-349,723	800,000	-0,015	0,042
-348,708	645,373	-0,081	-0,151
-347,693	39,428	-0,056	0,036
-346,679	111,012	0,051	0,045
-345,664	-101,643	-0,025	-0,004
-344,650	-200,000	-0,029	0,134
-343,635	200,985	-0,024	-0,027
-342,620	-34,909	0,117	-0,046
-341,606	112,167	-0,079	0,070
-340,591	-7,548	0,124	-0,061
-339,577	134,775	0,069	-0,065
-338,562	-200,000	-0,025	0,160
-337,548	-135,729	0,109	-0,009
-336,533	-200,000	-0,009	0,049
-335,518	-26,929	-0,041	0,017
-334,504	800,000	0,075	-0,154
-333,489	281,405	0,098	0,128
-332,475	-35,928	-0,102	-0,040
-331,460	-200,000	0,005	0,033
-330,445	702,275	0,031	-0,060
-329,431	-200,000	0,023	0,145
-328,416	800,000	0,020	-0,052
-327,402	-107,828	-0,126	-0,020
-326,387	800,000	-0,014	0,032
-325,372	-16,879	-0,120	-0,055
-324,358	654,134	-0,045	-0,084
-323,343	-200,000	0,001	-0,150
-322,329	28,770	0,088	-0,054
-321,314	-32,569	-0,053	-0,021
-320,299	153,551	0,098	0,098
-319,285	-200,000	0,016	-0,083
-318,270	-15,446	0,107	0,050
-317,256	800,000	-0,052	0,121
-316,241	-87,889	0,113	0,025
-315,226	38,622	0,057	0,037
-314,212	-70,863	-0,058	-0,016
-313,197	-87,543	0,137	0,030
-312,183	20,695	-0,046	-0,027
-311,168	58,357	-0,145	-0,104
-310,153	17,060	0,073	-0,042
-309,139	680,345	0,042	0,079
-308,124	-79,960	-0,111	0,027
-307,110	115,329	0,140	0,125
-306,095	538,709	0,079	0,138
-305,080	-200,000	-0,036	0,198
-304,066	-200,000	0,001	-0,074
-303,051	444,737	-0,050	0,080
-302,037	619,263	-0,028	0,052
-301,022	10,651	0,080	-0,044
-300,008	458,111	0,107	0,174
-298,993	800,000	-0,017	0,052
-297,978	800,000	-0,068	0,182
-296,964	-200,000	-0,023	0,136
-295,949	800,000	0,011	0,031
-294,935	-100,868	0,095	-0,017
-293,920	800,000	0,036	0,083
-292,905	86,431	0,092	0,074
-291,891	-200,000	-0,013	0,108
-290,876	472,943	0,078	0,129
-289,862	-119,221	-0,048	0,006
-288,847	464,523	-0,046	0,076
-287,832	-200,000	0,001	-0,100
-286,818	800,000	-0,082	-0,201
-285,803	100,280	0,142	0,120
-284,789	303,453	0,048	-0,065
-283,774	408,585	0,071	0,109
-282,759	-144,440	-0,056	-0,004
-281,745	800,000	0,024	-0,064
-280,730	68,913	0,112	0,084
-279,716	51,487	0,033	0,023
-278,701	373,656	-0,064	-0,095
-277,686	-110,669	0,126	-0,019
-276,672	-200,000	-0,001	0,005
-275,657	-200,000	-0,005	0,032
-274,643	-63,672	-0,100	-0,030
-273,628	-14,772	-0,053	-0,025
-272,613	-200,000	0,029	-0,131
-271,599	702,398	-0,037	0,071
-270,584	-200,000	-0,016	0,111
-269,570	-67,741	0,132	0,037
-268,555	158,276	-0,098	0,099
-267,540	244,517	0,009	-0,011
-266,526	188,632	-0,037	-0,041
-265,511	-200,000	-0,013	0,108
-264,497	-200,000	-0,011	-0,077
-263,482	36,044	0,098	-0,063
-262,467	121,571	-0,031	0,028
-261,453	-200,000	-0,017	0,099
-260,438	800,000	-0,057	-0,141
-259,424	-118,073	-0,107	-0,014
-258,409	-200,000	0,079	0,000
-257,395	52,368	0,075	0,052
-256,380	-48,096	-0,105	-0,037
-255,365	-86,366	0,134	-0,030
-254,351	-200,000	-0,022	0,168
-253,336	53,411	0,070	0,048
-252,322	-200,000	0,017	0,095
-251,307	98,774	-0,008	0,007
-250,292	-51,671	0,085	0,029
-249,278	117,551	-0,068	0,061
-248,263	-19,734	0,033	-0,015
-247,249	0,279	-0,067	0,034
-246,234	-87,709	0,041	-0,009
-245,219	-164,107	-0,080	0,003
-244,205	793,118	0,009	-0,017
-243,190	-25,506	0,073	-0,031
-242,176	25,669	0,112	0,068
-241,161	7,596	0,072	-0,039
-240,146	-200,000	0,008	0,088
-239,132	-200,000	0,010	0,068
-238,117	-91,975	-0,162	-0,033
-237,103	-14,602	0,165	-0,077
-236,088	-77,991	-0,130	-0,032
-235,073	657,134	0,043	0,081
-234,059	376,591	0,029	0,043
-233,044	800,000	-0,040	0,113
-232,030	800,000	0,050	0,117
-231,015	-70,200	-0,049	0,013
-230,000	-16,659	-0,114	0,052
-228,986	226,249	0,060	-0,070
-227,971	131,768	-0,073	0,068
-226,957	-200,000	-0,046	0,182
-225,942	-200,000	-0,008	0,148
-224,927	-200,000	0,001	0,060
-223,913	687,771	-0,027	0,051
-222,898	320,990	-0,059	0,082
-221,884	-200,000	0,015	-0,057
-220,869	13,585	-0,060	0,034
-219,855	-47,302	0,175	-0,061
-218,840	-200,000	0,001	0,010
-217,825	524,260	0,033	-0,057
-216,811	3,578	-0,139	-0,073
-215,796	124,750	-0,108	0,099
-214,782	-143,553	0,018	0,001
-213,767	155,704	0,055	-0,055
-212,752	-200,000	0,007	0,065
-211,738	-112,829	0,185	0,026
-210,723	222,856	0,097	0,114
-209,709	800,000	0,034	-0,085
-208,694	437,416	-0,042	0,067
-207,679	47,738	-0,130	-0,088
-206,665	228,354	0,078	0,092
-205,650	8,735	-0,062	0,034
-204,636	342,428	0,041	0,059
-203,621	-200,000	0,017	0,143
-202,606	-200,000	-0,013	0,107
-201,592	525,638	-0,065	0,112
-200,577	145,988	-0,058	0,057
-199,563	-104,929	-0,074	0,012
-198,548	133,860	0,059	-0,056
-197,533	50,253	-0,014	-0,009
-196,519	94,736	-0,073	-0,060
-195,504	286,272	-0,047	-0,061
-194,490	800,000	-0,020	0,052
-193,475	776,273	0,049	0,097
-192,460	-200,000	0,017	0,059
-191,446	-1,568	0,050	-0,025
-190,431	800,000	-0,047	0,127
-189,417	3,558	-0,122	0,064
-188,402	-200,000	-0,028	0,118
-187,387	-200,000	0,029	-0,112
-186,373	-200,000	-0,050	-0,193
-185,358	-200,000	-0,002	-0,193
-184,344	3,753	0,141	0,074
-183,329	-136,232	0,106	-0,009
-182,315	18,394	-0,052	0,030
-181,300	366,134	0,033	-0,049
-180,285	800,000	-0,038	0,078
-179,271	387,767	0,051	-0,077
-178,256	647,129	0,022	-0,040
-177,242	-111,547	-0,122	-0,018
-176,227	-4,066	0,114	0,057
-175,212	-200,000	-0,024	0,174
-174,198	105,453	0,091	-0,078
-173,183	316,293	-0,046	-0,063
-172,169	140,286	-0,049	-0,047
-171,154	497,985	0,025	-0,042
-170,139	300,358	0,050	-0,068
-169,125	-35,889	0,209	0,082
-168,110	800,000	-0,063	0,177
-167,096	751,746	-0,078	-0,153
-166,081	-151,811	-0,065	0,003
-165,066	-110,475	-0,095	-0,014
-164,052	-26,317	-0,109	0,046
-163,037	-29,097	0,100	-0,042
-162,023	800,000	0,019	0,048
-161,008	46,224	0,074	-0,049
-159,993	261,371	-0,046	0,058
-158,979	800,000	-0,018	-0,056
-157,964	-71,771	-0,043	0,011
-156,950	340,741	-0,053	0,076
-155,935	-18,165	0,079	-0,036
-154,920	-36,689	0,114	0,044
-153,906	426,952	0,056	-0,089
-152,891	800,000	0,026	-0,068
-151,877	171,060	0,029	0,030
-150,862	172,225	-0,061	-0,064
-149,847	800,000	0,038	-0,095
-148,833	-49,920	0,030	0,010
-147,818	109,295	0,082	0,071
-146,804	-200,000	-0,024	-0,088
-145,789	62,636	0,115	0,083
-144,775	374,625	-0,066	-0,098
-143,760	235,908	-0,037	0,045
-142,745	-200,000	-0,003	0,117
-141,731	800,000	-0,073	0,168
-140,716	-12,564	0,070	-0,033
-139,702	-40,612	0,020	0,007
-138,687	-200,000	0,033	0,139
-137,672	76,190	0,055	-0,042
-136,658	-200,000	0,005	0,058
-135,643	486,900	-0,028	-0,046
-134,629	800,000	0,048	0,100
-133,614	800,000	0,035	-0,105
-132,599	134,577	-0,059	-0,055
-131,585	800,000	0,048	0,097
-130,570	150,028	0,027	-0,027
-129,556	-39,900	0,187	-0,070
-128,541	97,617	-0,034	0,028
-127,526	236,014	-0,059	0,071
-126,512	-200,000	0,020	0,074
-125,497	757,137	0,055	0,109
-124,483	-101,239	-0,024	-0,004
-123,468	-46,657	-0,028	-0,010
-122,453	127,773	-0,043	-0,039
-121,439	207,086	-0,158	0,179
-120,424	223,698	-0,122	0,142
