DTS Sentinel unit serial number:	SN410029Multiplexer serial number:	ORYXHardware model number:	OX2-SRSoftware version number:	ORYX F/W v4,00 Oryx Data Collector v3.7.2.0data status	okinstallation	B3 Nyhavnadifferential loss correction	single-endedforward channel	channel 1reverse channel	N/Adate	2023/11/28time	17:22:30forward acquisition time	300,00reverse acquisition time	0,00gamma	499,1914k internal	0,3189k external	0,3189temperature offset calibration	1,0000default loss term (dB/km)	0,3820temperature slope calibration	1,0000multiplexer offset coefficient	1,0000multiplexer slope coefficient	1,0000fibre end	0,00T internal ref (°C)	7,31T ext. ref 1 (°C)	-7,52T ext. ref 2 (°C)	-7,69length (m)	temperature (°C)	Stokes	anti-Stokes-744,400	800,000	-0,134	-0,320
-743,385	509,289	-0,114	0,195
-742,371	194,948	-0,069	-0,076
-741,356	800,000	-0,101	0,258
-740,342	467,569	-0,190	-0,313
-739,327	-200,000	-0,037	0,258
-738,312	84,501	-0,144	-0,115
-737,298	800,000	-0,107	0,301
-736,283	800,000	-0,053	-0,135
-735,269	-200,000	0,001	0,372
-734,254	-200,000	-0,012	0,082
-733,239	134,987	-0,224	0,212
-732,225	124,526	-0,152	-0,140
-731,210	800,000	0,077	0,165
-730,196	-200,000	-0,003	-0,029
-729,181	800,000	0,032	-0,080
-728,167	-108,157	0,034	-0,005
-727,152	800,000	-0,041	0,087
-726,137	793,563	-0,058	-0,117
-725,123	3,084	-0,078	-0,041
-724,108	-200,000	-0,010	-0,108
-723,094	-200,000	-0,016	-0,136
-722,079	419,585	-0,051	0,079
-721,064	800,000	-0,031	-0,070
-720,050	166,150	0,078	0,081
-719,035	-200,000	-0,023	-0,089
-718,021	-200,000	-0,015	-0,119
-717,006	-200,000	0,001	-0,092
-715,991	-200,000	0,006	-0,097
-714,977	50,410	-0,078	-0,054
-713,962	67,053	0,111	-0,082
-712,948	37,613	-0,055	0,036
-711,933	716,864	0,072	0,141
-710,918	57,673	-0,079	-0,056
-709,904	16,710	-0,053	-0,030
-708,889	800,000	-0,014	-0,038
-707,875	198,352	-0,030	0,034
-706,860	53,649	-0,094	0,065
-705,845	-200,000	-0,009	0,244
-704,831	-200,000	-0,013	0,077
-703,816	-200,000	-0,006	0,039
-702,802	244,218	0,098	-0,120
-701,787	-6,155	0,029	-0,014
-700,772	-125,029	-0,058	0,006
-699,758	-95,548	0,036	-0,007
-698,743	-11,018	0,162	-0,078
-697,729	10,281	-0,088	0,049
-696,714	422,780	0,023	0,037
-695,699	800,000	-0,031	0,084
-694,685	-73,384	-0,081	0,021
-693,670	-97,891	-0,117	0,022
-692,656	-166,162	-0,072	-0,002
-691,641	444,534	0,092	0,148
-690,627	-6,617	0,071	-0,035
-689,612	-11,476	0,065	0,031
-688,597	-90,353	0,140	-0,029
-687,583	-200,000	0,001	-0,103
-686,568	9,135	-0,123	0,067
-685,554	-34,788	-0,141	0,056
-684,539	121,792	0,070	0,064
-683,524	800,000	-0,052	0,115
-682,510	-200,000	0,020	0,164
-681,495	-111,252	-0,136	0,020
-680,481	-200,000	-0,020	-0,113
-679,466	-117,269	-0,108	0,014
-678,451	-48,194	-0,131	-0,046
-677,437	-17,377	0,163	-0,075
-676,422	-200,000	0,033	0,149
-675,408	109,162	0,044	0,038
-674,393	-36,960	0,038	-0,015
-673,378	218,573	-0,044	0,051
-672,364	-30,178	-0,136	-0,056
-671,349	389,209	0,040	-0,061
-670,335	30,284	0,031	-0,019
-669,320	465,802	-0,044	0,071
-668,305	-200,000	-0,043	0,186
-667,291	-200,000	-0,006	0,124
-666,276	-98,825	-0,175	-0,032
-665,262	-81,592	0,055	0,013
-664,247	456,724	0,069	-0,111
-663,232	-53,421	-0,086	-0,029
-662,218	106,330	0,104	0,090
-661,203	800,000	-0,064	-0,152
-660,189	238,442	-0,076	-0,092
-659,174	-170,954	0,155	-0,004
-658,159	-200,000	-0,015	0,056
-657,145	218,288	-0,110	-0,128
-656,130	-59,953	-0,115	0,036
-655,116	142,349	0,057	-0,055
-654,101	-149,090	-0,144	0,008
-653,086	-76,567	0,098	-0,025
-652,072	-200,000	0,002	-0,117
-651,057	22,116	-0,177	-0,105
-650,043	-200,000	0,005	-0,119
-649,028	-26,171	-0,080	-0,034
-648,014	-109,873	0,034	-0,005
-646,999	316,773	0,087	0,120
-645,984	-200,000	0,003	0,081
-644,970	800,000	0,036	-0,086
-643,955	800,000	0,042	-0,111
-642,941	-15,366	-0,172	-0,079
-641,926	-121,716	0,116	0,014
-640,911	-125,399	0,103	0,011
-639,897	282,653	0,021	0,027
-638,882	-200,000	-0,003	0,051
-637,868	23,605	-0,048	-0,028
-636,853	733,117	0,041	0,080
-635,838	-200,000	-0,018	-0,094
-634,824	800,000	-0,041	0,110
-633,809	-8,790	0,062	0,030
-632,795	-83,471	-0,025	0,006
-631,780	-200,000	-0,011	-0,073
-630,765	-16,074	-0,023	0,011
-629,751	-156,844	0,105	0,005
-628,736	-200,000	0,009	0,031
-627,722	800,000	-0,015	-0,030
-626,707	800,000	-0,035	-0,083
-625,692	-29,244	0,076	0,032
-624,678	-189,537	0,160	0,001
-623,663	-91,938	0,098	0,020
-622,649	-200,000	-0,046	-0,316
-621,634	-172,400	-0,047	0,001
-620,619	5,748	-0,132	-0,071
-619,605	166,455	0,091	0,094
-618,590	800,000	-0,025	-0,062
-617,576	118,035	0,135	0,121
-616,561	26,625	-0,091	0,055
-615,546	539,233	-0,009	-0,015
-614,532	-200,000	0,016	-0,112
-613,517	-156,772	-0,058	0,003
-612,503	100,249	-0,045	-0,038
-611,488	-200,000	0,007	-0,123
-610,474	-80,872	0,074	0,018
-609,459	-26,424	0,049	0,021
-608,444	-200,000	0,022	-0,124
-607,430	-200,000	-0,061	-0,267
-606,415	494,054	0,030	0,050
-605,401	-200,000	0,013	0,053
-604,386	-200,000	0,018	0,064
-603,371	307,951	0,056	-0,076
-602,357	86,170	0,101	-0,081
-601,342	670,778	-0,076	0,144
-600,328	-200,000	0,007	0,033
-599,313	-54,571	-0,025	0,008
-598,298	-92,672	0,080	0,016
-597,284	800,000	0,014	0,037
-596,269	30,977	-0,089	0,056
-595,255	800,000	0,044	-0,100
-594,240	-44,603	-0,104	-0,038
-593,225	-3,180	0,044	-0,022
-592,211	183,519	-0,045	-0,048
-591,196	45,434	0,086	-0,058
-590,182	-19,822	-0,132	-0,059
-589,167	-5,604	0,033	0,016
-588,152	255,077	0,119	-0,148
-587,138	518,259	-0,023	-0,040
-586,123	462,243	-0,071	-0,116
-585,109	89,702	0,163	-0,132
-584,094	800,000	0,048	0,108
-583,079	800,000	-0,032	0,085
-582,065	-29,650	0,117	0,048
-581,050	45,938	-0,008	-0,005
-580,036	205,184	-0,015	-0,017
-579,021	-200,000	0,005	-0,106
-578,006	-160,567	0,066	0,003
-576,992	70,758	0,033	-0,025
-575,977	-104,156	-0,045	-0,008
-574,963	415,281	0,042	0,065
-573,948	525,178	-0,023	-0,040
-572,934	55,051	-0,086	-0,060
-571,919	170,782	-0,075	0,078
-570,904	19,306	-0,109	0,063
-569,890	376,074	-0,034	-0,051
-568,875	-33,883	0,056	-0,022
-567,861	-102,126	0,088	0,015
-566,846	225,523	-0,038	-0,045
-565,831	-200,000	-0,022	-0,105
-564,817	-200,000	-0,007	-0,133
-563,802	121,776	-0,094	-0,085
-562,788	-200,000	-0,010	-0,038
-561,773	69,579	-0,007	0,005
-560,758	246,787	0,035	0,043
-559,744	-200,000	-0,024	0,122
-558,729	206,193	-0,015	-0,017
-557,715	149,300	-0,118	0,116
-556,700	397,557	0,050	-0,076
-555,685	629,235	0,074	-0,136
-554,671	-200,000	-0,003	0,045
-553,656	800,000	-0,068	0,145
-552,642	800,000	0,042	0,097
-551,627	65,988	-0,004	-0,003
-550,612	-43,659	0,042	-0,015
-549,598	223,230	-0,026	-0,031
-548,583	-34,943	0,048	-0,019
-547,569	60,931	-0,054	-0,039
-546,554	-23,100	0,057	-0,025
-545,539	237,108	-0,020	0,024
-544,525	-84,559	-0,067	0,015
-543,510	-12,323	0,035	-0,016
-542,496	-39,006	-0,164	0,062
-541,481	704,464	-0,041	0,078
-540,466	289,434	-0,050	-0,066
-539,452	800,000	-0,063	-0,136
-538,437	-106,001	-0,063	0,010
-537,423	241,320	-0,104	0,126
-536,408	800,000	0,054	0,129
-535,393	-84,623	-0,049	-0,011
-534,379	-200,000	-0,012	-0,096
-533,364	-48,482	-0,077	-0,027
-532,350	-200,000	0,003	-0,066
-531,335	220,912	0,070	0,081
-530,321	129,859	0,028	0,026
-529,306	12,376	-0,092	0,051
-528,291	-200,000	-0,002	0,100
-527,277	-200,000	-0,027	-0,091
-526,262	-200,000	0,007	-0,109
-525,248	33,162	0,047	0,030
-524,233	6,192	0,121	0,065
-523,218	484,352	-0,029	-0,048
-522,204	-200,000	0,004	-0,063
-521,189	594,404	0,059	-0,106
-520,175	-137,803	0,042	-0,003
-519,160	79,619	0,040	-0,031
-518,145	-57,669	-0,099	-0,031
-517,131	88,326	0,087	0,070
-516,116	-200,000	-0,001	0,244
-515,102	510,754	-0,056	0,095
-514,087	-143,873	-0,078	-0,005
-513,072	790,159	-0,059	0,117
-512,058	-29,657	-0,130	-0,054
-511,043	135,414	0,102	0,096
-510,029	-200,000	0,049	0,174
-509,014	-66,548	0,064	-0,018
-507,999	-6,780	0,069	-0,034
-506,985	-200,000	-0,035	-0,172
-505,970	1,998	-0,139	-0,072
-504,956	-200,000	0,009	0,051
-503,941	291,478	0,038	-0,051
-502,926	185,566	0,036	-0,039
-501,912	355,108	0,050	0,072
-500,897	-200,000	0,011	0,073
-499,883	19,928	-0,153	0,089
-498,868	-77,638	0,124	0,031
-497,853	800,000	-0,017	-0,043
-496,839	562,582	0,059	0,104
-495,824	-200,000	-0,010	0,044
-494,810	-200,000	-0,003	-0,062
-493,795	28,558	-0,043	-0,026
-492,781	-200,000	-0,005	0,061
-491,766	139,386	-0,049	-0,046
-490,751	-138,328	-0,084	0,007
-489,737	12,942	0,088	0,049
-488,722	-200,000	0,014	0,259
-487,708	-103,763	-0,053	0,009
-486,693	647,792	0,113	0,209
-485,678	20,356	-0,133	0,078
-484,664	-200,000	-0,003	-0,049
-483,649	800,000	-0,056	-0,136
-482,635	558,249	-0,053	-0,093
-481,620	-75,051	0,201	0,052
-480,605	-200,000	0,015	0,070
-479,591	-200,000	-0,024	0,099
-478,576	800,000	-0,057	0,119
-477,562	-200,000	-0,011	0,086
-476,547	800,000	-0,046	-0,120
-475,532	309,882	-0,079	0,107
-474,518	13,131	0,076	0,043
-473,503	800,000	0,047	0,112
-472,489	-135,790	0,187	0,016
-471,474	-130,517	-0,078	-0,007
-470,459	638,718	-0,007	0,012
-469,445	800,000	-0,063	-0,184
-468,430	800,000	0,047	-0,102
-467,416	-39,012	0,043	0,016
-466,401	-159,921	-0,027	-0,001
-465,386	66,963	-0,106	-0,078
-464,372	747,460	-0,058	0,114
-463,357	-10,850	-0,065	-0,031
-462,343	-116,331	-0,152	-0,020
-461,328	800,000	-0,022	-0,047
-460,313	-200,000	0,022	0,094
-459,299	-200,000	0,006	0,045
-458,284	-42,460	-0,043	-0,016
-457,270	675,771	-0,056	0,105
-456,255	-191,423	-0,064	0,000
-455,241	61,292	-0,093	-0,067
-454,226	232,329	0,057	-0,068
-453,211	-200,000	0,002	-0,041
-452,197	59,348	-0,057	-0,041
-451,182	800,000	-0,017	0,038
-450,168	-91,913	0,062	0,013
-449,153	-198,055	0,085	-0,000
-448,138	643,088	-0,042	-0,078
-447,124	800,000	0,018	-0,044
-446,109	-2,495	0,085	-0,043
-445,095	341,727	0,078	0,110
-444,080	-39,331	0,017	0,006
-443,065	106,798	-0,130	0,111
-442,051	-200,000	0,014	0,071
-441,036	533,834	-0,055	-0,094
-440,022	-5,134	-0,036	-0,018
-439,007	390,444	0,122	-0,184
-437,992	-200,000	-0,013	-0,172
-436,978	800,000	-0,046	-0,100
-435,963	24,011	-0,063	-0,037
-434,949	408,825	0,037	0,056
-433,934	-147,602	0,078	0,005
-432,919	661,576	0,063	0,118
-431,905	11,639	-0,129	-0,071
-430,890	800,000	0,024	0,065
-429,876	-200,000	0,021	0,128
-428,861	85,328	-0,113	0,090
-427,846	88,795	-0,097	-0,077
-426,832	-200,000	-0,018	-0,165
-425,817	-100,782	0,095	0,017
-424,803	-122,994	0,053	-0,006
-423,788	-200,000	0,000	-0,164
-422,773	121,744	0,110	0,098
-421,759	-200,000	0,002	0,011
-420,744	116,752	-0,064	-0,057
-419,730	-200,000	-0,012	0,049
-418,715	32,016	-0,211	-0,130
-417,701	800,000	0,073	-0,200
-416,686	-15,366	0,061	0,028
-415,671	-200,000	0,040	0,157
-414,657	223,698	0,039	-0,046
-413,642	266,445	-0,008	0,010
-412,628	-200,000	0,008	-0,071
-411,613	317,748	0,024	-0,033
-410,598	124,466	0,105	-0,095
-409,584	524,846	0,087	0,148
-408,569	-200,000	-0,005	-0,052
-407,555	366,457	-0,032	-0,047
-406,540	55,994	0,092	0,064
-405,525	430,620	-0,075	0,118
-404,511	-200,000	0,024	0,207
-403,496	239,661	0,048	0,058
-402,482	-164,434	-0,182	-0,006
-401,467	-15,835	0,072	0,033
-400,452	85,173	0,113	0,089
-399,438	309,931	0,028	0,038
-398,423	188,304	-0,061	0,065
-397,409	374,140	0,021	-0,031
-396,394	-22,617	-0,154	-0,067
-395,379	28,991	-0,163	-0,099
-394,365	-8,191	0,098	0,047
-393,350	40,777	0,043	-0,028
-392,336	132,519	0,107	-0,100
-391,321	192,245	0,079	-0,086
-390,306	43,689	0,053	-0,035
-389,292	-200,000	-0,015	-0,077
-388,277	172,983	0,049	-0,051
-387,263	267,301	0,068	-0,086
-386,248	365,011	0,110	0,160
-385,233	-70,455	0,036	-0,010
-384,219	110,235	0,050	0,043
-383,204	148,757	-0,079	-0,077
-382,190	-200,000	0,017	0,112
-381,175	-36,916	-0,093	0,036
-380,160	156,470	-0,061	0,061
-379,146	-200,000	-0,004	-0,128
-378,131	-51,444	0,183	0,061
-377,117	-200,000	0,006	-0,028
-376,102	-134,650	-0,084	-0,007
-375,088	138,412	-0,082	0,078
-374,073	606,400	-0,015	0,028
-373,058	145,112	0,086	0,083
-372,044	567,690	0,018	0,032
-371,029	-129,245	0,134	0,013
-370,015	94,905	0,020	0,016
-369,000	-149,958	-0,078	-0,004
-367,985	800,000	-0,058	0,169
-366,971	-200,000	0,025	0,103
-365,956	800,000	0,028	0,087
-364,942	-200,000	-0,009	0,048
-363,927	-102,897	0,102	-0,017
-362,912	800,000	-0,048	-0,134
-361,898	-200,000	0,016	-0,129
-360,883	518,529	0,082	0,139
-359,869	6,497	-0,064	-0,034
-358,854	800,000	0,023	0,060
-357,839	800,000	0,028	-0,084
-356,825	-200,000	0,005	-0,039
-355,810	197,586	-0,027	0,030
-354,796	-81,665	-0,128	-0,030
-353,781	-13,630	0,065	-0,030
-352,766	-200,000	-0,061	-0,212
-351,752	210,747	0,089	-0,101
-350,737	-91,551	0,166	0,034
-349,723	534,007	-0,093	0,159
-348,708	-79,550	-0,142	-0,034
-347,693	-200,000	-0,011	-0,071
-346,679	-44,915	-0,085	-0,030
-345,664	113,065	-0,067	0,058
-344,650	54,113	-0,120	-0,083
-343,635	-161,744	-0,037	-0,001
-342,620	1,600	0,036	0,019
-341,606	-24,154	0,041	-0,017
-340,591	-82,887	-0,053	-0,012
-339,577	581,844	-0,065	-0,115
-338,562	-200,000	-0,006	-0,080
-337,548	800,000	0,050	-0,123
-336,533	800,000	-0,037	0,085
-335,518	17,677	-0,075	0,043
-334,504	67,044	-0,012	0,009
-333,489	480,804	0,043	0,071
-332,475	173,943	-0,042	0,043
-331,460	308,563	-0,023	0,031
-330,445	59,725	-0,018	-0,013
-329,431	-200,000	-0,010	-0,047
-328,416	800,000	0,048	-0,113
-327,402	283,866	0,021	-0,028
-326,387	102,650	-0,149	0,125
-325,372	-29,796	0,182	0,074
-324,358	-200,000	-0,010	-0,052
-323,343	-40,987	0,028	0,010
-322,329	800,000	-0,053	0,140
-321,314	138,668	-0,063	0,060
-320,299	0,780	0,026	-0,013
-319,285	-113,794	0,138	-0,019
-318,270	727,518	-0,041	-0,079
-317,256	81,431	0,051	0,039
-316,241	-200,000	0,012	0,114
-315,226	547,644	-0,016	-0,028
-314,212	323,352	0,111	0,152
-313,197	-78,415	0,167	0,041
-312,183	489,433	-0,060	0,098
-311,168	-102,113	-0,226	0,039
-310,153	-200,000	0,012	0,090
-309,139	-80,369	-0,082	-0,020
-308,124	93,417	0,128	0,104
-307,110	-170,198	0,199	0,005
-306,095	376,210	0,050	0,074
-305,080	7,803	0,074	-0,040
-304,066	-20,382	-0,009	0,004
-303,051	575,695	0,062	-0,110
-302,037	-88,010	-0,094	-0,020
-301,022	-145,786	-0,068	0,004
-300,008	-200,000	0,008	0,091
-298,993	16,339	-0,097	-0,055
-297,978	-108,631	0,032	-0,005
-296,964	800,000	0,025	-0,072
-295,949	538,652	-0,080	-0,137
-294,935	-76,435	-0,074	-0,018
-293,920	800,000	0,053	0,142
-292,905	-200,000	0,002	-0,104
-291,891	-200,000	0,002	0,104
-290,876	-200,000	0,008	0,132
-289,862	-6,003	0,059	0,029
-288,847	-200,000	0,003	-0,057
-287,832	-95,453	-0,062	0,012
-286,818	336,677	0,026	0,036
-285,803	-200,000	0,000	0,075
-284,789	-200,000	-0,028	0,183
-283,774	71,083	-0,095	-0,071
-282,759	565,010	0,022	0,038
-281,745	-82,763	-0,039	0,009
-280,730	-200,000	0,061	-0,212
-279,716	-189,894	-0,098	0,001
-278,701	263,867	0,124	0,155
-277,686	800,000	-0,024	-0,069
-276,672	-200,000	-0,005	-0,022
-275,657	-40,583	-0,070	-0,026
-274,643	-39,705	-0,137	0,051
-273,628	-51,735	0,116	-0,039
-272,613	800,000	0,009	0,023
-271,599	-200,000	0,016	0,107
-270,584	283,762	-0,058	0,075
-269,570	473,671	0,036	0,058
-268,555	280,082	-0,060	-0,077
-267,540	118,893	-0,006	-0,005
-266,526	-200,000	0,019	-0,167
-265,511	18,177	0,098	-0,056
-264,497	46,831	0,068	0,045
-263,482	647,324	-0,060	-0,109
-262,467	800,000	0,034	0,100
-261,453	800,000	-0,053	-0,114
-260,438	757,068	0,045	-0,088
-259,424	-104,543	-0,114	-0,019
-258,409	800,000	0,019	-0,050
-257,395	800,000	0,043	-0,094
-256,380	465,098	-0,018	0,028
-255,365	-30,227	0,092	-0,037
-254,351	-46,380	-0,064	0,022
-253,336	57,706	-0,036	0,025
-252,322	59,546	-0,130	0,092
-251,307	12,972	0,079	-0,044
-250,292	-144,384	0,061	0,004
-249,278	-67,459	0,039	-0,011
-248,263	192,637	-0,064	-0,070
-247,249	-200,000	-0,006	-0,042
-246,234	27,797	-0,069	0,041
-245,219	-200,000	-0,033	0,105
-244,205	327,543	-0,051	0,070
-243,190	83,386	0,096	0,075
-242,176	92,902	0,020	0,016
-241,161	345,666	-0,069	0,098
-240,146	400,291	0,077	0,116
-239,132	110,439	-0,087	0,075
-238,117	-6,201	0,102	0,050
-237,103	25,609	-0,114	0,068
-236,088	40,968	-0,089	0,057
-235,073	189,014	0,076	0,082
-234,059	-200,000	0,004	-0,024
-233,044	-200,000	0,056	0,271
-232,030	-200,000	0,018	-0,098
-231,015	183,565	0,077	-0,082
-230,000	237,167	-0,102	-0,121
-228,986	-200,000	0,010	-0,095
-227,971	219,301	0,046	0,053
-226,957	-52,930	0,044	-0,014
-225,942	-68,532	0,019	0,005
-224,927	-200,000	-0,012	0,062
-223,913	800,000	-0,069	-0,141
-222,898	-200,000	-0,004	0,021
-221,884	29,371	-0,143	0,087
-220,869	-155,925	0,131	0,006
-219,855	136,207	-0,050	0,047
-218,840	-200,000	-0,000	0,031
-217,825	-76,484	-0,049	-0,012
-216,811	-101,811	0,058	0,010
-215,796	-200,000	0,023	-0,101
-214,782	-78,662	-0,127	0,031
-213,767	316,509	0,082	0,111
-212,752	129,342	0,108	-0,099
-211,738	-200,000	-0,007	0,040
-210,723	-200,000	-0,030	-0,129
-209,709	800,000	-0,014	0,027
-208,694	364,620	-0,050	-0,073
-207,679	-200,000	0,004	-0,053
-206,665	-200,000	-0,063	-0,234
-205,650	-200,000	-0,011	0,037
-204,636	-200,000	0,044	0,159
-203,621	800,000	-0,032	0,092
-202,606	306,436	-0,048	-0,064
-201,592	365,175	-0,080	-0,115
-200,577	65,967	0,088	0,064
-199,563	84,232	0,102	0,079
-198,548	-24,247	0,137	0,058
-197,533	-200,000	0,011	0,084
-196,519	-200,000	-0,013	-0,109
-195,504	-48,806	0,020	0,007
-194,490	-5,329	-0,144	0,071
-193,475	-70,517	-0,233	0,063
-192,460	140,223	0,072	-0,068
-191,446	4,263	0,076	0,040
-190,431	374,763	-0,018	0,026
-189,417	132,465	0,061	0,056
-188,402	301,491	-0,002	0,003
-187,387	156,163	-0,136	-0,134
-186,373	192,566	0,036	0,039
-185,358	800,000	-0,013	-0,026
-184,344	-200,000	0,018	0,097
-183,329	115,051	0,063	-0,055
-182,315	32,174	-0,122	-0,075
-181,300	-137,266	-0,085	0,007
-180,285	183,974	0,044	0,046
-179,271	90,041	-0,203	-0,162
-178,256	-144,640	0,200	-0,013
-177,242	-131,086	0,070	0,007
-176,227	-122,848	0,154	0,018
-175,212	-200,000	0,001	0,011
-174,198	-200,000	0,007	-0,082
-173,183	-200,000	-0,031	-0,117
-172,169	-200,000	-0,004	-0,035
-171,154	568,974	0,049	-0,085
-170,139	364,993	0,065	-0,094
-169,125	-200,000	-0,037	0,159
-168,110	-200,000	-0,055	0,199
-167,096	-23,186	-0,107	0,046
-166,081	-200,000	-0,021	-0,164
-165,066	-200,000	-0,050	-0,231
-164,052	-79,298	0,064	0,015
-163,037	107,741	0,123	0,105
-162,023	-92,245	0,086	0,017
-161,008	-200,000	0,015	-0,065
-159,993	314,135	-0,034	-0,046
-158,979	800,000	-0,020	-0,052
-157,964	800,000	-0,007	-0,021
-156,950	-20,527	-0,048	0,021
-155,935	89,456	0,162	-0,129
-154,920	-19,313	-0,066	0,029
-153,906	-25,913	0,055	0,023
-152,891	-88,081	0,156	-0,033
-151,877	-200,000	-0,000	-0,074
-150,862	800,000	-0,097	-0,226
-149,847	-78,275	0,066	0,016
-148,833	361,247	-0,030	-0,043
-147,818	800,000	0,050	-0,156
-146,804	-200,000	-0,020	0,158
-145,789	-84,660	0,040	-0,009
-144,775	245,931	-0,026	-0,031
-143,760	800,000	0,038	0,103
-142,745	-66,696	0,071	0,020
-141,731	175,478	0,053	-0,055
-140,716	-200,000	-0,032	0,133
-139,702	68,246	0,118	0,086
-138,687	800,000	0,047	0,122
-137,672	172,558	0,068	-0,070
-136,658	95,420	0,062	0,051
-135,643	-200,000	0,024	0,167
-134,629	96,028	0,054	-0,044
-133,614	800,000	-0,042	-0,088
-132,599	-106,078	0,124	0,020
-131,585	218,466	0,009	0,010
-130,570	-200,000	-0,057	-0,218
-129,556	-38,545	-0,025	0,010
-128,541	20,946	-0,059	-0,034
-127,526	-156,980	-0,108	-0,005
-126,512	-18,329	-0,069	-0,031
-125,497	350,376	-0,039	0,055
-124,483	115,377	-0,051	0,044
-123,468	373,807	0,021	-0,030
-122,453	-200,000	0,014	-0,062
-121,439	-200,000	-0,004	0,067
-120,424	245,159	-0,042	-0,050
-119,410	-161,734	-0,164	0,006
