DTS Sentinel unit serial number:	SN410029Multiplexer serial number:	ORYXHardware model number:	OX2-SRSoftware version number:	ORYX F/W v4,00 Oryx Data Collector v3.7.2.0data status	okinstallation	B3 Nyhavnadifferential loss correction	single-endedforward channel	channel 1reverse channel	N/Adate	2023/11/28time	16:27:30forward acquisition time	300,00reverse acquisition time	0,00gamma	499,1914k internal	0,3221k external	0,3221temperature offset calibration	1,0000default loss term (dB/km)	0,3820temperature slope calibration	1,0000multiplexer offset coefficient	1,0000multiplexer slope coefficient	1,0000fibre end	0,00T internal ref (°C)	7,27T ext. ref 1 (°C)	-7,63T ext. ref 2 (°C)	-7,78length (m)	temperature (°C)	Stokes	anti-Stokes-744,400	538,330	-0,166	-0,286
-743,385	-200,000	-0,094	0,320
-742,371	106,270	-0,139	-0,119
-741,356	-200,000	-0,040	0,244
-740,342	181,152	-0,180	-0,191
-739,327	-200,000	0,011	0,095
-738,312	249,326	-0,215	-0,264
-737,298	-200,000	0,024	0,153
-736,283	415,598	-0,191	-0,295
-735,269	-200,000	-0,001	0,145
-734,254	74,467	-0,145	-0,110
-733,239	-148,103	-0,276	-0,016
-732,225	800,000	-0,070	-0,221
-731,210	-134,281	0,131	-0,011
-730,196	99,328	-0,079	0,066
-729,181	59,369	-0,042	0,030
-728,167	135,189	-0,077	0,072
-727,152	-8,329	-0,042	-0,021
-726,137	-200,000	0,000	-0,093
-725,123	-33,711	-0,088	-0,035
-724,108	-79,600	-0,046	-0,011
-723,094	-38,709	-0,021	-0,008
-722,079	800,000	0,040	-0,126
-721,064	-152,759	-0,029	-0,001
-720,050	-156,080	-0,053	-0,002
-719,035	126,544	-0,041	0,038
-718,021	-23,290	-0,167	-0,072
-717,006	-120,269	-0,186	-0,023
-715,991	674,411	-0,056	-0,105
-714,977	800,000	0,038	-0,100
-713,962	-200,000	0,004	-0,148
-712,948	190,852	0,028	0,031
-711,933	-200,000	0,016	0,055
-710,918	213,275	0,082	0,094
-709,904	125,200	-0,021	-0,019
-708,889	-166,008	-0,077	0,002
-707,875	800,000	-0,013	-0,039
-706,860	-64,586	-0,156	-0,046
-705,845	-108,831	-0,028	0,004
-704,831	800,000	0,019	0,058
-703,816	-200,000	0,142	0,000
-702,802	118,081	-0,057	0,051
-701,787	181,992	0,071	-0,076
-700,772	-111,675	-0,055	-0,008
-699,758	-65,385	0,125	-0,036
-698,743	24,857	-0,032	0,019
-697,729	800,000	0,044	0,121
-696,714	342,798	0,059	0,083
-695,699	-200,000	0,007	-0,061
-694,685	-100,083	-0,053	0,009
-693,670	-200,000	0,028	-0,182
-692,656	-200,000	0,006	-0,050
-691,641	-77,137	-0,100	-0,025
-690,627	-122,996	0,056	0,006
-689,612	800,000	0,019	0,047
-688,597	-200,000	-0,062	0,204
-687,583	-200,000	-0,035	0,211
-686,568	-21,719	-0,119	-0,052
-685,554	18,923	-0,028	0,016
-684,539	-200,000	-0,013	-0,063
-683,524	141,395	-0,077	0,074
-682,510	107,784	-0,075	0,064
-681,495	-83,645	0,041	-0,009
-680,481	-200,000	-0,001	-0,082
-679,466	-200,000	-0,020	-0,138
-678,451	-63,888	-0,050	0,015
-677,437	-41,878	0,061	0,022
-676,422	-200,000	0,032	0,109
-675,408	390,868	-0,057	-0,086
-674,393	320,960	0,107	-0,146
-673,378	117,423	-0,041	0,036
-672,364	282,903	-0,116	-0,151
-671,349	257,210	-0,026	-0,032
-670,335	70,550	-0,099	0,074
-669,320	-82,657	-0,099	-0,023
-668,305	351,169	0,042	0,060
-667,291	285,659	-0,060	-0,078
-666,276	41,020	0,019	-0,012
-665,262	84,248	0,066	-0,052
-664,247	-62,240	-0,112	0,033
-663,232	-200,000	-0,052	-0,198
-662,218	-27,159	-0,037	-0,015
-661,203	800,000	0,096	-0,195
-660,189	-200,000	0,015	0,064
-659,174	32,395	-0,097	-0,060
-658,159	443,785	-0,089	-0,140
-657,145	-200,000	0,024	0,084
-656,130	800,000	-0,107	0,236
-655,116	-141,581	-0,101	0,007
-654,101	-104,111	-0,168	0,028
-653,086	800,000	-0,017	0,042
-652,072	-27,883	0,057	0,023
-651,057	800,000	0,035	-0,082
-650,043	115,282	0,073	-0,064
-649,028	362,250	-0,059	-0,085
-648,014	-138,969	-0,027	-0,002
-646,999	583,104	0,078	-0,138
-645,984	87,711	-0,166	-0,132
-644,970	36,272	-0,018	-0,012
-643,955	-117,753	-0,096	-0,012
-642,941	-88,082	-0,082	-0,018
-641,926	-126,490	-0,076	-0,008
-640,911	-168,590	0,144	-0,004
-639,897	196,217	0,056	0,062
-638,882	377,766	0,010	-0,015
-637,868	590,123	0,107	-0,190
-636,853	122,403	0,057	-0,051
-635,838	316,525	0,088	-0,120
-634,824	492,239	-0,132	-0,219
-633,809	128,105	0,096	0,088
-632,795	65,713	-0,031	0,023
-631,780	-200,000	0,025	0,152
-630,765	424,637	-0,028	-0,043
-629,751	112,116	-0,049	-0,042
-628,736	-163,607	-0,111	0,004
-627,722	-50,834	0,047	0,016
-626,707	800,000	0,034	-0,102
-625,692	800,000	0,009	-0,022
-624,678	-200,000	-0,027	0,109
-623,663	-58,281	0,032	0,010
-622,649	-103,104	-0,071	-0,012
-621,634	28,505	-0,056	-0,034
-620,619	-129,964	0,133	0,013
-619,605	-200,000	0,046	0,148
-618,590	800,000	-0,053	-0,127
-617,576	714,220	-0,009	-0,017
-616,561	50,239	-0,108	-0,073
-615,546	-200,000	0,004	-0,045
-614,532	800,000	-0,023	0,064
-613,517	-200,000	0,006	-0,064
-612,503	-200,000	0,030	-0,110
-611,488	129,860	-0,110	0,101
-610,474	34,348	-0,209	0,131
-609,459	-23,081	0,056	0,024
-608,444	47,653	-0,083	-0,055
-607,430	-199,082	-0,127	-0,000
-606,415	199,128	-0,019	0,021
-605,401	800,000	-0,027	0,072
-604,386	419,358	-0,018	0,028
-603,371	800,000	0,030	0,076
-602,357	-200,000	-0,112	0,000
-601,342	-9,783	-0,133	0,064
-600,328	-137,809	-0,057	-0,005
-599,313	800,000	0,037	-0,091
-598,298	18,299	0,106	0,061
-597,284	-42,266	-0,068	-0,025
-596,269	800,000	0,029	-0,073
-595,255	-54,609	0,072	-0,023
-594,240	102,038	-0,126	0,106
-593,225	527,644	0,028	0,048
-592,211	73,623	-0,116	-0,087
-591,196	800,000	-0,026	0,063
-590,182	-26,007	0,028	0,012
-589,167	800,000	0,059	0,171
-588,152	-152,087	0,073	-0,004
-587,138	51,992	-0,127	0,087
-586,123	-197,242	0,143	-0,001
-585,109	115,755	-0,024	-0,021
-584,094	800,000	-0,020	-0,059
-583,079	173,211	0,032	0,033
-582,065	-10,745	-0,108	-0,051
-581,050	800,000	-0,014	-0,030
-580,036	-200,000	0,022	0,075
-579,021	20,256	-0,039	0,023
-578,006	-26,520	-0,017	0,007
-576,992	-200,000	-0,001	-0,055
-575,977	298,424	0,035	-0,046
-574,963	800,000	-0,033	0,080
-573,948	30,348	-0,028	-0,017
-572,934	373,429	0,058	0,085
-571,919	30,674	-0,097	-0,059
-570,904	-200,000	-0,000	-0,054
-569,890	252,132	-0,053	0,064
-568,875	241,629	0,087	0,105
-567,861	249,029	0,056	0,068
-566,846	424,983	0,048	0,075
-565,831	-148,257	0,118	-0,007
-564,817	32,862	-0,121	0,075
-563,802	800,000	-0,021	-0,066
-562,788	-107,408	0,024	0,004
-561,773	498,201	0,042	0,070
-560,758	800,000	-0,022	0,058
-559,744	-200,000	0,014	-0,049
-558,729	64,178	-0,071	0,051
-557,715	264,803	0,092	-0,116
-556,700	108,850	-0,085	0,073
-555,685	-146,863	0,101	-0,006
-554,671	55,260	0,047	0,033
-553,656	174,530	0,054	0,056
-552,642	209,237	0,038	0,042
-551,627	-19,776	-0,093	0,041
-550,612	85,558	-0,037	-0,029
-549,598	-65,003	-0,113	-0,032
-548,583	-3,190	-0,107	0,053
-547,569	-95,794	0,096	-0,018
-546,554	339,161	-0,091	0,128
-545,539	-200,000	-0,033	0,111
-544,525	-178,046	0,095	0,002
-543,510	214,274	-0,027	0,031
-542,496	72,008	-0,129	0,096
-541,481	387,598	-0,069	-0,103
-540,466	800,000	-0,036	0,090
-539,452	-200,000	0,017	0,084
-538,437	128,702	-0,018	0,017
-537,423	-73,361	-0,167	-0,043
-536,408	800,000	-0,039	-0,097
-535,393	800,000	-0,087	-0,198
-534,379	-200,000	-0,032	-0,148
-533,364	-200,000	0,009	0,061
-532,350	-28,751	0,115	-0,047
-531,335	-135,129	-0,108	0,009
-530,321	41,254	-0,051	-0,033
-529,306	-200,000	-0,006	-0,063
-528,291	-60,514	-0,102	0,031
-527,277	94,631	0,095	-0,078
-526,262	-166,547	-0,024	0,001
-525,248	634,774	0,085	0,154
-524,233	485,642	0,114	0,186
-523,218	396,781	0,065	0,097
-522,204	587,319	-0,073	0,130
-521,189	-200,000	0,005	-0,031
-520,175	-200,000	-0,014	-0,258
-519,160	-200,000	-0,073	-0,277
-518,145	800,000	-0,045	-0,136
-517,131	-143,311	-0,064	0,004
-516,116	-111,713	0,087	0,012
-515,102	17,612	-0,090	0,051
-514,087	293,014	0,066	-0,087
-513,072	-100,657	-0,042	-0,007
-512,058	266,352	-0,024	-0,030
-511,043	423,714	0,052	-0,081
-510,029	10,091	0,063	-0,034
-509,014	96,824	0,027	-0,022
-507,999	800,000	-0,062	0,135
-506,985	2,344	-0,067	-0,035
-505,970	242,776	0,056	-0,067
-504,956	18,719	0,084	0,048
-503,941	-200,000	-0,020	0,096
-502,926	60,117	0,099	0,070
-501,912	-43,932	0,127	-0,046
-500,897	-180,839	-0,039	0,001
-499,883	-26,901	0,047	0,019
-498,868	-53,910	-0,007	0,002
-497,853	-93,966	0,028	-0,005
-496,839	-90,958	-0,100	-0,020
-495,824	9,865	0,074	-0,040
-494,810	800,000	-0,065	-0,136
-493,795	-32,435	-0,051	-0,020
-492,781	-182,344	0,149	-0,002
-491,766	304,423	-0,074	-0,099
-490,751	-173,721	-0,061	-0,001
-489,737	-132,517	-0,092	0,008
-488,722	-137,795	0,134	-0,011
-487,708	105,899	-0,024	0,021
-486,693	800,000	-0,016	-0,043
-485,678	-200,000	0,000	-0,067
-484,664	117,725	0,005	0,004
-483,649	206,489	0,031	-0,034
-482,635	617,611	0,067	0,121
-481,620	-118,659	0,154	-0,019
-480,605	84,565	0,060	0,047
-479,591	-200,000	-0,007	0,042
-478,576	-200,000	0,013	0,079
-477,562	800,000	-0,086	-0,176
-476,547	86,001	0,161	-0,127
-475,532	263,361	-0,063	-0,079
-474,518	21,167	0,068	-0,040
-473,503	594,427	0,071	0,127
-472,489	66,487	-0,042	0,031
-471,474	45,554	0,064	-0,042
-470,459	52,692	-0,078	0,053
-469,445	-2,480	0,140	-0,070
-468,430	-200,000	-0,012	0,046
-467,416	-113,248	-0,072	-0,010
-466,401	-200,000	-0,009	0,123
-465,386	-200,000	0,005	0,062
-464,372	127,914	0,038	0,034
-463,357	428,192	0,041	-0,064
-462,343	-115,903	-0,166	0,022
-461,328	200,993	0,108	0,119
-460,313	419,899	-0,062	0,096
-459,299	-200,000	0,017	0,060
-458,284	-200,000	0,052	0,000
-457,270	-52,920	-0,064	-0,021
-456,255	-40,530	0,191	0,071
-455,241	-95,313	0,077	0,015
-454,226	232,450	-0,105	-0,123
-453,211	241,004	0,096	-0,115
-452,197	523,301	0,060	0,101
-451,182	196,640	-0,061	0,067
-450,168	622,665	-0,025	0,045
-449,153	-200,000	0,007	-0,121
-448,138	-200,000	0,008	-0,150
-447,124	-200,000	-0,013	-0,077
-446,109	-97,314	0,118	-0,022
-445,095	-160,390	0,073	-0,003
-444,080	-74,037	0,075	-0,019
-443,065	800,000	0,026	0,064
-442,051	-26,369	0,045	-0,019
-441,036	154,349	-0,125	-0,122
-440,022	-200,000	0,033	-0,158
-439,007	531,612	0,037	-0,062
-437,992	314,214	0,125	0,168
-436,978	-200,000	-0,009	-0,131
-435,963	-145,338	0,126	-0,008
-434,949	195,931	0,083	0,091
-433,934	4,639	-0,091	-0,048
-432,919	150,762	-0,066	0,064
-431,905	-200,000	-0,024	0,177
-430,890	800,000	0,021	0,045
-429,876	-200,000	-0,008	0,052
-428,861	800,000	-0,028	-0,073
-427,846	38,078	0,058	-0,037
-426,832	375,044	-0,053	-0,077
-425,817	-96,364	-0,025	-0,005
-424,803	-200,000	-0,030	-0,141
-423,788	-35,872	-0,083	0,032
-422,773	-91,647	0,156	0,031
-421,759	800,000	-0,019	-0,040
-420,744	444,821	0,039	-0,062
-419,730	405,660	0,039	-0,059
-418,715	-113,095	-0,170	0,024
-417,701	-200,000	0,038	0,146
-416,686	83,293	-0,049	0,038
-415,671	307,024	0,075	0,101
-414,657	-200,000	-0,003	-0,058
-413,642	-125,288	0,099	0,011
-412,628	131,625	-0,041	-0,037
-411,613	-32,575	-0,040	-0,016
-410,598	270,706	-0,031	-0,040
-409,584	800,000	-0,053	0,141
-408,569	189,808	-0,085	0,091
-407,555	-78,115	0,107	-0,026
-406,540	557,171	-0,040	-0,070
-405,525	-200,000	-0,011	-0,075
-404,511	377,549	0,042	0,061
-403,496	800,000	-0,041	0,083
-402,482	-200,000	0,016	-0,061
-401,467	800,000	-0,043	-0,097
-400,452	87,727	-0,034	0,027
-399,438	-183,964	-0,054	-0,001
-398,423	800,000	0,029	-0,088
-397,409	109,979	0,088	-0,075
-396,394	496,697	-0,110	-0,182
-395,379	-39,861	0,040	-0,015
-394,365	-110,878	-0,037	-0,005
-393,350	42,673	0,073	-0,047
-392,336	-200,000	-0,003	-0,080
-391,321	99,057	0,072	0,060
-390,306	-200,000	0,017	-0,084
-389,292	149,209	0,077	-0,075
-388,277	17,205	0,047	-0,027
-387,263	800,000	-0,041	0,128
-386,248	-75,640	-0,020	0,005
-385,233	332,293	0,088	-0,122
-384,219	-193,602	-0,099	-0,001
-383,204	-200,000	0,013	0,111
-382,190	-200,000	-0,011	-0,076
-381,175	426,371	-0,065	-0,100
-380,160	32,832	0,043	-0,026
-379,146	-200,000	0,001	0,077
-378,131	-14,324	0,075	0,034
-377,117	43,835	0,068	-0,044
-376,102	652,026	0,020	-0,036
-375,088	-200,000	-0,018	-0,158
-374,073	123,905	-0,088	-0,079
-373,058	-109,201	0,227	-0,034
-372,044	-61,528	0,034	0,010
-371,029	-2,393	0,023	-0,012
-370,015	80,919	-0,059	-0,045
-369,000	87,256	0,117	-0,092
-367,985	-200,000	0,008	0,052
-366,971	-200,000	0,007	0,125
-365,956	-44,493	0,051	0,018
-364,942	-54,097	0,067	0,022
-363,927	102,055	-0,025	0,021
-362,912	-174,427	-0,109	0,002
-361,898	800,000	-0,007	-0,016
-360,883	-39,628	-0,209	0,077
-359,869	558,531	0,012	-0,021
-358,854	-200,000	0,031	-0,129
-357,839	11,746	0,089	-0,048
-356,825	197,231	-0,027	0,029
-355,810	-200,000	-0,001	0,168
-354,796	-17,769	-0,047	-0,021
-353,781	800,000	0,017	-0,044
-352,766	-65,802	0,047	0,013
-351,752	800,000	-0,053	0,116
-350,737	800,000	0,060	0,152
-349,723	-127,578	0,156	0,016
-348,708	-1,192	-0,042	0,021
-347,693	-18,579	0,209	-0,092
-346,679	110,832	-0,087	-0,074
-345,664	431,143	0,059	0,091
-344,650	-200,000	-0,015	-0,080
-343,635	800,000	-0,051	0,149
-342,620	-139,075	0,127	0,010
-341,606	-83,015	-0,129	0,029
-340,591	-200,000	0,004	0,068
-339,577	25,192	-0,067	-0,039
-338,562	235,014	-0,044	-0,052
-337,548	733,227	0,075	-0,144
-336,533	800,000	0,040	0,083
-335,518	800,000	0,066	0,205
-334,504	126,981	-0,146	0,131
-333,489	-200,000	0,012	-0,069
-332,475	598,467	0,034	-0,060
-331,460	-200,000	-0,005	0,023
-330,445	193,408	0,036	0,038
-329,431	793,461	-0,035	0,069
-328,416	800,000	0,042	0,122
-327,402	58,325	0,097	0,068
-326,387	-73,065	-0,177	-0,046
-325,372	-27,637	0,054	-0,022
-324,358	75,559	-0,118	-0,089
-323,343	-30,113	0,040	-0,016
-322,329	-200,000	0,018	0,083
-321,314	376,485	0,143	0,208
-320,299	-32,462	0,140	0,055
-319,285	311,655	-0,027	0,037
-318,270	418,269	0,013	0,021
-317,256	623,309	0,031	-0,056
-316,241	311,519	0,130	-0,174
-315,226	-200,000	0,005	0,134
-314,212	-64,924	0,022	0,006
-313,197	597,365	0,048	0,086
-312,183	73,953	-0,184	0,137
-311,168	-22,880	-0,065	-0,028
-310,153	-123,995	0,036	-0,004
-309,139	-200,000	0,025	-0,140
-308,124	-150,360	-0,117	0,006
-307,110	29,046	0,167	0,101
-306,095	-200,000	0,027	0,103
-305,080	-31,033	-0,188	0,075
-304,066	-159,386	0,044	-0,002
-303,051	-118,742	-0,082	-0,010
-302,037	108,005	-0,111	-0,094
-301,022	198,709	0,103	-0,112
-300,008	800,000	-0,040	0,085
-298,993	585,227	0,068	0,120
-297,978	379,538	0,083	-0,122
-296,964	-60,090	-0,180	0,054
-295,949	34,513	-0,162	-0,100
-294,935	-64,487	-0,105	0,030
-293,920	219,198	0,084	0,096
-292,905	-200,000	0,013	0,146
-291,891	800,000	0,034	0,103
-290,876	-61,483	-0,026	-0,008
-289,862	317,515	-0,083	0,111
-288,847	800,000	-0,056	-0,127
-287,832	163,299	-0,106	0,106
-286,818	-200,000	0,016	-0,072
-285,803	25,409	0,042	0,025
-284,789	-200,000	0,027	0,109
-283,774	160,947	0,080	0,080
-282,759	241,405	0,004	-0,005
-281,745	50,087	-0,062	-0,041
-280,730	709,633	-0,035	-0,066
-279,716	-75,777	0,022	0,005
-278,701	669,062	0,072	0,133
-277,686	-200,000	0,005	0,196
-276,672	0,993	-0,012	-0,006
-275,657	-148,571	0,112	-0,006
-274,643	-8,890	0,014	0,006
-273,628	233,078	-0,061	-0,071
-272,613	-134,966	-0,089	-0,007
-271,599	800,000	-0,045	0,133
-270,584	72,025	0,169	-0,125
-269,570	800,000	0,039	-0,090
-268,555	-26,373	-0,099	-0,041
-267,540	35,848	-0,079	-0,049
-266,526	-147,278	-0,048	-0,003
-265,511	22,438	-0,090	-0,052
-264,497	-78,675	0,027	0,006
-263,482	290,726	0,054	0,069
-262,467	342,676	-0,085	0,119
-261,453	-56,231	0,026	-0,008
-260,438	800,000	0,060	-0,118
-259,424	-200,000	-0,030	-0,205
-258,409	-177,324	0,009	-0,000
-257,395	34,769	0,087	0,054
-256,380	211,611	-0,097	0,109
-255,365	678,589	-0,029	0,054
-254,351	-200,000	-0,020	0,083
-253,336	800,000	0,016	0,033
-252,322	-96,408	-0,062	-0,012
-251,307	127,927	0,077	-0,069
-250,292	-18,513	-0,056	-0,025
-249,278	-138,734	0,095	0,007
-248,263	-200,000	-0,022	0,149
-247,249	713,730	0,019	-0,035
-246,234	162,020	0,038	0,038
-245,219	800,000	-0,040	-0,080
-244,205	800,000	0,040	-0,117
-243,190	-200,000	-0,001	-0,125
-242,176	-49,929	0,104	0,035
-241,161	190,029	-0,046	0,049
-240,146	291,660	0,018	-0,024
-239,132	301,571	-0,017	-0,022
-238,117	709,355	-0,026	-0,049
-237,103	-200,000	0,009	-0,058
-236,088	800,000	-0,011	-0,027
-235,073	-200,000	0,015	-0,152
-234,059	617,074	-0,054	-0,097
-233,044	42,357	0,071	-0,046
-232,030	53,101	-0,036	-0,025
-231,015	-200,000	0,006	-0,045
-230,000	535,843	-0,045	-0,075
-228,986	143,402	-0,098	-0,093
-227,971	800,000	0,066	0,148
-226,957	-200,000	0,003	0,133
-225,942	-88,971	0,058	-0,012
-224,927	40,118	0,060	0,038
-223,913	-101,011	-0,010	0,002
-222,898	-125,202	-0,160	-0,017
-221,884	800,000	0,010	-0,023
-220,869	-16,790	0,094	-0,042
-219,855	800,000	-0,044	0,094
-218,840	-200,000	-0,007	0,150
-217,825	800,000	0,031	0,067
-216,811	672,304	-0,053	0,097
-215,796	28,528	-0,061	0,037
-214,782	-63,352	-0,071	-0,021
-213,767	-123,612	0,150	-0,017
-212,752	-152,609	0,178	-0,009
-211,738	-200,000	0,013	0,052
-210,723	246,559	0,055	-0,066
-209,709	224,176	0,151	-0,173
-208,694	69,921	-0,076	0,056
-207,679	12,585	-0,018	0,010
-206,665	20,835	0,111	0,064
-205,650	-76,486	0,090	0,022
-204,636	537,603	0,005	-0,009
-203,621	800,000	-0,040	0,090
-202,606	187,706	-0,082	-0,086
-201,592	158,174	0,031	0,030
-200,577	415,807	0,028	0,042
-199,563	264,623	0,041	0,051
-198,548	-200,000	0,034	0,169
-197,533	3,107	-0,104	-0,053
-196,519	615,650	-0,039	0,070
-195,504	416,313	-0,068	-0,103
-194,490	123,727	-0,063	0,056
-193,475	212,394	-0,022	0,025
-192,460	-135,276	-0,085	0,007
-191,446	266,478	0,124	-0,154
-190,431	-200,000	0,015	0,200
-189,417	800,000	0,015	-0,045
-188,402	-50,711	-0,106	-0,035
-187,387	-154,208	-0,033	-0,002
-186,373	618,631	-0,091	-0,162
-185,358	5,820	-0,087	0,045
-184,344	-200,000	0,015	0,142
-183,329	-82,169	-0,014	0,003
-182,315	-200,000	0,004	-0,065
-181,300	180,294	0,081	-0,084
-180,285	74,892	-0,152	-0,113
-179,271	118,244	-0,033	-0,029
-178,256	-167,430	0,023	-0,001
-177,242	552,518	0,077	-0,132
-176,227	98,505	0,059	0,048
-175,212	-200,000	-0,020	0,099
-174,198	109,630	0,065	0,055
-173,183	184,578	0,108	0,114
-172,169	378,457	-0,115	-0,167
-171,154	-200,000	-0,019	0,149
-170,139	55,394	0,067	0,045
-169,125	489,769	0,079	-0,128
-168,110	304,052	0,149	-0,196
-167,096	658,125	-0,068	-0,123
-166,081	-12,671	0,137	-0,063
-165,066	-16,147	0,119	0,053
-164,052	-200,000	-0,005	0,088
-163,037	-104,789	0,063	0,010
-162,023	442,768	0,073	0,113
-161,008	-174,628	-0,112	-0,002
-159,993	-124,646	-0,015	-0,002
-158,979	-19,482	-0,106	-0,046
-157,964	-14,607	-0,044	0,020
-156,950	55,996	-0,077	0,053
-155,935	-200,000	0,025	0,093
-154,920	-200,000	0,049	-0,220
-153,906	21,984	-0,111	0,064
-152,891	48,524	-0,031	-0,021
-151,877	-100,435	-0,218	-0,038
-150,862	-200,000	0,024	0,114
-149,847	-118,862	0,119	0,015
-148,833	132,400	0,080	-0,073
-147,818	109,608	-0,096	0,081
-146,804	-200,000	0,002	-0,045
-145,789	270,470	0,049	0,061
-144,775	800,000	-0,039	-0,086
-143,760	107,251	-0,036	-0,030
-142,745	800,000	0,021	0,049
-141,731	-95,260	-0,034	0,006
-140,716	-200,000	-0,008	0,061
-139,702	800,000	0,030	0,088
-138,687	-200,000	-0,039	0,194
-137,672	-5,634	-0,117	-0,057
-136,658	800,000	0,066	0,133
-135,643	-76,665	-0,115	0,028
-134,629	800,000	0,031	-0,066
-133,614	325,100	-0,071	0,096
-132,599	395,325	-0,050	0,074
-131,585	176,812	0,053	0,054
-130,570	-77,964	-0,081	-0,019
-129,556	-5,318	-0,130	-0,063
-128,541	-166,335	-0,132	0,004
-127,526	-62,364	-0,034	0,010
-126,512	-200,000	-0,003	0,035
-125,497	-69,914	0,075	-0,020
-124,483	460,536	-0,033	0,052
-123,468	-82,698	-0,125	0,028
-122,453	12,989	-0,135	0,074
-121,439	575,548	0,046	-0,079
-120,424	-1,494	0,098	0,049
-119,410	-200,000	-0,032	0,102
