DTS Sentinel unit serial number:	SN410029Multiplexer serial number:	ORYXHardware model number:	OX2-SRSoftware version number:	ORYX F/W v4,00 Oryx Data Collector v3.7.2.0data status	okinstallation	B3 Nyhavnadifferential loss correction	single-endedforward channel	channel 1reverse channel	N/Adate	2023/11/28time	17:37:30forward acquisition time	300,00reverse acquisition time	0,00gamma	499,1914k internal	0,3171k external	0,3171temperature offset calibration	1,0000default loss term (dB/km)	0,3820temperature slope calibration	1,0000multiplexer offset coefficient	1,0000multiplexer slope coefficient	1,0000fibre end	0,00T internal ref (°C)	7,31T ext. ref 1 (°C)	-7,60T ext. ref 2 (°C)	-7,76length (m)	temperature (°C)	Stokes	anti-Stokes-744,400	202,293	-0,222	-0,251
-743,385	-200,000	-0,017	0,199
-742,371	34,564	-0,225	-0,144
-741,356	-200,000	-0,005	0,248
-740,342	237,852	-0,164	-0,200
-739,327	-200,000	0,077	0,262
-738,312	437,434	-0,179	-0,287
-737,298	-200,000	-0,020	0,108
-736,283	92,336	-0,145	-0,120
-735,269	800,000	-0,096	0,236
-734,254	181,782	-0,350	-0,378
-733,239	-175,524	-0,188	-0,004
-732,225	136,409	-0,158	-0,152
-731,210	344,643	0,194	0,281
-730,196	140,408	-0,077	-0,075
-729,181	249,217	-0,076	-0,094
-728,167	-135,540	0,023	0,002
-727,152	-200,000	-0,092	-0,298
-726,137	30,412	-0,058	-0,036
-725,123	-200,000	0,005	-0,079
-724,108	221,112	-0,036	-0,042
-723,094	800,000	-0,052	-0,147
-722,079	35,034	-0,024	0,015
-721,064	-92,248	-0,058	-0,012
-720,050	359,425	0,091	0,133
-719,035	39,441	0,075	-0,049
-718,021	571,044	-0,060	-0,107
-717,006	800,000	0,042	-0,120
-715,991	130,450	-0,108	-0,102
-714,977	630,498	-0,051	-0,096
-713,962	-69,308	-0,177	0,049
-712,948	-151,372	0,085	0,005
-711,933	334,996	0,057	-0,081
-710,918	-56,490	-0,115	-0,037
-709,904	-71,355	-0,068	-0,018
-708,889	-24,516	-0,057	-0,025
-707,875	14,732	0,072	0,041
-706,860	-200,000	-0,010	0,127
-705,845	-6,177	0,128	0,064
-704,831	-10,218	0,028	0,014
-703,816	1,082	-0,046	-0,024
-702,802	73,503	-0,030	0,023
-701,787	-97,007	-0,153	-0,029
-700,772	800,000	0,008	0,020
-699,758	-142,447	-0,065	-0,005
-698,743	37,414	0,084	-0,055
-697,729	-27,622	0,116	0,049
-696,714	688,570	-0,025	0,049
-695,699	70,271	-0,071	0,054
-694,685	14,210	-0,095	-0,054
-693,670	-77,087	-0,046	0,012
-692,656	800,000	-0,022	-0,045
-691,641	-200,000	-0,006	-0,020
-690,627	-200,000	0,001	-0,022
-689,612	295,802	0,069	0,092
-688,597	32,542	-0,064	0,041
-687,583	800,000	-0,039	-0,087
-686,568	-200,000	-0,010	-0,127
-685,554	49,581	0,030	-0,020
-684,539	-141,865	-0,079	-0,006
-683,524	43,847	-0,049	0,033
-682,510	165,507	-0,060	-0,062
-681,495	181,093	-0,168	-0,182
-680,481	-200,000	0,019	-0,133
-679,466	-200,000	-0,006	0,055
-678,451	-200,000	0,004	-0,077
-677,437	24,830	0,080	0,049
-676,422	-90,783	0,054	-0,011
-675,408	-200,000	-0,008	0,094
-674,393	800,000	0,019	-0,044
-673,378	-153,617	-0,085	0,004
-672,364	15,560	-0,045	0,026
-671,349	-94,512	0,040	-0,008
-670,335	1,861	0,022	-0,012
-669,320	205,058	0,028	0,031
-668,305	283,762	0,038	0,050
-667,291	42,653	0,047	-0,031
-666,276	-200,000	-0,003	-0,098
-665,262	23,224	-0,065	-0,039
-664,247	-200,000	0,006	-0,059
-663,232	201,761	-0,051	-0,057
-662,218	24,961	0,099	0,060
-661,203	-200,000	0,008	-0,058
-660,189	215,655	0,015	-0,017
-659,174	28,278	-0,059	-0,037
-658,159	-200,000	0,061	-0,219
-657,145	27,307	-0,101	0,062
-656,130	-200,000	0,002	0,032
-655,116	-200,000	0,003	0,141
-654,101	130,134	-0,020	0,019
-653,086	-200,000	-0,024	0,097
-652,072	616,208	0,033	-0,061
-651,057	-47,992	-0,088	-0,031
-650,043	581,679	-0,036	-0,065
-649,028	81,710	-0,097	0,077
-648,014	-40,705	0,122	-0,046
-646,999	153,575	-0,061	0,061
-645,984	800,000	0,001	-0,004
-644,970	-28,642	-0,088	0,037
-643,955	-200,000	0,013	-0,070
-642,941	523,280	-0,056	0,096
-641,926	-200,000	-0,004	-0,020
-640,911	50,611	-0,071	0,049
-639,897	46,748	0,114	0,077
-638,882	800,000	0,020	0,049
-637,868	-8,367	-0,063	0,031
-636,853	-29,692	-0,108	-0,045
-635,838	-200,000	0,017	-0,084
-634,824	-200,000	0,024	-0,097
-633,809	65,751	0,072	-0,053
-632,795	188,356	-0,108	0,118
-631,780	800,000	0,046	-0,114
-630,765	-101,711	-0,124	-0,022
-629,751	124,104	0,029	0,027
-628,736	52,741	-0,073	-0,051
-627,722	-61,144	0,025	0,008
-626,707	-41,671	0,077	0,029
-625,692	130,785	-0,065	0,061
-624,678	-123,177	0,040	0,005
-623,663	-139,246	0,058	-0,005
-622,649	253,441	-0,057	-0,072
-621,634	-6,942	-0,121	-0,060
-620,619	306,105	0,060	0,081
-619,605	-200,000	0,002	0,071
-618,590	-114,441	0,112	-0,016
-617,576	-58,888	-0,113	-0,036
-616,561	800,000	0,027	-0,068
-615,546	38,531	-0,096	-0,062
-614,532	-147,589	-0,096	-0,006
-613,517	-200,000	-0,062	-0,239
-612,503	-200,000	0,003	0,084
-611,488	-200,000	0,020	0,082
-610,474	-200,000	0,046	0,161
-609,459	-87,050	0,110	0,024
-608,444	-136,976	-0,104	0,009
-607,430	-22,444	-0,098	-0,043
-606,415	-200,000	0,021	-0,154
-605,401	230,232	-0,083	-0,099
-604,386	-131,437	0,055	-0,005
-603,371	22,601	-0,061	0,036
-602,357	800,000	-0,056	0,159
-601,342	102,724	-0,084	0,072
-600,328	-200,000	-0,006	0,087
-599,313	-200,000	-0,003	-0,056
-598,298	614,273	0,069	-0,127
-597,284	-64,837	-0,057	-0,017
-596,269	52,231	0,124	-0,086
-595,255	-99,161	-0,075	-0,014
-594,240	359,412	-0,054	-0,079
-593,225	-200,000	-0,030	0,108
-592,211	582,153	-0,026	0,047
-591,196	714,075	0,025	0,049
-590,182	-200,000	-0,001	0,024
-589,167	-200,000	-0,022	0,138
-588,152	223,272	0,122	0,144
-587,138	148,984	-0,126	0,125
-586,123	-200,000	0,001	-0,110
-585,109	-200,000	-0,006	0,023
-584,094	52,882	0,069	0,048
-583,079	-124,339	-0,071	-0,008
-582,065	352,273	-0,101	-0,146
-581,050	-200,000	-0,014	0,094
-580,036	-179,061	0,036	0,001
-579,021	120,275	0,011	0,010
-578,006	800,000	-0,045	0,098
-576,992	-60,325	0,134	0,041
-575,977	-15,799	-0,062	0,029
-574,963	800,000	0,040	-0,092
-573,948	800,000	0,015	0,041
-572,934	94,594	-0,115	-0,095
-571,919	116,849	-0,081	-0,072
-570,904	-10,951	-0,040	-0,019
-569,890	7,739	-0,129	-0,070
-568,875	19,339	-0,067	0,039
-567,861	-8,168	-0,017	-0,009
-566,846	48,163	0,231	-0,157
-565,831	-81,809	-0,140	0,033
-564,817	40,759	-0,055	-0,036
-563,802	-167,161	-0,126	-0,004
-562,788	60,396	-0,037	-0,026
-561,773	-200,000	0,027	-0,184
-560,758	434,680	0,079	0,126
-559,744	-76,331	0,114	0,029
-558,729	113,873	0,066	0,059
-557,715	-200,000	0,011	0,063
-556,700	-200,000	-0,012	-0,120
-555,685	416,215	-0,020	-0,031
-554,671	-125,893	0,159	0,017
-553,656	313,838	-0,030	0,041
-552,642	10,198	0,078	0,043
-551,627	109,312	-0,088	0,077
-550,612	35,974	-0,116	-0,074
-549,598	-17,726	0,041	-0,019
-548,583	800,000	-0,101	-0,243
-547,569	44,938	0,074	-0,049
-546,554	73,623	0,111	0,085
-545,539	66,433	-0,030	-0,022
-544,525	-200,000	0,009	-0,109
-543,510	578,462	-0,045	-0,080
-542,496	101,094	0,091	-0,077
-541,481	-200,000	0,004	0,135
-540,466	23,088	0,022	0,013
-539,452	163,383	-0,113	-0,115
-538,437	800,000	0,072	0,164
-537,423	106,242	-0,042	-0,036
-536,408	800,000	-0,102	-0,228
-535,393	62,734	-0,124	-0,090
-534,379	70,330	-0,084	-0,063
-533,364	-200,000	-0,027	-0,098
-532,350	-144,489	0,045	-0,003
-531,335	-93,850	0,089	0,018
-530,321	265,545	-0,088	-0,112
-529,306	-107,182	0,074	0,012
-528,291	-168,859	0,028	-0,001
-527,277	323,872	-0,106	-0,147
-526,262	800,000	0,028	0,083
-525,248	90,008	0,121	0,098
-524,233	-200,000	0,003	0,031
-523,218	30,161	0,122	0,075
-522,204	-200,000	-0,013	-0,120
-521,189	800,000	-0,041	-0,103
-520,175	253,436	0,057	0,071
-519,160	99,922	-0,056	0,047
-518,145	106,685	0,120	-0,104
-517,131	-32,492	0,095	0,038
-516,116	800,000	0,049	0,122
-515,102	167,930	-0,057	-0,059
-514,087	358,916	-0,029	-0,043
-513,072	-200,000	0,028	-0,136
-512,058	-88,768	-0,193	-0,041
-511,043	123,386	0,034	-0,031
-510,029	17,299	0,073	0,042
-509,014	574,571	-0,031	-0,056
-507,999	-200,000	0,007	0,060
-506,985	128,804	-0,117	0,109
-505,970	61,461	-0,097	-0,070
-504,956	376,353	-0,031	-0,046
-503,941	199,510	0,067	0,074
-502,926	546,710	0,084	0,147
-501,912	305,920	0,051	0,069
-500,897	-200,000	0,016	0,141
-499,883	-200,000	0,048	0,175
-498,868	-11,192	-0,025	0,012
-497,853	133,337	-0,041	-0,039
-496,839	-200,000	0,002	-0,066
-495,824	482,757	0,046	0,076
-494,810	420,663	0,016	-0,026
-493,795	184,428	0,025	-0,026
-492,781	-200,000	0,064	0,243
-491,766	-65,119	0,111	-0,032
-490,751	199,710	-0,035	0,039
-489,737	-96,536	0,103	0,020
-488,722	162,793	-0,076	-0,077
-487,708	211,254	0,033	0,037
-486,693	-170,430	0,036	0,001
-485,678	224,598	-0,076	0,089
-484,664	216,315	0,006	-0,007
-483,649	-113,033	0,098	0,014
-482,635	800,000	0,010	-0,024
-481,620	64,119	0,063	0,046
-480,605	74,293	0,087	-0,067
-479,591	579,190	-0,027	-0,048
-478,576	-200,000	-0,001	0,050
-477,562	600,460	0,012	-0,021
-476,547	-200,000	-0,014	0,152
-475,532	26,273	0,126	-0,076
-474,518	-158,952	0,086	0,003
-473,503	800,000	0,039	0,080
-472,489	-200,000	-0,001	0,060
-471,474	20,841	0,030	0,018
-470,459	-125,680	-0,143	0,016
-469,445	800,000	-0,042	-0,131
-468,430	-200,000	-0,005	0,019
-467,416	284,031	-0,051	-0,067
-466,401	-200,000	0,037	0,140
-465,386	800,000	-0,008	-0,018
-464,372	44,190	-0,099	-0,066
-463,357	-140,016	-0,107	-0,008
-462,343	800,000	-0,058	-0,173
-461,328	-138,176	-0,101	-0,008
-460,313	-104,592	-0,099	-0,016
-459,299	-128,778	0,032	0,003
-458,284	-112,490	0,153	-0,022
-457,270	800,000	0,003	0,009
-456,255	707,943	-0,021	-0,040
-455,241	800,000	0,073	-0,150
-454,226	-200,000	-0,009	0,035
-453,211	-125,821	-0,070	0,008
-452,197	575,246	-0,008	-0,014
-451,182	-200,000	-0,016	0,112
-450,168	-200,000	0,003	-0,080
-449,153	800,000	-0,036	-0,074
-448,138	800,000	0,012	0,026
-447,124	-9,982	-0,042	-0,020
-446,109	-161,062	0,063	-0,002
-445,095	31,970	-0,101	-0,063
-444,080	108,935	-0,021	-0,018
-443,065	-142,697	0,026	0,002
-442,051	-200,000	0,002	-0,012
-441,036	462,718	0,043	-0,070
-440,022	-200,000	-0,006	-0,061
-439,007	800,000	0,012	-0,037
-437,992	-200,000	0,004	-0,056
-436,978	800,000	-0,022	0,060
-435,963	129,119	0,011	-0,010
-434,949	401,703	0,069	-0,106
-433,934	558,983	-0,076	0,134
-432,919	-17,495	-0,078	0,035
-431,905	353,544	0,092	-0,133
-430,890	694,248	0,037	-0,071
-429,876	117,244	-0,040	-0,036
-428,861	800,000	-0,022	0,062
-427,846	800,000	-0,011	-0,032
-426,832	199,250	-0,046	-0,051
-425,817	32,185	-0,107	-0,067
-424,803	-200,000	0,036	-0,119
-423,788	-69,017	0,066	-0,018
-422,773	-200,000	0,014	0,134
-421,759	91,976	0,011	0,009
-420,744	-36,385	0,158	-0,061
-419,730	58,239	0,040	-0,029
-418,715	-200,000	-0,025	-0,087
-417,701	-200,000	0,011	-0,058
-416,686	329,586	0,036	0,050
-415,671	71,928	0,057	-0,043
-414,657	461,100	0,032	-0,052
-413,642	-68,824	-0,124	0,035
-412,628	85,776	0,153	-0,122
-411,613	29,719	-0,097	0,059
-410,598	423,680	0,109	0,170
-409,584	207,023	0,053	0,060
-408,569	-200,000	-0,006	-0,038
-407,555	-103,057	0,094	-0,016
-406,540	-200,000	0,022	-0,096
-405,525	-84,564	-0,039	0,009
-404,511	-156,735	0,078	-0,003
-403,496	-17,650	-0,036	-0,016
-402,482	-200,000	0,026	0,157
-401,467	-200,000	0,009	0,038
-400,452	244,748	-0,032	0,039
-399,438	800,000	0,006	0,019
-398,423	-55,002	0,068	0,022
-397,409	135,910	-0,059	0,056
-396,394	-185,219	-0,090	0,001
-395,379	39,595	-0,022	-0,015
-394,365	522,699	0,060	0,102
-393,350	-200,000	0,042	-0,155
-392,336	800,000	0,033	-0,080
-391,321	247,073	0,024	-0,029
-390,306	-31,997	-0,178	0,072
-389,292	-158,646	0,047	-0,002
-388,277	-87,572	0,100	0,022
-387,263	-146,800	-0,061	-0,004
-386,248	687,384	-0,074	0,140
-385,233	508,906	0,099	0,168
-384,219	-200,000	0,007	0,045
-383,204	246,963	0,067	-0,082
-382,190	-32,397	-0,182	-0,073
-381,175	-56,012	0,017	-0,005
-380,160	614,509	0,047	0,085
-379,146	113,442	0,075	0,066
-378,131	285,270	-0,028	0,036
-377,117	678,119	0,016	-0,031
-376,102	-51,284	-0,113	-0,038
-375,088	-200,000	0,017	0,085
-374,073	800,000	-0,048	0,146
-373,058	193,455	0,172	0,189
-372,044	210,663	-0,049	0,056
-371,029	-200,000	-0,012	-0,091
-370,015	-71,208	-0,094	0,025
-369,000	-200,000	0,001	0,003
-367,985	800,000	0,019	0,042
-366,971	-3,861	-0,093	-0,047
-365,956	-200,000	-0,004	-0,020
-364,942	-200,000	-0,029	-0,188
-363,927	-24,596	-0,143	0,061
-362,912	385,302	0,096	0,144
-361,898	66,831	-0,075	0,055
-360,883	-200,000	0,011	-0,126
-359,869	-25,606	-0,132	-0,056
-358,854	-27,522	0,046	0,019
-357,839	-95,560	0,132	-0,025
-356,825	800,000	0,059	0,133
-355,810	-90,708	0,113	-0,023
-354,796	761,428	-0,057	0,112
-353,781	-200,000	0,005	-0,094
-352,766	-200,000	0,020	-0,137
-351,752	387,089	-0,072	-0,108
-350,737	-88,084	0,082	0,018
-349,723	-28,517	0,095	-0,040
-348,708	53,250	-0,030	0,021
-347,693	-16,692	-0,069	0,031
-346,679	785,832	0,025	0,050
-345,664	-200,000	-0,008	0,047
-344,650	333,029	-0,050	-0,070
-343,635	191,074	-0,114	-0,125
-342,620	-96,472	0,027	-0,005
-341,606	363,580	0,132	-0,192
-340,591	800,000	-0,062	-0,184
-339,577	-200,000	-0,012	-0,067
-338,562	2,683	-0,028	0,015
-337,548	-36,641	-0,058	-0,022
-336,533	-200,000	0,010	-0,049
-335,518	800,000	-0,036	0,109
-334,504	8,212	-0,086	0,047
-333,489	-200,000	0,007	-0,141
-332,475	299,356	-0,011	0,015
-331,460	800,000	-0,009	-0,022
-330,445	800,000	0,084	0,188
-329,431	756,702	-0,035	0,069
-328,416	70,925	0,087	0,065
-327,402	157,274	0,048	0,048
-326,387	346,131	0,073	0,104
-325,372	239,353	0,048	-0,057
-324,358	21,960	-0,150	-0,088
-323,343	264,693	0,060	-0,075
-322,329	206,689	0,029	0,033
-321,314	-200,000	0,012	-0,090
-320,299	-200,000	0,003	0,162
-319,285	-31,179	-0,139	0,056
-318,270	-16,054	-0,022	0,010
-317,256	-94,708	-0,101	-0,020
-316,241	-200,000	0,012	-0,078
-315,226	-147,301	0,037	-0,002
-314,212	800,000	0,082	0,166
-313,197	88,444	0,030	0,024
-312,183	229,714	-0,039	0,046
-311,168	28,449	-0,034	-0,021
-310,153	-200,000	-0,006	-0,106
-309,139	-200,000	0,023	-0,075
-308,124	-200,000	-0,028	-0,138
-307,110	-120,703	-0,045	-0,005
-306,095	-181,592	0,152	0,002
-305,080	-200,000	0,011	0,046
-304,066	502,475	0,063	-0,106
-303,051	-85,976	0,094	-0,021
-302,037	800,000	0,043	-0,135
-301,022	-18,729	-0,055	0,025
-300,008	-101,693	0,121	0,021
-298,993	246,996	-0,090	0,110
-297,978	-79,196	-0,075	0,018
-296,964	176,795	0,118	-0,124
-295,949	-200,000	0,018	-0,080
-294,935	-200,000	0,018	0,062
-293,920	-126,081	0,125	0,013
-292,905	-200,000	-0,014	0,061
-291,891	-200,000	-0,005	0,045
-290,876	309,000	-0,084	0,113
-289,862	323,673	-0,116	-0,160
-288,847	697,675	0,017	0,033
-287,832	800,000	-0,033	-0,086
-286,818	800,000	0,037	-0,096
-285,803	-200,000	-0,011	0,158
-284,789	723,691	0,117	0,225
-283,774	-200,000	-0,004	0,023
-282,759	-200,000	0,005	-0,032
-281,745	-79,645	-0,065	0,016
-280,730	125,521	-0,096	-0,087
-279,716	-99,939	0,110	0,020
-278,701	57,451	0,110	0,077
-277,686	204,638	0,069	0,077
-276,672	-124,317	0,218	0,024
-275,657	59,621	-0,086	0,061
-274,643	55,883	-0,065	0,045
-273,628	-6,307	-0,095	-0,047
-272,613	72,640	0,090	0,068
-271,599	-200,000	-0,008	0,087
-270,584	-84,444	0,055	-0,013
-269,570	49,602	-0,061	-0,041
-268,555	-62,729	-0,094	0,028
-267,540	-56,756	-0,099	-0,032
-266,526	-153,223	0,162	0,008
-265,511	-132,487	-0,072	-0,007
-264,497	-79,529	0,072	-0,017
-263,482	-108,786	0,112	0,017
-262,467	-73,741	0,120	0,031
-261,453	-32,061	-0,054	-0,022
-260,438	-72,005	-0,091	0,024
-259,424	331,555	-0,049	-0,068
-258,409	-138,974	0,088	0,007
-257,395	-200,000	-0,000	0,053
-256,380	-109,650	-0,063	0,010
-255,365	-200,000	0,016	-0,066
-254,351	-29,438	-0,055	-0,023
-253,336	-7,593	0,053	0,026
-252,322	-200,000	0,005	-0,079
-251,307	69,823	-0,156	-0,116
-250,292	-107,434	0,090	0,014
-249,278	135,266	0,016	-0,015
-248,263	-39,403	0,147	0,055
-247,249	113,480	0,010	-0,009
-246,234	286,343	-0,073	0,095
-245,219	-35,061	0,143	-0,056
-244,205	97,716	-0,170	-0,141
-243,190	586,039	0,081	-0,144
-242,176	-200,000	-0,036	0,155
-241,161	-66,808	0,130	0,037
-240,146	-200,000	-0,019	-0,076
-239,132	112,895	0,091	-0,080
-238,117	800,000	0,040	0,106
-237,103	800,000	-0,075	-0,204
-236,088	75,583	-0,090	-0,068
-235,073	484,284	-0,012	0,020
-234,059	108,340	0,015	-0,013
-233,044	411,880	0,087	0,133
-232,030	-186,259	-0,118	0,001
-231,015	22,477	-0,093	-0,055
-230,000	-200,000	-0,012	-0,122
-228,986	800,000	0,050	0,115
-227,971	-94,148	0,128	0,025
-226,957	21,898	0,089	0,052
-225,942	800,000	-0,016	-0,042
-224,927	-19,783	0,097	0,043
-223,913	-169,772	-0,132	0,003
-222,898	800,000	-0,066	-0,181
-221,884	318,532	-0,104	-0,142
-220,869	111,225	0,014	0,012
-219,855	-119,104	0,115	-0,014
-218,840	-19,954	0,042	0,018
-217,825	-1,764	-0,046	-0,023
-216,811	383,012	-0,041	0,060
-215,796	54,940	-0,077	-0,053
-214,782	-77,327	0,086	0,021
-213,767	-200,000	0,009	0,056
-212,752	-6,114	0,024	0,012
-211,738	-200,000	0,031	0,144
-210,723	280,648	0,035	0,045
-209,709	-200,000	0,022	0,178
-208,694	-96,030	-0,091	-0,017
-207,679	7,652	-0,132	-0,071
-206,665	-66,845	-0,114	0,032
-205,650	-120,036	-0,089	0,011
-204,636	-200,000	0,022	0,080
-203,621	-116,309	-0,068	-0,009
-202,606	-121,324	0,095	0,011
-201,592	18,872	0,099	0,057
-200,577	-80,589	-0,110	-0,026
-199,563	-39,467	0,067	-0,025
-198,548	-119,899	0,080	0,010
-197,533	181,538	0,061	-0,064
-196,519	296,515	0,070	-0,092
-195,504	-200,000	0,007	0,030
-194,490	799,331	-0,080	-0,160
-193,475	-13,155	0,079	0,037
-192,460	-15,514	-0,091	0,041
-191,446	337,583	0,043	-0,061
-190,431	578,682	0,066	0,117
-189,417	106,000	0,087	0,074
-188,402	-200,000	-0,010	0,053
-187,387	70,048	0,049	0,036
-186,373	251,106	0,006	-0,007
-185,358	-144,081	-0,104	0,007
-184,344	-200,000	0,014	0,059
-183,329	-78,147	0,115	0,028
-182,315	800,000	-0,059	0,140
-181,300	-84,198	0,032	0,007
-180,285	15,355	0,056	0,032
-179,271	800,000	-0,048	-0,129
-178,256	-123,305	-0,024	0,003
-177,242	-200,000	0,011	0,066
-176,227	-200,000	0,031	-0,113
-175,212	-200,000	0,009	0,066
-174,198	-200,000	0,012	-0,061
-173,183	-115,141	-0,148	-0,020
-172,169	800,000	-0,018	0,041
-171,154	-129,722	-0,121	0,012
-170,139	-82,805	0,052	0,012
-169,125	374,932	-0,053	0,078
-168,110	25,695	0,147	0,088
-167,096	-200,000	0,018	0,115
-166,081	-200,000	0,007	-0,146
-165,066	-34,098	-0,095	-0,037
-164,052	-200,000	0,015	0,125
-163,037	-200,000	-0,008	0,039
-162,023	-200,000	-0,027	0,105
-161,008	800,000	0,067	0,160
-159,993	119,734	-0,092	-0,082
-158,979	800,000	-0,025	-0,058
-157,964	-82,651	-0,047	0,011
-156,950	-144,174	-0,026	0,002
-155,935	187,654	-0,030	0,033
-154,920	557,586	0,060	0,105
-153,906	-179,705	0,155	-0,002
-152,891	-200,000	0,018	0,069
-151,877	-163,558	-0,118	0,004
-150,862	-200,000	0,006	-0,072
-149,847	-200,000	0,005	-0,066
-148,833	-16,305	0,195	0,088
-147,818	-200,000	0,009	0,054
-146,804	-86,638	0,183	-0,040
-145,789	800,000	-0,022	0,058
-144,775	35,614	-0,169	0,106
-143,760	271,042	-0,017	0,021
-142,745	800,000	-0,029	-0,061
-141,731	-36,508	0,053	-0,020
-140,716	81,616	-0,050	0,039
-139,702	-134,503	0,020	0,002
-138,687	131,265	0,018	-0,017
-137,672	800,000	0,033	0,081
-136,658	264,215	-0,048	-0,060
-135,643	-8,984	-0,188	-0,090
-134,629	800,000	0,026	0,064
-133,614	55,866	0,013	-0,009
-132,599	-200,000	0,013	-0,074
-131,585	58,732	0,020	0,014
-130,570	244,556	0,039	0,047
-129,556	67,402	-0,132	-0,096
-128,541	-8,311	-0,127	-0,061
-127,526	-38,226	-0,056	-0,021
-126,512	-187,919	-0,144	0,001
-125,497	-200,000	0,003	0,010
-124,483	116,332	-0,106	0,093
-123,468	113,490	0,123	0,107
-122,453	50,085	-0,096	-0,065
-121,439	334,418	0,081	-0,113
-120,424	-200,000	0,000	0,021
-119,410	-200,000	0,000	0,079
