DTS Sentinel unit serial number:	SN410029Multiplexer serial number:	ORYXHardware model number:	OX2-SRSoftware version number:	ORYX F/W v4,00 Oryx Data Collector v3.7.2.0data status	okinstallation	B3 Nyhavnadifferential loss correction	single-endedforward channel	channel 1reverse channel	N/Adate	2023/11/28time	11:52:30forward acquisition time	300,00reverse acquisition time	0,00gamma	499,1914k internal	0,3145k external	0,3145temperature offset calibration	1,0000default loss term (dB/km)	0,3820temperature slope calibration	1,0000multiplexer offset coefficient	1,0000multiplexer slope coefficient	1,0000fibre end	0,00T internal ref (°C)	8,90T ext. ref 1 (°C)	-7,60T ext. ref 2 (°C)	-7,79length (m)	temperature (°C)	Stokes	anti-Stokes-744,400	800,000	-0,171	-0,364
-743,385	-200,000	-0,021	0,094
-742,371	-200,000	0,009	-0,306
-741,356	-200,000	0,042	0,224
-740,342	249,332	-0,161	-0,203
-739,327	-200,000	0,052	0,229
-738,312	138,252	-0,265	-0,258
-737,298	-7,582	0,085	0,042
-736,283	599,156	-0,133	-0,246
-735,269	-200,000	0,069	0,361
-734,254	239,444	-0,226	-0,279
-733,239	490,585	-0,114	0,194
-732,225	-200,000	-0,044	-0,148
-731,210	-11,913	0,275	0,133
-730,196	800,000	0,010	0,031
-729,181	-110,606	-0,133	0,020
-728,167	614,563	0,014	-0,025
-727,152	800,000	0,020	0,041
-726,137	-200,000	-0,007	-0,046
-725,123	81,555	-0,116	-0,093
-724,108	800,000	-0,048	-0,152
-723,094	621,331	-0,023	0,044
-722,079	149,349	-0,047	-0,047
-721,064	-95,190	0,066	-0,013
-720,050	70,914	0,056	0,043
-719,035	480,640	-0,066	0,111
-718,021	-200,000	0,036	-0,130
-717,006	-17,776	-0,104	-0,048
-715,991	800,000	-0,068	-0,175
-714,977	-137,356	-0,122	-0,010
-713,962	-17,482	0,055	-0,026
-712,948	151,592	0,042	0,043
-711,933	435,583	-0,052	0,085
-710,918	150,986	-0,086	0,087
-709,904	3,299	0,128	-0,069
-708,889	172,492	-0,068	-0,073
-707,875	-200,000	-0,016	-0,092
-706,860	-88,714	-0,109	-0,024
-705,845	23,850	0,062	0,038
-704,831	-35,043	-0,029	0,011
-703,816	-101,854	-0,046	-0,008
-702,802	-30,110	0,035	-0,015
-701,787	-125,542	-0,089	0,010
-700,772	800,000	0,027	-0,073
-699,758	800,000	0,038	-0,096
-698,743	-200,000	0,007	-0,114
-697,729	-112,586	-0,079	-0,012
-696,714	800,000	0,020	-0,056
-695,699	-200,000	-0,003	-0,103
-694,685	58,399	-0,047	-0,034
-693,670	6,577	0,052	-0,028
-692,656	-200,000	-0,012	-0,119
-691,641	-200,000	0,005	0,165
-690,627	-200,000	-0,006	0,093
-689,612	-20,290	-0,122	-0,055
-688,597	-122,849	-0,275	0,032
-687,583	-127,920	-0,126	0,013
-686,568	117,547	0,072	-0,065
-685,554	-90,810	0,108	0,023
-684,539	54,080	0,033	-0,023
-683,524	-200,000	-0,006	0,091
-682,510	-200,000	0,015	0,052
-681,495	-137,025	-0,216	0,018
-680,481	-8,998	0,151	-0,074
-679,466	28,300	-0,130	-0,081
-678,451	-1,075	0,109	-0,057
-677,437	-82,731	-0,190	0,045
-676,422	-62,726	0,134	0,041
-675,408	-54,497	-0,120	0,040
-674,393	367,943	0,038	0,057
-673,378	-49,241	0,047	0,017
-672,364	213,235	-0,059	0,069
-671,349	-105,638	-0,023	-0,004
-670,335	95,942	-0,092	-0,078
-669,320	-200,000	0,012	0,105
-668,305	-200,000	0,014	0,048
-667,291	-120,982	-0,060	0,007
-666,276	49,419	-0,070	-0,049
-665,262	-50,987	-0,144	-0,049
-664,247	-200,000	0,008	-0,035
-663,232	-85,124	0,117	-0,027
-662,218	-200,000	0,001	0,086
-661,203	64,059	0,010	-0,007
-660,189	-56,733	0,065	0,021
-659,174	-169,874	-0,047	0,001
-658,159	158,617	-0,039	-0,040
-657,145	0,577	-0,173	-0,091
-656,130	-69,686	0,113	-0,032
-655,116	88,382	0,118	0,096
-654,101	-200,000	-0,003	-0,105
-653,086	136,505	-0,025	0,024
-652,072	-200,000	-0,007	0,071
-651,057	-46,938	0,020	-0,007
-650,043	-142,908	-0,164	-0,012
-649,028	-200,000	0,031	-0,156
-648,014	-200,000	0,073	0,239
-646,999	800,000	0,043	0,137
-645,984	199,199	0,067	0,076
-644,970	-165,550	0,063	0,002
-643,955	-200,000	0,015	0,055
-642,941	185,714	0,040	0,044
-641,926	-85,210	0,056	0,013
-640,911	151,566	0,060	-0,061
-639,897	60,633	0,075	-0,055
-638,882	-64,661	-0,153	-0,045
-637,868	-200,000	0,012	0,133
-636,853	-92,600	0,137	-0,028
-635,838	-200,000	-0,014	-0,101
-634,824	372,140	-0,067	-0,101
-633,809	800,000	-0,058	0,136
-632,795	800,000	0,058	0,124
-631,780	-200,000	0,002	0,054
-630,765	-163,120	-0,119	0,004
-629,751	-200,000	-0,001	-0,072
-628,736	-89,217	-0,079	0,017
-627,722	91,725	-0,138	0,115
-626,707	14,010	0,095	-0,054
-625,692	-77,773	0,057	0,014
-624,678	33,582	0,075	-0,048
-623,663	800,000	-0,053	-0,156
-622,649	-200,000	-0,023	-0,083
-621,634	800,000	-0,024	-0,066
-620,619	-104,441	-0,110	-0,019
-619,605	92,852	0,095	0,079
-618,590	-0,903	-0,072	0,038
-617,576	221,677	-0,064	0,076
-616,561	800,000	0,047	0,104
-615,546	122,213	0,015	0,014
-614,532	259,983	0,007	-0,009
-613,517	41,126	-0,071	-0,047
-612,503	-118,156	0,033	0,004
-611,488	706,656	-0,052	0,101
-610,474	209,494	-0,063	0,072
-609,459	800,000	-0,033	-0,081
-608,444	-200,000	0,018	-0,147
-607,430	-200,000	0,011	-0,116
-606,415	183,161	-0,070	0,076
-605,401	-200,000	0,010	0,091
-604,386	-49,559	0,113	0,039
-603,371	-63,571	0,145	-0,044
-602,357	-76,773	0,079	-0,020
-601,342	18,696	-0,125	-0,073
-600,328	-86,217	-0,041	0,009
-599,313	55,886	-0,093	-0,066
-598,298	-61,744	-0,033	-0,010
-597,284	216,731	-0,071	-0,083
-596,269	85,998	0,036	-0,029
-595,255	708,856	-0,043	-0,084
-594,240	-56,296	0,115	0,037
-593,225	800,000	0,010	-0,030
-592,211	415,375	-0,045	-0,070
-591,196	-200,000	-0,042	-0,142
-590,182	166,468	0,127	0,132
-589,167	-59,851	-0,111	0,035
-588,152	-200,000	-0,004	0,065
-587,138	244,878	-0,093	-0,115
-586,123	-66,922	0,156	0,045
-585,109	-200,000	-0,106	0,000
-584,094	800,000	0,023	-0,064
-583,079	-133,947	-0,097	-0,009
-582,065	-24,594	-0,088	-0,038
-581,050	-200,000	-0,017	-0,064
-580,036	-148,867	-0,101	-0,006
-579,021	552,959	0,065	-0,116
-578,006	769,227	-0,046	-0,093
-576,992	342,263	0,101	-0,146
-575,977	800,000	-0,053	0,127
-574,963	162,108	0,083	0,086
-573,948	-200,000	0,008	0,031
-572,934	-200,000	0,012	-0,132
-571,919	-200,000	0,001	-0,076
-570,904	-108,234	0,049	-0,008
-569,890	432,874	-0,044	-0,070
-568,875	-36,206	0,112	0,044
-567,861	-45,192	0,116	-0,042
-566,846	-200,000	0,003	-0,062
-565,831	800,000	0,024	0,056
-564,817	-200,000	-0,014	-0,192
-563,802	-200,000	-0,005	-0,047
-562,788	800,000	0,032	-0,087
-561,773	800,000	0,046	0,113
-560,758	721,363	0,015	0,029
-559,744	-200,000	0,010	0,063
-558,729	91,065	-0,098	0,081
-557,715	193,041	0,024	0,027
-556,700	108,725	-0,036	0,031
-555,685	-200,000	-0,004	0,044
-554,671	130,409	-0,095	0,089
-553,656	92,723	0,097	0,080
-552,642	87,864	0,130	0,106
-551,627	-39,717	-0,064	0,024
-550,612	212,860	-0,025	-0,029
-549,598	800,000	0,025	0,059
-548,583	387,974	-0,070	0,107
-547,569	412,956	0,079	-0,124
-546,554	-45,633	0,065	0,024
-545,539	87,268	0,085	0,069
-544,525	-200,000	0,011	0,078
-543,510	69,288	-0,121	0,091
-542,496	-200,000	-0,001	-0,009
-541,481	-73,967	-0,080	0,021
-540,466	683,911	-0,046	-0,089
-539,452	-125,896	0,081	-0,009
-538,437	162,620	0,080	0,082
-537,423	-32,843	0,098	-0,040
-536,408	-163,071	-0,093	0,003
-535,393	-200,000	-0,003	-0,029
-534,379	-97,806	0,021	-0,004
-533,364	215,636	0,091	0,106
-532,350	800,000	0,068	0,175
-531,335	-200,000	0,029	0,147
-530,321	-35,162	0,042	0,017
-529,306	800,000	-0,006	-0,015
-528,291	-174,589	-0,026	0,001
-527,277	800,000	0,024	-0,056
-526,262	-102,887	-0,037	0,006
-525,248	101,544	0,033	0,029
-524,233	68,759	0,052	-0,039
-523,218	-69,775	-0,073	0,020
-522,204	-50,337	0,080	-0,028
-521,189	800,000	-0,013	0,033
-520,175	19,448	-0,077	-0,045
-519,160	800,000	-0,040	0,085
-518,145	57,328	-0,077	0,055
-517,131	-72,523	0,093	-0,025
-516,116	106,126	-0,047	-0,041
-515,102	349,809	-0,035	-0,051
-514,087	-72,660	-0,057	0,015
-513,072	63,332	-0,093	-0,068
-512,058	-200,000	0,024	-0,162
-511,043	263,402	0,079	-0,101
-510,029	-164,769	0,027	-0,001
-509,014	-200,000	-0,001	0,027
-507,999	342,739	0,116	-0,167
-506,985	524,186	0,011	-0,018
-505,970	304,133	-0,036	0,049
-504,956	43,121	0,059	-0,040
-503,941	-200,000	-0,050	0,165
-502,926	-116,675	0,083	-0,011
-501,912	-190,489	0,141	-0,001
-500,897	9,886	-0,160	-0,089
-499,883	316,400	0,047	-0,065
-498,868	4,875	-0,100	-0,054
-497,853	-82,336	-0,025	0,006
-496,839	800,000	-0,052	0,120
-495,824	800,000	0,037	0,090
-494,810	-6,046	-0,121	-0,060
-493,795	25,211	0,055	-0,034
-492,781	23,902	-0,178	0,107
-491,766	-200,000	0,006	-0,049
-490,751	-157,274	-0,079	-0,003
-489,737	606,113	0,073	0,135
-488,722	127,043	0,025	-0,023
-487,708	-50,979	0,158	-0,054
-486,693	258,358	-0,037	0,047
-485,678	-200,000	-0,007	0,053
-484,664	88,959	-0,097	0,079
-483,649	-200,000	-0,009	-0,138
-482,635	-100,093	0,147	-0,027
-481,620	-200,000	-0,014	0,153
-480,605	22,830	-0,051	0,031
-479,591	519,876	-0,052	-0,089
-478,576	495,391	0,060	0,101
-477,562	291,613	0,064	0,086
-476,547	190,279	-0,132	-0,145
-475,532	-30,526	-0,020	0,008
-474,518	-200,000	0,025	0,111
-473,503	167,377	-0,002	-0,003
-472,489	135,083	0,110	0,104
-471,474	-200,000	-0,022	0,167
-470,459	21,322	-0,057	-0,034
-469,445	162,355	-0,031	-0,032
-468,430	46,297	-0,077	-0,052
-467,416	-5,227	0,063	0,032
-466,401	-149,176	0,067	-0,004
-465,386	-200,000	0,006	-0,036
-464,372	800,000	-0,046	0,119
-463,357	800,000	-0,025	-0,053
-462,343	286,171	-0,041	-0,054
-461,328	-67,180	0,062	0,018
-460,313	600,259	-0,065	0,118
-459,299	-200,000	0,018	0,189
-458,284	-120,289	0,033	0,004
-457,270	-99,601	-0,066	-0,012
-456,255	673,126	-0,050	-0,095
-455,241	104,244	0,035	-0,030
-454,226	-11,368	0,128	-0,062
-453,211	-200,000	0,020	-0,081
-452,197	-12,382	0,070	0,033
-451,182	35,052	-0,086	0,055
-450,168	800,000	-0,038	0,090
-449,153	446,630	-0,058	0,094
-448,138	-147,180	0,137	-0,008
-447,124	79,080	0,041	-0,032
-446,109	-177,008	0,074	0,001
-445,095	-30,108	0,074	0,031
-444,080	4,150	0,125	0,067
-443,065	-100,342	0,140	0,025
-442,051	361,597	-0,073	-0,108
-441,036	-200,000	0,018	0,222
-440,022	-200,000	-0,013	-0,051
-439,007	800,000	-0,031	-0,072
-437,992	559,886	-0,031	0,056
-436,978	127,001	0,015	-0,014
-435,963	393,388	-0,072	0,109
-434,949	57,982	0,042	0,030
-433,934	-159,346	-0,148	0,006
-432,919	793,360	0,011	0,022
-431,905	302,404	0,020	0,027
-430,890	-200,000	0,004	0,126
-429,876	-62,622	-0,073	-0,022
-428,861	-155,379	0,040	-0,002
-427,846	7,326	0,075	0,041
-426,832	-136,781	0,136	0,011
-425,817	727,269	-0,038	-0,074
-424,803	-23,064	-0,083	-0,036
-423,788	800,000	0,005	-0,011
-422,773	800,000	0,056	0,135
-421,759	-200,000	-0,027	0,097
-420,744	800,000	-0,004	-0,010
-419,730	121,576	0,130	0,118
-418,715	800,000	-0,013	0,027
-417,701	-200,000	-0,039	-0,150
-416,686	-123,566	-0,095	0,011
-415,671	-10,910	-0,162	0,078
-414,657	-200,000	0,015	-0,140
-413,642	122,672	-0,015	-0,014
-412,628	-85,327	-0,064	0,014
-411,613	318,431	-0,036	-0,049
-410,598	169,013	0,023	-0,024
-409,584	-92,366	0,225	-0,046
-408,569	203,308	-0,035	-0,040
-407,555	0,221	0,068	-0,035
-406,540	35,632	0,041	0,026
-405,525	587,576	-0,101	-0,183
-404,511	-200,000	0,011	-0,097
-403,496	-200,000	0,003	0,080
-402,482	-200,000	0,002	0,035
-401,467	-34,079	0,133	-0,053
-400,452	113,847	-0,088	0,078
-399,438	-199,200	-0,036	0,000
-398,423	352,346	0,019	-0,028
-397,409	275,755	0,023	-0,029
-396,394	116,444	0,116	0,104
-395,379	-46,054	-0,050	-0,018
-394,365	-41,017	-0,052	-0,019
-393,350	347,400	0,074	-0,107
-392,336	112,418	0,090	0,079
-391,321	318,410	0,028	0,039
-390,306	183,173	-0,020	0,022
-389,292	40,139	-0,109	0,071
-388,277	33,106	0,121	0,076
-387,263	-200,000	-0,018	0,127
-386,248	800,000	0,027	0,086
-385,233	-1,443	-0,051	-0,026
-384,219	-200,000	-0,036	0,149
-383,204	-200,000	-0,024	-0,121
-382,190	209,085	-0,105	-0,120
-381,175	-93,454	-0,095	0,019
-380,160	-72,497	0,140	0,037
-379,146	226,531	-0,067	0,080
-378,131	464,721	0,009	0,016
-377,117	-200,000	0,000	0,110
-376,102	156,741	0,040	-0,041
-375,088	800,000	-0,060	0,138
-374,073	800,000	0,010	-0,028
-373,058	718,619	-0,012	0,022
-372,044	284,462	0,050	-0,065
-371,029	800,000	-0,050	-0,118
-370,015	-62,471	-0,127	-0,038
-369,000	-5,752	-0,064	-0,032
-367,985	353,491	0,052	-0,076
-366,971	66,957	-0,078	-0,058
-365,956	-120,222	0,046	0,006
-364,942	-143,649	0,142	-0,010
-363,927	595,344	-0,107	0,193
-362,912	45,340	0,034	0,023
-361,898	800,000	-0,066	-0,141
-360,883	-45,613	-0,138	-0,050
-359,869	-200,000	0,013	-0,116
-358,854	800,000	-0,002	0,005
-357,839	-200,000	0,007	0,081
-356,825	-52,969	-0,067	-0,022
-355,810	101,427	-0,122	0,104
-354,796	376,020	0,057	-0,085
-353,781	62,523	0,057	0,042
-352,766	247,827	0,055	-0,067
-351,752	158,089	-0,009	-0,009
-350,737	-42,567	0,091	0,034
-349,723	597,288	0,041	0,074
-348,708	800,000	0,072	0,153
-347,693	-200,000	-0,036	-0,139
-346,679	-101,987	0,068	0,012
-345,664	293,616	-0,035	0,046
-344,650	-67,600	0,029	-0,008
-343,635	107,554	0,028	0,025
-342,620	800,000	0,032	0,073
-341,606	21,125	-0,008	-0,005
-340,591	800,000	0,047	0,095
-339,577	115,298	-0,122	-0,108
-338,562	6,903	-0,139	-0,075
-337,548	-200,000	0,016	-0,099
-336,533	8,048	-0,021	0,011
-335,518	12,195	0,052	0,029
-334,504	47,395	0,066	-0,045
-333,489	800,000	-0,065	-0,141
-332,475	800,000	-0,047	-0,113
-331,460	-22,969	-0,041	-0,018
-330,445	-200,000	-0,007	-0,106
-329,431	144,388	-0,068	0,067
-328,416	360,217	-0,050	-0,073
-327,402	800,000	0,011	0,032
-326,387	-200,000	0,015	0,157
-325,372	4,648	0,069	-0,037
-324,358	227,640	0,052	-0,062
-323,343	300,716	-0,045	0,061
-322,329	-1,378	0,144	-0,074
-321,314	343,784	-0,043	-0,061
-320,299	-200,000	0,004	-0,053
-319,285	598,982	-0,012	-0,021
-318,270	800,000	-0,035	-0,073
-317,256	-25,449	-0,133	-0,057
-316,241	-91,727	-0,142	-0,029
-315,226	-200,000	0,012	-0,073
-314,212	116,686	-0,025	0,022
-313,197	62,215	-0,075	0,055
-312,183	62,107	0,148	-0,107
-311,168	800,000	0,014	-0,043
-310,153	-69,267	0,066	0,018
-309,139	-123,538	0,124	0,014
-308,124	44,127	-0,047	-0,032
-307,110	-108,843	0,152	0,023
-306,095	136,222	-0,061	0,058
-305,080	800,000	-0,038	0,079
-304,066	-200,000	-0,010	0,082
-303,051	-16,742	0,092	0,042
-302,037	77,176	0,011	-0,008
-301,022	800,000	0,023	-0,071
-300,008	139,550	0,029	-0,028
-298,993	-200,000	-0,003	0,116
-297,978	230,915	-0,026	0,031
-296,964	-48,951	0,039	-0,014
-295,949	800,000	-0,073	-0,185
-294,935	4,845	0,082	-0,044
-293,920	-160,930	0,063	-0,002
-292,905	-200,000	0,004	-0,077
-291,891	313,223	-0,038	0,052
-290,876	280,166	-0,018	-0,023
-289,862	32,654	-0,054	0,034
-288,847	55,452	-0,118	0,083
-287,832	-160,232	0,134	-0,005
-286,818	-200,000	-0,026	0,233
-285,803	17,412	0,039	0,023
-284,789	98,215	-0,004	0,003
-283,774	412,272	-0,044	-0,069
-282,759	-200,000	-0,005	-0,118
-281,745	-34,767	-0,024	-0,009
-280,730	128,964	-0,081	0,075
-279,716	-85,346	0,085	0,019
-278,701	-73,159	0,141	-0,037
-277,686	-49,339	-0,094	-0,032
-276,672	-71,385	0,010	0,003
-275,657	-161,391	0,094	0,003
-274,643	-61,579	-0,099	0,030
-273,628	-158,862	-0,050	-0,002
-272,613	-200,000	-0,006	0,078
-271,599	-113,448	0,145	-0,020
-270,584	195,794	0,183	0,202
-269,570	-59,196	0,140	0,044
-268,555	-115,004	-0,178	-0,024
-267,540	346,232	-0,113	-0,162
-266,526	-147,240	0,027	-0,002
-265,511	317,614	-0,094	0,129
-264,497	-166,388	0,087	-0,003
-263,482	-200,000	0,000	0,147
-262,467	-200,000	0,056	0,193
-261,453	487,231	-0,065	0,108
-260,438	458,301	-0,048	0,077
-259,424	-139,896	-0,219	-0,017
-258,409	-200,000	0,030	0,161
-257,395	-72,511	0,148	-0,039
-256,380	220,844	-0,053	0,062
-255,365	-200,000	-0,060	0,234
-254,351	-200,000	0,006	-0,111
-253,336	-187,829	-0,056	-0,001
-252,322	800,000	-0,066	-0,209
-251,307	83,254	0,063	0,049
-250,292	800,000	0,023	-0,064
-249,278	-200,000	0,049	0,198
-248,263	-34,819	-0,047	0,019
-247,249	663,272	0,036	-0,067
-246,234	800,000	-0,022	0,062
-245,219	-190,917	-0,128	-0,001
-244,205	-58,262	-0,026	-0,008
-243,190	-200,000	-0,039	0,139
-242,176	147,801	0,055	-0,054
-241,161	-200,000	0,013	0,098
-240,146	-200,000	-0,003	-0,020
-239,132	-200,000	0,017	-0,062
-238,117	-200,000	0,038	-0,207
-237,103	1,287	0,106	0,055
-236,088	-47,331	0,123	-0,043
-235,073	-146,261	0,075	-0,005
-234,059	-32,898	0,075	0,030
-233,044	520,182	-0,083	-0,143
-232,030	800,000	0,045	-0,116
-231,015	82,913	0,047	-0,037
-230,000	-194,780	-0,116	0,001
-228,986	800,000	-0,019	0,060
-227,971	800,000	0,028	0,059
-226,957	-162,044	0,066	-0,002
-225,942	-200,000	0,004	0,070
-224,927	800,000	0,012	-0,026
-223,913	800,000	-0,068	-0,153
-222,898	480,079	-0,070	-0,116
-221,884	-200,000	-0,002	-0,063
-220,869	45,411	-0,070	0,047
-219,855	211,393	-0,095	-0,109
-218,840	-154,813	0,077	-0,004
-217,825	-200,000	-0,017	-0,064
-216,811	-200,000	0,025	0,089
-215,796	6,171	-0,196	0,105
-214,782	800,000	0,023	-0,069
-213,767	-200,000	0,027	0,145
-212,752	1,121	-0,080	0,041
-211,738	260,880	0,047	-0,059
-210,723	330,402	-0,064	-0,089
-209,709	206,660	-0,130	-0,147
-208,694	-144,210	-0,117	0,008
-207,679	-200,000	0,006	-0,106
-206,665	181,651	0,039	0,041
-205,650	149,864	-0,148	-0,146
-204,636	-64,471	0,043	-0,013
-203,621	14,066	-0,105	0,059
-202,606	-200,000	0,036	-0,143
-201,592	-129,677	-0,192	-0,019
-200,577	800,000	0,012	-0,033
-199,563	-62,872	-0,038	-0,011
-198,548	-200,000	0,002	0,113
-197,533	32,597	0,153	0,096
-196,519	-60,807	0,102	-0,031
-195,504	282,310	-0,124	-0,161
-194,490	634,892	-0,019	0,034
-193,475	259,813	-0,067	0,084
-192,460	-200,000	-0,006	-0,073
-191,446	-109,104	0,113	0,017
-190,431	-200,000	-0,040	-0,133
-189,417	-51,381	0,147	0,049
-188,402	800,000	0,027	-0,084
-187,387	-200,000	-0,002	-0,200
-186,373	800,000	-0,034	0,071
-185,358	-36,381	0,126	-0,049
-184,344	124,799	-0,090	-0,082
-183,329	-200,000	0,010	0,061
-182,315	-200,000	-0,004	0,019
-181,300	227,971	0,118	-0,139
-180,285	-200,000	-0,035	-0,164
-179,271	-200,000	0,004	-0,071
-178,256	146,359	-0,028	-0,028
-177,242	-200,000	0,001	-0,006
-176,227	-200,000	0,005	0,045
-175,212	-200,000	0,013	0,150
-174,198	800,000	0,064	0,137
-173,183	138,427	-0,044	-0,041
-172,169	-200,000	0,041	-0,209
-171,154	800,000	-0,043	-0,090
-170,139	-59,224	0,132	0,041
-169,125	595,227	0,055	0,099
-168,110	665,387	-0,029	0,054
-167,096	233,459	-0,025	0,029
-166,081	24,328	-0,084	-0,050
-165,066	203,387	-0,012	0,014
-164,052	-200,000	-0,009	-0,127
-163,037	-138,048	0,111	0,009
-162,023	-88,327	0,124	0,027
-161,008	-200,000	-0,006	0,116
-159,993	-11,601	0,095	-0,045
-158,979	-200,000	-0,047	-0,156
-157,964	-200,000	0,009	-0,121
-156,950	212,721	0,067	0,077
-155,935	800,000	-0,006	-0,012
-154,920	199,608	-0,051	-0,056
-153,906	-41,876	-0,167	0,062
-152,891	285,334	-0,063	-0,082
-151,877	185,346	-0,123	0,132
-150,862	800,000	-0,009	-0,019
-149,847	800,000	0,011	-0,022
-148,833	-200,000	0,031	-0,170
-147,818	800,000	0,068	-0,156
-146,804	80,260	-0,051	-0,040
-145,789	-75,519	-0,015	0,004
-144,775	-114,504	-0,118	0,016
-143,760	-74,496	0,109	0,028
-142,745	-5,237	-0,211	0,104
-141,731	-132,211	0,098	-0,009
-140,716	164,538	0,048	0,049
-139,702	-62,940	0,020	0,006
-138,687	800,000	-0,083	0,211
-137,672	800,000	-0,080	0,186
-136,658	-200,000	-0,003	-0,081
-135,643	-118,018	-0,107	-0,014
-134,629	191,805	0,044	0,048
-133,614	174,870	0,058	0,060
-132,599	-123,799	0,230	0,026
-131,585	-200,000	0,017	0,074
-130,570	-148,847	-0,164	-0,009
-129,556	-139,275	-0,064	-0,005
-128,541	122,562	0,019	0,017
-127,526	391,170	0,038	-0,057
-126,512	627,097	0,034	-0,062
-125,497	-143,027	0,123	0,008
-124,483	800,000	0,048	-0,103
-123,468	-103,636	0,023	0,004
-122,453	-108,831	-0,010	-0,002
-121,439	-200,000	-0,020	0,143
-120,424	800,000	0,054	-0,172
-119,410	112,207	0,069	0,060
