DTS Sentinel unit serial number:	SN410029Multiplexer serial number:	ORYXHardware model number:	OX2-SRSoftware version number:	ORYX F/W v4,00 Oryx Data Collector v3.7.2.0data status	okinstallation	B3 Nyhavnadifferential loss correction	single-endedforward channel	channel 1reverse channel	N/Adate	2023/11/28time	18:27:30forward acquisition time	300,00reverse acquisition time	0,00gamma	499,1914k internal	0,3141k external	0,3141temperature offset calibration	1,0000default loss term (dB/km)	0,3820temperature slope calibration	1,0000multiplexer offset coefficient	1,0000multiplexer slope coefficient	1,0000fibre end	0,00T internal ref (°C)	7,43T ext. ref 1 (°C)	-7,26T ext. ref 2 (°C)	-7,42length (m)	temperature (°C)	Stokes	anti-Stokes-744,400	82,730	-0,211	-0,170
-743,385	-200,000	0,000	0,230
-742,371	375,795	-0,126	-0,191
-741,356	-200,000	-0,002	0,336
-740,342	13,418	-0,071	-0,040
-739,327	103,334	-0,275	0,239
-738,312	218,349	-0,183	-0,217
-737,298	-200,000	0,019	0,176
-736,283	154,131	-0,260	-0,264
-735,269	800,000	0,097	0,204
-734,254	-200,000	-0,071	-0,285
-733,239	-53,209	-0,313	0,106
-732,225	51,536	-0,245	-0,173
-731,210	131,699	0,108	0,103
-730,196	-84,063	-0,162	0,038
-729,181	-137,212	-0,044	0,004
-728,167	-172,934	-0,089	0,002
-727,152	-200,000	-0,004	0,045
-726,137	-116,342	-0,137	0,019
-725,123	24,898	-0,100	0,061
-724,108	185,552	-0,064	-0,071
-723,094	-109,552	-0,193	-0,030
-722,079	-200,000	-0,024	-0,136
-721,064	-145,302	0,034	-0,002
-720,050	95,306	0,090	0,076
-719,035	96,845	-0,038	-0,032
-718,021	-200,000	0,017	0,119
-717,006	-3,620	-0,100	-0,051
-715,991	800,000	-0,023	0,063
-714,977	176,099	-0,077	-0,083
-713,962	114,447	-0,035	0,032
-712,948	336,842	0,027	0,039
-711,933	713,465	0,021	0,041
-710,918	-80,168	-0,098	-0,024
-709,904	-16,476	-0,143	-0,067
-708,889	610,394	0,034	-0,063
-707,875	-200,000	-0,013	-0,057
-706,860	109,238	-0,138	-0,122
-705,845	-18,979	-0,064	0,029
-704,831	-200,000	0,011	0,104
-703,816	-200,000	-0,006	-0,109
-702,802	-66,448	-0,202	-0,059
-701,787	378,348	-0,093	-0,142
-700,772	-200,000	0,017	-0,072
-699,758	492,308	-0,014	-0,024
-698,743	-5,363	-0,142	-0,072
-697,729	-16,649	0,078	-0,037
-696,714	-200,000	0,027	-0,107
-695,699	485,428	-0,069	-0,117
-694,685	-88,836	-0,188	-0,041
-693,670	571,926	-0,049	-0,089
-692,656	-51,169	-0,126	-0,043
-691,641	-5,975	-0,073	0,037
-690,627	-175,893	0,100	-0,002
-689,612	-5,296	-0,130	0,066
-688,597	-99,684	-0,146	-0,027
-687,583	-200,000	-0,013	-0,060
-686,568	105,617	-0,065	-0,057
-685,554	-33,300	-0,025	0,010
-684,539	-50,520	-0,011	0,004
-683,524	-141,607	-0,088	0,006
-682,510	-200,000	0,032	0,116
-681,495	38,507	-0,158	-0,104
-680,481	-200,000	-0,006	-0,076
-679,466	168,858	-0,137	-0,145
-678,451	-20,553	-0,117	-0,053
-677,437	202,874	0,050	0,057
-676,422	172,283	-0,072	0,076
-675,408	153,876	-0,047	0,048
-674,393	-16,479	-0,101	0,047
-673,378	246,414	-0,092	-0,115
-672,364	-200,000	-0,042	-0,146
-671,349	-200,000	-0,009	-0,128
-670,335	-200,000	-0,011	-0,039
-669,320	800,000	-0,042	-0,105
-668,305	63,326	0,018	-0,014
-667,291	-13,870	-0,121	-0,058
-666,276	777,483	-0,081	-0,164
-665,262	49,949	-0,194	0,135
-664,247	-117,299	0,049	0,007
-663,232	103,766	-0,064	0,055
-662,218	-200,000	-0,023	0,091
-661,203	552,164	-0,020	-0,035
-660,189	-200,000	-0,015	0,123
-659,174	-200,000	-0,015	0,096
-658,159	-200,000	0,010	0,087
-657,145	-181,572	-0,204	0,003
-656,130	171,640	0,088	-0,094
-655,116	597,829	0,047	0,087
-654,101	521,427	-0,037	0,064
-653,086	-200,000	-0,001	-0,059
-652,072	-200,000	0,029	-0,119
-651,057	175,329	-0,077	-0,083
-650,043	-200,000	0,016	-0,081
-649,028	139,392	0,027	-0,027
-648,014	203,635	-0,086	0,099
-646,999	193,822	0,013	-0,014
-645,984	-96,091	-0,042	-0,008
-644,970	-200,000	0,181	0,001
-643,955	800,000	-0,034	0,109
-642,941	333,269	-0,065	0,093
-641,926	-200,000	-0,042	0,138
-640,911	526,798	0,052	0,090
-639,897	118,653	-0,034	-0,031
-638,882	760,302	-0,028	-0,056
-637,868	-144,678	-0,166	-0,011
-636,853	-35,581	-0,065	0,026
-635,838	534,811	-0,020	0,035
-634,824	-119,001	-0,065	0,008
-633,809	29,995	0,131	0,082
-632,795	-200,000	-0,010	0,058
-631,780	199,867	-0,076	-0,086
-630,765	333,260	0,074	0,106
-629,751	115,955	-0,075	0,068
-628,736	-200,000	-0,028	-0,152
-627,722	252,350	-0,045	0,056
-626,707	57,724	-0,085	-0,062
-625,692	91,720	0,093	0,077
-624,678	25,679	0,033	-0,020
-623,663	-200,000	0,009	-0,064
-622,649	-156,107	-0,013	-0,001
-621,634	240,990	0,056	0,070
-620,619	-200,000	0,042	0,179
-619,605	-151,322	0,108	0,006
-618,590	77,122	0,087	0,068
-617,576	140,824	-0,045	0,044
-616,561	-67,982	-0,150	0,043
-615,546	-39,867	-0,149	-0,057
-614,532	-69,799	0,060	-0,017
-613,517	-27,218	0,026	-0,011
-612,503	162,191	-0,076	0,078
-611,488	-14,417	0,053	-0,025
-610,474	133,434	-0,088	-0,084
-609,459	-2,366	0,165	-0,085
-608,444	-101,549	0,024	-0,004
-607,430	337,216	-0,096	-0,138
-606,415	416,812	-0,055	0,086
-605,401	-78,045	-0,072	0,018
-604,386	-62,611	-0,057	-0,017
-603,371	-124,897	0,136	0,015
-602,357	101,678	-0,100	0,086
-601,342	800,000	0,032	-0,105
-600,328	-87,702	-0,119	-0,026
-599,313	-88,647	-0,119	0,026
-598,298	80,785	-0,019	0,015
-597,284	800,000	0,034	0,076
-596,269	-116,830	0,063	-0,008
-595,255	59,696	-0,077	-0,056
-594,240	800,000	0,008	-0,025
-593,225	170,893	-0,106	-0,112
-592,211	72,550	0,097	-0,074
-591,196	266,942	0,057	0,074
-590,182	85,909	0,007	-0,006
-589,167	-200,000	0,003	0,077
-588,152	800,000	-0,038	0,098
-587,138	-80,610	0,050	0,012
-586,123	-4,365	0,038	0,019
-585,109	-12,570	-0,057	-0,027
-584,094	46,882	-0,083	-0,057
-583,079	19,788	0,061	0,036
-582,065	226,206	-0,031	-0,038
-581,050	-200,000	-0,004	-0,031
-580,036	302,415	-0,098	-0,134
-579,021	375,391	0,061	-0,092
-578,006	-57,174	-0,088	-0,028
-576,992	800,000	0,041	-0,111
-575,977	528,610	0,043	0,076
-574,963	800,000	0,034	-0,108
-573,948	-200,000	-0,022	0,100
-572,934	79,759	-0,038	0,030
-571,919	-200,000	0,017	-0,057
-570,904	-22,289	-0,088	0,039
-569,890	6,770	-0,109	-0,060
-568,875	-142,721	0,092	0,007
-567,861	-200,000	0,001	0,011
-566,846	-80,891	0,084	-0,020
-565,831	348,593	0,027	0,039
-564,817	-200,000	-0,028	-0,125
-563,802	-200,000	0,001	-0,018
-562,788	800,000	-0,021	0,051
-561,773	-200,000	-0,001	0,017
-560,758	-178,907	-0,068	0,001
-559,744	561,385	0,012	0,022
-558,729	-122,944	0,040	0,005
-557,715	-38,888	-0,058	-0,022
-556,700	85,425	-0,184	-0,149
-555,685	-200,000	-0,000	-0,177
-554,671	-113,443	-0,073	0,010
-553,656	14,782	0,109	-0,063
-552,642	-122,260	-0,086	-0,010
-551,627	-126,101	0,117	-0,013
-550,612	175,068	0,052	0,055
-549,598	800,000	-0,045	-0,104
-548,583	283,060	-0,017	-0,022
-547,569	800,000	0,020	-0,056
-546,554	-200,000	-0,003	0,071
-545,539	101,929	-0,144	-0,124
-544,525	-200,000	0,001	0,054
-543,510	-123,769	-0,051	0,006
-542,496	-200,000	0,007	-0,060
-541,481	284,111	0,045	-0,060
-540,466	137,416	0,012	0,011
-539,452	-200,000	-0,017	-0,096
-538,437	162,848	0,062	0,064
-537,423	800,000	0,040	0,093
-536,408	35,912	-0,079	0,051
-535,393	-65,326	0,084	-0,025
-534,379	-200,000	-0,026	-0,171
-533,364	54,992	-0,166	-0,118
-532,350	232,124	0,077	-0,094
-531,335	-200,000	0,002	0,034
-530,321	-41,429	0,019	0,007
-529,306	21,741	-0,110	0,066
-528,291	248,286	-0,054	-0,067
-527,277	268,672	-0,022	-0,028
-526,262	30,296	-0,082	0,051
-525,248	-11,651	0,041	0,020
-524,233	-200,000	0,010	0,082
-523,218	486,010	0,042	-0,070
-522,204	-14,749	0,014	-0,007
-521,189	-200,000	0,004	0,052
-520,175	-200,000	-0,003	-0,058
-519,160	800,000	-0,101	-0,327
-518,145	800,000	0,022	0,060
-517,131	-200,000	0,023	0,122
-516,116	800,000	0,036	0,113
-515,102	-36,895	-0,042	0,016
-514,087	-101,076	-0,127	0,023
-513,072	800,000	-0,049	-0,142
-512,058	-200,000	-0,013	0,095
-511,043	-200,000	-0,017	-0,104
-510,029	327,131	-0,067	0,095
-509,014	178,758	-0,100	0,108
-507,999	-200,000	0,016	-0,062
-506,985	-107,568	-0,091	-0,014
-505,970	800,000	-0,060	-0,175
-504,956	800,000	0,027	-0,071
-503,941	38,070	-0,058	0,038
-502,926	800,000	-0,036	0,110
-501,912	278,809	0,121	0,159
-500,897	-33,364	-0,039	0,016
-499,883	-22,200	-0,173	0,077
-498,868	-151,411	-0,039	-0,002
-497,853	-200,000	0,009	-0,063
-496,839	322,619	-0,027	0,038
-495,824	-200,000	-0,001	-0,037
-494,810	-200,000	-0,016	0,162
-493,795	-101,545	-0,073	0,013
-492,781	21,917	0,153	0,091
-491,766	-200,000	0,014	-0,138
-490,751	4,671	-0,059	-0,032
-489,737	98,261	0,057	-0,049
-488,722	649,903	-0,048	0,090
-487,708	-92,885	-0,092	0,019
-486,693	-135,567	0,114	0,010
-485,678	95,692	0,095	-0,080
-484,664	-200,000	-0,010	0,080
-483,649	-174,158	0,048	0,001
-482,635	-139,880	0,104	0,008
-481,620	-88,725	-0,103	-0,022
-480,605	37,186	-0,075	-0,049
-479,591	-145,965	0,108	-0,007
-478,576	104,802	-0,095	0,082
-477,562	-200,000	0,006	-0,084
-476,547	-117,910	-0,084	-0,011
-475,532	180,554	-0,061	-0,066
-474,518	-73,970	0,131	-0,035
-473,503	800,000	0,038	-0,079
-472,489	28,552	0,078	-0,048
-471,474	93,271	0,009	0,007
-470,459	-47,074	-0,184	-0,066
-469,445	-200,000	0,026	-0,125
-468,430	-96,293	0,124	0,024
-467,416	49,534	0,128	0,088
-466,401	-117,627	0,039	-0,005
-465,386	157,790	-0,060	-0,061
-464,372	-200,000	-0,012	-0,051
-463,357	-130,915	0,024	0,002
-462,343	800,000	0,040	-0,083
-461,328	-108,436	0,039	-0,006
-460,313	-87,667	-0,125	0,027
-459,299	-38,419	0,103	0,040
-458,284	175,279	0,062	-0,065
-457,270	800,000	-0,062	-0,168
-456,255	800,000	0,009	0,026
-455,241	-200,000	-0,005	-0,055
-454,226	93,564	0,082	-0,068
-453,211	152,901	0,064	-0,064
-452,197	-39,676	0,037	-0,014
-451,182	-200,000	-0,007	0,148
-450,168	196,800	-0,029	-0,033
-449,153	-130,220	-0,057	0,006
-448,138	267,324	0,046	-0,059
-447,124	298,229	0,039	-0,052
-446,109	58,126	0,121	0,087
-445,095	30,229	-0,050	0,031
-444,080	46,661	-0,023	-0,015
-443,065	78,817	-0,109	0,086
-442,051	-200,000	0,011	0,065
-441,036	-200,000	0,053	-0,223
-440,022	504,974	0,039	-0,066
-439,007	800,000	0,034	0,077
-437,992	222,279	0,018	0,021
-436,978	172,921	-0,056	-0,059
-435,963	-45,837	0,079	0,028
-434,949	23,334	-0,067	0,040
-433,934	71,815	-0,084	-0,064
-432,919	25,845	-0,031	-0,019
-431,905	-154,925	-0,088	-0,004
-430,890	-200,000	0,002	-0,039
-429,876	157,852	-0,072	0,073
-428,861	800,000	0,045	0,095
-427,846	80,029	0,039	-0,031
-426,832	112,726	-0,018	-0,016
-425,817	-182,176	0,036	0,000
-424,803	-200,000	0,012	-0,093
-423,788	-19,035	0,077	0,035
-422,773	153,707	-0,064	-0,064
-421,759	-3,191	0,161	-0,082
-420,744	142,022	0,082	0,080
-419,730	217,617	-0,033	-0,038
-418,715	-200,000	0,002	-0,050
-417,701	800,000	0,063	-0,171
-416,686	124,035	-0,074	0,068
-415,671	-63,417	0,092	0,028
-414,657	372,773	0,073	0,109
-413,642	-200,000	-0,009	0,044
-412,628	81,137	-0,024	0,019
-411,613	144,920	0,082	-0,080
-410,598	800,000	-0,041	-0,101
-409,584	1,785	-0,050	-0,026
-408,569	282,993	0,038	-0,050
-407,555	-200,000	-0,019	-0,164
-406,540	800,000	0,028	0,067
-405,525	-96,616	-0,269	0,051
-404,511	-200,000	0,022	0,112
-403,496	-143,289	-0,126	0,009
-402,482	-162,350	0,101	0,004
-401,467	800,000	0,040	0,088
-400,452	-177,757	0,124	-0,002
-399,438	800,000	-0,012	0,034
-398,423	123,260	-0,073	0,067
-397,409	182,282	0,096	0,103
-396,394	11,058	-0,101	-0,057
-395,379	-153,441	0,107	-0,005
-394,365	5,775	0,102	0,055
-393,350	173,691	0,058	-0,061
-392,336	-150,101	0,032	-0,002
-391,321	9,870	0,073	-0,040
-390,306	-139,665	-0,133	0,010
-389,292	-105,772	0,044	0,007
-388,277	-40,285	0,057	0,022
-387,263	644,966	0,029	0,054
-386,248	-2,958	-0,005	0,002
-385,233	-200,000	0,007	0,028
-384,219	-39,460	0,150	0,057
-383,204	-8,490	-0,108	0,053
-382,190	-31,280	-0,080	-0,033
-381,175	224,975	-0,048	-0,057
-380,160	363,506	-0,071	0,104
-379,146	-146,307	0,068	0,004
-378,131	-200,000	0,001	-0,025
-377,117	21,358	0,090	-0,053
-376,102	218,224	-0,082	-0,096
-375,088	199,037	0,149	-0,167
-374,073	71,450	-0,117	-0,088
-373,058	-35,587	-0,071	0,028
-372,044	25,925	0,063	0,038
-371,029	-200,000	0,001	0,127
-370,015	288,889	0,079	0,105
-369,000	36,420	-0,017	0,011
-367,985	571,850	-0,079	-0,140
-366,971	365,397	-0,040	0,059
-365,956	-200,000	-0,015	0,169
-364,942	-200,000	0,042	0,146
-363,927	800,000	-0,020	0,048
-362,912	29,647	0,071	0,044
-361,898	-200,000	-0,031	-0,105
-360,883	269,835	-0,006	-0,008
-359,869	800,000	0,022	-0,070
-358,854	-200,000	0,022	-0,121
-357,839	-160,885	0,122	-0,005
-356,825	712,794	0,092	0,178
-355,810	-151,915	-0,169	0,009
-354,796	-200,000	-0,009	-0,034
-353,781	-78,005	-0,044	-0,011
-352,766	-200,000	0,015	-0,071
-351,752	800,000	0,006	0,012
-350,737	59,140	0,057	0,041
-349,723	570,604	0,031	-0,055
-348,708	800,000	0,050	0,121
-347,693	-163,012	0,068	-0,002
-346,679	800,000	-0,087	-0,203
-345,664	-200,000	0,003	0,015
-344,650	800,000	-0,015	0,037
-343,635	-200,000	0,016	-0,070
-342,620	542,733	-0,036	0,064
-341,606	800,000	0,073	0,176
-340,591	-82,803	-0,080	0,019
-339,577	-48,211	-0,088	0,031
-338,562	67,158	-0,084	0,063
-337,548	-200,000	0,001	-0,065
-336,533	-0,539	0,213	0,110
-335,518	667,333	0,060	0,113
-334,504	-183,726	-0,040	0,000
-333,489	89,435	-0,127	-0,103
-332,475	285,642	-0,054	-0,071
-331,460	-147,530	-0,098	-0,006
-330,445	286,218	-0,106	0,140
-329,431	-200,000	-0,005	0,143
-328,416	-73,198	-0,063	-0,017
-327,402	404,493	-0,073	-0,112
-326,387	640,697	-0,103	-0,192
-325,372	-200,000	0,024	-0,081
-324,358	-11,896	-0,135	-0,065
-323,343	108,463	0,081	-0,071
-322,329	785,964	-0,032	-0,064
-321,314	582,300	0,115	0,207
-320,299	-200,000	0,002	0,035
-319,285	-200,000	-0,003	0,042
-318,270	-200,000	-0,001	0,179
-317,256	158,765	-0,066	-0,067
-316,241	130,456	-0,087	0,081
-315,226	-200,000	0,008	-0,067
-314,212	800,000	0,010	-0,027
-313,197	109,954	-0,077	0,067
-312,183	-26,531	0,054	-0,023
-311,168	-200,000	-0,023	-0,140
-310,153	194,041	-0,131	-0,145
-309,139	-200,000	-0,024	-0,183
-308,124	800,000	0,020	-0,062
-307,110	-200,000	-0,004	-0,057
-306,095	-200,000	0,008	-0,067
-305,080	234,580	-0,042	-0,051
-304,066	-200,000	0,008	-0,030
-303,051	182,774	0,043	-0,047
-302,037	49,334	0,071	-0,049
-301,022	8,202	-0,082	0,045
-300,008	-200,000	-0,006	0,169
-298,993	-29,524	0,103	0,043
-297,978	189,012	0,072	-0,078
-296,964	542,657	0,014	0,025
-295,949	-39,007	0,106	0,041
-294,935	800,000	0,031	-0,064
-293,920	-28,465	-0,087	-0,036
-292,905	-77,259	0,177	0,045
-291,891	41,593	0,097	-0,064
-290,876	459,995	0,035	0,058
-289,862	800,000	-0,073	-0,176
-288,847	-124,289	-0,068	0,008
-287,832	128,510	0,045	-0,042
-286,818	-78,849	0,053	0,013
-285,803	-126,146	0,050	-0,005
-284,789	-67,121	0,087	-0,025
-283,774	732,740	-0,033	0,065
-282,759	-75,751	-0,109	-0,028
-281,745	47,499	-0,079	-0,054
-280,730	-200,000	0,015	-0,157
-279,716	-200,000	0,008	0,044
-278,701	-33,060	0,190	0,076
-277,686	-87,111	0,122	0,027
-276,672	230,903	0,055	0,066
-275,657	-3,806	0,007	-0,003
-274,643	-35,240	0,080	-0,032
-273,628	33,924	-0,048	0,031
-272,613	800,000	0,023	0,061
-271,599	232,256	0,127	0,153
-270,584	-32,193	0,114	0,046
-269,570	41,192	-0,008	0,005
-268,555	-19,965	-0,083	-0,037
-267,540	800,000	0,040	-0,100
-266,526	99,303	-0,138	-0,116
-265,511	18,745	0,061	0,035
-264,497	-200,000	0,019	0,062
-263,482	183,875	0,200	0,215
-262,467	-113,939	0,051	0,007
-261,453	208,239	-0,062	-0,070
-260,438	149,263	-0,035	-0,035
-259,424	66,941	-0,105	-0,077
-258,409	61,599	0,095	-0,069
-257,395	-200,000	-0,017	0,076
-256,380	-200,000	-0,007	-0,063
-255,365	324,213	0,018	-0,025
-254,351	-200,000	0,037	-0,174
-253,336	189,991	0,094	-0,103
-252,322	107,742	0,092	-0,080
-251,307	-49,611	-0,054	0,019
-250,292	800,000	0,058	-0,120
-249,278	637,753	0,059	0,109
-248,263	800,000	0,045	0,106
-247,249	718,219	-0,029	-0,057
-246,234	-162,589	-0,098	-0,003
-245,219	144,598	-0,038	0,036
-244,205	32,121	-0,079	-0,049
-243,190	-61,329	-0,048	0,015
-242,176	33,958	0,050	0,032
-241,161	9,151	0,194	0,106
-240,146	633,755	-0,072	0,132
-239,132	318,505	-0,059	0,081
-238,117	800,000	-0,065	0,140
-237,103	-200,000	0,005	-0,091
-236,088	-200,000	-0,031	-0,105
-235,073	-200,000	-0,001	-0,036
-234,059	147,034	0,034	0,034
-233,044	-200,000	0,012	0,076
-232,030	318,582	-0,069	0,095
-231,015	-200,000	-0,014	0,080
-230,000	800,000	0,006	0,017
-228,986	-42,429	0,062	0,023
-227,971	-200,000	0,005	0,182
-226,957	-67,787	0,029	0,008
-225,942	-78,342	0,103	0,026
-224,927	128,508	-0,131	0,122
-223,913	8,863	0,115	-0,063
-222,898	800,000	-0,057	-0,148
-221,884	91,391	0,044	0,036
-220,869	564,343	-0,057	0,102
-219,855	800,000	-0,019	0,046
-218,840	-15,634	0,123	0,057
-217,825	28,509	-0,057	-0,035
-216,811	26,552	0,031	0,019
-215,796	24,741	0,018	-0,011
-214,782	-200,000	0,001	-0,109
-213,767	-200,000	0,029	0,138
-212,752	800,000	0,015	-0,034
-211,738	-110,053	0,150	0,023
-210,723	-6,451	-0,026	-0,013
-209,709	66,188	-0,087	-0,064
-208,694	92,241	-0,054	0,044
-207,679	-200,000	0,012	0,079
-206,665	52,721	0,077	-0,053
-205,650	-200,000	0,023	0,120
-204,636	-110,158	0,082	-0,012
-203,621	-7,535	-0,086	0,042
-202,606	69,040	0,068	-0,050
-201,592	-3,842	-0,049	0,025
-200,577	229,349	0,076	0,090
-199,563	-10,837	0,101	-0,048
-198,548	-35,176	-0,112	0,044
-197,533	165,612	-0,057	-0,058
-196,519	167,197	-0,011	-0,011
-195,504	123,885	-0,055	-0,050
-194,490	-124,225	-0,164	-0,018
-193,475	139,896	0,050	0,048
-192,460	-15,560	-0,069	0,032
-191,446	116,372	-0,044	0,039
-190,431	528,475	0,052	0,089
-189,417	28,789	0,029	0,018
-188,402	-59,068	0,106	-0,033
-187,387	-32,122	0,026	-0,010
-186,373	-65,949	0,039	0,011
-185,358	78,565	0,061	0,047
-184,344	66,458	0,048	-0,036
-183,329	43,681	-0,039	0,026
-182,315	5,260	0,070	0,037
-181,300	8,137	0,058	-0,032
-180,285	56,396	-0,081	-0,057
-179,271	681,157	0,035	0,066
-178,256	-200,000	-0,010	0,046
-177,242	-91,162	0,098	-0,020
-176,227	800,000	0,055	0,128
-175,212	-6,884	0,082	0,040
-174,198	-14,963	0,017	0,008
-173,183	16,553	-0,035	-0,020
-172,169	348,790	-0,069	-0,099
-171,154	-29,374	-0,075	0,031
-170,139	408,159	-0,045	-0,070
-169,125	800,000	-0,066	0,178
-168,110	-200,000	-0,012	0,041
-167,096	-17,388	0,058	-0,026
-166,081	548,842	-0,030	0,053
-165,066	-200,000	-0,009	-0,034
-164,052	195,141	-0,036	-0,040
-163,037	-200,000	-0,017	-0,056
-162,023	-41,909	0,074	0,027
-161,008	-91,635	0,145	0,030
-159,993	80,515	0,014	0,011
-158,979	-200,000	-0,001	0,082
-157,964	476,955	-0,033	0,054
-156,950	-17,685	-0,099	0,045
-155,935	51,711	0,062	-0,042
-154,920	2,911	-0,017	-0,009
-153,906	411,325	0,075	0,115
-152,891	800,000	0,040	0,105
-151,877	800,000	-0,010	-0,023
-150,862	222,215	0,055	-0,064
-149,847	-200,000	0,027	-0,128
-148,833	-163,900	-0,108	0,004
-147,818	-200,000	0,029	-0,098
-146,804	146,228	-0,062	-0,060
-145,789	-200,000	-0,030	-0,133
-144,775	-200,000	-0,001	0,095
-143,760	65,340	0,161	0,118
-142,745	-7,756	0,042	0,020
-141,731	-90,782	0,180	-0,037
-140,716	-200,000	-0,013	-0,095
-139,702	-200,000	0,035	0,125
-138,687	179,449	-0,060	0,063
-137,672	0,968	-0,159	0,082
-136,658	413,965	-0,041	0,063
-135,643	-67,737	0,096	0,027
-134,629	-200,000	0,005	0,147
-133,614	-200,000	-0,008	0,107
-132,599	800,000	0,037	0,090
-131,585	1,618	-0,116	0,060
-130,570	321,045	-0,067	0,092
-129,556	111,535	-0,057	-0,050
-128,541	-200,000	0,017	-0,088
-127,526	1,407	-0,127	-0,066
-126,512	-200,000	-0,006	-0,028
-125,497	53,486	0,051	-0,036
-124,483	-200,000	0,007	0,122
-123,468	458,683	0,022	-0,035
-122,453	776,832	0,054	0,107
-121,439	14,344	-0,177	-0,099
-120,424	-69,127	-0,066	0,018
-119,410	12,841	0,098	0,055
-118,395	494,649	-0,066	0,111
