DTS Sentinel unit serial number:	SN410029Multiplexer serial number:	ORYXHardware model number:	OX2-SRSoftware version number:	ORYX F/W v4,00 Oryx Data Collector v3.7.2.0data status	okinstallation	B3 Nyhavnadifferential loss correction	single-endedforward channel	channel 1reverse channel	N/Adate	2023/11/28time	16:12:30forward acquisition time	300,00reverse acquisition time	0,00gamma	499,1914k internal	0,3215k external	0,3215temperature offset calibration	1,0000default loss term (dB/km)	0,3820temperature slope calibration	1,0000multiplexer offset coefficient	1,0000multiplexer slope coefficient	1,0000fibre end	0,00T internal ref (°C)	7,27T ext. ref 1 (°C)	-7,52T ext. ref 2 (°C)	-7,70length (m)	temperature (°C)	Stokes	anti-Stokes-744,400	-200,000	-0,008	-0,266
-743,385	800,000	-0,105	0,266
-742,371	253,919	-0,263	-0,327
-741,356	-200,000	0,051	0,209
-740,342	151,410	-0,186	-0,183
-739,327	800,000	-0,089	0,246
-738,312	152,377	-0,150	-0,148
-737,298	-200,000	-0,077	0,328
-736,283	-200,000	0,008	-0,441
-735,269	-200,000	-0,074	0,237
-734,254	-200,000	-0,099	-0,393
-733,239	-12,793	-0,193	0,091
-732,225	495,012	-0,112	-0,186
-731,210	517,680	0,024	0,041
-730,196	115,839	-0,055	0,049
-729,181	799,805	-0,074	-0,149
-728,167	-15,574	-0,096	-0,044
-727,152	-200,000	-0,022	-0,104
-726,137	-200,000	0,006	-0,145
-725,123	-200,000	-0,021	0,121
-724,108	-200,000	-0,158	-0,000
-723,094	800,000	0,016	0,045
-722,079	107,695	0,079	0,068
-721,064	-52,478	-0,072	-0,024
-720,050	-17,938	-0,097	0,044
-719,035	74,010	0,146	0,110
-718,021	61,367	-0,229	-0,164
-717,006	-200,000	0,036	-0,148
-715,991	250,210	-0,138	-0,169
-714,977	559,288	-0,078	-0,136
-713,962	10,864	0,044	0,024
-712,948	-200,000	-0,014	0,067
-711,933	354,400	-0,023	0,033
-710,918	-200,000	0,021	0,088
-709,904	-136,256	-0,163	-0,014
-708,889	-108,434	0,054	0,008
-707,875	800,000	-0,041	-0,099
-706,860	341,613	0,043	-0,061
-705,845	-200,000	-0,015	0,073
-704,831	-200,000	-0,007	0,148
-703,816	-200,000	0,015	-0,107
-702,802	655,678	-0,018	-0,033
-701,787	425,369	-0,014	0,022
-700,772	87,037	-0,102	-0,082
-699,758	297,672	-0,102	0,135
-698,743	-14,508	0,088	0,041
-697,729	-112,075	0,061	0,009
-696,714	129,931	-0,033	0,031
-695,699	141,986	0,071	0,068
-694,685	-141,634	-0,077	-0,005
-693,670	-200,000	-0,015	-0,097
-692,656	-103,014	0,039	0,007
-691,641	439,891	0,036	0,057
-690,627	800,000	-0,034	0,071
-689,612	800,000	0,036	-0,073
-688,597	-45,410	-0,121	-0,043
-687,583	-200,000	-0,016	0,053
-686,568	304,509	-0,063	-0,084
-685,554	-21,956	-0,109	-0,048
-684,539	-174,278	0,074	0,002
-683,524	-200,000	-0,034	0,136
-682,510	-150,369	-0,146	-0,008
-681,495	145,306	0,033	-0,032
-680,481	326,491	-0,060	-0,083
-679,466	203,317	-0,060	0,067
-678,451	-200,000	-0,020	-0,109
-677,437	-200,000	0,008	0,059
-676,422	800,000	0,047	0,129
-675,408	-10,643	0,128	-0,061
-674,393	-132,033	-0,191	-0,018
-673,378	-130,092	-0,138	0,013
-672,364	-200,000	0,017	0,116
-671,349	-56,932	-0,151	0,048
-670,335	-200,000	0,168	0,001
-669,320	13,760	0,058	-0,033
-668,305	101,141	-0,144	0,121
-667,291	146,569	-0,096	-0,093
-666,276	246,418	-0,015	0,019
-665,262	-56,987	0,056	-0,018
-664,247	-200,000	0,017	-0,066
-663,232	800,000	0,035	0,113
-662,218	85,151	0,141	0,111
-661,203	581,465	-0,096	0,171
-660,189	-99,483	-0,073	-0,013
-659,174	391,539	-0,060	0,090
-658,159	-143,011	-0,114	-0,008
-657,145	-118,292	-0,088	-0,011
-656,130	216,943	-0,076	0,087
-655,116	92,350	-0,025	-0,020
-654,101	2,791	0,145	-0,076
-653,086	-90,028	-0,025	-0,005
-652,072	-200,000	-0,008	-0,134
-651,057	-82,001	-0,214	-0,050
-650,043	308,563	-0,018	0,025
-649,028	-127,178	-0,162	0,017
-648,014	78,660	0,122	0,094
-646,999	-109,533	0,137	-0,021
-645,984	-200,000	-0,019	-0,143
-644,970	112,800	0,085	-0,074
-643,955	117,850	0,165	-0,146
-642,941	-200,000	0,007	-0,155
-641,926	800,000	0,050	0,141
-640,911	-200,000	0,016	0,104
-639,897	-200,000	0,014	-0,108
-638,882	-200,000	-0,014	0,160
-637,868	130,537	0,026	-0,024
-636,853	800,000	-0,035	-0,072
-635,838	66,067	-0,057	0,041
-634,824	-39,813	0,206	0,077
-633,809	271,362	0,047	0,060
-632,795	149,901	-0,035	0,034
-631,780	485,448	0,012	-0,019
-630,765	-200,000	0,020	-0,066
-629,751	81,696	-0,032	0,025
-628,736	305,226	-0,020	0,027
-627,722	-102,226	-0,071	-0,012
-626,707	-8,257	0,172	0,083
-625,692	-27,478	-0,074	0,031
-624,678	-133,611	0,029	0,003
-623,663	326,153	0,050	-0,069
-622,649	800,000	0,032	-0,095
-621,634	-61,497	-0,046	-0,014
-620,619	-26,717	-0,077	0,032
-619,605	800,000	0,024	0,062
-618,590	88,384	0,045	0,036
-617,576	-8,421	-0,073	-0,035
-616,561	-48,589	-0,151	0,052
-615,546	-115,060	-0,185	-0,025
-614,532	163,552	-0,060	-0,060
-613,517	-200,000	0,005	-0,137
-612,503	-26,088	0,118	-0,050
-611,488	-149,156	-0,017	-0,001
-610,474	6,781	0,049	0,026
-609,459	800,000	-0,011	0,032
-608,444	-200,000	0,029	0,130
-607,430	-200,000	-0,018	-0,106
-606,415	800,000	-0,038	-0,077
-605,401	-200,000	0,004	-0,126
-604,386	91,643	-0,141	-0,114
-603,371	-26,969	0,071	0,030
-602,357	85,459	-0,078	0,062
-601,342	-1,751	-0,031	0,016
-600,328	-18,223	-0,056	-0,025
-599,313	120,198	0,040	0,036
-598,298	-77,302	-0,064	0,016
-597,284	-121,265	0,174	-0,021
-596,269	439,546	-0,024	-0,037
-595,255	-111,121	-0,145	-0,021
-594,240	-200,000	-0,010	0,040
-593,225	146,343	-0,043	-0,042
-592,211	116,245	-0,072	-0,064
-591,196	255,519	0,018	0,023
-590,182	800,000	-0,006	0,013
-589,167	-200,000	0,005	0,096
-588,152	-200,000	-0,035	0,123
-587,138	-200,000	-0,008	-0,087
-586,123	-200,000	-0,007	0,104
-585,109	-26,028	0,060	0,025
-584,094	-200,000	-0,052	-0,189
-583,079	800,000	-0,029	-0,067
-582,065	-46,635	-0,180	-0,063
-581,050	293,775	-0,049	0,065
-580,036	-82,159	-0,150	0,035
-579,021	-63,561	-0,030	-0,009
-578,006	-171,595	0,067	0,002
-576,992	-54,995	-0,073	-0,023
-575,977	90,384	-0,090	0,072
-574,963	69,101	-0,062	0,046
-573,948	-200,000	0,019	-0,065
-572,934	614,786	0,042	0,076
-571,919	-77,407	-0,087	-0,022
-570,904	-95,811	0,036	-0,007
-569,890	-200,000	0,044	-0,192
-568,875	35,588	-0,124	0,078
-567,861	88,207	0,119	0,095
-566,846	800,000	0,002	-0,004
-565,831	800,000	0,013	0,031
-564,817	-200,000	0,029	-0,093
-563,802	190,294	-0,122	-0,132
-562,788	800,000	-0,031	-0,082
-561,773	419,409	-0,005	0,008
-560,758	-180,711	-0,067	-0,001
-559,744	-200,000	-0,017	-0,076
-558,729	799,968	-0,019	0,037
-557,715	152,599	0,113	-0,111
-556,700	-200,000	0,004	-0,091
-555,685	-200,000	-0,010	0,038
-554,671	61,046	0,070	-0,050
-553,656	10,340	0,046	-0,025
-552,642	-200,000	0,010	-0,075
-551,627	92,336	0,076	-0,062
-550,612	-200,000	-0,030	-0,152
-549,598	-20,772	-0,137	0,060
-548,583	800,000	0,032	-0,086
-547,569	-200,000	-0,009	0,128
-546,554	-200,000	0,003	-0,037
-545,539	222,079	0,027	-0,032
-544,525	-200,000	-0,016	-0,106
-543,510	-111,682	0,011	-0,002
-542,496	-152,857	-0,121	0,006
-541,481	-151,542	-0,135	-0,007
-540,466	51,235	0,080	0,054
-539,452	-9,511	0,080	0,038
-538,437	800,000	0,034	0,101
-537,423	310,813	-0,030	0,041
-536,408	85,414	0,120	0,095
-535,393	399,207	0,038	0,057
-534,379	764,191	0,048	-0,095
-533,364	-200,000	0,010	-0,183
-532,350	-138,264	0,112	-0,009
-531,335	-128,903	0,114	0,011
-530,321	-200,000	0,010	0,087
-529,306	-200,000	0,006	0,019
-528,291	-41,240	-0,094	0,034
-527,277	-79,331	0,157	-0,038
-526,262	-37,921	0,062	0,024
-525,248	-200,000	0,019	-0,107
-524,233	-200,000	-0,009	0,050
-523,218	136,865	-0,070	0,066
-522,204	337,873	0,115	-0,161
-521,189	-200,000	-0,016	-0,074
-520,175	155,243	0,084	-0,083
-519,160	800,000	0,054	0,141
-518,145	-200,000	-0,015	0,102
-517,131	-51,411	-0,106	-0,035
-516,116	800,000	0,050	0,144
-515,102	-200,000	-0,035	0,150
-514,087	101,570	0,024	0,020
-513,072	-20,472	-0,168	-0,074
-512,058	800,000	-0,015	-0,039
-511,043	85,771	-0,054	0,043
-510,029	800,000	-0,013	-0,035
-509,014	261,089	-0,089	0,110
-507,999	-69,803	-0,050	0,014
-506,985	159,799	0,024	-0,024
-505,970	43,539	-0,058	0,038
-504,956	800,000	0,006	-0,017
-503,941	-200,000	0,007	0,114
-502,926	-49,285	-0,108	0,037
-501,912	-200,000	0,004	0,046
-500,897	13,336	0,043	0,024
-499,883	-200,000	0,018	-0,134
-498,868	32,479	-0,065	0,040
-497,853	-3,198	0,069	-0,034
-496,839	0,249	-0,104	0,053
-495,824	-200,000	-0,010	-0,050
-494,810	180,643	0,118	-0,124
-493,795	51,432	0,008	-0,005
-492,781	262,533	-0,033	0,041
-491,766	203,386	-0,080	-0,089
-490,751	626,012	0,023	0,042
-489,737	-173,679	0,124	0,003
-488,722	-200,000	0,008	-0,056
-487,708	0,674	0,096	0,049
-486,693	-16,061	0,084	0,038
-485,678	9,766	-0,137	-0,074
-484,664	-200,000	0,008	0,047
-483,649	27,599	-0,057	0,034
-482,635	37,398	-0,057	0,036
-481,620	-112,894	0,119	-0,017
-480,605	147,953	0,095	0,092
-479,591	108,245	0,054	0,046
-478,576	-200,000	-0,006	-0,161
-477,562	-200,000	-0,010	-0,038
-476,547	-113,041	0,050	-0,007
-475,532	89,570	-0,086	-0,068
-474,518	109,866	0,053	0,046
-473,503	782,941	-0,013	-0,025
-472,489	-91,831	0,082	0,016
-471,474	21,751	-0,214	-0,125
-470,459	259,942	0,073	-0,090
-469,445	800,000	-0,034	-0,097
-468,430	333,957	0,061	-0,084
-467,416	88,564	0,047	0,037
-466,401	48,171	-0,130	-0,087
-465,386	800,000	0,030	0,084
-464,372	-154,767	-0,145	-0,007
-463,357	152,455	-0,097	0,095
-462,343	-106,322	0,121	-0,019
-461,328	800,000	-0,018	-0,045
-460,313	-200,000	-0,012	-0,082
-459,299	-74,375	0,149	-0,038
-458,284	800,000	0,048	0,111
-457,270	11,372	0,104	0,057
-456,255	224,420	-0,037	-0,043
-455,241	-53,142	0,060	0,020
-454,226	-121,292	0,017	-0,002
-453,211	723,111	-0,046	0,088
-452,197	486,083	0,016	0,026
-451,182	-128,356	0,179	0,018
-450,168	800,000	0,053	0,145
-449,153	800,000	0,031	0,075
-448,138	181,346	-0,098	-0,103
-447,124	-200,000	-0,010	0,088
-446,109	800,000	-0,037	-0,096
-445,095	-86,282	0,053	0,012
-444,080	-89,501	-0,032	-0,007
-443,065	-200,000	0,004	0,135
-442,051	-200,000	0,035	0,143
-441,036	-65,633	-0,091	-0,026
-440,022	-56,763	0,008	-0,002
-439,007	-38,459	0,049	0,019
-437,992	-200,000	0,015	0,075
-436,978	-58,060	0,126	0,039
-435,963	-61,264	0,057	-0,017
-434,949	-200,000	-0,009	-0,173
-433,934	67,354	-0,044	-0,032
-432,919	-141,128	-0,146	0,010
-431,905	-200,000	0,024	0,138
-430,890	44,838	0,102	0,067
-429,876	144,831	0,037	-0,036
-428,861	222,889	0,061	0,070
-427,846	-200,000	0,008	-0,146
-426,832	-8,263	-0,049	-0,023
-425,817	87,466	-0,034	-0,027
-424,803	635,908	0,036	-0,066
-423,788	92,089	0,080	-0,064
-422,773	719,298	0,059	0,113
-421,759	16,140	-0,139	0,078
-420,744	549,556	-0,012	-0,021
-419,730	-86,465	-0,121	-0,026
-418,715	800,000	0,049	-0,134
-417,701	1,921	-0,138	-0,071
-416,686	-94,201	0,199	-0,039
-415,671	800,000	0,003	-0,009
-414,657	33,591	0,058	0,036
-413,642	77,207	-0,108	-0,082
-412,628	411,470	-0,082	0,124
-411,613	649,363	0,073	-0,133
-410,598	-200,000	0,012	-0,055
-409,584	103,411	0,103	-0,086
-408,569	603,590	0,053	0,095
-407,555	-200,000	-0,045	0,203
-406,540	-41,356	0,113	-0,042
-405,525	86,331	0,084	0,066
-404,511	-109,995	-0,118	0,018
-403,496	-24,407	0,086	-0,037
-402,482	186,311	-0,085	-0,090
-401,467	-0,320	0,030	-0,015
-400,452	109,909	-0,036	-0,031
-399,438	346,783	0,081	-0,115
-398,423	-200,000	-0,015	0,059
-397,409	-200,000	-0,013	-0,065
-396,394	38,390	-0,045	-0,029
-395,379	-75,421	-0,148	-0,037
-394,365	-154,606	0,099	0,005
-393,350	-200,000	-0,018	-0,095
-392,336	-200,000	0,003	0,078
-391,321	-200,000	-0,059	-0,282
-390,306	108,942	0,024	-0,021
-389,292	-134,576	0,066	-0,006
-388,277	800,000	-0,021	-0,066
-387,263	-200,000	0,013	-0,107
-386,248	-200,000	-0,015	0,149
-385,233	6,487	0,064	0,034
-384,219	-112,174	-0,106	-0,015
-383,204	-26,619	-0,040	-0,017
-382,190	48,692	-0,092	-0,062
-381,175	-200,000	-0,001	0,104
-380,160	251,482	-0,057	0,070
-379,146	800,000	0,013	0,039
-378,131	-200,000	-0,027	0,090
-377,117	-79,787	0,153	0,036
-376,102	441,806	0,084	-0,132
-375,088	800,000	0,044	-0,102
-374,073	-100,626	-0,063	0,011
-373,058	-69,161	-0,072	0,020
-372,044	584,330	0,036	-0,063
-371,029	-117,033	-0,019	-0,002
-370,015	-2,375	-0,079	0,039
-369,000	-72,201	-0,043	0,011
-367,985	74,272	0,101	-0,075
-366,971	-200,000	0,011	0,250
-365,956	32,841	0,068	0,042
-364,942	-161,757	0,074	-0,003
-363,927	-175,878	0,105	0,002
-362,912	800,000	-0,016	0,047
-361,898	-53,537	-0,103	-0,033
-360,883	135,094	0,061	-0,057
-359,869	55,351	-0,050	-0,035
-358,854	9,699	-0,030	0,016
-357,839	436,401	0,035	0,055
-356,825	119,053	-0,029	0,026
-355,810	-200,000	0,000	-0,024
-354,796	160,512	-0,030	-0,030
-353,781	46,828	-0,068	-0,045
-352,766	127,085	0,045	-0,041
-351,752	195,535	0,018	-0,019
-350,737	-116,875	0,095	0,012
-349,723	-13,372	0,157	0,072
-348,708	800,000	-0,070	0,200
-347,693	-200,000	0,018	0,064
-346,679	-200,000	0,002	-0,032
-345,664	-200,000	-0,002	-0,182
-344,650	501,659	-0,040	0,066
-343,635	213,919	-0,046	-0,052
-342,620	-200,000	-0,002	0,068
-341,606	-200,000	0,024	0,132
-340,591	489,070	0,045	-0,074
-339,577	-88,870	-0,097	-0,020
-338,562	-1,729	-0,082	-0,041
-337,548	98,725	0,097	-0,079
-336,533	244,785	0,038	-0,045
-335,518	187,037	-0,056	-0,059
-334,504	517,521	0,038	0,063
-333,489	98,331	0,051	0,041
-332,475	5,509	-0,082	0,043
-331,460	800,000	-0,014	0,030
-330,445	-0,468	-0,105	0,053
-329,431	-200,000	0,024	0,106
-328,416	-52,905	0,140	0,046
-327,402	-19,261	-0,097	0,043
-326,387	800,000	-0,038	-0,083
-325,372	-92,684	-0,076	-0,015
-324,358	-200,000	-0,021	-0,100
-323,343	216,483	-0,079	0,089
-322,329	124,363	0,110	-0,099
-321,314	-28,832	0,028	-0,011
-320,299	800,000	-0,027	0,063
-319,285	-200,000	0,019	-0,086
-318,270	-10,114	-0,107	-0,050
-317,256	-95,137	0,035	-0,007
-316,241	800,000	-0,034	-0,074
-315,226	31,919	-0,036	0,022
-314,212	-200,000	0,053	0,219
-313,197	-200,000	-0,014	0,091
-312,183	-102,259	-0,150	0,025
-311,168	-121,526	-0,109	-0,013
-310,153	199,718	-0,054	-0,059
-309,139	800,000	-0,034	-0,077
-308,124	-133,881	0,163	0,014
-307,110	-191,852	0,094	-0,001
-306,095	28,750	-0,051	-0,031
-305,080	-200,000	-0,000	0,076
-304,066	-18,895	-0,148	0,065
-303,051	800,000	-0,013	-0,039
-302,037	-156,848	0,042	0,002
-301,022	68,105	-0,026	-0,019
-300,008	356,407	0,016	0,023
-298,993	-166,074	0,102	0,003
-297,978	241,473	0,057	-0,068
-296,964	107,381	-0,072	0,061
-295,949	161,500	0,028	0,028
-294,935	73,112	0,032	-0,024
-293,920	17,498	0,057	-0,032
-292,905	-200,000	0,015	-0,098
-291,891	1,949	-0,021	0,011
-290,876	81,930	0,162	0,124
-289,862	366,697	0,037	-0,053
-288,847	697,363	-0,063	0,118
-287,832	287,680	-0,052	0,067
-286,818	800,000	0,058	0,149
-285,803	272,006	0,083	0,105
-284,789	170,434	-0,010	-0,010
-283,774	130,979	0,056	0,051
-282,759	800,000	-0,015	-0,042
-281,745	23,101	0,049	-0,028
-280,730	-94,178	0,067	0,013
-279,716	-31,372	-0,101	-0,040
-278,701	338,940	0,101	0,140
-277,686	-200,000	0,002	0,044
-276,672	96,322	0,054	0,044
-275,657	101,147	0,033	0,027
-274,643	-31,825	-0,018	0,007
-273,628	286,828	-0,061	-0,078
-272,613	-3,183	0,070	0,035
-271,599	329,961	0,125	-0,171
-270,584	-200,000	0,025	-0,102
-269,570	39,144	0,134	-0,085
-268,555	-200,000	-0,010	-0,135
-267,540	-200,000	-0,005	0,046
-266,526	50,404	-0,111	0,074
-265,511	-200,000	0,006	0,049
-264,497	145,866	-0,044	0,042
-263,482	-61,499	0,022	-0,006
-262,467	-129,163	0,062	-0,006
-261,453	-105,891	0,080	-0,013
-260,438	315,542	-0,075	0,101
-259,424	133,318	-0,047	0,043
-258,409	7,592	0,076	0,040
-257,395	39,505	-0,069	-0,044
-256,380	-79,049	0,059	0,014
-255,365	376,992	-0,093	0,136
-254,351	800,000	-0,025	0,051
-253,336	-56,016	-0,095	0,030
-252,322	-1,270	-0,033	0,016
-251,307	800,000	-0,036	0,074
-250,292	97,564	0,126	0,103
-249,278	26,175	0,143	0,085
-248,263	-200,000	0,025	0,096
-247,249	800,000	0,034	-0,098
-246,234	-200,000	-0,010	-0,147
-245,219	375,775	-0,094	-0,136
-244,205	-163,067	-0,119	0,004
-243,190	-200,000	0,001	0,109
-242,176	396,979	0,019	-0,028
-241,161	-200,000	0,016	0,081
-240,146	-200,000	0,005	-0,105
-239,132	800,000	-0,041	0,111
-238,117	-200,000	0,014	0,069
-237,103	-154,503	-0,170	0,008
-236,088	304,746	-0,015	0,020
-235,073	74,095	-0,067	-0,050
-234,059	800,000	0,030	0,081
-233,044	-200,000	-0,011	0,039
-232,030	93,285	-0,052	-0,042
-231,015	-168,483	0,116	0,003
-230,000	175,002	-0,074	-0,076
-228,986	-27,956	0,169	-0,069
-227,971	64,344	0,059	-0,042
-226,957	800,000	0,057	0,119
-225,942	162,209	-0,121	0,121
-224,927	-119,761	0,201	0,024
-223,913	243,380	-0,038	-0,045
-222,898	-140,734	-0,040	-0,003
-221,884	56,466	0,023	0,016
-220,869	25,798	0,085	-0,050
-219,855	118,864	0,070	0,061
-218,840	-8,483	-0,045	-0,021
-217,825	-200,000	-0,011	0,205
-216,811	800,000	-0,009	-0,021
-215,796	77,991	-0,048	-0,036
-214,782	125,273	0,152	0,136
-213,767	-200,000	-0,015	-0,142
-212,752	-200,000	0,018	0,075
-211,738	-61,060	0,051	-0,015
-210,723	-200,000	-0,000	-0,067
-209,709	-49,662	-0,078	-0,026
-208,694	98,362	0,116	-0,094
-207,679	800,000	0,024	0,060
-206,665	6,005	0,042	-0,022
-205,650	-119,862	0,072	-0,009
-204,636	443,886	0,055	0,086
-203,621	625,690	-0,110	0,198
-202,606	-200,000	-0,022	-0,083
-201,592	-172,143	-0,237	0,005
-200,577	559,574	-0,039	-0,067
-199,563	800,000	-0,031	0,063
-198,548	21,412	0,067	0,038
-197,533	-104,875	0,119	-0,019
-196,519	-101,276	-0,096	0,016
-195,504	800,000	-0,064	-0,127
-194,490	494,765	-0,071	0,116
-193,475	126,374	-0,056	0,050
-192,460	-85,731	0,075	-0,016
-191,446	68,441	0,047	0,034
-190,431	-101,826	0,037	-0,006
-189,417	754,911	0,071	-0,136
-188,402	266,956	0,017	0,021
-187,387	73,192	-0,138	-0,102
-186,373	800,000	0,101	-0,251
-185,358	-147,361	-0,108	0,006
-184,344	800,000	-0,026	-0,071
-183,329	-176,062	0,201	0,004
-182,315	-88,111	0,042	-0,009
-181,300	-106,047	-0,255	-0,040
-180,285	16,114	0,049	0,027
-179,271	55,862	0,063	-0,043
-178,256	-98,940	-0,073	0,013
-177,242	-200,000	0,003	0,198
-176,227	441,600	0,087	0,136
-175,212	119,535	0,081	-0,071
-174,198	133,407	-0,121	0,111
-173,183	252,084	-0,049	-0,059
-172,169	35,064	-0,138	-0,085
-171,154	81,349	0,058	-0,045
-170,139	325,947	-0,012	0,016
-169,125	44,913	0,098	-0,064
-168,110	175,574	0,066	0,068
-167,096	2,764	-0,099	0,051
-166,081	-91,281	0,047	-0,009
-165,066	-68,374	-0,273	-0,075
-164,052	176,898	-0,035	0,036
-163,037	97,040	-0,083	-0,067
-162,023	-79,573	0,060	-0,014
-161,008	127,294	0,091	0,082
-159,993	-200,000	-0,125	0,000
-158,979	800,000	-0,024	0,048
-157,964	209,634	-0,012	0,013
-156,950	-200,000	-0,018	-0,061
-155,935	128,163	-0,113	0,102
-154,920	232,761	-0,052	-0,061
-153,906	800,000	0,035	0,075
-152,891	119,958	-0,016	0,014
-151,877	286,844	0,108	0,138
-150,862	261,998	-0,062	-0,076
-149,847	-113,770	0,061	-0,008
-148,833	800,000	0,028	-0,056
-147,818	-200,000	-0,028	0,088
-146,804	-200,000	-0,017	0,059
-145,789	-114,466	0,073	0,010
-144,775	158,003	-0,127	0,125
-143,760	-200,000	0,008	-0,038
-142,745	-93,516	-0,124	-0,024
-141,731	-12,503	0,130	0,060
-140,716	224,215	0,044	0,051
-139,702	-200,000	0,010	-0,041
-138,687	70,494	0,073	0,053
-137,672	-200,000	0,004	0,085
-136,658	-78,814	-0,145	-0,035
-135,643	317,897	-0,014	0,019
-134,629	2,339	-0,053	-0,027
-133,614	-200,000	-0,004	0,119
-132,599	-200,000	0,000	-0,043
-131,585	-88,561	-0,117	0,024
-130,570	800,000	-0,027	0,065
-129,556	-57,146	-0,101	0,031
-128,541	-200,000	-0,031	0,151
-127,526	53,993	-0,118	0,080
-126,512	308,126	0,044	0,059
-125,497	-26,556	0,158	-0,065
-124,483	-200,000	-0,031	0,111
-123,468	107,737	-0,042	-0,035
-122,453	-59,849	-0,101	-0,030
-121,439	-117,961	-0,035	-0,004
-120,424	-174,367	0,032	-0,001
-119,410	-106,733	0,111	0,017
