DTS Sentinel unit serial number:	SN410029Multiplexer serial number:	ORYXHardware model number:	OX2-SRSoftware version number:	ORYX F/W v4,00 Oryx Data Collector v3.7.2.0data status	okinstallation	B3 Nyhavnadifferential loss correction	single-endedforward channel	channel 1reverse channel	N/Adate	2023/11/28time	17:02:30forward acquisition time	300,00reverse acquisition time	0,00gamma	499,1914k internal	0,3213k external	0,3213temperature offset calibration	1,0000default loss term (dB/km)	0,3820temperature slope calibration	1,0000multiplexer offset coefficient	1,0000multiplexer slope coefficient	1,0000fibre end	0,00T internal ref (°C)	7,31T ext. ref 1 (°C)	-7,51T ext. ref 2 (°C)	-7,69length (m)	temperature (°C)	Stokes	anti-Stokes-744,400	719,900	-0,063	-0,123
-743,385	-200,000	-0,017	0,209
-742,371	800,000	-0,094	-0,220
-741,356	-200,000	0,011	0,192
-740,342	419,412	-0,125	-0,194
-739,327	-200,000	-0,055	0,293
-738,312	176,956	-0,149	-0,157
-737,298	113,668	-0,130	0,114
-736,283	709,674	-0,089	-0,171
-735,269	-200,000	0,003	0,382
-734,254	800,000	-0,163	-0,332
-733,239	-29,377	-0,260	0,107
-732,225	246,338	-0,150	-0,183
-731,210	7,705	0,208	0,113
-730,196	800,000	0,044	0,103
-729,181	-200,000	-0,008	-0,037
-728,167	189,023	0,147	-0,160
-727,152	99,098	-0,120	-0,100
-726,137	-16,200	-0,079	-0,036
-725,123	168,746	-0,107	-0,110
-724,108	-40,423	-0,162	0,060
-723,094	14,872	-0,035	-0,020
-722,079	94,657	-0,127	-0,104
-721,064	28,912	-0,062	-0,038
-720,050	-152,953	0,174	-0,009
-719,035	392,575	0,040	0,061
-718,021	120,076	-0,080	0,072
-717,006	378,076	-0,077	-0,114
-715,991	1,434	-0,157	-0,081
-714,977	-66,762	-0,107	0,031
-713,962	-200,000	0,008	-0,103
-712,948	-68,045	-0,099	0,028
-711,933	800,000	0,052	0,123
-710,918	368,944	0,032	-0,046
-709,904	-147,375	-0,055	-0,003
-708,889	800,000	-0,045	-0,093
-707,875	-148,752	-0,163	0,009
-706,860	-17,165	0,045	-0,021
-705,845	403,920	-0,040	0,061
-704,831	-200,000	0,002	0,129
-703,816	-64,786	0,079	0,023
-702,802	-200,000	-0,002	0,073
-701,787	-73,312	-0,053	0,014
-700,772	-200,000	-0,031	-0,205
-699,758	-149,918	-0,156	0,009
-698,743	-179,654	-0,088	-0,001
-697,729	51,736	0,099	-0,068
-696,714	56,439	-0,088	0,062
-695,699	249,012	-0,059	-0,073
-694,685	800,000	-0,022	-0,066
-693,670	349,054	-0,096	0,138
-692,656	800,000	-0,018	-0,037
-691,641	-193,896	0,088	-0,001
-690,627	800,000	0,059	0,120
-689,612	-116,601	-0,025	-0,003
-688,597	123,509	0,032	-0,029
-687,583	-29,766	-0,117	-0,048
-686,568	80,937	-0,082	-0,064
-685,554	526,091	-0,043	-0,074
-684,539	-89,647	-0,067	0,014
-683,524	-25,929	0,118	-0,050
-682,510	102,857	0,124	-0,105
-681,495	239,367	-0,012	-0,014
-680,481	46,916	-0,102	-0,068
-679,466	800,000	0,036	0,079
-678,451	-94,448	0,105	-0,020
-677,437	263,669	0,081	-0,102
-676,422	-200,000	0,006	0,129
-675,408	-200,000	-0,030	0,114
-674,393	569,971	-0,058	0,102
-673,378	-200,000	-0,014	0,076
-672,364	292,015	0,073	-0,097
-671,349	800,000	-0,103	-0,290
-670,335	800,000	0,054	-0,125
-669,320	800,000	0,030	-0,069
-668,305	100,361	-0,062	0,052
-667,291	-116,350	0,053	-0,007
-666,276	174,418	0,041	0,043
-665,262	-200,000	-0,014	-0,095
-664,247	-34,016	-0,096	-0,038
-663,232	-141,192	0,147	-0,011
-662,218	-200,000	0,032	0,104
-661,203	11,302	0,049	0,027
-660,189	102,570	0,095	0,080
-659,174	106,772	-0,085	-0,073
-658,159	-113,378	-0,117	0,016
-657,145	-24,538	-0,102	0,044
-656,130	-200,000	0,005	0,033
-655,116	659,682	0,023	-0,043
-654,101	-0,265	0,082	0,042
-653,086	752,203	0,042	0,083
-652,072	274,445	0,101	-0,129
-651,057	494,605	0,017	-0,028
-650,043	-150,294	0,050	0,003
-649,028	800,000	0,055	-0,119
-648,014	-112,697	0,065	-0,009
-646,999	-200,000	-0,003	0,044
-645,984	-200,000	-0,028	0,117
-644,970	-200,000	-0,010	-0,089
-643,955	27,936	0,033	-0,020
-642,941	129,399	0,118	0,109
-641,926	713,271	-0,043	0,082
-640,911	102,129	-0,039	0,033
-639,897	20,559	-0,034	0,020
-638,882	268,348	0,028	0,036
-637,868	-200,000	-0,002	-0,131
-636,853	-200,000	-0,000	-0,158
-635,838	-200,000	-0,174	0,000
-634,824	239,672	-0,090	-0,109
-633,809	-200,000	0,028	0,094
-632,795	175,496	0,019	0,019
-631,780	800,000	0,028	0,058
-630,765	17,895	0,082	-0,047
-629,751	800,000	-0,038	-0,112
-628,736	-200,000	-0,012	-0,115
-627,722	-8,045	-0,104	-0,050
-626,707	-7,854	0,071	-0,035
-625,692	-200,000	-0,021	0,072
-624,678	-113,967	-0,050	-0,007
-623,663	-50,896	-0,116	0,039
-622,649	-200,000	-0,003	-0,107
-621,634	800,000	-0,059	-0,135
-620,619	262,900	-0,062	-0,078
-619,605	800,000	0,059	0,147
-618,590	-37,519	-0,175	-0,067
-617,576	-92,790	-0,099	-0,020
-616,561	-52,186	-0,176	0,058
-615,546	-2,186	-0,063	-0,032
-614,532	340,988	-0,053	-0,075
-613,517	800,000	0,047	-0,100
-612,503	-131,352	-0,068	0,006
-611,488	165,550	0,099	0,101
-610,474	-15,022	-0,081	0,037
-609,459	-43,287	-0,143	-0,052
-608,444	204,277	-0,033	-0,037
-607,430	-155,732	0,080	-0,004
-606,415	516,958	0,040	-0,067
-605,401	-200,000	0,006	0,139
-604,386	-122,388	-0,090	-0,010
-603,371	18,620	-0,097	-0,056
-602,357	800,000	-0,053	0,116
-601,342	-107,877	-0,061	-0,009
-600,328	-64,424	-0,060	-0,017
-599,313	229,047	0,022	0,025
-598,298	-76,158	-0,048	-0,012
-597,284	-200,000	0,015	0,058
-596,269	400,373	0,055	-0,083
-595,255	-20,890	-0,010	0,004
-594,240	-13,598	-0,043	-0,020
-593,225	-200,000	-0,013	-0,055
-592,211	-154,548	-0,109	-0,005
-591,196	226,012	0,184	-0,215
-590,182	-51,211	0,043	0,014
-589,167	-200,000	0,051	0,194
-588,152	-200,000	-0,020	-0,091
-587,138	27,631	-0,036	-0,022
-586,123	30,593	0,089	-0,055
-585,109	13,216	-0,136	0,076
-584,094	759,359	0,034	-0,067
-583,079	227,007	0,111	-0,130
-582,065	-200,000	-0,006	0,019
-581,050	-156,374	0,053	-0,002
-580,036	105,609	0,149	-0,127
-579,021	147,252	-0,026	0,025
-578,006	72,684	-0,080	-0,060
-576,992	613,218	-0,040	-0,072
-575,977	214,642	-0,063	-0,072
-574,963	-41,472	0,103	0,038
-573,948	-200,000	-0,023	0,125
-572,934	9,905	-0,128	0,070
-571,919	-200,000	0,015	-0,050
-570,904	27,319	-0,045	-0,027
-569,890	800,000	0,035	-0,107
-568,875	-200,000	0,004	-0,060
-567,861	-120,544	0,077	-0,009
-566,846	-200,000	0,029	-0,095
-565,831	734,159	0,044	0,084
-564,817	800,000	0,045	0,112
-563,802	223,359	0,090	-0,104
-562,788	-200,000	-0,000	0,044
-561,773	261,241	-0,066	0,082
-560,758	-163,722	0,177	-0,006
-559,744	55,839	0,037	0,026
-558,729	-200,000	0,008	0,091
-557,715	318,449	0,045	-0,062
-556,700	-37,759	-0,069	-0,026
-555,685	613,184	-0,058	0,105
-554,671	-200,000	0,004	0,024
-553,656	-86,807	0,125	0,027
-552,642	-79,692	-0,071	-0,017
-551,627	97,007	0,063	0,052
-550,612	-33,627	-0,093	0,037
-549,598	-158,363	-0,036	-0,001
-548,583	0,833	0,096	-0,049
-547,569	97,192	0,013	-0,010
-546,554	800,000	0,021	0,064
-545,539	-200,000	0,007	0,086
-544,525	320,978	0,075	0,103
-543,510	80,513	0,097	-0,075
-542,496	-159,823	-0,160	-0,006
-541,481	-157,953	0,152	-0,006
-540,466	202,496	-0,026	-0,029
-539,452	800,000	0,032	0,075
-538,437	70,373	0,067	0,050
-537,423	-200,000	0,003	0,046
-536,408	161,457	0,058	-0,058
-535,393	-93,356	-0,158	0,031
-534,379	800,000	0,009	0,018
-533,364	-200,000	-0,004	-0,027
-532,350	58,127	-0,049	-0,035
-531,335	-110,982	0,088	-0,013
-530,321	564,021	0,073	0,127
-529,306	138,929	0,080	0,076
-528,291	-145,467	0,053	0,003
-527,277	-200,000	0,004	0,069
-526,262	800,000	0,071	-0,162
-525,248	800,000	0,055	0,137
-524,233	682,365	0,044	0,084
-523,218	16,442	-0,099	0,056
-522,204	800,000	0,044	0,130
-521,189	121,146	0,119	0,107
-520,175	-85,959	-0,136	0,030
-519,160	-122,223	-0,106	0,012
-518,145	-6,022	-0,045	0,022
-517,131	267,440	0,041	0,051
-516,116	432,008	-0,020	0,031
-515,102	28,328	-0,065	-0,039
-514,087	-200,000	0,031	-0,185
-513,072	-108,146	-0,163	0,025
-512,058	-200,000	-0,028	-0,126
-511,043	65,236	-0,012	0,008
-510,029	285,249	-0,058	-0,075
-509,014	204,583	0,071	0,079
-507,999	-200,000	-0,054	0,172
-506,985	392,564	-0,066	-0,099
-505,970	800,000	-0,039	-0,108
-504,956	-166,145	-0,091	0,003
-503,941	-200,000	-0,013	-0,112
-502,926	-100,513	-0,103	0,018
-501,912	-132,883	0,066	-0,006
-500,897	800,000	0,020	0,047
-499,883	-135,310	-0,168	-0,014
-498,868	-200,000	-0,009	0,027
-497,853	-200,000	-0,001	0,016
-496,839	29,074	0,103	-0,062
-495,824	-128,950	0,022	0,002
-494,810	-16,441	-0,072	-0,033
-493,795	-19,577	-0,029	0,013
-492,781	800,000	-0,039	0,095
-491,766	164,827	-0,102	0,104
-490,751	800,000	-0,028	0,057
-489,737	-21,508	0,035	-0,015
-488,722	70,010	0,045	0,033
-487,708	-9,923	0,071	0,034
-486,693	218,235	0,084	0,096
-485,678	650,732	-0,057	0,104
-484,664	-17,135	-0,098	-0,044
-483,649	-200,000	-0,001	-0,038
-482,635	-130,987	-0,040	-0,004
-481,620	-142,046	-0,027	0,002
-480,605	740,400	0,067	0,129
-479,591	461,543	-0,137	0,220
-478,576	-200,000	0,002	0,026
-477,562	-68,762	0,095	0,026
-476,547	-39,009	-0,157	-0,059
-475,532	-191,339	-0,084	-0,001
-474,518	-68,137	0,077	0,021
-473,503	-120,924	0,115	0,014
-472,489	-200,000	0,013	-0,142
-471,474	800,000	0,018	-0,054
-470,459	279,904	-0,067	-0,086
-469,445	-91,552	0,011	0,002
-468,430	-200,000	0,005	-0,174
-467,416	11,194	0,071	-0,039
-466,401	10,275	-0,034	0,018
-465,386	-41,837	0,053	-0,019
-464,372	-96,021	0,135	0,026
-463,357	-4,288	0,048	-0,024
-462,343	800,000	0,033	0,096
-461,328	389,483	-0,023	-0,035
-460,313	-200,000	-0,001	-0,049
-459,299	80,217	-0,044	0,034
-458,284	358,438	-0,048	0,068
-457,270	16,771	-0,204	-0,115
-456,255	800,000	-0,040	0,099
-455,241	19,054	0,083	-0,047
-454,226	5,170	-0,040	0,021
-453,211	800,000	0,005	0,016
-452,197	-78,162	-0,020	0,005
-451,182	-87,320	-0,048	-0,010
-450,168	441,629	-0,027	-0,042
-449,153	-157,796	0,037	0,002
-448,138	-200,000	0,002	-0,109
-447,124	169,912	-0,033	-0,034
-446,109	-108,199	-0,116	0,018
-445,095	-91,133	0,096	0,020
-444,080	-200,000	0,014	0,071
-443,065	-30,838	-0,050	0,020
-442,051	29,167	0,029	0,018
-441,036	538,530	0,039	-0,066
-440,022	771,984	-0,014	-0,027
-439,007	-111,672	-0,033	-0,005
-437,992	14,465	0,064	0,036
-436,978	-22,522	-0,039	-0,017
-435,963	60,052	-0,038	0,027
-434,949	401,012	0,033	-0,050
-433,934	-116,418	-0,046	0,006
-432,919	40,381	-0,072	-0,046
-431,905	-13,431	-0,035	0,016
-430,890	24,831	0,085	0,050
-429,876	-200,000	0,013	0,112
-428,861	378,521	0,015	-0,022
-427,846	-64,825	-0,134	-0,039
-426,832	59,240	0,062	0,044
-425,817	27,945	0,071	0,043
-424,803	540,316	-0,075	-0,128
-423,788	16,238	-0,011	0,006
-422,773	-200,000	0,020	0,111
-421,759	18,409	0,073	0,042
-420,744	93,601	-0,057	0,046
-419,730	-1,813	-0,105	0,053
-418,715	155,091	-0,052	0,051
-417,701	800,000	-0,020	-0,046
-416,686	-122,090	-0,031	0,004
-415,671	195,890	0,009	0,009
-414,657	317,558	0,045	-0,061
-413,642	-200,000	-0,009	-0,102
-412,628	-105,229	-0,176	0,028
-411,613	800,000	0,052	-0,128
-410,598	-200,000	0,032	-0,103
-409,584	58,973	0,052	-0,037
-408,569	32,986	0,098	-0,061
-407,555	83,555	-0,018	0,014
-406,540	87,043	0,059	0,046
-405,525	800,000	-0,086	-0,190
-404,511	800,000	0,067	-0,186
-403,496	-200,000	-0,015	0,086
-402,482	-75,314	0,118	-0,030
-401,467	-155,319	0,106	-0,005
-400,452	-200,000	-0,004	-0,057
-399,438	800,000	0,027	-0,086
-398,423	-200,000	-0,027	-0,127
-397,409	303,681	0,006	0,008
-396,394	-34,476	-0,095	0,037
-395,379	-23,336	0,084	0,036
-394,365	800,000	0,035	-0,100
-393,350	-15,228	0,115	-0,052
-392,336	232,372	-0,066	-0,077
-391,321	-200,000	0,025	-0,130
-390,306	683,184	-0,050	-0,094
-389,292	800,000	-0,021	0,059
-388,277	64,512	0,047	0,034
-387,263	-68,881	-0,135	0,037
-386,248	92,665	0,078	0,063
-385,233	-113,405	-0,027	0,004
-384,219	-200,000	0,008	0,212
-383,204	-54,219	-0,055	-0,018
-382,190	-158,526	-0,092	-0,004
-381,175	-157,577	0,023	-0,001
-380,160	-122,623	-0,100	-0,011
-379,146	-28,916	0,042	-0,017
-378,131	800,000	0,034	0,081
-377,117	563,710	-0,059	-0,103
-376,102	-33,950	0,133	0,052
-375,088	92,473	-0,083	-0,066
-374,073	-44,373	0,115	-0,041
-373,058	-200,000	0,008	-0,060
-372,044	800,000	0,054	0,130
-371,029	33,861	-0,017	-0,011
-370,015	62,022	0,148	-0,105
-369,000	800,000	-0,017	-0,053
-367,985	282,462	-0,031	0,040
-366,971	-169,851	0,119	-0,003
-365,956	-96,109	-0,006	0,001
-364,942	424,860	0,056	0,086
-363,927	695,037	0,057	-0,107
-362,912	707,380	-0,009	-0,017
-361,898	-200,000	0,002	0,014
-360,883	558,364	-0,096	0,166
-359,869	-172,135	0,089	-0,002
-358,854	-200,000	0,032	-0,113
-357,839	-128,511	0,151	0,015
-356,825	150,914	0,138	0,134
-355,810	-200,000	-0,016	0,132
-354,796	583,578	-0,068	-0,120
-353,781	-37,567	0,039	0,015
-352,766	9,165	0,031	0,016
-351,752	800,000	0,024	-0,069
-350,737	225,461	-0,043	0,050
-349,723	800,000	-0,028	-0,073
-348,708	135,400	0,105	0,098
-347,693	110,859	-0,038	0,033
-346,679	398,792	-0,112	-0,167
-345,664	323,116	0,025	-0,034
-344,650	571,223	-0,022	-0,038
-343,635	236,674	0,049	-0,058
-342,620	-40,725	0,106	0,039
-341,606	-200,000	-0,063	0,234
-340,591	133,009	0,081	0,075
-339,577	-4,379	-0,075	-0,037
-338,562	-24,214	-0,113	-0,048
-337,548	800,000	0,045	0,123
-336,533	162,178	0,033	0,034
-335,518	-200,000	-0,017	0,055
-334,504	800,000	0,044	0,094
-333,489	-46,631	-0,037	0,013
-332,475	-148,951	-0,042	0,002
-331,460	-200,000	0,024	0,090
-330,445	-200,000	0,002	0,119
-329,431	-200,000	-0,010	0,198
-328,416	-54,366	0,004	0,001
-327,402	800,000	0,045	-0,098
-326,387	104,561	-0,036	-0,031
-325,372	616,369	0,055	0,099
-324,358	-118,325	-0,085	-0,011
-323,343	85,009	0,104	0,081
-322,329	61,132	-0,069	-0,048
-321,314	101,740	0,128	0,107
-320,299	-200,000	0,001	0,074
-319,285	-100,147	-0,120	0,021
-318,270	800,000	-0,023	-0,052
-317,256	43,704	-0,141	-0,092
-316,241	798,516	0,034	0,068
-315,226	456,660	0,053	0,085
-314,212	12,599	-0,059	-0,032
-313,197	84,039	0,072	0,056
-312,183	-107,328	-0,090	-0,014
-311,168	-200,000	-0,007	-0,039
-310,153	49,727	-0,097	-0,065
-309,139	740,027	-0,093	-0,178
-308,124	800,000	-0,066	0,199
-307,110	-200,000	-0,004	0,112
-306,095	-26,387	0,103	0,043
-305,080	-200,000	-0,002	0,156
-304,066	331,661	-0,073	0,101
-303,051	140,839	0,025	-0,024
-302,037	-200,000	0,003	0,027
-301,022	400,938	0,044	-0,067
-300,008	-200,000	0,027	0,105
-298,993	337,187	0,066	0,092
-297,978	768,862	0,031	0,060
-296,964	11,912	-0,020	0,011
-295,949	45,590	-0,137	-0,090
-294,935	-57,941	-0,067	0,021
-293,920	-200,000	-0,001	0,026
-292,905	-58,642	-0,109	0,033
-291,891	-200,000	0,016	0,104
-290,876	107,871	0,040	0,034
-289,862	-132,523	-0,072	0,007
-288,847	-32,919	0,049	-0,019
-287,832	10,104	-0,024	0,013
-286,818	800,000	-0,043	-0,127
-285,803	-200,000	-0,003	-0,039
-284,789	25,227	0,120	0,071
-283,774	52,086	0,073	-0,049
-282,759	80,390	0,129	0,099
-281,745	646,048	-0,036	-0,065
-280,730	-31,010	-0,125	-0,050
-279,716	800,000	-0,033	-0,099
-278,701	-25,364	0,039	0,016
-277,686	140,322	-0,055	0,051
-276,672	-200,000	-0,030	0,221
-275,657	-200,000	-0,011	0,053
-274,643	2,653	-0,193	-0,099
-273,628	800,000	0,035	-0,096
-272,613	-179,468	-0,089	-0,001
-271,599	-200,000	0,000	0,058
-270,584	-194,293	0,106	-0,001
-269,570	-200,000	-0,017	0,064
-268,555	-200,000	-0,018	0,116
-267,540	-91,877	0,039	0,008
-266,526	800,000	-0,054	-0,130
-265,511	-187,263	-0,101	-0,001
-264,497	800,000	-0,022	0,060
-263,482	-13,216	0,069	0,032
-262,467	-200,000	-0,000	0,066
-261,453	-200,000	0,028	0,113
-260,438	421,041	0,019	-0,029
-259,424	-148,796	-0,054	0,003
-258,409	-57,574	-0,112	0,035
-257,395	-125,392	0,121	0,013
-256,380	56,095	0,144	0,100
-255,365	86,753	0,021	0,016
-254,351	-57,964	0,049	0,015
-253,336	2,761	-0,145	0,074
-252,322	800,000	0,040	-0,108
-251,307	800,000	-0,064	0,160
-250,292	-89,377	-0,068	-0,014
-249,278	-84,485	0,086	-0,019
-248,263	-200,000	-0,023	0,088
-247,249	800,000	0,027	-0,065
-246,234	-200,000	0,013	-0,089
-245,219	-200,000	0,027	-0,088
-244,205	210,025	-0,029	-0,033
-243,190	396,815	0,049	-0,073
-242,176	-138,311	0,165	-0,013
-241,161	47,498	-0,034	0,022
-240,146	142,207	-0,035	-0,033
-239,132	205,234	0,012	-0,013
-238,117	800,000	0,008	0,019
-237,103	-200,000	0,017	-0,140
-236,088	-200,000	-0,043	-0,136
-235,073	-113,582	0,124	0,017
-234,059	87,391	0,070	0,055
-233,044	800,000	-0,040	0,102
-232,030	800,000	-0,065	-0,157
-231,015	261,960	0,083	-0,103
-230,000	-182,275	-0,180	-0,002
-228,986	800,000	-0,051	-0,105
-227,971	-200,000	0,001	0,082
-226,957	-200,000	-0,028	-0,099
-225,942	-42,775	-0,183	-0,066
-224,927	248,033	0,067	0,081
-223,913	116,993	-0,167	-0,146
-222,898	-200,000	-0,105	-0,000
-221,884	-74,304	0,133	0,034
-220,869	-200,000	0,010	-0,106
-219,855	119,138	0,035	-0,031
-218,840	800,000	0,022	-0,045
-217,825	-200,000	0,004	0,022
-216,811	800,000	-0,026	0,079
-215,796	493,764	-0,019	0,031
-214,782	-200,000	-0,007	0,061
-213,767	-26,339	-0,106	-0,044
-212,752	-63,128	0,146	-0,042
-211,738	163,396	-0,026	0,026
-210,723	229,783	-0,056	0,065
-209,709	800,000	-0,074	-0,152
-208,694	543,692	0,042	-0,072
-207,679	262,299	-0,074	-0,092
-206,665	321,142	0,050	-0,068
-205,650	229,404	0,037	0,042
-204,636	184,218	0,029	-0,030
-203,621	58,098	-0,034	-0,024
-202,606	-140,398	-0,136	-0,010
-201,592	341,958	0,046	0,064
-200,577	-200,000	0,037	-0,146
-199,563	800,000	-0,087	-0,194
-198,548	-200,000	-0,022	0,117
-197,533	81,070	0,170	0,130
-196,519	113,896	0,027	0,023
-195,504	-106,451	-0,159	0,025
-194,490	-111,594	-0,014	0,002
-193,475	-200,000	-0,010	-0,089
-192,460	46,441	0,063	0,041
-191,446	-200,000	-0,011	0,059
-190,431	800,000	0,029	0,077
-189,417	-100,196	0,108	0,019
-188,402	800,000	0,014	-0,033
-187,387	260,182	-0,051	-0,063
-186,373	1,117	0,116	0,059
-185,358	-123,258	0,073	-0,008
-184,344	47,157	0,021	0,014
-183,329	-73,129	0,060	-0,015
-182,315	-200,000	-0,027	0,114
-181,300	-200,000	-0,002	0,007
-180,285	800,000	0,054	-0,108
-179,271	800,000	-0,048	-0,149
-178,256	588,061	0,020	0,034
-177,242	-44,002	-0,051	-0,018
-176,227	70,399	0,082	0,060
-175,212	178,731	0,101	-0,105
-174,198	330,361	0,081	0,110
-173,183	-200,000	-0,003	-0,205
-172,169	-31,057	0,065	0,026
-171,154	285,223	0,075	-0,096
-170,139	800,000	-0,009	0,020
-169,125	-200,000	-0,021	0,138
-168,110	600,610	0,068	0,120
-167,096	109,348	0,074	-0,063
-166,081	-200,000	-0,012	-0,098
-165,066	800,000	-0,024	-0,048
-164,052	-164,423	0,115	-0,004
-163,037	-16,684	0,107	0,048
-162,023	-82,549	0,099	-0,023
-161,008	800,000	0,028	0,088
-159,993	349,863	0,046	-0,064
-158,979	289,007	0,016	-0,021
-157,964	644,123	0,061	-0,110
-156,950	24,292	0,175	0,102
-155,935	189,609	0,003	-0,003
-154,920	96,365	0,110	0,089
-153,906	521,332	0,062	0,104
-152,891	-200,000	0,036	-0,162
-151,877	-200,000	0,001	-0,081
-150,862	33,591	0,143	0,088
-149,847	188,832	-0,044	-0,047
-148,833	-137,561	0,104	0,008
-147,818	84,700	0,125	0,097
-146,804	697,861	0,075	0,140
-145,789	-200,000	-0,002	-0,099
-144,775	-200,000	0,005	-0,061
-143,760	-37,160	-0,062	-0,024
-142,745	-23,338	-0,056	0,024
-141,731	460,764	-0,069	-0,109
-140,716	33,805	0,036	-0,022
-139,702	272,239	0,158	0,198
-138,687	78,698	0,024	-0,018
-137,672	-200,000	-0,002	0,103
-136,658	-140,153	-0,138	0,010
-135,643	89,186	-0,123	-0,097
-134,629	31,523	-0,090	0,055
-133,614	242,128	0,108	0,128
-132,599	-96,156	-0,091	0,017
-131,585	-200,000	0,035	0,140
-130,570	169,732	-0,024	-0,025
-129,556	-121,533	0,026	0,003
-128,541	-121,928	-0,102	0,012
-127,526	-93,434	-0,051	0,010
-126,512	28,097	0,058	0,035
-125,497	131,710	0,137	-0,125
-124,483	-112,987	0,101	-0,014
-123,468	-200,000	0,025	-0,099
-122,453	-200,000	-0,007	-0,061
-121,439	-19,346	0,218	0,095
-120,424	782,192	-0,022	0,043
-119,410	-200,000	0,022	0,081
