DTS Sentinel unit serial number:	SN410029Multiplexer serial number:	ORYXHardware model number:	OX2-SRSoftware version number:	ORYX F/W v4,00 Oryx Data Collector v3.7.2.0data status	okinstallation	B3 Nyhavnadifferential loss correction	single-endedforward channel	channel 1reverse channel	N/Adate	2023/11/28time	13:57:30forward acquisition time	300,00reverse acquisition time	0,00gamma	499,1914k internal	0,3139k external	0,3139temperature offset calibration	1,0000default loss term (dB/km)	0,3820temperature slope calibration	1,0000multiplexer offset coefficient	1,0000multiplexer slope coefficient	1,0000fibre end	0,00T internal ref (°C)	7,63T ext. ref 1 (°C)	-7,75T ext. ref 2 (°C)	-7,89length (m)	temperature (°C)	Stokes	anti-Stokes-744,400	158,025	-0,217	-0,223
-743,385	800,000	-0,104	0,241
-742,371	281,152	-0,132	-0,175
-741,356	285,331	0,135	0,180
-740,342	322,682	-0,083	-0,118
-739,327	800,000	-0,082	0,184
-738,312	91,717	-0,205	-0,171
-737,298	-200,000	0,032	0,254
-736,283	685,893	-0,133	-0,259
-735,269	-200,000	0,051	0,372
-734,254	-44,631	-0,150	-0,055
-733,239	-55,598	-0,304	0,100
-732,225	412,049	-0,095	-0,151
-731,210	79,537	0,189	0,150
-730,196	328,728	0,075	0,107
-729,181	61,129	-0,091	0,067
-728,167	-200,000	-0,027	-0,123
-727,152	-98,408	-0,141	-0,027
-726,137	12,954	-0,119	0,068
-725,123	-82,422	0,116	0,028
-724,108	792,853	-0,051	-0,104
-723,094	711,982	-0,123	-0,242
-722,079	107,618	-0,099	-0,087
-721,064	548,324	-0,081	-0,144
-720,050	-37,882	0,088	0,034
-719,035	74,392	-0,124	-0,097
-718,021	800,000	-0,015	-0,036
-717,006	-104,810	-0,161	0,027
-715,991	192,731	-0,076	-0,085
-714,977	799,351	0,057	-0,118
-713,962	-87,018	-0,048	0,011
-712,948	84,000	0,040	-0,032
-711,933	75,986	0,058	0,045
-710,918	691,607	0,020	-0,039
-709,904	800,000	-0,044	-0,130
-708,889	-85,672	-0,136	-0,031
-707,875	-200,000	0,030	-0,100
-706,860	-126,913	-0,065	-0,007
-705,845	-200,000	-0,016	0,094
-704,831	-0,449	0,075	0,039
-703,816	-200,000	0,038	-0,188
-702,802	67,793	-0,066	-0,050
-701,787	-118,909	-0,114	0,015
-700,772	-200,000	-0,023	-0,122
-699,758	-12,692	-0,121	0,058
-698,743	800,000	0,004	-0,010
-697,729	290,797	-0,024	0,033
-696,714	800,000	0,046	0,114
-695,699	-149,012	-0,213	0,012
-694,685	800,000	-0,079	-0,185
-693,670	103,403	-0,077	-0,067
-692,656	-89,796	-0,163	0,035
-691,641	51,828	-0,060	0,042
-690,627	-16,088	0,098	0,046
-689,612	78,449	0,038	-0,030
-688,597	-200,000	-0,029	-0,101
-687,583	-93,286	0,068	-0,014
-686,568	81,287	-0,150	-0,120
-685,554	800,000	-0,012	-0,040
-684,539	184,295	0,041	-0,045
-683,524	-65,919	-0,168	0,049
-682,510	-32,843	0,007	-0,003
-681,495	800,000	-0,027	0,080
-680,481	299,404	-0,101	-0,138
-679,466	-200,000	0,015	-0,110
-678,451	800,000	0,023	-0,057
-677,437	557,175	0,043	-0,076
-676,422	-200,000	0,005	0,030
-675,408	-20,980	0,050	-0,023
-674,393	-88,218	-0,054	-0,012
-673,378	289,875	-0,027	-0,037
-672,364	-200,000	-0,032	-0,152
-671,349	-68,261	-0,143	-0,041
-670,335	306,331	-0,096	0,132
-669,320	800,000	0,028	0,070
-668,305	-200,000	0,004	-0,019
-667,291	596,122	-0,044	0,080
-666,276	-46,504	-0,074	-0,027
-665,262	-109,633	-0,083	-0,013
-664,247	-2,491	0,012	0,006
-663,232	787,838	-0,037	0,076
-662,218	43,980	0,111	0,075
-661,203	344,297	-0,096	0,140
-660,189	-200,000	0,003	-0,026
-659,174	7,014	-0,145	-0,080
-658,159	-31,598	0,010	0,004
-657,145	124,627	0,073	-0,068
-656,130	800,000	-0,027	-0,068
-655,116	800,000	-0,024	0,063
-654,101	800,000	-0,022	-0,061
-653,086	-54,572	0,068	0,023
-652,072	-151,848	-0,073	0,004
-651,057	69,006	-0,070	-0,053
-650,043	-200,000	0,003	0,077
-649,028	-48,956	0,058	-0,020
-648,014	179,159	0,065	0,071
-646,999	-77,700	-0,030	-0,008
-645,984	37,401	0,036	0,024
-644,970	-53,040	-0,029	-0,010
-643,955	-44,392	-0,166	-0,061
-642,941	800,000	-0,016	-0,042
-641,926	-25,888	-0,036	0,016
-640,911	-200,000	0,002	0,046
-639,897	-48,820	0,076	0,027
-638,882	-200,000	-0,009	0,036
-637,868	-200,000	0,002	0,104
-636,853	-54,991	-0,047	0,016
-635,838	-18,255	-0,174	-0,080
-634,824	-18,411	0,037	0,017
-633,809	800,000	0,039	0,085
-632,795	-97,542	-0,059	-0,011
-631,780	-50,756	-0,085	0,029
-630,765	-200,000	0,031	0,125
-629,751	-200,000	0,006	-0,094
-628,736	462,401	-0,051	-0,084
-627,722	-49,804	0,056	-0,020
-626,707	800,000	0,054	-0,144
-625,692	766,660	0,040	0,082
-624,678	-200,000	0,008	0,043
-623,663	217,897	-0,113	0,133
-622,649	170,490	-0,023	-0,024
-621,634	110,472	-0,014	-0,012
-620,619	800,000	0,034	-0,094
-619,605	147,450	0,083	-0,083
-618,590	344,886	0,092	0,134
-617,576	-135,243	-0,056	-0,005
-616,561	-127,298	0,068	-0,007
-615,546	13,938	0,053	0,030
-614,532	41,547	-0,042	0,028
-613,517	266,672	-0,051	-0,066
-612,503	6,503	-0,085	0,046
-611,488	168,712	0,008	-0,008
-610,474	-200,000	-0,008	0,064
-609,459	223,492	-0,040	0,048
-608,444	800,000	-0,032	-0,072
-607,430	800,000	0,034	-0,080
-606,415	678,820	0,070	-0,135
-605,401	-111,580	-0,034	-0,005
-604,386	-121,838	0,101	-0,012
-603,371	459,390	-0,048	0,079
-602,357	-75,904	0,093	0,024
-601,342	23,471	-0,046	0,028
-600,328	545,967	-0,097	-0,172
-599,313	-96,198	-0,086	0,017
-598,298	150,801	-0,034	0,034
-597,284	671,034	0,032	0,061
-596,269	57,828	0,059	-0,043
-595,255	800,000	-0,036	0,082
-594,240	-200,000	-0,009	0,039
-593,225	-170,309	-0,188	-0,005
-592,211	800,000	-0,045	-0,118
-591,196	29,524	0,130	-0,081
-590,182	800,000	0,007	-0,019
-589,167	38,823	0,035	-0,023
-588,152	42,864	0,096	0,064
-587,138	800,000	-0,011	-0,029
-586,123	-116,264	-0,247	-0,033
-585,109	-200,000	0,027	-0,175
-584,094	-200,000	-0,003	-0,045
-583,079	373,458	-0,049	0,074
-582,065	-44,836	0,018	0,007
-581,050	-84,899	-0,071	0,016
-580,036	18,715	-0,182	0,107
-579,021	-200,000	-0,016	0,136
-578,006	-70,691	-0,019	0,005
-576,992	-47,742	-0,077	0,027
-575,977	354,534	0,012	-0,017
-574,963	-51,024	0,063	0,022
-573,948	89,819	0,038	-0,031
-572,934	136,796	0,047	-0,045
-571,919	-94,295	0,042	0,008
-570,904	-200,000	0,012	-0,097
-569,890	596,552	-0,073	-0,133
-568,875	-55,612	0,058	-0,019
-567,861	-124,448	0,082	-0,009
-566,846	-200,000	0,003	-0,029
-565,831	-76,340	-0,128	-0,033
-564,817	472,877	-0,084	-0,141
-563,802	237,840	-0,112	-0,137
-562,788	-200,000	-0,015	-0,097
-561,773	-91,031	0,079	-0,016
-560,758	800,000	-0,016	-0,047
-559,744	-34,214	0,118	0,047
-558,729	581,566	0,017	-0,031
-557,715	29,156	-0,116	0,072
-556,700	735,807	-0,057	-0,114
-555,685	87,254	-0,120	-0,098
-554,671	800,000	-0,037	0,102
-553,656	800,000	0,009	-0,024
-552,642	-200,000	-0,018	0,098
-551,627	800,000	-0,041	0,128
-550,612	-68,187	-0,146	-0,041
-549,598	329,066	0,041	-0,058
-548,583	-200,000	-0,004	0,025
-547,569	800,000	-0,037	0,081
-546,554	343,304	0,035	0,051
-545,539	169,737	0,043	-0,045
-544,525	800,000	-0,017	0,047
-543,510	-50,546	0,059	-0,020
-542,496	-200,000	0,013	-0,060
-541,481	-116,913	-0,009	-0,001
-540,466	800,000	-0,020	-0,061
-539,452	-200,000	-0,012	0,084
-538,437	384,595	0,046	0,070
-537,423	55,319	0,167	0,118
-536,408	404,463	-0,014	0,022
-535,393	35,890	0,018	-0,012
-534,379	289,441	0,063	-0,084
-533,364	84,864	-0,045	-0,037
-532,350	52,452	0,068	0,048
-531,335	589,593	-0,067	0,122
-530,321	157,780	-0,088	0,090
-529,306	129,767	-0,084	0,079
-528,291	-11,401	-0,116	0,056
-527,277	-200,000	0,014	0,097
-526,262	800,000	-0,009	0,021
-525,248	-121,281	0,072	0,009
-524,233	-200,000	0,005	-0,037
-523,218	-65,416	0,119	-0,035
-522,204	448,565	-0,053	-0,086
-521,189	-200,000	-0,013	-0,068
-520,175	-200,000	0,035	-0,181
-519,160	-200,000	-0,026	0,122
-518,145	-20,856	-0,158	0,071
-517,131	-77,003	0,068	-0,017
-516,116	800,000	0,058	0,131
-515,102	103,481	0,064	0,055
-514,087	683,251	-0,084	-0,161
-513,072	-73,729	0,106	-0,028
-512,058	-200,000	-0,019	0,081
-511,043	-200,000	0,013	-0,061
-510,029	330,310	0,016	-0,022
-509,014	29,841	0,067	0,042
-507,999	-200,000	-0,020	0,101
-506,985	-200,000	-0,006	-0,091
-505,970	-200,000	0,004	-0,095
-504,956	-115,175	-0,101	-0,014
-503,941	107,720	0,074	-0,065
-502,926	800,000	0,041	-0,127
-501,912	31,798	0,067	0,042
-500,897	-131,216	0,070	0,007
-499,883	98,521	0,036	0,031
-498,868	-138,088	-0,108	-0,009
-497,853	-32,097	-0,044	-0,018
-496,839	-54,280	0,109	0,036
-495,824	-136,519	0,113	0,009
-494,810	-200,000	-0,046	0,163
-493,795	114,601	-0,050	0,045
-492,781	800,000	-0,026	-0,083
-491,766	144,906	-0,122	-0,119
-490,751	0,352	-0,010	0,005
-489,737	441,768	-0,055	-0,089
-488,722	-200,000	-0,013	-0,095
-487,708	198,218	0,078	0,087
-486,693	-200,000	0,002	-0,009
-485,678	800,000	0,048	-0,134
-484,664	-60,173	0,140	0,044
-483,649	198,895	0,037	-0,041
-482,635	-200,000	-0,049	-0,174
-481,620	-24,297	-0,121	0,053
-480,605	-200,000	0,027	-0,096
-479,591	758,822	0,024	-0,048
-478,576	800,000	-0,035	-0,093
-477,562	-88,029	-0,087	-0,019
-476,547	29,712	-0,154	-0,096
-475,532	-200,000	-0,023	-0,125
-474,518	-80,051	-0,047	-0,011
-473,503	800,000	0,031	-0,074
-472,489	362,658	0,048	-0,071
-471,474	800,000	0,069	0,173
-470,459	800,000	0,013	-0,035
-469,445	159,275	0,050	-0,051
-468,430	800,000	-0,034	-0,070
-467,416	762,775	0,042	0,083
-466,401	1,386	0,025	0,013
-465,386	-138,411	0,064	0,005
-464,372	800,000	0,039	-0,083
-463,357	-157,628	-0,033	-0,001
-462,343	-200,000	-0,016	0,113
-461,328	291,240	0,055	-0,073
-460,313	569,869	-0,042	-0,074
-459,299	35,306	0,099	0,064
-458,284	-200,000	0,000	-0,006
-457,270	-200,000	0,003	0,028
-456,255	356,748	-0,083	-0,121
-455,241	48,517	0,099	0,068
-454,226	-200,000	0,012	-0,075
-453,211	-200,000	-0,025	-0,102
-452,197	307,387	-0,061	0,084
-451,182	-200,000	-0,024	0,126
-450,168	-109,210	-0,099	0,015
-449,153	800,000	-0,038	0,090
-448,138	-146,937	0,092	-0,006
-447,124	768,063	-0,040	-0,081
-446,109	237,010	0,047	-0,057
-445,095	0,742	0,131	-0,068
-444,080	-200,000	0,008	0,100
-443,065	-200,000	0,015	0,051
-442,051	-200,000	-0,004	-0,034
-441,036	16,671	0,068	-0,040
-440,022	800,000	-0,030	-0,064
-439,007	66,890	-0,066	-0,049
-437,992	-200,000	-0,000	0,038
-436,978	-70,764	-0,071	-0,019
-435,963	-22,820	0,067	-0,029
-434,949	703,485	-0,035	-0,069
-433,934	740,573	-0,045	0,088
-432,919	-200,000	-0,018	0,170
-431,905	-200,000	-0,002	0,008
-430,890	-88,196	-0,035	-0,008
-429,876	-200,000	-0,014	0,118
-428,861	800,000	-0,046	0,144
-427,846	-200,000	-0,026	0,122
-426,832	-200,000	-0,010	0,052
-425,817	-51,612	-0,104	0,035
-424,803	-126,462	0,069	-0,007
-423,788	39,914	0,008	-0,006
-422,773	82,981	-0,026	0,021
-421,759	662,308	-0,043	0,082
-420,744	800,000	0,065	0,189
-419,730	35,461	-0,109	-0,070
-418,715	525,993	0,053	-0,091
-417,701	116,267	-0,043	0,039
-416,686	288,349	0,071	0,094
-415,671	207,829	0,067	0,077
-414,657	-13,864	-0,020	-0,009
-413,642	-9,141	-0,041	-0,020
-412,628	-101,505	-0,039	-0,007
-411,613	83,857	0,051	-0,041
-410,598	-200,000	-0,010	-0,087
-409,584	284,811	0,020	-0,026
-408,569	-183,159	0,078	-0,001
-407,555	-200,000	-0,062	0,000
-406,540	-169,091	0,161	0,004
-405,525	800,000	0,031	0,080
-404,511	-161,498	-0,088	-0,003
-403,496	-67,671	0,085	0,024
-402,482	-200,000	-0,003	0,050
-401,467	-200,000	0,019	0,070
-400,452	-200,000	-0,014	0,179
-399,438	-64,894	0,028	-0,008
-398,423	-200,000	-0,003	-0,105
-397,409	429,497	-0,037	0,059
-396,394	-106,857	0,079	0,013
-395,379	-200,000	0,003	0,062
-394,365	-45,627	0,105	-0,038
-393,350	-117,772	0,060	-0,008
-392,336	576,550	-0,037	0,067
-391,321	800,000	-0,060	0,150
-390,306	-200,000	0,026	-0,093
-389,292	84,422	-0,020	-0,016
-388,277	83,524	0,010	-0,008
-387,263	190,629	-0,071	-0,078
-386,248	-132,783	0,108	-0,010
-385,233	435,340	-0,018	0,029
-384,219	-28,594	-0,071	-0,030
-383,204	706,359	-0,040	-0,077
-382,190	-200,000	0,021	-0,139
-381,175	-200,000	-0,034	-0,152
-380,160	-28,271	-0,069	0,029
-379,146	-200,000	-0,017	-0,071
-378,131	101,870	0,056	0,048
-377,117	661,308	-0,040	-0,076
-376,102	-8,089	-0,057	-0,028
-375,088	800,000	0,064	-0,157
-374,073	-200,000	-0,009	-0,052
-373,058	-52,582	0,081	0,027
-372,044	378,870	-0,049	-0,073
-371,029	466,148	-0,086	0,142
-370,015	800,000	0,033	0,086
-369,000	39,981	0,029	0,019
-367,985	-85,215	-0,141	-0,032
-366,971	800,000	-0,045	-0,125
-365,956	77,082	0,018	0,014
-364,942	192,604	-0,053	0,058
-363,927	359,338	0,014	0,021
-362,912	-200,000	0,017	-0,117
-361,898	133,030	-0,113	-0,107
-360,883	643,998	0,054	-0,101
-359,869	711,904	0,057	0,110
-358,854	800,000	-0,052	0,159
-357,839	261,333	-0,148	0,188
-356,825	-49,304	0,123	-0,043
-355,810	-124,025	-0,149	0,017
-354,796	-200,000	-0,001	0,017
-353,781	-127,957	0,064	0,007
-352,766	-43,179	-0,093	-0,034
-351,752	287,529	0,037	-0,049
-350,737	800,000	-0,038	-0,092
-349,723	358,023	-0,077	0,112
-348,708	-158,506	0,035	0,001
-347,693	-60,758	-0,081	-0,025
-346,679	800,000	0,022	-0,049
-345,664	561,459	0,102	0,181
-344,650	451,080	-0,080	0,129
-343,635	-54,847	0,100	-0,033
-342,620	-1,209	-0,085	0,044
-341,606	800,000	0,019	0,054
-340,591	-200,000	-0,007	0,045
-339,577	-130,653	0,037	-0,004
-338,562	-31,181	-0,027	0,011
-337,548	231,243	-0,047	0,056
-336,533	-200,000	0,026	0,119
-335,518	-200,000	-0,009	-0,030
-334,504	-78,224	0,078	-0,020
-333,489	94,044	0,063	0,052
-332,475	800,000	0,036	-0,101
-331,460	800,000	0,024	0,054
-330,445	-103,963	0,081	0,014
-329,431	-194,445	0,074	0,000
-328,416	23,124	0,109	0,065
-327,402	-200,000	0,001	0,041
-326,387	-47,941	-0,175	-0,061
-325,372	-200,000	0,010	-0,107
-324,358	359,077	-0,111	0,162
-323,343	-88,024	0,190	0,041
-322,329	-169,344	0,039	0,001
-321,314	314,599	0,069	0,096
-320,299	-19,400	0,067	0,030
-319,285	767,723	-0,043	-0,086
-318,270	75,553	-0,100	-0,077
-317,256	81,929	-0,076	-0,060
-316,241	-200,000	-0,019	-0,070
-315,226	680,424	0,051	0,098
-314,212	-42,858	-0,055	0,020
-313,197	363,325	0,021	-0,030
-312,183	-114,364	0,066	0,009
-311,168	419,024	0,010	-0,016
-310,153	-200,000	-0,008	-0,117
-309,139	163,449	0,031	0,032
-308,124	730,405	0,058	-0,114
-307,110	193,736	0,089	0,098
-306,095	-65,805	0,086	-0,025
-305,080	713,893	-0,031	0,059
-304,066	12,776	-0,108	0,061
-303,051	25,357	-0,020	0,012
-302,037	360,830	-0,039	0,057
-301,022	105,817	0,046	-0,040
-300,008	51,788	0,151	-0,104
-298,993	518,727	-0,064	-0,110
-297,978	52,896	0,065	-0,046
-296,964	-200,000	0,004	0,025
-295,949	800,000	0,070	-0,144
-294,935	39,485	-0,095	-0,062
-293,920	-133,824	0,057	0,005
-292,905	-200,000	0,000	0,074
-291,891	-3,114	0,054	-0,027
-290,876	13,328	0,054	-0,030
-289,862	-200,000	-0,006	0,061
-288,847	800,000	-0,064	-0,171
-287,832	176,621	-0,058	-0,061
-286,818	-200,000	-0,022	-0,131
-285,803	-200,000	-0,007	-0,059
-284,789	-8,349	-0,139	0,068
-283,774	660,068	-0,062	0,116
-282,759	-200,000	-0,011	-0,038
-281,745	-102,425	0,046	0,008
-280,730	800,000	-0,041	-0,117
-279,716	800,000	-0,009	-0,023
-278,701	-72,954	0,073	0,019
-277,686	-143,368	0,014	-0,001
-276,672	-200,000	0,016	-0,067
-275,657	-200,000	-0,037	-0,129
-274,643	544,045	-0,017	0,029
-273,628	-187,861	-0,171	-0,002
-272,613	-4,940	0,015	-0,008
-271,599	-200,000	-0,013	0,179
-270,584	213,262	0,131	0,151
-269,570	-200,000	-0,013	0,091
-268,555	800,000	0,040	0,086
-267,540	-50,332	0,088	0,030
-266,526	800,000	-0,032	-0,083
-265,511	91,484	0,110	0,090
-264,497	332,179	0,035	-0,050
-263,482	294,701	0,055	0,074
-262,467	-61,843	0,108	-0,033
-261,453	462,144	0,094	0,154
-260,438	-174,671	-0,113	-0,002
-259,424	-70,005	-0,122	-0,034
-258,409	72,445	-0,112	-0,085
-257,395	222,469	0,074	0,087
-256,380	110,258	0,035	0,030
-255,365	567,646	0,043	0,076
-254,351	600,115	-0,044	-0,080
-253,336	344,725	-0,003	-0,004
-252,322	169,344	0,040	0,041
-251,307	800,000	-0,067	-0,171
-250,292	19,433	0,133	0,078
-249,278	95,899	0,032	0,027
-248,263	0,379	0,142	-0,074
-247,249	32,653	-0,063	0,039
-246,234	-200,000	0,008	0,044
-245,219	123,942	0,061	-0,056
-244,205	-200,000	0,003	0,059
-243,190	-111,880	0,105	0,015
-242,176	-200,000	0,021	0,159
-241,161	-200,000	-0,001	0,127
-240,146	84,268	0,017	-0,014
-239,132	-23,145	-0,038	-0,017
-238,117	-67,939	0,036	-0,010
-237,103	116,403	0,116	-0,104
-236,088	560,429	-0,016	-0,028
-235,073	-112,715	0,097	-0,014
-234,059	39,519	0,020	0,013
-233,044	32,357	0,089	0,056
-232,030	-78,504	0,016	-0,004
-231,015	-200,000	-0,006	-0,091
-230,000	-200,000	0,001	-0,193
-228,986	58,392	0,105	0,075
-227,971	0,003	0,085	0,044
-226,957	-175,111	0,129	-0,003
-225,942	-200,000	0,003	-0,049
-224,927	-3,738	-0,084	-0,042
-223,913	800,000	0,047	-0,141
-222,898	201,128	-0,133	-0,149
-221,884	57,139	-0,139	0,098
-220,869	800,000	0,011	0,026
-219,855	662,208	0,035	0,066
-218,840	117,343	0,094	0,084
-217,825	499,833	-0,059	0,099
-216,811	-104,999	-0,069	0,011
-215,796	-200,000	-0,001	-0,055
-214,782	800,000	-0,030	-0,074
-213,767	-90,817	0,109	0,023
-212,752	-83,108	0,132	0,031
-211,738	800,000	0,019	-0,048
-210,723	-200,000	-0,011	0,043
-209,709	800,000	-0,011	0,030
-208,694	748,269	0,026	0,051
-207,679	-200,000	0,004	-0,053
-206,665	-200,000	-0,009	0,069
-205,650	378,764	-0,009	0,013
-204,636	365,620	0,016	-0,024
-203,621	-98,456	0,033	-0,006
-202,606	-3,143	-0,049	0,025
-201,592	736,355	-0,028	-0,054
-200,577	474,289	0,020	-0,032
-199,563	308,507	0,030	0,041
-198,548	28,646	0,064	-0,039
-197,533	9,945	-0,065	0,036
-196,519	152,551	0,046	0,045
-195,504	-144,073	-0,108	0,007
-194,490	251,482	-0,153	0,190
-193,475	800,000	0,020	-0,043
-192,460	545,348	-0,039	0,069
-191,446	800,000	0,035	-0,099
-190,431	54,460	-0,132	-0,092
-189,417	-142,357	-0,020	0,001
-188,402	-136,158	-0,003	-0,000
-187,387	-200,000	0,023	-0,080
-186,373	6,711	-0,078	0,042
-185,358	-131,209	0,048	0,005
-184,344	173,636	0,069	0,072
-183,329	-8,546	0,085	0,041
-182,315	-200,000	0,019	0,197
-181,300	-200,000	0,022	-0,109
-180,285	-200,000	-0,002	-0,014
-179,271	473,959	-0,102	-0,168
-178,256	300,255	0,110	-0,148
-177,242	-200,000	-0,010	-0,126
-176,227	189,529	-0,067	0,073
-175,212	-163,992	-0,046	-0,002
-174,198	278,245	0,024	0,031
-173,183	6,458	-0,080	0,043
-172,169	-200,000	-0,029	-0,150
-171,154	2,303	-0,085	0,044
-170,139	107,114	0,040	0,034
-169,125	-200,000	0,107	0,000
-168,110	145,709	0,083	0,081
-167,096	-200,000	-0,003	0,138
-166,081	178,395	-0,114	-0,121
-165,066	-200,000	-0,002	-0,125
-164,052	-151,337	0,046	-0,002
-163,037	-200,000	0,024	0,102
-162,023	-200,000	-0,045	0,173
-161,008	71,314	0,067	0,050
-159,993	106,717	0,131	0,113
-158,979	7,385	0,029	0,016
-157,964	94,806	-0,131	-0,108
-156,950	-2,064	0,110	0,056
-155,935	16,821	-0,055	-0,032
-154,920	790,897	-0,021	0,041
-153,906	-200,000	-0,001	0,144
-152,891	-200,000	-0,114	-0,000
-151,877	-200,000	-0,007	-0,096
-150,862	150,962	0,040	-0,040
-149,847	-68,588	0,076	-0,021
-148,833	462,591	-0,033	0,053
-147,818	-62,239	-0,042	-0,012
-146,804	109,263	0,071	0,062
-145,789	130,150	0,097	-0,090
-144,775	-200,000	-0,004	-0,080
-143,760	-3,857	-0,065	0,032
-142,745	-124,736	-0,023	-0,002
-141,731	223,854	-0,050	0,058
-140,716	800,000	0,055	0,123
-139,702	-200,000	0,026	-0,095
-138,687	-200,000	-0,002	-0,053
-137,672	696,206	-0,046	-0,088
-136,658	-64,512	-0,055	-0,016
-135,643	800,000	0,019	0,048
-134,629	-76,814	0,074	0,019
-133,614	-71,092	0,102	0,028
-132,599	193,836	-0,064	-0,071
-131,585	-200,000	0,021	0,079
-130,570	-112,463	-0,134	-0,019
-129,556	508,936	0,052	-0,087
-128,541	347,945	0,066	-0,094
-127,526	310,828	-0,009	0,012
-126,512	-200,000	0,003	0,082
-125,497	-125,727	0,237	-0,026
-124,483	125,956	-0,075	0,069
-123,468	-53,338	0,050	-0,016
-122,453	-200,000	-0,059	-0,201
-121,439	-103,336	-0,075	0,013
-120,424	-200,000	0,008	-0,065
-119,410	360,836	-0,038	-0,055
