DTS Sentinel unit serial number:	SN410029Multiplexer serial number:	ORYXHardware model number:	OX2-SRSoftware version number:	ORYX F/W v4,00 Oryx Data Collector v3.7.2.0data status	okinstallation	B3 Nyhavnadifferential loss correction	single-endedforward channel	channel 1reverse channel	N/Adate	2023/11/28time	14:32:30forward acquisition time	300,00reverse acquisition time	0,00gamma	499,1914k internal	0,3147k external	0,3147temperature offset calibration	1,0000default loss term (dB/km)	0,3820temperature slope calibration	1,0000multiplexer offset coefficient	1,0000multiplexer slope coefficient	1,0000fibre end	0,00T internal ref (°C)	7,43T ext. ref 1 (°C)	-7,80T ext. ref 2 (°C)	-7,97length (m)	temperature (°C)	Stokes	anti-Stokes-744,400	706,355	-0,157	-0,307
-743,385	-200,000	-0,042	0,197
-742,371	-200,000	-0,047	-0,302
-741,356	-200,000	-0,030	0,304
-740,342	800,000	-0,088	-0,207
-739,327	800,000	-0,125	0,301
-738,312	232,121	-0,199	-0,242
-737,298	-200,000	0,031	0,217
-736,283	236,035	-0,162	-0,199
-735,269	411,597	0,125	0,197
-734,254	79,207	-0,258	-0,204
-733,239	286,803	-0,157	0,210
-732,225	29,426	-0,210	-0,132
-731,210	220,910	0,115	0,137
-730,196	12,960	0,068	-0,039
-729,181	621,297	0,028	0,052
-728,167	-32,758	-0,025	-0,010
-727,152	-70,856	0,149	-0,041
-726,137	-200,000	-0,005	0,053
-725,123	-200,000	0,030	-0,120
-724,108	-200,000	-0,033	-0,122
-723,094	-123,853	-0,157	0,018
-722,079	147,997	-0,077	-0,077
-721,064	110,036	-0,132	0,117
-720,050	-200,000	0,003	0,043
-719,035	-200,000	-0,002	0,075
-718,021	-124,970	-0,156	-0,018
-717,006	-200,000	0,044	-0,169
-715,991	139,782	-0,095	-0,092
-714,977	303,423	-0,030	0,041
-713,962	800,000	-0,061	-0,138
-712,948	-200,000	0,014	-0,200
-711,933	-200,000	0,023	0,084
-710,918	495,752	-0,082	0,139
-709,904	107,149	-0,032	-0,028
-708,889	-200,000	-0,043	0,141
-707,875	800,000	0,048	-0,103
-706,860	-200,000	0,028	-0,116
-705,845	-33,620	-0,052	0,021
-704,831	-62,392	0,029	0,009
-703,816	99,862	0,031	-0,026
-702,802	56,114	-0,039	0,028
-701,787	144,622	-0,116	-0,115
-700,772	800,000	-0,022	-0,056
-699,758	-139,456	-0,181	-0,014
-698,743	405,365	0,051	0,080
-697,729	-52,350	-0,122	0,041
-696,714	361,871	-0,036	0,053
-695,699	-200,000	-0,004	-0,069
-694,685	-200,000	0,004	-0,053
-693,670	627,005	-0,128	-0,240
-692,656	-90,610	0,082	-0,017
-691,641	-71,057	0,064	-0,018
-690,627	392,313	0,046	0,070
-689,612	153,354	-0,099	0,101
-688,597	-200,000	0,002	0,055
-687,583	249,470	0,070	0,087
-686,568	181,891	0,015	-0,016
-685,554	-66,498	0,091	0,027
-684,539	-129,549	-0,065	-0,007
-683,524	-33,022	0,127	-0,052
-682,510	-115,268	-0,074	0,010
-681,495	-200,000	0,020	0,088
-680,481	201,174	-0,053	-0,060
-679,466	27,000	-0,093	-0,057
-678,451	737,124	-0,067	-0,132
-677,437	-28,428	-0,049	-0,021
-676,422	43,528	0,069	0,047
-675,408	252,136	-0,100	0,126
-674,393	800,000	0,018	-0,050
-673,378	206,851	-0,034	-0,040
-672,364	-200,000	-0,032	-0,107
-671,349	16,376	-0,138	-0,080
-670,335	-200,000	0,015	-0,088
-669,320	490,118	0,063	-0,106
-668,305	-65,231	-0,053	-0,016
-667,291	-93,521	-0,130	0,026
-666,276	-200,000	-0,021	-0,143
-665,262	-200,000	0,004	0,035
-664,247	159,813	0,102	-0,104
-663,232	-153,691	-0,077	-0,004
-662,218	-200,000	0,014	0,062
-661,203	-55,462	-0,090	0,030
-660,189	75,488	-0,071	-0,055
-659,174	-200,000	0,037	-0,137
-658,159	725,026	0,052	-0,103
-657,145	-63,890	-0,150	0,045
-656,130	704,155	-0,045	0,087
-655,116	73,527	0,177	0,137
-654,101	-44,816	-0,065	0,024
-653,086	800,000	-0,054	-0,129
-652,072	531,724	0,085	-0,148
-651,057	-45,003	-0,127	0,046
-650,043	800,000	0,026	-0,074
-649,028	-79,726	0,109	-0,027
-648,014	496,468	0,073	0,125
-646,999	-46,638	-0,049	0,018
-645,984	-200,000	-0,019	0,067
-644,970	57,276	-0,028	0,020
-643,955	800,000	0,045	-0,132
-642,941	-52,097	-0,060	0,020
-641,926	482,577	-0,040	-0,067
-640,911	108,868	0,120	-0,105
-639,897	-200,000	0,001	0,027
-638,882	173,889	-0,079	0,084
-637,868	49,982	0,007	-0,005
-636,853	363,868	0,034	-0,050
-635,838	-48,517	-0,060	0,021
-634,824	-70,351	-0,071	0,020
-633,809	276,400	0,091	0,120
-632,795	56,281	-0,037	-0,027
-631,780	15,193	-0,066	0,038
-630,765	53,714	-0,042	-0,030
-629,751	-200,000	-0,003	0,058
-628,736	-190,708	0,092	0,001
-627,722	-41,617	0,055	0,021
-626,707	4,238	0,170	0,091
-625,692	-97,515	0,056	0,011
-624,678	66,543	-0,047	0,035
-623,663	103,157	-0,068	-0,059
-622,649	-92,403	0,063	-0,013
-621,634	-11,041	-0,071	0,034
-620,619	-57,810	-0,205	-0,066
-619,605	65,112	0,064	0,048
-618,590	99,785	0,049	-0,042
-617,576	-200,000	0,013	-0,052
-616,561	134,434	-0,086	0,082
-615,546	-143,138	-0,079	-0,005
-614,532	-75,539	0,129	-0,034
-613,517	-200,000	0,049	-0,188
-612,503	105,902	0,026	0,023
-611,488	-200,000	-0,009	-0,049
-610,474	800,000	-0,030	-0,078
-609,459	-31,564	0,064	0,026
-608,444	190,342	0,014	-0,015
-607,430	367,811	0,014	-0,020
-606,415	628,980	-0,061	-0,115
-605,401	-200,000	0,011	-0,079
-604,386	185,942	0,024	0,026
-603,371	-22,653	-0,136	0,060
-602,357	51,035	-0,054	0,038
-601,342	-18,314	-0,132	-0,060
-600,328	404,803	0,068	-0,106
-599,313	800,000	-0,040	-0,111
-598,298	266,809	0,098	0,127
-597,284	800,000	-0,034	0,071
-596,269	-148,333	0,142	-0,008
-595,255	123,992	-0,097	0,089
-594,240	228,439	-0,072	0,087
-593,225	-15,652	-0,112	0,052
-592,211	38,358	-0,065	0,042
-591,196	-132,094	0,053	-0,005
-590,182	34,942	-0,089	0,057
-589,167	166,323	0,039	-0,040
-588,152	800,000	0,009	0,023
-587,138	205,770	0,067	-0,076
-586,123	-31,702	-0,134	-0,055
-585,109	-200,000	-0,009	0,073
-584,094	-32,596	0,087	-0,036
-583,079	-108,283	0,098	0,015
-582,065	800,000	-0,015	-0,040
-581,050	-93,134	-0,104	-0,021
-580,036	-148,947	-0,090	-0,005
-579,021	499,093	-0,088	-0,150
-578,006	-70,252	0,101	-0,028
-576,992	333,323	0,058	-0,082
-575,977	-49,333	-0,078	0,027
-574,963	381,477	0,067	-0,102
-573,948	-200,000	-0,051	0,222
-572,934	-200,000	0,005	-0,090
-571,919	498,798	0,007	-0,011
-570,904	-200,000	0,000	0,088
-569,890	-200,000	0,043	0,162
-568,875	618,628	-0,011	-0,020
-567,861	-100,055	0,088	-0,016
-566,846	800,000	0,010	-0,030
-565,831	-86,681	0,112	0,025
-564,817	148,862	-0,075	-0,075
-563,802	-3,337	-0,151	-0,077
-562,788	800,000	-0,026	0,059
-561,773	-200,000	-0,030	0,127
-560,758	800,000	0,046	0,149
-559,744	-42,424	-0,050	0,019
-558,729	-200,000	0,062	0,256
-557,715	-44,064	-0,106	-0,039
-556,700	-200,000	-0,021	0,071
-555,685	246,390	-0,108	-0,134
-554,671	193,710	-0,056	-0,062
-553,656	-200,000	0,007	-0,096
-552,642	-200,000	0,009	-0,096
-551,627	254,330	-0,087	-0,109
-550,612	399,988	-0,065	-0,100
-549,598	90,034	-0,035	-0,028
-548,583	13,674	0,036	-0,021
-547,569	353,578	-0,070	0,102
-546,554	-200,000	0,011	0,047
-545,539	482,877	-0,040	-0,067
-544,525	-200,000	0,007	0,075
-543,510	784,111	0,016	-0,033
-542,496	-23,413	-0,031	-0,014
-541,481	480,639	-0,048	-0,081
-540,466	-200,000	0,018	-0,069
-539,452	-118,523	0,069	-0,009
-538,437	320,250	0,072	0,101
-537,423	-104,303	0,035	0,006
-536,408	-107,967	0,098	-0,015
-535,393	-22,411	-0,107	-0,047
-534,379	800,000	-0,072	-0,215
-533,364	418,115	0,075	-0,118
-532,350	-15,725	0,022	-0,010
-531,335	800,000	0,030	0,072
-530,321	-16,612	0,145	0,067
-529,306	800,000	-0,017	0,040
-528,291	-126,990	0,135	0,014
-527,277	437,711	-0,132	-0,211
-526,262	303,032	-0,076	-0,103
-525,248	84,292	0,069	0,055
-524,233	77,685	0,114	-0,089
-523,218	138,009	-0,042	0,040
-522,204	-187,794	0,080	-0,001
-521,189	41,341	0,092	-0,061
-520,175	362,974	-0,046	0,068
-519,160	-200,000	-0,002	-0,027
-518,145	800,000	-0,055	0,117
-517,131	-14,490	-0,006	-0,003
-516,116	4,454	0,134	0,072
-515,102	120,972	-0,061	-0,056
-514,087	391,988	-0,035	0,054
-513,072	-32,756	0,023	-0,009
-512,058	101,420	-0,080	0,068
-511,043	16,258	0,066	-0,038
-510,029	-200,000	0,006	0,217
-509,014	-167,284	0,140	0,004
-507,999	-200,000	-0,012	0,120
-506,985	-200,000	-0,050	0,000
-505,970	-94,628	0,045	-0,009
-504,956	-148,861	-0,186	0,011
-503,941	800,000	-0,030	-0,088
-502,926	131,514	0,120	0,113
-501,912	-200,000	0,018	0,064
-500,897	-157,033	0,156	-0,007
-499,883	189,192	0,024	0,027
-498,868	274,464	0,063	-0,082
-497,853	-45,036	0,086	-0,031
-496,839	425,291	0,074	-0,117
-495,824	-200,000	0,012	0,039
-494,810	686,813	-0,051	0,097
-493,795	31,200	0,075	0,047
-492,781	800,000	-0,068	-0,171
-491,766	-200,000	-0,006	0,162
-490,751	-200,000	-0,003	-0,089
-489,737	57,096	-0,025	0,018
-488,722	800,000	0,067	0,148
-487,708	-200,000	0,010	-0,099
-486,693	-200,000	0,014	-0,106
-485,678	-129,516	0,038	-0,004
-484,664	-1,173	-0,122	0,063
-483,649	73,227	-0,114	-0,087
-482,635	-94,382	0,150	-0,030
-481,620	6,399	-0,029	-0,016
-480,605	-127,486	0,073	0,008
-479,591	19,659	0,127	-0,075
-478,576	-70,995	-0,079	0,022
-477,562	-23,750	-0,091	0,040
-476,547	-133,287	0,008	0,001
-475,532	-81,070	-0,125	0,030
-474,518	-66,735	-0,041	-0,012
-473,503	-83,068	0,119	-0,028
-472,489	208,340	-0,113	0,129
-471,474	800,000	-0,030	-0,062
-470,459	-200,000	0,000	0,050
-469,445	-200,000	-0,039	-0,164
-468,430	-83,529	-0,100	-0,023
-467,416	90,449	-0,150	-0,123
-466,401	367,368	0,119	0,177
-465,386	-200,000	-0,005	-0,082
-464,372	-84,677	-0,042	0,010
-463,357	-2,946	-0,041	0,021
-462,343	-42,353	-0,065	-0,024
-461,328	438,831	-0,041	0,065
-460,313	23,957	-0,097	-0,058
-459,299	-57,739	0,072	-0,023
-458,284	-35,192	0,195	-0,077
-457,270	800,000	-0,023	-0,071
-456,255	-54,491	-0,071	-0,023
-455,241	-200,000	0,002	-0,030
-454,226	-89,022	-0,031	0,007
-453,211	84,390	0,134	-0,107
-452,197	-200,000	-0,002	-0,058
-451,182	-200,000	0,014	-0,087
-450,168	-200,000	-0,026	-0,199
-449,153	228,194	-0,022	-0,026
-448,138	-10,339	-0,084	0,041
-447,124	-122,154	0,085	0,010
-446,109	800,000	-0,039	0,097
-445,095	379,540	0,049	0,074
-444,080	-86,898	0,133	0,029
-443,065	-200,000	-0,003	-0,098
-442,051	-159,123	-0,057	0,002
-441,036	314,434	0,057	0,078
-440,022	-200,000	-0,011	-0,194
-439,007	-59,906	-0,104	0,032
-437,992	31,031	-0,250	0,156
-436,978	13,394	-0,110	0,062
-435,963	102,151	0,132	-0,113
-434,949	359,012	-0,076	-0,111
-433,934	17,908	0,023	-0,013
-432,919	-39,378	-0,028	-0,011
-431,905	27,174	0,067	0,041
-430,890	708,219	0,015	0,029
-429,876	-62,879	0,159	0,048
-428,861	-149,238	-0,073	-0,004
-427,846	-145,760	0,033	0,002
-426,832	481,793	-0,091	-0,151
-425,817	136,742	0,010	-0,009
-424,803	-31,625	-0,039	0,016
-423,788	800,000	-0,032	0,073
-422,773	-200,000	0,000	0,013
-421,759	186,248	0,141	0,153
-420,744	-46,384	-0,181	0,064
-419,730	-200,000	-0,002	0,065
-418,715	800,000	-0,045	-0,110
-417,701	-200,000	-0,013	0,101
-416,686	-54,141	0,077	-0,025
-415,671	800,000	-0,057	0,183
-414,657	403,023	0,089	0,136
-413,642	-114,012	-0,138	0,019
-412,628	-200,000	0,004	0,033
-411,613	-35,501	-0,095	0,038
-410,598	199,310	-0,024	-0,027
-409,584	150,587	0,045	0,044
-408,569	-170,712	0,057	0,001
-407,555	661,089	0,048	0,092
-406,540	-200,000	-0,012	-0,106
-405,525	-200,000	-0,018	0,068
-404,511	252,261	-0,030	0,037
-403,496	800,000	0,016	0,041
-402,482	-200,000	-0,012	0,055
-401,467	-124,989	-0,062	-0,007
-400,452	-14,910	-0,034	-0,016
-399,438	60,221	0,104	0,075
-398,423	-155,127	-0,106	-0,005
-397,409	800,000	-0,053	-0,122
-396,394	-141,372	-0,072	-0,005
-395,379	120,563	-0,043	0,039
-394,365	0,300	0,016	0,008
-393,350	104,469	0,068	0,059
-392,336	94,551	0,074	0,061
-391,321	800,000	-0,038	0,096
-390,306	-0,047	-0,076	0,039
-389,292	-6,783	-0,129	-0,064
-388,277	-200,000	-0,031	0,000
-387,263	-94,402	0,064	0,013
-386,248	56,018	0,120	-0,085
-385,233	-200,000	0,019	0,075
-384,219	800,000	0,034	-0,086
-383,204	39,781	-0,022	0,014
-382,190	-184,580	-0,095	0,001
-381,175	-133,901	-0,106	-0,009
-380,160	800,000	0,015	0,046
-379,146	-21,143	0,078	0,035
-378,131	22,038	0,117	-0,069
-377,117	-58,862	-0,083	0,026
-376,102	155,131	-0,048	-0,048
-375,088	-200,000	0,004	-0,125
-374,073	59,828	0,148	-0,106
-373,058	48,886	0,108	0,074
-372,044	268,961	0,105	0,134
-371,029	124,690	0,036	-0,033
-370,015	-92,458	0,224	-0,045
-369,000	800,000	0,065	0,132
-367,985	-96,948	-0,115	-0,022
-366,971	674,487	-0,028	0,054
-365,956	-200,000	0,021	0,076
-364,942	113,873	0,027	0,024
-363,927	-43,479	-0,052	0,019
-362,912	-45,662	-0,115	0,041
-361,898	-109,973	0,086	-0,013
-360,883	213,656	-0,042	-0,048
-359,869	800,000	-0,039	-0,101
-358,854	-98,094	0,175	-0,033
-357,839	51,565	0,091	0,063
-356,825	36,125	-0,070	-0,045
-355,810	221,212	-0,082	0,096
-354,796	-93,680	-0,086	-0,017
-353,781	-200,000	-0,043	0,157
-352,766	102,358	-0,035	-0,030
-351,752	145,681	0,063	0,061
-350,737	-84,981	0,081	0,018
-349,723	577,953	0,064	0,114
-348,708	-95,504	-0,044	-0,008
-347,693	-39,145	-0,186	-0,071
-346,679	509,202	0,051	-0,086
-345,664	-200,000	0,002	-0,102
-344,650	-46,291	-0,084	0,030
-343,635	488,924	0,052	0,087
-342,620	-200,000	-0,037	-0,124
-341,606	695,067	-0,021	0,040
-340,591	228,454	-0,079	0,093
-339,577	-70,643	0,087	-0,024
-338,562	760,646	-0,060	-0,119
-337,548	-131,619	0,081	0,008
-336,533	17,967	-0,095	-0,055
-335,518	800,000	-0,038	0,092
-334,504	-200,000	-0,002	0,042
-333,489	-188,562	0,035	-0,000
-332,475	-200,000	0,001	-0,053
-331,460	311,973	0,006	-0,008
-330,445	-52,358	0,062	0,021
-329,431	301,511	-0,044	0,060
-328,416	-200,000	0,015	0,058
-327,402	-200,000	-0,003	-0,091
-326,387	-200,000	0,010	-0,080
-325,372	-47,737	-0,099	-0,035
-324,358	800,000	-0,048	0,098
-323,343	-121,218	0,024	-0,003
-322,329	-17,478	0,082	0,037
-321,314	242,974	-0,027	0,033
-320,299	377,217	0,084	-0,125
-319,285	-19,977	-0,122	-0,055
-318,270	113,624	-0,159	-0,141
-317,256	-200,000	0,023	-0,165
-316,241	-18,979	-0,113	-0,051
-315,226	203,687	-0,080	0,091
-314,212	-26,063	0,142	-0,060
-313,197	-121,453	0,133	-0,016
-312,183	800,000	0,039	0,120
-311,168	-200,000	0,010	-0,113
-310,153	46,043	-0,046	0,031
-309,139	266,963	-0,027	0,034
-308,124	-82,260	-0,120	0,028
-307,110	-200,000	0,125	-0,000
-306,095	1,092	0,025	-0,013
-305,080	-109,683	-0,143	-0,022
-304,066	784,788	0,047	-0,093
-303,051	-33,659	-0,062	0,025
-302,037	24,255	-0,118	-0,071
-301,022	800,000	0,035	-0,072
-300,008	23,174	-0,017	-0,010
-298,993	-200,000	0,017	0,101
-297,978	102,268	0,092	0,078
-296,964	442,862	-0,058	0,093
-295,949	-200,000	-0,020	0,071
-294,935	-200,000	0,046	0,149
-293,920	50,652	0,056	0,038
-292,905	81,929	0,081	0,064
-291,891	73,108	0,036	-0,027
-290,876	800,000	-0,018	-0,056
-289,862	462,862	0,072	0,117
-288,847	-200,000	-0,012	-0,071
-287,832	-85,042	0,027	-0,006
-286,818	-200,000	0,008	0,025
-285,803	89,966	0,101	-0,082
-284,789	-200,000	-0,001	-0,139
-283,774	48,359	-0,011	0,008
-282,759	24,967	-0,110	0,066
-281,745	684,094	0,059	-0,113
-280,730	-70,925	-0,168	0,046
-279,716	800,000	-0,049	-0,153
-278,701	132,951	0,087	-0,082
-277,686	800,000	0,084	0,180
-276,672	-200,000	0,001	-0,075
-275,657	-10,923	0,131	0,062
-274,643	4,043	-0,140	-0,074
-273,628	-197,809	-0,064	0,000
-272,613	17,496	0,041	0,024
-271,599	271,535	-0,028	0,036
-270,584	243,044	-0,052	-0,063
-269,570	338,553	0,074	0,105
-268,555	-81,095	-0,110	-0,026
-267,540	-200,000	0,139	0,000
-266,526	129,459	0,104	-0,097
-265,511	800,000	0,056	-0,120
-264,497	-200,000	-0,003	0,121
-263,482	-200,000	0,024	0,104
-262,467	-200,000	-0,015	0,110
-261,453	561,502	0,041	0,072
-260,438	-108,653	-0,090	-0,014
-259,424	-200,000	0,002	0,108
-258,409	-93,469	-0,096	0,019
-257,395	283,442	-0,009	0,012
-256,380	-200,000	0,002	0,047
-255,365	80,116	0,110	0,086
-254,351	-200,000	-0,017	0,168
-253,336	-200,000	0,011	0,086
-252,322	488,287	0,042	0,071
-251,307	-200,000	0,012	-0,102
-250,292	260,956	0,060	-0,076
-249,278	127,253	-0,061	-0,056
-248,263	0,396	0,046	-0,024
-247,249	728,237	-0,042	0,082
-246,234	384,700	0,050	-0,075
-245,219	67,724	-0,052	-0,038
-244,205	34,999	0,095	0,060
-243,190	800,000	-0,031	-0,070
-242,176	37,754	0,027	0,018
-241,161	29,012	-0,068	-0,042
-240,146	-81,765	0,048	-0,011
-239,132	-71,003	0,044	-0,012
-238,117	-200,000	0,010	-0,060
-237,103	-200,000	-0,011	-0,119
-236,088	-200,000	0,029	-0,154
-235,073	-200,000	-0,008	0,162
-234,059	412,063	0,041	0,063
-233,044	-200,000	0,015	-0,101
-232,030	800,000	0,024	-0,074
-231,015	219,380	-0,083	-0,096
-230,000	454,218	-0,038	-0,061
-228,986	21,875	0,105	-0,062
-227,971	-79,067	0,050	0,012
-226,957	-67,287	0,012	-0,004
-225,942	-31,961	-0,086	-0,035
-224,927	676,147	-0,025	-0,047
-223,913	-25,060	0,116	0,050
-222,898	-200,000	0,008	-0,097
-221,884	800,000	-0,006	-0,016
-220,869	-200,000	-0,001	-0,003
-219,855	-32,294	0,137	0,055
-218,840	800,000	0,025	0,051
-217,825	18,127	-0,049	-0,028
-216,811	-200,000	0,002	-0,108
-215,796	-134,608	0,028	-0,002
-214,782	62,598	-0,058	-0,042
-213,767	-156,825	0,168	0,007
-212,752	-39,848	-0,039	0,015
-211,738	800,000	-0,014	-0,045
-210,723	-200,000	0,007	0,090
-209,709	-62,356	-0,113	0,034
-208,694	483,034	-0,063	-0,104
-207,679	-200,000	-0,008	-0,037
-206,665	-98,094	0,145	0,027
-205,650	800,000	0,014	0,032
-204,636	92,579	0,061	0,050
-203,621	-21,755	-0,139	0,061
-202,606	-200,000	0,016	-0,079
-201,592	574,276	-0,048	-0,085
-200,577	-200,000	0,004	0,078
-199,563	15,949	0,095	0,054
-198,548	-200,000	-0,048	0,200
-197,533	-200,000	0,006	0,113
-196,519	212,337	0,075	-0,086
-195,504	-200,000	-0,027	-0,093
-194,490	344,615	0,098	-0,139
-193,475	10,447	-0,068	-0,037
-192,460	-200,000	-0,007	0,064
-191,446	113,167	0,066	0,058
-190,431	-71,187	0,052	0,014
-189,417	229,550	-0,025	0,029
-188,402	61,935	-0,082	-0,059
-187,387	174,423	-0,084	0,088
-186,373	-168,683	0,115	0,003
-185,358	536,039	-0,058	-0,100
-184,344	800,000	-0,013	0,028
-183,329	491,218	0,030	0,049
-182,315	349,975	0,057	0,082
-181,300	697,468	-0,012	-0,022
-180,285	-200,000	0,002	0,023
-179,271	-126,849	0,043	-0,005
-178,256	557,610	0,025	0,044
-177,242	112,217	0,032	0,028
-176,227	-59,472	0,167	-0,051
-175,212	340,231	0,068	-0,096
-174,198	-200,000	-0,002	-0,125
-173,183	800,000	0,030	0,081
-172,169	800,000	0,024	0,050
-171,154	572,391	0,034	0,060
-170,139	234,339	0,068	0,081
-169,125	800,000	0,020	0,045
-168,110	83,306	-0,043	0,034
-167,096	3,773	-0,048	-0,025
-166,081	-67,335	-0,083	0,023
-165,066	-200,000	-0,019	-0,063
-164,052	382,714	-0,070	-0,104
-163,037	-200,000	-0,006	-0,023
-162,023	90,240	-0,066	-0,053
-161,008	-200,000	-0,009	0,048
-159,993	745,464	0,021	-0,042
-158,979	-200,000	0,014	0,097
-157,964	-128,591	-0,064	0,006
-156,950	800,000	-0,018	0,057
-155,935	-142,975	0,035	0,002
-154,920	-108,034	0,060	0,009
-153,906	-180,461	-0,136	-0,002
-152,891	800,000	0,031	0,079
-151,877	-91,720	0,086	-0,017
-150,862	510,032	0,046	-0,078
-149,847	-64,806	0,053	-0,015
-148,833	508,078	0,042	-0,070
-147,818	-31,868	-0,028	0,011
-146,804	3,326	0,193	0,101
-145,789	-7,234	-0,139	-0,068
-144,775	-30,820	0,049	-0,020
-143,760	-12,167	0,095	0,045
-142,745	-55,651	0,013	0,004
-141,731	-200,000	-0,017	0,166
-140,716	-200,000	0,007	0,135
-139,702	82,577	-0,028	0,022
-138,687	6,269	0,061	-0,033
-137,672	-5,110	-0,072	0,036
-136,658	368,561	-0,111	-0,163
-135,643	398,513	0,035	-0,054
-134,629	-18,556	-0,103	0,046
-133,614	-169,034	-0,026	-0,001
-132,599	111,018	0,074	0,064
-131,585	112,624	0,112	0,098
-130,570	91,123	-0,055	0,045
-129,556	307,591	-0,037	-0,050
-128,541	800,000	-0,053	-0,137
-127,526	-49,529	0,020	-0,007
-126,512	-59,333	0,102	-0,032
-125,497	-27,512	0,100	0,042
-124,483	86,232	0,043	-0,034
-123,468	140,298	0,072	0,068
-122,453	-48,691	-0,070	-0,024
-121,439	298,401	-0,042	-0,056
-120,424	-41,555	0,099	0,037
-119,410	41,057	0,115	0,075
