DTS Sentinel unit serial number:	SN410029Multiplexer serial number:	ORYXHardware model number:	OX2-SRSoftware version number:	ORYX F/W v4,00 Oryx Data Collector v3.7.2.0data status	okinstallation	B3 Nyhavnadifferential loss correction	single-endedforward channel	channel 1reverse channel	N/Adate	2023/11/28time	15:47:30forward acquisition time	300,00reverse acquisition time	0,00gamma	499,1914k internal	0,3196k external	0,3196temperature offset calibration	1,0000default loss term (dB/km)	0,3820temperature slope calibration	1,0000multiplexer offset coefficient	1,0000multiplexer slope coefficient	1,0000fibre end	0,00T internal ref (°C)	7,27T ext. ref 1 (°C)	-7,69T ext. ref 2 (°C)	-7,84length (m)	temperature (°C)	Stokes	anti-Stokes-744,400	800,000	-0,127	-0,370
-743,385	-200,000	-0,071	0,293
-742,371	288,437	-0,117	-0,155
-741,356	-200,000	-0,011	0,243
-740,342	-156,981	-0,087	-0,004
-739,327	-200,000	-0,036	0,178
-738,312	180,252	-0,281	-0,301
-737,298	229,795	-0,249	0,297
-736,283	459,597	-0,157	-0,255
-735,269	-200,000	0,065	0,290
-734,254	-4,351	-0,164	-0,082
-733,239	-2,032	-0,270	0,138
-732,225	584,889	-0,116	-0,209
-731,210	50,804	0,118	0,082
-730,196	-200,000	0,006	-0,074
-729,181	-51,371	-0,191	-0,065
-728,167	289,542	-0,023	-0,030
-727,152	285,801	-0,088	-0,116
-726,137	-159,684	-0,188	0,007
-725,123	101,607	-0,174	-0,148
-724,108	-47,284	-0,126	0,044
-723,094	-51,321	-0,026	0,009
-722,079	-200,000	-0,010	0,092
-721,064	-110,483	-0,114	-0,017
-720,050	19,486	-0,076	-0,044
-719,035	-128,711	-0,085	0,009
-718,021	800,000	-0,031	-0,065
-717,006	-159,286	-0,243	-0,010
-715,991	30,515	-0,090	0,056
-714,977	-200,000	-0,004	-0,089
-713,962	579,255	-0,040	-0,071
-712,948	-200,000	0,023	0,090
-711,933	-200,000	0,021	0,091
-710,918	103,082	-0,087	0,074
-709,904	-200,000	0,031	-0,152
-708,889	-51,515	-0,169	0,057
-707,875	325,265	-0,077	-0,108
-706,860	-200,000	-0,001	0,096
-705,845	-83,043	0,091	0,021
-704,831	-200,000	-0,012	0,066
-703,816	-99,455	-0,100	-0,018
-702,802	-200,000	-0,004	-0,057
-701,787	748,050	0,019	0,038
-700,772	-200,000	0,038	-0,144
-699,758	118,280	0,086	-0,077
-698,743	63,190	-0,113	-0,082
-697,729	1,283	0,044	-0,023
-696,714	234,670	-0,064	0,077
-695,699	-180,009	-0,123	-0,002
-694,685	-200,000	0,022	-0,104
-693,670	-200,000	-0,027	-0,095
-692,656	215,184	0,102	-0,117
-691,641	69,110	0,075	0,056
-690,627	9,204	0,089	-0,049
-689,612	-200,000	0,000	-0,023
-688,597	-200,000	0,010	0,047
-687,583	610,315	-0,033	0,059
-686,568	800,000	-0,041	-0,089
-685,554	73,290	0,073	-0,055
-684,539	119,813	-0,033	-0,030
-683,524	-43,090	0,038	-0,014
-682,510	-11,037	0,119	-0,057
-681,495	83,585	-0,125	-0,099
-680,481	309,367	-0,136	-0,185
-679,466	-200,000	-0,008	-0,098
-678,451	-169,146	-0,130	0,003
-677,437	-200,000	-0,012	-0,093
-676,422	441,772	0,124	0,199
-675,408	-105,322	-0,078	-0,013
-674,393	-180,812	-0,029	0,000
-673,378	-91,287	0,083	0,017
-672,364	17,252	0,122	-0,070
-671,349	-138,072	-0,120	-0,010
-670,335	109,563	0,048	-0,042
-669,320	776,772	0,057	0,113
-668,305	800,000	-0,027	-0,085
-667,291	-200,000	-0,015	-0,107
-666,276	217,751	-0,052	-0,060
-665,262	479,333	-0,023	-0,038
-664,247	-200,000	-0,020	-0,206
-663,232	-180,023	-0,116	-0,002
-662,218	-200,000	0,011	-0,049
-661,203	625,175	0,071	0,130
-660,189	-200,000	-0,003	0,046
-659,174	51,505	0,049	0,034
-658,159	28,201	-0,134	-0,082
-657,145	-200,000	0,004	-0,110
-656,130	251,167	0,010	0,013
-655,116	-200,000	-0,000	-0,165
-654,101	-4,596	-0,121	0,060
-653,086	800,000	0,015	0,032
-652,072	800,000	-0,034	-0,084
-651,057	800,000	-0,057	-0,181
-650,043	599,129	0,052	0,094
-649,028	-26,682	0,151	-0,064
-648,014	-94,231	-0,084	0,017
-646,999	84,670	-0,075	0,060
-645,984	800,000	0,033	0,101
-644,970	-123,331	-0,056	0,006
-643,955	-12,800	0,062	0,029
-642,941	9,899	-0,031	-0,017
-641,926	10,073	0,111	-0,061
-640,911	800,000	-0,027	0,078
-639,897	201,531	-0,031	-0,035
-638,882	615,391	0,036	0,065
-637,868	-200,000	-0,005	-0,047
-636,853	144,766	-0,087	-0,085
-635,838	31,225	-0,140	-0,087
-634,824	395,990	-0,072	-0,109
-633,809	-115,015	-0,117	0,016
-632,795	-76,959	0,066	0,017
-631,780	800,000	-0,010	0,031
-630,765	-175,279	-0,132	0,003
-629,751	151,315	0,021	0,021
-628,736	-137,896	-0,170	0,014
-627,722	242,836	-0,068	0,082
-626,707	-127,969	0,059	-0,006
-625,692	-200,000	0,011	0,099
-624,678	166,978	0,031	-0,032
-623,663	800,000	-0,022	-0,063
-622,649	372,109	-0,049	-0,072
-621,634	800,000	-0,056	-0,129
-620,619	-200,000	-0,011	-0,044
-619,605	631,900	-0,059	0,108
-618,590	-77,671	0,048	-0,012
-617,576	104,845	-0,095	-0,081
-616,561	506,407	-0,027	-0,046
-615,546	-200,000	0,029	0,132
-614,532	-107,014	0,020	0,003
-613,517	-200,000	0,008	-0,079
-612,503	-25,062	0,091	-0,039
-611,488	-65,912	0,033	-0,010
-610,474	95,585	-0,125	0,103
-609,459	-86,296	0,127	-0,028
-608,444	-200,000	-0,010	0,063
-607,430	-130,453	0,069	0,007
-606,415	-155,182	-0,053	0,002
-605,401	800,000	-0,041	-0,088
-604,386	-200,000	0,031	-0,256
-603,371	203,861	-0,044	-0,050
-602,357	-57,189	-0,058	0,018
-601,342	109,511	0,131	-0,114
-600,328	-200,000	-0,039	-0,223
-599,313	8,662	-0,166	0,090
-598,298	575,812	-0,048	0,086
-597,284	191,380	0,118	0,129
-596,269	203,953	-0,009	-0,010
-595,255	214,819	0,097	-0,111
-594,240	-200,000	0,011	-0,161
-593,225	28,479	-0,118	0,072
-592,211	800,000	0,027	-0,066
-591,196	-112,140	0,091	-0,013
-590,182	-27,007	-0,021	0,009
-589,167	460,074	-0,025	0,041
-588,152	-200,000	0,000	-0,059
-587,138	130,627	-0,051	0,048
-586,123	557,560	-0,028	-0,049
-585,109	-200,000	0,004	-0,047
-584,094	-93,063	-0,101	0,020
-583,079	164,417	0,129	0,132
-582,065	45,546	0,073	-0,049
-581,050	26,587	-0,045	0,027
-580,036	339,946	-0,085	0,120
-579,021	800,000	0,049	-0,100
-578,006	-200,000	0,009	-0,095
-576,992	-114,998	0,064	-0,009
-575,977	485,846	0,017	-0,028
-574,963	-183,046	-0,053	-0,001
-573,948	800,000	0,012	0,026
-572,934	-153,898	-0,096	-0,005
-571,919	-200,000	0,028	-0,117
-570,904	89,400	-0,120	-0,097
-569,890	-200,000	-0,046	0,196
-568,875	-132,928	-0,026	0,002
-567,861	-41,073	0,125	-0,046
-566,846	-200,000	0,018	-0,096
-565,831	-200,000	0,007	0,105
-564,817	-200,000	-0,044	-0,158
-563,802	800,000	0,023	-0,073
-562,788	-53,672	-0,112	0,037
-561,773	-88,827	0,080	0,017
-560,758	-6,255	-0,061	0,030
-559,744	18,281	0,124	-0,072
-558,729	64,854	-0,066	0,048
-557,715	711,532	0,026	0,050
-556,700	-67,372	-0,167	0,047
-555,685	-49,731	0,058	0,020
-554,671	253,509	-0,047	-0,059
-553,656	-27,096	0,182	0,076
-552,642	557,443	0,044	0,076
-551,627	-200,000	0,023	0,086
-550,612	223,090	-0,077	0,090
-549,598	-146,484	-0,108	0,007
-548,583	34,042	-0,200	-0,126
-547,569	512,666	-0,044	-0,074
-546,554	4,757	0,068	-0,036
-545,539	237,230	0,070	-0,084
-544,525	800,000	0,009	0,019
-543,510	122,617	-0,062	-0,056
-542,496	383,702	-0,014	-0,020
-541,481	-112,606	-0,105	-0,015
-540,466	-175,447	0,163	-0,003
-539,452	-200,000	-0,021	0,071
-538,437	172,106	-0,044	0,045
-537,423	-200,000	-0,029	0,118
-536,408	47,868	0,100	-0,068
-535,393	-124,542	-0,159	-0,018
-534,379	-200,000	-0,030	-0,197
-533,364	8,977	-0,030	-0,016
-532,350	273,944	0,056	0,072
-531,335	-200,000	0,002	-0,040
-530,321	251,892	0,017	0,021
-529,306	139,026	0,060	0,057
-528,291	583,104	0,038	0,067
-527,277	71,304	0,054	0,040
-526,262	423,711	-0,085	0,133
-525,248	-39,309	0,066	0,025
-524,233	-56,121	0,076	0,024
-523,218	-50,717	-0,122	0,041
-522,204	-88,976	-0,094	0,020
-521,189	-200,000	0,003	-0,170
-520,175	-55,633	0,134	-0,043
-519,160	-200,000	-0,003	0,064
-518,145	-119,137	0,104	-0,013
-517,131	-114,095	-0,089	0,012
-516,116	-112,754	0,097	0,014
-515,102	800,000	-0,003	-0,010
-514,087	171,586	-0,105	-0,109
-513,072	-200,000	-0,007	0,025
-512,058	360,204	0,061	-0,089
-511,043	11,576	-0,148	0,082
-510,029	44,294	0,042	-0,028
-509,014	129,880	0,219	0,202
-507,999	321,461	-0,037	-0,051
-506,985	-82,113	-0,027	-0,006
-505,970	413,373	-0,095	0,146
-504,956	800,000	-0,018	0,040
-503,941	-200,000	0,026	-0,102
-502,926	53,647	0,114	0,079
-501,912	98,198	0,025	-0,021
-500,897	-200,000	-0,012	0,142
-499,883	-200,000	-0,038	-0,151
-498,868	-200,000	-0,009	-0,097
-497,853	-67,951	-0,075	0,021
-496,839	-13,043	-0,060	-0,028
-495,824	73,980	0,121	0,091
-494,810	-81,999	0,084	0,020
-493,795	315,745	0,047	0,064
-492,781	74,092	0,017	-0,013
-491,766	-200,000	-0,005	-0,186
-490,751	800,000	-0,047	-0,110
-489,737	800,000	0,021	0,046
-488,722	-87,249	0,104	-0,022
-487,708	800,000	-0,042	0,106
-486,693	-200,000	-0,005	0,109
-485,678	361,084	0,072	0,104
-484,664	-91,676	-0,017	-0,003
-483,649	-200,000	-0,014	0,105
-482,635	338,141	-0,099	0,139
-481,620	800,000	0,025	-0,065
-480,605	-200,000	-0,011	0,113
-479,591	-64,824	0,061	0,018
-478,576	210,326	-0,075	0,085
-477,562	120,608	-0,106	0,095
-476,547	800,000	0,042	-0,098
-475,532	-114,736	-0,113	0,015
-474,518	-200,000	-0,019	0,109
-473,503	16,400	0,020	0,012
-472,489	8,015	-0,090	0,048
-471,474	-80,250	0,196	-0,047
-470,459	800,000	-0,052	-0,162
-469,445	-200,000	0,025	-0,161
-468,430	-90,637	-0,075	-0,016
-467,416	-200,000	-0,004	0,088
-466,401	263,889	0,036	-0,045
-465,386	-200,000	-0,012	0,190
-464,372	376,860	-0,067	-0,099
-463,357	-200,000	-0,029	-0,121
-462,343	19,755	-0,053	0,031
-461,328	-5,969	-0,079	0,039
-460,313	47,814	-0,055	0,037
-459,299	800,000	-0,034	0,071
-458,284	800,000	0,036	0,108
-457,270	-200,000	-0,001	0,119
-456,255	800,000	-0,046	-0,111
-455,241	-136,746	0,096	-0,008
-454,226	-98,884	-0,154	0,028
-453,211	-87,924	0,129	0,028
-452,197	-45,423	0,074	-0,026
-451,182	-54,947	0,071	-0,023
-450,168	36,231	-0,028	-0,018
-449,153	705,916	-0,024	-0,046
-448,138	17,536	-0,060	0,034
-447,124	0,713	-0,120	-0,062
-446,109	-200,000	-0,013	-0,073
-445,095	-63,031	-0,036	-0,010
-444,080	630,426	0,022	0,041
-443,065	398,736	-0,067	-0,101
-442,051	-200,000	0,001	-0,078
-441,036	-200,000	-0,004	-0,189
-440,022	-196,561	0,064	0,000
-439,007	-200,000	-0,005	-0,038
-437,992	-200,000	-0,013	-0,080
-436,978	-81,510	0,188	0,044
-435,963	50,503	-0,082	-0,056
-434,949	-127,037	-0,096	-0,010
-433,934	-66,221	-0,051	0,015
-432,919	-200,000	0,019	-0,141
-431,905	-200,000	0,017	-0,074
-430,890	-200,000	0,007	-0,069
-429,876	9,958	0,053	-0,029
-428,861	-200,000	-0,040	0,187
-427,846	396,251	-0,041	0,061
-426,832	-200,000	0,002	-0,027
-425,817	202,407	-0,023	-0,026
-424,803	-45,513	0,058	0,021
-423,788	-72,657	0,027	0,007
-422,773	169,657	0,073	0,076
-421,759	-5,812	0,072	-0,035
-420,744	800,000	-0,033	0,078
-419,730	10,118	0,115	-0,062
-418,715	0,784	-0,107	-0,055
-417,701	-200,000	0,030	0,194
-416,686	163,206	-0,079	-0,080
-415,671	-75,635	0,210	-0,053
-414,657	-200,000	-0,000	0,049
-413,642	800,000	0,024	-0,053
-412,628	11,927	-0,035	0,019
-411,613	800,000	-0,068	-0,147
-410,598	-140,084	0,116	0,009
-409,584	20,045	-0,052	0,030
-408,569	347,907	-0,029	-0,042
-407,555	-200,000	0,013	0,080
-406,540	226,067	-0,034	0,039
-405,525	14,304	0,015	0,008
-404,511	6,543	0,073	-0,039
-403,496	158,859	-0,043	-0,043
-402,482	-52,752	0,083	0,027
-401,467	800,000	0,018	0,045
-400,452	-19,334	0,149	0,066
-399,438	-200,000	-0,043	0,172
-398,423	-44,311	0,068	-0,024
-397,409	-42,808	0,067	-0,024
-396,394	137,320	-0,101	-0,095
-395,379	362,680	-0,108	0,156
-394,365	-17,820	-0,024	-0,011
-393,350	-148,791	0,100	-0,006
-392,336	-56,950	0,075	0,024
-391,321	-200,000	0,010	-0,076
-390,306	-53,947	-0,041	0,013
-389,292	-68,189	-0,047	-0,013
-388,277	131,963	-0,119	-0,110
-387,263	68,122	0,031	0,023
-386,248	601,853	-0,046	0,082
-385,233	409,714	0,019	-0,030
-384,219	-90,256	-0,045	0,009
-383,204	-104,132	0,120	-0,020
-382,190	800,000	-0,043	-0,129
-381,175	-200,000	-0,001	0,059
-380,160	-95,189	0,148	-0,028
-379,146	-107,389	0,170	-0,027
-378,131	133,075	-0,100	0,093
-377,117	-74,389	0,013	0,003
-376,102	77,106	-0,123	-0,094
-375,088	-81,878	-0,039	-0,009
-374,073	-119,339	0,092	0,011
-373,058	-200,000	0,005	-0,134
-372,044	-91,914	0,102	-0,021
-371,029	718,566	-0,021	-0,041
-370,015	150,106	0,056	-0,054
-369,000	-29,994	0,132	0,054
-367,985	-200,000	-0,010	0,085
-366,971	105,874	-0,046	0,039
-365,956	43,259	0,015	-0,010
-364,942	287,532	0,026	-0,034
-363,927	361,566	0,030	0,043
-362,912	-140,030	0,021	-0,002
-361,898	-200,000	0,008	0,132
-360,883	-168,375	0,079	0,002
-359,869	31,904	-0,066	0,040
-358,854	477,735	0,066	-0,107
-357,839	-59,185	0,076	-0,023
-356,825	417,953	-0,034	-0,052
-355,810	-200,000	-0,013	0,061
-354,796	-139,557	-0,035	0,003
-353,781	-14,425	0,118	-0,054
-352,766	-200,000	0,005	-0,060
-351,752	348,289	-0,086	-0,121
-350,737	617,656	0,045	0,081
-349,723	800,000	0,025	-0,059
-348,708	1,503	-0,053	0,027
-347,693	381,367	-0,081	0,120
-346,679	178,311	0,053	-0,056
-345,664	426,810	-0,038	0,059
-344,650	-40,286	0,062	0,023
-343,635	800,000	-0,015	-0,033
-342,620	92,792	-0,038	0,031
-341,606	-101,177	-0,079	-0,014
-340,591	-200,000	0,008	-0,037
-339,577	28,199	0,121	-0,073
-338,562	740,815	0,047	0,091
-337,548	-32,022	-0,108	0,043
-336,533	22,115	0,119	-0,070
-335,518	-200,000	0,003	0,260
-334,504	59,276	0,029	-0,021
-333,489	-200,000	-0,015	0,154
-332,475	730,131	0,061	-0,118
-331,460	368,526	-0,098	-0,143
-330,445	800,000	-0,024	0,074
-329,431	-200,000	0,002	-0,234
-328,416	-42,058	-0,028	-0,010
-327,402	521,517	-0,066	0,112
-326,387	356,391	0,086	-0,123
-325,372	-30,845	0,066	0,026
-324,358	-118,953	-0,162	0,020
-323,343	800,000	-0,072	-0,147
-322,329	800,000	0,036	0,093
-321,314	-147,625	0,073	0,004
-320,299	800,000	-0,059	0,178
-319,285	-200,000	-0,012	0,115
-318,270	224,440	0,063	0,073
-317,256	-153,976	-0,059	-0,003
-316,241	-200,000	0,000	-0,047
-315,226	-200,000	-0,001	0,026
-314,212	-200,000	-0,017	0,089
-313,197	-147,493	-0,054	0,003
-312,183	-200,000	-0,024	-0,082
-311,168	800,000	-0,003	0,009
-310,153	260,334	-0,043	0,053
-309,139	83,302	-0,109	-0,085
-308,124	-190,301	0,068	0,001
-307,110	-3,759	0,181	0,090
-306,095	62,021	-0,056	0,040
-305,080	467,717	0,042	0,068
-304,066	-200,000	-0,014	0,064
-303,051	736,352	-0,029	-0,056
-302,037	303,340	-0,053	-0,070
-301,022	71,300	-0,030	0,022
-300,008	-52,430	-0,027	0,009
-298,993	504,330	0,073	0,121
-297,978	-200,000	0,040	0,260
-296,964	-80,177	0,071	0,017
-295,949	-75,870	-0,135	-0,034
-294,935	-83,422	-0,092	-0,021
-293,920	156,879	-0,088	-0,087
-292,905	-111,850	0,039	-0,006
-291,891	124,943	0,118	-0,107
-290,876	25,666	0,077	0,046
-289,862	91,413	-0,106	0,086
-288,847	21,727	-0,089	-0,052
-287,832	109,537	-0,107	-0,092
-286,818	27,076	0,060	0,036
-285,803	-18,030	-0,061	0,027
-284,789	10,923	0,028	-0,015
-283,774	453,188	0,069	0,110
-282,759	449,893	0,076	0,120
-281,745	800,000	0,021	0,057
-280,730	-53,704	-0,093	0,030
-279,716	71,611	0,075	-0,056
-278,701	-122,539	0,077	-0,009
-277,686	-200,000	0,020	0,102
-276,672	-200,000	0,029	0,182
-275,657	136,204	-0,058	-0,054
-274,643	-180,622	-0,076	-0,001
-273,628	84,247	-0,079	-0,062
-272,613	182,581	-0,009	-0,009
-271,599	-118,604	0,130	-0,016
-270,584	-200,000	-0,043	0,202
-269,570	402,137	0,063	0,095
-268,555	-200,000	-0,015	0,103
-267,540	-28,034	0,132	0,054
-266,526	530,101	0,006	-0,010
-265,511	-200,000	0,009	-0,071
-264,497	204,370	0,059	-0,065
-263,482	-117,453	0,127	-0,016
-262,467	297,236	0,038	-0,050
-261,453	33,021	0,042	-0,026
-260,438	98,069	-0,108	-0,089
-259,424	-147,848	-0,155	-0,009
-258,409	-200,000	0,014	-0,090
-257,395	-200,000	-0,005	-0,053
-256,380	-200,000	-0,014	-0,102
-255,365	800,000	-0,026	-0,075
-254,351	3,123	0,115	0,060
-253,336	-199,333	-0,184	-0,001
-252,322	435,966	-0,069	-0,107
-251,307	800,000	-0,053	0,129
-250,292	74,040	0,168	0,126
-249,278	-90,127	0,063	-0,013
-248,263	800,000	-0,013	0,036
-247,249	-19,778	-0,129	0,057
-246,234	-200,000	-0,005	0,029
-245,219	145,949	-0,047	-0,045
-244,205	172,400	0,025	0,025
-243,190	8,941	0,078	-0,042
-242,176	800,000	0,014	-0,033
-241,161	1,679	0,155	-0,079
-240,146	356,667	-0,083	-0,118
-239,132	557,853	-0,052	0,090
-238,117	800,000	0,016	-0,039
-237,103	-38,673	0,066	0,025
-236,088	-200,000	0,055	-0,184
-235,073	-200,000	0,014	0,090
-234,059	198,426	0,020	0,022
-233,044	555,519	-0,063	0,109
-232,030	13,793	0,073	-0,040
-231,015	800,000	0,023	0,071
-230,000	800,000	0,016	-0,042
-228,986	-200,000	-0,001	-0,093
-227,971	-56,808	-0,019	0,006
-226,957	-200,000	0,007	-0,052
-225,942	205,618	0,130	0,144
-224,927	800,000	-0,003	0,008
-223,913	437,435	-0,096	-0,150
-222,898	411,806	-0,022	0,033
-221,884	29,658	-0,048	-0,029
-220,869	-93,352	0,095	0,019
-219,855	383,085	-0,044	0,065
-218,840	20,930	0,057	-0,033
-217,825	800,000	0,054	-0,114
-216,811	198,428	-0,074	-0,081
-215,796	-60,382	0,019	0,006
-214,782	77,910	-0,080	0,061
-213,767	220,555	0,023	0,026
-212,752	800,000	0,034	0,068
-211,738	-7,669	0,068	0,033
-210,723	-200,000	0,012	-0,051
-209,709	-94,878	-0,054	-0,010
-208,694	-17,163	0,215	-0,096
-207,679	20,366	-0,052	-0,030
-206,665	787,892	-0,033	0,066
-205,650	-38,215	0,091	-0,034
-204,636	288,097	0,021	0,027
-203,621	-154,831	0,098	-0,005
-202,606	541,716	-0,065	-0,112
-201,592	-11,737	-0,082	0,038
-200,577	-200,000	0,026	-0,144
-199,563	82,404	-0,103	-0,080
-198,548	-200,000	-0,012	0,123
-197,533	225,803	0,046	0,053
-196,519	463,622	-0,046	-0,074
-195,504	-200,000	0,009	0,064
-194,490	7,779	0,068	0,036
-193,475	-113,074	-0,015	0,002
-192,460	115,927	-0,042	0,037
-191,446	666,196	0,006	0,010
-190,431	318,200	-0,045	-0,061
-189,417	800,000	0,024	-0,054
-188,402	124,541	0,070	0,063
-187,387	284,285	0,054	0,069
-186,373	-200,000	-0,003	0,032
-185,358	800,000	0,049	-0,130
-184,344	-46,998	0,183	-0,063
-183,329	800,000	0,007	0,017
-182,315	265,242	-0,039	-0,049
-181,300	-96,998	0,053	0,010
-180,285	54,260	-0,059	-0,040
-179,271	-200,000	-0,013	0,050
-178,256	205,344	0,016	0,018
-177,242	168,353	0,046	0,046
-176,227	235,673	0,089	0,105
-175,212	-81,847	0,120	-0,028
-174,198	-88,777	-0,061	0,013
-173,183	-156,668	-0,072	0,003
-172,169	-200,000	-0,024	-0,171
-171,154	688,888	-0,084	0,157
-170,139	139,062	-0,057	-0,053
-169,125	-17,825	0,096	0,043
-168,110	800,000	0,081	0,242
-167,096	800,000	-0,007	-0,020
-166,081	201,858	-0,082	-0,091
-165,066	-200,000	-0,016	-0,102
-164,052	42,613	0,038	-0,024
-163,037	654,187	-0,034	-0,062
-162,023	329,743	0,019	-0,026
-161,008	-78,250	0,111	0,027
-159,993	800,000	-0,019	0,052
-158,979	-91,330	-0,076	0,015
-157,964	-96,619	-0,084	0,016
-156,950	-2,733	-0,107	-0,053
-155,935	85,297	0,086	0,067
-154,920	-10,808	-0,206	0,097
-153,906	-174,239	0,006	-0,000
-152,891	-200,000	0,066	0,000
-151,877	772,551	-0,045	0,088
-150,862	-52,314	0,102	0,033
-149,847	800,000	0,014	-0,035
-148,833	-26,279	0,148	0,062
-147,818	157,476	0,090	0,089
-146,804	9,377	0,141	0,076
-145,789	169,103	0,081	0,082
-144,775	-200,000	0,009	-0,109
-143,760	-200,000	0,005	-0,039
-142,745	-200,000	-0,004	0,029
-141,731	94,942	0,112	0,090
-140,716	742,463	0,058	-0,112
-139,702	-200,000	0,006	0,049
-138,687	41,418	-0,059	0,038
-137,672	231,308	0,056	-0,066
-136,658	-200,000	-0,090	-0,284
-135,643	24,073	0,040	-0,024
-134,629	7,380	0,028	0,015
-133,614	-42,210	0,159	0,057
-132,599	611,151	0,022	0,038
-131,585	34,133	0,157	0,097
-130,570	-200,000	0,005	-0,023
-129,556	800,000	-0,030	-0,082
-128,541	-65,764	-0,126	0,036
-127,526	-56,256	0,055	0,017
-126,512	-105,061	-0,089	0,014
-125,497	37,362	0,065	0,041
-124,483	300,909	0,079	0,104
-123,468	800,000	0,036	0,093
-122,453	-104,855	-0,169	-0,027
-121,439	-31,655	-0,015	0,006
-120,424	467,574	-0,049	-0,078
-119,410	-200,000	0,004	0,131
