DTS Sentinel unit serial number:	SN410029Multiplexer serial number:	ORYXHardware model number:	OX2-SRSoftware version number:	ORYX F/W v4,00 Oryx Data Collector v3.7.2.0data status	okinstallation	B3 Nyhavnadifferential loss correction	single-endedforward channel	channel 1reverse channel	N/Adate	2023/11/28time	12:22:31forward acquisition time	300,00reverse acquisition time	0,00gamma	499,1914k internal	0,3141k external	0,3141temperature offset calibration	1,0000default loss term (dB/km)	0,3820temperature slope calibration	1,0000multiplexer offset coefficient	1,0000multiplexer slope coefficient	1,0000fibre end	0,00T internal ref (°C)	8,55T ext. ref 1 (°C)	-7,67T ext. ref 2 (°C)	-7,85length (m)	temperature (°C)	Stokes	anti-Stokes-744,400	77,217	-0,274	-0,216
-743,385	-200,000	-0,029	0,309
-742,371	74,234	-0,254	-0,198
-741,356	-200,000	-0,022	0,397
-740,342	301,653	-0,242	-0,332
-739,327	-200,000	-0,063	0,305
-738,312	640,181	-0,122	-0,231
-737,298	800,000	-0,111	0,274
-736,283	41,769	-0,186	-0,125
-735,269	800,000	0,094	0,245
-734,254	800,000	-0,136	-0,292
-733,239	-15,112	-0,300	0,142
-732,225	-200,000	0,014	-0,083
-731,210	-183,270	0,228	0,003
-730,196	206,562	-0,059	-0,069
-729,181	-30,184	-0,089	0,037
-728,167	212,728	-0,083	-0,097
-727,152	185,859	0,096	-0,106
-726,137	-33,680	0,070	0,028
-725,123	202,441	-0,088	-0,101
-724,108	771,716	0,028	-0,057
-723,094	-85,403	-0,059	0,014
-722,079	-66,158	-0,125	0,037
-721,064	268,153	-0,066	0,086
-720,050	-76,437	0,070	-0,018
-719,035	-200,000	-0,021	0,097
-718,021	-200,000	-0,037	-0,128
-717,006	36,135	-0,076	-0,049
-715,991	70,218	-0,136	-0,104
-714,977	800,000	-0,028	-0,077
-713,962	-114,870	0,029	0,004
-712,948	28,135	-0,073	-0,045
-711,933	3,323	0,041	0,022
-710,918	-151,854	0,160	-0,009
-709,904	136,522	-0,056	-0,054
-708,889	-200,000	0,010	-0,195
-707,875	551,167	-0,068	-0,121
-706,860	800,000	-0,017	-0,035
-705,845	0,613	-0,082	0,043
-704,831	235,105	-0,022	0,027
-703,816	-158,076	0,128	0,005
-702,802	-200,000	-0,018	0,179
-701,787	-77,435	-0,094	-0,024
-700,772	-76,337	-0,030	-0,008
-699,758	-29,577	0,033	-0,014
-698,743	-16,588	0,141	-0,066
-697,729	-59,129	-0,029	-0,009
-696,714	800,000	-0,026	-0,054
-695,699	143,537	0,021	0,021
-694,685	-148,233	-0,109	0,007
-693,670	-64,441	-0,119	0,036
-692,656	-200,000	-0,005	0,032
-691,641	-200,000	0,028	0,170
-690,627	-200,000	-0,001	0,034
-689,612	427,815	-0,073	-0,116
-688,597	-45,353	-0,061	0,022
-687,583	24,068	-0,196	-0,119
-686,568	-104,870	-0,048	-0,008
-685,554	420,891	0,064	-0,101
-684,539	-128,925	0,199	0,020
-683,524	-95,484	0,148	0,029
-682,510	800,000	-0,021	0,063
-681,495	-23,545	-0,054	-0,024
-680,481	33,736	0,033	0,021
-679,466	322,441	-0,073	-0,103
-678,451	-88,254	-0,090	-0,020
-677,437	-156,207	-0,037	-0,002
-676,422	-15,458	0,065	-0,030
-675,408	-11,499	0,143	0,069
-674,393	800,000	0,016	0,045
-673,378	-148,849	-0,135	0,008
-672,364	175,806	-0,138	-0,148
-671,349	800,000	-0,061	-0,151
-670,335	460,019	0,030	0,050
-669,320	-200,000	-0,046	0,170
-668,305	-103,180	-0,118	-0,020
-667,291	-200,000	-0,015	-0,126
-666,276	420,006	-0,060	-0,096
-665,262	-200,000	-0,048	-0,163
-664,247	-67,974	0,093	0,027
-663,232	220,473	-0,088	-0,104
-662,218	800,000	-0,031	0,097
-661,203	-137,028	-0,096	0,008
-660,189	439,584	0,048	-0,078
-659,174	-200,000	0,001	0,049
-658,159	-200,000	-0,004	-0,049
-657,145	217,583	0,022	0,026
-656,130	17,346	0,051	0,030
-655,116	-200,000	0,002	0,073
-654,101	114,478	0,083	0,075
-653,086	-74,935	-0,041	-0,011
-652,072	-53,617	-0,064	0,022
-651,057	9,524	-0,128	0,071
-650,043	47,380	-0,094	-0,064
-649,028	12,474	-0,074	0,042
-648,014	-32,221	0,074	-0,030
-646,999	-200,000	0,029	0,124
-645,984	278,481	0,084	-0,111
-644,970	-200,000	0,008	-0,131
-643,955	-14,596	-0,129	-0,061
-642,941	694,715	-0,067	0,131
-641,926	156,445	0,030	-0,030
-640,911	63,347	-0,123	0,091
-639,897	800,000	0,026	0,083
-638,882	22,866	-0,084	-0,051
-637,868	-92,875	-0,008	0,002
-636,853	-200,000	0,009	-0,030
-635,838	167,948	-0,080	-0,084
-634,824	329,602	-0,012	-0,017
-633,809	72,854	-0,118	-0,091
-632,795	479,036	-0,037	0,062
-631,780	40,969	0,070	0,047
-630,765	299,283	-0,071	-0,096
-629,751	700,609	0,034	-0,066
-628,736	509,920	-0,080	-0,138
-627,722	295,714	0,113	-0,154
-626,707	-0,044	0,068	-0,036
-625,692	-200,000	0,006	-0,038
-624,678	284,787	0,088	0,118
-623,663	-200,000	-0,024	-0,094
-622,649	800,000	0,034	-0,097
-621,634	-50,062	-0,149	0,052
-620,619	-82,049	0,040	0,010
-619,605	800,000	0,050	-0,155
-618,590	235,937	-0,034	-0,042
-617,576	-49,565	0,076	0,027
-616,561	33,699	-0,048	0,031
-615,546	800,000	0,060	-0,125
-614,532	-154,040	-0,106	-0,005
-613,517	-51,310	-0,038	-0,013
-612,503	-144,906	0,097	-0,006
-611,488	379,978	0,091	0,138
-610,474	192,371	0,108	0,120
-609,459	-23,584	-0,007	-0,003
-608,444	643,477	0,048	-0,091
-607,430	800,000	0,003	0,008
-606,415	800,000	-0,057	-0,131
-605,401	800,000	0,024	-0,052
-604,386	42,798	0,070	-0,047
-603,371	48,966	-0,118	0,081
-602,357	81,244	0,097	-0,077
-601,342	-200,000	0,011	-0,062
-600,328	-200,000	-0,003	-0,123
-599,313	732,763	-0,049	-0,097
-598,298	-200,000	0,008	0,048
-597,284	77,927	0,121	0,095
-596,269	-200,000	0,001	0,174
-595,255	157,566	0,067	0,068
-594,240	-32,245	0,066	-0,027
-593,225	800,000	0,029	-0,064
-592,211	90,943	0,088	0,073
-591,196	-26,261	-0,115	-0,050
-590,182	-101,958	-0,149	-0,026
-589,167	156,020	0,023	-0,023
-588,152	190,593	0,061	-0,068
-587,138	246,415	-0,071	0,089
-586,123	800,000	0,049	-0,115
-585,109	-107,773	-0,085	0,014
-584,094	51,535	0,044	0,031
-583,079	14,827	0,075	0,043
-582,065	800,000	0,083	0,196
-581,050	-195,558	0,087	-0,000
-580,036	-200,000	0,013	-0,082
-579,021	128,686	-0,141	0,132
-578,006	-32,773	-0,080	-0,033
-576,992	248,105	0,106	-0,132
-575,977	-35,031	-0,108	-0,043
-574,963	-55,589	0,093	0,031
-573,948	20,714	0,051	0,030
-572,934	-2,474	-0,061	-0,032
-571,919	-109,455	-0,116	-0,018
-570,904	-21,753	-0,182	-0,081
-569,890	342,766	0,063	-0,091
-568,875	800,000	0,018	-0,041
-567,861	16,820	0,105	0,061
-566,846	553,463	0,035	0,063
-565,831	-72,006	-0,068	0,019
-564,817	-200,000	-0,010	0,049
-563,802	-200,000	-0,005	-0,071
-562,788	496,237	-0,023	-0,039
-561,773	-18,940	0,049	-0,022
-560,758	-200,000	-0,005	-0,026
-559,744	451,917	-0,101	-0,164
-558,729	-75,794	0,042	-0,011
-557,715	285,149	0,026	0,035
-556,700	619,812	-0,110	-0,204
-555,685	74,905	-0,105	-0,082
-554,671	51,689	-0,045	-0,031
-553,656	427,626	-0,014	-0,022
-552,642	-84,168	-0,145	0,033
-551,627	-200,000	0,015	0,102
-550,612	68,128	-0,027	0,020
-549,598	339,072	-0,096	-0,138
-548,583	-131,207	-0,007	-0,001
-547,569	-135,611	0,016	0,001
-546,554	264,418	0,043	0,056
-545,539	74,540	0,040	-0,031
-544,525	-110,879	-0,085	0,013
-543,510	426,748	0,018	-0,029
-542,496	28,449	-0,038	-0,024
-541,481	153,997	0,052	-0,053
-540,466	-115,361	-0,074	-0,010
-539,452	-175,926	-0,094	-0,002
-538,437	197,764	0,108	0,122
-537,423	-200,000	0,009	0,152
-536,408	137,151	0,047	-0,045
-535,393	-104,345	-0,129	-0,022
-534,379	399,862	-0,063	0,097
-533,364	38,266	-0,031	0,020
-532,350	-200,000	0,004	0,096
-531,335	520,340	0,038	-0,066
-530,321	-200,000	0,007	-0,114
-529,306	-30,217	-0,121	0,050
-528,291	549,232	-0,081	0,143
-527,277	-23,588	-0,093	-0,041
-526,262	800,000	-0,003	-0,011
-525,248	-124,156	-0,128	0,015
-524,233	-130,011	0,066	0,007
-523,218	220,537	-0,043	0,051
-522,204	113,764	0,088	0,078
-521,189	-30,546	-0,052	-0,022
-520,175	-200,000	-0,123	0,000
-519,160	-142,300	-0,131	-0,009
-518,145	-195,336	0,065	-0,000
-517,131	33,216	-0,079	-0,050
-516,116	-200,000	-0,019	-0,091
-515,102	-92,784	-0,047	0,010
-514,087	308,221	-0,078	0,107
-513,072	55,254	-0,052	0,037
-512,058	179,921	0,115	-0,123
-511,043	-25,986	-0,139	-0,060
-510,029	148,023	0,032	-0,031
-509,014	-200,000	0,019	0,063
-507,999	417,728	-0,072	0,113
-506,985	63,284	-0,057	0,042
-505,970	800,000	-0,028	0,074
-504,956	-200,000	-0,024	0,115
-503,941	-67,144	-0,071	-0,020
-502,926	-102,420	-0,068	0,012
-501,912	-200,000	-0,012	0,099
-500,897	800,000	-0,055	0,116
-499,883	-200,000	-0,004	0,061
-498,868	315,055	-0,086	0,120
-497,853	800,000	-0,059	-0,124
-496,839	-200,000	0,021	-0,094
-495,824	-142,128	0,170	-0,012
-494,810	-36,572	0,102	-0,040
-493,795	-200,000	-0,005	0,077
-492,781	-124,569	0,029	0,003
-491,766	38,421	-0,052	-0,034
-490,751	76,284	0,040	-0,031
-489,737	148,396	0,077	0,076
-488,722	-200,000	-0,010	-0,055
-487,708	335,720	0,103	-0,147
-486,693	-200,000	-0,030	-0,122
-485,678	-18,304	-0,148	0,067
-484,664	-200,000	0,022	-0,096
-483,649	-49,657	-0,026	0,009
-482,635	73,400	0,071	0,054
-481,620	-200,000	0,035	0,137
-480,605	800,000	-0,046	0,111
-479,591	3,636	-0,185	0,099
-478,576	-200,000	-0,014	0,144
-477,562	59,415	0,051	-0,037
-476,547	800,000	-0,033	-0,072
-475,532	73,715	-0,017	0,013
-474,518	-200,000	0,023	0,100
-473,503	423,532	0,027	-0,043
-472,489	8,173	0,060	0,033
-471,474	58,092	-0,133	-0,095
-470,459	800,000	-0,065	-0,161
-469,445	800,000	0,056	-0,156
-468,430	-65,776	-0,032	-0,009
-467,416	-9,895	0,067	0,032
-466,401	-200,000	0,057	0,197
-465,386	146,097	0,061	0,060
-464,372	51,084	0,124	0,086
-463,357	42,053	-0,155	-0,103
-462,343	10,775	-0,027	0,015
-461,328	96,919	-0,042	-0,035
-460,313	800,000	-0,003	0,007
-459,299	289,015	0,089	0,119
-458,284	191,065	0,077	0,085
-457,270	107,203	0,073	0,063
-456,255	800,000	0,024	-0,056
-455,241	-19,741	0,033	0,015
-454,226	789,995	0,079	-0,160
-453,211	173,945	0,099	-0,105
-452,197	-86,870	0,098	0,022
-451,182	432,817	0,052	0,082
-450,168	-109,019	-0,056	-0,009
-449,153	-55,259	0,110	0,036
-448,138	315,256	0,051	-0,070
-447,124	267,598	0,076	-0,098
-446,109	800,000	0,027	-0,074
-445,095	-91,227	0,113	-0,024
-444,080	138,600	0,019	-0,018
-443,065	96,960	-0,058	0,049
-442,051	800,000	-0,045	0,111
-441,036	-200,000	0,017	-0,094
-440,022	-35,783	-0,079	-0,031
-439,007	-37,621	-0,100	0,039
-437,992	404,316	-0,077	-0,119
-436,978	-163,109	-0,161	0,006
-435,963	800,000	0,069	0,167
-434,949	800,000	0,033	-0,073
-433,934	-21,703	-0,101	0,045
-432,919	-150,504	-0,169	-0,009
-431,905	-53,280	0,037	-0,012
-430,890	9,548	0,085	-0,047
-429,876	-31,611	0,023	0,009
-428,861	-200,000	-0,022	0,110
-427,846	-200,000	-0,004	0,092
-426,832	-67,199	-0,091	-0,026
-425,817	-53,705	-0,061	0,020
-424,803	-25,172	-0,027	0,012
-423,788	-200,000	-0,026	0,121
-422,773	800,000	0,026	0,074
-421,759	88,148	-0,067	-0,054
-420,744	76,673	0,164	-0,127
-419,730	47,842	-0,113	0,077
-418,715	-200,000	-0,011	-0,064
-417,701	-200,000	-0,023	-0,075
-416,686	-47,934	0,118	0,041
-415,671	800,000	0,025	0,055
-414,657	-70,891	0,186	-0,051
-413,642	-200,000	0,006	-0,055
-412,628	-158,318	0,043	0,002
-411,613	100,310	0,113	0,096
-410,598	-200,000	0,018	0,073
-409,584	-89,273	-0,138	-0,030
-408,569	77,685	-0,132	0,103
-407,555	800,000	-0,021	-0,055
-406,540	-29,923	0,184	0,076
-405,525	-118,270	-0,136	-0,017
-404,511	18,709	-0,106	-0,062
-403,496	-105,157	0,069	-0,011
-402,482	800,000	0,012	0,035
-401,467	-32,568	0,066	0,027
-400,452	21,241	0,052	0,031
-399,438	263,378	-0,038	0,049
-398,423	800,000	-0,017	-0,035
-397,409	-200,000	-0,012	-0,186
-396,394	17,064	-0,063	0,036
-395,379	-46,113	0,167	0,060
-394,365	800,000	0,060	0,133
-393,350	-200,000	-0,016	-0,092
-392,336	636,817	0,021	0,040
-391,321	-28,123	0,041	-0,017
-390,306	85,049	-0,035	0,028
-389,292	-200,000	-0,028	-0,144
-388,277	-55,872	0,094	-0,030
-387,263	77,197	0,054	0,042
-386,248	157,452	0,082	-0,083
-385,233	128,045	0,039	-0,037
-384,219	800,000	0,036	-0,103
-383,204	-200,000	-0,010	-0,192
-382,190	-59,917	-0,145	-0,045
-381,175	800,000	0,034	-0,087
-380,160	800,000	-0,044	0,110
-379,146	270,107	0,111	0,142
-378,131	-200,000	-0,005	-0,077
-377,117	800,000	-0,027	0,083
-376,102	-200,000	-0,008	-0,101
-375,088	-62,363	0,124	-0,037
-374,073	-109,404	-0,090	0,014
-373,058	800,000	0,029	-0,061
-372,044	788,829	0,050	0,100
-371,029	800,000	-0,034	-0,102
-370,015	128,352	-0,048	-0,045
-369,000	148,650	-0,030	0,030
-367,985	800,000	0,033	-0,086
-366,971	-5,833	-0,057	-0,028
-365,956	-39,356	0,048	0,018
-364,942	-200,000	-0,000	0,069
-363,927	-51,579	0,063	0,021
-362,912	-200,000	-0,027	-0,110
-361,898	-116,061	0,051	0,007
-360,883	800,000	-0,044	0,108
-359,869	-36,130	-0,113	-0,044
-358,854	-144,035	0,134	-0,009
-357,839	800,000	-0,032	-0,090
-356,825	-200,000	-0,000	0,055
-355,810	447,992	-0,022	-0,036
-354,796	-200,000	0,020	0,089
-353,781	-200,000	0,020	0,101
-352,766	-200,000	-0,049	0,000
-351,752	-109,516	0,070	-0,011
-350,737	-145,269	-0,037	0,002
-349,723	639,522	0,094	-0,175
-348,708	549,364	0,052	0,092
-347,693	360,364	-0,111	-0,162
-346,679	3,751	-0,028	-0,015
-345,664	-33,090	-0,088	-0,035
-344,650	337,091	0,150	0,213
-343,635	-200,000	0,004	0,114
-342,620	-200,000	0,005	0,034
-341,606	-94,226	-0,075	0,015
-340,591	-148,462	0,084	-0,005
-339,577	800,000	-0,038	-0,118
-338,562	203,407	0,034	0,039
-337,548	336,900	0,103	-0,147
-336,533	-103,605	0,114	-0,019
-335,518	-84,870	-0,099	0,022
-334,504	-200,000	-0,014	0,059
-333,489	114,362	-0,027	-0,024
-332,475	800,000	-0,034	-0,086
-331,460	55,589	-0,107	-0,075
-330,445	51,288	-0,128	-0,089
-329,431	140,019	0,054	0,052
-328,416	-61,088	0,102	0,031
-327,402	-21,349	0,176	0,078
-326,387	9,479	-0,127	-0,070
-325,372	191,058	-0,054	-0,059
-324,358	128,155	-0,107	-0,099
-323,343	503,978	0,038	0,065
-322,329	-200,000	0,002	0,078
-321,314	-10,240	-0,072	0,035
-320,299	-7,045	0,170	0,084
-319,285	0,821	-0,119	0,062
-318,270	-200,000	0,011	-0,106
-317,256	-200,000	0,008	-0,161
-316,241	4,052	0,056	-0,030
-315,226	-130,912	0,106	0,010
-314,212	-67,691	-0,059	-0,017
-313,197	659,989	0,006	0,012
-312,183	-200,000	0,022	0,134
-311,168	-121,090	-0,145	-0,018
-310,153	800,000	-0,016	-0,035
-309,139	-119,046	0,059	-0,007
-308,124	-80,059	0,057	-0,014
-307,110	-71,552	0,111	0,030
-306,095	-5,030	-0,055	0,027
-305,080	-33,221	0,070	0,028
-304,066	643,667	-0,102	-0,190
-303,051	201,006	0,045	-0,051
-302,037	126,006	0,056	0,051
-301,022	-31,311	-0,069	0,028
-300,008	800,000	0,040	0,106
-298,993	-200,000	0,006	0,066
-297,978	-200,000	0,004	-0,081
-296,964	26,936	0,087	-0,053
-295,949	-200,000	0,004	-0,028
-294,935	800,000	0,018	-0,040
-293,920	800,000	0,009	0,029
-292,905	15,613	-0,073	-0,042
-291,891	-46,827	-0,121	0,043
-290,876	-200,000	-0,021	0,145
-289,862	148,327	-0,122	0,120
-288,847	-200,000	-0,043	-0,204
-287,832	800,000	-0,031	-0,081
-286,818	451,600	-0,045	-0,073
-285,803	-139,788	0,049	0,004
-284,789	-200,000	0,037	0,199
-283,774	371,078	0,030	0,045
-282,759	-200,000	0,003	0,051
-281,745	-200,000	-0,005	-0,027
-280,730	-200,000	0,014	-0,180
-279,716	-43,204	0,029	-0,011
-278,701	-200,000	0,003	-0,052
-277,686	-167,972	0,060	-0,002
-276,672	-200,000	0,005	-0,042
-275,657	-200,000	0,015	-0,160
-274,643	-200,000	0,016	0,168
-273,628	479,378	0,023	0,039
-272,613	20,285	-0,068	-0,040
-271,599	-90,179	-0,109	-0,023
-270,584	446,671	-0,061	0,097
-269,570	800,000	-0,035	0,083
-268,555	800,000	0,041	0,108
-267,540	-43,322	-0,133	0,049
-266,526	-200,000	-0,029	-0,156
-265,511	-151,229	0,049	0,003
-264,497	56,493	0,094	0,066
-263,482	294,949	0,083	0,111
-262,467	800,000	-0,005	-0,010
-261,453	1,649	0,152	0,080
-260,438	-151,888	-0,002	0,000
-259,424	800,000	0,024	-0,061
-258,409	308,028	0,034	0,046
-257,395	-200,000	0,009	0,063
-256,380	222,650	-0,055	-0,064
-255,365	89,755	0,078	0,064
-254,351	800,000	0,016	-0,051
-253,336	23,908	-0,090	-0,054
-252,322	-16,109	-0,153	-0,070
-251,307	40,459	-0,151	-0,099
-250,292	202,333	0,028	-0,032
-249,278	23,645	0,118	-0,071
-248,263	632,244	0,041	0,075
-247,249	-187,613	0,133	-0,001
-246,234	800,000	0,017	-0,038
-245,219	-200,000	-0,034	-0,110
-244,205	-146,981	-0,050	-0,003
-243,190	-200,000	-0,011	-0,103
-242,176	-175,264	0,115	0,002
-241,161	-123,118	-0,098	-0,011
-240,146	-53,700	0,057	0,019
-239,132	78,946	-0,077	0,060
-238,117	-128,448	-0,113	-0,011
-237,103	-110,116	0,126	0,019
-236,088	517,951	0,098	0,168
-235,073	649,346	0,033	0,061
-234,059	275,642	-0,049	0,064
-233,044	122,935	0,105	0,096
-232,030	302,554	0,031	0,041
-231,015	-47,082	0,135	0,048
-230,000	36,660	-0,089	0,057
-228,986	-200,000	0,003	-0,023
-227,971	800,000	0,051	-0,128
-226,957	-25,850	0,135	0,057
-225,942	-144,529	0,111	0,007
-224,927	-5,547	-0,091	-0,045
-223,913	-111,423	-0,109	-0,016
-222,898	782,802	0,070	-0,139
-221,884	-200,000	0,024	-0,081
-220,869	-65,932	0,028	0,008
-219,855	-75,649	0,183	-0,047
-218,840	83,349	-0,021	0,017
-217,825	-94,385	-0,099	0,020
-216,811	-135,739	0,086	-0,007
-215,796	-200,000	-0,009	-0,035
-214,782	230,124	-0,036	0,042
-213,767	-38,312	-0,063	0,024
-212,752	800,000	-0,028	-0,068
-211,738	59,633	-0,019	0,014
-210,723	-200,000	-0,008	0,115
-209,709	289,236	0,068	-0,090
-208,694	222,284	0,088	0,103
-207,679	-102,800	-0,059	0,010
-206,665	800,000	-0,044	0,124
-205,650	-53,324	-0,056	0,018
-204,636	66,952	-0,091	0,068
-203,621	540,008	-0,073	0,126
-202,606	402,611	0,028	-0,042
-201,592	188,564	-0,077	-0,084
-200,577	692,217	-0,050	0,095
-199,563	-200,000	-0,012	0,091
-198,548	233,703	0,069	0,082
-197,533	-200,000	0,062	0,200
-196,519	30,647	-0,056	-0,035
-195,504	-200,000	-0,018	0,097
-194,490	-200,000	0,017	-0,132
-193,475	-45,794	0,057	-0,020
-192,460	-189,408	0,099	-0,001
-191,446	-81,733	-0,004	0,001
-190,431	-109,446	0,181	0,027
-189,417	-93,824	0,093	0,018
-188,402	-188,633	-0,104	0,001
-187,387	325,382	0,050	-0,069
-186,373	-145,495	-0,073	0,005
-185,358	408,655	0,034	0,053
-184,344	-200,000	-0,033	0,181
-183,329	168,901	0,092	0,096
-182,315	147,124	0,122	0,119
-181,300	800,000	-0,058	0,135
-180,285	-105,122	-0,144	-0,024
-179,271	-174,549	-0,172	-0,003
-178,256	164,038	0,026	0,027
-177,242	687,900	0,078	0,148
-176,227	50,967	-0,106	0,073
-175,212	800,000	0,064	0,153
-174,198	-200,000	0,014	-0,141
-173,183	-200,000	0,022	-0,117
-172,169	800,000	-0,025	-0,056
-171,154	335,724	0,015	0,022
-170,139	-82,352	0,046	0,011
-169,125	-90,208	0,133	0,028
-168,110	-200,000	-0,018	-0,091
-167,096	31,044	0,130	-0,080
-166,081	800,000	-0,008	0,018
-165,066	-200,000	-0,002	0,107
-164,052	89,648	0,093	-0,075
-163,037	-36,966	-0,075	-0,029
-162,023	-103,389	0,109	0,018
-161,008	134,809	-0,089	0,084
-159,993	-35,342	-0,035	0,014
-158,979	88,295	-0,049	0,039
-157,964	-200,000	0,014	-0,107
-156,950	89,393	-0,083	0,067
-155,935	-152,635	0,120	0,006
-154,920	241,714	0,028	-0,033
-153,906	105,459	0,072	-0,062
-152,891	-200,000	-0,008	0,087
-151,877	-200,000	0,007	-0,052
-150,862	-200,000	0,017	-0,109
-149,847	85,677	0,091	-0,073
-148,833	-200,000	-0,015	0,201
-147,818	118,994	0,017	-0,015
-146,804	-129,988	0,028	0,003
-145,789	274,130	0,133	0,171
-144,775	-200,000	-0,004	-0,031
-143,760	-200,000	-0,009	-0,262
-142,745	800,000	0,043	-0,109
-141,731	-64,944	0,104	-0,030
-140,716	-98,552	-0,080	-0,015
-139,702	402,284	0,046	0,070
-138,687	88,337	0,020	0,016
-137,672	-3,170	-0,127	-0,064
-136,658	12,887	-0,089	0,049
-135,643	592,952	-0,080	0,144
-134,629	-200,000	0,025	-0,101
-133,614	800,000	0,033	-0,070
-132,599	8,671	0,049	-0,027
-131,585	800,000	0,022	0,064
-130,570	6,021	-0,071	0,038
-129,556	143,620	-0,017	0,016
-128,541	800,000	-0,013	-0,026
-127,526	462,033	-0,051	-0,083
-126,512	-200,000	-0,025	0,132
-125,497	-200,000	0,009	-0,039
-124,483	176,108	-0,020	0,021
-123,468	778,607	-0,036	-0,071
-122,453	-14,591	-0,085	0,039
-121,439	368,782	-0,047	0,068
-120,424	-38,112	0,053	0,020
-119,410	122,116	0,054	0,049
