DTS Sentinel unit serial number:	SN410029Multiplexer serial number:	ORYXHardware model number:	OX2-SRSoftware version number:	ORYX F/W v4,00 Oryx Data Collector v3.7.2.0data status	okinstallation	B3 Nyhavnadifferential loss correction	single-endedforward channel	channel 1reverse channel	N/Adate	2023/11/28time	13:52:30forward acquisition time	300,00reverse acquisition time	0,00gamma	499,1914k internal	0,3139k external	0,3139temperature offset calibration	1,0000default loss term (dB/km)	0,3820temperature slope calibration	1,0000multiplexer offset coefficient	1,0000multiplexer slope coefficient	1,0000fibre end	0,00T internal ref (°C)	7,67T ext. ref 1 (°C)	-7,61T ext. ref 2 (°C)	-7,78length (m)	temperature (°C)	Stokes	anti-Stokes-744,400	-200,000	0,010	-0,107
-743,385	-200,000	0,004	0,164
-742,371	800,000	-0,120	-0,343
-741,356	-200,000	0,004	0,403
-740,342	-200,000	-0,020	-0,101
-739,327	-200,000	-0,002	0,305
-738,312	109,190	-0,242	-0,215
-737,298	422,393	-0,141	0,225
-736,283	141,026	-0,174	-0,171
-735,269	-200,000	-0,071	0,349
-734,254	-113,927	-0,235	-0,033
-733,239	-60,060	-0,272	0,086
-732,225	800,000	-0,096	-0,253
-731,210	-183,251	-0,124	0,002
-730,196	22,984	-0,081	-0,049
-729,181	225,149	0,053	0,063
-728,167	-31,098	0,022	-0,009
-727,152	89,336	-0,093	-0,077
-726,137	-51,664	-0,034	0,012
-725,123	119,451	-0,185	-0,170
-724,108	-200,000	0,002	-0,084
-723,094	15,319	0,033	0,019
-722,079	-77,474	-0,075	-0,019
-721,064	-200,000	-0,020	-0,086
-720,050	-0,980	-0,052	0,027
-719,035	-200,000	0,015	0,066
-718,021	800,000	0,064	-0,139
-717,006	10,204	-0,092	0,052
-715,991	-112,416	0,049	-0,007
-714,977	458,763	-0,067	-0,111
-713,962	322,639	-0,058	-0,083
-712,948	383,985	-0,022	-0,034
-711,933	108,702	-0,029	-0,026
-710,918	-69,299	-0,066	-0,019
-709,904	-44,977	-0,077	0,028
-708,889	99,880	-0,067	-0,058
-707,875	-87,483	-0,168	-0,037
-706,860	-135,557	0,160	0,014
-705,845	800,000	0,062	-0,170
-704,831	-200,000	0,029	0,105
-703,816	171,456	0,044	0,046
-702,802	-51,660	-0,125	-0,043
-701,787	-200,000	0,012	-0,070
-700,772	272,401	-0,047	-0,061
-699,758	-200,000	-0,013	-0,116
-698,743	359,172	-0,009	-0,013
-697,729	-200,000	0,028	0,162
-696,714	-200,000	0,004	-0,130
-695,699	-32,942	-0,084	0,035
-694,685	30,986	-0,126	-0,080
-693,670	643,931	-0,008	-0,015
-692,656	-184,825	0,061	-0,001
-691,641	142,682	-0,014	0,013
-690,627	47,195	-0,061	0,042
-689,612	36,199	0,040	0,026
-688,597	491,050	0,016	0,027
-687,583	487,055	0,080	0,136
-686,568	-200,000	-0,002	-0,029
-685,554	52,071	-0,079	0,055
-684,539	-200,000	-0,011	-0,067
-683,524	735,284	0,052	-0,103
-682,510	97,165	-0,043	-0,037
-681,495	410,101	-0,024	0,038
-680,481	-200,000	0,002	-0,015
-679,466	-61,687	0,106	-0,033
-678,451	-200,000	0,006	-0,044
-677,437	-79,737	-0,102	0,025
-676,422	800,000	0,073	0,181
-675,408	-23,444	0,078	0,035
-674,393	-11,590	-0,058	0,028
-673,378	185,339	0,051	-0,056
-672,364	170,078	-0,063	-0,067
-671,349	580,174	-0,055	0,100
-670,335	9,880	-0,075	-0,042
-669,320	-134,703	0,095	0,008
-668,305	-23,029	0,052	0,023
-667,291	-65,041	-0,094	0,028
-666,276	-63,497	-0,100	-0,030
-665,262	22,334	-0,090	-0,055
-664,247	-111,674	-0,097	-0,014
-663,232	-200,000	-0,001	0,092
-662,218	-200,000	0,032	0,118
-661,203	800,000	-0,042	0,112
-660,189	11,946	-0,127	-0,072
-659,174	77,124	-0,038	-0,029
-658,159	123,465	-0,060	-0,055
-657,145	496,606	0,018	-0,031
-656,130	-200,000	0,027	0,139
-655,116	8,676	-0,179	0,099
-654,101	272,369	0,031	0,041
-653,086	-2,105	-0,090	0,046
-652,072	104,671	-0,127	-0,111
-651,057	-100,063	0,175	-0,032
-650,043	-200,000	-0,002	0,044
-649,028	-7,603	-0,045	-0,023
-648,014	-110,962	0,097	0,015
-646,999	22,657	0,052	0,031
-645,984	-200,000	0,012	0,148
-644,970	119,135	0,028	-0,025
-643,955	154,795	-0,051	-0,052
-642,941	516,947	-0,104	-0,181
-641,926	-200,000	-0,023	-0,086
-640,911	336,800	0,039	-0,056
-639,897	171,834	0,020	-0,021
-638,882	800,000	0,025	0,079
-637,868	800,000	0,012	-0,036
-636,853	-20,132	-0,088	0,040
-635,838	-200,000	0,002	-0,035
-634,824	210,318	-0,043	-0,050
-633,809	-200,000	-0,023	0,083
-632,795	-29,932	-0,080	-0,034
-631,780	800,000	-0,035	0,088
-630,765	232,629	0,087	-0,106
-629,751	189,437	-0,049	0,054
-628,736	423,727	-0,092	-0,147
-627,722	184,585	-0,099	-0,109
-626,707	36,714	-0,049	-0,032
-625,692	-200,000	-0,001	0,049
-624,678	40,713	0,071	0,047
-623,663	148,867	0,053	0,053
-622,649	-156,975	0,171	-0,008
-621,634	-48,021	-0,144	-0,051
-620,619	-200,000	-0,001	-0,117
-619,605	-200,000	0,003	-0,087
-618,590	-200,000	0,013	0,104
-617,576	27,650	0,131	0,081
-616,561	-200,000	0,015	0,127
-615,546	-13,311	0,135	-0,065
-614,532	-17,688	0,165	0,076
-613,517	229,976	-0,103	-0,124
-612,503	-42,036	-0,165	0,062
-611,488	-62,175	0,093	0,029
-610,474	-55,691	0,071	0,023
-609,459	-200,000	0,005	-0,065
-608,444	-116,846	-0,288	-0,038
-607,430	-200,000	0,047	-0,223
-606,415	-50,769	-0,073	0,025
-605,401	3,666	-0,015	0,008
-604,386	-102,565	0,142	0,025
-603,371	491,378	-0,057	-0,096
-602,357	91,727	-0,035	0,029
-601,342	188,926	-0,078	0,087
-600,328	-200,000	0,019	-0,110
-599,313	297,252	-0,107	0,145
-598,298	758,447	0,030	-0,059
-597,284	-200,000	0,028	0,095
-596,269	-106,200	0,058	-0,010
-595,255	67,601	0,052	0,039
-594,240	-200,000	0,012	-0,092
-593,225	69,707	0,034	0,026
-592,211	690,432	0,047	0,090
-591,196	-109,775	-0,135	-0,021
-590,182	-200,000	-0,011	-0,050
-589,167	-107,410	-0,050	-0,008
-588,152	113,621	0,063	-0,056
-587,138	800,000	0,024	-0,071
-586,123	65,937	0,030	0,022
-585,109	101,285	0,095	-0,081
-584,094	5,040	0,115	-0,062
-583,079	210,195	0,100	0,116
-582,065	-200,000	0,042	0,184
-581,050	-18,216	0,150	-0,069
-580,036	-102,194	-0,036	0,006
-579,021	183,091	-0,101	0,110
-578,006	800,000	-0,013	-0,032
-576,992	-46,928	0,111	-0,040
-575,977	22,301	0,085	-0,051
-574,963	147,625	-0,055	-0,054
-573,948	288,119	-0,042	0,056
-572,934	-12,899	-0,158	0,075
-571,919	-200,000	-0,049	-0,164
-570,904	279,659	-0,053	-0,070
-569,890	-200,000	0,026	-0,085
-568,875	315,560	0,070	0,097
-567,861	-200,000	0,004	0,258
-566,846	750,468	-0,009	-0,017
-565,831	-48,828	-0,147	0,052
-564,817	800,000	0,019	-0,056
-563,802	525,594	-0,092	0,161
-562,788	90,912	0,085	-0,070
-561,773	-200,000	0,002	0,071
-560,758	-150,367	0,059	0,003
-559,744	99,856	0,040	0,034
-558,729	150,460	0,064	0,064
-557,715	-59,946	0,061	-0,019
-556,700	800,000	-0,060	-0,193
-555,685	-34,481	0,167	-0,067
-554,671	800,000	-0,031	0,094
-553,656	157,672	0,043	-0,043
-552,642	-200,000	-0,008	-0,057
-551,627	-75,269	-0,082	0,021
-550,612	6,438	-0,077	0,042
-549,598	731,271	-0,066	0,131
-548,583	191,374	0,033	-0,036
-547,569	800,000	0,032	-0,094
-546,554	104,197	0,045	-0,039
-545,539	69,891	0,151	0,114
-544,525	800,000	0,008	0,024
-543,510	-50,385	-0,121	-0,042
-542,496	-39,825	-0,077	0,029
-541,481	134,984	-0,064	0,061
-540,466	-126,525	0,112	0,012
-539,452	-157,793	0,083	0,004
-538,437	-37,111	0,064	-0,025
-537,423	11,585	0,023	0,013
-536,408	-200,000	0,002	-0,145
-535,393	-42,448	-0,037	-0,014
-534,379	-200,000	0,003	-0,067
-533,364	-200,000	0,012	-0,042
-532,350	35,407	-0,119	-0,076
-531,335	-200,000	0,011	-0,064
-530,321	-200,000	0,014	0,086
-529,306	202,454	-0,070	0,080
-528,291	-136,754	-0,073	-0,006
-527,277	-200,000	0,001	-0,139
-526,262	416,423	0,051	-0,081
-525,248	-200,000	-0,038	-0,165
-524,233	-200,000	0,016	0,203
-523,218	505,784	0,029	-0,050
-522,204	-73,669	-0,222	-0,059
-521,189	-200,000	-0,043	-0,223
-520,175	352,253	-0,040	-0,058
-519,160	-200,000	0,004	-0,050
-518,145	624,197	0,022	-0,040
-517,131	800,000	0,048	0,117
-516,116	59,197	0,141	0,102
-515,102	-200,000	0,020	-0,093
-514,087	-0,408	-0,129	-0,067
-513,072	563,819	0,025	0,044
-512,058	19,531	-0,093	-0,055
-511,043	-141,330	0,122	0,009
-510,029	80,909	-0,023	-0,018
-509,014	4,622	0,083	-0,044
-507,999	-174,348	-0,169	-0,004
-506,985	25,764	-0,065	-0,040
-505,970	51,833	-0,109	0,076
-504,956	-200,000	0,027	-0,172
-503,941	15,121	-0,079	0,045
-502,926	-44,357	0,051	0,019
-501,912	-200,000	-0,031	0,111
-500,897	103,680	-0,049	-0,043
-499,883	-200,000	-0,023	-0,082
-498,868	800,000	-0,040	-0,084
-497,853	-200,000	0,005	-0,054
-496,839	-200,000	0,020	-0,114
-495,824	368,671	-0,030	0,045
-494,810	147,258	0,122	0,120
-493,795	-80,865	0,044	-0,011
-492,781	-8,101	-0,096	0,047
-491,766	800,000	-0,049	-0,105
-490,751	270,720	-0,048	0,062
-489,737	-3,377	0,095	0,048
-488,722	-75,236	0,066	-0,017
-487,708	224,710	0,073	0,087
-486,693	-61,313	-0,033	0,010
-485,678	800,000	-0,029	-0,060
-484,664	-200,000	-0,034	-0,159
-483,649	322,891	-0,061	-0,086
-482,635	115,808	-0,045	0,040
-481,620	256,643	0,045	-0,057
-480,605	101,564	-0,025	-0,022
-479,591	264,218	-0,059	0,075
-478,576	-112,761	0,109	-0,016
-477,562	18,906	0,074	0,043
-476,547	-55,814	0,126	-0,041
-475,532	-200,000	0,006	0,069
-474,518	63,045	-0,057	-0,042
-473,503	-200,000	-0,005	0,140
-472,489	-111,509	0,106	0,016
-471,474	33,021	0,106	0,067
-470,459	-155,205	-0,062	0,003
-469,445	732,316	-0,101	-0,200
-468,430	-16,971	-0,120	-0,056
-467,416	157,882	-0,060	0,061
-466,401	-200,000	-0,004	-0,085
-465,386	-61,134	0,114	0,035
-464,372	800,000	0,048	-0,124
-463,357	-97,956	0,096	0,018
-462,343	-152,668	-0,096	0,005
-461,328	-78,914	0,028	-0,007
-460,313	70,076	0,081	-0,061
-459,299	-200,000	0,016	0,059
-458,284	-200,000	-0,011	-0,043
-457,270	258,959	-0,082	-0,104
-456,255	-133,735	-0,083	-0,007
-455,241	-200,000	-0,013	0,074
-454,226	-200,000	-0,027	-0,099
-453,211	800,000	0,020	-0,050
-452,197	-24,241	0,114	0,050
-451,182	-50,878	0,152	0,052
-450,168	-123,742	-0,017	-0,002
-449,153	-200,000	0,002	0,090
-448,138	187,230	-0,063	0,069
-447,124	-200,000	0,031	0,169
-446,109	800,000	0,020	-0,061
-445,095	800,000	0,050	-0,123
-444,080	-31,235	0,106	0,044
-443,065	-44,786	0,118	-0,043
-442,051	800,000	0,011	-0,030
-441,036	64,908	-0,121	-0,090
-440,022	155,734	-0,104	-0,105
-439,007	800,000	-0,040	-0,099
-437,992	-65,278	0,225	-0,066
-436,978	137,568	0,034	-0,033
-435,963	-200,000	-0,010	-0,075
-434,949	71,037	-0,097	-0,074
-433,934	-200,000	0,037	-0,172
-432,919	-64,983	0,078	-0,023
-431,905	596,151	0,029	-0,052
-430,890	124,772	-0,058	0,053
-429,876	27,209	0,056	-0,035
-428,861	-162,780	0,134	-0,005
-427,846	800,000	0,036	-0,077
-426,832	-200,000	0,002	0,074
-425,817	629,951	0,010	0,018
-424,803	58,387	0,089	0,064
-423,788	261,483	-0,055	-0,070
-422,773	-200,000	-0,000	0,010
-421,759	95,848	0,088	0,074
-420,744	-33,723	0,014	0,006
-419,730	-28,382	-0,021	0,009
-418,715	-180,590	0,165	-0,002
-417,701	269,893	-0,058	-0,075
-416,686	800,000	-0,050	0,151
-415,671	800,000	0,018	0,044
-414,657	-59,655	0,092	-0,029
-413,642	132,057	-0,059	-0,055
-412,628	146,696	-0,016	0,016
-411,613	-200,000	0,009	-0,117
-410,598	98,979	0,088	-0,075
-409,584	800,000	0,060	0,156
-408,569	-200,000	0,000	0,161
-407,555	-119,172	0,194	0,024
-406,540	-200,000	-0,030	-0,103
-405,525	417,415	-0,079	-0,124
-404,511	-200,000	0,003	-0,041
-403,496	800,000	0,087	-0,179
-402,482	-44,842	0,156	-0,057
-401,467	191,147	0,049	0,054
-400,452	-200,000	-0,007	0,090
-399,438	800,000	0,052	0,107
-398,423	800,000	-0,041	0,108
-397,409	800,000	-0,038	-0,108
-396,394	161,037	0,150	-0,154
-395,379	-86,518	0,107	0,024
-394,365	585,657	-0,016	0,029
-393,350	-85,811	-0,126	0,028
-392,336	-130,316	0,073	-0,007
-391,321	-31,911	-0,103	0,042
-390,306	69,700	-0,125	-0,094
-389,292	221,840	0,024	-0,028
-388,277	-200,000	-0,008	-0,136
-387,263	76,343	0,058	-0,045
-386,248	800,000	0,007	0,021
-385,233	177,819	0,080	0,085
-384,219	162,630	-0,098	0,101
-383,204	403,454	-0,033	0,051
-382,190	-102,876	-0,106	0,018
-381,175	-200,000	-0,001	0,012
-380,160	492,985	0,029	0,048
-379,146	-200,000	0,012	0,159
-378,131	41,458	-0,130	0,086
-377,117	57,936	-0,117	0,084
-376,102	-200,000	0,001	-0,072
-375,088	-89,011	-0,075	0,016
-374,073	800,000	-0,014	0,038
-373,058	-200,000	0,010	0,157
-372,044	800,000	-0,022	-0,067
-371,029	-200,000	-0,020	0,135
-370,015	213,752	-0,030	0,035
-369,000	800,000	0,026	-0,054
-367,985	-145,904	-0,116	-0,007
-366,971	-200,000	-0,027	-0,092
-365,956	86,355	-0,110	-0,089
-364,942	220,035	-0,138	0,161
-363,927	-200,000	-0,015	0,102
-362,912	-41,351	-0,054	-0,020
-361,898	80,588	-0,050	0,040
-360,883	-41,907	-0,102	0,038
-359,869	-17,847	0,087	0,040
-358,854	49,479	0,024	-0,016
-357,839	692,787	0,093	0,180
-356,825	-14,564	0,098	0,046
-355,810	-200,000	0,016	-0,111
-354,796	-103,183	-0,155	-0,027
-353,781	-47,780	-0,086	-0,030
-352,766	-33,484	-0,117	-0,047
-351,752	800,000	0,037	0,082
-350,737	739,448	0,065	0,128
-349,723	242,493	-0,074	-0,091
-348,708	-101,985	-0,090	0,016
-347,693	-116,078	-0,142	0,019
-346,679	226,114	0,035	-0,041
-345,664	-160,450	-0,094	0,004
-344,650	-174,512	0,111	-0,002
-343,635	-200,000	-0,014	-0,066
-342,620	-200,000	0,017	0,130
-341,606	800,000	0,003	-0,009
-340,591	-165,807	-0,115	0,004
-339,577	-115,677	-0,274	-0,037
-338,562	44,344	-0,021	-0,014
-337,548	-46,611	0,058	0,021
-336,533	-200,000	-0,014	0,093
-335,518	-144,067	0,063	0,004
-334,504	-200,000	-0,032	0,196
-333,489	50,373	0,013	0,009
-332,475	220,779	-0,129	-0,151
-331,460	-200,000	-0,023	-0,080
-330,445	-200,000	0,026	0,125
-329,431	-92,159	-0,038	-0,008
-328,416	229,053	0,077	0,092
-327,402	-200,000	0,009	0,182
-326,387	-197,907	-0,155	-0,001
-325,372	-132,675	-0,147	-0,014
-324,358	70,545	0,085	-0,064
-323,343	76,168	-0,064	-0,049
-322,329	680,837	-0,028	0,054
-321,314	-94,984	0,090	-0,018
-320,299	14,783	0,068	0,039
-319,285	27,219	0,094	-0,057
-318,270	-120,711	-0,154	-0,019
-317,256	-200,000	0,010	0,106
-316,241	484,891	0,035	0,059
-315,226	-135,674	0,063	-0,005
-314,212	99,441	-0,110	0,093
-313,197	800,000	-0,013	0,028
-312,183	-200,000	0,003	-0,015
-311,168	154,853	-0,058	-0,058
-310,153	-120,016	-0,149	-0,018
-309,139	-17,211	-0,189	0,087
-308,124	-108,955	0,074	-0,011
-307,110	341,239	0,068	0,097
-306,095	162,712	0,090	-0,092
-305,080	800,000	0,037	-0,096
-304,066	427,955	-0,083	0,131
-303,051	648,527	-0,098	-0,183
-302,037	53,096	0,075	-0,052
-301,022	-8,548	0,099	0,048
-300,008	-174,018	0,149	0,003
-298,993	-200,000	-0,008	-0,030
-297,978	-119,143	-0,113	0,014
-296,964	800,000	-0,041	-0,084
-295,949	-67,497	-0,020	-0,006
-294,935	800,000	-0,045	-0,117
-293,920	800,000	0,040	0,113
-292,905	-32,583	-0,140	-0,057
-291,891	440,590	0,019	-0,030
-290,876	-10,504	0,071	0,034
-289,862	-200,000	0,004	0,076
-288,847	117,710	0,033	0,030
-287,832	127,570	-0,077	0,071
-286,818	-200,000	0,003	0,076
-285,803	-93,796	0,071	0,014
-284,789	-200,000	0,003	0,019
-283,774	-200,000	-0,008	0,042
-282,759	22,312	-0,070	-0,041
-281,745	205,001	-0,042	-0,047
-280,730	797,820	0,043	-0,088
-279,716	534,162	-0,076	-0,132
-278,701	452,640	0,080	-0,129
-277,686	94,243	0,114	0,094
-276,672	212,564	0,103	0,118
-275,657	-200,000	0,018	0,089
-274,643	-79,865	-0,111	-0,027
-273,628	-200,000	0,032	-0,142
-272,613	-144,926	0,085	0,006
-271,599	-200,000	-0,010	-0,093
-270,584	800,000	-0,020	0,044
-269,570	-116,516	0,082	0,011
-268,555	198,883	0,075	0,083
-267,540	53,080	-0,186	-0,130
-266,526	-69,645	0,108	-0,030
-265,511	800,000	-0,023	0,072
-264,497	162,977	0,053	0,054
-263,482	-200,000	-0,011	0,086
-262,467	-200,000	0,004	0,126
-261,453	245,710	-0,016	-0,020
-260,438	247,896	-0,024	0,030
-259,424	61,890	-0,054	0,039
-258,409	-200,000	0,013	-0,183
-257,395	195,775	-0,062	0,069
-256,380	-200,000	0,004	0,069
-255,365	-200,000	0,002	-0,025
-254,351	-200,000	-0,061	0,204
-253,336	38,337	-0,044	0,028
-252,322	800,000	-0,022	-0,064
-251,307	192,507	0,059	-0,064
-250,292	384,053	-0,045	0,068
-249,278	-200,000	-0,029	-0,110
-248,263	-169,290	-0,080	-0,002
-247,249	27,716	-0,067	0,041
-246,234	170,358	-0,012	-0,012
-245,219	-200,000	0,008	-0,068
-244,205	-8,979	-0,102	0,050
-243,190	-78,626	-0,111	-0,027
-242,176	383,471	0,060	0,091
-241,161	280,232	0,068	-0,089
-240,146	-200,000	0,002	-0,094
-239,132	110,547	0,112	-0,098
-238,117	-200,000	-0,014	0,086
-237,103	453,214	0,026	0,042
-236,088	-200,000	0,005	0,123
-235,073	-39,364	0,099	0,037
-234,059	320,642	-0,022	-0,031
-233,044	-200,000	0,022	0,235
-232,030	-200,000	-0,036	-0,139
-231,015	-46,054	-0,084	0,030
-230,000	796,845	0,035	0,070
-228,986	169,308	-0,075	0,078
-227,971	-96,347	-0,162	0,031
-226,957	-200,000	-0,008	0,118
-225,942	228,015	0,017	0,020
-224,927	5,846	-0,023	-0,012
-223,913	-200,000	0,018	-0,063
-222,898	-59,395	-0,111	0,034
-221,884	561,699	0,063	-0,111
-220,869	-47,192	0,054	-0,019
-219,855	800,000	-0,043	-0,089
-218,840	800,000	-0,061	-0,125
-217,825	750,124	0,060	0,118
-216,811	255,318	0,031	-0,039
-215,796	463,888	0,024	-0,038
-214,782	800,000	0,006	-0,014
-213,767	-158,836	0,229	0,009
-212,752	-56,433	-0,090	0,029
-211,738	-72,990	0,228	0,061
-210,723	-117,234	0,058	-0,008
-209,709	800,000	0,034	0,080
-208,694	800,000	-0,043	-0,097
-207,679	-22,635	0,133	0,058
-206,665	528,928	-0,095	0,163
-205,650	-143,399	-0,100	-0,007
-204,636	-200,000	0,044	0,168
-203,621	-191,861	0,164	0,001
-202,606	433,456	0,034	-0,053
-201,592	-92,662	-0,132	0,027
-200,577	201,900	-0,046	-0,051
-199,563	278,891	0,071	-0,092
-198,548	-200,000	0,002	0,018
-197,533	111,774	-0,057	-0,050
-196,519	-200,000	-0,010	0,074
-195,504	-79,103	0,103	-0,025
-194,490	-108,400	-0,097	0,015
-193,475	-156,056	-0,047	-0,002
-192,460	-200,000	-0,032	0,123
-191,446	800,000	0,073	0,148
-190,431	147,311	0,121	-0,118
-189,417	55,985	0,063	-0,044
-188,402	47,337	0,070	-0,047
-187,387	3,732	0,121	-0,064
-186,373	46,682	0,115	0,077
-185,358	-93,151	-0,108	-0,022
-184,344	1,926	0,050	-0,026
-183,329	-200,000	0,038	0,147
-182,315	-3,809	-0,129	0,065
-181,300	800,000	-0,018	-0,053
-180,285	-51,893	-0,135	-0,045
-179,271	-200,000	0,020	-0,109
-178,256	-62,556	0,083	-0,025
-177,242	390,770	0,109	-0,164
-176,227	-200,000	-0,002	0,070
-175,212	246,661	-0,013	-0,016
-174,198	-200,000	-0,003	0,071
-173,183	-151,071	0,017	-0,001
-172,169	375,501	-0,064	-0,094
-171,154	237,301	0,028	-0,033
-170,139	-141,661	-0,028	0,002
-169,125	800,000	0,031	0,080
-168,110	-109,684	0,059	-0,009
-167,096	-120,071	-0,072	0,009
-166,081	800,000	-0,036	0,100
-165,066	-47,534	0,064	-0,023
-164,052	-85,208	0,184	-0,041
-163,037	-70,533	0,073	0,020
-162,023	176,348	0,089	0,094
-161,008	109,968	0,039	0,034
-159,993	-200,000	-0,019	0,128
-158,979	136,903	-0,023	0,022
-157,964	-51,079	0,101	-0,034
-156,950	76,551	-0,072	0,055
-155,935	800,000	0,037	0,096
-154,920	-200,000	-0,002	0,089
-153,906	-116,193	0,084	0,011
-152,891	-34,864	-0,128	-0,050
-151,877	130,052	-0,057	-0,052
-150,862	800,000	0,039	-0,123
-149,847	-200,000	-0,013	-0,069
-148,833	69,973	0,126	-0,094
-147,818	-89,804	0,141	0,030
-146,804	800,000	0,052	-0,140
-145,789	-200,000	0,028	0,135
-144,775	243,112	-0,062	-0,076
-143,760	540,656	-0,062	-0,108
-142,745	-91,574	0,071	-0,015
-141,731	-44,015	0,072	0,026
-140,716	-200,000	-0,003	0,045
-139,702	-48,423	-0,055	0,019
-138,687	-200,000	0,011	-0,132
-137,672	248,222	0,073	0,090
-136,658	-200,000	-0,003	0,034
-135,643	-200,000	0,031	-0,114
-134,629	66,347	-0,125	0,092
-133,614	108,679	0,060	0,052
-132,599	373,323	-0,092	0,135
-131,585	456,706	0,072	0,116
-130,570	-21,147	-0,109	0,048
-129,556	-37,315	-0,123	0,047
-128,541	120,226	-0,030	0,027
-127,526	207,463	0,076	0,086
-126,512	800,000	0,055	0,117
-125,497	56,739	-0,096	0,067
-124,483	800,000	0,005	0,013
-123,468	-0,238	0,132	-0,067
-122,453	-92,626	-0,045	-0,009
-121,439	114,250	0,028	0,025
-120,424	794,038	-0,044	0,088
-119,410	-200,000	-0,007	0,093
