DTS Sentinel unit serial number:	SN410029Multiplexer serial number:	ORYXHardware model number:	OX2-SRSoftware version number:	ORYX F/W v4,00 Oryx Data Collector v3.7.2.0data status	okinstallation	B3 Nyhavnadifferential loss correction	single-endedforward channel	channel 1reverse channel	N/Adate	2023/11/28time	18:17:30forward acquisition time	300,00reverse acquisition time	0,00gamma	499,1914k internal	0,3157k external	0,3157temperature offset calibration	1,0000default loss term (dB/km)	0,3820temperature slope calibration	1,0000multiplexer offset coefficient	1,0000multiplexer slope coefficient	1,0000fibre end	0,00T internal ref (°C)	7,40T ext. ref 1 (°C)	-7,45T ext. ref 2 (°C)	-7,59length (m)	temperature (°C)	Stokes	anti-Stokes-744,400	175,424	-0,185	-0,198
-743,385	-200,000	0,015	0,278
-742,371	541,234	-0,109	-0,193
-741,356	-200,000	0,116	0,431
-740,342	105,420	-0,199	-0,173
-739,327	-200,000	-0,076	0,401
-738,312	800,000	-0,080	-0,177
-737,298	-200,000	-0,038	0,250
-736,283	610,533	-0,187	-0,346
-735,269	-200,000	-0,018	0,324
-734,254	56,636	-0,196	-0,141
-733,239	152,776	-0,213	0,214
-732,225	176,218	-0,118	-0,126
-731,210	800,000	0,071	0,147
-730,196	-200,000	-0,004	-0,093
-729,181	-168,378	-0,136	-0,004
-728,167	-34,475	-0,117	0,047
-727,152	-153,115	-0,059	-0,003
-726,137	208,009	-0,057	-0,066
-725,123	46,582	-0,065	-0,044
-724,108	-70,585	-0,027	0,007
-723,094	0,328	-0,034	-0,018
-722,079	800,000	-0,027	-0,064
-721,064	-65,876	0,106	0,031
-720,050	-147,262	0,110	-0,007
-719,035	800,000	-0,035	-0,093
-718,021	800,000	-0,051	-0,151
-717,006	19,465	-0,099	-0,058
-715,991	10,433	-0,131	-0,073
-714,977	136,156	-0,061	0,058
-713,962	-200,000	0,008	0,094
-712,948	135,944	0,040	-0,038
-711,933	-64,870	0,034	-0,010
-710,918	-200,000	-0,037	0,126
-709,904	304,488	-0,050	-0,068
-708,889	204,626	-0,071	0,082
-707,875	-50,681	-0,238	-0,082
-706,860	91,988	0,043	0,036
-705,845	-86,922	-0,140	-0,031
-704,831	26,960	-0,161	0,099
-703,816	-189,826	-0,017	0,000
-702,802	150,404	0,044	-0,044
-701,787	69,415	-0,082	-0,062
-700,772	-36,572	0,088	-0,035
-699,758	544,316	0,022	0,039
-698,743	163,444	0,082	0,085
-697,729	800,000	-0,048	0,146
-696,714	112,161	0,077	0,068
-695,699	301,636	0,010	0,013
-694,685	-6,832	-0,065	-0,032
-693,670	463,881	0,056	-0,092
-692,656	195,661	-0,050	0,056
-691,641	-18,045	0,087	0,040
-690,627	-200,000	0,015	-0,061
-689,612	-200,000	-0,022	0,097
-688,597	751,970	0,048	-0,096
-687,583	-134,685	-0,118	-0,010
-686,568	385,980	0,024	-0,037
-685,554	-200,000	-0,003	-0,013
-684,539	-181,085	0,127	-0,002
-683,524	-200,000	0,002	0,057
-682,510	800,000	0,013	0,041
-681,495	-137,495	-0,101	0,008
-680,481	72,635	-0,033	-0,025
-679,466	-200,000	-0,001	-0,031
-678,451	-159,785	-0,115	0,005
-677,437	47,256	-0,094	0,064
-676,422	-200,000	0,000	0,094
-675,408	778,608	-0,030	-0,060
-674,393	-200,000	0,000	-0,058
-673,378	800,000	-0,023	-0,051
-672,364	-200,000	-0,002	-0,109
-671,349	-200,000	0,006	0,078
-670,335	-162,414	-0,172	-0,006
-669,320	25,925	0,089	0,054
-668,305	-200,000	-0,013	0,105
-667,291	-200,000	0,005	0,022
-666,276	39,066	-0,150	0,099
-665,262	116,573	-0,122	0,110
-664,247	-193,447	0,125	0,001
-663,232	-100,474	-0,061	-0,011
-662,218	-127,893	0,153	-0,016
-661,203	-46,645	-0,091	-0,032
-660,189	63,864	0,084	-0,062
-659,174	47,279	-0,145	-0,099
-658,159	-200,000	-0,003	-0,096
-657,145	-18,220	-0,104	0,048
-656,130	800,000	-0,005	-0,013
-655,116	249,262	-0,051	-0,064
-654,101	254,661	0,039	-0,050
-653,086	26,274	0,045	0,028
-652,072	-125,413	0,051	-0,006
-651,057	526,144	-0,045	-0,078
-650,043	-200,000	0,030	0,153
-649,028	-84,218	-0,076	-0,018
-648,014	158,091	-0,042	-0,043
-646,999	-41,331	-0,097	-0,037
-645,984	625,670	-0,066	0,122
-644,970	44,898	-0,019	0,013
-643,955	109,057	-0,044	0,038
-642,941	-36,938	0,064	-0,025
-641,926	-105,741	-0,122	0,020
-640,911	178,071	0,049	0,052
-639,897	220,193	0,114	0,134
-638,882	-55,010	-0,031	0,010
-637,868	-133,299	0,145	-0,013
-636,853	385,431	-0,010	-0,016
-635,838	468,351	-0,022	-0,036
-634,824	-200,000	-0,027	-0,132
-633,809	-200,000	-0,024	-0,135
-632,795	-200,000	0,018	0,082
-631,780	-185,386	-0,080	0,001
-630,765	-12,678	-0,131	0,063
-629,751	-200,000	0,016	0,099
-628,736	-41,312	0,048	-0,018
-627,722	138,998	-0,082	-0,080
-626,707	192,557	-0,046	0,051
-625,692	-115,156	-0,051	-0,007
-624,678	800,000	0,018	0,054
-623,663	265,981	-0,060	0,077
-622,649	63,128	0,076	-0,056
-621,634	-42,883	-0,008	0,003
-620,619	80,428	0,016	-0,013
-619,605	800,000	0,054	0,116
-618,590	64,188	-0,129	0,095
-617,576	640,208	0,018	-0,034
-616,561	660,773	-0,072	-0,136
-615,546	800,000	0,024	-0,076
-614,532	-200,000	0,001	-0,078
-613,517	-200,000	-0,010	-0,119
-612,503	162,297	0,115	-0,119
-611,488	427,126	0,050	0,079
-610,474	328,325	0,058	0,082
-609,459	-131,452	-0,012	-0,001
-608,444	231,781	-0,045	0,054
-607,430	-200,000	0,018	-0,062
-606,415	-200,000	-0,046	-0,244
-605,401	-200,000	-0,016	0,070
-604,386	-200,000	-0,004	-0,032
-603,371	-200,000	0,006	-0,046
-602,357	-123,590	-0,025	-0,003
-601,342	-200,000	-0,027	-0,112
-600,328	-74,195	-0,061	-0,016
-599,313	-200,000	-0,022	0,100
-598,298	-200,000	-0,003	-0,093
-597,284	-90,997	-0,080	-0,017
-596,269	-200,000	0,022	0,101
-595,255	-200,000	0,022	-0,120
-594,240	-200,000	-0,001	-0,105
-593,225	23,609	-0,136	-0,082
-592,211	240,545	-0,087	0,106
-591,196	389,869	0,023	-0,036
-590,182	115,880	0,036	0,032
-589,167	379,474	-0,025	-0,037
-588,152	377,530	0,028	0,042
-587,138	-200,000	0,007	0,045
-586,123	-125,437	-0,182	0,020
-585,109	48,616	0,096	0,066
-584,094	-75,589	0,106	0,027
-583,079	92,236	-0,119	0,099
-582,065	-23,908	0,082	0,036
-581,050	360,884	0,009	-0,013
-580,036	642,454	-0,055	-0,103
-579,021	68,051	0,066	0,049
-578,006	-86,449	0,100	-0,022
-576,992	5,548	-0,121	0,065
-575,977	-125,990	0,058	0,006
-574,963	-146,741	-0,211	-0,013
-573,948	800,000	0,026	-0,079
-572,934	-108,925	-0,029	-0,005
-571,919	456,390	-0,036	-0,058
-570,904	-200,000	0,012	-0,157
-569,890	-200,000	-0,031	-0,200
-568,875	-82,799	0,052	-0,012
-567,861	-200,000	0,007	0,065
-566,846	260,256	-0,031	-0,039
-565,831	-168,039	-0,101	0,003
-564,817	-106,042	0,078	-0,013
-563,802	56,141	-0,131	-0,093
-562,788	34,971	-0,162	-0,103
-561,773	362,399	0,076	-0,112
-560,758	-200,000	-0,012	-0,087
-559,744	337,243	-0,012	0,017
-558,729	522,608	0,059	0,102
-557,715	-64,147	0,127	0,038
-556,700	142,981	-0,056	-0,054
-555,685	800,000	0,019	-0,049
-554,671	97,267	0,160	-0,134
-553,656	800,000	0,027	-0,063
-552,642	-21,242	0,068	0,030
-551,627	605,357	-0,002	-0,003
-550,612	169,449	0,027	0,028
-549,598	-68,206	-0,078	0,022
-548,583	-200,000	-0,011	0,042
-547,569	711,001	-0,022	0,042
-546,554	-200,000	0,010	-0,110
-545,539	-4,123	-0,051	0,026
-544,525	87,226	0,101	0,082
-543,510	249,469	-0,080	-0,100
-542,496	-68,600	-0,273	-0,077
-541,481	-153,923	-0,138	-0,007
-540,466	-200,000	0,004	0,124
-539,452	-93,912	-0,063	-0,013
-538,437	-81,037	-0,074	0,018
-537,423	-17,583	-0,117	-0,054
-536,408	-56,348	0,119	-0,038
-535,393	85,071	-0,103	-0,082
-534,379	-138,826	0,026	-0,002
-533,364	-111,126	-0,077	0,011
-532,350	-47,991	0,176	0,062
-531,335	800,000	-0,038	0,092
-530,321	117,990	-0,037	-0,033
-529,306	-200,000	-0,034	-0,126
-528,291	-200,000	0,020	0,076
-527,277	800,000	0,013	-0,034
-526,262	99,565	-0,143	0,121
-525,248	-200,000	0,029	0,192
-524,233	-200,000	0,001	0,142
-523,218	-78,895	0,078	-0,019
-522,204	-200,000	0,012	-0,090
-521,189	753,973	0,040	0,080
-520,175	57,654	0,097	-0,069
-519,160	99,081	-0,069	0,058
-518,145	201,727	-0,035	0,040
-517,131	-200,000	-0,007	-0,068
-516,116	69,977	0,086	0,065
-515,102	800,000	0,036	-0,110
-514,087	53,360	-0,113	0,079
-513,072	-54,236	-0,020	0,007
-512,058	449,332	0,066	0,106
-511,043	0,824	0,085	0,044
-510,029	-200,000	-0,029	0,132
-509,014	746,300	-0,047	0,093
-507,999	-200,000	0,020	0,087
-506,985	87,213	-0,057	-0,046
-505,970	-125,136	0,056	0,006
-504,956	161,518	-0,067	-0,068
-503,941	291,152	0,052	0,069
-502,926	-69,646	0,053	0,015
-501,912	286,612	0,100	-0,133
-500,897	642,385	0,047	0,088
-499,883	800,000	0,044	-0,130
-498,868	-200,000	0,004	-0,024
-497,853	14,348	-0,179	0,102
-496,839	-200,000	-0,002	0,075
-495,824	-75,951	-0,083	-0,021
-494,810	-200,000	0,035	0,154
-493,795	-71,618	-0,077	0,021
-492,781	800,000	0,067	-0,184
-491,766	800,000	-0,043	-0,106
-490,751	108,907	-0,051	0,045
-489,737	69,094	-0,016	0,012
-488,722	-200,000	-0,031	0,148
-487,708	195,911	0,081	-0,090
-486,693	800,000	0,067	0,168
-485,678	111,522	-0,116	-0,102
-484,664	-200,000	-0,010	-0,095
-483,649	-190,485	-0,115	0,001
-482,635	-0,880	0,086	-0,044
-481,620	35,680	0,168	-0,107
-480,605	116,789	-0,041	-0,037
-479,591	449,409	-0,012	0,020
-478,576	-50,183	-0,102	-0,035
-477,562	-200,000	-0,005	-0,052
-476,547	-30,017	-0,048	0,020
-475,532	-140,995	0,032	0,002
-474,518	459,783	-0,043	-0,069
-473,503	-200,000	0,007	0,099
-472,489	101,480	0,077	-0,065
-471,474	-200,000	-0,023	-0,186
-470,459	287,315	-0,018	0,024
-469,445	54,689	0,040	0,028
-468,430	246,143	-0,058	0,071
-467,416	46,209	-0,085	0,057
-466,401	-75,046	0,096	0,025
-465,386	-51,099	0,121	0,041
-464,372	137,294	0,048	0,045
-463,357	-200,000	0,027	0,097
-462,343	-200,000	-0,006	0,095
-461,328	-8,664	0,115	-0,056
-460,313	438,186	-0,066	0,105
-459,299	332,240	0,059	0,084
-458,284	-25,454	0,118	-0,051
-457,270	732,452	-0,015	0,028
-456,255	136,732	-0,077	-0,073
-455,241	-200,000	-0,007	0,024
-454,226	53,405	0,066	-0,046
-453,211	-200,000	-0,003	0,058
-452,197	800,000	-0,035	-0,103
-451,182	-48,973	0,101	0,035
-450,168	800,000	0,015	-0,035
-449,153	-50,825	-0,078	0,027
-448,138	800,000	0,016	0,038
-447,124	-200,000	0,018	0,063
-446,109	189,906	-0,020	0,022
-445,095	224,662	0,058	0,069
-444,080	800,000	-0,030	0,070
-443,065	800,000	0,064	-0,192
-442,051	-200,000	0,014	0,079
-441,036	-189,103	-0,040	0,000
-440,022	47,325	-0,157	-0,106
-439,007	-200,000	0,000	-0,114
-437,992	800,000	0,020	0,047
-436,978	-45,705	0,020	-0,007
-435,963	-91,534	0,047	0,010
-434,949	800,000	0,024	-0,070
-433,934	800,000	0,004	-0,012
-432,919	-200,000	-0,005	-0,034
-431,905	-27,493	-0,055	0,023
-430,890	-200,000	-0,010	-0,039
-429,876	25,139	0,226	-0,137
-428,861	-200,000	0,025	0,137
-427,846	-45,101	0,073	0,026
-426,832	212,427	0,055	0,063
-425,817	-146,344	0,071	0,004
-424,803	-200,000	0,021	-0,071
-423,788	-86,897	-0,103	-0,023
-422,773	483,310	0,031	-0,052
-421,759	-1,818	-0,105	0,054
-420,744	800,000	-0,023	0,068
-419,730	-200,000	-0,002	-0,176
-418,715	-157,510	0,078	0,003
-417,701	298,845	0,019	0,026
-416,686	-138,681	-0,034	-0,003
-415,671	15,928	0,118	-0,067
-414,657	25,923	0,130	0,079
-413,642	46,733	0,056	0,038
-412,628	-200,000	-0,019	-0,142
-411,613	-13,069	0,077	-0,036
-410,598	276,052	-0,103	0,133
-409,584	643,868	0,014	0,026
-408,569	82,737	-0,091	-0,072
-407,555	800,000	0,032	-0,068
-406,540	-82,314	-0,116	-0,027
-405,525	245,175	-0,043	-0,052
-404,511	59,066	0,075	0,054
-403,496	-77,678	0,123	0,031
-402,482	-165,789	0,053	0,002
-401,467	800,000	-0,038	0,100
-400,452	-200,000	0,018	0,138
-399,438	256,194	-0,106	0,133
-398,423	-200,000	0,007	-0,038
-397,409	-130,763	-0,046	-0,004
-396,394	-200,000	0,004	-0,085
-395,379	-200,000	-0,005	-0,048
-394,365	45,833	0,030	-0,020
-393,350	-132,664	-0,063	-0,006
-392,336	242,530	0,145	0,176
-391,321	183,666	-0,050	0,054
-390,306	438,096	0,048	-0,076
-389,292	162,142	-0,098	-0,100
-388,277	70,330	0,047	-0,035
-387,263	-200,000	-0,017	0,111
-386,248	-124,858	-0,077	-0,009
-385,233	-85,639	0,048	0,011
-384,219	-155,010	0,083	0,004
-383,204	326,714	-0,024	-0,033
-382,190	-7,457	0,124	-0,061
-381,175	16,838	-0,077	-0,044
-380,160	172,300	0,070	-0,073
-379,146	503,618	-0,021	-0,035
-378,131	-131,006	0,086	-0,008
-377,117	800,000	-0,043	0,099
-376,102	800,000	-0,066	0,207
-375,088	-17,502	0,092	0,042
-374,073	800,000	-0,049	-0,111
-373,058	-200,000	-0,016	0,054
-372,044	589,562	0,085	0,152
-371,029	800,000	-0,071	0,152
-370,015	-200,000	-0,021	-0,150
-369,000	-200,000	-0,025	0,101
-367,985	109,711	-0,069	-0,060
-366,971	432,933	0,066	0,104
-365,956	-98,310	0,136	-0,025
-364,942	77,414	0,127	0,098
-363,927	503,004	0,052	0,087
-362,912	-200,000	-0,002	-0,020
-361,898	187,632	0,073	-0,080
-360,883	-200,000	-0,056	0,000
-359,869	-125,782	-0,066	-0,007
-358,854	-126,658	-0,137	-0,015
-357,839	258,680	0,023	-0,028
-356,825	241,435	0,082	-0,100
-355,810	-200,000	-0,002	0,011
-354,796	361,745	-0,038	0,055
-353,781	10,671	-0,059	-0,033
-352,766	137,917	-0,075	0,071
-351,752	-36,594	0,141	-0,055
-350,737	-200,000	0,019	-0,062
-349,723	-75,051	-0,164	0,042
-348,708	20,454	-0,023	0,014
-347,693	290,012	-0,067	0,089
-346,679	-75,770	0,056	-0,014
-345,664	70,692	-0,022	-0,016
-344,650	-170,645	0,023	0,001
-343,635	106,079	0,219	0,188
-342,620	-200,000	-0,002	-0,019
-341,606	-65,085	0,078	0,023
-340,591	467,778	0,052	0,085
-339,577	189,882	-0,045	-0,049
-338,562	-200,000	0,009	0,046
-337,548	241,678	0,035	0,042
-336,533	282,863	0,047	0,061
-335,518	800,000	0,034	-0,078
-334,504	-200,000	-0,011	0,070
-333,489	-57,548	0,005	-0,001
-332,475	-138,905	-0,056	0,004
-331,460	163,385	-0,075	-0,076
-330,445	-200,000	-0,000	0,040
-329,431	-132,693	-0,131	-0,012
-328,416	-8,187	-0,087	-0,042
-327,402	-200,000	-0,012	-0,056
-326,387	-150,591	0,070	0,004
-325,372	260,821	-0,068	0,086
-324,358	800,000	-0,027	-0,077
-323,343	384,724	-0,072	0,109
-322,329	-96,160	0,304	0,058
-321,314	-104,042	0,123	0,021
-320,299	-147,212	-0,047	0,003
-319,285	800,000	-0,045	-0,102
-318,270	-129,344	0,064	-0,006
-317,256	-200,000	-0,021	-0,090
-316,241	44,909	0,093	-0,062
-315,226	-8,157	-0,097	0,047
-314,212	-118,516	0,163	0,021
-313,197	800,000	0,004	0,010
-312,183	149,912	-0,085	-0,084
-311,168	-131,730	-0,073	0,007
-310,153	800,000	-0,075	-0,206
-309,139	155,838	-0,061	0,061
-308,124	95,855	0,032	0,026
-307,110	-200,000	0,019	0,104
-306,095	-36,566	-0,089	-0,035
-305,080	-145,316	0,069	0,004
-304,066	-67,722	0,086	0,024
-303,051	-98,151	-0,089	-0,016
-302,037	-200,000	-0,007	-0,055
-301,022	-200,000	0,032	0,110
-300,008	-200,000	0,033	0,179
-298,993	23,786	0,055	-0,033
-297,978	317,513	0,072	0,099
-296,964	800,000	-0,040	-0,087
-295,949	2,269	-0,017	-0,009
-294,935	-102,616	-0,042	-0,007
-293,920	15,695	0,170	-0,097
-292,905	800,000	-0,026	0,071
-291,891	-95,896	0,191	0,037
-290,876	-170,756	-0,072	0,002
-289,862	-200,000	0,005	0,073
-288,847	-200,000	-0,008	0,040
-287,832	-146,635	-0,099	-0,006
-286,818	413,361	0,042	0,064
-285,803	360,285	-0,031	0,045
-284,789	-200,000	0,007	0,064
-283,774	294,157	0,091	-0,120
-282,759	800,000	0,032	-0,090
-281,745	-200,000	0,030	-0,154
-280,730	134,682	-0,094	0,088
-279,716	-200,000	-0,019	0,098
-278,701	429,290	-0,050	0,078
-277,686	148,933	0,078	-0,076
-276,672	151,880	0,070	-0,069
-275,657	-200,000	0,006	-0,083
-274,643	-128,045	-0,092	-0,009
-273,628	800,000	0,045	-0,120
-272,613	800,000	0,028	-0,065
-271,599	-200,000	-0,032	0,132
-270,584	-186,016	-0,029	-0,000
-269,570	253,192	-0,032	0,039
-268,555	95,145	-0,063	0,052
-267,540	169,476	-0,041	-0,042
-266,526	389,858	-0,072	-0,108
-265,511	177,524	0,045	-0,048
-264,497	38,758	0,066	0,042
-263,482	404,742	0,076	0,117
-262,467	800,000	-0,014	0,031
-261,453	-127,626	-0,072	-0,007
-260,438	392,625	0,060	-0,091
-259,424	-200,000	-0,004	-0,122
-258,409	-38,309	0,102	-0,039
-257,395	800,000	-0,032	-0,080
-256,380	198,881	-0,088	0,097
-255,365	414,856	0,126	0,194
-254,351	50,615	-0,028	0,019
-253,336	-200,000	-0,004	-0,078
-252,322	-76,006	-0,072	0,018
-251,307	-37,658	0,075	0,029
-250,292	-200,000	-0,013	-0,156
-249,278	87,199	0,059	0,047
-248,263	-89,630	0,080	0,017
-247,249	-200,000	-0,024	0,079
-246,234	800,000	-0,011	-0,023
-245,219	-122,276	-0,078	0,009
-244,205	-22,275	0,051	0,022
-243,190	186,541	0,054	0,058
-242,176	800,000	0,044	0,118
-241,161	103,142	-0,091	0,077
-240,146	-98,966	0,178	-0,032
-239,132	234,285	-0,008	0,010
-238,117	-103,689	-0,108	-0,018
-237,103	-111,156	-0,062	-0,009
-236,088	800,000	0,029	0,087
-235,073	533,111	-0,028	0,047
-234,059	-24,785	0,136	0,058
-233,044	-200,000	0,029	0,154
-232,030	27,885	-0,083	-0,051
-231,015	-200,000	-0,010	0,078
-230,000	-62,141	-0,105	0,032
-228,986	-200,000	-0,015	0,099
-227,971	-200,000	-0,003	-0,021
-226,957	-33,948	-0,091	-0,036
-225,942	-171,679	-0,121	0,003
-224,927	72,722	0,172	-0,130
-223,913	320,277	-0,069	0,095
-222,898	208,677	-0,085	-0,096
-221,884	39,911	-0,110	-0,071
-220,869	646,821	0,011	0,021
-219,855	39,024	0,124	0,080
-218,840	-200,000	0,006	0,178
-217,825	251,396	0,051	-0,063
-216,811	800,000	0,050	-0,112
-215,796	-75,114	0,032	-0,008
-214,782	-200,000	0,015	0,083
-213,767	-200,000	-0,012	0,046
-212,752	148,959	0,063	0,061
-211,738	43,508	0,158	0,104
-210,723	15,987	-0,094	-0,053
-209,709	800,000	0,038	-0,116
-208,694	-182,579	-0,019	0,000
-207,679	-200,000	-0,006	0,030
-206,665	-149,756	-0,048	-0,003
-205,650	-200,000	0,038	-0,145
-204,636	-92,774	0,156	0,031
-203,621	-111,081	0,049	0,007
-202,606	2,353	-0,151	0,079
-201,592	318,706	0,060	-0,083
-200,577	131,191	-0,075	0,069
-199,563	24,757	0,008	0,005
-198,548	22,664	0,045	0,027
-197,533	684,098	0,065	-0,122
-196,519	650,817	0,055	-0,102
-195,504	91,864	-0,039	-0,031
-194,490	-104,220	0,048	0,008
-193,475	123,748	0,062	-0,056
-192,460	-200,000	0,038	-0,130
-191,446	-40,376	-0,217	-0,081
-190,431	-114,954	0,006	0,001
-189,417	20,876	0,041	-0,024
-188,402	-105,593	-0,020	0,003
-187,387	131,418	-0,055	0,051
-186,373	-200,000	-0,000	-0,179
-185,358	-116,510	0,016	-0,002
-184,344	54,478	-0,003	0,002
-183,329	16,619	0,057	0,032
-182,315	125,598	0,022	0,020
-181,300	-74,356	0,071	-0,018
-180,285	-200,000	-0,014	0,083
-179,271	373,677	-0,104	-0,154
-178,256	-200,000	0,003	-0,059
-177,242	-21,117	0,110	0,048
-176,227	-82,151	0,072	0,017
-175,212	359,374	-0,037	-0,054
-174,198	109,794	0,057	-0,049
-173,183	37,405	-0,079	0,051
-172,169	53,155	-0,074	-0,051
-171,154	-200,000	0,000	0,088
-170,139	105,907	-0,047	-0,040
-169,125	800,000	-0,028	0,068
-168,110	-63,853	0,075	0,022
-167,096	-110,727	-0,052	0,008
-166,081	-3,181	-0,106	-0,053
-165,066	800,000	0,066	-0,169
-164,052	-8,830	-0,038	-0,018
-163,037	-134,239	0,046	0,004
-162,023	-200,000	-0,032	0,120
-161,008	237,967	0,060	0,071
-159,993	800,000	-0,032	-0,073
-158,979	-92,666	-0,053	0,011
-157,964	-200,000	0,024	-0,084
-156,950	-148,207	-0,121	-0,007
-155,935	800,000	0,043	0,088
-154,920	-181,436	-0,048	0,001
-153,906	31,388	0,051	0,032
-152,891	376,992	-0,039	-0,058
-151,877	-200,000	0,023	-0,151
-150,862	-106,500	-0,105	0,017
-149,847	480,032	-0,074	-0,122
-148,833	158,754	0,114	0,114
-147,818	4,260	0,058	-0,031
-146,804	206,168	0,118	0,132
-145,789	350,891	-0,064	0,091
-144,775	-200,000	0,018	-0,056
-143,760	-31,843	-0,053	-0,021
-142,745	-93,846	-0,093	-0,018
-141,731	800,000	0,064	0,184
-140,716	-18,639	0,116	-0,052
-139,702	21,835	0,088	-0,051
-138,687	15,074	-0,044	-0,025
-137,672	320,104	0,103	0,142
-136,658	260,152	0,002	-0,003
-135,643	-19,118	0,024	-0,011
-134,629	-67,196	0,073	0,020
-133,614	56,952	0,057	0,040
-132,599	157,638	0,074	0,074
-131,585	9,345	-0,046	-0,025
-130,570	800,000	0,064	-0,166
-129,556	-19,243	-0,182	0,081
-128,541	-200,000	0,050	-0,199
-127,526	800,000	0,041	-0,089
-126,512	472,601	-0,047	-0,076
-125,497	201,882	0,095	0,106
-124,483	-157,904	0,046	-0,002
-123,468	40,371	-0,124	-0,080
-122,453	-200,000	0,013	-0,085
-121,439	112,022	-0,066	-0,057
-120,424	34,839	-0,025	-0,016
