DTS Sentinel unit serial number:	SN410029Multiplexer serial number:	ORYXHardware model number:	OX2-SRSoftware version number:	ORYX F/W v4,00 Oryx Data Collector v3.7.2.0data status	okinstallation	B3 Nyhavnadifferential loss correction	single-endedforward channel	channel 1reverse channel	N/Adate	2023/11/28time	10:52:30forward acquisition time	300,00reverse acquisition time	0,00gamma	499,1914k internal	0,3154k external	0,3154temperature offset calibration	1,0000default loss term (dB/km)	0,3820temperature slope calibration	1,0000multiplexer offset coefficient	1,0000multiplexer slope coefficient	1,0000fibre end	0,00T internal ref (°C)	9,59T ext. ref 1 (°C)	-7,39T ext. ref 2 (°C)	-7,61length (m)	temperature (°C)	Stokes	anti-Stokes-744,400	421,673	-0,194	-0,308
-743,385	-200,000	0,012	0,190
-742,371	76,314	-0,169	-0,132
-741,356	-200,000	0,065	0,309
-740,342	-34,241	-0,317	-0,128
-739,327	-200,000	-0,073	0,243
-738,312	800,000	-0,100	-0,253
-737,298	-200,000	0,055	0,298
-736,283	99,022	-0,283	-0,241
-735,269	631,860	0,106	0,198
-734,254	-200,000	-0,065	-0,229
-733,239	-1,222	-0,152	0,079
-732,225	-200,000	-0,019	-0,206
-731,210	-99,921	0,059	0,011
-730,196	-200,000	-0,031	-0,161
-729,181	80,588	-0,087	0,069
-728,167	-77,520	0,081	0,021
-727,152	-200,000	-0,011	-0,054
-726,137	-200,000	0,024	0,091
-725,123	72,593	-0,087	-0,067
-724,108	80,175	-0,123	-0,098
-723,094	800,000	-0,025	-0,070
-722,079	121,006	-0,040	0,037
-721,064	800,000	0,047	-0,144
-720,050	-200,000	0,016	0,153
-719,035	23,547	0,160	0,097
-718,021	-5,089	-0,067	0,034
-717,006	30,086	0,025	0,016
-715,991	800,000	-0,046	-0,128
-714,977	430,434	0,078	-0,126
-713,962	-105,328	0,062	0,010
-712,948	800,000	-0,039	0,108
-711,933	-200,000	0,040	0,165
-710,918	173,273	-0,084	0,089
-709,904	349,238	-0,059	0,086
-708,889	391,643	-0,049	-0,075
-707,875	-104,693	-0,058	-0,010
-706,860	-4,082	-0,054	0,027
-705,845	-139,030	0,167	0,013
-704,831	-200,000	0,001	-0,009
-703,816	175,096	-0,066	0,070
-702,802	800,000	-0,030	-0,096
-701,787	800,000	0,034	-0,106
-700,772	117,019	-0,075	-0,068
-699,758	-106,747	0,010	0,002
-698,743	156,538	-0,112	0,114
-697,729	-66,492	0,149	-0,043
-696,714	145,620	-0,073	0,072
-695,699	67,035	-0,091	0,068
-694,685	-105,250	-0,235	-0,039
-693,670	16,104	0,068	0,039
-692,656	-200,000	0,003	-0,074
-691,641	800,000	-0,028	0,089
-690,627	-200,000	0,020	0,122
-689,612	133,472	-0,090	0,086
-688,597	-3,381	0,127	-0,065
-687,583	365,485	-0,030	0,045
-686,568	-200,000	0,024	-0,094
-685,554	-90,436	-0,235	-0,050
-684,539	-128,432	0,049	-0,005
-683,524	438,060	-0,044	-0,071
-682,510	13,329	-0,167	0,095
-681,495	-200,000	-0,001	-0,046
-680,481	-200,000	0,024	-0,129
-679,466	-149,595	-0,137	-0,008
-678,451	-183,789	-0,094	-0,001
-677,437	-200,000	0,022	0,173
-676,422	85,303	-0,121	-0,098
-675,408	-196,772	0,104	-0,000
-674,393	203,688	0,045	0,052
-673,378	800,000	0,020	-0,044
-672,364	-158,699	-0,170	0,007
-671,349	117,049	0,035	0,031
-670,335	-136,320	-0,058	-0,005
-669,320	800,000	-0,072	0,149
-668,305	7,195	0,069	0,038
-667,291	368,533	-0,081	-0,121
-666,276	501,684	-0,019	-0,032
-665,262	-200,000	0,016	-0,106
-664,247	-94,787	-0,117	-0,023
-663,232	-200,000	-0,027	-0,106
-662,218	-200,000	0,010	0,055
-661,203	163,127	0,042	-0,043
-660,189	1,619	0,110	-0,058
-659,174	204,022	-0,055	-0,063
-658,159	353,339	0,104	-0,152
-657,145	405,737	-0,072	-0,112
-656,130	-167,951	-0,086	0,002
-655,116	22,792	-0,043	-0,026
-654,101	-200,000	-0,003	0,039
-653,086	9,984	0,082	-0,045
-652,072	-200,000	0,007	-0,094
-651,057	-200,000	-0,018	-0,070
-650,043	-200,000	-0,027	-0,145
-649,028	-71,588	-0,044	0,012
-648,014	658,178	0,025	0,047
-646,999	-172,301	0,050	-0,001
-645,984	72,539	-0,111	-0,085
-644,970	800,000	0,017	-0,048
-643,955	143,214	0,109	-0,107
-642,941	0,374	-0,024	-0,012
-641,926	-16,730	-0,082	0,038
-640,911	511,415	0,063	-0,108
-639,897	800,000	0,074	-0,162
-638,882	-112,471	-0,145	-0,021
-637,868	117,357	-0,100	0,091
-636,853	8,797	-0,070	-0,039
-635,838	495,787	-0,053	-0,090
-634,824	-200,000	0,012	-0,082
-633,809	116,168	-0,001	-0,001
-632,795	-200,000	0,001	0,151
-631,780	-109,408	0,070	0,011
-630,765	688,528	0,101	-0,194
-629,751	-200,000	-0,006	-0,119
-628,736	320,321	-0,059	-0,083
-627,722	-200,000	-0,020	-0,078
-626,707	124,533	-0,072	-0,066
-625,692	5,621	0,108	0,059
-624,678	800,000	-0,057	0,149
-623,663	-11,897	-0,085	-0,041
-622,649	-200,000	-0,052	-0,221
-621,634	-200,000	0,005	-0,081
-620,619	-200,000	-0,004	-0,157
-619,605	-170,831	0,086	-0,002
-618,590	-20,692	0,028	0,012
-617,576	-142,755	-0,039	-0,003
-616,561	144,400	0,089	-0,087
-615,546	-200,000	-0,003	-0,014
-614,532	-200,000	-0,022	-0,097
-613,517	193,342	-0,028	0,032
-612,503	-14,778	-0,046	0,022
-611,488	-71,637	-0,062	0,017
-610,474	-90,035	0,089	-0,019
-609,459	800,000	0,043	0,117
-608,444	352,340	0,024	-0,035
-607,430	541,933	0,045	-0,079
-606,415	-200,000	0,003	-0,017
-605,401	-99,317	0,050	0,009
-604,386	-200,000	-0,018	0,108
-603,371	87,161	0,084	-0,068
-602,357	-147,299	-0,119	0,007
-601,342	102,962	0,139	-0,119
-600,328	-200,000	-0,016	-0,280
-599,313	12,681	-0,091	-0,051
-598,298	88,933	0,038	0,031
-597,284	208,120	0,056	-0,065
-596,269	-200,000	-0,016	0,094
-595,255	-113,294	-0,079	0,011
-594,240	-37,075	-0,095	0,037
-593,225	-122,242	-0,066	0,008
-592,211	13,379	-0,096	-0,054
-591,196	32,604	0,108	-0,069
-590,182	-200,000	0,015	0,094
-589,167	283,479	-0,052	-0,069
-588,152	10,196	0,162	0,090
-587,138	-40,661	-0,029	-0,011
-586,123	-31,743	0,079	0,032
-585,109	8,160	0,090	-0,050
-584,094	373,226	0,071	-0,107
-583,079	520,614	-0,014	0,025
-582,065	800,000	0,067	-0,143
-581,050	-200,000	0,022	-0,102
-580,036	726,360	-0,041	0,080
-579,021	-172,323	-0,030	0,001
-578,006	800,000	-0,058	-0,126
-576,992	36,968	-0,105	0,068
-575,977	108,448	-0,089	0,077
-574,963	11,265	0,115	0,064
-573,948	-200,000	-0,002	0,049
-572,934	-73,392	-0,076	0,020
-571,919	39,579	-0,158	-0,104
-570,904	-200,000	-0,010	-0,086
-569,890	-8,210	0,081	0,040
-568,875	-200,000	0,015	0,074
-567,861	202,195	-0,033	0,038
-566,846	800,000	-0,007	0,023
-565,831	-200,000	0,024	0,120
-564,817	22,046	0,093	0,056
-563,802	15,109	-0,225	0,129
-562,788	800,000	0,035	-0,085
-561,773	173,265	0,036	-0,039
-560,758	201,837	0,080	0,091
-559,744	8,261	-0,073	0,040
-558,729	22,733	0,086	0,051
-557,715	150,852	-0,042	-0,042
-556,700	-185,985	-0,035	0,000
-555,685	69,361	-0,054	0,040
-554,671	733,301	-0,044	0,087
-553,656	-109,632	0,103	0,016
-552,642	-116,111	0,068	-0,009
-551,627	-162,201	0,067	0,002
-550,612	-28,264	-0,107	-0,045
-549,598	-200,000	0,006	0,061
-548,583	123,388	-0,068	-0,062
-547,569	-12,379	-0,011	-0,005
-546,554	-200,000	-0,026	-0,084
-545,539	-44,210	-0,129	0,047
-544,525	-7,231	-0,144	0,071
-543,510	-147,802	-0,069	0,004
-542,496	120,733	-0,029	-0,027
-541,481	-89,296	-0,147	0,031
-540,466	-200,000	-0,005	0,056
-539,452	566,866	0,056	-0,100
-538,437	-31,946	0,149	0,061
-537,423	800,000	-0,040	0,119
-536,408	-45,365	0,113	-0,041
-535,393	154,916	0,052	-0,053
-534,379	-44,728	0,038	0,014
-533,364	99,184	-0,043	0,036
-532,350	152,012	0,053	-0,053
-531,335	135,358	0,022	0,021
-530,321	145,752	-0,090	0,088
-529,306	-200,000	0,001	-0,069
-528,291	800,000	-0,041	-0,088
-527,277	-200,000	-0,011	-0,210
-526,262	-200,000	-0,081	0,000
-525,248	-200,000	0,007	-0,026
-524,233	-200,000	-0,028	0,129
-523,218	-200,000	0,002	-0,039
-522,204	-124,852	0,092	-0,010
-521,189	-200,000	-0,027	-0,112
-520,175	-104,707	-0,095	-0,016
-519,160	322,603	0,076	-0,107
-518,145	-107,765	0,116	-0,018
-517,131	-102,864	-0,109	-0,019
-516,116	-86,134	0,090	-0,020
-515,102	23,577	-0,070	0,042
-514,087	-33,484	-0,059	0,024
-513,072	-172,175	0,054	-0,001
-512,058	-31,072	-0,049	-0,020
-511,043	-95,760	0,133	-0,026
-510,029	18,076	0,099	0,058
-509,014	-81,055	0,065	-0,016
-507,999	143,479	0,066	0,064
-506,985	610,139	0,038	0,071
-505,970	-200,000	0,002	0,045
-504,956	800,000	0,038	-0,109
-503,941	-59,396	0,094	-0,029
-502,926	-200,000	-0,019	0,104
-501,912	-200,000	0,013	0,120
-500,897	-31,474	-0,169	0,069
-499,883	59,470	-0,080	-0,058
-498,868	479,279	0,035	-0,058
-497,853	800,000	-0,034	-0,074
-496,839	-200,000	-0,009	0,032
-495,824	99,903	0,092	0,078
-494,810	800,000	0,037	0,094
-493,795	674,142	0,045	-0,086
-492,781	-127,452	-0,032	-0,003
-491,766	-152,071	-0,156	0,008
-490,751	800,000	-0,025	0,075
-489,737	-200,000	-0,044	0,155
-488,722	72,550	-0,084	0,064
-487,708	-127,010	0,095	-0,010
-486,693	679,183	-0,048	0,092
-485,678	112,907	-0,082	-0,073
-484,664	53,605	-0,094	-0,066
-483,649	428,660	0,069	-0,110
-482,635	-121,019	0,123	-0,015
-481,620	-80,409	-0,061	0,015
-480,605	339,058	-0,014	0,020
-479,591	-57,219	0,055	0,017
-478,576	236,140	0,015	-0,018
-477,562	30,797	-0,060	0,037
-476,547	16,676	0,091	-0,052
-475,532	800,000	-0,037	0,093
-474,518	3,760	0,048	-0,025
-473,503	-200,000	-0,027	0,127
-472,489	-26,714	-0,092	0,039
-471,474	-106,654	-0,023	-0,004
-470,459	176,890	-0,071	-0,076
-469,445	-200,000	-0,040	-0,131
-468,430	542,384	-0,048	-0,083
-467,416	42,142	0,085	-0,056
-466,401	-200,000	0,018	0,119
-465,386	-89,226	0,046	-0,010
-464,372	-200,000	-0,010	-0,073
-463,357	160,634	0,056	0,057
-462,343	259,307	-0,025	-0,031
-461,328	219,703	-0,054	-0,064
-460,313	163,397	0,097	0,100
-459,299	30,454	0,066	0,041
-458,284	84,779	0,105	0,084
-457,270	446,818	-0,058	0,094
-456,255	57,852	-0,139	-0,099
-455,241	800,000	-0,051	-0,114
-454,226	-200,000	0,017	-0,081
-453,211	482,653	-0,018	0,030
-452,197	549,909	0,015	0,026
-451,182	-15,821	-0,092	0,043
-450,168	679,332	0,029	-0,055
-449,153	-135,074	0,013	0,001
-448,138	-200,000	-0,013	-0,144
-447,124	800,000	0,017	-0,052
-446,109	42,507	-0,086	-0,057
-445,095	-39,928	-0,124	0,047
-444,080	40,886	0,112	0,074
-443,065	142,295	0,036	-0,035
-442,051	347,969	-0,017	-0,025
-441,036	192,640	-0,150	-0,166
-440,022	-2,026	0,080	-0,041
-439,007	192,400	0,026	0,028
-437,992	1,742	0,066	-0,034
-436,978	-200,000	0,001	0,137
-435,963	800,000	-0,053	0,142
-434,949	291,519	0,008	-0,011
-433,934	470,676	-0,059	-0,097
-432,919	203,206	-0,045	-0,051
-431,905	800,000	-0,047	-0,106
-430,890	-60,182	0,095	-0,029
-429,876	-28,715	0,262	0,110
-428,861	800,000	-0,051	0,144
-427,846	216,720	-0,034	0,039
-426,832	-73,278	0,121	-0,032
-425,817	34,346	0,032	0,020
-424,803	-2,400	-0,160	-0,082
-423,788	800,000	0,038	-0,096
-422,773	232,305	0,101	0,121
-421,759	-200,000	-0,031	-0,103
-420,744	800,000	-0,013	-0,039
-419,730	-200,000	-0,012	0,059
-418,715	800,000	0,033	-0,085
-417,701	-129,155	-0,092	-0,009
-416,686	690,144	-0,049	0,095
-415,671	102,055	0,062	0,053
-414,657	65,228	0,032	0,023
-413,642	-134,995	-0,012	0,001
-412,628	158,838	-0,031	-0,032
-411,613	256,315	-0,079	0,099
-410,598	129,488	-0,077	-0,072
-409,584	-28,716	0,073	-0,031
-408,569	-200,000	-0,015	0,166
-407,555	800,000	0,017	0,042
-406,540	800,000	-0,030	-0,063
-405,525	59,325	0,079	0,056
-404,511	800,000	-0,063	-0,179
-403,496	-33,389	0,084	-0,034
-402,482	-200,000	-0,012	0,053
-401,467	-54,607	-0,096	0,031
-400,452	-62,655	0,055	-0,016
-399,438	-105,819	-0,102	0,017
-398,423	602,063	-0,051	0,093
-397,409	341,727	-0,076	-0,109
-396,394	54,316	-0,151	-0,106
-395,379	88,582	0,030	-0,024
-394,365	-47,925	0,169	0,059
-393,350	-200,000	-0,019	-0,076
-392,336	290,273	-0,047	-0,063
-391,321	306,786	-0,007	-0,010
-390,306	55,995	0,048	0,034
-389,292	800,000	0,031	-0,086
-388,277	-161,652	-0,141	-0,005
-387,263	734,175	0,035	0,069
-386,248	-99,999	0,103	0,019
-385,233	322,161	-0,053	0,074
-384,219	-176,046	0,043	0,001
-383,204	800,000	-0,027	-0,081
-382,190	183,670	-0,064	-0,069
-381,175	60,439	-0,024	0,017
-380,160	800,000	-0,041	0,115
-379,146	-46,306	0,097	0,034
-378,131	-163,682	-0,114	0,004
-377,117	-200,000	0,004	-0,035
-376,102	230,881	-0,113	-0,135
-375,088	-200,000	0,021	-0,153
-374,073	-41,641	-0,136	0,051
-373,058	-113,132	0,190	0,027
-372,044	800,000	-0,052	0,121
-371,029	-102,419	0,060	0,010
-370,015	22,408	-0,106	-0,063
-369,000	-23,926	-0,099	-0,043
-367,985	-168,684	0,094	0,003
-366,971	92,073	-0,123	0,101
-365,956	650,628	0,053	-0,099
-364,942	-200,000	0,023	0,137
-363,927	92,391	0,035	-0,029
-362,912	5,666	-0,032	0,017
-361,898	20,315	-0,031	0,018
-360,883	-200,000	0,009	-0,115
-359,869	207,847	0,026	-0,030
-358,854	138,017	0,041	0,039
-357,839	-200,000	0,010	0,063
-356,825	110,613	0,023	-0,020
-355,810	-200,000	0,008	0,119
-354,796	521,903	-0,023	0,040
-353,781	127,676	-0,079	0,073
-352,766	800,000	-0,019	0,041
-351,752	416,970	-0,044	0,068
-350,737	-94,537	0,123	0,024
-349,723	-200,000	0,003	-0,019
-348,708	-187,815	-0,134	0,001
-347,693	-26,145	0,121	-0,051
-346,679	32,445	-0,050	-0,031
-345,664	29,728	0,117	-0,072
-344,650	-200,000	0,007	0,181
-343,635	359,302	0,063	-0,092
-342,620	-15,348	0,035	0,016
-341,606	800,000	-0,037	0,078
-340,591	800,000	0,018	0,037
-339,577	-23,292	-0,215	-0,093
-338,562	800,000	0,011	0,033
-337,548	800,000	0,009	0,027
-336,533	51,469	0,040	0,028
-335,518	440,419	0,073	-0,117
-334,504	-28,245	-0,110	-0,046
-333,489	800,000	0,027	0,061
-332,475	211,467	-0,087	0,100
-331,460	-59,852	-0,084	0,026
-330,445	800,000	-0,004	-0,010
-329,431	800,000	0,007	-0,018
-328,416	-32,151	0,118	0,048
-327,402	510,697	-0,043	0,073
-326,387	-200,000	0,028	-0,200
-325,372	357,997	-0,033	0,049
-324,358	800,000	0,029	0,058
-323,343	-200,000	-0,026	-0,144
-322,329	-162,981	-0,042	-0,001
-321,314	-36,638	0,082	0,032
-320,299	-200,000	0,003	0,042
-319,285	-200,000	0,018	0,092
-318,270	511,368	-0,042	0,071
-317,256	-200,000	0,000	0,039
-316,241	-200,000	-0,026	-0,089
-315,226	-200,000	-0,000	-0,080
-314,212	-92,027	0,010	-0,002
-313,197	-200,000	-0,019	0,127
-312,183	-74,488	0,097	0,025
-311,168	156,632	-0,064	-0,065
-310,153	138,306	-0,107	-0,102
-309,139	-200,000	-0,021	-0,123
-308,124	-92,483	0,057	-0,012
-307,110	247,930	-0,021	-0,025
-306,095	223,549	0,125	0,146
-305,080	291,942	0,065	-0,087
-304,066	651,798	0,020	0,038
-303,051	-104,994	0,124	0,020
-302,037	-200,000	0,005	-0,059
-301,022	117,834	-0,053	0,047
-300,008	35,701	0,052	0,033
-298,993	162,336	0,087	0,088
-297,978	74,988	-0,091	0,070
-296,964	29,435	0,074	-0,045
-295,949	-200,000	-0,005	0,019
-294,935	-68,390	-0,093	-0,026
-293,920	34,090	0,050	0,031
-292,905	30,821	-0,133	-0,083
-291,891	187,299	0,084	0,091
-290,876	800,000	0,031	-0,091
-289,862	-200,000	0,022	0,144
-288,847	783,197	0,021	0,041
-287,832	-107,275	0,022	0,003
-286,818	158,072	0,080	0,080
-285,803	800,000	0,013	-0,035
-284,789	-200,000	0,017	0,091
-283,774	-3,154	-0,018	-0,009
-282,759	52,661	-0,054	-0,037
-281,745	-31,722	-0,075	0,030
-280,730	-116,684	0,064	-0,008
-279,716	-200,000	0,012	0,132
-278,701	-3,735	0,086	0,043
-277,686	27,619	0,046	-0,028
-276,672	783,062	0,076	0,151
-275,657	-168,803	-0,070	0,002
-274,643	555,492	-0,072	-0,127
-273,628	59,713	0,047	0,034
-272,613	324,568	-0,050	-0,069
-271,599	581,354	0,040	-0,072
-270,584	-200,000	0,020	0,111
-269,570	498,929	-0,004	0,007
-268,555	-200,000	0,008	0,038
-267,540	-91,024	-0,105	-0,022
-266,526	-180,106	0,062	-0,001
-265,511	117,915	-0,018	-0,016
-264,497	-200,000	0,001	-0,003
-263,482	361,019	0,079	-0,115
-262,467	-32,454	-0,149	0,060
-261,453	-131,641	0,120	-0,011
-260,438	97,485	-0,029	0,024
-259,424	-27,455	0,060	-0,025
-258,409	-54,056	-0,069	-0,023
-257,395	67,091	0,084	0,062
-256,380	-140,037	0,078	-0,006
-255,365	137,968	0,138	0,131
-254,351	-43,918	-0,166	-0,060
-253,336	40,162	-0,069	0,045
-252,322	652,041	0,039	-0,073
-251,307	373,362	0,076	0,112
-250,292	-200,000	0,006	0,148
-249,278	-6,836	0,131	0,064
-248,263	432,502	-0,025	-0,040
-247,249	-45,885	0,136	0,048
-246,234	-11,666	-0,014	0,007
-245,219	-200,000	0,011	-0,146
-244,205	178,009	-0,079	-0,084
-243,190	67,937	0,007	0,005
-242,176	134,092	-0,043	0,040
-241,161	-200,000	-0,011	0,051
-240,146	-200,000	-0,015	-0,143
-239,132	-200,000	-0,009	-0,128
-238,117	-200,000	-0,000	0,007
-237,103	800,000	0,021	-0,065
-236,088	1,532	0,048	0,025
-235,073	-200,000	-0,016	0,106
-234,059	800,000	0,081	0,192
-233,044	-120,310	0,124	0,015
-232,030	-152,515	-0,101	-0,005
-231,015	-13,837	-0,069	-0,032
-230,000	-105,067	-0,099	-0,016
-228,986	-200,000	0,018	0,059
-227,971	226,208	0,058	0,068
-226,957	88,244	-0,044	0,036
-225,942	-35,423	-0,053	0,021
-224,927	391,990	0,083	-0,126
-223,913	497,987	-0,042	-0,070
-222,898	-58,418	-0,039	0,012
-221,884	386,368	0,062	0,092
-220,869	-140,593	0,121	-0,009
-219,855	-91,427	0,027	-0,005
-218,840	-200,000	0,014	0,176
-217,825	800,000	-0,035	0,074
-216,811	153,775	-0,054	-0,054
-215,796	-54,804	0,070	-0,023
-214,782	800,000	0,013	0,030
-213,767	57,411	0,061	-0,043
-212,752	458,559	0,058	0,094
-211,738	240,214	0,138	0,166
-210,723	89,106	-0,038	0,030
-209,709	91,404	-0,097	-0,079
-208,694	697,008	-0,012	0,023
-207,679	-200,000	-0,007	0,056
-206,665	-129,142	-0,105	0,010
-205,650	-118,271	0,098	0,012
-204,636	-200,000	-0,015	0,075
-203,621	428,118	0,009	0,015
-202,606	800,000	-0,016	0,034
-201,592	-126,898	-0,056	0,006
-200,577	-86,622	-0,111	0,024
-199,563	-68,028	0,176	0,049
-198,548	602,126	0,057	0,103
-197,533	-145,117	0,058	-0,004
-196,519	59,156	0,073	0,052
-195,504	-38,193	0,056	-0,021
-194,490	-200,000	-0,018	-0,097
-193,475	-200,000	-0,007	-0,051
-192,460	117,015	-0,041	0,036
-191,446	800,000	-0,078	0,177
-190,431	-200,000	0,024	0,184
-189,417	336,879	0,042	0,059
-188,402	2,883	-0,046	-0,024
-187,387	-116,232	-0,063	-0,008
-186,373	-200,000	0,017	-0,072
-185,358	-200,000	-0,075	0,000
-184,344	800,000	-0,020	0,046
-183,329	-172,320	0,179	0,004
-182,315	800,000	0,041	-0,112
-181,300	-132,656	0,088	-0,008
-180,285	-34,822	-0,114	-0,045
-179,271	139,993	-0,035	0,033
-178,256	-9,567	0,048	-0,023
-177,242	206,442	-0,046	-0,052
-176,227	-200,000	-0,020	0,135
-175,212	-64,874	-0,075	0,022
-174,198	226,143	-0,032	-0,037
-173,183	11,039	0,089	-0,049
-172,169	-200,000	0,016	-0,105
-171,154	800,000	-0,008	-0,015
-170,139	224,701	0,071	-0,083
-169,125	119,070	0,071	-0,063
-168,110	-200,000	-0,004	-0,033
-167,096	216,860	-0,044	0,050
-166,081	183,439	0,063	-0,067
-165,066	-2,039	-0,061	0,031
-164,052	-200,000	-0,007	-0,026
-163,037	631,173	0,026	-0,047
-162,023	-200,000	-0,002	0,051
-161,008	42,835	0,086	0,056
-159,993	102,199	-0,035	0,029
-158,979	-124,118	-0,060	-0,007
-157,964	28,386	-0,157	-0,096
-156,950	34,298	0,102	-0,064
-155,935	-36,244	0,029	0,011
-154,920	-54,523	0,202	0,066
-153,906	82,653	-0,123	0,096
-152,891	-11,353	0,060	-0,028
-151,877	800,000	-0,044	-0,128
-150,862	9,456	-0,065	-0,035
-149,847	37,114	-0,017	-0,011
-148,833	-200,000	0,147	0,000
-147,818	298,921	-0,083	0,110
-146,804	121,588	-0,043	0,039
-145,789	-110,800	0,113	0,017
-144,775	-200,000	0,041	-0,171
-143,760	-200,000	-0,008	-0,045
-142,745	-104,585	0,124	-0,020
-141,731	-40,934	-0,094	0,035
-140,716	0,092	-0,013	0,007
-139,702	-36,878	-0,058	-0,022
-138,687	99,019	0,098	0,081
-137,672	316,479	-0,067	-0,091
-136,658	800,000	-0,058	-0,128
-135,643	137,860	0,017	0,016
-134,629	216,903	-0,046	-0,053
-133,614	-46,277	0,106	0,037
-132,599	-200,000	0,009	0,115
-131,585	-200,000	0,001	0,267
-130,570	-40,922	-0,093	0,034
-129,556	-138,357	-0,082	-0,006
-128,541	-32,252	-0,049	-0,020
-127,526	-158,458	-0,078	0,003
-126,512	-13,017	0,067	0,031
-125,497	149,484	0,098	-0,096
-124,483	639,386	-0,068	-0,125
-123,468	800,000	-0,068	0,153
-122,453	258,295	-0,067	-0,084
-121,439	280,220	-0,008	0,011
-120,424	-163,724	0,050	0,002
-119,410	511,397	0,074	0,124
