DTS Sentinel unit serial number:	SN410029Multiplexer serial number:	ORYXHardware model number:	OX2-SRSoftware version number:	ORYX F/W v4,00 Oryx Data Collector v3.7.2.0data status	okinstallation	B3 Nyhavnadifferential loss correction	single-endedforward channel	channel 1reverse channel	N/Adate	2023/11/28time	11:02:30forward acquisition time	300,00reverse acquisition time	0,00gamma	499,1914k internal	0,3153k external	0,3153temperature offset calibration	1,0000default loss term (dB/km)	0,3820temperature slope calibration	1,0000multiplexer offset coefficient	1,0000multiplexer slope coefficient	1,0000fibre end	0,00T internal ref (°C)	9,47T ext. ref 1 (°C)	-7,33T ext. ref 2 (°C)	-7,55length (m)	temperature (°C)	Stokes	anti-Stokes-744,400	800,000	-0,106	-0,287
-743,385	-200,000	-0,031	0,323
-742,371	18,999	-0,204	-0,121
-741,356	-200,000	0,044	0,262
-740,342	493,890	-0,112	-0,190
-739,327	-200,000	0,001	0,274
-738,312	-5,510	-0,304	-0,154
-737,298	500,628	-0,150	0,256
-736,283	177,489	-0,189	-0,204
-735,269	800,000	0,113	0,326
-734,254	158,400	-0,248	-0,254
-733,239	356,366	-0,112	0,165
-732,225	403,639	-0,073	-0,113
-731,210	-18,184	0,087	0,040
-730,196	800,000	-0,047	-0,103
-729,181	134,117	0,048	-0,046
-728,167	79,616	-0,012	-0,010
-727,152	25,247	0,074	-0,045
-726,137	-146,699	-0,164	-0,010
-725,123	220,090	0,040	-0,048
-724,108	-118,534	-0,270	-0,035
-723,094	18,802	-0,073	0,043
-722,079	76,347	-0,104	-0,081
-721,064	800,000	0,032	0,067
-720,050	-7,940	0,067	-0,033
-719,035	-89,614	-0,104	-0,022
-718,021	-54,513	-0,155	-0,051
-717,006	-3,937	-0,165	0,084
-715,991	-93,739	-0,016	0,003
-714,977	-200,000	-0,003	0,018
-713,962	707,238	0,029	0,057
-712,948	-200,000	0,013	-0,079
-711,933	-200,000	-0,008	0,089
-710,918	-130,197	-0,069	0,007
-709,904	39,396	-0,139	-0,092
-708,889	-175,870	-0,186	-0,004
-707,875	-200,000	0,018	0,166
-706,860	123,160	-0,111	0,103
-705,845	-148,753	-0,126	-0,007
-704,831	-200,000	0,002	0,012
-703,816	405,269	-0,053	-0,083
-702,802	-26,763	0,096	-0,041
-701,787	-117,841	-0,252	0,033
-700,772	800,000	-0,023	-0,047
-699,758	-97,190	-0,065	0,012
-698,743	633,068	0,000	-0,000
-697,729	11,873	0,058	0,033
-696,714	110,165	-0,074	-0,066
-695,699	-139,674	-0,042	0,003
-694,685	-37,474	-0,096	-0,037
-693,670	13,443	-0,096	0,055
-692,656	197,174	0,120	-0,135
-691,641	-200,000	-0,017	-0,180
-690,627	-161,783	0,100	0,004
-689,612	-67,589	-0,059	0,017
-688,597	234,469	0,085	0,104
-687,583	-15,015	-0,053	-0,025
-686,568	-200,000	-0,006	-0,116
-685,554	-200,000	0,034	-0,140
-684,539	-200,000	0,006	0,160
-683,524	-200,000	0,021	-0,082
-682,510	-165,306	0,133	-0,004
-681,495	-200,000	-0,028	0,103
-680,481	-200,000	-0,007	-0,039
-679,466	-200,000	-0,012	-0,066
-678,451	240,092	0,024	-0,030
-677,437	-200,000	0,029	0,205
-676,422	-14,518	0,008	-0,004
-675,408	435,208	0,032	0,051
-674,393	-200,000	-0,013	-0,095
-673,378	800,000	-0,043	-0,117
-672,364	97,516	-0,136	-0,115
-671,349	-104,282	-0,173	-0,029
-670,335	195,909	-0,064	0,072
-669,320	737,985	0,055	-0,110
-668,305	800,000	0,043	0,097
-667,291	-0,982	-0,109	-0,057
-666,276	-200,000	0,016	-0,075
-665,262	-200,000	-0,019	-0,085
-664,247	86,635	0,149	-0,121
-663,232	-34,586	-0,165	-0,066
-662,218	-41,282	0,026	-0,010
-661,203	800,000	-0,010	-0,031
-660,189	-128,454	-0,084	-0,009
-659,174	-66,389	-0,065	-0,019
-658,159	651,272	0,046	-0,088
-657,145	234,277	-0,023	0,027
-656,130	76,724	-0,071	0,055
-655,116	11,259	0,063	-0,035
-654,101	345,730	-0,035	-0,051
-653,086	-200,000	0,019	0,103
-652,072	508,978	-0,071	-0,121
-651,057	800,000	0,018	-0,056
-650,043	91,743	-0,080	-0,066
-649,028	69,941	0,108	-0,082
-648,014	-5,763	-0,057	0,028
-646,999	-150,431	-0,131	0,007
-645,984	301,050	0,095	-0,129
-644,970	93,386	-0,047	-0,039
-643,955	800,000	-0,056	-0,141
-642,941	-200,000	-0,001	-0,085
-641,926	-200,000	-0,031	0,120
-640,911	77,782	0,078	0,061
-639,897	56,965	0,070	0,050
-638,882	-57,366	-0,078	0,025
-637,868	152,622	-0,053	-0,053
-636,853	-200,000	-0,019	0,077
-635,838	800,000	-0,049	0,117
-634,824	800,000	0,048	-0,130
-633,809	166,818	0,059	-0,061
-632,795	142,745	0,172	0,168
-631,780	230,058	-0,060	0,072
-630,765	-200,000	-0,008	0,111
-629,751	-121,693	0,116	0,014
-628,736	61,930	0,088	0,064
-627,722	-200,000	0,000	-0,096
-626,707	8,847	0,042	-0,023
-625,692	-53,781	-0,085	0,028
-624,678	-200,000	-0,015	-0,109
-623,663	17,001	-0,040	0,023
-622,649	13,801	-0,049	-0,028
-621,634	-91,070	-0,059	-0,012
-620,619	-200,000	0,000	0,027
-619,605	-67,685	-0,154	0,044
-618,590	324,153	0,004	-0,006
-617,576	-200,000	0,002	0,064
-616,561	138,372	0,060	-0,058
-615,546	-200,000	-0,009	0,090
-614,532	-55,126	-0,148	0,049
-613,517	-76,172	0,116	0,030
-612,503	1,369	-0,031	0,016
-611,488	-151,664	-0,104	-0,006
-610,474	84,099	0,053	-0,043
-609,459	-185,566	-0,059	0,001
-608,444	100,113	-0,026	0,022
-607,430	-200,000	0,016	-0,176
-606,415	212,451	-0,029	-0,034
-605,401	-142,999	0,054	0,004
-604,386	-200,000	0,008	0,034
-603,371	-30,425	0,137	0,057
-602,357	-30,194	-0,056	-0,023
-601,342	-200,000	0,034	0,150
-600,328	800,000	-0,066	-0,143
-599,313	-150,462	-0,117	0,006
-598,298	-200,000	-0,017	0,074
-597,284	-200,000	0,013	-0,049
-596,269	-200,000	0,009	0,083
-595,255	-97,691	0,147	-0,028
-594,240	800,000	-0,027	0,055
-593,225	800,000	0,022	0,052
-592,211	467,200	-0,011	0,018
-591,196	-14,935	0,109	-0,051
-590,182	-84,397	-0,069	-0,016
-589,167	-58,191	0,097	-0,031
-588,152	339,173	-0,041	-0,059
-587,138	-200,000	0,027	-0,114
-586,123	800,000	0,024	0,053
-585,109	-200,000	0,007	-0,038
-584,094	354,381	-0,036	-0,053
-583,079	-163,523	0,092	-0,003
-582,065	-93,706	0,084	0,017
-581,050	-200,000	-0,012	-0,075
-580,036	47,946	-0,163	0,112
-579,021	51,019	-0,091	0,063
-578,006	-80,916	0,077	-0,019
-576,992	-200,000	-0,001	-0,108
-575,977	-200,000	0,007	0,099
-574,963	390,256	-0,019	0,029
-573,948	193,798	0,133	0,148
-572,934	-200,000	-0,091	-0,000
-571,919	-79,670	-0,127	-0,031
-570,904	-5,552	-0,067	-0,034
-569,890	-200,000	0,002	0,032
-568,875	-32,310	-0,076	0,031
-567,861	-50,941	0,038	0,013
-566,846	-200,000	0,003	-0,027
-565,831	-73,484	0,138	0,037
-564,817	-138,807	-0,134	0,011
-563,802	-105,468	0,036	-0,006
-562,788	533,829	0,122	-0,212
-561,773	-200,000	-0,014	-0,088
-560,758	-151,929	0,057	0,003
-559,744	112,448	0,079	-0,070
-558,729	66,080	0,007	-0,005
-557,715	-30,094	-0,064	0,027
-556,700	800,000	0,018	0,045
-555,685	-200,000	0,007	-0,108
-554,671	37,976	-0,043	0,028
-553,656	572,621	0,087	0,156
-552,642	70,112	-0,051	0,038
-551,627	90,976	-0,037	-0,031
-550,612	800,000	0,053	-0,140
-549,598	800,000	0,006	-0,015
-548,583	-23,427	-0,063	0,028
-547,569	522,450	-0,046	0,079
-546,554	-121,558	0,118	0,014
-545,539	27,126	0,117	0,072
-544,525	800,000	-0,039	-0,083
-543,510	-105,759	-0,089	-0,015
-542,496	800,000	0,022	-0,047
-541,481	-200,000	0,030	-0,195
-540,466	-66,597	0,058	0,017
-539,452	66,526	-0,089	0,066
-538,437	92,972	0,150	0,124
-537,423	800,000	0,014	-0,041
-536,408	-200,000	0,034	0,110
-535,393	4,422	0,070	-0,038
-534,379	-200,000	0,004	-0,076
-533,364	61,983	0,053	0,038
-532,350	151,300	0,052	-0,052
-531,335	555,373	0,065	0,114
-530,321	643,429	-0,018	0,035
-529,306	-119,606	-0,080	0,010
-528,291	-113,310	-0,106	-0,015
-527,277	95,949	-0,058	0,049
-526,262	-5,073	-0,093	-0,047
-525,248	256,528	-0,024	0,031
-524,233	-200,000	-0,006	0,100
-523,218	193,350	0,052	-0,058
-522,204	187,308	-0,044	-0,048
-521,189	126,605	-0,130	-0,121
-520,175	68,157	-0,059	0,044
-519,160	-40,141	-0,131	-0,050
-518,145	-78,449	-0,092	0,023
-517,131	800,000	0,031	0,064
-516,116	13,723	0,073	-0,041
-515,102	230,574	-0,063	-0,075
-514,087	-200,000	-0,017	-0,135
-513,072	-200,000	-0,016	-0,054
-512,058	704,425	0,031	-0,060
-511,043	-200,000	0,092	-0,000
-510,029	-122,479	0,099	-0,012
-509,014	762,597	0,032	0,063
-507,999	800,000	-0,032	0,074
-506,985	96,872	-0,031	0,026
-505,970	-35,169	-0,101	-0,040
-504,956	-200,000	-0,031	-0,105
-503,941	-200,000	0,020	-0,093
-502,926	348,150	-0,092	0,133
-501,912	-200,000	0,013	0,047
-500,897	85,600	-0,031	0,025
-499,883	269,144	-0,036	0,046
-498,868	767,817	-0,042	-0,083
-497,853	-141,519	0,052	-0,004
-496,839	701,204	-0,008	0,015
-495,824	800,000	0,062	-0,138
-494,810	100,940	0,055	0,047
-493,795	800,000	-0,027	0,077
-492,781	109,169	-0,060	0,052
-491,766	461,707	-0,089	-0,145
-490,751	231,807	-0,060	-0,072
-489,737	-52,479	0,121	0,041
-488,722	-200,000	0,009	0,184
-487,708	800,000	0,018	0,052
-486,693	237,041	-0,057	0,069
-485,678	86,581	0,065	-0,052
-484,664	-74,825	-0,015	0,004
-483,649	-18,447	-0,087	-0,040
-482,635	-200,000	0,015	-0,073
-481,620	79,889	0,084	0,066
-480,605	-200,000	-0,004	0,042
-479,591	-187,484	0,160	-0,002
-478,576	-154,340	-0,160	-0,008
-477,562	52,161	0,061	0,043
-476,547	-160,634	-0,081	-0,003
-475,532	-200,000	-0,033	-0,139
-474,518	-137,559	0,097	-0,008
-473,503	-93,614	0,051	0,010
-472,489	-200,000	-0,003	0,042
-471,474	800,000	-0,053	-0,119
-470,459	78,061	0,046	-0,036
-469,445	-200,000	-0,006	-0,082
-468,430	160,586	-0,059	-0,061
-467,416	-200,000	-0,036	0,143
-466,401	-126,348	0,073	-0,008
-465,386	800,000	-0,033	0,085
-464,372	-131,055	0,083	-0,008
-463,357	800,000	0,020	-0,059
-462,343	54,000	-0,049	-0,034
-461,328	-59,187	-0,101	0,032
-460,313	-122,779	0,100	-0,012
-459,299	575,226	0,103	0,184
-458,284	-100,322	0,129	0,023
-457,270	21,152	0,092	-0,054
-456,255	73,315	-0,084	0,064
-455,241	37,814	-0,033	-0,022
-454,226	-200,000	0,006	-0,158
-453,211	30,427	-0,081	-0,050
-452,197	51,024	-0,041	-0,028
-451,182	-200,000	0,011	-0,058
-450,168	-188,888	0,046	-0,000
-449,153	53,466	0,037	-0,026
-448,138	670,570	0,023	-0,043
-447,124	461,522	0,024	0,039
-446,109	-84,060	-0,103	0,024
-445,095	605,023	0,056	0,102
-444,080	-200,000	0,002	0,062
-443,065	-200,000	0,017	0,069
-442,051	-200,000	-0,008	-0,031
-441,036	236,959	-0,034	0,041
-440,022	180,532	-0,159	-0,171
-439,007	-200,000	-0,017	-0,106
-437,992	-21,026	-0,109	0,049
-436,978	116,822	0,069	0,062
-435,963	-70,731	0,076	-0,021
-434,949	-107,235	0,068	0,011
-433,934	-12,345	0,011	-0,005
-432,919	800,000	-0,070	-0,150
-431,905	-200,000	-0,017	0,166
-430,890	-24,690	0,012	-0,005
-429,876	-88,120	0,082	0,018
-428,861	-104,481	0,066	0,011
-427,846	800,000	0,033	-0,090
-426,832	-200,000	-0,002	0,022
-425,817	-200,000	-0,000	-0,126
-424,803	-113,614	-0,077	-0,011
-423,788	106,438	0,119	0,103
-422,773	800,000	-0,013	-0,034
-421,759	333,783	0,098	0,139
-420,744	-200,000	-0,009	-0,066
-419,730	-89,977	0,124	-0,026
-418,715	-30,801	0,092	-0,038
-417,701	13,141	0,105	-0,059
-416,686	198,452	-0,041	0,046
-415,671	-200,000	0,004	0,056
-414,657	241,503	-0,116	0,141
-413,642	-4,505	0,112	-0,056
-412,628	-34,655	-0,106	0,042
-411,613	-200,000	-0,011	-0,100
-410,598	13,059	0,121	0,068
-409,584	533,280	0,012	0,021
-408,569	480,854	0,052	0,086
-407,555	24,550	0,105	0,063
-406,540	75,831	0,112	-0,086
-405,525	570,813	-0,047	0,084
-404,511	-19,053	-0,086	-0,039
-403,496	-200,000	-0,003	0,155
-402,482	800,000	-0,051	0,137
-401,467	338,680	0,023	0,032
-400,452	13,343	0,061	-0,035
-399,438	800,000	0,040	0,093
-398,423	-96,628	-0,152	0,029
-397,409	549,459	-0,034	-0,060
-396,394	-200,000	0,011	-0,101
-395,379	-87,254	-0,012	0,003
-394,365	-138,453	-0,090	-0,007
-393,350	-2,273	0,060	0,031
-392,336	-35,767	0,083	0,032
-391,321	800,000	0,057	0,116
-390,306	314,854	-0,054	-0,074
-389,292	-100,578	-0,108	-0,019
-388,277	-2,398	0,058	0,030
-387,263	800,000	0,043	-0,092
-386,248	800,000	-0,021	0,046
-385,233	621,893	-0,028	0,052
-384,219	-28,402	-0,048	0,020
-383,204	350,460	-0,043	-0,063
-382,190	-200,000	0,034	0,119
-381,175	83,008	-0,073	0,058
-380,160	-20,965	0,066	-0,029
-379,146	-200,000	0,007	0,146
-378,131	94,683	-0,036	-0,030
-377,117	130,909	0,111	-0,104
-376,102	-39,201	0,045	0,017
-375,088	24,218	0,118	-0,070
-374,073	-200,000	0,122	0,000
-373,058	617,363	0,044	-0,080
-372,044	-143,059	0,098	-0,007
-371,029	458,667	0,046	0,074
-370,015	168,583	-0,073	0,075
-369,000	-200,000	-0,007	0,034
-367,985	800,000	0,050	-0,103
-366,971	-200,000	0,002	-0,063
-365,956	-50,642	0,184	-0,063
-364,942	-200,000	0,023	0,146
-363,927	45,020	0,046	0,031
-362,912	670,932	-0,086	0,163
-361,898	-183,078	0,093	0,001
-360,883	-177,071	-0,221	0,004
-359,869	-200,000	-0,010	0,034
-358,854	78,889	0,037	-0,029
-357,839	-48,346	-0,031	0,011
-356,825	-200,000	0,000	0,047
-355,810	-58,339	-0,163	-0,051
-354,796	257,678	0,038	0,048
-353,781	-200,000	0,019	-0,117
-352,766	119,935	-0,096	-0,087
-351,752	800,000	0,030	-0,097
-350,737	-200,000	-0,012	0,067
-349,723	32,150	-0,095	0,059
-348,708	318,475	0,054	0,074
-347,693	-164,326	0,109	0,004
-346,679	140,373	0,091	-0,087
-345,664	-200,000	0,002	-0,081
-344,650	800,000	0,022	-0,052
-343,635	38,907	-0,103	-0,067
-342,620	194,966	0,114	-0,126
-341,606	-200,000	-0,003	0,149
-340,591	-107,811	-0,117	-0,018
-339,577	-200,000	-0,010	-0,101
-338,562	-116,700	-0,148	-0,020
-337,548	3,260	0,085	-0,045
-336,533	-173,068	-0,036	0,001
-335,518	-200,000	-0,005	0,087
-334,504	800,000	0,034	-0,080
-333,489	58,069	-0,115	0,082
-332,475	111,479	0,161	-0,141
-331,460	-88,415	-0,064	-0,014
-330,445	-171,772	-0,048	0,001
-329,431	-64,378	0,034	0,010
-328,416	800,000	0,023	0,066
-327,402	-118,448	0,170	0,022
-326,387	800,000	-0,051	0,117
-325,372	416,805	-0,055	-0,085
-324,358	69,827	0,110	-0,082
-323,343	-103,124	0,132	0,022
-322,329	800,000	-0,052	0,122
-321,314	-72,861	0,094	-0,025
-320,299	-200,000	-0,016	-0,103
-319,285	96,150	0,067	-0,055
-318,270	-200,000	-0,008	-0,041
-317,256	25,676	-0,154	-0,093
-316,241	-200,000	0,011	-0,056
-315,226	-200,000	0,010	-0,098
-314,212	524,369	-0,017	-0,029
-313,197	393,732	-0,033	0,050
-312,183	65,121	0,076	-0,056
-311,168	375,111	-0,067	0,100
-310,153	-90,216	-0,121	0,025
-309,139	-67,528	-0,108	-0,030
-308,124	567,780	-0,006	0,011
-307,110	-200,000	-0,005	0,116
-306,095	332,346	0,091	0,128
-305,080	800,000	0,049	0,146
-304,066	557,599	0,025	-0,045
-303,051	800,000	0,073	0,158
-302,037	130,148	-0,056	-0,052
-301,022	54,973	-0,096	-0,067
-300,008	-200,000	-0,011	0,127
-298,993	8,129	-0,158	0,086
-297,978	-200,000	-0,003	-0,172
-296,964	-109,092	-0,029	0,004
-295,949	756,973	-0,042	-0,083
-294,935	96,538	-0,132	0,110
-293,920	61,877	0,048	-0,034
-292,905	-171,912	0,071	-0,002
-291,891	800,000	-0,039	0,112
-290,876	43,014	0,121	0,080
-289,862	127,892	-0,119	0,109
-288,847	-200,000	0,013	-0,098
-287,832	210,930	0,058	-0,066
-286,818	-2,949	0,111	-0,056
-285,803	-20,638	-0,053	-0,023
-284,789	-19,926	-0,120	0,053
-283,774	-200,000	-0,000	0,049
-282,759	549,654	-0,044	0,076
-281,745	-171,504	0,034	0,001
-280,730	-53,729	-0,101	0,033
-279,716	800,000	0,019	0,053
-278,701	-200,000	-0,000	0,128
-277,686	-85,361	0,128	-0,029
-276,672	267,946	-0,084	0,107
-275,657	51,727	0,135	0,093
-274,643	492,718	-0,105	-0,175
-273,628	-136,511	-0,135	0,011
-272,613	18,581	0,164	0,095
-271,599	-200,000	-0,016	-0,101
-270,584	70,983	0,045	0,034
-269,570	-88,306	0,120	-0,026
-268,555	-23,067	0,060	0,026
-267,540	273,726	0,017	0,022
-266,526	593,513	-0,027	-0,049
-265,511	401,736	0,006	-0,009
-264,497	-165,035	-0,065	0,002
-263,482	-34,138	0,032	-0,013
-262,467	800,000	-0,033	0,099
-261,453	-167,894	-0,141	0,004
-260,438	239,957	0,045	-0,055
-259,424	-200,000	-0,009	-0,142
-258,409	213,404	0,057	-0,066
-257,395	-72,010	-0,111	-0,030
-256,380	-129,281	0,078	-0,008
-255,365	-200,000	0,011	0,096
-254,351	351,431	0,079	-0,114
-253,336	-200,000	-0,022	-0,107
-252,322	172,246	-0,044	0,046
-251,307	-200,000	-0,014	0,049
-250,292	800,000	-0,022	0,051
-249,278	21,985	0,162	0,096
-248,263	800,000	-0,036	-0,102
-247,249	540,173	-0,062	0,107
-246,234	87,633	-0,097	-0,078
-245,219	-200,000	0,009	0,088
-244,205	23,699	0,066	0,039
-243,190	800,000	0,009	-0,029
-242,176	800,000	-0,029	-0,093
-241,161	-94,280	0,100	0,020
-240,146	-200,000	0,006	0,097
-239,132	414,226	0,079	-0,121
-238,117	-10,642	-0,239	0,114
-237,103	1,487	0,059	-0,031
-236,088	-123,118	-0,095	0,011
-235,073	110,613	0,108	0,094
-234,059	-200,000	0,021	-0,121
-233,044	116,965	0,047	0,042
-232,030	-200,000	-0,001	-0,101
-231,015	-94,333	-0,224	-0,044
-230,000	27,675	-0,038	0,023
-228,986	596,680	0,020	0,036
-227,971	-88,822	0,132	0,028
-226,957	800,000	0,048	0,112
-225,942	129,180	0,162	0,150
-224,927	-102,993	0,030	-0,005
-223,913	-129,923	-0,099	-0,010
-222,898	-161,707	-0,046	0,002
-221,884	258,847	0,058	-0,072
-220,869	118,282	-0,111	0,099
-219,855	559,584	-0,084	0,147
-218,840	15,756	0,100	0,057
-217,825	377,028	-0,033	0,049
-216,811	-188,196	-0,032	-0,000
-215,796	-12,169	-0,049	0,023
-214,782	-200,000	-0,015	-0,060
-213,767	332,547	0,030	0,042
-212,752	-111,975	-0,054	0,008
-211,738	492,931	0,046	0,076
-210,723	183,624	-0,112	-0,120
-209,709	-200,000	-0,018	0,079
-208,694	551,035	-0,103	-0,179
-207,679	-22,135	-0,087	-0,038
-206,665	800,000	-0,050	-0,158
-205,650	220,279	0,128	-0,149
-204,636	800,000	0,010	-0,020
-203,621	-200,000	-0,002	-0,052
-202,606	-200,000	0,042	-0,189
-201,592	309,831	-0,079	-0,108
-200,577	-26,783	-0,118	0,050
-199,563	-200,000	0,001	0,065
-198,548	-5,434	0,079	-0,039
-197,533	-25,421	-0,061	0,026
-196,519	800,000	-0,051	-0,162
-195,504	-200,000	-0,045	-0,161
-194,490	33,620	-0,088	0,055
-193,475	337,044	0,051	0,072
-192,460	3,874	-0,035	0,019
-191,446	-200,000	0,000	0,088
-190,431	-129,725	0,151	-0,015
-189,417	-200,000	-0,013	0,121
-188,402	800,000	0,030	-0,093
-187,387	139,199	-0,115	-0,109
-186,373	-200,000	0,004	0,055
-185,358	-145,171	-0,121	-0,008
-184,344	583,846	0,014	0,025
-183,329	-103,144	0,044	-0,007
-182,315	800,000	0,082	0,201
-181,300	124,255	-0,063	-0,057
-180,285	107,246	0,060	-0,052
-179,271	268,976	0,021	-0,027
-178,256	359,808	0,064	-0,092
-177,242	-7,762	0,157	0,076
-176,227	-200,000	-0,028	0,110
-175,212	54,664	-0,058	-0,040
-174,198	-160,301	0,009	0,000
-173,183	242,825	-0,060	-0,073
-172,169	800,000	0,065	-0,133
-171,154	-195,815	0,062	0,000
-170,139	-133,508	-0,125	-0,011
-169,125	472,901	0,021	0,035
-168,110	-159,286	0,178	-0,007
-167,096	-200,000	0,009	0,099
-166,081	-97,692	-0,079	0,015
-165,066	800,000	-0,046	-0,096
-164,052	34,888	-0,112	0,071
-163,037	304,487	-0,049	-0,066
-162,023	-76,416	-0,056	-0,014
-161,008	634,531	0,081	0,149
-159,993	756,850	-0,073	-0,144
-158,979	-200,000	0,047	-0,205
-157,964	-161,521	-0,090	0,003
-156,950	-82,737	0,034	-0,008
-155,935	41,351	-0,029	0,019
-154,920	-200,000	0,001	0,037
-153,906	-40,141	0,074	-0,028
-152,891	-200,000	-0,030	0,144
-151,877	-200,000	-0,024	0,084
-150,862	-191,670	-0,079	-0,001
-149,847	100,353	-0,097	-0,081
-148,833	728,557	-0,047	0,091
-147,818	-200,000	-0,000	0,087
-146,804	-200,000	-0,001	0,090
-145,789	-200,000	-0,002	-0,131
-144,775	53,500	-0,042	-0,029
-143,760	800,000	0,022	0,064
-142,745	-200,000	-0,018	-0,061
-141,731	-165,895	0,070	-0,002
-140,716	98,659	-0,032	-0,027
-139,702	-105,664	0,177	-0,029
-138,687	346,392	0,042	-0,060
-137,672	46,598	-0,094	-0,063
-136,658	29,383	-0,068	-0,042
-135,643	-200,000	0,012	0,107
-134,629	-49,808	-0,039	-0,013
-133,614	-18,571	0,104	0,046
-132,599	232,166	0,014	-0,017
-131,585	-57,954	0,080	-0,025
-130,570	800,000	0,028	-0,076
-129,556	737,905	-0,013	0,025
-128,541	-200,000	0,009	-0,149
-127,526	-200,000	-0,045	-0,155
-126,512	800,000	0,021	-0,046
-125,497	-200,000	-0,013	-0,067
-124,483	249,847	0,075	0,092
-123,468	1,296	-0,021	0,011
-122,453	-200,000	-0,009	-0,039
-121,439	-200,000	-0,026	0,000
-120,424	-200,000	-0,025	-0,100
