DTS Sentinel unit serial number:	SN410029Multiplexer serial number:	ORYXHardware model number:	OX2-SRSoftware version number:	ORYX F/W v4,00 Oryx Data Collector v3.7.2.0data status	okinstallation	B3 Nyhavnadifferential loss correction	single-endedforward channel	channel 1reverse channel	N/Adate	2023/11/28time	16:17:30forward acquisition time	300,00reverse acquisition time	0,00gamma	499,1914k internal	0,3217k external	0,3217temperature offset calibration	1,0000default loss term (dB/km)	0,3820temperature slope calibration	1,0000multiplexer offset coefficient	1,0000multiplexer slope coefficient	1,0000fibre end	0,00T internal ref (°C)	7,27T ext. ref 1 (°C)	-7,43T ext. ref 2 (°C)	-7,61length (m)	temperature (°C)	Stokes	anti-Stokes-744,400	800,000	-0,082	-0,232
-743,385	-200,000	0,037	0,332
-742,371	111,986	-0,129	-0,113
-741,356	-200,000	0,049	0,250
-740,342	-55,685	-0,066	-0,021
-739,327	800,000	-0,149	0,324
-738,312	563,473	-0,072	-0,127
-737,298	-200,000	-0,023	0,172
-736,283	286,155	-0,116	-0,152
-735,269	-200,000	-0,038	0,261
-734,254	510,011	-0,108	-0,183
-733,239	-74,540	-0,292	0,075
-732,225	800,000	-0,079	-0,200
-731,210	-3,382	0,061	0,030
-730,196	-1,466	-0,049	0,025
-729,181	-63,343	-0,084	0,025
-728,167	-8,443	-0,167	0,081
-727,152	380,432	0,124	0,184
-726,137	15,135	-0,092	0,052
-725,123	682,210	-0,042	-0,080
-724,108	105,298	-0,249	-0,212
-723,094	42,974	-0,143	-0,094
-722,079	10,831	-0,174	-0,096
-721,064	-168,270	-0,104	0,003
-720,050	-88,286	0,135	-0,029
-719,035	-42,799	-0,084	0,031
-718,021	-76,454	0,058	-0,015
-717,006	800,000	-0,081	-0,165
-715,991	649,380	-0,089	-0,166
-714,977	-148,865	-0,127	0,007
-713,962	-24,174	-0,082	-0,035
-712,948	53,086	-0,054	-0,037
-711,933	-200,000	0,006	-0,070
-710,918	800,000	-0,048	0,134
-709,904	168,415	0,053	0,055
-708,889	-122,984	-0,188	-0,022
-707,875	800,000	-0,019	-0,047
-706,860	-149,633	0,136	0,008
-705,845	371,208	-0,041	0,061
-704,831	-25,662	-0,148	0,063
-703,816	-200,000	-0,022	0,133
-702,802	-40,006	0,081	0,030
-701,787	342,952	-0,076	-0,108
-700,772	383,099	0,042	-0,063
-699,758	800,000	-0,057	-0,164
-698,743	-200,000	0,043	-0,185
-697,729	800,000	0,022	-0,047
-696,714	52,718	0,060	0,042
-695,699	311,427	-0,043	-0,059
-694,685	-127,774	-0,113	-0,012
-693,670	-71,145	-0,076	-0,020
-692,656	105,863	0,075	-0,064
-691,641	-27,262	-0,109	-0,046
-690,627	37,046	0,025	0,016
-689,612	800,000	-0,053	0,111
-688,597	5,129	0,101	-0,053
-687,583	203,139	-0,055	0,062
-686,568	255,593	0,062	-0,077
-685,554	-200,000	-0,060	-0,199
-684,539	715,393	0,043	-0,082
-683,524	312,406	-0,035	0,047
-682,510	-63,035	0,034	-0,010
-681,495	-91,970	-0,131	0,027
-680,481	-200,000	0,019	-0,088
-679,466	-83,933	-0,168	-0,038
-678,451	72,197	-0,127	-0,096
-677,437	67,409	0,028	-0,021
-676,422	-135,971	0,302	-0,025
-675,408	64,724	-0,086	0,062
-674,393	800,000	-0,048	0,110
-673,378	-19,335	0,141	-0,063
-672,364	-200,000	-0,030	-0,146
-671,349	313,514	-0,024	0,032
-670,335	-200,000	-0,022	0,096
-669,320	111,882	0,108	-0,094
-668,305	74,748	-0,086	-0,065
-667,291	326,366	-0,043	0,059
-666,276	231,763	-0,052	-0,062
-665,262	176,244	-0,023	0,024
-664,247	-200,000	-0,002	-0,024
-663,232	-200,000	-0,002	-0,051
-662,218	331,906	-0,042	0,058
-661,203	-104,284	-0,061	0,010
-660,189	141,253	-0,080	-0,077
-659,174	800,000	-0,039	0,115
-658,159	169,872	-0,082	-0,085
-657,145	-35,033	-0,066	-0,026
-656,130	-31,553	0,116	0,047
-655,116	7,855	0,046	-0,025
-654,101	-200,000	0,037	0,190
-653,086	-71,813	0,136	0,036
-652,072	-116,921	-0,123	-0,016
-651,057	-200,000	-0,002	-0,083
-650,043	133,559	0,062	-0,057
-649,028	299,975	0,120	0,160
-648,014	-97,967	0,039	0,007
-646,999	30,989	0,020	-0,012
-645,984	-200,000	-0,009	-0,086
-644,970	-200,000	0,025	-0,104
-643,955	524,324	0,049	0,083
-642,941	-89,781	-0,053	0,011
-641,926	-200,000	-0,010	-0,060
-640,911	387,110	0,076	-0,113
-639,897	-200,000	-0,010	0,066
-638,882	-55,963	0,069	0,022
-637,868	-200,000	-0,011	0,174
-636,853	-87,766	-0,104	0,022
-635,838	-1,317	-0,111	0,056
-634,824	-165,404	-0,041	-0,001
-633,809	-112,853	0,020	-0,003
-632,795	763,381	-0,041	0,081
-631,780	-200,000	-0,016	0,107
-630,765	-100,909	-0,112	-0,020
-629,751	-200,000	0,016	-0,098
-628,736	602,295	-0,035	-0,063
-627,722	22,051	-0,131	-0,077
-626,707	-200,000	-0,010	0,117
-625,692	57,276	0,107	0,075
-624,678	-186,355	-0,173	0,002
-623,663	800,000	-0,044	0,091
-622,649	-18,968	0,020	0,009
-621,634	254,719	-0,058	-0,072
-620,619	-109,631	0,089	-0,013
-619,605	-59,746	0,058	0,018
-618,590	-75,940	0,079	0,020
-617,576	800,000	-0,017	-0,037
-616,561	-65,372	0,109	-0,031
-615,546	660,786	-0,016	-0,029
-614,532	-200,000	-0,009	-0,041
-613,517	-80,435	-0,121	-0,029
-612,503	85,923	-0,087	-0,069
-611,488	-131,315	0,116	-0,011
-610,474	800,000	0,019	0,044
-609,459	-37,292	-0,095	0,036
-608,444	513,704	-0,015	-0,025
-607,430	-0,761	-0,133	-0,068
-606,415	499,868	0,064	-0,106
-605,401	-200,000	-0,101	0,000
-604,386	448,459	0,085	0,135
-603,371	-200,000	-0,006	0,086
-602,357	254,881	0,085	0,105
-601,342	19,321	-0,086	0,050
-600,328	800,000	-0,037	-0,080
-599,313	-165,687	-0,072	0,002
-598,298	194,623	-0,030	0,032
-597,284	800,000	-0,031	-0,095
-596,269	546,361	0,040	0,069
-595,255	-200,000	0,013	0,062
-594,240	-200,000	-0,014	-0,120
-593,225	-93,732	0,035	0,007
-592,211	-200,000	-0,016	-0,129
-591,196	-200,000	0,003	0,026
-590,182	-200,000	-0,007	0,044
-589,167	174,968	-0,051	0,054
-588,152	-113,523	0,143	-0,020
-587,138	-90,904	0,019	0,004
-586,123	-197,731	-0,082	0,000
-585,109	-200,000	0,000	0,013
-584,094	-42,741	-0,034	0,012
-583,079	-37,504	0,117	0,045
-582,065	-50,778	0,028	0,010
-581,050	-66,486	-0,038	0,011
-580,036	14,475	0,063	-0,035
-579,021	327,153	0,032	-0,044
-578,006	69,192	0,082	-0,061
-576,992	800,000	-0,036	-0,099
-575,977	-56,120	-0,169	0,054
-574,963	-200,000	0,017	-0,127
-573,948	-56,731	0,071	-0,022
-572,934	-200,000	0,006	0,030
-571,919	-200,000	-0,033	0,111
-570,904	329,812	-0,011	-0,016
-569,890	9,224	-0,149	-0,081
-568,875	-83,816	0,101	-0,023
-567,861	-121,979	0,035	0,004
-566,846	-200,000	0,002	0,060
-565,831	-32,942	0,087	-0,035
-564,817	718,147	-0,043	0,083
-563,802	273,400	-0,041	0,052
-562,788	-81,030	-0,184	-0,043
-561,773	-200,000	-0,018	-0,176
-560,758	477,782	0,047	0,077
-559,744	-200,000	-0,005	0,016
-558,729	46,392	0,089	-0,059
-557,715	58,287	-0,119	-0,084
-556,700	-200,000	-0,004	-0,073
-555,685	731,505	0,017	0,034
-554,671	368,396	0,018	0,026
-553,656	41,831	0,117	0,076
-552,642	-50,665	-0,132	0,045
-551,627	51,090	0,061	-0,041
-550,612	-22,093	0,125	-0,054
-549,598	800,000	-0,024	-0,066
-548,583	-200,000	-0,015	-0,147
-547,569	167,633	0,062	-0,064
-546,554	113,211	0,143	0,125
-545,539	-200,000	0,003	0,079
-544,525	-43,599	0,053	-0,019
-543,510	800,000	0,061	-0,126
-542,496	86,502	-0,067	-0,053
-541,481	194,270	-0,072	0,078
-540,466	800,000	0,045	-0,091
-539,452	-93,310	0,080	-0,016
-538,437	254,332	0,035	-0,043
-537,423	-200,000	-0,008	0,105
-536,408	-9,510	0,087	0,042
-535,393	476,082	-0,044	-0,071
-534,379	-200,000	-0,011	-0,071
-533,364	106,525	0,068	-0,058
-532,350	-200,000	0,022	0,071
-531,335	-127,345	0,173	-0,018
-530,321	-78,446	0,139	0,034
-529,306	-200,000	-0,003	0,070
-528,291	-40,012	0,156	-0,058
-527,277	228,917	-0,064	-0,075
-526,262	-81,171	0,105	-0,025
-525,248	77,062	0,030	0,023
-524,233	-200,000	-0,005	0,109
-523,218	-127,267	-0,101	-0,010
-522,204	800,000	-0,047	0,096
-521,189	-171,627	0,066	0,002
-520,175	7,403	-0,127	-0,068
-519,160	414,751	-0,047	-0,071
-518,145	-200,000	0,010	0,073
-517,131	542,844	0,068	-0,117
-516,116	-27,821	0,060	0,025
-515,102	5,208	0,040	0,021
-514,087	-86,325	0,098	-0,022
-513,072	84,654	-0,070	-0,055
-512,058	800,000	-0,052	-0,138
-511,043	800,000	0,059	-0,128
-510,029	800,000	0,013	0,037
-509,014	-141,395	0,112	0,008
-507,999	7,025	-0,132	0,070
-506,985	-200,000	0,007	0,196
-505,970	231,704	0,040	0,047
-504,956	800,000	-0,070	0,153
-503,941	-92,524	0,057	-0,011
-502,926	798,133	0,026	0,052
-501,912	800,000	0,027	-0,078
-500,897	215,251	0,022	-0,025
-499,883	-52,206	-0,136	0,045
-498,868	-158,370	0,089	-0,004
-497,853	-14,818	0,019	-0,009
-496,839	-200,000	-0,029	-0,234
-495,824	-104,215	0,101	-0,017
-494,810	800,000	-0,029	0,059
-493,795	374,196	0,030	0,044
-492,781	800,000	-0,042	-0,093
-491,766	9,120	0,064	0,035
-490,751	-71,521	-0,118	-0,032
-489,737	800,000	0,013	0,033
-488,722	556,473	-0,037	-0,064
-487,708	-106,219	0,150	0,024
-486,693	17,094	0,089	0,050
-485,678	45,156	-0,039	0,026
-484,664	-200,000	-0,031	-0,122
-483,649	-200,000	-0,008	-0,059
-482,635	161,623	-0,083	0,084
-481,620	-124,136	-0,009	0,001
-480,605	-200,000	-0,011	0,048
-479,591	-58,999	0,127	0,039
-478,576	749,550	0,046	0,090
-477,562	149,460	-0,043	0,042
-476,547	-25,248	-0,116	0,049
-475,532	800,000	-0,059	-0,127
-474,518	800,000	0,016	0,036
-473,503	-200,000	-0,031	0,122
-472,489	276,769	0,083	0,106
-471,474	169,496	0,073	-0,074
-470,459	-123,075	-0,119	-0,013
-469,445	-200,000	0,031	-0,202
-468,430	130,944	-0,068	-0,062
-467,416	-200,000	0,005	-0,031
-466,401	-21,331	0,124	0,054
-465,386	-200,000	-0,001	0,053
-464,372	-77,742	0,063	-0,015
-463,357	800,000	-0,025	-0,060
-462,343	-200,000	0,008	0,090
-461,328	-101,982	-0,140	-0,024
-460,313	152,889	0,028	-0,028
-459,299	632,639	-0,022	-0,041
-458,284	344,507	-0,067	0,094
-457,270	-37,642	0,077	-0,029
-456,255	-200,000	-0,004	0,108
-455,241	298,862	-0,082	-0,108
-454,226	201,836	-0,063	-0,070
-453,211	205,626	0,054	-0,060
-452,197	-200,000	-0,016	-0,076
-451,182	-123,081	0,057	-0,006
-450,168	-74,453	-0,112	-0,029
-449,153	11,647	0,039	0,021
-448,138	219,836	-0,047	-0,054
-447,124	800,000	0,029	0,058
-446,109	-101,803	-0,082	-0,014
-445,095	-104,751	0,017	-0,003
-444,080	-200,000	0,051	0,188
-443,065	800,000	-0,050	0,107
-442,051	-200,000	-0,014	-0,066
-441,036	89,161	0,057	-0,046
-440,022	-200,000	-0,011	0,075
-439,007	-116,002	0,094	0,012
-437,992	800,000	-0,080	0,163
-436,978	-73,580	0,043	0,011
-435,963	19,957	0,037	-0,021
-434,949	800,000	0,029	0,075
-433,934	-54,676	0,065	0,021
-432,919	140,695	-0,064	-0,060
-431,905	-20,788	-0,159	-0,070
-430,890	189,699	0,016	-0,017
-429,876	-130,802	0,105	0,010
-428,861	592,920	-0,035	-0,062
-427,846	91,996	0,071	0,057
-426,832	-7,770	-0,032	0,015
-425,817	26,658	-0,081	-0,048
-424,803	83,447	0,129	0,100
-423,788	-106,330	0,105	0,017
-422,773	329,266	-0,046	0,063
-421,759	-8,964	0,051	-0,024
-420,744	230,441	-0,089	-0,105
-419,730	511,031	-0,024	-0,041
-418,715	-200,000	-0,010	-0,101
-417,701	-65,452	-0,118	-0,034
-416,686	-157,071	0,110	0,005
-415,671	-200,000	0,029	0,109
-414,657	50,316	-0,103	0,069
-413,642	-149,348	-0,052	-0,003
-412,628	185,103	0,046	-0,048
-411,613	800,000	-0,042	-0,111
-410,598	256,984	0,032	0,040
-409,584	488,434	-0,024	0,040
-408,569	-66,482	0,080	-0,022
-407,555	-200,000	-0,025	0,100
-406,540	-78,232	-0,143	0,035
-405,525	645,664	-0,058	-0,106
-404,511	164,349	0,144	-0,145
-403,496	-104,769	0,035	0,006
-402,482	-200,000	0,041	0,194
-401,467	-6,002	0,103	-0,050
-400,452	292,449	0,017	-0,022
-399,438	-123,786	0,091	-0,010
-398,423	-173,599	0,029	-0,001
-397,409	-97,947	-0,107	-0,020
-396,394	-200,000	-0,026	-0,159
-395,379	-200,000	0,001	-0,052
-394,365	-61,775	0,066	0,020
-393,350	-30,986	-0,070	0,028
-392,336	800,000	0,013	-0,033
-391,321	446,024	-0,026	-0,041
-390,306	800,000	0,020	0,044
-389,292	75,545	-0,075	-0,056
-388,277	800,000	0,036	0,074
-387,263	-25,261	0,207	0,087
-386,248	-200,000	-0,033	-0,105
-385,233	41,014	0,067	0,043
-384,219	-200,000	-0,014	-0,132
-383,204	-109,501	0,084	0,013
-382,190	800,000	0,022	0,055
-381,175	800,000	-0,006	-0,013
-380,160	-200,000	-0,003	0,085
-379,146	800,000	-0,022	0,060
-378,131	-56,160	0,064	0,020
-377,117	13,367	-0,065	-0,036
-376,102	117,912	-0,104	-0,091
-375,088	-129,188	0,046	-0,005
-374,073	496,708	0,076	-0,125
-373,058	56,303	0,082	0,057
-372,044	27,859	-0,030	0,018
-371,029	800,000	0,022	-0,046
-370,015	800,000	0,005	0,014
-369,000	120,255	-0,080	0,071
-367,985	-2,238	0,119	0,060
-366,971	1,050	-0,108	0,055
-365,956	-117,121	0,085	-0,011
-364,942	800,000	-0,038	0,115
-363,927	545,704	-0,027	0,046
-362,912	-98,909	-0,120	-0,022
-361,898	135,912	-0,048	-0,045
-360,883	-129,608	-0,108	-0,010
-359,869	-110,511	0,076	0,011
-358,854	17,299	0,071	0,040
-357,839	-200,000	-0,034	0,134
-356,825	175,425	-0,096	0,100
-355,810	180,737	-0,129	0,136
-354,796	-14,341	0,132	-0,061
-353,781	800,000	-0,043	-0,125
-352,766	-20,663	0,077	-0,034
-351,752	41,409	-0,026	-0,017
-350,737	51,995	-0,127	-0,086
-349,723	-54,445	0,079	-0,025
-348,708	-13,083	0,071	-0,033
-347,693	-200,000	0,008	-0,112
-346,679	32,516	-0,087	0,053
-345,664	-87,732	-0,082	-0,017
-344,650	496,904	0,042	-0,068
-343,635	-200,000	0,024	-0,095
-342,620	800,000	0,059	0,162
-341,606	64,922	-0,010	-0,007
-340,591	800,000	-0,015	0,043
-339,577	187,103	-0,019	-0,021
-338,562	89,151	0,067	0,053
-337,548	-200,000	-0,041	0,149
-336,533	30,795	0,086	-0,052
-335,518	384,311	0,016	0,023
-334,504	800,000	-0,013	0,042
-333,489	258,975	0,116	0,143
-332,475	-111,279	0,104	0,015
-331,460	-200,000	0,046	-0,167
-330,445	58,745	-0,034	-0,024
-329,431	30,321	-0,124	-0,075
-328,416	-181,038	-0,099	-0,001
-327,402	-200,000	0,040	0,131
-326,387	-200,000	0,020	-0,091
-325,372	629,806	0,020	-0,037
-324,358	-200,000	-0,005	-0,072
-323,343	80,310	-0,046	-0,035
-322,329	-200,000	-0,001	0,131
-321,314	-200,000	-0,018	0,063
-320,299	-65,514	-0,119	-0,034
-319,285	-53,117	-0,047	0,015
-318,270	48,057	0,018	-0,012
-317,256	139,527	0,071	-0,067
-316,241	0,428	-0,055	-0,028
-315,226	64,046	0,130	0,093
-314,212	31,182	0,115	0,070
-313,197	-41,174	-0,061	0,022
-312,183	-142,721	-0,038	-0,003
-311,168	-200,000	-0,024	-0,109
-310,153	-110,632	-0,089	-0,013
-309,139	-118,083	-0,076	0,010
-308,124	-69,419	0,087	0,024
-307,110	35,812	-0,046	0,029
-306,095	124,150	0,081	0,072
-305,080	800,000	0,047	0,125
-304,066	-177,661	0,155	0,003
-303,051	217,045	-0,061	-0,070
-302,037	316,142	-0,056	0,075
-301,022	-200,000	-0,021	-0,080
-300,008	73,263	-0,089	0,066
-298,993	-53,495	0,195	-0,063
-297,978	609,291	0,038	0,068
-296,964	-200,000	-0,018	0,075
-295,949	554,029	0,040	-0,069
-294,935	-11,918	-0,090	-0,042
-293,920	-200,000	0,006	0,026
-292,905	84,314	-0,032	0,025
-291,891	-200,000	0,019	0,097
-290,876	-200,000	0,025	0,119
-289,862	-93,137	-0,075	0,015
-288,847	478,669	-0,044	-0,070
-287,832	-200,000	-0,032	-0,144
-286,818	404,587	-0,026	0,038
-285,803	800,000	-0,031	-0,078
-284,789	134,926	0,103	0,096
-283,774	-200,000	-0,001	-0,100
-282,759	362,698	-0,017	0,024
-281,745	292,051	-0,011	-0,014
-280,730	346,777	0,086	0,121
-279,716	280,213	0,113	-0,143
-278,701	-162,347	-0,030	-0,001
-277,686	40,018	0,051	0,033
-276,672	676,510	0,078	0,145
-275,657	711,452	0,090	-0,169
-274,643	18,243	-0,080	-0,045
-273,628	-200,000	-0,044	-0,143
-272,613	121,804	0,109	0,097
-271,599	790,403	-0,022	-0,042
-270,584	800,000	-0,032	-0,071
-269,570	-200,000	-0,018	0,121
-268,555	-83,692	0,042	0,009
-267,540	84,590	0,054	-0,042
-266,526	151,125	-0,221	-0,214
-265,511	22,986	-0,052	-0,030
-264,497	9,456	0,008	-0,004
-263,482	55,166	0,025	0,017
-262,467	800,000	-0,036	0,088
-261,453	800,000	-0,023	0,059
-260,438	86,983	-0,147	-0,115
-259,424	124,147	-0,011	-0,010
-258,409	580,704	-0,026	0,046
-257,395	-18,976	-0,033	0,015
-256,380	177,531	0,048	0,049
-255,365	4,771	0,060	-0,031
-254,351	800,000	-0,018	-0,049
-253,336	-8,509	-0,092	0,044
-252,322	351,327	0,016	0,023
-251,307	-108,189	0,074	-0,011
-250,292	-75,136	0,161	-0,041
-249,278	398,113	0,091	0,136
-248,263	-7,743	0,094	0,045
-247,249	-116,294	0,073	-0,009
-246,234	11,978	-0,155	-0,084
-245,219	50,186	-0,086	-0,058
-244,205	222,659	0,029	-0,033
-243,190	56,056	0,147	0,101
-242,176	-200,000	-0,001	-0,097
-241,161	-70,740	-0,045	-0,012
-240,146	-87,915	-0,119	0,025
-239,132	-200,000	-0,009	-0,140
-238,117	-104,748	0,086	0,014
-237,103	761,487	0,017	0,032
-236,088	-71,136	-0,097	0,026
-235,073	-53,450	-0,022	-0,007
-234,059	-200,000	0,003	0,021
-233,044	800,000	-0,042	0,090
-232,030	-200,000	-0,011	0,069
-231,015	-200,000	0,006	-0,062
-230,000	-19,030	-0,098	-0,043
-228,986	27,538	-0,125	-0,074
-227,971	-6,550	-0,091	-0,044
-226,957	-200,000	0,030	-0,095
-225,942	-200,000	-0,003	0,085
-224,927	800,000	-0,084	0,187
-223,913	-176,574	-0,040	-0,001
-222,898	656,072	-0,057	-0,104
-221,884	-200,000	0,002	0,124
-220,869	141,108	0,037	0,034
-219,855	106,274	-0,065	0,055
-218,840	800,000	0,043	0,115
-217,825	68,189	-0,058	0,042
-216,811	477,062	0,047	-0,076
-215,796	-27,495	0,089	-0,037
-214,782	10,064	0,040	-0,021
-213,767	-181,797	0,044	0,001
-212,752	240,831	0,045	0,053
-211,738	-200,000	0,007	0,149
-210,723	-136,542	-0,096	0,008
-209,709	-46,807	0,105	0,036
-208,694	-47,476	-0,065	-0,022
-207,679	17,088	-0,035	-0,019
-206,665	-8,737	-0,070	-0,033
-205,650	-200,000	-0,008	0,200
-204,636	-87,144	-0,040	0,009
-203,621	-96,767	0,108	0,020
-202,606	-200,000	-0,038	-0,144
-201,592	800,000	-0,074	-0,154
-200,577	39,890	-0,171	0,108
-199,563	-200,000	-0,030	-0,117
-198,548	-152,187	0,142	0,007
-197,533	301,060	0,061	-0,080
-196,519	800,000	-0,050	0,128
-195,504	448,559	0,086	-0,134
-194,490	-200,000	-0,112	-0,000
-193,475	-50,798	-0,078	-0,026
-192,460	88,739	0,060	0,048
-191,446	-36,311	-0,098	0,037
-190,431	-82,047	0,049	0,011
-189,417	-69,434	-0,076	0,021
-188,402	-200,000	-0,023	-0,148
-187,387	39,828	-0,101	-0,064
-186,373	35,159	-0,101	-0,062
-185,358	-114,750	0,027	-0,004
-184,344	-200,000	0,017	-0,063
-183,329	-200,000	0,002	-0,133
-182,315	-200,000	0,000	0,037
-181,300	21,230	0,055	0,032
-180,285	800,000	-0,047	0,120
-179,271	208,186	-0,119	-0,132
-178,256	-200,000	0,022	0,089
-177,242	-37,946	0,068	-0,025
-176,227	-200,000	0,040	0,133
-175,212	708,807	-0,013	0,024
-174,198	30,171	0,092	0,056
-173,183	-200,000	0,004	0,116
-172,169	-54,336	-0,108	-0,034
-171,154	-200,000	-0,006	-0,021
-170,139	17,604	0,087	-0,049
-169,125	533,449	-0,083	-0,140
-168,110	-110,890	0,116	-0,017
-167,096	127,001	-0,041	0,037
-166,081	-21,477	-0,068	-0,029
-165,066	604,914	0,035	0,061
-164,052	-88,375	-0,093	0,020
-163,037	39,886	0,172	0,109
-162,023	569,979	0,053	0,092
-161,008	217,203	-0,097	-0,109
-159,993	545,218	0,055	-0,093
-158,979	-113,236	-0,080	0,011
-157,964	800,000	-0,013	-0,036
-156,950	54,448	0,042	0,028
-155,935	18,429	0,068	0,038
-154,920	-200,000	-0,026	0,145
-153,906	800,000	0,038	-0,101
-152,891	44,370	-0,126	0,082
-151,877	184,943	0,021	-0,022
-150,862	-94,451	-0,194	0,037
-149,847	-200,000	-0,004	-0,084
-148,833	147,241	-0,083	0,079
-147,818	-200,000	-0,012	0,134
-146,804	-200,000	0,012	0,088
-145,789	55,126	-0,091	0,062
-144,775	-113,246	-0,201	0,028
-143,760	-200,000	-0,012	-0,064
-142,745	800,000	0,036	-0,071
-141,731	9,239	-0,051	-0,027
-140,716	64,898	0,114	0,081
-139,702	800,000	0,047	0,107
-138,687	-80,808	-0,134	-0,031
-137,672	-200,000	-0,013	0,058
-136,658	0,668	-0,091	0,046
-135,643	79,886	0,035	-0,027
-134,629	679,133	0,064	0,117
-133,614	-117,624	-0,029	0,004
-132,599	15,741	0,043	-0,024
-131,585	-200,000	0,027	0,093
-130,570	67,827	0,036	-0,026
-129,556	800,000	0,014	0,044
-128,541	769,437	-0,033	-0,065
-127,526	284,099	0,040	-0,051
-126,512	-17,092	-0,095	-0,042
-125,497	-154,080	0,082	-0,004
-124,483	75,628	0,049	0,037
-123,468	-200,000	-0,021	-0,076
-122,453	-7,179	-0,065	0,031
-121,439	800,000	0,007	-0,015
-120,424	588,904	-0,099	-0,173
-119,410	-161,271	0,214	0,008
