DTS Sentinel unit serial number:	SN410029Multiplexer serial number:	ORYXHardware model number:	OX2-SRSoftware version number:	ORYX F/W v4,00 Oryx Data Collector v3.7.2.0data status	okinstallation	B3 Nyhavnadifferential loss correction	single-endedforward channel	channel 1reverse channel	N/Adate	2023/11/28time	17:52:30forward acquisition time	300,00reverse acquisition time	0,00gamma	499,1914k internal	0,3157k external	0,3157temperature offset calibration	1,0000default loss term (dB/km)	0,3820temperature slope calibration	1,0000multiplexer offset coefficient	1,0000multiplexer slope coefficient	1,0000fibre end	0,00T internal ref (°C)	7,35T ext. ref 1 (°C)	-7,56T ext. ref 2 (°C)	-7,70length (m)	temperature (°C)	Stokes	anti-Stokes-744,400	174,134	-0,202	-0,215
-743,385	800,000	-0,085	0,178
-742,371	222,439	-0,138	-0,165
-741,356	-200,000	0,065	0,309
-740,342	-200,000	-0,085	-0,280
-739,327	-200,000	-0,120	0,402
-738,312	155,934	-0,250	-0,254
-737,298	-200,000	-0,005	0,327
-736,283	208,660	-0,168	-0,194
-735,269	-200,000	-0,033	0,296
-734,254	800,000	-0,044	-0,142
-733,239	-52,370	-0,256	0,087
-732,225	288,832	-0,093	-0,124
-731,210	-40,831	0,142	0,054
-730,196	-200,000	0,017	-0,069
-729,181	124,448	0,056	-0,052
-728,167	-38,525	0,022	0,008
-727,152	292,547	-0,067	0,090
-726,137	-200,000	-0,033	0,128
-725,123	-200,000	-0,017	-0,109
-724,108	800,000	-0,017	-0,054
-723,094	-200,000	-0,042	-0,173
-722,079	29,566	-0,196	-0,123
-721,064	433,335	-0,009	-0,014
-720,050	-200,000	0,020	-0,103
-719,035	338,809	-0,056	-0,081
-718,021	789,189	-0,046	-0,094
-717,006	82,019	0,027	-0,021
-715,991	-179,872	-0,022	0,000
-714,977	-72,446	-0,105	0,028
-713,962	-36,504	0,100	-0,040
-712,948	-69,716	0,094	-0,026
-711,933	-52,969	0,059	0,020
-710,918	-200,000	0,009	-0,130
-709,904	167,466	-0,047	-0,049
-708,889	-34,529	-0,110	-0,044
-707,875	800,000	-0,079	-0,164
-706,860	-60,200	0,063	0,020
-705,845	800,000	-0,045	-0,126
-704,831	478,421	0,061	0,102
-703,816	111,681	0,086	-0,077
-702,802	-59,317	0,098	-0,031
-701,787	269,537	-0,037	0,048
-700,772	-200,000	0,047	0,155
-699,758	-21,232	-0,092	-0,041
-698,743	701,623	0,041	-0,080
-697,729	-124,710	0,157	0,018
-696,714	-200,000	-0,017	0,078
-695,699	24,827	-0,066	-0,040
-694,685	-200,000	0,003	-0,021
-693,670	319,383	-0,040	-0,057
-692,656	-131,528	0,150	0,014
-691,641	800,000	0,025	0,052
-690,627	-26,037	0,079	0,034
-689,612	-14,169	-0,216	0,102
-688,597	-14,711	-0,018	-0,008
-687,583	800,000	-0,016	-0,047
-686,568	406,986	0,019	0,029
-685,554	38,873	0,034	-0,022
-684,539	263,141	-0,048	0,062
-683,524	28,054	-0,116	-0,072
-682,510	127,512	0,023	0,022
-681,495	330,441	-0,047	0,067
-680,481	-128,057	-0,101	-0,010
-679,466	-200,000	0,018	-0,061
-678,451	209,949	-0,054	-0,062
-677,437	100,171	0,120	-0,103
-676,422	-200,000	-0,016	0,078
-675,408	167,466	-0,022	-0,023
-674,393	321,875	-0,032	-0,045
-673,378	41,847	-0,114	-0,076
-672,364	-200,000	-0,025	-0,101
-671,349	-200,000	0,012	0,041
-670,335	341,185	-0,083	0,120
-669,320	346,898	0,086	0,126
-668,305	-150,104	0,216	-0,012
-667,291	-151,019	-0,190	-0,010
-666,276	-53,755	0,043	0,014
-665,262	-84,209	-0,217	-0,050
-664,247	-113,207	-0,122	-0,018
-663,232	175,398	0,093	0,099
-662,218	-200,000	-0,040	0,177
-661,203	698,839	-0,026	-0,050
-660,189	2,060	-0,107	-0,056
-659,174	268,250	-0,068	-0,088
-658,159	41,927	-0,075	-0,050
-657,145	-200,000	-0,027	0,175
-656,130	160,538	-0,073	0,074
-655,116	-150,186	0,052	0,003
-654,101	-20,515	0,040	-0,018
-653,086	375,997	-0,008	0,012
-652,072	-200,000	-0,018	0,085
-651,057	24,117	-0,111	0,067
-650,043	-29,995	0,007	-0,003
-649,028	-83,887	-0,017	0,004
-648,014	800,000	-0,044	0,132
-646,999	145,113	0,069	0,067
-645,984	-200,000	-0,012	0,071
-644,970	559,498	0,104	-0,185
-643,955	344,935	-0,045	-0,065
-642,941	745,771	-0,048	-0,096
-641,926	-42,688	0,092	-0,034
-640,911	-200,000	0,009	0,035
-639,897	-13,382	0,218	0,104
-638,882	116,485	0,028	0,025
-637,868	153,386	-0,093	-0,093
-636,853	-200,000	0,007	-0,171
-635,838	800,000	-0,048	-0,119
-634,824	-17,095	-0,054	-0,025
-633,809	-8,183	-0,071	-0,035
-632,795	318,205	-0,070	-0,097
-631,780	-200,000	-0,000	0,076
-630,765	-121,800	-0,095	0,011
-629,751	-25,404	-0,048	0,021
-628,736	-24,033	-0,122	0,053
-627,722	608,630	-0,051	0,094
-626,707	-200,000	0,014	0,134
-625,692	141,821	0,023	-0,023
-624,678	48,664	0,095	0,066
-623,663	715,261	-0,002	-0,004
-622,649	553,213	-0,032	-0,057
-621,634	181,556	-0,120	-0,130
-620,619	-11,905	-0,076	0,036
-619,605	202,397	0,076	-0,086
-618,590	505,891	-0,076	0,131
-617,576	-140,647	0,114	-0,009
-616,561	-200,000	0,007	0,140
-615,546	-173,105	0,018	0,000
-614,532	800,000	0,005	0,014
-613,517	-200,000	0,010	0,071
-612,503	108,744	-0,048	0,042
-611,488	-200,000	-0,026	-0,166
-610,474	-200,000	-0,004	-0,023
-609,459	118,594	-0,055	-0,050
-608,444	-136,000	0,047	-0,004
-607,430	233,786	-0,030	0,037
-606,415	-200,000	-0,007	-0,029
-605,401	-160,367	-0,090	-0,003
-604,386	11,221	0,106	-0,059
-603,371	-166,686	0,041	-0,001
-602,357	110,030	-0,097	0,086
-601,342	161,078	0,083	0,085
-600,328	642,549	0,046	-0,087
-599,313	-200,000	-0,021	-0,154
-598,298	693,410	0,039	-0,075
-597,284	411,447	-0,040	0,062
-596,269	-200,000	-0,008	0,061
-595,255	591,212	0,046	0,083
-594,240	32,764	-0,085	-0,054
-593,225	296,474	-0,040	-0,053
-592,211	-200,000	0,012	-0,097
-591,196	-35,641	-0,198	-0,079
-590,182	-61,303	0,122	0,037
-589,167	-180,502	0,155	-0,002
-588,152	159,052	-0,071	0,072
-587,138	118,914	0,121	-0,110
-586,123	-200,000	0,008	-0,160
-585,109	356,863	-0,063	-0,092
-584,094	-77,147	-0,051	0,013
-583,079	384,816	-0,108	0,164
-582,065	-75,245	0,089	0,023
-581,050	292,995	0,027	-0,036
-580,036	-200,000	-0,000	0,096
-579,021	-200,000	-0,001	0,017
-578,006	33,522	-0,082	-0,052
-576,992	-200,000	0,008	0,076
-575,977	-86,953	-0,043	-0,009
-574,963	-200,000	0,008	-0,027
-573,948	-109,434	0,061	0,009
-572,934	-60,354	-0,154	0,048
-571,919	-200,000	0,031	-0,193
-570,904	477,099	-0,048	-0,080
-569,890	-200,000	-0,063	-0,256
-568,875	-200,000	-0,004	-0,059
-567,861	-10,519	-0,051	0,025
-566,846	-200,000	0,022	0,311
-565,831	99,902	-0,052	-0,044
-564,817	-13,291	-0,070	0,033
-563,802	-200,000	-0,001	-0,119
-562,788	-43,414	0,056	0,021
-561,773	-106,166	0,031	-0,005
-560,758	297,453	0,085	0,115
-559,744	-200,000	-0,025	0,105
-558,729	-22,093	-0,118	-0,052
-557,715	-184,293	0,057	0,001
-556,700	163,068	-0,067	-0,069
-555,685	302,660	-0,065	-0,089
-554,671	-26,236	-0,097	-0,042
-553,656	800,000	0,029	-0,076
-552,642	-80,278	0,171	-0,042
-551,627	126,561	-0,095	0,088
-550,612	-70,935	-0,054	0,015
-549,598	-114,610	0,152	0,021
-548,583	-200,000	-0,039	-0,185
-547,569	399,470	-0,084	-0,129
-546,554	-95,691	0,182	0,035
-545,539	67,865	-0,017	-0,013
-544,525	63,755	0,086	-0,063
-543,510	-107,415	-0,101	-0,016
-542,496	-16,116	-0,033	-0,015
-541,481	76,782	-0,111	-0,086
-540,466	-200,000	0,003	0,055
-539,452	-200,000	-0,003	-0,021
-538,437	109,876	0,039	-0,034
-537,423	175,004	0,035	0,037
-536,408	800,000	0,052	-0,114
-535,393	-106,586	-0,134	0,022
-534,379	603,329	0,033	0,061
-533,364	-7,652	-0,108	-0,053
-532,350	193,716	0,056	0,062
-531,335	205,432	0,131	-0,149
-530,321	445,267	-0,040	0,064
-529,306	-200,000	0,013	0,060
-528,291	-5,091	-0,087	-0,044
-527,277	25,959	-0,157	-0,095
-526,262	-200,000	-0,030	-0,105
-525,248	800,000	0,051	0,118
-524,233	438,741	0,054	0,087
-523,218	-149,961	0,158	0,009
-522,204	-104,667	0,089	0,015
-521,189	101,046	0,055	-0,047
-520,175	28,081	-0,088	-0,054
-519,160	-200,000	0,003	0,027
-518,145	153,159	-0,031	-0,031
-517,131	800,000	-0,035	0,099
-516,116	150,638	-0,021	0,021
-515,102	11,652	0,080	-0,045
-514,087	-55,124	-0,243	-0,080
-513,072	-43,082	0,064	-0,024
-512,058	-12,474	0,069	-0,033
-511,043	37,567	-0,087	-0,056
-510,029	302,744	0,033	-0,045
-509,014	-4,030	0,086	0,043
-507,999	73,215	-0,096	0,074
-506,985	662,865	-0,055	0,103
-505,970	51,424	-0,035	-0,024
-504,956	-200,000	0,040	0,131
-503,941	280,656	0,051	0,067
-502,926	800,000	0,021	-0,055
-501,912	-136,940	-0,242	0,020
-500,897	-200,000	0,034	0,148
-499,883	-163,161	-0,157	-0,005
-498,868	-80,707	0,147	0,035
-497,853	267,319	-0,025	-0,033
-496,839	1,850	-0,069	0,036
-495,824	-200,000	0,030	0,196
-494,810	108,177	-0,047	-0,041
-493,795	-89,097	0,113	0,024
-492,781	-186,566	-0,083	-0,001
-491,766	63,827	-0,101	0,074
-490,751	307,243	0,018	-0,025
-489,737	-21,572	-0,070	-0,031
-488,722	-200,000	0,002	-0,037
-487,708	146,039	-0,058	-0,057
-486,693	470,257	0,064	0,106
-485,678	-98,496	-0,247	0,046
-484,664	77,568	-0,150	-0,116
-483,649	-180,991	-0,096	0,001
-482,635	4,960	-0,073	0,039
-481,620	-108,727	0,080	-0,012
-480,605	-46,327	0,032	-0,011
-479,591	-114,114	0,051	0,007
-478,576	800,000	0,037	0,098
-477,562	-25,355	0,120	-0,051
-476,547	-200,000	0,016	0,112
-475,532	800,000	0,051	-0,130
-474,518	-65,690	-0,096	0,028
-473,503	273,187	0,062	0,080
-472,489	39,685	0,059	0,038
-471,474	-4,035	-0,034	0,017
-470,459	162,517	-0,127	-0,130
-469,445	32,908	0,147	-0,092
-468,430	-109,853	-0,167	-0,025
-467,416	-200,000	0,034	0,121
-466,401	-200,000	0,048	0,179
-465,386	79,433	-0,107	0,084
-464,372	334,987	-0,079	0,111
-463,357	27,617	0,035	-0,021
-462,343	103,961	-0,017	-0,015
-461,328	228,476	-0,091	0,109
-460,313	112,522	0,065	0,057
-459,299	1,157	0,199	0,104
-458,284	-200,000	-0,006	-0,106
-457,270	-47,592	0,137	0,048
-456,255	-200,000	0,013	-0,051
-455,241	245,367	-0,117	-0,144
-454,226	-200,000	0,016	0,076
-453,211	-200,000	0,021	-0,109
-452,197	-137,747	0,095	0,008
-451,182	119,123	0,040	-0,036
-450,168	-160,576	0,235	0,009
-449,153	198,258	-0,007	-0,007
-448,138	-13,691	0,049	0,023
-447,124	-56,089	-0,091	0,029
-446,109	-45,420	-0,094	0,034
-445,095	-94,405	0,174	0,034
-444,080	184,792	0,077	0,083
-443,065	527,838	-0,039	-0,067
-442,051	71,622	-0,027	-0,020
-441,036	32,137	-0,071	-0,045
-440,022	-200,000	0,010	-0,086
-439,007	-200,000	0,009	0,066
-437,992	-200,000	0,005	-0,059
-436,978	135,469	0,123	-0,116
-435,963	-145,150	-0,099	-0,006
-434,949	263,413	-0,060	-0,076
-433,934	-12,177	-0,056	0,027
-432,919	348,972	-0,039	-0,056
-431,905	455,652	-0,024	0,039
-430,890	79,355	0,005	0,004
-429,876	179,232	0,064	0,068
-428,861	800,000	-0,054	0,110
-427,846	800,000	0,040	-0,101
-426,832	800,000	0,012	0,030
-425,817	-80,859	-0,103	-0,025
-424,803	426,325	0,043	0,067
-423,788	37,970	-0,037	-0,024
-422,773	-4,854	-0,090	-0,045
-421,759	527,962	-0,054	-0,094
-420,744	564,573	0,036	0,064
-419,730	-72,745	0,017	-0,005
-418,715	-97,964	-0,154	0,029
-417,701	726,485	0,061	-0,119
-416,686	-200,000	0,038	0,126
-415,671	435,491	0,036	0,057
-414,657	459,486	0,076	0,124
-413,642	77,150	-0,060	-0,047
-412,628	68,027	-0,119	0,089
-411,613	411,871	0,041	-0,063
-410,598	-200,000	0,011	0,094
-409,584	800,000	0,025	0,067
-408,569	259,349	0,098	0,123
-407,555	31,439	0,031	-0,020
-406,540	-200,000	-0,018	0,077
-405,525	798,817	-0,048	0,098
-404,511	-115,496	0,086	-0,012
-403,496	-200,000	0,002	-0,037
-402,482	667,591	0,069	0,130
-401,467	9,956	-0,028	0,015
-400,452	365,047	0,033	0,048
-399,438	-200,000	-0,003	0,018
-398,423	169,738	-0,093	-0,097
-397,409	-200,000	-0,017	-0,130
-396,394	-98,922	0,070	0,013
-395,379	35,973	-0,156	-0,100
-394,365	-200,000	-0,008	-0,105
-393,350	564,115	0,060	0,105
-392,336	245,925	-0,035	-0,043
-391,321	-189,315	0,119	0,001
-390,306	-200,000	0,014	-0,076
-389,292	483,886	-0,055	-0,091
-388,277	-173,228	0,103	0,002
-387,263	-77,446	0,075	-0,019
-386,248	-200,000	0,025	0,084
-385,233	635,809	-0,059	0,110
-384,219	-200,000	-0,005	-0,112
-383,204	800,000	-0,028	0,070
-382,190	-200,000	-0,004	0,096
-381,175	-177,544	-0,120	0,002
-380,160	322,940	0,084	0,116
-379,146	247,399	0,041	0,050
-378,131	240,775	-0,123	0,150
-377,117	120,075	-0,067	-0,060
-376,102	105,157	0,016	-0,014
-375,088	151,574	-0,123	-0,122
-374,073	-45,956	0,054	-0,019
-373,058	800,000	-0,037	0,111
-372,044	-200,000	0,015	0,102
-371,029	47,267	0,088	0,060
-370,015	-200,000	-0,003	-0,011
-369,000	94,159	-0,131	-0,108
-367,985	105,263	-0,055	-0,047
-366,971	-200,000	-0,007	-0,051
-365,956	472,086	-0,037	-0,061
-364,942	-65,327	0,134	-0,039
-363,927	800,000	-0,039	0,099
-362,912	-182,626	-0,068	0,001
-361,898	-135,897	0,062	-0,005
-360,883	-10,987	-0,087	0,042
-359,869	-92,636	0,035	-0,007
-358,854	-90,402	-0,034	-0,007
-357,839	-200,000	0,008	-0,038
-356,825	362,491	0,085	-0,125
-355,810	-109,648	-0,113	0,017
-354,796	185,616	-0,091	-0,098
-353,781	195,465	-0,104	-0,115
-352,766	101,339	-0,093	-0,079
-351,752	-200,000	-0,008	-0,081
-350,737	152,509	0,056	-0,056
-349,723	63,656	0,034	-0,025
-348,708	-131,573	0,060	-0,006
-347,693	-181,617	-0,077	0,001
-346,679	148,710	0,095	-0,093
-345,664	-3,254	-0,082	0,041
-344,650	800,000	-0,006	0,014
-343,635	-200,000	0,025	-0,081
-342,620	-200,000	-0,024	0,170
-341,606	-146,085	0,102	0,006
-340,591	-185,149	-0,067	-0,001
-339,577	475,421	-0,095	-0,156
-338,562	-125,557	-0,137	0,015
-337,548	-200,000	-0,006	0,140
-336,533	260,240	0,020	0,025
-335,518	-154,887	0,107	0,005
-334,504	709,855	-0,043	0,083
-333,489	-36,501	-0,073	0,028
-332,475	800,000	-0,029	-0,068
-331,460	-60,788	0,064	0,020
-330,445	-200,000	-0,002	-0,117
-329,431	257,936	-0,049	-0,062
-328,416	800,000	-0,038	0,078
-327,402	14,043	-0,060	0,034
-326,387	33,894	-0,079	-0,050
-325,372	776,702	0,082	-0,163
-324,358	163,988	-0,075	-0,076
-323,343	567,904	0,063	-0,112
-322,329	-200,000	0,006	0,046
-321,314	-200,000	0,013	-0,163
-320,299	-55,795	0,120	-0,039
-319,285	65,937	0,049	0,036
-318,270	-21,938	-0,174	-0,076
-317,256	346,556	0,050	-0,072
-316,241	-200,000	0,027	0,163
-315,226	189,486	0,082	0,089
-314,212	6,499	0,037	0,020
-313,197	-200,000	0,013	0,047
-312,183	-126,042	-0,015	0,002
-311,168	21,039	-0,084	-0,049
-310,153	-200,000	0,012	-0,049
-309,139	800,000	-0,031	0,086
-308,124	787,237	-0,047	0,094
-307,110	-78,884	-0,093	0,023
-306,095	448,103	0,137	0,220
-305,080	-94,081	0,111	0,022
-304,066	-145,167	0,021	-0,001
-303,051	-23,345	-0,086	-0,037
-302,037	-200,000	-0,009	-0,071
-301,022	-92,254	0,130	0,026
-300,008	-200,000	0,015	0,103
-298,993	-86,661	0,153	-0,034
-297,978	245,786	0,017	0,020
-296,964	-200,000	0,004	-0,057
-295,949	-200,000	0,001	-0,140
-294,935	384,953	-0,092	-0,137
-293,920	800,000	0,034	-0,105
-292,905	-200,000	0,015	0,064
-291,891	222,887	-0,087	0,101
-290,876	44,259	0,094	0,062
-289,862	90,064	-0,042	-0,034
-288,847	-200,000	0,008	-0,091
-287,832	-29,831	-0,061	-0,025
-286,818	-67,898	0,138	-0,039
-285,803	142,310	0,110	-0,106
-284,789	-4,473	0,074	-0,037
-283,774	800,000	0,022	-0,047
-282,759	30,485	0,079	0,049
-281,745	496,685	-0,121	-0,203
-280,730	800,000	0,061	-0,182
-279,716	799,723	-0,072	-0,144
-278,701	70,244	0,068	0,051
-277,686	800,000	0,047	0,134
-276,672	-11,529	0,117	0,055
-275,657	800,000	0,017	-0,036
-274,643	-200,000	0,041	-0,148
-273,628	-147,790	0,085	0,005
-272,613	-200,000	-0,000	-0,016
-271,599	6,971	0,155	0,083
-270,584	-200,000	0,030	0,126
-269,570	-23,701	0,050	0,021
-268,555	115,936	0,132	-0,117
-267,540	-134,764	0,053	-0,005
-266,526	-200,000	0,011	0,120
-265,511	446,888	-0,021	0,033
-264,497	-84,626	-0,116	0,026
-263,482	18,469	0,069	-0,040
-262,467	150,156	0,092	-0,090
-261,453	-87,498	0,078	-0,017
-260,438	800,000	0,014	-0,043
-259,424	-200,000	0,007	0,080
-258,409	526,246	-0,089	0,152
-257,395	800,000	0,044	-0,099
-256,380	6,569	-0,087	-0,047
-255,365	687,737	0,102	0,194
-254,351	-200,000	0,015	0,117
-253,336	-62,496	-0,039	-0,012
-252,322	800,000	-0,054	-0,115
-251,307	31,385	-0,046	-0,029
-250,292	800,000	-0,033	-0,097
-249,278	-200,000	0,010	0,180
-248,263	-56,783	-0,198	0,063
-247,249	41,150	0,113	-0,074
-246,234	-149,702	-0,029	-0,002
-245,219	-36,834	-0,125	-0,048
-244,205	29,104	0,010	0,006
-243,190	-42,551	0,055	-0,020
-242,176	-62,229	-0,074	-0,022
-241,161	16,577	0,104	0,059
-240,146	-200,000	0,040	-0,168
-239,132	-147,694	0,157	-0,009
-238,117	-54,286	-0,100	0,033
-237,103	-19,238	-0,029	-0,013
-236,088	323,005	0,071	0,098
-235,073	7,315	0,122	0,066
-234,059	665,649	-0,056	0,105
-233,044	800,000	0,082	0,207
-232,030	698,312	-0,035	-0,068
-231,015	118,596	-0,032	0,029
-230,000	-200,000	-0,001	0,020
-228,986	-200,000	-0,003	-0,063
-227,971	244,466	-0,067	-0,081
-226,957	-63,484	0,175	-0,052
-225,942	-2,125	0,079	-0,040
-224,927	2,382	-0,018	0,009
-223,913	800,000	-0,055	0,112
-222,898	800,000	-0,045	-0,116
-221,884	-105,942	0,051	-0,008
-220,869	65,132	0,082	0,060
-219,855	-134,206	-0,093	0,008
-218,840	119,954	0,044	0,040
-217,825	93,749	0,111	0,091
-216,811	-81,824	0,042	0,010
-215,796	-200,000	0,019	0,205
-214,782	39,225	0,052	-0,034
-213,767	-200,000	-0,014	0,060
-212,752	246,625	0,054	0,066
-211,738	800,000	0,036	-0,086
-210,723	-200,000	-0,004	0,207
-209,709	181,007	-0,178	0,189
-208,694	16,922	0,036	-0,020
-207,679	-158,320	-0,074	-0,003
-206,665	18,744	-0,098	-0,056
-205,650	-200,000	0,024	-0,094
-204,636	-84,232	0,087	0,020
-203,621	-9,244	0,159	0,077
-202,606	-138,547	-0,227	0,018
-201,592	3,927	0,061	-0,032
-200,577	152,056	-0,134	0,132
-199,563	-92,054	-0,142	-0,029
-198,548	37,903	0,107	0,068
-197,533	-100,624	0,097	-0,017
-196,519	-71,884	-0,121	0,032
-195,504	-173,292	0,082	-0,002
-194,490	32,845	0,058	-0,036
-193,475	-179,421	-0,117	0,002
-192,460	-200,000	0,028	0,122
-191,446	197,907	0,030	0,033
-190,431	800,000	0,042	-0,090
-189,417	475,116	0,090	0,147
-188,402	-200,000	-0,012	0,068
-187,387	82,185	-0,044	-0,034
-186,373	329,223	-0,053	-0,073
-185,358	800,000	0,029	-0,068
-184,344	35,399	0,115	0,073
-183,329	-95,281	0,085	-0,016
-182,315	545,790	-0,078	0,135
-181,300	97,565	-0,100	0,083
-180,285	147,805	0,018	0,018
-179,271	288,331	-0,038	0,050
-178,256	-40,492	0,066	0,025
-177,242	32,383	0,032	-0,020
-176,227	-141,525	0,089	0,006
-175,212	138,597	0,060	0,057
-174,198	140,554	0,046	-0,043
-173,183	183,951	-0,069	0,074
-172,169	490,440	0,017	0,028
-171,154	88,138	0,006	0,005
-170,139	-200,000	0,020	-0,110
-169,125	253,036	0,103	-0,126
-168,110	26,851	0,080	0,048
-167,096	-21,682	-0,151	-0,066
-166,081	54,963	-0,048	0,033
-165,066	142,897	0,128	-0,123
-164,052	-132,218	0,097	0,009
-163,037	375,322	0,130	-0,192
-162,023	-93,844	0,121	-0,024
-161,008	-85,537	0,055	-0,012
-159,993	246,403	0,092	0,111
-158,979	800,000	0,010	-0,029
-157,964	137,287	-0,105	-0,099
-156,950	187,281	0,053	-0,057
-155,935	371,553	-0,038	-0,056
-154,920	331,272	-0,080	0,112
-153,906	284,411	-0,102	0,133
-152,891	-166,164	-0,059	-0,002
-151,877	34,487	-0,097	0,061
-150,862	14,302	0,096	-0,054
-149,847	-141,973	0,035	0,003
-148,833	-116,382	-0,042	0,006
-147,818	184,906	0,087	0,094
-146,804	-0,997	0,077	0,039
-145,789	-107,578	-0,038	-0,006
-144,775	21,666	0,082	0,048
-143,760	-114,947	-0,105	-0,014
-142,745	246,423	-0,051	-0,063
-141,731	800,000	0,034	0,074
-140,716	800,000	-0,037	0,079
-139,702	-75,549	0,142	-0,036
-138,687	73,225	-0,043	0,033
-137,672	-98,606	0,024	0,004
-136,658	-56,428	-0,128	0,041
-135,643	-200,000	0,005	-0,133
-134,629	-78,324	0,159	-0,039
-133,614	-200,000	0,008	0,081
-132,599	800,000	0,050	-0,104
-131,585	-20,106	0,055	-0,024
-130,570	-165,818	0,129	-0,004
-129,556	17,421	0,107	-0,061
-128,541	-200,000	-0,005	0,041
-127,526	273,265	-0,091	-0,116
-126,512	255,990	0,141	-0,175
-125,497	164,941	0,054	0,055
-124,483	-200,000	-0,029	0,163
-123,468	-44,487	-0,045	-0,016
-122,453	800,000	0,015	-0,039
-121,439	-138,614	-0,143	-0,011
-120,424	42,408	-0,009	-0,006
-119,410	271,535	-0,024	0,030
