DTS Sentinel unit serial number:	SN410029Multiplexer serial number:	ORYXHardware model number:	OX2-SRSoftware version number:	ORYX F/W v4,00 Oryx Data Collector v3.7.2.0data status	okinstallation	B3 Nyhavnadifferential loss correction	single-endedforward channel	channel 1reverse channel	N/Adate	2023/11/28time	19:22:30forward acquisition time	300,00reverse acquisition time	0,00gamma	499,1914k internal	0,3169k external	0,3169temperature offset calibration	1,0000default loss term (dB/km)	0,3820temperature slope calibration	1,0000multiplexer offset coefficient	1,0000multiplexer slope coefficient	1,0000fibre end	0,00T internal ref (°C)	7,64T ext. ref 1 (°C)	-6,99T ext. ref 2 (°C)	-7,14length (m)	temperature (°C)	Stokes	anti-Stokes-744,400	259,370	-0,164	-0,208
-743,385	-200,000	-0,065	0,228
-742,371	519,683	-0,055	-0,095
-741,356	-200,000	0,075	0,337
-740,342	209,268	-0,219	-0,252
-739,327	-200,000	-0,033	0,291
-738,312	554,852	-0,110	-0,195
-737,298	-200,000	0,019	0,293
-736,283	186,362	-0,285	-0,312
-735,269	316,720	0,193	0,268
-734,254	10,382	-0,128	-0,071
-733,239	-76,729	-0,192	0,049
-732,225	800,000	-0,083	-0,199
-731,210	42,662	0,210	0,140
-730,196	-200,000	-0,029	0,147
-729,181	-80,171	-0,107	-0,026
-728,167	-73,160	0,053	0,014
-727,152	-200,000	0,049	-0,160
-726,137	-200,000	0,009	-0,028
-725,123	631,337	-0,093	-0,173
-724,108	-19,073	-0,054	-0,025
-723,094	-35,223	-0,074	-0,029
-722,079	281,758	-0,030	-0,039
-721,064	154,915	0,082	-0,083
-720,050	800,000	-0,039	-0,094
-719,035	273,003	-0,060	0,078
-718,021	-200,000	0,006	-0,025
-717,006	800,000	0,019	0,039
-715,991	271,438	-0,008	0,010
-714,977	664,682	-0,055	-0,105
-713,962	59,066	-0,068	-0,049
-712,948	-200,000	0,009	0,056
-711,933	-31,451	-0,106	0,043
-710,918	241,472	0,064	-0,079
-709,904	160,907	-0,024	-0,025
-708,889	208,843	-0,047	0,054
-707,875	-100,904	-0,172	0,031
-706,860	-200,000	0,012	-0,104
-705,845	223,898	0,066	0,078
-704,831	-200,000	-0,001	0,115
-703,816	-108,043	-0,068	-0,011
-702,802	-92,012	0,077	0,016
-701,787	16,248	-0,147	-0,085
-700,772	-200,000	0,017	-0,164
-699,758	-200,000	0,004	-0,030
-698,743	43,655	-0,034	0,023
-697,729	-35,540	-0,083	-0,033
-696,714	-88,441	0,116	-0,025
-695,699	766,290	-0,036	-0,072
-694,685	165,839	-0,044	0,045
-693,670	-200,000	-0,024	-0,083
-692,656	-200,000	-0,003	0,096
-691,641	-200,000	0,001	-0,097
-690,627	180,743	0,077	-0,083
-689,612	99,851	-0,106	-0,090
-688,597	-42,046	-0,141	-0,052
-687,583	471,517	-0,040	-0,066
-686,568	-200,000	0,029	-0,114
-685,554	-200,000	0,006	-0,021
-684,539	-200,000	-0,012	-0,188
-683,524	-169,781	0,018	0,000
-682,510	84,005	-0,087	-0,070
-681,495	-200,000	0,004	0,179
-680,481	-161,032	-0,109	-0,004
-679,466	91,853	-0,046	-0,038
-678,451	193,866	0,040	0,044
-677,437	-158,495	0,061	0,003
-676,422	203,967	-0,042	-0,048
-675,408	97,615	0,069	-0,058
-674,393	-131,352	-0,138	0,013
-673,378	-119,980	-0,238	0,030
-672,364	61,430	0,086	-0,063
-671,349	800,000	0,052	0,122
-670,335	-200,000	0,012	-0,101
-669,320	-115,866	0,097	0,013
-668,305	602,315	-0,094	0,171
-667,291	-102,716	-0,077	-0,013
-666,276	-17,124	-0,130	0,060
-665,262	-200,000	-0,009	-0,075
-664,247	95,088	-0,077	-0,064
-663,232	304,442	-0,028	0,039
-662,218	800,000	-0,027	0,057
-661,203	134,740	-0,032	0,030
-660,189	389,052	0,076	-0,115
-659,174	-156,759	-0,064	0,003
-658,159	173,485	-0,137	-0,145
-657,145	800,000	0,065	-0,174
-656,130	-12,423	-0,076	-0,036
-655,116	650,866	0,044	-0,083
-654,101	-65,812	-0,056	-0,016
-653,086	63,259	-0,041	-0,030
-652,072	198,034	-0,014	0,016
-651,057	405,990	0,021	0,032
-650,043	594,950	0,056	-0,102
-649,028	247,812	0,083	-0,103
-648,014	-97,754	-0,122	-0,023
-646,999	-56,703	0,160	-0,051
-645,984	-97,264	0,098	-0,018
-644,970	230,426	-0,099	-0,118
-643,955	-113,358	0,115	0,016
-642,941	-80,818	-0,148	0,036
-641,926	-31,042	0,042	-0,017
-640,911	119,654	-0,051	0,046
-639,897	800,000	0,016	-0,045
-638,882	520,520	0,053	0,090
-637,868	305,097	0,017	0,023
-636,853	-200,000	-0,010	-0,146
-635,838	800,000	-0,052	0,120
-634,824	-162,869	0,116	-0,004
-633,809	800,000	-0,027	-0,058
-632,795	340,163	0,082	0,118
-631,780	-42,633	-0,044	-0,016
-630,765	15,655	-0,138	0,079
-629,751	-30,277	-0,080	-0,033
-628,736	343,459	0,043	0,061
-627,722	260,968	-0,093	-0,118
-626,707	794,016	0,015	-0,030
-625,692	86,276	0,061	0,049
-624,678	287,012	0,041	-0,054
-623,663	-200,000	-0,019	0,065
-622,649	-61,145	-0,080	0,024
-621,634	-62,560	-0,100	-0,030
-620,619	800,000	0,012	0,038
-619,605	-200,000	0,008	0,037
-618,590	-200,000	-0,008	0,024
-617,576	74,745	0,099	-0,076
-616,561	-200,000	0,114	0,000
-615,546	800,000	-0,029	-0,076
-614,532	800,000	0,050	-0,110
-613,517	800,000	-0,018	0,037
-612,503	-200,000	0,003	0,044
-611,488	-200,000	-0,028	0,182
-610,474	141,029	-0,073	0,070
-609,459	367,392	0,077	0,115
-608,444	-1,021	-0,058	-0,030
-607,430	-124,622	-0,012	-0,001
-606,415	22,249	0,112	-0,067
-605,401	-200,000	-0,013	-0,085
-604,386	-200,000	0,007	0,130
-603,371	800,000	0,039	0,081
-602,357	-200,000	-0,029	0,135
-601,342	218,828	-0,050	-0,058
-600,328	184,141	-0,023	-0,025
-599,313	258,660	-0,037	0,047
-598,298	-22,367	-0,077	0,034
-597,284	800,000	0,049	0,145
-596,269	53,527	0,043	0,030
-595,255	-111,602	-0,062	-0,009
-594,240	-200,000	-0,013	0,101
-593,225	800,000	-0,029	-0,091
-592,211	-36,864	0,040	-0,016
-591,196	-112,561	0,081	-0,012
-590,182	-120,739	0,138	-0,017
-589,167	800,000	0,040	0,119
-588,152	114,653	0,057	0,050
-587,138	469,163	-0,072	0,118
-586,123	57,728	-0,147	-0,104
-585,109	143,220	-0,067	0,065
-584,094	581,249	-0,055	0,099
-583,079	-191,730	-0,029	0,000
-582,065	-200,000	-0,013	-0,158
-581,050	146,900	-0,093	0,092
-580,036	-200,000	0,004	-0,161
-579,021	-4,693	-0,161	-0,081
-578,006	-73,412	-0,081	-0,022
-576,992	353,582	-0,060	-0,087
-575,977	17,168	0,037	0,021
-574,963	-113,740	0,096	0,013
-573,948	397,569	-0,035	-0,053
-572,934	524,970	-0,012	0,021
-571,919	21,859	-0,097	0,058
-570,904	113,875	-0,037	0,033
-569,890	75,423	0,070	0,054
-568,875	-55,603	0,043	-0,014
-567,861	767,271	-0,071	-0,141
-566,846	1,038	0,065	0,034
-565,831	296,995	-0,123	0,165
-564,817	-46,394	-0,097	0,035
-563,802	160,400	-0,051	-0,052
-562,788	648,644	-0,023	0,043
-561,773	495,929	-0,035	-0,058
-560,758	33,715	0,128	-0,081
-559,744	-200,000	-0,002	0,165
-558,729	-77,575	-0,134	-0,034
-557,715	-65,698	-0,105	-0,031
-556,700	-200,000	0,003	-0,029
-555,685	-129,854	-0,085	-0,008
-554,671	-200,000	0,011	-0,083
-553,656	34,563	0,142	0,090
-552,642	-47,063	-0,020	0,007
-551,627	800,000	0,011	-0,025
-550,612	800,000	0,011	-0,030
-549,598	800,000	-0,017	-0,035
-548,583	-91,602	0,058	0,012
-547,569	57,692	-0,118	0,084
-546,554	326,299	0,049	0,069
-545,539	-140,475	-0,058	0,004
-544,525	-200,000	-0,002	-0,073
-543,510	657,162	-0,020	0,038
-542,496	9,480	-0,085	-0,047
-541,481	10,168	0,110	-0,061
-540,466	0,130	-0,027	-0,014
-539,452	261,399	-0,044	-0,056
-538,437	52,240	0,098	0,068
-537,423	-78,193	0,107	0,027
-536,408	-200,000	-0,110	-0,000
-535,393	800,000	-0,088	-0,239
-534,379	800,000	0,024	-0,067
-533,364	-132,963	0,146	0,013
-532,350	-123,744	0,063	-0,007
-531,335	-200,000	0,007	0,153
-530,321	93,319	0,058	0,047
-529,306	-183,234	0,040	-0,000
-528,291	20,234	-0,059	-0,035
-527,277	-200,000	-0,021	-0,096
-526,262	-200,000	-0,009	0,059
-525,248	800,000	0,091	-0,205
-524,233	-200,000	-0,023	0,078
-523,218	800,000	-0,017	-0,034
-522,204	94,036	0,101	0,083
-521,189	-136,304	0,181	-0,015
-520,175	109,580	-0,085	-0,074
-519,160	-200,000	0,013	-0,075
-518,145	436,996	0,039	0,061
-517,131	412,756	-0,022	-0,035
-516,116	227,688	0,092	-0,109
-515,102	-69,093	0,033	0,009
-514,087	383,667	-0,053	-0,079
-513,072	245,086	-0,142	-0,174
-512,058	-180,092	0,130	-0,002
-511,043	-200,000	-0,077	0,000
-510,029	484,679	-0,021	0,035
-509,014	800,000	0,045	0,119
-507,999	589,348	0,013	0,023
-506,985	-99,364	-0,081	-0,015
-505,970	-55,371	-0,061	0,020
-504,956	18,697	-0,056	-0,033
-503,941	173,684	-0,023	-0,024
-502,926	-23,518	-0,078	0,034
-501,912	46,566	-0,052	0,035
-500,897	-200,000	-0,017	0,203
-499,883	-101,013	0,150	0,027
-498,868	348,700	-0,046	-0,066
-497,853	800,000	0,045	-0,130
-496,839	11,119	-0,071	-0,039
-495,824	-200,000	0,006	-0,138
-494,810	382,633	0,054	-0,081
-493,795	271,269	0,050	0,064
-492,781	92,859	0,059	-0,048
-491,766	156,275	-0,141	-0,142
-490,751	800,000	0,039	-0,094
-489,737	-159,179	-0,110	-0,004
-488,722	-128,156	0,109	0,011
-487,708	203,753	0,095	0,107
-486,693	-32,482	0,108	0,044
-485,678	-200,000	0,048	0,167
-484,664	800,000	0,049	0,116
-483,649	800,000	-0,033	-0,077
-482,635	-200,000	-0,003	0,063
-481,620	27,793	0,024	-0,015
-480,605	-104,169	0,164	-0,027
-479,591	410,844	-0,042	0,065
-478,576	-78,008	-0,090	-0,022
-477,562	178,832	0,080	0,085
-476,547	-200,000	0,013	0,046
-475,532	-14,837	-0,143	0,067
-474,518	2,099	0,044	-0,023
-473,503	-32,551	-0,145	0,059
-472,489	-33,423	-0,134	-0,054
-471,474	-36,198	0,053	-0,021
-470,459	259,505	-0,095	-0,119
-469,445	-200,000	-0,041	-0,156
-468,430	-112,632	0,149	0,021
-467,416	-88,091	-0,021	0,005
-466,401	800,000	-0,033	0,073
-465,386	-40,485	0,059	-0,022
-464,372	-57,754	-0,026	0,008
-463,357	800,000	0,060	-0,141
-462,343	-161,836	0,070	-0,003
-461,328	800,000	0,021	-0,042
-460,313	-200,000	0,000	0,096
-459,299	800,000	-0,005	0,014
-458,284	15,908	0,106	0,060
-457,270	-9,651	0,040	0,019
-456,255	-76,415	0,038	-0,010
-455,241	800,000	-0,014	-0,041
-454,226	658,163	-0,024	-0,044
-453,211	-200,000	-0,014	-0,092
-452,197	-2,226	-0,094	0,048
-451,182	-45,872	-0,130	-0,046
-450,168	-53,551	0,057	0,019
-449,153	-42,903	0,051	0,019
-448,138	-91,777	0,070	-0,014
-447,124	349,165	-0,100	-0,144
-446,109	468,418	0,047	0,077
-445,095	800,000	0,031	0,062
-444,080	124,516	0,040	0,036
-443,065	95,127	0,126	0,104
-442,051	54,628	0,072	0,050
-441,036	-40,499	-0,039	0,015
-440,022	-52,290	0,101	0,034
-439,007	-158,853	-0,019	-0,001
-437,992	-9,188	-0,063	0,030
-436,978	-200,000	0,025	0,112
-435,963	-200,000	0,014	0,143
-434,949	-75,363	-0,036	-0,009
-433,934	363,700	-0,062	-0,091
-432,919	167,840	-0,052	-0,053
-431,905	-200,000	-0,019	-0,145
-430,890	-59,825	0,108	0,033
-429,876	-200,000	-0,005	0,080
-428,861	0,081	-0,163	-0,084
-427,846	-200,000	0,010	0,067
-426,832	-31,080	-0,087	-0,035
-425,817	800,000	-0,045	-0,099
-424,803	187,016	-0,049	-0,053
-423,788	-8,329	0,211	0,103
-422,773	66,955	-0,081	-0,060
-421,759	283,129	0,052	0,067
-420,744	-6,989	0,161	0,079
-419,730	800,000	-0,053	0,132
-418,715	264,383	0,063	0,080
-417,701	-200,000	0,002	-0,008
-416,686	-102,613	-0,037	0,006
-415,671	800,000	0,091	0,211
-414,657	73,368	0,066	0,050
-413,642	800,000	-0,018	-0,047
-412,628	-149,554	-0,182	-0,010
-411,613	-200,000	-0,005	-0,104
-410,598	180,914	0,046	-0,049
-409,584	800,000	0,010	0,024
-408,569	800,000	0,020	0,052
-407,555	-154,129	0,021	-0,001
-406,540	25,770	0,045	-0,027
-405,525	278,661	0,019	-0,025
-404,511	54,510	-0,143	-0,099
-403,496	-200,000	-0,013	-0,041
-402,482	-200,000	0,036	0,188
-401,467	170,058	-0,019	0,020
-400,452	-26,111	0,284	0,120
-399,438	-200,000	0,013	0,095
-398,423	80,320	-0,047	-0,037
-397,409	-22,374	-0,171	0,075
-396,394	-37,832	0,099	0,038
-395,379	336,309	-0,059	-0,084
-394,365	371,348	-0,045	0,067
-393,350	-133,099	0,079	0,007
-392,336	696,526	-0,062	-0,119
-391,321	-200,000	0,029	-0,158
-390,306	-116,550	-0,074	0,010
-389,292	428,236	0,064	0,101
-388,277	-200,000	-0,004	-0,086
-387,263	800,000	0,040	0,114
-386,248	231,830	-0,067	-0,080
-385,233	232,688	0,079	0,094
-384,219	-45,337	-0,035	0,012
-383,204	-72,873	-0,079	-0,021
-382,190	-15,941	0,096	-0,044
-381,175	800,000	-0,018	0,053
-380,160	800,000	0,010	-0,026
-379,146	800,000	-0,028	0,068
-378,131	-53,554	-0,122	0,040
-377,117	800,000	-0,052	0,129
-376,102	624,042	-0,034	-0,062
-375,088	-200,000	-0,021	-0,117
-374,073	530,242	0,053	-0,091
-373,058	149,629	0,087	0,086
-372,044	-176,333	0,042	-0,001
-371,029	448,187	0,046	0,073
-370,015	-200,000	-0,004	-0,060
-369,000	-19,778	-0,085	-0,038
-367,985	-119,750	-0,097	0,012
-366,971	204,837	-0,068	0,077
-365,956	-141,438	-0,024	-0,002
-364,942	534,897	0,027	0,046
-363,927	91,009	0,073	-0,059
-362,912	-200,000	-0,001	0,046
-361,898	331,498	-0,046	0,065
-360,883	459,759	-0,027	-0,044
-359,869	-200,000	0,021	0,130
-358,854	-24,960	-0,083	-0,036
-357,839	800,000	-0,050	0,110
-356,825	-59,003	0,013	-0,004
-355,810	156,262	0,068	-0,068
-354,796	7,467	-0,054	-0,029
-353,781	800,000	0,050	-0,111
-352,766	-159,243	-0,077	-0,003
-351,752	14,530	0,074	0,042
-350,737	800,000	0,054	0,147
-349,723	172,255	-0,064	0,067
-348,708	-3,957	-0,137	0,069
-347,693	-143,655	-0,019	-0,001
-346,679	14,560	-0,029	0,016
-345,664	202,517	-0,073	-0,082
-344,650	-200,000	0,026	0,111
-343,635	44,310	0,108	0,072
-342,620	-170,454	-0,076	0,002
-341,606	-200,000	-0,018	0,056
-340,591	514,988	0,068	0,115
-339,577	-17,702	0,055	-0,025
-338,562	-200,000	0,007	0,064
-337,548	89,398	-0,091	0,074
-336,533	-167,170	0,050	0,001
-335,518	3,473	0,087	-0,045
-334,504	-36,506	0,103	-0,040
-333,489	-171,412	-0,100	0,002
-332,475	-87,129	-0,109	-0,024
-331,460	177,823	-0,070	-0,074
-330,445	125,205	0,063	-0,058
-329,431	-5,510	0,071	-0,035
-328,416	290,933	0,062	0,081
-327,402	-200,000	-0,009	0,043
-326,387	267,217	-0,036	-0,045
-325,372	-41,336	0,018	-0,007
-324,358	-200,000	0,030	-0,144
-323,343	652,545	-0,045	-0,084
-322,329	19,351	-0,008	-0,004
-321,314	800,000	0,020	-0,056
-320,299	41,691	0,047	0,031
-319,285	-69,506	-0,077	-0,021
-318,270	33,941	-0,102	-0,064
-317,256	89,694	-0,070	-0,057
-316,241	-82,315	-0,021	0,005
-315,226	-88,876	0,122	0,026
-314,212	-48,653	0,064	0,022
-313,197	612,606	0,063	0,114
-312,183	438,413	0,024	-0,038
-311,168	-200,000	-0,004	-0,029
-310,153	-200,000	-0,016	-0,117
-309,139	-47,044	0,108	-0,038
-308,124	-27,598	0,056	-0,023
-307,110	-32,765	0,085	0,034
-306,095	140,925	0,062	-0,059
-305,080	800,000	-0,089	0,232
-304,066	-191,345	-0,082	0,001
-303,051	161,346	0,012	0,012
-302,037	185,537	-0,033	-0,036
-301,022	328,407	-0,062	-0,086
-300,008	450,213	0,016	-0,025
-298,993	-200,000	0,015	0,058
-297,978	33,660	0,126	0,079
-296,964	557,442	-0,030	0,052
-295,949	800,000	0,028	0,071
-294,935	-200,000	-0,021	-0,135
-293,920	52,923	-0,094	0,065
-292,905	629,730	0,052	0,095
-291,891	800,000	-0,031	-0,096
-290,876	323,058	0,048	0,066
-289,862	-200,000	0,015	0,083
-288,847	667,968	-0,048	-0,090
-287,832	419,414	-0,063	-0,097
-286,818	264,618	0,052	-0,065
-285,803	-5,013	0,057	-0,028
-284,789	311,139	0,086	0,117
-283,774	-200,000	0,029	0,128
-282,759	-200,000	-0,021	-0,119
-281,745	462,906	-0,078	-0,125
-280,730	800,000	0,066	-0,155
-279,716	-88,989	-0,007	-0,002
-278,701	-200,000	0,008	0,054
-277,686	171,122	0,104	0,108
-276,672	-200,000	0,006	-0,049
-275,657	800,000	-0,036	-0,078
-274,643	36,609	0,087	-0,055
-273,628	-108,099	-0,234	-0,036
-272,613	16,141	0,155	0,088
-271,599	20,192	0,091	0,053
-270,584	250,558	-0,077	0,095
-269,570	60,637	0,026	-0,019
-268,555	-200,000	-0,002	-0,045
-267,540	3,367	-0,088	-0,046
-266,526	-69,537	0,109	-0,030
-265,511	-89,649	-0,155	0,033
-264,497	-200,000	0,012	0,052
-263,482	-18,629	0,096	0,043
-262,467	-46,173	-0,079	-0,028
-261,453	249,579	0,034	-0,042
-260,438	-62,799	-0,085	-0,025
-259,424	203,677	-0,096	-0,107
-258,409	-69,385	-0,047	-0,013
-257,395	-200,000	-0,010	0,058
-256,380	-16,672	-0,104	0,047
-255,365	-158,760	0,081	0,003
-254,351	800,000	0,034	0,104
-253,336	-42,846	-0,067	-0,025
-252,322	-15,876	-0,072	0,033
-251,307	800,000	-0,051	0,111
-250,292	144,223	0,048	0,046
-249,278	240,749	-0,025	-0,030
-248,263	356,048	-0,091	-0,131
-247,249	271,263	0,077	-0,098
-246,234	50,175	0,116	-0,079
-245,219	18,482	-0,114	0,065
-244,205	645,031	-0,033	0,061
-243,190	462,823	0,046	-0,074
-242,176	144,027	-0,032	0,031
-241,161	800,000	0,017	0,036
-240,146	-147,355	0,059	0,004
-239,132	184,793	-0,042	-0,045
-238,117	-126,749	-0,145	0,015
-237,103	343,105	-0,034	-0,049
-236,088	-115,548	-0,028	-0,004
-235,073	800,000	0,030	-0,081
-234,059	800,000	-0,041	0,090
-233,044	242,136	-0,023	0,028
-232,030	-200,000	-0,015	0,132
-231,015	-164,624	-0,042	0,001
-230,000	-152,887	-0,084	-0,004
-228,986	-137,530	0,065	-0,005
-227,971	146,070	0,122	0,117
-226,957	-55,247	0,021	0,007
-225,942	-61,610	-0,099	0,030
-224,927	-153,734	-0,115	-0,006
-223,913	-80,093	-0,071	-0,017
-222,898	190,106	-0,084	-0,091
-221,884	-200,000	0,032	-0,114
-220,869	230,625	0,093	-0,109
-219,855	233,122	0,069	0,082
-218,840	566,544	-0,049	-0,086
-217,825	31,236	0,064	-0,039
-216,811	-200,000	0,012	-0,041
-215,796	624,667	-0,059	0,107
-214,782	86,985	-0,052	-0,041
-213,767	-92,976	0,128	-0,025
-212,752	-88,225	0,032	0,007
-211,738	93,409	0,089	0,073
-210,723	-200,000	0,005	0,036
-209,709	-200,000	0,010	-0,106
-208,694	104,356	0,041	0,035
-207,679	-37,167	-0,022	0,008
-206,665	506,350	0,056	-0,093
-205,650	-58,544	-0,053	0,016
-204,636	-92,150	0,070	-0,014
-203,621	-20,682	0,055	-0,024
-202,606	258,748	-0,077	-0,096
-201,592	64,744	0,021	-0,015
-200,577	4,792	-0,105	-0,055
-199,563	59,262	0,085	0,060
-198,548	186,601	-0,079	0,084
-197,533	-200,000	-0,023	0,115
-196,519	800,000	-0,020	0,041
-195,504	-200,000	0,007	-0,186
-194,490	17,103	-0,061	-0,035
-193,475	-200,000	0,013	-0,052
-192,460	487,516	-0,032	-0,052
-191,446	111,359	0,058	0,050
-190,431	222,849	0,141	0,164
-189,417	376,975	0,081	-0,120
-188,402	141,791	0,103	-0,098
-187,387	-134,454	0,038	0,003
-186,373	-29,296	0,133	-0,055
-185,358	343,664	-0,098	0,138
-184,344	800,000	0,008	-0,019
-183,329	308,099	0,054	0,073
-182,315	84,524	0,090	0,071
-181,300	71,575	0,100	0,074
-180,285	-200,000	0,018	0,065
-179,271	28,137	0,047	0,028
-178,256	248,821	-0,150	-0,183
-177,242	-200,000	0,001	0,068
-176,227	92,161	0,149	0,121
-175,212	-200,000	0,004	-0,071
-174,198	-200,000	0,006	-0,087
-173,183	436,694	-0,080	-0,125
-172,169	96,125	-0,028	0,023
-171,154	183,668	-0,039	-0,041
-170,139	800,000	0,059	-0,160
-169,125	29,661	-0,119	0,073
-168,110	-200,000	0,013	0,082
-167,096	-163,251	0,086	0,003
-166,081	-61,131	0,085	0,026
-165,066	272,622	-0,113	-0,143
-164,052	15,116	-0,117	-0,066
-163,037	-3,725	0,086	-0,043
-162,023	-200,000	-0,003	-0,041
-161,008	-77,244	0,085	-0,021
-159,993	-200,000	0,033	0,115
-158,979	583,031	0,105	-0,185
-157,964	99,570	-0,202	-0,168
-156,950	203,875	0,110	-0,122
-155,935	13,852	0,040	-0,022
-154,920	107,738	-0,038	0,032
-153,906	295,401	0,056	0,073
-152,891	800,000	-0,021	0,061
-151,877	-200,000	0,077	0,000
-150,862	800,000	-0,082	-0,167
-149,847	-200,000	0,012	-0,145
-148,833	-71,103	-0,088	0,024
-147,818	-114,574	0,121	-0,016
-146,804	-82,460	0,191	0,044
-145,789	75,333	0,147	0,111
-144,775	-200,000	0,001	-0,048
-143,760	800,000	-0,078	0,182
-142,745	-140,563	0,053	0,004
-141,731	421,623	-0,060	0,093
-140,716	800,000	-0,005	-0,013
-139,702	-82,132	-0,147	0,034
-138,687	-200,000	0,006	0,047
-137,672	468,999	0,056	0,091
-136,658	61,279	0,025	-0,018
-135,643	-83,444	0,057	0,013
-134,629	-200,000	0,018	0,086
-133,614	-135,930	0,078	0,007
-132,599	-1,393	-0,082	-0,041
-131,585	762,170	0,090	0,176
-130,570	-200,000	0,011	-0,055
-129,556	-200,000	0,022	0,084
-128,541	-200,000	0,024	-0,086
-127,526	715,166	0,060	-0,115
-126,512	-118,411	-0,048	0,006
-125,497	-46,448	0,072	-0,025
-124,483	800,000	0,011	-0,023
-123,468	-20,571	-0,086	-0,038
-122,453	-22,058	-0,080	-0,035
-121,439	800,000	0,035	-0,075
-120,424	-21,450	0,033	0,014
-119,410	238,937	0,038	0,045
