DTS Sentinel unit serial number:	SN410029Multiplexer serial number:	ORYXHardware model number:	OX2-SRSoftware version number:	ORYX F/W v4,00 Oryx Data Collector v3.7.2.0data status	okinstallation	B3 Nyhavnadifferential loss correction	single-endedforward channel	channel 1reverse channel	N/Adate	2023/11/28time	12:32:30forward acquisition time	300,00reverse acquisition time	0,00gamma	499,1914k internal	0,3139k external	0,3139temperature offset calibration	1,0000default loss term (dB/km)	0,3820temperature slope calibration	1,0000multiplexer offset coefficient	1,0000multiplexer slope coefficient	1,0000fibre end	0,00T internal ref (°C)	8,43T ext. ref 1 (°C)	-7,62T ext. ref 2 (°C)	-7,83length (m)	temperature (°C)	Stokes	anti-Stokes-744,400	542,417	-0,113	-0,201
-743,385	-200,000	-0,040	0,307
-742,371	210,746	-0,134	-0,157
-741,356	212,540	0,170	0,200
-740,342	276,076	-0,170	-0,224
-739,327	684,348	0,116	0,225
-738,312	107,551	-0,347	-0,306
-737,298	800,000	-0,081	0,258
-736,283	800,000	-0,128	-0,296
-735,269	-200,000	-0,009	0,358
-734,254	-16,827	-0,473	-0,221
-733,239	98,840	-0,145	0,124
-732,225	-200,000	0,020	-0,223
-731,210	52,332	0,157	0,111
-730,196	800,000	-0,020	0,046
-729,181	293,863	-0,106	0,144
-728,167	-26,041	0,060	-0,026
-727,152	157,675	-0,076	0,078
-726,137	97,674	0,027	-0,023
-725,123	14,608	-0,084	-0,049
-724,108	257,571	-0,136	0,174
-723,094	-200,000	0,013	0,157
-722,079	304,028	0,007	-0,009
-721,064	800,000	-0,010	0,026
-720,050	752,254	-0,051	0,102
-719,035	240,234	-0,049	0,061
-718,021	800,000	-0,019	0,049
-717,006	-65,830	-0,224	-0,066
-715,991	273,242	-0,107	-0,141
-714,977	1,579	-0,103	-0,055
-713,962	233,331	-0,057	0,070
-712,948	800,000	0,026	0,085
-711,933	800,000	-0,032	0,102
-710,918	99,652	-0,018	-0,015
-709,904	-13,297	-0,174	-0,083
-708,889	-130,025	-0,041	0,004
-707,875	27,775	0,110	-0,068
-706,860	800,000	0,024	-0,061
-705,845	75,021	0,009	-0,007
-704,831	-191,058	-0,110	-0,001
-703,816	-167,691	0,079	0,002
-702,802	-72,193	-0,197	0,054
-701,787	-184,705	-0,122	-0,001
-700,772	119,828	-0,038	0,035
-699,758	-37,808	-0,104	-0,041
-698,743	165,685	0,065	-0,068
-697,729	-200,000	0,022	0,106
-696,714	145,757	0,048	-0,047
-695,699	-125,143	-0,118	0,013
-694,685	198,955	-0,058	-0,066
-693,670	30,750	-0,045	-0,028
-692,656	235,747	-0,112	0,138
-691,641	-200,000	0,176	0,000
-690,627	119,009	0,049	0,045
-689,612	-200,000	0,002	0,033
-688,597	800,000	0,042	-0,136
-687,583	234,387	-0,108	-0,131
-686,568	-75,319	-0,097	-0,025
-685,554	800,000	-0,041	-0,087
-684,539	746,555	-0,047	0,094
-683,524	23,331	0,104	0,063
-682,510	-200,000	0,020	-0,081
-681,495	-103,614	0,014	-0,002
-680,481	214,612	-0,026	-0,030
-679,466	3,660	-0,128	-0,069
-678,451	-200,000	-0,025	-0,151
-677,437	-150,808	-0,063	0,003
-676,422	-22,734	-0,042	-0,019
-675,408	48,713	0,024	0,016
-674,393	-125,948	-0,057	0,006
-673,378	800,000	-0,046	-0,112
-672,364	226,248	-0,083	-0,100
-671,349	-135,214	0,106	0,009
-670,335	-78,267	-0,095	-0,024
-669,320	-200,000	0,033	0,118
-668,305	-167,859	-0,089	0,003
-667,291	800,000	0,032	-0,086
-666,276	-200,000	0,023	-0,074
-665,262	-200,000	0,004	-0,089
-664,247	-200,000	0,037	-0,126
-663,232	577,981	-0,060	-0,110
-662,218	-102,551	0,151	0,026
-661,203	-92,095	-0,067	-0,014
-660,189	505,934	-0,098	0,168
-659,174	30,802	-0,090	-0,057
-658,159	-200,000	-0,028	-0,172
-657,145	-129,584	-0,138	0,014
-656,130	-35,489	0,139	0,056
-655,116	194,382	-0,053	0,060
-654,101	55,824	-0,061	0,044
-653,086	258,416	-0,041	0,052
-652,072	71,085	0,078	-0,060
-651,057	96,698	0,037	0,031
-650,043	64,498	-0,040	-0,030
-649,028	89,016	-0,039	0,032
-648,014	770,784	0,038	0,076
-646,999	-200,000	0,034	0,112
-645,984	164,875	0,039	-0,041
-644,970	-54,485	-0,049	-0,016
-643,955	74,857	0,074	0,057
-642,941	35,008	0,126	-0,081
-641,926	-33,445	-0,029	-0,012
-640,911	-42,932	0,052	-0,019
-639,897	800,000	-0,024	0,064
-638,882	800,000	0,060	0,167
-637,868	-200,000	0,008	0,137
-636,853	-52,120	-0,092	-0,031
-635,838	-137,988	-0,054	-0,004
-634,824	42,752	-0,052	0,035
-633,809	415,946	0,036	-0,057
-632,795	72,253	0,108	0,083
-631,780	800,000	-0,018	0,041
-630,765	100,361	0,038	0,033
-629,751	786,654	-0,040	-0,082
-628,736	-200,000	-0,017	-0,158
-627,722	800,000	-0,013	0,028
-626,707	74,037	-0,046	-0,036
-625,692	49,102	0,140	-0,097
-624,678	800,000	-0,052	-0,112
-623,663	97,194	0,133	0,112
-622,649	-66,131	-0,122	-0,036
-621,634	199,685	0,054	-0,061
-620,619	-37,605	-0,068	-0,026
-619,605	46,903	-0,047	0,032
-618,590	-124,987	0,123	0,014
-617,576	101,652	0,061	0,053
-616,561	-112,273	-0,125	-0,018
-615,546	-102,267	-0,029	-0,005
-614,532	800,000	0,018	0,037
-613,517	-24,717	-0,037	-0,016
-612,503	-200,000	0,006	-0,102
-611,488	-11,540	0,045	0,022
-610,474	305,850	-0,019	0,026
-609,459	-145,948	-0,140	0,009
-608,444	125,569	-0,079	-0,073
-607,430	-88,245	-0,124	0,027
-606,415	344,587	-0,074	-0,107
-605,401	-43,913	0,139	0,051
-604,386	-139,472	0,061	-0,005
-603,371	-49,276	0,113	-0,039
-602,357	21,243	0,165	0,099
-601,342	800,000	-0,022	-0,059
-600,328	-200,000	0,012	-0,160
-599,313	8,267	0,111	0,061
-598,298	177,647	0,098	0,106
-597,284	227,029	0,031	0,037
-596,269	69,352	0,077	0,059
-595,255	800,000	0,008	-0,022
-594,240	-88,843	-0,092	0,020
-593,225	4,861	0,103	-0,056
-592,211	-111,970	-0,071	-0,010
-591,196	80,002	-0,079	0,063
-590,182	-100,308	0,158	0,029
-589,167	16,924	0,091	-0,053
-588,152	-10,691	-0,042	0,021
-587,138	310,347	-0,065	-0,091
-586,123	244,257	-0,128	-0,159
-585,109	358,461	0,076	-0,112
-584,094	20,642	0,098	-0,059
-583,079	-22,452	-0,099	-0,044
-582,065	800,000	-0,015	0,032
-581,050	-200,000	0,004	-0,044
-580,036	65,912	0,021	-0,016
-579,021	-87,246	-0,116	-0,026
-578,006	-200,000	0,011	-0,133
-576,992	-200,000	0,002	0,109
-575,977	14,877	-0,083	0,048
-574,963	800,000	-0,005	0,014
-573,948	-200,000	-0,015	-0,134
-572,934	-14,785	-0,172	-0,081
-571,919	-200,000	0,005	0,037
-570,904	84,189	-0,093	-0,074
-569,890	37,439	-0,066	0,043
-568,875	292,074	0,098	0,132
-567,861	-200,000	0,006	0,109
-566,846	-200,000	-0,021	0,103
-565,831	-52,911	-0,068	-0,023
-564,817	800,000	0,072	0,163
-563,802	-70,680	-0,009	-0,003
-562,788	125,373	-0,044	0,041
-561,773	689,516	0,013	0,026
-560,758	90,433	-0,098	-0,081
-559,744	800,000	-0,020	0,043
-558,729	-168,570	-0,057	-0,002
-557,715	800,000	-0,029	-0,079
-556,700	-200,000	-0,009	-0,069
-555,685	389,649	0,104	0,159
-554,671	333,597	0,056	0,080
-553,656	0,434	0,111	0,058
-552,642	-200,000	0,011	-0,044
-551,627	-200,000	-0,014	0,074
-550,612	106,253	-0,078	0,068
-549,598	-109,067	-0,116	-0,018
-548,583	701,799	0,029	-0,056
-547,569	358,909	0,024	-0,035
-546,554	-93,870	-0,057	0,011
-545,539	-200,000	-0,003	0,078
-544,525	328,104	0,032	0,045
-543,510	-200,000	0,002	0,016
-542,496	142,015	-0,044	0,043
-541,481	-200,000	0,017	-0,057
-540,466	800,000	-0,034	-0,073
-539,452	668,652	0,043	0,082
-538,437	800,000	-0,066	0,155
-537,423	800,000	-0,048	-0,149
-536,408	800,000	-0,048	-0,110
-535,393	226,659	0,052	-0,062
-534,379	-79,382	-0,114	0,028
-533,364	-200,000	-0,015	0,117
-532,350	70,895	0,112	-0,085
-531,335	380,609	0,126	0,190
-530,321	-26,797	0,107	0,046
-529,306	258,670	0,036	-0,046
-528,291	125,094	0,055	0,051
-527,277	800,000	-0,015	0,043
-526,262	800,000	0,038	0,083
-525,248	800,000	-0,010	0,024
-524,233	386,336	-0,022	0,033
-523,218	27,178	-0,097	0,060
-522,204	787,638	-0,035	0,071
-521,189	139,131	-0,059	-0,057
-520,175	515,571	0,078	0,135
-519,160	-120,087	-0,127	0,016
-518,145	-43,112	0,074	0,027
-517,131	-200,000	-0,043	0,183
-516,116	800,000	0,041	0,090
-515,102	298,297	-0,082	0,111
-514,087	531,034	0,034	0,060
-513,072	800,000	0,028	0,062
-512,058	102,142	-0,091	0,078
-511,043	-176,016	0,171	-0,003
-510,029	800,000	-0,036	0,101
-509,014	-139,719	0,070	-0,005
-507,999	62,860	0,061	-0,045
-506,985	512,586	-0,028	-0,049
-505,970	-45,448	-0,037	-0,013
-504,956	-200,000	0,017	-0,134
-503,941	83,595	0,032	-0,025
-502,926	-200,000	-0,036	-0,145
-501,912	-86,500	0,051	0,011
-500,897	522,898	0,085	0,148
-499,883	-106,832	-0,132	-0,021
-498,868	-200,000	0,018	-0,134
-497,853	7,445	-0,036	0,020
-496,839	-92,699	0,032	0,006
-495,824	151,033	0,065	-0,065
-494,810	227,372	-0,035	0,041
-493,795	-61,409	0,102	-0,031
-492,781	-20,050	-0,172	-0,078
-491,766	-200,000	0,011	-0,170
-490,751	-34,154	-0,086	-0,035
-489,737	800,000	0,052	-0,136
-488,722	67,444	0,043	0,033
-487,708	131,288	0,157	-0,148
-486,693	253,348	0,057	0,072
-485,678	-28,117	-0,098	-0,041
-484,664	-22,195	-0,082	-0,036
-483,649	-26,612	0,078	-0,033
-482,635	205,187	-0,044	-0,050
-481,620	-200,000	-0,003	0,104
-480,605	-200,000	-0,014	-0,061
-479,591	41,830	-0,040	-0,026
-478,576	23,524	-0,046	-0,028
-477,562	117,906	-0,110	-0,099
-476,547	76,798	-0,063	-0,049
-475,532	-200,000	0,017	-0,075
-474,518	-200,000	0,042	-0,168
-473,503	-200,000	-0,008	0,063
-472,489	800,000	0,029	0,086
-471,474	23,546	-0,041	-0,025
-470,459	-107,210	0,147	-0,024
-469,445	-54,591	0,033	-0,011
-468,430	188,715	-0,060	0,066
-467,416	-200,000	0,028	0,156
-466,401	-34,320	-0,043	-0,017
-465,386	370,669	0,017	0,025
-464,372	-200,000	0,002	-0,044
-463,357	-44,640	-0,129	-0,047
-462,343	153,405	0,066	0,066
-461,328	800,000	-0,044	-0,103
-460,313	-79,645	-0,094	-0,023
-459,299	72,035	-0,028	0,021
-458,284	161,020	0,046	0,048
-457,270	300,853	0,069	-0,094
-456,255	-97,586	0,029	0,005
-455,241	193,636	-0,076	0,084
-454,226	800,000	0,006	0,019
-453,211	-138,312	-0,049	-0,004
-452,197	-149,095	0,127	0,007
-451,182	-56,705	0,093	-0,030
-450,168	-24,414	-0,049	0,021
-449,153	-200,000	-0,008	-0,045
-448,138	222,176	-0,055	-0,065
-447,124	-200,000	-0,020	-0,106
-446,109	602,833	-0,039	-0,071
-445,095	-200,000	0,000	0,126
-444,080	610,475	-0,020	0,036
-443,065	269,509	-0,122	-0,157
-442,051	-200,000	0,002	-0,186
-441,036	8,106	-0,059	-0,032
-440,022	-12,057	-0,052	-0,025
-439,007	39,689	-0,096	0,063
-437,992	-126,253	0,109	-0,012
-436,978	-200,000	0,006	0,058
-435,963	28,830	-0,093	0,058
-434,949	39,523	0,243	-0,159
-433,934	800,000	-0,062	0,162
-432,919	296,812	-0,036	-0,048
-431,905	-126,238	-0,100	0,011
-430,890	-127,765	0,207	0,022
-429,876	65,157	-0,070	-0,052
-428,861	800,000	-0,026	0,056
-427,846	75,300	-0,026	0,020
-426,832	597,315	-0,006	-0,011
-425,817	-200,000	0,006	-0,197
-424,803	-54,124	-0,063	0,021
-423,788	217,366	0,015	0,018
-422,773	571,297	-0,022	-0,039
-421,759	-126,036	0,154	-0,017
-420,744	466,284	0,040	0,066
-419,730	800,000	-0,027	0,079
-418,715	-68,930	0,056	0,016
-417,701	-50,993	0,005	-0,002
-416,686	-57,048	0,089	0,028
-415,671	86,488	0,063	0,051
-414,657	305,647	-0,070	0,095
-413,642	452,525	-0,042	-0,068
-412,628	-128,498	-0,085	-0,009
-411,613	352,865	0,042	0,061
-410,598	244,480	-0,040	-0,050
-409,584	277,273	0,038	-0,049
-408,569	-94,053	0,086	0,017
-407,555	-200,000	0,012	0,070
-406,540	800,000	0,043	0,101
-405,525	207,443	0,044	-0,050
-404,511	76,900	0,092	0,072
-403,496	-200,000	-0,032	0,137
-402,482	-106,946	0,080	-0,013
-401,467	-200,000	0,012	0,063
-400,452	-200,000	0,014	-0,075
-399,438	-50,749	-0,091	0,031
-398,423	800,000	-0,020	-0,058
-397,409	-200,000	-0,011	-0,066
-396,394	245,515	0,043	-0,053
-395,379	800,000	0,020	-0,049
-394,365	368,208	0,095	0,141
-393,350	196,509	0,099	0,110
-392,336	-97,457	-0,090	0,017
-391,321	103,130	0,114	-0,098
-390,306	26,182	-0,042	-0,026
-389,292	-21,119	-0,098	-0,044
-388,277	800,000	-0,014	-0,035
-387,263	-41,094	0,052	0,019
-386,248	-98,788	0,069	-0,013
-385,233	-200,000	-0,006	0,163
-384,219	221,772	-0,068	0,080
-383,204	-5,298	-0,075	-0,038
-382,190	35,179	-0,087	-0,056
-381,175	800,000	-0,030	0,084
-380,160	-25,028	0,143	0,062
-379,146	-90,244	-0,042	0,009
-378,131	-200,000	0,042	0,165
-377,117	-111,729	0,193	0,028
-376,102	-200,000	-0,100	-0,000
-375,088	-22,442	-0,049	0,022
-374,073	-200,000	-0,000	-0,143
-373,058	11,733	-0,061	-0,034
-372,044	-200,000	0,034	0,111
-371,029	-9,084	0,030	0,015
-370,015	-31,146	0,113	-0,047
-369,000	29,456	-0,070	0,044
-367,985	-197,588	-0,064	-0,000
-366,971	236,887	-0,059	-0,072
-365,956	-39,018	0,062	0,024
-364,942	800,000	0,029	0,078
-363,927	29,901	0,113	0,070
-362,912	-200,000	0,025	0,122
-361,898	-139,027	0,052	-0,004
-360,883	-72,200	0,020	-0,005
-359,869	800,000	0,009	0,025
-358,854	-93,883	-0,048	-0,010
-357,839	-200,000	-0,017	0,061
-356,825	131,803	0,060	-0,056
-355,810	800,000	-0,021	-0,046
-354,796	8,607	-0,028	-0,015
-353,781	100,201	0,052	-0,044
-352,766	-200,000	0,016	0,154
-351,752	84,323	0,068	0,054
-350,737	157,369	0,066	0,067
-349,723	800,000	0,078	0,175
-348,708	800,000	0,039	0,102
-347,693	-200,000	-0,003	-0,200
-346,679	-200,000	0,016	0,141
-345,664	-200,000	0,025	-0,209
-344,650	-200,000	-0,022	-0,077
-343,635	-150,582	0,074	-0,004
-342,620	-183,986	-0,036	0,000
-341,606	-138,699	0,061	-0,005
-340,591	-132,221	-0,072	0,007
-339,577	550,397	0,039	-0,069
-338,562	800,000	-0,040	-0,093
-337,548	800,000	-0,032	-0,077
-336,533	620,249	0,021	-0,038
-335,518	-128,873	0,135	-0,014
-334,504	-113,318	0,171	0,024
-333,489	119,522	-0,086	0,078
-332,475	800,000	0,029	-0,073
-331,460	8,672	0,069	-0,038
-330,445	211,647	0,063	0,073
-329,431	131,061	0,116	0,108
-328,416	40,957	-0,019	-0,013
-327,402	-91,321	-0,096	-0,020
-326,387	-17,404	0,052	-0,024
-325,372	800,000	0,046	-0,105
-324,358	-166,705	-0,121	-0,004
-323,343	-57,734	0,016	-0,005
-322,329	45,680	-0,079	0,053
-321,314	100,051	0,029	0,024
-320,299	-200,000	-0,019	-0,088
-319,285	6,776	0,103	0,056
-318,270	-200,000	-0,002	-0,036
-317,256	85,016	-0,091	0,073
-316,241	800,000	-0,040	0,091
-315,226	120,156	0,088	-0,079
-314,212	-12,050	-0,128	0,061
-313,197	-200,000	0,003	-0,064
-312,183	125,363	0,026	0,024
-311,168	-109,358	-0,164	0,025
-310,153	-42,642	0,082	0,030
-309,139	345,936	-0,055	-0,079
-308,124	-176,770	0,036	-0,001
-307,110	-114,752	0,048	0,007
-306,095	-0,601	-0,080	0,041
-305,080	53,320	-0,089	-0,062
-304,066	-18,739	-0,043	0,020
-303,051	-143,188	0,071	-0,005
-302,037	-200,000	0,029	-0,129
-301,022	127,144	-0,061	-0,057
-300,008	273,724	-0,039	-0,050
-298,993	-200,000	-0,002	0,192
-297,978	113,477	0,053	0,047
-296,964	-17,308	-0,092	-0,042
-295,949	-37,416	-0,146	-0,056
-294,935	-200,000	-0,036	-0,120
-293,920	28,602	-0,029	0,018
-292,905	263,803	0,124	0,157
-291,891	-200,000	0,012	0,068
-290,876	74,213	0,165	-0,126
-289,862	300,533	0,056	0,075
-288,847	65,430	-0,188	0,139
-287,832	38,124	-0,077	-0,050
-286,818	800,000	0,061	-0,133
-285,803	-17,971	0,066	-0,030
-284,789	68,280	0,057	0,043
-283,774	149,356	-0,098	-0,096
-282,759	-200,000	-0,008	0,134
-281,745	-200,000	-0,020	-0,071
-280,730	62,723	-0,101	0,073
-279,716	-200,000	-0,009	0,116
-278,701	207,050	-0,046	-0,052
-277,686	-200,000	0,056	0,235
-276,672	299,313	-0,057	0,077
-275,657	307,029	0,065	0,088
-274,643	90,061	0,016	-0,013
-273,628	-39,242	0,055	-0,021
-272,613	110,056	-0,072	-0,063
-271,599	-23,524	-0,036	-0,016
-270,584	-63,894	0,014	0,004
-269,570	-25,633	0,062	0,027
-268,555	-15,991	0,115	0,053
-267,540	154,803	0,104	-0,105
-266,526	69,963	-0,128	0,096
-265,511	681,763	0,079	-0,150
-264,497	599,845	-0,049	0,090
-263,482	800,000	-0,048	0,116
-262,467	319,901	0,105	-0,146
-261,453	237,382	-0,065	-0,079
-260,438	-143,813	-0,039	-0,003
-259,424	-131,849	-0,028	-0,003
-258,409	410,758	-0,050	-0,077
-257,395	130,592	0,039	-0,036
-256,380	-100,287	0,028	-0,005
-255,365	-134,108	0,045	0,004
-254,351	315,145	-0,042	0,058
-253,336	244,144	-0,130	-0,159
-252,322	124,809	-0,114	-0,105
-251,307	-68,849	-0,153	0,043
-250,292	349,790	0,045	0,064
-249,278	800,000	-0,021	0,047
-248,263	-200,000	-0,021	-0,113
-247,249	-90,861	0,132	0,027
-246,234	-37,079	0,013	-0,005
-245,219	-198,828	0,055	0,000
-244,205	-102,986	-0,135	-0,023
-243,190	777,824	0,033	-0,067
-242,176	800,000	0,052	0,116
-241,161	221,606	-0,069	-0,081
-240,146	-4,712	0,035	0,017
-239,132	-200,000	0,004	0,037
-238,117	-200,000	-0,022	-0,105
-237,103	-92,318	0,121	-0,025
-236,088	-200,000	0,003	0,180
-235,073	-200,000	-0,021	0,075
-234,059	350,428	-0,054	-0,078
-233,044	8,396	0,135	0,074
-232,030	-200,000	-0,004	-0,066
-231,015	-200,000	0,008	-0,127
-230,000	-200,000	-0,022	-0,070
-228,986	800,000	0,011	0,035
-227,971	-200,000	0,018	0,082
-226,957	-184,913	0,125	0,001
-225,942	800,000	0,057	-0,123
-224,927	-200,000	-0,014	-0,072
-223,913	-95,951	-0,135	-0,026
-222,898	758,979	0,059	-0,117
-221,884	168,913	-0,094	-0,098
-220,869	-200,000	0,009	0,069
-219,855	800,000	0,051	0,142
-218,840	-97,224	0,093	0,017
-217,825	76,306	-0,024	-0,019
-216,811	-200,000	-0,040	-0,134
-215,796	-200,000	0,009	-0,061
-214,782	340,507	0,089	0,126
-213,767	13,475	-0,017	-0,010
-212,752	-200,000	0,045	0,193
-211,738	-8,601	-0,031	-0,015
-210,723	-200,000	0,016	-0,066
-209,709	800,000	0,018	-0,050
-208,694	-69,399	-0,053	-0,015
-207,679	681,693	0,018	0,034
-206,665	-155,752	-0,021	-0,001
-205,650	-143,938	-0,042	0,003
-204,636	-200,000	0,003	-0,017
-203,621	449,957	-0,027	0,044
-202,606	116,182	-0,163	-0,145
-201,592	800,000	-0,040	-0,096
-200,577	292,403	0,040	0,054
-199,563	800,000	0,029	0,073
-198,548	563,064	-0,024	0,042
-197,533	-163,280	0,087	0,003
-196,519	-200,000	0,009	-0,030
-195,504	800,000	-0,023	0,048
-194,490	-200,000	0,009	-0,072
-193,475	745,442	-0,073	0,144
-192,460	-79,447	0,097	0,024
-191,446	-180,738	-0,072	-0,001
-190,431	800,000	0,054	-0,155
-189,417	-200,000	-0,004	-0,064
-188,402	-108,931	-0,145	-0,022
-187,387	-152,981	-0,140	0,007
-186,373	-164,408	0,040	0,001
-185,358	-80,592	0,091	-0,022
-184,344	444,669	0,021	-0,033
-183,329	-200,000	-0,000	-0,115
-182,315	-148,678	0,045	-0,003
-181,300	8,885	-0,128	-0,070
-180,285	51,603	-0,078	0,054
-179,271	-124,373	-0,111	-0,012
-178,256	-189,754	0,040	0,000
-177,242	-67,853	0,058	0,016
-176,227	-79,105	0,038	-0,009
-175,212	800,000	0,051	-0,122
-174,198	800,000	-0,063	-0,140
-173,183	587,641	0,026	0,046
-172,169	511,753	-0,058	-0,099
-171,154	-27,672	0,022	0,009
-170,139	215,094	-0,038	-0,044
-169,125	-104,357	0,130	0,022
-168,110	-200,000	0,000	0,036
-167,096	339,440	-0,086	0,122
-166,081	800,000	0,037	0,111
-165,066	-145,959	-0,125	0,008
-164,052	-72,699	0,093	0,025
-163,037	-95,431	-0,144	0,028
-162,023	19,288	0,059	-0,034
-161,008	610,646	0,017	0,032
-159,993	-42,282	-0,134	-0,049
-158,979	78,938	-0,092	-0,071
-157,964	268,946	-0,083	-0,106
-156,950	-39,463	0,052	-0,020
-155,935	-200,000	-0,009	0,119
-154,920	-144,534	0,073	0,005
-153,906	800,000	0,028	0,061
-152,891	47,844	-0,062	-0,042
-151,877	206,570	0,047	-0,053
-150,862	-55,108	-0,027	0,009
-149,847	-60,164	-0,056	-0,017
-148,833	-27,646	-0,112	-0,047
-147,818	-79,618	0,196	0,048
-146,804	110,912	-0,055	0,048
-145,789	-200,000	-0,003	0,190
-144,775	252,422	0,055	-0,067
-143,760	94,434	-0,127	-0,104
-142,745	646,509	0,068	-0,126
-141,731	-66,954	0,032	0,009
-140,716	129,345	0,099	-0,091
-139,702	-200,000	-0,017	0,070
-138,687	177,937	-0,062	0,066
-137,672	-4,293	-0,090	-0,045
-136,658	110,590	0,059	-0,052
-135,643	233,760	-0,091	-0,109
-134,629	110,066	-0,025	0,022
-133,614	-200,000	0,013	0,149
-132,599	-14,541	-0,108	0,050
-131,585	800,000	0,006	-0,019
-130,570	39,903	-0,105	-0,068
-129,556	-0,204	-0,113	-0,058
-128,541	-12,603	-0,081	-0,038
-127,526	164,532	0,064	0,066
-126,512	-132,264	0,068	0,006
-125,497	422,923	0,022	-0,034
-124,483	94,901	0,088	0,072
-123,468	-200,000	-0,014	0,105
-122,453	313,359	-0,058	-0,079
-121,439	-200,000	0,010	-0,110
-120,424	48,261	0,141	-0,095
-119,410	-133,378	0,042	-0,004
