DTS Sentinel unit serial number:	SN410029Multiplexer serial number:	ORYXHardware model number:	OX2-SRSoftware version number:	ORYX F/W v4,00 Oryx Data Collector v3.7.2.0data status	okinstallation	B3 Nyhavnadifferential loss correction	single-endedforward channel	channel 1reverse channel	N/Adate	2023/11/28time	17:57:31forward acquisition time	300,00reverse acquisition time	0,00gamma	499,1914k internal	0,3152k external	0,3152temperature offset calibration	1,0000default loss term (dB/km)	0,3820temperature slope calibration	1,0000multiplexer offset coefficient	1,0000multiplexer slope coefficient	1,0000fibre end	0,00T internal ref (°C)	7,37T ext. ref 1 (°C)	-7,53T ext. ref 2 (°C)	-7,69length (m)	temperature (°C)	Stokes	anti-Stokes-744,400	180,026	-0,258	-0,279
-743,385	-200,000	-0,039	0,280
-742,371	-200,000	-0,039	-0,160
-741,356	-200,000	0,002	0,180
-740,342	381,949	-0,093	-0,141
-739,327	800,000	-0,091	0,279
-738,312	-200,000	-0,091	-0,320
-737,298	340,131	-0,104	0,150
-736,283	800,000	-0,102	-0,322
-735,269	-200,000	-0,067	0,251
-734,254	-96,289	-0,189	-0,037
-733,239	67,871	-0,115	0,087
-732,225	218,747	-0,132	-0,155
-731,210	800,000	-0,038	0,111
-730,196	800,000	-0,065	-0,140
-729,181	578,199	-0,043	-0,077
-728,167	176,294	0,065	0,069
-727,152	200,571	-0,038	0,044
-726,137	426,859	-0,051	-0,081
-725,123	57,351	-0,131	-0,094
-724,108	62,098	-0,086	-0,063
-723,094	-200,000	0,021	-0,211
-722,079	-39,089	-0,145	0,056
-721,064	800,000	0,029	-0,084
-720,050	-200,000	-0,002	-0,035
-719,035	-99,096	-0,079	-0,015
-718,021	-200,000	-0,013	0,059
-717,006	-200,000	-0,004	-0,093
-715,991	278,957	0,090	-0,118
-714,977	-21,491	0,046	0,020
-713,962	-51,073	-0,201	-0,069
-712,948	-200,000	0,028	-0,103
-711,933	439,138	-0,053	0,086
-710,918	800,000	-0,039	0,080
-709,904	240,919	-0,040	0,049
-708,889	76,199	-0,060	-0,047
-707,875	-33,967	0,061	0,025
-706,860	-200,000	0,041	0,142
-705,845	325,028	-0,053	0,075
-704,831	180,466	0,087	0,094
-703,816	800,000	0,013	-0,041
-702,802	-200,000	0,034	-0,184
-701,787	800,000	0,023	-0,074
-700,772	124,792	0,036	0,034
-699,758	-28,928	0,091	-0,038
-698,743	800,000	-0,023	0,050
-697,729	118,884	-0,095	-0,086
-696,714	-200,000	0,006	-0,034
-695,699	-85,413	-0,104	0,024
-694,685	-200,000	-0,011	-0,042
-693,670	-200,000	-0,003	0,018
-692,656	26,188	0,083	-0,051
-691,641	-200,000	0,000	0,093
-690,627	18,336	0,089	0,053
-689,612	-200,000	0,007	0,035
-688,597	-200,000	0,000	-0,092
-687,583	-200,000	0,022	-0,083
-686,568	-62,009	-0,082	-0,025
-685,554	266,900	0,134	-0,173
-684,539	-126,401	-0,185	0,020
-683,524	288,369	0,077	0,104
-682,510	-200,000	0,001	-0,042
-681,495	-66,593	-0,006	-0,002
-680,481	-200,000	-0,007	-0,095
-679,466	-41,850	-0,048	-0,018
-678,451	-144,827	0,130	-0,009
-677,437	55,939	0,142	-0,101
-676,422	-124,374	0,030	-0,003
-675,408	200,050	0,131	-0,148
-674,393	-18,022	-0,153	-0,070
-673,378	19,654	-0,152	-0,090
-672,364	149,194	-0,062	0,062
-671,349	79,137	0,113	-0,089
-670,335	83,281	-0,154	-0,123
-669,320	102,069	0,039	-0,033
-668,305	800,000	0,046	0,105
-667,291	106,098	-0,043	-0,037
-666,276	-96,692	-0,162	-0,031
-665,262	-200,000	-0,006	-0,081
-664,247	8,623	-0,093	0,051
-663,232	-200,000	0,002	0,070
-662,218	-200,000	0,035	-0,219
-661,203	9,922	0,092	-0,051
-660,189	-61,648	-0,101	0,031
-659,174	-146,365	-0,082	-0,005
-658,159	-23,671	0,047	-0,021
-657,145	-5,976	-0,045	0,023
-656,130	-187,878	-0,072	0,001
-655,116	-200,000	0,005	-0,020
-654,101	69,917	-0,121	0,092
-653,086	34,037	-0,050	0,032
-652,072	-82,893	0,078	0,018
-651,057	17,407	-0,076	0,044
-650,043	286,020	0,029	0,039
-649,028	-200,000	0,034	0,244
-648,014	-200,000	-0,001	0,039
-646,999	69,625	0,127	-0,096
-645,984	332,289	-0,119	-0,169
-644,970	230,047	0,016	-0,019
-643,955	34,976	-0,127	-0,081
-642,941	9,390	-0,092	0,051
-641,926	-88,655	0,086	-0,019
-640,911	800,000	0,038	0,094
-639,897	800,000	-0,048	-0,127
-638,882	-46,026	-0,046	0,016
-637,868	69,051	-0,066	0,050
-636,853	-174,993	-0,156	0,003
-635,838	-67,139	0,198	-0,057
-634,824	64,991	-0,097	0,072
-633,809	800,000	-0,034	-0,095
-632,795	-112,079	0,123	-0,018
-631,780	322,728	-0,088	0,124
-630,765	-157,844	0,114	0,005
-629,751	9,152	-0,085	-0,047
-628,736	800,000	-0,041	-0,085
-627,722	174,405	0,075	-0,080
-626,707	-200,000	-0,010	0,040
-625,692	-17,234	-0,058	0,027
-624,678	800,000	0,012	0,035
-623,663	-200,000	0,001	-0,017
-622,649	522,414	0,107	-0,185
-621,634	390,709	-0,022	0,033
-620,619	-37,239	-0,061	0,024
-619,605	365,555	0,034	0,050
-618,590	-117,933	-0,173	0,022
-617,576	-200,000	-0,024	0,083
-616,561	-14,550	0,086	-0,040
-615,546	-200,000	0,025	-0,109
-614,532	228,945	-0,033	-0,040
-613,517	107,042	0,030	0,026
-612,503	-200,000	0,000	-0,015
-611,488	226,817	-0,049	0,058
-610,474	245,835	0,067	-0,083
-609,459	26,162	-0,131	0,080
-608,444	74,351	-0,052	0,040
-607,430	-200,000	-0,003	-0,018
-606,415	-200,000	-0,033	-0,174
-605,401	117,238	-0,067	-0,060
-604,386	426,129	0,069	-0,109
-603,371	-151,047	0,111	-0,006
-602,357	800,000	-0,020	-0,053
-601,342	800,000	0,037	-0,078
-600,328	-125,967	-0,107	-0,012
-599,313	280,437	-0,045	-0,059
-598,298	5,402	-0,129	-0,070
-597,284	-6,669	0,101	-0,050
-596,269	-163,226	0,093	-0,003
-595,255	414,853	-0,066	0,104
-594,240	-200,000	-0,008	0,063
-593,225	800,000	0,017	-0,046
-592,211	278,218	-0,025	0,033
-591,196	560,710	-0,021	0,037
-590,182	159,615	0,084	-0,086
-589,167	101,564	0,051	0,043
-588,152	15,237	0,047	0,027
-587,138	111,855	-0,065	-0,057
-586,123	800,000	0,031	-0,082
-585,109	-9,890	-0,073	-0,036
-584,094	-110,669	-0,042	-0,006
-583,079	800,000	-0,020	-0,043
-582,065	21,452	-0,009	-0,005
-581,050	387,702	0,031	0,047
-580,036	-200,000	0,007	-0,050
-579,021	-75,377	-0,155	-0,040
-578,006	201,261	0,037	0,042
-576,992	-97,814	0,158	0,030
-575,977	-200,000	-0,031	-0,100
-574,963	48,293	0,063	-0,043
-573,948	435,839	0,020	-0,032
-572,934	-200,000	-0,026	-0,091
-571,919	365,526	0,079	-0,117
-570,904	800,000	-0,036	-0,093
-569,890	-200,000	0,010	-0,085
-568,875	363,992	-0,139	0,206
-567,861	800,000	0,050	0,159
-566,846	-40,074	0,106	0,040
-565,831	800,000	0,031	-0,077
-564,817	-111,848	-0,073	-0,011
-563,802	243,363	-0,136	-0,167
-562,788	-98,749	-0,069	-0,013
-561,773	-200,000	-0,036	0,135
-560,758	-111,841	0,131	0,019
-559,744	-35,141	0,103	0,041
-558,729	-200,000	0,006	0,057
-557,715	48,539	-0,010	-0,007
-556,700	15,389	0,081	-0,047
-555,685	800,000	0,017	-0,038
-554,671	-200,000	-0,007	-0,049
-553,656	-39,970	-0,097	0,037
-552,642	-200,000	0,013	-0,079
-551,627	800,000	0,031	-0,080
-550,612	-31,074	-0,032	-0,013
-549,598	-200,000	0,036	-0,148
-548,583	800,000	0,037	-0,077
-547,569	-200,000	0,020	-0,073
-546,554	303,121	0,086	-0,117
-545,539	69,516	0,098	-0,074
-544,525	171,845	0,094	0,099
-543,510	14,186	-0,111	0,063
-542,496	-200,000	0,039	-0,153
-541,481	800,000	0,046	-0,096
-540,466	453,402	-0,081	-0,132
-539,452	488,951	-0,044	-0,074
-538,437	52,000	0,072	0,050
-537,423	52,446	0,141	-0,098
-536,408	-12,884	-0,107	0,051
-535,393	-200,000	0,002	-0,087
-534,379	-54,591	-0,125	-0,041
-533,364	295,508	0,062	-0,083
-532,350	-8,062	0,084	-0,042
-531,335	81,436	0,060	0,048
-530,321	477,093	0,072	0,119
-529,306	-68,184	-0,120	-0,034
-528,291	-39,884	-0,201	-0,077
-527,277	-66,131	-0,230	0,067
-526,262	-200,000	-0,018	-0,084
-525,248	99,259	-0,171	-0,145
-524,233	4,743	0,103	0,055
-523,218	-200,000	-0,001	-0,016
-522,204	800,000	0,019	0,044
-521,189	-200,000	0,010	0,052
-520,175	44,434	-0,077	-0,052
-519,160	800,000	0,035	0,097
-518,145	-200,000	0,016	0,116
-517,131	4,757	0,110	0,059
-516,116	410,827	-0,045	-0,070
-515,102	42,025	0,113	0,075
-514,087	800,000	0,021	0,067
-513,072	-73,373	-0,098	-0,026
-512,058	800,000	0,063	-0,141
-511,043	-200,000	-0,006	-0,064
-510,029	-200,000	-0,030	-0,118
-509,014	338,444	0,045	0,064
-507,999	215,736	-0,071	0,082
-506,985	-200,000	-0,010	-0,109
-505,970	9,247	-0,140	-0,077
-504,956	-187,425	-0,123	-0,001
-503,941	-200,000	0,028	0,155
-502,926	-200,000	-0,034	0,119
-501,912	-200,000	0,023	0,144
-500,897	21,592	0,056	0,033
-499,883	714,489	-0,062	-0,121
-498,868	54,123	-0,124	-0,087
-497,853	-200,000	-0,031	-0,238
-496,839	249,588	0,119	0,148
-495,824	10,923	0,044	0,024
-494,810	434,418	0,096	0,153
-493,795	-103,422	0,106	-0,018
-492,781	-75,100	-0,027	-0,007
-491,766	-200,000	-0,024	0,154
-490,751	-53,793	-0,045	-0,015
-489,737	-148,528	-0,033	-0,002
-488,722	-200,000	0,004	-0,027
-487,708	-200,000	0,021	0,149
-486,693	-7,676	0,064	0,032
-485,678	-54,095	0,073	0,024
-484,664	-62,449	0,067	-0,020
-483,649	6,644	-0,016	0,009
-482,635	-143,783	-0,176	-0,012
-481,620	-7,818	0,071	0,035
-480,605	-200,000	-0,008	-0,108
-479,591	264,183	-0,046	-0,059
-478,576	75,471	0,092	-0,071
-477,562	-40,802	0,053	-0,020
-476,547	152,620	-0,083	0,083
-475,532	710,550	-0,042	0,082
-474,518	609,195	0,064	-0,116
-473,503	-200,000	0,011	0,077
-472,489	120,818	0,110	-0,100
-471,474	-200,000	0,017	-0,082
-470,459	800,000	0,051	0,150
-469,445	800,000	0,044	-0,101
-468,430	-13,431	-0,121	0,057
-467,416	44,899	0,054	0,036
-466,401	800,000	0,045	0,097
-465,386	-200,000	-0,020	0,065
-464,372	115,670	0,047	0,042
-463,357	-200,000	0,011	0,104
-462,343	669,034	-0,066	-0,125
-461,328	-200,000	-0,004	-0,095
-460,313	800,000	0,055	-0,124
-459,299	-80,932	-0,022	0,005
-458,284	321,607	0,065	-0,091
-457,270	800,000	0,022	0,055
-456,255	-18,623	0,126	0,057
-455,241	384,081	-0,071	-0,107
-454,226	-16,397	-0,092	-0,043
-453,211	179,894	-0,031	0,033
-452,197	335,602	0,021	-0,029
-451,182	62,766	0,056	-0,041
-450,168	800,000	-0,040	0,100
-449,153	-83,530	-0,078	0,018
-448,138	800,000	-0,042	-0,103
-447,124	18,522	-0,124	-0,072
-446,109	-200,000	0,013	0,049
-445,095	67,902	-0,067	0,050
-444,080	-31,289	0,031	0,013
-443,065	438,519	0,064	0,102
-442,051	74,590	0,043	0,033
-441,036	-14,038	0,154	-0,072
-440,022	462,991	-0,027	0,045
-439,007	-200,000	0,018	-0,066
-437,992	-5,024	-0,031	0,016
-436,978	-41,231	-0,017	0,007
-435,963	104,428	0,055	-0,047
-434,949	-17,820	0,027	0,012
-433,934	9,019	0,077	-0,043
-432,919	278,128	-0,021	-0,027
-431,905	-128,829	0,054	-0,005
-430,890	149,977	0,044	0,043
-429,876	180,896	-0,036	0,039
-428,861	84,318	-0,046	0,036
-427,846	-44,317	0,083	0,030
-426,832	-146,406	-0,122	-0,008
-425,817	-77,800	-0,137	0,034
-424,803	-131,166	0,124	0,012
-423,788	-200,000	-0,004	-0,085
-422,773	24,029	0,101	-0,061
-421,759	800,000	0,035	0,090
-420,744	-200,000	-0,010	0,080
-419,730	-75,080	0,193	-0,050
-418,715	-66,932	-0,043	-0,012
-417,701	-164,052	0,026	0,001
-416,686	-177,983	-0,065	0,001
-415,671	-178,810	0,174	0,003
-414,657	98,750	-0,063	-0,053
-413,642	35,424	-0,072	0,046
-412,628	-45,779	-0,060	0,022
-411,613	8,971	0,084	-0,046
-410,598	800,000	-0,080	0,180
-409,584	111,925	-0,062	-0,055
-408,569	67,927	0,038	-0,028
-407,555	-112,988	0,080	0,011
-406,540	-200,000	0,019	0,307
-405,525	800,000	-0,037	-0,095
-404,511	133,881	0,130	-0,123
-403,496	800,000	0,024	-0,055
-402,482	-94,805	0,152	-0,030
-401,467	-200,000	-0,079	0,000
-400,452	129,428	0,130	0,121
-399,438	339,548	-0,102	0,145
-398,423	207,782	-0,115	-0,131
-397,409	-200,000	-0,016	-0,071
-396,394	-47,430	-0,036	0,013
-395,379	-16,261	0,107	0,049
-394,365	-137,628	0,043	0,003
-393,350	800,000	0,042	0,124
-392,336	-200,000	-0,010	-0,128
-391,321	-200,000	-0,013	0,080
-390,306	-132,464	-0,050	0,005
-389,292	113,398	-0,040	-0,035
-388,277	-200,000	-0,033	0,113
-387,263	800,000	0,042	0,118
-386,248	171,463	-0,031	0,033
-385,233	-73,124	0,097	-0,026
-384,219	102,944	-0,097	-0,082
-383,204	-40,231	-0,048	0,018
-382,190	-200,000	0,003	-0,054
-381,175	153,688	-0,056	-0,056
-380,160	800,000	0,026	0,070
-379,146	-92,634	-0,070	0,014
-378,131	800,000	-0,007	-0,018
-377,117	-200,000	-0,001	-0,162
-376,102	800,000	0,023	-0,069
-375,088	102,768	-0,131	0,112
-374,073	41,266	0,059	-0,039
-373,058	-110,319	0,148	-0,022
-372,044	-200,000	0,017	0,126
-371,029	2,994	-0,100	-0,052
-370,015	160,523	-0,033	-0,034
-369,000	305,209	-0,057	0,077
-367,985	800,000	0,024	-0,062
-366,971	-200,000	0,027	-0,273
-365,956	-200,000	-0,013	0,072
-364,942	-200,000	0,026	-0,092
-363,927	567,672	0,071	-0,125
-362,912	-54,272	-0,095	-0,031
-361,898	16,623	0,087	-0,050
-360,883	800,000	-0,027	-0,059
-359,869	197,699	-0,087	-0,097
-358,854	800,000	-0,034	-0,076
-357,839	-134,253	0,271	0,024
-356,825	-86,101	0,162	0,036
-355,810	379,127	0,028	-0,041
-354,796	32,007	0,051	-0,032
-353,781	7,737	-0,120	-0,065
-352,766	-200,000	-0,007	-0,082
-351,752	15,281	0,038	-0,022
-350,737	-200,000	0,015	0,124
-349,723	5,613	-0,129	0,069
-348,708	-200,000	-0,010	0,107
-347,693	-31,653	-0,022	-0,009
-346,679	-128,763	0,053	-0,005
-345,664	227,910	0,033	0,039
-344,650	89,953	0,054	0,044
-343,635	-1,665	0,140	0,072
-342,620	800,000	-0,063	0,196
-341,606	143,216	0,081	0,078
-340,591	-200,000	0,026	-0,133
-339,577	601,038	-0,088	-0,159
-338,562	49,868	-0,104	-0,071
-337,548	-142,649	0,204	0,014
-336,533	-200,000	-0,001	-0,046
-335,518	490,000	0,027	-0,045
-334,504	25,255	-0,056	-0,034
-333,489	263,369	-0,089	-0,113
-332,475	-114,147	-0,072	0,010
-331,460	-200,000	-0,048	-0,170
-330,445	-200,000	-0,011	0,155
-329,431	55,523	-0,032	-0,022
-328,416	369,452	-0,066	0,098
-327,402	120,975	-0,069	0,063
-326,387	-200,000	-0,037	0,129
-325,372	79,288	-0,094	0,073
-324,358	203,097	-0,030	-0,033
-323,343	166,303	0,061	0,063
-322,329	800,000	0,014	0,031
-321,314	-40,925	-0,019	0,007
-320,299	233,039	0,051	0,061
-319,285	-80,122	0,089	-0,022
-318,270	-52,905	-0,046	-0,015
-317,256	529,662	-0,052	-0,090
-316,241	800,000	-0,016	0,042
-315,226	-5,884	0,056	0,028
-314,212	34,072	-0,025	-0,016
-313,197	-117,965	-0,064	-0,008
-312,183	-80,795	-0,081	-0,019
-311,168	-125,784	-0,109	0,012
-310,153	-55,021	-0,011	0,004
-309,139	-200,000	0,025	-0,113
-308,124	-200,000	-0,019	-0,139
-307,110	47,289	-0,038	-0,026
-306,095	-200,000	0,022	0,076
-305,080	136,455	0,013	-0,013
-304,066	48,575	-0,098	-0,067
-303,051	-200,000	0,030	0,110
-302,037	-114,661	-0,075	-0,010
-301,022	-36,622	0,034	-0,013
-300,008	83,547	0,117	0,092
-298,993	800,000	-0,015	-0,042
-297,978	-200,000	0,033	0,195
-296,964	173,626	0,047	0,049
-295,949	248,624	-0,064	-0,079
-294,935	140,820	0,052	-0,050
-293,920	-200,000	-0,006	0,143
-292,905	800,000	0,018	0,045
-291,891	32,287	0,120	0,075
-290,876	-200,000	-0,014	-0,047
-289,862	800,000	-0,029	0,072
-288,847	562,056	0,053	-0,093
-287,832	451,505	0,066	0,106
-286,818	-18,682	0,026	0,012
-285,803	370,891	0,052	-0,077
-284,789	22,905	-0,136	0,081
-283,774	800,000	0,024	0,058
-282,759	-97,672	-0,059	0,011
-281,745	1,412	-0,076	-0,040
-280,730	95,878	0,086	0,071
-279,716	-81,608	0,170	0,040
-278,701	-200,000	0,014	0,110
-277,686	17,624	-0,059	0,034
-276,672	-61,711	-0,152	-0,046
-275,657	90,634	-0,054	-0,044
-274,643	-134,179	-0,088	0,008
-273,628	149,795	0,106	-0,105
-272,613	179,488	0,098	-0,104
-271,599	72,220	-0,100	-0,076
-270,584	800,000	-0,028	-0,066
-269,570	16,737	0,039	-0,023
-268,555	800,000	0,026	-0,076
-267,540	800,000	0,042	-0,104
-266,526	-15,705	0,120	0,055
-265,511	483,760	0,041	-0,068
-264,497	207,262	0,129	0,146
-263,482	-200,000	0,009	0,087
-262,467	-200,000	0,017	0,063
-261,453	-131,900	0,126	0,012
-260,438	-200,000	-0,010	-0,060
-259,424	-200,000	-0,012	-0,138
-258,409	800,000	-0,049	-0,118
-257,395	-200,000	-0,022	0,133
-256,380	200,248	0,122	0,136
-255,365	280,081	0,081	0,105
-254,351	473,450	-0,073	0,119
-253,336	-35,287	-0,117	-0,046
-252,322	-200,000	0,012	-0,041
-251,307	-200,000	0,012	-0,145
-250,292	51,237	-0,051	-0,035
-249,278	-200,000	0,011	0,058
-248,263	85,809	0,131	0,105
-247,249	-200,000	0,008	0,054
-246,234	53,570	0,115	0,080
-245,219	800,000	0,028	-0,090
-244,205	172,757	-0,079	-0,082
-243,190	393,273	0,044	0,066
-242,176	-200,000	-0,012	0,041
-241,161	634,141	-0,059	0,108
-240,146	-200,000	-0,020	0,104
-239,132	12,419	0,053	0,030
-238,117	306,293	0,061	0,083
-237,103	-200,000	0,006	0,081
-236,088	-200,000	0,011	0,048
-235,073	-200,000	-0,044	0,147
-234,059	-130,773	-0,106	-0,010
-233,044	-128,005	0,104	0,011
-232,030	-7,292	-0,127	-0,062
-231,015	144,016	-0,088	-0,085
-230,000	-115,552	0,038	-0,005
-228,986	349,337	0,048	-0,068
-227,971	800,000	0,004	-0,011
-226,957	-96,157	0,058	-0,011
-225,942	-152,957	0,095	0,005
-224,927	-80,017	-0,073	0,018
-223,913	800,000	-0,052	0,108
-222,898	-200,000	-0,004	-0,105
-221,884	41,441	-0,080	-0,053
-220,869	-200,000	-0,026	0,116
-219,855	-200,000	-0,001	0,140
-218,840	415,972	-0,046	0,071
-217,825	-113,404	0,140	-0,020
-216,811	-176,714	-0,143	-0,003
-215,796	-123,677	0,130	-0,015
-214,782	-84,451	0,061	-0,014
-213,767	800,000	-0,030	0,069
-212,752	267,872	0,052	0,066
-211,738	-21,138	0,042	-0,019
-210,723	562,689	0,072	0,126
-209,709	-200,000	-0,012	0,074
-208,694	12,365	-0,055	-0,031
-207,679	-19,093	-0,016	-0,007
-206,665	66,290	-0,094	0,069
-205,650	189,925	0,028	-0,031
-204,636	36,883	-0,092	0,059
-203,621	-200,000	0,032	0,107
-202,606	191,777	0,057	0,062
-201,592	-20,826	0,065	0,029
-200,577	225,977	0,050	-0,059
-199,563	-69,832	-0,127	0,035
-198,548	38,211	-0,106	0,068
-197,533	-200,000	0,013	0,161
-196,519	-200,000	-0,001	0,048
-195,504	-46,601	-0,090	0,032
-194,490	-20,716	-0,041	0,018
-193,475	222,324	-0,068	0,079
-192,460	-200,000	-0,003	-0,026
-191,446	800,000	0,045	0,121
-190,431	-200,000	-0,018	0,166
-189,417	800,000	0,036	-0,083
-188,402	-200,000	-0,021	-0,171
-187,387	25,888	-0,077	-0,046
-186,373	800,000	0,067	-0,186
-185,358	59,318	0,055	-0,039
-184,344	-200,000	0,012	0,040
-183,329	340,206	0,045	-0,064
-182,315	-200,000	-0,007	0,088
-181,300	425,490	-0,091	0,142
-180,285	-154,979	-0,032	-0,002
-179,271	75,693	0,068	-0,052
-178,256	-64,063	-0,125	0,037
-177,242	10,727	-0,056	0,031
-176,227	-149,169	0,124	0,007
-175,212	457,775	0,046	-0,074
-174,198	-83,127	-0,061	-0,014
-173,183	67,316	0,091	-0,067
-172,169	-158,118	-0,081	0,003
-171,154	-2,514	-0,100	0,050
-170,139	-114,013	0,103	0,014
-169,125	-89,969	-0,179	0,037
-168,110	159,608	0,049	-0,049
-167,096	-197,720	-0,122	-0,001
-166,081	-200,000	-0,012	-0,054
-165,066	-200,000	0,010	-0,146
-164,052	123,047	-0,129	0,117
-163,037	354,836	0,082	0,117
-162,023	69,819	-0,076	0,056
-161,008	393,419	0,050	0,076
-159,993	800,000	-0,047	0,132
-158,979	-200,000	0,009	0,046
-157,964	-45,556	-0,142	0,051
-156,950	84,566	0,081	-0,064
-155,935	-200,000	0,008	0,086
-154,920	17,959	-0,080	0,046
-153,906	-53,004	0,222	-0,073
-152,891	-200,000	0,004	-0,043
-151,877	26,645	-0,033	-0,020
-150,862	307,662	0,054	-0,073
-149,847	-200,000	-0,008	-0,170
-148,833	26,973	0,065	0,039
-147,818	-59,678	-0,083	-0,026
-146,804	-72,081	0,197	-0,052
-145,789	-200,000	0,002	0,080
-144,775	-200,000	-0,024	0,117
-143,760	226,318	0,066	0,078
-142,745	-122,851	-0,099	0,011
-141,731	800,000	-0,047	0,098
-140,716	165,293	-0,016	-0,017
-139,702	554,970	0,084	0,146
-138,687	231,760	-0,061	0,072
-137,672	-200,000	0,012	-0,102
-136,658	564,648	-0,035	0,061
-135,643	800,000	0,025	-0,069
-134,629	563,165	-0,026	-0,045
-133,614	-200,000	-0,003	-0,037
-132,599	361,396	0,048	0,069
-131,585	-200,000	-0,029	-0,102
-130,570	253,921	0,015	0,018
-129,556	-73,191	0,036	-0,009
-128,541	271,739	-0,049	-0,062
-127,526	3,238	0,032	-0,017
-126,512	516,052	0,020	0,034
-125,497	552,776	0,057	0,100
-124,483	765,092	-0,033	-0,065
-123,468	-200,000	-0,003	0,124
-122,453	101,952	-0,104	0,087
-121,439	-63,098	-0,076	-0,023
-120,424	800,000	-0,081	-0,204
-119,410	800,000	0,061	-0,175
