DTS Sentinel unit serial number:	SN410029Multiplexer serial number:	ORYXHardware model number:	OX2-SRSoftware version number:	ORYX F/W v4,00 Oryx Data Collector v3.7.2.0data status	okinstallation	B3 Nyhavnadifferential loss correction	single-endedforward channel	channel 1reverse channel	N/Adate	2023/11/28time	11:47:30forward acquisition time	300,00reverse acquisition time	0,00gamma	499,1914k internal	0,3146k external	0,3146temperature offset calibration	1,0000default loss term (dB/km)	0,3820temperature slope calibration	1,0000multiplexer offset coefficient	1,0000multiplexer slope coefficient	1,0000fibre end	0,00T internal ref (°C)	8,97T ext. ref 1 (°C)	-7,61T ext. ref 2 (°C)	-7,82length (m)	temperature (°C)	Stokes	anti-Stokes-744,400	249,959	-0,120	-0,151
-743,385	-200,000	0,033	0,246
-742,371	148,846	-0,182	-0,182
-741,356	-200,000	0,046	0,318
-740,342	800,000	-0,165	-0,373
-739,327	-200,000	-0,036	0,381
-738,312	800,000	-0,119	-0,266
-737,298	-200,000	-0,073	0,309
-736,283	-200,000	-0,080	-0,270
-735,269	-200,000	0,002	0,520
-734,254	-60,737	-0,236	-0,073
-733,239	62,103	-0,228	0,168
-732,225	332,689	-0,171	-0,245
-731,210	-26,897	0,175	0,075
-730,196	168,248	0,016	-0,017
-729,181	-127,992	-0,155	-0,016
-728,167	-200,000	-0,048	-0,208
-727,152	800,000	-0,059	0,182
-726,137	-149,396	0,063	0,004
-725,123	-72,256	-0,108	0,029
-724,108	-200,000	0,044	-0,220
-723,094	800,000	-0,056	-0,137
-722,079	290,063	-0,066	-0,089
-721,064	-200,000	0,034	-0,178
-720,050	-79,098	0,061	-0,015
-719,035	-54,977	-0,103	0,034
-718,021	800,000	0,043	-0,116
-717,006	-188,179	-0,149	0,001
-715,991	174,982	-0,074	-0,079
-714,977	259,889	0,047	0,060
-713,962	-46,117	0,131	0,048
-712,948	64,069	0,058	0,043
-711,933	-97,002	-0,083	0,016
-710,918	-50,882	-0,045	-0,015
-709,904	26,189	-0,047	0,029
-708,889	-200,000	-0,002	-0,090
-707,875	114,498	0,084	-0,076
-706,860	800,000	0,022	-0,062
-705,845	101,380	0,064	0,055
-704,831	-200,000	-0,016	0,174
-703,816	-4,697	-0,084	0,043
-702,802	800,000	0,048	0,143
-701,787	-200,000	0,001	0,015
-700,772	800,000	-0,053	-0,147
-699,758	-57,862	0,040	-0,013
-698,743	800,000	-0,023	0,064
-697,729	-112,358	0,125	0,018
-696,714	-7,193	-0,043	0,022
-695,699	-200,000	0,013	-0,101
-694,685	-119,524	-0,082	0,010
-693,670	-200,000	0,005	-0,057
-692,656	505,243	-0,038	-0,066
-691,641	123,609	-0,086	0,079
-690,627	181,131	0,093	0,101
-689,612	-56,472	0,140	-0,046
-688,597	209,471	0,099	-0,114
-687,583	266,738	-0,071	-0,091
-686,568	44,274	-0,008	-0,005
-685,554	-200,000	0,023	-0,114
-684,539	25,568	-0,039	0,024
-683,524	-200,000	0,002	-0,031
-682,510	-4,408	0,014	0,007
-681,495	155,270	-0,091	-0,092
-680,481	614,231	-0,087	-0,162
-679,466	663,282	-0,036	-0,069
-678,451	-43,214	0,092	0,034
-677,437	51,919	-0,153	0,108
-676,422	800,000	0,018	0,053
-675,408	745,430	0,023	-0,045
-674,393	-24,014	-0,141	-0,062
-673,378	-200,000	0,009	0,040
-672,364	-87,045	-0,173	-0,039
-671,349	94,884	-0,012	0,010
-670,335	0,226	-0,065	-0,034
-669,320	800,000	0,040	0,099
-668,305	215,935	-0,018	-0,021
-667,291	382,653	0,055	-0,084
-666,276	25,000	-0,036	-0,022
-665,262	395,646	-0,119	-0,183
-664,247	65,890	0,097	-0,073
-663,232	-102,921	-0,119	-0,021
-662,218	-9,475	0,071	-0,035
-661,203	565,450	-0,037	-0,067
-660,189	216,732	0,063	0,074
-659,174	381,237	0,098	-0,149
-658,159	-146,170	-0,050	-0,003
-657,145	527,739	-0,039	-0,068
-656,130	-15,964	-0,092	-0,043
-655,116	532,201	-0,064	0,112
-654,101	-42,872	-0,036	-0,013
-653,086	800,000	-0,022	-0,048
-652,072	-184,086	0,141	0,002
-651,057	-75,727	-0,072	-0,019
-650,043	800,000	0,018	0,056
-649,028	-100,496	0,179	-0,032
-648,014	29,820	0,119	0,075
-646,999	-21,916	0,067	0,030
-645,984	107,253	0,117	0,103
-644,970	138,739	-0,038	-0,037
-643,955	89,437	0,023	-0,019
-642,941	-200,000	-0,017	-0,065
-641,926	800,000	0,068	-0,205
-640,911	-74,750	0,037	0,010
-639,897	217,781	0,018	0,021
-638,882	-47,923	-0,009	-0,003
-637,868	-200,000	0,004	0,018
-636,853	180,191	-0,038	-0,041
-635,838	317,615	-0,090	-0,126
-634,824	-200,000	-0,010	-0,081
-633,809	-43,813	-0,065	0,024
-632,795	-200,000	-0,000	0,144
-631,780	165,843	0,135	0,141
-630,765	219,523	-0,060	0,070
-629,751	2,853	-0,104	-0,055
-628,736	-200,000	-0,021	-0,089
-627,722	536,267	-0,047	0,083
-626,707	-200,000	0,019	0,109
-625,692	-200,000	0,008	0,109
-624,678	800,000	-0,019	-0,057
-623,663	196,521	-0,070	-0,079
-622,649	-200,000	-0,005	-0,067
-621,634	800,000	-0,027	-0,059
-620,619	800,000	0,038	-0,100
-619,605	444,221	0,077	0,125
-618,590	-200,000	0,013	-0,106
-617,576	86,847	-0,080	-0,065
-616,561	-19,400	0,128	-0,058
-615,546	145,172	-0,120	-0,118
-614,532	800,000	0,045	-0,127
-613,517	13,048	-0,017	-0,010
-612,503	-200,000	-0,013	0,085
-611,488	-100,903	0,130	-0,023
-610,474	-140,877	-0,127	0,009
-609,459	0,356	-0,046	0,024
-608,444	-200,000	0,014	0,098
-607,430	148,873	0,037	0,037
-606,415	-200,000	0,002	0,060
-605,401	-137,907	0,092	-0,007
-604,386	800,000	0,029	-0,067
-603,371	-200,000	-0,010	0,202
-602,357	800,000	-0,024	0,072
-601,342	-200,000	0,003	-0,056
-600,328	472,071	0,084	-0,139
-599,313	600,015	0,052	0,096
-598,298	-85,754	-0,098	-0,022
-597,284	-200,000	0,039	-0,167
-596,269	37,975	0,167	0,109
-595,255	86,977	0,086	0,070
-594,240	800,000	-0,038	0,089
-593,225	-200,000	0,002	-0,055
-592,211	14,404	-0,103	-0,059
-591,196	242,224	-0,040	0,050
-590,182	800,000	0,051	-0,159
-589,167	391,991	0,031	0,047
-588,152	800,000	-0,044	0,104
-587,138	63,360	-0,022	-0,016
-586,123	-200,000	-0,028	0,124
-585,109	-54,514	-0,065	-0,021
-584,094	-67,880	-0,124	-0,035
-583,079	-95,416	-0,064	0,013
-582,065	57,365	-0,077	0,055
-581,050	-139,543	-0,055	-0,004
-580,036	212,403	0,065	-0,075
-579,021	36,444	0,113	-0,073
-578,006	-163,297	-0,153	0,005
-576,992	-51,070	0,097	-0,033
-575,977	800,000	-0,017	0,053
-574,963	717,818	0,060	0,118
-573,948	-200,000	0,008	0,029
-572,934	277,907	0,041	-0,054
-571,919	800,000	-0,060	0,127
-570,904	100,768	-0,043	-0,037
-569,890	200,779	0,075	-0,085
-568,875	635,622	0,028	0,052
-567,861	-95,228	-0,028	-0,005
-566,846	184,201	0,079	0,086
-565,831	113,432	0,078	0,070
-564,817	57,408	-0,084	-0,060
-563,802	-25,366	-0,121	-0,052
-562,788	74,631	0,063	-0,049
-561,773	-200,000	-0,011	-0,117
-560,758	-90,834	0,105	0,022
-559,744	117,589	0,079	0,071
-558,729	-26,782	-0,056	0,024
-557,715	-104,019	-0,089	-0,015
-556,700	-200,000	-0,005	-0,151
-555,685	370,507	-0,036	-0,053
-554,671	557,529	0,050	0,090
-553,656	-33,756	0,020	0,008
-552,642	-200,000	0,021	0,128
-551,627	426,502	0,029	0,045
-550,612	72,066	-0,204	-0,156
-549,598	-89,385	-0,107	-0,023
-548,583	-46,086	-0,069	0,025
-547,569	9,123	0,067	0,037
-546,554	240,007	0,064	0,079
-545,539	-68,535	0,219	-0,062
-544,525	-11,823	-0,068	-0,033
-543,510	800,000	-0,031	-0,095
-542,496	800,000	0,017	0,051
-541,481	144,468	-0,120	-0,118
-540,466	103,815	-0,031	-0,027
-539,452	110,158	0,138	-0,122
-538,437	-200,000	-0,012	0,116
-537,423	-167,746	0,072	0,002
-536,408	115,589	0,027	-0,024
-535,393	800,000	0,029	-0,061
-534,379	-180,961	-0,077	-0,001
-533,364	2,695	-0,060	0,032
-532,350	282,923	-0,113	0,150
-531,335	233,813	0,022	-0,027
-530,321	800,000	-0,023	-0,049
-529,306	-152,787	-0,036	-0,002
-528,291	197,572	-0,052	-0,058
-527,277	88,618	-0,052	-0,042
-526,262	800,000	-0,026	0,052
-525,248	-95,880	0,123	-0,024
-524,233	0,293	0,189	0,099
-523,218	-200,000	0,015	0,158
-522,204	135,485	-0,130	0,124
-521,189	673,871	0,072	-0,138
-520,175	339,002	-0,069	-0,099
-519,160	800,000	0,025	-0,063
-518,145	800,000	-0,018	-0,053
-517,131	-200,000	0,036	-0,128
-516,116	800,000	0,038	0,109
-515,102	-131,248	-0,136	-0,013
-514,087	-200,000	-0,040	-0,217
-513,072	-200,000	-0,033	-0,118
-512,058	-3,288	-0,080	-0,041
-511,043	139,889	-0,095	0,092
-510,029	-200,000	0,002	0,028
-509,014	174,982	0,060	0,064
-507,999	800,000	-0,041	-0,086
-506,985	-200,000	0,007	-0,115
-505,970	-132,381	-0,183	-0,017
-504,956	-200,000	0,003	0,072
-503,941	80,278	-0,014	0,011
-502,926	58,429	0,076	0,055
-501,912	-119,948	0,087	-0,011
-500,897	-61,561	-0,175	-0,054
-499,883	-19,128	-0,105	-0,048
-498,868	-200,000	-0,025	-0,132
-497,853	395,180	0,023	-0,036
-496,839	83,027	-0,123	0,098
-495,824	500,392	0,065	-0,111
-494,810	22,860	-0,111	0,066
-493,795	-85,459	0,059	-0,013
-492,781	-200,000	-0,000	-0,031
-491,766	-200,000	-0,011	-0,205
-490,751	237,271	0,088	0,107
-489,737	-43,088	0,134	0,050
-488,722	-42,149	0,079	0,030
-487,708	545,244	-0,017	0,030
-486,693	69,773	0,051	-0,038
-485,678	391,377	0,087	-0,133
-484,664	6,850	-0,161	-0,087
-483,649	-123,097	-0,079	0,009
-482,635	-102,083	-0,118	-0,021
-481,620	8,842	0,059	-0,033
-480,605	-81,292	0,077	0,018
-479,591	-200,000	0,014	0,106
-478,576	145,426	0,173	-0,170
-477,562	99,084	0,027	0,023
-476,547	64,218	-0,107	-0,079
-475,532	-200,000	0,010	0,036
-474,518	-200,000	0,000	0,058
-473,503	574,673	-0,033	0,059
-472,489	-76,963	0,125	0,032
-471,474	-200,000	-0,002	-0,169
-470,459	-200,000	-0,001	-0,019
-469,445	-11,871	0,044	-0,021
-468,430	-200,000	-0,006	-0,043
-467,416	-200,000	-0,013	-0,101
-466,401	16,554	0,035	-0,020
-465,386	126,310	-0,090	0,083
-464,372	80,430	-0,077	0,061
-463,357	-16,509	0,042	-0,019
-462,343	-200,000	0,008	-0,033
-461,328	675,315	0,047	0,090
-460,313	73,451	0,064	0,049
-459,299	-180,286	-0,106	0,002
-458,284	-31,649	0,085	-0,035
-457,270	-59,795	-0,047	0,015
-456,255	-41,230	-0,061	0,023
-455,241	-74,196	-0,052	0,014
-454,226	-16,064	-0,065	0,030
-453,211	-200,000	0,004	-0,074
-452,197	-167,768	0,110	0,003
-451,182	72,731	-0,014	0,011
-450,168	-74,027	0,173	-0,045
-449,153	541,953	0,026	-0,045
-448,138	-57,570	0,147	0,047
-447,124	-105,069	-0,153	-0,025
-446,109	800,000	-0,054	0,140
-445,095	132,474	0,078	-0,073
-444,080	800,000	-0,048	0,109
-443,065	-200,000	0,024	-0,081
-442,051	574,522	-0,043	-0,077
-441,036	735,703	-0,068	-0,134
-440,022	-200,000	-0,005	-0,159
-439,007	-52,443	-0,060	0,020
-437,992	800,000	0,039	-0,079
-436,978	-200,000	0,023	0,083
-435,963	149,788	-0,027	-0,027
-434,949	717,822	0,054	0,105
-433,934	233,368	-0,055	-0,066
-432,919	-200,000	0,008	-0,236
-431,905	168,749	-0,132	0,138
-430,890	800,000	0,016	-0,039
-429,876	800,000	0,013	-0,026
-428,861	40,447	0,053	-0,035
-427,846	-157,724	0,058	0,002
-426,832	-200,000	-0,048	-0,186
-425,817	223,202	-0,090	-0,107
-424,803	415,228	-0,021	0,033
-423,788	800,000	0,047	-0,098
-422,773	-14,130	0,165	0,078
-421,759	-133,811	-0,106	0,009
-420,744	800,000	0,029	0,090
-419,730	-169,170	-0,073	0,002
-418,715	-133,348	-0,121	0,011
-417,701	-62,379	-0,129	0,039
-416,686	-200,000	-0,011	0,103
-415,671	-40,673	-0,053	-0,020
-414,657	-200,000	-0,010	0,048
-413,642	800,000	0,024	-0,067
-412,628	-28,968	0,044	-0,018
-411,613	-200,000	0,003	0,116
-410,598	-116,550	-0,129	-0,017
-409,584	-200,000	-0,006	0,131
-408,569	195,178	0,066	0,073
-407,555	-31,704	0,164	-0,067
-406,540	800,000	0,024	-0,053
-405,525	800,000	-0,029	-0,062
-404,511	-200,000	0,003	-0,228
-403,496	90,405	-0,063	-0,051
-402,482	-200,000	0,006	-0,057
-401,467	-69,043	0,052	0,015
-400,452	800,000	-0,034	0,090
-399,438	-104,973	0,103	-0,017
-398,423	-200,000	0,008	-0,094
-397,409	46,067	-0,029	0,020
-396,394	23,517	0,050	0,030
-395,379	60,208	0,090	-0,065
-394,365	800,000	0,030	-0,066
-393,350	-164,337	0,148	0,005
-392,336	336,184	0,090	0,127
-391,321	-68,819	-0,100	0,028
-390,306	-200,000	0,017	-0,102
-389,292	193,343	-0,055	-0,061
-388,277	246,412	-0,021	0,026
-387,263	-200,000	0,014	0,053
-386,248	71,496	0,058	-0,044
-385,233	800,000	-0,022	-0,060
-384,219	-200,000	0,005	0,082
-383,204	348,421	0,063	-0,091
-382,190	800,000	0,029	-0,073
-381,175	-200,000	0,024	-0,088
-380,160	800,000	0,038	-0,098
-379,146	-187,809	0,152	-0,001
-378,131	92,107	-0,068	0,056
-377,117	-200,000	0,004	0,036
-376,102	-200,000	0,017	0,069
-375,088	-200,000	-0,002	0,067
-374,073	3,558	0,067	-0,036
-373,058	135,633	-0,017	-0,016
-372,044	20,505	-0,105	0,062
-371,029	217,864	0,095	0,110
-370,015	-200,000	-0,015	-0,063
-369,000	42,624	-0,077	0,051
-367,985	72,057	0,073	0,055
-366,971	403,715	-0,115	-0,178
-365,956	67,725	0,092	-0,068
-364,942	800,000	0,021	0,053
-363,927	9,268	0,044	-0,024
-362,912	4,327	0,060	-0,032
-361,898	38,745	0,081	-0,052
-360,883	-200,000	0,000	-0,013
-359,869	-31,959	0,186	-0,076
-358,854	800,000	0,055	0,117
-357,839	800,000	0,051	0,138
-356,825	1,867	-0,101	-0,053
-355,810	-18,708	0,235	-0,106
-354,796	-44,403	-0,057	-0,021
-353,781	-200,000	0,001	0,071
-352,766	-200,000	-0,004	-0,043
-351,752	-123,685	0,090	0,010
-350,737	800,000	0,070	0,144
-349,723	5,292	-0,055	0,029
-348,708	-200,000	-0,112	0,000
-347,693	800,000	-0,016	-0,046
-346,679	800,000	-0,026	-0,066
-345,664	5,121	0,229	-0,122
-344,650	-200,000	-0,004	0,091
-343,635	800,000	-0,062	0,155
-342,620	800,000	-0,039	-0,093
-341,606	-110,354	-0,014	-0,002
-340,591	-200,000	0,006	0,021
-339,577	-1,949	-0,045	-0,023
-338,562	-134,803	-0,164	-0,014
-337,548	46,031	-0,050	0,034
-336,533	-200,000	0,003	-0,064
-335,518	-200,000	0,009	0,093
-334,504	800,000	-0,048	0,132
-333,489	172,091	0,084	-0,088
-332,475	19,967	-0,104	-0,061
-331,460	323,373	-0,105	-0,146
-330,445	196,681	-0,048	-0,054
-329,431	5,764	-0,055	0,029
-328,416	73,719	-0,026	-0,020
-327,402	304,714	-0,076	-0,103
-326,387	-59,333	0,038	0,012
-325,372	307,490	0,014	-0,019
-324,358	-23,304	-0,051	-0,022
-323,343	-46,459	-0,096	-0,034
-322,329	48,319	0,138	-0,094
-321,314	-108,546	0,125	0,019
-320,299	168,432	-0,117	0,121
-319,285	-200,000	0,012	0,116
-318,270	138,006	0,075	-0,072
-317,256	800,000	0,031	0,063
-316,241	-200,000	0,029	-0,109
-315,226	-200,000	0,007	0,151
-314,212	-18,854	0,135	0,061
-313,197	-13,168	0,183	-0,086
-312,183	455,163	-0,084	0,136
-311,168	376,677	-0,029	-0,043
-310,153	-19,667	-0,062	-0,028
-309,139	-200,000	0,024	-0,134
-308,124	-200,000	0,014	-0,056
-307,110	-37,687	-0,068	0,026
-306,095	670,464	0,029	0,055
-305,080	800,000	0,030	-0,066
-304,066	-131,167	-0,011	0,001
-303,051	-200,000	-0,005	0,054
-302,037	-200,000	0,028	-0,210
-301,022	-98,222	0,064	-0,012
-300,008	800,000	0,067	0,142
-298,993	690,707	0,062	0,118
-297,978	-193,026	0,067	0,000
-296,964	-43,430	-0,107	-0,039
-295,949	35,806	0,045	-0,029
-294,935	-200,000	-0,032	-0,174
-293,920	73,935	0,067	0,051
-292,905	-7,170	0,072	-0,036
-291,891	-26,563	-0,101	0,043
-290,876	149,525	-0,032	0,031
-289,862	-200,000	0,016	0,132
-288,847	735,654	0,016	0,032
-287,832	-200,000	-0,029	-0,229
-286,818	-31,149	0,039	0,016
-285,803	-22,168	0,120	0,053
-284,789	527,389	-0,043	0,074
-283,774	9,723	0,054	0,030
-282,759	366,577	-0,063	-0,093
-281,745	-105,713	-0,064	-0,010
-280,730	-200,000	0,014	0,052
-279,716	247,108	-0,119	0,146
-278,701	-200,000	0,011	0,066
-277,686	800,000	0,033	0,083
-276,672	-200,000	0,016	0,117
-275,657	287,631	-0,083	0,109
-274,643	-112,241	-0,050	-0,007
-273,628	800,000	-0,014	0,034
-272,613	-35,026	-0,149	-0,059
-271,599	-101,303	0,140	0,025
-270,584	-24,716	-0,140	0,060
-269,570	-120,632	-0,112	-0,014
-268,555	86,199	-0,025	0,020
-267,540	10,333	0,068	0,038
-266,526	-43,051	-0,109	-0,040
-265,511	-200,000	-0,016	-0,075
-264,497	800,000	-0,055	0,175
-263,482	-145,321	0,159	-0,010
-262,467	800,000	0,032	0,071
-261,453	-82,797	0,020	-0,005
-260,438	408,864	0,048	-0,074
-259,424	800,000	0,023	0,061
-258,409	-16,571	-0,024	-0,011
-257,395	-200,000	-0,007	0,071
-256,380	-19,133	0,149	0,067
-255,365	800,000	0,020	0,043
-254,351	154,496	0,034	-0,034
-253,336	-12,867	-0,114	0,054
-252,322	624,494	-0,009	0,017
-251,307	161,422	-0,033	-0,033
-250,292	-200,000	-0,008	-0,036
-249,278	-64,256	0,107	0,031
-248,263	27,271	-0,117	0,071
-247,249	-200,000	-0,021	0,135
-246,234	601,601	-0,036	0,066
-245,219	131,966	-0,079	-0,074
-244,205	-10,412	0,044	0,021
-243,190	784,889	-0,019	-0,038
-242,176	-200,000	0,009	-0,117
-241,161	-200,000	0,001	0,107
-240,146	104,540	0,038	0,033
-239,132	18,489	-0,044	0,025
-238,117	800,000	-0,027	-0,083
-237,103	-200,000	-0,019	-0,082
-236,088	-200,000	-0,047	0,158
-235,073	120,756	0,049	-0,045
-234,059	19,723	0,042	-0,024
-233,044	210,075	-0,068	0,078
-232,030	-200,000	-0,009	0,138
-231,015	-200,000	-0,004	0,064
-230,000	646,324	0,054	-0,101
-228,986	-64,897	-0,090	-0,026
-227,971	-44,638	-0,040	-0,014
-226,957	58,644	-0,052	0,037
-225,942	-200,000	0,008	-0,070
-224,927	-41,923	0,113	0,042
-223,913	-200,000	-0,018	-0,067
-222,898	175,394	-0,027	0,028
-221,884	-200,000	-0,002	0,060
-220,869	-200,000	-0,021	0,142
-219,855	666,409	-0,054	0,102
-218,840	800,000	0,045	0,127
-217,825	-31,889	0,142	-0,058
-216,811	800,000	0,046	-0,124
-215,796	158,387	-0,108	0,109
-214,782	-186,488	0,054	-0,001
-213,767	800,000	0,057	0,117
-212,752	64,011	0,067	0,049
-211,738	602,743	-0,042	0,076
-210,723	-118,216	0,080	0,010
-209,709	-200,000	-0,073	-0,000
-208,694	-62,566	0,036	0,011
-207,679	280,461	0,054	0,071
-206,665	-162,305	-0,058	-0,002
-205,650	800,000	-0,046	-0,124
-204,636	407,228	-0,135	0,207
-203,621	767,057	0,042	-0,083
-202,606	-200,000	-0,006	0,079
-201,592	176,162	-0,019	-0,020
-200,577	800,000	-0,009	0,028
-199,563	6,975	-0,043	-0,023
-198,548	-125,106	0,150	-0,016
-197,533	-200,000	0,008	0,114
-196,519	161,466	-0,022	0,022
-195,504	-91,079	-0,104	-0,021
-194,490	75,858	-0,121	-0,093
-193,475	-6,317	-0,142	0,070
-192,460	-141,191	0,082	0,006
-191,446	-181,079	-0,071	-0,001
-190,431	-43,251	0,106	0,039
-189,417	-82,095	-0,010	-0,002
-188,402	116,215	-0,075	0,066
-187,387	-46,226	-0,111	-0,039
-186,373	79,685	0,050	-0,039
-185,358	28,499	0,060	-0,036
-184,344	565,980	0,086	0,152
-183,329	185,814	0,103	0,111
-182,315	190,714	0,118	-0,129
-181,300	800,000	-0,021	0,058
-180,285	59,390	-0,118	-0,084
-179,271	800,000	0,076	-0,180
-178,256	-200,000	-0,007	0,034
-177,242	42,252	0,093	0,061
-176,227	692,979	0,039	0,075
-175,212	800,000	-0,036	0,100
-174,198	26,699	-0,027	-0,017
-173,183	-73,751	-0,051	-0,013
-172,169	-81,203	-0,146	0,035
-171,154	-200,000	-0,056	0,213
-170,139	-200,000	-0,006	0,063
-169,125	-200,000	-0,002	0,039
-168,110	-83,296	0,049	-0,011
-167,096	96,271	-0,120	-0,099
-166,081	-200,000	-0,006	-0,048
-165,066	-27,525	-0,127	0,053
-164,052	-0,875	-0,111	-0,057
-163,037	-200,000	0,027	0,146
-162,023	800,000	-0,006	0,015
-161,008	800,000	0,022	0,061
-159,993	-184,209	0,084	-0,001
-158,979	-0,667	-0,032	-0,016
-157,964	-200,000	-0,016	0,137
-156,950	-200,000	0,033	-0,132
-155,935	198,138	-0,036	-0,040
-154,920	-200,000	0,045	0,147
-153,906	-11,162	0,075	-0,036
-152,891	-200,000	0,005	-0,107
-151,877	-200,000	-0,001	-0,039
-150,862	-200,000	-0,000	-0,030
-149,847	-94,776	0,022	-0,004
-148,833	-113,482	0,096	0,013
-147,818	11,612	0,094	0,052
-146,804	800,000	0,027	0,064
-145,789	-200,000	-0,019	-0,065
-144,775	-200,000	-0,006	-0,210
-143,760	-139,461	-0,167	0,013
-142,745	800,000	0,051	-0,111
-141,731	792,322	-0,007	-0,014
-140,716	298,345	0,053	-0,070
-139,702	298,854	0,052	0,070
-138,687	-23,037	0,035	0,015
-137,672	105,588	-0,141	-0,121
-136,658	-50,891	-0,017	-0,006
-135,643	-139,681	-0,076	-0,006
-134,629	800,000	0,047	-0,113
-133,614	167,327	0,115	-0,118
-132,599	-200,000	0,010	-0,102
-131,585	-200,000	-0,046	0,204
-130,570	-40,670	-0,071	-0,026
-129,556	-73,598	-0,063	0,016
-128,541	-104,587	-0,022	-0,004
-127,526	46,667	0,082	0,055
-126,512	-200,000	-0,003	-0,083
-125,497	342,843	0,086	0,122
-124,483	121,802	-0,127	0,115
-123,468	800,000	0,009	-0,027
-122,453	-200,000	0,026	0,105
-121,439	137,366	-0,089	0,084
-120,424	448,338	-0,020	0,033
-119,410	337,950	0,006	0,008
