DTS Sentinel unit serial number:	SN410029Multiplexer serial number:	ORYXHardware model number:	OX2-SRSoftware version number:	ORYX F/W v4,00 Oryx Data Collector v3.7.2.0data status	okinstallation	B3 Nyhavnadifferential loss correction	single-endedforward channel	channel 1reverse channel	N/Adate	2023/11/28time	10:42:30forward acquisition time	300,00reverse acquisition time	0,00gamma	499,1914k internal	0,3157k external	0,3157temperature offset calibration	1,0000default loss term (dB/km)	0,3820temperature slope calibration	1,0000multiplexer offset coefficient	1,0000multiplexer slope coefficient	1,0000fibre end	0,00T internal ref (°C)	9,73T ext. ref 1 (°C)	-7,26T ext. ref 2 (°C)	-7,49length (m)	temperature (°C)	Stokes	anti-Stokes-744,400	621,545	-0,154	-0,287
-743,385	-200,000	-0,025	0,207
-742,371	75,956	-0,128	-0,100
-741,356	-200,000	0,015	0,291
-740,342	155,347	-0,140	-0,142
-739,327	-200,000	0,049	0,285
-738,312	234,119	-0,295	-0,358
-737,298	-200,000	0,084	0,341
-736,283	597,727	-0,158	-0,291
-735,269	-200,000	0,002	0,159
-734,254	-200,000	-0,043	-0,208
-733,239	-78,468	-0,245	0,061
-732,225	800,000	-0,123	-0,333
-731,210	188,311	0,122	0,134
-730,196	-200,000	0,008	0,039
-729,181	445,566	-0,067	-0,109
-728,167	501,448	-0,043	0,074
-727,152	-57,847	0,139	-0,044
-726,137	-189,226	-0,185	0,002
-725,123	-200,000	0,003	-0,104
-724,108	31,612	-0,026	0,017
-723,094	-200,000	0,039	-0,151
-722,079	46,519	0,023	-0,016
-721,064	-114,318	0,028	-0,004
-720,050	15,649	-0,079	0,046
-719,035	231,723	-0,013	0,016
-718,021	13,874	0,034	-0,019
-717,006	800,000	-0,034	-0,086
-715,991	-200,000	0,015	-0,049
-714,977	-200,000	0,025	-0,086
-713,962	-120,347	0,055	-0,007
-712,948	-3,734	0,064	-0,032
-711,933	800,000	-0,074	-0,176
-710,918	309,494	-0,014	0,020
-709,904	262,314	-0,100	-0,127
-708,889	-57,049	-0,145	-0,047
-707,875	229,950	-0,110	-0,133
-706,860	142,494	0,065	-0,064
-705,845	800,000	0,069	0,212
-704,831	30,093	-0,101	0,063
-703,816	-101,193	-0,063	0,011
-702,802	88,055	-0,055	0,045
-701,787	-200,000	0,022	-0,090
-700,772	-200,000	-0,004	-0,066
-699,758	-200,000	0,035	-0,121
-698,743	-200,000	-0,020	-0,080
-697,729	115,149	-0,099	0,089
-696,714	52,217	0,112	0,078
-695,699	6,034	0,154	0,084
-694,685	274,756	-0,097	0,127
-693,670	389,706	0,015	0,023
-692,656	-40,033	-0,067	0,026
-691,641	312,374	0,089	0,123
-690,627	194,082	0,033	-0,037
-689,612	474,702	-0,014	-0,023
-688,597	57,713	0,031	0,022
-687,583	134,107	-0,119	-0,113
-686,568	-87,851	-0,153	-0,034
-685,554	271,808	-0,071	0,092
-684,539	800,000	0,042	0,096
-683,524	-200,000	-0,004	0,048
-682,510	362,204	0,040	-0,059
-681,495	739,658	-0,036	0,071
-680,481	-200,000	0,020	-0,210
-679,466	26,880	-0,040	-0,024
-678,451	-200,000	-0,000	0,071
-677,437	-200,000	0,007	-0,064
-676,422	-90,547	-0,114	0,024
-675,408	-133,860	-0,064	-0,006
-674,393	-90,999	-0,047	-0,010
-673,378	479,557	-0,030	-0,049
-672,364	-200,000	0,003	0,056
-671,349	800,000	-0,009	-0,021
-670,335	-200,000	0,013	0,056
-669,320	800,000	-0,017	-0,043
-668,305	-200,000	0,027	0,130
-667,291	-200,000	0,005	0,114
-666,276	-200,000	0,012	-0,043
-665,262	-143,705	-0,133	0,009
-664,247	800,000	0,026	-0,057
-663,232	-53,010	0,192	-0,064
-662,218	-200,000	0,007	-0,112
-661,203	-200,000	-0,004	0,098
-660,189	383,940	0,041	-0,062
-659,174	99,193	-0,128	-0,109
-658,159	531,154	-0,010	0,018
-657,145	265,875	-0,065	-0,084
-656,130	669,856	-0,033	0,062
-655,116	48,738	0,046	-0,031
-654,101	800,000	0,065	0,145
-653,086	800,000	-0,056	0,158
-652,072	-187,671	-0,128	0,001
-651,057	800,000	-0,074	0,157
-650,043	-144,760	-0,187	0,012
-649,028	-200,000	-0,011	-0,125
-648,014	-200,000	0,019	0,151
-646,999	-16,377	0,105	0,049
-645,984	147,700	0,043	0,042
-644,970	-200,000	0,050	0,239
-643,955	-200,000	-0,027	-0,164
-642,941	368,856	0,091	0,135
-641,926	-55,800	0,102	0,033
-640,911	-200,000	-0,008	-0,111
-639,897	-200,000	-0,006	0,081
-638,882	-58,310	-0,084	0,027
-637,868	-172,254	-0,081	0,002
-636,853	156,047	0,023	-0,024
-635,838	800,000	-0,032	-0,074
-634,824	800,000	-0,034	-0,072
-633,809	13,038	-0,084	0,048
-632,795	276,547	0,093	0,122
-631,780	-200,000	-0,014	0,051
-630,765	22,031	-0,061	-0,036
-629,751	-200,000	0,020	-0,180
-628,736	2,350	-0,062	0,033
-627,722	198,887	0,007	-0,008
-626,707	111,472	0,021	-0,018
-625,692	747,499	0,048	0,096
-624,678	6,464	0,130	-0,071
-623,663	5,401	0,129	-0,070
-622,649	14,277	-0,160	0,092
-621,634	-33,218	0,156	0,063
-620,619	785,320	-0,072	-0,146
-619,605	716,848	0,038	-0,074
-618,590	87,627	0,078	0,063
-617,576	45,883	-0,104	0,071
-616,561	24,405	-0,019	0,011
-615,546	-35,834	0,019	-0,007
-614,532	-200,000	-0,012	-0,090
-613,517	-179,493	-0,074	-0,001
-612,503	316,731	0,041	0,057
-611,488	-106,345	-0,220	0,036
-610,474	-69,319	0,213	-0,059
-609,459	800,000	-0,020	0,041
-608,444	-200,000	-0,006	0,099
-607,430	13,890	-0,145	-0,082
-606,415	-7,623	-0,012	0,006
-605,401	-53,946	0,107	-0,036
-604,386	129,484	0,076	-0,071
-603,371	93,550	-0,034	-0,028
-602,357	-200,000	0,006	0,045
-601,342	15,719	-0,108	-0,062
-600,328	-88,765	-0,052	-0,011
-599,313	-11,496	-0,175	-0,084
-598,298	-142,996	-0,089	-0,006
-597,284	-200,000	0,017	-0,067
-596,269	-200,000	0,013	-0,089
-595,255	140,076	-0,034	-0,032
-594,240	6,439	0,147	-0,080
-593,225	-1,291	-0,052	0,027
-592,211	506,451	0,020	-0,034
-591,196	35,799	0,024	-0,015
-590,182	-76,108	0,101	0,026
-589,167	104,955	-0,053	0,046
-588,152	51,496	0,037	0,026
-587,138	82,114	-0,045	0,036
-586,123	88,964	0,048	0,039
-585,109	-70,595	-0,181	-0,050
-584,094	-107,564	0,050	-0,008
-583,079	-200,000	0,014	-0,068
-582,065	-200,000	0,011	0,054
-581,050	16,648	-0,054	0,031
-580,036	-200,000	-0,003	0,116
-579,021	-2,816	0,065	0,033
-578,006	200,758	-0,156	-0,176
-576,992	-200,000	-0,015	0,185
-575,977	79,468	0,203	0,159
-574,963	-200,000	0,019	0,102
-573,948	237,212	-0,053	0,064
-572,934	428,325	-0,041	0,065
-571,919	-74,289	-0,059	0,016
-570,904	-25,586	0,068	0,029
-569,890	800,000	0,047	0,133
-568,875	-200,000	0,005	0,038
-567,861	-200,000	0,013	0,114
-566,846	150,372	0,121	0,120
-565,831	239,759	-0,057	0,070
-564,817	153,458	-0,025	-0,026
-563,802	-200,000	-0,000	0,122
-562,788	-200,000	0,000	-0,136
-561,773	-16,153	0,195	0,091
-560,758	57,789	-0,041	0,030
-559,744	-160,585	-0,080	-0,003
-558,729	89,669	0,103	0,084
-557,715	-65,384	-0,069	0,020
-556,700	383,894	-0,034	-0,052
-555,685	-14,522	-0,121	0,057
-554,671	-26,839	-0,134	-0,057
-553,656	260,740	-0,036	0,046
-552,642	-200,000	-0,006	0,059
-551,627	800,000	0,017	-0,037
-550,612	175,269	-0,036	0,038
-549,598	-71,393	0,153	-0,042
-548,583	160,757	-0,075	-0,077
-547,569	800,000	0,072	-0,163
-546,554	800,000	0,053	0,114
-545,539	-200,000	0,041	0,139
-544,525	-151,418	0,163	-0,009
-543,510	-200,000	-0,018	-0,067
-542,496	-185,208	-0,031	0,000
-541,481	5,302	-0,061	-0,033
-540,466	458,403	0,069	0,112
-539,452	-84,323	-0,095	-0,022
-538,437	132,526	-0,052	-0,049
-537,423	371,460	0,052	-0,077
-536,408	4,520	-0,140	0,075
-535,393	-200,000	-0,006	0,113
-534,379	400,451	0,035	-0,055
-533,364	-200,000	-0,004	-0,037
-532,350	90,795	0,045	0,037
-531,335	-186,264	-0,058	0,001
-530,321	215,826	-0,007	-0,008
-529,306	-200,000	0,010	-0,040
-528,291	156,442	-0,127	-0,128
-527,277	-56,356	-0,006	0,002
-526,262	-200,000	-0,014	0,101
-525,248	455,272	-0,037	0,061
-524,233	62,202	0,059	0,043
-523,218	-200,000	-0,008	-0,053
-522,204	-18,656	0,025	0,011
-521,189	-101,645	0,054	-0,009
-520,175	-20,922	-0,054	-0,024
-519,160	242,999	-0,038	-0,047
-518,145	344,967	0,086	0,124
-517,131	28,109	0,087	0,054
-516,116	-200,000	0,034	0,295
-515,102	317,649	-0,056	-0,078
-514,087	-71,788	-0,098	0,026
-513,072	-71,151	-0,167	-0,045
-512,058	47,029	-0,053	0,036
-511,043	-54,610	-0,100	-0,033
-510,029	13,566	0,126	0,071
-509,014	-69,904	0,122	-0,034
-507,999	-49,196	0,123	-0,043
-506,985	800,000	-0,031	-0,085
-505,970	399,539	-0,058	-0,089
-504,956	800,000	-0,072	-0,191
-503,941	93,647	-0,089	-0,074
-502,926	464,162	0,072	0,118
-501,912	-200,000	-0,028	0,103
-500,897	345,282	0,074	0,107
-499,883	35,407	0,054	0,034
-498,868	80,006	-0,129	-0,101
-497,853	-24,759	-0,083	-0,036
-496,839	493,846	-0,035	-0,060
-495,824	60,172	0,154	-0,111
-494,810	-7,992	-0,152	0,075
-493,795	800,000	0,035	0,081
-492,781	-30,914	0,059	0,024
-491,766	27,843	0,082	-0,051
-490,751	-200,000	0,001	0,018
-489,737	-200,000	-0,008	-0,094
-488,722	-200,000	-0,007	-0,046
-487,708	105,837	0,031	0,026
-486,693	-61,993	0,039	0,012
-485,678	-200,000	0,018	-0,067
-484,664	-48,433	-0,044	-0,015
-483,649	800,000	-0,042	0,130
-482,635	-200,000	-0,008	-0,135
-481,620	-43,159	0,075	0,028
-480,605	-16,018	-0,130	0,060
-479,591	-200,000	-0,004	0,057
-478,576	161,001	0,037	0,038
-477,562	490,474	-0,041	-0,068
-476,547	800,000	0,023	0,062
-475,532	-200,000	0,025	-0,156
-474,518	800,000	-0,038	-0,091
-473,503	-26,988	0,052	-0,022
-472,489	182,105	-0,083	0,089
-471,474	-181,566	0,181	0,003
-470,459	-141,814	-0,088	-0,006
-469,445	-200,000	0,009	-0,067
-468,430	-135,547	-0,054	0,005
-467,416	800,000	0,009	-0,020
-466,401	63,843	-0,100	0,073
-465,386	154,252	-0,085	0,085
-464,372	-115,122	-0,034	-0,005
-463,357	-200,000	-0,021	0,074
-462,343	-112,718	-0,189	0,027
-461,328	68,135	-0,083	-0,062
-460,313	36,738	0,090	-0,058
-459,299	-200,000	0,003	-0,020
-458,284	124,171	0,132	0,121
-457,270	171,510	0,072	-0,075
-456,255	-21,446	-0,103	-0,046
-455,241	159,531	-0,022	0,023
-454,226	-102,993	0,102	0,017
-453,211	508,910	0,021	0,036
-452,197	-200,000	0,034	0,149
-451,182	-51,745	0,128	-0,043
-450,168	-26,849	-0,025	0,011
-449,153	139,385	-0,084	-0,080
-448,138	-200,000	0,039	-0,132
-447,124	-152,825	-0,112	-0,006
-446,109	-153,662	0,067	-0,003
-445,095	800,000	0,043	0,097
-444,080	-200,000	0,003	-0,030
-443,065	59,810	0,061	-0,044
-442,051	-9,199	0,032	-0,016
-441,036	375,580	-0,077	0,114
-440,022	-75,519	-0,056	-0,014
-439,007	-61,271	0,092	0,028
-437,992	619,177	-0,077	0,141
-436,978	172,621	0,028	-0,029
-435,963	-200,000	0,003	0,051
-434,949	-200,000	0,008	-0,029
-433,934	-1,459	-0,086	-0,044
-432,919	547,122	0,048	-0,084
-431,905	-200,000	-0,044	-0,220
-430,890	-200,000	0,000	-0,123
-429,876	800,000	-0,045	0,106
-428,861	-30,893	0,063	0,026
-427,846	-76,599	0,082	-0,021
-426,832	260,404	-0,109	-0,138
-425,817	-167,570	-0,062	-0,002
-424,803	265,886	-0,096	-0,123
-423,788	235,221	-0,022	-0,026
-422,773	-200,000	0,005	-0,068
-421,759	127,140	0,081	-0,075
-420,744	-200,000	-0,013	-0,072
-419,730	274,497	-0,063	-0,082
-418,715	800,000	-0,070	-0,170
-417,701	-3,735	-0,118	0,060
-416,686	-200,000	-0,004	0,104
-415,671	800,000	0,026	0,079
-414,657	-66,317	-0,154	-0,044
-413,642	50,657	-0,040	0,028
-412,628	-76,937	0,136	-0,034
-411,613	-200,000	-0,029	-0,127
-410,598	-200,000	0,014	0,049
-409,584	-17,370	0,182	-0,083
-408,569	-99,260	0,101	0,018
-407,555	-200,000	-0,002	-0,049
-406,540	-132,399	-0,141	0,013
-405,525	-200,000	-0,007	-0,076
-404,511	73,957	-0,055	0,042
-403,496	211,561	-0,093	-0,106
-402,482	62,380	0,032	-0,023
-401,467	-146,802	0,085	-0,005
-400,452	-200,000	0,006	0,071
-399,438	-148,344	0,084	0,005
-398,423	800,000	-0,072	-0,171
-397,409	800,000	0,035	-0,077
-396,394	-66,541	0,085	-0,024
-395,379	56,661	-0,058	-0,041
-394,365	274,665	0,079	-0,102
-393,350	201,690	-0,085	-0,095
-392,336	-169,995	0,139	-0,004
-391,321	-200,000	-0,016	0,073
-390,306	-28,464	-0,063	0,026
-389,292	-56,947	-0,056	-0,018
-388,277	800,000	0,022	0,069
-387,263	-200,000	-0,007	0,036
-386,248	553,099	-0,040	0,070
-385,233	-200,000	-0,008	-0,031
-384,219	800,000	0,036	0,105
-383,204	-200,000	0,016	-0,101
-382,190	-200,000	-0,034	-0,119
-381,175	800,000	0,008	0,017
-380,160	323,314	0,081	0,113
-379,146	-200,000	0,025	0,112
-378,131	800,000	0,046	-0,102
-377,117	-121,990	0,059	-0,007
-376,102	102,039	-0,073	-0,062
-375,088	-119,511	-0,061	-0,008
-374,073	-200,000	0,004	-0,095
-373,058	-20,546	0,067	-0,030
-372,044	108,320	-0,037	-0,032
-371,029	-33,571	0,078	0,031
-370,015	51,766	-0,051	0,035
-369,000	115,276	-0,078	0,069
-367,985	-200,000	-0,016	-0,094
-366,971	-46,729	0,036	-0,013
-365,956	-200,000	0,128	-0,000
-364,942	186,995	0,024	-0,026
-363,927	-200,000	0,025	-0,145
-362,912	-200,000	0,135	-0,000
-361,898	74,625	-0,024	-0,019
-360,883	-200,000	-0,015	0,059
-359,869	-200,000	0,004	-0,077
-358,854	-67,513	-0,063	-0,018
-357,839	800,000	0,031	0,065
-356,825	200,874	-0,097	0,109
-355,810	-68,629	0,032	-0,009
-354,796	-51,539	0,112	-0,038
-353,781	-200,000	0,009	-0,032
-352,766	165,806	0,023	0,024
-351,752	-76,958	0,076	0,019
-350,737	800,000	0,049	0,110
-349,723	249,562	0,078	0,096
-348,708	206,516	-0,038	-0,042
-347,693	800,000	0,016	-0,033
-346,679	109,698	0,182	-0,158
-345,664	-196,750	-0,041	-0,000
-344,650	35,678	0,066	0,042
-343,635	-157,882	-0,184	-0,008
-342,620	-131,508	0,052	0,005
-341,606	-100,633	0,071	-0,013
-340,591	-200,000	-0,001	0,050
-339,577	29,663	0,087	-0,054
-338,562	38,463	0,046	-0,030
-337,548	60,623	-0,122	0,088
-336,533	800,000	0,064	-0,169
-335,518	-12,185	-0,077	0,037
-334,504	-54,612	-0,052	-0,017
-333,489	-21,872	0,149	0,065
-332,475	78,940	-0,050	0,039
-331,460	800,000	-0,065	0,140
-330,445	-9,329	0,091	-0,044
-329,431	347,029	0,015	-0,021
-328,416	249,967	0,062	-0,077
-327,402	23,776	0,058	-0,035
-326,387	-15,497	0,072	-0,033
-325,372	-169,643	-0,054	-0,001
-324,358	454,072	0,028	0,045
-323,343	52,278	0,020	-0,014
-322,329	557,094	-0,021	0,037
-321,314	-6,236	-0,046	0,023
-320,299	-92,384	0,115	-0,023
-319,285	343,012	0,076	0,108
-318,270	-56,893	-0,182	0,058
-317,256	800,000	0,034	0,094
-316,241	91,306	-0,058	0,047
-315,226	46,085	-0,066	0,045
-314,212	-200,000	0,044	0,148
-313,197	800,000	0,034	0,069
-312,183	34,336	0,098	0,062
-311,168	330,926	-0,069	-0,097
-310,153	-180,990	-0,117	-0,002
-309,139	-47,867	-0,086	0,030
-308,124	40,992	0,056	-0,037
-307,110	291,678	-0,021	0,028
-306,095	-200,000	-0,005	0,132
-305,080	20,888	-0,094	0,055
-304,066	48,951	-0,110	0,075
-303,051	-200,000	-0,018	-0,083
-302,037	83,276	-0,144	-0,114
-301,022	800,000	-0,052	-0,131
-300,008	126,880	-0,045	0,041
-298,993	-200,000	0,032	-0,116
-297,978	22,174	0,114	0,067
-296,964	93,114	-0,115	0,095
-295,949	-86,308	-0,115	-0,025
-294,935	-200,000	0,031	-0,099
-293,920	-200,000	-0,006	0,026
-292,905	624,525	0,033	-0,060
-291,891	-200,000	-0,089	0,000
-290,876	64,604	0,049	0,036
-289,862	19,505	-0,182	-0,106
-288,847	627,351	0,050	-0,092
-287,832	-200,000	-0,020	-0,072
-286,818	-90,674	-0,032	0,007
-285,803	-66,851	-0,070	0,020
-284,789	800,000	0,059	0,183
-283,774	531,471	0,053	0,090
-282,759	-200,000	-0,007	0,087
-281,745	-25,035	-0,036	0,015
-280,730	800,000	0,006	0,017
-279,716	83,695	0,111	-0,087
-278,701	-61,709	0,083	0,025
-277,686	4,690	0,082	0,043
-276,672	-200,000	-0,019	-0,100
-275,657	-146,156	-0,051	0,003
-274,643	293,152	0,047	0,062
-273,628	-13,810	0,011	-0,005
-272,613	303,850	-0,057	-0,076
-271,599	-200,000	0,007	0,151
-270,584	-114,402	0,070	-0,010
-269,570	-29,740	0,064	0,026
-268,555	-112,209	-0,081	0,012
-267,540	-200,000	-0,008	0,040
-266,526	-18,309	-0,039	-0,017
-265,511	-50,735	0,059	-0,020
-264,497	-68,011	0,125	0,035
-263,482	-200,000	0,003	-0,130
-262,467	-7,528	0,082	0,040
-261,453	-178,356	0,121	-0,002
-260,438	6,960	0,037	-0,020
-259,424	327,900	0,047	-0,065
-258,409	261,687	-0,118	0,148
-257,395	286,706	-0,016	-0,021
-256,380	800,000	-0,015	-0,033
-255,365	-200,000	-0,013	-0,089
-254,351	-91,644	0,095	0,019
-253,336	-76,375	0,078	0,020
-252,322	270,596	-0,057	0,072
-251,307	-200,000	0,042	-0,172
-250,292	34,951	0,131	-0,083
-249,278	-110,181	0,133	-0,020
-248,263	333,566	0,080	0,112
-247,249	-200,000	-0,001	-0,037
-246,234	-200,000	-0,024	0,082
-245,219	800,000	-0,017	0,045
-244,205	425,200	-0,013	-0,020
-243,190	-35,131	0,063	0,025
-242,176	-41,747	0,111	-0,041
-241,161	476,893	-0,020	0,033
-240,146	491,030	0,034	0,057
-239,132	-52,312	0,074	0,025
-238,117	312,026	-0,010	-0,013
-237,103	-38,857	-0,193	-0,073
-236,088	737,981	-0,061	-0,118
-235,073	190,737	-0,021	0,023
-234,059	52,471	-0,067	0,046
-233,044	-200,000	0,005	0,044
-232,030	-119,046	-0,049	-0,006
-231,015	-101,978	-0,160	-0,028
-230,000	-162,545	-0,025	0,001
-228,986	238,566	0,118	-0,142
-227,971	481,369	0,067	-0,110
-226,957	-9,828	0,079	0,038
-225,942	-140,110	0,076	-0,006
-224,927	-155,509	-0,018	0,001
-223,913	800,000	-0,027	-0,057
-222,898	721,841	-0,046	0,089
-221,884	206,452	0,038	-0,043
-220,869	-200,000	0,030	0,211
-219,855	-200,000	0,021	0,222
-218,840	-200,000	-0,031	0,202
-217,825	-200,000	0,018	-0,069
-216,811	204,624	0,086	0,097
-215,796	-42,800	-0,099	-0,036
-214,782	-200,000	0,007	0,132
-213,767	109,108	0,063	0,054
-212,752	153,087	-0,066	-0,065
-211,738	369,600	0,010	-0,015
-210,723	252,216	0,039	0,047
-209,709	95,405	0,030	0,025
-208,694	-200,000	0,003	0,037
-207,679	-200,000	-0,017	-0,093
-206,665	-200,000	0,001	0,027
-205,650	103,736	-0,035	0,030
-204,636	-200,000	-0,020	0,105
-203,621	-200,000	0,001	-0,043
-202,606	-56,548	-0,104	-0,033
-201,592	-9,140	-0,036	0,017
-200,577	11,512	-0,147	-0,081
-199,563	-200,000	0,028	0,099
-198,548	800,000	0,038	0,107
-197,533	-73,316	-0,110	-0,029
-196,519	574,376	0,033	0,059
-195,504	-105,600	0,074	-0,012
-194,490	-200,000	-0,009	-0,086
-193,475	-83,972	-0,097	0,022
-192,460	6,503	-0,144	-0,077
-191,446	-200,000	0,007	0,105
-190,431	-200,000	0,029	-0,097
-189,417	800,000	0,024	-0,066
-188,402	-200,000	-0,033	-0,175
-187,387	800,000	0,025	-0,078
-186,373	-200,000	-0,010	-0,097
-185,358	-41,032	0,064	-0,024
-184,344	800,000	0,044	-0,117
-183,329	-200,000	-0,012	0,142
-182,315	-200,000	-0,002	0,019
-181,300	621,156	-0,085	-0,156
-180,285	460,113	-0,036	-0,059
-179,271	6,590	-0,037	-0,020
-178,256	-200,000	0,015	-0,056
-177,242	-103,096	-0,113	0,019
-176,227	-200,000	0,002	0,128
-175,212	-165,955	-0,064	-0,002
-174,198	7,734	-0,158	0,085
-173,183	-141,043	0,134	0,010
-172,169	47,245	0,051	-0,034
-171,154	-115,377	-0,058	-0,008
-170,139	-23,712	0,102	-0,044
-169,125	217,218	0,077	0,089
-168,110	800,000	0,033	0,084
-167,096	-200,000	-0,012	0,082
-166,081	-200,000	-0,010	0,093
-165,066	200,902	0,016	0,018
-164,052	-200,000	0,009	-0,152
-163,037	126,193	0,141	-0,129
-162,023	-197,229	0,087	0,000
-161,008	198,854	0,038	0,042
-159,993	140,963	0,042	-0,040
-158,979	155,159	-0,071	-0,071
-157,964	229,933	0,043	-0,050
-156,950	104,677	-0,033	-0,028
-155,935	-126,601	-0,048	0,005
-154,920	-3,507	0,058	-0,029
-153,906	116,064	-0,063	-0,056
-152,891	-200,000	-0,020	0,069
-151,877	134,384	-0,081	-0,076
-150,862	800,000	0,037	-0,079
-149,847	5,609	-0,119	0,063
-148,833	-101,173	0,059	-0,010
-147,818	-164,593	0,053	0,002
-146,804	-16,173	0,084	0,038
-145,789	-113,831	0,038	0,005
-144,775	314,660	-0,070	-0,095
-143,760	666,491	-0,079	0,147
-142,745	-158,701	-0,095	-0,004
-141,731	193,116	0,079	-0,086
-140,716	209,338	-0,081	0,091
-139,702	800,000	0,055	-0,118
-138,687	-200,000	-0,011	0,087
-137,672	-200,000	0,003	0,031
-136,658	-200,000	-0,022	-0,081
-135,643	-66,382	0,056	0,016
-134,629	-24,756	0,065	-0,028
-133,614	-62,529	0,043	-0,013
-132,599	76,741	0,045	-0,035
-131,585	268,733	0,083	-0,106
-130,570	54,547	-0,061	-0,042
-129,556	-35,501	-0,067	0,026
-128,541	324,656	0,046	-0,064
-127,526	800,000	-0,056	0,147
-126,512	19,587	0,044	-0,026
-125,497	-53,115	0,093	0,030
-124,483	-200,000	0,001	0,066
-123,468	-116,212	-0,098	-0,013
-122,453	-200,000	-0,024	-0,084
-121,439	-51,114	-0,064	-0,021
-120,424	-35,387	0,117	-0,045
-119,410	800,000	-0,025	-0,054
