DTS Sentinel unit serial number:	SN410029Multiplexer serial number:	ORYXHardware model number:	OX2-SRSoftware version number:	ORYX F/W v4,00 Oryx Data Collector v3.7.2.0data status	okinstallation	B3 Nyhavnadifferential loss correction	single-endedforward channel	channel 1reverse channel	N/Adate	2023/11/28time	13:47:30forward acquisition time	300,00reverse acquisition time	0,00gamma	499,1914k internal	0,3138k external	0,3138temperature offset calibration	1,0000default loss term (dB/km)	0,3820temperature slope calibration	1,0000multiplexer offset coefficient	1,0000multiplexer slope coefficient	1,0000fibre end	0,00T internal ref (°C)	7,70T ext. ref 1 (°C)	-7,59T ext. ref 2 (°C)	-7,76length (m)	temperature (°C)	Stokes	anti-Stokes-744,400	272,268	-0,272	-0,356
-743,385	482,488	-0,129	0,218
-742,371	541,079	-0,138	-0,245
-741,356	-200,000	0,055	0,296
-740,342	323,777	-0,193	-0,274
-739,327	800,000	0,073	0,210
-738,312	261,744	-0,347	-0,447
-737,298	-200,000	-0,029	0,214
-736,283	244,017	-0,221	-0,275
-735,269	-200,000	0,044	0,314
-734,254	230,683	-0,227	-0,276
-733,239	-115,017	-0,159	-0,022
-732,225	313,423	-0,152	-0,212
-731,210	188,611	0,100	0,112
-730,196	724,330	-0,035	-0,070
-729,181	-155,645	-0,040	-0,002
-728,167	298,365	-0,063	-0,087
-727,152	-25,003	-0,085	0,037
-726,137	-200,000	-0,016	-0,087
-725,123	-0,544	-0,144	-0,076
-724,108	-200,000	-0,013	-0,080
-723,094	323,432	-0,079	-0,112
-722,079	98,962	-0,082	-0,070
-721,064	44,685	0,067	0,046
-720,050	110,376	-0,061	-0,054
-719,035	-24,925	-0,044	-0,019
-718,021	-200,000	0,014	0,091
-717,006	44,259	-0,128	-0,087
-715,991	57,924	-0,135	-0,098
-714,977	772,198	0,029	-0,060
-713,962	23,053	-0,030	0,018
-712,948	-35,296	0,029	-0,012
-711,933	232,261	-0,101	0,123
-710,918	234,059	-0,085	-0,104
-709,904	-93,336	-0,005	0,001
-708,889	-200,000	-0,040	-0,199
-707,875	-200,000	0,089	0,000
-706,860	800,000	0,032	-0,068
-705,845	800,000	-0,099	0,207
-704,831	-121,518	0,098	0,012
-703,816	-200,000	-0,008	-0,045
-702,802	800,000	-0,051	-0,119
-701,787	-106,436	-0,060	0,010
-700,772	607,699	-0,014	-0,026
-699,758	-45,214	0,114	-0,042
-698,743	-200,000	-0,011	-0,043
-697,729	-75,351	0,101	0,027
-696,714	800,000	-0,048	0,100
-695,699	-45,291	-0,084	-0,031
-694,685	-200,000	-0,013	0,135
-693,670	66,903	-0,120	0,090
-692,656	319,298	-0,048	-0,068
-691,641	244,839	0,028	-0,035
-690,627	-86,122	-0,036	-0,008
-689,612	-32,408	0,032	0,013
-688,597	111,726	-0,145	0,129
-687,583	-200,000	0,008	-0,098
-686,568	-200,000	-0,015	-0,119
-685,554	-45,872	-0,015	-0,006
-684,539	-200,000	0,005	0,033
-683,524	210,585	0,083	0,096
-682,510	-200,000	-0,019	-0,074
-681,495	119,151	-0,089	-0,081
-680,481	188,039	-0,070	-0,077
-679,466	210,269	0,075	-0,088
-678,451	-30,135	-0,052	-0,022
-677,437	89,434	-0,046	-0,038
-676,422	47,831	-0,010	0,007
-675,408	-53,048	-0,088	-0,030
-674,393	-116,688	0,186	0,025
-673,378	-48,991	-0,067	0,024
-672,364	-200,000	-0,000	-0,113
-671,349	800,000	-0,065	-0,147
-670,335	596,072	0,059	0,109
-669,320	442,090	-0,028	0,045
-668,305	-200,000	0,015	-0,148
-667,291	-165,269	-0,058	0,002
-666,276	-200,000	-0,019	-0,072
-665,262	-179,258	-0,056	0,001
-664,247	216,023	0,104	0,123
-663,232	21,770	-0,151	0,091
-662,218	528,942	0,027	-0,047
-661,203	18,489	0,077	-0,045
-660,189	800,000	-0,034	0,080
-659,174	-22,933	-0,059	0,026
-658,159	-151,274	-0,127	0,007
-657,145	0,869	0,054	-0,028
-656,130	-16,566	0,081	0,038
-655,116	300,110	0,077	0,105
-654,101	498,069	-0,033	0,057
-653,086	114,119	-0,126	-0,113
-652,072	-200,000	0,002	0,030
-651,057	298,214	-0,087	-0,118
-650,043	-139,539	-0,089	-0,007
-649,028	441,528	0,054	-0,088
-648,014	-17,214	0,100	-0,047
-646,999	26,623	0,090	-0,056
-645,984	-174,256	0,047	-0,001
-644,970	-200,000	-0,027	-0,146
-643,955	52,283	-0,103	-0,073
-642,941	-16,806	-0,061	0,028
-641,926	-126,682	-0,054	0,006
-640,911	-41,363	0,045	-0,017
-639,897	800,000	0,049	0,104
-638,882	800,000	0,022	-0,047
-637,868	-150,621	-0,142	-0,008
-636,853	-200,000	0,020	-0,071
-635,838	71,608	-0,087	-0,067
-634,824	259,797	-0,034	-0,043
-633,809	-82,315	-0,073	0,017
-632,795	-200,000	-0,025	0,088
-631,780	579,447	0,042	0,077
-630,765	143,444	-0,065	-0,063
-629,751	98,912	0,052	0,044
-628,736	-24,532	-0,128	-0,056
-627,722	149,358	-0,042	-0,042
-626,707	-114,809	0,094	-0,013
-625,692	800,000	0,044	0,107
-624,678	-200,000	0,000	0,187
-623,663	-54,982	-0,060	0,020
-622,649	800,000	0,026	0,059
-621,634	800,000	-0,041	-0,097
-620,619	263,835	-0,103	-0,132
-619,605	81,238	0,110	0,087
-618,590	-65,005	-0,039	-0,012
-617,576	-101,012	0,051	-0,009
-616,561	-200,000	-0,015	-0,142
-615,546	-200,000	-0,008	-0,092
-614,532	509,434	-0,025	0,042
-613,517	-200,000	-0,003	-0,042
-612,503	752,782	0,051	-0,102
-611,488	298,027	0,021	-0,028
-610,474	-200,000	-0,016	-0,132
-609,459	100,165	0,140	-0,120
-608,444	475,357	-0,053	-0,089
-607,430	800,000	0,031	-0,082
-606,415	-200,000	0,003	-0,078
-605,401	-177,590	-0,147	0,003
-604,386	-36,321	0,111	-0,044
-603,371	-56,237	-0,038	-0,012
-602,357	-200,000	-0,013	-0,061
-601,342	-200,000	-0,005	0,044
-600,328	800,000	0,049	-0,141
-599,313	-200,000	0,015	0,069
-598,298	33,861	-0,035	-0,023
-597,284	-23,034	-0,090	0,040
-596,269	251,863	-0,045	-0,057
-595,255	21,197	-0,173	0,103
-594,240	437,892	0,037	-0,060
-593,225	303,461	-0,058	-0,080
-592,211	800,000	0,030	-0,088
-591,196	-56,038	0,083	0,027
-590,182	-200,000	-0,015	0,057
-589,167	-200,000	-0,014	0,084
-588,152	-200,000	0,058	0,214
-587,138	-138,549	0,042	0,003
-586,123	-54,797	-0,047	-0,016
-585,109	-38,737	0,043	0,017
-584,094	47,605	0,201	-0,138
-583,079	272,965	-0,057	-0,075
-582,065	-100,688	0,068	-0,012
-581,050	-49,490	0,098	-0,034
-580,036	102,159	0,032	-0,028
-579,021	89,035	-0,023	-0,019
-578,006	381,467	-0,046	-0,070
-576,992	-200,000	-0,003	-0,229
-575,977	76,962	-0,034	-0,027
-574,963	800,000	0,025	-0,065
-573,948	800,000	-0,043	-0,106
-572,934	28,237	0,063	-0,039
-571,919	-61,680	-0,133	-0,041
-570,904	800,000	-0,021	0,055
-569,890	-53,982	-0,078	0,026
-568,875	310,915	0,095	0,132
-567,861	-16,132	0,097	0,045
-566,846	-21,981	0,080	0,036
-565,831	800,000	0,019	0,052
-564,817	385,801	-0,105	-0,160
-563,802	-21,132	-0,076	0,034
-562,788	-89,220	-0,140	0,030
-561,773	800,000	-0,048	-0,156
-560,758	-200,000	0,023	0,080
-559,744	-200,000	0,010	0,205
-558,729	36,676	-0,108	0,070
-557,715	-22,827	-0,104	-0,046
-556,700	64,005	-0,075	-0,055
-555,685	-38,027	-0,061	-0,024
-554,671	105,481	0,099	-0,086
-553,656	-148,508	0,057	0,003
-552,642	259,131	-0,033	-0,042
-551,627	64,935	-0,040	0,030
-550,612	-88,439	0,014	-0,003
-549,598	109,059	-0,101	0,089
-548,583	24,094	-0,146	-0,089
-547,569	33,614	-0,065	-0,041
-546,554	217,727	-0,038	-0,045
-545,539	800,000	-0,030	-0,069
-544,525	537,151	-0,071	-0,125
-543,510	-200,000	0,017	0,135
-542,496	800,000	-0,044	-0,136
-541,481	-200,000	-0,068	-0,230
-540,466	800,000	0,036	-0,084
-539,452	384,799	-0,074	0,112
-538,437	-72,626	0,103	0,028
-537,423	149,076	-0,031	0,030
-536,408	-200,000	-0,008	-0,131
-535,393	-61,687	0,023	0,007
-534,379	-200,000	-0,003	-0,043
-533,364	-49,614	-0,025	0,009
-532,350	265,629	0,143	0,184
-531,335	-126,551	-0,058	-0,006
-530,321	46,628	-0,079	-0,054
-529,306	-200,000	-0,007	-0,095
-528,291	-64,719	0,056	0,017
-527,277	425,680	0,033	0,053
-526,262	86,598	0,039	-0,031
-525,248	-118,843	0,073	-0,009
-524,233	-200,000	0,003	-0,033
-523,218	-40,100	-0,084	0,032
-522,204	701,222	-0,048	0,092
-521,189	229,900	-0,038	-0,046
-520,175	27,193	0,086	0,053
-519,160	432,929	0,047	0,076
-518,145	-200,000	0,034	0,139
-517,131	81,858	0,076	0,060
-516,116	-112,393	0,095	0,014
-515,102	57,039	0,041	-0,029
-514,087	-200,000	-0,002	-0,039
-513,072	71,905	-0,019	0,015
-512,058	23,174	0,043	0,026
-511,043	54,561	-0,061	-0,043
-510,029	148,317	-0,013	-0,013
-509,014	-200,000	-0,037	0,131
-507,999	-200,000	-0,012	-0,044
-506,985	417,562	-0,100	-0,157
-505,970	-135,251	-0,069	0,006
-504,956	-46,998	-0,112	0,040
-503,941	-135,527	0,071	-0,006
-502,926	684,449	0,050	0,096
-501,912	800,000	0,067	0,140
-500,897	530,709	0,077	0,134
-499,883	-4,484	-0,097	0,049
-498,868	-52,904	0,055	-0,019
-497,853	51,753	-0,104	0,073
-496,839	111,357	0,061	0,054
-495,824	174,388	-0,053	0,056
-494,810	-200,000	0,003	0,105
-493,795	-200,000	0,019	0,196
-492,781	645,033	-0,021	0,039
-491,766	-200,000	0,006	0,094
-490,751	89,209	-0,064	-0,053
-489,737	-73,517	0,046	0,012
-488,722	113,059	0,074	0,066
-487,708	-200,000	0,010	0,112
-486,693	-114,163	0,090	-0,013
-485,678	278,896	-0,032	0,042
-484,664	55,368	-0,073	-0,052
-483,649	-164,318	-0,040	-0,001
-482,635	4,009	-0,019	-0,010
-481,620	118,649	-0,111	0,101
-480,605	-200,000	0,017	-0,070
-479,591	38,158	0,119	-0,077
-478,576	63,775	0,126	0,093
-477,562	100,475	0,023	-0,019
-476,547	575,225	0,107	-0,192
-475,532	35,002	-0,094	-0,060
-474,518	163,316	-0,033	0,034
-473,503	-200,000	0,004	0,110
-472,489	-200,000	0,001	0,019
-471,474	-61,985	-0,123	-0,037
-470,459	-200,000	-0,007	-0,028
-469,445	293,339	0,080	-0,107
-468,430	-200,000	-0,005	-0,037
-467,416	23,224	0,178	-0,107
-466,401	-200,000	-0,030	0,139
-465,386	-41,792	0,200	-0,075
-464,372	-81,701	0,140	-0,033
-463,357	-32,826	-0,080	-0,032
-462,343	-54,796	-0,073	-0,024
-461,328	-45,520	-0,111	-0,040
-460,313	-200,000	-0,010	0,064
-459,299	114,909	0,049	0,044
-458,284	60,787	0,177	0,129
-457,270	-63,223	-0,094	-0,028
-456,255	294,091	-0,122	-0,163
-455,241	-31,148	0,112	0,046
-454,226	-200,000	-0,008	-0,069
-453,211	-59,943	-0,136	0,042
-452,197	-200,000	-0,008	-0,026
-451,182	800,000	0,007	-0,017
-450,168	800,000	0,045	0,130
-449,153	299,081	-0,015	-0,021
-448,138	191,564	0,068	-0,076
-447,124	-5,168	-0,068	-0,034
-446,109	800,000	0,039	0,120
-445,095	-200,000	-0,018	-0,071
-444,080	-55,416	0,168	0,055
-443,065	-200,000	0,026	0,131
-442,051	-200,000	0,008	0,060
-441,036	657,722	-0,031	0,059
-440,022	-200,000	0,000	-0,161
-439,007	100,739	0,050	0,043
-437,992	-125,481	0,040	0,004
-436,978	728,980	0,030	0,058
-435,963	800,000	-0,023	0,053
-434,949	-83,160	0,101	-0,024
-433,934	127,634	-0,059	-0,055
-432,919	530,507	0,042	0,073
-431,905	800,000	-0,040	-0,095
-430,890	681,965	-0,012	0,023
-429,876	-200,000	-0,018	0,063
-428,861	-200,000	-0,012	0,056
-427,846	-200,000	-0,029	0,225
-426,832	-120,754	0,059	0,007
-425,817	800,000	0,062	-0,127
-424,803	-200,000	0,006	-0,026
-423,788	-59,524	0,119	-0,037
-422,773	-9,374	0,055	-0,027
-421,759	245,079	0,068	0,083
-420,744	-126,502	-0,190	0,020
-419,730	388,703	-0,037	0,056
-418,715	-200,000	0,014	-0,048
-417,701	-200,000	0,010	-0,108
-416,686	726,438	-0,054	-0,106
-415,671	-200,000	0,020	0,119
-414,657	800,000	0,018	0,045
-413,642	-167,052	-0,053	0,002
-412,628	94,223	0,042	0,035
-411,613	65,433	-0,083	-0,061
-410,598	800,000	0,023	-0,062
-409,584	192,611	0,065	-0,072
-408,569	214,884	-0,059	-0,068
-407,555	354,585	0,068	-0,100
-406,540	-180,413	0,086	0,001
-405,525	-101,405	-0,103	-0,018
-404,511	-200,000	0,012	-0,125
-403,496	-200,000	0,005	-0,133
-402,482	-52,471	0,138	-0,046
-401,467	60,456	-0,078	0,057
-400,452	98,314	-0,050	0,042
-399,438	225,821	-0,007	-0,008
-398,423	-200,000	0,002	0,112
-397,409	-200,000	-0,020	0,069
-396,394	-84,912	-0,092	-0,021
-395,379	-200,000	-0,010	0,037
-394,365	-7,751	0,071	-0,035
-393,350	73,018	0,123	0,094
-392,336	-2,010	-0,111	0,057
-391,321	109,208	-0,114	0,100
-390,306	800,000	0,016	-0,051
-389,292	-123,548	0,035	-0,004
-388,277	-60,912	0,116	0,036
-387,263	42,624	0,009	0,006
-386,248	97,591	-0,059	-0,050
-385,233	306,104	0,026	-0,036
-384,219	-200,000	-0,012	-0,041
-383,204	105,932	-0,152	0,131
-382,190	123,315	0,106	-0,098
-381,175	-151,048	0,076	0,004
-380,160	154,380	0,067	0,067
-379,146	-200,000	-0,010	0,133
-378,131	758,431	0,010	-0,021
-377,117	-200,000	0,018	0,120
-376,102	-200,000	-0,004	0,047
-375,088	-57,472	-0,204	-0,065
-374,073	-49,236	-0,112	0,039
-373,058	-200,000	-0,019	0,116
-372,044	-85,506	0,130	0,029
-371,029	-37,371	-0,170	0,066
-370,015	116,282	0,017	0,015
-369,000	-200,000	-0,017	-0,129
-367,985	800,000	0,027	-0,082
-366,971	-87,270	-0,183	-0,040
-365,956	512,757	-0,070	-0,120
-364,942	-200,000	-0,014	0,077
-363,927	-179,754	-0,034	0,001
-362,912	-200,000	0,025	0,135
-361,898	-20,825	0,046	-0,021
-360,883	800,000	-0,051	-0,125
-359,869	-176,888	0,101	0,002
-358,854	36,841	-0,085	0,055
-357,839	107,251	-0,068	0,059
-356,825	-35,364	0,114	-0,045
-355,810	800,000	-0,023	0,066
-354,796	800,000	0,020	-0,047
-353,781	800,000	0,035	-0,103
-352,766	132,449	0,070	0,066
-351,752	109,452	-0,101	0,088
-350,737	-91,871	0,155	-0,032
-349,723	800,000	-0,058	0,125
-348,708	230,848	-0,118	0,142
-347,693	-200,000	-0,006	-0,083
-346,679	-200,000	-0,009	0,097
-345,664	-37,869	-0,104	0,040
-344,650	800,000	-0,025	0,067
-343,635	800,000	0,048	0,150
-342,620	-200,000	0,016	0,074
-341,606	-200,000	-0,045	0,174
-340,591	691,115	0,036	-0,070
-339,577	800,000	0,034	-0,072
-338,562	193,138	-0,057	0,063
-337,548	535,393	0,057	0,099
-336,533	-200,000	0,002	-0,009
-335,518	22,125	0,185	0,110
-334,504	800,000	-0,022	-0,057
-333,489	-200,000	0,010	-0,056
-332,475	800,000	-0,037	-0,076
-331,460	-200,000	0,021	-0,078
-330,445	45,116	-0,119	0,080
-329,431	129,010	0,115	-0,107
-328,416	257,820	0,040	0,051
-327,402	127,956	0,194	-0,180
-326,387	-71,687	-0,120	-0,032
-325,372	102,981	0,027	-0,023
-324,358	482,580	-0,138	-0,230
-323,343	-159,621	-0,185	0,007
-322,329	-59,679	0,077	0,024
-321,314	800,000	0,049	-0,101
-320,299	-50,581	0,048	-0,016
-319,285	-28,350	-0,108	0,045
-318,270	537,227	-0,062	0,109
-317,256	64,501	0,083	-0,061
-316,241	-200,000	-0,019	0,095
-315,226	562,897	0,048	0,084
-314,212	226,071	-0,013	0,015
-313,197	2,239	0,045	-0,023
-312,183	-117,501	-0,054	-0,007
-311,168	-114,472	0,050	0,007
-310,153	174,494	0,065	0,069
-309,139	393,652	-0,026	-0,040
-308,124	800,000	-0,100	0,208
-307,110	-200,000	-0,003	0,009
-306,095	-141,259	0,149	-0,011
-305,080	-200,000	0,002	-0,015
-304,066	-148,057	-0,128	-0,008
-303,051	73,032	-0,069	0,052
-302,037	-200,000	0,004	0,083
-301,022	-147,654	-0,039	0,002
-300,008	-200,000	-0,000	0,007
-298,993	410,048	-0,061	0,095
-297,978	800,000	0,021	-0,050
-296,964	-166,483	-0,104	0,003
-295,949	-129,848	-0,217	-0,021
-294,935	682,027	-0,040	-0,076
-293,920	800,000	0,020	-0,055
-292,905	-65,198	0,243	-0,071
-291,891	387,269	0,051	0,078
-290,876	-112,299	-0,008	-0,001
-289,862	424,359	-0,085	0,134
-288,847	186,628	-0,044	0,047
-287,832	127,148	0,074	-0,069
-286,818	-200,000	0,004	-0,019
-285,803	275,290	0,100	-0,130
-284,789	-46,801	0,059	0,021
-283,774	-132,639	0,075	-0,007
-282,759	-200,000	0,014	-0,062
-281,745	22,591	0,042	-0,025
-280,730	153,661	-0,072	-0,071
-279,716	142,994	-0,060	0,058
-278,701	800,000	-0,027	0,083
-277,686	-200,000	0,053	0,215
-276,672	-200,000	0,004	0,056
-275,657	-153,376	0,106	-0,005
-274,643	564,932	0,061	-0,109
-273,628	-36,011	0,023	-0,009
-272,613	-200,000	0,020	-0,115
-271,599	23,321	0,167	-0,100
-270,584	-153,235	-0,093	0,005
-269,570	-61,814	0,065	0,020
-268,555	-90,338	-0,053	0,011
-267,540	-141,436	0,051	0,004
-266,526	-80,976	-0,097	0,023
-265,511	-200,000	0,025	-0,092
-264,497	127,810	-0,023	-0,021
-263,482	574,087	0,053	0,095
-262,467	800,000	0,075	0,201
-261,453	549,117	0,012	0,021
-260,438	-13,666	0,029	0,013
-259,424	-76,018	-0,118	0,030
-258,409	-200,000	-0,005	-0,029
-257,395	164,423	0,081	-0,083
-256,380	84,913	-0,106	-0,084
-255,365	-129,400	0,089	-0,009
-254,351	90,274	0,016	0,013
-253,336	2,298	-0,040	0,021
-252,322	221,267	0,075	-0,087
-251,307	-65,091	-0,099	-0,029
-250,292	752,861	0,035	0,070
-249,278	-50,598	-0,037	-0,013
-248,263	419,957	-0,015	-0,023
-247,249	448,848	0,030	0,048
-246,234	510,132	0,057	0,097
-245,219	-48,543	0,087	-0,030
-244,205	-24,593	0,146	-0,063
-243,190	-86,660	0,110	0,024
-242,176	-200,000	0,030	-0,148
-241,161	31,963	0,024	-0,015
-240,146	147,990	-0,065	0,064
-239,132	426,788	-0,033	-0,052
-238,117	-79,980	0,114	0,028
-237,103	581,623	0,031	0,055
-236,088	-200,000	-0,021	-0,071
-235,073	-200,000	0,011	-0,081
-234,059	328,713	0,055	0,077
-233,044	800,000	0,032	0,081
-232,030	335,211	-0,093	0,131
-231,015	364,937	-0,061	-0,089
-230,000	-10,484	-0,029	-0,014
-228,986	800,000	0,064	0,133
-227,971	321,022	-0,054	0,075
-226,957	27,970	0,117	0,072
-225,942	-95,496	-0,084	-0,016
-224,927	122,402	-0,072	0,066
-223,913	397,939	-0,022	-0,034
-222,898	330,625	-0,072	-0,101
-221,884	198,320	0,092	-0,102
-220,869	800,000	0,014	-0,041
-219,855	-77,285	0,136	0,034
-218,840	800,000	-0,030	-0,067
-217,825	-135,089	-0,084	0,007
-216,811	210,834	0,097	-0,111
-215,796	-41,605	0,078	0,029
-214,782	455,259	-0,016	0,026
-213,767	-40,428	-0,073	-0,027
-212,752	181,546	0,083	0,088
-211,738	66,074	-0,036	0,027
-210,723	-141,930	-0,076	0,005
-209,709	0,299	-0,140	0,073
-208,694	-200,000	-0,012	-0,113
-207,679	368,094	0,043	-0,063
-206,665	1,057	-0,017	-0,009
-205,650	800,000	-0,033	0,095
-204,636	145,627	0,174	0,169
-203,621	-200,000	0,016	-0,052
-202,606	800,000	-0,050	-0,153
-201,592	126,724	-0,061	0,056
-200,577	31,065	-0,121	-0,075
-199,563	-49,512	0,075	-0,026
-198,548	-200,000	0,017	0,085
-197,533	13,762	0,105	0,059
-196,519	146,266	-0,109	0,106
-195,504	-200,000	-0,020	0,097
-194,490	-200,000	0,008	-0,083
-193,475	-46,831	-0,145	0,051
-192,460	276,749	0,067	0,087
-191,446	-28,337	-0,067	0,028
-190,431	677,780	0,066	-0,125
-189,417	122,477	-0,021	-0,019
-188,402	-55,839	0,107	0,034
-187,387	800,000	-0,058	-0,177
-186,373	800,000	-0,043	-0,119
-185,358	-67,528	-0,046	0,013
-184,344	800,000	0,024	0,052
-183,329	800,000	0,041	-0,102
-182,315	-200,000	0,049	-0,189
-181,300	-148,372	-0,070	-0,004
-180,285	800,000	0,100	-0,209
-179,271	124,680	0,054	0,049
-178,256	24,336	-0,042	-0,025
-177,242	-77,399	0,111	-0,028
-176,227	-200,000	-0,017	0,194
-175,212	-200,000	-0,001	0,071
-174,198	800,000	0,010	-0,022
-173,183	-3,376	-0,075	0,038
-172,169	-200,000	0,024	-0,185
-171,154	-200,000	-0,000	0,062
-170,139	655,197	-0,014	0,026
-169,125	800,000	-0,042	0,097
-168,110	62,224	-0,133	0,096
-167,096	194,250	-0,022	0,025
-166,081	-109,793	0,126	-0,019
-165,066	212,806	-0,117	-0,134
-164,052	427,110	0,054	0,085
-163,037	-8,909	0,086	0,042
-162,023	767,109	0,041	0,080
-161,008	-78,203	0,137	0,034
-159,993	-97,974	-0,078	0,014
-158,979	-200,000	-0,009	-0,145
-157,964	-200,000	-0,003	-0,018
-156,950	4,394	-0,033	-0,018
-155,935	190,932	0,087	0,095
-154,920	101,838	0,087	0,074
-153,906	-120,806	-0,075	0,009
-152,891	-125,583	-0,088	0,010
-151,877	-70,665	0,062	-0,017
-150,862	-200,000	0,024	-0,087
-149,847	-163,983	-0,068	-0,002
-148,833	43,796	0,074	-0,049
-147,818	-200,000	-0,030	0,169
-146,804	-200,000	-0,017	-0,108
-145,789	274,669	0,063	-0,081
-144,775	-200,000	0,009	-0,110
-143,760	162,220	0,073	-0,074
-142,745	61,708	0,040	0,029
-141,731	53,284	-0,072	-0,050
-140,716	-200,000	0,046	-0,167
-139,702	-7,692	0,196	0,096
-138,687	-200,000	0,001	-0,005
-137,672	-61,605	-0,209	0,063
-136,658	117,446	-0,046	-0,041
-135,643	484,299	-0,074	-0,122
-134,629	113,921	-0,024	-0,021
-133,614	-118,942	0,143	0,018
-132,599	-200,000	-0,001	0,189
-131,585	261,037	-0,067	-0,084
-130,570	-200,000	0,018	0,061
-129,556	311,801	-0,104	0,142
-128,541	800,000	-0,029	-0,076
-127,526	-200,000	0,013	0,063
-126,512	-139,762	-0,082	0,006
-125,497	-33,022	0,092	-0,037
-124,483	133,966	0,058	0,054
-123,468	-145,115	-0,044	0,003
-122,453	-200,000	0,014	-0,113
-121,439	164,145	-0,044	-0,044
-120,424	-165,032	-0,059	-0,002
