DTS Sentinel unit serial number:	SN410029Multiplexer serial number:	ORYXHardware model number:	OX2-SRSoftware version number:	ORYX F/W v4,00 Oryx Data Collector v3.7.2.0data status	okinstallation	B3 Nyhavnadifferential loss correction	single-endedforward channel	channel 1reverse channel	N/Adate	2023/11/28time	15:42:30forward acquisition time	300,00reverse acquisition time	0,00gamma	499,1914k internal	0,3192k external	0,3192temperature offset calibration	1,0000default loss term (dB/km)	0,3820temperature slope calibration	1,0000multiplexer offset coefficient	1,0000multiplexer slope coefficient	1,0000fibre end	0,00T internal ref (°C)	7,27T ext. ref 1 (°C)	-7,61T ext. ref 2 (°C)	-7,77length (m)	temperature (°C)	Stokes	anti-Stokes-744,400	800,000	-0,159	-0,322
-743,385	-200,000	-0,033	0,265
-742,371	359,779	-0,050	-0,073
-741,356	-200,000	-0,007	0,144
-740,342	20,296	-0,255	-0,150
-739,327	-200,000	-0,024	0,190
-738,312	169,171	-0,170	-0,177
-737,298	-200,000	-0,015	0,159
-736,283	289,718	-0,188	-0,249
-735,269	-200,000	-0,022	0,328
-734,254	184,924	-0,142	-0,153
-733,239	-156,435	-0,244	0,011
-732,225	-200,000	-0,003	-0,276
-731,210	129,487	0,091	0,085
-730,196	-55,925	-0,049	0,016
-729,181	-200,000	0,054	-0,191
-728,167	-46,379	-0,111	0,040
-727,152	800,000	0,025	0,075
-726,137	135,423	0,057	0,054
-725,123	-50,251	-0,130	0,044
-724,108	800,000	-0,042	-0,128
-723,094	-116,868	-0,126	-0,017
-722,079	388,641	-0,098	-0,149
-721,064	-119,231	0,049	-0,006
-720,050	504,755	-0,053	0,090
-719,035	75,747	-0,096	0,074
-718,021	-200,000	0,009	-0,069
-717,006	53,092	-0,177	-0,123
-715,991	-200,000	-0,041	-0,163
-714,977	800,000	-0,038	-0,118
-713,962	698,138	0,053	-0,102
-712,948	133,194	0,066	0,062
-711,933	-81,100	-0,095	-0,023
-710,918	-25,790	-0,092	0,039
-709,904	-136,323	0,056	-0,005
-708,889	752,477	0,048	0,095
-707,875	181,714	0,046	-0,049
-706,860	-6,842	0,128	-0,063
-705,845	800,000	-0,069	0,143
-704,831	502,203	-0,048	0,081
-703,816	96,192	-0,042	-0,035
-702,802	-141,564	0,109	0,008
-701,787	-200,000	0,034	-0,153
-700,772	-200,000	0,035	-0,187
-699,758	-64,064	-0,041	-0,012
-698,743	-200,000	-0,029	0,111
-697,729	-72,452	0,032	0,009
-696,714	-98,435	-0,086	-0,016
-695,699	-92,073	-0,163	0,033
-694,685	-200,000	0,002	-0,090
-693,670	90,286	0,078	-0,063
-692,656	37,329	0,021	0,014
-691,641	356,842	-0,078	0,113
-690,627	7,718	0,064	-0,035
-689,612	-200,000	0,013	-0,059
-688,597	-200,000	0,022	-0,079
-687,583	265,086	-0,144	-0,183
-686,568	-200,000	0,000	-0,052
-685,554	237,514	-0,081	-0,098
-684,539	-178,155	0,148	0,002
-683,524	557,299	-0,085	-0,149
-682,510	8,944	-0,093	0,051
-681,495	93,677	0,048	-0,039
-680,481	-130,461	-0,036	-0,003
-679,466	573,906	-0,061	0,109
-678,451	-200,000	-0,008	-0,038
-677,437	19,072	-0,064	-0,037
-676,422	201,626	-0,041	0,046
-675,408	-57,364	0,015	-0,005
-674,393	-200,000	-0,013	0,048
-673,378	-65,411	-0,112	-0,032
-672,364	-200,000	-0,026	-0,099
-671,349	-200,000	0,016	-0,136
-670,335	-61,435	-0,074	-0,022
-669,320	-200,000	0,004	-0,023
-668,305	269,218	-0,084	0,107
-667,291	-6,112	0,200	-0,099
-666,276	226,502	-0,139	-0,164
-665,262	98,110	-0,102	-0,085
-664,247	220,651	-0,026	-0,030
-663,232	-94,316	0,103	-0,020
-662,218	547,434	0,038	-0,066
-661,203	-200,000	-0,033	0,140
-660,189	22,119	0,096	0,057
-659,174	-47,356	-0,102	0,036
-658,159	-169,905	-0,157	0,004
-657,145	-200,000	-0,003	-0,121
-656,130	800,000	-0,034	0,100
-655,116	-200,000	0,024	-0,212
-654,101	424,731	0,130	0,204
-653,086	800,000	0,005	0,010
-652,072	800,000	0,033	0,098
-651,057	677,782	0,035	0,066
-650,043	-27,006	-0,147	-0,062
-649,028	-200,000	-0,006	-0,151
-648,014	4,819	0,075	0,040
-646,999	-37,787	0,144	0,055
-645,984	-200,000	0,035	0,131
-644,970	800,000	-0,042	-0,092
-643,955	800,000	0,005	0,015
-642,941	682,805	-0,083	-0,159
-641,926	428,893	0,016	-0,025
-640,911	23,973	-0,090	-0,054
-639,897	120,997	0,041	0,037
-638,882	-200,000	0,007	-0,127
-637,868	118,772	0,081	0,072
-636,853	-200,000	-0,026	0,109
-635,838	88,134	-0,028	-0,022
-634,824	32,609	-0,151	0,095
-633,809	800,000	0,023	-0,064
-632,795	64,841	-0,082	0,060
-631,780	-57,296	-0,032	-0,010
-630,765	800,000	-0,052	0,163
-629,751	187,866	0,018	0,020
-628,736	-200,000	-0,019	-0,139
-627,722	-88,113	-0,072	-0,015
-626,707	-200,000	-0,004	-0,067
-625,692	26,538	-0,041	0,025
-624,678	-71,320	-0,057	0,015
-623,663	438,974	-0,063	-0,100
-622,649	25,082	-0,041	0,025
-621,634	399,883	-0,086	-0,131
-620,619	92,279	0,044	-0,036
-619,605	-120,531	-0,181	-0,022
-618,590	-200,000	0,009	0,087
-617,576	127,109	0,023	0,021
-616,561	364,024	-0,044	0,065
-615,546	-163,750	0,026	0,001
-614,532	-162,928	-0,110	0,004
-613,517	-200,000	0,014	-0,048
-612,503	378,458	0,026	0,038
-611,488	14,882	-0,132	0,075
-610,474	64,131	0,076	-0,055
-609,459	-200,000	-0,013	-0,066
-608,444	-27,166	-0,161	0,068
-607,430	556,967	-0,148	-0,260
-606,415	63,287	-0,046	-0,033
-605,401	-69,179	-0,046	0,013
-604,386	800,000	0,047	-0,102
-603,371	114,454	0,037	0,033
-602,357	-9,973	-0,050	0,024
-601,342	-200,000	0,014	0,091
-600,328	800,000	-0,054	-0,127
-599,313	20,387	-0,078	-0,046
-598,298	-104,605	0,088	0,014
-597,284	800,000	0,061	0,136
-596,269	-200,000	-0,025	0,106
-595,255	-116,061	-0,020	-0,003
-594,240	800,000	0,026	-0,068
-593,225	28,641	-0,081	-0,050
-592,211	256,046	-0,031	-0,038
-591,196	-200,000	0,004	-0,122
-590,182	386,346	0,064	0,096
-589,167	252,270	0,028	0,034
-588,152	32,917	-0,062	-0,039
-587,138	355,703	-0,129	-0,187
-586,123	24,978	0,047	0,028
-585,109	216,739	-0,044	-0,050
-584,094	800,000	-0,053	0,117
-583,079	-200,000	0,002	-0,055
-582,065	800,000	0,015	0,030
-581,050	-124,912	0,058	-0,006
-580,036	9,530	-0,165	-0,090
-579,021	-29,738	-0,150	-0,062
-578,006	49,667	-0,170	-0,116
-576,992	-13,896	0,103	0,048
-575,977	-23,301	-0,136	0,059
-574,963	161,764	0,088	0,089
-573,948	157,167	0,067	0,067
-572,934	-56,767	-0,042	0,013
-571,919	54,351	-0,097	0,068
-570,904	-23,482	0,081	-0,035
-569,890	592,813	-0,091	-0,163
-568,875	-200,000	-0,014	0,082
-567,861	-200,000	-0,031	0,160
-566,846	297,806	0,110	0,146
-565,831	74,985	0,058	0,044
-564,817	-200,000	-0,006	-0,035
-563,802	-31,685	-0,037	-0,015
-562,788	-200,000	0,001	-0,075
-561,773	29,976	0,219	-0,135
-560,758	-50,440	0,189	0,064
-559,744	800,000	-0,012	0,031
-558,729	800,000	0,091	0,256
-557,715	800,000	-0,034	-0,083
-556,700	780,312	0,050	-0,099
-555,685	-24,048	0,087	0,037
-554,671	-200,000	0,005	0,108
-553,656	135,950	-0,065	0,062
-552,642	-127,360	-0,047	0,005
-551,627	-200,000	-0,023	0,115
-550,612	-75,308	0,091	0,023
-549,598	-200,000	-0,010	-0,078
-548,583	-200,000	-0,013	-0,091
-547,569	61,013	0,126	-0,090
-546,554	218,892	0,056	-0,065
-545,539	463,676	-0,042	0,069
-544,525	334,600	-0,037	-0,052
-543,510	46,752	0,066	-0,044
-542,496	-200,000	0,011	-0,116
-541,481	66,779	0,041	-0,030
-540,466	-200,000	0,015	-0,092
-539,452	-57,192	0,110	-0,035
-538,437	-200,000	-0,003	0,040
-537,423	-40,480	0,084	0,031
-536,408	-71,276	0,069	0,018
-535,393	800,000	-0,075	0,166
-534,379	-200,000	0,017	-0,089
-533,364	471,938	-0,044	0,072
-532,350	314,523	0,051	0,070
-531,335	800,000	-0,035	0,107
-530,321	182,713	0,097	0,104
-529,306	358,912	-0,021	-0,031
-528,291	-46,260	-0,098	0,035
-527,277	324,081	-0,081	-0,112
-526,262	573,197	-0,040	-0,071
-525,248	13,070	0,054	0,030
-524,233	57,513	-0,041	-0,029
-523,218	800,000	-0,007	-0,019
-522,204	145,473	0,047	0,046
-521,189	800,000	0,063	-0,137
-520,175	-91,619	0,033	-0,007
-519,160	102,251	-0,067	-0,057
-518,145	-200,000	0,004	0,046
-517,131	-200,000	0,048	0,000
-516,116	75,052	-0,086	0,066
-515,102	-200,000	0,010	-0,177
-514,087	9,441	-0,051	-0,028
-513,072	4,275	-0,084	0,044
-512,058	-134,147	-0,097	0,009
-511,043	294,206	0,094	-0,124
-510,029	800,000	0,019	0,054
-509,014	204,211	0,044	0,050
-507,999	-116,432	0,055	0,007
-506,985	11,321	0,030	0,017
-505,970	-200,000	0,012	-0,052
-504,956	800,000	0,046	-0,107
-503,941	-19,747	0,157	-0,070
-502,926	103,829	-0,048	-0,040
-501,912	5,527	0,149	-0,079
-500,897	214,702	0,033	-0,038
-499,883	60,668	-0,130	0,093
-498,868	-68,548	-0,029	-0,008
-497,853	24,692	-0,032	0,019
-496,839	-76,399	0,163	-0,041
-495,824	160,590	0,040	0,040
-494,810	453,243	0,032	0,051
-493,795	-200,000	-0,014	0,075
-492,781	317,154	-0,046	0,062
-491,766	47,357	0,097	0,065
-490,751	47,523	0,079	-0,053
-489,737	-82,670	0,091	0,021
-488,722	105,412	0,020	0,017
-487,708	507,014	0,008	0,014
-486,693	800,000	0,015	0,033
-485,678	-42,754	-0,089	0,033
-484,664	-200,000	-0,002	0,061
-483,649	800,000	0,030	-0,087
-482,635	-88,260	0,153	0,033
-481,620	-9,702	0,093	0,044
-480,605	-80,233	-0,012	-0,003
-479,591	800,000	-0,039	0,098
-478,576	-200,000	0,029	-0,094
-477,562	418,438	-0,031	-0,049
-476,547	79,501	-0,066	-0,051
-475,532	206,821	-0,127	0,143
-474,518	130,533	-0,098	-0,090
-473,503	339,292	-0,085	0,119
-472,489	-200,000	-0,024	0,173
-471,474	-12,924	-0,073	0,034
-470,459	-22,686	-0,051	0,022
-469,445	-200,000	-0,018	-0,225
-468,430	209,690	-0,055	-0,062
-467,416	84,218	0,086	-0,068
-466,401	-89,939	-0,041	0,009
-465,386	-1,312	-0,187	-0,095
-464,372	800,000	-0,025	-0,051
-463,357	800,000	0,036	-0,086
-462,343	-200,000	-0,004	-0,058
-461,328	-67,083	0,102	0,029
-460,313	4,711	0,074	0,039
-459,299	137,055	0,037	-0,035
-458,284	800,000	-0,020	0,059
-457,270	300,047	0,074	-0,099
-456,255	-98,278	-0,051	0,009
-455,241	336,177	-0,129	0,181
-454,226	-200,000	0,002	-0,045
-453,211	155,961	-0,047	-0,047
-452,197	-200,000	-0,019	0,097
-451,182	690,661	0,082	-0,155
-450,168	397,487	-0,036	-0,055
-449,153	505,089	0,036	-0,060
-448,138	443,954	0,078	-0,124
-447,124	176,222	-0,089	-0,094
-446,109	4,272	0,075	-0,040
-445,095	240,142	0,035	0,042
-444,080	-49,280	0,120	-0,041
-443,065	91,515	0,075	0,060
-442,051	-200,000	-0,007	0,162
-441,036	-121,519	0,052	-0,006
-440,022	45,819	-0,098	-0,065
-439,007	-110,198	0,033	0,005
-437,992	-151,444	0,068	0,004
-436,978	-101,587	0,100	-0,017
-435,963	800,000	0,018	0,044
-434,949	58,373	0,091	-0,064
-433,934	487,488	0,033	0,055
-432,919	800,000	-0,056	0,147
-431,905	23,930	-0,102	-0,060
-430,890	96,216	-0,050	-0,041
-429,876	-165,262	0,122	0,004
-428,861	184,416	0,038	-0,041
-427,846	800,000	-0,023	-0,068
-426,832	800,000	-0,026	-0,075
-425,817	-200,000	0,078	0,000
-424,803	-97,249	0,062	0,012
-423,788	800,000	-0,061	-0,141
-422,773	127,090	0,117	0,107
-421,759	451,589	0,043	0,068
-420,744	162,579	-0,065	0,066
-419,730	-200,000	0,053	-0,246
-418,715	285,120	-0,071	-0,092
-417,701	-200,000	0,016	0,064
-416,686	-42,563	-0,057	0,021
-415,671	-140,394	0,105	-0,008
-414,657	219,435	-0,036	0,042
-413,642	-199,311	-0,051	-0,000
-412,628	465,187	-0,004	0,006
-411,613	-200,000	-0,013	-0,051
-410,598	599,939	0,025	-0,046
-409,584	87,798	-0,174	0,138
-408,569	-19,066	0,115	-0,051
-407,555	-130,172	0,145	0,014
-406,540	107,899	0,036	0,031
-405,525	-200,000	0,010	0,072
-404,511	35,910	0,036	-0,023
-403,496	800,000	-0,030	0,065
-402,482	-125,252	-0,057	-0,006
-401,467	4,305	0,099	0,052
-400,452	-27,012	-0,157	-0,066
-399,438	251,703	0,108	0,133
-398,423	624,049	-0,070	0,127
-397,409	240,590	0,090	-0,109
-396,394	-130,077	-0,043	0,004
-395,379	-36,211	0,142	0,055
-394,365	-200,000	-0,002	0,102
-393,350	-200,000	-0,015	0,080
-392,336	-200,000	0,033	0,192
-391,321	800,000	-0,016	-0,035
-390,306	-124,878	-0,112	-0,012
-389,292	-33,059	0,066	0,026
-388,277	-141,694	-0,017	-0,001
-387,263	266,281	0,016	0,020
-386,248	48,064	0,146	0,098
-385,233	72,917	-0,040	0,030
-384,219	-74,885	-0,097	-0,025
-383,204	17,783	-0,075	-0,043
-382,190	-176,617	-0,210	0,004
-381,175	-200,000	0,004	-0,016
-380,160	638,620	0,044	0,080
-379,146	800,000	0,051	0,115
-378,131	800,000	-0,014	-0,035
-377,117	-200,000	0,004	0,069
-376,102	-147,883	-0,084	-0,005
-375,088	75,441	-0,120	-0,091
-374,073	79,083	-0,052	0,040
-373,058	-200,000	-0,017	0,077
-372,044	-54,457	0,127	-0,041
-371,029	-164,978	0,138	0,004
-370,015	-200,000	0,004	0,193
-369,000	-200,000	-0,005	-0,110
-367,985	-122,986	-0,076	-0,009
-366,971	-200,000	-0,058	-0,223
-365,956	800,000	-0,024	-0,065
-364,942	-8,944	0,140	-0,067
-363,927	-16,183	-0,085	-0,039
-362,912	320,136	0,115	0,157
-361,898	-39,536	0,050	0,019
-360,883	8,946	-0,109	-0,059
-359,869	401,514	0,043	0,065
-358,854	-200,000	0,008	-0,050
-357,839	130,727	0,070	0,064
-356,825	247,838	0,026	0,031
-355,810	-168,610	0,101	0,003
-354,796	-134,243	0,068	0,006
-353,781	-200,000	0,025	0,096
-352,766	-94,423	-0,036	-0,007
-351,752	-200,000	-0,007	0,042
-350,737	47,711	-0,063	-0,042
-349,723	-118,789	-0,039	0,005
-348,708	-185,878	0,044	0,000
-347,693	320,507	-0,015	-0,020
-346,679	-93,276	-0,088	-0,017
-345,664	-200,000	0,000	-0,064
-344,650	-113,381	0,209	-0,029
-343,635	319,673	0,046	-0,062
-342,620	-49,501	0,138	0,047
-341,606	-162,485	0,081	0,003
-340,591	-63,953	-0,039	0,011
-339,577	178,711	-0,084	-0,088
-338,562	800,000	-0,020	0,055
-337,548	-161,765	0,069	0,002
-336,533	33,247	-0,050	-0,031
-335,518	-14,559	0,035	0,016
-334,504	-200,000	-0,038	0,145
-333,489	58,964	-0,058	0,041
-332,475	-200,000	-0,005	-0,076
-331,460	800,000	-0,046	-0,109
-330,445	440,120	-0,073	-0,114
-329,431	-200,000	0,011	-0,043
-328,416	-56,068	0,055	0,018
-327,402	97,899	-0,165	0,136
-326,387	-67,941	-0,080	0,022
-325,372	-200,000	0,032	-0,124
-324,358	-55,706	0,055	0,017
-323,343	-107,960	-0,163	0,025
-322,329	800,000	-0,035	0,070
-321,314	35,815	-0,044	0,028
-320,299	704,532	-0,029	0,055
-319,285	-3,469	-0,091	-0,045
-318,270	550,636	-0,063	-0,109
-317,256	-200,000	-0,001	-0,058
-316,241	-192,550	-0,079	-0,001
-315,226	-125,669	0,110	-0,012
-314,212	-200,000	-0,021	-0,080
-313,197	-117,217	0,136	-0,017
-312,183	-80,367	0,080	0,019
-311,168	640,518	-0,043	-0,079
-310,153	73,068	0,078	-0,058
-309,139	176,825	0,015	0,016
-308,124	-70,185	0,041	0,011
-307,110	269,072	0,182	0,229
-306,095	-200,000	-0,011	0,114
-305,080	-200,000	-0,023	-0,117
-304,066	-200,000	-0,011	-0,148
-303,051	575,236	-0,071	0,125
-302,037	-200,000	0,012	0,109
-301,022	121,709	0,108	0,096
-300,008	378,777	-0,011	-0,016
-298,993	-97,383	0,044	0,008
-297,978	800,000	0,028	-0,073
-296,964	-200,000	-0,029	-0,099
-295,949	-200,000	0,052	-0,244
-294,935	-200,000	0,024	-0,142
-293,920	-200,000	0,005	0,024
-292,905	508,409	-0,026	0,044
-291,891	800,000	-0,023	0,058
-290,876	-25,806	-0,102	-0,043
-289,862	-200,000	-0,004	-0,070
-288,847	133,300	-0,053	-0,049
-287,832	-3,641	0,102	0,051
-286,818	-200,000	0,020	0,137
-285,803	-142,906	0,094	-0,006
-284,789	800,000	-0,045	0,107
-283,774	756,933	-0,039	0,075
-282,759	387,530	0,016	-0,024
-281,745	-86,900	-0,053	-0,012
-280,730	58,905	0,092	-0,065
-279,716	-152,062	-0,037	-0,002
-278,701	185,726	-0,064	0,068
-277,686	208,114	-0,044	0,049
-276,672	3,402	0,063	-0,033
-275,657	-2,104	-0,130	-0,065
-274,643	800,000	-0,080	-0,171
-273,628	-49,433	0,092	-0,031
-272,613	-9,591	-0,096	-0,046
-271,599	99,668	0,054	0,045
-270,584	62,614	0,113	0,081
-269,570	258,725	0,074	0,091
-268,555	-70,000	-0,050	-0,014
-267,540	800,000	-0,044	-0,129
-266,526	327,919	-0,038	-0,053
-265,511	-200,000	-0,000	-0,069
-264,497	-135,087	0,221	-0,019
-263,482	-200,000	0,003	0,082
-262,467	-84,918	0,190	-0,042
-261,453	800,000	-0,038	0,107
-260,438	-200,000	-0,007	-0,074
-259,424	-111,167	-0,109	-0,016
-258,409	800,000	0,030	0,072
-257,395	-200,000	0,028	-0,101
-256,380	43,562	-0,076	0,050
-255,365	-200,000	0,003	0,071
-254,351	42,797	-0,037	0,024
-253,336	-200,000	-0,004	0,142
-252,322	735,899	-0,015	0,030
-251,307	-102,857	-0,113	-0,019
-250,292	-51,216	0,137	0,046
-249,278	53,558	0,084	0,058
-248,263	-117,502	0,073	-0,009
-247,249	-134,041	-0,019	-0,002
-246,234	-200,000	-0,017	0,105
-245,219	546,445	0,010	0,017
-244,205	41,516	-0,073	-0,047
-243,190	456,560	-0,052	0,082
-242,176	275,935	-0,040	0,051
-241,161	-77,432	0,094	-0,023
-240,146	800,000	-0,050	-0,103
-239,132	80,538	0,093	0,072
-238,117	446,010	0,017	0,026
-237,103	-200,000	0,009	-0,184
-236,088	800,000	0,022	-0,050
-235,073	800,000	-0,031	0,071
-234,059	-200,000	0,001	-0,010
-233,044	-200,000	-0,025	0,148
-232,030	101,330	0,046	-0,038
-231,015	15,831	0,089	0,050
-230,000	782,712	-0,064	-0,126
-228,986	-144,468	-0,123	0,008
-227,971	-200,000	0,005	0,027
-226,957	185,862	0,027	-0,029
-225,942	332,275	0,046	0,064
-224,927	655,384	-0,025	-0,046
-223,913	23,331	-0,093	0,054
-222,898	-102,662	-0,068	-0,011
-221,884	-59,360	0,104	-0,032
-220,869	-171,361	0,057	0,001
-219,855	466,122	0,085	0,137
-218,840	-200,000	-0,006	0,035
-217,825	-200,000	-0,001	0,052
-216,811	495,524	-0,053	-0,087
-215,796	-200,000	0,019	-0,069
-214,782	575,428	-0,035	0,061
-213,767	-34,525	-0,038	-0,015
-212,752	-84,041	-0,103	-0,023
-211,738	-130,663	0,160	0,015
-210,723	800,000	0,053	-0,131
-209,709	74,815	-0,093	-0,070
-208,694	-200,000	0,004	-0,017
-207,679	10,420	-0,030	-0,016
-206,665	-200,000	0,010	0,038
-205,650	142,107	-0,087	0,083
-204,636	111,516	-0,063	-0,054
-203,621	-144,583	-0,116	0,008
-202,606	654,846	-0,048	-0,089
-201,592	-31,825	-0,046	0,018
-200,577	800,000	-0,019	0,042
-199,563	530,729	0,054	-0,092
-198,548	285,656	0,103	0,133
-197,533	-128,687	0,036	0,004
-196,519	11,263	-0,095	-0,052
-195,504	251,079	0,108	0,131
-194,490	-200,000	-0,020	-0,196
-193,475	800,000	-0,038	-0,107
-192,460	159,634	-0,062	0,061
-191,446	-200,000	-0,009	-0,033
-190,431	-198,649	0,077	-0,000
-189,417	-156,404	-0,168	-0,007
-188,402	532,246	0,046	0,079
-187,387	37,142	-0,081	-0,051
-186,373	390,245	-0,066	0,098
-185,358	360,198	0,062	-0,088
-184,344	72,055	0,209	0,155
-183,329	223,019	-0,020	0,024
-182,315	-200,000	0,002	0,099
-181,300	434,224	-0,040	0,063
-180,285	222,628	-0,070	0,081
-179,271	80,290	-0,040	-0,030
-178,256	438,291	0,053	-0,082
-177,242	16,560	0,090	0,051
-176,227	-79,866	-0,055	0,013
-175,212	-200,000	0,013	-0,091
-174,198	124,258	0,052	0,046
-173,183	-200,000	0,038	-0,151
-172,169	800,000	-0,035	-0,072
-171,154	-86,732	0,148	0,032
-170,139	-200,000	-0,013	0,089
-169,125	-95,541	-0,031	-0,006
-168,110	-200,000	-0,038	0,166
-167,096	-151,072	0,201	-0,011
-166,081	173,691	0,013	0,014
-165,066	42,559	-0,137	-0,089
-164,052	86,352	0,009	-0,007
-163,037	221,964	-0,079	0,091
-162,023	57,966	-0,071	0,049
-161,008	-140,772	-0,101	0,007
-159,993	-200,000	0,000	0,063
-158,979	146,796	0,033	-0,032
-157,964	632,696	-0,027	0,049
-156,950	342,261	-0,077	0,108
-155,935	170,172	-0,075	-0,077
-154,920	-200,000	0,005	0,107
-153,906	-146,995	0,126	0,008
-152,891	12,486	0,043	-0,024
-151,877	-73,808	-0,179	0,046
-150,862	-200,000	0,018	-0,140
-149,847	-200,000	0,000	0,058
-148,833	1,889	-0,047	0,024
-147,818	382,350	-0,050	0,074
-146,804	655,796	0,057	-0,105
-145,789	800,000	0,031	-0,096
-144,775	800,000	-0,034	0,101
-143,760	235,864	-0,117	-0,138
-142,745	152,501	-0,107	-0,104
-141,731	-137,996	0,051	-0,004
-140,716	-21,334	-0,031	0,013
-139,702	96,672	-0,058	0,047
-138,687	-200,000	0,019	-0,079
-137,672	-200,000	0,006	-0,074
-136,658	-200,000	0,017	-0,102
-135,643	-200,000	0,025	0,089
-134,629	-102,663	0,119	0,020
-133,614	800,000	0,015	0,032
-132,599	-200,000	0,021	0,284
-131,585	411,356	-0,037	-0,057
-130,570	9,387	0,101	-0,054
-129,556	18,994	-0,113	-0,064
-128,541	226,944	-0,062	-0,072
-127,526	758,516	0,058	-0,112
-126,512	98,627	0,027	-0,022
-125,497	212,439	-0,021	0,023
-124,483	-11,327	0,162	-0,075
-123,468	-200,000	0,000	-0,045
-122,453	173,629	-0,041	0,042
-121,439	-99,587	0,052	-0,009
-120,424	-178,683	-0,264	0,004
-119,410	-200,000	-0,029	0,125
