DTS Sentinel unit serial number:	SN410029Multiplexer serial number:	ORYXHardware model number:	OX2-SRSoftware version number:	ORYX F/W v4,00 Oryx Data Collector v3.7.2.0data status	okinstallation	B3 Nyhavnadifferential loss correction	single-endedforward channel	channel 1reverse channel	N/Adate	2023/11/28time	13:22:30forward acquisition time	300,00reverse acquisition time	0,00gamma	499,1914k internal	0,3138k external	0,3138temperature offset calibration	1,0000default loss term (dB/km)	0,3820temperature slope calibration	1,0000multiplexer offset coefficient	1,0000multiplexer slope coefficient	1,0000fibre end	0,00T internal ref (°C)	7,92T ext. ref 1 (°C)	-7,67T ext. ref 2 (°C)	-7,84length (m)	temperature (°C)	Stokes	anti-Stokes-744,400	71,648	-0,310	-0,239
-743,385	800,000	-0,107	0,284
-742,371	230,451	-0,152	-0,184
-741,356	-200,000	-0,043	0,365
-740,342	381,868	-0,144	-0,220
-739,327	491,737	0,062	0,107
-738,312	534,596	-0,209	-0,368
-737,298	-200,000	-0,006	0,294
-736,283	-200,000	-0,112	-0,431
-735,269	-200,000	-0,052	0,280
-734,254	500,660	-0,209	-0,359
-733,239	-49,487	-0,259	0,091
-732,225	800,000	0,054	-0,163
-731,210	117,279	0,144	0,131
-730,196	752,341	0,055	-0,111
-729,181	-7,472	-0,045	-0,023
-728,167	46,993	0,112	0,077
-727,152	28,853	0,044	0,028
-726,137	-143,287	-0,107	-0,007
-725,123	229,382	-0,004	0,005
-724,108	465,204	-0,140	-0,233
-723,094	-63,749	0,067	-0,020
-722,079	-52,466	-0,121	-0,041
-721,064	87,648	-0,107	-0,087
-720,050	-200,000	-0,013	-0,088
-719,035	229,083	-0,079	-0,096
-718,021	-200,000	-0,010	0,134
-717,006	397,530	-0,031	-0,048
-715,991	16,789	-0,136	-0,080
-714,977	-90,339	-0,027	0,006
-713,962	800,000	0,021	0,065
-712,948	-200,000	0,021	-0,204
-711,933	96,593	-0,034	-0,029
-710,918	24,634	-0,123	0,075
-709,904	800,000	-0,050	-0,145
-708,889	18,220	0,049	-0,029
-707,875	511,880	-0,058	-0,101
-706,860	800,000	0,037	-0,080
-705,845	-200,000	-0,012	0,048
-704,831	-200,000	-0,008	-0,037
-703,816	-200,000	0,013	-0,129
-702,802	-200,000	0,003	-0,065
-701,787	-85,655	0,063	-0,014
-700,772	237,170	-0,031	0,038
-699,758	15,007	0,154	0,089
-698,743	379,861	-0,091	0,138
-697,729	-200,000	0,023	0,083
-696,714	80,030	0,101	-0,080
-695,699	653,177	0,015	-0,028
-694,685	47,092	-0,090	-0,062
-693,670	-110,834	-0,051	0,008
-692,656	31,525	-0,042	0,027
-691,641	-172,670	-0,078	-0,002
-690,627	800,000	0,014	0,032
-689,612	-200,000	0,006	-0,108
-688,597	-200,000	-0,046	-0,176
-687,583	485,724	-0,006	-0,010
-686,568	-111,683	-0,092	0,014
-685,554	105,903	-0,102	-0,089
-684,539	22,209	-0,117	-0,071
-683,524	319,505	0,049	-0,069
-682,510	174,363	-0,042	-0,045
-681,495	512,978	-0,019	-0,033
-680,481	-145,576	-0,060	-0,004
-679,466	-123,241	0,014	0,002
-678,451	314,663	0,034	-0,048
-677,437	12,783	0,103	-0,059
-676,422	45,758	0,023	-0,015
-675,408	183,245	0,021	-0,023
-674,393	528,841	0,070	-0,123
-673,378	65,112	-0,078	-0,058
-672,364	34,205	-0,143	-0,092
-671,349	9,795	-0,063	0,035
-670,335	393,529	-0,075	-0,116
-669,320	53,921	0,045	-0,032
-668,305	350,184	-0,127	0,186
-667,291	-16,338	-0,092	-0,043
-666,276	-32,085	-0,052	-0,021
-665,262	394,978	-0,190	-0,293
-664,247	639,904	-0,081	0,154
-663,232	-82,983	0,129	0,031
-662,218	-200,000	0,008	-0,037
-661,203	-69,296	-0,070	0,020
-660,189	-200,000	-0,040	0,168
-659,174	-200,000	0,004	0,112
-658,159	542,080	0,027	-0,048
-657,145	-77,251	0,032	0,008
-656,130	-200,000	0,009	-0,106
-655,116	-103,749	0,050	-0,009
-654,101	-51,838	0,122	0,042
-653,086	-49,783	-0,052	0,018
-652,072	624,778	0,022	0,040
-651,057	-200,000	-0,008	-0,192
-650,043	196,488	0,097	-0,109
-649,028	-200,000	-0,017	-0,056
-648,014	-113,557	0,092	-0,013
-646,999	189,955	0,068	-0,075
-645,984	-63,314	0,126	0,038
-644,970	800,000	0,032	-0,069
-643,955	800,000	-0,067	-0,149
-642,941	-200,000	-0,008	-0,064
-641,926	527,836	-0,050	0,087
-640,911	-62,964	-0,068	-0,021
-639,897	-164,706	-0,070	-0,002
-638,882	112,813	0,083	0,074
-637,868	-200,000	-0,003	0,018
-636,853	-18,446	-0,168	-0,077
-635,838	192,178	-0,146	-0,163
-634,824	-200,000	-0,006	-0,103
-633,809	103,556	-0,099	0,085
-632,795	-200,000	0,017	-0,116
-631,780	-200,000	0,020	0,092
-630,765	-200,000	0,006	-0,105
-629,751	139,430	-0,150	-0,146
-628,736	-51,169	-0,081	-0,028
-627,722	131,977	-0,077	-0,074
-626,707	-67,124	0,139	-0,040
-625,692	127,659	0,057	-0,053
-624,678	-30,894	-0,061	-0,025
-623,663	800,000	-0,048	0,110
-622,649	192,251	0,106	-0,118
-621,634	800,000	0,056	-0,153
-620,619	-200,000	-0,046	-0,179
-619,605	55,013	0,055	0,040
-618,590	-49,441	0,045	0,016
-617,576	-200,000	0,027	0,188
-616,561	-200,000	-0,026	-0,112
-615,546	-110,808	-0,129	0,019
-614,532	17,388	0,033	-0,019
-613,517	-200,000	0,022	-0,087
-612,503	-200,000	-0,048	-0,180
-611,488	238,620	0,096	0,118
-610,474	-200,000	-0,183	-0,000
-609,459	-200,000	0,012	0,055
-608,444	8,003	0,073	-0,041
-607,430	-200,000	-0,016	0,169
-606,415	-136,698	-0,135	0,011
-605,401	116,481	-0,014	0,013
-604,386	699,316	0,111	0,216
-603,371	800,000	-0,036	0,103
-602,357	-5,216	-0,105	-0,053
-601,342	-25,267	-0,080	-0,035
-600,328	-200,000	0,002	-0,010
-599,313	236,797	0,108	-0,132
-598,298	776,469	-0,056	-0,113
-597,284	-200,000	0,024	-0,081
-596,269	37,984	-0,026	-0,017
-595,255	-116,912	-0,122	-0,016
-594,240	-200,000	-0,001	-0,136
-593,225	673,901	0,040	0,076
-592,211	58,938	-0,099	-0,072
-591,196	-9,589	0,049	0,024
-590,182	3,726	0,102	0,055
-589,167	-21,311	0,124	0,056
-588,152	382,624	0,025	-0,038
-587,138	-200,000	-0,015	-0,101
-586,123	438,044	-0,065	0,105
-585,109	625,744	0,069	-0,129
-584,094	-200,000	0,045	0,000
-583,079	-197,545	0,118	0,001
-582,065	-75,069	0,142	0,037
-581,050	-200,000	-0,002	0,027
-580,036	50,250	0,045	-0,031
-579,021	800,000	-0,016	-0,037
-578,006	800,000	0,016	-0,052
-576,992	-125,997	0,108	-0,012
-575,977	652,305	0,021	-0,040
-574,963	800,000	0,047	0,110
-573,948	270,646	-0,049	0,063
-572,934	69,003	-0,163	-0,123
-571,919	49,894	-0,101	0,070
-570,904	800,000	-0,019	-0,041
-569,890	-135,087	-0,182	0,016
-568,875	543,188	0,040	0,071
-567,861	-200,000	0,014	0,080
-566,846	800,000	0,053	0,110
-565,831	318,145	-0,071	0,100
-564,817	-23,743	-0,026	-0,011
-563,802	32,560	0,072	0,046
-562,788	11,621	0,057	0,032
-561,773	-135,040	0,054	0,005
-560,758	-161,035	-0,075	-0,003
-559,744	134,757	0,086	0,082
-558,729	118,282	-0,081	0,073
-557,715	-200,000	-0,003	-0,032
-556,700	-200,000	0,010	-0,083
-555,685	-103,180	-0,038	-0,007
-554,671	-149,348	-0,083	-0,005
-553,656	476,130	0,122	0,204
-552,642	118,445	-0,053	-0,049
-551,627	-200,000	-0,015	-0,069
-550,612	28,963	0,025	0,016
-549,598	536,637	-0,038	0,067
-548,583	-48,544	-0,071	-0,025
-547,569	676,678	0,041	-0,079
-546,554	-200,000	0,002	0,053
-545,539	439,854	0,052	0,084
-544,525	-200,000	0,030	0,099
-543,510	-200,000	0,037	0,135
-542,496	-200,000	0,008	-0,117
-541,481	-200,000	-0,018	-0,087
-540,466	130,813	0,060	0,057
-539,452	-200,000	-0,016	-0,053
-538,437	-200,000	-0,007	0,121
-537,423	548,582	0,061	0,108
-536,408	800,000	-0,048	-0,154
-535,393	-29,369	-0,070	-0,029
-534,379	181,023	0,105	-0,114
-533,364	424,682	-0,060	0,095
-532,350	42,848	0,055	0,037
-531,335	733,987	-0,042	0,083
-530,321	145,334	-0,038	-0,037
-529,306	601,428	0,040	0,073
-528,291	800,000	0,051	-0,160
-527,277	-200,000	0,007	-0,155
-526,262	800,000	-0,072	0,188
-525,248	108,572	0,104	0,092
-524,233	-73,384	-0,062	0,017
-523,218	-154,354	-0,101	0,005
-522,204	-65,900	-0,050	-0,015
-521,189	63,951	-0,036	0,027
-520,175	74,091	0,049	-0,038
-519,160	351,697	0,075	-0,109
-518,145	-135,403	0,080	0,007
-517,131	-200,000	0,005	-0,090
-516,116	-97,428	0,037	-0,007
-515,102	-183,328	-0,150	-0,002
-514,087	-75,490	0,126	0,033
-513,072	-2,905	-0,017	-0,009
-512,058	-200,000	0,025	-0,121
-511,043	131,648	-0,122	0,115
-510,029	190,395	-0,102	0,112
-509,014	-76,296	-0,071	-0,018
-507,999	800,000	-0,020	0,063
-506,985	375,011	-0,022	-0,032
-505,970	-200,000	-0,029	-0,105
-504,956	-200,000	-0,003	0,034
-503,941	-200,000	0,014	0,125
-502,926	0,780	0,108	0,057
-501,912	-56,814	-0,110	0,036
-500,897	170,300	0,081	0,085
-499,883	-200,000	0,000	-0,074
-498,868	505,572	-0,057	0,098
-497,853	40,424	0,089	-0,059
-496,839	-73,430	0,088	-0,023
-495,824	-177,469	-0,073	0,001
-494,810	-72,149	0,098	0,027
-493,795	34,086	-0,089	-0,057
-492,781	46,294	0,071	0,048
-491,766	-154,641	0,016	-0,001
-490,751	-102,348	-0,108	0,019
-489,737	-82,089	0,109	-0,026
-488,722	39,671	0,100	0,066
-487,708	-191,831	-0,043	0,000
-486,693	-200,000	-0,014	-0,086
-485,678	-45,267	0,028	-0,010
-484,664	17,946	-0,061	-0,035
-483,649	83,358	-0,121	-0,096
-482,635	413,031	0,079	0,124
-481,620	-36,028	0,079	0,031
-480,605	152,835	0,038	0,038
-479,591	552,946	0,040	0,072
-478,576	800,000	0,011	-0,034
-477,562	-200,000	0,002	-0,045
-476,547	17,195	0,066	0,038
-475,532	-200,000	-0,018	-0,066
-474,518	315,837	0,115	0,159
-473,503	-90,603	0,220	-0,046
-472,489	176,419	-0,025	0,027
-471,474	154,736	-0,103	-0,104
-470,459	-200,000	-0,011	-0,058
-469,445	50,284	-0,080	-0,055
-468,430	-200,000	0,037	-0,124
-467,416	761,930	-0,034	0,068
-466,401	-40,106	0,056	0,021
-465,386	800,000	0,034	0,093
-464,372	800,000	0,034	0,089
-463,357	-200,000	0,023	-0,082
-462,343	-200,000	0,036	-0,140
-461,328	-26,057	0,047	-0,020
-460,313	139,710	0,048	-0,046
-459,299	260,433	0,056	-0,071
-458,284	228,512	-0,050	-0,060
-457,270	800,000	0,021	0,048
-456,255	-96,324	-0,026	-0,005
-455,241	-199,835	0,145	0,001
-454,226	800,000	0,052	-0,112
-453,211	800,000	0,034	-0,079
-452,197	-21,209	0,081	-0,036
-451,182	11,281	0,019	0,011
-450,168	99,099	-0,009	0,008
-449,153	-89,389	0,091	0,020
-448,138	-200,000	-0,004	-0,037
-447,124	275,640	-0,051	0,067
-446,109	86,143	0,046	0,037
-445,095	268,586	0,038	0,049
-444,080	249,272	0,077	0,096
-443,065	-200,000	0,035	0,131
-442,051	-200,000	-0,016	0,080
-441,036	-162,458	0,190	0,007
-440,022	800,000	-0,010	-0,028
-439,007	-105,935	0,034	0,005
-437,992	242,995	-0,026	-0,033
-436,978	-200,000	0,003	0,060
-435,963	-92,379	0,024	0,005
-434,949	-200,000	-0,006	0,093
-433,934	160,886	-0,043	0,044
-432,919	-63,041	-0,117	-0,035
-431,905	88,342	0,056	0,046
-430,890	39,575	0,101	-0,067
-429,876	399,300	0,021	-0,032
-428,861	800,000	-0,021	0,048
-427,846	800,000	-0,019	0,044
-426,832	800,000	-0,027	-0,082
-425,817	593,279	-0,027	0,049
-424,803	-2,656	0,107	-0,055
-423,788	-26,068	-0,099	0,043
-422,773	-200,000	-0,006	-0,071
-421,759	-200,000	0,017	0,114
-420,744	451,883	0,023	-0,037
-419,730	-125,908	-0,041	0,004
-418,715	-62,647	-0,169	-0,051
-417,701	331,124	-0,041	0,058
-416,686	-200,000	-0,015	-0,062
-415,671	-200,000	0,018	0,115
-414,657	450,355	0,034	0,055
-413,642	-200,000	0,003	-0,108
-412,628	-71,574	-0,099	-0,027
-411,613	56,917	0,061	-0,044
-410,598	-200,000	0,021	-0,186
-409,584	-57,099	-0,057	-0,018
-408,569	529,982	-0,030	0,052
-407,555	193,669	0,081	0,090
-406,540	199,531	-0,029	-0,032
-405,525	6,931	-0,023	0,012
-404,511	59,272	-0,048	0,035
-403,496	237,340	-0,046	-0,056
-402,482	-58,423	-0,142	0,045
-401,467	800,000	-0,030	0,065
-400,452	631,747	0,051	0,095
-399,438	-93,313	-0,020	0,004
-398,423	-64,803	0,061	0,018
-397,409	221,059	-0,092	0,108
-396,394	418,306	-0,057	0,089
-395,379	108,435	-0,108	-0,094
-394,365	-200,000	0,002	-0,040
-393,350	-17,972	-0,057	0,026
-392,336	715,299	0,083	0,162
-391,321	151,870	-0,018	0,018
-390,306	431,345	-0,075	-0,119
-389,292	254,143	-0,068	-0,086
-388,277	-140,951	0,109	0,008
-387,263	800,000	0,039	-0,084
-386,248	-175,657	-0,051	-0,001
-385,233	743,094	-0,047	0,092
-384,219	-1,652	-0,107	-0,055
-383,204	147,997	0,124	-0,122
-382,190	-72,904	0,091	-0,024
-381,175	58,179	0,060	0,043
-380,160	746,243	0,034	0,067
-379,146	11,250	0,064	0,036
-378,131	-200,000	0,012	0,107
-377,117	257,664	0,053	0,067
-376,102	-134,161	-0,063	0,006
-375,088	229,960	-0,057	-0,068
-374,073	34,795	-0,045	0,028
-373,058	209,762	0,059	0,067
-372,044	-90,664	0,042	0,009
-371,029	800,000	-0,055	0,120
-370,015	-200,000	-0,040	-0,148
-369,000	-200,000	-0,029	-0,140
-367,985	-12,418	-0,042	0,020
-366,971	91,195	-0,060	-0,050
-365,956	69,149	-0,028	-0,021
-364,942	-178,511	-0,133	-0,002
-363,927	-95,054	0,139	-0,027
-362,912	394,198	0,059	0,090
-361,898	235,269	-0,027	-0,032
-360,883	216,065	-0,060	0,070
-359,869	800,000	0,066	0,146
-358,854	247,240	-0,058	-0,071
-357,839	-50,309	0,042	0,014
-356,825	117,795	-0,083	0,075
-355,810	174,377	-0,033	0,035
-354,796	232,869	-0,024	-0,029
-353,781	-14,039	-0,046	-0,022
-352,766	-107,276	-0,067	0,011
-351,752	-62,177	0,044	0,013
-350,737	4,214	0,029	-0,015
-349,723	-71,655	-0,173	-0,047
-348,708	519,189	0,047	-0,081
-347,693	96,823	0,125	-0,105
-346,679	66,597	-0,147	-0,109
-345,664	48,077	0,136	0,093
-344,650	254,395	-0,084	-0,105
-343,635	-37,734	0,124	0,048
-342,620	-10,007	-0,062	0,030
-341,606	163,278	-0,039	-0,040
-340,591	-66,719	-0,099	-0,028
-339,577	748,038	-0,050	-0,099
-338,562	800,000	-0,022	-0,045
-337,548	392,742	-0,096	-0,145
-336,533	-200,000	0,012	-0,087
-335,518	-27,471	0,073	0,031
-334,504	89,700	0,073	-0,059
-333,489	-94,924	0,024	0,005
-332,475	316,638	-0,077	-0,106
-331,460	-200,000	-0,016	0,123
-330,445	-29,313	0,151	-0,063
-329,431	-36,487	0,176	0,069
-328,416	-40,726	0,116	0,044
-327,402	25,957	0,159	0,097
-326,387	624,929	-0,040	0,074
-325,372	-82,256	-0,072	0,017
-324,358	800,000	-0,041	-0,098
-323,343	327,246	-0,013	-0,018
-322,329	-126,442	0,085	0,009
-321,314	800,000	0,053	0,117
-320,299	-12,268	0,102	-0,048
-319,285	-200,000	0,019	-0,100
-318,270	544,387	0,046	-0,081
-317,256	-200,000	-0,005	-0,026
-316,241	-45,205	0,143	-0,052
-315,226	-126,564	0,097	-0,010
-314,212	620,767	0,044	0,080
-313,197	440,178	-0,046	0,073
-312,183	-200,000	-0,006	-0,123
-311,168	154,532	0,023	-0,023
-310,153	448,911	-0,005	0,007
-309,139	-200,000	-0,025	0,101
-308,124	-200,000	0,014	-0,048
-307,110	800,000	0,015	-0,037
-306,095	246,202	0,058	0,072
-305,080	95,941	0,034	-0,028
-304,066	800,000	-0,029	0,079
-303,051	-89,183	-0,025	0,005
-302,037	-136,566	0,098	-0,008
-301,022	87,874	-0,036	0,029
-300,008	800,000	0,043	0,102
-298,993	104,335	0,033	0,028
-297,978	257,990	0,068	0,085
-296,964	-164,643	0,016	0,001
-295,949	127,192	-0,177	-0,163
-294,935	800,000	-0,017	-0,042
-293,920	800,000	-0,002	-0,006
-292,905	-200,000	-0,002	-0,047
-291,891	-55,950	0,182	0,059
-290,876	-94,691	-0,117	-0,023
-289,862	500,112	-0,059	0,100
-288,847	-171,950	-0,117	-0,003
-287,832	209,403	0,040	-0,046
-286,818	113,429	0,058	-0,051
-285,803	-200,000	-0,001	-0,008
-284,789	92,094	0,014	-0,012
-283,774	117,265	-0,013	0,011
-282,759	89,568	-0,062	-0,051
-281,745	365,643	0,075	0,110
-280,730	800,000	-0,026	0,067
-279,716	-65,572	0,162	0,047
-278,701	-103,949	0,126	-0,021
-277,686	143,797	0,077	0,075
-276,672	20,599	0,097	-0,057
-275,657	-0,290	-0,099	-0,051
-274,643	800,000	0,028	-0,080
-273,628	176,957	-0,040	-0,042
-272,613	-35,130	0,082	-0,032
-271,599	-55,274	0,040	-0,013
-270,584	800,000	-0,011	-0,034
-269,570	-145,538	0,048	-0,003
-268,555	800,000	0,034	0,072
-267,540	800,000	-0,030	-0,097
-266,526	388,719	-0,122	0,184
-265,511	-200,000	-0,011	0,113
-264,497	-200,000	-0,034	0,159
-263,482	800,000	0,033	0,085
-262,467	335,722	0,104	0,148
-261,453	-100,798	-0,088	-0,016
-260,438	-140,539	-0,137	0,010
-259,424	48,781	0,119	-0,081
-258,409	7,319	-0,120	0,065
-257,395	-43,065	0,033	0,012
-256,380	-200,000	-0,004	0,056
-255,365	-52,311	0,078	-0,026
-254,351	-135,899	-0,070	-0,006
-253,336	26,578	-0,150	-0,091
-252,322	702,212	0,040	-0,076
-251,307	100,627	0,096	-0,081
-250,292	-200,000	-0,012	-0,067
-249,278	248,478	0,032	0,039
-248,263	-53,809	-0,094	-0,031
-247,249	-200,000	0,019	0,192
-246,234	-200,000	0,024	-0,081
-245,219	-135,388	-0,047	0,004
-244,205	800,000	-0,024	0,055
-243,190	67,507	0,073	0,054
-242,176	-200,000	0,027	0,098
-241,161	375,381	0,069	0,103
-240,146	645,315	0,011	-0,020
-239,132	-11,437	-0,112	-0,053
-238,117	54,848	-0,143	-0,101
-237,103	-14,291	0,116	-0,054
-236,088	-146,507	-0,011	-0,001
-235,073	106,805	-0,025	0,022
-234,059	-80,705	0,094	-0,022
-233,044	250,910	-0,119	-0,147
-232,030	229,430	-0,119	-0,142
-231,015	800,000	0,026	-0,053
-230,000	76,257	-0,039	-0,030
-228,986	-200,000	-0,001	-0,025
-227,971	-117,385	-0,031	0,004
-226,957	-200,000	-0,027	0,091
-225,942	-200,000	0,031	0,131
-224,927	143,352	0,131	0,126
-223,913	154,323	-0,102	0,102
-222,898	84,690	-0,140	0,111
-221,884	800,000	0,038	0,111
-220,869	800,000	0,028	0,087
-219,855	800,000	-0,024	-0,055
-218,840	129,312	-0,038	0,035
-217,825	-84,281	0,103	0,023
-216,811	-55,912	-0,086	0,028
-215,796	-111,574	-0,226	-0,033
-214,782	230,165	0,072	0,086
-213,767	73,378	0,048	0,036
-212,752	19,742	-0,044	0,026
-211,738	800,000	-0,020	0,044
-210,723	88,784	-0,108	0,087
-209,709	-71,771	-0,018	-0,005
-208,694	30,364	-0,109	-0,067
-207,679	14,452	-0,032	0,018
-206,665	350,851	0,033	-0,047
-205,650	-83,804	0,208	0,048
-204,636	-111,886	-0,024	0,003
-203,621	-163,839	-0,054	0,002
-202,606	800,000	-0,029	-0,072
-201,592	420,880	0,019	-0,029
-200,577	-200,000	0,006	-0,034
-199,563	-151,112	0,016	-0,001
-198,548	117,444	-0,057	-0,051
-197,533	-171,126	0,145	-0,003
-196,519	-200,000	-0,034	0,216
-195,504	173,713	-0,065	0,068
-194,490	-134,854	-0,107	0,009
-193,475	-200,000	-0,006	-0,079
-192,460	800,000	0,020	0,044
-191,446	-200,000	0,023	0,098
-190,431	-49,140	-0,043	-0,015
-189,417	46,196	0,100	-0,067
-188,402	-165,827	-0,041	0,001
-187,387	800,000	0,025	-0,056
-186,373	-200,000	0,029	0,000
-185,358	-94,378	-0,128	-0,025
-184,344	-41,881	-0,058	0,021
-183,329	-200,000	-0,010	-0,033
-182,315	-17,082	-0,062	0,028
-181,300	-195,309	-0,058	0,000
-180,285	698,766	0,030	-0,057
-179,271	-70,169	-0,123	-0,034
-178,256	-200,000	-0,001	-0,005
-177,242	57,517	0,042	-0,030
-176,227	97,242	0,149	0,124
-175,212	-156,701	-0,042	-0,002
-174,198	800,000	-0,021	-0,066
-173,183	-102,529	-0,048	0,008
-172,169	-200,000	-0,028	-0,142
-171,154	232,285	0,071	-0,085
-170,139	800,000	0,031	-0,077
-169,125	-200,000	-0,005	0,105
-168,110	-70,099	0,155	-0,043
-167,096	-166,898	-0,218	0,006
-166,081	261,727	-0,049	0,061
-165,066	-104,047	-0,143	-0,024
-164,052	800,000	0,033	-0,085
-163,037	81,481	0,080	-0,063
-162,023	-200,000	0,002	0,031
-161,008	-66,556	0,083	0,024
-159,993	-11,360	-0,159	0,075
-158,979	-84,863	-0,216	0,049
-157,964	-200,000	0,010	-0,097
-156,950	118,696	0,130	-0,116
-155,935	-200,000	-0,021	-0,088
-154,920	-105,629	0,078	-0,013
-153,906	800,000	0,054	0,152
-152,891	-40,686	0,052	0,020
-151,877	525,924	-0,017	0,029
-150,862	-138,133	-0,045	-0,004
-149,847	239,905	0,073	-0,088
-148,833	59,092	0,032	-0,023
-147,818	223,684	-0,060	-0,070
-146,804	-200,000	0,047	0,224
-145,789	-56,982	-0,065	-0,021
-144,775	-52,994	-0,052	-0,017
-143,760	-200,000	0,022	-0,118
-142,745	800,000	0,011	0,032
-141,731	-42,444	0,072	-0,026
-140,716	-147,224	-0,078	0,005
-139,702	-200,000	-0,003	0,069
-138,687	17,208	-0,095	0,055
-137,672	110,057	0,102	-0,088
-136,658	-200,000	0,008	-0,073
-135,643	800,000	-0,044	-0,130
-134,629	-39,903	0,027	-0,010
-133,614	-111,378	0,119	0,017
-132,599	477,069	-0,074	0,121
-131,585	-123,050	-0,198	-0,023
-130,570	39,953	0,070	0,046
-129,556	-183,871	-0,105	0,001
-128,541	800,000	-0,043	-0,088
-127,526	-116,530	0,069	0,009
-126,512	-193,486	0,139	0,001
-125,497	-69,903	0,103	-0,028
-124,483	-200,000	-0,053	0,178
-123,468	-96,607	0,036	-0,007
-122,453	-12,861	-0,144	0,068
-121,439	717,530	-0,062	-0,120
-120,424	800,000	-0,028	-0,063
