DTS Sentinel unit serial number:	SN410029Multiplexer serial number:	ORYXHardware model number:	OX2-SRSoftware version number:	ORYX F/W v4,00 Oryx Data Collector v3.7.2.0data status	okinstallation	B3 Nyhavnadifferential loss correction	single-endedforward channel	channel 1reverse channel	N/Adate	2023/11/28time	15:32:30forward acquisition time	300,00reverse acquisition time	0,00gamma	499,1914k internal	0,3185k external	0,3185temperature offset calibration	1,0000default loss term (dB/km)	0,3820temperature slope calibration	1,0000multiplexer offset coefficient	1,0000multiplexer slope coefficient	1,0000fibre end	0,00T internal ref (°C)	7,29T ext. ref 1 (°C)	-7,60T ext. ref 2 (°C)	-7,77length (m)	temperature (°C)	Stokes	anti-Stokes-744,400	101,620	-0,227	-0,193
-743,385	-200,000	-0,055	0,211
-742,371	800,000	-0,083	-0,226
-741,356	-200,000	-0,087	0,446
-740,342	163,547	-0,115	-0,118
-739,327	-200,000	0,019	0,312
-738,312	187,804	-0,262	-0,286
-737,298	800,000	-0,050	0,150
-736,283	69,459	-0,178	-0,134
-735,269	800,000	-0,064	0,155
-734,254	142,608	-0,236	-0,230
-733,239	-151,655	-0,285	-0,015
-732,225	-200,000	0,027	-0,182
-731,210	168,303	0,132	0,137
-730,196	-200,000	-0,047	-0,161
-729,181	702,629	-0,044	-0,084
-728,167	800,000	0,035	0,083
-727,152	-158,297	-0,060	0,003
-726,137	-63,172	-0,104	-0,031
-725,123	-122,817	-0,068	0,008
-724,108	-200,000	-0,007	-0,039
-723,094	-48,197	-0,039	0,014
-722,079	-200,000	0,014	0,076
-721,064	-129,520	0,109	-0,011
-720,050	415,685	-0,109	-0,170
-719,035	30,086	-0,066	-0,041
-718,021	217,122	-0,061	-0,071
-717,006	-200,000	-0,018	-0,165
-715,991	-200,000	0,018	-0,074
-714,977	-63,435	-0,106	-0,032
-713,962	135,777	-0,069	-0,065
-712,948	79,535	0,105	-0,082
-711,933	325,499	0,109	-0,152
-710,918	-130,222	-0,123	0,012
-709,904	-63,511	-0,049	0,014
-708,889	800,000	-0,057	-0,155
-707,875	-178,483	-0,112	-0,002
-706,860	800,000	0,017	0,039
-705,845	231,354	0,061	0,073
-704,831	-200,000	0,013	0,275
-703,816	-16,868	-0,061	-0,028
-702,802	800,000	-0,059	-0,188
-701,787	800,000	0,037	-0,101
-700,772	393,825	0,042	0,064
-699,758	-55,293	0,103	-0,033
-698,743	-200,000	0,000	0,007
-697,729	126,091	-0,054	0,050
-696,714	-61,605	0,118	0,036
-695,699	800,000	0,006	0,012
-694,685	40,108	-0,046	0,030
-693,670	89,640	0,075	-0,061
-692,656	-21,340	-0,044	0,019
-691,641	800,000	0,030	0,093
-690,627	159,052	0,035	-0,036
-689,612	396,522	0,065	-0,099
-688,597	520,536	-0,079	-0,136
-687,583	-41,725	-0,196	-0,073
-686,568	426,958	0,089	-0,141
-685,554	-200,000	-0,047	-0,156
-684,539	-200,000	0,013	-0,080
-683,524	-79,734	-0,099	-0,024
-682,510	-90,953	0,135	0,028
-681,495	-200,000	-0,014	0,071
-680,481	77,044	-0,077	-0,059
-679,466	218,019	-0,091	-0,106
-678,451	683,633	0,028	0,054
-677,437	800,000	0,016	0,033
-676,422	197,457	-0,076	-0,085
-675,408	-200,000	0,001	0,019
-674,393	141,723	-0,070	0,068
-673,378	-130,460	-0,127	-0,012
-672,364	-127,942	-0,047	0,005
-671,349	-106,644	-0,083	0,013
-670,335	191,585	0,075	0,083
-669,320	-75,264	-0,082	0,021
-668,305	-64,858	0,134	-0,039
-667,291	-140,991	0,075	0,005
-666,276	-200,000	0,025	-0,122
-665,262	62,718	0,083	-0,060
-664,247	800,000	-0,011	-0,028
-663,232	-200,000	-0,025	0,118
-662,218	102,217	-0,035	0,030
-661,203	-200,000	0,009	0,125
-660,189	752,324	0,054	0,107
-659,174	-76,929	-0,072	0,018
-658,159	289,235	0,061	0,080
-657,145	-200,000	-0,001	0,087
-656,130	195,747	0,063	-0,070
-655,116	368,082	-0,047	0,069
-654,101	-200,000	-0,025	-0,102
-653,086	-200,000	0,008	0,038
-652,072	162,667	-0,099	0,101
-651,057	-83,528	-0,139	0,032
-650,043	-61,633	0,048	-0,015
-649,028	-10,023	-0,032	0,016
-648,014	71,800	0,047	-0,035
-646,999	-32,401	-0,074	0,030
-645,984	800,000	0,021	0,054
-644,970	426,748	0,141	-0,221
-643,955	-6,922	0,081	-0,040
-642,941	-131,834	0,025	0,002
-641,926	800,000	0,028	-0,059
-640,911	395,468	0,130	-0,198
-639,897	38,534	0,150	-0,097
-638,882	-200,000	-0,013	0,168
-637,868	800,000	-0,010	0,028
-636,853	186,524	-0,109	-0,118
-635,838	-200,000	0,033	-0,121
-634,824	-170,149	-0,072	0,002
-633,809	227,448	-0,040	0,047
-632,795	-168,803	-0,089	-0,002
-631,780	800,000	0,055	0,152
-630,765	-200,000	-0,006	0,020
-629,751	800,000	-0,050	-0,124
-628,736	-2,232	-0,036	-0,018
-627,722	-135,217	-0,028	0,002
-626,707	38,117	-0,039	-0,025
-625,692	800,000	-0,033	0,086
-624,678	800,000	-0,022	-0,063
-623,663	800,000	0,054	0,122
-622,649	-200,000	0,017	-0,089
-621,634	45,321	-0,072	-0,048
-620,619	-132,696	0,017	-0,002
-619,605	-200,000	0,021	0,083
-618,590	148,844	-0,077	0,076
-617,576	-29,724	0,140	-0,058
-616,561	-71,539	0,058	-0,016
-615,546	60,654	-0,090	0,065
-614,532	-200,000	-0,002	-0,074
-613,517	-200,000	0,009	-0,125
-612,503	800,000	-0,053	0,129
-611,488	147,763	0,121	0,119
-610,474	-16,110	0,086	0,040
-609,459	270,312	-0,048	0,061
-608,444	324,114	-0,017	-0,023
-607,430	93,543	0,111	-0,091
-606,415	-54,151	-0,035	0,012
-605,401	800,000	-0,029	-0,069
-604,386	-200,000	0,019	0,099
-603,371	-200,000	-0,006	0,035
-602,357	800,000	0,026	0,066
-601,342	-42,630	0,057	0,021
-600,328	800,000	-0,045	-0,138
-599,313	16,950	-0,044	-0,025
-598,298	622,409	0,076	-0,139
-597,284	45,902	0,096	-0,064
-596,269	-45,424	-0,069	-0,025
-595,255	300,911	-0,032	-0,043
-594,240	-0,218	0,117	0,060
-593,225	32,843	0,058	-0,036
-592,211	84,120	-0,137	-0,108
-591,196	-101,323	-0,060	-0,011
-590,182	-200,000	-0,007	0,058
-589,167	-200,000	0,000	0,023
-588,152	-28,191	-0,092	0,038
-587,138	-51,909	-0,038	0,013
-586,123	-124,979	-0,125	-0,014
-585,109	542,703	-0,035	-0,061
-584,094	-200,000	-0,031	-0,170
-583,079	95,742	0,041	0,034
-582,065	462,155	-0,074	0,120
-581,050	-200,000	0,010	0,088
-580,036	109,548	-0,084	0,073
-579,021	244,582	-0,108	-0,132
-578,006	39,417	-0,085	0,055
-576,992	315,891	0,056	0,077
-575,977	-81,883	0,063	-0,015
-574,963	-104,273	0,131	-0,022
-573,948	98,479	0,077	-0,065
-572,934	-154,409	-0,078	-0,004
-571,919	498,221	-0,022	0,037
-570,904	-200,000	-0,008	-0,072
-569,890	-200,000	0,002	0,008
-568,875	-39,034	-0,037	-0,014
-567,861	156,258	0,063	-0,063
-566,846	800,000	0,018	0,046
-565,831	-200,000	-0,006	0,031
-564,817	47,733	0,093	0,063
-563,802	-6,755	-0,099	0,049
-562,788	-200,000	-0,010	0,068
-561,773	22,680	0,094	0,055
-560,758	800,000	0,059	-0,123
-559,744	46,148	-0,057	0,038
-558,729	-84,452	-0,041	0,009
-557,715	-75,899	0,089	-0,023
-556,700	-200,000	-0,036	-0,126
-555,685	76,832	0,101	-0,078
-554,671	56,036	0,033	-0,023
-553,656	277,913	0,031	-0,040
-552,642	477,527	0,044	0,072
-551,627	800,000	0,012	-0,032
-550,612	-200,000	-0,016	-0,058
-549,598	295,194	-0,160	-0,212
-548,583	118,417	-0,123	-0,110
-547,569	41,961	0,101	-0,066
-546,554	184,895	0,020	0,022
-545,539	188,402	0,112	0,122
-544,525	800,000	-0,030	-0,063
-543,510	341,512	0,025	-0,036
-542,496	800,000	0,068	-0,146
-541,481	800,000	-0,027	-0,081
-540,466	156,953	0,062	-0,062
-539,452	-28,061	0,181	-0,075
-538,437	100,829	-0,031	0,026
-537,423	800,000	0,043	0,101
-536,408	-5,856	-0,106	0,053
-535,393	-150,545	-0,093	-0,005
-534,379	800,000	0,047	-0,109
-533,364	-95,919	0,049	0,009
-532,350	-12,096	-0,086	-0,040
-531,335	-85,527	0,065	0,015
-530,321	108,554	-0,114	0,099
-529,306	-124,316	-0,079	-0,009
-528,291	221,555	-0,106	-0,124
-527,277	125,445	0,031	0,029
-526,262	-200,000	-0,019	-0,114
-525,248	800,000	-0,080	0,174
-524,233	704,059	0,070	-0,135
-523,218	-142,557	0,159	0,011
-522,204	800,000	-0,037	0,108
-521,189	-104,818	-0,107	-0,018
-520,175	92,905	-0,067	-0,055
-519,160	-200,000	-0,025	-0,135
-518,145	-119,426	-0,057	0,007
-517,131	-200,000	-0,010	-0,065
-516,116	-87,751	0,156	0,034
-515,102	-200,000	-0,022	-0,091
-514,087	-95,189	0,042	-0,008
-513,072	-200,000	-0,038	0,137
-512,058	-200,000	0,018	-0,110
-511,043	800,000	-0,066	0,140
-510,029	-200,000	-0,002	0,060
-509,014	333,775	0,056	0,079
-507,999	-200,000	-0,003	-0,008
-506,985	521,833	0,057	-0,098
-505,970	-200,000	0,039	0,154
-504,956	93,440	-0,102	-0,084
-503,941	-58,393	0,109	-0,034
-502,926	-120,305	0,066	-0,008
-501,912	-200,000	0,007	0,154
-500,897	95,983	0,024	0,020
-499,883	-200,000	0,002	-0,151
-498,868	-56,460	0,085	0,027
-497,853	-200,000	0,009	-0,095
-496,839	106,611	0,027	0,024
-495,824	57,531	0,059	0,042
-494,810	230,105	0,062	0,074
-493,795	-109,745	-0,086	0,013
-492,781	800,000	-0,050	-0,158
-491,766	36,376	0,075	0,048
-490,751	-200,000	0,016	-0,076
-489,737	206,878	0,078	0,088
-488,722	239,479	-0,088	-0,106
-487,708	-114,459	0,128	-0,018
-486,693	-200,000	0,006	0,076
-485,678	1,427	-0,073	-0,038
-484,664	-200,000	-0,045	-0,152
-483,649	-6,036	-0,066	0,032
-482,635	227,818	0,025	0,030
-481,620	30,511	-0,099	0,061
-480,605	91,191	0,080	0,065
-479,591	-41,760	-0,128	-0,047
-478,576	4,416	0,077	0,041
-477,562	800,000	-0,051	0,105
-476,547	-200,000	0,009	-0,095
-475,532	172,454	-0,107	-0,112
-474,518	122,522	0,070	0,063
-473,503	-200,000	-0,040	0,152
-472,489	65,211	0,084	0,061
-471,474	290,307	-0,051	-0,068
-470,459	-200,000	-0,016	-0,057
-469,445	-134,706	-0,044	0,004
-468,430	305,485	0,050	0,067
-467,416	425,984	0,062	-0,097
-466,401	-144,799	-0,092	0,006
-465,386	-109,079	0,088	-0,013
-464,372	272,567	-0,043	-0,055
-463,357	-200,000	-0,002	0,123
-462,343	-200,000	0,014	-0,063
-461,328	108,278	-0,142	-0,123
-460,313	39,866	0,164	0,106
-459,299	3,642	-0,063	-0,033
-458,284	-179,658	-0,050	-0,001
-457,270	-21,481	0,162	0,071
-456,255	800,000	0,030	-0,067
-455,241	-5,006	-0,102	0,050
-454,226	407,151	-0,014	-0,022
-453,211	-34,813	0,028	0,011
-452,197	800,000	0,050	0,108
-451,182	327,815	0,058	-0,081
-450,168	800,000	-0,023	0,063
-449,153	72,882	-0,035	-0,027
-448,138	800,000	0,012	0,029
-447,124	29,812	0,064	0,039
-446,109	-146,355	-0,033	0,002
-445,095	-65,919	-0,040	0,011
-444,080	-83,059	-0,057	0,013
-443,065	-200,000	0,047	0,172
-442,051	15,470	-0,039	-0,022
-441,036	-12,949	-0,175	-0,082
-440,022	-148,581	0,058	-0,003
-439,007	31,871	0,154	-0,096
-437,992	46,843	-0,082	0,055
-436,978	154,381	0,049	0,048
-435,963	800,000	-0,056	0,164
-434,949	37,007	-0,065	-0,042
-433,934	-22,928	-0,079	0,034
-432,919	-200,000	0,037	-0,134
-431,905	-200,000	0,022	0,086
-430,890	75,966	-0,026	0,020
-429,876	330,061	0,023	0,032
-428,861	-200,000	-0,015	0,062
-427,846	-11,590	-0,026	-0,012
-426,832	800,000	0,045	0,121
-425,817	-88,178	-0,270	-0,058
-424,803	271,212	0,100	-0,127
-423,788	317,996	-0,041	-0,056
-422,773	-200,000	0,011	-0,146
-421,759	-200,000	-0,002	-0,057
-420,744	-37,976	-0,064	0,024
-419,730	554,139	0,018	-0,032
-418,715	-190,739	-0,097	-0,001
-417,701	423,588	-0,057	-0,088
-416,686	172,562	-0,057	0,060
-415,671	4,918	0,122	0,064
-414,657	-200,000	-0,001	-0,042
-413,642	-34,822	0,026	0,010
-412,628	180,841	0,043	0,046
-411,613	-10,080	-0,068	-0,032
-410,598	-200,000	-0,020	-0,078
-409,584	-200,000	-0,006	0,082
-408,569	-140,196	-0,067	0,005
-407,555	-200,000	-0,010	-0,083
-406,540	162,973	-0,035	-0,035
-405,525	-108,194	0,103	0,016
-404,511	-19,578	-0,083	-0,037
-403,496	-5,683	-0,107	0,053
-402,482	800,000	0,024	0,063
-401,467	90,143	0,063	0,051
-400,452	20,089	0,053	0,031
-399,438	-200,000	0,038	-0,139
-398,423	411,359	-0,067	0,103
-397,409	-98,853	-0,048	0,009
-396,394	49,750	-0,102	-0,069
-395,379	64,334	0,081	0,059
-394,365	181,167	-0,087	0,092
-393,350	-200,000	0,006	0,144
-392,336	-133,774	0,133	0,012
-391,321	-200,000	0,039	-0,133
-390,306	135,749	0,112	-0,105
-389,292	177,045	0,037	0,039
-388,277	367,843	-0,017	-0,024
-387,263	-200,000	0,010	-0,085
-386,248	800,000	-0,010	0,026
-385,233	119,832	0,168	0,150
-384,219	-58,469	-0,042	0,013
-383,204	-34,919	-0,102	0,040
-382,190	132,557	0,041	0,038
-381,175	-200,000	0,035	0,155
-380,160	-200,000	0,045	0,188
-379,146	-200,000	-0,019	-0,072
-378,131	-200,000	-0,005	-0,020
-377,117	127,241	-0,100	-0,091
-376,102	800,000	-0,045	0,101
-375,088	-28,179	0,115	0,048
-374,073	2,084	-0,255	0,132
-373,058	-62,755	0,124	-0,037
-372,044	303,029	0,056	0,075
-371,029	-200,000	-0,015	-0,060
-370,015	-200,000	-0,000	0,038
-369,000	800,000	-0,105	-0,251
-367,985	68,172	0,131	-0,096
-366,971	2,188	-0,120	-0,062
-365,956	156,924	0,034	-0,034
-364,942	-38,149	-0,124	0,047
-363,927	281,354	-0,051	0,066
-362,912	-200,000	0,001	-0,012
-361,898	-200,000	-0,010	-0,059
-360,883	589,139	0,044	-0,078
-359,869	-13,063	-0,109	-0,051
-358,854	-175,973	0,103	0,002
-357,839	-75,844	-0,034	0,009
-356,825	-200,000	-0,000	0,062
-355,810	-200,000	-0,028	-0,178
-354,796	318,564	0,048	0,066
-353,781	-18,743	-0,109	-0,049
-352,766	15,100	0,102	-0,058
-351,752	217,786	0,070	-0,081
-350,737	-200,000	0,027	0,178
-349,723	194,931	0,122	0,134
-348,708	-200,000	0,030	0,136
-347,693	-32,546	-0,048	-0,019
-346,679	-138,495	-0,018	-0,001
-345,664	-32,037	-0,058	0,023
-344,650	800,000	0,053	-0,111
-343,635	269,575	0,029	0,037
-342,620	-200,000	0,030	0,125
-341,606	800,000	0,035	0,100
-340,591	-200,000	-0,011	0,057
-339,577	-81,451	-0,073	-0,017
-338,562	6,589	-0,175	-0,093
-337,548	-200,000	-0,043	-0,173
-336,533	-46,977	-0,036	-0,013
-335,518	-200,000	-0,003	0,081
-334,504	251,309	0,057	-0,070
-333,489	-76,216	-0,053	-0,013
-332,475	800,000	-0,040	-0,086
-331,460	-33,967	0,155	0,061
-330,445	-200,000	0,018	0,110
-329,431	800,000	0,063	-0,152
-328,416	10,888	0,078	0,043
-327,402	725,671	-0,018	0,034
-326,387	178,620	-0,027	-0,028
-325,372	-200,000	0,001	-0,116
-324,358	345,665	0,101	-0,143
-323,343	-200,000	-0,006	0,037
-322,329	-12,895	0,072	0,034
-321,314	162,274	0,079	0,080
-320,299	-200,000	-0,007	0,103
-319,285	-99,907	0,082	0,015
-318,270	-200,000	0,008	0,031
-317,256	34,908	0,011	0,007
-316,241	-139,761	-0,027	-0,002
-315,226	-98,842	-0,091	-0,016
-314,212	-7,476	0,055	-0,027
-313,197	-1,672	0,041	-0,020
-312,183	429,048	0,027	0,042
-311,168	428,990	-0,015	-0,023
-310,153	-200,000	0,005	-0,034
-309,139	-200,000	-0,018	-0,068
-308,124	135,216	0,069	0,065
-307,110	234,662	-0,060	0,071
-306,095	122,929	0,111	0,100
-305,080	-110,807	-0,082	-0,012
-304,066	489,400	-0,037	0,062
-303,051	-200,000	0,013	0,109
-302,037	-31,252	0,031	-0,013
-301,022	360,319	0,051	-0,073
-300,008	43,047	0,135	0,089
-298,993	-200,000	-0,004	0,138
-297,978	-141,584	-0,065	-0,005
-296,964	800,000	-0,037	-0,104
-295,949	262,656	-0,113	-0,142
-294,935	9,962	-0,090	0,049
-293,920	304,751	-0,053	-0,071
-292,905	-64,849	0,060	0,017
-291,891	449,344	-0,047	0,075
-290,876	96,811	0,059	0,049
-289,862	-91,171	-0,123	-0,025
-288,847	-24,717	-0,176	0,075
-287,832	-200,000	-0,009	-0,052
-286,818	-29,647	0,087	-0,035
-285,803	800,000	-0,021	-0,049
-284,789	681,513	0,093	0,174
-283,774	-200,000	0,038	0,220
-282,759	-107,498	0,100	0,016
-281,745	320,061	-0,050	-0,069
-280,730	-23,446	-0,162	-0,070
-279,716	-4,414	-0,126	0,062
-278,701	7,427	0,049	0,026
-277,686	-110,353	0,094	0,014
-276,672	800,000	-0,021	0,065
-275,657	30,377	-0,092	-0,056
-274,643	-54,830	-0,029	0,009
-273,628	585,618	-0,058	-0,104
-272,613	80,291	0,024	-0,018
-271,599	6,135	0,091	-0,048
-270,584	-67,697	0,017	0,005
-269,570	-200,000	0,014	0,090
-268,555	-10,762	0,177	-0,084
-267,540	-80,164	-0,266	-0,064
-266,526	-200,000	-0,018	-0,061
-265,511	60,112	-0,110	0,078
-264,497	-200,000	0,019	0,175
-263,482	800,000	-0,041	-0,106
-262,467	3,406	-0,027	0,014
-261,453	800,000	0,048	0,134
-260,438	5,480	-0,026	0,014
-259,424	-77,534	-0,058	0,014
-258,409	29,208	-0,090	-0,055
-257,395	2,354	0,061	-0,032
-256,380	-200,000	-0,002	0,130
-255,365	429,057	0,066	0,102
-254,351	-200,000	-0,007	0,127
-253,336	-99,730	-0,026	-0,005
-252,322	113,515	-0,081	-0,070
-251,307	-169,395	-0,059	-0,002
-250,292	113,415	-0,056	0,049
-249,278	-200,000	-0,035	0,121
-248,263	742,285	0,018	0,034
-247,249	-200,000	0,002	0,021
-246,234	608,193	-0,026	-0,046
-245,219	-182,759	-0,033	0,000
-244,205	-60,405	0,085	-0,026
-243,190	-117,133	0,090	-0,012
-242,176	-200,000	0,024	0,082
-241,161	-200,000	0,025	0,108
-240,146	139,308	0,058	0,055
-239,132	-200,000	0,004	0,065
-238,117	-49,350	-0,143	0,049
-237,103	536,180	-0,090	-0,154
-236,088	-76,662	0,190	-0,047
-235,073	-50,732	0,029	-0,010
-234,059	273,247	0,043	-0,055
-233,044	281,875	-0,052	0,067
-232,030	-200,000	-0,037	0,000
-231,015	-25,755	-0,010	-0,004
-230,000	-200,000	0,010	-0,076
-228,986	800,000	0,010	0,030
-227,971	36,347	0,132	0,083
-226,957	-50,858	0,140	0,047
-225,942	-200,000	-0,002	-0,106
-224,927	158,002	0,032	0,032
-223,913	227,357	-0,004	-0,005
-222,898	800,000	-0,046	0,135
-221,884	-149,553	-0,099	0,006
-220,869	-176,146	0,147	-0,003
-219,855	-181,932	0,030	-0,000
-218,840	-81,058	0,088	-0,021
-217,825	-200,000	-0,009	0,095
-216,811	-159,236	-0,091	-0,004
-215,796	800,000	0,025	-0,056
-214,782	321,883	-0,059	0,081
-213,767	135,158	0,076	0,071
-212,752	-13,426	0,074	0,034
-211,738	800,000	0,069	0,152
-210,723	-200,000	-0,017	-0,090
-209,709	-75,584	0,117	0,030
-208,694	738,237	-0,036	-0,069
-207,679	800,000	-0,060	-0,147
-206,665	-159,180	0,240	0,009
-205,650	-22,463	0,062	0,027
-204,636	-200,000	0,003	0,100
-203,621	-200,000	-0,020	-0,075
-202,606	-48,012	0,148	-0,051
-201,592	713,716	-0,057	-0,108
-200,577	156,878	-0,044	-0,043
-199,563	128,225	-0,041	0,037
-198,548	148,454	0,091	0,088
-197,533	17,329	0,002	-0,001
-196,519	-200,000	-0,028	-0,119
-195,504	229,695	-0,098	0,114
-194,490	-200,000	0,013	-0,138
-193,475	-63,479	-0,080	-0,024
-192,460	185,749	-0,087	0,092
-191,446	-200,000	0,017	-0,117
-190,431	312,300	-0,032	0,043
-189,417	239,212	-0,056	0,067
-188,402	-200,000	0,008	-0,110
-187,387	800,000	-0,046	-0,132
-186,373	-200,000	-0,049	-0,185
-185,358	-83,413	-0,087	0,020
-184,344	-200,000	0,025	0,137
-183,329	-200,000	-0,008	-0,099
-182,315	266,812	-0,091	-0,113
-181,300	2,462	0,107	0,055
-180,285	12,272	-0,124	0,068
-179,271	46,894	-0,074	-0,049
-178,256	342,019	0,056	0,079
-177,242	-200,000	0,019	0,105
-176,227	-200,000	0,017	-0,092
-175,212	36,847	-0,144	0,091
-174,198	-55,053	-0,102	0,033
-173,183	18,693	0,051	-0,029
-172,169	598,698	-0,022	-0,039
-171,154	-176,682	0,149	-0,003
-170,139	-200,000	0,036	-0,121
-169,125	-61,141	0,064	0,019
-168,110	-200,000	0,012	0,123
-167,096	-91,138	0,212	0,043
-166,081	800,000	-0,037	-0,098
-165,066	-200,000	0,006	-0,080
-164,052	226,371	0,049	0,057
-163,037	210,899	0,146	0,165
-162,023	-134,840	-0,096	0,008
-161,008	119,098	-0,068	0,060
-159,993	120,092	0,055	0,049
-158,979	800,000	-0,056	-0,119
-157,964	800,000	0,043	-0,129
-156,950	166,547	-0,049	0,050
-155,935	106,060	0,065	0,055
-154,920	64,809	0,029	0,021
-153,906	-200,000	-0,000	0,081
-152,891	-68,066	-0,119	-0,033
-151,877	27,484	0,127	-0,076
-150,862	-200,000	0,020	-0,110
-149,847	202,718	-0,049	-0,055
-148,833	-17,161	0,076	0,034
-147,818	-135,311	-0,147	0,012
-146,804	-200,000	0,028	0,102
-145,789	141,476	0,111	-0,105
-144,775	800,000	0,074	-0,148
-143,760	700,800	0,008	-0,015
-142,745	75,878	0,136	0,103
-141,731	407,574	-0,157	-0,238
-140,716	630,271	0,055	0,099
-139,702	661,769	-0,052	0,097
-138,687	-200,000	0,004	0,106
-137,672	107,867	-0,042	0,036
-136,658	304,881	0,061	-0,081
-135,643	-12,989	-0,118	0,055
-134,629	-92,901	-0,086	0,017
-133,614	247,495	-0,026	0,031
-132,599	26,265	-0,128	-0,076
-131,585	-71,523	0,143	-0,038
-130,570	800,000	-0,037	0,088
-129,556	798,746	-0,046	-0,091
-128,541	90,946	0,112	0,090
-127,526	-49,272	-0,099	0,034
-126,512	800,000	0,031	-0,093
-125,497	247,334	0,107	0,130
-124,483	267,702	-0,044	-0,055
-123,468	399,020	-0,063	0,095
-122,453	122,854	-0,114	0,102
-121,439	-200,000	-0,040	-0,146
-120,424	-200,000	0,004	0,115
-119,410	42,772	0,072	0,047
