DTS Sentinel unit serial number:	SN410029Multiplexer serial number:	ORYXHardware model number:	OX2-SRSoftware version number:	ORYX F/W v4,00 Oryx Data Collector v3.7.2.0data status	okinstallation	B3 Nyhavnadifferential loss correction	single-endedforward channel	channel 1reverse channel	N/Adate	2023/11/28time	15:57:30forward acquisition time	300,00reverse acquisition time	0,00gamma	499,1914k internal	0,3205k external	0,3205temperature offset calibration	1,0000default loss term (dB/km)	0,3820temperature slope calibration	1,0000multiplexer offset coefficient	1,0000multiplexer slope coefficient	1,0000fibre end	0,00T internal ref (°C)	7,27T ext. ref 1 (°C)	-7,50T ext. ref 2 (°C)	-7,68length (m)	temperature (°C)	Stokes	anti-Stokes-744,400	32,260	-0,283	-0,177
-743,385	-200,000	-0,090	0,372
-742,371	118,305	-0,218	-0,195
-741,356	800,000	0,057	0,160
-740,342	226,115	-0,179	-0,211
-739,327	-200,000	0,036	0,199
-738,312	800,000	-0,140	-0,341
-737,298	354,796	-0,190	0,274
-736,283	428,717	-0,090	-0,141
-735,269	-200,000	-0,036	0,422
-734,254	59,884	-0,271	-0,194
-733,239	-54,845	-0,218	0,071
-732,225	800,000	-0,113	-0,244
-731,210	-200,000	-0,027	0,097
-730,196	-156,859	0,123	0,005
-729,181	32,466	-0,053	0,033
-728,167	245,191	-0,101	-0,124
-727,152	48,395	-0,024	-0,016
-726,137	-42,880	-0,157	-0,057
-725,123	-2,127	0,084	0,043
-724,108	-109,003	-0,161	-0,025
-723,094	-26,401	0,060	-0,025
-722,079	-200,000	-0,024	-0,117
-721,064	-11,839	-0,186	0,088
-720,050	-142,323	0,097	0,007
-719,035	84,876	-0,055	0,044
-718,021	-96,385	-0,099	-0,019
-717,006	-200,000	-0,027	-0,149
-715,991	-92,647	-0,069	-0,014
-714,977	215,886	-0,040	-0,047
-713,962	56,432	0,015	-0,010
-712,948	42,001	0,113	-0,074
-711,933	453,359	0,033	-0,054
-710,918	96,954	0,052	0,044
-709,904	-200,000	0,008	-0,167
-708,889	56,784	0,092	-0,065
-707,875	-1,355	-0,093	0,047
-706,860	-200,000	-0,038	0,127
-705,845	74,026	0,091	-0,070
-704,831	-200,000	0,047	-0,212
-703,816	337,392	0,073	0,104
-702,802	-53,185	-0,142	-0,047
-701,787	800,000	-0,071	-0,164
-700,772	156,203	0,113	0,113
-699,758	-99,727	-0,124	0,022
-698,743	-200,000	-0,019	0,064
-697,729	-57,507	0,156	-0,049
-696,714	-50,542	-0,145	-0,049
-695,699	-25,885	0,090	0,038
-694,685	-200,000	0,002	0,028
-693,670	-28,153	0,078	-0,032
-692,656	800,000	0,074	-0,166
-691,641	-124,676	-0,043	0,005
-690,627	800,000	-0,052	-0,120
-689,612	800,000	-0,057	0,149
-688,597	-37,013	-0,038	-0,015
-687,583	800,000	-0,050	-0,133
-686,568	-200,000	-0,030	-0,139
-685,554	-8,751	-0,125	0,061
-684,539	-87,893	0,166	0,036
-683,524	-200,000	0,021	0,136
-682,510	-83,506	-0,035	-0,008
-681,495	-200,000	-0,018	-0,080
-680,481	800,000	-0,020	0,055
-679,466	-200,000	-0,001	-0,124
-678,451	-26,911	-0,108	-0,045
-677,437	-200,000	0,001	0,066
-676,422	800,000	0,018	0,039
-675,408	-200,000	0,000	0,010
-674,393	193,358	-0,063	-0,069
-673,378	-66,138	-0,078	0,022
-672,364	318,000	0,110	-0,151
-671,349	690,215	0,047	-0,090
-670,335	800,000	0,068	0,150
-669,320	-200,000	0,002	-0,019
-668,305	162,395	0,028	0,028
-667,291	306,119	0,051	-0,069
-666,276	-45,225	-0,090	0,032
-665,262	196,697	-0,075	0,083
-664,247	800,000	-0,069	-0,160
-663,232	-150,279	0,047	0,003
-662,218	-146,808	-0,038	0,002
-661,203	-200,000	0,023	0,080
-660,189	476,714	0,009	-0,015
-659,174	-96,656	-0,050	-0,009
-658,159	223,110	-0,077	-0,090
-657,145	87,480	-0,008	0,007
-656,130	-94,355	0,129	-0,025
-655,116	298,661	-0,092	-0,122
-654,101	255,148	-0,043	-0,053
-653,086	-53,623	0,110	0,036
-652,072	-98,615	0,057	0,011
-651,057	120,415	-0,109	-0,098
-650,043	800,000	-0,027	-0,065
-649,028	800,000	-0,007	-0,019
-648,014	-181,415	0,065	0,001
-646,999	800,000	-0,004	0,011
-645,984	75,331	-0,122	-0,093
-644,970	800,000	-0,012	0,039
-643,955	-67,668	-0,091	0,026
-642,941	-200,000	-0,033	-0,105
-641,926	125,702	-0,076	-0,069
-640,911	379,488	0,041	0,061
-639,897	18,860	0,054	0,031
-638,882	-6,682	0,092	-0,045
-637,868	9,944	-0,080	-0,044
-636,853	-200,000	-0,032	-0,180
-635,838	-200,000	0,004	0,031
-634,824	-200,000	0,014	0,099
-633,809	387,558	0,056	0,084
-632,795	406,752	-0,121	0,186
-631,780	295,483	-0,059	-0,078
-630,765	0,414	0,034	0,018
-629,751	-20,169	-0,043	-0,019
-628,736	-200,000	-0,085	-0,000
-627,722	538,690	0,013	-0,023
-626,707	480,933	-0,020	0,033
-625,692	78,549	0,018	0,014
-624,678	300,398	-0,045	-0,060
-623,663	44,558	-0,050	0,033
-622,649	144,195	-0,063	-0,061
-621,634	-200,000	0,021	-0,158
-620,619	-2,807	0,138	0,069
-619,605	335,362	0,044	-0,062
-618,590	-200,000	0,020	-0,067
-617,576	-118,620	0,131	-0,016
-616,561	-26,739	0,110	0,046
-615,546	246,818	-0,048	-0,059
-614,532	-200,000	0,004	-0,164
-613,517	-47,253	0,099	0,034
-612,503	-54,646	-0,049	-0,016
-611,488	-200,000	-0,029	-0,111
-610,474	-126,071	0,107	-0,011
-609,459	67,483	-0,067	-0,049
-608,444	-200,000	0,012	-0,043
-607,430	-200,000	0,010	0,101
-606,415	-200,000	-0,017	-0,057
-605,401	217,879	-0,073	-0,085
-604,386	59,946	0,157	0,112
-603,371	-200,000	0,166	0,000
-602,357	401,899	0,033	0,050
-601,342	512,341	-0,039	-0,065
-600,328	-200,000	0,007	0,029
-599,313	-200,000	0,006	0,083
-598,298	-135,650	-0,058	0,005
-597,284	800,000	0,068	0,174
-596,269	-97,312	-0,115	0,021
-595,255	173,227	-0,104	0,108
-594,240	-200,000	-0,019	0,084
-593,225	-85,703	-0,155	-0,034
-592,211	7,849	-0,115	-0,062
-591,196	800,000	0,075	0,164
-590,182	-46,260	-0,131	-0,046
-589,167	-200,000	-0,016	0,136
-588,152	-60,915	0,051	-0,015
-587,138	217,354	-0,025	-0,029
-586,123	101,711	-0,071	0,060
-585,109	-5,575	-0,113	-0,056
-584,094	416,553	0,088	-0,136
-583,079	-91,494	-0,140	-0,029
-582,065	139,111	0,085	0,081
-581,050	800,000	0,010	-0,025
-580,036	-200,000	0,023	-0,104
-579,021	409,371	0,016	-0,024
-578,006	800,000	0,094	-0,202
-576,992	-126,644	-0,159	-0,017
-575,977	-200,000	-0,005	0,017
-574,963	800,000	-0,079	0,188
-573,948	-200,000	0,004	0,082
-572,934	606,103	0,060	-0,109
-571,919	242,813	-0,044	-0,053
-570,904	64,118	-0,067	-0,048
-569,890	258,167	0,055	-0,068
-568,875	-114,436	0,074	0,010
-567,861	800,000	-0,027	0,071
-566,846	105,172	0,094	0,080
-565,831	-41,141	-0,061	-0,022
-564,817	800,000	0,052	-0,113
-563,802	-200,000	0,035	-0,115
-562,788	106,159	-0,099	-0,084
-561,773	-48,558	0,056	-0,019
-560,758	-200,000	0,010	0,066
-559,744	46,000	0,039	0,026
-558,729	-200,000	-0,014	-0,155
-557,715	110,821	-0,057	0,049
-556,700	-26,786	-0,153	-0,064
-555,685	-55,053	-0,118	-0,038
-554,671	-200,000	0,010	-0,065
-553,656	139,704	-0,094	-0,089
-552,642	-200,000	0,020	0,077
-551,627	800,000	-0,024	0,071
-550,612	-200,000	-0,001	-0,119
-549,598	800,000	0,019	0,053
-548,583	-200,000	-0,068	-0,217
-547,569	-68,036	0,097	0,027
-546,554	211,164	0,070	0,080
-545,539	763,725	0,037	0,073
-544,525	-200,000	-0,046	-0,163
-543,510	-125,493	0,068	0,007
-542,496	-200,000	0,012	-0,084
-541,481	800,000	-0,045	-0,124
-540,466	-157,344	0,045	-0,002
-539,452	-200,000	0,031	-0,131
-538,437	152,900	-0,025	-0,025
-537,423	-124,760	0,024	0,003
-536,408	525,377	0,041	-0,070
-535,393	738,338	0,072	-0,140
-534,379	-71,839	-0,102	-0,027
-533,364	-67,555	0,033	0,009
-532,350	162,414	0,002	0,002
-531,335	246,080	0,070	-0,086
-530,321	-200,000	0,014	0,069
-529,306	202,369	-0,020	-0,022
-528,291	39,752	0,024	-0,016
-527,277	238,359	0,104	-0,125
-526,262	-200,000	0,027	-0,103
-525,248	123,595	0,092	-0,083
-524,233	356,806	0,048	-0,069
-523,218	-1,441	-0,083	0,042
-522,204	24,589	0,124	0,073
-521,189	-88,277	0,028	-0,006
-520,175	-200,000	-0,003	-0,109
-519,160	273,462	-0,143	-0,183
-518,145	539,816	-0,032	-0,055
-517,131	537,251	0,084	0,144
-516,116	-35,650	0,101	-0,039
-515,102	111,419	-0,073	-0,063
-514,087	800,000	-0,033	0,080
-513,072	563,002	-0,071	0,123
-512,058	-58,670	-0,145	-0,045
-511,043	41,615	0,109	-0,071
-510,029	-200,000	-0,010	0,038
-509,014	-176,771	-0,114	-0,002
-507,999	51,007	0,041	-0,028
-506,985	133,211	-0,050	0,046
-505,970	683,692	-0,039	0,074
-504,956	252,630	-0,063	-0,078
-503,941	76,424	0,077	0,059
-502,926	7,810	0,070	0,037
-501,912	-33,220	-0,084	0,033
-500,897	-200,000	-0,042	0,175
-499,883	-105,865	-0,119	-0,019
-498,868	800,000	0,020	-0,060
-497,853	-83,889	0,120	-0,027
-496,839	-200,000	-0,011	-0,122
-495,824	42,112	-0,094	-0,061
-494,810	-49,466	-0,070	0,024
-493,795	800,000	0,013	0,042
-492,781	88,098	-0,121	-0,097
-491,766	-200,000	-0,008	-0,117
-490,751	82,871	0,100	-0,078
-489,737	166,268	-0,090	0,092
-488,722	369,348	0,102	0,149
-487,708	-200,000	0,014	0,097
-486,693	-26,345	0,053	-0,022
-485,678	195,365	-0,067	0,073
-484,664	800,000	-0,071	-0,192
-483,649	63,938	-0,078	0,056
-482,635	800,000	-0,061	-0,124
-481,620	800,000	-0,020	0,045
-480,605	358,711	0,089	0,128
-479,591	-12,440	0,142	0,066
-478,576	-44,808	-0,147	-0,053
-477,562	-23,555	-0,145	-0,062
-476,547	586,457	0,027	0,048
-475,532	-200,000	0,044	0,163
-474,518	-71,177	0,053	0,014
-473,503	800,000	0,030	0,091
-472,489	-88,066	0,088	-0,019
-471,474	98,424	0,135	-0,112
-470,459	-200,000	-0,021	-0,162
-469,445	800,000	0,064	-0,135
-468,430	800,000	0,037	0,079
-467,416	214,420	0,010	-0,011
-466,401	-11,100	0,056	0,026
-465,386	198,970	0,066	0,073
-464,372	206,536	0,059	0,067
-463,357	800,000	0,024	0,050
-462,343	685,811	0,063	-0,120
-461,328	30,899	-0,096	-0,059
-460,313	-8,675	0,060	-0,029
-459,299	800,000	-0,038	0,080
-458,284	800,000	-0,063	0,130
-457,270	646,653	-0,028	0,053
-456,255	665,794	-0,037	-0,069
-455,241	-200,000	0,048	-0,179
-454,226	800,000	0,030	-0,061
-453,211	-200,000	0,003	0,028
-452,197	-144,408	-0,143	0,009
-451,182	21,985	0,104	-0,061
-450,168	-64,294	-0,074	-0,021
-449,153	800,000	0,041	-0,107
-448,138	86,938	-0,143	-0,113
-447,124	116,167	0,073	-0,064
-446,109	800,000	0,022	0,052
-445,095	140,194	0,078	0,074
-444,080	-200,000	0,004	-0,042
-443,065	56,512	-0,126	0,088
-442,051	800,000	0,049	0,104
-441,036	107,102	-0,049	0,042
-440,022	63,342	0,045	0,033
-439,007	231,005	-0,090	0,106
-437,992	-11,347	0,101	0,048
-436,978	-200,000	-0,008	0,099
-435,963	-167,275	0,239	-0,007
-434,949	220,321	-0,085	0,098
-433,934	-26,398	-0,217	-0,091
-432,919	116,000	0,101	0,089
-431,905	-192,207	-0,096	-0,001
-430,890	4,984	0,091	0,048
-429,876	207,896	-0,025	0,029
-428,861	166,023	0,079	0,081
-427,846	-200,000	0,007	-0,054
-426,832	800,000	0,014	-0,036
-425,817	-167,777	-0,210	0,006
-424,803	800,000	0,057	-0,133
-423,788	91,105	0,054	0,043
-422,773	-200,000	0,030	0,140
-421,759	214,784	-0,050	-0,057
-420,744	800,000	0,024	-0,065
-419,730	9,757	-0,048	0,026
-418,715	538,405	-0,039	0,066
-417,701	-60,857	0,125	0,038
-416,686	272,946	-0,090	0,115
-415,671	-200,000	0,009	0,037
-414,657	58,051	0,072	0,051
-413,642	-200,000	0,021	0,077
-412,628	-93,042	-0,101	0,020
-411,613	800,000	-0,054	-0,130
-410,598	-200,000	-0,016	0,236
-409,584	-187,150	0,024	0,000
-408,569	-69,915	0,153	0,041
-407,555	205,257	0,143	0,159
-406,540	-200,000	-0,027	-0,159
-405,525	-200,000	-0,027	-0,106
-404,511	339,395	-0,056	-0,078
-403,496	-200,000	0,009	-0,060
-402,482	-13,922	0,110	-0,051
-401,467	229,313	0,028	0,033
-400,452	30,702	0,095	0,058
-399,438	-200,000	0,005	0,169
-398,423	-44,257	-0,123	-0,044
-397,409	306,860	-0,031	0,041
-396,394	-28,549	0,190	-0,078
-395,379	-93,434	-0,051	-0,010
-394,365	-200,000	-0,004	0,094
-393,350	800,000	-0,026	-0,069
-392,336	-200,000	0,010	-0,077
-391,321	-200,000	0,030	-0,145
-390,306	-200,000	-0,005	0,038
-389,292	-27,227	0,084	-0,035
-388,277	-200,000	0,005	-0,024
-387,263	-200,000	-0,001	0,043
-386,248	594,146	0,036	0,064
-385,233	357,773	-0,068	0,098
-384,219	-18,049	-0,054	-0,024
-383,204	-200,000	0,029	0,117
-382,190	287,903	-0,047	-0,061
-381,175	101,597	-0,124	0,104
-380,160	-114,120	0,062	0,008
-379,146	-200,000	-0,010	0,063
-378,131	260,870	0,085	0,105
-377,117	81,912	-0,039	-0,030
-376,102	-200,000	0,002	0,070
-375,088	270,194	0,065	-0,082
-374,073	345,086	0,067	-0,094
-373,058	-200,000	-0,005	0,022
-372,044	-200,000	0,019	0,092
-371,029	399,332	0,101	0,153
-370,015	-200,000	-0,009	0,117
-369,000	-20,390	-0,101	-0,044
-367,985	149,171	-0,043	-0,042
-366,971	800,000	0,044	-0,099
-365,956	-200,000	0,026	-0,092
-364,942	-200,000	0,010	0,051
-363,927	-44,243	0,102	0,036
-362,912	-178,448	0,073	-0,001
-361,898	-24,075	-0,074	0,031
-360,883	137,350	-0,091	-0,085
-359,869	-12,035	0,072	-0,034
-358,854	305,012	0,117	0,156
-357,839	231,723	0,105	0,123
-356,825	-80,751	0,115	-0,027
-355,810	-200,000	-0,019	0,084
-354,796	-46,530	-0,107	0,037
-353,781	-81,353	0,104	-0,024
-352,766	-200,000	0,001	0,068
-351,752	-200,000	0,002	-0,032
-350,737	800,000	-0,030	-0,083
-349,723	-200,000	0,005	0,064
-348,708	504,950	0,009	-0,014
-347,693	146,823	0,025	0,024
-346,679	326,580	-0,066	-0,091
-345,664	-200,000	0,010	-0,138
-344,650	594,797	-0,125	-0,222
-343,635	-57,783	0,175	-0,054
-342,620	118,282	-0,031	-0,028
-341,606	-200,000	0,025	-0,087
-340,591	800,000	-0,029	0,081
-339,577	-135,372	0,076	-0,006
-338,562	74,102	0,098	-0,073
-337,548	592,369	0,054	0,095
-336,533	314,126	0,064	0,086
-335,518	-102,950	0,054	0,009
-334,504	800,000	-0,014	-0,031
-333,489	-40,771	0,040	-0,015
-332,475	267,949	0,050	0,062
-331,460	-200,000	-0,126	-0,000
-330,445	-120,074	-0,063	0,008
-329,431	25,433	0,119	0,070
-328,416	797,689	-0,051	0,101
-327,402	523,498	0,046	-0,077
-326,387	-200,000	-0,008	0,195
-325,372	-200,000	0,013	-0,220
-324,358	181,139	0,097	-0,102
-323,343	358,782	-0,025	-0,036
-322,329	-154,553	0,148	0,007
-321,314	-200,000	-0,030	0,106
-320,299	-200,000	-0,025	-0,153
-319,285	800,000	0,073	0,145
-318,270	800,000	-0,074	-0,185
-317,256	-200,000	-0,010	0,067
-316,241	800,000	0,052	-0,124
-315,226	800,000	0,014	0,035
-314,212	-200,000	0,001	0,090
-313,197	800,000	0,032	0,072
-312,183	-200,000	-0,034	-0,118
-311,168	-200,000	0,013	-0,069
-310,153	553,865	-0,014	-0,024
-309,139	52,947	-0,148	-0,101
-308,124	99,753	-0,044	0,036
-307,110	-200,000	0,010	-0,055
-306,095	264,535	0,051	0,063
-305,080	242,223	-0,086	0,103
-304,066	-200,000	-0,014	-0,068
-303,051	552,812	-0,065	0,112
-302,037	362,441	0,094	-0,136
-301,022	-45,940	-0,097	-0,034
-300,008	470,292	-0,091	0,146
-298,993	-200,000	0,015	0,101
-297,978	-100,316	-0,068	0,012
-296,964	-154,187	-0,092	-0,004
-295,949	-200,000	0,004	-0,075
-294,935	-139,438	0,285	-0,021
-293,920	-200,000	-0,019	-0,126
-292,905	-200,000	0,014	0,142
-291,891	571,880	-0,050	-0,088
-290,876	-103,524	0,049	-0,008
-289,862	-80,893	0,034	-0,008
-288,847	123,447	-0,117	-0,105
-287,832	127,763	-0,048	-0,044
-286,818	-179,390	-0,173	-0,003
-285,803	289,356	-0,037	0,048
-284,789	161,017	0,037	0,037
-283,774	287,618	-0,115	0,149
-282,759	87,942	0,027	0,021
-281,745	-200,000	0,029	-0,171
-280,730	-33,479	0,041	-0,016
-279,716	353,522	-0,011	0,016
-278,701	-200,000	0,001	-0,011
-277,686	15,928	0,217	0,121
-276,672	192,690	-0,024	-0,026
-275,657	695,519	-0,032	0,061
-274,643	-153,417	0,046	-0,002
-273,628	800,000	-0,035	-0,109
-272,613	-9,274	-0,065	0,031
-271,599	-200,000	0,008	0,124
-270,584	237,740	-0,038	0,045
-269,570	89,364	0,049	0,039
-268,555	-200,000	0,011	0,064
-267,540	-84,449	0,143	-0,032
-266,526	-27,380	-0,185	-0,076
-265,511	694,932	-0,055	0,104
-264,497	-200,000	0,004	0,053
-263,482	-56,365	0,077	0,024
-262,467	3,741	0,105	0,054
-261,453	118,706	-0,044	0,038
-260,438	-103,990	0,007	0,001
-259,424	-200,000	-0,000	0,048
-258,409	250,225	-0,027	-0,033
-257,395	296,383	-0,038	0,050
-256,380	544,948	-0,018	0,031
-255,365	278,233	0,126	0,160
-254,351	133,912	-0,059	-0,055
-253,336	-29,471	-0,099	0,040
-252,322	-152,468	-0,064	-0,003
-251,307	-200,000	0,016	-0,194
-250,292	-58,123	-0,070	0,022
-249,278	-200,000	0,028	0,091
-248,263	453,137	0,056	0,089
-247,249	-144,766	0,124	0,008
-246,234	-68,442	-0,085	-0,023
-245,219	-100,648	-0,022	-0,004
-244,205	-9,355	-0,123	0,058
-243,190	-145,110	0,140	-0,009
-242,176	160,082	0,132	0,131
-241,161	108,933	-0,064	0,055
-240,146	567,519	0,079	-0,137
-239,132	800,000	0,012	-0,031
-238,117	208,917	0,064	-0,072
-237,103	-24,371	-0,148	0,062
-236,088	21,116	-0,028	0,016
-235,073	-200,000	-0,006	0,052
-234,059	-126,941	-0,057	-0,006
-233,044	800,000	-0,073	0,164
-232,030	-105,973	-0,026	0,004
-231,015	-6,433	-0,081	-0,039
-230,000	800,000	-0,024	-0,072
-228,986	-95,359	-0,081	0,015
-227,971	-182,926	0,170	-0,002
-226,957	-200,000	-0,019	0,143
-225,942	760,312	-0,061	0,118
-224,927	800,000	-0,058	0,136
-223,913	491,682	-0,052	-0,085
-222,898	93,309	-0,020	-0,016
-221,884	27,332	0,056	-0,034
-220,869	-200,000	0,010	-0,046
-219,855	517,272	-0,032	0,053
-218,840	140,597	0,101	0,095
-217,825	800,000	0,037	-0,084
-216,811	-200,000	0,011	-0,036
-215,796	101,049	0,049	0,040
-214,782	140,619	0,057	0,054
-213,767	509,966	0,066	0,109
-212,752	-200,000	-0,011	0,099
-211,738	67,755	-0,061	-0,044
-210,723	166,583	0,083	0,084
-209,709	4,022	-0,183	-0,095
-208,694	-133,087	0,136	0,012
-207,679	-200,000	-0,044	-0,152
-206,665	10,651	0,073	0,040
-205,650	-200,000	-0,023	0,105
-204,636	-117,910	-0,014	-0,002
-203,621	23,846	0,022	0,013
-202,606	10,985	-0,126	-0,068
-201,592	384,229	-0,031	-0,045
-200,577	226,397	-0,168	-0,194
-199,563	800,000	-0,022	-0,067
-198,548	120,952	-0,030	0,027
-197,533	-200,000	-0,003	-0,054
-196,519	44,487	-0,075	0,049
-195,504	55,765	0,056	-0,039
-194,490	-200,000	-0,011	0,037
-193,475	698,063	-0,057	-0,106
-192,460	29,941	0,113	-0,068
-191,446	212,113	0,024	0,027
-190,431	321,489	0,016	0,022
-189,417	294,658	0,019	-0,024
-188,402	77,328	-0,023	0,017
-187,387	-114,677	-0,044	0,006
-186,373	783,438	0,018	0,036
-185,358	52,805	-0,052	-0,035
-184,344	-200,000	0,030	0,094
-183,329	26,158	-0,029	0,017
-182,315	-185,864	-0,115	-0,001
-181,300	-200,000	0,005	0,018
-180,285	-10,107	-0,102	0,048
-179,271	-128,273	0,213	0,021
-178,256	-200,000	0,008	0,071
-177,242	800,000	-0,025	-0,066
-176,227	458,592	0,043	-0,068
-175,212	-130,301	-0,027	-0,003
-174,198	611,654	0,053	0,094
-173,183	800,000	-0,013	0,039
-172,169	290,796	-0,057	-0,074
-171,154	-62,072	0,029	-0,009
-170,139	105,719	-0,091	0,077
-169,125	-14,318	0,095	0,043
-168,110	225,590	0,058	0,066
-167,096	30,913	-0,099	0,060
-166,081	489,715	0,033	0,053
-165,066	-108,411	-0,199	-0,030
-164,052	-200,000	-0,008	-0,043
-163,037	-200,000	0,008	-0,159
-162,023	-118,871	-0,031	-0,004
-161,008	-200,000	-0,004	0,138
-159,993	800,000	-0,028	0,079
-158,979	55,628	-0,027	-0,019
-157,964	90,920	0,098	0,078
-156,950	800,000	0,031	0,077
-155,935	-45,317	0,028	0,010
-154,920	26,632	0,074	-0,044
-153,906	-86,900	0,039	0,008
-152,891	575,060	0,050	-0,087
-151,877	773,784	-0,049	0,094
-150,862	59,496	-0,092	-0,064
-149,847	800,000	-0,012	-0,036
-148,833	265,727	-0,041	0,051
-147,818	800,000	0,050	0,099
-146,804	-200,000	-0,022	0,089
-145,789	-200,000	-0,002	0,076
-144,775	-200,000	0,009	-0,065
-143,760	800,000	0,077	-0,167
-142,745	191,736	-0,041	0,043
-141,731	-200,000	-0,017	0,139
-140,716	-23,083	-0,115	-0,049
-139,702	-115,449	0,128	0,017
-138,687	-42,878	-0,066	0,024
-137,672	-2,009	0,081	0,040
-136,658	291,266	0,038	-0,049
-135,643	-200,000	0,004	0,070
-134,629	27,995	-0,166	-0,099
-133,614	645,520	-0,036	-0,065
-132,599	146,491	-0,059	0,056
-131,585	40,852	0,137	0,088
-130,570	-75,699	-0,089	0,022
-129,556	45,751	-0,201	-0,131
-128,541	277,501	-0,104	-0,132
-127,526	-200,000	-0,024	-0,084
-126,512	255,913	-0,031	0,038
-125,497	718,882	-0,048	0,091
-124,483	82,032	0,033	-0,026
-123,468	-88,957	0,041	-0,009
-122,453	-40,367	-0,123	-0,045
-121,439	155,227	-0,046	0,045
-120,424	178,274	0,046	0,047
-119,410	-200,000	-0,016	-0,094
