DTS Sentinel unit serial number:	SN410029Multiplexer serial number:	ORYXHardware model number:	OX2-SRSoftware version number:	ORYX F/W v4,00 Oryx Data Collector v3.7.2.0data status	okinstallation	B3 Nyhavnadifferential loss correction	single-endedforward channel	channel 1reverse channel	N/Adate	2023/11/28time	16:02:30forward acquisition time	300,00reverse acquisition time	0,00gamma	499,1914k internal	0,3208k external	0,3208temperature offset calibration	1,0000default loss term (dB/km)	0,3820temperature slope calibration	1,0000multiplexer offset coefficient	1,0000multiplexer slope coefficient	1,0000fibre end	0,00T internal ref (°C)	7,26T ext. ref 1 (°C)	-7,56T ext. ref 2 (°C)	-7,73length (m)	temperature (°C)	Stokes	anti-Stokes-744,400	136,455	-0,319	-0,302
-743,385	-200,000	-0,040	0,146
-742,371	-200,000	-0,033	-0,249
-741,356	-200,000	-0,025	0,184
-740,342	242,165	-0,048	-0,059
-739,327	-200,000	-0,063	0,329
-738,312	509,633	-0,144	-0,244
-737,298	-200,000	-0,001	0,167
-736,283	800,000	-0,090	-0,214
-735,269	-200,000	0,071	0,239
-734,254	90,996	-0,300	-0,244
-733,239	-103,877	-0,156	-0,026
-732,225	800,000	-0,062	-0,157
-731,210	695,499	0,107	0,204
-730,196	146,003	0,063	0,061
-729,181	87,921	-0,080	0,064
-728,167	-173,641	-0,177	0,004
-727,152	665,686	-0,052	-0,097
-726,137	-200,000	-0,024	0,078
-725,123	-84,852	-0,035	0,008
-724,108	372,147	-0,099	-0,146
-723,094	-6,220	-0,213	-0,105
-722,079	-200,000	-0,039	-0,141
-721,064	-67,906	0,150	0,042
-720,050	-200,000	-0,010	-0,136
-719,035	322,889	0,020	0,028
-718,021	-45,049	-0,067	-0,024
-717,006	-200,000	0,022	-0,270
-715,991	-200,000	-0,016	-0,090
-714,977	-100,489	-0,122	-0,022
-713,962	341,515	-0,060	-0,085
-712,948	217,906	0,051	-0,059
-711,933	-82,046	-0,169	0,040
-710,918	202,701	-0,077	-0,087
-709,904	43,475	0,056	0,037
-708,889	64,818	-0,136	-0,100
-707,875	-94,401	-0,062	-0,012
-706,860	-10,602	-0,189	-0,090
-705,845	-69,138	0,123	0,034
-704,831	-65,318	0,184	0,053
-703,816	-22,014	-0,199	-0,087
-702,802	-200,000	-0,000	-0,133
-701,787	-200,000	-0,020	-0,231
-700,772	452,204	-0,064	0,103
-699,758	25,482	0,129	-0,078
-698,743	310,685	0,063	0,086
-697,729	153,464	-0,148	-0,147
-696,714	-200,000	0,006	0,035
-695,699	-200,000	-0,011	0,041
-694,685	101,901	0,039	0,033
-693,670	800,000	0,039	-0,111
-692,656	160,219	0,105	-0,106
-691,641	-121,414	-0,069	-0,008
-690,627	-200,000	0,018	-0,144
-689,612	26,529	-0,091	0,055
-688,597	683,762	0,029	0,055
-687,583	145,491	0,117	-0,113
-686,568	241,553	-0,110	-0,133
-685,554	-18,076	0,044	-0,020
-684,539	-29,745	0,080	-0,033
-683,524	53,303	0,034	0,024
-682,510	237,241	-0,031	-0,038
-681,495	-107,554	-0,112	-0,018
-680,481	-122,041	-0,145	0,017
-679,466	-200,000	-0,027	0,178
-678,451	371,600	-0,019	0,028
-677,437	651,418	0,026	-0,048
-676,422	-2,949	-0,023	-0,012
-675,408	-1,814	0,087	0,044
-674,393	4,820	-0,042	0,022
-673,378	670,660	0,049	-0,093
-672,364	800,000	-0,026	0,076
-671,349	138,603	-0,008	0,008
-670,335	-65,641	0,098	-0,028
-669,320	440,521	0,040	-0,063
-668,305	104,556	-0,087	0,074
-667,291	-61,139	0,088	-0,027
-666,276	273,418	-0,056	-0,072
-665,262	66,394	-0,077	-0,057
-664,247	269,068	0,076	0,096
-663,232	30,288	-0,181	0,112
-662,218	62,571	0,118	-0,085
-661,203	-62,852	0,080	0,024
-660,189	-6,092	-0,105	0,052
-659,174	-55,041	-0,132	-0,043
-658,159	270,596	0,070	-0,089
-657,145	62,367	-0,049	0,035
-656,130	800,000	-0,072	0,193
-655,116	-200,000	-0,001	0,089
-654,101	-68,894	-0,122	0,034
-653,086	157,432	-0,019	0,019
-652,072	-45,576	0,143	0,051
-651,057	800,000	-0,059	-0,158
-650,043	-130,873	-0,103	-0,010
-649,028	24,438	0,116	-0,069
-648,014	754,719	0,067	0,132
-646,999	800,000	-0,048	0,126
-645,984	-130,181	0,099	0,010
-644,970	-200,000	-0,031	-0,145
-643,955	-139,413	-0,128	-0,010
-642,941	-200,000	-0,001	0,027
-641,926	-66,027	0,073	0,021
-640,911	495,644	0,048	-0,080
-639,897	800,000	0,060	-0,150
-638,882	43,960	-0,030	0,020
-637,868	-90,185	-0,051	0,011
-636,853	-121,622	0,142	-0,017
-635,838	326,685	0,045	0,062
-634,824	162,997	0,047	-0,047
-633,809	-0,983	0,048	-0,024
-632,795	-36,567	-0,018	-0,007
-631,780	-200,000	0,028	0,216
-630,765	-29,842	0,048	-0,020
-629,751	143,033	-0,109	0,105
-628,736	-200,000	-0,005	-0,046
-627,722	-0,063	-0,088	-0,045
-626,707	800,000	0,021	0,051
-625,692	800,000	0,049	-0,151
-624,678	195,110	-0,071	-0,078
-623,663	-98,969	-0,035	-0,006
-622,649	-9,991	-0,153	-0,073
-621,634	-26,750	0,064	-0,027
-620,619	800,000	0,051	-0,123
-619,605	-71,485	-0,047	0,013
-618,590	652,875	0,056	0,105
-617,576	380,708	-0,028	-0,041
-616,561	-200,000	-0,004	-0,117
-615,546	-200,000	-0,000	-0,137
-614,532	491,341	0,075	0,125
-613,517	-200,000	-0,002	-0,255
-612,503	-127,818	0,098	0,010
-611,488	-28,138	-0,053	0,022
-610,474	-200,000	0,010	0,175
-609,459	-42,018	-0,111	-0,041
-608,444	110,846	-0,099	-0,086
-607,430	800,000	-0,011	-0,035
-606,415	-200,000	0,001	0,110
-605,401	44,865	0,075	-0,049
-604,386	-200,000	-0,010	-0,047
-603,371	-159,076	-0,034	0,001
-602,357	44,154	0,135	-0,089
-601,342	-200,000	0,002	0,020
-600,328	800,000	0,031	-0,069
-599,313	-105,059	0,076	-0,012
-598,298	99,806	-0,003	-0,002
-597,284	-45,023	0,085	0,030
-596,269	272,394	0,081	0,103
-595,255	659,513	-0,019	-0,035
-594,240	600,040	0,024	-0,044
-593,225	472,046	0,025	0,040
-592,211	-21,306	-0,037	-0,016
-591,196	-200,000	0,048	-0,182
-590,182	-82,736	-0,034	0,008
-589,167	107,067	0,083	0,071
-588,152	126,235	-0,060	0,055
-587,138	517,952	-0,039	-0,067
-586,123	-200,000	-0,006	-0,107
-585,109	800,000	-0,038	-0,116
-584,094	-200,000	0,009	0,050
-583,079	800,000	-0,019	-0,041
-582,065	800,000	-0,029	0,074
-581,050	740,787	-0,047	-0,091
-580,036	124,490	0,092	-0,084
-579,021	800,000	-0,029	-0,081
-578,006	74,513	0,090	-0,068
-576,992	14,522	0,025	-0,014
-575,977	-22,653	-0,037	-0,016
-574,963	320,216	-0,012	0,016
-573,948	-43,425	0,107	-0,039
-572,934	-200,000	0,033	-0,133
-571,919	-129,563	-0,131	-0,013
-570,904	-163,548	0,028	0,001
-569,890	294,932	-0,130	-0,172
-568,875	-69,870	-0,110	0,030
-567,861	800,000	0,033	0,071
-566,846	-22,246	-0,125	-0,054
-565,831	56,959	0,034	0,024
-564,817	-200,000	0,037	-0,167
-563,802	132,301	0,038	-0,036
-562,788	645,409	-0,021	0,038
-561,773	-128,533	-0,048	0,005
-560,758	37,982	0,024	-0,015
-559,744	83,062	-0,037	-0,029
-558,729	-29,460	-0,152	0,062
-557,715	-87,667	-0,017	-0,004
-556,700	-39,126	-0,168	-0,063
-555,685	-200,000	-0,008	-0,116
-554,671	-53,919	0,086	0,028
-553,656	111,268	-0,064	0,055
-552,642	800,000	0,019	-0,046
-551,627	142,007	0,060	0,057
-550,612	539,351	-0,015	-0,026
-549,598	153,917	-0,137	-0,136
-548,583	800,000	0,023	0,048
-547,569	58,601	0,095	0,067
-546,554	-200,000	0,015	-0,060
-545,539	800,000	0,046	0,094
-544,525	210,611	-0,022	0,025
-543,510	-200,000	-0,031	0,122
-542,496	45,701	-0,016	-0,011
-541,481	8,204	-0,111	0,060
-540,466	208,982	0,095	0,107
-539,452	780,617	0,052	0,103
-538,437	200,052	-0,073	-0,081
-537,423	800,000	0,041	0,112
-536,408	383,365	-0,076	0,114
-535,393	174,041	-0,081	-0,085
-534,379	-200,000	-0,016	0,057
-533,364	800,000	0,052	0,123
-532,350	54,484	0,062	-0,043
-531,335	187,173	0,035	0,038
-530,321	-181,782	-0,070	0,001
-529,306	800,000	0,029	-0,073
-528,291	-161,190	-0,139	-0,005
-527,277	391,433	-0,015	-0,022
-526,262	-54,271	0,085	-0,027
-525,248	-200,000	-0,022	-0,082
-524,233	395,603	0,106	0,160
-523,218	-12,073	-0,014	0,007
-522,204	800,000	0,040	0,124
-521,189	56,669	-0,050	-0,035
-520,175	84,927	0,044	-0,035
-519,160	800,000	-0,043	0,093
-518,145	303,895	-0,084	0,112
-517,131	240,060	0,056	0,067
-516,116	42,359	0,157	-0,103
-515,102	-172,661	-0,097	0,002
-514,087	115,892	0,116	0,102
-513,072	43,533	-0,083	0,054
-512,058	-77,396	-0,037	-0,009
-511,043	368,371	0,014	0,020
-510,029	354,715	-0,120	-0,173
-509,014	522,092	0,092	0,156
-507,999	68,030	0,038	-0,028
-506,985	-32,257	0,049	0,020
-505,970	800,000	-0,060	-0,155
-504,956	300,080	0,025	0,034
-503,941	-60,091	-0,064	0,020
-502,926	-42,527	0,154	-0,056
-501,912	32,483	0,034	-0,021
-500,897	-60,312	-0,102	-0,031
-499,883	-179,413	0,142	-0,002
-498,868	107,748	-0,119	-0,102
-497,853	17,405	-0,036	-0,020
-496,839	336,971	-0,046	-0,064
-495,824	800,000	0,055	0,168
-494,810	-200,000	0,003	0,089
-493,795	-200,000	0,003	0,043
-492,781	-200,000	-0,038	0,134
-491,766	800,000	-0,077	-0,173
-490,751	-200,000	0,027	-0,087
-489,737	67,520	0,058	0,043
-488,722	431,181	-0,038	0,059
-487,708	-112,006	-0,085	-0,012
-486,693	-200,000	0,019	0,107
-485,678	-110,555	0,082	0,012
-484,664	293,039	-0,037	0,049
-483,649	-179,204	-0,123	0,002
-482,635	471,133	0,048	-0,079
-481,620	151,325	0,086	0,084
-480,605	-105,322	0,039	-0,006
-479,591	273,710	0,076	-0,096
-478,576	-67,364	-0,127	0,036
-477,562	-200,000	-0,018	-0,059
-476,547	44,114	0,117	-0,077
-475,532	800,000	0,042	-0,107
-474,518	23,517	0,109	-0,064
-473,503	-112,126	0,214	0,031
-472,489	-200,000	-0,029	-0,142
-471,474	-163,821	-0,030	-0,001
-470,459	183,097	-0,151	-0,160
-469,445	-87,208	-0,029	0,006
-468,430	322,717	0,023	-0,032
-467,416	615,033	0,056	0,100
-466,401	672,075	0,009	0,017
-465,386	84,681	0,073	0,057
-464,372	800,000	0,027	-0,073
-463,357	537,834	-0,064	-0,110
-462,343	64,624	-0,098	-0,071
-461,328	800,000	-0,012	-0,030
-460,313	800,000	-0,051	0,107
-459,299	-118,843	-0,046	0,006
-458,284	-77,585	0,122	-0,030
-457,270	-200,000	0,012	-0,039
-456,255	58,469	0,096	-0,068
-455,241	551,225	0,063	-0,109
-454,226	660,342	0,015	-0,027
-453,211	-117,453	0,020	-0,003
-452,197	-200,000	0,001	0,065
-451,182	-200,000	-0,011	-0,113
-450,168	42,139	-0,122	0,079
-449,153	-19,524	-0,085	0,038
-448,138	-133,056	-0,090	-0,008
-447,124	-181,786	0,042	-0,001
-446,109	-172,259	0,215	0,005
-445,095	264,623	0,047	-0,059
-444,080	108,254	0,133	-0,114
-443,065	86,832	-0,090	-0,071
-442,051	-63,036	0,027	0,008
-441,036	140,997	-0,101	0,096
-440,022	-132,690	-0,104	-0,009
-439,007	734,035	0,053	-0,102
-437,992	-25,369	-0,104	0,044
-436,978	-200,000	-0,022	0,096
-435,963	612,458	0,029	-0,052
-434,949	573,651	0,042	-0,074
-433,934	-200,000	-0,003	0,053
-432,919	-200,000	-0,009	-0,089
-431,905	69,297	0,063	0,046
-430,890	800,000	0,015	-0,040
-429,876	198,175	0,036	0,039
-428,861	800,000	-0,015	-0,044
-427,846	33,199	0,065	-0,041
-426,832	-18,496	-0,142	-0,063
-425,817	-140,916	-0,120	0,009
-424,803	248,876	-0,042	0,051
-423,788	800,000	0,043	0,088
-422,773	800,000	0,020	-0,041
-421,759	256,690	-0,065	0,080
-420,744	-124,512	-0,052	-0,006
-419,730	-31,194	-0,078	0,031
-418,715	800,000	-0,026	0,053
-417,701	-114,594	-0,139	0,019
-416,686	130,937	0,053	0,049
-415,671	-39,863	0,071	-0,027
-414,657	800,000	-0,040	0,092
-413,642	131,198	-0,029	0,027
-412,628	800,000	-0,038	0,084
-411,613	800,000	-0,016	-0,048
-410,598	97,560	-0,017	0,014
-409,584	-200,000	0,025	0,111
-408,569	-200,000	0,076	0,277
-407,555	-51,867	-0,071	-0,023
-406,540	800,000	0,059	0,149
-405,525	-43,805	-0,055	0,020
-404,511	-200,000	-0,020	-0,149
-403,496	-67,472	0,130	0,036
-402,482	-116,783	0,128	0,017
-401,467	56,155	0,024	0,017
-400,452	226,251	0,048	-0,056
-399,438	-131,351	-0,216	-0,020
-398,423	143,541	-0,070	-0,066
-397,409	-200,000	0,011	0,068
-396,394	183,377	0,013	-0,014
-395,379	417,176	0,076	0,117
-394,365	-180,281	-0,046	-0,001
-393,350	253,387	0,096	0,118
-392,336	-200,000	-0,005	0,123
-391,321	-49,808	-0,069	-0,023
-390,306	36,986	0,045	-0,028
-389,292	128,106	-0,118	-0,107
-388,277	-200,000	-0,019	0,093
-387,263	-78,901	-0,069	-0,017
-386,248	143,855	0,059	-0,056
-385,233	152,623	-0,117	0,115
-384,219	197,083	0,061	0,067
-383,204	-200,000	0,009	-0,171
-382,190	800,000	-0,027	-0,084
-381,175	120,171	-0,045	0,040
-380,160	201,309	0,018	-0,020
-379,146	800,000	-0,020	-0,058
-378,131	98,812	0,042	0,035
-377,117	359,646	0,058	-0,083
-376,102	685,337	-0,098	-0,184
-375,088	-200,000	-0,021	-0,108
-374,073	269,648	0,011	-0,014
-373,058	-34,941	-0,050	0,020
-372,044	38,951	0,051	0,033
-371,029	116,232	-0,093	-0,081
-370,015	-200,000	0,001	0,025
-369,000	58,724	-0,113	-0,079
-367,985	-200,000	-0,003	-0,053
-366,971	-79,930	-0,082	0,020
-365,956	-200,000	0,011	0,062
-364,942	150,154	0,083	0,081
-363,927	-13,282	0,065	0,030
-362,912	266,526	0,034	0,043
-361,898	136,595	-0,082	-0,077
-360,883	-200,000	-0,006	0,102
-359,869	119,197	-0,132	-0,117
-358,854	22,522	0,081	0,047
-357,839	-200,000	-0,020	0,124
-356,825	481,333	0,019	-0,032
-355,810	-200,000	-0,039	0,147
-354,796	668,730	-0,005	-0,010
-353,781	297,179	-0,057	-0,075
-352,766	-200,000	0,042	-0,196
-351,752	147,841	0,031	0,030
-350,737	-43,939	-0,018	0,006
-349,723	-200,000	-0,010	0,073
-348,708	-200,000	0,001	0,090
-347,693	-158,824	-0,130	-0,005
-346,679	465,124	0,003	0,004
-345,664	-200,000	0,009	0,092
-344,650	-124,532	-0,061	0,007
-343,635	-200,000	0,004	-0,030
-342,620	219,889	0,081	-0,093
-341,606	7,360	-0,053	0,028
-340,591	89,892	-0,074	0,059
-339,577	106,667	0,061	0,052
-338,562	-157,921	-0,154	-0,006
-337,548	800,000	0,034	0,100
-336,533	54,490	0,170	0,117
-335,518	8,863	-0,074	0,040
-334,504	800,000	-0,051	0,133
-333,489	-200,000	-0,017	0,146
-332,475	89,942	-0,002	-0,002
-331,460	-96,413	-0,077	0,014
-330,445	-200,000	-0,002	0,056
-329,431	38,904	0,093	-0,059
-328,416	-36,036	0,136	0,052
-327,402	-100,315	-0,079	0,014
-326,387	-200,000	0,006	-0,038
-325,372	800,000	-0,014	-0,030
-324,358	800,000	-0,014	0,040
-323,343	-84,724	0,045	-0,010
-322,329	270,248	0,071	0,090
-321,314	349,856	-0,022	0,031
-320,299	-200,000	0,019	0,086
-319,285	-12,121	0,131	-0,061
-318,270	649,743	-0,057	0,105
-317,256	41,848	-0,087	-0,056
-316,241	-200,000	0,005	-0,059
-315,226	304,362	-0,105	0,140
-314,212	-200,000	-0,028	-0,103
-313,197	-3,662	0,070	-0,034
-312,183	-200,000	-0,007	0,173
-311,168	17,124	-0,108	0,061
-310,153	-17,455	0,094	-0,042
-309,139	33,999	-0,097	-0,060
-308,124	322,444	0,011	-0,015
-307,110	490,755	0,003	-0,005
-306,095	132,201	-0,064	0,059
-305,080	-75,521	-0,071	0,018
-304,066	-200,000	0,005	-0,073
-303,051	-200,000	-0,006	-0,061
-302,037	598,766	0,075	-0,133
-301,022	93,265	0,111	-0,089
-300,008	115,135	0,044	0,038
-298,993	-200,000	-0,009	0,140
-297,978	49,685	-0,047	0,032
-296,964	46,281	0,142	-0,094
-295,949	-135,212	-0,010	0,001
-294,935	800,000	0,047	-0,105
-293,920	101,912	0,151	0,125
-292,905	-57,268	-0,068	0,021
-291,891	-164,425	0,135	0,004
-290,876	800,000	-0,037	0,091
-289,862	141,315	-0,053	0,050
-288,847	47,089	0,050	-0,033
-287,832	-200,000	0,005	-0,128
-286,818	-130,418	-0,081	-0,008
-285,803	-53,182	-0,045	0,015
-284,789	-124,509	0,226	-0,025
-283,774	163,323	0,031	-0,031
-282,759	-200,000	0,030	-0,118
-281,745	4,635	-0,059	-0,031
-280,730	-200,000	-0,004	0,029
-279,716	664,348	0,061	0,112
-278,701	77,465	-0,065	0,049
-277,686	-200,000	-0,006	0,044
-276,672	-60,475	-0,084	0,025
-275,657	98,684	-0,043	0,035
-274,643	-47,985	-0,108	-0,037
-273,628	800,000	-0,095	-0,216
-272,613	222,183	0,066	-0,076
-271,599	-111,890	0,107	0,015
-270,584	57,721	0,082	-0,057
-269,570	190,798	0,044	-0,048
-268,555	-113,699	0,128	-0,018
-267,540	3,840	-0,121	-0,063
-266,526	-200,000	-0,002	0,035
-265,511	-90,190	-0,102	-0,021
-264,497	12,045	0,089	0,049
-263,482	-17,214	0,085	-0,038
-262,467	223,822	0,112	0,129
-261,453	12,514	0,024	-0,013
-260,438	-200,000	0,011	-0,110
-259,424	800,000	0,044	0,133
-258,409	-142,837	-0,133	0,009
-257,395	249,370	0,020	0,024
-256,380	445,180	0,062	0,098
-255,365	36,237	0,066	0,041
-254,351	800,000	0,034	0,103
-253,336	-200,000	0,012	-0,061
-252,322	800,000	-0,037	-0,089
-251,307	800,000	0,019	0,052
-250,292	278,691	-0,041	0,052
-249,278	800,000	-0,067	-0,145
-248,263	544,972	0,052	0,090
-247,249	80,343	0,121	-0,093
-246,234	241,178	-0,057	-0,068
-245,219	-159,690	-0,053	0,002
-244,205	-47,901	-0,133	-0,045
-243,190	227,164	-0,120	-0,140
-242,176	-200,000	-0,006	0,103
-241,161	-200,000	0,035	0,174
-240,146	-200,000	0,010	0,078
-239,132	449,678	-0,070	-0,110
-238,117	-117,811	0,102	0,013
-237,103	-154,310	-0,062	-0,003
-236,088	21,750	0,061	-0,035
-235,073	-148,305	0,064	-0,004
-234,059	-200,000	-0,004	0,118
-233,044	27,002	0,160	0,095
-232,030	-82,690	-0,046	0,011
-231,015	-200,000	0,005	-0,116
-230,000	-200,000	0,022	0,100
-228,986	127,869	-0,058	0,053
-227,971	-84,669	0,095	0,021
-226,957	-69,833	0,133	0,036
-225,942	356,319	0,051	0,072
-224,927	-117,030	-0,082	-0,010
-223,913	-84,124	0,076	-0,017
-222,898	-160,566	-0,081	0,003
-221,884	-12,314	0,077	-0,036
-220,869	-27,657	0,118	0,048
-219,855	-200,000	0,007	0,076
-218,840	-80,077	-0,081	0,019
-217,825	800,000	-0,030	-0,073
-216,811	-109,838	-0,112	-0,017
-215,796	169,718	-0,093	-0,095
-214,782	56,198	-0,093	-0,064
-213,767	-57,898	0,113	-0,035
-212,752	-129,182	0,070	-0,007
-211,738	188,430	-0,059	0,062
-210,723	15,938	0,044	0,024
-209,709	800,000	-0,024	0,053
-208,694	565,757	-0,055	-0,096
-207,679	-47,426	-0,141	0,048
-206,665	210,323	0,042	-0,047
-205,650	-69,917	0,186	-0,050
-204,636	-200,000	0,002	0,076
-203,621	133,516	0,045	0,041
-202,606	-200,000	-0,008	-0,056
-201,592	88,341	-0,035	0,028
-200,577	-65,543	-0,005	-0,001
-199,563	-193,186	0,048	0,000
-198,548	800,000	-0,019	-0,046
-197,533	-200,000	-0,008	0,027
-196,519	-68,266	0,066	0,018
-195,504	107,645	0,023	-0,019
-194,490	-127,183	-0,057	0,006
-193,475	88,901	0,055	-0,043
-192,460	-87,148	0,042	-0,009
-191,446	118,269	-0,006	0,005
-190,431	-97,594	0,071	-0,013
-189,417	-200,000	0,002	0,134
-188,402	-78,878	-0,104	0,025
-187,387	108,362	-0,052	-0,044
-186,373	-200,000	0,049	-0,199
-185,358	380,231	-0,045	0,066
-184,344	3,338	-0,032	0,017
-183,329	25,456	0,049	-0,029
-182,315	-24,826	0,075	0,032
-181,300	-200,000	-0,001	-0,026
-180,285	467,381	0,033	0,053
-179,271	-65,163	-0,092	0,026
-178,256	-82,341	0,070	0,016
-177,242	-31,447	0,093	-0,037
-176,227	101,673	0,030	0,025
-175,212	60,331	-0,074	0,052
-174,198	-44,776	-0,103	0,036
-173,183	119,362	0,073	-0,064
-172,169	800,000	0,064	-0,200
-171,154	-150,071	0,059	0,003
-170,139	-2,642	0,053	-0,026
-169,125	59,929	-0,086	0,060
-168,110	800,000	-0,043	0,095
-167,096	667,165	-0,075	0,137
-166,081	106,604	0,033	0,028
-165,066	-200,000	0,035	0,128
-164,052	-136,157	-0,190	-0,016
-163,037	682,351	0,091	0,169
-162,023	800,000	-0,016	0,042
-161,008	-110,943	-0,035	0,005
-159,993	800,000	0,036	0,113
-158,979	41,040	-0,021	-0,014
-157,964	341,397	0,074	-0,103
-156,950	800,000	-0,084	-0,170
-155,935	134,152	-0,024	0,022
-154,920	557,108	-0,023	-0,039
-153,906	273,540	0,065	0,082
-152,891	-30,243	-0,085	0,034
-151,877	95,617	-0,098	-0,079
-150,862	-61,182	-0,111	0,033
-149,847	151,787	-0,110	0,106
-148,833	800,000	0,041	-0,086
-147,818	-200,000	0,035	0,174
-146,804	-200,000	0,030	0,177
-145,789	16,943	-0,075	0,042
-144,775	-107,681	-0,121	0,019
-143,760	-19,390	0,041	-0,018
-142,745	576,994	-0,076	-0,132
-141,731	-200,000	-0,012	-0,079
-140,716	-6,905	0,010	-0,005
-139,702	800,000	-0,014	-0,030
-138,687	800,000	0,064	0,129
-137,672	-73,107	-0,082	-0,021
-136,658	-160,378	-0,066	0,002
-135,643	-33,422	-0,060	-0,024
-134,629	-34,703	-0,060	0,023
-133,614	170,867	0,091	-0,092
-132,599	-200,000	0,020	-0,109
-131,585	16,161	0,020	-0,011
-130,570	800,000	0,038	-0,078
-129,556	-21,451	-0,139	-0,060
-128,541	-135,933	-0,043	0,004
-127,526	-200,000	-0,005	-0,031
-126,512	-26,023	-0,137	-0,057
-125,497	114,925	0,133	0,115
-124,483	-200,000	0,016	0,127
-123,468	-200,000	0,002	0,020
-122,453	259,283	0,048	-0,058
-121,439	-70,887	-0,105	-0,028
-120,424	-200,000	0,004	0,109
-119,410	762,360	-0,055	0,106
