DTS Sentinel unit serial number:	SN410029Multiplexer serial number:	ORYXHardware model number:	OX2-SRSoftware version number:	ORYX F/W v4,00 Oryx Data Collector v3.7.2.0data status	okinstallation	B3 Nyhavnadifferential loss correction	single-endedforward channel	channel 1reverse channel	N/Adate	2023/11/28time	15:07:30forward acquisition time	300,00reverse acquisition time	0,00gamma	499,1914k internal	0,3166k external	0,3166temperature offset calibration	1,0000default loss term (dB/km)	0,3820temperature slope calibration	1,0000multiplexer offset coefficient	1,0000multiplexer slope coefficient	1,0000fibre end	0,00T internal ref (°C)	7,32T ext. ref 1 (°C)	-7,84T ext. ref 2 (°C)	-8,01length (m)	temperature (°C)	Stokes	anti-Stokes-744,400	162,811	-0,255	-0,263
-743,385	800,000	-0,081	0,213
-742,371	286,718	-0,159	-0,212
-741,356	800,000	0,129	0,323
-740,342	36,264	-0,138	-0,089
-739,327	-200,000	-0,023	0,209
-738,312	-200,000	-0,107	-0,394
-737,298	800,000	-0,070	0,182
-736,283	295,821	-0,178	-0,241
-735,269	-200,000	0,064	0,366
-734,254	-200,000	-0,029	-0,225
-733,239	-85,347	-0,250	0,057
-732,225	800,000	-0,117	-0,297
-731,210	-11,186	0,182	0,088
-730,196	-200,000	-0,009	-0,033
-729,181	-76,934	0,032	-0,008
-728,167	125,022	-0,098	0,091
-727,152	-64,044	0,036	-0,011
-726,137	-200,000	0,002	0,087
-725,123	576,888	-0,102	-0,185
-724,108	-200,000	-0,042	-0,193
-723,094	542,193	-0,116	-0,203
-722,079	29,966	-0,072	-0,045
-721,064	-200,000	-0,002	-0,163
-720,050	-200,000	0,016	-0,066
-719,035	-200,000	-0,005	-0,130
-718,021	800,000	-0,050	0,111
-717,006	800,000	0,013	-0,027
-715,991	119,980	-0,103	-0,094
-714,977	431,393	-0,051	0,082
-713,962	800,000	0,044	-0,105
-712,948	20,168	-0,098	0,058
-711,933	-150,648	0,155	0,009
-710,918	-165,752	0,155	-0,005
-709,904	-200,000	0,021	0,101
-708,889	-129,155	-0,174	-0,018
-707,875	578,121	-0,058	-0,105
-706,860	64,731	-0,047	-0,035
-705,845	-200,000	-0,013	-0,050
-704,831	-23,824	0,106	0,046
-703,816	-37,180	-0,096	0,037
-702,802	800,000	-0,020	0,061
-701,787	-200,000	-0,023	-0,131
-700,772	-200,000	-0,001	0,028
-699,758	800,000	-0,016	0,043
-698,743	-165,028	0,227	0,007
-697,729	800,000	0,033	-0,069
-696,714	-200,000	0,022	0,105
-695,699	-87,886	0,145	-0,032
-694,685	97,899	-0,079	-0,067
-693,670	22,019	0,067	-0,040
-692,656	32,778	0,054	0,034
-691,641	23,916	-0,070	0,042
-690,627	-150,291	0,113	0,006
-689,612	-200,000	0,007	0,137
-688,597	53,227	0,080	-0,056
-687,583	214,537	-0,015	-0,017
-686,568	-200,000	0,010	-0,084
-685,554	64,691	-0,060	-0,044
-684,539	-159,490	-0,083	-0,003
-683,524	16,754	0,158	0,091
-682,510	624,466	-0,086	0,160
-681,495	-4,931	-0,095	-0,048
-680,481	209,573	0,001	0,001
-679,466	48,108	-0,157	-0,107
-678,451	675,220	0,041	-0,079
-677,437	-81,545	-0,044	0,010
-676,422	-200,000	0,003	0,120
-675,408	800,000	0,022	0,050
-674,393	800,000	-0,007	0,019
-673,378	-200,000	-0,040	-0,165
-672,364	545,083	0,034	0,060
-671,349	219,674	-0,095	-0,111
-670,335	283,815	0,032	-0,043
-669,320	441,263	0,015	-0,024
-668,305	104,408	0,082	0,070
-667,291	168,538	-0,050	0,052
-666,276	-92,910	-0,131	0,026
-665,262	-21,279	0,088	-0,039
-664,247	69,253	0,095	0,071
-663,232	-200,000	-0,058	-0,222
-662,218	800,000	-0,012	0,036
-661,203	8,624	0,039	0,022
-660,189	-96,653	0,038	0,007
-659,174	-73,193	-0,175	0,047
-658,159	-138,834	-0,074	-0,006
-657,145	17,030	0,093	-0,054
-656,130	-110,503	-0,075	0,011
-655,116	-71,459	0,044	-0,012
-654,101	310,666	-0,051	0,070
-653,086	416,671	0,029	0,046
-652,072	800,000	-0,031	-0,069
-651,057	4,687	-0,073	-0,039
-650,043	-16,532	0,042	0,019
-649,028	28,118	-0,075	-0,047
-648,014	-76,327	0,163	-0,042
-646,999	-173,418	0,105	-0,002
-645,984	-200,000	-0,001	0,044
-644,970	25,965	0,105	-0,064
-643,955	-53,904	-0,049	-0,016
-642,941	65,753	0,025	-0,018
-641,926	3,906	-0,125	0,067
-640,911	-106,053	0,041	-0,007
-639,897	235,145	0,031	0,037
-638,882	220,514	0,073	0,086
-637,868	800,000	-0,017	-0,038
-636,853	167,320	0,119	-0,123
-635,838	-78,343	-0,092	-0,023
-634,824	92,766	0,103	0,085
-633,809	2,294	0,078	-0,041
-632,795	43,582	0,046	0,031
-631,780	471,842	-0,032	0,053
-630,765	-200,000	-0,005	0,022
-629,751	-33,893	-0,028	0,011
-628,736	457,327	-0,122	-0,199
-627,722	800,000	0,076	-0,162
-626,707	800,000	-0,018	-0,038
-625,692	70,608	0,056	0,042
-624,678	393,829	-0,047	0,072
-623,663	-69,175	-0,088	0,025
-622,649	-22,383	-0,094	0,042
-621,634	240,197	-0,149	-0,182
-620,619	-152,193	-0,091	-0,005
-619,605	-27,715	0,100	-0,042
-618,590	-200,000	0,008	0,062
-617,576	-118,471	0,087	-0,011
-616,561	581,035	-0,024	-0,044
-615,546	800,000	-0,037	0,118
-614,532	240,109	-0,106	-0,130
-613,517	-15,699	0,115	0,053
-612,503	-118,367	0,110	0,014
-611,488	205,886	0,045	0,052
-610,474	-200,000	0,007	-0,096
-609,459	772,927	0,019	-0,038
-608,444	-200,000	-0,026	-0,085
-607,430	-69,102	-0,126	-0,035
-606,415	800,000	-0,035	0,113
-605,401	-25,136	-0,157	-0,068
-604,386	-3,413	0,067	-0,034
-603,371	-120,228	0,082	-0,010
-602,357	417,617	0,033	-0,053
-601,342	-200,000	-0,021	-0,101
-600,328	64,068	-0,050	0,036
-599,313	-200,000	-0,024	-0,162
-598,298	-85,999	-0,105	0,024
-597,284	614,953	0,067	-0,123
-596,269	-5,246	0,100	0,050
-595,255	73,674	-0,182	0,139
-594,240	163,009	-0,152	0,156
-593,225	800,000	-0,015	0,039
-592,211	-200,000	0,010	-0,033
-591,196	475,417	0,046	0,077
-590,182	-24,178	-0,042	0,018
-589,167	-139,752	0,111	0,008
-588,152	-103,490	-0,132	-0,022
-587,138	-151,703	-0,110	-0,006
-586,123	-200,000	0,003	-0,076
-585,109	110,201	-0,068	0,060
-584,094	33,469	-0,091	-0,058
-583,079	800,000	0,052	0,131
-582,065	50,410	0,011	-0,008
-581,050	800,000	0,035	0,104
-580,036	-110,305	-0,143	0,021
-579,021	-200,000	0,012	-0,050
-578,006	-200,000	0,007	-0,073
-576,992	29,953	-0,054	0,034
-575,977	301,381	0,075	-0,102
-574,963	-122,875	0,134	-0,016
-573,948	-200,000	-0,009	0,050
-572,934	-196,165	-0,124	-0,001
-571,919	-200,000	0,002	-0,207
-570,904	303,542	-0,065	-0,089
-569,890	-83,923	-0,058	0,013
-568,875	-200,000	0,003	-0,159
-567,861	3,274	-0,064	-0,034
-566,846	-200,000	-0,003	0,041
-565,831	-46,640	-0,113	-0,040
-564,817	800,000	-0,050	-0,140
-563,802	177,602	-0,047	-0,050
-562,788	52,269	0,052	0,036
-561,773	-200,000	0,023	0,084
-560,758	-98,812	0,097	-0,018
-559,744	-100,329	-0,136	0,024
-558,729	-76,261	0,199	-0,051
-557,715	145,267	-0,111	0,108
-556,700	528,927	-0,043	-0,075
-555,685	-200,000	0,002	-0,111
-554,671	100,707	0,103	0,087
-553,656	-61,339	0,006	-0,002
-552,642	-200,000	-0,007	-0,117
-551,627	54,307	0,069	0,049
-550,612	-12,983	-0,093	0,044
-549,598	721,803	-0,070	0,137
-548,583	-7,557	-0,044	-0,022
-547,569	-200,000	-0,001	-0,031
-546,554	19,844	-0,095	-0,055
-545,539	126,563	0,060	-0,055
-544,525	-110,246	0,169	-0,025
-543,510	102,638	-0,066	-0,056
-542,496	-49,940	-0,050	-0,017
-541,481	-101,645	-0,131	0,023
-540,466	-200,000	-0,001	-0,061
-539,452	-200,000	0,023	0,080
-538,437	-57,492	-0,069	0,022
-537,423	-200,000	-0,015	-0,081
-536,408	15,820	-0,084	0,048
-535,393	-61,607	-0,179	-0,055
-534,379	-50,131	-0,207	-0,071
-533,364	58,543	0,124	-0,089
-532,350	-152,290	0,051	0,003
-531,335	-200,000	0,037	0,173
-530,321	-200,000	0,011	0,043
-529,306	-200,000	-0,088	0,000
-528,291	-126,094	0,062	0,007
-527,277	-116,599	-0,150	0,020
-526,262	-78,042	0,010	-0,003
-525,248	194,942	0,061	-0,068
-524,233	72,990	-0,060	-0,046
-523,218	51,717	0,154	0,107
-522,204	-101,289	0,088	-0,016
-521,189	61,184	0,082	-0,060
-520,175	-200,000	-0,012	-0,086
-519,160	-200,000	-0,002	-0,081
-518,145	800,000	0,074	-0,174
-517,131	240,639	0,022	0,027
-516,116	-200,000	0,012	0,044
-515,102	74,681	0,122	0,094
-514,087	-107,811	-0,072	-0,011
-513,072	-200,000	-0,001	0,024
-512,058	-48,366	-0,091	-0,032
-511,043	-200,000	-0,018	-0,155
-510,029	-114,364	-0,040	0,006
-509,014	-67,433	0,093	0,027
-507,999	-200,000	-0,015	0,059
-506,985	-111,730	-0,192	-0,028
-505,970	503,670	0,029	0,049
-504,956	-200,000	0,000	0,039
-503,941	-82,868	0,035	-0,008
-502,926	168,570	-0,044	0,046
-501,912	139,782	0,075	0,072
-500,897	92,579	0,031	-0,026
-499,883	-70,949	-0,096	-0,026
-498,868	-200,000	0,004	-0,159
-497,853	46,000	0,075	0,050
-496,839	-200,000	0,003	-0,141
-495,824	103,686	0,059	0,051
-494,810	130,363	-0,078	0,072
-493,795	-14,094	0,061	0,029
-492,781	-137,031	-0,069	-0,006
-491,766	-118,360	-0,078	-0,010
-490,751	-17,553	-0,015	0,007
-489,737	222,625	0,010	-0,011
-488,722	6,221	0,099	0,053
-487,708	-91,798	-0,116	0,024
-486,693	-158,953	0,151	0,006
-485,678	91,678	0,067	-0,055
-484,664	-151,819	-0,103	-0,005
-483,649	71,966	0,127	-0,096
-482,635	58,221	-0,113	0,081
-481,620	-168,495	-0,041	0,001
-480,605	45,430	0,102	-0,068
-479,591	-7,880	0,037	0,018
-478,576	-158,004	-0,105	0,004
-477,562	-88,951	0,084	-0,018
-476,547	800,000	-0,026	-0,057
-475,532	-48,583	-0,062	0,021
-474,518	-200,000	0,036	0,117
-473,503	41,907	0,036	0,024
-472,489	136,216	-0,089	0,084
-471,474	454,149	-0,092	-0,149
-470,459	-149,846	-0,081	0,005
-469,445	-200,000	0,018	-0,060
-468,430	453,583	-0,098	-0,158
-467,416	800,000	0,028	0,082
-466,401	-108,471	0,154	0,024
-465,386	20,529	0,127	0,074
-464,372	-200,000	0,002	-0,010
-463,357	-200,000	0,003	-0,142
-462,343	18,014	0,076	-0,044
-461,328	-90,171	-0,027	-0,006
-460,313	209,367	0,054	0,062
-459,299	800,000	-0,027	-0,064
-458,284	-138,947	-0,076	0,006
-457,270	110,837	0,052	0,046
-456,255	106,794	-0,029	0,025
-455,241	-100,073	-0,007	-0,001
-454,226	-200,000	0,022	-0,114
-453,211	130,566	-0,110	-0,103
-452,197	37,863	0,110	0,071
-451,182	46,416	0,073	0,049
-450,168	257,716	0,054	0,068
-449,153	251,459	0,061	-0,076
-448,138	332,560	0,085	0,120
-447,124	714,127	0,041	-0,079
-446,109	-114,670	-0,089	0,012
-445,095	-200,000	-0,016	0,073
-444,080	348,645	-0,096	0,138
-443,065	800,000	-0,062	0,150
-442,051	-114,869	0,165	0,023
-441,036	524,487	-0,046	0,079
-440,022	360,412	-0,042	0,061
-439,007	151,818	-0,021	0,020
-437,992	-105,570	0,194	0,032
-436,978	570,676	0,086	0,153
-435,963	-129,030	0,084	0,008
-434,949	493,539	-0,094	-0,157
-433,934	489,749	0,041	-0,068
-432,919	2,650	-0,136	0,071
-431,905	-137,502	-0,043	0,003
-430,890	-94,048	0,146	-0,029
-429,876	46,777	0,032	0,022
-428,861	-64,903	0,215	0,063
-427,846	314,925	-0,026	-0,036
-426,832	289,708	-0,061	-0,081
-425,817	-180,258	-0,086	0,001
-424,803	-200,000	0,004	-0,063
-423,788	-40,176	-0,059	0,022
-422,773	173,649	0,096	0,100
-421,759	800,000	0,065	0,162
-420,744	43,647	-0,083	0,055
-419,730	583,566	0,041	-0,073
-418,715	-4,343	-0,033	-0,016
-417,701	-112,283	0,124	-0,018
-416,686	-200,000	0,011	-0,054
-415,671	-44,552	-0,081	-0,029
-414,657	-200,000	0,026	0,169
-413,642	-131,085	-0,103	0,010
-412,628	-198,540	-0,009	0,000
-411,613	-10,538	0,009	0,004
-410,598	800,000	0,042	0,100
-409,584	3,955	-0,046	-0,024
-408,569	10,222	-0,017	0,009
-407,555	-11,861	-0,036	0,017
-406,540	354,695	-0,079	-0,114
-405,525	-74,547	-0,125	-0,032
-404,511	166,291	0,058	0,059
-403,496	-49,829	-0,110	-0,038
-402,482	-200,000	-0,021	0,211
-401,467	344,248	0,084	0,119
-400,452	800,000	0,026	0,083
-399,438	-200,000	0,000	-0,019
-398,423	-153,006	-0,078	0,004
-397,409	-98,947	-0,160	0,029
-396,394	-200,000	-0,015	-0,126
-395,379	-12,987	0,118	0,056
-394,365	289,033	-0,026	0,034
-393,350	-200,000	-0,009	0,091
-392,336	-200,000	-0,015	-0,111
-391,321	305,335	-0,126	0,170
-390,306	508,502	-0,027	-0,045
-389,292	168,120	0,042	-0,044
-388,277	271,226	0,040	-0,051
-387,263	-35,854	-0,070	0,027
-386,248	800,000	0,041	0,093
-385,233	185,763	0,023	0,025
-384,219	-17,002	0,057	-0,026
-383,204	-147,893	-0,184	-0,011
-382,190	-166,328	0,034	0,001
-381,175	-16,069	0,067	-0,031
-380,160	26,236	0,093	0,056
-379,146	110,488	0,054	-0,047
-378,131	-200,000	-0,004	0,154
-377,117	215,474	0,147	0,169
-376,102	-53,240	-0,081	0,027
-375,088	12,845	-0,066	-0,037
-374,073	54,355	0,050	-0,035
-373,058	316,758	-0,060	-0,082
-372,044	353,682	0,039	0,056
-371,029	-154,779	0,080	0,004
-370,015	256,852	0,028	0,034
-369,000	-163,900	-0,036	-0,001
-367,985	-200,000	-0,009	0,095
-366,971	260,973	0,062	-0,078
-365,956	130,361	-0,043	0,040
-364,942	800,000	0,013	0,031
-363,927	-45,577	-0,034	-0,012
-362,912	356,219	0,020	-0,028
-361,898	-200,000	0,015	0,064
-360,883	-46,291	0,037	-0,013
-359,869	-200,000	0,015	-0,049
-358,854	-111,567	0,027	0,004
-357,839	-200,000	-0,014	-0,149
-356,825	-20,099	-0,101	-0,045
-355,810	57,440	0,112	-0,079
-354,796	404,138	-0,075	-0,114
-353,781	-200,000	-0,016	-0,147
-352,766	41,098	-0,098	-0,064
-351,752	167,244	-0,054	-0,056
-350,737	-67,518	0,057	0,016
-349,723	800,000	-0,089	0,280
-348,708	156,848	0,061	0,061
-347,693	-86,638	-0,106	-0,023
-346,679	262,592	0,053	-0,067
-345,664	-52,573	-0,135	0,045
-344,650	114,642	0,189	-0,167
-343,635	-200,000	-0,025	0,090
-342,620	800,000	-0,012	0,030
-341,606	1,563	0,086	0,045
-340,591	-200,000	-0,021	0,141
-339,577	109,124	0,051	-0,044
-338,562	566,302	0,101	-0,179
-337,548	800,000	0,063	-0,175
-336,533	99,445	0,058	0,048
-335,518	300,660	-0,013	0,017
-334,504	-144,294	0,106	0,007
-333,489	-55,509	-0,135	0,043
-332,475	-200,000	0,064	-0,207
-331,460	-200,000	-0,002	-0,008
-330,445	480,408	-0,033	-0,054
-329,431	-41,705	-0,096	-0,036
-328,416	42,652	0,031	-0,020
-327,402	-119,702	0,085	-0,010
-326,387	82,324	-0,100	-0,078
-325,372	44,387	-0,112	-0,074
-324,358	800,000	0,022	-0,043
-323,343	474,299	0,055	-0,089
-322,329	800,000	0,051	-0,118
-321,314	214,135	0,079	0,091
-320,299	800,000	-0,013	0,033
-319,285	-200,000	0,028	0,120
-318,270	-200,000	-0,013	0,137
-317,256	132,661	-0,018	-0,017
-316,241	37,185	-0,111	0,071
-315,226	-138,597	-0,113	-0,009
-314,212	800,000	0,065	0,133
-313,197	-200,000	0,012	0,185
-312,183	-200,000	-0,027	-0,200
-311,168	-29,455	0,007	0,003
-310,153	-122,554	0,099	0,012
-309,139	-72,493	-0,096	0,026
-308,124	-91,619	0,049	0,010
-307,110	11,062	0,054	0,030
-306,095	-125,309	-0,143	-0,016
-305,080	-117,369	-0,094	0,012
-304,066	800,000	-0,033	-0,083
-303,051	157,926	-0,119	-0,119
-302,037	31,421	-0,114	0,071
-301,022	695,143	0,044	0,084
-300,008	632,350	0,025	-0,046
-298,993	800,000	0,039	0,116
-297,978	-200,000	0,013	0,188
-296,964	146,254	-0,078	-0,076
-295,949	-173,667	-0,091	0,002
-294,935	38,540	-0,137	-0,088
-293,920	277,572	0,087	0,112
-292,905	-200,000	-0,030	0,120
-291,891	47,899	0,149	0,100
-290,876	65,878	-0,102	0,075
-289,862	800,000	-0,059	-0,171
-288,847	-1,667	0,088	0,045
-287,832	-200,000	-0,000	0,093
-286,818	800,000	0,014	0,042
-285,803	201,182	0,101	0,112
-284,789	-124,708	-0,074	0,008
-283,774	37,896	0,129	-0,082
-282,759	28,879	-0,087	-0,053
-281,745	-200,000	-0,018	0,128
-280,730	120,172	0,035	0,031
-279,716	-94,195	-0,181	-0,036
-278,701	800,000	-0,017	0,048
-277,686	36,565	-0,063	0,040
-276,672	-57,769	-0,043	-0,013
-275,657	-159,517	-0,047	-0,002
-274,643	800,000	0,035	0,106
-273,628	800,000	0,027	-0,061
-272,613	-28,228	0,068	0,028
-271,599	88,307	-0,027	-0,022
-270,584	800,000	0,070	-0,155
-269,570	116,592	0,060	0,053
-268,555	205,255	0,078	0,087
-267,540	35,663	-0,044	0,028
-266,526	216,359	-0,027	-0,031
-265,511	-10,647	-0,020	0,010
-264,497	800,000	0,017	-0,036
-263,482	115,258	0,075	0,066
-262,467	180,283	0,106	0,112
-261,453	-200,000	-0,007	0,023
-260,438	76,010	0,038	-0,029
-259,424	-8,508	-0,036	0,017
-258,409	89,685	-0,092	0,074
-257,395	300,248	0,077	0,103
-256,380	71,867	0,036	0,027
-255,365	56,115	0,137	-0,095
-254,351	800,000	-0,020	0,040
-253,336	-119,360	-0,078	-0,010
-252,322	366,630	-0,064	-0,093
-251,307	800,000	0,015	0,035
-250,292	401,264	0,027	-0,040
-249,278	-106,587	0,146	0,023
-248,263	-47,976	0,042	0,015
-247,249	800,000	0,043	0,117
-246,234	-72,247	-0,170	-0,045
-245,219	-27,872	-0,053	0,022
-244,205	83,135	-0,053	-0,042
-243,190	-11,163	-0,007	-0,003
-242,176	380,130	0,045	0,066
-241,161	-116,782	0,079	0,010
-240,146	530,885	-0,033	0,057
-239,132	-54,335	-0,107	0,035
-238,117	83,020	-0,117	-0,091
-237,103	-200,000	-0,005	0,064
-236,088	73,406	0,055	-0,042
-235,073	632,169	0,028	0,051
-234,059	-163,868	0,145	0,005
-233,044	-96,930	0,085	0,016
-232,030	218,104	0,030	-0,035
-231,015	-200,000	0,000	-0,076
-230,000	800,000	-0,033	0,097
-228,986	-80,383	0,016	-0,004
-227,971	9,065	0,135	0,073
-226,957	800,000	-0,005	0,013
-225,942	121,767	0,106	0,096
-224,927	138,351	0,032	-0,030
-223,913	332,752	-0,045	-0,063
-222,898	-49,592	-0,096	-0,033
-221,884	165,038	0,067	0,069
-220,869	-200,000	-0,005	0,055
-219,855	-200,000	-0,011	-0,048
-218,840	-200,000	0,000	-0,011
-217,825	-81,434	-0,039	-0,009
-216,811	35,266	0,113	-0,071
-215,796	800,000	0,025	-0,072
-214,782	-200,000	-0,003	0,061
-213,767	22,792	0,110	-0,065
-212,752	-70,593	0,091	0,025
-211,738	800,000	0,039	-0,117
-210,723	32,210	-0,077	0,048
-209,709	59,837	0,042	0,030
-208,694	-200,000	0,024	-0,088
-207,679	-200,000	-0,008	-0,067
-206,665	7,383	0,069	0,037
-205,650	132,024	0,113	-0,105
-204,636	50,481	0,072	0,049
-203,621	-40,824	0,072	-0,027
-202,606	800,000	0,035	-0,111
-201,592	800,000	0,036	-0,084
-200,577	296,830	-0,034	-0,046
-199,563	-200,000	0,011	-0,067
-198,548	-106,484	0,078	-0,012
-197,533	-50,181	-0,087	-0,029
-196,519	169,172	-0,036	-0,037
-195,504	14,804	-0,039	-0,022
-194,490	22,098	-0,142	-0,083
-193,475	8,897	-0,105	0,057
-192,460	-200,000	0,001	0,103
-191,446	-125,179	0,107	0,012
-190,431	53,373	0,082	-0,056
-189,417	260,909	0,120	0,150
-188,402	-192,911	0,117	0,001
-187,387	796,029	-0,044	-0,088
-186,373	-200,000	-0,020	-0,124
-185,358	-200,000	0,007	-0,136
-184,344	-200,000	0,023	0,153
-183,329	-200,000	-0,000	-0,025
-182,315	298,031	0,073	-0,097
-181,300	-28,543	-0,110	0,046
-180,285	-54,965	-0,092	0,030
-179,271	-200,000	-0,004	-0,146
-178,256	229,520	0,015	0,018
-177,242	-200,000	0,004	0,014
-176,227	248,026	0,083	0,102
-175,212	84,891	0,113	0,089
-174,198	12,286	0,038	0,021
-173,183	175,617	-0,033	0,034
-172,169	-49,663	-0,119	-0,041
-171,154	-200,000	0,002	0,034
-170,139	-200,000	0,002	0,050
-169,125	109,139	-0,069	-0,059
-168,110	299,523	-0,019	-0,026
-167,096	-200,000	0,015	0,067
-166,081	-200,000	-0,008	-0,055
-165,066	37,345	-0,012	0,007
-164,052	-200,000	0,046	-0,000
-163,037	-108,279	0,137	0,021
-162,023	-28,263	-0,048	0,020
-161,008	62,678	-0,125	0,089
-159,993	-44,219	-0,048	-0,017
-158,979	-200,000	-0,005	-0,031
-157,964	-200,000	0,007	-0,102
-156,950	285,903	0,074	0,096
-155,935	398,519	0,023	-0,035
-154,920	800,000	0,040	0,128
-153,906	304,947	0,112	0,150
-152,891	311,644	-0,063	-0,085
-151,877	198,841	0,076	0,084
-150,862	-183,545	-0,167	-0,002
-149,847	-142,111	0,069	-0,005
-148,833	436,376	0,025	-0,039
-147,818	298,494	0,049	0,065
-146,804	-200,000	0,007	-0,056
-145,789	-200,000	-0,020	0,189
-144,775	-200,000	-0,010	0,038
-143,760	-82,139	0,075	0,017
-142,745	-140,339	0,030	0,002
-141,731	93,695	0,064	-0,052
-140,716	-20,412	0,040	0,018
-139,702	576,898	0,046	0,081
-138,687	90,288	0,101	-0,081
-137,672	-67,724	0,057	-0,016
-136,658	800,000	0,035	-0,072
-135,643	517,255	-0,041	-0,070
-134,629	-48,915	-0,102	-0,035
-133,614	800,000	0,036	-0,079
-132,599	158,121	0,018	0,018
-131,585	-200,000	-0,007	0,102
-130,570	-81,444	-0,150	-0,035
-129,556	182,161	0,005	0,005
-128,541	-124,669	-0,098	0,011
-127,526	800,000	0,027	-0,087
-126,512	-200,000	-0,032	-0,104
-125,497	437,142	0,049	0,076
-124,483	33,326	0,129	0,080
-123,468	85,927	-0,252	0,199
-122,453	-108,238	0,036	-0,005
-121,439	521,364	0,046	-0,079
-120,424	800,000	-0,021	0,061
-119,410	22,211	0,078	-0,046
-118,395	490,034	0,007	-0,012
