DTS Sentinel unit serial number:	SN410029Multiplexer serial number:	ORYXHardware model number:	OX2-SRSoftware version number:	ORYX F/W v4,00 Oryx Data Collector v3.7.2.0data status	okinstallation	B3 Nyhavnadifferential loss correction	single-endedforward channel	channel 1reverse channel	N/Adate	2023/11/28time	11:37:30forward acquisition time	300,00reverse acquisition time	0,00gamma	499,1914k internal	0,3149k external	0,3149temperature offset calibration	1,0000default loss term (dB/km)	0,3820temperature slope calibration	1,0000multiplexer offset coefficient	1,0000multiplexer slope coefficient	1,0000fibre end	0,00T internal ref (°C)	9,09T ext. ref 1 (°C)	-7,60T ext. ref 2 (°C)	-7,82length (m)	temperature (°C)	Stokes	anti-Stokes-744,400	-200,000	-0,101	-0,367
-743,385	-200,000	0,056	0,328
-742,371	37,047	-0,190	-0,124
-741,356	-200,000	0,015	0,339
-740,342	501,130	-0,138	-0,236
-739,327	800,000	-0,117	0,341
-738,312	800,000	-0,101	-0,239
-737,298	43,663	0,043	0,029
-736,283	800,000	-0,123	-0,288
-735,269	-200,000	0,038	0,372
-734,254	248,925	-0,112	-0,140
-733,239	-27,524	-0,233	0,100
-732,225	-200,000	-0,053	-0,193
-731,210	800,000	0,094	0,228
-730,196	22,128	-0,091	0,055
-729,181	222,223	-0,023	0,027
-728,167	18,057	0,046	0,027
-727,152	652,253	-0,019	0,036
-726,137	-200,000	0,002	0,010
-725,123	216,957	-0,078	-0,092
-724,108	-112,237	-0,125	-0,018
-723,094	800,000	0,045	-0,094
-722,079	151,433	0,074	0,074
-721,064	368,387	0,076	0,113
-720,050	-9,715	-0,050	-0,024
-719,035	197,845	-0,106	0,119
-718,021	-200,000	-0,025	-0,169
-717,006	12,506	-0,250	-0,142
-715,991	-200,000	0,021	-0,200
-714,977	37,698	-0,083	-0,054
-713,962	499,237	0,042	-0,072
-712,948	-48,520	-0,026	0,009
-711,933	800,000	-0,035	-0,082
-710,918	-200,000	0,012	0,051
-709,904	-59,511	-0,102	-0,032
-708,889	800,000	0,069	-0,202
-707,875	-200,000	0,015	0,068
-706,860	184,595	0,081	-0,089
-705,845	-200,000	0,002	0,139
-704,831	-200,000	-0,012	-0,056
-703,816	-153,881	-0,095	0,005
-702,802	-200,000	-0,007	0,039
-701,787	-200,000	-0,006	-0,032
-700,772	95,990	-0,078	-0,066
-699,758	553,143	-0,080	0,143
-698,743	-60,305	0,154	0,048
-697,729	6,014	0,040	0,022
-696,714	91,984	-0,159	0,132
-695,699	-200,000	0,001	-0,126
-694,685	744,064	0,075	0,149
-693,670	800,000	0,006	0,018
-692,656	417,420	0,053	-0,083
-691,641	-87,072	0,045	-0,010
-690,627	-200,000	0,027	-0,150
-689,612	559,783	0,034	0,060
-688,597	800,000	-0,022	0,071
-687,583	-28,951	-0,124	0,052
-686,568	-160,672	0,024	0,001
-685,554	-200,000	-0,006	-0,145
-684,539	-200,000	0,004	0,019
-683,524	593,694	0,076	-0,140
-682,510	-120,401	-0,072	-0,009
-681,495	-200,000	-0,007	-0,118
-680,481	-200,000	-0,012	-0,041
-679,466	-200,000	-0,002	0,010
-678,451	-200,000	-0,008	-0,080
-677,437	59,377	-0,025	0,018
-676,422	-140,903	-0,051	-0,004
-675,408	-24,497	-0,079	-0,035
-674,393	-200,000	-0,004	-0,104
-673,378	57,257	0,097	-0,070
-672,364	-19,397	-0,115	0,052
-671,349	-90,773	-0,148	0,031
-670,335	213,784	0,080	-0,094
-669,320	-113,184	0,023	-0,003
-668,305	314,711	-0,069	0,096
-667,291	-200,000	0,016	0,182
-666,276	50,510	-0,083	0,058
-665,262	-4,192	-0,151	-0,077
-664,247	59,849	0,015	-0,011
-663,232	-200,000	-0,005	-0,069
-662,218	-33,845	-0,031	-0,013
-661,203	-91,130	0,104	-0,022
-660,189	-200,000	0,001	0,042
-659,174	-200,000	-0,015	0,082
-658,159	800,000	0,004	-0,009
-657,145	800,000	0,006	0,017
-656,130	-200,000	-0,012	-0,044
-655,116	182,589	0,076	0,082
-654,101	-200,000	-0,002	-0,128
-653,086	-200,000	-0,022	-0,077
-652,072	-200,000	-0,007	-0,066
-651,057	-200,000	-0,037	-0,187
-650,043	-37,266	-0,117	0,046
-649,028	-81,279	0,113	0,027
-648,014	126,755	0,073	0,068
-646,999	309,204	0,048	-0,066
-645,984	492,127	-0,025	0,042
-644,970	91,340	-0,054	0,045
-643,955	122,242	-0,079	0,073
-642,941	220,195	-0,057	0,068
-641,926	-111,527	0,014	-0,002
-640,911	-200,000	0,019	-0,092
-639,897	95,630	-0,043	0,036
-638,882	-59,648	-0,054	-0,017
-637,868	800,000	0,030	-0,074
-636,853	-138,086	-0,124	-0,010
-635,838	-200,000	0,015	-0,089
-634,824	29,373	0,184	0,115
-633,809	120,675	-0,068	-0,063
-632,795	-29,919	0,010	0,004
-631,780	-41,800	-0,084	-0,031
-630,765	9,829	0,025	-0,014
-629,751	-200,000	-0,008	-0,104
-628,736	-11,322	-0,037	0,018
-627,722	176,286	0,078	0,084
-626,707	-200,000	0,021	-0,100
-625,692	622,737	-0,051	-0,094
-624,678	-200,000	-0,008	-0,098
-623,663	56,117	0,049	0,035
-622,649	800,000	-0,031	0,085
-621,634	800,000	-0,049	-0,121
-620,619	-200,000	-0,007	0,044
-619,605	-127,477	0,041	0,004
-618,590	39,182	-0,087	-0,057
-617,576	-166,627	-0,193	-0,006
-616,561	-5,091	0,084	0,042
-615,546	-1,989	0,093	-0,048
-614,532	-200,000	-0,015	0,114
-613,517	387,338	-0,043	0,065
-612,503	589,130	0,018	0,032
-611,488	800,000	-0,054	0,123
-610,474	62,133	0,056	0,041
-609,459	216,826	-0,063	0,074
-608,444	800,000	-0,052	-0,132
-607,430	800,000	-0,005	0,015
-606,415	732,445	-0,043	-0,084
-605,401	-200,000	-0,003	0,034
-604,386	800,000	-0,041	0,101
-603,371	117,294	-0,044	0,039
-602,357	-200,000	-0,033	0,157
-601,342	130,869	-0,084	-0,079
-600,328	-22,340	-0,079	0,035
-599,313	800,000	-0,083	-0,173
-598,298	152,762	0,048	-0,048
-597,284	158,818	-0,050	-0,051
-596,269	-3,273	0,061	-0,031
-595,255	800,000	-0,051	0,129
-594,240	-200,000	0,008	-0,081
-593,225	63,439	-0,072	0,053
-592,211	-141,369	-0,101	0,007
-591,196	157,506	-0,013	-0,013
-590,182	800,000	0,019	-0,054
-589,167	84,616	0,049	0,039
-588,152	195,711	-0,066	-0,074
-587,138	800,000	-0,021	-0,049
-586,123	800,000	-0,020	-0,059
-585,109	-200,000	-0,026	-0,107
-584,094	-200,000	-0,007	-0,166
-583,079	189,745	0,034	0,038
-582,065	-200,000	-0,011	0,053
-581,050	-162,619	-0,139	0,005
-580,036	-200,000	0,009	-0,097
-579,021	-200,000	-0,017	-0,094
-578,006	-88,745	-0,028	-0,006
-576,992	247,949	-0,064	-0,080
-575,977	-16,803	0,033	0,015
-574,963	-96,287	0,079	0,015
-573,948	335,426	0,035	-0,051
-572,934	800,000	-0,038	0,093
-571,919	38,406	-0,078	-0,051
-570,904	-64,493	-0,107	-0,032
-569,890	423,303	-0,033	-0,053
-568,875	92,130	-0,047	-0,039
-567,861	800,000	0,033	0,088
-566,846	800,000	0,038	-0,122
-565,831	-39,477	-0,085	-0,032
-564,817	-200,000	-0,002	0,016
-563,802	-200,000	0,029	-0,140
-562,788	-44,125	0,081	-0,030
-561,773	301,196	0,097	-0,131
-560,758	-7,225	0,102	-0,050
-559,744	800,000	-0,062	0,149
-558,729	800,000	0,026	-0,082
-557,715	711,115	0,115	-0,225
-556,700	-200,000	-0,004	-0,024
-555,685	-200,000	0,001	0,017
-554,671	101,450	0,144	0,123
-553,656	414,828	0,042	0,065
-552,642	-14,176	0,139	0,066
-551,627	-200,000	-0,004	-0,065
-550,612	84,529	-0,101	0,081
-549,598	-200,000	-0,008	-0,080
-548,583	-113,905	-0,112	0,016
-547,569	382,423	-0,082	-0,124
-546,554	800,000	0,035	0,093
-545,539	-129,754	0,057	0,006
-544,525	-138,223	-0,115	0,009
-543,510	800,000	-0,056	0,136
-542,496	800,000	-0,040	-0,083
-541,481	-72,499	0,079	0,021
-540,466	97,579	-0,099	0,084
-539,452	-15,360	0,026	0,012
-538,437	-200,000	-0,005	0,059
-537,423	-82,529	0,240	0,057
-536,408	-27,337	-0,192	0,082
-535,393	-200,000	0,000	-0,046
-534,379	800,000	-0,036	-0,095
-533,364	-61,791	-0,057	-0,017
-532,350	800,000	-0,033	-0,079
-531,335	-141,889	-0,086	0,006
-530,321	-200,000	-0,020	0,165
-529,306	6,637	-0,081	-0,044
-528,291	152,043	-0,034	-0,034
-527,277	32,284	0,069	0,044
-526,262	209,785	-0,101	-0,116
-525,248	589,638	0,020	0,037
-524,233	-200,000	-0,000	-0,069
-523,218	351,284	-0,063	0,092
-522,204	800,000	-0,029	0,064
-521,189	-164,490	-0,111	0,004
-520,175	696,669	-0,036	-0,070
-519,160	-200,000	0,001	-0,121
-518,145	-200,000	-0,010	0,073
-517,131	304,043	0,090	0,123
-516,116	136,718	0,051	0,049
-515,102	-200,000	-0,012	0,046
-514,087	-76,340	0,077	-0,020
-513,072	76,613	0,040	0,031
-512,058	-26,352	-0,037	-0,016
-511,043	-200,000	0,006	-0,033
-510,029	72,506	0,053	-0,041
-509,014	20,802	-0,089	-0,053
-507,999	230,023	0,074	-0,089
-506,985	-200,000	0,001	-0,015
-505,970	145,416	-0,091	-0,090
-504,956	800,000	-0,040	-0,089
-503,941	-61,517	-0,042	0,013
-502,926	800,000	0,010	-0,031
-501,912	-200,000	0,026	0,191
-500,897	-174,813	0,072	-0,001
-499,883	-200,000	-0,011	0,075
-498,868	29,913	-0,165	0,103
-497,853	-67,110	-0,030	-0,009
-496,839	800,000	0,042	-0,093
-495,824	-200,000	0,000	0,053
-494,810	800,000	0,021	0,051
-493,795	-98,708	0,115	-0,021
-492,781	-6,876	-0,103	-0,051
-491,766	40,811	0,081	-0,053
-490,751	-38,908	-0,039	-0,015
-489,737	-200,000	0,001	0,104
-488,722	-61,350	0,158	-0,048
-487,708	103,366	0,113	0,097
-486,693	800,000	0,011	0,031
-485,678	-17,440	0,019	-0,009
-484,664	90,327	-0,054	0,044
-483,649	20,710	0,047	0,028
-482,635	173,269	-0,068	-0,072
-481,620	631,565	0,058	0,108
-480,605	595,308	-0,058	0,106
-479,591	-127,686	0,098	0,010
-478,576	103,007	0,089	-0,076
-477,562	13,227	-0,084	-0,048
-476,547	-163,448	-0,138	0,005
-475,532	800,000	0,007	-0,022
-474,518	9,601	-0,103	0,057
-473,503	-57,436	0,118	-0,038
-472,489	-200,000	0,021	0,081
-471,474	-99,355	-0,111	-0,020
-470,459	-96,141	-0,042	-0,008
-469,445	-25,936	-0,052	0,022
-468,430	103,021	0,154	-0,132
-467,416	800,000	-0,069	-0,175
-466,401	193,523	0,042	0,047
-465,386	800,000	0,011	0,026
-464,372	-200,000	0,017	-0,063
-463,357	226,150	-0,051	-0,061
-462,343	289,044	0,068	-0,090
-461,328	800,000	0,102	-0,258
-460,313	-157,417	0,144	0,006
-459,299	207,729	0,099	0,114
-458,284	31,127	0,046	0,029
-457,270	-200,000	0,021	-0,069
-456,255	0,087	0,086	0,045
-455,241	-66,561	-0,105	-0,030
-454,226	143,706	-0,057	-0,055
-453,211	309,634	-0,020	0,027
-452,197	-200,000	-0,006	0,141
-451,182	-126,187	0,102	-0,011
-450,168	-200,000	0,031	0,139
-449,153	-53,029	-0,196	-0,065
-448,138	39,153	-0,013	0,009
-447,124	338,011	-0,020	0,029
-446,109	-72,320	0,117	-0,031
-445,095	221,485	0,053	-0,062
-444,080	23,040	-0,067	0,040
-443,065	-200,000	-0,006	0,162
-442,051	358,664	0,093	0,136
-441,036	800,000	-0,059	0,144
-440,022	800,000	0,029	-0,066
-439,007	50,875	0,071	-0,049
-437,992	800,000	0,029	-0,076
-436,978	122,576	-0,014	0,012
-435,963	171,403	0,141	0,148
-434,949	-200,000	0,017	-0,092
-433,934	-134,436	-0,275	0,024
-432,919	-200,000	0,017	0,065
-431,905	201,136	-0,050	0,057
-430,890	-132,240	0,098	-0,009
-429,876	467,777	0,025	0,041
-428,861	-38,931	-0,086	0,033
-427,846	38,566	0,129	0,084
-426,832	423,155	-0,044	0,070
-425,817	533,902	-0,120	-0,208
-424,803	202,600	0,172	-0,194
-423,788	142,482	0,071	-0,068
-422,773	-34,780	-0,031	0,012
-421,759	800,000	0,018	0,059
-420,744	-200,000	-0,003	0,085
-419,730	-200,000	-0,017	-0,086
-418,715	54,535	0,092	-0,064
-417,701	-31,455	0,081	-0,033
-416,686	-200,000	-0,027	0,129
-415,671	-60,424	0,069	-0,021
-414,657	51,805	-0,088	0,061
-413,642	404,052	0,106	0,163
-412,628	236,549	0,035	-0,043
-411,613	-200,000	0,008	-0,128
-410,598	800,000	-0,049	-0,123
-409,584	178,200	-0,039	-0,041
-408,569	800,000	0,016	-0,042
-407,555	-139,383	0,030	0,002
-406,540	143,919	0,029	0,028
-405,525	504,035	0,031	-0,052
-404,511	29,217	0,057	-0,035
-403,496	-121,361	0,030	0,004
-402,482	800,000	0,037	-0,079
-401,467	-48,290	0,029	0,010
-400,452	-65,364	-0,077	0,023
-399,438	325,839	-0,047	-0,065
-398,423	389,830	0,035	-0,054
-397,409	-108,355	0,163	-0,025
-396,394	800,000	0,057	-0,174
-395,379	624,375	-0,107	0,198
-394,365	487,912	-0,032	0,053
-393,350	697,131	0,058	0,112
-392,336	552,444	-0,051	0,090
-391,321	-11,304	-0,085	0,041
-390,306	31,066	-0,071	-0,044
-389,292	-200,000	0,012	-0,195
-388,277	800,000	0,023	0,054
-387,263	-16,170	0,115	0,053
-386,248	-18,330	-0,133	0,060
-385,233	38,917	-0,111	0,072
-384,219	185,996	0,021	-0,023
-383,204	800,000	0,021	-0,061
-382,190	-48,958	0,070	-0,024
-381,175	545,822	0,044	-0,077
-380,160	51,825	0,122	0,085
-379,146	10,493	-0,183	0,101
-378,131	295,743	-0,092	0,123
-377,117	-200,000	0,014	0,074
-376,102	-200,000	-0,024	-0,094
-375,088	800,000	-0,032	-0,097
-374,073	257,141	-0,007	-0,009
-373,058	-50,704	0,178	0,061
-372,044	6,904	0,070	-0,038
-371,029	223,391	-0,048	0,056
-370,015	325,351	0,095	0,133
-369,000	647,137	0,035	-0,065
-367,985	-18,899	0,065	0,030
-366,971	800,000	0,066	0,158
-365,956	15,774	-0,038	0,021
-364,942	800,000	-0,023	-0,072
-363,927	-200,000	0,030	-0,113
-362,912	309,659	-0,063	-0,087
-361,898	363,494	0,058	0,085
-360,883	-200,000	-0,084	0,000
-359,869	800,000	-0,028	0,090
-358,854	424,562	0,098	-0,154
-357,839	-34,617	0,075	-0,030
-356,825	-200,000	0,010	0,159
-355,810	-200,000	0,001	-0,087
-354,796	-200,000	-0,001	-0,102
-353,781	71,912	0,082	-0,062
-352,766	-200,000	0,016	-0,175
-351,752	-105,114	0,093	0,015
-350,737	-88,086	0,081	-0,018
-349,723	273,952	-0,085	0,110
-348,708	-90,661	0,049	-0,010
-347,693	-127,018	0,102	-0,011
-346,679	352,716	-0,090	-0,131
-345,664	-30,590	0,067	-0,027
-344,650	675,923	-0,031	-0,060
-343,635	-61,565	0,068	0,021
-342,620	-200,000	0,002	0,122
-341,606	800,000	0,052	0,152
-340,591	5,124	-0,053	-0,029
-339,577	-200,000	0,005	-0,066
-338,562	326,685	-0,057	0,080
-337,548	-200,000	0,004	-0,043
-336,533	79,524	0,106	-0,083
-335,518	29,729	0,040	0,025
-334,504	173,931	-0,032	-0,034
-333,489	56,271	0,049	-0,035
-332,475	-108,384	-0,079	-0,012
-331,460	-200,000	-0,006	-0,105
-330,445	439,187	0,042	0,067
-329,431	46,531	0,026	-0,017
-328,416	-200,000	0,010	0,081
-327,402	130,819	0,025	0,023
-326,387	-200,000	-0,015	-0,107
-325,372	-200,000	-0,002	-0,094
-324,358	727,950	0,049	0,096
-323,343	-85,406	-0,113	0,025
-322,329	432,164	0,050	0,079
-321,314	214,142	0,054	0,062
-320,299	422,116	-0,014	0,022
-319,285	-8,424	0,036	-0,018
-318,270	-55,922	-0,071	-0,023
-317,256	26,217	-0,076	0,046
-316,241	-130,089	-0,118	-0,012
-315,226	-200,000	-0,010	-0,127
-314,212	744,224	0,052	0,101
-313,197	-152,856	-0,084	0,004
-312,183	-72,607	0,051	-0,014
-311,168	60,231	-0,041	0,029
-310,153	-200,000	0,007	-0,070
-309,139	-96,713	0,027	-0,005
-308,124	153,236	0,060	-0,060
-307,110	393,234	-0,009	0,014
-306,095	365,659	-0,041	-0,060
-305,080	300,371	-0,056	-0,075
-304,066	45,275	0,138	-0,092
-303,051	-93,388	0,071	-0,014
-302,037	800,000	0,082	0,171
-301,022	-101,651	-0,067	-0,012
-300,008	-200,000	0,001	-0,209
-298,993	-85,127	-0,032	-0,007
-297,978	516,159	0,032	0,054
-296,964	-9,723	-0,104	0,050
-295,949	396,235	-0,083	-0,127
-294,935	-54,875	-0,075	-0,025
-293,920	-200,000	-0,032	0,106
-292,905	-200,000	0,001	-0,034
-291,891	196,946	-0,063	0,070
-290,876	56,595	0,126	0,089
-289,862	-65,853	0,122	0,035
-288,847	748,575	0,016	-0,031
-287,832	15,307	-0,138	-0,078
-286,818	45,987	0,119	0,080
-285,803	571,245	-0,073	0,129
-284,789	-123,302	0,154	-0,018
-283,774	800,000	-0,084	-0,263
-282,759	800,000	-0,044	-0,135
-281,745	61,278	0,050	0,036
-280,730	529,573	-0,037	-0,063
-279,716	63,199	-0,050	-0,036
-278,701	281,981	0,083	-0,108
-277,686	800,000	-0,015	-0,046
-276,672	-28,077	-0,055	-0,023
-275,657	179,425	0,028	0,030
-274,643	-15,993	-0,057	0,026
-273,628	-200,000	0,018	-0,083
-272,613	-105,814	-0,071	0,012
-271,599	-200,000	-0,001	0,189
-270,584	800,000	0,081	0,218
-269,570	-104,505	-0,032	-0,005
-268,555	71,827	-0,007	0,005
-267,540	-57,691	-0,044	-0,014
-266,526	-74,429	-0,112	-0,029
-265,511	24,114	0,087	-0,052
-264,497	126,503	-0,068	0,062
-263,482	-134,602	0,138	0,012
-262,467	-137,865	0,118	0,009
-261,453	-89,936	-0,178	0,037
-260,438	137,818	0,057	-0,054
-259,424	-200,000	-0,016	-0,191
-258,409	-200,000	0,025	0,091
-257,395	-200,000	-0,011	0,107
-256,380	-200,000	-0,009	-0,077
-255,365	236,093	0,095	0,114
-254,351	11,979	-0,090	0,050
-253,336	130,001	-0,062	-0,058
-252,322	-200,000	0,003	-0,055
-251,307	48,614	-0,113	-0,077
-250,292	311,200	-0,035	-0,047
-249,278	555,326	0,024	0,043
-248,263	432,365	0,089	0,140
-247,249	271,897	-0,038	0,049
-246,234	800,000	0,014	0,034
-245,219	187,914	-0,032	-0,034
-244,205	-200,000	0,010	-0,088
-243,190	-41,951	0,073	0,027
-242,176	-192,824	0,059	-0,000
-241,161	800,000	0,061	0,171
-240,146	800,000	-0,004	0,010
-239,132	621,646	-0,075	0,137
-238,117	329,584	-0,073	-0,101
-237,103	-32,857	-0,093	-0,037
-236,088	-34,327	0,186	-0,073
-235,073	-143,175	0,170	-0,012
-234,059	800,000	0,027	0,060
-233,044	-107,928	-0,092	-0,014
-232,030	-200,000	-0,005	0,062
-231,015	-200,000	0,021	-0,069
-230,000	-181,844	0,100	-0,001
-228,986	188,571	-0,054	-0,059
-227,971	800,000	-0,026	0,073
-226,957	-2,596	-0,170	0,086
-225,942	312,954	0,044	-0,061
-224,927	-9,598	0,101	-0,049
-223,913	-141,532	-0,043	0,003
-222,898	800,000	-0,057	0,151
-221,884	-144,867	0,075	0,005
-220,869	-44,555	0,061	0,022
-219,855	-200,000	0,013	0,088
-218,840	-110,317	0,063	0,009
-217,825	-200,000	0,036	-0,122
-216,811	-44,633	-0,188	0,068
-215,796	800,000	0,021	-0,051
-214,782	-200,000	-0,002	0,023
-213,767	-200,000	-0,010	0,057
-212,752	238,008	0,033	0,039
-211,738	-200,000	-0,010	0,072
-210,723	43,699	-0,079	-0,052
-209,709	186,317	-0,048	0,052
-208,694	-200,000	-0,006	0,043
-207,679	550,435	0,070	-0,122
-206,665	-200,000	0,003	-0,022
-205,650	21,565	0,136	0,080
-204,636	135,518	0,048	0,045
-203,621	-132,798	-0,108	0,010
-202,606	221,936	0,040	0,047
-201,592	262,192	-0,019	0,023
-200,577	-200,000	-0,005	0,123
-199,563	-100,403	0,143	0,025
-198,548	260,273	-0,021	0,027
-197,533	-200,000	0,019	0,115
-196,519	23,087	0,062	0,037
-195,504	-29,123	-0,105	0,043
-194,490	-200,000	-0,017	-0,173
-193,475	32,626	-0,116	-0,072
-192,460	516,411	0,025	0,042
-191,446	-45,626	-0,078	0,028
-190,431	-200,000	-0,000	-0,046
-189,417	203,538	-0,020	0,022
-188,402	-97,917	-0,081	-0,015
-187,387	-200,000	-0,012	0,047
-186,373	-141,029	-0,095	-0,007
-185,358	208,691	0,047	0,053
-184,344	127,116	0,014	-0,013
-183,329	-104,074	0,104	-0,017
-182,315	66,162	-0,074	0,054
-181,300	174,318	0,023	-0,024
-180,285	187,021	-0,095	-0,102
-179,271	-62,069	0,158	0,047
-178,256	279,508	0,085	0,110
-177,242	-200,000	0,032	0,158
-176,227	-44,780	-0,104	0,037
-175,212	-102,437	0,106	0,018
-174,198	67,600	0,092	0,068
-173,183	-80,089	-0,098	-0,023
-172,169	-51,509	-0,069	-0,023
-171,154	-181,927	-0,085	-0,001
-170,139	243,515	0,018	0,022
-169,125	-15,970	0,098	-0,045
-168,110	126,375	-0,047	0,043
-167,096	-86,622	-0,047	0,010
-166,081	-200,000	-0,012	0,088
-165,066	338,313	-0,103	-0,145
-164,052	-200,000	-0,001	-0,045
-163,037	-53,439	-0,082	0,027
-162,023	6,502	0,064	-0,034
-161,008	-35,999	0,104	0,040
-159,993	800,000	-0,050	0,104
-158,979	238,482	-0,064	-0,076
-157,964	-200,000	0,009	0,034
-156,950	328,390	-0,093	-0,130
-155,935	-89,376	0,114	0,024
-154,920	57,232	-0,093	0,066
-153,906	-23,179	0,106	0,046
-152,891	800,000	0,047	0,123
-151,877	-200,000	0,016	0,223
-150,862	-102,575	-0,143	0,024
-149,847	-200,000	-0,028	-0,107
-148,833	100,160	0,122	0,102
-147,818	800,000	-0,023	0,054
-146,804	68,425	-0,113	-0,084
-145,789	344,003	0,074	0,105
-144,775	-200,000	-0,002	-0,047
-143,760	-200,000	-0,033	0,116
-142,745	736,391	0,025	0,049
-141,731	-180,191	-0,069	-0,001
-140,716	287,627	0,090	0,118
-139,702	-200,000	0,030	0,218
-138,687	-72,373	0,094	-0,025
-137,672	-77,354	-0,056	-0,014
-136,658	20,528	-0,073	-0,043
-135,643	-200,000	0,010	-0,160
-134,629	692,156	0,038	-0,072
-133,614	-200,000	-0,036	0,162
-132,599	455,841	0,019	-0,031
-131,585	12,177	0,030	0,017
-130,570	95,206	-0,124	-0,102
-129,556	-12,886	0,036	-0,017
-128,541	-65,332	-0,033	-0,009
-127,526	-149,912	-0,102	0,006
-126,512	-200,000	-0,006	0,082
-125,497	-18,207	0,011	-0,005
-124,483	-117,934	0,136	0,017
-123,468	800,000	0,022	-0,045
-122,453	146,386	-0,070	-0,068
-121,439	476,351	0,080	-0,132
-120,424	634,426	-0,077	0,141
-119,410	-51,861	0,118	0,039
