DTS Sentinel unit serial number:	SN410029Multiplexer serial number:	ORYXHardware model number:	OX2-SRSoftware version number:	ORYX F/W v4,00 Oryx Data Collector v3.7.2.0data status	okinstallation	B3 Nyhavnadifferential loss correction	single-endedforward channel	channel 1reverse channel	N/Adate	2023/11/28time	18:57:30forward acquisition time	300,00reverse acquisition time	0,00gamma	499,1914k internal	0,3137k external	0,3137temperature offset calibration	1,0000default loss term (dB/km)	0,3820temperature slope calibration	1,0000multiplexer offset coefficient	1,0000multiplexer slope coefficient	1,0000fibre end	0,00T internal ref (°C)	7,52T ext. ref 1 (°C)	-7,27T ext. ref 2 (°C)	-7,43length (m)	temperature (°C)	Stokes	anti-Stokes-744,400	283,113	-0,219	-0,292
-743,385	-200,000	0,017	0,249
-742,371	-200,000	-0,067	-0,281
-741,356	-200,000	-0,010	0,241
-740,342	800,000	-0,102	-0,270
-739,327	-200,000	-0,044	0,240
-738,312	315,102	-0,146	-0,205
-737,298	-200,000	-0,022	0,273
-736,283	800,000	-0,099	-0,238
-735,269	-200,000	0,066	0,330
-734,254	241,129	-0,130	-0,162
-733,239	-12,255	-0,263	0,127
-732,225	800,000	-0,110	-0,293
-731,210	271,171	0,118	0,154
-730,196	641,771	-0,036	-0,068
-729,181	52,967	0,112	-0,079
-728,167	-63,826	-0,088	0,026
-727,152	-127,092	-0,067	-0,007
-726,137	109,727	0,014	0,012
-725,123	196,425	-0,052	0,059
-724,108	-96,809	-0,128	0,025
-723,094	-200,000	-0,003	-0,035
-722,079	-200,000	0,000	0,060
-721,064	-200,000	0,027	-0,091
-720,050	-200,000	0,022	0,085
-719,035	283,464	0,092	0,123
-718,021	751,175	-0,053	-0,106
-717,006	332,454	-0,097	-0,139
-715,991	-139,658	-0,195	0,015
-714,977	-71,087	-0,161	0,045
-713,962	91,491	0,060	0,050
-712,948	254,173	0,100	0,127
-711,933	-200,000	-0,006	0,072
-710,918	800,000	-0,010	-0,032
-709,904	-86,217	-0,025	0,006
-708,889	-46,816	-0,118	-0,043
-707,875	-95,272	-0,018	0,003
-706,860	109,520	0,068	0,060
-705,845	-132,887	0,064	0,006
-704,831	800,000	0,042	0,112
-703,816	-56,275	-0,130	0,043
-702,802	-46,068	-0,044	0,016
-701,787	-78,668	-0,124	-0,031
-700,772	-122,050	0,060	0,007
-699,758	-200,000	0,007	0,063
-698,743	-2,619	-0,071	0,037
-697,729	146,817	0,035	0,035
-696,714	-200,000	-0,008	0,074
-695,699	171,437	-0,029	0,031
-694,685	121,751	-0,146	-0,135
-693,670	113,835	-0,105	-0,095
-692,656	102,221	-0,093	0,080
-691,641	800,000	0,016	0,048
-690,627	-38,288	0,061	0,024
-689,612	-96,862	0,072	0,014
-688,597	-147,767	-0,109	-0,007
-687,583	-119,617	-0,074	-0,009
-686,568	-200,000	0,003	-0,049
-685,554	207,636	-0,148	0,172
-684,539	-200,000	0,040	-0,157
-683,524	-200,000	0,023	-0,170
-682,510	48,349	-0,080	-0,055
-681,495	-46,835	-0,155	0,056
-680,481	-200,000	-0,010	-0,059
-679,466	320,278	-0,075	-0,106
-678,451	-200,000	0,018	-0,205
-677,437	47,287	0,116	0,080
-676,422	9,408	-0,114	0,064
-675,408	-200,000	0,020	0,084
-674,393	170,495	0,037	-0,040
-673,378	-200,000	0,013	0,059
-672,364	758,057	-0,062	-0,126
-671,349	550,998	-0,077	-0,136
-670,335	-105,151	0,159	-0,027
-669,320	-200,000	0,010	0,125
-668,305	-56,966	0,032	0,011
-667,291	340,093	0,110	-0,159
-666,276	435,192	-0,035	-0,057
-665,262	433,473	-0,076	-0,123
-664,247	73,696	-0,048	0,037
-663,232	-28,126	-0,107	-0,046
-662,218	675,591	0,045	0,087
-661,203	293,533	0,085	0,116
-660,189	-21,694	-0,035	-0,016
-659,174	800,000	-0,047	0,100
-658,159	-200,000	-0,042	-0,175
-657,145	-150,930	-0,082	-0,005
-656,130	-62,714	0,075	-0,023
-655,116	412,139	0,060	0,095
-654,101	-200,000	0,008	-0,057
-653,086	-200,000	-0,016	-0,192
-652,072	-200,000	-0,007	-0,052
-651,057	295,140	-0,040	-0,054
-650,043	66,888	-0,145	-0,109
-649,028	-200,000	-0,005	-0,028
-648,014	425,343	0,028	0,045
-646,999	-105,947	0,106	-0,017
-645,984	-200,000	-0,047	0,158
-644,970	484,655	0,014	0,024
-643,955	800,000	-0,052	-0,139
-642,941	395,981	-0,052	-0,081
-641,926	106,102	0,084	0,074
-640,911	-200,000	0,011	0,092
-639,897	-200,000	-0,039	0,250
-638,882	-200,000	0,007	-0,046
-637,868	800,000	-0,005	0,013
-636,853	-148,518	-0,063	-0,004
-635,838	-31,290	-0,219	-0,091
-634,824	-200,000	0,010	-0,059
-633,809	-92,631	-0,096	0,020
-632,795	146,465	0,054	-0,053
-631,780	84,031	0,062	0,050
-630,765	32,827	-0,025	-0,016
-629,751	654,381	-0,071	-0,136
-628,736	-103,878	-0,081	-0,014
-627,722	-200,000	0,007	-0,109
-626,707	-180,080	0,157	0,002
-625,692	57,791	0,104	0,075
-624,678	-200,000	0,003	0,074
-623,663	403,131	0,050	-0,077
-622,649	800,000	0,013	-0,043
-621,634	27,824	0,016	-0,010
-620,619	-51,147	-0,108	0,037
-619,605	-200,000	0,009	-0,073
-618,590	-200,000	-0,004	-0,053
-617,576	-200,000	-0,040	0,135
-616,561	732,010	0,040	-0,080
-615,546	216,904	0,022	0,026
-614,532	800,000	-0,015	-0,047
-613,517	187,361	-0,021	-0,024
-612,503	-200,000	-0,010	-0,086
-611,488	-200,000	-0,036	0,199
-610,474	-200,000	0,025	0,086
-609,459	495,289	-0,040	0,069
-608,444	258,910	-0,084	-0,107
-607,430	-200,000	-0,003	0,151
-606,415	387,436	0,066	-0,101
-605,401	-51,528	-0,140	0,048
-604,386	800,000	-0,073	0,196
-603,371	62,653	-0,098	0,072
-602,357	800,000	0,057	0,167
-601,342	-200,000	-0,024	0,167
-600,328	800,000	0,041	-0,093
-599,313	160,648	-0,047	-0,048
-598,298	-141,169	0,118	-0,009
-597,284	96,878	-0,016	-0,013
-596,269	-138,182	0,031	0,003
-595,255	304,191	0,060	-0,083
-594,240	800,000	-0,053	0,115
-593,225	602,214	-0,101	0,185
-592,211	-200,000	-0,002	0,029
-591,196	-117,124	-0,092	-0,012
-590,182	-200,000	-0,004	0,042
-589,167	28,421	0,120	0,074
-588,152	-59,852	-0,074	-0,023
-587,138	-200,000	-0,036	-0,125
-586,123	-200,000	0,019	-0,075
-585,109	761,826	0,009	0,019
-584,094	92,792	0,030	-0,025
-583,079	-33,196	0,135	0,055
-582,065	84,866	0,076	0,061
-581,050	-67,998	-0,192	-0,055
-580,036	-123,243	-0,008	-0,001
-579,021	-200,000	-0,014	-0,082
-578,006	-200,000	0,002	-0,012
-576,992	91,558	0,077	-0,064
-575,977	800,000	0,045	-0,123
-574,963	-106,973	0,039	-0,006
-573,948	170,811	0,109	0,115
-572,934	-48,631	-0,133	0,047
-571,919	800,000	-0,053	-0,157
-570,904	131,861	-0,057	0,054
-569,890	-164,209	-0,059	0,002
-568,875	800,000	0,035	0,072
-567,861	-200,000	-0,045	0,156
-566,846	-110,551	-0,103	-0,016
-565,831	-83,188	0,064	0,015
-564,817	72,841	-0,036	0,028
-563,802	800,000	0,049	-0,128
-562,788	89,922	-0,084	-0,070
-561,773	180,958	-0,071	-0,077
-560,758	800,000	0,032	-0,068
-559,744	800,000	-0,026	0,060
-558,729	541,208	-0,034	0,060
-557,715	-39,206	-0,110	-0,042
-556,700	-200,000	0,008	-0,201
-555,685	-200,000	-0,078	-0,289
-554,671	21,862	0,056	0,033
-553,656	-165,184	0,148	-0,005
-552,642	-200,000	-0,028	-0,092
-551,627	-61,383	0,082	-0,025
-550,612	800,000	-0,070	-0,161
-549,598	624,984	-0,078	-0,145
-548,583	-94,058	-0,008	0,002
-547,569	-200,000	-0,002	-0,139
-546,554	153,692	-0,103	-0,104
-545,539	-200,000	0,004	0,087
-544,525	229,348	0,064	0,077
-543,510	800,000	0,028	-0,077
-542,496	206,105	-0,012	0,013
-541,481	-15,496	0,051	-0,024
-540,466	-64,946	0,184	0,054
-539,452	67,785	0,136	-0,103
-538,437	-35,433	0,136	-0,054
-537,423	800,000	-0,035	0,074
-536,408	-3,755	0,073	0,037
-535,393	19,248	-0,106	0,062
-534,379	-164,003	0,065	0,002
-533,364	-31,505	-0,123	0,051
-532,350	131,984	0,052	-0,049
-531,335	-200,000	0,017	0,094
-530,321	800,000	0,025	-0,066
-529,306	-200,000	0,022	0,151
-528,291	38,060	-0,083	-0,054
-527,277	30,187	0,054	-0,034
-526,262	51,484	-0,127	-0,089
-525,248	-195,338	0,064	0,000
-524,233	310,312	-0,056	0,077
-523,218	800,000	-0,051	0,118
-522,204	-200,000	0,005	0,059
-521,189	-200,000	0,005	-0,071
-520,175	-72,119	-0,013	-0,004
-519,160	-200,000	-0,007	0,040
-518,145	-47,331	0,157	-0,056
-517,131	800,000	0,051	0,128
-516,116	-128,987	0,043	0,004
-515,102	245,199	0,067	-0,083
-514,087	107,872	0,055	-0,048
-513,072	-133,568	-0,173	0,016
-512,058	6,854	-0,086	-0,047
-511,043	52,038	-0,080	-0,056
-510,029	10,481	-0,054	0,030
-509,014	-101,683	-0,028	0,005
-507,999	-57,377	-0,061	0,019
-506,985	56,414	-0,056	0,040
-505,970	508,383	0,031	-0,053
-504,956	319,746	-0,056	-0,079
-503,941	-77,958	0,158	0,040
-502,926	-200,000	-0,013	-0,063
-501,912	-146,196	-0,102	0,007
-500,897	800,000	0,029	-0,067
-499,883	800,000	0,020	-0,062
-498,868	800,000	0,034	0,079
-497,853	-75,745	-0,057	0,015
-496,839	-116,230	-0,146	-0,020
-495,824	-200,000	0,016	0,082
-494,810	-200,000	0,017	-0,097
-493,795	280,442	0,086	-0,113
-492,781	-40,367	-0,080	0,030
-491,766	191,663	0,081	-0,089
-490,751	-20,714	-0,094	0,042
-489,737	19,695	0,014	0,008
-488,722	-200,000	-0,000	-0,015
-487,708	-200,000	0,014	0,160
-486,693	-174,412	-0,088	-0,002
-485,678	-200,000	-0,020	0,084
-484,664	356,384	-0,080	-0,118
-483,649	1,391	-0,067	-0,035
-482,635	-12,956	-0,077	-0,037
-481,620	800,000	0,052	-0,129
-480,605	232,632	0,110	0,132
-479,591	-200,000	0,004	0,063
-478,576	149,816	0,063	0,063
-477,562	-21,980	-0,140	-0,062
-476,547	-200,000	-0,010	0,047
-475,532	39,590	0,040	0,026
-474,518	241,353	-0,024	0,030
-473,503	-200,000	-0,006	0,069
-472,489	-200,000	-0,001	-0,027
-471,474	-200,000	0,003	0,033
-470,459	-46,018	-0,016	-0,006
-469,445	147,567	-0,049	-0,048
-468,430	800,000	-0,052	0,108
-467,416	427,656	-0,037	-0,059
-466,401	619,727	0,031	0,058
-465,386	-127,771	-0,173	0,018
-464,372	-22,498	-0,137	0,061
-463,357	-200,000	-0,025	-0,130
-462,343	-63,464	-0,070	0,021
-461,328	-200,000	0,001	-0,028
-460,313	800,000	0,057	0,153
-459,299	79,002	0,083	0,065
-458,284	330,969	0,080	-0,114
-457,270	440,773	-0,031	0,049
-456,255	-48,173	-0,068	-0,024
-455,241	319,624	0,023	0,032
-454,226	-135,401	-0,068	0,006
-453,211	259,450	0,094	0,119
-452,197	-200,000	0,023	0,186
-451,182	519,945	0,027	-0,047
-450,168	320,189	-0,033	-0,046
-449,153	800,000	0,021	-0,047
-448,138	-200,000	-0,025	-0,233
-447,124	203,006	-0,043	-0,048
-446,109	-5,247	-0,034	0,017
-445,095	306,348	0,033	0,045
-444,080	-200,000	-0,022	0,123
-443,065	214,769	-0,019	0,022
-442,051	180,425	-0,027	-0,029
-441,036	-97,434	0,089	-0,017
-440,022	-200,000	-0,009	-0,037
-439,007	179,395	-0,053	0,057
-437,992	-200,000	-0,012	0,153
-436,978	-61,606	0,130	-0,040
-435,963	800,000	-0,042	0,090
-434,949	-200,000	-0,015	-0,062
-433,934	-172,569	-0,118	-0,003
-432,919	209,902	-0,090	0,103
-431,905	129,610	0,031	0,029
-430,890	800,000	0,033	-0,072
-429,876	-56,690	0,073	0,023
-428,861	212,825	-0,008	0,009
-427,846	-200,000	0,017	-0,070
-426,832	-98,307	-0,019	0,003
-425,817	180,925	-0,020	-0,021
-424,803	-61,764	0,023	0,007
-423,788	-87,446	-0,158	0,035
-422,773	-163,710	0,097	0,003
-421,759	384,144	0,098	-0,148
-420,744	-13,211	0,047	-0,022
-419,730	-200,000	-0,003	-0,026
-418,715	-107,679	0,059	0,009
-417,701	76,392	-0,056	0,044
-416,686	-200,000	0,044	-0,183
-415,671	-119,462	0,139	0,018
-414,657	227,671	0,093	0,111
-413,642	224,802	0,033	0,040
-412,628	-135,432	-0,060	-0,005
-411,613	-200,000	0,011	-0,040
-410,598	17,438	-0,011	-0,007
-409,584	-161,928	-0,032	-0,001
-408,569	514,179	-0,034	-0,059
-407,555	309,017	0,078	0,107
-406,540	-65,083	0,021	0,006
-405,525	-200,000	-0,003	0,025
-404,511	48,704	-0,122	-0,084
-403,496	-10,578	0,073	0,035
-402,482	-200,000	0,014	0,063
-401,467	-200,000	0,002	-0,034
-400,452	320,566	-0,011	-0,015
-399,438	-200,000	0,033	0,129
-398,423	0,478	0,050	0,026
-397,409	685,074	-0,081	-0,155
-396,394	46,957	0,090	-0,061
-395,379	131,513	0,061	0,058
-394,365	31,321	0,082	-0,051
-393,350	266,155	0,044	0,056
-392,336	-106,839	0,134	-0,021
-391,321	444,156	0,075	0,121
-390,306	-154,474	-0,215	-0,010
-389,292	800,000	-0,033	-0,078
-388,277	-106,657	0,085	0,014
-387,263	-200,000	-0,001	-0,024
-386,248	172,621	-0,055	0,058
-385,233	608,529	0,030	0,054
-384,219	-200,000	0,013	-0,071
-383,204	800,000	0,017	0,035
-382,190	-1,920	-0,051	0,026
-381,175	-3,601	0,085	0,043
-380,160	-48,892	0,052	-0,018
-379,146	-200,000	0,017	0,061
-378,131	-200,000	0,044	0,181
-377,117	-200,000	-0,014	0,077
-376,102	306,449	0,061	0,083
-375,088	-200,000	-0,027	0,094
-374,073	-99,688	-0,048	0,009
-373,058	171,170	-0,014	0,015
-372,044	250,515	0,052	-0,065
-371,029	800,000	-0,014	0,038
-370,015	6,859	-0,045	0,025
-369,000	-130,899	-0,086	0,008
-367,985	18,413	-0,048	-0,028
-366,971	-200,000	-0,010	-0,061
-365,956	-200,000	-0,022	0,136
-364,942	40,650	0,091	0,060
-363,927	428,422	0,084	0,132
-362,912	800,000	0,044	0,135
-361,898	-61,531	-0,132	-0,040
-360,883	8,967	-0,016	-0,009
-359,869	596,864	-0,070	-0,127
-358,854	-31,017	-0,153	0,063
-357,839	-140,981	0,154	0,011
-356,825	167,971	0,065	-0,067
-355,810	-60,734	0,067	0,021
-354,796	106,272	0,004	-0,003
-353,781	-200,000	0,058	-0,202
-352,766	51,521	0,141	-0,098
-351,752	-200,000	-0,001	-0,021
-350,737	-158,712	0,079	0,003
-349,723	-90,369	0,139	-0,029
-348,708	-2,024	0,002	-0,001
-347,693	-82,409	-0,081	-0,019
-346,679	800,000	0,015	0,043
-345,664	-102,661	-0,157	-0,027
-344,650	-200,000	0,017	-0,128
-343,635	283,329	-0,066	0,086
-342,620	-133,103	0,064	-0,006
-341,606	14,998	-0,109	0,062
-340,591	-200,000	-0,002	0,010
-339,577	44,065	-0,040	0,027
-338,562	213,260	-0,070	-0,081
-337,548	44,828	0,095	-0,064
-336,533	-200,000	0,004	-0,064
-335,518	-153,603	0,181	0,009
-334,504	144,867	-0,037	-0,036
-333,489	-112,651	-0,093	-0,013
-332,475	800,000	0,037	-0,089
-331,460	228,293	0,035	-0,042
-330,445	800,000	0,030	-0,067
-329,431	-133,414	-0,005	0,000
-328,416	333,030	0,045	0,064
-327,402	-121,990	-0,016	-0,002
-326,387	78,016	-0,050	-0,039
-325,372	691,259	-0,020	0,038
-324,358	-200,000	0,003	-0,133
-323,343	146,026	-0,041	-0,040
-322,329	131,636	0,034	0,032
-321,314	-157,738	0,182	-0,008
-320,299	363,533	0,024	0,035
-319,285	62,765	-0,099	-0,072
-318,270	265,736	-0,084	0,107
-317,256	-196,867	-0,133	-0,001
-316,241	-123,139	0,030	0,003
-315,226	-71,539	-0,039	-0,011
-314,212	-200,000	0,003	-0,021
-313,197	185,282	0,047	-0,051
-312,183	327,349	-0,039	0,055
-311,168	245,593	-0,040	0,049
-310,153	62,759	-0,035	0,026
-309,139	-132,834	-0,166	0,015
-308,124	-93,528	-0,173	-0,035
-307,110	-90,835	-0,013	0,003
-306,095	173,665	-0,089	0,094
-305,080	-8,264	0,062	-0,030
-304,066	-117,869	-0,077	-0,010
-303,051	-62,442	0,124	0,037
-302,037	-14,393	0,114	0,053
-301,022	451,066	-0,084	0,136
-300,008	800,000	0,021	0,066
-298,993	-200,000	0,015	0,174
-297,978	32,683	-0,035	0,022
-296,964	295,098	-0,055	-0,074
-295,949	-200,000	-0,000	0,017
-294,935	-129,009	-0,203	0,020
-293,920	800,000	0,022	-0,070
-292,905	23,830	0,073	-0,043
-291,891	800,000	0,016	-0,051
-290,876	-200,000	0,002	0,095
-289,862	13,302	0,039	0,022
-288,847	244,670	0,048	-0,059
-287,832	-98,960	-0,063	0,012
-286,818	-95,299	0,090	0,018
-285,803	67,042	0,111	-0,082
-284,789	-133,825	-0,069	0,006
-283,774	10,044	0,185	0,102
-282,759	196,052	-0,084	0,093
-281,745	-75,729	0,060	-0,015
-280,730	-200,000	-0,003	-0,023
-279,716	-88,204	-0,100	-0,022
-278,701	675,800	-0,025	0,047
-277,686	3,460	0,088	0,047
-276,672	-200,000	0,015	0,062
-275,657	-200,000	0,018	0,107
-274,643	248,991	-0,030	-0,037
-273,628	414,652	-0,116	0,180
-272,613	-200,000	0,016	-0,149
-271,599	477,462	-0,006	0,010
-270,584	233,824	-0,020	-0,024
-269,570	120,172	0,061	-0,055
-268,555	800,000	0,055	-0,156
-267,540	800,000	-0,068	-0,207
-266,526	-200,000	-0,001	-0,034
-265,511	-19,172	-0,122	-0,055
-264,497	-12,492	0,091	-0,043
-263,482	74,198	-0,039	0,030
-262,467	70,729	0,155	0,117
-261,453	800,000	0,057	0,151
-260,438	48,897	-0,076	0,052
-259,424	-181,214	-0,086	0,001
-258,409	-200,000	-0,012	0,122
-257,395	256,507	0,077	0,096
-256,380	4,616	-0,068	0,036
-255,365	387,080	0,043	0,064
-254,351	121,599	0,080	0,073
-253,336	-22,619	-0,089	-0,039
-252,322	-86,569	-0,107	-0,024
-251,307	275,578	-0,010	-0,012
-250,292	-7,591	-0,074	-0,036
-249,278	199,815	0,075	-0,084
-248,263	169,735	-0,060	0,063
-247,249	213,009	-0,062	0,072
-246,234	9,851	0,060	-0,033
-245,219	-120,802	0,106	-0,013
-244,205	-107,073	-0,180	-0,029
-243,190	-145,876	0,117	0,007
-242,176	166,397	-0,038	-0,039
-241,161	-43,933	0,096	-0,035
-240,146	-127,769	0,136	-0,014
-239,132	-120,947	-0,071	0,009
-238,117	95,002	-0,087	0,072
-237,103	-200,000	-0,027	-0,166
-236,088	598,157	-0,027	-0,050
-235,073	-24,050	0,076	-0,033
-234,059	800,000	0,014	-0,032
-233,044	-200,000	0,003	-0,037
-232,030	-110,213	0,121	-0,018
-231,015	-200,000	0,026	-0,093
-230,000	-200,000	-0,001	0,127
-228,986	115,227	0,071	0,063
-227,971	-42,261	0,158	0,058
-226,957	10,736	-0,050	0,028
-225,942	-200,000	0,012	-0,117
-224,927	-160,021	0,019	-0,001
-223,913	800,000	0,037	0,088
-222,898	293,204	-0,069	0,091
-221,884	9,900	0,136	-0,075
-220,869	-200,000	-0,005	0,041
-219,855	188,954	0,072	-0,078
-218,840	-57,864	0,076	0,024
-217,825	-2,983	-0,055	-0,028
-216,811	800,000	0,026	0,063
-215,796	-112,161	0,219	-0,032
-214,782	-200,000	-0,005	-0,066
-213,767	325,074	-0,069	0,096
-212,752	-200,000	-0,001	0,064
-211,738	709,414	-0,031	-0,060
-210,723	83,693	0,026	0,021
-209,709	-200,000	0,000	-0,090
-208,694	-128,477	-0,095	0,010
-207,679	800,000	-0,023	-0,061
-206,665	-200,000	0,016	-0,082
-205,650	-200,000	-0,007	0,050
-204,636	-159,308	-0,187	0,007
-203,621	-74,347	0,083	0,022
-202,606	416,541	0,061	-0,094
-201,592	105,286	-0,068	0,058
-200,577	800,000	-0,082	0,204
-199,563	-72,464	-0,018	0,005
-198,548	-53,173	0,210	0,070
-197,533	21,689	0,152	0,089
-196,519	800,000	-0,036	0,077
-195,504	-200,000	-0,003	0,036
-194,490	-200,000	0,030	-0,131
-193,475	281,852	-0,084	0,109
-192,460	306,831	0,049	-0,067
-191,446	-200,000	0,012	0,253
-190,431	-144,937	0,042	0,003
-189,417	-200,000	-0,023	0,134
-188,402	53,197	-0,025	0,017
-187,387	201,420	-0,079	-0,088
-186,373	800,000	0,026	-0,079
-185,358	-200,000	0,005	-0,081
-184,344	26,902	-0,061	0,037
-183,329	-31,651	0,087	0,035
-182,315	36,472	0,056	-0,036
-181,300	800,000	-0,050	-0,115
-180,285	170,531	-0,112	-0,116
-179,271	16,513	0,171	-0,098
-178,256	-200,000	0,009	-0,039
-177,242	-1,185	-0,025	0,013
-176,227	67,038	-0,057	0,042
-175,212	-200,000	-0,015	-0,069
-174,198	-14,060	0,048	-0,022
-173,183	564,657	0,019	0,034
-172,169	-200,000	0,021	-0,091
-171,154	800,000	0,075	-0,157
-170,139	-26,477	0,032	0,014
-169,125	-38,421	0,109	0,042
-168,110	17,085	-0,107	0,062
-167,096	162,890	-0,038	0,039
-166,081	280,807	0,062	-0,081
-165,066	800,000	-0,040	-0,107
-164,052	-134,042	0,042	-0,004
-163,037	-104,673	-0,025	0,004
-162,023	-42,372	0,107	-0,040
-161,008	800,000	-0,011	-0,023
-159,993	-101,996	0,018	-0,003
-158,979	-74,161	0,104	-0,027
-157,964	-200,000	-0,031	-0,231
-156,950	502,877	-0,096	-0,162
-155,935	-126,258	0,035	-0,004
-154,920	-0,936	0,041	0,021
-153,906	573,173	-0,025	0,045
-152,891	800,000	0,025	-0,056
-151,877	-200,000	-0,014	-0,058
-150,862	123,085	-0,048	-0,043
-149,847	800,000	-0,019	-0,052
-148,833	-200,000	-0,010	0,047
-147,818	-200,000	0,002	0,140
-146,804	-200,000	0,013	0,062
-145,789	99,254	0,042	0,035
-144,775	-109,491	-0,095	0,014
-143,760	54,906	-0,034	0,023
-142,745	-158,637	-0,026	-0,001
-141,731	304,712	0,075	-0,102
-140,716	452,428	0,055	0,088
-139,702	-200,000	0,018	-0,076
-138,687	-127,187	-0,132	0,014
-137,672	160,457	0,062	0,062
-136,658	800,000	-0,038	0,104
-135,643	-200,000	0,015	0,067
-134,629	-200,000	0,016	0,144
-133,614	800,000	-0,033	0,091
-132,599	-200,000	0,009	0,109
-131,585	532,917	-0,082	-0,141
-130,570	-200,000	0,007	0,085
-129,556	-124,131	-0,059	-0,007
-128,541	-200,000	0,007	-0,121
-127,526	101,706	-0,067	-0,057
-126,512	324,881	-0,051	0,071
-125,497	-200,000	0,026	0,168
-124,483	-155,209	0,050	-0,002
-123,468	800,000	0,012	0,030
-122,453	800,000	0,058	-0,130
-121,439	2,707	-0,043	-0,023
-120,424	10,929	0,041	0,022
