DTS Sentinel unit serial number:	SN410029Multiplexer serial number:	ORYXHardware model number:	OX2-SRSoftware version number:	ORYX F/W v4,00 Oryx Data Collector v3.7.2.0data status	okinstallation	B3 Nyhavnadifferential loss correction	single-endedforward channel	channel 1reverse channel	N/Adate	2023/11/28time	18:42:30forward acquisition time	300,00reverse acquisition time	0,00gamma	499,1914k internal	0,3130k external	0,3130temperature offset calibration	1,0000default loss term (dB/km)	0,3820temperature slope calibration	1,0000multiplexer offset coefficient	1,0000multiplexer slope coefficient	1,0000fibre end	0,00T internal ref (°C)	7,48T ext. ref 1 (°C)	-7,34T ext. ref 2 (°C)	-7,48length (m)	temperature (°C)	Stokes	anti-Stokes-744,400	372,360	-0,169	-0,256
-743,385	12,919	0,132	0,076
-742,371	800,000	-0,128	-0,284
-741,356	-200,000	-0,040	0,261
-740,342	-200,000	-0,034	-0,148
-739,327	800,000	-0,063	0,194
-738,312	359,967	-0,187	-0,280
-737,298	167,092	-0,071	0,075
-736,283	74,852	-0,229	-0,179
-735,269	800,000	0,102	0,275
-734,254	136,895	-0,174	-0,169
-733,239	-17,296	-0,239	0,111
-732,225	-200,000	0,019	-0,224
-731,210	-200,000	-0,038	0,180
-730,196	-112,012	-0,043	0,006
-729,181	59,054	0,195	0,142
-728,167	-35,667	0,030	0,012
-727,152	-200,000	0,024	-0,092
-726,137	-83,577	0,054	-0,013
-725,123	166,678	-0,083	-0,087
-724,108	-117,732	0,050	0,007
-723,094	-134,735	-0,100	-0,009
-722,079	522,088	0,041	-0,072
-721,064	-200,000	0,004	-0,140
-720,050	700,188	0,046	-0,091
-719,035	-76,876	0,075	0,019
-718,021	119,459	0,056	-0,051
-717,006	109,513	-0,151	-0,135
-715,991	-9,482	0,015	-0,008
-714,977	205,797	-0,035	0,041
-713,962	800,000	0,028	0,068
-712,948	235,935	0,045	-0,056
-711,933	-200,000	0,036	-0,236
-710,918	226,922	-0,041	0,049
-709,904	-200,000	0,012	0,132
-708,889	697,683	-0,036	0,071
-707,875	114,007	-0,069	0,062
-706,860	667,338	-0,050	-0,097
-705,845	800,000	0,010	-0,024
-704,831	70,094	-0,090	0,069
-703,816	-200,000	-0,007	-0,101
-702,802	-45,763	0,080	-0,029
-701,787	335,308	-0,047	0,068
-700,772	-122,408	-0,051	-0,006
-699,758	323,485	0,051	0,073
-698,743	233,991	-0,014	0,017
-697,729	-200,000	-0,031	0,150
-696,714	-200,000	-0,018	0,140
-695,699	-32,466	0,022	-0,009
-694,685	-200,000	0,008	-0,033
-693,670	-83,826	-0,092	0,022
-692,656	-12,771	-0,101	0,049
-691,641	-28,622	0,088	0,038
-690,627	-200,000	-0,007	0,216
-689,612	49,172	-0,135	-0,094
-688,597	-175,062	-0,030	0,001
-687,583	-200,000	0,000	-0,003
-686,568	-200,000	0,029	-0,140
-685,554	-69,366	0,127	0,036
-684,539	800,000	-0,046	-0,145
-683,524	73,527	0,007	0,006
-682,510	-114,023	-0,089	0,013
-681,495	404,558	-0,095	-0,149
-680,481	79,483	-0,063	-0,050
-679,466	-71,994	-0,114	0,031
-678,451	154,876	0,095	0,097
-677,437	-200,000	0,003	-0,049
-676,422	-69,242	0,012	-0,003
-675,408	-98,396	-0,079	-0,015
-674,393	-199,818	-0,169	0,001
-673,378	-144,275	-0,048	0,003
-672,364	-200,000	-0,005	0,019
-671,349	-28,149	-0,049	0,021
-670,335	-200,000	-0,004	0,057
-669,320	800,000	0,031	-0,065
-668,305	-120,027	0,099	-0,012
-667,291	-74,601	-0,078	-0,021
-666,276	-93,575	0,046	0,009
-665,262	-56,863	-0,049	-0,016
-664,247	441,156	-0,054	-0,088
-663,232	-200,000	-0,006	0,050
-662,218	302,286	0,081	-0,111
-661,203	739,017	0,026	0,052
-660,189	-200,000	-0,054	-0,194
-659,174	348,070	-0,007	-0,010
-658,159	-71,472	0,027	0,007
-657,145	321,616	-0,075	-0,107
-656,130	-95,093	-0,052	0,010
-655,116	800,000	0,063	-0,163
-654,101	608,988	-0,018	0,033
-653,086	800,000	0,031	0,077
-652,072	93,246	-0,094	0,078
-651,057	-200,000	-0,001	-0,170
-650,043	-31,437	-0,157	-0,065
-649,028	-200,000	-0,013	-0,116
-648,014	-200,000	0,002	0,030
-646,999	90,065	-0,148	0,122
-645,984	-103,341	-0,042	0,007
-644,970	100,898	0,063	-0,054
-643,955	131,407	-0,049	0,047
-642,941	25,562	0,091	-0,056
-641,926	-200,000	0,008	-0,063
-640,911	107,066	-0,058	0,051
-639,897	40,995	0,101	0,067
-638,882	800,000	0,049	0,155
-637,868	800,000	0,026	-0,071
-636,853	-200,000	-0,001	-0,145
-635,838	-200,000	0,018	-0,127
-634,824	380,829	0,010	-0,016
-633,809	-45,733	-0,029	-0,011
-632,795	76,190	0,067	0,053
-631,780	-200,000	-0,007	0,099
-630,765	-77,443	-0,138	-0,035
-629,751	33,172	-0,108	0,069
-628,736	-63,778	0,092	-0,028
-627,722	-8,075	0,039	-0,019
-626,707	800,000	-0,013	0,033
-625,692	800,000	0,006	0,017
-624,678	800,000	-0,012	0,034
-623,663	-78,290	-0,207	-0,052
-622,649	-131,898	0,116	0,011
-621,634	-200,000	0,026	-0,095
-620,619	-200,000	-0,001	-0,027
-619,605	381,875	-0,021	-0,032
-618,590	-124,646	0,082	-0,009
-617,576	800,000	-0,029	-0,072
-616,561	2,897	-0,131	0,070
-615,546	20,920	-0,064	0,038
-614,532	113,849	-0,041	-0,037
-613,517	-200,000	0,015	-0,115
-612,503	800,000	-0,031	-0,080
-611,488	220,537	-0,047	0,055
-610,474	-94,785	0,133	0,026
-609,459	-134,887	0,049	-0,004
-608,444	-200,000	-0,015	0,129
-607,430	294,704	-0,082	-0,111
-606,415	-200,000	0,011	0,137
-605,401	194,241	0,074	-0,083
-604,386	-65,258	0,064	-0,019
-603,371	-83,421	0,088	-0,021
-602,357	800,000	-0,025	-0,055
-601,342	-163,724	0,141	0,005
-600,328	-197,630	-0,134	0,001
-599,313	800,000	0,015	-0,032
-598,298	670,606	-0,028	-0,054
-597,284	-148,992	0,211	-0,012
-596,269	-99,985	-0,059	-0,011
-595,255	800,000	0,051	0,107
-594,240	-120,794	-0,076	0,009
-593,225	-72,492	0,063	-0,017
-592,211	-24,261	-0,093	0,041
-591,196	-200,000	0,008	-0,099
-590,182	-20,961	0,088	-0,040
-589,167	426,939	0,024	0,038
-588,152	-200,000	-0,021	0,136
-587,138	-10,544	-0,148	-0,072
-586,123	268,767	0,060	0,078
-585,109	277,457	-0,032	-0,042
-584,094	-200,000	-0,017	-0,111
-583,079	164,453	-0,053	-0,055
-582,065	-200,000	-0,016	0,161
-581,050	-200,000	0,015	0,252
-580,036	-123,394	0,159	0,019
-579,021	654,250	-0,039	-0,074
-578,006	800,000	-0,063	-0,145
-576,992	-200,000	0,006	-0,068
-575,977	186,573	0,047	-0,051
-574,963	0,642	0,060	0,031
-573,948	181,793	-0,044	0,048
-572,934	-97,583	0,128	0,024
-571,919	800,000	0,056	-0,151
-570,904	800,000	-0,069	-0,150
-569,890	-39,768	0,082	0,032
-568,875	41,810	-0,124	0,083
-567,861	-103,113	0,038	0,007
-566,846	10,639	0,124	-0,069
-565,831	79,601	0,006	0,005
-564,817	600,927	0,066	-0,122
-563,802	233,671	-0,133	0,163
-562,788	800,000	0,041	0,093
-561,773	800,000	0,025	-0,060
-560,758	800,000	-0,061	-0,128
-559,744	-200,000	-0,009	0,112
-558,729	800,000	-0,017	0,050
-557,715	-78,028	-0,018	0,004
-556,700	185,984	-0,027	-0,030
-555,685	-200,000	0,006	0,069
-554,671	-11,585	-0,160	0,077
-553,656	-200,000	0,078	-0,000
-552,642	317,338	0,021	0,030
-551,627	-126,984	-0,055	0,006
-550,612	-41,276	0,063	-0,024
-549,598	64,429	0,054	-0,040
-548,583	205,165	-0,127	0,145
-547,569	-76,363	-0,069	-0,018
-546,554	-38,012	0,040	-0,016
-545,539	-33,732	0,079	0,032
-544,525	192,024	0,048	-0,053
-543,510	153,291	-0,105	-0,106
-542,496	135,828	-0,061	-0,059
-541,481	283,959	-0,063	-0,083
-540,466	-134,268	-0,149	0,013
-539,452	-200,000	-0,008	0,052
-538,437	12,129	0,112	0,064
-537,423	72,743	0,058	-0,045
-536,408	-200,000	-0,007	-0,043
-535,393	114,065	-0,041	-0,036
-534,379	-200,000	-0,007	-0,196
-533,364	364,129	-0,052	-0,077
-532,350	-116,982	-0,038	-0,005
-531,335	-200,000	-0,010	0,036
-530,321	-200,000	-0,004	-0,045
-529,306	281,887	0,020	-0,026
-528,291	373,875	0,072	0,108
-527,277	-200,000	-0,003	-0,020
-526,262	719,885	-0,061	0,119
-525,248	279,685	0,067	0,088
-524,233	800,000	0,036	-0,083
-523,218	23,682	-0,080	-0,049
-522,204	-3,657	0,089	0,045
-521,189	-97,071	-0,138	-0,026
-520,175	-200,000	-0,129	0,000
-519,160	-147,762	-0,093	0,006
-518,145	140,921	0,101	-0,098
-517,131	-71,413	-0,019	-0,005
-516,116	113,902	0,096	-0,086
-515,102	225,505	-0,045	-0,054
-514,087	302,717	-0,106	0,145
-513,072	800,000	-0,057	-0,119
-512,058	115,998	-0,146	-0,132
-511,043	135,091	-0,071	0,068
-510,029	299,937	0,043	0,059
-509,014	-100,202	0,141	-0,026
-507,999	-27,024	0,056	-0,024
-506,985	134,623	-0,106	-0,101
-505,970	-200,000	0,014	-0,082
-504,956	800,000	0,014	0,035
-503,941	-187,255	0,096	0,001
-502,926	800,000	-0,039	0,081
-501,912	164,966	0,158	0,164
-500,897	217,961	0,052	-0,062
-499,883	800,000	0,015	-0,047
-498,868	218,394	0,018	-0,021
-497,853	-142,406	-0,109	-0,008
-496,839	214,022	-0,086	-0,100
-495,824	107,560	-0,055	0,048
-494,810	-1,744	0,135	-0,070
-493,795	-4,387	-0,109	-0,055
-492,781	-200,000	-0,008	0,076
-491,766	-115,630	-0,133	-0,018
-490,751	116,246	-0,019	-0,018
-489,737	605,010	-0,091	0,168
-488,722	87,067	-0,109	0,088
-487,708	163,341	0,135	0,140
-486,693	800,000	-0,045	-0,098
-485,678	800,000	0,028	-0,077
-484,664	-77,912	-0,136	0,034
-483,649	-200,000	-0,008	-0,052
-482,635	-1,506	0,078	-0,040
-481,620	-200,000	-0,023	0,183
-480,605	-74,717	-0,149	-0,039
-479,591	-46,995	-0,116	0,041
-478,576	-200,000	-0,014	-0,090
-477,562	210,548	-0,066	-0,077
-476,547	-142,899	-0,080	0,006
-475,532	-62,591	-0,120	-0,036
-474,518	217,852	0,051	-0,060
-473,503	371,431	0,034	-0,051
-472,489	800,000	-0,012	0,028
-471,474	-73,762	0,123	0,033
-470,459	603,720	-0,029	-0,053
-469,445	800,000	-0,029	-0,068
-468,430	-200,000	0,004	-0,082
-467,416	-200,000	-0,008	-0,055
-466,401	139,954	-0,042	-0,041
-465,386	7,907	0,052	-0,029
-464,372	-200,000	-0,004	-0,095
-463,357	-200,000	0,024	-0,106
-462,343	-200,000	-0,016	-0,083
-461,328	-47,684	0,021	0,007
-460,313	-64,315	0,095	0,028
-459,299	800,000	0,011	0,027
-458,284	323,234	-0,077	0,109
-457,270	-65,475	-0,087	0,026
-456,255	197,990	0,095	-0,107
-455,241	800,000	0,040	-0,120
-454,226	-200,000	0,039	-0,159
-453,211	88,451	-0,153	-0,125
-452,197	-200,000	0,079	0,000
-451,182	-154,693	0,154	-0,007
-450,168	17,712	-0,124	-0,072
-449,153	-70,975	0,064	-0,018
-448,138	36,066	0,061	-0,039
-447,124	-200,000	0,026	-0,149
-446,109	-67,078	0,079	0,023
-445,095	553,353	0,027	0,047
-444,080	-113,595	0,155	0,022
-443,065	-200,000	-0,000	-0,129
-442,051	641,692	0,053	0,099
-441,036	-200,000	-0,037	-0,164
-440,022	37,401	0,014	0,009
-439,007	352,755	-0,077	0,113
-437,992	105,202	-0,026	0,022
-436,978	800,000	-0,042	-0,110
-435,963	-200,000	0,026	0,096
-434,949	62,130	0,031	0,022
-433,934	-129,566	-0,091	-0,009
-432,919	-80,708	0,104	-0,025
-431,905	-200,000	0,001	-0,056
-430,890	103,851	0,077	-0,066
-429,876	-38,199	0,144	-0,056
-428,861	800,000	0,031	0,074
-427,846	145,073	-0,017	-0,016
-426,832	-164,781	0,021	-0,001
-425,817	153,950	-0,088	-0,089
-424,803	-123,263	0,120	-0,014
-423,788	800,000	-0,045	-0,119
-422,773	-125,740	-0,106	0,012
-421,759	-200,000	-0,000	0,081
-420,744	104,499	0,057	0,049
-419,730	208,982	-0,059	-0,068
-418,715	-107,650	0,045	-0,007
-417,701	800,000	-0,076	-0,166
-416,686	-3,700	0,138	0,070
-415,671	800,000	0,015	0,042
-414,657	-57,787	0,058	0,019
-413,642	-164,221	0,122	-0,004
-412,628	-91,853	0,138	0,028
-411,613	-200,000	0,007	0,087
-410,598	619,337	-0,077	0,143
-409,584	-80,175	0,181	-0,044
-408,569	-149,430	0,106	-0,006
-407,555	193,105	-0,071	0,079
-406,540	-200,000	-0,001	0,082
-405,525	-31,380	-0,035	0,014
-404,511	-95,516	0,054	0,011
-403,496	-135,650	-0,071	0,006
-402,482	800,000	-0,050	-0,118
-401,467	800,000	0,033	0,102
-400,452	570,822	0,065	0,117
-399,438	263,742	0,025	-0,033
-398,423	-108,644	-0,012	0,002
-397,409	-30,814	-0,066	-0,027
-396,394	-200,000	-0,010	-0,084
-395,379	-200,000	-0,012	-0,167
-394,365	-83,524	0,041	0,010
-393,350	-171,105	0,034	-0,001
-392,336	83,066	-0,111	0,089
-391,321	-75,951	-0,115	0,030
-390,306	121,695	-0,090	-0,082
-389,292	-200,000	0,022	-0,142
-388,277	588,034	-0,038	0,068
-387,263	-153,038	0,152	0,008
-386,248	64,866	0,107	0,079
-385,233	146,911	0,109	0,108
-384,219	-81,118	0,024	-0,006
-383,204	-200,000	-0,004	-0,092
-382,190	62,283	-0,122	0,089
-381,175	-127,194	0,069	0,007
-380,160	-200,000	0,004	0,064
-379,146	-200,000	0,012	0,063
-378,131	1,106	-0,091	0,047
-377,117	-20,921	0,118	0,053
-376,102	19,151	-0,070	0,041
-375,088	-200,000	0,018	0,076
-374,073	-22,902	0,113	0,050
-373,058	-200,000	0,003	0,033
-372,044	800,000	0,042	-0,125
-371,029	20,598	-0,068	0,040
-370,015	-200,000	0,007	0,039
-369,000	-200,000	0,026	0,125
-367,985	154,165	-0,070	-0,071
-366,971	-32,044	0,094	0,038
-365,956	-200,000	-0,030	0,115
-364,942	183,855	0,151	0,164
-363,927	-61,590	-0,164	0,050
-362,912	148,435	-0,063	0,062
-361,898	800,000	-0,035	-0,094
-360,883	-200,000	-0,042	0,172
-359,869	-200,000	-0,007	-0,060
-358,854	-78,038	-0,036	0,009
-357,839	480,269	0,062	0,104
-356,825	412,733	0,049	0,076
-355,810	-88,748	-0,009	-0,002
-354,796	17,526	-0,080	-0,047
-353,781	484,528	-0,033	-0,056
-352,766	-5,515	0,080	-0,040
-351,752	800,000	0,047	0,110
-350,737	-200,000	0,023	-0,077
-349,723	241,663	-0,131	0,161
-348,708	800,000	0,022	-0,045
-347,693	800,000	-0,031	-0,090
-346,679	65,173	0,031	-0,023
-345,664	800,000	-0,060	-0,166
-344,650	99,006	0,081	-0,068
-343,635	-200,000	0,031	-0,115
-342,620	56,702	0,112	-0,080
-341,606	476,519	0,034	0,057
-340,591	-200,000	-0,004	-0,195
-339,577	311,742	-0,038	-0,052
-338,562	-106,888	0,053	0,009
-337,548	-200,000	0,022	-0,092
-336,533	800,000	-0,047	0,147
-335,518	-99,995	-0,031	-0,006
-334,504	-64,250	-0,104	0,031
-333,489	-5,756	-0,098	-0,049
-332,475	37,989	-0,075	-0,049
-331,460	-200,000	-0,030	0,108
-330,445	-200,000	-0,009	-0,084
-329,431	-8,772	0,135	0,066
-328,416	96,026	-0,028	0,023
-327,402	419,729	0,099	0,155
-326,387	-200,000	-0,035	-0,193
-325,372	-200,000	-0,024	-0,158
-324,358	194,664	0,077	0,086
-323,343	6,224	-0,144	-0,078
-322,329	-200,000	0,017	-0,099
-321,314	-95,964	0,137	-0,026
-320,299	-86,281	0,085	0,019
-319,285	-200,000	0,007	0,027
-318,270	-200,000	-0,168	0,000
-317,256	800,000	0,016	0,044
-316,241	-163,551	-0,072	-0,002
-315,226	71,308	0,111	-0,084
-314,212	-132,287	0,038	-0,004
-313,197	-111,311	-0,074	0,011
-312,183	-113,474	0,129	0,018
-311,168	-200,000	0,017	0,107
-310,153	-200,000	-0,008	0,048
-309,139	99,593	0,059	0,050
-308,124	3,521	-0,010	0,005
-307,110	-200,000	-0,004	-0,111
-306,095	572,188	0,076	0,136
-305,080	34,317	-0,046	0,029
-304,066	-107,227	0,094	0,015
-303,051	136,950	-0,073	-0,070
-302,037	337,410	0,089	-0,127
-301,022	800,000	0,026	0,070
-300,008	777,600	0,058	0,117
-298,993	-121,706	0,114	0,014
-297,978	12,083	-0,139	0,078
-296,964	399,171	-0,035	0,054
-295,949	-146,245	0,021	-0,001
-294,935	30,454	-0,059	0,037
-293,920	-176,297	-0,137	-0,003
-292,905	-128,898	0,038	-0,004
-291,891	-2,559	0,109	0,055
-290,876	44,349	-0,087	0,058
-289,862	-91,465	-0,029	0,006
-288,847	54,968	-0,118	0,083
-287,832	-41,121	0,112	-0,042
-286,818	524,121	-0,076	0,132
-285,803	-200,000	0,014	0,079
-284,789	800,000	-0,083	0,170
-283,774	-68,265	-0,122	0,034
-282,759	-200,000	0,006	0,032
-281,745	-200,000	0,004	0,112
-280,730	-158,448	0,089	-0,004
-279,716	69,226	0,015	0,011
-278,701	-200,000	-0,013	-0,102
-277,686	-200,000	0,036	0,120
-276,672	-67,916	0,060	0,017
-275,657	800,000	0,012	0,037
-274,643	-200,000	-0,005	0,049
-273,628	-200,000	-0,004	-0,137
-272,613	-15,475	-0,158	0,074
-271,599	-200,000	-0,017	0,115
-270,584	5,801	-0,081	0,044
-269,570	486,334	0,103	-0,172
-268,555	59,234	-0,139	-0,099
-267,540	-200,000	-0,002	0,008
-266,526	-109,889	-0,184	-0,028
-265,511	78,629	0,101	-0,079
-264,497	15,418	-0,042	-0,024
-263,482	-22,371	0,111	0,049
-262,467	252,538	-0,078	0,097
-261,453	-86,716	-0,169	0,037
-260,438	156,080	0,045	0,045
-259,424	263,991	-0,078	-0,100
-258,409	292,478	-0,053	-0,070
-257,395	-200,000	0,010	-0,058
-256,380	-117,860	0,112	0,014
-255,365	-200,000	0,011	-0,115
-254,351	-179,290	0,100	0,002
-253,336	-43,565	-0,193	0,071
-252,322	-35,106	-0,074	-0,029
-251,307	800,000	-0,033	0,101
-250,292	335,554	0,063	0,090
-249,278	56,005	-0,110	-0,078
-248,263	-25,633	-0,078	-0,034
-247,249	26,752	0,116	0,071
-246,234	-104,180	0,112	0,019
-245,219	-9,948	-0,069	0,033
-244,205	-200,000	-0,002	-0,020
-243,190	83,125	0,065	-0,052
-242,176	-45,114	0,099	0,036
-241,161	-119,344	0,121	-0,015
-240,146	800,000	0,041	0,123
-239,132	-98,244	0,035	0,007
-238,117	-59,050	0,057	0,018
-237,103	86,327	-0,081	-0,065
-236,088	-200,000	-0,004	-0,160
-235,073	29,386	0,065	-0,040
-234,059	-176,978	0,092	-0,002
-233,044	-200,000	0,042	-0,142
-232,030	357,042	0,043	-0,062
-231,015	24,290	-0,064	0,038
-230,000	800,000	-0,049	-0,112
-228,986	356,229	0,040	0,058
-227,971	-200,000	0,001	0,192
-226,957	-124,832	0,054	-0,006
-225,942	303,084	-0,046	-0,063
-224,927	31,322	0,021	-0,013
-223,913	333,517	-0,090	-0,128
-222,898	191,514	0,049	-0,054
-221,884	256,417	-0,103	-0,130
-220,869	-140,373	0,195	-0,015
-219,855	-104,030	0,178	0,030
-218,840	-49,786	-0,107	-0,037
-217,825	-200,000	-0,021	0,073
-216,811	582,643	-0,024	0,042
-215,796	191,469	-0,030	0,033
-214,782	-152,257	0,109	0,006
-213,767	43,309	0,050	0,033
-212,752	155,962	0,078	0,078
-211,738	-23,330	0,156	0,068
-210,723	5,029	-0,014	0,007
-209,709	-200,000	-0,011	-0,099
-208,694	800,000	-0,023	-0,066
-207,679	-31,721	-0,051	-0,021
-206,665	-200,000	-0,007	0,031
-205,650	164,927	0,044	-0,045
-204,636	-22,917	0,108	0,047
-203,621	164,139	-0,057	-0,058
-202,606	800,000	0,004	-0,008
-201,592	-200,000	-0,011	-0,132
-200,577	-63,071	0,065	-0,019
-199,563	85,360	-0,065	-0,052
-198,548	44,912	0,044	-0,029
-197,533	66,301	0,125	0,092
-196,519	124,972	-0,130	0,120
-195,504	170,872	0,102	0,107
-194,490	22,733	-0,127	-0,076
-193,475	148,661	-0,025	0,025
-192,460	-114,112	-0,018	-0,003
-191,446	184,506	0,126	0,136
-190,431	-200,000	0,000	0,019
-189,417	300,296	0,010	0,013
-188,402	776,103	0,004	-0,008
-187,387	477,260	-0,078	-0,129
-186,373	498,234	-0,030	-0,050
-185,358	85,602	0,058	0,046
-184,344	-124,953	-0,085	0,009
-183,329	-54,524	0,035	-0,011
-182,315	-200,000	-0,015	0,171
-181,300	28,897	0,096	-0,059
-180,285	-32,162	-0,165	-0,067
-179,271	-96,937	0,189	-0,036
-178,256	560,267	-0,045	0,080
-177,242	800,000	-0,029	0,066
-176,227	401,864	-0,041	0,063
-175,212	-200,000	0,018	0,070
-174,198	58,993	-0,080	-0,057
-173,183	-140,426	-0,118	0,009
-172,169	-200,000	-0,035	0,169
-171,154	-200,000	0,062	0,210
-170,139	-96,403	0,073	-0,014
-169,125	-200,000	0,004	0,124
-168,110	-200,000	0,048	0,171
-167,096	55,568	0,053	-0,037
-166,081	400,272	-0,089	0,137
-165,066	-124,190	-0,032	-0,004
-164,052	258,254	0,034	-0,042
-163,037	-123,369	-0,079	-0,009
-162,023	62,523	0,016	0,012
-161,008	117,210	0,043	0,038
-159,993	-75,989	-0,045	0,011
-158,979	-125,463	-0,068	0,007
-157,964	-135,035	-0,134	-0,012
-156,950	151,253	-0,043	-0,042
-155,935	-25,315	0,061	0,026
-154,920	-200,000	-0,001	-0,017
-153,906	-200,000	-0,025	0,155
-152,891	-200,000	-0,010	0,063
-151,877	337,820	-0,047	-0,066
-150,862	-103,483	0,100	-0,017
-149,847	-57,996	0,029	0,009
-148,833	286,712	0,017	0,023
-147,818	800,000	0,059	-0,138
-146,804	-111,622	0,125	-0,018
-145,789	-200,000	0,007	-0,080
-144,775	484,924	0,066	0,110
-143,760	-49,136	-0,049	-0,017
-142,745	-15,121	-0,117	0,054
-141,731	-79,707	-0,089	0,022
-140,716	-72,414	0,159	-0,042
-139,702	-29,395	0,069	-0,029
-138,687	-200,000	0,016	0,054
-137,672	-200,000	-0,003	0,021
-136,658	-23,676	0,045	0,020
-135,643	40,343	-0,015	0,010
-134,629	120,150	0,083	-0,075
-133,614	800,000	-0,044	0,107
-132,599	35,114	0,041	-0,026
-131,585	-200,000	-0,015	0,171
-130,570	-200,000	0,024	-0,079
-129,556	-113,573	-0,052	-0,007
-128,541	-200,000	-0,027	0,094
-127,526	800,000	0,043	-0,093
-126,512	21,380	0,009	0,005
-125,497	-200,000	0,035	-0,112
-124,483	2,471	-0,048	-0,025
-123,468	-109,199	-0,193	-0,029
-122,453	800,000	0,038	-0,085
-121,439	198,411	-0,021	-0,023
-120,424	19,433	0,128	-0,074
