DTS Sentinel unit serial number:	SN410029Multiplexer serial number:	ORYXHardware model number:	OX2-SRSoftware version number:	ORYX F/W v4,00 Oryx Data Collector v3.7.2.0data status	okinstallation	B3 Nyhavnadifferential loss correction	single-endedforward channel	channel 1reverse channel	N/Adate	2023/11/28time	13:07:31forward acquisition time	300,00reverse acquisition time	0,00gamma	499,1914k internal	0,3138k external	0,3138temperature offset calibration	1,0000default loss term (dB/km)	0,3820temperature slope calibration	1,0000multiplexer offset coefficient	1,0000multiplexer slope coefficient	1,0000fibre end	0,00T internal ref (°C)	8,07T ext. ref 1 (°C)	-7,69T ext. ref 2 (°C)	-7,87length (m)	temperature (°C)	Stokes	anti-Stokes-744,400	800,000	-0,144	-0,332
-743,385	800,000	-0,107	0,224
-742,371	800,000	-0,062	-0,155
-741,356	-200,000	0,018	0,327
-740,342	223,131	-0,156	-0,187
-739,327	-200,000	0,064	0,269
-738,312	129,477	-0,231	-0,219
-737,298	-200,000	-0,058	0,233
-736,283	271,431	-0,244	-0,319
-735,269	-200,000	-0,018	0,198
-734,254	800,000	-0,086	-0,226
-733,239	38,594	-0,215	0,142
-732,225	800,000	-0,023	-0,065
-731,210	-200,000	-0,025	0,120
-730,196	-200,000	0,012	0,127
-729,181	438,633	0,044	0,071
-728,167	-200,000	-0,017	-0,086
-727,152	-95,160	0,101	-0,020
-726,137	283,036	-0,030	0,040
-725,123	-179,808	-0,094	-0,001
-724,108	-200,000	0,000	-0,017
-723,094	83,469	0,037	-0,030
-722,079	-54,763	-0,032	-0,011
-721,064	-200,000	0,005	0,048
-720,050	478,196	-0,033	-0,056
-719,035	169,687	-0,032	0,034
-718,021	223,614	0,112	-0,134
-717,006	-137,243	-0,081	0,007
-715,991	216,458	0,020	-0,024
-714,977	800,000	-0,006	-0,015
-713,962	-108,259	-0,106	0,017
-712,948	493,338	-0,016	0,027
-711,933	800,000	0,056	-0,119
-710,918	800,000	-0,053	0,122
-709,904	-200,000	0,000	-0,163
-708,889	20,209	0,051	-0,030
-707,875	800,000	-0,053	-0,118
-706,860	-200,000	-0,012	-0,178
-705,845	-131,895	0,101	-0,010
-704,831	727,519	0,036	-0,072
-703,816	-200,000	-0,017	-0,121
-702,802	-200,000	0,044	0,173
-701,787	-53,629	-0,087	0,029
-700,772	-200,000	0,016	0,053
-699,758	-200,000	0,010	0,051
-698,743	-200,000	-0,007	0,058
-697,729	-23,097	0,080	0,036
-696,714	-118,758	-0,053	-0,007
-695,699	800,000	0,047	-0,140
-694,685	103,353	0,076	-0,066
-693,670	-76,850	-0,074	-0,019
-692,656	-200,000	0,033	-0,119
-691,641	250,403	-0,052	-0,065
-690,627	-200,000	0,023	0,143
-689,612	-134,042	-0,048	-0,004
-688,597	-200,000	-0,029	0,142
-687,583	800,000	0,032	-0,080
-686,568	35,213	-0,136	-0,088
-685,554	17,281	-0,158	-0,093
-684,539	-25,896	0,044	-0,019
-683,524	-200,000	-0,031	-0,108
-682,510	717,950	0,030	0,058
-681,495	154,821	-0,076	-0,077
-680,481	347,733	-0,056	-0,082
-679,466	555,026	-0,057	-0,101
-678,451	-15,440	0,133	-0,063
-677,437	463,756	0,049	0,082
-676,422	67,105	-0,041	-0,031
-675,408	82,579	-0,081	-0,065
-674,393	800,000	0,016	-0,052
-673,378	800,000	-0,034	-0,077
-672,364	774,807	-0,018	-0,036
-671,349	-43,435	-0,113	-0,042
-670,335	-99,980	0,164	0,030
-669,320	628,034	0,058	-0,110
-668,305	384,499	-0,094	0,143
-667,291	752,060	-0,035	-0,070
-666,276	776,648	0,012	-0,025
-665,262	76,658	-0,196	-0,153
-664,247	-200,000	0,005	-0,044
-663,232	370,135	-0,070	-0,105
-662,218	626,760	-0,031	-0,059
-661,203	42,062	-0,044	-0,029
-660,189	-72,484	-0,102	0,028
-659,174	323,784	-0,063	0,090
-658,159	678,774	0,049	-0,095
-657,145	-124,824	-0,145	-0,016
-656,130	800,000	0,039	-0,090
-655,116	-200,000	-0,014	0,165
-654,101	201,508	0,021	0,023
-653,086	0,284	-0,045	-0,024
-652,072	-56,799	0,119	-0,039
-651,057	468,650	-0,074	0,124
-650,043	-200,000	-0,018	-0,072
-649,028	684,198	0,035	-0,069
-648,014	37,911	-0,063	-0,041
-646,999	400,128	-0,032	-0,050
-645,984	197,134	0,032	-0,036
-644,970	546,496	-0,037	0,065
-643,955	-200,000	0,008	-0,093
-642,941	677,307	-0,044	-0,085
-641,926	-200,000	0,034	0,135
-640,911	-29,274	0,158	0,067
-639,897	800,000	-0,021	0,054
-638,882	-200,000	0,023	0,108
-637,868	-200,000	0,011	-0,069
-636,853	800,000	-0,022	0,051
-635,838	716,383	0,013	-0,025
-634,824	270,014	-0,167	-0,217
-633,809	161,959	-0,061	-0,063
-632,795	126,102	0,101	-0,095
-631,780	-64,594	0,074	0,022
-630,765	174,616	-0,037	-0,039
-629,751	800,000	-0,028	-0,075
-628,736	-200,000	-0,031	-0,115
-627,722	54,188	-0,057	-0,040
-626,707	800,000	0,059	-0,145
-625,692	-200,000	-0,002	-0,033
-624,678	30,865	-0,112	-0,071
-623,663	-60,201	0,066	-0,021
-622,649	800,000	-0,070	-0,177
-621,634	800,000	-0,051	-0,148
-620,619	-73,099	-0,188	0,051
-619,605	306,814	0,079	0,109
-618,590	143,801	0,054	0,053
-617,576	-29,788	0,048	-0,020
-616,561	800,000	-0,050	-0,155
-615,546	47,682	0,052	-0,036
-614,532	-200,000	0,012	-0,099
-613,517	-81,306	-0,103	-0,025
-612,503	-48,567	-0,051	0,018
-611,488	-200,000	0,014	-0,101
-610,474	-200,000	0,014	0,085
-609,459	173,056	-0,113	0,121
-608,444	115,828	-0,138	0,125
-607,430	211,891	0,094	0,109
-606,415	690,214	-0,080	-0,155
-605,401	249,803	-0,069	-0,086
-604,386	79,205	-0,049	0,038
-603,371	322,852	0,104	0,147
-602,357	722,850	0,051	0,101
-601,342	41,839	0,050	-0,033
-600,328	-200,000	-0,017	-0,136
-599,313	185,211	-0,069	-0,075
-598,298	46,672	0,037	0,025
-597,284	75,699	0,038	0,030
-596,269	6,352	-0,031	-0,017
-595,255	-102,321	-0,139	0,024
-594,240	78,260	-0,055	-0,043
-593,225	-80,966	0,026	0,006
-592,211	-10,941	-0,009	-0,004
-591,196	-93,466	-0,078	-0,016
-590,182	32,803	0,053	-0,034
-589,167	328,640	0,019	-0,027
-588,152	-39,635	-0,136	0,052
-587,138	-25,828	0,059	-0,025
-586,123	800,000	0,029	-0,075
-585,109	-185,745	0,006	0,000
-584,094	263,018	0,035	-0,045
-583,079	416,514	0,044	-0,070
-582,065	-200,000	-0,030	-0,111
-581,050	380,880	-0,079	0,119
-580,036	42,259	0,096	-0,064
-579,021	-23,981	-0,040	0,018
-578,006	262,700	0,041	0,052
-576,992	157,119	-0,113	-0,116
-575,977	261,292	0,065	0,083
-574,963	-184,865	-0,110	-0,001
-573,948	2,676	-0,094	0,050
-572,934	-200,000	-0,037	-0,160
-571,919	-200,000	0,015	-0,082
-570,904	-200,000	0,037	-0,179
-569,890	245,129	0,022	-0,028
-568,875	34,262	-0,056	-0,036
-567,861	800,000	-0,033	-0,082
-566,846	602,060	0,051	-0,095
-565,831	800,000	-0,036	0,112
-564,817	244,891	-0,060	0,074
-563,802	-200,000	-0,011	-0,051
-562,788	260,972	-0,102	-0,130
-561,773	136,187	-0,051	-0,049
-560,758	5,642	0,112	0,061
-559,744	70,026	0,093	-0,071
-558,729	-149,733	-0,044	0,003
-557,715	86,693	-0,108	-0,088
-556,700	-73,030	0,048	-0,013
-555,685	-50,232	-0,062	-0,021
-554,671	-84,599	0,113	0,026
-553,656	156,050	0,088	0,090
-552,642	-35,133	0,070	0,028
-551,627	57,392	-0,136	-0,098
-550,612	148,136	-0,127	-0,127
-549,598	-200,000	0,030	-0,105
-548,583	-200,000	-0,023	-0,133
-547,569	238,976	0,068	-0,083
-546,554	-200,000	-0,007	0,101
-545,539	800,000	0,058	0,184
-544,525	800,000	-0,047	0,113
-543,510	-156,367	-0,107	0,005
-542,496	-200,000	0,006	0,046
-541,481	371,468	0,068	0,102
-540,466	-43,643	0,105	0,039
-539,452	800,000	0,062	-0,135
-538,437	129,620	0,128	-0,121
-537,423	139,880	-0,045	0,044
-536,408	157,314	-0,068	0,069
-535,393	800,000	-0,021	-0,064
-534,379	98,876	0,100	0,085
-533,364	-200,000	-0,033	0,112
-532,350	800,000	-0,066	0,140
-531,335	130,164	-0,066	-0,062
-530,321	674,828	-0,025	0,047
-529,306	4,197	-0,035	0,019
-528,291	50,705	0,036	-0,025
-527,277	-180,820	-0,111	0,002
-526,262	164,713	-0,073	-0,076
-525,248	-112,736	0,111	0,016
-524,233	-200,000	-0,015	0,116
-523,218	233,914	-0,007	0,008
-522,204	122,032	0,058	0,054
-521,189	83,187	-0,109	0,087
-520,175	-171,618	-0,165	0,004
-519,160	-139,272	0,075	-0,006
-518,145	607,798	-0,064	-0,118
-517,131	398,769	0,070	0,108
-516,116	-79,033	-0,086	-0,021
-515,102	-126,169	-0,131	-0,014
-514,087	7,329	-0,116	-0,064
-513,072	254,754	-0,023	-0,029
-512,058	-103,315	0,126	0,022
-511,043	-200,000	-0,005	-0,067
-510,029	-176,317	-0,067	-0,001
-509,014	269,063	0,045	0,058
-507,999	-200,000	-0,002	0,011
-506,985	66,358	-0,054	0,040
-505,970	45,304	-0,070	-0,047
-504,956	-200,000	0,006	-0,026
-503,941	715,844	0,015	-0,029
-502,926	752,326	0,048	0,096
-501,912	800,000	-0,013	0,026
-500,897	-39,527	-0,054	0,021
-499,883	-200,000	-0,022	0,075
-498,868	53,969	-0,092	-0,065
-497,853	-200,000	0,020	-0,073
-496,839	-71,438	0,082	-0,022
-495,824	380,602	-0,034	0,051
-494,810	259,621	-0,063	-0,080
-493,795	456,886	0,087	0,143
-492,781	-200,000	0,009	0,062
-491,766	157,273	0,082	-0,083
-490,751	58,297	-0,095	0,068
-489,737	800,000	-0,016	-0,047
-488,722	-122,739	0,127	0,015
-487,708	-200,000	0,007	0,072
-486,693	-200,000	-0,001	0,008
-485,678	800,000	0,012	-0,031
-484,664	84,681	-0,040	0,032
-483,649	-200,000	0,010	-0,046
-482,635	800,000	0,021	0,066
-481,620	-170,431	0,101	-0,003
-480,605	680,973	0,061	0,118
-479,591	-200,000	-0,005	-0,051
-478,576	800,000	0,012	0,029
-477,562	78,710	-0,076	-0,059
-476,547	584,652	0,027	-0,048
-475,532	-101,134	-0,046	0,008
-474,518	800,000	-0,039	0,121
-473,503	-117,970	0,061	-0,008
-472,489	442,521	0,140	0,227
-471,474	31,213	0,047	0,030
-470,459	-200,000	-0,022	-0,092
-469,445	196,174	0,043	-0,048
-468,430	435,446	-0,032	-0,052
-467,416	-61,143	0,150	-0,046
-466,401	-200,000	-0,041	-0,134
-465,386	-200,000	0,001	0,060
-464,372	-150,019	0,096	-0,005
-463,357	-50,604	-0,110	-0,038
-462,343	-200,000	-0,046	-0,183
-461,328	-1,826	0,061	-0,031
-460,313	188,623	0,028	-0,030
-459,299	-47,160	0,097	0,034
-458,284	-70,756	0,074	0,020
-457,270	800,000	0,005	-0,012
-456,255	-108,478	0,102	0,016
-455,241	570,336	-0,048	0,086
-454,226	679,668	0,056	-0,108
-453,211	144,908	0,122	-0,120
-452,197	202,340	0,012	0,014
-451,182	-200,000	-0,000	0,152
-450,168	800,000	-0,061	0,143
-449,153	800,000	0,021	-0,055
-448,138	341,050	-0,084	-0,121
-447,124	-55,677	0,203	0,066
-446,109	-79,578	-0,026	0,006
-445,095	-73,409	0,141	0,038
-444,080	383,814	0,029	-0,044
-443,065	36,037	0,150	0,096
-442,051	-200,000	-0,029	0,103
-441,036	-200,000	0,034	-0,127
-440,022	-200,000	0,030	-0,210
-439,007	397,795	-0,030	-0,045
-437,992	800,000	0,058	-0,124
-436,978	76,066	-0,042	0,033
-435,963	-54,200	0,127	-0,042
-434,949	-200,000	-0,010	-0,054
-433,934	54,072	0,102	-0,072
-432,919	-18,862	-0,049	-0,022
-431,905	169,755	-0,037	-0,039
-430,890	57,110	0,086	0,061
-429,876	91,594	0,068	0,056
-428,861	1,130	0,171	0,090
-427,846	-200,000	0,002	0,009
-426,832	-200,000	-0,007	0,026
-425,817	28,901	-0,099	0,061
-424,803	800,000	-0,018	-0,038
-423,788	188,894	-0,045	0,049
-422,773	-200,000	0,012	0,052
-421,759	-79,826	-0,017	-0,004
-420,744	-200,000	0,019	-0,071
-419,730	42,674	0,064	0,042
-418,715	164,308	-0,081	0,083
-417,701	-200,000	0,000	-0,088
-416,686	-153,970	-0,091	0,004
-415,671	60,304	0,101	0,073
-414,657	106,670	-0,053	-0,046
-413,642	195,240	-0,022	0,024
-412,628	26,674	-0,141	0,086
-411,613	800,000	-0,021	0,063
-410,598	167,460	-0,128	-0,133
-409,584	796,391	-0,017	0,035
-408,569	-200,000	0,001	-0,003
-407,555	53,406	0,162	0,113
-406,540	421,009	0,042	0,066
-405,525	-103,776	-0,104	-0,018
-404,511	-24,842	0,051	0,022
-403,496	-30,527	0,060	-0,025
-402,482	10,163	0,065	0,036
-401,467	152,460	0,085	0,085
-400,452	-5,609	0,032	0,016
-399,438	-63,594	0,130	0,039
-398,423	41,020	-0,083	0,055
-397,409	781,728	-0,051	-0,102
-396,394	-200,000	-0,002	0,063
-395,379	702,426	0,047	0,092
-394,365	68,261	-0,043	0,032
-393,350	13,206	0,033	-0,019
-392,336	-77,346	0,109	0,027
-391,321	185,643	-0,089	0,097
-390,306	-60,205	0,087	0,027
-389,292	102,442	-0,120	-0,103
-388,277	334,445	0,066	-0,094
-387,263	89,902	-0,026	0,021
-386,248	-139,473	-0,114	0,009
-385,233	-200,000	0,015	0,090
-384,219	586,665	0,072	0,130
-383,204	-200,000	-0,014	-0,115
-382,190	23,362	-0,070	0,042
-381,175	-17,087	0,089	0,041
-380,160	-11,150	0,051	-0,024
-379,146	-200,000	0,008	0,031
-378,131	-22,512	0,116	-0,051
-377,117	800,000	-0,051	-0,140
-376,102	-200,000	-0,010	-0,125
-375,088	100,358	0,020	0,017
-374,073	800,000	0,028	-0,091
-373,058	-200,000	-0,030	-0,167
-372,044	98,647	0,096	-0,081
-371,029	147,316	-0,131	0,129
-370,015	82,784	0,065	0,052
-369,000	-200,000	0,029	0,153
-367,985	5,902	-0,086	0,047
-366,971	216,555	0,110	-0,128
-365,956	-200,000	0,006	-0,073
-364,942	344,067	0,129	0,186
-363,927	11,696	-0,113	0,063
-362,912	779,197	-0,031	0,061
-361,898	-70,191	0,081	-0,022
-360,883	52,120	-0,138	-0,096
-359,869	82,409	0,084	-0,066
-358,854	-51,677	0,095	0,032
-357,839	484,234	-0,079	0,131
-356,825	-175,955	0,074	0,001
-355,810	-200,000	-0,003	0,088
-354,796	-92,827	0,086	-0,017
-353,781	-93,278	-0,144	0,029
-352,766	22,674	-0,095	0,056
-351,752	-96,615	0,067	-0,013
-350,737	-200,000	0,002	0,198
-349,723	-65,402	0,054	0,016
-348,708	774,748	-0,076	0,153
-347,693	-174,996	-0,101	-0,002
-346,679	-133,164	-0,047	-0,004
-345,664	76,677	0,078	0,060
-344,650	-124,495	0,048	0,005
-343,635	-107,195	0,036	-0,006
-342,620	204,118	0,096	-0,109
-341,606	235,837	0,049	-0,059
-340,591	-15,305	-0,150	0,070
-339,577	-63,261	-0,041	-0,012
-338,562	-46,797	0,146	0,052
-337,548	-82,328	-0,030	-0,007
-336,533	-93,135	0,032	-0,006
-335,518	800,000	-0,009	-0,021
-334,504	-28,482	0,092	-0,039
-333,489	332,798	-0,054	-0,076
-332,475	-200,000	-0,012	-0,047
-331,460	-14,936	-0,130	-0,061
-330,445	-200,000	-0,016	-0,115
-329,431	303,767	0,065	0,089
-328,416	260,824	-0,058	0,073
-327,402	268,333	0,136	0,174
-326,387	-200,000	-0,001	0,019
-325,372	-200,000	-0,026	-0,154
-324,358	-200,000	-0,017	-0,076
-323,343	234,490	0,135	0,163
-322,329	47,362	0,087	0,059
-321,314	-133,212	0,160	-0,015
-320,299	-200,000	-0,004	0,165
-319,285	123,956	-0,023	0,021
-318,270	172,039	-0,116	-0,122
-317,256	3,200	0,025	-0,013
-316,241	-27,444	0,065	0,028
-315,226	-200,000	0,018	-0,060
-314,212	37,316	0,100	0,065
-313,197	800,000	-0,049	0,101
-312,183	-52,467	0,037	-0,012
-311,168	-200,000	-0,040	-0,128
-310,153	-111,985	-0,108	-0,016
-309,139	132,200	0,080	0,075
-308,124	-200,000	-0,030	0,108
-307,110	-29,196	0,137	0,057
-306,095	130,423	-0,049	0,045
-305,080	-157,506	-0,147	0,006
-304,066	95,586	0,106	-0,088
-303,051	194,652	-0,095	-0,106
-302,037	-200,000	0,000	0,060
-301,022	-35,719	0,114	0,045
-300,008	244,554	0,031	-0,038
-298,993	-51,767	-0,070	-0,023
-297,978	320,614	0,131	-0,182
-296,964	400,451	-0,029	0,045
-295,949	719,227	-0,066	0,129
-294,935	-200,000	-0,011	-0,055
-293,920	517,717	-0,007	-0,011
-292,905	48,259	0,130	0,088
-291,891	-166,824	0,044	-0,001
-290,876	320,919	0,080	-0,111
-289,862	4,510	0,095	0,051
-288,847	667,038	-0,060	0,113
-287,832	800,000	0,053	-0,113
-286,818	318,163	0,109	0,151
-285,803	110,456	0,036	0,032
-284,789	21,185	-0,005	-0,003
-283,774	501,767	0,071	-0,120
-282,759	273,380	-0,024	0,031
-281,745	75,239	-0,049	-0,037
-280,730	-200,000	-0,012	-0,082
-279,716	800,000	0,023	0,063
-278,701	-200,000	-0,003	0,071
-277,686	-168,007	0,054	-0,002
-276,672	690,456	-0,019	0,036
-275,657	-53,555	-0,090	0,030
-274,643	-30,576	0,087	0,036
-273,628	199,129	-0,055	0,061
-272,613	-200,000	0,016	-0,084
-271,599	-200,000	-0,002	0,172
-270,584	-7,109	-0,041	0,020
-269,570	251,640	0,016	-0,020
-268,555	-126,032	-0,039	0,004
-267,540	-200,000	0,022	-0,101
-266,526	-26,324	-0,096	-0,041
-265,511	151,884	0,045	0,044
-264,497	19,001	-0,066	-0,039
-263,482	764,366	0,080	-0,159
-262,467	68,209	-0,189	0,141
-261,453	-200,000	0,027	0,123
-260,438	-95,432	0,043	-0,008
-259,424	211,234	-0,086	-0,099
-258,409	-74,536	-0,151	-0,039
-257,395	423,737	0,070	0,109
-256,380	-86,123	-0,053	0,012
-255,365	-200,000	-0,015	0,048
-254,351	-200,000	0,002	0,108
-253,336	20,028	-0,151	0,088
-252,322	-200,000	0,032	-0,189
-251,307	800,000	-0,025	-0,068
-250,292	239,734	0,034	-0,042
-249,278	-200,000	0,002	0,096
-248,263	169,331	0,105	0,109
-247,249	-121,537	-0,123	0,015
-246,234	-200,000	-0,016	0,080
-245,219	-101,249	-0,139	0,025
-244,205	-200,000	-0,009	0,033
-243,190	232,992	-0,032	0,038
-242,176	164,789	0,156	0,160
-241,161	800,000	-0,037	-0,081
-240,146	0,070	-0,114	0,059
-239,132	354,551	0,031	-0,044
-238,117	-200,000	-0,026	-0,137
-237,103	-131,403	-0,108	0,010
-236,088	-200,000	0,031	-0,124
-235,073	-200,000	0,017	0,077
-234,059	88,174	0,057	0,046
-233,044	-31,491	0,132	0,054
-232,030	41,084	-0,092	-0,061
-231,015	222,468	0,018	0,021
-230,000	-58,734	-0,120	-0,037
-228,986	34,906	0,053	0,034
-227,971	-3,871	-0,089	-0,045
-226,957	-200,000	-0,003	-0,021
-225,942	151,303	0,033	-0,033
-224,927	84,120	0,039	-0,031
-223,913	480,854	-0,030	-0,050
-222,898	800,000	0,083	-0,169
-221,884	-200,000	-0,010	-0,143
-220,869	-200,000	0,016	0,092
-219,855	329,581	0,069	0,097
-218,840	33,481	-0,070	0,044
-217,825	0,077	-0,044	0,023
-216,811	-13,358	-0,186	0,088
-215,796	-200,000	-0,006	-0,022
-214,782	-26,125	0,035	-0,015
-213,767	245,097	-0,071	0,087
-212,752	-200,000	0,016	-0,066
-211,738	237,980	0,045	0,054
-210,723	28,254	0,112	0,068
-209,709	316,491	-0,046	-0,063
-208,694	587,094	-0,077	-0,138
-207,679	-200,000	-0,019	-0,092
-206,665	800,000	0,025	0,057
-205,650	106,723	-0,023	0,020
-204,636	-162,097	-0,063	0,002
-203,621	-200,000	0,018	0,071
-202,606	-200,000	-0,034	-0,221
-201,592	-200,000	-0,028	0,124
-200,577	800,000	0,035	-0,076
-199,563	181,684	0,017	0,018
-198,548	271,842	0,051	0,065
-197,533	246,793	-0,024	-0,029
-196,519	-200,000	0,004	-0,073
-195,504	-200,000	-0,011	0,086
-194,490	800,000	0,018	0,051
-193,475	-200,000	0,027	-0,126
-192,460	214,501	-0,035	0,041
-191,446	653,970	-0,052	-0,098
-190,431	-56,875	0,036	0,012
-189,417	-108,444	0,132	0,020
-188,402	-48,670	0,107	0,037
-187,387	47,772	0,036	0,024
-186,373	800,000	-0,044	-0,135
-185,358	56,891	-0,135	-0,096
-184,344	14,128	0,144	-0,081
-183,329	138,510	-0,046	-0,044
-182,315	448,982	-0,054	0,086
-181,300	800,000	-0,010	0,029
-180,285	-200,000	0,014	-0,067
-179,271	88,735	-0,043	-0,035
-178,256	-200,000	0,007	0,048
-177,242	-200,000	-0,018	0,105
-176,227	-200,000	0,035	0,117
-175,212	132,644	0,146	0,137
-174,198	227,224	-0,105	0,124
-173,183	575,734	-0,022	-0,039
-172,169	20,407	-0,025	-0,014
-171,154	-200,000	0,017	-0,158
-170,139	-200,000	-0,020	0,106
-169,125	190,671	-0,060	0,065
-168,110	-149,785	0,172	0,010
-167,096	-32,791	-0,092	0,037
-166,081	155,979	-0,096	0,096
-165,066	652,501	0,049	-0,091
-164,052	-138,966	-0,075	0,006
-163,037	596,497	0,025	0,046
-162,023	-200,000	0,023	0,094
-161,008	171,009	-0,037	0,038
-159,993	-200,000	0,002	0,018
-158,979	171,038	-0,048	-0,050
-157,964	-200,000	-0,003	-0,090
-156,950	-170,522	-0,081	-0,002
-155,935	102,288	-0,088	0,075
-154,920	-82,936	0,065	0,015
-153,906	800,000	0,012	-0,026
-152,891	319,428	-0,074	0,102
-151,877	-59,374	-0,172	-0,053
-150,862	426,337	-0,031	0,049
-149,847	-19,718	0,155	-0,069
-148,833	478,015	0,063	0,104
-147,818	325,651	0,064	0,089
-146,804	46,501	-0,085	0,057
-145,789	800,000	-0,015	0,035
-144,775	-200,000	-0,008	0,182
-143,760	-200,000	0,013	-0,092
-142,745	-52,019	0,031	-0,011
-141,731	417,200	0,037	0,057
-140,716	-200,000	0,002	0,091
-139,702	800,000	-0,031	0,069
-138,687	163,213	-0,091	-0,093
-137,672	-15,051	0,054	0,025
-136,658	800,000	-0,034	0,092
-135,643	302,970	-0,091	-0,123
-134,629	-200,000	-0,013	-0,071
-133,614	540,391	0,034	0,059
-132,599	-40,044	-0,063	-0,024
-131,585	-200,000	-0,016	0,066
-130,570	103,517	-0,054	-0,046
-129,556	599,228	-0,052	0,093
-128,541	199,129	0,058	0,064
-127,526	-33,699	-0,124	0,049
-126,512	-200,000	-0,009	0,067
-125,497	55,715	0,058	-0,041
-124,483	-200,000	0,017	0,110
-123,468	103,428	-0,033	0,028
-122,453	389,186	0,016	-0,024
-121,439	-42,408	-0,065	-0,024
-120,424	-200,000	0,018	-0,167
-119,410	-6,723	0,148	-0,073
