DTS Sentinel unit serial number:	SN410029Multiplexer serial number:	ORYXHardware model number:	OX2-SRSoftware version number:	ORYX F/W v4,00 Oryx Data Collector v3.7.2.0data status	okinstallation	B3 Nyhavnadifferential loss correction	single-endedforward channel	channel 1reverse channel	N/Adate	2023/11/28time	13:27:30forward acquisition time	300,00reverse acquisition time	0,00gamma	499,1914k internal	0,3138k external	0,3138temperature offset calibration	1,0000default loss term (dB/km)	0,3820temperature slope calibration	1,0000multiplexer offset coefficient	1,0000multiplexer slope coefficient	1,0000fibre end	0,00T internal ref (°C)	7,88T ext. ref 1 (°C)	-7,69T ext. ref 2 (°C)	-7,87length (m)	temperature (°C)	Stokes	anti-Stokes-744,400	178,522	-0,200	-0,217
-743,385	716,335	-0,150	0,296
-742,371	-200,000	-0,046	-0,187
-741,356	-200,000	-0,044	0,265
-740,342	154,015	-0,281	-0,286
-739,327	-200,000	0,012	0,275
-738,312	312,572	-0,193	-0,270
-737,298	272,947	-0,163	0,213
-736,283	279,327	-0,167	-0,221
-735,269	-200,000	-0,068	0,274
-734,254	800,000	-0,132	-0,290
-733,239	-70,675	-0,228	0,064
-732,225	-200,000	0,028	-0,198
-731,210	136,487	0,134	0,129
-730,196	247,614	-0,038	0,048
-729,181	584,583	-0,057	0,104
-728,167	229,978	-0,090	0,109
-727,152	-200,000	0,037	-0,128
-726,137	469,584	-0,106	-0,177
-725,123	237,569	-0,144	-0,177
-724,108	167,704	-0,088	-0,093
-723,094	-38,378	-0,132	-0,051
-722,079	90,780	-0,066	-0,055
-721,064	-200,000	0,017	0,108
-720,050	275,359	0,027	-0,035
-719,035	-82,300	-0,106	0,025
-718,021	-141,250	0,043	-0,003
-717,006	224,942	-0,056	-0,067
-715,991	800,000	-0,097	-0,210
-714,977	-0,599	-0,119	-0,062
-713,962	554,753	0,084	-0,150
-712,948	100,311	0,054	0,046
-711,933	240,974	-0,025	-0,031
-710,918	71,325	-0,089	-0,068
-709,904	-200,000	0,007	-0,076
-708,889	-200,000	0,001	-0,197
-707,875	-200,000	-0,033	-0,183
-706,860	-200,000	0,019	-0,110
-705,845	50,186	-0,052	0,036
-704,831	199,123	0,062	0,070
-703,816	800,000	0,012	-0,028
-702,802	-147,292	0,114	-0,007
-701,787	-27,831	-0,146	-0,063
-700,772	125,082	0,101	-0,094
-699,758	139,136	-0,035	0,034
-698,743	-62,259	-0,041	0,013
-697,729	44,895	-0,010	0,007
-696,714	352,601	0,035	0,051
-695,699	212,689	-0,057	-0,067
-694,685	-142,671	0,081	0,006
-693,670	279,180	-0,059	0,078
-692,656	194,647	0,126	-0,141
-691,641	-200,000	-0,002	-0,052
-690,627	-46,409	0,129	0,047
-689,612	124,196	0,048	-0,044
-688,597	1,846	-0,039	-0,021
-687,583	-8,045	-0,173	-0,086
-686,568	-20,006	0,032	0,015
-685,554	173,345	-0,066	0,070
-684,539	-200,000	0,032	0,172
-683,524	672,670	0,052	-0,100
-682,510	715,176	-0,034	0,066
-681,495	188,667	0,054	0,060
-680,481	-200,000	0,011	-0,036
-679,466	312,193	0,010	-0,014
-678,451	-200,000	-0,025	0,092
-677,437	-94,524	0,064	0,013
-676,422	3,447	0,045	-0,024
-675,408	-200,000	-0,000	0,103
-674,393	-43,070	-0,180	0,067
-673,378	800,000	-0,040	-0,126
-672,364	-200,000	0,006	0,055
-671,349	117,428	-0,132	-0,120
-670,335	-72,953	-0,068	-0,018
-669,320	800,000	0,032	0,102
-668,305	271,664	-0,035	-0,046
-667,291	198,725	-0,006	0,007
-666,276	-200,000	0,013	-0,089
-665,262	-56,890	0,098	-0,032
-664,247	-136,613	-0,122	-0,010
-663,232	57,030	0,197	-0,142
-662,218	-30,911	0,023	-0,010
-661,203	391,360	-0,111	-0,172
-660,189	-200,000	-0,017	0,062
-659,174	38,213	-0,116	-0,076
-658,159	-200,000	-0,006	0,057
-657,145	52,777	0,091	-0,064
-656,130	-200,000	-0,011	0,090
-655,116	-142,883	0,114	0,008
-654,101	581,739	-0,041	0,075
-653,086	721,116	-0,037	0,072
-652,072	-74,178	0,108	-0,029
-651,057	7,815	-0,139	-0,077
-650,043	800,000	0,032	0,089
-649,028	-14,465	-0,134	0,063
-648,014	-111,160	0,137	0,020
-646,999	-200,000	0,022	0,081
-645,984	-200,000	-0,005	0,210
-644,970	161,726	-0,008	0,008
-643,955	634,490	-0,009	0,017
-642,941	-190,846	-0,079	-0,001
-641,926	800,000	0,001	0,003
-640,911	800,000	0,074	0,157
-639,897	800,000	0,084	0,200
-638,882	312,938	0,044	0,061
-637,868	103,244	-0,025	0,022
-636,853	165,862	-0,062	-0,065
-635,838	432,553	-0,081	-0,130
-634,824	-129,623	-0,053	-0,005
-633,809	184,478	-0,041	-0,045
-632,795	-200,000	-0,040	0,167
-631,780	-83,724	0,103	0,024
-630,765	800,000	-0,069	0,168
-629,751	430,617	-0,052	-0,084
-628,736	-79,117	-0,093	-0,023
-627,722	-200,000	-0,031	-0,119
-626,707	253,677	0,104	0,131
-625,692	-200,000	0,015	-0,066
-624,678	-69,482	-0,133	-0,037
-623,663	165,776	0,074	0,078
-622,649	402,819	-0,012	0,018
-621,634	-137,142	-0,124	0,010
-620,619	-200,000	0,016	0,062
-619,605	295,621	0,090	-0,122
-618,590	298,913	-0,014	-0,019
-617,576	-200,000	0,002	0,085
-616,561	64,953	-0,048	-0,035
-615,546	27,914	-0,073	-0,046
-614,532	479,049	-0,072	-0,120
-613,517	-200,000	-0,041	-0,211
-612,503	398,158	-0,031	-0,048
-611,488	800,000	-0,020	0,049
-610,474	-91,230	0,021	-0,004
-609,459	-90,913	0,153	-0,032
-608,444	-200,000	-0,009	-0,116
-607,430	78,768	0,033	0,026
-606,415	87,420	-0,052	0,043
-605,401	140,332	0,079	-0,077
-604,386	-200,000	0,045	0,213
-603,371	-200,000	-0,023	0,110
-602,357	800,000	0,015	0,035
-601,342	800,000	0,031	-0,065
-600,328	-117,050	0,089	-0,012
-599,313	-200,000	-0,008	-0,102
-598,298	466,895	0,024	-0,040
-597,284	-67,478	0,067	-0,019
-596,269	41,800	0,096	0,064
-595,255	800,000	-0,010	-0,030
-594,240	800,000	-0,019	-0,039
-593,225	12,274	-0,184	-0,104
-592,211	800,000	0,066	0,170
-591,196	-110,713	0,114	0,017
-590,182	-3,802	-0,075	-0,038
-589,167	800,000	0,019	0,044
-588,152	-200,000	-0,011	0,103
-587,138	254,086	-0,087	-0,110
-586,123	800,000	-0,029	-0,092
-585,109	303,046	-0,070	-0,096
-584,094	800,000	0,084	0,195
-583,079	47,287	0,066	-0,045
-582,065	-141,435	-0,082	-0,006
-581,050	-200,000	-0,021	0,095
-580,036	337,245	-0,050	-0,072
-579,021	800,000	-0,034	-0,093
-578,006	-29,336	-0,051	-0,021
-576,992	-138,579	-0,112	-0,009
-575,977	214,615	-0,051	0,059
-574,963	-146,401	0,120	-0,008
-573,948	141,436	-0,133	0,130
-572,934	800,000	0,029	0,073
-571,919	-98,005	0,059	-0,011
-570,904	95,084	0,099	-0,083
-569,890	-98,142	0,007	0,001
-568,875	502,973	0,074	0,127
-567,861	722,149	0,050	0,098
-566,846	204,818	0,111	0,127
-565,831	193,184	-0,091	0,102
-564,817	-34,396	-0,084	0,034
-563,802	-200,000	-0,000	-0,218
-562,788	45,571	0,090	-0,061
-561,773	800,000	0,084	-0,205
-560,758	33,786	-0,084	0,054
-559,744	228,704	0,036	0,043
-558,729	103,919	-0,079	0,069
-557,715	116,327	-0,070	0,063
-556,700	-92,012	-0,095	0,020
-555,685	309,340	0,060	-0,083
-554,671	245,410	0,049	0,061
-553,656	-97,276	-0,116	-0,022
-552,642	-200,000	0,001	0,127
-551,627	-200,000	0,018	0,167
-550,612	240,852	-0,120	-0,148
-549,598	90,725	-0,115	-0,095
-548,583	-90,414	-0,095	-0,020
-547,569	-200,000	0,015	-0,061
-546,554	-178,825	0,135	-0,002
-545,539	-200,000	0,041	0,147
-544,525	788,575	-0,080	-0,163
-543,510	-200,000	0,031	-0,221
-542,496	-3,013	-0,056	0,029
-541,481	-132,257	-0,090	0,008
-540,466	50,321	0,094	-0,065
-539,452	333,482	-0,051	-0,073
-538,437	800,000	0,060	0,142
-537,423	326,932	0,069	-0,098
-536,408	-200,000	-0,001	-0,024
-535,393	30,231	0,089	0,056
-534,379	9,382	-0,108	0,060
-533,364	-137,685	-0,046	0,004
-532,350	800,000	0,048	-0,104
-531,335	800,000	0,034	0,073
-530,321	800,000	0,050	0,107
-529,306	-200,000	0,002	-0,009
-528,291	-108,263	-0,109	-0,017
-527,277	-78,474	-0,042	0,011
-526,262	589,826	-0,037	-0,068
-525,248	-5,892	-0,134	0,067
-524,233	799,185	0,033	0,068
-523,218	-200,000	-0,005	0,041
-522,204	-200,000	-0,003	0,092
-521,189	263,514	-0,085	-0,109
-520,175	33,116	-0,042	-0,026
-519,160	21,331	0,126	0,075
-518,145	27,226	-0,039	0,024
-517,131	89,382	0,045	0,037
-516,116	164,623	-0,017	0,018
-515,102	42,327	0,023	-0,015
-514,087	-3,168	-0,023	0,012
-513,072	-73,403	0,068	-0,018
-512,058	94,161	-0,072	0,060
-511,043	34,665	0,024	-0,015
-510,029	110,568	-0,065	-0,058
-509,014	800,000	0,045	-0,100
-507,999	-200,000	0,016	0,051
-506,985	-200,000	0,007	-0,027
-505,970	-200,000	0,007	-0,135
-504,956	94,527	0,074	0,062
-503,941	-57,752	0,030	0,010
-502,926	-32,661	0,064	0,026
-501,912	-14,368	-0,046	0,022
-500,897	-110,308	0,129	-0,019
-499,883	-114,011	-0,065	0,009
-498,868	-106,510	-0,161	-0,026
-497,853	741,556	0,020	0,040
-496,839	-51,440	-0,070	-0,024
-495,824	-200,000	0,001	0,016
-494,810	-200,000	0,031	0,104
-493,795	17,949	0,072	0,042
-492,781	431,143	0,024	0,038
-491,766	800,000	0,016	-0,040
-490,751	-134,022	0,096	0,009
-489,737	-200,000	0,045	-0,193
-488,722	58,444	-0,069	-0,050
-487,708	-10,687	0,123	0,059
-486,693	-200,000	-0,030	0,162
-485,678	294,136	0,045	0,060
-484,664	367,296	0,061	-0,090
-483,649	772,994	-0,036	-0,073
-482,635	-74,559	-0,104	-0,027
-481,620	228,965	-0,007	-0,008
-480,605	-111,470	0,041	0,006
-479,591	800,000	-0,064	0,130
-478,576	41,535	-0,139	-0,092
-477,562	-200,000	0,007	0,054
-476,547	-7,524	-0,074	0,037
-475,532	-89,125	0,162	-0,035
-474,518	-43,298	0,086	0,032
-473,503	649,692	0,020	0,038
-472,489	-200,000	0,044	0,163
-471,474	154,174	-0,097	0,098
-470,459	525,344	-0,119	-0,207
-469,445	245,988	0,068	-0,085
-468,430	99,358	0,135	-0,115
-467,416	-14,702	-0,045	0,021
-466,401	-90,387	0,094	0,020
-465,386	-200,000	0,014	0,093
-464,372	-28,185	0,097	0,041
-463,357	288,762	-0,041	0,055
-462,343	632,416	-0,064	-0,120
-461,328	124,693	-0,142	-0,131
-460,313	-108,036	0,058	0,009
-459,299	800,000	-0,039	0,123
-458,284	335,192	-0,034	-0,048
-457,270	800,000	-0,012	0,029
-456,255	-72,946	-0,108	-0,029
-455,241	800,000	-0,021	-0,053
-454,226	-99,071	0,057	0,010
-453,211	-200,000	-0,030	0,140
-452,197	78,006	-0,105	0,082
-451,182	41,394	-0,077	-0,051
-450,168	1,858	-0,040	-0,021
-449,153	-84,656	0,207	-0,047
-448,138	145,445	-0,120	-0,118
-447,124	-200,000	-0,013	0,052
-446,109	126,850	-0,004	0,003
-445,095	800,000	-0,034	-0,107
-444,080	25,730	0,046	0,028
-443,065	-200,000	-0,010	0,137
-442,051	65,574	-0,018	0,013
-441,036	-200,000	0,007	0,039
-440,022	-200,000	-0,015	-0,166
-439,007	328,708	-0,077	0,108
-437,992	-129,127	0,084	0,008
-436,978	-200,000	0,008	0,111
-435,963	-154,191	0,032	-0,002
-434,949	-85,999	0,085	-0,019
-433,934	-89,324	-0,113	-0,024
-432,919	752,947	0,041	0,082
-431,905	10,036	-0,193	0,107
-430,890	-50,945	0,092	-0,032
-429,876	-42,893	-0,039	0,014
-428,861	-200,000	0,014	-0,070
-427,846	-164,729	0,018	0,001
-426,832	180,802	0,053	0,058
-425,817	-200,000	0,055	-0,186
-424,803	357,627	0,037	-0,054
-423,788	231,813	0,003	0,004
-422,773	-72,479	0,023	0,006
-421,759	464,809	0,062	0,102
-420,744	133,441	0,024	0,023
-419,730	-20,980	0,053	-0,024
-418,715	800,000	-0,036	-0,097
-417,701	397,207	0,051	-0,078
-416,686	-200,000	0,024	0,092
-415,671	39,642	0,006	-0,004
-414,657	800,000	0,010	-0,030
-413,642	-146,743	-0,046	0,003
-412,628	5,577	-0,107	-0,058
-411,613	800,000	0,023	0,069
-410,598	800,000	0,020	0,062
-409,584	4,773	0,037	0,020
-408,569	469,465	0,130	0,215
-407,555	-104,795	-0,138	0,023
-406,540	31,604	-0,117	-0,073
-405,525	92,830	0,074	-0,061
-404,511	-200,000	-0,076	-0,000
-403,496	376,857	0,052	-0,078
-402,482	800,000	0,063	-0,145
-401,467	43,457	-0,049	0,032
-400,452	-200,000	0,005	0,027
-399,438	800,000	0,037	-0,104
-398,423	104,016	0,058	-0,050
-397,409	-200,000	0,005	-0,114
-396,394	-200,000	-0,015	0,071
-395,379	800,000	0,054	-0,110
-394,365	-114,935	0,193	0,027
-393,350	58,913	-0,029	0,021
-392,336	-69,334	-0,067	0,019
-391,321	800,000	0,051	0,141
-390,306	-0,507	-0,029	0,015
-389,292	-147,143	-0,075	0,005
-388,277	-114,383	-0,206	0,029
-387,263	-200,000	0,003	0,090
-386,248	800,000	-0,021	0,059
-385,233	-200,000	-0,023	0,091
-384,219	-57,868	0,128	-0,041
-383,204	424,782	-0,027	-0,042
-382,190	213,737	-0,117	-0,136
-381,175	-200,000	0,002	-0,038
-380,160	227,464	0,110	0,131
-379,146	-200,000	-0,011	0,117
-378,131	177,080	-0,031	-0,033
-377,117	154,371	0,152	-0,153
-376,102	242,683	0,065	-0,080
-375,088	-200,000	-0,013	-0,171
-374,073	142,035	-0,149	0,144
-373,058	-31,041	0,055	-0,023
-372,044	-200,000	-0,039	0,125
-371,029	45,300	0,099	0,067
-370,015	800,000	-0,040	0,112
-369,000	504,209	-0,057	-0,097
-367,985	800,000	-0,008	0,022
-366,971	9,856	-0,053	-0,029
-365,956	48,248	0,114	-0,078
-364,942	-86,809	-0,025	0,005
-363,927	225,509	-0,102	0,120
-362,912	461,489	0,067	0,109
-361,898	332,922	0,100	-0,142
-360,883	-69,788	-0,038	-0,011
-359,869	-200,000	0,006	-0,096
-358,854	-200,000	-0,009	-0,088
-357,839	236,316	-0,017	-0,021
-356,825	57,660	0,056	-0,040
-355,810	-200,000	-0,001	-0,016
-354,796	62,867	0,094	-0,068
-353,781	223,177	0,038	-0,045
-352,766	-3,977	0,076	-0,038
-351,752	451,052	-0,033	-0,054
-350,737	-200,000	-0,005	0,057
-349,723	582,188	-0,034	0,061
-348,708	162,667	0,085	-0,087
-347,693	-45,566	-0,039	-0,014
-346,679	-200,000	0,049	-0,194
-345,664	312,389	-0,062	0,086
-344,650	-157,434	-0,156	0,007
-343,635	-200,000	0,009	0,040
-342,620	347,405	0,059	0,085
-341,606	800,000	-0,081	0,240
-340,591	211,594	-0,059	0,068
-339,577	106,242	-0,055	-0,047
-338,562	238,179	0,055	-0,066
-337,548	783,805	-0,024	0,048
-336,533	583,463	0,056	0,101
-335,518	-168,291	-0,099	-0,003
-334,504	43,074	0,079	0,052
-333,489	-130,764	-0,127	-0,012
-332,475	-10,456	0,027	-0,013
-331,460	-47,635	-0,037	-0,013
-330,445	75,020	0,057	-0,044
-329,431	4,873	0,066	0,035
-328,416	-200,000	-0,012	0,073
-327,402	-122,379	0,095	0,011
-326,387	186,698	0,037	-0,040
-325,372	800,000	-0,047	-0,150
-324,358	-88,562	-0,085	-0,018
-323,343	28,109	0,053	-0,033
-322,329	-200,000	0,011	0,078
-321,314	68,067	-0,044	0,033
-320,299	-183,427	0,083	0,001
-319,285	-200,000	-0,017	0,099
-318,270	-176,867	-0,075	-0,001
-317,256	107,923	-0,051	-0,044
-316,241	417,737	-0,062	-0,097
-315,226	-200,000	0,001	0,007
-314,212	94,117	0,024	0,019
-313,197	106,008	0,108	-0,093
-312,183	32,470	-0,095	0,060
-311,168	-200,000	-0,023	-0,084
-310,153	-200,000	0,021	-0,093
-309,139	87,242	0,067	0,054
-308,124	603,966	0,040	0,073
-307,110	-108,931	0,128	0,020
-306,095	800,000	-0,008	-0,021
-305,080	135,284	0,061	-0,058
-304,066	40,242	-0,043	-0,028
-303,051	-200,000	0,002	0,015
-302,037	-38,303	-0,063	-0,024
-301,022	-200,000	-0,026	-0,104
-300,008	10,186	0,059	0,033
-298,993	-124,858	0,147	-0,016
-297,978	-5,423	0,101	0,050
-296,964	-200,000	0,000	-0,088
-295,949	-18,031	-0,056	0,026
-294,935	-200,000	-0,034	-0,156
-293,920	-0,256	-0,130	-0,067
-292,905	189,997	-0,114	-0,125
-291,891	800,000	0,108	0,296
-290,876	800,000	-0,061	0,134
-289,862	30,241	0,150	0,093
-288,847	-97,333	-0,127	-0,024
-287,832	409,803	-0,036	0,055
-286,818	341,655	-0,024	-0,035
-285,803	800,000	0,070	0,178
-284,789	222,943	0,053	0,063
-283,774	330,876	-0,089	0,125
-282,759	-200,000	0,015	0,146
-281,745	-133,963	-0,047	0,004
-280,730	48,658	-0,099	-0,067
-279,716	-200,000	-0,001	0,081
-278,701	-200,000	-0,003	0,011
-277,686	43,777	0,033	0,022
-276,672	-121,665	0,156	-0,019
-275,657	-79,166	-0,120	-0,029
-274,643	404,202	-0,077	-0,119
-273,628	-200,000	-0,034	-0,149
-272,613	-150,570	0,113	-0,006
-271,599	-200,000	0,020	-0,140
-270,584	139,232	0,124	0,119
-269,570	-196,409	-0,078	0,000
-268,555	30,858	0,098	0,061
-267,540	683,531	-0,055	0,106
-266,526	-63,379	-0,132	0,039
-265,511	-200,000	-0,008	-0,041
-264,497	170,542	0,092	0,096
-263,482	-200,000	-0,005	-0,046
-262,467	-70,844	0,077	0,021
-261,453	-200,000	-0,004	0,116
-260,438	-200,000	0,043	0,178
-259,424	-200,000	0,003	-0,074
-258,409	-200,000	-0,017	-0,232
-257,395	22,085	0,017	0,010
-256,380	52,530	0,080	-0,055
-255,365	-200,000	-0,025	0,119
-254,351	-140,900	0,184	-0,014
-253,336	-181,639	-0,153	0,002
-252,322	385,383	-0,055	-0,083
-251,307	270,859	0,061	-0,078
-250,292	800,000	-0,089	-0,187
-249,278	-200,000	-0,004	-0,046
-248,263	800,000	-0,040	0,110
-247,249	-172,464	-0,113	-0,003
-246,234	800,000	-0,019	-0,054
-245,219	153,739	-0,016	-0,016
-244,205	49,151	-0,054	-0,037
-243,190	512,455	0,040	0,068
-242,176	101,856	0,022	-0,019
-241,161	-200,000	0,010	-0,081
-240,146	94,188	0,087	-0,072
-239,132	672,371	0,021	-0,040
-238,117	746,928	-0,002	0,005
-237,103	219,267	0,136	-0,159
-236,088	-12,993	-0,043	-0,020
-235,073	800,000	-0,041	0,101
-234,059	-200,000	-0,015	0,066
-233,044	184,866	-0,051	-0,055
-232,030	-75,489	0,118	-0,030
-231,015	-200,000	-0,014	0,055
-230,000	-200,000	0,009	-0,105
-228,986	800,000	-0,037	-0,090
-227,971	-200,000	-0,008	0,061
-226,957	-200,000	0,001	-0,036
-225,942	-52,835	0,168	0,056
-224,927	800,000	-0,063	-0,143
-223,913	-200,000	0,002	0,144
-222,898	538,077	0,105	-0,182
-221,884	-200,000	-0,003	-0,122
-220,869	-93,674	0,028	-0,006
-219,855	3,137	-0,122	0,064
-218,840	85,489	-0,153	-0,122
-217,825	323,380	-0,052	-0,072
-216,811	214,328	0,048	-0,055
-215,796	-200,000	0,018	-0,094
-214,782	161,884	0,066	0,067
-213,767	169,739	0,030	-0,031
-212,752	-200,000	0,035	-0,131
-211,738	-147,223	-0,045	0,003
-210,723	800,000	0,032	-0,087
-209,709	800,000	-0,015	0,031
-208,694	-64,967	0,055	0,016
-207,679	391,970	-0,016	0,024
-206,665	-69,061	0,078	-0,022
-205,650	-200,000	-0,022	0,138
-204,636	-200,000	0,005	-0,025
-203,621	161,660	0,064	0,065
-202,606	757,744	-0,051	0,100
-201,592	-123,966	-0,123	-0,014
-200,577	800,000	-0,028	-0,068
-199,563	51,203	0,095	-0,065
-198,548	331,148	0,067	0,094
-197,533	800,000	-0,031	0,092
-196,519	3,365	0,083	0,044
-195,504	-200,000	-0,018	0,080
-194,490	800,000	-0,045	-0,121
-193,475	682,247	0,022	-0,042
-192,460	310,305	0,070	0,096
-191,446	129,920	-0,089	-0,082
-190,431	2,699	0,159	0,083
-189,417	-48,741	-0,107	-0,037
-188,402	-99,436	0,197	0,036
-187,387	-41,919	-0,106	-0,039
-186,373	91,711	-0,037	0,030
-185,358	331,852	-0,111	-0,156
-184,344	320,999	0,056	0,078
-183,329	-74,680	-0,053	-0,014
-182,315	523,621	0,058	0,099
-181,300	-200,000	0,000	0,017
-180,285	525,219	-0,058	-0,099
-179,271	-200,000	-0,008	-0,150
-178,256	293,164	-0,079	0,105
-177,242	-200,000	-0,039	0,148
-176,227	237,338	0,043	-0,052
-175,212	36,385	0,037	0,024
-174,198	800,000	0,027	-0,058
-173,183	-80,033	-0,080	-0,019
-172,169	191,865	-0,100	-0,109
-171,154	80,312	0,143	-0,112
-170,139	-7,932	0,075	0,037
-169,125	-200,000	0,025	0,114
-168,110	-38,620	0,045	0,017
-167,096	725,679	-0,013	-0,026
-166,081	-60,426	-0,004	-0,001
-165,066	152,365	0,070	-0,069
-164,052	202,531	0,055	0,061
-163,037	93,699	0,056	-0,046
-162,023	800,000	0,040	0,100
-161,008	-30,725	0,093	-0,038
-159,993	88,110	-0,028	-0,022
-158,979	442,461	-0,004	0,007
-157,964	-81,996	-0,157	-0,037
-156,950	313,858	0,036	-0,050
-155,935	-51,120	0,081	-0,027
-154,920	-200,000	-0,008	0,183
-153,906	800,000	-0,040	0,084
-152,891	185,329	-0,058	-0,063
-151,877	694,034	0,030	0,057
-150,862	800,000	-0,054	0,143
-149,847	30,547	0,016	0,010
-148,833	800,000	0,016	-0,035
-147,818	-200,000	0,012	0,054
-146,804	-200,000	0,033	0,149
-145,789	800,000	-0,025	0,077
-144,775	-200,000	-0,008	0,042
-143,760	800,000	0,030	-0,074
-142,745	60,270	0,123	-0,088
-141,731	24,036	0,049	0,029
-140,716	339,716	0,066	-0,094
-139,702	-200,000	-0,018	0,089
-138,687	83,144	-0,169	0,133
-137,672	-68,884	0,055	-0,015
-136,658	644,798	0,057	-0,106
-135,643	-200,000	0,021	0,079
-134,629	-55,964	0,099	0,032
-133,614	64,127	-0,057	0,042
-132,599	308,787	0,101	0,137
-131,585	-200,000	0,000	0,029
-130,570	-200,000	0,004	-0,022
-129,556	51,956	-0,057	-0,039
-128,541	800,000	0,029	-0,059
-127,526	-200,000	0,029	-0,101
-126,512	-200,000	0,006	0,031
-125,497	-200,000	0,010	-0,053
-124,483	-119,922	0,022	-0,003
-123,468	212,786	0,062	-0,071
-122,453	112,191	0,092	0,081
-121,439	101,883	0,057	-0,048
-120,424	406,846	0,050	-0,077
-119,410	126,768	-0,089	-0,082
-118,395	800,000	-0,040	0,092
