DTS Sentinel unit serial number:	SN410029Multiplexer serial number:	ORYXHardware model number:	OX2-SRSoftware version number:	ORYX F/W v4,00 Oryx Data Collector v3.7.2.0data status	okinstallation	B3 Nyhavnadifferential loss correction	single-endedforward channel	channel 1reverse channel	N/Adate	2023/11/28time	12:42:30forward acquisition time	300,00reverse acquisition time	0,00gamma	499,1914k internal	0,3138k external	0,3138temperature offset calibration	1,0000default loss term (dB/km)	0,3820temperature slope calibration	1,0000multiplexer offset coefficient	1,0000multiplexer slope coefficient	1,0000fibre end	0,00T internal ref (°C)	8,34T ext. ref 1 (°C)	-7,51T ext. ref 2 (°C)	-7,72length (m)	temperature (°C)	Stokes	anti-Stokes-744,400	383,455	-0,186	-0,284
-743,385	-200,000	0,019	0,153
-742,371	243,876	-0,113	-0,141
-741,356	800,000	0,086	0,239
-740,342	110,477	-0,160	-0,143
-739,327	-200,000	-0,001	0,260
-738,312	406,804	-0,128	-0,200
-737,298	356,836	-0,146	0,216
-736,283	221,606	-0,136	-0,162
-735,269	125,776	0,131	0,123
-734,254	183,714	-0,238	-0,262
-733,239	-28,794	-0,285	0,121
-732,225	800,000	-0,139	-0,298
-731,210	-11,127	0,171	0,083
-730,196	-129,398	-0,110	0,011
-729,181	-200,000	-0,019	-0,083
-728,167	405,420	-0,050	-0,079
-727,152	-200,000	-0,022	0,080
-726,137	-32,149	-0,051	-0,021
-725,123	-126,301	-0,044	-0,005
-724,108	800,000	0,065	-0,158
-723,094	35,244	-0,107	0,069
-722,079	-70,936	-0,075	0,021
-721,064	-189,219	-0,089	0,001
-720,050	-200,000	0,007	0,041
-719,035	-151,357	0,139	-0,008
-718,021	-6,393	0,051	-0,026
-717,006	139,449	-0,188	-0,183
-715,991	224,470	-0,113	-0,136
-714,977	-200,000	0,006	-0,101
-713,962	2,863	0,071	0,038
-712,948	218,120	-0,056	0,067
-711,933	-200,000	0,008	0,033
-710,918	82,446	-0,018	0,015
-709,904	331,628	0,052	-0,075
-708,889	-26,654	-0,056	0,024
-707,875	573,027	0,115	-0,209
-706,860	13,603	-0,103	-0,059
-705,845	73,578	0,108	0,083
-704,831	-15,357	-0,093	0,044
-703,816	38,238	0,086	-0,056
-702,802	800,000	-0,046	-0,100
-701,787	324,682	-0,019	-0,027
-700,772	-115,581	-0,096	-0,013
-699,758	-200,000	0,008	0,059
-698,743	-55,897	-0,040	-0,013
-697,729	575,302	-0,052	0,095
-696,714	-39,449	0,018	0,007
-695,699	498,766	-0,066	-0,113
-694,685	201,318	0,021	0,024
-693,670	-15,441	-0,049	0,023
-692,656	29,111	0,060	0,038
-691,641	-200,000	0,025	-0,088
-690,627	28,362	-0,083	-0,052
-689,612	282,534	0,061	-0,082
-688,597	98,782	-0,101	0,086
-687,583	-200,000	0,001	-0,049
-686,568	107,521	-0,087	-0,077
-685,554	-98,245	0,170	0,032
-684,539	-95,156	-0,034	-0,007
-683,524	663,636	-0,057	0,109
-682,510	800,000	0,067	-0,144
-681,495	138,545	-0,096	-0,093
-680,481	-76,006	-0,101	0,026
-679,466	48,953	-0,170	-0,118
-678,451	-200,000	-0,004	-0,090
-677,437	14,087	0,159	0,091
-676,422	293,948	-0,051	0,068
-675,408	-173,614	0,184	0,004
-674,393	281,823	-0,063	0,084
-673,378	-16,292	-0,187	-0,088
-672,364	800,000	-0,018	0,051
-671,349	43,582	0,044	-0,030
-670,335	-140,183	0,075	0,006
-669,320	-153,194	0,212	0,011
-668,305	800,000	0,064	0,150
-667,291	-177,025	0,025	-0,000
-666,276	-200,000	0,018	0,067
-665,262	33,188	0,122	-0,078
-664,247	-200,000	0,028	0,156
-663,232	147,089	-0,077	0,077
-662,218	-200,000	0,017	-0,102
-661,203	121,417	-0,095	0,088
-660,189	236,853	-0,066	0,081
-659,174	800,000	-0,012	0,035
-658,159	122,441	-0,053	-0,049
-657,145	368,673	-0,019	-0,029
-656,130	265,806	0,058	0,075
-655,116	-17,518	0,075	0,035
-654,101	-200,000	0,006	-0,078
-653,086	602,196	-0,037	-0,068
-652,072	2,405	-0,058	-0,031
-651,057	528,555	-0,051	-0,090
-650,043	207,373	-0,026	-0,030
-649,028	190,862	0,070	-0,078
-648,014	574,347	-0,112	0,202
-646,999	-200,000	-0,032	0,106
-645,984	-115,558	0,057	0,008
-644,970	267,011	-0,057	0,074
-643,955	800,000	0,032	0,081
-642,941	-27,960	-0,206	-0,088
-641,926	800,000	-0,043	0,091
-640,911	-50,595	0,169	0,059
-639,897	85,763	0,018	-0,015
-638,882	-200,000	0,002	0,062
-637,868	-149,112	-0,191	0,011
-636,853	-36,313	0,044	0,017
-635,838	-48,710	-0,111	0,039
-634,824	-23,307	0,028	-0,012
-633,809	123,346	-0,095	-0,088
-632,795	800,000	-0,015	0,044
-631,780	-200,000	-0,015	0,087
-630,765	-200,000	0,019	-0,098
-629,751	18,862	-0,043	0,025
-628,736	800,000	0,060	-0,160
-627,722	800,000	0,069	-0,169
-626,707	-27,023	0,093	0,040
-625,692	-121,233	-0,118	-0,014
-624,678	800,000	-0,033	0,084
-623,663	-64,515	-0,088	-0,026
-622,649	-0,361	0,103	0,054
-621,634	788,435	-0,067	0,137
-620,619	357,650	-0,060	-0,088
-619,605	800,000	-0,012	-0,029
-618,590	40,276	0,105	0,070
-617,576	0,334	-0,019	0,010
-616,561	800,000	-0,045	0,119
-615,546	687,602	-0,055	-0,106
-614,532	-200,000	-0,001	-0,023
-613,517	-12,396	0,104	0,050
-612,503	119,420	-0,045	0,041
-611,488	315,379	-0,033	0,045
-610,474	523,386	0,040	-0,070
-609,459	800,000	0,023	-0,071
-608,444	9,127	-0,081	-0,045
-607,430	-72,609	-0,037	-0,010
-606,415	31,488	-0,067	-0,042
-605,401	24,071	-0,021	0,013
-604,386	352,038	0,034	-0,049
-603,371	800,000	-0,030	-0,072
-602,357	-200,000	0,002	-0,027
-601,342	-43,330	0,098	0,036
-600,328	217,194	0,007	0,009
-599,313	-200,000	-0,071	0,000
-598,298	572,151	-0,045	0,082
-597,284	800,000	-0,029	0,089
-596,269	-55,081	0,135	0,044
-595,255	-200,000	-0,018	0,071
-594,240	800,000	0,018	0,059
-593,225	-40,752	0,088	-0,033
-592,211	99,681	-0,054	0,046
-591,196	243,850	-0,078	-0,097
-590,182	-200,000	-0,005	-0,025
-589,167	209,344	-0,103	-0,119
-588,152	-41,987	-0,051	0,019
-587,138	303,770	0,058	0,080
-586,123	-200,000	-0,032	-0,148
-585,109	-67,587	-0,052	-0,015
-584,094	-61,779	0,144	0,044
-583,079	307,519	-0,022	-0,031
-582,065	180,221	0,058	-0,063
-581,050	800,000	0,032	0,102
-580,036	-129,602	-0,029	-0,003
-579,021	-120,746	0,044	-0,005
-578,006	-200,000	-0,032	-0,126
-576,992	494,634	0,005	0,009
-575,977	800,000	-0,010	0,034
-574,963	45,979	-0,053	0,036
-573,948	-24,135	0,058	0,025
-572,934	800,000	0,020	-0,053
-571,919	-187,765	-0,105	-0,001
-570,904	800,000	0,064	-0,143
-569,890	-200,000	-0,016	-0,079
-568,875	167,529	0,070	-0,073
-567,861	-200,000	-0,030	0,118
-566,846	-79,997	-0,025	-0,006
-565,831	131,317	0,071	0,067
-564,817	-200,000	-0,004	0,071
-563,802	585,450	-0,041	-0,074
-562,788	-200,000	-0,067	-0,220
-561,773	25,262	0,074	0,045
-560,758	-3,953	-0,161	0,082
-559,744	800,000	0,019	-0,051
-558,729	182,909	-0,070	-0,076
-557,715	-52,001	0,066	0,023
-556,700	-200,000	-0,016	-0,153
-555,685	800,000	-0,022	-0,059
-554,671	62,652	0,019	0,014
-553,656	800,000	0,021	-0,055
-552,642	-200,000	0,025	-0,104
-551,627	18,085	-0,045	0,026
-550,612	199,941	0,066	-0,074
-549,598	428,931	-0,081	-0,129
-548,583	486,605	-0,056	-0,094
-547,569	350,943	0,029	0,042
-546,554	73,072	0,057	0,044
-545,539	-93,379	-0,077	0,016
-544,525	-94,622	-0,157	0,031
-543,510	800,000	0,040	0,101
-542,496	254,982	-0,071	0,090
-541,481	-200,000	-0,015	-0,121
-540,466	-200,000	-0,009	0,067
-539,452	471,532	-0,057	-0,094
-538,437	5,725	0,097	0,053
-537,423	488,186	0,095	0,160
-536,408	239,944	0,055	-0,067
-535,393	161,545	-0,046	-0,048
-534,379	-200,000	-0,003	-0,190
-533,364	800,000	-0,025	-0,060
-532,350	375,330	-0,011	0,016
-531,335	306,792	0,049	0,067
-530,321	-140,797	-0,016	0,001
-529,306	427,633	0,044	-0,070
-528,291	-200,000	-0,082	-0,000
-527,277	-200,000	-0,017	0,128
-526,262	282,761	-0,075	-0,099
-525,248	-200,000	0,011	-0,072
-524,233	-200,000	0,015	0,098
-523,218	380,085	0,008	-0,012
-522,204	800,000	-0,041	-0,087
-521,189	-112,322	0,071	0,010
-520,175	234,915	-0,137	-0,167
-519,160	800,000	-0,012	0,039
-518,145	800,000	0,024	-0,050
-517,131	490,424	0,097	0,163
-516,116	-200,000	0,002	-0,045
-515,102	-200,000	0,004	0,046
-514,087	225,313	-0,074	0,088
-513,072	194,241	-0,054	-0,060
-512,058	-61,844	0,082	-0,025
-511,043	-200,000	0,017	0,058
-510,029	800,000	-0,024	-0,055
-509,014	-200,000	-0,007	0,129
-507,999	86,151	0,117	0,094
-506,985	800,000	-0,014	0,032
-505,970	-31,347	0,116	-0,048
-504,956	800,000	-0,024	-0,072
-503,941	138,999	0,032	-0,031
-502,926	-200,000	-0,002	0,051
-501,912	800,000	-0,052	0,137
-500,897	800,000	0,089	-0,184
-499,883	252,343	-0,033	0,042
-498,868	-132,502	-0,097	0,009
-497,853	286,457	0,063	-0,083
-496,839	-37,950	-0,079	-0,031
-495,824	-58,681	0,129	0,041
-494,810	800,000	0,078	0,162
-493,795	-33,838	0,074	0,030
-492,781	187,061	-0,057	-0,063
-491,766	-170,346	0,043	0,001
-490,751	10,609	-0,075	-0,042
-489,737	-200,000	0,011	-0,057
-488,722	320,134	0,092	0,129
-487,708	-34,055	0,054	-0,022
-486,693	711,461	0,034	0,067
-485,678	184,632	-0,094	0,102
-484,664	26,055	-0,153	-0,094
-483,649	157,229	0,040	-0,040
-482,635	564,891	-0,040	0,071
-481,620	88,983	-0,072	0,059
-480,605	17,160	0,027	0,016
-479,591	-200,000	0,011	0,138
-478,576	-200,000	-0,022	-0,088
-477,562	170,876	0,031	-0,032
-476,547	175,520	-0,073	-0,077
-475,532	-26,669	0,021	0,009
-474,518	-95,574	-0,023	-0,004
-473,503	560,733	0,063	0,113
-472,489	42,700	0,200	0,133
-471,474	300,117	0,056	-0,076
-470,459	24,615	-0,154	-0,094
-469,445	-156,195	0,031	-0,001
-468,430	228,458	0,037	0,044
-467,416	-135,509	-0,177	-0,015
-466,401	-200,000	-0,003	-0,035
-465,386	557,973	-0,028	-0,050
-464,372	-93,065	0,182	-0,037
-463,357	-176,748	-0,089	0,002
-462,343	800,000	-0,017	-0,037
-461,328	4,972	-0,017	-0,009
-460,313	-90,667	0,263	-0,055
-459,299	-200,000	-0,022	-0,094
-458,284	-200,000	0,006	0,176
-457,270	-200,000	-0,032	0,105
-456,255	-67,322	-0,160	-0,046
-455,241	144,544	0,082	-0,080
-454,226	39,692	0,084	-0,055
-453,211	-200,000	-0,015	-0,065
-452,197	516,891	0,080	0,137
-451,182	-67,472	0,058	-0,017
-450,168	308,295	0,067	-0,092
-449,153	-149,725	-0,042	0,002
-448,138	-200,000	-0,020	-0,121
-447,124	316,266	0,043	0,060
-446,109	800,000	-0,017	-0,036
-445,095	67,237	0,229	0,171
-444,080	800,000	0,011	-0,033
-443,065	196,277	0,058	0,065
-442,051	-200,000	-0,023	0,110
-441,036	-200,000	-0,000	0,035
-440,022	-200,000	-0,013	-0,090
-439,007	58,591	0,056	0,040
-437,992	382,265	0,074	0,112
-436,978	105,496	-0,058	0,050
-435,963	2,970	-0,108	0,057
-434,949	-200,000	0,004	0,074
-433,934	800,000	-0,020	-0,042
-432,919	800,000	-0,043	-0,091
-431,905	189,060	-0,087	0,096
-430,890	51,091	-0,032	0,022
-429,876	800,000	-0,097	0,211
-428,861	79,750	0,086	-0,068
-427,846	128,596	0,004	-0,004
-426,832	800,000	0,018	-0,049
-425,817	800,000	0,072	-0,158
-424,803	-148,009	-0,058	-0,003
-423,788	430,930	0,029	-0,047
-422,773	41,147	-0,072	0,048
-421,759	-200,000	0,032	0,113
-420,744	-200,000	-0,007	0,057
-419,730	85,712	-0,036	0,029
-418,715	-200,000	0,030	-0,110
-417,701	43,281	0,062	-0,041
-416,686	-200,000	0,001	-0,048
-415,671	-15,087	-0,097	-0,045
-414,657	140,609	0,183	0,177
-413,642	55,399	-0,052	-0,037
-412,628	4,665	0,043	-0,023
-411,613	24,118	-0,060	-0,036
-410,598	184,265	0,118	0,128
-409,584	289,597	-0,078	-0,103
-408,569	-200,000	0,035	0,150
-407,555	-200,000	-0,000	0,028
-406,540	606,076	0,078	0,142
-405,525	-36,395	-0,013	-0,005
-404,511	-200,000	-0,010	-0,089
-403,496	-26,980	-0,046	0,020
-402,482	-82,622	0,131	0,031
-401,467	-79,285	-0,066	-0,016
-400,452	-116,941	0,207	0,027
-399,438	437,618	-0,037	-0,060
-398,423	-200,000	0,016	-0,130
-397,409	649,455	0,040	-0,074
-396,394	64,799	-0,047	-0,035
-395,379	-200,000	-0,026	-0,186
-394,365	-152,778	0,103	-0,005
-393,350	408,688	0,016	-0,025
-392,336	-61,535	0,091	0,028
-391,321	352,179	-0,064	-0,092
-390,306	-200,000	0,012	0,040
-389,292	-200,000	0,008	0,051
-388,277	155,428	-0,054	-0,054
-387,263	800,000	-0,004	0,013
-386,248	320,153	0,045	0,063
-385,233	292,842	-0,080	0,107
-384,219	800,000	0,019	-0,059
-383,204	-200,000	0,016	-0,081
-382,190	-200,000	-0,028	-0,107
-381,175	-200,000	-0,021	-0,095
-380,160	-35,976	0,057	-0,023
-379,146	800,000	-0,020	-0,052
-378,131	800,000	-0,019	0,054
-377,117	-88,130	0,090	0,020
-376,102	238,037	-0,065	-0,080
-375,088	151,063	0,068	0,068
-374,073	-159,359	-0,089	-0,004
-373,058	800,000	0,035	-0,072
-372,044	426,317	0,055	-0,086
-371,029	40,124	-0,070	-0,046
-370,015	-200,000	0,003	0,057
-369,000	-106,793	-0,107	-0,017
-367,985	270,376	0,045	-0,058
-366,971	800,000	0,025	0,066
-365,956	528,136	0,042	0,073
-364,942	-200,000	-0,019	0,084
-363,927	774,765	0,007	0,013
-362,912	-75,626	-0,061	-0,016
-361,898	800,000	0,017	0,050
-360,883	150,223	-0,018	0,018
-359,869	-200,000	-0,003	-0,090
-358,854	-200,000	0,011	-0,202
-357,839	-200,000	0,037	0,143
-356,825	-124,467	0,095	0,011
-355,810	-7,165	0,051	0,025
-354,796	-67,995	0,051	0,014
-353,781	-56,756	-0,077	0,025
-352,766	-131,453	-0,051	0,005
-351,752	55,760	0,126	-0,089
-350,737	-200,000	0,014	0,055
-349,723	329,024	0,064	0,090
-348,708	-200,000	-0,011	0,200
-347,693	-23,053	-0,034	0,015
-346,679	-54,753	-0,139	-0,045
-345,664	-93,669	0,231	-0,046
-344,650	-200,000	-0,012	0,070
-343,635	800,000	-0,025	-0,052
-342,620	36,075	-0,101	-0,065
-341,606	-102,399	-0,170	-0,029
-340,591	85,532	-0,089	0,072
-339,577	800,000	-0,026	-0,083
-338,562	243,591	-0,016	0,019
-337,548	-200,000	0,006	-0,058
-336,533	216,946	-0,047	0,055
-335,518	-200,000	-0,012	0,132
-334,504	-63,693	0,077	0,023
-333,489	-139,669	0,068	-0,005
-332,475	-200,000	-0,015	-0,103
-331,460	800,000	-0,031	-0,071
-330,445	346,669	0,031	-0,045
-329,431	17,549	-0,026	-0,015
-328,416	-200,000	0,006	0,046
-327,402	-196,447	0,114	0,001
-326,387	-200,000	-0,012	0,044
-325,372	169,636	0,119	0,125
-324,358	108,012	-0,046	0,040
-323,343	-200,000	-0,006	-0,023
-322,329	-29,376	-0,035	-0,015
-321,314	266,565	0,043	0,055
-320,299	260,884	-0,111	0,141
-319,285	-35,767	0,024	0,010
-318,270	-200,000	0,005	-0,161
-317,256	-200,000	0,046	-0,187
-316,241	127,190	-0,107	-0,099
-315,226	-63,874	0,170	0,050
-314,212	-200,000	0,001	0,087
-313,197	87,725	-0,112	-0,091
-312,183	262,287	-0,029	0,036
-311,168	-200,000	-0,019	0,093
-310,153	-80,216	-0,169	0,041
-309,139	800,000	0,020	0,044
-308,124	-200,000	-0,002	0,057
-307,110	-200,000	-0,004	0,065
-306,095	-47,334	-0,100	0,035
-305,080	-200,000	0,008	0,095
-304,066	598,850	-0,036	0,066
-303,051	-200,000	-0,010	0,076
-302,037	-62,090	-0,118	-0,036
-301,022	308,869	-0,023	-0,031
-300,008	-53,735	-0,081	0,027
-298,993	-200,000	-0,002	0,040
-297,978	800,000	0,031	0,074
-296,964	-173,147	0,148	-0,003
-295,949	137,886	-0,100	0,096
-294,935	-131,870	0,076	0,007
-293,920	110,792	-0,045	-0,039
-292,905	800,000	0,048	0,097
-291,891	-19,329	0,220	0,099
-290,876	-200,000	0,016	-0,073
-289,862	-108,023	0,174	0,027
-288,847	214,109	0,010	-0,012
-287,832	134,956	0,055	0,052
-286,818	-54,513	-0,036	-0,012
-285,803	178,039	0,066	0,070
-284,789	800,000	0,093	0,199
-283,774	-69,096	-0,070	0,020
-282,759	-200,000	-0,000	0,120
-281,745	165,691	-0,035	-0,036
-280,730	740,902	-0,023	-0,045
-279,716	-152,911	0,123	0,006
-278,701	235,857	0,116	-0,140
-277,686	800,000	-0,070	0,215
-276,672	43,060	-0,036	-0,024
-275,657	-200,000	-0,037	0,167
-274,643	-146,278	0,125	-0,008
-273,628	258,797	-0,073	0,091
-272,613	800,000	-0,048	-0,153
-271,599	800,000	0,020	-0,063
-270,584	800,000	-0,030	0,078
-269,570	-69,276	-0,054	0,015
-268,555	-129,668	-0,010	-0,001
-267,540	-37,987	0,073	0,028
-266,526	-88,938	-0,110	-0,023
-265,511	-200,000	-0,006	-0,053
-264,497	-200,000	0,012	-0,125
-263,482	-10,861	0,085	-0,041
-262,467	372,616	-0,037	0,055
-261,453	256,383	0,043	-0,054
-260,438	101,700	0,073	-0,062
-259,424	-112,156	-0,049	0,007
-258,409	800,000	0,054	-0,152
-257,395	-200,000	0,009	-0,054
-256,380	84,117	-0,020	0,016
-255,365	-200,000	0,001	-0,092
-254,351	-200,000	-0,094	0,000
-253,336	800,000	-0,028	-0,074
-252,322	677,671	-0,071	-0,135
-251,307	-41,943	-0,105	-0,039
-250,292	274,167	-0,038	0,049
-249,278	128,708	0,086	-0,080
-248,263	800,000	-0,038	0,098
-247,249	64,809	0,088	0,064
-246,234	-131,944	-0,169	-0,016
-245,219	-200,000	0,000	-0,093
-244,205	399,627	-0,064	-0,097
-243,190	111,804	0,074	-0,065
-242,176	27,818	0,124	-0,076
-241,161	-85,386	0,088	0,020
-240,146	-47,012	0,090	-0,032
-239,132	411,856	0,025	-0,038
-238,117	-40,801	0,080	-0,030
-237,103	800,000	-0,014	-0,039
-236,088	800,000	0,047	0,150
-235,073	800,000	-0,007	-0,016
-234,059	379,973	0,050	0,074
-233,044	-108,558	0,024	0,004
-232,030	397,913	0,030	0,046
-231,015	-52,865	0,128	-0,043
-230,000	46,029	-0,032	-0,021
-228,986	-200,000	-0,026	0,173
-227,971	-200,000	-0,015	0,061
-226,957	800,000	0,053	0,108
-225,942	-57,487	-0,095	0,030
-224,927	800,000	0,029	-0,080
-223,913	-85,083	-0,107	0,024
-222,898	800,000	0,047	-0,096
-221,884	-64,206	-0,060	0,018
-220,869	-200,000	-0,001	0,006
-219,855	-87,703	-0,029	0,006
-218,840	555,813	0,051	0,090
-217,825	26,233	0,111	0,067
-216,811	-17,709	-0,087	-0,039
-215,796	76,754	-0,045	0,035
-214,782	379,017	0,064	-0,096
-213,767	-37,562	-0,101	0,039
-212,752	21,909	-0,032	-0,019
-211,738	47,501	-0,158	0,107
-210,723	-200,000	-0,015	0,088
-209,709	-49,743	-0,046	-0,016
-208,694	301,767	-0,071	-0,095
-207,679	365,807	-0,030	-0,044
-206,665	145,744	-0,021	-0,020
-205,650	106,822	-0,075	0,065
-204,636	-200,000	-0,021	0,116
-203,621	70,821	0,043	-0,032
-202,606	-200,000	-0,018	-0,135
-201,592	113,862	-0,043	0,038
-200,577	18,137	-0,040	0,023
-199,563	-20,768	0,075	-0,033
-198,548	152,882	0,033	0,032
-197,533	-200,000	0,018	0,097
-196,519	-200,000	0,003	-0,042
-195,504	344,365	0,050	0,072
-194,490	-200,000	-0,003	-0,032
-193,475	800,000	0,048	-0,118
-192,460	-127,598	0,092	-0,010
-191,446	800,000	-0,042	-0,093
-190,431	-71,479	0,112	-0,030
-189,417	800,000	-0,050	0,123
-188,402	-83,752	-0,134	0,031
-187,387	-9,596	0,043	-0,021
-186,373	-200,000	-0,000	0,063
-185,358	1,498	-0,131	-0,068
-184,344	-60,288	0,183	-0,056
-183,329	272,068	0,067	-0,086
-182,315	-66,547	-0,152	-0,043
-181,300	-107,620	0,068	0,011
-180,285	370,882	-0,108	-0,159
-179,271	-108,615	-0,099	-0,015
-178,256	-200,000	0,021	-0,140
-177,242	-200,000	-0,023	-0,131
-176,227	224,058	0,041	0,048
-175,212	-200,000	-0,022	0,000
-174,198	-200,000	0,005	0,061
-173,183	800,000	-0,073	-0,152
-172,169	40,509	0,055	-0,036
-171,154	-200,000	0,025	-0,085
-170,139	130,828	0,034	0,032
-169,125	174,280	0,042	0,044
-168,110	-93,927	0,150	0,030
-167,096	27,444	-0,142	-0,086
-166,081	-200,000	-0,002	0,064
-165,066	11,066	-0,169	0,093
-164,052	800,000	-0,040	0,113
-163,037	-59,218	-0,119	0,037
-162,023	800,000	0,029	-0,086
-161,008	212,433	0,108	0,124
-159,993	37,620	0,114	0,073
-158,979	212,629	-0,010	-0,012
-157,964	488,052	0,074	-0,123
-156,950	278,175	-0,039	0,050
-155,935	-41,711	0,141	-0,052
-154,920	213,146	-0,052	0,060
-153,906	-142,806	-0,064	-0,004
-152,891	640,403	-0,029	-0,053
-151,877	-133,253	0,064	-0,006
-150,862	125,925	0,041	-0,038
-149,847	-119,128	-0,115	0,014
-148,833	189,635	0,072	-0,079
-147,818	333,464	-0,047	0,066
-146,804	-74,586	0,048	-0,012
-145,789	800,000	0,023	0,067
-144,775	-184,469	-0,056	-0,001
-143,760	-144,481	-0,160	-0,011
-142,745	-200,000	-0,054	-0,206
-141,731	-80,992	0,207	-0,049
-140,716	-176,549	0,011	-0,000
-139,702	268,471	-0,033	-0,042
-138,687	372,273	0,122	0,181
-137,672	-200,000	-0,038	0,208
-136,658	-200,000	-0,045	-0,191
-135,643	800,000	0,032	-0,100
-134,629	153,508	-0,058	0,058
-133,614	-10,596	-0,025	0,012
-132,599	197,934	-0,052	0,057
-131,585	-200,000	0,032	0,189
-130,570	-3,786	-0,096	0,048
-129,556	-122,336	0,137	-0,016
-128,541	122,950	0,091	0,083
-127,526	19,056	-0,070	-0,041
-126,512	800,000	0,031	0,071
-125,497	642,399	-0,095	0,177
-124,483	800,000	-0,037	-0,094
-123,468	-200,000	-0,013	0,122
-122,453	192,879	0,036	0,040
-121,439	-29,729	-0,095	0,039
-120,424	289,951	-0,117	-0,154
