DTS Sentinel unit serial number:	SN410029Multiplexer serial number:	ORYXHardware model number:	OX2-SRSoftware version number:	ORYX F/W v4,00 Oryx Data Collector v3.7.2.0data status	okinstallation	B3 Nyhavnadifferential loss correction	single-endedforward channel	channel 1reverse channel	N/Adate	2023/11/28time	16:32:30forward acquisition time	300,00reverse acquisition time	0,00gamma	499,1914k internal	0,3222k external	0,3222temperature offset calibration	1,0000default loss term (dB/km)	0,3820temperature slope calibration	1,0000multiplexer offset coefficient	1,0000multiplexer slope coefficient	1,0000fibre end	0,00T internal ref (°C)	7,26T ext. ref 1 (°C)	-7,64T ext. ref 2 (°C)	-7,79length (m)	temperature (°C)	Stokes	anti-Stokes-744,400	93,417	-0,162	-0,132
-743,385	-200,000	-0,021	0,265
-742,371	75,106	-0,178	-0,135
-741,356	800,000	-0,102	0,251
-740,342	198,486	-0,170	-0,188
-739,327	133,715	-0,064	0,060
-738,312	165,397	-0,079	-0,080
-737,298	-200,000	-0,034	0,333
-736,283	800,000	-0,100	-0,303
-735,269	-200,000	0,000	0,185
-734,254	116,192	-0,221	-0,196
-733,239	-16,695	-0,260	0,118
-732,225	-200,000	-0,033	-0,115
-731,210	-91,522	0,120	0,025
-730,196	373,020	-0,106	-0,156
-729,181	142,048	-0,023	-0,022
-728,167	-200,000	0,014	-0,093
-727,152	347,020	0,079	-0,113
-726,137	-162,298	0,054	0,002
-725,123	88,022	0,124	0,099
-724,108	-131,367	-0,047	-0,004
-723,094	105,502	0,066	-0,057
-722,079	158,882	-0,086	0,086
-721,064	-22,329	-0,077	-0,033
-720,050	-61,008	-0,031	-0,009
-719,035	187,852	0,027	-0,029
-718,021	156,760	0,050	-0,050
-717,006	199,031	-0,107	-0,118
-715,991	277,530	-0,041	-0,053
-714,977	558,845	-0,008	0,014
-713,962	71,503	0,010	-0,008
-712,948	251,505	0,028	-0,034
-711,933	-200,000	-0,003	-0,011
-710,918	-67,837	-0,163	-0,046
-709,904	375,645	-0,022	0,032
-708,889	702,753	-0,055	-0,105
-707,875	145,144	-0,032	-0,031
-706,860	-200,000	-0,022	-0,100
-705,845	282,774	-0,033	-0,043
-704,831	-91,710	-0,029	0,006
-703,816	-200,000	0,012	0,109
-702,802	109,877	0,067	-0,058
-701,787	-72,462	-0,074	-0,019
-700,772	-90,616	-0,037	0,008
-699,758	205,837	-0,056	0,063
-698,743	800,000	-0,062	-0,129
-697,729	413,540	-0,046	-0,070
-696,714	800,000	0,013	-0,031
-695,699	17,515	-0,046	0,026
-694,685	747,392	-0,018	-0,035
-693,670	195,508	-0,103	-0,113
-692,656	102,193	0,073	-0,061
-691,641	-200,000	0,031	0,117
-690,627	-111,263	-0,065	-0,009
-689,612	195,124	-0,089	0,097
-688,597	186,899	0,081	-0,087
-687,583	78,196	-0,184	-0,142
-686,568	-87,453	-0,160	-0,035
-685,554	-200,000	-0,028	-0,090
-684,539	-180,307	-0,196	-0,003
-683,524	800,000	0,044	0,092
-682,510	-174,660	-0,061	0,001
-681,495	-148,467	0,075	0,004
-680,481	528,750	-0,042	-0,071
-679,466	-200,000	-0,006	-0,144
-678,451	-200,000	0,005	-0,039
-677,437	-25,855	0,147	-0,062
-676,422	-200,000	-0,013	-0,052
-675,408	800,000	0,038	0,094
-674,393	308,185	0,081	0,109
-673,378	50,062	-0,150	-0,102
-672,364	-102,752	-0,241	0,041
-671,349	800,000	0,043	-0,121
-670,335	177,497	0,083	0,087
-669,320	700,974	-0,053	-0,102
-668,305	-200,000	-0,002	0,060
-667,291	-43,906	0,179	-0,065
-666,276	-200,000	-0,012	-0,101
-665,262	-79,466	-0,119	-0,029
-664,247	559,835	-0,012	-0,021
-663,232	111,892	0,070	-0,061
-662,218	-55,885	-0,076	0,024
-661,203	724,336	0,042	-0,082
-660,189	147,048	-0,030	0,029
-659,174	-49,675	0,031	0,011
-658,159	-200,000	0,007	-0,044
-657,145	800,000	0,010	0,021
-656,130	76,593	0,053	-0,040
-655,116	-200,000	0,002	0,124
-654,101	82,251	-0,170	0,133
-653,086	-144,077	-0,116	0,008
-652,072	507,609	-0,084	-0,140
-651,057	35,507	-0,030	-0,019
-650,043	597,338	-0,053	0,096
-649,028	219,211	-0,055	-0,063
-648,014	-170,345	0,134	-0,003
-646,999	173,298	0,031	-0,032
-645,984	-200,000	0,005	0,025
-644,970	-90,451	-0,157	0,032
-643,955	184,883	-0,083	-0,089
-642,941	416,423	-0,063	-0,097
-641,926	555,286	-0,072	-0,125
-640,911	111,200	0,096	0,084
-639,897	527,498	-0,038	-0,064
-638,882	-200,000	-0,030	0,146
-637,868	-23,337	-0,026	0,011
-636,853	474,237	0,017	0,027
-635,838	-116,225	-0,171	-0,023
-634,824	-200,000	-0,001	-0,046
-633,809	-38,955	-0,148	0,056
-632,795	-70,977	-0,055	0,015
-631,780	800,000	-0,045	0,097
-630,765	448,439	0,063	0,100
-629,751	-200,000	-0,045	-0,152
-628,736	-21,339	-0,165	-0,072
-627,722	153,445	0,018	-0,018
-626,707	46,693	0,131	-0,087
-625,692	-131,529	0,052	-0,005
-624,678	-200,000	-0,011	0,046
-623,663	800,000	0,046	-0,120
-622,649	-103,107	-0,111	0,019
-621,634	-200,000	0,001	-0,021
-620,619	40,274	0,028	-0,018
-619,605	417,801	0,036	0,056
-618,590	-31,645	0,096	0,039
-617,576	-28,074	0,139	-0,057
-616,561	69,561	0,109	-0,080
-615,546	-94,634	-0,170	0,033
-614,532	-200,000	0,020	-0,068
-613,517	800,000	0,014	-0,034
-612,503	-15,919	-0,047	-0,022
-611,488	800,000	0,069	0,144
-610,474	65,003	0,121	0,087
-609,459	-177,216	-0,060	-0,001
-608,444	23,655	-0,086	-0,051
-607,430	-200,000	-0,008	-0,121
-606,415	-200,000	0,006	-0,161
-605,401	-200,000	-0,021	-0,113
-604,386	-200,000	0,023	0,173
-603,371	44,106	0,071	0,047
-602,357	-80,258	-0,167	0,040
-601,342	107,437	0,067	-0,057
-600,328	54,942	-0,093	0,065
-599,313	-200,000	0,001	-0,120
-598,298	13,424	0,091	0,051
-597,284	18,738	0,094	0,054
-596,269	-71,537	-0,059	0,016
-595,255	800,000	-0,047	0,112
-594,240	-200,000	-0,032	-0,104
-593,225	125,615	-0,099	-0,090
-592,211	800,000	0,031	-0,087
-591,196	-200,000	-0,029	0,000
-590,182	-200,000	-0,003	0,151
-589,167	-200,000	0,006	0,074
-588,152	84,592	-0,146	-0,115
-587,138	-200,000	-0,102	0,000
-586,123	-164,536	0,143	-0,005
-585,109	216,612	0,053	0,060
-584,094	-55,862	0,135	-0,043
-583,079	-78,923	0,107	-0,026
-582,065	-200,000	-0,058	0,255
-581,050	573,654	0,032	-0,055
-580,036	800,000	-0,023	-0,065
-579,021	77,260	0,099	-0,075
-578,006	-56,611	-0,136	-0,043
-576,992	-200,000	-0,014	-0,098
-575,977	-30,819	0,084	-0,034
-574,963	800,000	-0,013	0,026
-573,948	607,849	-0,040	0,072
-572,934	268,960	-0,053	-0,067
-571,919	90,039	0,015	0,012
-570,904	294,735	-0,079	-0,104
-569,890	367,935	0,057	-0,083
-568,875	242,411	0,023	-0,027
-567,861	-200,000	0,023	0,118
-566,846	17,967	0,108	0,061
-565,831	183,810	-0,057	-0,060
-564,817	-200,000	-0,059	-0,233
-563,802	-72,643	0,046	0,012
-562,788	-38,587	0,035	0,013
-561,773	567,436	-0,105	0,183
-560,758	317,707	0,045	-0,061
-559,744	-200,000	-0,055	-0,200
-558,729	800,000	0,039	0,092
-557,715	800,000	0,018	-0,042
-556,700	-200,000	-0,017	-0,061
-555,685	-119,270	-0,083	-0,010
-554,671	-200,000	0,004	0,054
-553,656	-128,133	0,224	-0,023
-552,642	317,343	0,052	0,071
-551,627	-51,154	0,082	-0,027
-550,612	252,131	-0,086	-0,106
-549,598	-200,000	-0,047	-0,209
-548,583	-200,000	-0,003	-0,054
-547,569	-200,000	-0,036	-0,170
-546,554	18,069	0,083	-0,047
-545,539	651,046	0,036	-0,066
-544,525	505,700	0,047	-0,079
-543,510	490,008	0,106	-0,174
-542,496	71,300	0,014	0,010
-541,481	-36,880	-0,118	-0,045
-540,466	187,273	0,053	-0,057
-539,452	59,950	0,043	0,031
-538,437	-200,000	0,024	0,181
-537,423	-148,629	0,037	-0,002
-536,408	234,180	-0,008	0,009
-535,393	786,065	0,019	0,037
-534,379	474,509	-0,051	-0,084
-533,364	-200,000	0,015	0,088
-532,350	-200,000	0,022	0,107
-531,335	-126,838	0,065	-0,007
-530,321	-128,815	0,049	-0,005
-529,306	72,552	-0,085	-0,063
-528,291	71,608	0,053	-0,040
-527,277	92,949	-0,130	-0,105
-526,262	800,000	0,038	0,115
-525,248	-65,743	-0,043	-0,012
-524,233	-12,841	0,127	0,059
-523,218	-105,901	-0,048	-0,008
-522,204	-200,000	-0,027	0,205
-521,189	-101,079	0,043	0,007
-520,175	-200,000	-0,012	-0,066
-519,160	162,809	0,052	-0,053
-518,145	151,279	-0,011	0,011
-517,131	-84,976	0,137	0,031
-516,116	382,905	0,053	0,078
-515,102	-200,000	-0,018	0,069
-514,087	-129,901	-0,072	-0,007
-513,072	-200,000	-0,027	-0,094
-512,058	-16,327	0,051	-0,023
-511,043	105,823	-0,018	-0,016
-510,029	-183,211	-0,064	0,001
-509,014	225,747	-0,045	-0,053
-507,999	-200,000	0,024	0,084
-506,985	-200,000	-0,011	-0,038
-505,970	-200,000	-0,029	-0,154
-504,956	-52,588	0,110	-0,036
-503,941	136,134	0,075	-0,070
-502,926	110,666	0,050	-0,043
-501,912	-200,000	0,011	0,033
-500,897	800,000	0,038	0,082
-499,883	28,443	0,103	0,062
-498,868	135,209	0,037	-0,035
-497,853	275,256	-0,068	-0,086
-496,839	-118,006	-0,078	0,010
-495,824	86,132	0,081	0,064
-494,810	-103,030	0,041	0,007
-493,795	245,449	-0,067	-0,081
-492,781	-108,415	0,053	-0,008
-491,766	-4,173	-0,063	0,031
-490,751	-200,000	-0,006	-0,126
-489,737	-127,190	0,024	0,003
-488,722	-200,000	0,002	0,064
-487,708	-200,000	-0,033	0,115
-486,693	800,000	0,040	0,081
-485,678	-67,194	-0,128	-0,036
-484,664	762,642	-0,019	0,036
-483,649	114,345	0,041	-0,035
-482,635	-171,538	-0,039	-0,001
-481,620	-3,150	-0,042	-0,021
-480,605	800,000	0,051	0,106
-479,591	91,362	0,078	-0,063
-478,576	-73,666	-0,043	0,011
-477,562	-137,979	-0,212	0,017
-476,547	237,180	-0,102	-0,121
-475,532	344,513	-0,149	-0,210
-474,518	800,000	-0,065	0,164
-473,503	-200,000	0,008	0,047
-472,489	39,484	0,039	-0,025
-471,474	-85,299	-0,152	-0,034
-470,459	-200,000	-0,018	0,117
-469,445	115,256	0,054	0,047
-468,430	142,942	-0,033	-0,032
-467,416	-70,429	0,098	-0,026
-466,401	-77,674	-0,175	0,043
-465,386	625,864	0,087	0,158
-464,372	-111,937	0,100	-0,014
-463,357	-200,000	-0,009	-0,094
-462,343	-90,996	-0,248	-0,050
-461,328	-153,098	0,102	-0,005
-460,313	800,000	-0,046	0,105
-459,299	-200,000	0,002	0,097
-458,284	-69,707	0,072	0,020
-457,270	-183,213	-0,024	-0,000
-456,255	-130,497	-0,104	0,010
-455,241	-126,284	0,083	0,009
-454,226	25,159	0,019	-0,011
-453,211	233,965	-0,034	0,040
-452,197	-200,000	-0,000	0,096
-451,182	664,010	0,067	0,124
-450,168	-200,000	0,011	0,086
-449,153	-143,314	0,108	0,007
-448,138	-200,000	-0,047	0,000
-447,124	-70,682	-0,086	0,023
-446,109	-200,000	0,014	0,123
-445,095	41,955	0,146	0,094
-444,080	225,682	-0,079	0,092
-443,065	-200,000	-0,002	-0,014
-442,051	-200,000	0,002	0,051
-441,036	-135,070	-0,066	-0,006
-440,022	146,466	0,125	-0,120
-439,007	-122,447	0,020	0,002
-437,992	-200,000	0,004	0,014
-436,978	329,962	0,107	0,148
-435,963	198,781	-0,050	-0,055
-434,949	57,810	-0,129	0,090
-433,934	334,733	-0,025	-0,035
-432,919	241,181	-0,066	0,079
-431,905	-200,000	0,016	0,185
-430,890	38,588	0,117	0,074
-429,876	-200,000	-0,009	0,120
-428,861	800,000	0,091	0,192
-427,846	244,608	-0,109	0,131
-426,832	-60,146	0,119	-0,036
-425,817	-200,000	-0,009	-0,073
-424,803	800,000	-0,003	0,006
-423,788	800,000	-0,027	-0,063
-422,773	510,065	-0,063	0,106
-421,759	800,000	-0,024	0,057
-420,744	282,205	0,038	-0,049
-419,730	778,109	-0,086	-0,169
-418,715	-200,000	0,008	0,034
-417,701	-173,000	-0,067	-0,001
-416,686	161,995	0,082	0,082
-415,671	-82,485	0,106	-0,024
-414,657	-122,056	-0,124	0,014
-413,642	800,000	-0,010	0,027
-412,628	223,705	0,099	0,114
-411,613	-200,000	0,037	-0,134
-410,598	-163,056	0,106	0,004
-409,584	-167,192	-0,036	0,001
-408,569	57,168	0,107	0,074
-407,555	-134,287	-0,089	0,008
-406,540	800,000	0,024	-0,068
-405,525	-200,000	-0,022	-0,079
-404,511	800,000	0,047	-0,093
-403,496	412,380	-0,063	-0,096
-402,482	-200,000	0,025	0,094
-401,467	-200,000	0,012	-0,048
-400,452	800,000	0,059	0,166
-399,438	217,702	-0,097	-0,111
-398,423	-122,863	-0,120	-0,014
-397,409	-200,000	0,017	-0,182
-396,394	-200,000	-0,005	-0,078
-395,379	-200,000	-0,005	-0,046
-394,365	493,982	0,032	0,053
-393,350	-82,392	0,086	0,020
-392,336	-30,263	0,045	-0,018
-391,321	484,306	-0,020	-0,032
-390,306	-18,893	-0,112	0,050
-389,292	-24,513	-0,086	0,036
-388,277	-60,594	-0,122	0,037
-387,263	-23,862	0,133	0,056
-386,248	-200,000	-0,017	0,095
-385,233	-92,729	0,107	-0,021
-384,219	92,344	-0,070	-0,056
-383,204	182,768	-0,099	-0,104
-382,190	800,000	-0,051	-0,118
-381,175	-200,000	0,015	0,057
-380,160	265,818	0,032	-0,040
-379,146	57,986	-0,075	-0,052
-378,131	317,657	0,088	0,119
-377,117	-54,618	0,074	0,024
-376,102	52,512	-0,037	-0,025
-375,088	668,425	-0,052	-0,096
-374,073	-200,000	0,026	-0,112
-373,058	178,794	0,098	-0,102
-372,044	46,062	-0,094	-0,062
-371,029	15,828	0,111	-0,062
-370,015	-181,161	-0,127	0,002
-369,000	-54,716	0,064	-0,021
-367,985	-200,000	0,022	-0,155
-366,971	557,583	-0,109	-0,187
-365,956	-63,726	-0,077	-0,022
-364,942	-200,000	-0,010	0,071
-363,927	532,558	-0,046	0,078
-362,912	27,746	-0,065	-0,039
-361,898	187,424	0,080	-0,085
-360,883	-77,921	-0,117	0,028
-359,869	-43,546	-0,039	0,014
-358,854	164,422	0,055	0,055
-357,839	-196,546	0,017	0,000
-356,825	433,250	-0,077	0,120
-355,810	400,317	0,062	0,092
-354,796	-200,000	-0,002	0,078
-353,781	-65,505	-0,054	-0,015
-352,766	333,348	0,051	-0,071
-351,752	-200,000	-0,009	-0,075
-350,737	-32,520	0,048	0,019
-349,723	519,590	0,027	-0,045
-348,708	525,034	0,034	-0,057
-347,693	800,000	0,027	0,056
-346,679	-191,959	-0,168	-0,001
-345,664	222,165	-0,130	-0,149
-344,650	-200,000	0,044	0,149
-343,635	800,000	0,023	0,047
-342,620	-200,000	-0,005	0,105
-341,606	-25,182	-0,050	0,021
-340,591	24,612	-0,042	0,025
-339,577	293,448	-0,116	0,151
-338,562	39,118	0,050	0,032
-337,548	76,258	0,071	-0,054
-336,533	-25,698	-0,066	0,027
-335,518	432,815	0,066	0,103
-334,504	414,386	0,074	0,112
-333,489	-63,692	0,098	-0,028
-332,475	219,061	-0,085	0,097
-331,460	-86,528	-0,126	0,027
-330,445	216,092	-0,055	-0,062
-329,431	-135,210	0,137	-0,012
-328,416	195,698	0,067	0,073
-327,402	277,376	0,063	0,080
-326,387	-145,779	0,089	-0,006
-325,372	-41,240	-0,107	-0,039
-324,358	-21,595	-0,035	-0,015
-323,343	-200,000	-0,021	-0,082
-322,329	-13,035	0,074	-0,034
-321,314	235,749	0,074	-0,087
-320,299	-6,139	-0,012	0,006
-319,285	552,839	0,048	-0,083
-318,270	357,785	-0,055	-0,078
-317,256	-200,000	-0,031	0,143
-316,241	800,000	-0,010	-0,025
-315,226	74,784	0,189	-0,141
-314,212	299,489	0,071	0,093
-313,197	800,000	-0,030	0,071
-312,183	-131,441	0,022	0,002
-311,168	-200,000	-0,002	0,096
-310,153	49,269	-0,036	-0,024
-309,139	800,000	-0,056	-0,139
-308,124	-153,311	0,174	-0,008
-307,110	277,438	-0,046	0,058
-306,095	-119,910	-0,072	0,009
-305,080	39,347	0,046	0,029
-304,066	-200,000	-0,011	0,118
-303,051	-200,000	-0,008	-0,085
-302,037	-11,258	0,069	-0,032
-301,022	-153,142	0,056	0,003
-300,008	-98,290	0,037	-0,007
-298,993	250,916	0,134	-0,163
-297,978	107,318	0,049	-0,042
-296,964	1,073	0,065	-0,033
-295,949	187,709	-0,028	-0,030
-294,935	-116,777	-0,043	-0,006
-293,920	800,000	0,075	-0,160
-292,905	-27,105	0,184	0,076
-291,891	217,482	0,201	0,227
-290,876	-200,000	0,002	0,113
-289,862	-27,152	0,164	-0,068
-288,847	800,000	0,045	-0,117
-287,832	-45,175	-0,117	-0,041
-286,818	800,000	0,011	-0,027
-285,803	-200,000	-0,047	0,241
-284,789	4,891	-0,103	0,054
-283,774	-112,029	0,153	0,022
-282,759	-130,014	0,030	0,003
-281,745	475,836	-0,061	-0,098
-280,730	447,167	-0,078	-0,122
-279,716	800,000	-0,037	-0,086
-278,701	770,800	0,054	0,105
-277,686	35,932	0,117	-0,073
-276,672	800,000	-0,044	-0,116
-275,657	31,779	0,091	0,056
-274,643	-18,015	-0,017	-0,008
-273,628	175,889	-0,032	0,033
-272,613	-102,147	-0,080	-0,014
-271,599	-125,687	0,299	-0,032
-270,584	123,073	-0,039	-0,034
-269,570	-36,695	0,132	0,050
-268,555	98,434	-0,027	-0,022
-267,540	280,324	0,093	-0,118
-266,526	61,238	-0,130	-0,092
-265,511	79,169	0,026	0,020
-264,497	213,198	-0,057	0,064
-263,482	-132,899	-0,053	-0,005
-262,467	-44,726	0,093	-0,033
-261,453	-200,000	-0,003	-0,171
-260,438	-72,650	0,084	-0,022
-259,424	482,351	-0,051	-0,083
-258,409	800,000	0,044	-0,087
-257,395	446,853	0,050	0,078
-256,380	-128,727	-0,029	-0,003
-255,365	463,717	0,032	0,052
-254,351	282,804	0,067	0,085
-253,336	-37,231	-0,099	0,037
-252,322	-200,000	0,002	-0,027
-251,307	-200,000	0,005	-0,053
-250,292	113,703	-0,173	0,149
-249,278	-118,253	0,165	0,021
-248,263	800,000	-0,091	0,182
-247,249	780,524	0,030	0,058
-246,234	-200,000	-0,003	0,056
-245,219	-99,053	-0,050	0,009
-244,205	720,165	0,048	-0,091
-243,190	-52,805	-0,051	-0,016
-242,176	-41,880	0,171	-0,062
-241,161	154,607	-0,074	0,072
-240,146	93,196	-0,039	0,031
-239,132	458,997	0,094	0,148
-238,117	-106,557	0,065	-0,010
-237,103	-200,000	-0,001	0,110
-236,088	-200,000	0,127	-0,000
-235,073	-8,399	-0,082	0,039
-234,059	719,532	0,055	-0,105
-233,044	39,160	0,048	0,031
-232,030	541,220	-0,033	-0,057
-231,015	-200,000	0,005	-0,199
-230,000	-200,000	-0,010	-0,083
-228,986	-18,676	-0,028	-0,012
-227,971	-200,000	0,014	0,068
-226,957	800,000	0,045	0,121
-225,942	-200,000	0,005	0,031
-224,927	-131,545	-0,126	0,012
-223,913	-126,451	-0,126	0,013
-222,898	183,128	-0,088	-0,092
-221,884	-200,000	-0,019	0,182
-220,869	13,462	0,055	-0,030
-219,855	-200,000	-0,015	0,062
-218,840	99,084	-0,027	0,022
-217,825	-200,000	-0,004	0,035
-216,811	-65,366	-0,212	-0,060
-215,796	-200,000	-0,001	-0,084
-214,782	-57,610	0,156	0,048
-213,767	-200,000	-0,008	0,049
-212,752	587,410	0,044	-0,077
-211,738	796,238	0,056	0,109
-210,723	-200,000	-0,020	-0,145
-209,709	98,296	-0,044	0,036
-208,694	115,623	-0,013	-0,011
-207,679	16,070	0,058	0,032
-206,665	295,548	-0,037	-0,048
-205,650	-200,000	0,006	-0,113
-204,636	800,000	-0,072	0,191
-203,621	-200,000	0,010	0,073
-202,606	549,711	-0,080	0,136
-201,592	37,805	0,112	0,070
-200,577	-18,011	-0,045	-0,020
-199,563	-188,584	-0,117	0,001
-198,548	-88,635	0,174	0,036
-197,533	800,000	0,009	-0,020
-196,519	-200,000	0,011	0,126
-195,504	-79,396	0,129	0,031
-194,490	800,000	-0,037	0,086
-193,475	-200,000	0,027	-0,125
-192,460	138,053	0,058	0,054
-191,446	-117,690	-0,096	-0,012
-190,431	-118,203	-0,113	-0,014
-189,417	-30,043	-0,047	-0,019
-188,402	-33,501	-0,195	-0,076
-187,387	-80,454	-0,039	-0,009
-186,373	-25,882	-0,070	-0,029
-185,358	-8,225	-0,065	0,031
-184,344	-47,472	-0,089	-0,031
-183,329	683,927	0,072	-0,134
-182,315	4,194	0,040	0,020
-181,300	201,541	-0,065	-0,070
-180,285	-133,323	-0,014	0,001
-179,271	304,735	0,062	0,082
-178,256	-86,158	0,143	-0,031
-177,242	-12,970	0,081	0,037
-176,227	800,000	0,040	-0,085
-175,212	510,772	-0,040	0,066
-174,198	135,173	-0,147	0,136
-173,183	-200,000	0,002	-0,113
-172,169	246,142	-0,098	-0,117
-171,154	800,000	0,045	-0,122
-170,139	76,371	0,111	0,083
-169,125	227,134	-0,082	0,094
-168,110	-116,906	0,117	-0,015
-167,096	-54,750	-0,077	-0,024
-166,081	-106,212	0,086	0,013
-165,066	362,470	-0,025	-0,035
-164,052	800,000	0,052	-0,147
-163,037	-60,031	-0,210	-0,063
-162,023	800,000	0,032	0,085
-161,008	187,986	-0,089	0,094
-159,993	-83,372	0,050	0,011
-158,979	-187,459	-0,208	-0,002
-157,964	771,910	0,054	0,105
-156,950	30,714	-0,052	-0,031
-155,935	-200,000	0,007	0,183
-154,920	653,126	-0,101	0,184
-153,906	-115,958	-0,036	0,005
-152,891	772,728	0,014	-0,028
-151,877	185,428	-0,013	-0,013
-150,862	57,964	0,030	0,020
-149,847	450,125	-0,061	0,096
-148,833	-68,783	0,152	0,041
-147,818	-198,625	0,128	0,000
-146,804	800,000	-0,032	0,072
-145,789	187,596	0,093	-0,098
-144,775	37,058	-0,089	0,055
-143,760	-200,000	0,019	-0,139
-142,745	573,446	-0,038	0,066
-141,731	-200,000	0,012	-0,091
-140,716	91,751	0,168	-0,133
-139,702	-32,366	-0,038	0,015
-138,687	666,520	0,037	0,068
-137,672	-134,115	-0,066	0,006
-136,658	-27,890	0,041	-0,017
-135,643	130,405	-0,066	-0,059
-134,629	151,664	0,144	0,139
-133,614	436,657	-0,038	0,059
-132,599	-200,000	-0,036	0,122
-131,585	166,238	-0,057	0,057
-130,570	-96,983	0,072	0,013
-129,556	-184,644	-0,121	-0,001
-128,541	800,000	-0,068	-0,146
-127,526	800,000	-0,020	0,044
-126,512	149,476	0,034	0,033
-125,497	800,000	-0,069	-0,135
-124,483	800,000	0,089	0,199
-123,468	-200,000	-0,040	0,162
-122,453	-200,000	-0,010	0,048
-121,439	3,842	-0,038	0,020
