DTS Sentinel unit serial number:	SN410029Multiplexer serial number:	ORYXHardware model number:	OX2-SRSoftware version number:	ORYX F/W v4,00 Oryx Data Collector v3.7.2.0data status	okinstallation	B3 Nyhavnadifferential loss correction	single-endedforward channel	channel 1reverse channel	N/Adate	2023/11/28time	11:27:30forward acquisition time	300,00reverse acquisition time	0,00gamma	499,1914k internal	0,3151k external	0,3151temperature offset calibration	1,0000default loss term (dB/km)	0,3820temperature slope calibration	1,0000multiplexer offset coefficient	1,0000multiplexer slope coefficient	1,0000fibre end	0,00T internal ref (°C)	9,21T ext. ref 1 (°C)	-7,56T ext. ref 2 (°C)	-7,77length (m)	temperature (°C)	Stokes	anti-Stokes-744,400	67,147	-0,263	-0,198
-743,385	-200,000	-0,092	0,306
-742,371	800,000	-0,105	-0,277
-741,356	800,000	0,197	0,525
-740,342	800,000	-0,109	-0,293
-739,327	-200,000	-0,029	0,201
-738,312	-200,000	-0,061	-0,252
-737,298	-200,000	0,031	0,331
-736,283	800,000	-0,094	-0,210
-735,269	800,000	0,063	0,188
-734,254	147,263	-0,157	-0,156
-733,239	-5,396	-0,250	0,127
-732,225	-200,000	-0,083	-0,321
-731,210	-200,000	0,017	0,064
-730,196	22,240	0,040	-0,024
-729,181	10,095	-0,023	0,013
-728,167	296,675	0,068	-0,092
-727,152	-200,000	-0,001	-0,065
-726,137	-135,134	-0,148	-0,013
-725,123	355,759	-0,069	-0,102
-724,108	-200,000	0,024	-0,159
-723,094	191,230	-0,055	-0,062
-722,079	-14,600	-0,104	-0,049
-721,064	786,932	0,026	-0,054
-720,050	117,068	0,062	-0,056
-719,035	103,702	-0,023	0,020
-718,021	231,318	-0,064	0,077
-717,006	403,842	0,087	-0,136
-715,991	800,000	-0,051	-0,156
-714,977	800,000	-0,070	0,151
-713,962	666,306	-0,029	0,055
-712,948	-200,000	-0,003	0,013
-711,933	800,000	-0,094	0,208
-710,918	125,667	-0,075	0,070
-709,904	800,000	0,043	-0,094
-708,889	84,432	0,067	-0,054
-707,875	-91,167	-0,114	-0,024
-706,860	29,115	0,042	-0,026
-705,845	187,114	0,032	0,035
-704,831	-20,818	0,049	-0,022
-703,816	692,563	-0,048	0,093
-702,802	-200,000	0,027	-0,134
-701,787	-100,977	-0,166	-0,030
-700,772	-60,521	0,114	0,035
-699,758	-200,000	0,016	-0,082
-698,743	-200,000	0,015	-0,072
-697,729	118,633	0,076	0,069
-696,714	24,459	0,041	-0,025
-695,699	41,783	-0,021	-0,014
-694,685	-200,000	0,045	-0,199
-693,670	800,000	-0,057	-0,163
-692,656	33,544	0,052	-0,033
-691,641	36,648	0,028	0,018
-690,627	800,000	-0,021	0,057
-689,612	135,206	-0,119	0,114
-688,597	-74,272	-0,046	-0,012
-687,583	-41,898	0,027	-0,010
-686,568	554,126	0,102	-0,181
-685,554	-200,000	0,012	0,044
-684,539	-10,546	-0,082	-0,040
-683,524	-121,683	-0,113	0,014
-682,510	800,000	0,037	-0,103
-681,495	-116,597	-0,153	-0,021
-680,481	-76,329	-0,081	0,021
-679,466	-200,000	-0,012	-0,079
-678,451	-34,511	-0,079	-0,032
-677,437	-166,762	0,091	-0,003
-676,422	316,743	0,086	-0,121
-675,408	800,000	0,059	-0,151
-674,393	-200,000	0,003	-0,017
-673,378	309,789	-0,007	-0,010
-672,364	40,181	-0,053	-0,035
-671,349	267,608	0,037	0,047
-670,335	-40,604	0,032	0,012
-669,320	43,791	-0,046	-0,031
-668,305	-44,996	-0,086	0,031
-667,291	88,668	-0,053	0,043
-666,276	4,143	-0,133	-0,072
-665,262	338,216	-0,085	-0,122
-664,247	82,223	0,092	0,074
-663,232	537,440	0,044	-0,078
-662,218	288,661	-0,022	0,029
-661,203	-93,717	-0,075	0,015
-660,189	-200,000	0,003	-0,027
-659,174	-57,165	-0,080	-0,026
-658,159	800,000	0,025	-0,077
-657,145	-200,000	-0,008	-0,276
-656,130	-105,639	-0,027	-0,004
-655,116	-200,000	0,012	-0,105
-654,101	-129,296	-0,116	-0,012
-653,086	189,306	-0,045	-0,049
-652,072	-28,807	-0,192	0,081
-651,057	-200,000	-0,004	-0,052
-650,043	467,528	-0,010	-0,017
-649,028	396,555	0,059	0,091
-648,014	-5,453	-0,106	0,053
-646,999	800,000	-0,063	0,147
-645,984	-200,000	0,006	0,084
-644,970	-103,426	-0,085	0,015
-643,955	-40,621	-0,202	-0,077
-642,941	197,856	-0,017	-0,019
-641,926	10,926	-0,006	-0,004
-640,911	610,174	0,039	0,072
-639,897	-200,000	0,018	0,064
-638,882	-200,000	0,005	-0,035
-637,868	-200,000	0,002	-0,038
-636,853	25,335	-0,068	-0,042
-635,838	66,415	0,097	-0,072
-634,824	-200,000	0,007	-0,120
-633,809	800,000	-0,024	0,056
-632,795	366,422	-0,014	0,021
-631,780	-200,000	0,014	-0,083
-630,765	76,530	0,042	0,032
-629,751	-90,395	0,032	0,007
-628,736	-92,391	0,035	-0,007
-627,722	502,060	-0,007	-0,013
-626,707	800,000	-0,026	0,071
-625,692	21,027	-0,098	0,058
-624,678	-200,000	0,011	0,078
-623,663	-12,272	-0,020	-0,010
-622,649	-200,000	0,004	-0,037
-621,634	-33,029	-0,170	0,069
-620,619	320,800	0,055	-0,077
-619,605	-200,000	0,034	0,116
-618,590	-200,000	0,007	-0,030
-617,576	3,111	0,085	0,045
-616,561	-200,000	0,012	0,116
-615,546	-200,000	-0,027	-0,245
-614,532	61,994	-0,091	-0,067
-613,517	-200,000	-0,015	-0,081
-612,503	-56,461	0,041	0,013
-611,488	800,000	-0,060	0,129
-610,474	171,136	-0,035	-0,037
-609,459	800,000	0,026	-0,067
-608,444	115,826	-0,089	-0,080
-607,430	800,000	-0,061	-0,177
-606,415	275,200	0,088	-0,115
-605,401	-178,080	-0,034	0,001
-604,386	800,000	0,032	0,091
-603,371	-200,000	-0,009	0,168
-602,357	219,831	0,069	-0,082
-601,342	-100,189	-0,065	0,012
-600,328	800,000	0,074	-0,208
-599,313	139,970	-0,105	-0,102
-598,298	-127,027	0,169	0,018
-597,284	-74,711	0,110	-0,029
-596,269	-26,420	-0,070	-0,030
-595,255	-28,509	-0,096	0,040
-594,240	-115,752	-0,095	-0,013
-593,225	-200,000	0,005	0,059
-592,211	-200,000	-0,019	0,089
-591,196	800,000	0,047	0,140
-590,182	-146,810	0,084	0,005
-589,167	200,797	-0,058	-0,066
-588,152	-200,000	-0,032	0,112
-587,138	-42,370	-0,070	0,026
-586,123	261,281	0,087	-0,111
-585,109	454,898	-0,040	-0,065
-584,094	205,144	0,039	-0,044
-583,079	-126,763	0,082	0,009
-582,065	-200,000	0,026	0,093
-581,050	-47,115	0,218	-0,078
-580,036	366,876	-0,035	-0,052
-579,021	296,689	0,050	-0,068
-578,006	167,765	0,058	0,061
-576,992	102,454	-0,083	0,071
-575,977	800,000	-0,041	0,126
-574,963	800,000	0,018	-0,041
-573,948	-167,158	0,117	0,003
-572,934	2,962	-0,074	-0,040
-571,919	127,215	-0,082	-0,076
-570,904	-200,000	-0,029	-0,140
-569,890	-54,856	-0,183	-0,060
-568,875	800,000	-0,042	0,129
-567,861	-160,389	0,027	0,001
-566,846	800,000	0,068	0,198
-565,831	675,504	0,031	0,059
-564,817	-200,000	0,006	-0,181
-563,802	137,136	0,044	-0,042
-562,788	7,312	-0,087	-0,047
-561,773	-200,000	0,006	-0,129
-560,758	63,006	-0,048	0,035
-559,744	-163,257	0,081	0,003
-558,729	-161,854	-0,034	-0,001
-557,715	-200,000	-0,008	-0,185
-556,700	216,349	0,037	-0,043
-555,685	-18,068	-0,130	-0,060
-554,671	203,668	0,056	-0,063
-553,656	-46,915	-0,090	-0,032
-552,642	217,889	0,054	0,063
-551,627	-200,000	-0,016	0,099
-550,612	-200,000	-0,006	-0,117
-549,598	-200,000	-0,013	-0,107
-548,583	60,506	-0,102	-0,074
-547,569	82,885	0,011	-0,009
-546,554	359,255	0,058	0,085
-545,539	800,000	-0,041	0,098
-544,525	800,000	0,040	-0,093
-543,510	-167,791	-0,203	-0,006
-542,496	-4,594	0,021	0,011
-541,481	75,390	-0,147	-0,113
-540,466	-200,000	-0,017	-0,158
-539,452	512,427	0,081	-0,139
-538,437	161,044	-0,003	-0,003
-537,423	-200,000	0,001	0,005
-536,408	-123,360	0,165	-0,019
-535,393	93,323	-0,082	-0,068
-534,379	37,066	-0,122	-0,079
-533,364	-200,000	0,001	0,040
-532,350	800,000	-0,019	-0,043
-531,335	-65,587	0,094	-0,027
-530,321	-137,327	-0,055	0,004
-529,306	-200,000	-0,025	0,087
-528,291	184,612	-0,093	-0,101
-527,277	-200,000	0,025	0,095
-526,262	173,020	-0,078	-0,082
-525,248	116,327	-0,136	0,122
-524,233	-140,084	0,059	0,004
-523,218	-103,841	0,074	0,012
-522,204	223,643	-0,088	-0,104
-521,189	57,131	0,057	0,041
-520,175	171,277	-0,058	-0,061
-519,160	516,119	0,049	0,084
-518,145	77,687	0,132	0,103
-517,131	155,648	-0,047	-0,047
-516,116	164,485	0,095	0,099
-515,102	610,967	-0,031	-0,057
-514,087	118,591	0,024	-0,022
-513,072	-135,312	-0,147	0,013
-512,058	12,698	0,078	-0,044
-511,043	571,680	-0,019	-0,034
-510,029	-200,000	0,001	0,007
-509,014	117,246	-0,025	-0,022
-507,999	476,391	-0,004	0,006
-506,985	378,931	0,039	-0,059
-505,970	-106,554	-0,139	-0,023
-504,956	-75,993	-0,109	-0,028
-503,941	324,233	-0,024	0,034
-502,926	-200,000	-0,001	0,006
-501,912	13,569	0,045	0,026
-500,897	800,000	0,017	0,042
-499,883	-86,846	0,093	0,021
-498,868	-200,000	0,013	-0,068
-497,853	45,165	0,060	0,041
-496,839	107,112	-0,060	0,052
-495,824	-101,050	0,116	-0,021
-494,810	745,210	0,032	-0,063
-493,795	-166,233	0,102	-0,003
-492,781	-4,309	0,070	0,035
-491,766	-130,653	0,039	0,004
-490,751	24,316	0,092	-0,056
-489,737	61,757	-0,111	-0,081
-488,722	-151,446	-0,107	0,006
-487,708	208,801	0,041	-0,047
-486,693	134,490	0,103	-0,097
-485,678	-88,170	-0,155	-0,034
-484,664	39,463	-0,101	-0,066
-483,649	226,496	-0,106	-0,126
-482,635	347,185	0,017	-0,025
-481,620	-200,000	0,013	0,234
-480,605	-159,414	0,033	-0,001
-479,591	479,923	-0,044	0,074
-478,576	211,564	-0,021	-0,024
-477,562	219,275	-0,050	-0,059
-476,547	796,790	0,070	-0,141
-475,532	-62,897	-0,168	0,051
-474,518	27,481	0,079	-0,048
-473,503	-200,000	-0,024	0,088
-472,489	488,392	0,038	0,063
-471,474	-62,219	0,115	0,035
-470,459	-70,020	-0,090	0,025
-469,445	662,558	-0,090	-0,170
-468,430	677,185	0,026	0,049
-467,416	-134,012	0,188	0,017
-466,401	-12,014	0,078	-0,037
-465,386	-200,000	0,050	0,207
-464,372	-77,095	-0,017	-0,004
-463,357	-102,363	-0,168	-0,029
-462,343	300,357	0,049	0,066
-461,328	-200,000	-0,027	0,094
-460,313	589,031	-0,048	0,087
-459,299	2,480	0,069	0,036
-458,284	416,745	0,076	0,118
-457,270	179,696	0,027	-0,029
-456,255	800,000	-0,010	-0,030
-455,241	496,755	-0,020	-0,034
-454,226	-89,349	-0,041	0,009
-453,211	-150,538	0,140	0,008
-452,197	-200,000	-0,009	-0,074
-451,182	800,000	0,024	0,065
-450,168	-200,000	-0,004	-0,022
-449,153	-200,000	-0,004	-0,067
-448,138	800,000	0,031	-0,077
-447,124	722,683	-0,090	-0,176
-446,109	800,000	0,047	0,148
-445,095	800,000	0,054	0,162
-444,080	291,372	0,035	0,047
-443,065	-200,000	0,021	0,069
-442,051	-200,000	0,002	-0,017
-441,036	-200,000	0,031	-0,155
-440,022	-200,000	-0,011	0,041
-439,007	-200,000	0,000	0,037
-437,992	728,776	0,049	0,095
-436,978	-200,000	0,024	0,094
-435,963	-50,224	0,200	0,069
-434,949	-29,750	-0,075	0,031
-433,934	-200,000	-0,006	-0,080
-432,919	-200,000	0,005	0,018
-431,905	61,168	-0,095	0,069
-430,890	-102,610	0,090	0,015
-429,876	-0,529	-0,104	0,054
-428,861	-77,095	-0,080	-0,020
-427,846	-8,249	0,093	0,046
-426,832	195,589	-0,027	-0,030
-425,817	-200,000	-0,014	-0,092
-424,803	800,000	0,035	0,086
-423,788	800,000	0,065	0,167
-422,773	5,677	0,109	0,058
-421,759	800,000	0,035	0,089
-420,744	16,269	-0,039	-0,022
-419,730	-15,549	0,050	-0,023
-418,715	800,000	-0,022	-0,062
-417,701	774,501	-0,083	-0,167
-416,686	170,160	-0,052	0,054
-415,671	316,431	-0,088	0,122
-414,657	130,626	0,079	0,074
-413,642	-47,580	-0,078	0,028
-412,628	302,163	-0,039	0,053
-411,613	771,658	-0,071	-0,143
-410,598	273,820	0,029	-0,038
-409,584	83,030	-0,061	-0,048
-408,569	-115,572	0,066	0,009
-407,555	-172,219	0,103	0,002
-406,540	-35,189	-0,048	0,019
-405,525	32,433	-0,043	-0,027
-404,511	75,535	0,017	-0,013
-403,496	-75,165	0,151	0,039
-402,482	-200,000	0,004	-0,047
-401,467	20,033	0,075	0,044
-400,452	-122,327	0,146	0,017
-399,438	800,000	-0,052	-0,122
-398,423	-200,000	0,021	-0,105
-397,409	93,416	0,035	0,029
-396,394	199,230	-0,044	0,049
-395,379	-73,509	0,070	0,018
-394,365	-147,802	0,042	0,003
-393,350	-200,000	-0,040	0,154
-392,336	-200,000	0,023	0,198
-391,321	-56,530	0,071	-0,023
-390,306	-132,461	-0,193	-0,018
-389,292	82,995	-0,045	-0,035
-388,277	96,790	0,070	0,058
-387,263	460,626	0,016	-0,027
-386,248	120,253	0,077	0,070
-385,233	-118,489	-0,095	-0,012
-384,219	800,000	-0,035	0,073
-383,204	800,000	-0,035	-0,097
-382,190	94,834	0,027	-0,022
-381,175	512,905	-0,050	-0,085
-380,160	140,473	0,066	-0,064
-379,146	-180,231	0,052	-0,001
-378,131	581,638	-0,037	0,066
-377,117	-89,562	0,057	-0,012
-376,102	47,363	-0,091	-0,062
-375,088	800,000	0,026	0,068
-374,073	-200,000	-0,003	-0,041
-373,058	800,000	0,014	-0,037
-372,044	-171,807	0,072	-0,002
-371,029	-200,000	0,002	0,128
-370,015	9,534	-0,057	-0,031
-369,000	269,411	-0,071	-0,091
-367,985	-43,494	-0,058	-0,021
-366,971	-200,000	-0,003	0,095
-365,956	145,074	-0,166	0,161
-364,942	116,677	0,010	0,009
-363,927	310,051	0,076	0,104
-362,912	-89,798	0,139	0,029
-361,898	-200,000	0,008	0,061
-360,883	-200,000	0,013	-0,049
-359,869	722,862	0,053	-0,104
-358,854	-65,729	0,045	-0,013
-357,839	66,056	0,085	0,063
-356,825	-99,213	0,131	0,024
-355,810	-22,886	0,112	-0,049
-354,796	-42,738	-0,062	-0,023
-353,781	147,079	0,096	-0,094
-352,766	36,438	-0,097	-0,062
-351,752	-85,078	-0,008	0,002
-350,737	239,277	-0,037	0,045
-349,723	-200,000	-0,020	0,123
-348,708	-200,000	-0,008	-0,034
-347,693	-200,000	-0,015	0,149
-346,679	657,532	-0,036	-0,067
-345,664	-16,299	-0,188	-0,086
-344,650	124,353	0,061	-0,056
-343,635	-59,673	0,070	0,022
-342,620	-200,000	0,025	0,112
-341,606	-76,377	0,078	0,020
-340,591	23,673	-0,145	0,087
-339,577	-43,087	-0,155	0,057
-338,562	-88,906	-0,157	-0,034
-337,548	138,015	-0,038	-0,036
-336,533	244,943	0,019	0,024
-335,518	426,051	0,023	-0,037
-334,504	-200,000	0,004	-0,092
-333,489	2,785	0,041	0,022
-332,475	-131,715	-0,042	-0,004
-331,460	800,000	0,004	0,009
-330,445	47,203	-0,114	-0,077
-329,431	209,511	0,047	-0,054
-328,416	422,224	-0,020	-0,031
-327,402	800,000	0,054	-0,140
-326,387	-200,000	-0,006	-0,070
-325,372	-200,000	0,028	-0,124
-324,358	800,000	0,065	-0,132
-323,343	-110,412	0,032	-0,005
-322,329	-200,000	-0,003	0,169
-321,314	-166,371	0,052	0,002
-320,299	126,573	0,077	0,071
-319,285	428,721	-0,047	-0,074
-318,270	800,000	-0,095	-0,256
-317,256	800,000	0,050	0,105
-316,241	800,000	0,038	0,081
-315,226	139,195	-0,045	0,043
-314,212	-200,000	-0,001	-0,107
-313,197	800,000	-0,070	0,207
-312,183	-86,244	0,073	0,016
-311,168	8,464	-0,071	0,039
-310,153	-200,000	-0,031	-0,174
-309,139	800,000	0,004	-0,011
-308,124	-85,824	0,086	0,019
-307,110	800,000	0,046	0,096
-306,095	84,509	0,107	0,085
-305,080	-200,000	0,008	-0,043
-304,066	299,677	-0,047	0,063
-303,051	179,126	-0,061	-0,065
-302,037	618,009	-0,052	-0,095
-301,022	-146,285	0,009	0,001
-300,008	-200,000	-0,009	0,033
-298,993	-200,000	-0,008	0,152
-297,978	-200,000	0,045	0,216
-296,964	-109,986	-0,165	-0,025
-295,949	457,017	-0,064	-0,103
-294,935	-200,000	-0,031	-0,166
-293,920	-70,588	-0,071	-0,019
-292,905	-94,223	0,117	-0,023
-291,891	-183,699	0,047	-0,001
-290,876	-200,000	0,009	0,094
-289,862	467,976	-0,079	-0,130
-288,847	267,865	-0,066	-0,084
-287,832	-175,986	0,088	-0,002
-286,818	-6,235	-0,092	-0,045
-285,803	-29,315	-0,035	0,015
-284,789	800,000	0,073	-0,171
-283,774	7,841	0,098	0,053
-282,759	75,339	0,034	0,026
-281,745	-200,000	-0,023	0,074
-280,730	800,000	0,020	0,055
-279,716	-200,000	-0,001	0,055
-278,701	-106,098	-0,077	0,012
-277,686	-6,097	0,182	0,090
-276,672	-200,000	-0,000	0,052
-275,657	483,837	-0,037	0,062
-274,643	-200,000	0,023	-0,114
-273,628	-200,000	-0,010	-0,092
-272,613	125,780	-0,038	0,035
-271,599	225,702	0,029	0,034
-270,584	58,725	0,027	-0,019
-269,570	463,876	-0,112	0,182
-268,555	172,166	0,076	-0,079
-267,540	207,672	0,122	0,138
-266,526	-200,000	0,026	-0,086
-265,511	-200,000	-0,056	-0,196
-264,497	-135,227	-0,072	0,006
-263,482	-87,944	0,230	0,050
-262,467	-77,408	-0,080	0,020
-261,453	-200,000	0,000	0,039
-260,438	-200,000	0,002	-0,136
-259,424	119,794	-0,073	-0,066
-258,409	-6,365	-0,102	-0,050
-257,395	685,971	0,049	-0,093
-256,380	-200,000	-0,025	0,081
-255,365	800,000	0,079	0,219
-254,351	-104,075	-0,108	0,018
-253,336	-111,086	0,046	0,007
-252,322	-112,394	-0,097	-0,014
-251,307	800,000	-0,019	-0,041
-250,292	93,720	0,036	0,030
-249,278	-86,563	0,070	0,015
-248,263	-24,528	-0,059	0,025
-247,249	10,113	-0,112	0,062
-246,234	-27,459	0,063	-0,027
-245,219	91,003	-0,057	0,046
-244,205	-4,723	-0,049	-0,025
-243,190	-200,000	-0,008	-0,070
-242,176	800,000	-0,031	-0,076
-241,161	-200,000	-0,030	-0,099
-240,146	-200,000	-0,024	-0,116
-239,132	117,841	-0,037	0,033
-238,117	87,440	0,063	-0,050
-237,103	317,060	-0,068	-0,093
-236,088	-200,000	0,019	0,084
-235,073	14,828	-0,058	0,033
-234,059	-179,448	0,051	0,001
-233,044	-102,362	0,057	0,010
-232,030	-200,000	0,013	0,105
-231,015	-90,038	-0,073	0,015
-230,000	-200,000	0,001	-0,086
-228,986	238,268	-0,048	-0,058
-227,971	-200,000	0,044	0,173
-226,957	-59,599	0,014	0,004
-225,942	57,022	-0,035	-0,025
-224,927	724,796	0,041	-0,079
-223,913	197,845	-0,053	0,058
-222,898	-200,000	-0,019	0,086
-221,884	4,277	-0,086	0,046
-220,869	-166,168	-0,146	0,004
-219,855	800,000	0,035	-0,077
-218,840	-111,092	-0,045	-0,007
-217,825	206,638	0,055	0,062
-216,811	27,401	-0,104	-0,063
-215,796	800,000	-0,039	-0,121
-214,782	19,122	0,091	-0,053
-213,767	603,799	0,063	0,114
-212,752	220,461	-0,031	-0,036
-211,738	409,515	0,109	0,167
-210,723	-200,000	0,000	0,168
-209,709	-200,000	-0,007	-0,108
-208,694	472,945	-0,022	0,036
-207,679	800,000	-0,062	-0,163
-206,665	255,343	0,073	-0,091
-205,650	-101,108	0,030	-0,005
-204,636	100,517	0,059	0,049
-203,621	-136,919	0,127	0,010
-202,606	365,315	-0,128	-0,187
-201,592	-62,955	0,070	-0,021
-200,577	-192,821	0,072	-0,000
-199,563	-51,635	0,067	-0,023
-198,548	780,797	0,054	0,107
-197,533	159,024	0,118	0,118
-196,519	800,000	0,020	0,055
-195,504	-128,766	-0,092	-0,009
-194,490	262,894	0,054	0,068
-193,475	19,439	-0,075	0,044
-192,460	-5,119	0,067	0,033
-191,446	-86,958	0,152	0,033
-190,431	227,041	-0,049	-0,058
-189,417	-200,000	0,026	-0,120
-188,402	40,179	0,124	-0,081
-187,387	-35,269	-0,105	0,041
-186,373	714,866	-0,029	-0,056
-185,358	-200,000	-0,017	0,065
-184,344	124,665	0,133	0,121
-183,329	-37,407	0,143	0,055
-182,315	702,054	-0,026	-0,050
-181,300	-200,000	-0,016	0,079
-180,285	-26,448	-0,103	0,044
-179,271	666,174	-0,039	0,072
-178,256	534,173	-0,034	0,058
-177,242	-134,895	0,152	-0,013
-176,227	170,325	0,114	0,118
-175,212	-110,149	0,047	-0,007
-174,198	21,111	-0,112	-0,065
-173,183	-65,927	-0,048	-0,014
-172,169	-200,000	-0,003	-0,120
-171,154	-96,146	0,150	0,029
-170,139	800,000	-0,038	0,095
-169,125	-200,000	0,034	0,119
-168,110	800,000	0,051	0,127
-167,096	800,000	-0,012	-0,025
-166,081	422,453	0,036	0,056
-165,066	204,050	0,041	-0,046
-164,052	-200,000	-0,005	-0,063
-163,037	-200,000	0,018	-0,100
-162,023	-200,000	0,009	0,058
-161,008	-111,496	0,115	0,017
-159,993	800,000	-0,059	0,128
-158,979	-19,406	-0,122	-0,054
-157,964	800,000	0,036	-0,095
-156,950	-200,000	-0,035	-0,147
-155,935	-200,000	-0,015	0,055
-154,920	173,329	0,083	0,087
-153,906	374,405	-0,072	0,107
-152,891	-200,000	0,005	0,103
-151,877	-200,000	0,032	0,148
-150,862	-65,632	-0,016	0,004
-149,847	-200,000	0,017	-0,105
-148,833	710,222	0,030	0,057
-147,818	800,000	0,050	0,132
-146,804	-162,188	0,057	-0,002
-145,789	-200,000	0,008	-0,075
-144,775	-33,949	-0,138	-0,054
-143,760	58,149	0,067	0,047
-142,745	298,327	0,059	-0,078
-141,731	113,221	0,105	-0,092
-140,716	-83,543	0,052	-0,012
-139,702	-79,498	0,036	0,009
-138,687	81,508	0,080	0,062
-137,672	30,155	0,147	0,090
-136,658	-113,828	-0,098	-0,014
-135,643	68,154	-0,010	-0,008
-134,629	-200,000	-0,015	-0,076
-133,614	-200,000	-0,010	0,062
-132,599	672,967	0,029	0,055
-131,585	149,298	-0,114	0,112
-130,570	89,762	0,041	-0,033
-129,556	-200,000	-0,002	0,100
-128,541	188,435	-0,013	-0,014
-127,526	800,000	0,069	-0,178
-126,512	53,268	0,057	-0,039
-125,497	-71,172	0,123	0,033
-124,483	433,731	-0,058	0,090
-123,468	157,540	0,053	-0,053
-122,453	-180,215	-0,083	0,001
-121,439	736,087	-0,048	-0,093
-120,424	84,184	-0,076	-0,060
-119,410	108,416	-0,116	0,099
