DTS Sentinel unit serial number:	SN410029Multiplexer serial number:	ORYXHardware model number:	OX2-SRSoftware version number:	ORYX F/W v4,00 Oryx Data Collector v3.7.2.0data status	okinstallation	B3 Nyhavnadifferential loss correction	single-endedforward channel	channel 1reverse channel	N/Adate	2023/11/28time	16:07:30forward acquisition time	300,00reverse acquisition time	0,00gamma	499,1914k internal	0,3212k external	0,3212temperature offset calibration	1,0000default loss term (dB/km)	0,3820temperature slope calibration	1,0000multiplexer offset coefficient	1,0000multiplexer slope coefficient	1,0000fibre end	0,00T internal ref (°C)	7,26T ext. ref 1 (°C)	-7,62T ext. ref 2 (°C)	-7,78length (m)	temperature (°C)	Stokes	anti-Stokes-744,400	-200,000	-0,104	-0,383
-743,385	662,425	-0,202	0,379
-742,371	788,068	-0,070	-0,140
-741,356	-200,000	0,046	0,263
-740,342	222,854	-0,224	-0,262
-739,327	-200,000	-0,002	0,267
-738,312	398,694	-0,207	-0,315
-737,298	-200,000	-0,085	0,308
-736,283	165,164	-0,097	-0,099
-735,269	-200,000	0,066	0,287
-734,254	428,611	-0,135	-0,213
-733,239	45,352	-0,200	0,133
-732,225	154,185	-0,205	-0,204
-731,210	51,848	0,138	0,095
-730,196	-200,000	-0,014	0,081
-729,181	-200,000	0,007	0,063
-728,167	75,373	-0,057	-0,044
-727,152	-82,381	-0,155	0,036
-726,137	-58,861	-0,109	-0,034
-725,123	123,967	-0,068	-0,062
-724,108	21,589	-0,089	-0,052
-723,094	800,000	-0,091	-0,195
-722,079	-200,000	-0,004	-0,069
-721,064	-129,850	0,078	-0,008
-720,050	6,037	-0,042	0,023
-719,035	26,783	-0,056	-0,034
-718,021	-14,152	-0,085	0,040
-717,006	650,458	-0,032	-0,060
-715,991	-200,000	-0,023	-0,078
-714,977	800,000	-0,090	-0,213
-713,962	88,490	0,090	0,072
-712,948	245,014	-0,047	0,058
-711,933	-64,994	-0,074	-0,021
-710,918	11,369	-0,160	0,089
-709,904	83,767	-0,115	-0,091
-708,889	-42,461	-0,075	-0,027
-707,875	107,828	0,096	-0,083
-706,860	291,605	0,035	0,047
-705,845	462,866	-0,019	-0,031
-704,831	-65,398	-0,043	0,012
-703,816	-198,917	-0,147	-0,001
-702,802	33,730	0,072	-0,045
-701,787	763,391	0,063	-0,124
-700,772	-200,000	0,043	-0,175
-699,758	230,261	-0,064	-0,076
-698,743	-74,037	0,110	0,029
-697,729	-200,000	0,024	0,163
-696,714	-71,767	0,074	-0,020
-695,699	165,564	-0,040	-0,041
-694,685	-200,000	-0,000	-0,010
-693,670	-200,000	0,030	0,112
-692,656	-200,000	-0,007	0,129
-691,641	-200,000	-0,013	0,072
-690,627	93,520	0,124	-0,101
-689,612	115,607	-0,070	-0,062
-688,597	-200,000	0,011	0,037
-687,583	186,428	0,148	-0,160
-686,568	-56,351	-0,097	0,031
-685,554	800,000	0,051	-0,156
-684,539	-139,301	0,073	-0,006
-683,524	-200,000	-0,014	0,062
-682,510	449,439	0,036	0,057
-681,495	-142,334	-0,057	0,004
-680,481	-200,000	-0,018	-0,061
-679,466	-200,000	0,039	-0,160
-678,451	253,459	0,106	-0,131
-677,437	216,125	-0,098	0,113
-676,422	242,450	0,054	0,065
-675,408	-160,854	0,127	-0,005
-674,393	-107,643	0,049	0,008
-673,378	-200,000	-0,009	-0,104
-672,364	-200,000	0,040	0,134
-671,349	-200,000	0,025	-0,130
-670,335	706,782	0,039	0,075
-669,320	-75,936	0,106	-0,027
-668,305	-27,841	0,068	0,028
-667,291	800,000	-0,061	-0,134
-666,276	-200,000	0,020	0,072
-665,262	95,971	-0,126	-0,104
-664,247	-200,000	-0,006	-0,066
-663,232	29,919	0,055	0,034
-662,218	800,000	0,038	0,084
-661,203	-200,000	0,000	0,023
-660,189	-200,000	0,003	0,071
-659,174	584,422	0,050	0,089
-658,159	-5,009	0,018	0,009
-657,145	-44,258	0,047	-0,017
-656,130	-10,258	-0,052	-0,025
-655,116	151,226	0,003	-0,003
-654,101	433,210	-0,051	0,081
-653,086	-103,293	0,009	0,001
-652,072	800,000	-0,044	0,102
-651,057	751,796	-0,078	-0,153
-650,043	-200,000	-0,032	-0,148
-649,028	145,462	0,031	-0,030
-648,014	158,013	0,072	0,072
-646,999	-42,201	0,039	0,014
-645,984	720,381	0,035	-0,067
-644,970	-200,000	-0,020	0,145
-643,955	-31,220	-0,138	-0,056
-642,941	-44,668	0,145	-0,052
-641,926	108,237	-0,124	0,107
-640,911	-19,081	-0,154	0,069
-639,897	228,209	-0,053	0,062
-638,882	-15,671	0,051	-0,023
-637,868	-200,000	0,033	0,107
-636,853	-171,703	-0,157	0,004
-635,838	-200,000	-0,016	-0,130
-634,824	-153,910	0,081	-0,004
-633,809	432,626	0,045	-0,070
-632,795	-37,283	0,082	-0,031
-631,780	800,000	-0,017	-0,047
-630,765	-200,000	-0,021	-0,217
-629,751	-200,000	0,049	-0,175
-628,736	-71,113	-0,135	-0,036
-627,722	-23,091	0,057	-0,025
-626,707	-99,281	-0,106	0,019
-625,692	-200,000	-0,019	-0,070
-624,678	252,042	-0,057	0,070
-623,663	376,141	-0,026	0,039
-622,649	258,852	-0,035	-0,044
-621,634	693,791	-0,026	-0,049
-620,619	-200,000	0,012	0,049
-619,605	-200,000	-0,006	0,058
-618,590	-146,122	0,073	-0,005
-617,576	-200,000	0,012	0,074
-616,561	348,197	-0,089	-0,126
-615,546	-182,847	-0,063	0,001
-614,532	47,574	0,060	0,040
-613,517	-188,583	-0,129	0,001
-612,503	-200,000	0,013	0,080
-611,488	181,177	-0,040	-0,043
-610,474	-200,000	0,004	-0,061
-609,459	-200,000	-0,005	-0,052
-608,444	-50,260	-0,173	-0,059
-607,430	-10,510	-0,039	-0,019
-606,415	205,468	0,049	0,055
-605,401	800,000	0,062	0,174
-604,386	800,000	-0,062	-0,129
-603,371	-200,000	0,003	0,019
-602,357	-2,479	-0,083	-0,042
-601,342	800,000	-0,070	-0,196
-600,328	-37,415	-0,189	-0,072
-599,313	39,628	-0,100	-0,064
-598,298	-200,000	-0,047	-0,164
-597,284	94,016	0,057	-0,047
-596,269	26,456	-0,066	0,040
-595,255	-88,233	-0,101	0,022
-594,240	-19,372	-0,036	0,016
-593,225	800,000	0,010	0,028
-592,211	1,846	-0,118	-0,061
-591,196	11,996	0,049	0,027
-590,182	-167,383	0,125	0,004
-589,167	417,296	0,020	-0,031
-588,152	579,971	0,058	-0,103
-587,138	31,271	-0,154	0,095
-586,123	506,093	-0,071	0,120
-585,109	184,676	-0,047	-0,050
-584,094	296,091	0,068	-0,090
-583,079	800,000	0,053	0,120
-582,065	8,646	0,139	0,075
-581,050	-200,000	-0,020	-0,115
-580,036	-87,003	-0,060	-0,013
-579,021	-200,000	-0,006	-0,037
-578,006	181,902	0,058	0,062
-576,992	-41,458	0,084	0,031
-575,977	-5,776	0,071	-0,035
-574,963	-200,000	-0,008	0,154
-573,948	800,000	0,038	-0,108
-572,934	158,976	-0,051	0,051
-571,919	-65,849	-0,037	-0,011
-570,904	-200,000	0,001	-0,031
-569,890	-168,779	-0,037	-0,001
-568,875	-5,255	-0,122	-0,060
-567,861	-200,000	-0,046	0,179
-566,846	316,940	0,091	0,124
-565,831	-200,000	-0,014	0,123
-564,817	-200,000	-0,012	-0,156
-563,802	-200,000	0,019	-0,214
-562,788	200,832	0,041	-0,046
-561,773	-200,000	-0,015	0,096
-560,758	-65,069	0,042	-0,012
-559,744	122,473	-0,068	0,062
-558,729	-67,193	-0,173	0,049
-557,715	451,453	0,116	-0,185
-556,700	-23,476	-0,111	-0,048
-555,685	43,016	-0,040	-0,026
-554,671	-101,101	0,151	0,026
-553,656	257,487	0,103	0,127
-552,642	-200,000	0,025	0,201
-551,627	244,421	-0,032	0,039
-550,612	-86,705	0,064	0,014
-549,598	-147,017	-0,048	0,003
-548,583	-38,766	0,019	0,007
-547,569	-119,205	-0,079	-0,010
-546,554	550,784	0,059	0,103
-545,539	20,449	-0,107	-0,062
-544,525	632,818	0,036	-0,065
-543,510	800,000	-0,066	-0,139
-542,496	178,774	-0,029	-0,030
-541,481	-101,041	-0,149	-0,026
-540,466	-200,000	0,005	0,100
-539,452	78,170	0,091	0,070
-538,437	-200,000	-0,010	-0,035
-537,423	-91,258	0,097	0,020
-536,408	-100,430	-0,203	0,036
-535,393	-200,000	0,010	0,095
-534,379	106,460	-0,107	-0,091
-533,364	77,593	-0,075	-0,057
-532,350	-33,955	0,019	0,007
-531,335	-200,000	0,021	0,082
-530,321	-76,904	-0,007	0,002
-529,306	417,309	-0,021	-0,032
-528,291	76,177	-0,130	-0,099
-527,277	-200,000	-0,007	-0,032
-526,262	800,000	-0,015	0,040
-525,248	-118,708	0,173	-0,022
-524,233	411,283	0,092	0,140
-523,218	-200,000	-0,006	0,125
-522,204	-114,129	-0,073	-0,010
-521,189	128,365	0,004	-0,004
-520,175	800,000	0,040	-0,083
-519,160	-200,000	0,031	-0,157
-518,145	-91,945	0,081	-0,016
-517,131	-200,000	0,059	0,213
-516,116	228,073	0,061	0,071
-515,102	-200,000	0,001	0,031
-514,087	-67,048	-0,068	0,019
-513,072	-200,000	-0,011	-0,095
-512,058	800,000	0,024	0,069
-511,043	800,000	0,022	-0,049
-510,029	-200,000	0,030	-0,146
-509,014	-111,485	0,140	-0,020
-507,999	209,107	0,053	0,060
-506,985	86,980	0,102	0,081
-505,970	-49,267	0,180	-0,061
-504,956	24,208	-0,060	0,035
-503,941	-200,000	-0,028	0,113
-502,926	129,921	0,137	0,126
-501,912	-200,000	0,017	0,113
-500,897	-125,922	0,033	-0,003
-499,883	18,399	-0,019	0,011
-498,868	187,640	-0,006	-0,006
-497,853	-200,000	0,014	-0,136
-496,839	-133,257	0,111	-0,010
-495,824	-200,000	0,002	-0,048
-494,810	112,697	0,083	-0,072
-493,795	-99,428	-0,032	-0,006
-492,781	-140,323	-0,073	-0,005
-491,766	-13,960	-0,096	-0,044
-490,751	142,344	0,086	-0,082
-489,737	-127,707	0,039	0,004
-488,722	86,523	0,070	-0,055
-487,708	355,015	-0,047	0,068
-486,693	-124,659	-0,061	-0,007
-485,678	-200,000	-0,002	-0,081
-484,664	-109,410	0,123	-0,018
-483,649	800,000	-0,021	-0,060
-482,635	-17,302	-0,039	-0,018
-481,620	560,237	0,039	-0,069
-480,605	800,000	-0,047	0,107
-479,591	39,396	0,034	-0,022
-478,576	80,035	0,077	-0,059
-477,562	-200,000	-0,010	0,103
-476,547	-81,974	-0,059	0,014
-475,532	-146,369	-0,055	-0,003
-474,518	384,915	-0,075	-0,112
-473,503	265,709	-0,136	0,170
-472,489	-200,000	-0,023	0,139
-471,474	-133,444	-0,136	-0,012
-470,459	26,912	-0,135	-0,081
-469,445	-200,000	0,123	-0,000
-468,430	-200,000	-0,013	0,050
-467,416	-151,527	0,113	-0,006
-466,401	27,642	0,090	-0,054
-465,386	-200,000	-0,002	-0,110
-464,372	-200,000	0,019	-0,093
-463,357	-200,000	-0,024	-0,079
-462,343	540,582	-0,101	-0,174
-461,328	-200,000	0,022	0,080
-460,313	-0,097	0,042	-0,022
-459,299	-143,322	0,104	0,007
-458,284	13,734	-0,086	-0,048
-457,270	-200,000	0,009	-0,071
-456,255	-65,110	-0,141	0,041
-455,241	800,000	0,022	0,064
-454,226	471,361	-0,075	-0,121
-453,211	-126,738	0,187	0,020
-452,197	-200,000	-0,009	0,052
-451,182	4,074	-0,104	-0,054
-450,168	-200,000	-0,000	-0,006
-449,153	81,547	0,076	-0,059
-448,138	174,792	-0,062	-0,065
-447,124	-63,547	-0,122	0,036
-446,109	-143,125	0,063	0,004
-445,095	644,475	0,027	-0,049
-444,080	-200,000	-0,000	0,083
-443,065	393,089	-0,094	0,140
-442,051	130,806	-0,062	-0,057
-441,036	107,029	-0,073	-0,062
-440,022	195,843	-0,083	0,090
-439,007	-102,034	-0,012	-0,002
-437,992	-74,515	0,155	0,040
-436,978	800,000	0,016	0,032
-435,963	-200,000	0,042	0,136
-434,949	397,075	0,043	0,065
-433,934	-28,793	-0,086	-0,035
-432,919	139,716	0,086	-0,081
-431,905	-29,263	-0,097	0,040
-430,890	225,762	0,081	0,094
-429,876	103,018	0,083	-0,069
-428,861	768,663	0,015	-0,029
-427,846	-200,000	0,008	-0,092
-426,832	95,741	-0,030	-0,024
-425,817	701,187	0,045	0,086
-424,803	-33,322	-0,032	0,013
-423,788	-83,168	0,083	-0,019
-422,773	61,729	0,089	0,063
-421,759	218,259	0,043	0,050
-420,744	-200,000	0,011	0,151
-419,730	30,157	-0,055	0,033
-418,715	62,870	0,024	0,017
-417,701	-113,303	-0,028	-0,004
-416,686	272,169	-0,027	0,034
-415,671	800,000	0,005	-0,014
-414,657	-200,000	0,015	-0,089
-413,642	-200,000	0,011	0,071
-412,628	-10,385	0,078	0,037
-411,613	74,842	-0,106	0,080
-410,598	507,907	-0,084	-0,139
-409,584	31,187	0,117	-0,072
-408,569	48,371	-0,084	0,056
-407,555	-200,000	0,008	0,107
-406,540	-19,049	-0,079	0,035
-405,525	408,529	0,043	0,065
-404,511	569,240	-0,068	-0,120
-403,496	95,217	0,030	0,025
-402,482	-200,000	-0,009	-0,061
-401,467	253,066	0,067	0,082
-400,452	-200,000	-0,024	0,125
-399,438	-93,298	-0,062	-0,012
-398,423	-24,687	-0,157	0,067
-397,409	-81,921	0,020	0,005
-396,394	-5,105	0,106	-0,052
-395,379	-148,511	0,105	0,006
-394,365	-200,000	-0,011	0,053
-393,350	800,000	-0,024	0,072
-392,336	-100,255	-0,058	-0,010
-391,321	-200,000	0,002	-0,020
-390,306	-138,365	-0,014	0,001
-389,292	-1,578	-0,080	0,040
-388,277	-25,154	0,032	-0,014
-387,263	-16,977	-0,066	-0,030
-386,248	166,210	-0,073	-0,073
-385,233	-200,000	0,013	-0,126
-384,219	-67,372	-0,109	0,030
-383,204	507,486	-0,019	-0,031
-382,190	746,836	-0,034	-0,066
-381,175	800,000	-0,014	-0,033
-380,160	800,000	-0,038	0,098
-379,146	-200,000	-0,016	0,117
-378,131	-40,819	0,098	-0,036
-377,117	28,646	0,133	0,080
-376,102	800,000	-0,054	-0,156
-375,088	203,214	-0,032	-0,036
-374,073	800,000	-0,030	-0,085
-373,058	800,000	0,043	0,120
-372,044	-200,000	-0,030	-0,101
-371,029	6,314	-0,055	-0,029
-370,015	8,889	0,013	-0,007
-369,000	-102,842	-0,069	-0,012
-367,985	-200,000	-0,003	0,060
-366,971	-9,963	-0,107	-0,050
-365,956	382,915	0,047	0,069
-364,942	-200,000	-0,013	0,072
-363,927	-51,243	0,129	0,043
-362,912	800,000	0,070	-0,155
-361,898	116,318	-0,128	0,112
-360,883	92,527	0,087	-0,070
-359,869	-10,356	-0,109	0,051
-358,854	97,645	0,179	0,147
-357,839	283,207	-0,057	0,074
-356,825	-119,613	-0,056	0,007
-355,810	584,119	-0,053	0,094
-354,796	-200,000	0,006	-0,112
-353,781	148,624	0,092	0,089
-352,766	-87,541	0,131	-0,028
-351,752	81,827	0,084	-0,065
-350,737	97,053	-0,067	0,055
-349,723	-194,674	0,087	0,000
-348,708	-98,919	-0,156	0,028
-347,693	35,043	0,033	0,021
-346,679	-200,000	-0,015	-0,154
-345,664	224,201	0,009	-0,011
-344,650	96,927	0,096	-0,078
-343,635	163,599	0,120	0,121
-342,620	0,635	0,098	0,050
-341,606	-70,254	0,081	0,022
-340,591	-200,000	-0,066	0,000
-339,577	747,425	-0,055	-0,106
-338,562	162,809	-0,041	-0,041
-337,548	-200,000	0,005	-0,115
-336,533	476,294	-0,009	-0,014
-335,518	800,000	0,042	0,125
-334,504	237,444	0,023	0,027
-333,489	-200,000	0,039	0,145
-332,475	800,000	-0,028	0,085
-331,460	-123,092	-0,078	0,009
-330,445	-102,095	0,089	0,015
-329,431	21,356	0,103	0,060
-328,416	-200,000	-0,011	0,078
-327,402	-40,425	-0,096	-0,035
-326,387	102,448	0,043	0,036
-325,372	84,708	-0,053	-0,041
-324,358	-200,000	0,006	-0,131
-323,343	-200,000	-0,002	-0,015
-322,329	193,880	-0,126	-0,137
-321,314	178,138	0,064	-0,066
-320,299	-200,000	-0,028	0,139
-319,285	800,000	0,054	-0,120
-318,270	26,401	0,124	-0,074
-317,256	-200,000	-0,009	0,094
-316,241	-200,000	0,001	0,002
-315,226	42,108	0,035	0,023
-314,212	-42,151	0,021	-0,008
-313,197	-86,669	-0,044	-0,009
-312,183	-200,000	0,011	0,158
-311,168	-157,251	-0,067	0,003
-310,153	-6,892	-0,046	0,022
-309,139	276,127	-0,031	-0,039
-308,124	-104,244	-0,081	-0,013
-307,110	-86,241	0,164	0,036
-306,095	42,423	-0,078	0,051
-305,080	800,000	0,022	-0,056
-304,066	16,116	-0,051	0,029
-303,051	800,000	-0,047	-0,095
-302,037	297,817	-0,049	-0,064
-301,022	-200,000	-0,014	0,072
-300,008	-200,000	0,027	-0,093
-298,993	391,036	0,106	0,158
-297,978	90,889	-0,015	-0,012
-296,964	114,871	-0,071	0,062
-295,949	-84,416	-0,082	0,018
-294,935	-93,278	0,061	-0,012
-293,920	800,000	0,008	-0,023
-292,905	280,722	0,056	0,071
-291,891	128,515	0,073	0,066
-290,876	488,937	0,052	0,084
-289,862	-200,000	0,001	0,043
-288,847	-200,000	0,035	-0,130
-287,832	-200,000	-0,015	-0,077
-286,818	59,259	0,065	0,046
-285,803	-200,000	-0,006	0,045
-284,789	588,412	0,078	0,138
-283,774	247,881	-0,052	0,062
-282,759	-34,652	-0,048	-0,019
-281,745	16,847	-0,121	0,068
-280,730	800,000	-0,072	-0,145
-279,716	-200,000	-0,048	-0,198
-278,701	687,900	0,087	-0,162
-277,686	5,913	0,125	-0,066
-276,672	2,792	0,044	-0,023
-275,657	155,780	0,020	-0,020
-274,643	800,000	-0,047	-0,105
-273,628	800,000	-0,067	-0,177
-272,613	-87,980	-0,051	-0,011
-271,599	4,197	0,050	0,026
-270,584	-167,435	0,076	-0,002
-269,570	185,297	0,033	-0,035
-268,555	251,391	0,046	0,056
-267,540	-74,104	0,089	-0,023
-266,526	73,255	-0,176	-0,131
-265,511	-200,000	0,025	0,201
-264,497	-200,000	0,014	-0,167
-263,482	-200,000	-0,000	-0,111
-262,467	-200,000	-0,001	0,042
-261,453	800,000	0,044	0,118
-260,438	246,571	0,030	0,036
-259,424	-73,587	0,053	0,014
-258,409	212,390	0,025	-0,028
-257,395	-152,882	0,091	0,005
-256,380	-85,177	0,131	0,029
-255,365	42,716	-0,066	0,043
-254,351	-113,817	-0,101	-0,014
-253,336	-151,196	-0,078	0,004
-252,322	-200,000	-0,016	-0,052
-251,307	-200,000	-0,024	-0,145
-250,292	-169,592	0,032	-0,001
-249,278	434,202	-0,027	0,041
-248,263	274,733	-0,060	-0,075
-247,249	-20,771	-0,020	0,009
-246,234	-57,419	-0,023	0,007
-245,219	-200,000	0,011	0,076
-244,205	51,499	-0,087	0,059
-243,190	-24,917	0,090	0,038
-242,176	-7,774	0,072	-0,035
-241,161	-124,052	0,039	0,004
-240,146	-200,000	0,010	0,131
-239,132	-48,742	0,048	-0,016
-238,117	192,068	-0,035	-0,038
-237,103	-200,000	0,002	-0,021
-236,088	-101,283	-0,113	0,019
-235,073	-47,335	-0,078	0,027
-234,059	-140,499	0,118	-0,009
-233,044	-200,000	-0,014	0,124
-232,030	91,397	0,081	-0,065
-231,015	-73,967	-0,158	-0,041
-230,000	751,808	0,025	-0,048
-228,986	27,815	-0,099	-0,059
-227,971	-200,000	-0,016	-0,052
-226,957	-88,622	0,110	-0,023
-225,942	-200,000	0,004	0,066
-224,927	185,308	0,074	0,078
-223,913	-200,000	-0,007	0,072
-222,898	-200,000	-0,006	-0,057
-221,884	-200,000	0,022	-0,087
-220,869	-200,000	0,008	0,233
-219,855	-200,000	-0,044	0,168
-218,840	-200,000	-0,014	0,092
-217,825	-166,933	0,078	-0,002
-216,811	25,735	0,020	0,012
-215,796	31,082	-0,104	0,063
-214,782	-98,398	0,110	0,020
-213,767	19,622	0,053	-0,030
-212,752	541,411	0,033	-0,057
-211,738	714,747	0,025	0,047
-210,723	320,747	0,019	-0,026
-209,709	553,928	-0,037	-0,064
-208,694	23,074	-0,075	0,044
-207,679	244,655	-0,029	-0,034
-206,665	112,807	0,075	-0,064
-205,650	-88,413	0,153	0,032
-204,636	243,141	-0,048	-0,058
-203,621	-88,178	-0,042	-0,009
-202,606	563,560	0,044	-0,075
-201,592	653,791	-0,014	-0,025
-200,577	-102,662	-0,018	-0,003
-199,563	-200,000	0,012	0,111
-198,548	-200,000	-0,069	0,236
-197,533	-55,356	-0,008	0,002
-196,519	391,741	0,039	-0,058
-195,504	20,259	-0,080	-0,046
-194,490	85,852	-0,046	0,036
-193,475	184,849	0,039	-0,041
-192,460	-130,785	-0,062	0,006
-191,446	146,174	0,063	0,060
-190,431	-200,000	0,048	0,176
-189,417	-44,803	0,118	-0,041
-188,402	-13,519	-0,056	0,026
-187,387	-200,000	-0,004	-0,068
-186,373	-200,000	-0,035	-0,131
-185,358	-200,000	0,010	-0,138
-184,344	92,733	0,072	-0,057
-183,329	-200,000	-0,005	-0,023
-182,315	197,141	0,042	-0,046
-181,300	155,368	0,018	0,017
-180,285	81,092	0,117	-0,090
-179,271	-200,000	0,012	-0,043
-178,256	800,000	-0,011	0,031
-177,242	253,889	0,100	-0,121
-176,227	233,655	0,129	0,151
-175,212	-33,771	-0,139	0,054
-174,198	-200,000	0,020	-0,070
-173,183	800,000	-0,027	-0,065
-172,169	800,000	0,046	0,097
-171,154	-134,165	-0,059	0,005
-170,139	144,084	0,074	0,070
-169,125	521,587	0,059	0,099
-168,110	56,021	0,097	0,066
-167,096	-200,000	0,047	0,174
-166,081	800,000	-0,019	-0,053
-165,066	-74,289	-0,081	-0,021
-164,052	411,034	-0,029	-0,044
-163,037	172,775	0,006	0,006
-162,023	108,043	-0,067	-0,057
-161,008	148,524	0,030	-0,028
-159,993	-200,000	-0,008	-0,110
-158,979	800,000	-0,062	-0,139
-157,964	-92,435	-0,097	-0,019
-156,950	-99,998	0,181	-0,032
-155,935	313,115	-0,050	0,067
-154,920	110,144	0,069	0,059
-153,906	217,419	0,108	0,122
-152,891	800,000	0,034	0,097
-151,877	212,391	0,106	-0,119
-150,862	-200,000	-0,003	-0,012
-149,847	-200,000	0,010	0,110
-148,833	139,606	0,042	0,039
-147,818	67,704	0,035	0,025
-146,804	-1,126	0,076	0,038
-145,789	-200,000	0,028	0,110
-144,775	-200,000	0,006	-0,023
-143,760	-116,019	-0,132	0,017
-142,745	-157,623	-0,046	-0,002
-141,731	-28,033	-0,114	0,046
-140,716	-200,000	0,008	0,080
-139,702	98,195	-0,023	-0,019
-138,687	-49,092	-0,043	-0,014
-137,672	89,775	-0,066	-0,052
-136,658	26,323	-0,086	-0,051
-135,643	243,640	-0,100	-0,119
-134,629	800,000	-0,023	-0,058
-133,614	278,065	0,060	0,076
-132,599	-111,019	0,027	0,004
-131,585	-71,682	0,089	-0,023
-130,570	800,000	-0,034	0,068
-129,556	-200,000	0,014	-0,098
-128,541	800,000	0,048	-0,129
-127,526	-87,457	0,141	-0,030
-126,512	631,820	-0,031	0,056
-125,497	-200,000	0,020	0,070
-124,483	-200,000	-0,021	0,147
-123,468	166,606	-0,069	0,070
-122,453	-86,093	-0,094	-0,020
-121,439	490,965	-0,039	-0,063
-120,424	-67,772	-0,120	-0,033
