DTS Sentinel unit serial number:	SN410029Multiplexer serial number:	ORYXHardware model number:	OX2-SRSoftware version number:	ORYX F/W v4,00 Oryx Data Collector v3.7.2.0data status	okinstallation	B3 Nyhavnadifferential loss correction	single-endedforward channel	channel 1reverse channel	N/Adate	2023/11/28time	11:12:30forward acquisition time	300,00reverse acquisition time	0,00gamma	499,1914k internal	0,3153k external	0,3153temperature offset calibration	1,0000default loss term (dB/km)	0,3820temperature slope calibration	1,0000multiplexer offset coefficient	1,0000multiplexer slope coefficient	1,0000fibre end	0,00T internal ref (°C)	9,38T ext. ref 1 (°C)	-7,33T ext. ref 2 (°C)	-7,55length (m)	temperature (°C)	Stokes	anti-Stokes-744,400	488,925	-0,199	-0,337
-743,385	-200,000	-0,039	0,288
-742,371	-200,000	-0,028	-0,201
-741,356	-200,000	0,043	0,299
-740,342	616,212	-0,077	-0,142
-739,327	-200,000	-0,033	0,342
-738,312	495,604	-0,158	-0,269
-737,298	356,994	-0,108	0,159
-736,283	800,000	-0,138	-0,289
-735,269	800,000	-0,114	0,269
-734,254	179,454	-0,251	-0,272
-733,239	-13,789	-0,273	0,130
-732,225	-200,000	0,022	-0,210
-731,210	673,769	0,093	0,180
-730,196	-39,520	-0,070	0,027
-729,181	493,107	-0,047	-0,080
-728,167	-200,000	0,004	-0,177
-727,152	342,399	-0,029	0,042
-726,137	-0,620	-0,029	0,015
-725,123	-33,622	-0,159	-0,065
-724,108	-200,000	-0,017	-0,102
-723,094	800,000	-0,036	-0,081
-722,079	-41,168	-0,036	0,014
-721,064	43,148	-0,037	0,025
-720,050	-59,224	0,084	0,027
-719,035	-106,177	-0,014	0,002
-718,021	412,470	-0,077	-0,121
-717,006	-135,498	0,138	0,012
-715,991	123,493	-0,158	-0,147
-714,977	-54,487	-0,154	-0,051
-713,962	-200,000	0,005	0,068
-712,948	-90,594	-0,095	-0,020
-711,933	-40,032	0,043	-0,016
-710,918	-29,530	-0,035	0,015
-709,904	-200,000	-0,009	-0,094
-708,889	212,761	-0,132	-0,154
-707,875	629,026	0,039	-0,072
-706,860	-10,882	-0,047	0,023
-705,845	36,494	0,081	-0,053
-704,831	298,384	0,065	-0,088
-703,816	-94,500	-0,126	-0,025
-702,802	106,489	-0,101	-0,088
-701,787	-200,000	0,014	-0,161
-700,772	-58,101	0,065	-0,021
-699,758	695,544	0,053	0,103
-698,743	22,182	0,055	0,033
-697,729	621,526	-0,113	0,211
-696,714	75,274	-0,049	-0,038
-695,699	-82,506	-0,130	0,031
-694,685	-55,586	0,015	-0,005
-693,670	800,000	-0,056	-0,130
-692,656	800,000	0,016	-0,036
-691,641	800,000	0,068	0,164
-690,627	-200,000	-0,045	0,176
-689,612	-157,305	0,047	0,002
-688,597	-200,000	-0,006	0,039
-687,583	41,097	-0,077	0,051
-686,568	290,036	-0,067	0,089
-685,554	196,710	-0,088	0,099
-684,539	-163,299	0,140	0,005
-683,524	-200,000	0,024	0,134
-682,510	-200,000	-0,013	0,061
-681,495	800,000	-0,052	-0,110
-680,481	800,000	0,023	-0,048
-679,466	-77,619	-0,177	-0,045
-678,451	104,353	0,043	-0,037
-677,437	69,361	-0,021	-0,016
-676,422	-200,000	-0,007	-0,081
-675,408	205,902	-0,010	0,011
-674,393	-95,650	0,083	0,016
-673,378	275,188	-0,081	0,106
-672,364	-200,000	0,032	-0,143
-671,349	800,000	0,024	0,073
-670,335	482,539	-0,063	0,106
-669,320	-68,662	0,033	0,009
-668,305	800,000	-0,025	0,077
-667,291	127,715	-0,109	-0,102
-666,276	36,304	0,125	-0,081
-665,262	27,342	0,043	-0,027
-664,247	60,286	-0,075	-0,055
-663,232	-50,838	0,097	0,033
-662,218	-44,723	0,109	0,040
-661,203	103,259	0,060	0,052
-660,189	236,760	-0,031	0,037
-659,174	800,000	0,025	-0,063
-658,159	-200,000	-0,008	-0,043
-657,145	800,000	-0,050	-0,106
-656,130	162,217	-0,065	0,067
-655,116	-200,000	-0,010	0,124
-654,101	-200,000	-0,019	-0,110
-653,086	184,022	0,050	0,055
-652,072	-44,557	0,096	0,035
-651,057	-200,000	0,017	-0,099
-650,043	-200,000	0,016	-0,091
-649,028	240,511	0,023	0,029
-648,014	571,918	0,059	0,107
-646,999	-200,000	0,021	0,138
-645,984	-78,650	-0,051	-0,013
-644,970	-153,239	-0,090	0,005
-643,955	-200,000	0,015	-0,180
-642,941	800,000	-0,049	-0,157
-641,926	-27,224	0,071	0,030
-640,911	-95,235	0,129	-0,025
-639,897	-55,581	-0,140	-0,046
-638,882	-200,000	-0,004	0,020
-637,868	99,137	-0,150	-0,128
-636,853	76,558	-0,105	-0,082
-635,838	163,129	-0,104	-0,107
-634,824	-109,162	-0,085	0,013
-633,809	232,437	0,024	-0,029
-632,795	800,000	-0,058	-0,130
-631,780	323,256	0,011	0,016
-630,765	-117,445	0,030	-0,004
-629,751	240,129	-0,046	-0,057
-628,736	800,000	0,049	-0,101
-627,722	-130,289	0,027	0,003
-626,707	-13,991	0,080	0,038
-625,692	63,454	-0,122	0,090
-624,678	172,830	-0,104	-0,110
-623,663	41,843	-0,057	0,038
-622,649	541,227	-0,047	-0,083
-621,634	565,776	0,027	0,049
-620,619	-124,115	-0,057	-0,006
-619,605	-75,268	-0,122	-0,032
-618,590	-89,094	0,070	-0,015
-617,576	-81,651	0,083	0,020
-616,561	800,000	0,063	-0,150
-615,546	-96,950	-0,019	-0,004
-614,532	800,000	0,045	-0,111
-613,517	-44,231	0,036	-0,013
-612,503	-32,727	0,060	-0,024
-611,488	800,000	0,065	0,134
-610,474	-200,000	0,001	0,040
-609,459	103,248	0,093	0,080
-608,444	123,717	0,067	0,061
-607,430	-3,756	0,069	-0,035
-606,415	-99,349	-0,037	0,007
-605,401	124,861	-0,022	-0,021
-604,386	-124,572	0,030	0,003
-603,371	-56,560	0,115	-0,037
-602,357	91,128	0,099	-0,081
-601,342	56,798	0,172	-0,123
-600,328	129,182	-0,072	-0,068
-599,313	202,084	-0,100	-0,113
-598,298	-200,000	0,024	0,113
-597,284	-200,000	0,026	0,144
-596,269	161,750	0,026	0,026
-595,255	286,965	-0,062	-0,082
-594,240	-200,000	-0,018	-0,088
-593,225	800,000	-0,065	-0,204
-592,211	75,997	-0,102	-0,079
-591,196	59,395	-0,092	0,066
-590,182	379,838	-0,051	0,076
-589,167	-159,420	0,075	0,003
-588,152	-200,000	-0,002	0,192
-587,138	-200,000	-0,008	-0,086
-586,123	159,514	0,037	-0,038
-585,109	548,433	-0,007	-0,013
-584,094	-106,402	-0,072	-0,012
-583,079	-77,360	0,141	0,036
-582,065	235,135	-0,077	0,094
-581,050	115,154	0,031	-0,028
-580,036	-176,109	0,051	-0,001
-579,021	93,354	-0,085	0,071
-578,006	173,237	0,065	-0,069
-576,992	-200,000	0,017	-0,089
-575,977	-67,586	0,082	-0,023
-574,963	800,000	-0,023	0,074
-573,948	-200,000	0,001	0,093
-572,934	458,341	-0,035	-0,057
-571,919	-200,000	0,019	-0,068
-570,904	123,839	-0,082	-0,076
-569,890	-200,000	-0,025	0,093
-568,875	-84,517	-0,050	-0,012
-567,861	-200,000	0,014	-0,112
-566,846	-44,261	0,057	0,021
-565,831	101,639	0,080	-0,068
-564,817	-94,447	0,082	-0,016
-563,802	800,000	0,033	-0,105
-562,788	137,116	-0,046	-0,044
-561,773	-197,754	0,072	-0,000
-560,758	395,351	0,056	0,086
-559,744	-200,000	-0,010	0,240
-558,729	199,800	0,060	0,068
-557,715	253,569	0,087	-0,109
-556,700	127,777	0,052	0,048
-555,685	800,000	-0,019	0,051
-554,671	-200,000	0,031	0,141
-553,656	-70,367	0,079	0,022
-552,642	76,645	0,027	-0,021
-551,627	-200,000	0,022	-0,111
-550,612	39,212	0,076	-0,050
-549,598	225,289	0,016	-0,019
-548,583	-58,392	-0,163	0,051
-547,569	-200,000	-0,035	0,135
-546,554	-1,313	-0,137	-0,071
-545,539	-117,028	0,101	0,013
-544,525	203,401	-0,072	-0,081
-543,510	29,004	-0,113	-0,070
-542,496	-138,206	-0,099	-0,008
-541,481	140,313	-0,104	-0,101
-540,466	157,203	0,042	0,042
-539,452	800,000	-0,083	-0,171
-538,437	119,530	-0,031	0,028
-537,423	-200,000	-0,009	0,059
-536,408	349,467	-0,064	0,093
-535,393	28,952	-0,070	0,044
-534,379	39,112	0,038	-0,025
-533,364	517,165	0,012	-0,021
-532,350	-141,470	-0,059	0,004
-531,335	-176,522	-0,081	-0,001
-530,321	-73,763	0,073	0,019
-529,306	-26,393	-0,127	0,054
-528,291	-200,000	-0,042	0,140
-527,277	32,182	-0,020	0,012
-526,262	417,363	-0,047	-0,073
-525,248	800,000	-0,044	-0,107
-524,233	-40,523	0,060	0,023
-523,218	-200,000	-0,020	0,169
-522,204	-200,000	-0,004	0,028
-521,189	184,051	-0,148	-0,161
-520,175	37,799	0,096	0,063
-519,160	-82,438	0,038	-0,009
-518,145	-200,000	-0,021	0,081
-517,131	-95,487	0,163	0,032
-516,116	48,094	-0,187	0,128
-515,102	-123,869	-0,029	-0,003
-514,087	-200,000	0,020	-0,148
-513,072	236,007	0,071	0,086
-512,058	-200,000	-0,029	0,180
-511,043	262,562	0,036	0,046
-510,029	-143,380	0,116	-0,008
-509,014	-50,826	-0,196	0,067
-507,999	-141,267	-0,044	0,003
-506,985	58,071	0,073	-0,052
-505,970	-22,669	-0,137	0,060
-504,956	-60,064	0,112	0,035
-503,941	-183,317	0,103	0,001
-502,926	-200,000	-0,013	0,046
-501,912	-143,522	-0,075	0,005
-500,897	-49,506	-0,092	0,032
-499,883	-57,067	-0,042	-0,014
-498,868	-200,000	0,029	0,108
-497,853	643,955	-0,035	-0,065
-496,839	-122,858	0,044	0,005
-495,824	19,398	-0,126	-0,074
-494,810	598,804	0,030	0,055
-493,795	-200,000	0,019	0,085
-492,781	-119,473	-0,079	-0,010
-491,766	-200,000	0,001	0,128
-490,751	-42,307	0,104	-0,039
-489,737	-200,000	-0,006	-0,141
-488,722	800,000	0,048	-0,140
-487,708	-200,000	0,004	0,264
-486,693	800,000	0,022	0,063
-485,678	86,992	-0,118	-0,095
-484,664	-2,732	0,088	-0,045
-483,649	440,139	-0,049	0,078
-482,635	800,000	-0,044	-0,107
-481,620	-200,000	0,014	-0,061
-480,605	-11,868	0,149	0,071
-479,591	800,000	0,044	-0,121
-478,576	-0,306	-0,100	-0,052
-477,562	-53,387	-0,060	0,020
-476,547	-200,000	0,019	-0,135
-475,532	335,846	-0,010	0,014
-474,518	769,434	-0,037	-0,073
-473,503	-125,168	0,078	-0,009
-472,489	-200,000	-0,003	0,068
-471,474	0,377	0,082	0,042
-470,459	3,097	-0,051	0,027
-469,445	-200,000	0,035	-0,139
-468,430	125,605	0,016	0,014
-467,416	303,708	-0,004	-0,005
-466,401	-110,896	0,036	0,005
-465,386	-200,000	-0,019	0,170
-464,372	400,644	0,008	0,012
-463,357	455,298	0,046	-0,075
-462,343	96,557	-0,081	-0,068
-461,328	67,826	0,052	-0,039
-460,313	-162,150	-0,051	-0,002
-459,299	318,155	-0,113	0,157
-458,284	-200,000	0,013	0,062
-457,270	-146,535	0,045	-0,003
-456,255	-200,000	0,009	-0,125
-455,241	-102,133	-0,159	-0,028
-454,226	800,000	0,024	-0,050
-453,211	-200,000	-0,011	0,103
-452,197	-75,782	0,144	0,037
-451,182	63,919	0,113	0,083
-450,168	-200,000	-0,004	-0,074
-449,153	109,531	-0,056	0,049
-448,138	293,027	0,032	0,043
-447,124	124,874	-0,033	0,030
-446,109	-200,000	-0,006	-0,046
-445,095	800,000	-0,003	-0,007
-444,080	596,534	-0,002	0,004
-443,065	-200,000	0,007	-0,122
-442,051	-66,284	-0,076	0,022
-441,036	800,000	-0,035	-0,079
-440,022	19,401	-0,047	-0,027
-439,007	-60,547	0,119	-0,037
-437,992	-111,811	0,013	0,002
-436,978	800,000	0,019	0,046
-435,963	-59,461	-0,098	0,030
-434,949	636,736	-0,023	0,044
-433,934	-46,052	-0,034	-0,012
-432,919	800,000	-0,022	-0,047
-431,905	-200,000	-0,007	0,039
-430,890	-101,293	0,098	0,017
-429,876	496,151	0,033	-0,055
-428,861	59,278	-0,049	0,035
-427,846	122,845	0,091	-0,083
-426,832	-16,697	-0,071	-0,033
-425,817	460,740	0,046	-0,076
-424,803	175,358	-0,094	-0,100
-423,788	210,367	0,049	0,056
-422,773	-118,872	0,194	0,025
-421,759	-200,000	-0,004	0,098
-420,744	-92,873	-0,056	0,011
-419,730	-200,000	-0,011	-0,045
-418,715	-200,000	0,015	-0,049
-417,701	67,192	0,082	-0,061
-416,686	-200,000	-0,000	-0,055
-415,671	-32,777	-0,038	-0,015
-414,657	433,198	0,045	0,071
-413,642	611,387	0,046	-0,085
-412,628	453,923	0,032	0,052
-411,613	800,000	-0,047	0,095
-410,598	800,000	0,044	0,090
-409,584	96,547	0,097	-0,081
-408,569	164,869	0,089	0,092
-407,555	800,000	0,014	0,040
-406,540	292,397	0,052	0,070
-405,525	195,008	-0,097	0,107
-404,511	70,992	-0,050	-0,038
-403,496	-89,616	0,060	0,013
-402,482	-200,000	0,001	-0,103
-401,467	269,600	0,092	0,118
-400,452	-200,000	0,014	0,079
-399,438	37,299	0,082	-0,053
-398,423	107,893	0,050	-0,044
-397,409	-59,261	-0,232	-0,072
-396,394	-200,000	0,040	-0,135
-395,379	578,682	-0,027	-0,048
-394,365	-200,000	0,000	0,009
-393,350	800,000	-0,036	0,080
-392,336	-200,000	-0,001	-0,020
-391,321	70,612	-0,016	0,012
-390,306	800,000	-0,028	0,069
-389,292	-200,000	0,004	0,111
-388,277	-59,402	-0,100	0,031
-387,263	-200,000	-0,004	0,109
-386,248	128,329	-0,097	0,090
-385,233	588,871	0,074	0,134
-384,219	419,918	0,015	-0,023
-383,204	-56,020	-0,054	-0,017
-382,190	-200,000	-0,007	-0,127
-381,175	-95,011	0,056	-0,011
-380,160	-6,011	0,092	0,046
-379,146	800,000	-0,039	0,086
-378,131	-13,955	0,177	0,083
-377,117	-200,000	-0,007	-0,028
-376,102	550,295	-0,040	0,070
-375,088	800,000	-0,026	0,083
-374,073	800,000	-0,054	-0,111
-373,058	742,956	0,024	0,047
-372,044	-200,000	-0,023	0,100
-371,029	800,000	0,050	0,137
-370,015	-129,328	0,135	-0,014
-369,000	-200,000	0,018	-0,155
-367,985	5,480	-0,051	-0,027
-366,971	29,469	-0,049	-0,030
-365,956	-64,101	0,070	-0,021
-364,942	-200,000	0,028	0,112
-363,927	322,598	0,094	0,130
-362,912	159,545	0,061	-0,062
-361,898	49,889	-0,068	-0,046
-360,883	18,623	-0,107	0,062
-359,869	4,704	-0,075	0,040
-358,854	-200,000	0,000	-0,047
-357,839	427,079	-0,034	-0,053
-356,825	-11,231	0,089	0,042
-355,810	222,478	-0,070	-0,083
-354,796	-20,263	0,044	0,020
-353,781	765,167	0,008	0,016
-352,766	-200,000	-0,009	-0,238
-351,752	-128,969	0,120	-0,012
-350,737	9,580	0,089	0,049
-349,723	800,000	-0,013	-0,029
-348,708	310,024	-0,056	-0,077
-347,693	226,554	0,064	0,075
-346,679	255,989	-0,066	-0,083
-345,664	-200,000	0,053	-0,175
-344,650	-157,646	-0,074	0,003
-343,635	66,755	0,071	-0,053
-342,620	800,000	0,017	0,039
-341,606	-73,659	0,166	0,044
-340,591	752,291	-0,029	-0,057
-339,577	-200,000	-0,009	0,033
-338,562	-200,000	-0,029	0,174
-337,548	-137,494	-0,099	-0,008
-336,533	2,352	0,043	-0,023
-335,518	56,336	0,061	-0,043
-334,504	-100,371	0,141	0,025
-333,489	-94,786	0,051	0,010
-332,475	-200,000	-0,023	-0,147
-331,460	-200,000	-0,007	-0,104
-330,445	143,282	0,060	0,058
-329,431	331,776	0,019	0,027
-328,416	800,000	-0,043	0,111
-327,402	28,770	0,026	-0,016
-326,387	761,949	0,054	-0,106
-325,372	-106,604	-0,030	-0,005
-324,358	-200,000	-0,019	0,071
-323,343	-200,000	-0,014	-0,099
-322,329	-200,000	0,000	-0,053
-321,314	-109,802	0,172	-0,026
-320,299	554,404	-0,044	-0,077
-319,285	96,020	0,078	-0,065
-318,270	531,907	0,054	-0,094
-317,256	49,597	0,050	-0,034
-316,241	139,099	-0,031	-0,029
-315,226	-200,000	-0,021	-0,136
-314,212	-200,000	-0,044	0,143
-313,197	-200,000	0,003	-0,052
-312,183	546,569	0,105	0,183
-311,168	168,424	0,026	0,027
-310,153	-192,097	0,066	0,000
-309,139	155,930	-0,047	-0,047
-308,124	75,857	0,102	-0,078
-307,110	-200,000	-0,004	0,110
-306,095	-6,027	-0,024	0,012
-305,080	-26,755	0,110	-0,047
-304,066	-25,463	-0,134	0,057
-303,051	562,854	0,027	0,048
-302,037	-17,428	-0,099	0,045
-301,022	-200,000	0,001	-0,083
-300,008	77,395	0,075	0,058
-298,993	340,763	0,053	-0,075
-297,978	-33,837	0,034	-0,014
-296,964	31,812	0,073	-0,045
-295,949	-28,197	-0,141	-0,059
-294,935	193,596	0,097	0,107
-293,920	-200,000	0,004	0,098
-292,905	68,138	0,073	0,055
-291,891	-46,274	-0,038	0,014
-290,876	-9,506	-0,019	-0,009
-289,862	98,471	-0,080	0,067
-288,847	-200,000	0,005	-0,039
-287,832	-153,093	0,064	-0,003
-286,818	-113,221	-0,125	0,018
-285,803	-32,184	0,086	-0,035
-284,789	-165,711	-0,052	0,002
-283,774	4,885	0,080	0,042
-282,759	17,826	0,085	-0,049
-281,745	-67,996	-0,121	-0,034
-280,730	698,923	-0,122	-0,233
-279,716	-104,899	-0,074	0,012
-278,701	-200,000	-0,001	-0,060
-277,686	800,000	0,033	0,086
-276,672	113,761	-0,035	0,031
-275,657	-200,000	-0,003	-0,044
-274,643	521,741	-0,026	-0,044
-273,628	250,147	0,054	-0,067
-272,613	-200,000	-0,032	0,136
-271,599	-44,562	0,057	-0,021
-270,584	800,000	0,055	0,163
-269,570	-74,114	0,069	0,018
-268,555	-56,852	-0,099	-0,031
-267,540	146,946	-0,038	-0,037
-266,526	-200,000	0,009	-0,139
-265,511	-36,060	0,047	-0,018
-264,497	258,291	0,109	0,136
-263,482	443,456	-0,055	0,088
-262,467	64,963	0,085	0,062
-261,453	-35,629	-0,050	0,020
-260,438	800,000	0,023	0,058
-259,424	114,799	-0,050	-0,044
-258,409	279,308	-0,049	-0,063
-257,395	109,354	0,036	0,031
-256,380	-26,082	0,013	-0,006
-255,365	-92,127	0,179	0,036
-254,351	-200,000	-0,028	-0,096
-253,336	-67,848	-0,059	0,017
-252,322	166,139	-0,063	0,064
-251,307	-41,779	-0,026	-0,009
-250,292	-15,379	0,112	0,052
-249,278	-200,000	-0,010	0,132
-248,263	-97,916	-0,110	0,020
-247,249	800,000	0,046	0,094
-246,234	15,917	-0,078	-0,044
-245,219	-83,530	-0,140	0,032
-244,205	-48,583	0,016	-0,006
-243,190	-200,000	0,009	0,087
-242,176	-98,524	0,085	-0,016
-241,161	202,859	0,075	-0,084
-240,146	35,999	-0,152	-0,097
-239,132	95,106	-0,046	0,038
-238,117	-19,977	-0,178	0,079
-237,103	220,634	0,055	-0,064
-236,088	-84,673	0,009	-0,002
-235,073	-200,000	0,005	0,052
-234,059	-103,665	0,067	-0,011
-233,044	-12,411	0,038	-0,018
-232,030	-133,626	-0,124	0,011
-231,015	-68,341	0,112	0,031
-230,000	-110,873	-0,077	0,011
-228,986	-38,276	0,088	0,033
-227,971	-200,000	-0,042	0,135
-226,957	-79,109	-0,098	0,024
-225,942	-22,670	0,152	0,066
-224,927	479,862	-0,012	0,020
-223,913	-126,127	-0,056	-0,006
-222,898	2,878	-0,163	-0,085
-221,884	241,486	0,060	-0,073
-220,869	23,433	0,014	0,009
-219,855	-200,000	0,002	0,047
-218,840	-91,712	-0,136	-0,028
-217,825	-200,000	0,028	0,091
-216,811	-68,425	-0,035	0,010
-215,796	800,000	-0,042	-0,112
-214,782	-110,748	-0,113	-0,017
-213,767	-200,000	0,020	0,213
-212,752	-77,556	0,108	-0,027
-211,738	800,000	-0,022	0,060
-210,723	-200,000	0,009	-0,075
-209,709	395,066	-0,040	0,060
-208,694	191,944	-0,059	-0,065
-207,679	800,000	0,034	-0,095
-206,665	800,000	-0,037	0,093
-205,650	-46,098	0,182	-0,065
-204,636	-200,000	-0,001	0,058
-203,621	138,522	-0,056	-0,053
-202,606	-72,881	-0,065	-0,017
-201,592	100,284	-0,144	-0,121
-200,577	-143,139	-0,089	-0,006
-199,563	87,041	0,102	-0,081
-198,548	-138,989	0,102	0,008
-197,533	-200,000	-0,015	0,076
-196,519	636,804	-0,042	0,078
-195,504	-169,422	0,092	-0,002
-194,490	151,938	-0,099	-0,098
-193,475	-139,576	-0,099	0,008
-192,460	-113,078	0,099	-0,014
-191,446	-74,054	0,046	0,012
-190,431	-2,269	-0,068	0,034
-189,417	800,000	0,009	0,027
-188,402	-200,000	-0,003	-0,099
-187,387	-171,337	-0,160	-0,004
-186,373	159,791	-0,096	-0,096
-185,358	-200,000	-0,001	0,052
-184,344	-97,546	0,082	-0,015
-183,329	354,612	0,035	-0,050
-182,315	-81,603	-0,128	-0,030
-181,300	-89,775	0,025	-0,005
-180,285	371,608	0,042	0,061
-179,271	-200,000	0,049	-0,182
-178,256	22,581	0,092	0,054
-177,242	800,000	-0,022	-0,063
-176,227	800,000	0,049	0,147
-175,212	-200,000	-0,004	-0,039
-174,198	-99,066	-0,064	0,012
-173,183	248,780	0,076	0,093
-172,169	-107,685	-0,114	0,018
-171,154	-200,000	-0,002	-0,090
-170,139	121,927	0,053	0,047
-169,125	-200,000	0,007	0,027
-168,110	-200,000	0,000	0,090
-167,096	109,457	-0,071	0,061
-166,081	800,000	0,034	-0,084
-165,066	52,593	-0,052	-0,036
-164,052	-66,623	-0,025	0,007
-163,037	304,261	-0,085	0,114
-162,023	-77,119	0,081	-0,020
-161,008	-55,923	0,085	-0,027
-159,993	138,230	-0,091	-0,086
-158,979	-200,000	-0,010	0,065
-157,964	279,423	0,100	-0,130
-156,950	23,447	-0,049	-0,029
-155,935	-200,000	0,009	0,093
-154,920	537,369	0,084	0,144
-153,906	60,337	0,074	0,053
-152,891	89,199	-0,074	0,059
-151,877	276,398	-0,057	-0,073
-150,862	800,000	-0,027	-0,059
-149,847	-200,000	0,009	0,067
-148,833	-200,000	-0,034	0,254
-147,818	-200,000	0,044	0,212
-146,804	800,000	0,017	-0,038
-145,789	-70,947	0,103	-0,028
-144,775	656,635	0,099	-0,184
-143,760	-115,247	-0,085	-0,011
-142,745	41,198	-0,082	0,053
-141,731	-200,000	-0,023	-0,072
-140,716	-135,582	0,073	-0,006
-139,702	-200,000	0,048	0,181
-138,687	800,000	-0,013	-0,030
-137,672	116,897	-0,066	0,058
-136,658	389,764	-0,058	0,087
-135,643	592,177	-0,012	-0,021
-134,629	-200,000	-0,006	-0,151
-133,614	-56,506	0,130	0,041
-132,599	-37,837	0,087	-0,033
-131,585	213,248	0,026	0,030
-130,570	-77,436	-0,117	-0,029
-129,556	-158,816	-0,072	-0,003
-128,541	-46,352	-0,030	-0,011
-127,526	132,408	0,007	-0,006
-126,512	129,430	-0,017	0,016
-125,497	794,493	0,062	0,124
-124,483	-200,000	0,030	0,153
-123,468	110,537	0,030	0,026
-122,453	-200,000	0,004	0,032
-121,439	70,952	-0,055	-0,041
-120,424	-150,739	0,056	-0,003
-119,410	265,840	0,050	-0,063
