DTS Sentinel unit serial number:	SN410029Multiplexer serial number:	ORYXHardware model number:	OX2-SRSoftware version number:	ORYX F/W v4,00 Oryx Data Collector v3.7.2.0data status	okinstallation	B3 Nyhavnadifferential loss correction	single-endedforward channel	channel 1reverse channel	N/Adate	2023/11/28time	11:07:31forward acquisition time	300,00reverse acquisition time	0,00gamma	499,1914k internal	0,3152k external	0,3152temperature offset calibration	1,0000default loss term (dB/km)	0,3820temperature slope calibration	1,0000multiplexer offset coefficient	1,0000multiplexer slope coefficient	1,0000fibre end	0,00T internal ref (°C)	9,42T ext. ref 1 (°C)	-7,29T ext. ref 2 (°C)	-7,52length (m)	temperature (°C)	Stokes	anti-Stokes-744,400	-200,000	-0,084	-0,274
-743,385	-200,000	0,081	0,375
-742,371	121,121	-0,249	-0,229
-741,356	-200,000	0,037	0,282
-740,342	350,205	-0,182	-0,266
-739,327	-200,000	-0,070	0,292
-738,312	223,649	-0,179	-0,213
-737,298	-200,000	0,055	0,268
-736,283	533,433	-0,122	-0,214
-735,269	-200,000	-0,001	0,314
-734,254	230,337	-0,171	-0,207
-733,239	6,296	-0,192	0,105
-732,225	367,072	-0,186	-0,278
-731,210	183,967	0,237	0,259
-730,196	-102,406	-0,100	0,017
-729,181	111,038	-0,050	0,044
-728,167	-89,559	0,071	-0,015
-727,152	-128,401	-0,194	-0,020
-726,137	729,259	-0,030	-0,060
-725,123	548,963	-0,079	-0,140
-724,108	722,612	-0,072	-0,142
-723,094	-140,749	-0,099	-0,007
-722,079	216,806	-0,112	-0,132
-721,064	-200,000	0,026	0,124
-720,050	-120,680	0,057	0,007
-719,035	148,785	-0,020	0,020
-718,021	445,535	-0,035	0,056
-717,006	21,653	-0,111	-0,066
-715,991	91,559	-0,164	-0,136
-714,977	-152,741	0,037	-0,002
-713,962	-65,765	-0,043	0,013
-712,948	174,235	0,046	-0,049
-711,933	-200,000	-0,005	0,139
-710,918	-84,253	-0,062	-0,014
-709,904	-200,000	-0,009	-0,036
-708,889	-13,097	0,078	0,037
-707,875	-3,865	-0,279	-0,142
-706,860	-59,232	0,052	0,017
-705,845	638,463	0,016	-0,030
-704,831	-35,156	0,041	-0,017
-703,816	156,318	-0,109	0,111
-702,802	413,814	0,059	-0,092
-701,787	800,000	-0,021	-0,055
-700,772	800,000	0,041	-0,117
-699,758	800,000	0,043	-0,107
-698,743	-73,422	0,089	-0,024
-697,729	-200,000	-0,004	-0,057
-696,714	152,076	-0,099	-0,100
-695,699	-43,912	0,065	-0,024
-694,685	287,954	-0,072	-0,097
-693,670	421,434	-0,093	-0,147
-692,656	800,000	0,062	-0,183
-691,641	-140,930	-0,083	-0,006
-690,627	267,786	0,058	0,075
-689,612	-200,000	-0,013	0,102
-688,597	172,558	-0,047	0,050
-687,583	143,024	-0,041	-0,041
-686,568	202,550	0,090	-0,103
-685,554	800,000	-0,090	-0,215
-684,539	26,658	-0,023	0,014
-683,524	314,271	0,098	0,137
-682,510	35,875	0,132	0,085
-681,495	-200,000	0,002	-0,056
-680,481	432,462	0,131	-0,210
-679,466	-27,664	-0,061	-0,026
-678,451	445,653	0,036	-0,059
-677,437	-180,905	0,056	0,001
-676,422	25,993	-0,024	-0,014
-675,408	1,888	-0,029	-0,015
-674,393	800,000	-0,064	-0,135
-673,378	-200,000	-0,038	0,149
-672,364	-43,224	-0,050	-0,018
-671,349	-200,000	0,005	-0,027
-670,335	-200,000	0,006	0,065
-669,320	-16,143	0,067	-0,031
-668,305	-181,218	-0,110	0,002
-667,291	-200,000	0,015	-0,062
-666,276	-35,126	0,026	0,011
-665,262	22,479	0,086	-0,052
-664,247	368,322	0,003	-0,004
-663,232	48,045	-0,110	0,076
-662,218	257,120	0,118	-0,150
-661,203	-25,579	0,173	-0,075
-660,189	-200,000	-0,033	0,111
-659,174	596,976	0,054	-0,099
-658,159	800,000	-0,081	-0,205
-657,145	-34,219	0,093	-0,038
-656,130	800,000	-0,033	0,078
-655,116	-29,651	-0,093	0,039
-654,101	-2,817	0,051	-0,026
-653,086	-21,847	-0,039	0,017
-652,072	800,000	-0,090	0,202
-651,057	-99,096	-0,013	-0,002
-650,043	32,160	0,055	0,035
-649,028	800,000	-0,042	-0,095
-648,014	800,000	-0,013	0,031
-646,999	800,000	-0,041	0,118
-645,984	28,371	0,082	0,051
-644,970	-73,526	-0,074	-0,020
-643,955	15,507	-0,050	-0,029
-642,941	330,989	-0,054	-0,076
-641,926	789,478	-0,021	0,042
-640,911	-200,000	0,010	-0,070
-639,897	-200,000	-0,047	0,170
-638,882	-15,464	-0,133	0,062
-637,868	109,196	0,045	0,039
-636,853	314,634	-0,050	-0,069
-635,838	800,000	-0,024	-0,062
-634,824	-92,500	-0,168	-0,035
-633,809	800,000	-0,041	0,090
-632,795	107,326	0,070	0,061
-631,780	-200,000	0,018	-0,074
-630,765	70,310	-0,100	0,076
-629,751	-100,053	-0,086	0,016
-628,736	-200,000	0,002	-0,010
-627,722	353,817	0,050	0,074
-626,707	-200,000	0,032	0,134
-625,692	-158,325	0,148	0,006
-624,678	98,333	0,149	0,126
-623,663	-192,959	-0,058	0,000
-622,649	-37,428	-0,141	-0,055
-621,634	14,059	-0,055	-0,031
-620,619	540,766	0,019	-0,034
-619,605	61,628	0,152	0,111
-618,590	800,000	0,040	-0,083
-617,576	-49,614	0,080	0,028
-616,561	27,471	-0,178	-0,110
-615,546	-4,199	0,122	-0,062
-614,532	533,868	0,057	-0,099
-613,517	71,204	-0,081	-0,061
-612,503	294,557	-0,097	-0,131
-611,488	53,871	0,012	0,009
-610,474	-172,646	-0,055	-0,001
-609,459	179,383	0,030	-0,033
-608,444	-54,097	0,046	0,015
-607,430	-130,618	0,125	0,012
-606,415	443,143	-0,074	-0,120
-605,401	-80,009	0,065	-0,016
-604,386	5,715	0,089	0,048
-603,371	15,147	0,128	0,074
-602,357	201,896	-0,021	-0,024
-601,342	-2,448	-0,076	-0,039
-600,328	30,430	-0,044	-0,028
-599,313	-35,894	-0,083	0,033
-598,298	17,635	-0,090	0,052
-597,284	-108,422	0,133	0,021
-596,269	114,807	0,059	-0,053
-595,255	-117,082	-0,098	-0,013
-594,240	-91,840	-0,157	-0,032
-593,225	-42,038	-0,069	0,026
-592,211	-200,000	-0,033	-0,127
-591,196	175,200	-0,123	0,131
-590,182	-35,364	0,103	0,041
-589,167	-85,916	0,120	0,027
-588,152	-17,264	0,047	0,022
-587,138	187,247	0,115	0,126
-586,123	800,000	0,030	-0,062
-585,109	210,355	-0,007	0,009
-584,094	34,269	0,117	0,075
-583,079	-173,550	0,027	0,001
-582,065	51,855	-0,057	0,039
-581,050	351,579	-0,016	-0,023
-580,036	-41,422	-0,035	-0,013
-579,021	-200,000	0,034	-0,110
-578,006	-200,000	0,006	0,135
-576,992	-100,099	-0,140	0,025
-575,977	230,609	0,040	-0,048
-574,963	140,969	0,072	0,070
-573,948	-200,000	0,014	0,061
-572,934	800,000	-0,013	-0,028
-571,919	161,341	0,059	0,060
-570,904	-14,437	-0,144	0,068
-569,890	-119,294	-0,041	0,005
-568,875	102,131	0,022	-0,018
-567,861	265,297	0,066	0,085
-566,846	-200,000	-0,019	0,102
-565,831	145,054	-0,056	0,055
-564,817	14,268	-0,163	-0,093
-563,802	-91,627	0,141	-0,029
-562,788	-200,000	-0,017	-0,169
-561,773	-200,000	0,005	-0,029
-560,758	-200,000	-0,016	0,151
-559,744	-200,000	0,001	0,120
-558,729	-200,000	-0,002	0,049
-557,715	-2,503	0,064	-0,033
-556,700	411,953	0,044	-0,069
-555,685	-112,366	-0,131	0,019
-554,671	-200,000	-0,023	0,117
-553,656	96,133	0,099	-0,083
-552,642	14,669	-0,016	0,009
-551,627	-200,000	-0,027	0,135
-550,612	9,074	-0,036	0,020
-549,598	592,901	0,012	-0,021
-548,583	-200,000	-0,015	-0,092
-547,569	497,320	-0,049	0,082
-546,554	-21,730	0,036	0,016
-545,539	3,734	0,138	-0,074
-544,525	533,228	-0,075	-0,130
-543,510	138,808	-0,054	0,052
-542,496	-200,000	-0,004	0,047
-541,481	566,037	-0,069	-0,124
-540,466	104,020	0,071	0,061
-539,452	180,339	0,045	0,048
-538,437	705,629	0,067	-0,130
-537,423	118,203	0,034	-0,031
-536,408	-200,000	0,016	-0,064
-535,393	-25,520	-0,087	-0,037
-534,379	287,977	-0,067	-0,089
-533,364	325,271	-0,056	0,079
-532,350	452,202	0,044	0,072
-531,335	266,106	0,037	0,047
-530,321	-114,488	0,028	0,004
-529,306	800,000	-0,033	-0,077
-528,291	-33,552	-0,085	-0,034
-527,277	44,778	-0,095	-0,064
-526,262	800,000	-0,024	-0,077
-525,248	15,316	0,116	-0,066
-524,233	-153,021	-0,027	0,001
-523,218	-87,550	0,176	0,039
-522,204	-200,000	0,002	-0,093
-521,189	305,903	-0,046	-0,063
-520,175	-200,000	-0,028	0,117
-519,160	-2,782	-0,054	-0,027
-518,145	-134,476	0,092	-0,008
-517,131	252,548	-0,048	0,060
-516,116	-200,000	0,014	0,078
-515,102	427,101	0,021	0,034
-514,087	-44,163	0,067	-0,024
-513,072	-95,628	-0,084	0,016
-512,058	-200,000	-0,010	-0,164
-511,043	338,613	0,036	0,052
-510,029	-174,983	0,029	0,001
-509,014	-22,468	-0,044	-0,019
-507,999	376,222	0,013	0,019
-506,985	-126,843	-0,125	0,013
-505,970	800,000	0,042	-0,092
-504,956	-200,000	-0,017	-0,063
-503,941	-200,000	-0,021	0,096
-502,926	53,506	0,076	0,053
-501,912	-16,401	0,040	0,019
-500,897	275,823	-0,071	0,092
-499,883	220,359	-0,039	-0,046
-498,868	-200,000	-0,002	-0,019
-497,853	279,036	0,108	-0,142
-496,839	-159,741	-0,061	-0,002
-495,824	286,042	-0,040	0,053
-494,810	-9,715	0,052	0,025
-493,795	94,459	0,106	0,088
-492,781	800,000	-0,028	0,064
-491,766	800,000	-0,001	0,002
-490,751	-200,000	-0,011	-0,087
-489,737	800,000	-0,059	-0,153
-488,722	-200,000	-0,017	-0,092
-487,708	-200,000	-0,008	-0,117
-486,693	273,940	0,051	0,066
-485,678	-92,324	-0,066	-0,014
-484,664	251,547	-0,072	-0,089
-483,649	294,396	-0,025	-0,034
-482,635	-105,707	0,031	0,005
-481,620	58,130	-0,066	0,047
-480,605	-118,942	-0,070	-0,009
-479,591	-109,916	0,178	0,027
-478,576	49,505	-0,097	0,066
-477,562	-56,231	0,132	-0,043
-476,547	-158,915	-0,099	-0,004
-475,532	-200,000	0,009	0,083
-474,518	-200,000	-0,007	-0,231
-473,503	36,232	-0,083	-0,053
-472,489	213,911	-0,013	0,015
-471,474	401,419	-0,098	0,151
-470,459	-117,903	0,142	-0,018
-469,445	-200,000	-0,035	-0,156
-468,430	-141,130	-0,140	-0,010
-467,416	35,687	-0,146	-0,093
-466,401	-74,278	-0,076	0,020
-465,386	118,606	0,123	0,111
-464,372	88,865	-0,081	0,066
-463,357	-151,789	-0,120	-0,006
-462,343	409,002	0,033	0,051
-461,328	-200,000	-0,005	0,092
-460,313	-200,000	0,041	-0,222
-459,299	-148,018	0,165	0,010
-458,284	43,471	0,073	0,048
-457,270	188,500	-0,048	0,053
-456,255	355,285	0,025	-0,036
-455,241	-200,000	-0,009	-0,131
-454,226	30,414	-0,132	0,082
-453,211	299,342	-0,034	0,046
-452,197	256,180	0,110	0,138
-451,182	800,000	-0,019	0,044
-450,168	-85,756	-0,044	-0,010
-449,153	123,557	-0,095	0,087
-448,138	800,000	0,012	-0,026
-447,124	-36,807	0,141	0,055
-446,109	70,346	-0,044	0,034
-445,095	-200,000	0,014	0,078
-444,080	-41,574	0,166	0,062
-443,065	277,578	0,068	-0,089
-442,051	10,412	0,140	-0,077
-441,036	84,327	0,070	0,056
-440,022	-200,000	-0,014	0,133
-439,007	-0,937	0,119	-0,062
-437,992	202,927	0,079	0,089
-436,978	-72,772	-0,102	-0,027
-435,963	45,642	0,116	0,078
-434,949	-43,077	-0,079	-0,029
-433,934	-41,779	-0,099	-0,037
-432,919	284,984	-0,077	-0,101
-431,905	-12,694	0,039	-0,019
-430,890	-59,501	-0,128	-0,040
-429,876	-200,000	0,004	0,107
-428,861	143,485	0,022	0,021
-427,846	-28,476	0,201	0,084
-426,832	248,461	-0,034	0,042
-425,817	-200,000	0,010	-0,139
-424,803	164,426	0,142	0,146
-423,788	-200,000	0,007	-0,045
-422,773	-200,000	-0,053	-0,214
-421,759	-150,512	-0,095	0,005
-420,744	800,000	0,057	-0,128
-419,730	-54,465	-0,100	0,033
-418,715	-200,000	-0,005	0,119
-417,701	800,000	-0,060	0,162
-416,686	-9,880	0,020	0,010
-415,671	800,000	0,040	0,113
-414,657	-13,952	-0,038	-0,018
-413,642	337,122	-0,052	0,073
-412,628	-200,000	0,015	-0,050
-411,613	26,753	-0,086	-0,052
-410,598	-200,000	-0,012	0,054
-409,584	-200,000	0,021	0,132
-408,569	571,230	0,062	0,110
-407,555	-123,982	0,188	0,021
-406,540	573,867	-0,029	0,052
-405,525	73,151	-0,153	0,117
-404,511	-200,000	-0,009	0,035
-403,496	90,525	0,052	0,043
-402,482	-200,000	0,037	0,170
-401,467	-200,000	0,012	0,127
-400,452	800,000	-0,012	-0,027
-399,438	8,157	-0,032	0,017
-398,423	-76,930	-0,110	0,028
-397,409	-200,000	0,021	-0,074
-396,394	800,000	-0,067	0,136
-395,379	205,003	-0,062	0,070
-394,365	28,048	0,084	-0,051
-393,350	-200,000	-0,018	0,116
-392,336	-200,000	0,031	0,099
-391,321	366,036	0,041	-0,061
-390,306	-103,489	-0,045	-0,008
-389,292	77,839	-0,064	0,050
-388,277	379,997	-0,094	-0,141
-387,263	-28,288	0,074	-0,031
-386,248	409,486	0,044	-0,068
-385,233	-200,000	0,013	0,118
-384,219	800,000	-0,024	-0,052
-383,204	44,945	-0,102	-0,068
-382,190	-34,068	-0,117	0,047
-381,175	-200,000	0,020	0,086
-380,160	-27,756	-0,106	0,045
-379,146	-123,795	0,022	-0,003
-378,131	71,277	-0,062	0,047
-377,117	800,000	-0,034	-0,080
-376,102	150,833	-0,037	-0,036
-375,088	98,812	-0,099	-0,084
-374,073	356,312	-0,070	-0,102
-373,058	60,833	-0,083	-0,060
-372,044	-200,000	0,041	-0,145
-371,029	-47,824	0,068	0,024
-370,015	-200,000	-0,008	-0,066
-369,000	-141,500	0,025	-0,002
-367,985	-137,894	-0,115	0,009
-366,971	800,000	0,036	-0,102
-365,956	28,954	0,134	0,083
-364,942	-200,000	0,017	-0,123
-363,927	75,345	-0,020	-0,015
-362,912	800,000	-0,029	0,059
-361,898	800,000	0,031	0,065
-360,883	531,635	-0,033	0,057
-359,869	800,000	0,033	-0,097
-358,854	-200,000	0,023	-0,121
-357,839	-200,000	-0,011	0,088
-356,825	-170,419	0,240	0,006
-355,810	22,922	-0,052	0,031
-354,796	22,259	-0,131	-0,078
-353,781	-200,000	0,007	-0,038
-352,766	800,000	0,006	-0,019
-351,752	-85,193	0,086	0,019
-350,737	360,711	-0,076	0,111
-349,723	90,710	0,133	-0,108
-348,708	503,340	-0,019	-0,032
-347,693	-53,504	0,093	-0,031
-346,679	549,951	-0,037	0,064
-345,664	393,889	0,056	-0,085
-344,650	121,749	-0,110	0,099
-343,635	-91,478	0,086	-0,018
-342,620	124,775	0,144	0,132
-341,606	166,389	-0,016	0,017
-340,591	-59,420	0,059	0,018
-339,577	217,725	-0,086	-0,100
-338,562	-18,946	-0,033	0,015
-337,548	-17,802	-0,066	-0,030
-336,533	115,418	0,097	0,086
-335,518	-66,871	-0,126	-0,036
-334,504	-91,771	0,108	0,022
-333,489	57,391	-0,081	-0,058
-332,475	458,154	-0,028	0,045
-331,460	-200,000	0,028	-0,130
-330,445	612,954	-0,021	-0,039
-329,431	-156,736	0,102	0,004
-328,416	-25,579	0,174	-0,074
-327,402	-126,336	0,021	0,002
-326,387	-200,000	0,002	0,159
-325,372	-91,219	0,087	-0,018
-324,358	402,470	0,064	-0,098
-323,343	800,000	-0,029	0,071
-322,329	-0,066	0,233	0,120
-321,314	1,504	0,067	-0,035
-320,299	16,004	-0,073	0,041
-319,285	-200,000	0,010	0,147
-318,270	686,655	0,055	0,104
-317,256	-113,174	-0,066	0,009
-316,241	-28,906	0,159	0,066
-315,226	800,000	0,055	-0,140
-314,212	383,822	-0,025	0,038
-313,197	594,521	-0,012	-0,022
-312,183	-200,000	0,023	-0,080
-311,168	70,283	-0,060	-0,045
-310,153	464,491	-0,082	-0,133
-309,139	207,414	0,116	0,131
-308,124	-62,968	-0,116	-0,035
-307,110	22,612	0,072	0,043
-306,095	-200,000	0,030	0,113
-305,080	11,631	0,103	0,057
-304,066	-181,751	-0,115	-0,002
-303,051	-200,000	-0,011	0,046
-302,037	-200,000	0,024	0,087
-301,022	24,657	0,099	0,059
-300,008	-150,570	0,110	-0,006
-298,993	520,350	-0,094	0,160
-297,978	-200,000	0,006	-0,025
-296,964	28,887	-0,043	-0,026
-295,949	-134,823	-0,109	0,009
-294,935	335,577	-0,072	-0,101
-293,920	-200,000	-0,013	-0,064
-292,905	800,000	-0,055	0,131
-291,891	135,972	0,074	-0,070
-290,876	-200,000	-0,010	-0,108
-289,862	-116,815	0,077	0,010
-288,847	74,771	-0,171	-0,130
-287,832	-122,501	-0,138	0,016
-286,818	402,334	-0,050	-0,077
-285,803	-200,000	-0,004	0,054
-284,789	-61,671	0,173	0,052
-283,774	234,345	0,074	-0,088
-282,759	122,359	-0,097	0,088
-281,745	281,852	-0,072	-0,094
-280,730	199,099	-0,119	0,133
-279,716	-28,454	0,113	0,047
-278,701	-108,306	-0,069	-0,011
-277,686	165,680	0,076	-0,078
-276,672	626,046	-0,039	0,071
-275,657	-96,445	0,033	0,006
-274,643	528,969	-0,012	0,021
-273,628	522,318	0,090	-0,154
-272,613	800,000	0,045	0,127
-271,599	800,000	0,022	0,056
-270,584	511,374	0,042	0,070
-269,570	121,714	0,042	0,038
-268,555	-200,000	-0,022	-0,077
-267,540	-200,000	0,030	-0,103
-266,526	-134,196	0,091	0,008
-265,511	-137,443	0,205	-0,017
-264,497	800,000	-0,005	0,014
-263,482	-200,000	-0,023	0,125
-262,467	150,187	0,052	-0,051
-261,453	-156,721	-0,097	0,004
-260,438	-49,774	0,088	0,030
-259,424	-15,682	0,068	-0,031
-258,409	261,389	-0,109	-0,136
-257,395	800,000	-0,028	-0,078
-256,380	128,124	0,063	0,058
-255,365	-12,873	0,099	0,046
-254,351	204,202	0,091	0,102
-253,336	-88,976	0,108	-0,023
-252,322	150,970	-0,048	-0,047
-251,307	-200,000	0,022	-0,110
-250,292	-200,000	-0,035	0,119
-249,278	199,659	0,110	0,122
-248,263	-47,657	0,146	-0,051
-247,249	-200,000	-0,015	-0,050
-246,234	187,475	-0,068	-0,074
-245,219	-200,000	-0,016	-0,231
-244,205	24,296	0,051	0,031
-243,190	-200,000	0,002	0,037
-242,176	-104,158	0,068	-0,011
-241,161	-116,026	0,090	0,012
-240,146	25,054	0,121	0,073
-239,132	600,513	-0,025	-0,046
-238,117	-200,000	0,066	-0,264
-237,103	800,000	-0,061	-0,154
-236,088	-200,000	-0,001	0,122
-235,073	-200,000	0,004	0,021
-234,059	-22,745	-0,109	-0,048
-233,044	-55,784	0,142	0,046
-232,030	-88,459	-0,155	0,033
-231,015	-200,000	-0,005	-0,017
-230,000	479,723	-0,052	-0,085
-228,986	-200,000	-0,014	-0,047
-227,971	-100,907	0,130	0,023
-226,957	800,000	-0,050	0,125
-225,942	-200,000	0,004	-0,078
-224,927	-155,005	-0,103	0,005
-223,913	-77,634	0,081	-0,020
-222,898	421,279	-0,083	-0,128
-221,884	-54,689	-0,147	0,048
-220,869	694,897	-0,052	0,099
-219,855	554,850	0,032	0,055
-218,840	540,371	0,038	-0,065
-217,825	196,810	-0,048	-0,053
-216,811	-30,487	-0,124	-0,051
-215,796	5,977	-0,082	0,044
-214,782	-125,244	-0,103	0,011
-213,767	256,556	0,033	-0,041
-212,752	265,126	-0,038	-0,048
-211,738	182,759	0,146	0,156
-210,723	74,411	0,049	-0,037
-209,709	800,000	-0,055	-0,119
-208,694	800,000	-0,037	-0,092
-207,679	240,676	-0,132	-0,160
-206,665	-146,555	-0,041	-0,003
-205,650	-68,519	-0,037	0,010
-204,636	-200,000	0,001	0,048
-203,621	251,360	0,074	-0,091
-202,606	-13,819	0,115	-0,054
-201,592	-17,305	-0,101	0,046
-200,577	94,807	0,033	-0,027
-199,563	-200,000	-0,013	-0,072
-198,548	255,444	0,015	-0,019
-197,533	-18,889	0,027	-0,012
-196,519	-147,483	-0,040	0,002
-195,504	-136,985	0,088	-0,007
-194,490	-60,154	0,013	-0,004
-193,475	190,150	0,010	0,011
-192,460	612,906	-0,090	0,163
-191,446	340,427	0,041	0,058
-190,431	-200,000	0,002	-0,079
-189,417	-139,587	0,107	-0,008
-188,402	-200,000	0,027	-0,114
-187,387	-200,000	0,004	-0,102
-186,373	47,162	0,072	-0,049
-185,358	-111,415	-0,068	0,010
-184,344	116,702	0,078	-0,069
-183,329	-134,420	0,044	0,004
-182,315	92,457	-0,102	0,083
-181,300	236,609	-0,063	0,076
-180,285	-200,000	0,026	0,111
-179,271	664,137	0,042	-0,079
-178,256	-200,000	0,007	-0,068
-177,242	-48,246	0,063	0,022
-176,227	54,053	-0,039	0,027
-175,212	-97,866	0,086	-0,016
-174,198	-104,999	-0,075	-0,012
-173,183	-98,181	-0,200	-0,037
-172,169	800,000	0,027	-0,055
-171,154	-200,000	-0,027	0,155
-170,139	-200,000	0,028	0,184
-169,125	-200,000	0,021	0,164
-168,110	-116,503	-0,123	-0,016
-167,096	-5,692	-0,061	-0,030
-166,081	19,781	-0,144	-0,083
-165,066	800,000	0,030	-0,063
-164,052	-140,822	0,208	0,015
-163,037	-29,194	-0,103	0,042
-162,023	73,261	-0,074	-0,056
-161,008	384,374	-0,037	0,055
-159,993	-154,165	-0,012	-0,001
-158,979	70,572	-0,061	-0,045
-157,964	-200,000	-0,003	-0,013
-156,950	-200,000	-0,008	0,062
-155,935	-200,000	0,030	-0,130
-154,920	-200,000	0,007	-0,162
-153,906	-200,000	0,011	-0,104
-152,891	-143,681	0,076	-0,005
-151,877	2,863	-0,053	0,028
-150,862	-200,000	0,006	-0,056
-149,847	800,000	0,017	0,042
-148,833	107,088	0,068	-0,059
-147,818	-101,696	0,065	0,011
-146,804	4,244	-0,091	0,048
-145,789	568,338	0,019	0,034
-144,775	-200,000	-0,006	0,027
-143,760	6,120	-0,098	0,052
-142,745	334,074	0,081	0,113
-141,731	-36,916	0,053	-0,021
-140,716	-26,878	-0,013	-0,006
-139,702	-56,024	0,137	-0,044
-138,687	-200,000	0,002	0,020
-137,672	730,281	-0,060	-0,116
-136,658	-200,000	-0,005	-0,128
-135,643	-200,000	-0,016	-0,099
-134,629	202,982	0,061	-0,068
-133,614	-6,117	0,048	0,024
-132,599	-156,908	0,066	0,003
-131,585	69,800	0,061	-0,046
-130,570	-200,000	0,004	-0,047
-129,556	-200,000	-0,017	-0,090
-128,541	597,821	-0,121	-0,218
-127,526	800,000	0,042	0,092
-126,512	-200,000	0,028	0,115
-125,497	-186,908	0,083	0,001
-124,483	365,210	0,104	0,151
-123,468	-200,000	0,033	-0,178
-122,453	-90,958	-0,097	-0,020
-121,439	52,326	0,105	-0,072
-120,424	-102,132	0,027	0,005
-119,410	-126,641	-0,035	0,004
