DTS Sentinel unit serial number:	SN410029Multiplexer serial number:	ORYXHardware model number:	OX2-SRSoftware version number:	ORYX F/W v4,00 Oryx Data Collector v3.7.2.0data status	okinstallation	B3 Nyhavnadifferential loss correction	single-endedforward channel	channel 1reverse channel	N/Adate	2023/11/28time	13:32:30forward acquisition time	300,00reverse acquisition time	0,00gamma	499,1914k internal	0,3138k external	0,3138temperature offset calibration	1,0000default loss term (dB/km)	0,3820temperature slope calibration	1,0000multiplexer offset coefficient	1,0000multiplexer slope coefficient	1,0000fibre end	0,00T internal ref (°C)	7,82T ext. ref 1 (°C)	-7,61T ext. ref 2 (°C)	-7,80length (m)	temperature (°C)	Stokes	anti-Stokes-744,400	188,737	-0,225	-0,250
-743,385	751,715	0,080	0,161
-742,371	197,678	-0,076	-0,086
-741,356	-200,000	-0,046	0,190
-740,342	19,237	-0,252	-0,150
-739,327	-200,000	-0,020	0,334
-738,312	50,255	-0,308	-0,215
-737,298	-200,000	0,035	0,239
-736,283	22,712	-0,262	-0,159
-735,269	-200,000	-0,063	0,281
-734,254	135,722	-0,169	-0,164
-733,239	-68,803	-0,302	0,086
-732,225	800,000	-0,097	-0,236
-731,210	595,566	0,137	0,253
-730,196	-52,846	-0,094	-0,032
-729,181	-200,000	-0,024	-0,098
-728,167	106,225	-0,135	-0,119
-727,152	71,338	0,059	0,045
-726,137	5,653	-0,081	-0,044
-725,123	800,000	-0,054	0,118
-724,108	-153,951	-0,044	-0,002
-723,094	-118,637	-0,104	0,014
-722,079	800,000	0,036	-0,079
-721,064	205,192	-0,097	-0,111
-720,050	-9,826	-0,051	-0,025
-719,035	-50,255	-0,151	0,052
-718,021	144,574	-0,050	-0,050
-717,006	93,260	-0,067	-0,056
-715,991	-200,000	0,008	-0,154
-714,977	-200,000	0,042	-0,202
-713,962	-200,000	0,035	-0,166
-712,948	-200,000	-0,013	-0,079
-711,933	-168,955	-0,065	-0,002
-710,918	173,947	0,017	-0,018
-709,904	402,496	-0,071	-0,111
-708,889	2,807	-0,062	-0,033
-707,875	102,109	-0,192	-0,166
-706,860	103,402	0,097	-0,084
-705,845	-200,000	-0,005	0,167
-704,831	-200,000	-0,006	0,029
-703,816	297,052	-0,022	-0,030
-702,802	800,000	0,043	-0,127
-701,787	210,363	-0,088	-0,102
-700,772	800,000	-0,063	-0,130
-699,758	8,054	0,027	-0,015
-698,743	-18,202	-0,118	0,055
-697,729	571,597	0,075	0,136
-696,714	800,000	-0,045	-0,141
-695,699	-43,572	-0,081	-0,030
-694,685	-102,375	0,015	0,003
-693,670	-169,241	-0,163	-0,004
-692,656	-36,262	-0,055	0,022
-691,641	-200,000	-0,029	0,101
-690,627	490,916	0,051	0,086
-689,612	-100,156	-0,138	-0,025
-688,597	-21,705	0,014	0,006
-687,583	-200,000	-0,014	-0,050
-686,568	150,987	-0,139	-0,140
-685,554	-63,326	0,064	0,019
-684,539	574,118	-0,031	-0,056
-683,524	800,000	0,084	0,197
-682,510	613,271	0,031	0,058
-681,495	63,493	0,046	-0,034
-680,481	-200,000	0,002	-0,007
-679,466	60,307	0,046	-0,034
-678,451	-200,000	0,012	-0,058
-677,437	-200,000	-0,006	-0,042
-676,422	-200,000	-0,028	0,097
-675,408	343,366	-0,063	0,091
-674,393	-16,135	-0,086	0,040
-673,378	-110,784	0,077	0,012
-672,364	-32,733	-0,164	-0,067
-671,349	-200,000	-0,008	-0,052
-670,335	-122,088	-0,075	0,009
-669,320	-67,774	0,048	0,014
-668,305	-200,000	0,026	0,115
-667,291	-164,482	-0,093	0,003
-666,276	-77,722	-0,182	-0,046
-665,262	-82,752	-0,126	-0,030
-664,247	-119,728	-0,092	0,012
-663,232	785,568	-0,051	0,104
-662,218	145,448	0,020	0,020
-661,203	129,898	0,124	0,118
-660,189	17,656	-0,104	0,061
-659,174	800,000	0,018	-0,041
-658,159	-16,425	-0,127	-0,059
-657,145	-200,000	-0,010	-0,141
-656,130	144,119	0,089	0,088
-655,116	-200,000	-0,007	-0,051
-654,101	-84,051	0,112	0,026
-653,086	-14,356	0,059	0,028
-652,072	-144,398	-0,177	-0,012
-651,057	-48,766	-0,042	0,015
-650,043	32,270	-0,097	-0,062
-649,028	90,654	0,046	-0,038
-648,014	-103,802	0,146	-0,025
-646,999	273,595	0,071	0,093
-645,984	125,754	0,094	0,088
-644,970	-200,000	-0,014	-0,114
-643,955	-183,451	-0,095	0,001
-642,941	800,000	0,052	-0,137
-641,926	753,227	0,027	0,054
-640,911	800,000	0,069	0,149
-639,897	34,592	0,138	0,089
-638,882	-13,381	0,113	0,054
-637,868	800,000	0,047	0,130
-636,853	800,000	-0,020	-0,045
-635,838	-200,000	-0,056	-0,185
-634,824	-126,238	0,044	0,005
-633,809	-200,000	-0,012	-0,087
-632,795	-13,606	0,102	0,049
-631,780	-29,826	-0,118	-0,049
-630,765	-21,018	-0,130	0,059
-629,751	800,000	0,032	-0,072
-628,736	-146,206	-0,080	0,005
-627,722	-140,965	-0,093	0,007
-626,707	78,784	0,071	0,056
-625,692	-200,000	0,005	0,078
-624,678	800,000	0,023	0,058
-623,663	567,603	-0,006	-0,011
-622,649	645,826	-0,092	-0,174
-621,634	216,783	-0,085	0,100
-620,619	24,811	-0,106	0,065
-619,605	-110,313	-0,087	-0,013
-618,590	20,918	-0,122	0,073
-617,576	-87,923	-0,019	0,004
-616,561	-34,566	0,012	0,005
-615,546	488,677	0,042	-0,071
-614,532	-113,828	-0,220	-0,031
-613,517	771,711	-0,052	-0,106
-612,503	179,749	0,125	-0,135
-611,488	86,862	0,186	0,151
-610,474	146,239	0,058	0,057
-609,459	-161,060	0,037	0,001
-608,444	100,320	-0,107	-0,092
-607,430	800,000	-0,027	-0,074
-606,415	24,217	0,072	0,044
-605,401	-12,845	0,101	0,048
-604,386	-200,000	0,032	-0,204
-603,371	-200,000	0,022	-0,086
-602,357	-101,281	-0,069	0,012
-601,342	-200,000	-0,014	-0,054
-600,328	-119,783	-0,189	-0,024
-599,313	334,264	0,041	-0,058
-598,298	560,650	0,045	0,080
-597,284	363,308	0,107	0,159
-596,269	800,000	-0,015	-0,040
-595,255	-200,000	-0,013	0,114
-594,240	-47,828	-0,045	-0,016
-593,225	611,240	-0,022	-0,040
-592,211	-200,000	-0,013	-0,056
-591,196	-200,000	-0,004	-0,057
-590,182	-174,817	0,157	0,003
-589,167	800,000	-0,009	0,028
-588,152	538,277	-0,097	-0,170
-587,138	63,211	-0,128	0,094
-586,123	-200,000	-0,028	-0,106
-585,109	-200,000	0,015	-0,134
-584,094	-175,651	0,080	-0,002
-583,079	389,058	0,032	0,049
-582,065	167,102	-0,120	0,125
-581,050	-158,264	0,131	0,006
-580,036	156,649	-0,066	-0,068
-579,021	289,598	-0,121	-0,162
-578,006	-200,000	-0,008	-0,110
-576,992	800,000	-0,059	-0,125
-575,977	-200,000	-0,007	-0,076
-574,963	22,607	0,082	0,050
-573,948	-13,227	-0,116	0,055
-572,934	-200,000	-0,033	-0,108
-571,919	153,453	-0,095	-0,096
-570,904	-89,952	-0,059	-0,013
-569,890	331,025	0,072	-0,102
-568,875	-86,419	0,106	0,024
-567,861	-72,465	0,055	0,015
-566,846	-149,635	0,112	0,006
-565,831	741,230	-0,020	-0,041
-564,817	20,696	0,030	0,018
-563,802	422,973	-0,037	0,059
-562,788	-76,541	-0,093	-0,024
-561,773	-200,000	-0,002	0,024
-560,758	478,188	-0,013	0,022
-559,744	97,476	-0,014	-0,012
-558,729	-102,313	0,057	0,010
-557,715	-200,000	-0,004	-0,025
-556,700	579,511	0,030	-0,054
-555,685	-28,386	-0,093	-0,039
-554,671	369,036	-0,049	0,074
-553,656	369,954	0,083	0,124
-552,642	-21,561	-0,050	0,022
-551,627	28,236	-0,062	0,039
-550,612	-200,000	-0,004	-0,026
-549,598	-47,265	-0,043	-0,015
-548,583	677,663	0,023	0,044
-547,569	766,958	-0,072	-0,145
-546,554	-200,000	-0,011	-0,176
-545,539	337,748	0,063	-0,090
-544,525	223,036	-0,093	0,110
-543,510	737,703	0,060	-0,119
-542,496	176,059	-0,114	0,122
-541,481	60,630	-0,201	0,146
-540,466	-200,000	0,025	-0,086
-539,452	800,000	-0,019	0,042
-538,437	5,697	0,089	-0,048
-537,423	-42,957	0,093	0,034
-536,408	557,665	0,011	0,020
-535,393	300,494	-0,046	0,063
-534,379	553,547	-0,041	0,073
-533,364	-56,273	0,044	-0,014
-532,350	-134,987	0,052	0,005
-531,335	800,000	0,046	0,114
-530,321	-200,000	-0,005	0,093
-529,306	379,526	0,038	0,057
-528,291	178,003	-0,008	-0,009
-527,277	-200,000	-0,021	0,074
-526,262	54,401	0,073	0,051
-525,248	291,414	0,015	-0,020
-524,233	66,217	-0,047	0,035
-523,218	-78,903	0,027	-0,007
-522,204	49,768	-0,005	-0,003
-521,189	-122,183	0,130	0,016
-520,175	-200,000	-0,011	-0,082
-519,160	429,564	0,019	-0,031
-518,145	800,000	-0,030	-0,070
-517,131	344,781	0,066	0,095
-516,116	-200,000	-0,004	0,127
-515,102	156,941	0,033	0,034
-514,087	-200,000	-0,001	0,029
-513,072	-200,000	-0,015	-0,087
-512,058	65,653	-0,130	-0,096
-511,043	-200,000	0,009	0,061
-510,029	-200,000	0,016	-0,073
-509,014	800,000	0,082	0,190
-507,999	-200,000	-0,003	-0,055
-506,985	107,395	-0,108	-0,094
-505,970	767,784	0,064	-0,128
-504,956	-57,373	-0,074	-0,024
-503,941	147,889	0,113	0,112
-502,926	-87,841	-0,058	-0,013
-501,912	17,055	0,062	0,036
-500,897	800,000	-0,033	0,107
-499,883	-137,872	-0,136	0,011
-498,868	721,683	0,043	-0,084
-497,853	222,799	0,070	-0,083
-496,839	49,926	-0,064	0,044
-495,824	145,873	-0,071	-0,070
-494,810	-133,072	0,037	-0,003
-493,795	60,403	-0,030	-0,022
-492,781	231,369	-0,048	-0,058
-491,766	21,474	-0,125	-0,074
-490,751	800,000	0,038	-0,113
-489,737	800,000	-0,035	-0,074
-488,722	-27,086	0,068	0,029
-487,708	65,835	0,054	-0,040
-486,693	800,000	-0,012	-0,034
-485,678	-17,148	-0,127	-0,058
-484,664	-200,000	0,014	0,049
-483,649	800,000	0,024	-0,056
-482,635	-36,037	-0,169	0,067
-481,620	-121,466	0,113	-0,014
-480,605	7,757	0,179	0,098
-479,591	-193,205	-0,155	0,001
-478,576	800,000	-0,040	0,083
-477,562	-38,406	-0,119	-0,046
-476,547	69,349	-0,098	-0,074
-475,532	-160,532	0,079	0,003
-474,518	-150,390	0,055	-0,003
-473,503	800,000	-0,076	0,179
-472,489	800,000	-0,023	0,052
-471,474	800,000	-0,071	-0,193
-470,459	414,685	0,030	-0,047
-469,445	14,676	-0,157	0,090
-468,430	-200,000	0,011	-0,039
-467,416	800,000	0,011	-0,023
-466,401	-67,452	-0,158	0,045
-465,386	74,252	-0,093	0,071
-464,372	-200,000	-0,001	0,091
-463,357	-13,620	-0,092	0,044
-462,343	228,660	-0,012	0,014
-461,328	-72,112	-0,077	0,021
-460,313	768,906	-0,078	-0,156
-459,299	-96,053	0,179	-0,035
-458,284	800,000	0,061	0,161
-457,270	270,856	-0,049	0,063
-456,255	800,000	0,022	-0,070
-455,241	310,215	-0,009	0,013
-454,226	213,634	0,036	-0,041
-453,211	7,980	-0,120	0,066
-452,197	-200,000	-0,024	0,152
-451,182	-3,255	0,053	0,027
-450,168	-28,316	-0,145	0,061
-449,153	-200,000	-0,019	0,067
-448,138	83,351	-0,046	0,037
-447,124	-119,695	0,071	-0,009
-446,109	75,416	0,130	-0,100
-445,095	800,000	-0,062	0,145
-444,080	-9,628	0,088	0,043
-443,065	-77,358	-0,073	0,018
-442,051	343,775	0,062	-0,089
-441,036	-94,149	-0,108	-0,021
-440,022	340,340	-0,061	0,087
-439,007	-200,000	0,001	0,023
-437,992	540,468	-0,027	0,047
-436,978	-200,000	0,002	0,045
-435,963	800,000	0,035	0,111
-434,949	800,000	0,014	0,038
-433,934	-200,000	0,005	-0,179
-432,919	800,000	-0,057	-0,125
-431,905	-200,000	-0,004	0,091
-430,890	205,995	0,080	0,092
-429,876	-108,886	-0,011	-0,002
-428,861	51,264	-0,025	-0,017
-427,846	-178,166	0,118	-0,002
-426,832	-41,803	-0,043	-0,016
-425,817	32,185	0,056	-0,036
-424,803	36,304	-0,053	0,034
-423,788	-200,000	-0,016	0,070
-422,773	591,573	0,120	0,217
-421,759	-175,474	0,108	0,002
-420,744	546,664	-0,053	0,094
-419,730	219,725	-0,027	-0,032
-418,715	25,540	0,070	-0,043
-417,701	-200,000	-0,008	-0,047
-416,686	500,278	0,057	-0,097
-415,671	-51,085	0,088	-0,030
-414,657	133,442	0,036	0,034
-413,642	27,865	-0,085	-0,053
-412,628	41,460	0,033	-0,022
-411,613	-200,000	-0,001	-0,089
-410,598	394,912	-0,094	-0,143
-409,584	284,376	0,053	0,069
-408,569	341,878	-0,124	0,178
-407,555	81,495	0,045	0,036
-406,540	227,652	-0,060	0,071
-405,525	-95,124	-0,147	-0,029
-404,511	-34,580	-0,055	-0,022
-403,496	-111,882	0,116	-0,017
-402,482	-39,368	0,155	0,059
-401,467	120,989	-0,079	0,072
-400,452	-200,000	-0,011	0,090
-399,438	583,907	-0,047	0,085
-398,423	-154,901	0,155	-0,007
-397,409	114,744	-0,098	-0,087
-396,394	-40,020	-0,062	-0,023
-395,379	-83,604	0,064	-0,015
-394,365	180,791	-0,015	0,016
-393,350	264,258	0,018	-0,023
-392,336	303,630	0,052	0,070
-391,321	-200,000	-0,016	-0,235
-390,306	-120,436	-0,040	0,005
-389,292	-200,000	-0,002	-0,092
-388,277	800,000	0,026	-0,056
-387,263	-200,000	-0,020	0,068
-386,248	-200,000	0,014	-0,083
-385,233	-130,206	-0,020	-0,002
-384,219	-154,333	0,071	-0,003
-383,204	78,748	-0,024	0,019
-382,190	-200,000	-0,008	-0,142
-381,175	-107,936	0,165	0,026
-380,160	-139,381	0,034	0,003
-379,146	251,692	0,035	0,044
-378,131	63,663	0,127	0,093
-377,117	441,685	-0,021	-0,033
-376,102	184,027	-0,108	0,117
-375,088	800,000	-0,017	0,052
-374,073	-1,322	0,115	-0,059
-373,058	-125,456	-0,082	0,009
-372,044	800,000	-0,032	0,095
-371,029	-200,000	-0,022	0,076
-370,015	346,218	0,054	-0,078
-369,000	-152,333	0,053	-0,003
-367,985	269,901	0,111	-0,143
-366,971	-200,000	-0,022	0,109
-365,956	309,254	-0,016	0,021
-364,942	-46,551	0,067	0,024
-363,927	629,317	0,024	0,045
-362,912	99,138	-0,031	0,027
-361,898	800,000	0,050	-0,129
-360,883	-56,783	0,188	-0,060
-359,869	77,180	-0,059	-0,045
-358,854	800,000	-0,021	0,063
-357,839	612,307	0,025	0,047
-356,825	-35,854	0,123	0,048
-355,810	-62,399	0,064	0,019
-354,796	800,000	-0,038	-0,102
-353,781	-200,000	-0,023	-0,171
-352,766	111,831	0,039	-0,035
-351,752	588,216	0,055	-0,099
-350,737	-108,269	0,074	0,012
-349,723	-200,000	-0,002	0,094
-348,708	355,209	0,043	-0,063
-347,693	-200,000	0,016	-0,058
-346,679	151,972	-0,152	-0,151
-345,664	-200,000	-0,001	-0,006
-344,650	800,000	-0,015	-0,035
-343,635	-64,107	0,091	-0,027
-342,620	800,000	-0,026	0,054
-341,606	-200,000	-0,002	0,008
-340,591	541,346	0,131	0,229
-339,577	333,752	-0,080	0,114
-338,562	-110,516	-0,126	-0,019
-337,548	-200,000	-0,004	0,086
-336,533	-37,088	0,168	0,065
-335,518	2,748	-0,109	0,058
-334,504	762,786	-0,013	-0,027
-333,489	-200,000	-0,004	-0,072
-332,475	-200,000	-0,041	-0,141
-331,460	170,341	0,080	-0,084
-330,445	233,146	-0,094	-0,113
-329,431	606,973	0,014	-0,026
-328,416	-64,346	0,099	0,029
-327,402	-150,416	0,084	0,005
-326,387	800,000	0,035	-0,111
-325,372	460,897	0,069	-0,112
-324,358	-200,000	-0,003	0,025
-323,343	226,595	-0,114	-0,135
-322,329	800,000	0,016	0,043
-321,314	643,721	0,066	0,123
-320,299	-75,488	-0,031	-0,008
-319,285	-200,000	0,045	-0,209
-318,270	-200,000	-0,006	-0,085
-317,256	301,368	-0,016	0,021
-316,241	-127,092	-0,050	-0,005
-315,226	71,118	-0,086	0,065
-314,212	176,040	-0,014	0,015
-313,197	-8,943	0,107	-0,052
-312,183	-87,017	0,065	0,014
-311,168	-200,000	0,001	-0,160
-310,153	11,648	0,040	0,022
-309,139	519,018	-0,048	0,082
-308,124	-58,967	0,076	0,024
-307,110	364,911	-0,099	0,146
-306,095	64,236	0,029	-0,021
-305,080	360,063	-0,024	0,035
-304,066	338,038	-0,018	-0,025
-303,051	511,308	0,058	-0,099
-302,037	-200,000	-0,009	0,046
-301,022	339,537	-0,040	0,057
-300,008	89,123	0,056	-0,046
-298,993	-28,634	0,094	-0,039
-297,978	131,599	-0,065	0,061
-296,964	597,506	-0,053	0,096
-295,949	-51,991	-0,026	-0,009
-294,935	-165,110	0,031	-0,001
-293,920	129,276	0,105	0,097
-292,905	245,640	-0,084	-0,103
-291,891	447,884	0,076	0,123
-290,876	800,000	0,005	-0,010
-289,862	800,000	-0,024	-0,052
-288,847	-55,682	-0,060	-0,020
-287,832	-200,000	0,026	-0,126
-286,818	-158,524	0,092	0,004
-285,803	220,276	0,124	0,145
-284,789	379,126	-0,138	0,206
-283,774	-200,000	-0,010	0,059
-282,759	322,269	-0,099	0,138
-281,745	-200,000	-0,008	-0,044
-280,730	149,438	-0,028	-0,028
-279,716	-140,652	-0,190	-0,014
-278,701	-129,775	0,055	0,005
-277,686	773,113	0,087	0,174
-276,672	-200,000	-0,007	0,125
-275,657	244,172	0,112	0,137
-274,643	-59,636	-0,070	0,022
-273,628	-163,650	-0,091	-0,003
-272,613	350,012	-0,063	-0,091
-271,599	568,810	0,085	-0,151
-270,584	-7,332	0,129	0,063
-269,570	46,952	-0,084	0,057
-268,555	800,000	0,081	-0,239
-267,540	237,254	-0,032	-0,038
-266,526	-200,000	0,004	-0,041
-265,511	-107,560	-0,156	-0,025
-264,497	376,744	-0,032	-0,047
-263,482	-6,357	0,077	0,038
-262,467	800,000	0,035	0,110
-261,453	800,000	-0,034	0,077
-260,438	14,742	0,031	0,018
-259,424	-200,000	-0,001	0,067
-258,409	190,690	-0,102	0,112
-257,395	133,038	0,094	0,088
-256,380	258,066	0,066	0,083
-255,365	651,181	0,031	-0,059
-254,351	21,069	0,030	-0,018
-253,336	475,604	-0,035	0,058
-252,322	465,294	-0,021	-0,034
-251,307	-200,000	0,026	-0,119
-250,292	88,877	-0,089	-0,072
-249,278	277,781	0,102	0,132
-248,263	800,000	-0,038	0,096
-247,249	11,027	-0,110	0,061
-246,234	365,052	0,045	-0,066
-245,219	86,851	-0,140	-0,113
-244,205	-73,136	-0,065	0,017
-243,190	85,861	-0,049	0,039
-242,176	-2,713	0,033	0,017
-241,161	96,657	0,057	-0,047
-240,146	-27,720	-0,117	-0,049
-239,132	-68,370	0,146	-0,041
-238,117	105,200	-0,065	-0,056
-237,103	-3,762	-0,067	0,034
-236,088	-177,719	-0,132	-0,002
-235,073	-82,684	0,059	0,014
-234,059	-134,933	-0,030	-0,003
-233,044	357,486	-0,041	-0,060
-232,030	483,716	-0,049	0,081
-231,015	92,268	-0,041	-0,033
-230,000	-41,012	-0,135	-0,050
-228,986	-85,523	-0,110	-0,025
-227,971	-134,701	0,073	0,006
-226,957	800,000	0,021	0,050
-225,942	-90,360	0,107	0,022
-224,927	261,794	0,031	-0,040
-223,913	393,992	-0,031	-0,048
-222,898	-200,000	0,003	0,025
-221,884	-200,000	0,015	0,126
-220,869	800,000	-0,035	-0,070
-219,855	11,378	0,131	-0,073
-218,840	800,000	-0,074	0,154
-217,825	-152,677	0,068	-0,003
-216,811	15,747	-0,022	-0,013
-215,796	-8,914	-0,041	0,020
-214,782	-112,986	-0,089	0,013
-213,767	417,089	0,062	0,097
-212,752	-51,309	-0,081	0,027
-211,738	800,000	-0,011	0,028
-210,723	145,051	-0,013	0,012
-209,709	-55,231	0,048	0,016
-208,694	-94,844	0,069	0,014
-207,679	524,839	0,029	0,049
-206,665	-200,000	-0,002	0,087
-205,650	-94,249	0,075	0,015
-204,636	800,000	0,061	0,176
-203,621	-178,355	0,098	0,002
-202,606	-200,000	0,009	0,117
-201,592	294,790	-0,169	-0,225
-200,577	-200,000	0,006	-0,090
-199,563	456,453	-0,052	-0,084
-198,548	40,619	0,097	0,063
-197,533	334,410	0,038	-0,054
-196,519	-200,000	-0,014	-0,145
-195,504	-200,000	-0,003	-0,027
-194,490	-170,639	-0,107	-0,003
-193,475	15,638	-0,149	0,085
-192,460	-200,000	0,016	-0,056
-191,446	-173,435	0,131	0,003
-190,431	-200,000	-0,006	0,065
-189,417	595,091	0,041	0,074
-188,402	-85,311	-0,045	-0,010
-187,387	36,920	-0,049	0,032
-186,373	244,834	-0,074	-0,090
-185,358	-200,000	0,004	0,029
-184,344	20,459	0,051	-0,030
-183,329	-189,489	0,157	-0,001
-182,315	13,398	0,070	-0,039
-181,300	-200,000	0,006	0,050
-180,285	800,000	0,085	-0,219
-179,271	31,030	0,030	-0,018
-178,256	1,977	-0,062	0,032
-177,242	-95,875	0,163	-0,031
-176,227	-51,914	0,070	0,024
-175,212	385,158	0,049	0,074
-174,198	530,279	-0,014	0,025
-173,183	-200,000	0,011	-0,168
-172,169	133,774	0,075	-0,070
-171,154	-200,000	0,018	0,135
-170,139	28,906	0,153	-0,094
-169,125	-181,691	0,095	0,001
-168,110	-200,000	0,026	-0,113
-167,096	423,802	-0,069	0,108
-166,081	228,539	-0,033	-0,039
-165,066	-95,393	0,129	-0,025
-164,052	-200,000	0,039	-0,148
-163,037	604,847	0,058	0,105
-162,023	-200,000	0,023	0,161
-161,008	-200,000	-0,022	-0,101
-159,993	-200,000	-0,007	0,057
-158,979	57,253	-0,042	-0,030
-157,964	122,804	-0,089	-0,081
-156,950	373,923	-0,043	0,064
-155,935	-200,000	-0,043	0,146
-154,920	-139,894	0,107	0,008
-153,906	-79,683	-0,032	-0,008
-152,891	355,630	-0,098	-0,142
-151,877	-54,986	-0,128	-0,042
-150,862	227,515	-0,068	-0,081
-149,847	-36,660	-0,106	-0,041
-148,833	123,482	-0,041	0,037
-147,818	-200,000	-0,023	0,093
-146,804	-200,000	0,003	0,032
-145,789	-200,000	-0,021	0,072
-144,775	-196,342	-0,091	0,000
-143,760	-116,772	-0,161	-0,021
-142,745	255,606	0,089	-0,111
-141,731	-200,000	0,027	-0,130
-140,716	165,100	-0,021	-0,021
-139,702	18,833	-0,041	0,023
-138,687	-200,000	0,016	0,167
-137,672	-73,819	-0,136	-0,036
-136,658	-115,324	-0,075	-0,010
-135,643	-50,093	0,115	0,039
-134,629	-200,000	0,007	0,046
-133,614	-181,467	0,144	-0,002
-132,599	-200,000	0,012	0,139
-131,585	62,020	0,084	0,061
-130,570	-196,205	0,067	0,000
-129,556	48,986	-0,109	-0,074
-128,541	-114,053	-0,040	-0,006
-127,526	81,696	0,016	-0,013
-126,512	800,000	-0,031	-0,075
-125,497	-200,000	-0,007	0,023
-124,483	311,540	-0,019	0,026
-123,468	-200,000	-0,024	-0,098
-122,453	-200,000	-0,039	-0,162
-121,439	-122,640	-0,082	0,009
-120,424	800,000	-0,036	-0,112
