DTS Sentinel unit serial number:	SN410029Multiplexer serial number:	ORYXHardware model number:	OX2-SRSoftware version number:	ORYX F/W v4,00 Oryx Data Collector v3.7.2.0data status	okinstallation	B3 Nyhavnadifferential loss correction	single-endedforward channel	channel 1reverse channel	N/Adate	2023/11/28time	18:12:30forward acquisition time	300,00reverse acquisition time	0,00gamma	499,1914k internal	0,3167k external	0,3167temperature offset calibration	1,0000default loss term (dB/km)	0,3820temperature slope calibration	1,0000multiplexer offset coefficient	1,0000multiplexer slope coefficient	1,0000fibre end	0,00T internal ref (°C)	7,38T ext. ref 1 (°C)	-7,43T ext. ref 2 (°C)	-7,57length (m)	temperature (°C)	Stokes	anti-Stokes-744,400	121,554	-0,231	-0,212
-743,385	800,000	-0,104	0,305
-742,371	800,000	-0,086	-0,233
-741,356	-200,000	0,022	0,144
-740,342	158,126	-0,134	-0,137
-739,327	800,000	-0,099	0,309
-738,312	69,537	-0,296	-0,224
-737,298	289,791	0,133	0,177
-736,283	-200,000	-0,008	-0,184
-735,269	208,051	-0,186	0,214
-734,254	211,760	-0,141	-0,164
-733,239	-24,370	-0,220	0,096
-732,225	639,307	-0,153	-0,286
-731,210	164,468	0,108	0,112
-730,196	-25,188	-0,029	-0,013
-729,181	-70,660	-0,132	0,036
-728,167	103,763	0,061	-0,053
-727,152	-101,703	-0,093	0,016
-726,137	-154,654	-0,160	0,008
-725,123	800,000	-0,029	0,066
-724,108	-17,045	-0,060	-0,028
-723,094	800,000	-0,090	-0,249
-722,079	104,120	-0,138	-0,119
-721,064	151,129	-0,061	0,061
-720,050	105,064	-0,093	-0,081
-719,035	26,741	-0,030	-0,018
-718,021	349,022	0,083	-0,120
-717,006	-31,803	-0,047	0,019
-715,991	11,892	-0,115	-0,065
-714,977	563,071	-0,095	-0,169
-713,962	58,915	0,057	0,041
-712,948	-200,000	0,021	0,121
-711,933	-200,000	-0,006	-0,028
-710,918	37,726	-0,033	-0,021
-709,904	205,301	-0,086	-0,098
-708,889	-200,000	-0,024	-0,139
-707,875	302,356	-0,036	-0,050
-706,860	101,372	-0,076	-0,065
-705,845	-200,000	0,010	-0,139
-704,831	800,000	0,039	0,123
-703,816	98,147	-0,107	-0,090
-702,802	-88,744	-0,058	-0,013
-701,787	130,201	0,025	-0,024
-700,772	800,000	-0,075	-0,209
-699,758	-120,407	0,083	-0,010
-698,743	279,386	0,049	0,064
-697,729	527,878	0,044	0,076
-696,714	-33,126	-0,114	0,046
-695,699	373,366	0,055	-0,082
-694,685	-30,435	0,034	-0,014
-693,670	-200,000	-0,005	-0,076
-692,656	-0,840	0,069	-0,036
-691,641	33,656	-0,021	-0,013
-690,627	54,367	0,083	0,059
-689,612	64,929	0,086	-0,064
-688,597	-120,538	-0,147	-0,018
-687,583	97,030	-0,129	-0,109
-686,568	-140,623	-0,096	0,007
-685,554	113,257	0,121	-0,107
-684,539	-200,000	-0,009	-0,059
-683,524	-161,681	0,020	-0,001
-682,510	-74,316	0,080	-0,021
-681,495	-134,987	-0,087	0,008
-680,481	800,000	0,029	0,094
-679,466	86,067	-0,017	-0,014
-678,451	-53,317	-0,110	0,037
-677,437	247,875	-0,096	0,120
-676,422	-1,242	0,057	-0,029
-675,408	-200,000	0,010	-0,117
-674,393	182,789	-0,048	0,052
-673,378	-49,653	-0,058	-0,020
-672,364	-101,821	-0,136	0,024
-671,349	-102,475	-0,181	-0,032
-670,335	-200,000	-0,025	-0,132
-669,320	-132,570	0,147	0,014
-668,305	389,785	0,041	0,063
-667,291	-191,421	-0,148	-0,001
-666,276	-200,000	-0,004	0,087
-665,262	118,919	-0,032	-0,029
-664,247	-12,800	-0,108	-0,051
-663,232	653,088	0,061	-0,114
-662,218	-28,495	-0,086	0,036
-661,203	-93,944	0,033	-0,007
-660,189	800,000	0,025	0,065
-659,174	-64,602	-0,126	-0,037
-658,159	800,000	-0,030	0,071
-657,145	142,359	-0,081	-0,078
-656,130	158,351	-0,064	-0,065
-655,116	99,958	0,167	0,142
-654,101	-56,669	0,153	-0,049
-653,086	800,000	0,047	-0,107
-652,072	241,669	-0,070	-0,086
-651,057	800,000	-0,056	0,140
-650,043	220,724	-0,119	-0,140
-649,028	65,652	0,098	0,072
-648,014	7,028	0,021	-0,011
-646,999	270,039	-0,013	0,017
-645,984	46,562	-0,087	0,059
-644,970	73,892	0,023	-0,017
-643,955	170,009	-0,115	-0,120
-642,941	-200,000	-0,010	-0,038
-641,926	-200,000	0,004	0,060
-640,911	-157,953	0,036	0,002
-639,897	291,665	0,088	-0,118
-638,882	-200,000	0,004	0,023
-637,868	-200,000	0,016	-0,137
-636,853	-200,000	-0,002	-0,059
-635,838	-200,000	0,011	0,121
-634,824	257,148	0,049	0,062
-633,809	-200,000	0,013	-0,089
-632,795	330,203	0,121	0,172
-631,780	423,949	0,016	-0,025
-630,765	180,319	-0,063	-0,068
-629,751	800,000	-0,020	-0,049
-628,736	311,637	0,041	0,056
-627,722	-200,000	-0,005	0,016
-626,707	217,788	-0,104	0,122
-625,692	-99,060	0,109	0,020
-624,678	-200,000	-0,034	0,134
-623,663	-200,000	0,003	0,106
-622,649	800,000	-0,043	0,117
-621,634	800,000	-0,045	-0,142
-620,619	-200,000	-0,000	-0,101
-619,605	-36,352	-0,066	0,026
-618,590	634,759	0,010	-0,019
-617,576	40,600	0,049	-0,032
-616,561	-200,000	0,018	0,117
-615,546	99,383	0,044	0,037
-614,532	-200,000	-0,002	-0,037
-613,517	250,840	-0,050	-0,062
-612,503	57,021	0,047	0,034
-611,488	510,035	-0,002	-0,004
-610,474	-107,490	0,081	0,013
-609,459	800,000	0,016	-0,045
-608,444	-200,000	0,005	-0,126
-607,430	-200,000	-0,016	-0,113
-606,415	-160,613	-0,197	-0,008
-605,401	61,548	0,057	-0,042
-604,386	430,502	-0,072	-0,115
-603,371	484,864	0,104	0,175
-602,357	800,000	-0,039	-0,086
-601,342	800,000	-0,068	-0,148
-600,328	18,951	-0,147	0,086
-599,313	-200,000	-0,017	0,072
-598,298	678,168	-0,045	-0,085
-597,284	142,671	0,087	-0,085
-596,269	710,015	-0,021	-0,041
-595,255	-200,000	0,016	0,182
-594,240	800,000	0,020	0,045
-593,225	388,217	-0,052	-0,080
-592,211	-56,781	-0,084	-0,027
-591,196	-105,563	-0,103	0,017
-590,182	800,000	0,084	0,173
-589,167	-16,711	0,060	-0,028
-588,152	650,002	-0,072	0,135
-587,138	-200,000	0,029	0,096
-586,123	469,035	0,042	0,069
-585,109	-200,000	-0,015	-0,069
-584,094	-8,317	0,231	0,113
-583,079	13,174	0,131	-0,074
-582,065	800,000	0,046	0,132
-581,050	800,000	0,056	0,145
-580,036	-167,925	-0,169	-0,005
-579,021	800,000	-0,007	-0,020
-578,006	19,945	-0,129	-0,075
-576,992	-63,372	0,159	-0,048
-575,977	800,000	-0,074	-0,170
-574,963	-200,000	-0,002	-0,131
-573,948	38,544	0,063	-0,041
-572,934	800,000	0,046	0,101
-571,919	800,000	-0,037	0,095
-570,904	40,565	0,045	0,030
-569,890	28,499	-0,067	-0,041
-568,875	-200,000	0,015	0,186
-567,861	-7,436	-0,078	0,038
-566,846	251,056	-0,048	0,060
-565,831	-60,570	0,025	0,008
-564,817	-18,974	-0,156	0,071
-563,802	-200,000	-0,024	-0,124
-562,788	35,020	-0,109	0,070
-561,773	800,000	0,033	0,095
-560,758	109,595	0,053	-0,047
-559,744	-200,000	-0,034	-0,126
-558,729	-50,569	0,063	-0,021
-557,715	-104,718	-0,045	-0,008
-556,700	-135,862	-0,077	0,007
-555,685	-145,616	0,180	0,012
-554,671	-200,000	-0,002	0,019
-553,656	109,455	0,123	-0,107
-552,642	-110,574	0,051	-0,008
-551,627	-148,405	-0,086	0,005
-550,612	107,227	-0,135	0,117
-549,598	-200,000	0,027	-0,152
-548,583	-39,135	0,055	0,021
-547,569	240,830	-0,033	0,040
-546,554	800,000	0,021	0,056
-545,539	-200,000	-0,006	0,033
-544,525	-132,273	-0,139	-0,013
-543,510	-200,000	0,015	-0,109
-542,496	73,535	-0,082	0,063
-541,481	108,294	-0,131	-0,114
-540,466	-32,054	0,097	-0,039
-539,452	-200,000	0,016	0,075
-538,437	97,334	-0,081	-0,068
-537,423	-178,766	0,046	-0,001
-536,408	-200,000	0,001	-0,030
-535,393	-99,426	-0,138	0,025
-534,379	-200,000	-0,006	-0,078
-533,364	-200,000	-0,001	-0,141
-532,350	-200,000	0,020	-0,096
-531,335	-200,000	-0,010	-0,067
-530,321	416,099	-0,120	0,188
-529,306	630,891	0,062	-0,114
-528,291	217,671	0,047	-0,055
-527,277	800,000	-0,053	-0,112
-526,262	-200,000	-0,006	0,023
-525,248	-103,239	0,027	0,005
-524,233	-200,000	0,079	-0,000
-523,218	800,000	0,013	0,038
-522,204	264,191	-0,035	-0,044
-521,189	-18,187	-0,102	-0,046
-520,175	-200,000	-0,002	0,040
-519,160	-200,000	-0,002	-0,048
-518,145	241,009	0,076	0,092
-517,131	-200,000	-0,002	0,105
-516,116	101,032	0,132	0,112
-515,102	20,124	-0,050	0,029
-514,087	36,555	-0,057	-0,037
-513,072	-69,532	-0,164	-0,045
-512,058	-110,428	-0,080	0,012
-511,043	800,000	-0,038	0,107
-510,029	-200,000	0,030	0,170
-509,014	-200,000	-0,012	0,068
-507,999	140,963	0,068	0,066
-506,985	-98,251	-0,195	0,036
-505,970	700,761	0,031	-0,059
-504,956	-200,000	-0,028	-0,132
-503,941	423,828	0,136	0,214
-502,926	115,348	-0,108	-0,096
-501,912	37,620	-0,116	-0,075
-500,897	-112,094	-0,008	-0,001
-499,883	-46,676	-0,068	0,024
-498,868	800,000	0,008	-0,018
-497,853	46,667	0,044	-0,030
-496,839	-200,000	0,017	0,089
-495,824	-200,000	0,002	0,023
-494,810	-32,135	0,065	-0,026
-493,795	-42,306	0,034	0,013
-492,781	-79,207	-0,085	-0,021
-491,766	32,410	0,126	-0,079
-490,751	333,884	-0,030	-0,043
-489,737	-200,000	0,003	-0,018
-488,722	-3,081	0,025	-0,012
-487,708	800,000	0,081	0,182
-486,693	-85,932	0,066	0,015
-485,678	800,000	-0,026	0,062
-484,664	800,000	-0,015	0,048
-483,649	-151,964	-0,045	0,002
-482,635	800,000	0,035	-0,092
-481,620	-23,948	0,051	0,022
-480,605	52,477	0,053	0,037
-479,591	-84,967	-0,119	0,027
-478,576	-40,890	0,048	0,018
-477,562	115,684	0,149	-0,132
-476,547	-21,023	-0,122	-0,054
-475,532	26,635	0,055	0,033
-474,518	-200,000	0,011	0,052
-473,503	210,986	0,040	0,046
-472,489	173,547	0,013	-0,013
-471,474	117,994	-0,116	-0,104
-470,459	-40,950	0,029	0,011
-469,445	58,842	-0,076	-0,054
-468,430	-200,000	-0,042	-0,165
-467,416	96,018	0,021	0,017
-466,401	21,358	0,121	-0,071
-465,386	800,000	-0,049	0,141
-464,372	-16,278	-0,071	0,033
-463,357	432,596	-0,088	0,140
-462,343	34,114	-0,093	-0,059
-461,328	37,342	-0,087	0,056
-460,313	-200,000	-0,015	-0,118
-459,299	-51,154	0,107	-0,036
-458,284	-71,213	0,064	0,017
-457,270	800,000	-0,049	0,105
-456,255	-200,000	0,005	0,076
-455,241	-95,849	-0,048	0,009
-454,226	-200,000	-0,016	-0,063
-453,211	-200,000	0,027	0,088
-452,197	-120,201	0,047	-0,006
-451,182	-121,396	0,113	0,013
-450,168	-68,347	-0,117	0,033
-449,153	-200,000	-0,001	-0,104
-448,138	800,000	-0,046	-0,099
-447,124	328,434	0,032	-0,045
-446,109	-200,000	0,006	-0,037
-445,095	1,645	-0,080	0,042
-444,080	800,000	0,082	0,233
-443,065	800,000	-0,032	0,071
-442,051	37,269	-0,095	0,061
-441,036	-75,635	-0,007	-0,002
-440,022	-133,934	-0,031	-0,003
-439,007	-45,914	0,077	0,027
-437,992	26,155	0,134	-0,081
-436,978	521,458	0,073	0,125
-435,963	-98,604	0,136	-0,025
-434,949	-200,000	-0,012	-0,073
-433,934	131,062	-0,058	-0,054
-432,919	53,880	0,187	0,130
-431,905	281,088	-0,030	0,040
-430,890	239,963	0,068	0,083
-429,876	230,834	0,040	0,048
-428,861	56,366	-0,134	0,094
-427,846	147,735	0,119	0,116
-426,832	169,222	-0,056	-0,058
-425,817	270,138	-0,028	-0,036
-424,803	-200,000	-0,006	-0,087
-423,788	675,688	-0,072	-0,136
-422,773	120,400	0,096	0,086
-421,759	208,082	0,064	0,073
-420,744	-2,030	-0,012	0,006
-419,730	79,148	-0,072	-0,056
-418,715	-5,774	0,069	-0,034
-417,701	204,383	-0,070	-0,079
-416,686	-200,000	0,018	-0,073
-415,671	136,445	0,098	0,093
-414,657	-81,756	0,139	-0,033
-413,642	14,695	0,099	0,056
-412,628	800,000	0,022	-0,066
-411,613	-200,000	-0,008	-0,143
-410,598	-23,566	-0,158	-0,069
-409,584	-186,755	-0,056	0,001
-408,569	-200,000	0,013	0,070
-407,555	-104,818	0,122	-0,020
-406,540	800,000	-0,045	0,103
-405,525	-200,000	-0,015	-0,099
-404,511	-32,601	-0,101	-0,041
-403,496	-200,000	-0,012	0,040
-402,482	198,169	-0,052	0,057
-401,467	-77,297	0,112	0,028
-400,452	-200,000	0,010	0,132
-399,438	-127,391	0,100	0,010
-398,423	-93,093	-0,080	-0,016
-397,409	235,760	-0,093	-0,112
-396,394	-121,744	0,101	-0,012
-395,379	689,410	-0,008	0,015
-394,365	-90,647	0,032	0,007
-393,350	-200,000	-0,031	0,181
-392,336	-7,410	0,125	-0,061
-391,321	-200,000	0,014	-0,072
-390,306	-22,137	-0,085	-0,037
-389,292	-200,000	0,039	-0,126
-388,277	47,430	-0,025	-0,017
-387,263	-10,678	0,122	-0,059
-386,248	-200,000	0,031	0,104
-385,233	800,000	0,058	0,148
-384,219	198,231	0,062	0,068
-383,204	-200,000	-0,008	0,033
-382,190	800,000	-0,010	0,032
-381,175	-77,407	0,067	0,017
-380,160	-200,000	-0,026	0,123
-379,146	800,000	-0,012	0,036
-378,131	-131,834	0,129	0,012
-377,117	294,046	-0,067	0,089
-376,102	-134,794	0,070	-0,006
-375,088	-200,000	0,003	-0,031
-374,073	800,000	-0,043	0,088
-373,058	-200,000	0,011	0,120
-372,044	800,000	-0,014	0,045
-371,029	-200,000	0,020	0,069
-370,015	99,907	0,087	-0,073
-369,000	-128,880	-0,118	-0,012
-367,985	-59,137	-0,018	0,005
-366,971	-139,493	-0,114	-0,009
-365,956	800,000	-0,033	0,073
-364,942	151,796	-0,008	0,008
-363,927	265,381	0,059	0,075
-362,912	-47,618	-0,067	0,023
-361,898	-175,337	-0,105	0,002
-360,883	-51,431	-0,141	-0,048
-359,869	376,343	-0,015	0,023
-358,854	800,000	0,019	0,060
-357,839	347,185	-0,092	-0,132
-356,825	-55,021	0,137	0,044
-355,810	-127,531	-0,110	-0,011
-354,796	-107,032	0,045	-0,007
-353,781	-200,000	0,003	-0,128
-352,766	-200,000	-0,022	-0,101
-351,752	-200,000	0,001	-0,113
-350,737	300,205	0,077	0,103
-349,723	161,904	0,124	0,126
-348,708	-47,773	0,045	-0,016
-347,693	-200,000	-0,033	0,147
-346,679	116,472	-0,095	0,084
-345,664	-158,100	0,086	-0,004
-344,650	-200,000	-0,013	0,067
-343,635	-59,667	0,080	0,025
-342,620	307,343	0,030	-0,041
-341,606	137,520	-0,100	-0,095
-340,591	-69,476	0,120	0,033
-339,577	-41,323	-0,106	-0,039
-338,562	-200,000	-0,019	-0,121
-337,548	89,902	-0,056	-0,045
-336,533	-106,566	0,073	-0,012
-335,518	-88,119	0,136	0,029
-334,504	800,000	-0,055	0,123
-333,489	-200,000	-0,050	-0,181
-332,475	-200,000	-0,004	-0,027
-331,460	-16,167	-0,065	-0,030
-330,445	-200,000	0,000	-0,029
-329,431	-200,000	-0,031	-0,223
-328,416	-200,000	0,004	-0,093
-327,402	265,029	0,050	-0,063
-326,387	-200,000	0,013	-0,076
-325,372	-200,000	0,028	-0,148
-324,358	-123,423	-0,167	-0,019
-323,343	501,579	0,037	-0,062
-322,329	-200,000	0,029	0,106
-321,314	-141,215	-0,097	-0,007
-320,299	-9,533	0,156	-0,075
-319,285	-200,000	0,028	0,095
-318,270	367,614	0,024	0,035
-317,256	273,828	0,015	-0,019
-316,241	-115,645	-0,113	-0,015
-315,226	189,780	-0,006	0,007
-314,212	-78,632	0,019	0,005
-313,197	303,670	0,077	0,103
-312,183	-200,000	0,020	-0,082
-311,168	-59,125	-0,128	-0,040
-310,153	-143,299	0,098	-0,007
-309,139	562,948	-0,025	-0,044
-308,124	-49,125	-0,040	-0,014
-307,110	800,000	0,046	-0,116
-306,095	320,408	-0,020	0,028
-305,080	-56,862	0,105	-0,033
-304,066	-20,567	-0,038	-0,017
-303,051	8,741	0,098	0,053
-302,037	315,523	-0,025	0,035
-301,022	70,461	0,063	-0,047
-300,008	-38,896	0,138	0,052
-298,993	83,898	-0,002	-0,002
-297,978	386,222	0,079	0,118
-296,964	509,890	-0,079	-0,134
-295,949	389,108	0,048	-0,072
-294,935	-31,512	-0,050	0,020
-293,920	-22,706	0,036	0,016
-292,905	545,054	0,076	-0,132
-291,891	286,074	0,032	-0,042
-290,876	572,113	-0,008	0,015
-289,862	-200,000	-0,015	0,077
-288,847	114,657	-0,142	0,125
-287,832	65,555	-0,027	-0,020
-286,818	-47,352	0,137	0,048
-285,803	800,000	0,059	0,128
-284,789	128,750	0,116	0,107
-283,774	211,843	-0,096	0,110
-282,759	285,593	-0,077	0,100
-281,745	800,000	0,029	-0,065
-280,730	261,646	0,080	-0,100
-279,716	800,000	0,031	-0,077
-278,701	217,406	0,033	0,037
-277,686	288,242	-0,038	0,050
-276,672	12,039	0,028	0,015
-275,657	-200,000	-0,014	-0,105
-274,643	-200,000	-0,050	-0,173
-273,628	233,098	0,045	-0,054
-272,613	800,000	0,033	-0,097
-271,599	90,461	0,160	0,129
-270,584	568,190	0,013	-0,022
-269,570	-133,835	0,072	-0,006
-268,555	-12,704	-0,106	-0,050
-267,540	517,883	0,013	0,023
-266,526	281,124	0,058	-0,076
-265,511	-120,267	0,024	0,003
-264,497	-112,695	-0,051	-0,007
-263,482	-106,111	-0,090	0,014
-262,467	40,895	0,057	0,037
-261,453	71,210	-0,175	0,131
-260,438	800,000	-0,053	0,113
-259,424	465,621	0,041	-0,066
-258,409	167,244	-0,112	-0,115
-257,395	-71,822	-0,042	-0,011
-256,380	-10,767	0,078	-0,037
-255,365	800,000	-0,019	-0,058
-254,351	-33,991	0,105	-0,041
-253,336	319,505	-0,086	0,118
-252,322	-200,000	-0,028	-0,115
-251,307	800,000	0,029	-0,090
-250,292	-12,630	-0,029	0,014
-249,278	-5,758	0,106	-0,052
-248,263	800,000	0,036	-0,083
-247,249	11,709	0,087	0,048
-246,234	800,000	0,021	0,047
-245,219	-114,812	-0,095	0,013
-244,205	105,937	0,118	-0,101
-243,190	-200,000	0,001	-0,012
-242,176	45,830	0,110	0,073
-241,161	-200,000	0,025	0,093
-240,146	75,034	0,053	-0,040
-239,132	252,524	0,074	0,091
-238,117	-123,103	-0,092	0,010
-237,103	-200,000	-0,027	-0,094
-236,088	420,926	0,049	-0,075
-235,073	348,275	-0,037	0,052
-234,059	213,749	0,086	0,098
-233,044	556,020	-0,006	0,011
-232,030	-200,000	-0,017	-0,062
-231,015	426,269	0,041	-0,063
-230,000	155,540	-0,072	-0,072
-228,986	-200,000	-0,008	-0,027
-227,971	-200,000	-0,030	-0,104
-226,957	800,000	-0,074	0,183
-225,942	285,927	-0,079	0,103
-224,927	-200,000	-0,028	0,129
-223,913	606,640	-0,015	-0,027
-222,898	199,286	-0,140	-0,155
-221,884	346,233	-0,089	-0,126
-220,869	-34,528	-0,118	-0,046
-219,855	131,044	0,007	-0,007
-218,840	-139,045	-0,069	0,005
-217,825	-102,104	-0,081	-0,014
-216,811	-35,823	-0,057	0,022
-215,796	219,042	-0,124	-0,142
-214,782	334,815	-0,064	0,089
-213,767	-51,267	0,090	0,030
-212,752	-113,837	0,131	-0,018
-211,738	-156,868	-0,079	0,003
-210,723	93,444	0,048	-0,039
-209,709	-21,240	-0,095	-0,042
-208,694	800,000	0,056	-0,140
-207,679	223,299	-0,013	-0,015
-206,665	616,486	0,027	0,049
-205,650	800,000	-0,044	0,094
-204,636	725,983	0,032	-0,061
-203,621	77,719	0,069	-0,053
-202,606	146,459	0,022	0,022
-201,592	302,289	-0,128	-0,170
-200,577	-133,853	0,127	-0,011
-199,563	-45,559	0,080	0,028
-198,548	-6,143	0,186	0,091
-197,533	-200,000	-0,002	-0,073
-196,519	-200,000	-0,021	0,106
-195,504	35,899	0,009	-0,006
-194,490	800,000	-0,034	-0,089
-193,475	-88,431	-0,059	-0,013
-192,460	-200,000	-0,018	-0,133
-191,446	-118,157	-0,052	-0,007
-190,431	-14,647	0,168	0,077
-189,417	89,142	-0,132	0,106
-188,402	-104,970	0,077	-0,013
-187,387	271,087	-0,031	0,039
-186,373	29,192	-0,096	-0,059
-185,358	258,435	-0,020	0,024
-184,344	133,218	0,050	0,047
-183,329	-36,705	0,072	-0,028
-182,315	-200,000	0,002	-0,035
-181,300	32,101	-0,093	-0,057
-180,285	-103,360	-0,072	0,012
-179,271	196,143	-0,087	-0,095
-178,256	-200,000	-0,004	-0,145
-177,242	800,000	-0,020	0,050
-176,227	205,316	0,060	0,068
-175,212	-144,493	-0,082	0,005
-174,198	-56,395	0,086	-0,027
-173,183	534,776	-0,026	-0,044
-172,169	555,638	0,034	-0,059
-171,154	-200,000	0,041	-0,185
-170,139	800,000	-0,045	0,109
-169,125	632,602	0,090	0,164
-168,110	224,011	0,046	0,053
-167,096	111,175	-0,058	0,050
-166,081	687,749	0,023	-0,044
-165,066	-108,932	-0,006	0,001
-164,052	-200,000	0,012	0,095
-163,037	-105,419	0,086	-0,014
-162,023	368,917	-0,025	-0,036
-161,008	-200,000	-0,000	0,096
-159,993	102,041	0,069	-0,058
-158,979	551,226	-0,041	0,070
-157,964	-200,000	0,002	-0,021
-156,950	-200,000	0,030	0,124
-155,935	8,523	-0,083	0,045
-154,920	800,000	-0,033	0,079
-153,906	-200,000	-0,003	-0,020
-152,891	-145,652	-0,111	-0,007
-151,877	-60,490	-0,136	0,041
-150,862	-0,680	-0,059	-0,030
-149,847	-67,628	-0,087	0,024
-148,833	400,396	-0,041	-0,061
-147,818	-200,000	-0,025	0,103
-146,804	62,750	0,078	0,056
-145,789	800,000	-0,029	0,084
-144,775	800,000	0,038	-0,092
-143,760	-200,000	-0,019	-0,135
-142,745	800,000	0,057	-0,146
-141,731	-200,000	-0,014	-0,078
-140,716	40,108	0,040	-0,026
-139,702	117,048	0,111	0,098
-138,687	229,339	-0,080	0,094
-137,672	193,332	-0,083	-0,090
-136,658	-80,277	0,086	0,021
-135,643	-57,494	-0,052	-0,016
-134,629	32,336	0,048	-0,030
-133,614	5,203	0,130	-0,068
-132,599	15,684	-0,153	0,086
-131,585	-63,650	0,051	-0,015
-130,570	-50,741	-0,092	-0,031
-129,556	-86,510	-0,098	0,021
-128,541	-36,083	-0,116	0,045
-127,526	-94,289	0,084	-0,016
-126,512	651,676	0,056	-0,103
-125,497	27,617	-0,105	0,063
-124,483	-200,000	0,019	0,135
-123,468	800,000	-0,056	0,121
-122,453	172,811	-0,212	-0,219
-121,439	13,138	-0,147	-0,081
-120,424	800,000	0,012	0,027
