DTS Sentinel unit serial number:	SN410029Multiplexer serial number:	ORYXHardware model number:	OX2-SRSoftware version number:	ORYX F/W v4,00 Oryx Data Collector v3.7.2.0data status	okinstallation	B3 Nyhavnadifferential loss correction	single-endedforward channel	channel 1reverse channel	N/Adate	2023/11/28time	10:22:30forward acquisition time	300,00reverse acquisition time	0,00gamma	499,1914k internal	0,3140k external	0,3140temperature offset calibration	1,0000default loss term (dB/km)	0,3820temperature slope calibration	1,0000multiplexer offset coefficient	1,0000multiplexer slope coefficient	1,0000fibre end	0,00T internal ref (°C)	10,12T ext. ref 1 (°C)	-6,77T ext. ref 2 (°C)	-7,04length (m)	temperature (°C)	Stokes	anti-Stokes-744,400	127,514	-0,220	-0,207
-743,385	93,470	-0,131	0,110
-742,371	800,000	0,040	-0,083
-741,356	-200,000	0,078	0,281
-740,342	255,368	-0,174	-0,222
-739,327	800,000	-0,116	0,334
-738,312	125,321	-0,189	-0,177
-737,298	-200,000	-0,032	0,154
-736,283	-19,584	-0,204	-0,093
-735,269	550,069	-0,135	0,241
-734,254	-14,409	-0,101	-0,048
-733,239	-33,778	-0,252	0,103
-732,225	277,121	-0,107	-0,141
-731,210	-200,000	0,024	0,149
-730,196	-181,460	-0,159	0,002
-729,181	-47,402	-0,075	-0,027
-728,167	800,000	-0,030	-0,075
-727,152	-200,000	-0,002	-0,108
-726,137	-159,527	-0,176	0,007
-725,123	12,985	0,032	0,018
-724,108	7,029	-0,130	-0,071
-723,094	-200,000	-0,013	-0,125
-722,079	501,705	0,038	-0,065
-721,064	750,026	-0,069	0,138
-720,050	82,378	-0,123	-0,099
-719,035	-170,539	0,076	-0,002
-718,021	800,000	-0,058	-0,158
-717,006	800,000	-0,052	-0,165
-715,991	-200,000	0,013	0,089
-714,977	58,552	0,114	-0,082
-713,962	-23,700	0,071	0,031
-712,948	-200,000	-0,016	-0,067
-711,933	800,000	0,023	0,058
-710,918	-20,111	-0,176	0,080
-709,904	348,608	-0,076	-0,111
-708,889	800,000	0,044	-0,109
-707,875	800,000	-0,033	-0,100
-706,860	53,976	0,063	0,045
-705,845	-77,953	-0,190	0,048
-704,831	-200,000	-0,023	0,082
-703,816	-200,000	-0,011	0,070
-702,802	40,219	-0,067	-0,045
-701,787	-200,000	0,021	-0,141
-700,772	-60,428	-0,099	-0,031
-699,758	-200,000	0,011	-0,098
-698,743	347,808	0,054	0,079
-697,729	-200,000	0,014	0,116
-696,714	-200,000	0,015	0,072
-695,699	-154,560	0,042	0,002
-694,685	19,529	0,074	-0,044
-693,670	215,943	-0,089	-0,104
-692,656	510,464	-0,004	0,007
-691,641	97,631	-0,052	0,045
-690,627	-200,000	-0,006	0,054
-689,612	-200,000	0,003	0,104
-688,597	170,719	-0,054	-0,058
-687,583	-200,000	0,004	0,016
-686,568	-200,000	0,002	0,051
-685,554	-200,000	0,014	0,082
-684,539	759,943	-0,075	0,151
-683,524	179,716	-0,084	-0,091
-682,510	-122,960	0,086	0,010
-681,495	-200,000	0,016	0,112
-680,481	-200,000	-0,003	-0,104
-679,466	-200,000	-0,017	-0,076
-678,451	514,889	0,018	0,031
-677,437	800,000	-0,024	-0,052
-676,422	37,305	0,097	0,063
-675,408	-10,937	-0,037	-0,018
-674,393	400,474	0,089	0,139
-673,378	-70,345	0,077	0,022
-672,364	-200,000	-0,009	0,051
-671,349	292,898	0,014	0,018
-670,335	169,939	-0,076	-0,080
-669,320	800,000	-0,035	0,088
-668,305	105,402	-0,027	-0,023
-667,291	-200,000	0,005	0,031
-666,276	45,562	-0,041	-0,028
-665,262	800,000	-0,055	-0,128
-664,247	-200,000	-0,013	-0,072
-663,232	-200,000	-0,032	0,140
-662,218	-200,000	0,005	-0,022
-661,203	800,000	0,050	-0,145
-660,189	-200,000	-0,020	0,085
-659,174	-96,800	-0,113	-0,022
-658,159	-101,690	0,118	0,021
-657,145	-200,000	-0,026	-0,117
-656,130	800,000	-0,022	0,068
-655,116	-119,634	0,096	0,012
-654,101	-164,593	-0,075	-0,002
-653,086	-123,932	0,145	0,017
-652,072	-144,158	0,063	-0,004
-651,057	108,541	-0,029	0,026
-650,043	781,443	-0,090	-0,183
-649,028	58,900	-0,046	0,033
-648,014	15,774	0,176	0,102
-646,999	90,882	-0,146	-0,121
-645,984	242,866	0,025	-0,031
-644,970	-200,000	-0,033	-0,109
-643,955	446,010	-0,058	-0,095
-642,941	800,000	0,038	-0,089
-641,926	257,045	0,069	-0,087
-640,911	-200,000	0,017	-0,062
-639,897	-125,873	0,056	-0,006
-638,882	-200,000	-0,020	0,117
-637,868	-200,000	-0,002	0,086
-636,853	394,784	0,036	-0,055
-635,838	187,108	-0,035	-0,038
-634,824	0,871	-0,073	0,039
-633,809	-68,251	0,162	-0,046
-632,795	31,132	-0,014	0,009
-631,780	-132,335	-0,080	-0,008
-630,765	-200,000	0,034	0,146
-629,751	257,275	-0,087	-0,110
-628,736	-56,744	-0,037	-0,012
-627,722	219,135	-0,053	-0,063
-626,707	-200,000	-0,014	0,107
-625,692	800,000	0,044	0,125
-624,678	-18,119	0,141	0,065
-623,663	103,878	-0,105	-0,091
-622,649	-200,000	0,024	0,099
-621,634	-161,170	-0,205	-0,008
-620,619	-200,000	-0,026	-0,144
-619,605	-97,031	0,044	0,008
-618,590	-200,000	-0,018	0,193
-617,576	-89,945	0,107	0,023
-616,561	-84,190	-0,076	-0,018
-615,546	240,547	-0,081	0,100
-614,532	-200,000	-0,009	-0,095
-613,517	-172,307	-0,100	0,002
-612,503	76,986	-0,043	0,034
-611,488	800,000	0,028	0,079
-610,474	800,000	-0,017	-0,045
-609,459	-30,860	0,147	0,061
-608,444	-17,664	-0,034	-0,016
-607,430	800,000	-0,053	-0,133
-606,415	-200,000	-0,031	-0,122
-605,401	43,355	-0,043	-0,029
-604,386	452,405	-0,055	0,091
-603,371	738,661	0,040	0,080
-602,357	-94,634	0,057	-0,011
-601,342	-200,000	0,004	0,043
-600,328	703,445	-0,069	0,135
-599,313	768,921	0,046	-0,093
-598,298	18,606	-0,040	0,023
-597,284	347,616	-0,033	-0,048
-596,269	-102,196	-0,069	0,012
-595,255	-97,151	-0,202	-0,039
-594,240	-90,944	-0,013	-0,003
-593,225	41,620	-0,133	-0,089
-592,211	126,105	0,026	-0,024
-591,196	66,359	0,049	0,036
-590,182	-126,130	-0,110	0,012
-589,167	677,118	0,054	0,103
-588,152	139,997	0,085	-0,083
-587,138	-32,731	-0,139	-0,057
-586,123	107,893	0,100	-0,088
-585,109	800,000	-0,061	0,132
-584,094	62,960	-0,068	0,050
-583,079	800,000	0,053	0,150
-582,065	-200,000	0,021	0,069
-581,050	-200,000	-0,033	0,176
-580,036	77,754	-0,116	0,091
-579,021	-200,000	0,004	-0,173
-578,006	-200,000	-0,013	0,109
-576,992	-200,000	0,009	-0,050
-575,977	-200,000	-0,006	0,063
-574,963	800,000	0,034	0,095
-573,948	152,602	-0,066	0,067
-572,934	-200,000	0,015	0,107
-571,919	-24,415	-0,017	-0,008
-570,904	492,454	-0,088	-0,149
-569,890	327,682	0,039	-0,056
-568,875	497,511	-0,065	0,111
-567,861	-12,005	0,070	-0,034
-566,846	-66,645	-0,100	-0,029
-565,831	-199,415	-0,081	0,000
-564,817	-82,354	-0,111	-0,026
-563,802	-200,000	-0,012	0,104
-562,788	-200,000	-0,002	-0,047
-561,773	132,334	-0,065	0,062
-560,758	800,000	-0,003	-0,007
-559,744	-141,579	0,011	-0,001
-558,729	800,000	0,019	0,057
-557,715	397,944	-0,100	-0,154
-556,700	21,572	-0,074	0,044
-555,685	800,000	-0,030	-0,082
-554,671	-200,000	-0,014	0,046
-553,656	29,105	0,101	-0,063
-552,642	-200,000	0,036	0,125
-551,627	260,634	-0,129	0,165
-550,612	-102,640	-0,059	0,010
-549,598	-160,556	0,170	0,007
-548,583	2,352	-0,112	0,059
-547,569	-77,553	0,151	-0,038
-546,554	-200,000	-0,011	-0,083
-545,539	493,761	-0,025	-0,043
-544,525	-200,000	0,015	-0,082
-543,510	-190,988	-0,055	0,000
-542,496	-200,000	0,029	0,117
-541,481	-182,621	-0,035	-0,000
-540,466	-200,000	0,013	0,133
-539,452	159,081	-0,054	-0,055
-538,437	427,923	-0,036	-0,057
-537,423	235,418	0,119	0,144
-536,408	-200,000	-0,015	-0,090
-535,393	-200,000	-0,035	0,000
-534,379	-20,524	0,171	0,077
-533,364	-186,405	0,065	-0,001
-532,350	389,702	0,065	-0,099
-531,335	800,000	0,025	-0,071
-530,321	800,000	0,038	-0,080
-529,306	-200,000	0,007	0,076
-528,291	38,119	-0,035	0,023
-527,277	-200,000	0,019	-0,103
-526,262	800,000	-0,033	-0,083
-525,248	-93,662	-0,065	0,013
-524,233	-36,780	0,129	-0,051
-523,218	230,311	-0,075	0,090
-522,204	648,577	-0,038	-0,072
-521,189	-143,801	-0,059	-0,004
-520,175	800,000	-0,027	-0,063
-519,160	-63,607	-0,116	0,035
-518,145	-123,713	0,090	0,010
-517,131	53,083	-0,094	-0,066
-516,116	94,619	-0,067	0,056
-515,102	776,022	-0,024	0,048
-514,087	79,973	0,104	-0,082
-513,072	-200,000	-0,015	-0,146
-512,058	123,032	-0,025	-0,023
-511,043	-200,000	0,010	-0,066
-510,029	800,000	-0,047	0,109
-509,014	226,932	0,110	0,132
-507,999	19,104	-0,107	-0,063
-506,985	51,433	0,023	-0,016
-505,970	-200,000	-0,004	-0,088
-504,956	-200,000	0,021	-0,152
-503,941	205,856	0,057	0,065
-502,926	-200,000	0,005	-0,024
-501,912	148,706	0,105	0,104
-500,897	-107,648	0,051	-0,008
-499,883	445,959	0,013	-0,020
-498,868	-99,833	-0,101	0,018
-497,853	-122,857	0,110	-0,013
-496,839	-117,177	-0,118	-0,016
-495,824	-200,000	0,013	0,048
-494,810	467,031	0,051	0,085
-493,795	800,000	0,042	0,114
-492,781	59,964	0,021	0,015
-491,766	-200,000	0,003	-0,103
-490,751	223,776	-0,084	0,100
-489,737	800,000	-0,022	-0,061
-488,722	-200,000	0,001	-0,046
-487,708	-200,000	0,002	-0,017
-486,693	548,448	0,065	0,114
-485,678	-120,490	-0,046	-0,006
-484,664	800,000	-0,026	-0,068
-483,649	266,608	0,059	-0,076
-482,635	363,861	-0,031	-0,046
-481,620	569,750	-0,042	-0,075
-480,605	-46,676	-0,189	0,067
-479,591	800,000	0,015	0,030
-478,576	-143,682	-0,143	0,010
-477,562	-12,685	0,031	0,015
-476,547	-200,000	-0,007	-0,106
-475,532	-200,000	-0,021	-0,072
-474,518	-49,861	0,186	-0,064
-473,503	284,946	0,074	-0,097
-472,489	63,559	-0,082	-0,060
-471,474	-150,412	0,126	-0,007
-470,459	-106,801	0,036	-0,006
-469,445	-40,941	-0,049	-0,019
-468,430	-200,000	-0,002	0,047
-467,416	235,466	0,100	-0,121
-466,401	-59,640	0,111	0,035
-465,386	13,490	-0,140	0,079
-464,372	567,880	-0,028	-0,049
-463,357	89,577	-0,037	0,030
-462,343	-52,611	0,043	0,015
-461,328	-200,000	-0,005	-0,161
-460,313	-23,199	0,119	-0,052
-459,299	381,601	0,040	-0,061
-458,284	-200,000	-0,004	0,049
-457,270	-200,000	-0,006	0,045
-456,255	-200,000	-0,024	0,082
-455,241	78,572	-0,118	-0,092
-454,226	206,067	-0,055	-0,063
-453,211	-11,024	0,055	-0,027
-452,197	-200,000	0,011	-0,055
-451,182	37,761	0,006	-0,004
-450,168	-62,433	0,167	-0,051
-449,153	-200,000	0,005	-0,021
-448,138	800,000	-0,040	-0,127
-447,124	494,146	-0,053	-0,089
-446,109	382,436	0,021	-0,031
-445,095	144,167	-0,054	0,053
-444,080	148,180	0,067	0,067
-443,065	56,027	-0,046	-0,032
-442,051	73,196	-0,075	0,058
-441,036	159,666	0,035	-0,036
-440,022	148,553	-0,072	-0,071
-439,007	800,000	-0,046	0,130
-437,992	90,275	0,062	0,051
-436,978	36,480	0,058	-0,037
-435,963	800,000	0,022	-0,059
-434,949	-73,700	-0,035	0,009
-433,934	-4,546	-0,023	-0,011
-432,919	-139,389	-0,166	0,013
-431,905	-200,000	0,009	0,100
-430,890	41,242	0,079	-0,052
-429,876	20,171	0,071	0,042
-428,861	-200,000	-0,021	0,079
-427,846	800,000	-0,018	0,044
-426,832	177,590	-0,071	-0,075
-425,817	800,000	-0,037	-0,090
-424,803	81,957	-0,121	0,096
-423,788	-57,975	0,131	0,042
-422,773	582,633	-0,031	-0,056
-421,759	-99,062	-0,023	0,004
-420,744	-16,366	-0,080	-0,037
-419,730	-74,843	-0,132	0,034
-418,715	-200,000	0,033	-0,108
-417,701	74,670	-0,047	-0,036
-416,686	-42,488	-0,124	0,046
-415,671	93,869	-0,020	0,016
-414,657	192,996	-0,055	0,061
-413,642	98,273	0,084	-0,071
-412,628	97,912	-0,059	0,049
-411,613	61,762	0,028	0,020
-410,598	289,309	-0,072	-0,096
-409,584	-62,369	0,080	0,024
-408,569	800,000	-0,043	0,094
-407,555	-200,000	-0,015	-0,087
-406,540	68,176	0,165	0,124
-405,525	633,784	0,030	0,056
-404,511	44,580	-0,054	-0,036
-403,496	-77,597	-0,133	0,033
-402,482	73,955	0,096	0,073
-401,467	-71,254	0,066	0,018
-400,452	-200,000	-0,004	0,069
-399,438	800,000	-0,033	0,074
-398,423	52,667	0,092	-0,064
-397,409	800,000	0,025	0,052
-396,394	129,163	-0,222	-0,208
-395,379	-52,780	0,213	-0,072
-394,365	-47,444	0,225	0,080
-393,350	800,000	0,027	0,077
-392,336	-200,000	-0,014	-0,058
-391,321	800,000	-0,019	-0,060
-390,306	-147,150	-0,047	-0,003
-389,292	800,000	-0,021	-0,061
-388,277	87,115	-0,100	-0,080
-387,263	800,000	-0,045	-0,099
-386,248	-200,000	-0,011	-0,090
-385,233	145,555	0,057	0,056
-384,219	-119,348	-0,111	-0,014
-383,204	379,251	0,044	0,067
-382,190	-100,419	-0,109	-0,020
-381,175	-200,000	0,015	0,067
-380,160	-200,000	0,050	0,166
-379,146	-200,000	0,010	0,287
-378,131	-78,803	-0,031	0,008
-377,117	-60,391	-0,089	0,027
-376,102	-200,000	-0,033	-0,132
-375,088	14,196	-0,075	-0,043
-374,073	-73,998	-0,053	0,014
-373,058	-200,000	-0,022	0,086
-372,044	800,000	-0,022	-0,059
-371,029	203,188	0,047	0,053
-370,015	495,990	-0,031	-0,053
-369,000	75,003	-0,031	-0,024
-367,985	428,677	-0,043	-0,068
-366,971	187,275	-0,055	-0,060
-365,956	7,934	-0,074	0,041
-364,942	372,802	-0,036	0,054
-363,927	-200,000	0,012	0,155
-362,912	-200,000	-0,029	-0,104
-361,898	-48,587	-0,086	-0,030
-360,883	-200,000	0,011	-0,141
-359,869	-133,544	0,061	-0,005
-358,854	-18,342	0,120	-0,055
-357,839	800,000	0,047	0,123
-356,825	225,426	0,037	-0,044
-355,810	800,000	0,019	-0,041
-354,796	-29,364	0,076	0,032
-353,781	800,000	-0,045	-0,141
-352,766	648,211	-0,046	-0,086
-351,752	-34,544	0,156	-0,062
-350,737	-131,433	0,064	-0,006
-349,723	301,589	0,076	-0,103
-348,708	124,557	0,104	0,096
-347,693	-200,000	-0,003	0,014
-346,679	100,130	-0,055	0,047
-345,664	-200,000	0,009	-0,040
-344,650	322,013	0,109	-0,152
-343,635	-200,000	-0,030	0,097
-342,620	99,155	0,041	-0,034
-341,606	-112,667	0,121	-0,017
-340,591	180,577	-0,008	0,008
-339,577	-26,828	0,129	0,055
-338,562	587,107	0,033	-0,060
-337,548	-200,000	-0,001	0,152
-336,533	-63,697	0,128	-0,038
-335,518	800,000	0,025	-0,067
-334,504	19,271	0,060	0,035
-333,489	-88,864	-0,060	0,013
-332,475	-114,838	0,032	-0,004
-331,460	-154,436	-0,038	-0,002
-330,445	7,466	-0,106	0,058
-329,431	-200,000	0,028	0,181
-328,416	800,000	0,021	0,055
-327,402	64,768	0,074	0,054
-326,387	-25,745	0,077	-0,033
-325,372	-200,000	0,012	-0,119
-324,358	-200,000	0,025	-0,096
-323,343	-40,282	0,078	0,030
-322,329	-200,000	0,011	0,136
-321,314	113,203	0,121	0,107
-320,299	-200,000	-0,005	0,080
-319,285	613,933	0,059	0,108
-318,270	-200,000	-0,007	0,049
-317,256	86,836	0,081	-0,065
-316,241	800,000	-0,061	-0,149
-315,226	-200,000	0,016	-0,055
-314,212	51,370	0,102	0,070
-313,197	-49,546	0,081	0,028
-312,183	266,913	-0,019	-0,024
-311,168	-128,769	0,044	0,004
-310,153	-11,042	0,142	0,068
-309,139	-41,854	-0,151	-0,056
-308,124	-200,000	0,011	-0,126
-307,110	-200,000	-0,003	-0,041
-306,095	66,350	-0,064	0,047
-305,080	-146,726	0,084	0,005
-304,066	69,448	0,072	-0,054
-303,051	348,871	0,017	-0,025
-302,037	800,000	-0,012	0,026
-301,022	331,372	-0,084	0,118
-300,008	332,290	0,053	0,075
-298,993	-200,000	-0,028	0,176
-297,978	-200,000	0,003	0,030
-296,964	467,514	-0,010	0,017
-295,949	234,652	-0,103	-0,124
-294,935	52,235	-0,067	-0,046
-293,920	4,577	0,054	0,029
-292,905	171,358	0,106	0,111
-291,891	244,023	0,088	0,108
-290,876	800,000	0,031	0,087
-289,862	-135,690	-0,134	0,011
-288,847	800,000	-0,038	-0,119
-287,832	-103,956	-0,041	-0,007
-286,818	-115,933	0,063	-0,009
-285,803	800,000	-0,033	0,095
-284,789	800,000	0,014	-0,042
-283,774	-88,947	-0,035	0,007
-282,759	-139,329	-0,145	-0,011
-281,745	800,000	0,028	-0,073
-280,730	-21,613	-0,069	0,031
-279,716	78,402	0,025	0,019
-278,701	-51,333	0,103	-0,035
-277,686	800,000	0,050	0,103
-276,672	95,100	0,069	0,057
-275,657	-14,561	0,082	-0,038
-274,643	800,000	-0,040	-0,117
-273,628	-200,000	-0,000	-0,015
-272,613	354,557	-0,113	0,164
-271,599	-117,486	0,109	0,014
-270,584	82,477	-0,138	0,109
-269,570	-127,959	0,059	-0,006
-268,555	42,371	0,180	0,119
-267,540	224,852	-0,096	-0,113
-266,526	-200,000	-0,019	-0,069
-265,511	76,645	0,095	0,073
-264,497	-143,901	-0,065	-0,004
-263,482	61,136	0,125	0,090
-262,467	270,830	0,027	0,035
-261,453	-55,225	-0,058	0,019
-260,438	800,000	0,053	0,113
-259,424	-200,000	0,045	-0,160
-258,409	-85,130	-0,035	-0,008
-257,395	-200,000	0,010	-0,207
-256,380	-200,000	-0,003	-0,059
-255,365	-200,000	0,004	0,061
-254,351	54,626	0,076	0,053
-253,336	-200,000	0,013	0,112
-252,322	256,603	0,044	0,056
-251,307	-35,706	-0,178	-0,070
-250,292	-68,388	0,050	0,014
-249,278	-79,819	0,124	0,030
-248,263	-200,000	-0,014	-0,073
-247,249	-82,678	0,132	-0,031
-246,234	800,000	-0,023	0,070
-245,219	19,877	-0,104	0,061
-244,205	-200,000	0,007	0,026
-243,190	-200,000	-0,014	0,071
-242,176	254,059	0,055	0,069
-241,161	119,015	-0,041	0,037
-240,146	560,645	0,073	0,130
-239,132	-125,743	0,076	0,008
-238,117	-36,931	0,090	0,035
-237,103	-61,604	-0,208	-0,063
-236,088	131,863	0,041	-0,038
-235,073	130,773	-0,014	0,013
-234,059	-22,966	0,088	0,038
-233,044	800,000	-0,054	0,110
-232,030	-41,651	-0,088	-0,033
-231,015	-120,426	-0,061	-0,007
-230,000	-128,943	0,022	-0,002
-228,986	-35,408	-0,047	-0,018
-227,971	88,598	0,081	-0,066
-226,957	428,462	-0,029	-0,046
-225,942	-184,743	0,112	-0,001
-224,927	800,000	-0,051	-0,132
-223,913	213,573	-0,082	0,094
-222,898	800,000	0,027	0,063
-221,884	53,971	-0,078	-0,054
-220,869	141,097	0,073	-0,070
-219,855	16,663	0,110	-0,063
-218,840	93,425	0,055	-0,045
-217,825	-200,000	0,008	-0,105
-216,811	-200,000	-0,019	-0,191
-215,796	63,267	0,030	0,022
-214,782	800,000	0,008	-0,018
-213,767	63,897	0,062	0,045
-212,752	800,000	-0,024	0,056
-211,738	171,699	0,040	0,042
-210,723	-200,000	0,017	-0,058
-209,709	-131,988	0,125	-0,012
-208,694	4,546	-0,168	-0,089
-207,679	800,000	-0,011	-0,030
-206,665	-61,420	0,064	0,019
-205,650	-200,000	-0,010	0,078
-204,636	113,825	0,104	0,092
-203,621	207,945	-0,027	-0,030
-202,606	-32,456	-0,059	-0,024
-201,592	-133,003	0,167	0,015
-200,577	36,058	-0,103	-0,066
-199,563	-50,586	-0,185	-0,063
-198,548	357,517	0,025	-0,036
-197,533	-27,994	0,126	-0,053
-196,519	115,227	-0,105	0,093
-195,504	130,883	-0,034	0,032
-194,490	93,770	0,012	-0,010
-193,475	-39,642	-0,071	-0,027
-192,460	8,769	0,123	0,067
-191,446	23,350	0,009	-0,005
-190,431	-134,404	0,115	0,010
-189,417	52,412	-0,099	0,068
-188,402	92,356	0,194	0,158
-187,387	121,367	-0,033	-0,030
-186,373	556,019	-0,066	-0,116
-185,358	-66,981	0,072	0,021
-184,344	-37,848	-0,106	0,041
-183,329	-23,057	0,071	-0,031
-182,315	-200,000	0,024	0,178
-181,300	800,000	0,017	0,046
-180,285	334,366	0,025	-0,035
-179,271	90,660	-0,056	-0,046
-178,256	800,000	0,038	-0,091
-177,242	-61,479	-0,061	-0,019
-176,227	-200,000	0,003	-0,102
-175,212	800,000	0,078	0,230
-174,198	3,162	-0,117	-0,062
-173,183	-200,000	0,012	-0,107
-172,169	82,688	0,048	0,038
-171,154	327,875	0,061	0,086
-170,139	-200,000	0,005	-0,096
-169,125	-52,966	0,036	-0,012
-168,110	-95,447	-0,178	-0,034
-167,096	571,354	0,074	-0,130
-166,081	-200,000	0,026	-0,097
-165,066	-200,000	-0,003	-0,028
-164,052	-121,270	0,178	0,021
-163,037	72,642	0,096	0,072
-162,023	161,382	0,048	0,049
-161,008	-41,840	-0,072	0,027
-159,993	58,362	-0,082	-0,058
-158,979	239,588	-0,161	-0,195
-157,964	-96,037	-0,165	-0,031
-156,950	59,952	-0,012	0,008
-155,935	-200,000	0,022	0,119
-154,920	505,531	-0,041	-0,068
-153,906	333,586	0,027	0,038
-152,891	65,014	0,037	-0,027
-151,877	-200,000	0,005	0,091
-150,862	413,523	-0,053	-0,082
-149,847	-101,861	0,110	-0,019
-148,833	-60,787	0,067	0,020
-147,818	113,659	0,101	0,089
-146,804	-141,998	0,158	-0,011
-145,789	705,252	-0,045	0,087
-144,775	800,000	-0,053	-0,134
-143,760	3,590	-0,026	0,014
-142,745	103,749	-0,131	-0,111
-141,731	119,014	0,026	0,024
-140,716	800,000	0,031	0,086
-139,702	-200,000	0,017	0,183
-138,687	146,119	-0,040	-0,039
-137,672	-23,582	-0,075	-0,033
-136,658	-22,397	-0,095	-0,042
-135,643	745,131	0,048	-0,093
-134,629	412,389	0,056	-0,086
-133,614	800,000	-0,020	0,044
-132,599	800,000	0,020	0,047
-131,585	-200,000	0,009	0,076
-130,570	23,316	0,105	-0,062
-129,556	-200,000	0,041	-0,204
-128,541	65,525	-0,075	0,055
-127,526	47,764	0,053	0,036
-126,512	117,794	0,128	0,114
-125,497	800,000	0,044	0,120
-124,483	-200,000	0,004	0,069
-123,468	-33,708	0,116	0,046
-122,453	800,000	-0,047	-0,112
-121,439	-200,000	-0,008	-0,124
-120,424	-200,000	0,007	-0,070
-119,410	195,359	0,084	0,093
