DTS Sentinel unit serial number:	SN410029Multiplexer serial number:	ORYXHardware model number:	OX2-SRSoftware version number:	ORYX F/W v4,00 Oryx Data Collector v3.7.2.0data status	okinstallation	B3 Nyhavnadifferential loss correction	single-endedforward channel	channel 1reverse channel	N/Adate	2023/11/28time	12:07:30forward acquisition time	300,00reverse acquisition time	0,00gamma	499,1914k internal	0,3143k external	0,3143temperature offset calibration	1,0000default loss term (dB/km)	0,3820temperature slope calibration	1,0000multiplexer offset coefficient	1,0000multiplexer slope coefficient	1,0000fibre end	0,00T internal ref (°C)	8,72T ext. ref 1 (°C)	-7,51T ext. ref 2 (°C)	-7,72length (m)	temperature (°C)	Stokes	anti-Stokes-744,400	253,360	-0,175	-0,222
-743,385	-200,000	0,008	0,418
-742,371	656,275	-0,102	-0,196
-741,356	-200,000	-0,083	0,339
-740,342	16,194	-0,257	-0,150
-739,327	-200,000	-0,023	0,420
-738,312	302,577	-0,171	-0,235
-737,298	-200,000	-0,017	0,199
-736,283	299,857	-0,175	-0,240
-735,269	618,730	-0,105	0,195
-734,254	118,732	-0,246	-0,225
-733,239	-89,448	-0,288	-0,062
-732,225	514,313	-0,084	-0,145
-731,210	-152,430	0,215	0,011
-730,196	800,000	0,011	-0,028
-729,181	26,171	-0,124	-0,076
-728,167	609,608	-0,039	-0,073
-727,152	800,000	-0,028	0,077
-726,137	74,715	-0,052	-0,040
-725,123	-60,662	-0,106	0,033
-724,108	-200,000	0,001	-0,011
-723,094	-98,351	-0,192	0,036
-722,079	14,528	-0,160	0,092
-721,064	199,719	-0,141	0,160
-720,050	-5,715	0,094	-0,048
-719,035	-15,231	0,033	0,016
-718,021	-167,986	-0,175	0,005
-717,006	-80,333	0,043	0,011
-715,991	530,722	-0,084	0,147
-714,977	167,411	-0,081	-0,086
-713,962	47,386	0,029	0,020
-712,948	-66,842	0,149	-0,043
-711,933	-5,998	-0,044	-0,022
-710,918	47,629	0,130	0,089
-709,904	-200,000	-0,011	-0,053
-708,889	-200,000	-0,009	-0,052
-707,875	319,935	0,079	-0,112
-706,860	-200,000	-0,016	0,182
-705,845	-49,279	-0,019	-0,007
-704,831	-4,558	0,118	-0,060
-703,816	258,152	0,020	-0,025
-702,802	800,000	-0,077	0,157
-701,787	130,852	-0,020	-0,019
-700,772	11,748	0,080	-0,045
-699,758	-90,508	-0,109	0,023
-698,743	123,659	-0,082	0,076
-697,729	-200,000	-0,008	0,079
-696,714	250,857	0,020	0,026
-695,699	-200,000	0,008	-0,027
-694,685	19,678	0,084	-0,050
-693,670	175,006	-0,084	-0,090
-692,656	-146,263	0,113	-0,007
-691,641	800,000	-0,039	-0,118
-690,627	-46,441	0,082	0,029
-689,612	-117,963	-0,167	0,022
-688,597	-103,119	-0,155	-0,027
-687,583	80,111	-0,103	-0,082
-686,568	800,000	0,015	-0,041
-685,554	160,826	0,041	0,042
-684,539	133,665	-0,112	0,107
-683,524	-200,000	-0,011	-0,078
-682,510	-200,000	-0,005	0,231
-681,495	-13,557	-0,048	0,023
-680,481	256,940	-0,094	0,120
-679,466	-59,745	-0,095	-0,030
-678,451	-16,540	-0,035	0,016
-677,437	-70,210	-0,136	-0,038
-676,422	-200,000	-0,003	-0,122
-675,408	-200,000	-0,045	0,160
-674,393	82,608	-0,023	-0,019
-673,378	9,687	-0,097	-0,054
-672,364	-64,026	-0,119	-0,036
-671,349	-200,000	-0,008	0,069
-670,335	108,798	0,080	0,071
-669,320	448,455	0,012	-0,019
-668,305	-115,848	-0,062	-0,008
-667,291	223,202	0,041	0,049
-666,276	-129,225	-0,117	0,012
-665,262	-200,000	0,014	-0,117
-664,247	-36,259	0,114	-0,045
-663,232	119,632	-0,026	0,024
-662,218	-4,231	-0,070	-0,036
-661,203	-157,022	-0,110	0,005
-660,189	-20,286	-0,025	-0,011
-659,174	-200,000	-0,004	0,026
-658,159	295,786	0,056	-0,076
-657,145	578,074	-0,033	-0,060
-656,130	-127,263	-0,021	-0,002
-655,116	800,000	0,015	0,032
-654,101	344,001	0,068	-0,099
-653,086	96,163	0,064	-0,054
-652,072	-33,137	0,141	-0,057
-651,057	-33,253	-0,142	0,058
-650,043	753,473	-0,039	-0,077
-649,028	-200,000	0,010	0,068
-648,014	-39,815	0,104	0,040
-646,999	26,499	0,098	0,060
-645,984	-200,000	0,011	0,160
-644,970	-200,000	-0,017	-0,058
-643,955	-200,000	0,008	0,059
-642,941	106,777	-0,026	-0,022
-641,926	-77,405	-0,021	-0,005
-640,911	-83,115	0,071	-0,017
-639,897	92,550	-0,022	-0,019
-638,882	-200,000	-0,010	0,126
-637,868	307,811	-0,038	-0,053
-636,853	-81,121	-0,033	-0,008
-635,838	200,282	-0,072	-0,082
-634,824	47,867	-0,066	-0,046
-633,809	-200,000	-0,007	-0,114
-632,795	143,574	-0,022	-0,022
-631,780	-200,000	-0,008	-0,064
-630,765	-200,000	0,002	-0,063
-629,751	-28,782	-0,066	-0,028
-628,736	800,000	-0,014	-0,034
-627,722	128,608	-0,063	0,059
-626,707	6,658	0,051	-0,028
-625,692	87,117	0,110	-0,090
-624,678	-52,254	0,147	-0,050
-623,663	233,908	0,059	0,072
-622,649	422,267	-0,061	-0,097
-621,634	-200,000	-0,006	-0,021
-620,619	-200,000	-0,016	-0,082
-619,605	-33,933	-0,026	-0,010
-618,590	103,692	0,055	0,048
-617,576	-95,449	0,036	0,007
-616,561	35,578	-0,099	0,064
-615,546	10,900	0,084	-0,047
-614,532	-124,191	-0,115	-0,013
-613,517	-200,000	-0,020	-0,199
-612,503	-200,000	0,023	-0,092
-611,488	-9,457	0,114	-0,056
-610,474	6,843	-0,118	0,064
-609,459	395,263	-0,118	0,182
-608,444	596,741	0,039	-0,071
-607,430	143,611	-0,108	0,106
-606,415	755,428	0,042	-0,083
-605,401	-165,649	0,042	-0,001
-604,386	72,869	-0,040	0,031
-603,371	150,185	-0,037	0,037
-602,357	272,622	-0,083	0,108
-601,342	800,000	0,035	0,085
-600,328	12,846	-0,056	0,032
-599,313	12,975	-0,151	-0,086
-598,298	160,204	0,095	-0,098
-597,284	-51,741	0,064	-0,022
-596,269	-126,734	-0,089	0,010
-595,255	-106,686	-0,116	-0,019
-594,240	800,000	-0,049	-0,114
-593,225	800,000	-0,011	0,022
-592,211	54,093	-0,024	-0,017
-591,196	-80,131	-0,097	-0,024
-590,182	-200,000	-0,005	-0,098
-589,167	531,083	0,049	0,086
-588,152	-200,000	-0,013	-0,074
-587,138	75,911	0,065	0,051
-586,123	-106,799	0,061	-0,010
-585,109	800,000	-0,048	-0,100
-584,094	800,000	-0,027	-0,077
-583,079	-171,412	-0,095	-0,002
-582,065	98,445	0,094	-0,079
-581,050	21,295	-0,048	0,028
-580,036	-30,834	0,099	-0,041
-579,021	-40,176	-0,137	-0,052
-578,006	156,989	-0,062	-0,063
-576,992	-200,000	0,018	0,081
-575,977	-33,766	-0,050	-0,020
-574,963	165,516	0,049	-0,052
-573,948	418,950	-0,079	0,125
-572,934	217,196	0,058	-0,068
-571,919	15,537	-0,008	-0,005
-570,904	800,000	0,023	-0,073
-569,890	47,034	0,036	-0,025
-568,875	7,500	0,086	-0,047
-567,861	5,926	-0,125	0,068
-566,846	405,530	0,068	0,106
-565,831	74,458	0,070	-0,054
-564,817	666,261	-0,040	0,076
-563,802	138,965	-0,120	-0,116
-562,788	120,455	-0,017	0,016
-561,773	-122,820	0,077	0,009
-560,758	0,065	0,019	0,010
-559,744	174,496	-0,002	-0,003
-558,729	107,031	-0,109	-0,095
-557,715	-200,000	0,014	-0,120
-556,700	470,109	0,075	-0,125
-555,685	575,435	-0,038	0,069
-554,671	800,000	-0,057	0,158
-553,656	190,496	-0,085	0,094
-552,642	-38,308	-0,083	-0,032
-551,627	4,517	0,031	-0,016
-550,612	-88,438	-0,094	-0,020
-549,598	800,000	-0,068	0,154
-548,583	-91,395	-0,072	-0,015
-547,569	195,364	0,049	0,055
-546,554	-200,000	0,009	-0,106
-545,539	-92,154	0,152	0,031
-544,525	-200,000	0,042	0,161
-543,510	308,049	0,059	0,081
-542,496	138,325	-0,076	0,073
-541,481	72,997	-0,131	-0,101
-540,466	-181,635	0,132	0,002
-539,452	-200,000	-0,010	0,054
-538,437	-200,000	-0,019	0,171
-537,423	671,285	-0,032	0,061
-536,408	792,734	0,027	-0,055
-535,393	41,880	-0,075	-0,050
-534,379	319,732	0,004	0,006
-533,364	-147,780	-0,154	0,009
-532,350	276,168	0,098	0,128
-531,335	109,063	0,055	-0,048
-530,321	63,542	0,040	-0,030
-529,306	132,959	-0,050	-0,047
-528,291	800,000	-0,043	-0,126
-527,277	-200,000	-0,020	-0,114
-526,262	-37,502	-0,067	-0,026
-525,248	231,444	-0,050	0,060
-524,233	800,000	0,024	0,062
-523,218	49,626	0,057	0,040
-522,204	45,519	-0,072	-0,049
-521,189	105,157	0,043	-0,038
-520,175	46,933	-0,093	-0,063
-519,160	800,000	-0,030	-0,080
-518,145	-48,777	0,160	-0,056
-517,131	-84,225	-0,090	0,021
-516,116	-200,000	0,013	0,091
-515,102	30,430	0,139	0,087
-514,087	251,510	-0,047	-0,059
-513,072	-135,026	0,109	0,010
-512,058	-200,000	-0,015	0,068
-511,043	-200,000	0,002	0,078
-510,029	428,630	-0,085	-0,135
-509,014	57,687	0,056	0,040
-507,999	-200,000	-0,015	0,092
-506,985	682,807	0,057	0,109
-505,970	611,286	-0,050	-0,092
-504,956	800,000	0,044	-0,108
-503,941	525,346	-0,036	0,062
-502,926	-47,965	-0,079	-0,028
-501,912	-2,456	-0,113	0,058
-500,897	800,000	-0,038	0,102
-499,883	222,928	-0,038	-0,045
-498,868	-55,361	0,059	-0,019
-497,853	290,718	0,036	0,048
-496,839	-120,807	-0,030	-0,004
-495,824	-200,000	0,004	-0,033
-494,810	-32,953	0,071	-0,029
-493,795	45,863	-0,032	-0,022
-492,781	456,045	-0,022	0,036
-491,766	50,830	0,034	0,024
-490,751	-54,490	-0,050	0,017
-489,737	314,414	0,058	0,081
-488,722	18,025	-0,046	-0,027
-487,708	608,056	0,090	-0,165
-486,693	-200,000	-0,036	0,136
-485,678	142,459	-0,066	-0,064
-484,664	214,958	-0,044	-0,052
-483,649	157,326	-0,030	-0,030
-482,635	-200,000	-0,008	-0,081
-481,620	29,431	0,079	-0,049
-480,605	-200,000	-0,007	0,110
-479,591	-74,485	-0,037	0,010
-478,576	-200,000	-0,054	0,193
-477,562	-200,000	-0,022	-0,153
-476,547	85,698	0,095	0,077
-475,532	28,449	-0,054	0,034
-474,518	-95,562	0,109	-0,021
-473,503	-200,000	-0,008	-0,063
-472,489	800,000	0,023	0,058
-471,474	4,375	0,092	0,049
-470,459	-200,000	-0,041	-0,149
-469,445	83,825	-0,099	0,079
-468,430	-135,549	0,021	0,002
-467,416	-143,715	0,188	0,013
-466,401	775,331	0,010	-0,020
-465,386	-184,049	0,163	-0,002
-464,372	800,000	-0,031	-0,067
-463,357	122,509	-0,176	-0,161
-462,343	202,294	0,078	-0,088
-461,328	-75,215	0,093	0,024
-460,313	674,489	0,034	-0,064
-459,299	-111,818	0,126	-0,018
-458,284	-170,485	0,074	0,002
-457,270	149,402	0,075	0,074
-456,255	-200,000	0,005	0,025
-455,241	-200,000	-0,007	-0,037
-454,226	117,454	-0,052	0,047
-453,211	100,485	0,134	0,114
-452,197	33,402	-0,041	0,026
-451,182	800,000	0,034	-0,092
-450,168	-37,556	0,050	-0,019
-449,153	-200,000	-0,028	0,137
-448,138	-45,287	-0,102	-0,037
-447,124	-51,471	-0,071	-0,024
-446,109	-42,967	-0,005	0,002
-445,095	213,840	0,028	-0,033
-444,080	-200,000	-0,020	0,154
-443,065	444,395	0,094	0,151
-442,051	119,438	0,048	0,043
-441,036	-200,000	-0,019	-0,141
-440,022	182,458	0,038	0,041
-439,007	387,184	0,054	-0,082
-437,992	-76,169	0,233	0,060
-436,978	-50,408	-0,035	0,012
-435,963	571,123	0,058	0,103
-434,949	800,000	-0,079	-0,167
-433,934	-200,000	0,009	-0,085
-432,919	357,747	-0,025	0,037
-431,905	54,010	0,113	-0,079
-430,890	429,045	0,038	-0,061
-429,876	73,853	-0,085	-0,065
-428,861	244,944	-0,037	-0,046
-427,846	-64,651	0,209	-0,062
-426,832	-93,822	-0,101	-0,020
-425,817	-200,000	-0,023	-0,088
-424,803	319,319	0,045	-0,062
-423,788	53,187	0,085	0,060
-422,773	273,663	-0,083	0,108
-421,759	-200,000	0,018	-0,106
-420,744	-200,000	-0,013	0,107
-419,730	-200,000	-0,007	-0,109
-418,715	-200,000	-0,020	-0,132
-417,701	-37,008	0,088	0,034
-416,686	800,000	-0,005	-0,012
-415,671	105,375	0,096	-0,083
-414,657	-200,000	-0,008	-0,056
-413,642	98,047	-0,068	-0,057
-412,628	-47,595	-0,054	-0,019
-411,613	-126,618	-0,141	-0,015
-410,598	-64,735	-0,109	-0,032
-409,584	-200,000	0,015	-0,061
-408,569	800,000	0,042	0,098
-407,555	800,000	0,038	0,083
-406,540	-158,811	0,053	-0,002
-405,525	-85,176	-0,018	0,004
-404,511	-68,162	-0,077	-0,022
-403,496	800,000	0,045	-0,132
-402,482	-200,000	0,004	0,036
-401,467	-200,000	0,013	-0,115
-400,452	53,657	0,068	0,047
-399,438	303,920	0,058	-0,079
-398,423	-200,000	0,010	-0,141
-397,409	225,389	-0,057	-0,067
-396,394	-200,000	-0,038	0,135
-395,379	114,579	0,074	-0,066
-394,365	26,343	0,032	-0,020
-393,350	-77,251	-0,032	0,008
-392,336	496,686	0,031	-0,052
-391,321	-13,906	-0,090	-0,042
-390,306	130,802	-0,062	-0,058
-389,292	135,990	0,028	0,027
-388,277	36,945	0,086	-0,056
-387,263	100,191	-0,055	0,047
-386,248	-127,715	0,055	-0,006
-385,233	800,000	-0,046	-0,129
-384,219	680,606	0,028	0,054
-383,204	-200,000	0,030	-0,103
-382,190	-88,787	0,047	0,010
-381,175	-200,000	0,047	-0,156
-380,160	4,539	0,076	-0,040
-379,146	-200,000	0,031	-0,128
-378,131	289,892	0,071	-0,095
-377,117	-200,000	0,021	0,142
-376,102	800,000	-0,033	0,088
-375,088	-107,929	0,096	0,015
-374,073	136,866	-0,021	0,020
-373,058	166,189	0,076	0,079
-372,044	475,736	-0,028	-0,046
-371,029	231,824	-0,047	-0,056
-370,015	61,392	-0,085	-0,062
-369,000	800,000	-0,050	-0,105
-367,985	800,000	-0,049	-0,127
-366,971	58,276	-0,088	-0,063
-365,956	800,000	0,013	-0,036
-364,942	11,000	-0,037	-0,021
-363,927	800,000	0,046	0,147
-362,912	-200,000	-0,016	0,060
-361,898	-200,000	-0,016	-0,123
-360,883	202,313	-0,048	0,054
-359,869	-101,140	0,140	0,025
-358,854	-158,684	0,068	-0,003
-357,839	-119,779	0,210	0,026
-356,825	-33,501	0,028	-0,011
-355,810	-174,026	-0,031	0,001
-354,796	35,805	0,106	-0,068
-353,781	-43,043	-0,094	0,035
-352,766	367,220	0,037	-0,055
-351,752	-69,932	0,206	-0,057
-350,737	800,000	0,040	0,107
-349,723	-169,196	-0,049	-0,001
-348,708	800,000	-0,068	0,147
-347,693	-200,000	-0,013	0,062
-346,679	33,433	-0,157	-0,099
-345,664	-114,486	-0,026	0,004
-344,650	-200,000	-0,003	-0,119
-343,635	-115,657	0,128	0,017
-342,620	34,065	-0,118	0,075
-341,606	800,000	-0,023	0,053
-340,591	28,681	-0,101	-0,062
-339,577	-29,858	-0,119	-0,049
-338,562	-200,000	0,023	0,169
-337,548	193,785	0,037	0,041
-336,533	-91,031	0,090	0,019
-335,518	-200,000	0,000	0,004
-334,504	237,044	-0,042	0,051
-333,489	-96,702	-0,112	-0,021
-332,475	3,982	-0,139	0,074
-331,460	-200,000	-0,014	-0,077
-330,445	-189,247	0,051	-0,000
-329,431	-51,077	0,102	0,035
-328,416	106,166	0,119	0,102
-327,402	-44,330	-0,161	-0,058
-326,387	-200,000	-0,022	0,117
-325,372	-186,290	-0,095	-0,001
-324,358	800,000	-0,092	-0,212
-323,343	-200,000	0,001	0,051
-322,329	149,228	-0,068	0,067
-321,314	800,000	0,039	0,093
-320,299	800,000	0,058	0,166
-319,285	-97,799	0,029	-0,005
-318,270	0,857	-0,103	0,054
-317,256	147,909	-0,068	-0,067
-316,241	-138,270	0,068	-0,005
-315,226	800,000	-0,012	-0,029
-314,212	800,000	0,039	0,106
-313,197	800,000	-0,014	0,037
-312,183	-200,000	0,004	0,073
-311,168	-200,000	-0,021	-0,088
-310,153	-200,000	-0,008	-0,032
-309,139	-200,000	0,006	-0,057
-308,124	-12,485	0,089	0,042
-307,110	-105,370	0,068	-0,011
-306,095	-77,145	0,062	-0,016
-305,080	-66,159	-0,119	-0,034
-304,066	-11,807	-0,035	-0,017
-303,051	-200,000	0,003	-0,101
-302,037	271,742	0,038	-0,048
-301,022	-102,082	-0,045	-0,008
-300,008	-200,000	-0,004	0,090
-298,993	-32,548	0,141	-0,057
-297,978	205,351	0,124	0,141
-296,964	-200,000	-0,003	0,093
-295,949	800,000	0,020	-0,045
-294,935	-200,000	0,004	-0,105
-293,920	22,368	0,040	0,024
-292,905	800,000	-0,033	0,075
-291,891	800,000	-0,019	0,055
-290,876	107,618	0,077	0,067
-289,862	-135,073	-0,079	0,007
-288,847	201,978	-0,039	0,043
-287,832	471,209	-0,063	-0,104
-286,818	40,719	-0,038	-0,025
-285,803	128,414	0,089	0,083
-284,789	85,681	-0,056	-0,045
-283,774	800,000	-0,037	-0,104
-282,759	-200,000	0,019	0,114
-281,745	-200,000	0,022	0,092
-280,730	243,375	0,093	0,114
-279,716	800,000	0,055	0,124
-278,701	83,679	-0,074	0,059
-277,686	251,059	-0,047	-0,058
-276,672	-200,000	0,017	0,090
-275,657	-27,363	-0,030	0,013
-274,643	800,000	0,053	-0,130
-273,628	-200,000	-0,008	-0,098
-272,613	101,708	0,109	0,093
-271,599	-40,843	0,024	0,009
-270,584	-200,000	0,007	0,056
-269,570	800,000	0,062	0,127
-268,555	37,778	-0,032	-0,021
-267,540	403,130	0,036	-0,056
-266,526	511,641	-0,026	-0,045
-265,511	-200,000	0,014	0,063
-264,497	181,113	0,062	0,066
-263,482	-200,000	-0,016	0,112
-262,467	30,915	0,122	0,076
-261,453	268,261	0,072	0,092
-260,438	92,496	-0,017	-0,014
-259,424	87,408	-0,165	-0,133
-258,409	379,939	-0,015	0,023
-257,395	457,929	-0,020	-0,033
-256,380	505,760	0,059	-0,100
-255,365	796,030	-0,084	0,169
-254,351	102,676	0,128	0,109
-253,336	800,000	-0,042	-0,128
-252,322	125,115	-0,099	-0,090
-251,307	-137,409	0,072	0,006
-250,292	-181,120	-0,106	0,002
-249,278	-200,000	-0,005	0,202
-248,263	-200,000	-0,009	-0,120
-247,249	-200,000	0,018	0,090
-246,234	-200,000	0,006	-0,084
-245,219	800,000	-0,080	-0,231
-244,205	-200,000	-0,010	-0,037
-243,190	-61,467	-0,067	-0,020
-242,176	55,756	0,027	-0,019
-241,161	-1,527	0,060	0,031
-240,146	-75,149	0,062	0,016
-239,132	98,165	-0,096	-0,081
-238,117	-111,674	-0,133	-0,019
-237,103	-0,141	-0,098	-0,050
-236,088	6,647	0,046	0,025
-235,073	-200,000	0,014	0,123
-234,059	-29,988	0,057	0,023
-233,044	176,372	0,069	0,072
-232,030	-200,000	-0,020	0,116
-231,015	83,916	0,050	-0,040
-230,000	10,469	-0,163	-0,090
-228,986	498,391	0,100	0,168
-227,971	81,738	0,130	0,102
-226,957	-200,000	0,012	-0,063
-225,942	-113,447	-0,110	0,015
-224,927	-35,584	0,042	0,017
-223,913	18,388	-0,083	-0,048
-222,898	-15,538	-0,023	0,011
-221,884	-137,052	-0,042	-0,003
-220,869	-21,373	0,123	-0,054
-219,855	800,000	-0,044	0,101
-218,840	-200,000	0,002	0,155
-217,825	800,000	-0,044	-0,090
-216,811	-200,000	0,012	0,039
-215,796	19,054	0,095	0,055
-214,782	-200,000	-0,003	0,121
-213,767	800,000	0,022	0,067
-212,752	413,722	-0,041	0,063
-211,738	-119,800	-0,004	-0,000
-210,723	-200,000	-0,018	0,081
-209,709	-189,899	0,094	0,001
-208,694	-52,325	-0,038	0,013
-207,679	-4,405	0,016	-0,008
-206,665	-22,326	0,113	-0,050
-205,650	-200,000	0,007	0,030
-204,636	207,120	0,112	0,127
-203,621	-26,612	-0,075	-0,032
-202,606	-200,000	0,014	0,083
-201,592	-7,473	-0,132	-0,065
-200,577	-200,000	-0,037	-0,147
-199,563	237,724	0,039	-0,048
-198,548	-200,000	-0,002	0,055
-197,533	-200,000	-0,000	0,156
-196,519	800,000	0,042	-0,116
-195,504	157,460	0,045	0,045
-194,490	-14,050	-0,066	0,031
-193,475	583,530	-0,023	-0,040
-192,460	10,735	-0,036	-0,020
-191,446	190,047	0,098	0,106
-190,431	-125,881	-0,037	0,004
-189,417	800,000	-0,027	0,075
-188,402	35,917	-0,079	0,051
-187,387	-200,000	-0,045	-0,160
-186,373	356,253	-0,090	-0,130
-185,358	-200,000	0,039	-0,000
-184,344	187,780	0,070	-0,076
-183,329	-200,000	-0,014	0,053
-182,315	800,000	0,024	-0,074
-181,300	436,510	0,057	0,090
-180,285	110,779	-0,119	-0,104
-179,271	-97,909	0,082	0,015
-178,256	-35,631	-0,079	0,031
-177,242	-200,000	0,040	0,204
-176,227	112,051	0,036	0,031
-175,212	-107,093	0,053	-0,008
-174,198	-142,394	0,031	-0,002
-173,183	-114,975	0,179	-0,024
-172,169	-200,000	0,001	0,033
-171,154	-200,000	-0,004	0,137
-170,139	-200,000	-0,029	0,104
-169,125	17,113	0,046	0,026
-168,110	-200,000	-0,021	0,164
-167,096	178,017	-0,086	0,091
-166,081	-200,000	0,010	-0,033
-165,066	-43,818	-0,087	0,032
-164,052	32,534	0,031	0,020
-163,037	-30,892	0,061	0,025
-162,023	-200,000	-0,004	0,078
-161,008	-200,000	-0,008	-0,069
-159,993	-200,000	-0,011	-0,068
-158,979	229,807	0,030	0,036
-157,964	31,815	-0,135	-0,084
-156,950	-84,232	-0,130	0,030
-155,935	800,000	0,028	-0,058
-154,920	-113,306	-0,061	-0,009
-153,906	800,000	-0,035	-0,099
-152,891	-30,159	0,048	0,020
-151,877	800,000	-0,024	-0,055
-150,862	62,373	0,155	-0,112
-149,847	147,349	0,115	-0,112
-148,833	-200,000	0,004	0,136
-147,818	-73,561	0,068	-0,018
-146,804	-41,476	0,056	0,021
-145,789	-200,000	-0,007	0,119
-144,775	-45,531	0,056	-0,020
-143,760	-86,762	0,187	0,041
-142,745	-89,107	-0,051	-0,011
-141,731	-71,335	-0,125	-0,034
-140,716	-200,000	0,040	0,140
-139,702	141,844	0,118	0,113
-138,687	250,462	0,047	-0,057
-137,672	115,202	0,080	0,071
-136,658	25,185	-0,174	0,104
-135,643	223,254	-0,057	-0,066
-134,629	166,541	-0,083	-0,086
-133,614	73,094	-0,073	-0,055
-132,599	-21,350	0,050	0,022
-131,585	-200,000	-0,013	-0,146
-130,570	486,950	-0,056	-0,093
-129,556	-200,000	0,002	-0,009
-128,541	-200,000	0,019	0,070
-127,526	800,000	-0,053	-0,140
-126,512	-200,000	-0,009	0,038
-125,497	-32,146	0,145	-0,058
-124,483	-200,000	-0,025	0,110
-123,468	213,350	0,029	-0,033
-122,453	800,000	0,032	-0,093
-121,439	56,294	-0,127	-0,089
-120,424	-63,693	0,081	-0,024
