DTS Sentinel unit serial number:	SN410029Multiplexer serial number:	ORYXHardware model number:	OX2-SRSoftware version number:	ORYX F/W v4,00 Oryx Data Collector v3.7.2.0data status	okinstallation	B3 Nyhavnadifferential loss correction	single-endedforward channel	channel 1reverse channel	N/Adate	2023/11/28time	12:12:30forward acquisition time	300,00reverse acquisition time	0,00gamma	499,1914k internal	0,3142k external	0,3142temperature offset calibration	1,0000default loss term (dB/km)	0,3820temperature slope calibration	1,0000multiplexer offset coefficient	1,0000multiplexer slope coefficient	1,0000fibre end	0,00T internal ref (°C)	8,65T ext. ref 1 (°C)	-7,60T ext. ref 2 (°C)	-7,79length (m)	temperature (°C)	Stokes	anti-Stokes-744,400	249,830	-0,251	-0,316
-743,385	-200,000	-0,011	0,287
-742,371	-200,000	-0,069	-0,269
-741,356	-200,000	-0,043	0,279
-740,342	599,385	-0,181	-0,333
-739,327	97,121	-0,140	0,119
-738,312	800,000	-0,200	-0,413
-737,298	669,960	-0,045	0,087
-736,283	330,725	-0,143	-0,205
-735,269	-200,000	0,073	0,408
-734,254	800,000	-0,142	-0,322
-733,239	764,425	-0,118	0,238
-732,225	144,636	-0,189	-0,187
-731,210	-200,000	-0,015	0,139
-730,196	593,333	0,066	-0,122
-729,181	-154,104	0,096	-0,005
-728,167	649,348	-0,072	-0,137
-727,152	384,914	-0,018	0,028
-726,137	-160,465	-0,110	-0,004
-725,123	-200,000	-0,011	-0,046
-724,108	336,319	-0,104	-0,150
-723,094	-103,600	-0,062	0,011
-722,079	800,000	-0,020	0,062
-721,064	312,400	-0,089	-0,123
-720,050	-146,031	-0,088	-0,006
-719,035	56,633	0,102	-0,074
-718,021	182,158	-0,061	-0,066
-717,006	310,903	-0,045	-0,063
-715,991	-92,210	-0,183	-0,038
-714,977	61,679	-0,032	-0,024
-713,962	399,318	-0,060	0,094
-712,948	390,124	0,050	0,076
-711,933	-200,000	0,035	0,115
-710,918	800,000	-0,052	-0,144
-709,904	-87,975	-0,101	-0,022
-708,889	-109,028	-0,052	-0,008
-707,875	354,822	-0,081	-0,119
-706,860	48,562	-0,052	0,036
-705,845	177,590	0,049	0,053
-704,831	175,623	0,102	0,110
-703,816	-88,351	-0,030	0,007
-702,802	-200,000	-0,011	0,075
-701,787	-102,540	0,112	-0,020
-700,772	34,246	-0,078	0,050
-699,758	-53,775	-0,191	-0,064
-698,743	800,000	0,073	0,151
-697,729	225,849	0,037	0,044
-696,714	330,161	0,045	0,065
-695,699	-200,000	-0,006	-0,074
-694,685	588,696	-0,046	-0,085
-693,670	388,947	-0,048	-0,074
-692,656	-2,325	-0,133	-0,069
-691,641	458,226	0,003	-0,005
-690,627	-200,000	0,010	0,037
-689,612	-159,336	0,004	0,000
-688,597	-200,000	-0,017	-0,105
-687,583	6,269	-0,095	0,052
-686,568	-34,219	0,017	0,007
-685,554	37,748	-0,035	-0,023
-684,539	-92,982	-0,102	-0,021
-683,524	-200,000	-0,012	0,054
-682,510	67,153	0,105	-0,079
-681,495	800,000	-0,105	-0,224
-680,481	217,565	-0,087	-0,102
-679,466	481,597	-0,089	-0,151
-678,451	-95,890	-0,090	0,018
-677,437	-200,000	-0,007	0,108
-676,422	-200,000	0,034	0,207
-675,408	-200,000	0,018	0,191
-674,393	17,456	0,114	-0,067
-673,378	61,966	-0,125	-0,092
-672,364	-76,532	0,085	-0,022
-671,349	800,000	-0,024	-0,075
-670,335	43,815	0,038	-0,025
-669,320	16,275	0,078	-0,045
-668,305	800,000	0,024	0,063
-667,291	-188,483	-0,197	0,002
-666,276	123,975	-0,121	0,112
-665,262	577,189	-0,015	-0,028
-664,247	-38,879	-0,084	-0,032
-663,232	14,053	0,126	-0,072
-662,218	-75,680	-0,068	-0,018
-661,203	-200,000	0,040	0,168
-660,189	-119,458	-0,055	-0,007
-659,174	614,763	0,062	-0,116
-658,159	43,555	-0,106	-0,072
-657,145	419,832	-0,017	-0,027
-656,130	389,862	-0,024	0,036
-655,116	133,019	0,010	-0,010
-654,101	-142,191	0,098	-0,007
-653,086	-200,000	0,016	0,062
-652,072	-200,000	0,006	-0,045
-651,057	-200,000	-0,013	-0,050
-650,043	66,054	-0,013	0,010
-649,028	121,961	0,028	-0,026
-648,014	-82,880	0,140	-0,033
-646,999	800,000	-0,041	-0,121
-645,984	663,281	-0,030	0,058
-644,970	775,262	-0,065	-0,131
-643,955	-200,000	0,005	-0,176
-642,941	-200,000	0,018	-0,176
-641,926	454,906	0,047	-0,078
-640,911	-64,487	-0,070	-0,021
-639,897	76,069	-0,034	-0,027
-638,882	-200,000	-0,007	0,095
-637,868	-110,827	-0,016	0,002
-636,853	139,138	-0,020	-0,019
-635,838	31,022	-0,132	-0,083
-634,824	-200,000	0,013	-0,146
-633,809	-200,000	-0,046	0,217
-632,795	-200,000	0,011	0,053
-631,780	104,700	0,072	0,063
-630,765	595,409	-0,040	-0,074
-629,751	-16,867	-0,137	-0,064
-628,736	800,000	-0,014	0,031
-627,722	142,179	0,035	0,034
-626,707	170,730	0,072	-0,076
-625,692	-21,644	0,195	-0,087
-624,678	476,553	-0,045	0,076
-623,663	-76,491	-0,160	-0,041
-622,649	-13,906	-0,105	0,050
-621,634	-47,652	-0,123	0,044
-620,619	379,689	-0,017	0,026
-619,605	-136,598	0,112	0,009
-618,590	-123,755	-0,045	0,005
-617,576	175,339	-0,047	0,050
-616,561	800,000	0,044	0,110
-615,546	800,000	0,026	-0,076
-614,532	800,000	-0,071	-0,146
-613,517	800,000	0,016	-0,045
-612,503	91,561	0,051	-0,042
-611,488	29,915	0,078	0,049
-610,474	-107,557	0,023	0,004
-609,459	213,932	-0,039	-0,046
-608,444	-46,089	-0,055	-0,020
-607,430	-145,823	-0,213	0,014
-606,415	384,499	-0,040	-0,061
-605,401	638,348	0,058	-0,109
-604,386	800,000	0,009	0,030
-603,371	-200,000	-0,022	0,084
-602,357	-65,805	-0,198	0,058
-601,342	66,250	0,086	0,064
-600,328	173,992	-0,023	-0,024
-599,313	264,329	0,064	-0,083
-598,298	-200,000	0,004	-0,066
-597,284	111,613	-0,040	-0,036
-596,269	-82,348	-0,076	0,018
-595,255	-200,000	-0,011	0,060
-594,240	800,000	-0,036	0,090
-593,225	295,162	-0,091	-0,123
-592,211	-18,733	0,114	-0,052
-591,196	-87,488	-0,116	-0,026
-590,182	-167,922	0,029	-0,001
-589,167	167,367	0,049	0,051
-588,152	-200,000	0,036	0,171
-587,138	736,215	0,043	0,086
-586,123	58,566	-0,039	-0,028
-585,109	-16,960	0,030	-0,014
-584,094	-200,000	-0,013	-0,079
-583,079	-82,810	0,117	-0,028
-582,065	-200,000	0,003	0,011
-581,050	-84,031	0,121	0,028
-580,036	642,625	0,047	-0,089
-579,021	-151,232	-0,018	0,001
-578,006	21,615	-0,026	-0,016
-576,992	120,264	-0,027	0,025
-575,977	-135,055	0,152	0,013
-574,963	188,448	0,031	0,034
-573,948	152,225	-0,097	-0,098
-572,934	-181,182	-0,036	-0,001
-571,919	-31,474	-0,116	-0,048
-570,904	109,149	-0,095	-0,084
-569,890	294,012	0,068	0,091
-568,875	-200,000	-0,012	0,049
-567,861	-200,000	0,041	0,140
-566,846	220,497	-0,042	-0,050
-565,831	-200,000	-0,000	0,065
-564,817	-75,462	-0,080	-0,021
-563,802	33,344	-0,070	-0,045
-562,788	109,779	0,035	-0,031
-561,773	231,709	0,040	0,048
-560,758	-153,309	0,149	-0,008
-559,744	420,181	-0,072	0,114
-558,729	-200,000	0,023	0,124
-557,715	216,818	-0,045	-0,053
-556,700	-45,000	0,117	-0,043
-555,685	443,132	0,074	0,119
-554,671	141,655	0,102	0,099
-553,656	576,733	0,012	-0,021
-552,642	-15,953	0,140	-0,065
-551,627	768,279	0,033	0,067
-550,612	-101,255	-0,145	0,026
-549,598	-29,939	-0,112	-0,047
-548,583	-200,000	-0,028	-0,101
-547,569	-133,456	0,061	0,006
-546,554	33,374	0,028	-0,018
-545,539	269,433	-0,027	0,035
-544,525	800,000	0,010	0,025
-543,510	800,000	0,014	-0,040
-542,496	-66,990	0,031	-0,009
-541,481	-108,199	-0,084	-0,013
-540,466	-32,179	-0,059	0,024
-539,452	-167,608	0,163	0,005
-538,437	-23,958	-0,093	0,041
-537,423	-67,967	0,120	0,034
-536,408	83,974	-0,079	0,063
-535,393	-94,945	-0,164	0,032
-534,379	49,412	0,106	0,073
-533,364	-200,000	0,006	-0,102
-532,350	-62,823	-0,059	-0,018
-531,335	9,054	0,125	0,069
-530,321	-200,000	-0,002	-0,010
-529,306	-200,000	-0,024	-0,112
-528,291	420,106	0,101	-0,159
-527,277	-41,029	-0,086	-0,032
-526,262	-200,000	-0,030	-0,117
-525,248	654,578	-0,010	0,018
-524,233	98,291	0,124	-0,105
-523,218	-10,045	0,145	0,070
-522,204	-200,000	-0,007	-0,117
-521,189	800,000	0,094	-0,223
-520,175	800,000	-0,006	-0,015
-519,160	-55,271	-0,162	0,053
-518,145	-200,000	0,014	0,112
-517,131	65,298	0,076	-0,056
-516,116	-200,000	0,014	-0,097
-515,102	-34,364	0,101	-0,041
-514,087	-200,000	0,001	0,133
-513,072	-200,000	0,017	-0,212
-512,058	800,000	-0,044	-0,119
-511,043	-105,090	0,080	0,013
-510,029	259,857	-0,078	0,099
-509,014	800,000	0,060	0,158
-507,999	645,756	-0,067	0,126
-506,985	-144,469	-0,051	-0,003
-505,970	356,648	-0,047	-0,069
-504,956	17,815	-0,072	0,042
-503,941	26,547	0,028	-0,017
-502,926	-200,000	-0,012	0,156
-501,912	380,051	0,025	-0,038
-500,897	591,449	-0,058	-0,105
-499,883	697,493	0,025	-0,048
-498,868	526,290	-0,019	0,033
-497,853	319,562	-0,031	-0,044
-496,839	-158,741	0,032	0,001
-495,824	-59,273	0,080	-0,025
-494,810	264,243	0,067	0,085
-493,795	-48,737	-0,083	-0,029
-492,781	192,032	-0,026	-0,028
-491,766	211,848	-0,063	-0,073
-490,751	-200,000	-0,004	-0,020
-489,737	-2,283	-0,173	0,089
-488,722	800,000	0,005	0,015
-487,708	719,021	0,015	0,030
-486,693	132,154	0,166	-0,157
-485,678	139,764	-0,066	-0,064
-484,664	-200,000	-0,041	-0,142
-483,649	115,467	0,101	-0,091
-482,635	335,197	-0,062	-0,088
-481,620	800,000	0,005	0,013
-480,605	800,000	0,035	0,078
-479,591	-200,000	0,006	0,102
-478,576	109,000	0,088	-0,077
-477,562	5,812	0,073	-0,040
-476,547	800,000	-0,006	-0,016
-475,532	91,685	-0,010	0,008
-474,518	-103,236	-0,102	0,017
-473,503	800,000	0,020	0,047
-472,489	-114,178	0,086	0,012
-471,474	114,241	-0,017	-0,015
-470,459	-95,202	-0,047	0,009
-469,445	13,177	0,071	-0,040
-468,430	419,632	0,078	-0,122
-467,416	-200,000	0,004	-0,050
-466,401	-68,353	0,113	0,032
-465,386	-62,082	-0,025	-0,008
-464,372	203,028	0,036	0,040
-463,357	-69,242	-0,044	-0,012
-462,343	800,000	-0,016	0,039
-461,328	32,203	0,113	0,071
-460,313	-200,000	0,013	-0,041
-459,299	100,251	0,016	0,013
-458,284	-19,123	0,073	-0,033
-457,270	-62,548	0,099	0,030
-456,255	190,269	-0,064	0,071
-455,241	64,364	-0,029	0,021
-454,226	61,756	0,088	-0,064
-453,211	-200,000	-0,037	0,150
-452,197	-173,804	0,161	-0,003
-451,182	800,000	0,056	0,146
-450,168	-200,000	0,003	0,079
-449,153	-200,000	-0,022	-0,149
-448,138	147,645	-0,083	0,082
-447,124	477,983	0,076	-0,127
-446,109	-45,824	0,056	0,020
-445,095	52,757	0,108	0,075
-444,080	-59,682	0,013	0,004
-443,065	46,362	-0,022	0,015
-442,051	-130,094	-0,096	-0,009
-441,036	-34,728	0,065	0,026
-440,022	-200,000	0,002	-0,045
-439,007	-48,773	0,040	0,014
-437,992	800,000	-0,019	-0,058
-436,978	-184,073	-0,116	-0,001
-435,963	-29,860	0,074	0,031
-434,949	-200,000	0,033	-0,139
-433,934	-200,000	0,006	0,021
-432,919	462,041	0,030	-0,049
-431,905	284,954	0,069	0,092
-430,890	-131,803	0,177	0,017
-429,876	8,474	-0,088	0,048
-428,861	237,452	0,043	0,052
-427,846	-22,357	-0,084	-0,037
-426,832	50,392	0,073	-0,051
-425,817	-200,000	0,004	-0,020
-424,803	62,866	0,106	-0,078
-423,788	56,679	-0,062	0,044
-422,773	800,000	-0,084	0,173
-421,759	-200,000	-0,019	0,077
-420,744	800,000	0,019	-0,055
-419,730	276,737	-0,041	0,054
-418,715	-200,000	0,005	0,075
-417,701	50,875	-0,105	0,073
-416,686	222,413	-0,047	-0,055
-415,671	191,413	0,042	0,047
-414,657	120,383	0,126	0,114
-413,642	800,000	0,032	0,086
-412,628	-73,796	-0,046	0,012
-411,613	331,499	0,030	-0,042
-410,598	132,905	0,055	-0,052
-409,584	-36,406	0,052	0,020
-408,569	154,825	-0,033	-0,033
-407,555	-123,846	0,141	0,016
-406,540	-200,000	0,002	-0,030
-405,525	-56,236	-0,083	-0,027
-404,511	231,425	0,021	-0,026
-403,496	-74,769	0,094	-0,025
-402,482	-42,540	-0,085	0,031
-401,467	560,683	0,026	-0,046
-400,452	-154,965	0,022	-0,001
-399,438	-49,387	-0,166	0,058
-398,423	800,000	-0,056	-0,150
-397,409	49,340	-0,009	0,007
-396,394	800,000	0,042	0,095
-395,379	100,427	0,089	-0,075
-394,365	73,717	0,194	-0,148
-393,350	800,000	0,064	0,140
-392,336	377,687	0,064	0,096
-391,321	-40,903	-0,136	0,051
-390,306	-200,000	0,036	-0,141
-389,292	-12,374	0,092	0,044
-388,277	-200,000	0,004	0,076
-387,263	669,304	0,073	0,138
-386,248	24,226	-0,059	-0,036
-385,233	281,592	-0,051	0,067
-384,219	-110,389	-0,035	0,005
-383,204	-200,000	0,018	-0,104
-382,190	190,879	-0,087	-0,096
-381,175	17,844	0,072	-0,042
-380,160	-200,000	0,005	0,074
-379,146	70,127	-0,116	0,087
-378,131	304,742	0,043	-0,058
-377,117	800,000	0,008	-0,020
-376,102	-122,267	-0,074	0,009
-375,088	151,527	-0,032	-0,032
-374,073	-70,872	0,090	0,025
-373,058	-138,993	-0,073	-0,006
-372,044	-112,081	0,140	0,020
-371,029	246,130	0,069	-0,085
-370,015	226,691	-0,058	-0,069
-369,000	-99,218	-0,009	-0,002
-367,985	-200,000	0,025	0,086
-366,971	250,620	-0,032	0,039
-365,956	-125,086	0,247	-0,027
-364,942	-200,000	-0,011	0,046
-363,927	-17,292	0,038	-0,017
-362,912	225,628	0,007	-0,009
-361,898	-131,926	-0,140	-0,013
-360,883	800,000	0,006	0,014
-359,869	48,482	0,027	-0,019
-358,854	335,566	-0,058	0,083
-357,839	383,327	-0,005	-0,007
-356,825	122,970	-0,052	0,048
-355,810	-18,109	-0,072	-0,033
-354,796	32,065	0,032	-0,020
-353,781	691,790	-0,056	-0,108
-352,766	-17,353	-0,128	0,059
-351,752	-200,000	-0,029	-0,095
-350,737	-200,000	-0,003	0,059
-349,723	48,239	-0,123	0,084
-348,708	-200,000	0,006	0,053
-347,693	-200,000	0,003	0,075
-346,679	-200,000	0,001	-0,046
-345,664	785,621	-0,051	-0,102
-344,650	475,357	-0,050	0,083
-343,635	-131,245	0,139	0,013
-342,620	65,679	0,090	-0,066
-341,606	171,175	-0,056	0,058
-340,591	150,704	0,085	-0,084
-339,577	442,015	0,049	-0,078
-338,562	800,000	0,019	-0,059
-337,548	257,465	0,023	-0,028
-336,533	-200,000	-0,004	0,076
-335,518	-200,000	-0,029	-0,110
-334,504	-118,761	0,138	-0,018
-333,489	-11,262	-0,085	-0,040
-332,475	190,139	-0,042	-0,046
-331,460	-186,483	-0,125	-0,001
-330,445	-200,000	0,015	-0,092
-329,431	188,119	-0,034	-0,037
-328,416	-121,728	0,135	0,016
-327,402	98,824	-0,087	0,073
-326,387	-200,000	0,023	0,192
-325,372	-91,028	-0,086	0,018
-324,358	188,665	0,077	-0,084
-323,343	-200,000	0,016	-0,174
-322,329	494,556	0,028	0,046
-321,314	147,470	-0,062	-0,061
-320,299	800,000	-0,059	-0,135
-319,285	10,712	-0,099	0,055
-318,270	800,000	-0,053	-0,123
-317,256	-177,849	-0,194	-0,003
-316,241	493,905	0,003	0,005
-315,226	-200,000	0,013	0,103
-314,212	108,498	0,019	0,016
-313,197	800,000	0,013	-0,035
-312,183	-52,548	-0,151	-0,051
-311,168	-130,885	-0,062	0,006
-310,153	417,057	-0,059	-0,092
-309,139	800,000	0,078	0,166
-308,124	800,000	-0,033	-0,077
-307,110	800,000	-0,057	-0,124
-306,095	217,245	0,063	0,074
-305,080	302,739	-0,048	-0,065
-304,066	-200,000	0,009	0,105
-303,051	160,564	-0,039	0,040
-302,037	-200,000	-0,009	0,057
-301,022	0,990	-0,075	-0,039
-300,008	303,048	-0,087	0,118
-298,993	112,759	0,095	0,084
-297,978	-200,000	-0,026	-0,091
-296,964	-17,964	-0,062	-0,028
-295,949	-200,000	-0,004	0,024
-294,935	800,000	0,046	-0,099
-293,920	-200,000	-0,015	-0,082
-292,905	800,000	0,061	0,125
-291,891	-200,000	0,048	0,200
-290,876	800,000	-0,044	-0,124
-289,862	426,498	0,046	-0,073
-288,847	-200,000	0,012	0,044
-287,832	377,876	-0,008	0,013
-286,818	193,947	-0,009	0,010
-285,803	306,083	-0,066	-0,089
-284,789	-200,000	-0,016	0,109
-283,774	334,167	0,091	0,128
-282,759	199,712	0,088	-0,099
-281,745	-200,000	-0,018	-0,066
-280,730	173,237	-0,023	-0,024
-279,716	-124,411	-0,072	0,008
-278,701	-154,198	0,167	-0,008
-277,686	-89,664	0,030	0,006
-276,672	-113,600	-0,095	-0,013
-275,657	-200,000	-0,005	0,038
-274,643	-2,702	-0,116	-0,059
-273,628	63,417	-0,099	-0,072
-272,613	800,000	-0,008	-0,019
-271,599	-200,000	-0,010	0,055
-270,584	171,136	0,129	-0,135
-269,570	-200,000	-0,019	-0,106
-268,555	-200,000	0,007	0,129
-267,540	-118,476	-0,092	0,012
-266,526	-40,871	0,111	0,042
-265,511	24,612	0,074	-0,044
-264,497	149,680	-0,060	0,059
-263,482	-200,000	0,014	0,129
-262,467	-25,763	0,056	0,024
-261,453	113,651	-0,028	-0,025
-260,438	800,000	-0,027	-0,063
-259,424	180,278	-0,111	-0,119
-258,409	-200,000	-0,007	0,094
-257,395	-200,000	0,007	0,099
-256,380	212,017	-0,064	0,073
-255,365	55,916	0,153	0,108
-254,351	350,000	0,048	0,069
-253,336	-79,150	-0,197	-0,048
-252,322	-200,000	-0,043	0,143
-251,307	-200,000	0,014	-0,064
-250,292	352,091	-0,089	0,128
-249,278	283,829	0,188	0,246
-248,263	800,000	-0,018	0,058
-247,249	39,982	0,040	0,026
-246,234	-200,000	-0,000	-0,091
-245,219	193,374	-0,053	-0,059
-244,205	-5,945	-0,087	0,043
-243,190	-200,000	-0,027	0,152
-242,176	-200,000	0,004	0,139
-241,161	-200,000	-0,000	0,032
-240,146	-200,000	0,006	0,152
-239,132	-22,354	-0,018	-0,008
-238,117	-72,286	0,036	0,010
-237,103	-86,860	-0,224	0,049
-236,088	31,751	-0,021	0,013
-235,073	29,928	-0,082	0,050
-234,059	-200,000	-0,024	-0,123
-233,044	-66,061	0,082	0,024
-232,030	-177,307	-0,088	0,002
-231,015	61,041	-0,028	-0,020
-230,000	112,481	-0,044	-0,039
-228,986	29,100	0,125	-0,077
-227,971	69,587	0,060	0,045
-226,957	501,308	0,044	0,074
-225,942	31,152	-0,063	0,039
-224,927	-60,766	0,061	0,019
-223,913	-200,000	0,012	0,144
-222,898	41,280	0,032	-0,021
-221,884	-200,000	-0,003	-0,015
-220,869	-200,000	-0,002	0,020
-219,855	80,413	-0,057	0,044
-218,840	-200,000	0,001	0,080
-217,825	-140,877	0,101	-0,007
-216,811	-197,243	-0,058	0,000
-215,796	-60,097	0,024	0,007
-214,782	800,000	0,003	0,007
-213,767	-167,343	0,044	-0,001
-212,752	144,868	0,058	0,056
-211,738	354,988	-0,005	-0,007
-210,723	800,000	-0,024	-0,067
-209,709	-200,000	-0,041	-0,137
-208,694	-66,967	-0,117	-0,033
-207,679	-97,657	0,093	0,017
-206,665	110,419	0,074	0,064
-205,650	44,437	0,099	-0,066
-204,636	-200,000	-0,017	-0,062
-203,621	-79,608	-0,065	-0,016
-202,606	-105,166	-0,011	0,002
-201,592	425,565	-0,037	0,058
-200,577	365,483	-0,033	-0,048
-199,563	550,566	0,060	-0,105
-198,548	800,000	-0,039	0,089
-197,533	196,679	0,057	-0,063
-196,519	-106,615	-0,038	-0,006
-195,504	556,567	-0,055	0,096
-194,490	-10,712	-0,075	-0,036
-193,475	219,378	-0,084	0,098
-192,460	-200,000	0,007	-0,115
-191,446	-200,000	0,027	0,133
-190,431	-200,000	-0,031	-0,105
-189,417	-54,431	-0,167	-0,054
-188,402	800,000	-0,047	-0,108
-187,387	-130,395	0,031	-0,003
-186,373	800,000	-0,022	0,061
-185,358	548,714	0,067	0,116
-184,344	-200,000	0,002	-0,119
-183,329	53,348	-0,065	-0,045
-182,315	67,789	0,117	0,087
-181,300	1,837	0,091	0,048
-180,285	-200,000	-0,017	-0,057
-179,271	152,931	0,062	0,061
-178,256	349,724	-0,046	-0,066
-177,242	179,327	0,084	0,090
-176,227	80,503	0,187	-0,146
-175,212	-200,000	-0,005	0,103
-174,198	800,000	0,034	0,069
-173,183	-200,000	0,000	-0,060
-172,169	218,110	0,067	-0,077
-171,154	-107,641	-0,186	-0,029
-170,139	-200,000	-0,008	0,048
-169,125	-200,000	0,008	0,060
-168,110	589,803	0,071	0,127
-167,096	-148,085	0,010	0,001
-166,081	418,276	-0,020	-0,032
-165,066	58,917	-0,073	0,052
-164,052	800,000	-0,042	-0,113
-163,037	-200,000	-0,006	0,028
-162,023	800,000	0,013	-0,037
-161,008	800,000	0,023	-0,067
-159,993	-200,000	-0,002	0,094
-158,979	151,597	-0,027	-0,027
-157,964	-200,000	-0,020	-0,068
-156,950	123,394	0,087	0,079
-155,935	-43,268	0,052	-0,019
-154,920	444,054	-0,041	0,066
-153,906	350,528	0,026	0,037
-152,891	-200,000	-0,001	0,006
-151,877	-200,000	0,038	-0,165
-150,862	-175,928	-0,142	-0,003
-149,847	328,307	0,057	-0,080
-148,833	800,000	-0,054	0,144
-147,818	-200,000	0,032	-0,126
-146,804	-42,361	-0,173	0,063
-145,789	-86,034	0,108	0,024
-144,775	800,000	-0,062	-0,149
-143,760	-200,000	0,005	-0,089
-142,745	-0,704	-0,073	-0,037
-141,731	680,702	0,083	0,157
-140,716	-200,000	0,026	-0,106
-139,702	-200,000	-0,005	-0,036
-138,687	14,130	0,040	0,023
-137,672	-126,035	-0,034	0,004
-136,658	40,451	-0,164	0,106
-135,643	-200,000	0,013	-0,069
-134,629	754,002	-0,045	0,089
-133,614	800,000	-0,007	-0,018
-132,599	-133,593	0,087	0,008
-131,585	-164,151	0,054	0,002
-130,570	-23,756	0,055	0,024
-129,556	-92,726	-0,112	-0,023
-128,541	127,531	-0,144	-0,132
-127,526	800,000	-0,055	-0,121
-126,512	800,000	-0,026	-0,067
-125,497	118,314	0,102	0,091
-124,483	-1,115	0,053	0,027
-123,468	222,624	0,044	0,051
-122,453	-200,000	-0,013	0,076
-121,439	-48,288	-0,048	-0,017
-120,424	800,000	-0,018	0,048
