DTS Sentinel unit serial number:	SN410029Multiplexer serial number:	ORYXHardware model number:	OX2-SRSoftware version number:	ORYX F/W v4,00 Oryx Data Collector v3.7.2.0data status	okinstallation	B3 Nyhavnadifferential loss correction	single-endedforward channel	channel 1reverse channel	N/Adate	2023/11/28time	19:07:31forward acquisition time	300,00reverse acquisition time	0,00gamma	499,1914k internal	0,3147k external	0,3147temperature offset calibration	1,0000default loss term (dB/km)	0,3820temperature slope calibration	1,0000multiplexer offset coefficient	1,0000multiplexer slope coefficient	1,0000fibre end	0,00T internal ref (°C)	7,56T ext. ref 1 (°C)	-7,24T ext. ref 2 (°C)	-7,38length (m)	temperature (°C)	Stokes	anti-Stokes-744,400	128,767	-0,238	-0,224
-743,385	-200,000	-0,074	0,287
-742,371	611,116	-0,106	-0,197
-741,356	-200,000	-0,022	0,310
-740,342	-200,000	0,014	-0,240
-739,327	-200,000	0,025	0,125
-738,312	800,000	-0,154	-0,377
-737,298	800,000	0,075	0,215
-736,283	209,108	-0,206	-0,239
-735,269	-200,000	-0,008	0,389
-734,254	350,854	-0,130	-0,191
-733,239	82,771	-0,156	0,125
-732,225	642,248	-0,126	-0,238
-731,210	-132,956	0,175	-0,016
-730,196	78,523	0,059	0,047
-729,181	56,489	0,044	-0,031
-728,167	-102,938	-0,041	0,007
-727,152	99,703	-0,049	0,042
-726,137	222,413	-0,056	-0,067
-725,123	-44,668	-0,088	-0,032
-724,108	43,555	0,025	0,017
-723,094	246,756	-0,056	-0,070
-722,079	-54,260	0,016	-0,005
-721,064	-56,076	-0,070	0,023
-720,050	800,000	0,008	0,022
-719,035	-200,000	-0,001	-0,029
-718,021	-200,000	-0,020	-0,120
-717,006	800,000	-0,058	-0,170
-715,991	-200,000	-0,060	-0,208
-714,977	-65,121	0,056	-0,017
-713,962	800,000	0,025	-0,052
-712,948	-101,390	-0,081	0,014
-711,933	54,779	-0,066	-0,047
-710,918	-200,000	-0,002	-0,064
-709,904	3,011	0,067	-0,036
-708,889	177,193	-0,171	-0,185
-707,875	-20,257	0,089	0,040
-706,860	-200,000	-0,023	-0,112
-705,845	325,510	-0,070	-0,098
-704,831	-200,000	-0,041	0,140
-703,816	301,605	0,038	0,052
-702,802	800,000	0,024	-0,071
-701,787	396,915	-0,094	-0,146
-700,772	80,960	0,020	-0,016
-699,758	-194,425	0,059	0,000
-698,743	269,577	0,015	-0,019
-697,729	-132,384	0,022	-0,002
-696,714	-56,746	-0,050	-0,016
-695,699	181,649	0,034	0,037
-694,685	231,572	-0,020	0,024
-693,670	36,126	-0,087	-0,056
-692,656	154,155	-0,029	-0,030
-691,641	640,987	-0,046	0,088
-690,627	-148,311	0,205	0,012
-689,612	-40,893	-0,160	0,061
-688,597	-200,000	0,002	-0,017
-687,583	-9,790	-0,078	-0,038
-686,568	276,636	0,041	-0,054
-685,554	800,000	-0,042	-0,092
-684,539	-200,000	0,000	-0,032
-683,524	-200,000	-0,020	0,095
-682,510	4,533	-0,079	-0,043
-681,495	-135,432	0,093	0,008
-680,481	-41,036	-0,014	0,005
-679,466	-200,000	-0,005	-0,090
-678,451	-200,000	0,009	-0,038
-677,437	715,967	0,094	-0,185
-676,422	165,969	-0,080	-0,084
-675,408	-200,000	0,013	0,133
-674,393	-33,254	-0,050	-0,020
-673,378	8,507	0,056	-0,031
-672,364	-14,701	-0,076	0,036
-671,349	614,296	-0,062	-0,116
-670,335	-200,000	0,007	0,051
-669,320	-15,204	0,042	0,020
-668,305	-200,000	0,007	-0,100
-667,291	454,763	0,035	0,057
-666,276	800,000	0,055	-0,119
-665,262	-200,000	0,023	-0,168
-664,247	-200,000	0,027	0,097
-663,232	-2,317	0,071	-0,036
-662,218	-60,237	-0,160	-0,050
-661,203	-200,000	0,024	0,164
-660,189	-200,000	-0,009	0,044
-659,174	-97,150	0,023	0,004
-658,159	-65,373	-0,075	0,022
-657,145	-83,124	-0,082	-0,019
-656,130	-200,000	-0,010	0,064
-655,116	6,565	-0,142	-0,078
-654,101	-15,334	0,117	0,055
-653,086	-200,000	0,022	0,101
-652,072	138,673	-0,111	-0,107
-651,057	-97,488	-0,078	0,015
-650,043	-200,000	-0,007	-0,072
-649,028	326,950	0,049	0,069
-648,014	-67,397	-0,157	0,045
-646,999	-113,305	-0,085	-0,012
-645,984	73,498	-0,078	-0,060
-644,970	-200,000	0,003	-0,070
-643,955	800,000	-0,055	-0,134
-642,941	800,000	-0,102	-0,238
-641,926	-51,130	-0,078	-0,027
-640,911	-200,000	0,007	0,072
-639,897	-168,425	0,147	-0,004
-638,882	-135,026	-0,034	-0,003
-637,868	544,720	0,033	-0,059
-636,853	377,626	0,018	-0,028
-635,838	731,713	-0,074	-0,146
-634,824	299,678	0,041	-0,056
-633,809	-118,366	-0,136	0,018
-632,795	800,000	-0,043	0,104
-631,780	800,000	0,064	-0,138
-630,765	-200,000	-0,001	-0,065
-629,751	-52,618	-0,059	-0,020
-628,736	-110,993	-0,086	-0,013
-627,722	-73,688	-0,086	-0,023
-626,707	481,701	-0,057	-0,095
-625,692	698,452	-0,030	0,059
-624,678	218,157	0,069	-0,081
-623,663	520,607	-0,067	-0,115
-622,649	138,554	-0,055	-0,053
-621,634	485,615	0,040	0,067
-620,619	-200,000	0,029	-0,127
-619,605	800,000	0,038	0,085
-618,590	170,816	0,050	0,053
-617,576	-72,982	0,038	-0,010
-616,561	189,706	-0,081	-0,090
-615,546	-115,316	0,106	-0,015
-614,532	-200,000	0,013	-0,144
-613,517	800,000	0,008	-0,023
-612,503	-200,000	0,025	0,108
-611,488	800,000	-0,015	0,040
-610,474	65,013	-0,084	0,062
-609,459	66,789	0,041	0,030
-608,444	-165,734	0,055	-0,002
-607,430	-57,838	-0,177	0,057
-606,415	523,903	-0,026	0,045
-605,401	-200,000	0,039	-0,147
-604,386	132,494	0,043	-0,041
-603,371	216,358	-0,037	0,043
-602,357	55,275	-0,040	0,029
-601,342	-40,107	0,079	-0,030
-600,328	27,223	-0,066	0,041
-599,313	197,743	0,029	0,032
-598,298	-62,659	-0,074	-0,022
-597,284	148,501	0,104	0,103
-596,269	79,586	-0,034	0,027
-595,255	800,000	0,033	0,106
-594,240	-97,337	-0,082	-0,016
-593,225	-200,000	-0,006	-0,028
-592,211	-200,000	0,000	-0,033
-591,196	79,445	-0,014	-0,011
-590,182	99,412	0,050	-0,043
-589,167	-200,000	0,016	-0,070
-588,152	-200,000	-0,003	-0,026
-587,138	-0,438	-0,129	0,067
-586,123	-66,764	-0,077	-0,022
-585,109	366,854	0,078	-0,115
-584,094	350,733	0,073	-0,107
-583,079	275,827	0,069	-0,090
-582,065	-100,069	0,093	-0,017
-581,050	-86,817	-0,043	0,010
-580,036	767,921	0,016	0,033
-579,021	-115,133	-0,239	0,033
-578,006	147,439	-0,039	0,038
-576,992	-200,000	0,003	0,014
-575,977	800,000	0,025	-0,080
-574,963	91,442	0,160	0,132
-573,948	413,503	-0,105	0,164
-572,934	-150,888	-0,051	-0,003
-571,919	25,423	0,079	-0,048
-570,904	800,000	-0,043	-0,122
-569,890	-93,063	-0,113	0,023
-568,875	-76,101	0,065	-0,017
-567,861	30,032	-0,014	0,009
-566,846	77,118	0,026	0,021
-565,831	287,825	-0,033	0,044
-564,817	672,774	0,041	-0,078
-563,802	-79,894	-0,173	0,042
-562,788	-200,000	-0,005	0,048
-561,773	-200,000	-0,002	0,087
-560,758	83,911	0,061	0,049
-559,744	800,000	-0,046	0,146
-558,729	-200,000	-0,007	0,142
-557,715	-200,000	-0,000	0,035
-556,700	800,000	-0,014	0,035
-555,685	-128,325	-0,100	0,010
-554,671	114,397	-0,006	0,005
-553,656	-111,780	0,102	-0,015
-552,642	-39,156	0,095	0,036
-551,627	516,052	0,073	0,126
-550,612	89,984	0,043	0,035
-549,598	216,730	-0,135	-0,158
-548,583	-37,707	0,036	0,014
-547,569	44,116	-0,035	-0,024
-546,554	70,526	-0,183	0,139
-545,539	-99,217	0,063	-0,012
-544,525	251,978	0,080	-0,100
-543,510	-150,037	0,044	-0,002
-542,496	653,979	0,039	-0,075
-541,481	192,384	-0,089	-0,099
-540,466	-95,250	0,053	0,010
-539,452	800,000	0,068	0,166
-538,437	-172,273	-0,115	0,003
-537,423	569,222	0,018	-0,032
-536,408	-0,514	0,134	0,070
-535,393	192,769	-0,084	-0,093
-534,379	800,000	-0,010	-0,023
-533,364	-200,000	-0,024	-0,120
-532,350	125,578	0,080	0,074
-531,335	800,000	0,017	-0,045
-530,321	800,000	0,050	-0,111
-529,306	-200,000	0,002	-0,023
-528,291	50,349	-0,035	-0,024
-527,277	-92,295	-0,085	-0,017
-526,262	442,366	-0,062	-0,101
-525,248	-200,000	-0,002	-0,058
-524,233	-144,458	0,124	-0,008
-523,218	800,000	0,074	0,185
-522,204	140,804	0,069	-0,067
-521,189	800,000	-0,055	-0,151
-520,175	212,042	0,092	-0,107
-519,160	2,060	0,091	0,048
-518,145	219,649	0,051	0,060
-517,131	-83,218	0,080	-0,019
-516,116	39,380	0,093	0,061
-515,102	274,946	-0,029	0,037
-514,087	-200,000	-0,006	0,024
-513,072	800,000	-0,044	-0,089
-512,058	-200,000	0,002	0,070
-511,043	-200,000	0,009	0,036
-510,029	-200,000	-0,019	0,178
-509,014	-200,000	-0,014	0,080
-507,999	-200,000	-0,019	-0,085
-506,985	538,671	-0,144	-0,252
-505,970	-52,408	-0,082	-0,028
-504,956	-112,069	-0,097	-0,014
-503,941	-8,953	-0,085	0,041
-502,926	105,897	0,076	0,066
-501,912	134,957	0,042	0,040
-500,897	-200,000	0,007	0,062
-499,883	-110,399	-0,108	-0,016
-498,868	-91,298	-0,037	-0,008
-497,853	116,056	-0,118	-0,106
-496,839	14,854	0,105	-0,060
-495,824	-165,814	0,100	-0,003
-494,810	-23,144	0,115	0,050
-493,795	149,174	0,007	-0,007
-492,781	-80,985	-0,085	0,020
-491,766	425,146	-0,011	0,018
-490,751	96,259	-0,058	0,049
-489,737	-64,772	-0,075	-0,022
-488,722	-46,970	-0,101	-0,036
-487,708	-200,000	0,055	0,204
-486,693	-200,000	-0,024	0,095
-485,678	-170,681	-0,054	0,001
-484,664	-100,895	0,055	0,010
-483,649	395,588	-0,065	-0,100
-482,635	350,368	0,070	0,102
-481,620	8,900	-0,113	-0,062
-480,605	-200,000	-0,029	0,105
-479,591	800,000	0,036	0,087
-478,576	724,160	-0,054	0,105
-477,562	-200,000	0,008	-0,114
-476,547	516,732	0,054	-0,092
-475,532	-200,000	-0,010	0,103
-474,518	800,000	-0,021	0,060
-473,503	-200,000	0,003	0,161
-472,489	333,455	-0,050	0,071
-471,474	-42,998	0,024	0,009
-470,459	-150,793	0,016	0,001
-469,445	50,486	-0,133	0,092
-468,430	149,991	-0,039	0,039
-467,416	800,000	0,061	-0,136
-466,401	-46,255	0,078	0,028
-465,386	-200,000	0,001	0,066
-464,372	213,813	-0,010	-0,012
-463,357	-73,714	-0,132	-0,035
-462,343	-133,320	-0,109	-0,010
-461,328	40,984	-0,054	-0,036
-460,313	-22,481	0,134	0,059
-459,299	68,622	-0,032	-0,024
-458,284	263,494	-0,014	0,018
-457,270	-200,000	-0,020	-0,196
-456,255	800,000	0,005	0,014
-455,241	-113,043	0,010	-0,001
-454,226	101,541	-0,128	-0,109
-453,211	800,000	0,099	-0,235
-452,197	192,021	-0,092	0,101
-451,182	-59,913	-0,138	0,043
-450,168	-49,823	0,102	-0,035
-449,153	73,312	-0,112	-0,086
-448,138	-18,819	-0,146	-0,066
-447,124	-36,800	0,180	-0,070
-446,109	101,900	-0,178	0,152
-445,095	164,157	0,016	-0,016
-444,080	46,509	0,064	0,043
-443,065	800,000	0,042	0,087
-442,051	406,208	0,030	0,047
-441,036	81,051	0,190	0,150
-440,022	210,279	-0,098	0,113
-439,007	-200,000	-0,025	0,114
-437,992	-57,040	0,086	-0,028
-436,978	-127,149	0,112	-0,012
-435,963	83,593	-0,121	-0,097
-434,949	-200,000	-0,014	0,077
-433,934	800,000	-0,055	-0,128
-432,919	-20,408	-0,092	0,041
-431,905	83,491	0,036	0,028
-430,890	-138,553	0,093	0,007
-429,876	-200,000	-0,007	-0,191
-428,861	-82,962	0,073	-0,017
-427,846	-200,000	-0,005	-0,078
-426,832	-69,204	0,061	0,017
-425,817	-82,489	-0,116	-0,027
-424,803	-200,000	-0,007	-0,115
-423,788	165,982	0,097	-0,101
-422,773	-54,616	-0,121	-0,040
-421,759	-131,142	0,058	-0,006
-420,744	308,466	0,011	-0,015
-419,730	800,000	-0,034	0,091
-418,715	800,000	0,039	-0,110
-417,701	-200,000	-0,016	-0,121
-416,686	53,649	0,096	-0,067
-415,671	58,082	0,092	-0,066
-414,657	-200,000	0,052	0,183
-413,642	-200,000	0,009	-0,119
-412,628	2,012	0,035	0,019
-411,613	-200,000	-0,015	-0,050
-410,598	-16,274	-0,082	-0,038
-409,584	20,895	0,080	-0,047
-408,569	70,016	0,051	-0,038
-407,555	10,612	0,057	-0,032
-406,540	414,868	0,025	0,040
-405,525	-13,872	0,088	0,042
-404,511	36,943	0,027	-0,017
-403,496	436,649	-0,033	0,053
-402,482	423,240	-0,045	0,072
-401,467	-200,000	-0,022	-0,080
-400,452	800,000	0,021	0,054
-399,438	-34,376	-0,131	-0,052
-398,423	-134,437	0,184	-0,016
-397,409	94,977	-0,037	-0,031
-396,394	-200,000	-0,015	-0,105
-395,379	-200,000	-0,019	-0,072
-394,365	-60,000	-0,069	-0,021
-393,350	-200,000	0,022	0,088
-392,336	-138,412	0,038	-0,003
-391,321	-78,069	-0,078	0,020
-390,306	7,724	-0,081	-0,044
-389,292	-50,767	0,073	-0,025
-388,277	-200,000	-0,016	-0,105
-387,263	800,000	-0,007	-0,014
-386,248	250,052	0,143	0,177
-385,233	-200,000	-0,030	0,121
-384,219	-19,954	-0,053	-0,024
-383,204	-49,482	0,138	0,048
-382,190	-5,586	-0,061	-0,031
-381,175	-52,326	0,102	-0,034
-380,160	-176,546	0,061	0,001
-379,146	-200,000	-0,006	0,067
-378,131	-64,543	-0,060	0,018
-377,117	653,114	0,007	0,013
-376,102	51,641	-0,146	-0,101
-375,088	366,488	-0,054	0,079
-374,073	-28,795	-0,140	-0,059
-373,058	92,540	0,122	0,100
-372,044	-200,000	0,003	0,118
-371,029	478,166	0,044	0,072
-370,015	-200,000	0,024	0,112
-369,000	138,749	-0,056	-0,054
-367,985	96,632	0,082	-0,068
-366,971	-77,119	0,074	-0,019
-365,956	-200,000	0,018	0,155
-364,942	-200,000	-0,003	0,100
-363,927	-81,599	-0,021	-0,005
-362,912	18,348	0,041	-0,024
-361,898	-200,000	-0,006	-0,186
-360,883	-71,717	0,136	0,037
-359,869	377,855	-0,118	0,177
-358,854	-163,838	-0,078	0,003
-357,839	800,000	0,082	0,174
-356,825	467,883	0,048	-0,079
-355,810	-28,891	0,049	-0,020
-354,796	290,189	0,071	0,094
-353,781	178,803	0,112	-0,120
-352,766	229,825	0,090	-0,107
-351,752	-200,000	0,018	0,095
-350,737	-200,000	0,001	-0,070
-349,723	-200,000	-0,018	0,068
-348,708	168,058	0,082	-0,085
-347,693	-200,000	-0,027	0,118
-346,679	-38,160	-0,105	-0,040
-345,664	-3,653	0,021	0,010
-344,650	-200,000	0,013	0,058
-343,635	321,658	-0,069	-0,096
-342,620	-200,000	0,053	0,185
-341,606	239,043	-0,030	-0,037
-340,591	800,000	-0,052	0,105
-339,577	591,881	-0,056	-0,100
-338,562	-41,660	-0,024	-0,009
-337,548	-104,746	-0,056	0,009
-336,533	-200,000	-0,005	-0,085
-335,518	-53,169	-0,098	0,033
-334,504	-200,000	-0,014	-0,088
-333,489	-49,343	0,058	-0,020
-332,475	800,000	0,065	-0,177
-331,460	19,265	-0,082	-0,048
-330,445	127,682	-0,056	-0,052
-329,431	800,000	0,030	-0,070
-328,416	-44,569	0,052	-0,019
-327,402	172,589	0,101	0,106
-326,387	75,821	0,041	-0,031
-325,372	800,000	0,055	-0,146
-324,358	88,302	0,035	0,029
-323,343	107,964	-0,086	-0,075
-322,329	12,125	0,125	0,070
-321,314	-134,505	0,157	0,014
-320,299	176,917	0,026	-0,028
-319,285	-200,000	-0,004	0,139
-318,270	-200,000	0,020	-0,108
-317,256	-80,007	-0,068	-0,017
-316,241	-200,000	0,023	-0,085
-315,226	65,715	-0,173	0,127
-314,212	134,917	0,138	0,131
-313,197	-200,000	0,005	0,050
-312,183	-149,503	-0,072	-0,004
-311,168	-13,548	-0,097	-0,045
-310,153	753,874	-0,037	-0,072
-309,139	-200,000	-0,005	-0,018
-308,124	800,000	-0,086	0,207
-307,110	147,383	0,072	-0,071
-306,095	346,127	-0,017	0,024
-305,080	81,495	-0,045	-0,035
-304,066	800,000	0,040	0,108
-303,051	-84,064	-0,111	0,026
-302,037	316,982	-0,100	-0,138
-301,022	583,951	-0,090	0,162
-300,008	800,000	0,047	0,113
-298,993	-200,000	0,015	0,054
-297,978	-200,000	-0,007	0,098
-296,964	405,728	0,079	0,122
-295,949	-130,780	-0,044	0,004
-294,935	58,464	-0,073	-0,052
-293,920	654,596	0,082	-0,154
-292,905	20,338	-0,159	0,093
-291,891	82,561	0,027	-0,022
-290,876	-14,683	0,037	-0,017
-289,862	96,769	-0,072	-0,060
-288,847	315,707	-0,145	0,199
-287,832	-200,000	-0,002	-0,007
-286,818	150,632	-0,065	-0,065
-285,803	25,250	-0,052	-0,031
-284,789	-200,000	-0,026	0,123
-283,774	191,956	0,043	-0,047
-282,759	118,412	-0,019	-0,017
-281,745	341,546	0,017	-0,024
-280,730	-117,245	0,087	-0,011
-279,716	-200,000	0,004	0,101
-278,701	58,671	0,191	0,136
-277,686	800,000	0,037	0,075
-276,672	-178,511	0,121	0,002
-275,657	-128,328	-0,051	0,005
-274,643	136,265	0,055	0,052
-273,628	800,000	-0,058	-0,167
-272,613	291,503	0,042	0,056
-271,599	-200,000	0,003	-0,077
-270,584	66,807	0,141	0,104
-269,570	733,938	-0,046	0,090
-268,555	71,314	0,094	0,071
-267,540	-200,000	-0,003	0,027
-266,526	800,000	0,015	0,044
-265,511	98,446	0,150	-0,125
-264,497	224,486	-0,022	0,026
-263,482	112,983	0,019	-0,017
-262,467	-17,863	0,092	0,042
-261,453	-36,607	-0,088	-0,034
-260,438	-200,000	0,004	0,112
-259,424	-200,000	-0,026	0,123
-258,409	594,167	0,037	0,067
-257,395	-152,763	0,057	-0,003
-256,380	-200,000	-0,030	-0,212
-255,365	800,000	-0,056	0,122
-254,351	-200,000	0,025	0,113
-253,336	15,845	-0,106	-0,060
-252,322	-67,930	-0,095	-0,027
-251,307	-200,000	-0,008	-0,120
-250,292	28,146	0,100	0,061
-249,278	193,072	0,032	0,035
-248,263	-200,000	0,032	-0,138
-247,249	-200,000	0,004	0,075
-246,234	235,354	-0,053	-0,063
-245,219	-110,073	0,025	0,004
-244,205	-200,000	0,001	0,078
-243,190	-65,809	0,095	0,027
-242,176	-200,000	0,033	-0,122
-241,161	-200,000	0,003	0,019
-240,146	100,931	0,067	-0,057
-239,132	45,402	0,156	0,104
-238,117	593,955	0,004	0,007
-237,103	-200,000	0,128	0,000
-236,088	-200,000	0,021	-0,238
-235,073	36,782	0,080	-0,051
-234,059	240,371	0,060	0,073
-233,044	800,000	-0,014	-0,033
-232,030	621,453	0,031	-0,057
-231,015	-4,738	-0,046	0,023
-230,000	47,012	-0,125	-0,084
-228,986	31,763	0,027	0,017
-227,971	800,000	0,033	-0,073
-226,957	111,912	-0,051	0,044
-225,942	-79,158	0,007	0,002
-224,927	25,079	0,072	0,043
-223,913	-92,793	-0,198	0,040
-222,898	169,146	0,079	0,082
-221,884	-84,788	0,075	-0,017
-220,869	503,488	0,059	0,100
-219,855	800,000	-0,018	0,038
-218,840	800,000	0,019	0,053
-217,825	250,923	0,036	0,045
-216,811	57,327	0,061	-0,043
-215,796	39,514	-0,023	-0,015
-214,782	-92,129	-0,040	-0,008
-213,767	-95,105	-0,041	0,008
-212,752	11,903	0,133	-0,074
-211,738	800,000	-0,011	-0,032
-210,723	-200,000	0,022	-0,086
-209,709	-1,703	-0,164	0,083
-208,694	199,322	0,049	0,054
-207,679	29,183	0,085	0,052
-206,665	691,881	0,025	0,048
-205,650	263,193	0,020	0,025
-204,636	162,741	0,073	0,074
-203,621	25,179	-0,139	-0,084
-202,606	281,346	-0,095	0,123
-201,592	-200,000	0,024	-0,081
-200,577	-119,532	0,085	0,011
-199,563	-80,203	0,025	-0,006
-198,548	-115,147	0,137	0,019
-197,533	-200,000	-0,017	-0,070
-196,519	-200,000	-0,042	0,172
-195,504	-200,000	0,000	-0,028
-194,490	-200,000	-0,004	-0,159
-193,475	-97,847	0,056	-0,010
-192,460	411,329	-0,044	-0,068
-191,446	-200,000	-0,006	0,039
-190,431	475,321	-0,017	0,029
-189,417	-17,000	-0,067	-0,031
-188,402	800,000	0,027	0,075
-187,387	-46,997	-0,033	-0,012
-186,373	201,572	-0,079	-0,088
-185,358	24,642	-0,046	0,027
-184,344	-200,000	-0,017	0,088
-183,329	181,554	-0,045	0,048
-182,315	-200,000	0,010	-0,103
-181,300	-32,033	0,034	0,014
-180,285	-200,000	0,014	0,101
-179,271	-200,000	-0,003	-0,070
-178,256	107,006	-0,113	-0,097
-177,242	-200,000	0,008	-0,049
-176,227	134,574	0,129	-0,121
-175,212	-200,000	-0,002	0,079
-174,198	-200,000	0,001	-0,033
-173,183	367,525	-0,126	-0,185
-172,169	-63,251	-0,112	0,033
-171,154	572,264	0,037	0,065
-170,139	283,453	0,053	0,069
-169,125	262,734	0,013	-0,016
-168,110	-73,266	-0,086	0,023
-167,096	514,097	0,045	-0,077
-166,081	439,583	0,044	0,070
-165,066	800,000	0,052	-0,159
-164,052	-200,000	0,009	0,053
-163,037	198,380	0,059	-0,065
-162,023	-200,000	-0,012	0,059
-161,008	22,363	0,038	0,022
-159,993	-200,000	0,008	-0,053
-158,979	275,908	0,038	0,049
-157,964	-200,000	-0,039	0,160
-156,950	-107,846	0,104	-0,016
-155,935	-66,239	-0,185	0,053
-154,920	-84,786	0,122	-0,027
-153,906	-1,799	0,155	-0,078
-152,891	-104,608	-0,096	0,016
-151,877	-200,000	-0,001	0,109
-150,862	-200,000	-0,007	-0,031
-149,847	-113,528	-0,030	-0,004
-148,833	800,000	0,041	-0,114
-147,818	-200,000	0,026	-0,235
-146,804	101,855	-0,127	-0,107
-145,789	101,939	0,112	-0,094
-144,775	-22,901	-0,037	0,016
-143,760	800,000	-0,017	-0,039
-142,745	-29,344	-0,089	-0,036
-141,731	172,388	-0,079	0,082
-140,716	-117,720	0,012	0,002
-139,702	-1,971	0,165	0,083
-138,687	140,633	-0,056	0,053
-137,672	-200,000	-0,024	-0,100
-136,658	76,991	-0,125	-0,096
-135,643	19,403	0,086	-0,050
-134,629	283,769	-0,046	-0,060
-133,614	-200,000	-0,024	0,142
-132,599	-119,237	0,100	0,012
-131,585	800,000	0,034	0,080
-130,570	-200,000	0,006	-0,154
-129,556	-200,000	0,010	-0,139
-128,541	800,000	-0,051	0,102
-127,526	62,857	0,095	-0,069
-126,512	216,161	0,059	-0,068
-125,497	800,000	-0,022	0,062
-124,483	26,785	-0,111	0,067
-123,468	-126,496	-0,054	0,006
-122,453	-91,974	-0,112	-0,023
-121,439	-200,000	-0,025	-0,154
-120,424	-138,087	-0,077	0,006
-119,410	72,738	0,122	0,091
