DTS Sentinel unit serial number:	SN410029Multiplexer serial number:	ORYXHardware model number:	OX2-SRSoftware version number:	ORYX F/W v4,00 Oryx Data Collector v3.7.2.0data status	okinstallation	B3 Nyhavnadifferential loss correction	single-endedforward channel	channel 1reverse channel	N/Adate	2023/11/28time	13:17:31forward acquisition time	300,00reverse acquisition time	0,00gamma	499,1914k internal	0,3138k external	0,3138temperature offset calibration	1,0000default loss term (dB/km)	0,3820temperature slope calibration	1,0000multiplexer offset coefficient	1,0000multiplexer slope coefficient	1,0000fibre end	0,00T internal ref (°C)	7,97T ext. ref 1 (°C)	-7,65T ext. ref 2 (°C)	-7,82length (m)	temperature (°C)	Stokes	anti-Stokes-744,400	106,533	-0,115	-0,101
-743,385	-200,000	-0,072	0,383
-742,371	-200,000	0,018	-0,204
-741,356	-200,000	0,062	0,293
-740,342	21,885	-0,168	-0,101
-739,327	-200,000	0,050	0,308
-738,312	184,253	-0,182	-0,200
-737,298	230,481	-0,060	0,073
-736,283	123,063	-0,157	-0,146
-735,269	130,588	0,239	0,228
-734,254	-200,000	-0,063	-0,259
-733,239	63,608	-0,216	0,161
-732,225	-200,000	-0,027	-0,308
-731,210	800,000	0,034	0,100
-730,196	800,000	-0,046	-0,096
-729,181	428,695	-0,039	-0,063
-728,167	-73,882	-0,102	0,027
-727,152	19,091	0,110	0,065
-726,137	-58,995	-0,131	-0,042
-725,123	800,000	0,039	-0,094
-724,108	-79,861	-0,229	-0,057
-723,094	-20,401	-0,025	-0,011
-722,079	473,352	0,026	-0,043
-721,064	-200,000	-0,017	-0,124
-720,050	800,000	-0,046	-0,131
-719,035	-158,270	0,091	0,004
-718,021	-56,441	-0,174	-0,057
-717,006	-180,058	-0,099	-0,002
-715,991	116,407	-0,142	-0,129
-714,977	257,905	-0,067	-0,085
-713,962	68,959	0,124	-0,094
-712,948	-200,000	-0,016	0,205
-711,933	188,159	0,059	0,065
-710,918	29,739	0,067	0,042
-709,904	-68,709	-0,133	-0,038
-708,889	-200,000	0,009	-0,147
-707,875	44,427	-0,112	-0,076
-706,860	338,837	0,053	0,077
-705,845	-13,362	0,156	0,075
-704,831	-200,000	-0,054	-0,000
-703,816	-51,630	-0,074	-0,026
-702,802	-200,000	-0,031	-0,103
-701,787	36,233	-0,158	-0,103
-700,772	-10,002	0,055	0,027
-699,758	-200,000	0,008	0,148
-698,743	-200,000	-0,016	-0,061
-697,729	800,000	0,042	0,103
-696,714	-200,000	0,009	0,042
-695,699	-200,000	-0,027	-0,102
-694,685	-200,000	-0,025	-0,155
-693,670	-200,000	0,002	-0,024
-692,656	207,627	0,050	-0,058
-691,641	577,527	0,044	0,081
-690,627	-142,252	-0,046	0,003
-689,612	-139,435	-0,177	0,014
-688,597	-105,488	0,082	-0,014
-687,583	-94,966	-0,155	0,031
-686,568	366,630	-0,040	-0,060
-685,554	-174,748	0,176	0,004
-684,539	277,078	-0,020	-0,027
-683,524	6,487	0,127	-0,069
-682,510	-54,915	-0,101	-0,033
-681,495	79,699	0,031	0,025
-680,481	-38,112	-0,104	-0,041
-679,466	800,000	-0,044	-0,121
-678,451	-200,000	0,004	-0,090
-677,437	426,551	-0,043	0,069
-676,422	18,602	0,035	0,021
-675,408	800,000	0,044	-0,092
-674,393	800,000	0,011	0,026
-673,378	298,365	-0,070	-0,095
-672,364	-200,000	0,014	0,104
-671,349	24,658	-0,044	-0,027
-670,335	-81,816	-0,025	0,006
-669,320	-200,000	-0,013	0,069
-668,305	-115,750	0,155	-0,021
-667,291	-200,000	-0,009	-0,135
-666,276	-200,000	-0,028	0,130
-665,262	177,552	-0,083	0,089
-664,247	42,477	0,084	-0,056
-663,232	-200,000	0,035	-0,195
-662,218	-200,000	0,035	0,142
-661,203	162,957	-0,125	-0,130
-660,189	-11,059	-0,118	-0,057
-659,174	663,098	-0,050	-0,096
-658,159	-200,000	0,010	0,050
-657,145	-139,396	-0,205	-0,016
-656,130	248,510	-0,017	-0,022
-655,116	459,163	-0,049	0,081
-654,101	-126,738	0,156	-0,017
-653,086	-166,350	-0,093	0,003
-652,072	800,000	0,019	-0,043
-651,057	76,760	-0,191	-0,150
-650,043	-68,312	-0,062	-0,018
-649,028	-58,736	-0,076	-0,024
-648,014	372,688	0,103	0,155
-646,999	572,380	0,014	-0,025
-645,984	381,974	0,079	0,120
-644,970	-12,171	-0,155	0,075
-643,955	548,573	0,030	-0,053
-642,941	800,000	-0,045	-0,137
-641,926	-6,663	-0,025	-0,013
-640,911	800,000	-0,073	-0,180
-639,897	-13,188	0,086	0,041
-638,882	-4,308	-0,071	-0,036
-637,868	294,005	0,025	-0,034
-636,853	-90,555	0,086	0,018
-635,838	605,911	0,036	0,067
-634,824	-200,000	-0,012	-0,176
-633,809	800,000	0,053	-0,115
-632,795	277,897	-0,063	0,083
-631,780	53,521	-0,022	0,015
-630,765	472,681	-0,016	-0,027
-629,751	98,792	0,049	0,042
-628,736	185,861	-0,089	-0,098
-627,722	-87,560	-0,095	-0,021
-626,707	800,000	0,056	-0,163
-625,692	-200,000	-0,003	0,075
-624,678	82,399	0,062	0,049
-623,663	800,000	-0,022	0,051
-622,649	15,481	-0,155	-0,090
-621,634	112,063	-0,045	-0,040
-620,619	-76,230	0,024	-0,006
-619,605	-45,555	-0,115	0,042
-618,590	-200,000	0,041	0,134
-617,576	-200,000	0,017	-0,078
-616,561	-78,602	-0,028	0,007
-615,546	-31,600	0,129	-0,053
-614,532	59,341	-0,059	0,043
-613,517	125,406	-0,037	-0,034
-612,503	684,558	0,061	0,119
-611,488	9,480	0,064	-0,036
-610,474	-58,639	0,094	0,030
-609,459	726,107	0,008	-0,017
-608,444	157,890	-0,077	-0,079
-607,430	-200,000	-0,001	-0,044
-606,415	800,000	-0,017	-0,050
-605,401	174,924	-0,036	0,039
-604,386	-5,218	0,093	0,047
-603,371	-200,000	-0,025	0,143
-602,357	-138,341	0,057	-0,005
-601,342	-31,432	0,127	-0,052
-600,328	53,320	-0,168	0,118
-599,313	290,546	0,046	0,062
-598,298	56,622	-0,097	-0,070
-597,284	665,487	0,031	0,060
-596,269	800,000	-0,047	-0,133
-595,255	419,527	-0,086	-0,137
-594,240	-200,000	0,002	-0,032
-593,225	230,667	-0,083	-0,101
-592,211	230,731	-0,026	-0,031
-591,196	54,060	0,039	-0,028
-590,182	-200,000	-0,022	-0,074
-589,167	44,774	0,108	0,073
-588,152	227,939	0,020	0,024
-587,138	-43,277	-0,018	-0,007
-586,123	-40,226	-0,089	0,034
-585,109	101,262	0,105	-0,090
-584,094	162,399	-0,080	-0,083
-583,079	-147,111	0,177	0,011
-582,065	-200,000	0,003	-0,104
-581,050	-92,753	0,110	0,023
-580,036	800,000	-0,039	0,099
-579,021	171,730	-0,021	-0,022
-578,006	-24,093	-0,059	-0,026
-576,992	-111,175	0,120	0,018
-575,977	427,750	0,016	-0,025
-574,963	-82,735	-0,160	0,038
-573,948	-48,606	0,057	-0,020
-572,934	74,033	-0,027	0,021
-571,919	-200,000	-0,017	-0,089
-570,904	-70,701	-0,207	-0,057
-569,890	119,491	0,041	-0,038
-568,875	-200,000	0,002	0,103
-567,861	34,411	0,060	-0,038
-566,846	-40,730	0,046	-0,018
-565,831	124,185	-0,095	-0,088
-564,817	342,027	-0,065	0,093
-563,802	-200,000	0,055	-0,181
-562,788	391,708	-0,039	-0,060
-561,773	152,463	0,025	-0,026
-560,758	-149,364	-0,131	-0,008
-559,744	800,000	0,024	0,064
-558,729	113,208	0,024	0,021
-557,715	658,569	-0,078	0,149
-556,700	72,338	-0,029	0,022
-555,685	178,821	-0,103	-0,111
-554,671	40,743	0,053	-0,035
-553,656	29,622	0,195	0,122
-552,642	800,000	-0,012	-0,034
-551,627	-200,000	0,023	0,092
-550,612	-200,000	0,001	-0,009
-549,598	509,459	-0,076	0,131
-548,583	705,976	0,072	-0,141
-547,569	-200,000	-0,002	0,079
-546,554	-200,000	0,027	0,213
-545,539	800,000	0,056	0,132
-544,525	78,194	0,128	0,101
-543,510	-157,968	-0,143	0,006
-542,496	-200,000	0,003	-0,166
-541,481	37,690	-0,039	0,026
-540,466	-103,034	0,142	-0,025
-539,452	-93,385	0,127	-0,026
-538,437	-132,978	-0,089	0,008
-537,423	-74,600	0,126	-0,033
-536,408	800,000	-0,015	-0,042
-535,393	-200,000	0,027	-0,167
-534,379	78,942	-0,050	-0,039
-533,364	-115,102	0,079	-0,011
-532,350	800,000	-0,034	0,097
-531,335	-109,958	0,084	-0,013
-530,321	-200,000	0,047	0,000
-529,306	296,586	-0,053	0,072
-528,291	-77,143	0,044	0,011
-527,277	800,000	-0,037	0,094
-526,262	-79,824	0,099	-0,024
-525,248	800,000	-0,074	0,153
-524,233	514,260	0,062	0,107
-523,218	-146,661	-0,020	0,001
-522,204	193,200	0,026	0,029
-521,189	-200,000	0,007	0,056
-520,175	800,000	0,045	-0,117
-519,160	-44,402	-0,130	0,048
-518,145	40,257	-0,081	0,054
-517,131	-200,000	0,004	0,129
-516,116	-162,932	0,040	-0,001
-515,102	440,982	-0,037	0,060
-514,087	46,142	-0,114	0,077
-513,072	-64,478	-0,011	0,003
-512,058	301,357	0,061	-0,083
-511,043	-3,857	-0,028	-0,014
-510,029	689,102	0,038	0,074
-509,014	-200,000	0,016	0,096
-507,999	-116,131	0,173	0,023
-506,985	-200,000	0,013	-0,054
-505,970	86,337	0,034	-0,027
-504,956	-200,000	-0,010	-0,047
-503,941	143,722	0,088	-0,086
-502,926	282,760	-0,069	-0,091
-501,912	162,230	0,103	-0,107
-500,897	-200,000	-0,038	0,146
-499,883	-78,894	-0,082	0,020
-498,868	142,537	-0,088	-0,086
-497,853	-200,000	0,016	-0,092
-496,839	-14,510	-0,090	-0,042
-495,824	-56,987	0,027	-0,009
-494,810	-200,000	-0,053	0,206
-493,795	800,000	0,009	0,023
-492,781	-133,772	0,051	0,005
-491,766	-71,319	0,049	-0,014
-490,751	-200,000	-0,055	-0,201
-489,737	-108,576	0,156	-0,024
-488,722	800,000	0,032	0,090
-487,708	-172,523	0,014	0,000
-486,693	-86,595	0,236	-0,053
-485,678	308,674	0,034	-0,047
-484,664	800,000	0,009	-0,027
-483,649	101,039	-0,065	-0,056
-482,635	-70,228	-0,077	-0,021
-481,620	-21,601	-0,068	0,030
-480,605	-32,775	0,076	0,031
-479,591	-25,325	0,036	-0,016
-478,576	682,740	-0,054	-0,103
-477,562	120,115	-0,115	-0,104
-476,547	-49,599	-0,094	0,033
-475,532	-200,000	-0,004	0,114
-474,518	800,000	-0,040	0,117
-473,503	-200,000	-0,018	0,104
-472,489	222,561	0,061	0,072
-471,474	16,074	0,034	-0,019
-470,459	-96,445	-0,113	-0,022
-469,445	27,712	-0,072	0,045
-468,430	-116,348	-0,125	0,017
-467,416	-200,000	-0,004	-0,033
-466,401	626,460	0,053	-0,099
-465,386	800,000	0,011	0,022
-464,372	800,000	-0,056	-0,123
-463,357	-200,000	-0,003	0,060
-462,343	219,080	0,019	-0,023
-461,328	-200,000	-0,006	0,035
-460,313	57,277	0,036	0,025
-459,299	73,359	-0,090	-0,069
-458,284	-28,439	-0,047	0,020
-457,270	-200,000	-0,027	0,102
-456,255	800,000	-0,021	-0,048
-455,241	5,861	-0,006	-0,003
-454,226	-8,719	-0,009	-0,004
-453,211	-97,457	0,111	0,021
-452,197	86,802	-0,124	-0,100
-451,182	423,692	-0,141	0,223
-450,168	632,839	0,028	0,053
-449,153	239,876	-0,078	-0,095
-448,138	-167,520	-0,058	0,002
-447,124	800,000	0,021	0,056
-446,109	52,339	0,075	-0,053
-445,095	77,823	0,073	0,057
-444,080	-200,000	0,001	-0,005
-443,065	-39,087	-0,061	-0,023
-442,051	800,000	0,048	0,139
-441,036	312,290	-0,091	0,125
-440,022	-168,278	0,087	0,002
-439,007	-40,417	0,109	0,041
-437,992	174,388	0,087	0,093
-436,978	-200,000	0,018	-0,107
-435,963	690,889	-0,049	0,094
-434,949	3,396	-0,046	0,024
-433,934	350,182	-0,045	0,065
-432,919	231,054	-0,064	0,077
-431,905	20,259	-0,030	-0,018
-430,890	102,943	-0,110	0,094
-429,876	800,000	0,026	0,058
-428,861	-200,000	-0,022	-0,256
-427,846	-1,749	-0,030	0,015
-426,832	-92,648	0,084	0,017
-425,817	11,556	-0,051	-0,029
-424,803	-200,000	-0,007	-0,192
-423,788	51,501	-0,071	-0,049
-422,773	-165,560	0,079	0,002
-421,759	-42,706	-0,028	0,010
-420,744	800,000	0,035	-0,095
-419,730	-75,412	-0,079	-0,021
-418,715	387,100	-0,065	-0,099
-417,701	-142,427	-0,074	0,005
-416,686	-200,000	0,018	0,164
-415,671	548,860	0,063	0,110
-414,657	58,763	0,061	-0,044
-413,642	311,602	0,093	-0,128
-412,628	-200,000	-0,014	0,046
-411,613	800,000	-0,008	-0,021
-410,598	40,468	-0,085	-0,056
-409,584	-62,464	0,201	-0,061
-408,569	-200,000	0,004	0,023
-407,555	-200,000	0,012	-0,111
-406,540	191,348	-0,049	0,054
-405,525	182,384	0,039	0,042
-404,511	-115,677	0,059	0,008
-403,496	800,000	0,019	-0,054
-402,482	28,843	-0,136	-0,084
-401,467	438,651	0,069	-0,111
-400,452	782,497	0,039	0,078
-399,438	-200,000	-0,019	0,095
-398,423	-11,959	-0,137	0,065
-397,409	564,573	0,028	-0,050
-396,394	-158,786	-0,184	0,008
-395,379	-10,646	-0,096	0,046
-394,365	22,928	0,073	0,043
-393,350	44,637	0,092	-0,062
-392,336	104,801	-0,070	-0,061
-391,321	-200,000	0,027	0,090
-390,306	-37,472	-0,092	-0,036
-389,292	-138,238	0,156	-0,012
-388,277	542,345	0,066	0,115
-387,263	312,538	-0,048	0,067
-386,248	448,734	0,099	0,160
-385,233	72,410	-0,043	0,033
-384,219	204,403	-0,074	-0,085
-383,204	250,269	0,064	0,080
-382,190	-11,594	0,049	-0,024
-381,175	800,000	0,042	0,117
-380,160	780,636	-0,067	0,134
-379,146	206,343	-0,067	0,077
-378,131	129,877	-0,031	0,029
-377,117	-76,603	-0,107	-0,027
-376,102	149,669	0,068	-0,068
-375,088	-78,608	-0,119	-0,029
-374,073	-200,000	-0,015	0,050
-373,058	-200,000	0,006	0,041
-372,044	-50,373	0,076	0,026
-371,029	800,000	-0,014	-0,033
-370,015	-200,000	-0,014	0,045
-369,000	-200,000	0,008	-0,079
-367,985	-2,205	0,032	-0,016
-366,971	153,908	0,095	-0,095
-365,956	-65,413	0,019	0,005
-364,942	82,834	0,072	0,057
-363,927	82,018	-0,154	0,122
-362,912	512,965	0,014	0,025
-361,898	-60,348	0,044	0,014
-360,883	-200,000	-0,036	-0,124
-359,869	-118,847	-0,046	0,006
-358,854	-41,752	-0,062	-0,023
-357,839	-61,760	0,137	-0,042
-356,825	-113,107	0,034	-0,005
-355,810	763,735	0,032	0,064
-354,796	-117,298	0,026	0,003
-353,781	-200,000	-0,004	0,067
-352,766	-200,000	-0,014	0,110
-351,752	-153,598	0,089	0,004
-350,737	231,819	0,040	-0,048
-349,723	107,401	0,107	-0,093
-348,708	-178,211	0,189	0,003
-347,693	157,858	0,046	0,047
-346,679	378,471	-0,065	0,097
-345,664	88,919	0,052	0,042
-344,650	-200,000	0,050	0,189
-343,635	800,000	0,076	-0,154
-342,620	34,883	-0,075	-0,048
-341,606	-142,413	0,145	-0,010
-340,591	-200,000	0,054	-0,226
-339,577	-200,000	0,001	-0,187
-338,562	-153,950	-0,096	-0,005
-337,548	-200,000	0,001	-0,076
-336,533	76,829	0,062	-0,048
-335,518	800,000	-0,055	0,161
-334,504	-200,000	0,043	0,146
-333,489	-50,323	0,097	0,033
-332,475	191,442	0,095	0,104
-331,460	53,761	-0,142	-0,100
-330,445	131,446	0,090	-0,085
-329,431	-73,119	-0,074	0,020
-328,416	231,567	-0,010	0,012
-327,402	800,000	0,023	0,073
-326,387	-130,717	0,067	0,007
-325,372	-100,744	0,055	0,010
-324,358	451,718	0,033	-0,054
-323,343	800,000	-0,042	-0,094
-322,329	-110,542	0,031	-0,005
-321,314	-200,000	0,012	0,144
-320,299	-83,942	0,016	-0,004
-319,285	-200,000	-0,054	-0,194
-318,270	524,259	0,074	-0,128
-317,256	800,000	0,046	-0,095
-316,241	404,167	-0,020	-0,031
-315,226	150,265	0,100	0,099
-314,212	-72,290	0,017	0,004
-313,197	-82,723	0,163	0,038
-312,183	14,788	0,073	0,042
-311,168	-101,756	-0,093	-0,016
-310,153	-25,925	-0,065	-0,028
-309,139	-200,000	0,004	0,101
-308,124	378,918	-0,023	0,035
-307,110	800,000	-0,054	0,146
-306,095	-200,000	0,007	0,124
-305,080	208,751	-0,067	0,076
-304,066	113,546	-0,053	0,047
-303,051	-67,382	-0,148	0,042
-302,037	51,142	-0,023	0,016
-301,022	-200,000	0,010	0,167
-300,008	-200,000	0,003	0,165
-298,993	-200,000	0,000	-0,011
-297,978	800,000	-0,066	0,155
-296,964	3,199	-0,175	0,093
-295,949	800,000	0,039	-0,082
-294,935	434,424	-0,102	-0,162
-293,920	36,663	-0,119	-0,077
-292,905	-20,736	0,088	-0,039
-291,891	-200,000	-0,007	0,068
-290,876	800,000	0,037	-0,077
-289,862	-145,001	-0,068	0,004
-288,847	-57,507	-0,088	0,028
-287,832	-25,916	0,068	0,029
-286,818	231,362	0,064	-0,077
-285,803	544,742	0,038	0,067
-284,789	148,856	-0,058	0,057
-283,774	412,007	0,034	0,053
-282,759	507,119	-0,019	0,032
-281,745	336,417	0,068	-0,096
-280,730	-24,363	0,091	-0,039
-279,716	800,000	0,041	-0,114
-278,701	128,971	-0,050	0,047
-277,686	119,749	0,075	-0,068
-276,672	27,516	-0,047	0,029
-275,657	-30,846	-0,034	-0,014
-274,643	54,888	-0,050	0,035
-273,628	-200,000	-0,005	-0,060
-272,613	53,679	-0,070	0,049
-271,599	525,700	0,015	0,027
-270,584	800,000	-0,009	0,022
-269,570	-162,251	0,122	0,004
-268,555	-200,000	-0,012	-0,070
-267,540	-200,000	-0,003	-0,057
-266,526	69,527	-0,122	0,091
-265,511	-70,064	-0,103	0,028
-264,497	-69,617	0,064	0,018
-263,482	-200,000	0,010	0,096
-262,467	207,678	-0,101	-0,115
-261,453	50,655	0,086	-0,059
-260,438	346,611	-0,048	0,069
-259,424	-51,568	0,088	0,030
-258,409	609,974	-0,012	-0,023
-257,395	800,000	-0,020	0,058
-256,380	800,000	0,019	-0,050
-255,365	800,000	0,038	0,106
-254,351	-200,000	0,047	0,169
-253,336	62,825	-0,068	-0,049
-252,322	773,469	-0,040	-0,080
-251,307	415,250	-0,063	-0,098
-250,292	-85,514	0,059	-0,013
-249,278	38,162	0,109	-0,070
-248,263	-129,898	0,157	-0,015
-247,249	-200,000	-0,032	0,104
-246,234	-44,872	-0,122	-0,044
-245,219	384,507	-0,023	-0,035
-244,205	800,000	0,060	-0,161
-243,190	56,008	0,043	0,030
-242,176	-53,357	0,108	0,036
-241,161	-200,000	-0,021	0,086
-240,146	100,283	-0,114	-0,096
-239,132	-200,000	-0,013	0,054
-238,117	211,617	-0,078	-0,089
-237,103	46,511	-0,103	-0,069
-236,088	-200,000	-0,018	-0,167
-235,073	-68,798	0,046	-0,013
-234,059	-126,655	0,076	0,008
-233,044	110,963	0,066	0,057
-232,030	-200,000	-0,006	-0,053
-231,015	-200,000	0,022	-0,121
-230,000	-178,683	-0,040	-0,001
-228,986	104,200	0,101	0,087
-227,971	800,000	-0,022	-0,056
-226,957	-107,885	0,102	0,016
-225,942	81,267	0,026	0,020
-224,927	-123,213	-0,078	-0,009
-223,913	-200,000	-0,036	-0,164
-222,898	230,736	-0,054	0,065
-221,884	300,845	-0,046	-0,062
-220,869	280,705	-0,038	0,049
-219,855	-154,826	0,140	-0,007
-218,840	-99,193	-0,149	0,027
-217,825	-200,000	0,007	0,083
-216,811	626,330	0,071	-0,131
-215,796	62,607	-0,115	-0,083
-214,782	157,568	-0,075	-0,075
-213,767	225,040	-0,034	0,040
-212,752	-106,127	0,214	0,035
-211,738	47,127	-0,077	-0,052
-210,723	800,000	0,052	-0,156
-209,709	-9,287	-0,054	-0,026
-208,694	800,000	-0,026	-0,067
-207,679	800,000	0,027	0,057
-206,665	-76,237	0,079	0,020
-205,650	95,324	0,198	0,164
-204,636	84,655	-0,102	0,081
-203,621	256,567	-0,040	0,050
-202,606	-73,907	0,159	-0,042
-201,592	37,826	-0,111	0,071
-200,577	-111,203	-0,036	-0,005
-199,563	-14,685	0,113	0,052
-198,548	-107,057	0,125	0,020
-197,533	-200,000	0,003	0,039
-196,519	401,116	-0,085	0,130
-195,504	-200,000	0,012	0,053
-194,490	-200,000	0,000	0,063
-193,475	40,663	0,062	0,041
-192,460	800,000	0,013	-0,039
-191,446	800,000	-0,051	-0,127
-190,431	49,595	0,081	0,055
-189,417	469,065	-0,068	0,112
-188,402	-67,849	-0,068	0,019
-187,387	-200,000	-0,032	-0,115
-186,373	293,867	0,077	-0,102
-185,358	206,598	-0,117	-0,133
-184,344	-200,000	-0,001	0,074
-183,329	-30,838	0,127	-0,052
-182,315	452,095	0,025	-0,039
-181,300	589,730	-0,053	-0,095
-180,285	196,216	-0,039	-0,044
-179,271	197,366	-0,082	-0,091
-178,256	210,241	-0,034	-0,039
-177,242	-96,757	-0,075	-0,014
-176,227	744,698	0,036	0,071
-175,212	800,000	0,031	0,075
-174,198	508,321	-0,134	-0,227
-173,183	120,264	-0,085	0,077
-172,169	-185,312	0,083	0,001
-171,154	200,936	-0,042	0,047
-170,139	472,110	0,077	0,126
-169,125	-200,000	-0,006	0,063
-168,110	167,105	0,100	0,103
-167,096	-200,000	-0,011	-0,037
-166,081	290,830	0,102	-0,135
-165,066	-200,000	-0,008	-0,159
-164,052	-152,055	-0,159	-0,008
-163,037	294,434	0,084	-0,111
-162,023	-200,000	0,011	0,087
-161,008	-64,043	0,045	0,013
-159,993	-200,000	-0,004	-0,037
-158,979	93,028	-0,130	-0,107
-157,964	124,680	-0,068	0,062
-156,950	109,408	0,068	-0,059
-155,935	-200,000	0,023	-0,098
-154,920	-175,605	0,046	-0,001
-153,906	-99,677	-0,067	-0,012
-152,891	236,249	-0,066	0,079
-151,877	-31,478	0,048	0,019
-150,862	-77,826	-0,105	0,026
-149,847	-116,250	0,040	-0,005
-148,833	-200,000	-0,001	0,298
-147,818	11,136	-0,133	0,073
-146,804	-200,000	-0,015	0,130
-145,789	800,000	-0,036	0,104
-144,775	-46,864	0,051	-0,018
-143,760	428,292	0,060	-0,094
-142,745	-61,986	-0,137	0,041
-141,731	164,722	0,071	0,073
-140,716	-200,000	0,030	0,200
-139,702	329,807	0,073	0,102
-138,687	-55,196	0,067	0,022
-137,672	-100,516	-0,088	0,016
-136,658	800,000	-0,019	-0,055
-135,643	2,409	-0,184	-0,096
-134,629	32,454	-0,073	0,046
-133,614	34,154	0,123	0,078
-132,599	186,792	-0,104	0,112
-131,585	-200,000	-0,044	0,165
-130,570	-143,561	0,089	0,006
-129,556	-124,414	-0,039	0,004
-128,541	-200,000	0,012	-0,111
-127,526	100,205	-0,038	0,032
-126,512	-34,896	0,034	0,013
-125,497	46,060	0,106	0,071
-124,483	393,078	0,107	0,162
-123,468	-13,457	0,061	0,028
-122,453	28,392	0,092	-0,056
-121,439	172,076	-0,036	-0,037
-120,424	-95,998	0,162	-0,031
-119,410	404,971	0,035	0,054
