DTS Sentinel unit serial number:	SN410029Multiplexer serial number:	ORYXHardware model number:	OX2-SRSoftware version number:	ORYX F/W v4,00 Oryx Data Collector v3.7.2.0data status	okinstallation	B3 Nyhavnadifferential loss correction	single-endedforward channel	channel 1reverse channel	N/Adate	2023/11/28time	10:32:30forward acquisition time	300,00reverse acquisition time	0,00gamma	499,1914k internal	0,3141k external	0,3141temperature offset calibration	1,0000default loss term (dB/km)	0,3820temperature slope calibration	1,0000multiplexer offset coefficient	1,0000multiplexer slope coefficient	1,0000fibre end	0,00T internal ref (°C)	9,92T ext. ref 1 (°C)	-6,80T ext. ref 2 (°C)	-7,05length (m)	temperature (°C)	Stokes	anti-Stokes-744,400	-200,000	-0,026	-0,243
-743,385	339,209	-0,172	0,250
-742,371	67,714	-0,094	-0,071
-741,356	-200,000	-0,092	0,304
-740,342	405,498	-0,091	-0,142
-739,327	800,000	-0,089	0,218
-738,312	151,068	-0,208	-0,209
-737,298	136,873	-0,094	0,091
-736,283	-200,000	0,003	-0,225
-735,269	439,310	-0,113	0,183
-734,254	-38,107	-0,227	-0,089
-733,239	-200,000	-0,257	-0,001
-732,225	-200,000	-0,012	-0,237
-731,210	262,236	0,087	0,111
-730,196	-132,444	0,041	0,004
-729,181	-200,000	-0,019	-0,107
-728,167	317,747	0,105	0,148
-727,152	-37,140	-0,104	0,041
-726,137	-36,416	-0,215	-0,085
-725,123	-200,000	-0,005	-0,094
-724,108	800,000	-0,059	-0,157
-723,094	-39,809	0,096	-0,037
-722,079	-200,000	0,023	-0,092
-721,064	-114,801	-0,141	-0,020
-720,050	800,000	0,042	-0,091
-719,035	-14,761	-0,032	0,015
-718,021	57,315	-0,035	-0,026
-717,006	-55,407	-0,050	-0,017
-715,991	-64,175	-0,135	-0,040
-714,977	98,945	-0,136	-0,116
-713,962	-200,000	0,024	-0,140
-712,948	56,640	-0,109	-0,079
-711,933	800,000	-0,041	-0,095
-710,918	88,500	-0,042	0,034
-709,904	85,656	-0,041	-0,033
-708,889	-150,629	-0,095	0,005
-707,875	800,000	-0,037	0,084
-706,860	-200,000	0,047	0,204
-705,845	17,165	-0,017	-0,010
-704,831	-200,000	0,028	-0,096
-703,816	29,732	0,053	-0,034
-702,802	-200,000	-0,024	-0,237
-701,787	89,227	-0,066	-0,055
-700,772	-120,570	0,170	-0,021
-699,758	-103,472	-0,086	-0,015
-698,743	-200,000	0,018	-0,122
-697,729	-36,179	0,107	0,042
-696,714	-159,765	-0,159	-0,006
-695,699	-126,354	0,084	-0,009
-694,685	800,000	-0,037	-0,113
-693,670	-56,332	0,082	-0,027
-692,656	-44,756	0,015	0,006
-691,641	157,821	-0,019	0,019
-690,627	-108,022	-0,088	-0,014
-689,612	800,000	0,049	-0,113
-688,597	608,708	-0,013	-0,025
-687,583	-200,000	-0,036	-0,245
-686,568	-200,000	-0,014	-0,151
-685,554	702,130	-0,063	-0,124
-684,539	116,471	0,093	0,085
-683,524	384,939	0,057	-0,088
-682,510	-200,000	0,033	0,172
-681,495	-6,811	-0,128	-0,064
-680,481	-165,462	-0,163	0,005
-679,466	800,000	-0,046	-0,096
-678,451	-200,000	0,013	-0,091
-677,437	-200,000	-0,008	0,071
-676,422	-200,000	-0,001	0,136
-675,408	539,397	0,054	-0,096
-674,393	-200,000	-0,043	-0,166
-673,378	800,000	0,046	-0,112
-672,364	-73,886	-0,150	-0,040
-671,349	-200,000	0,009	-0,093
-670,335	-200,000	-0,031	0,142
-669,320	-83,613	0,152	-0,036
-668,305	800,000	0,011	0,025
-667,291	228,268	-0,083	-0,100
-666,276	-200,000	0,001	-0,219
-665,262	-84,562	-0,124	0,029
-664,247	800,000	0,041	-0,091
-663,232	-200,000	-0,004	-0,117
-662,218	-20,588	-0,021	0,009
-661,203	36,908	0,080	-0,052
-660,189	269,325	-0,100	-0,129
-659,174	-200,000	-0,013	-0,044
-658,159	-200,000	-0,042	-0,230
-657,145	-5,219	-0,118	-0,060
-656,130	800,000	0,017	-0,044
-655,116	42,329	0,109	0,073
-654,101	-43,642	-0,120	0,045
-653,086	-200,000	0,015	-0,078
-652,072	-61,791	-0,032	-0,010
-651,057	-200,000	-0,006	-0,104
-650,043	1,021	-0,126	0,067
-649,028	-39,910	0,100	-0,038
-648,014	800,000	0,060	-0,168
-646,999	128,475	0,023	0,022
-645,984	12,115	0,043	-0,024
-644,970	152,809	-0,107	-0,108
-643,955	-200,000	-0,007	0,047
-642,941	-200,000	-0,004	-0,047
-641,926	38,119	-0,099	0,065
-640,911	-141,934	0,088	0,006
-639,897	-122,288	0,060	-0,007
-638,882	168,828	-0,039	0,041
-637,868	-200,000	-0,007	0,037
-636,853	166,583	-0,125	-0,131
-635,838	675,711	-0,038	-0,073
-634,824	311,835	-0,071	-0,099
-633,809	-151,893	0,099	0,005
-632,795	-122,867	-0,033	0,004
-631,780	773,741	-0,033	-0,067
-630,765	800,000	-0,022	0,053
-629,751	253,335	-0,078	0,099
-628,736	25,089	0,018	-0,011
-627,722	253,128	-0,042	-0,053
-626,707	-19,394	-0,077	0,035
-625,692	-109,087	0,070	0,011
-624,678	81,314	-0,103	0,082
-623,663	-200,000	0,010	-0,036
-622,649	-200,000	0,034	-0,145
-621,634	-200,000	0,030	-0,110
-620,619	52,427	-0,151	-0,106
-619,605	-92,859	0,139	-0,028
-618,590	685,336	-0,048	-0,093
-617,576	542,709	0,059	0,104
-616,561	-200,000	0,014	0,079
-615,546	-151,154	-0,103	0,006
-614,532	-200,000	0,017	0,093
-613,517	-79,758	0,054	-0,013
-612,503	-2,969	-0,085	0,044
-611,488	494,249	0,059	-0,100
-610,474	210,555	-0,025	0,029
-609,459	6,239	-0,048	-0,026
-608,444	-61,968	-0,089	-0,027
-607,430	-200,000	-0,003	0,079
-606,415	-29,255	-0,071	0,030
-605,401	86,999	-0,050	0,041
-604,386	-89,850	0,079	-0,017
-603,371	735,105	0,046	-0,091
-602,357	240,988	0,092	0,114
-601,342	-21,800	-0,170	0,076
-600,328	-55,482	0,031	0,010
-599,313	262,305	-0,092	-0,117
-598,298	-200,000	-0,053	0,183
-597,284	681,523	0,046	0,088
-596,269	270,209	0,100	0,129
-595,255	-0,054	-0,018	-0,009
-594,240	800,000	0,016	-0,041
-593,225	636,004	0,016	0,030
-592,211	-200,000	0,043	-0,168
-591,196	15,695	0,089	0,051
-590,182	-200,000	0,001	-0,027
-589,167	800,000	-0,011	0,031
-588,152	-120,075	0,078	0,010
-587,138	7,278	-0,027	-0,015
-586,123	800,000	-0,013	-0,040
-585,109	197,090	0,051	0,058
-584,094	9,216	-0,070	-0,039
-583,079	800,000	-0,046	0,095
-582,065	85,646	-0,075	0,061
-581,050	-72,635	0,012	-0,003
-580,036	-63,313	0,083	0,025
-579,021	-200,000	0,030	-0,123
-578,006	-55,641	-0,068	-0,022
-576,992	184,702	0,090	-0,099
-575,977	-200,000	-0,002	0,018
-574,963	125,885	-0,100	0,093
-573,948	-200,000	-0,031	0,102
-572,934	-200,000	-0,037	-0,143
-571,919	63,863	-0,089	-0,066
-570,904	800,000	-0,045	0,095
-569,890	59,125	0,044	0,032
-568,875	-200,000	-0,013	-0,102
-567,861	-16,991	0,053	0,025
-566,846	-92,879	0,050	-0,010
-565,831	-72,391	-0,115	-0,031
-564,817	519,168	-0,018	-0,031
-563,802	100,121	-0,088	-0,075
-562,788	22,389	-0,084	-0,050
-561,773	800,000	0,054	0,131
-560,758	26,281	0,046	-0,029
-559,744	334,035	-0,070	0,100
-558,729	-200,000	-0,004	0,043
-557,715	800,000	-0,038	0,093
-556,700	35,966	-0,100	-0,065
-555,685	56,400	-0,115	0,082
-554,671	800,000	-0,028	-0,059
-553,656	-142,732	0,154	-0,011
-552,642	180,100	0,025	0,027
-551,627	-200,000	-0,001	0,021
-550,612	-200,000	0,005	-0,117
-549,598	-101,896	-0,146	-0,026
-548,583	-127,563	-0,077	0,008
-547,569	-200,000	-0,014	0,184
-546,554	-200,000	0,024	0,129
-545,539	800,000	-0,016	-0,042
-544,525	189,568	0,094	-0,104
-543,510	-200,000	0,015	-0,060
-542,496	800,000	-0,012	0,027
-541,481	800,000	0,027	-0,075
-540,466	123,021	-0,069	-0,063
-539,452	-92,063	-0,061	-0,013
-538,437	195,734	0,066	-0,074
-537,423	-0,492	-0,057	-0,030
-536,408	473,814	0,034	0,056
-535,393	20,657	0,108	-0,064
-534,379	273,797	-0,064	-0,084
-533,364	-95,494	-0,078	-0,015
-532,350	-200,000	-0,029	0,158
-531,335	55,297	-0,104	0,074
-530,321	369,105	0,070	0,104
-529,306	-200,000	0,006	0,024
-528,291	-61,059	-0,098	0,030
-527,277	800,000	-0,042	-0,100
-526,262	-56,019	-0,083	0,027
-525,248	-60,855	0,039	-0,012
-524,233	-160,519	-0,076	-0,003
-523,218	-200,000	0,022	-0,150
-522,204	-117,001	-0,120	0,016
-521,189	64,250	-0,027	-0,020
-520,175	199,225	0,017	-0,020
-519,160	800,000	-0,055	-0,115
-518,145	155,318	0,178	0,180
-517,131	442,856	0,005	-0,008
-516,116	-200,000	0,015	-0,067
-515,102	49,133	-0,080	-0,055
-514,087	-97,705	-0,116	0,022
-513,072	369,761	0,096	-0,143
-512,058	800,000	0,024	-0,077
-511,043	467,223	0,078	0,129
-510,029	-200,000	-0,006	0,101
-509,014	-200,000	0,050	0,177
-507,999	450,359	0,023	-0,037
-506,985	443,464	0,050	-0,081
-505,970	-200,000	-0,037	-0,131
-504,956	104,274	0,097	0,084
-503,941	461,767	0,044	-0,073
-502,926	-108,501	0,094	-0,015
-501,912	122,559	0,176	0,162
-500,897	-200,000	-0,023	-0,087
-499,883	-19,748	-0,082	0,037
-498,868	37,217	-0,101	-0,066
-497,853	103,306	-0,114	-0,098
-496,839	-200,000	0,007	0,110
-495,824	121,296	0,109	0,100
-494,810	273,264	0,089	0,116
-493,795	800,000	0,016	0,038
-492,781	-200,000	0,001	0,169
-491,766	-99,489	0,021	0,004
-490,751	232,300	-0,090	-0,109
-489,737	256,849	-0,025	-0,032
-488,722	-61,485	0,105	-0,032
-487,708	-200,000	0,043	0,165
-486,693	-200,000	-0,003	-0,114
-485,678	11,438	-0,018	-0,010
-484,664	-200,000	-0,039	-0,145
-483,649	-139,559	-0,105	0,008
-482,635	300,540	0,052	0,071
-481,620	-94,093	0,063	0,013
-480,605	196,531	-0,026	-0,029
-479,591	-200,000	-0,042	0,216
-478,576	-200,000	0,030	0,310
-477,562	380,129	-0,040	0,060
-476,547	-200,000	0,009	-0,030
-475,532	87,543	0,027	-0,022
-474,518	800,000	0,063	0,168
-473,503	144,097	-0,065	0,063
-472,489	-200,000	-0,010	-0,138
-471,474	800,000	-0,047	-0,102
-470,459	-200,000	-0,004	-0,094
-469,445	6,807	0,070	-0,038
-468,430	-200,000	-0,003	0,108
-467,416	374,939	0,061	0,091
-466,401	-122,147	-0,059	0,007
-465,386	-92,768	0,078	0,016
-464,372	-183,268	-0,075	-0,001
-463,357	-25,547	-0,158	-0,068
-462,343	800,000	-0,088	-0,183
-461,328	92,314	0,004	0,003
-460,313	627,364	-0,102	-0,190
-459,299	-151,535	0,081	-0,004
-458,284	-40,499	0,142	0,054
-457,270	-9,886	-0,032	-0,016
-456,255	-101,161	-0,131	0,023
-455,241	-13,461	-0,199	-0,094
-454,226	-127,003	0,100	-0,011
-453,211	-200,000	-0,010	-0,084
-452,197	-5,913	0,143	-0,071
-451,182	225,079	-0,105	0,125
-450,168	-200,000	-0,002	0,045
-449,153	-146,128	0,029	0,002
-448,138	-149,552	-0,172	-0,010
-447,124	-10,723	0,064	-0,031
-446,109	-155,355	0,086	0,004
-445,095	800,000	-0,011	-0,031
-444,080	151,062	-0,084	-0,084
-443,065	-200,000	0,006	-0,022
-442,051	254,217	-0,057	0,072
-441,036	-200,000	0,000	-0,004
-440,022	-200,000	0,003	0,040
-439,007	-120,389	-0,038	0,005
-437,992	-200,000	-0,012	-0,062
-436,978	159,164	0,031	0,032
-435,963	13,682	0,067	-0,038
-434,949	100,228	-0,043	-0,036
-433,934	105,686	0,066	-0,057
-432,919	800,000	0,038	-0,080
-431,905	-7,468	-0,075	-0,037
-430,890	800,000	0,030	0,066
-429,876	-200,000	-0,015	0,062
-428,861	65,522	0,053	-0,040
-427,846	-200,000	-0,015	0,156
-426,832	-134,160	-0,063	-0,006
-425,817	-200,000	-0,024	0,110
-424,803	-200,000	0,035	-0,130
-423,788	-113,737	0,060	0,008
-422,773	82,155	-0,089	-0,071
-421,759	-200,000	-0,010	-0,033
-420,744	90,450	0,097	0,080
-419,730	389,983	-0,140	-0,213
-418,715	-34,536	-0,129	-0,051
-417,701	-48,736	0,094	-0,033
-416,686	-200,000	0,002	0,038
-415,671	337,401	-0,018	0,025
-414,657	-95,936	0,045	-0,009
-413,642	20,686	0,070	0,042
-412,628	366,046	0,041	0,060
-411,613	-24,057	-0,112	-0,049
-410,598	572,120	0,048	-0,085
-409,584	-200,000	-0,026	0,084
-408,569	-200,000	0,026	0,158
-407,555	-200,000	0,003	0,013
-406,540	-67,252	0,045	0,013
-405,525	-200,000	0,007	0,080
-404,511	-39,166	-0,054	-0,021
-403,496	-121,791	0,061	0,007
-402,482	9,840	-0,046	0,025
-401,467	366,733	0,089	0,132
-400,452	800,000	0,041	0,086
-399,438	-42,533	-0,172	0,064
-398,423	800,000	-0,058	-0,159
-397,409	-200,000	0,004	0,061
-396,394	2,339	0,073	-0,038
-395,379	-89,775	-0,030	0,006
-394,365	-107,377	0,090	0,014
-393,350	66,005	0,104	0,077
-392,336	493,669	-0,035	-0,059
-391,321	-200,000	-0,009	-0,044
-390,306	98,268	-0,084	-0,071
-389,292	-64,452	-0,078	-0,023
-388,277	-34,146	0,141	-0,056
-387,263	-48,644	-0,059	-0,021
-386,248	27,674	0,039	0,024
-385,233	122,663	-0,056	-0,051
-384,219	-75,292	0,130	-0,034
-383,204	-129,082	0,072	0,007
-382,190	-114,987	-0,156	-0,021
-381,175	221,320	-0,113	0,133
-380,160	95,490	0,036	0,030
-379,146	142,083	0,028	0,027
-378,131	800,000	0,034	-0,098
-377,117	-200,000	-0,008	0,122
-376,102	50,658	-0,046	-0,031
-375,088	299,867	0,079	-0,107
-374,073	7,115	-0,099	0,054
-373,058	-200,000	0,011	-0,072
-372,044	160,854	0,043	0,044
-371,029	-1,828	0,072	0,037
-370,015	68,429	-0,097	-0,073
-369,000	8,115	0,036	-0,020
-367,985	390,276	-0,056	0,084
-366,971	120,574	-0,067	-0,061
-365,956	-200,000	0,013	-0,087
-364,942	262,495	0,001	-0,002
-363,927	800,000	-0,016	0,046
-362,912	162,515	0,041	-0,042
-361,898	156,268	-0,020	-0,020
-360,883	-134,095	0,137	-0,012
-359,869	-200,000	-0,019	-0,150
-358,854	-200,000	0,008	0,129
-357,839	740,658	0,065	-0,128
-356,825	70,333	0,036	0,027
-355,810	488,380	-0,070	-0,118
-354,796	698,687	0,024	-0,045
-353,781	800,000	-0,027	0,075
-352,766	-200,000	-0,002	0,039
-351,752	-200,000	-0,007	0,026
-350,737	800,000	0,010	-0,027
-349,723	163,728	0,053	-0,054
-348,708	539,541	0,028	0,048
-347,693	80,188	-0,099	0,077
-346,679	-200,000	-0,021	-0,163
-345,664	-150,764	-0,044	-0,002
-344,650	-67,376	-0,163	0,046
-343,635	800,000	-0,031	0,089
-342,620	-200,000	0,008	-0,046
-341,606	-161,211	-0,090	-0,003
-340,591	400,093	0,095	-0,145
-339,577	-108,348	-0,132	0,021
-338,562	-200,000	-0,039	-0,151
-337,548	11,183	-0,135	0,075
-336,533	153,291	-0,066	0,066
-335,518	17,301	0,101	0,058
-334,504	-134,504	-0,032	-0,003
-333,489	800,000	0,039	0,101
-332,475	-200,000	0,023	-0,148
-331,460	800,000	-0,034	-0,108
-330,445	-83,695	0,110	0,026
-329,431	78,085	0,024	0,019
-328,416	277,499	0,053	-0,069
-327,402	172,859	-0,087	0,091
-326,387	-76,387	0,110	0,028
-325,372	137,849	-0,060	-0,057
-324,358	203,436	-0,032	-0,036
-323,343	-200,000	-0,027	-0,141
-322,329	-146,278	-0,126	0,008
-321,314	-36,472	0,119	-0,046
-320,299	5,459	0,131	0,070
-319,285	214,485	-0,074	0,086
-318,270	217,050	0,031	0,036
-317,256	-200,000	0,015	-0,148
-316,241	800,000	-0,036	-0,076
-315,226	-58,740	0,066	-0,021
-314,212	-100,422	0,118	0,021
-313,197	-0,723	0,019	0,010
-312,183	-10,610	-0,059	0,028
-311,168	-16,901	-0,069	-0,031
-310,153	-200,000	0,020	0,121
-309,139	-100,357	-0,048	0,009
-308,124	-47,894	-0,103	0,036
-307,110	-84,368	0,114	-0,026
-306,095	-137,677	0,094	-0,008
-305,080	386,504	0,022	-0,033
-304,066	-176,645	-0,144	0,003
-303,051	-6,639	-0,192	-0,095
-302,037	-81,225	0,107	0,026
-301,022	-200,000	0,041	0,197
-300,008	12,413	-0,061	0,034
-298,993	100,014	0,084	0,071
-297,978	-151,187	0,080	-0,004
-296,964	800,000	-0,037	0,078
-295,949	279,412	-0,168	-0,219
-294,935	246,635	-0,019	-0,023
-293,920	800,000	0,043	-0,131
-292,905	-81,788	-0,064	-0,015
-291,891	160,763	-0,003	0,003
-290,876	156,654	0,108	0,108
-289,862	800,000	-0,032	-0,096
-288,847	88,108	0,127	-0,103
-287,832	-200,000	0,022	-0,082
-286,818	-200,000	-0,011	0,046
-285,803	263,080	0,062	0,079
-284,789	-200,000	-0,007	0,031
-283,774	-200,000	0,001	0,024
-282,759	-71,948	0,104	-0,028
-281,745	800,000	0,025	0,052
-280,730	-200,000	0,018	0,128
-279,716	84,865	0,145	0,116
-278,701	-200,000	0,019	-0,069
-277,686	368,923	0,013	0,020
-276,672	-38,295	0,126	-0,048
-275,657	264,279	0,064	-0,082
-274,643	800,000	0,040	-0,094
-273,628	-46,202	0,072	0,026
-272,613	53,745	-0,051	0,035
-271,599	-200,000	-0,005	0,082
-270,584	-200,000	0,017	0,107
-269,570	193,108	-0,062	-0,068
-268,555	-200,000	0,018	0,067
-267,540	238,501	-0,028	-0,034
-266,526	87,059	-0,079	0,063
-265,511	601,676	-0,056	0,101
-264,497	-86,535	-0,063	0,014
-263,482	-38,854	0,140	0,054
-262,467	331,471	-0,052	0,073
-261,453	202,822	-0,107	0,121
-260,438	-200,000	0,007	0,027
-259,424	142,289	0,083	-0,080
-258,409	-200,000	-0,001	-0,055
-257,395	-60,104	-0,079	-0,024
-256,380	747,827	0,024	-0,047
-255,365	-83,917	0,065	0,015
-254,351	-79,706	0,056	-0,014
-253,336	-138,937	-0,169	-0,013
-252,322	17,106	-0,110	-0,063
-251,307	448,397	-0,032	0,051
-250,292	-53,197	0,147	-0,049
-249,278	-200,000	-0,017	0,056
-248,263	74,467	0,054	-0,041
-247,249	800,000	0,048	0,122
-246,234	682,033	0,013	-0,025
-245,219	98,770	-0,133	-0,112
-244,205	-159,860	-0,097	-0,004
-243,190	140,494	-0,074	-0,071
-242,176	800,000	0,027	-0,087
-241,161	-200,000	0,034	0,120
-240,146	388,810	0,093	0,141
-239,132	346,226	-0,058	0,083
-238,117	-92,553	-0,113	-0,023
-237,103	-107,182	0,069	-0,011
-236,088	-4,947	-0,031	0,016
-235,073	-92,531	0,155	0,031
-234,059	790,384	0,034	0,069
-233,044	800,000	-0,037	-0,100
-232,030	-33,233	0,107	-0,043
-231,015	111,753	-0,039	0,034
-230,000	-20,840	0,030	-0,013
-228,986	639,254	-0,058	-0,107
-227,971	-69,711	-0,072	-0,020
-226,957	7,516	0,175	-0,095
-225,942	213,306	0,040	0,046
-224,927	57,450	0,046	0,033
-223,913	-200,000	0,007	0,051
-222,898	-200,000	0,005	0,022
-221,884	183,771	-0,085	0,091
-220,869	17,610	0,033	0,019
-219,855	3,838	0,102	0,054
-218,840	191,270	-0,045	0,049
-217,825	800,000	0,045	0,139
-216,811	-200,000	0,034	0,146
-215,796	800,000	0,027	-0,077
-214,782	28,055	0,136	0,083
-213,767	-167,398	-0,167	-0,005
-212,752	-73,767	0,178	0,047
-211,738	352,919	0,052	0,075
-210,723	-67,723	0,165	0,047
-209,709	301,321	0,073	0,098
-208,694	705,128	-0,039	0,075
-207,679	-200,000	0,026	-0,095
-206,665	-130,392	0,083	-0,008
-205,650	-31,686	0,126	0,051
-204,636	-200,000	-0,008	-0,037
-203,621	-200,000	-0,005	-0,031
-202,606	-113,011	-0,223	-0,032
-201,592	137,018	-0,041	0,039
-200,577	258,601	-0,055	-0,069
-199,563	-1,804	0,058	-0,030
-198,548	40,498	0,101	-0,066
-197,533	511,367	0,061	0,103
-196,519	177,920	0,048	-0,051
-195,504	17,774	0,033	0,019
-194,490	-200,000	-0,011	0,080
-193,475	800,000	0,056	-0,115
-192,460	139,888	-0,046	0,044
-191,446	367,702	0,019	0,028
-190,431	371,274	0,101	0,149
-189,417	699,849	-0,041	0,078
-188,402	242,902	0,064	0,078
-187,387	-200,000	0,012	-0,056
-186,373	143,061	0,103	-0,100
-185,358	-200,000	-0,002	0,087
-184,344	-151,541	0,087	-0,005
-183,329	128,060	0,065	0,060
-182,315	249,302	0,081	-0,100
-181,300	443,354	0,015	-0,023
-180,285	-200,000	0,001	0,059
-179,271	-2,738	-0,094	0,048
-178,256	16,243	-0,091	0,052
-177,242	-200,000	-0,033	-0,107
-176,227	-200,000	-0,008	-0,043
-175,212	179,960	-0,082	-0,088
-174,198	165,307	0,011	-0,011
-173,183	-82,226	0,011	-0,002
-172,169	-200,000	-0,049	-0,164
-171,154	37,231	0,064	-0,041
-170,139	23,935	0,068	0,040
-169,125	531,580	0,044	-0,076
-168,110	87,650	0,059	-0,047
-167,096	-200,000	0,016	0,075
-166,081	-44,089	-0,203	0,073
-165,066	509,178	0,026	-0,044
-164,052	-200,000	0,008	-0,065
-163,037	-106,212	-0,075	-0,012
-162,023	-200,000	-0,015	0,068
-161,008	179,199	0,132	0,140
-159,993	-200,000	-0,013	-0,051
-158,979	-84,206	0,038	-0,009
-157,964	86,364	-0,042	-0,033
-156,950	-200,000	-0,032	-0,110
-155,935	19,548	0,027	-0,016
-154,920	-33,803	0,141	-0,056
-153,906	800,000	0,061	-0,140
-152,891	-200,000	-0,002	0,148
-151,877	-48,654	-0,105	-0,036
-150,862	442,299	0,011	-0,018
-149,847	312,374	-0,103	0,140
-148,833	237,228	0,027	0,032
-147,818	1,119	0,032	0,016
-146,804	9,422	-0,040	0,022
-145,789	372,033	0,037	-0,054
-144,775	-64,364	-0,030	0,009
-143,760	71,763	-0,038	0,029
-142,745	-200,000	-0,033	-0,128
-141,731	-3,100	-0,029	0,014
-140,716	202,054	-0,043	0,048
-139,702	-104,172	0,044	0,007
-138,687	11,362	-0,110	0,061
-137,672	-89,793	-0,036	0,008
-136,658	-200,000	-0,023	0,074
-135,643	-159,460	-0,086	-0,003
-134,629	-33,342	0,080	0,032
-133,614	-132,057	0,090	-0,008
-132,599	-200,000	-0,006	0,057
-131,585	119,586	-0,048	-0,043
-130,570	142,872	-0,096	-0,093
-129,556	800,000	-0,038	-0,076
-128,541	-20,440	0,098	0,044
-127,526	371,230	0,056	0,083
-126,512	106,207	-0,051	0,044
-125,497	-4,790	0,087	0,043
-124,483	800,000	0,022	0,062
-123,468	790,068	0,066	-0,133
-122,453	-144,235	-0,170	0,011
-121,439	446,646	-0,044	0,071
-120,424	-1,854	0,080	-0,040
