DTS Sentinel unit serial number:	SN410029Multiplexer serial number:	ORYXHardware model number:	OX2-SRSoftware version number:	ORYX F/W v4,00 Oryx Data Collector v3.7.2.0data status	okinstallation	B3 Nyhavnadifferential loss correction	single-endedforward channel	channel 1reverse channel	N/Adate	2023/11/28time	14:57:30forward acquisition time	300,00reverse acquisition time	0,00gamma	499,1914k internal	0,3160k external	0,3160temperature offset calibration	1,0000default loss term (dB/km)	0,3820temperature slope calibration	1,0000multiplexer offset coefficient	1,0000multiplexer slope coefficient	1,0000fibre end	0,00T internal ref (°C)	7,37T ext. ref 1 (°C)	-7,72T ext. ref 2 (°C)	-7,89length (m)	temperature (°C)	Stokes	anti-Stokes-744,400	76,496	-0,220	-0,172
-743,385	-200,000	-0,048	0,323
-742,371	800,000	-0,105	-0,224
-741,356	-200,000	-0,008	0,271
-740,342	-88,319	-0,141	-0,031
-739,327	456,243	-0,142	0,232
-738,312	-200,000	-0,035	-0,184
-737,298	800,000	-0,105	0,248
-736,283	-200,000	-0,094	-0,352
-735,269	-200,000	0,003	0,247
-734,254	154,952	-0,257	-0,261
-733,239	-40,232	-0,267	-0,102
-732,225	348,177	-0,115	-0,168
-731,210	-79,730	0,117	0,029
-730,196	195,487	-0,101	-0,113
-729,181	16,446	0,047	0,027
-728,167	-200,000	-0,017	0,141
-727,152	117,799	0,078	0,071
-726,137	190,438	-0,068	-0,075
-725,123	392,989	-0,050	-0,077
-724,108	-200,000	-0,001	-0,113
-723,094	-17,235	-0,064	-0,030
-722,079	-200,000	0,011	0,053
-721,064	-200,000	0,017	-0,074
-720,050	473,792	0,053	0,089
-719,035	-131,144	-0,080	-0,008
-718,021	-200,000	-0,003	0,080
-717,006	758,072	-0,029	0,059
-715,991	-11,460	-0,195	-0,094
-714,977	72,888	0,043	-0,033
-713,962	800,000	-0,018	-0,043
-712,948	800,000	-0,047	-0,143
-711,933	226,463	0,075	-0,090
-710,918	-42,566	-0,157	0,058
-709,904	-16,417	-0,123	0,057
-708,889	-200,000	0,012	-0,096
-707,875	800,000	0,021	-0,054
-706,860	70,791	-0,022	-0,017
-705,845	-111,892	0,088	-0,013
-704,831	-200,000	0,007	0,033
-703,816	65,204	-0,026	0,019
-702,802	47,865	-0,171	-0,118
-701,787	77,755	-0,159	-0,124
-700,772	153,004	-0,041	-0,041
-699,758	362,665	-0,053	0,078
-698,743	44,818	0,075	0,051
-697,729	800,000	0,017	0,047
-696,714	-140,044	0,094	-0,007
-695,699	-200,000	0,010	0,104
-694,685	800,000	-0,009	-0,020
-693,670	-200,000	-0,009	-0,034
-692,656	-200,000	0,002	-0,082
-691,641	-39,732	-0,037	-0,014
-690,627	-200,000	0,021	0,231
-689,612	142,851	0,040	-0,039
-688,597	19,877	-0,045	0,026
-687,583	18,058	-0,083	-0,049
-686,568	800,000	-0,033	0,099
-685,554	64,289	0,096	-0,071
-684,539	-200,000	0,005	0,043
-683,524	800,000	0,032	0,079
-682,510	800,000	0,050	0,108
-681,495	-200,000	-0,028	0,157
-680,481	-200,000	0,015	0,075
-679,466	-48,070	-0,130	-0,046
-678,451	-56,980	-0,146	-0,047
-677,437	37,876	0,126	-0,082
-676,422	19,416	0,069	0,041
-675,408	46,238	0,067	0,046
-674,393	-85,865	0,078	-0,018
-673,378	-71,336	-0,153	0,042
-672,364	286,793	0,117	0,156
-671,349	89,482	-0,143	-0,117
-670,335	-157,544	0,141	0,006
-669,320	205,683	-0,039	0,045
-668,305	411,715	0,093	0,146
-667,291	20,806	0,106	-0,063
-666,276	-200,000	0,003	-0,162
-665,262	-141,582	-0,028	-0,002
-664,247	17,513	-0,091	-0,053
-663,232	67,307	0,052	0,039
-662,218	-161,043	-0,082	0,003
-661,203	60,231	-0,116	-0,084
-660,189	74,657	-0,029	0,022
-659,174	800,000	-0,033	-0,100
-658,159	-146,768	-0,062	0,004
-657,145	800,000	-0,029	-0,072
-656,130	800,000	-0,008	-0,021
-655,116	-1,766	0,196	0,101
-654,101	-200,000	-0,016	0,126
-653,086	-200,000	0,006	0,096
-652,072	-200,000	0,029	-0,123
-651,057	50,559	-0,184	0,128
-650,043	800,000	-0,023	0,059
-649,028	800,000	0,026	0,065
-648,014	94,435	0,046	0,038
-646,999	-200,000	0,008	0,066
-645,984	-200,000	0,003	0,102
-644,970	59,736	-0,090	-0,065
-643,955	-47,478	0,055	0,020
-642,941	-85,714	-0,083	-0,019
-641,926	697,511	0,047	0,092
-640,911	63,204	-0,062	-0,046
-639,897	458,157	0,020	0,033
-638,882	49,484	-0,012	-0,008
-637,868	-168,398	0,100	0,003
-636,853	-200,000	-0,000	-0,118
-635,838	92,268	-0,049	-0,041
-634,824	189,747	0,057	0,063
-633,809	800,000	0,059	0,129
-632,795	-68,005	-0,066	0,019
-631,780	-76,804	0,082	-0,021
-630,765	617,279	-0,048	-0,089
-629,751	51,249	0,120	0,083
-628,736	-200,000	0,026	-0,118
-627,722	-18,048	-0,288	-0,132
-626,707	-29,279	0,086	-0,036
-625,692	-200,000	0,019	0,063
-624,678	-200,000	0,000	-0,133
-623,663	-40,434	-0,113	-0,043
-622,649	-200,000	-0,026	-0,086
-621,634	367,068	-0,073	-0,108
-620,619	-2,790	0,019	0,010
-619,605	800,000	0,006	0,012
-618,590	-46,410	-0,119	0,043
-617,576	-200,000	0,009	0,057
-616,561	-2,140	-0,154	-0,079
-615,546	-23,857	-0,131	0,057
-614,532	-22,626	-0,102	-0,045
-613,517	45,513	-0,045	-0,031
-612,503	800,000	0,029	0,078
-611,488	800,000	-0,016	0,037
-610,474	-200,000	-0,009	0,083
-609,459	-15,492	-0,053	-0,025
-608,444	800,000	-0,035	-0,073
-607,430	-46,820	-0,130	0,046
-606,415	-132,454	-0,100	-0,009
-605,401	800,000	0,049	0,135
-604,386	-30,159	-0,082	-0,034
-603,371	608,750	-0,027	0,049
-602,357	800,000	0,020	0,045
-601,342	-200,000	-0,028	-0,091
-600,328	603,743	-0,071	-0,130
-599,313	-101,807	-0,182	-0,032
-598,298	800,000	-0,032	-0,082
-597,284	43,938	-0,052	0,035
-596,269	-47,932	0,171	-0,060
-595,255	-200,000	-0,008	0,101
-594,240	-74,234	0,043	-0,011
-593,225	-200,000	-0,004	-0,061
-592,211	800,000	-0,034	-0,101
-591,196	-180,904	0,123	-0,002
-590,182	-146,342	0,112	-0,007
-589,167	231,962	-0,026	0,032
-588,152	-200,000	-0,006	0,047
-587,138	-171,717	-0,026	0,001
-586,123	-200,000	-0,001	-0,030
-585,109	-200,000	-0,009	-0,031
-584,094	215,753	0,053	-0,062
-583,079	41,920	0,061	0,040
-582,065	-200,000	-0,008	-0,089
-581,050	-200,000	0,032	0,108
-580,036	-200,000	-0,015	0,117
-579,021	272,147	0,035	-0,045
-578,006	-200,000	0,044	-0,166
-576,992	-200,000	-0,011	-0,085
-575,977	800,000	-0,008	0,019
-574,963	528,863	-0,011	0,019
-573,948	-200,000	-0,001	-0,017
-572,934	60,952	-0,126	0,091
-571,919	-72,211	-0,026	-0,007
-570,904	70,296	0,085	-0,064
-569,890	-200,000	0,004	-0,090
-568,875	173,197	0,076	0,081
-567,861	549,403	-0,022	-0,038
-566,846	800,000	0,021	-0,054
-565,831	-48,946	0,064	-0,022
-564,817	511,670	-0,033	0,057
-563,802	800,000	-0,024	-0,077
-562,788	-151,512	-0,058	-0,003
-561,773	37,473	0,011	-0,007
-560,758	-86,191	0,169	0,038
-559,744	324,777	0,072	0,101
-558,729	140,702	-0,060	0,058
-557,715	51,370	0,048	-0,034
-556,700	-63,088	-0,128	-0,038
-555,685	800,000	-0,034	-0,085
-554,671	-200,000	0,004	-0,112
-553,656	403,927	-0,104	0,161
-552,642	-11,392	0,064	-0,031
-551,627	-69,947	0,021	0,006
-550,612	135,156	-0,047	0,044
-549,598	604,696	0,021	-0,038
-548,583	-129,221	-0,073	-0,007
-547,569	-32,093	0,013	0,005
-546,554	-200,000	-0,008	0,057
-545,539	800,000	0,067	0,200
-544,525	566,233	0,025	0,045
-543,510	141,505	-0,064	0,062
-542,496	199,577	-0,059	-0,066
-541,481	85,848	-0,155	-0,125
-540,466	-21,066	0,054	-0,024
-539,452	-200,000	-0,029	0,097
-538,437	-46,044	-0,143	0,051
-537,423	-23,916	0,101	0,044
-536,408	11,638	0,064	0,036
-535,393	-200,000	0,019	-0,098
-534,379	-200,000	-0,062	-0,220
-533,364	-200,000	-0,033	-0,125
-532,350	800,000	0,009	0,019
-531,335	100,488	0,075	-0,063
-530,321	25,531	0,013	-0,008
-529,306	-113,123	-0,112	0,016
-528,291	800,000	0,018	-0,059
-527,277	-200,000	-0,007	-0,088
-526,262	-200,000	-0,006	-0,066
-525,248	235,423	0,064	0,078
-524,233	-161,979	-0,148	-0,005
-523,218	-200,000	0,004	0,029
-522,204	150,372	-0,035	-0,035
-521,189	-60,292	-0,091	-0,028
-520,175	-200,000	0,007	-0,152
-519,160	16,367	-0,093	0,053
-518,145	-200,000	-0,002	0,067
-517,131	-71,558	0,120	-0,033
-516,116	-200,000	-0,005	0,028
-515,102	-200,000	0,048	-0,175
-514,087	-68,308	-0,084	-0,024
-513,072	-200,000	-0,003	-0,115
-512,058	328,380	-0,087	-0,123
-511,043	-139,881	0,041	-0,003
-510,029	-200,000	-0,033	0,150
-509,014	-200,000	0,005	0,064
-507,999	-58,513	0,028	0,009
-506,985	-21,312	-0,028	0,013
-505,970	-104,886	0,082	0,014
-504,956	65,986	-0,056	0,042
-503,941	131,231	-0,015	-0,014
-502,926	-88,190	-0,075	-0,016
-501,912	800,000	0,050	0,134
-500,897	800,000	-0,033	0,072
-499,883	800,000	0,012	0,026
-498,868	87,141	0,108	-0,087
-497,853	-200,000	-0,007	0,031
-496,839	-63,364	0,067	-0,020
-495,824	-114,289	0,062	-0,009
-494,810	312,960	0,018	0,025
-493,795	-200,000	-0,026	0,106
-492,781	629,947	0,045	-0,083
-491,766	-55,532	-0,091	0,029
-490,751	800,000	0,030	-0,090
-489,737	-200,000	-0,047	-0,166
-488,722	-200,000	-0,036	0,212
-487,708	-29,954	0,060	0,025
-486,693	800,000	0,053	0,108
-485,678	355,236	0,012	-0,018
-484,664	800,000	-0,042	-0,130
-483,649	179,612	-0,021	-0,023
-482,635	-63,724	0,093	-0,028
-481,620	-200,000	-0,004	-0,111
-480,605	800,000	0,055	0,135
-479,591	400,266	0,037	-0,058
-478,576	-200,000	0,036	0,118
-477,562	-38,301	-0,053	-0,020
-476,547	-200,000	-0,013	-0,146
-475,532	-200,000	0,041	-0,132
-474,518	800,000	0,018	0,048
-473,503	-121,922	-0,101	-0,012
-472,489	268,451	-0,032	-0,041
-471,474	32,717	-0,033	-0,021
-470,459	395,877	-0,057	0,087
-469,445	539,184	-0,041	-0,071
-468,430	70,989	-0,056	0,042
-467,416	-200,000	-0,004	-0,062
-466,401	800,000	-0,034	0,091
-465,386	-180,571	0,077	-0,001
-464,372	800,000	-0,024	0,051
-463,357	-48,893	-0,092	0,032
-462,343	163,488	-0,060	0,062
-461,328	-31,815	0,075	-0,031
-460,313	484,784	0,012	-0,020
-459,299	-30,664	0,220	0,090
-458,284	-64,540	0,026	-0,008
-457,270	297,333	-0,048	0,064
-456,255	800,000	-0,013	0,042
-455,241	-150,911	0,007	-0,000
-454,226	-200,000	-0,050	0,164
-453,211	-51,118	-0,103	0,035
-452,197	-200,000	-0,018	-0,088
-451,182	800,000	0,026	0,079
-450,168	-200,000	0,015	0,056
-449,153	29,288	-0,059	0,036
-448,138	-104,463	0,096	0,016
-447,124	-162,581	-0,042	0,001
-446,109	-84,784	-0,037	-0,008
-445,095	-200,000	0,028	0,115
-444,080	305,005	0,031	0,043
-443,065	360,172	0,097	0,142
-442,051	-200,000	0,015	0,092
-441,036	-8,799	0,023	0,011
-440,022	144,910	-0,097	-0,095
-439,007	800,000	-0,022	0,046
-437,992	800,000	-0,015	0,031
-436,978	311,556	-0,097	-0,133
-435,963	-200,000	0,017	0,079
-434,949	110,726	-0,019	-0,016
-433,934	800,000	0,033	-0,096
-432,919	382,001	0,007	0,010
-431,905	91,729	0,023	-0,019
-430,890	-39,092	0,098	-0,037
-429,876	-200,000	-0,013	0,077
-428,861	-147,643	0,222	0,013
-427,846	-118,031	-0,037	-0,005
-426,832	499,933	-0,042	-0,070
-425,817	92,511	-0,097	0,080
-424,803	109,828	0,053	0,046
-423,788	800,000	0,035	0,083
-422,773	-200,000	0,022	0,094
-421,759	-200,000	-0,035	0,167
-420,744	248,915	0,001	-0,001
-419,730	800,000	0,032	-0,066
-418,715	-36,910	-0,053	0,021
-417,701	122,721	-0,049	0,045
-416,686	94,155	-0,116	0,095
-415,671	31,420	0,136	0,085
-414,657	-134,161	0,051	-0,004
-413,642	15,537	0,026	0,015
-412,628	800,000	0,025	-0,078
-411,613	800,000	-0,016	0,049
-410,598	-92,332	-0,113	0,023
-409,584	762,988	-0,012	0,024
-408,569	-130,755	-0,083	-0,008
-407,555	-52,917	0,180	0,060
-406,540	800,000	-0,029	0,093
-405,525	-76,048	0,186	0,047
-404,511	-200,000	0,007	0,104
-403,496	-135,718	-0,042	0,004
-402,482	-67,684	-0,040	0,011
-401,467	86,994	-0,054	0,043
-400,452	35,987	0,112	0,071
-399,438	-200,000	-0,022	0,104
-398,423	-5,172	0,056	0,028
-397,409	-200,000	-0,001	-0,043
-396,394	527,075	-0,028	0,048
-395,379	-66,628	-0,038	-0,011
-394,365	-43,888	0,099	-0,036
-393,350	-21,830	0,089	0,039
-392,336	67,112	0,117	0,086
-391,321	-16,720	0,050	-0,023
-390,306	800,000	-0,024	-0,063
-389,292	-102,666	-0,209	-0,036
-388,277	142,316	0,023	0,022
-387,263	757,245	0,042	0,084
-386,248	800,000	0,024	-0,050
-385,233	18,638	-0,070	0,040
-384,219	-112,474	0,067	-0,010
-383,204	-40,692	-0,197	-0,074
-382,190	-69,653	-0,107	-0,030
-381,175	107,704	0,090	-0,078
-380,160	102,982	0,060	-0,051
-379,146	-14,384	0,109	-0,051
-378,131	106,750	0,159	0,137
-377,117	-52,810	-0,060	0,020
-376,102	164,100	-0,116	-0,118
-375,088	800,000	0,022	-0,055
-374,073	-118,715	-0,092	-0,012
-373,058	32,649	0,128	0,080
-372,044	-200,000	-0,009	0,054
-371,029	-200,000	-0,001	0,168
-370,015	-67,948	0,139	-0,039
-369,000	-200,000	0,028	-0,164
-367,985	16,424	-0,053	-0,030
-366,971	134,888	0,044	-0,042
-365,956	35,188	0,076	0,049
-364,942	-200,000	-0,031	-0,119
-363,927	234,613	0,058	0,070
-362,912	148,718	-0,016	0,016
-361,898	137,393	-0,129	-0,122
-360,883	-187,579	-0,111	-0,001
-359,869	-163,511	-0,123	-0,004
-358,854	-200,000	-0,014	0,048
-357,839	-200,000	-0,030	0,157
-356,825	50,193	-0,024	-0,016
-355,810	-20,711	0,099	0,044
-354,796	242,851	0,087	-0,106
-353,781	-133,461	-0,070	-0,006
-352,766	-200,000	0,005	0,083
-351,752	-2,797	0,090	0,045
-350,737	157,206	-0,058	0,058
-349,723	-70,094	0,060	-0,016
-348,708	160,397	0,114	0,116
-347,693	-200,000	0,029	-0,185
-346,679	357,690	-0,065	-0,094
-345,664	-158,863	0,047	0,002
-344,650	-200,000	-0,010	-0,125
-343,635	-151,747	-0,057	0,003
-342,620	132,695	0,011	-0,010
-341,606	-76,420	0,180	0,046
-340,591	124,856	0,007	-0,006
-339,577	88,686	-0,038	-0,031
-338,562	44,699	-0,015	-0,010
-337,548	-131,885	-0,263	-0,025
-336,533	-200,000	0,003	0,047
-335,518	-36,415	-0,028	-0,011
-334,504	-42,280	0,154	-0,057
-333,489	354,740	-0,078	0,113
-332,475	-152,226	-0,166	0,009
-331,460	473,703	0,048	-0,079
-330,445	558,475	-0,042	-0,074
-329,431	-168,704	-0,074	-0,002
-328,416	-118,562	-0,023	0,003
-327,402	800,000	-0,048	0,138
-326,387	-200,000	0,006	0,028
-325,372	800,000	-0,031	0,092
-324,358	-200,000	0,007	-0,045
-323,343	-200,000	-0,021	-0,249
-322,329	800,000	-0,032	0,072
-321,314	541,524	0,060	0,104
-320,299	228,388	-0,132	0,156
-319,285	274,071	-0,088	0,113
-318,270	-45,189	0,008	0,003
-317,256	-72,702	0,056	-0,015
-316,241	74,387	-0,117	0,089
-315,226	537,486	0,019	-0,033
-314,212	78,268	0,043	0,033
-313,197	-200,000	-0,010	0,066
-312,183	158,619	0,025	0,025
-311,168	-102,851	-0,090	0,015
-310,153	112,422	0,083	-0,073
-309,139	598,085	-0,036	0,066
-308,124	19,501	-0,049	-0,028
-307,110	800,000	-0,006	0,016
-306,095	-35,851	-0,077	-0,030
-305,080	-120,240	0,098	0,012
-304,066	-200,000	-0,002	-0,053
-303,051	148,335	-0,111	0,108
-302,037	-71,711	-0,083	0,022
-301,022	-139,603	-0,104	0,008
-300,008	699,849	-0,027	-0,052
-298,993	800,000	-0,026	-0,062
-297,978	99,337	-0,039	0,033
-296,964	800,000	0,063	-0,134
-295,949	498,188	-0,044	-0,074
-294,935	-86,180	0,054	0,012
-293,920	41,434	-0,032	-0,021
-292,905	-151,306	0,150	0,008
-291,891	-200,000	-0,024	-0,084
-290,876	-3,791	0,132	0,066
-289,862	-200,000	0,011	-0,049
-288,847	378,220	-0,115	-0,170
-287,832	68,982	0,064	0,048
-286,818	-34,156	0,021	0,008
-285,803	800,000	0,018	0,048
-284,789	800,000	-0,014	-0,039
-283,774	60,039	0,078	0,056
-282,759	89,512	0,045	0,036
-281,745	-70,103	0,178	-0,049
-280,730	800,000	-0,093	-0,212
-279,716	-200,000	-0,014	-0,095
-278,701	-149,164	0,198	0,011
-277,686	-36,139	-0,064	-0,025
-276,672	102,371	-0,076	0,065
-275,657	390,667	0,077	0,117
-274,643	-200,000	0,013	-0,057
-273,628	-200,000	0,031	-0,110
-272,613	140,283	0,073	-0,070
-271,599	-200,000	0,001	-0,043
-270,584	-145,157	0,088	-0,006
-269,570	-200,000	-0,001	-0,011
-268,555	-200,000	-0,112	0,000
-267,540	224,658	0,110	-0,129
-266,526	-72,370	-0,030	0,008
-265,511	-200,000	-0,029	0,105
-264,497	234,440	0,063	0,075
-263,482	800,000	-0,067	0,137
-262,467	776,485	-0,051	-0,100
-261,453	-119,777	-0,015	0,002
-260,438	-200,000	0,013	-0,065
-259,424	278,638	0,033	0,043
-258,409	-200,000	-0,018	-0,073
-257,395	800,000	0,038	0,094
-256,380	-200,000	0,042	0,144
-255,365	-200,000	0,004	0,054
-254,351	-10,936	0,132	0,063
-253,336	322,377	-0,071	0,099
-252,322	199,079	-0,054	-0,060
-251,307	245,063	0,043	0,053
-250,292	-40,215	-0,094	0,035
-249,278	69,710	-0,026	0,019
-248,263	-200,000	0,005	-0,033
-247,249	-112,943	-0,093	0,013
-246,234	142,782	-0,037	0,035
-245,219	631,551	-0,009	0,017
-244,205	39,322	0,029	-0,019
-243,190	185,712	0,077	0,083
-242,176	213,474	0,086	0,099
-241,161	281,980	0,066	0,086
-240,146	-177,819	0,162	-0,003
-239,132	-200,000	-0,001	0,049
-238,117	69,841	-0,083	-0,061
-237,103	28,002	-0,110	-0,067
-236,088	800,000	-0,009	-0,024
-235,073	-200,000	0,045	0,149
-234,059	-163,525	0,127	-0,004
-233,044	-12,638	-0,135	-0,063
-232,030	77,189	-0,065	0,050
-231,015	230,544	-0,010	0,012
-230,000	-200,000	-0,041	-0,138
-228,986	-180,461	0,064	-0,001
-227,971	187,766	0,058	-0,062
-226,957	451,847	0,084	0,134
-225,942	-110,851	-0,069	-0,010
-224,927	64,765	0,116	-0,084
-223,913	-200,000	-0,036	-0,205
-222,898	800,000	0,021	-0,043
-221,884	-200,000	0,005	0,072
-220,869	251,234	-0,052	-0,064
-219,855	-111,307	0,093	-0,014
-218,840	444,419	-0,063	0,100
-217,825	129,550	-0,056	0,052
-216,811	138,270	0,127	-0,120
-215,796	800,000	0,011	-0,026
-214,782	-51,567	0,076	0,026
-213,767	-84,194	0,078	-0,018
-212,752	5,095	0,184	-0,097
-211,738	800,000	-0,007	0,015
-210,723	553,688	-0,068	-0,118
-209,709	366,406	-0,056	0,081
-208,694	483,272	-0,010	-0,017
-207,679	800,000	0,027	0,071
-206,665	-200,000	0,004	0,071
-205,650	-177,153	-0,096	0,002
-204,636	800,000	0,038	0,089
-203,621	64,235	0,070	0,051
-202,606	116,809	0,036	0,032
-201,592	238,961	-0,035	-0,042
-200,577	-200,000	0,023	0,086
-199,563	800,000	0,010	-0,023
-198,548	-38,833	0,027	0,010
-197,533	800,000	-0,044	-0,094
-196,519	-55,594	-0,154	0,050
-195,504	-200,000	0,027	-0,147
-194,490	-200,000	-0,014	-0,088
-193,475	-50,832	-0,041	-0,014
-192,460	-5,693	0,083	-0,041
-191,446	-200,000	0,008	-0,033
-190,431	454,447	0,052	-0,084
-189,417	369,192	-0,054	0,079
-188,402	298,396	0,030	-0,040
-187,387	219,441	0,065	-0,075
-186,373	-58,281	0,180	-0,056
-185,358	-156,779	0,107	-0,005
-184,344	-65,794	-0,091	-0,026
-183,329	-3,825	0,128	-0,064
-182,315	11,104	0,095	0,052
-181,300	755,342	0,035	0,069
-180,285	58,668	-0,071	-0,050
-179,271	-131,881	-0,165	0,015
-178,256	-47,871	-0,049	-0,017
-177,242	800,000	-0,017	0,050
-176,227	-46,388	0,096	-0,034
-175,212	691,373	0,036	0,068
-174,198	130,561	0,027	-0,025
-173,183	-68,224	0,051	-0,014
-172,169	479,244	-0,071	-0,116
-171,154	188,772	0,016	0,017
-170,139	800,000	-0,024	0,063
-169,125	800,000	0,076	-0,202
-168,110	62,429	-0,040	0,029
-167,096	-88,697	0,134	0,028
-166,081	-31,802	-0,053	-0,021
-165,066	-200,000	0,031	-0,133
-164,052	693,953	-0,025	-0,047
-163,037	173,890	-0,043	-0,045
-162,023	-200,000	-0,003	0,024
-161,008	15,080	0,009	-0,005
-159,993	-200,000	-0,013	0,061
-158,979	586,439	-0,043	-0,077
-157,964	-171,467	0,058	-0,001
-156,950	-200,000	-0,035	0,129
-155,935	-69,857	0,016	-0,004
-154,920	-200,000	-0,011	-0,089
-153,906	745,816	0,021	0,042
-152,891	-199,214	0,220	0,001
-151,877	10,940	-0,151	-0,083
-150,862	800,000	-0,034	0,100
-149,847	800,000	0,041	-0,106
-148,833	123,970	-0,145	-0,131
-147,818	50,099	-0,086	0,058
-146,804	271,827	0,108	0,137
-145,789	-67,459	-0,018	-0,005
-144,775	353,444	0,075	-0,108
-143,760	-33,663	-0,222	-0,088
-142,745	10,919	0,067	-0,037
-141,731	9,662	-0,070	0,038
-140,716	127,593	0,082	0,075
-139,702	355,505	0,050	0,071
-138,687	419,177	-0,099	-0,153
-137,672	800,000	-0,043	-0,136
-136,658	-200,000	-0,040	-0,137
-135,643	800,000	-0,007	0,015
-134,629	-200,000	0,013	-0,083
-133,614	800,000	0,102	-0,229
-132,599	722,469	-0,052	-0,099
-131,585	-69,040	-0,089	0,025
-130,570	-200,000	0,023	0,106
-129,556	-111,911	-0,051	0,007
-128,541	351,009	0,040	-0,058
-127,526	-200,000	0,005	0,025
-126,512	-200,000	0,012	0,064
-125,497	-128,311	0,113	0,011
-124,483	-200,000	0,009	0,147
-123,468	800,000	0,052	0,121
-122,453	-200,000	0,007	-0,051
-121,439	-144,693	-0,030	0,002
-120,424	-200,000	-0,013	-0,123
