DTS Sentinel unit serial number:	SN410029Multiplexer serial number:	ORYXHardware model number:	OX2-SRSoftware version number:	ORYX F/W v4,00 Oryx Data Collector v3.7.2.0data status	okinstallation	B3 Nyhavnadifferential loss correction	single-endedforward channel	channel 1reverse channel	N/Adate	2023/11/28time	16:52:30forward acquisition time	300,00reverse acquisition time	0,00gamma	499,1914k internal	0,3219k external	0,3219temperature offset calibration	1,0000default loss term (dB/km)	0,3820temperature slope calibration	1,0000multiplexer offset coefficient	1,0000multiplexer slope coefficient	1,0000fibre end	0,00T internal ref (°C)	7,30T ext. ref 1 (°C)	-7,66T ext. ref 2 (°C)	-7,82length (m)	temperature (°C)	Stokes	anti-Stokes-744,400	216,642	-0,147	-0,169
-743,385	-200,000	-0,012	0,362
-742,371	-2,937	-0,285	-0,143
-741,356	-200,000	-0,008	0,236
-740,342	146,187	-0,102	-0,099
-739,327	553,760	-0,141	0,246
-738,312	-15,400	-0,155	-0,071
-737,298	-200,000	-0,021	0,232
-736,283	60,587	-0,190	-0,136
-735,269	-200,000	-0,093	0,347
-734,254	100,731	-0,279	-0,234
-733,239	-1,881	-0,206	0,104
-732,225	630,165	-0,093	-0,171
-731,210	-164,062	0,110	-0,004
-730,196	-200,000	0,021	-0,177
-729,181	-66,728	0,164	-0,047
-728,167	108,939	-0,126	-0,109
-727,152	-149,368	0,043	0,002
-726,137	72,199	-0,057	-0,043
-725,123	800,000	-0,022	-0,065
-724,108	-6,419	0,003	-0,002
-723,094	800,000	-0,088	-0,217
-722,079	-130,598	-0,058	-0,006
-721,064	-7,615	-0,146	-0,071
-720,050	800,000	0,073	0,161
-719,035	-200,000	-0,005	-0,053
-718,021	28,540	-0,026	-0,016
-717,006	800,000	0,045	0,113
-715,991	-200,000	0,001	-0,083
-714,977	224,394	-0,011	-0,013
-713,962	-200,000	-0,011	-0,045
-712,948	-68,252	0,111	-0,031
-711,933	-161,866	-0,040	0,001
-710,918	398,624	0,109	0,165
-709,904	-141,888	0,069	-0,005
-708,889	-128,674	0,101	0,010
-707,875	67,404	-0,023	-0,017
-706,860	-175,928	0,101	-0,002
-705,845	-200,000	0,025	0,124
-704,831	-76,953	0,053	-0,013
-703,816	800,000	-0,041	0,089
-702,802	-81,373	-0,043	-0,010
-701,787	-108,254	-0,096	0,015
-700,772	446,767	-0,011	-0,018
-699,758	-98,029	0,043	0,008
-698,743	44,508	-0,126	-0,083
-697,729	-137,298	0,156	-0,013
-696,714	152,723	-0,128	0,126
-695,699	800,000	0,037	-0,082
-694,685	800,000	-0,021	-0,057
-693,670	-200,000	-0,001	0,018
-692,656	116,301	-0,034	-0,030
-691,641	545,068	-0,024	0,042
-690,627	-200,000	-0,030	0,104
-689,612	-22,436	0,083	0,036
-688,597	-200,000	-0,015	-0,072
-687,583	800,000	-0,029	0,075
-686,568	-200,000	-0,068	-0,265
-685,554	15,783	0,041	-0,023
-684,539	161,481	-0,082	0,083
-683,524	84,415	-0,108	-0,085
-682,510	-200,000	-0,014	0,063
-681,495	249,536	-0,038	-0,047
-680,481	419,378	-0,106	0,165
-679,466	-152,333	-0,147	-0,008
-678,451	800,000	0,036	-0,079
-677,437	32,925	0,038	-0,024
-676,422	-119,606	0,091	0,011
-675,408	-122,933	0,160	0,018
-674,393	549,341	-0,061	0,106
-673,378	-15,962	-0,130	-0,059
-672,364	-18,233	-0,073	-0,033
-671,349	-200,000	-0,002	-0,024
-670,335	-70,579	0,093	-0,025
-669,320	-200,000	0,009	-0,116
-668,305	169,697	0,004	-0,004
-667,291	130,010	-0,064	-0,059
-666,276	298,496	-0,062	-0,082
-665,262	-93,256	-0,094	0,019
-664,247	-46,365	0,051	0,018
-663,232	-29,403	-0,120	-0,049
-662,218	217,730	0,102	-0,117
-661,203	95,243	0,036	0,030
-660,189	69,820	0,083	0,062
-659,174	-200,000	-0,047	-0,200
-658,159	65,894	-0,066	-0,048
-657,145	-200,000	0,020	-0,213
-656,130	800,000	0,043	0,087
-655,116	0,333	0,032	0,017
-654,101	19,941	-0,120	0,069
-653,086	62,899	0,068	-0,049
-652,072	-36,802	-0,043	0,017
-651,057	-135,340	-0,100	-0,008
-650,043	-31,634	0,033	0,013
-649,028	-43,850	0,071	0,026
-648,014	-125,601	0,117	0,013
-646,999	-200,000	-0,041	0,163
-645,984	104,260	-0,067	-0,056
-644,970	-200,000	-0,017	-0,111
-643,955	-200,000	0,003	0,039
-642,941	800,000	0,062	-0,132
-641,926	-200,000	0,021	-0,112
-640,911	-23,340	-0,087	0,038
-639,897	-200,000	0,044	-0,145
-638,882	-62,291	-0,180	-0,054
-637,868	800,000	0,007	0,018
-636,853	-171,543	-0,252	-0,006
-635,838	-200,000	-0,028	0,113
-634,824	78,661	-0,074	-0,057
-633,809	184,282	0,081	0,087
-632,795	-19,552	-0,141	-0,063
-631,780	56,596	0,027	-0,019
-630,765	416,479	-0,123	-0,189
-629,751	-80,843	-0,057	-0,014
-628,736	0,681	-0,080	-0,041
-627,722	800,000	0,052	-0,115
-626,707	-200,000	0,004	-0,020
-625,692	282,158	0,079	0,102
-624,678	651,757	-0,033	-0,061
-623,663	94,443	0,115	-0,094
-622,649	113,480	0,079	-0,069
-621,634	-146,020	0,108	0,007
-620,619	-178,470	0,194	0,003
-619,605	42,653	-0,064	-0,042
-618,590	752,501	-0,023	0,045
-617,576	800,000	-0,013	0,036
-616,561	-200,000	0,000	-0,029
-615,546	233,578	-0,032	-0,039
-614,532	-200,000	0,014	-0,102
-613,517	-200,000	0,004	-0,038
-612,503	-200,000	0,018	-0,110
-611,488	-200,000	-0,006	-0,054
-610,474	800,000	-0,041	0,094
-609,459	800,000	0,025	-0,068
-608,444	80,607	-0,031	-0,024
-607,430	-200,000	-0,011	-0,130
-606,415	-200,000	0,019	-0,111
-605,401	444,524	-0,043	-0,069
-604,386	393,741	0,076	-0,114
-603,371	-71,941	-0,120	0,032
-602,357	695,937	0,044	-0,084
-601,342	-200,000	0,033	-0,112
-600,328	182,132	0,062	-0,065
-599,313	400,249	0,022	0,033
-598,298	328,278	-0,044	0,061
-597,284	-144,559	0,065	0,004
-596,269	117,357	-0,058	0,051
-595,255	-200,000	0,017	0,059
-594,240	97,908	-0,075	-0,062
-593,225	-10,009	-0,235	-0,112
-592,211	24,615	0,059	0,035
-591,196	-76,530	-0,072	-0,018
-590,182	9,599	0,108	-0,059
-589,167	-200,000	-0,025	-0,134
-588,152	-172,179	0,065	-0,001
-587,138	211,869	-0,074	-0,084
-586,123	305,887	-0,065	0,087
-585,109	800,000	0,017	0,035
-584,094	-200,000	-0,010	0,122
-583,079	-112,105	0,050	-0,007
-582,065	800,000	0,061	0,144
-581,050	800,000	-0,065	0,172
-580,036	160,252	-0,056	-0,056
-579,021	-10,342	0,089	-0,042
-578,006	-200,000	0,037	-0,135
-576,992	419,958	-0,051	0,078
-575,977	-200,000	-0,134	0,000
-574,963	-59,662	-0,024	0,007
-573,948	367,449	0,069	-0,101
-572,934	800,000	-0,045	0,091
-571,919	-200,000	0,012	-0,042
-570,904	487,104	-0,035	-0,057
-569,890	-122,791	-0,154	-0,018
-568,875	800,000	0,083	0,168
-567,861	39,261	0,147	0,094
-566,846	-200,000	0,005	0,060
-565,831	-200,000	0,004	-0,067
-564,817	-200,000	0,006	-0,108
-563,802	-200,000	0,016	-0,118
-562,788	505,241	-0,019	0,031
-561,773	-200,000	0,003	-0,035
-560,758	-116,655	-0,087	-0,011
-559,744	234,642	0,052	0,061
-558,729	-200,000	0,014	-0,067
-557,715	18,690	-0,124	0,071
-556,700	-56,725	-0,083	0,026
-555,685	-23,467	0,132	0,057
-554,671	-200,000	-0,029	0,096
-553,656	-200,000	-0,028	0,112
-552,642	-110,844	0,078	-0,011
-551,627	-53,976	0,138	-0,045
-550,612	800,000	-0,017	0,055
-549,598	24,998	-0,057	0,034
-548,583	-200,000	-0,016	-0,085
-547,569	-200,000	0,005	-0,106
-546,554	292,918	-0,015	0,019
-545,539	-98,316	-0,083	0,015
-544,525	800,000	0,038	0,085
-543,510	580,233	-0,026	-0,046
-542,496	-140,768	-0,141	-0,010
-541,481	3,759	-0,108	0,056
-540,466	170,295	0,066	-0,068
-539,452	-8,427	0,080	-0,038
-538,437	-103,648	-0,066	-0,011
-537,423	102,050	-0,032	-0,027
-536,408	-200,000	0,038	0,139
-535,393	-200,000	-0,008	0,070
-534,379	137,586	-0,021	-0,020
-533,364	-32,390	-0,098	0,039
-532,350	-92,506	0,065	-0,013
-531,335	-200,000	-0,013	0,076
-530,321	269,296	-0,048	0,061
-529,306	171,656	-0,019	-0,020
-528,291	-200,000	0,010	-0,101
-527,277	-200,000	0,000	0,103
-526,262	205,589	-0,049	-0,055
-525,248	-177,807	-0,177	-0,003
-524,233	-200,000	0,045	0,152
-523,218	-104,686	-0,128	-0,021
-522,204	-200,000	-0,031	0,109
-521,189	-200,000	-0,003	0,031
-520,175	20,053	0,045	-0,026
-519,160	-35,818	-0,052	-0,020
-518,145	800,000	0,019	0,046
-517,131	-132,957	0,048	-0,004
-516,116	80,658	-0,042	0,032
-515,102	800,000	-0,032	0,072
-514,087	47,156	0,045	0,030
-513,072	224,130	0,046	0,053
-512,058	-200,000	0,015	-0,104
-511,043	-200,000	0,010	-0,056
-510,029	800,000	0,020	0,052
-509,014	-32,134	-0,158	0,063
-507,999	-8,397	0,094	-0,045
-506,985	-200,000	0,006	-0,019
-505,970	800,000	-0,046	0,096
-504,956	-200,000	0,002	-0,093
-503,941	800,000	-0,034	0,101
-502,926	579,275	-0,014	-0,024
-501,912	-52,223	-0,038	0,013
-500,897	-185,580	-0,044	0,000
-499,883	-200,000	-0,032	0,137
-498,868	-200,000	-0,028	-0,132
-497,853	-133,226	0,073	-0,007
-496,839	-141,825	0,124	0,009
-495,824	-45,967	0,112	-0,039
-494,810	73,207	0,022	0,017
-493,795	274,730	-0,021	0,027
-492,781	147,232	0,038	0,037
-491,766	23,386	-0,159	-0,093
-490,751	232,815	-0,116	-0,136
-489,737	79,893	0,102	-0,079
-488,722	51,037	0,036	-0,024
-487,708	-46,757	-0,089	0,031
-486,693	251,136	0,022	0,027
-485,678	-200,000	0,011	-0,122
-484,664	322,232	-0,065	0,089
-483,649	-22,432	-0,057	0,024
-482,635	572,620	0,015	0,027
-481,620	496,017	0,093	0,154
-480,605	800,000	0,042	-0,096
-479,591	-200,000	0,026	0,095
-478,576	-81,668	0,070	0,016
-477,562	-200,000	-0,007	0,060
-476,547	86,938	0,055	-0,044
-475,532	-200,000	0,005	-0,065
-474,518	76,340	-0,198	-0,150
-473,503	800,000	-0,030	0,074
-472,489	-200,000	-0,013	0,143
-471,474	-0,860	0,076	0,039
-470,459	301,454	-0,011	0,015
-469,445	-200,000	0,013	-0,102
-468,430	-124,579	-0,053	0,006
-467,416	-74,797	0,042	-0,011
-466,401	314,160	-0,050	-0,067
-465,386	722,309	0,069	0,132
-464,372	-65,676	-0,082	-0,023
-463,357	77,121	-0,039	-0,029
-462,343	-200,000	-0,002	0,015
-461,328	800,000	-0,031	-0,098
-460,313	79,657	0,098	-0,075
-459,299	85,300	-0,080	-0,063
-458,284	218,535	0,114	0,131
-457,270	200,567	-0,018	0,020
-456,255	62,798	0,053	-0,038
-455,241	-200,000	0,015	0,118
-454,226	-200,000	0,003	0,130
-453,211	-156,275	0,109	0,005
-452,197	-52,746	0,190	0,062
-451,182	440,918	0,054	0,085
-450,168	-116,383	0,002	0,000
-449,153	-200,000	0,006	0,056
-448,138	14,746	-0,096	0,054
-447,124	185,330	-0,046	0,049
-446,109	-87,631	-0,162	0,035
-445,095	800,000	0,024	0,056
-444,080	800,000	-0,044	-0,088
-443,065	-200,000	0,014	-0,112
-442,051	-43,508	-0,133	0,048
-441,036	125,158	-0,094	-0,085
-440,022	258,028	-0,017	-0,021
-439,007	-115,691	0,084	0,011
-437,992	369,715	-0,044	0,064
-436,978	800,000	-0,041	-0,087
-435,963	145,381	0,094	-0,090
-434,949	-84,596	-0,046	0,010
-433,934	5,769	-0,067	0,035
-432,919	-92,827	0,062	-0,012
-431,905	-49,835	0,080	-0,027
-430,890	-200,000	-0,014	-0,055
-429,876	29,226	0,020	0,012
-428,861	68,483	0,090	0,066
-427,846	-79,788	-0,060	-0,014
-426,832	-200,000	-0,010	0,074
-425,817	35,348	0,065	-0,041
-424,803	72,545	0,024	-0,018
-423,788	100,432	0,072	-0,060
-422,773	70,083	0,121	-0,089
-421,759	-200,000	-0,021	0,066
-420,744	-14,215	-0,054	0,025
-419,730	230,863	-0,040	-0,047
-418,715	42,334	0,013	0,008
-417,701	-78,876	-0,128	-0,031
-416,686	187,988	0,070	0,074
-415,671	86,946	-0,141	0,111
-414,657	69,584	0,071	-0,052
-413,642	129,183	-0,159	0,145
-412,628	98,571	-0,150	-0,123
-411,613	-106,300	0,115	-0,018
-410,598	-42,092	-0,126	0,046
-409,584	64,988	-0,107	-0,077
-408,569	269,062	-0,059	-0,074
-407,555	800,000	-0,017	0,049
-406,540	119,554	0,027	-0,024
-405,525	71,024	-0,095	-0,070
-404,511	800,000	-0,033	-0,103
-403,496	-200,000	-0,002	0,076
-402,482	-17,550	0,023	0,010
-401,467	-200,000	0,007	-0,051
-400,452	343,222	-0,081	-0,113
-399,438	-66,979	0,045	-0,013
-398,423	-141,975	-0,084	-0,006
-397,409	-26,729	0,077	-0,032
-396,394	800,000	-0,025	-0,069
-395,379	-43,447	0,119	-0,043
-394,365	176,107	0,011	0,012
-393,350	31,337	0,102	-0,062
-392,336	-141,113	-0,084	-0,006
-391,321	-83,782	-0,180	-0,041
-390,306	-20,156	0,082	-0,036
-389,292	-128,042	-0,094	-0,009
-388,277	-123,910	0,094	-0,010
-387,263	480,542	-0,016	-0,025
-386,248	206,299	0,116	0,129
-385,233	283,465	-0,092	0,118
-384,219	-84,086	-0,088	0,020
-383,204	-200,000	0,010	-0,085
-382,190	79,265	-0,160	-0,122
-381,175	3,759	-0,032	-0,016
-380,160	-200,000	0,003	0,154
-379,146	-94,181	-0,182	0,035
-378,131	230,711	0,056	0,065
-377,117	800,000	-0,034	-0,106
-376,102	-56,373	0,153	-0,048
-375,088	348,150	0,090	-0,127
-374,073	-129,702	-0,253	-0,025
-373,058	204,259	0,057	0,063
-372,044	40,674	0,084	0,054
-371,029	-157,268	0,167	0,007
-370,015	-94,644	0,055	0,011
-369,000	-200,000	-0,019	-0,085
-367,985	189,970	-0,137	-0,147
-366,971	67,637	0,030	-0,022
-365,956	-200,000	-0,004	0,046
-364,942	110,637	0,066	-0,056
-363,927	124,936	0,030	-0,027
-362,912	82,325	-0,048	0,037
-361,898	800,000	0,031	0,095
-360,883	800,000	-0,025	0,061
-359,869	-200,000	-0,010	-0,188
-358,854	308,079	0,099	0,133
-357,839	302,821	-0,083	-0,109
-356,825	143,964	0,044	-0,042
-355,810	-200,000	-0,027	0,110
-354,796	800,000	-0,049	0,153
-353,781	43,653	-0,149	-0,097
-352,766	187,567	-0,133	-0,142
-351,752	197,370	0,105	-0,114
-350,737	800,000	0,021	0,059
-349,723	-2,550	-0,099	-0,049
-348,708	-130,807	0,131	-0,012
-347,693	-0,033	-0,071	0,036
-346,679	399,136	0,051	-0,077
-345,664	225,328	-0,073	0,084
-344,650	800,000	0,038	0,078
-343,635	163,645	0,038	0,038
-342,620	-80,609	0,089	0,021
-341,606	-40,597	-0,145	0,053
-340,591	-78,569	0,054	0,013
-339,577	800,000	0,015	-0,038
-338,562	35,830	-0,064	0,040
-337,548	67,728	-0,075	-0,054
-336,533	-200,000	-0,004	-0,081
-335,518	-200,000	0,031	0,132
-334,504	80,636	-0,061	-0,047
-333,489	587,955	0,033	0,057
-332,475	1,866	-0,100	0,051
-331,460	-148,015	0,071	0,004
-330,445	155,630	0,083	0,081
-329,431	126,180	0,016	-0,015
-328,416	-200,000	-0,032	0,178
-327,402	800,000	0,019	-0,047
-326,387	-137,021	0,103	-0,008
-325,372	-76,687	-0,158	-0,039
-324,358	-182,742	0,143	-0,002
-323,343	-100,591	0,082	-0,014
-322,329	-200,000	0,032	-0,145
-321,314	428,132	0,047	0,073
-320,299	93,551	-0,066	-0,053
-319,285	-83,673	-0,091	0,020
-318,270	117,246	0,023	-0,020
-317,256	800,000	-0,016	0,045
-316,241	96,412	-0,076	-0,062
-315,226	-11,206	-0,037	-0,017
-314,212	-63,130	0,015	-0,004
-313,197	27,723	0,211	0,126
-312,183	-57,977	0,089	0,027
-311,168	-116,920	-0,138	0,018
-310,153	7,534	-0,131	0,069
-309,139	-200,000	0,007	0,045
-308,124	-55,205	0,141	0,045
-307,110	350,611	0,071	0,100
-306,095	800,000	0,076	0,227
-305,080	360,614	0,062	0,089
-304,066	119,196	-0,056	0,049
-303,051	-200,000	0,027	-0,120
-302,037	800,000	0,005	0,013
-301,022	17,655	0,104	-0,058
-300,008	-145,730	0,125	0,008
-298,993	-90,821	0,102	0,021
-297,978	800,000	0,025	-0,063
-296,964	310,933	-0,073	-0,097
-295,949	573,159	-0,075	-0,130
-294,935	176,852	0,062	-0,064
-293,920	800,000	0,079	0,176
-292,905	466,177	0,038	0,061
-291,891	113,547	-0,082	0,071
-290,876	800,000	-0,042	0,120
-289,862	-200,000	0,050	0,230
-288,847	302,016	-0,059	-0,077
-287,832	-200,000	0,017	-0,130
-286,818	-117,764	-0,094	0,012
-285,803	156,317	0,058	-0,057
-284,789	800,000	0,035	0,071
-283,774	800,000	-0,075	0,169
-282,759	-52,975	-0,070	0,023
-281,745	113,621	-0,116	0,100
-280,730	-159,519	-0,071	-0,003
-279,716	34,732	-0,037	-0,023
-278,701	23,840	0,145	0,085
-277,686	-88,390	-0,072	0,015
-276,672	800,000	0,020	0,043
-275,657	-137,909	0,127	-0,010
-274,643	217,164	-0,076	0,086
-273,628	-66,055	-0,130	-0,037
-272,613	800,000	0,075	0,201
-271,599	800,000	0,065	0,150
-270,584	-139,387	-0,126	0,009
-269,570	-113,798	0,191	-0,026
-268,555	301,858	0,016	0,021
-267,540	800,000	0,057	-0,132
-266,526	164,567	-0,100	0,100
-265,511	-200,000	0,121	0,000
-264,497	729,577	0,053	-0,101
-263,482	-200,000	-0,020	0,119
-262,467	18,868	0,087	-0,049
-261,453	757,706	0,034	0,065
-260,438	213,289	-0,043	0,048
-259,424	-83,205	0,106	-0,024
-258,409	800,000	0,067	0,148
-257,395	563,882	0,070	-0,121
-256,380	-200,000	-0,048	0,161
-255,365	-11,139	0,032	0,015
-254,351	181,226	0,066	0,069
-253,336	86,930	0,079	-0,062
-252,322	800,000	0,025	-0,055
-251,307	800,000	-0,027	-0,078
-250,292	800,000	-0,064	-0,187
-249,278	-40,331	-0,116	0,043
-248,263	-141,245	0,015	-0,001
-247,249	800,000	-0,046	0,116
-246,234	-102,640	-0,167	0,028
-245,219	-200,000	0,018	0,068
-244,205	181,139	-0,094	-0,098
-243,190	-200,000	0,031	-0,100
-242,176	-200,000	-0,008	0,111
-241,161	32,016	-0,044	0,027
-240,146	-200,000	0,013	0,163
-239,132	483,048	-0,039	0,063
-238,117	-168,629	-0,100	0,003
-237,103	150,570	-0,055	-0,053
-236,088	800,000	-0,021	-0,050
-235,073	75,391	0,102	0,077
-234,059	-200,000	-0,010	0,140
-233,044	-48,336	-0,093	-0,032
-232,030	3,882	0,150	-0,077
-231,015	148,208	-0,057	-0,054
-230,000	-200,000	0,021	-0,068
-228,986	800,000	-0,058	-0,127
-227,971	-200,000	0,005	-0,060
-226,957	466,226	0,085	0,136
-225,942	220,343	0,071	0,081
-224,927	-42,444	0,054	-0,019
-223,913	3,194	-0,103	-0,053
-222,898	-200,000	-0,014	-0,099
-221,884	-56,175	-0,082	0,026
-220,869	-200,000	-0,014	-0,066
-219,855	218,709	0,066	-0,075
-218,840	-8,917	0,207	-0,098
-217,825	37,741	-0,166	-0,104
-216,811	504,838	0,057	0,094
-215,796	404,670	-0,061	-0,092
-214,782	-32,787	0,117	0,046
-213,767	-71,670	0,161	0,042
-212,752	-25,402	0,056	-0,024
-211,738	173,597	-0,023	0,023
-210,723	171,569	-0,067	0,069
-209,709	98,135	-0,035	-0,029
-208,694	800,000	-0,016	-0,039
-207,679	220,734	-0,047	0,053
-206,665	-135,446	-0,116	0,010
-205,650	-82,631	-0,095	0,022
-204,636	-6,538	-0,080	0,038
-203,621	-200,000	-0,017	-0,109
-202,606	25,907	0,091	0,053
-201,592	800,000	0,056	-0,118
-200,577	800,000	0,039	-0,082
-199,563	-86,379	0,088	0,019
-198,548	-200,000	-0,006	0,074
-197,533	140,887	0,073	0,068
-196,519	781,908	-0,051	-0,099
-195,504	-200,000	0,012	-0,072
-194,490	464,075	0,017	0,027
-193,475	168,750	0,098	-0,099
-192,460	109,650	0,056	-0,047
-191,446	-175,380	0,100	-0,002
-190,431	-200,000	0,038	0,121
-189,417	-200,000	-0,011	0,157
-188,402	190,012	0,083	-0,088
-187,387	-163,728	-0,064	0,002
-186,373	-200,000	0,046	-0,156
-185,358	312,550	0,051	-0,068
-184,344	448,207	0,045	0,070
-183,329	21,898	0,108	0,062
-182,315	-200,000	0,025	0,148
-181,300	-189,170	-0,087	-0,001
-180,285	19,903	0,092	-0,052
-179,271	800,000	-0,051	-0,112
-178,256	163,535	0,067	0,067
-177,242	-18,008	0,111	0,049
-176,227	800,000	0,037	0,085
-175,212	-200,000	-0,005	-0,025
-174,198	-200,000	-0,001	-0,065
-173,183	-82,294	0,118	0,027
-172,169	-200,000	-0,002	-0,077
-171,154	800,000	-0,036	-0,090
-170,139	409,253	0,062	0,093
-169,125	-39,474	0,076	0,028
-168,110	256,080	-0,025	0,030
-167,096	688,840	0,034	0,063
-166,081	-200,000	-0,008	0,102
-165,066	202,203	0,095	-0,104
-164,052	-200,000	-0,023	-0,127
-163,037	-200,000	0,057	-0,240
-162,023	76,812	0,148	0,111
-161,008	-32,232	0,056	0,022
-159,993	66,215	-0,027	0,019
-158,979	92,230	0,017	-0,014
-157,964	126,971	-0,019	-0,017
-156,950	189,258	0,091	-0,097
-155,935	170,294	0,073	0,074
-154,920	-117,630	0,098	-0,012
-153,906	-200,000	0,017	0,083
-152,891	96,020	-0,051	0,041
-151,877	316,817	-0,081	0,108
-150,862	800,000	0,012	-0,030
-149,847	3,053	0,071	0,036
-148,833	-200,000	0,012	-0,079
-147,818	117,681	0,104	0,091
-146,804	-100,106	-0,010	0,002
-145,789	164,194	-0,112	0,112
-144,775	800,000	0,031	-0,077
-143,760	-200,000	-0,004	0,054
-142,745	-3,070	0,153	0,075
-141,731	-200,000	0,010	-0,079
-140,716	-83,263	-0,076	-0,017
-139,702	-200,000	-0,002	-0,065
-138,687	-76,190	-0,012	-0,003
-137,672	-200,000	0,046	0,177
-136,658	70,063	-0,092	0,067
-135,643	-200,000	0,007	-0,028
-134,629	-200,000	0,015	-0,068
-133,614	-200,000	0,005	-0,030
-132,599	800,000	0,046	0,131
-131,585	800,000	-0,118	0,261
-130,570	412,409	0,065	0,097
-129,556	800,000	0,015	-0,045
-128,541	-47,647	-0,059	-0,020
-127,526	165,184	-0,047	0,047
-126,512	221,749	0,086	0,098
-125,497	800,000	-0,011	0,035
-124,483	57,679	0,031	0,021
-123,468	-158,297	-0,084	0,003
-122,453	-39,271	0,085	-0,031
-121,439	-200,000	0,007	-0,106
-120,424	0,270	-0,060	0,030
-119,410	48,913	0,068	-0,045
