DTS Sentinel unit serial number:	SN410029Multiplexer serial number:	ORYXHardware model number:	OX2-SRSoftware version number:	ORYX F/W v4,00 Oryx Data Collector v3.7.2.0data status	okinstallation	B3 Nyhavnadifferential loss correction	single-endedforward channel	channel 1reverse channel	N/Adate	2023/11/28time	13:37:30forward acquisition time	300,00reverse acquisition time	0,00gamma	499,1914k internal	0,3138k external	0,3138temperature offset calibration	1,0000default loss term (dB/km)	0,3820temperature slope calibration	1,0000multiplexer offset coefficient	1,0000multiplexer slope coefficient	1,0000fibre end	0,00T internal ref (°C)	7,77T ext. ref 1 (°C)	-7,59T ext. ref 2 (°C)	-7,77length (m)	temperature (°C)	Stokes	anti-Stokes-744,400	64,885	-0,226	-0,169
-743,385	800,000	-0,104	0,318
-742,371	-200,000	-0,028	-0,133
-741,356	800,000	-0,137	0,332
-740,342	167,477	-0,214	-0,226
-739,327	-200,000	-0,028	0,267
-738,312	110,569	-0,172	-0,154
-737,298	-200,000	0,010	0,242
-736,283	184,865	-0,273	-0,301
-735,269	-200,000	0,043	0,251
-734,254	-33,030	-0,294	-0,120
-733,239	-156,777	-0,117	0,005
-732,225	553,459	-0,109	-0,195
-731,210	800,000	0,078	0,176
-730,196	-200,000	0,019	0,082
-729,181	218,488	-0,018	-0,022
-728,167	-133,473	0,065	-0,006
-727,152	366,192	0,024	-0,036
-726,137	-200,000	-0,014	-0,052
-725,123	57,657	-0,085	-0,061
-724,108	-163,205	-0,105	-0,004
-723,094	470,815	-0,033	-0,055
-722,079	190,677	0,041	0,046
-721,064	-5,113	-0,017	0,008
-720,050	181,689	0,136	-0,149
-719,035	-200,000	0,009	0,083
-718,021	-200,000	0,007	-0,046
-717,006	800,000	0,021	-0,049
-715,991	-31,306	-0,049	0,020
-714,977	-200,000	0,004	0,087
-713,962	473,206	-0,087	-0,146
-712,948	-59,216	-0,049	0,016
-711,933	217,134	-0,078	-0,093
-710,918	-60,369	-0,077	0,024
-709,904	37,606	-0,091	0,060
-708,889	-60,353	0,076	-0,024
-707,875	-46,526	-0,127	-0,046
-706,860	572,363	0,061	0,110
-705,845	-125,404	0,024	-0,003
-704,831	-53,724	-0,032	-0,011
-703,816	31,123	0,071	0,045
-702,802	-122,277	0,043	-0,005
-701,787	-78,673	-0,132	-0,033
-700,772	177,776	-0,049	0,053
-699,758	64,037	-0,040	-0,029
-698,743	760,208	-0,008	0,016
-697,729	-123,968	0,103	-0,012
-696,714	-50,580	-0,150	0,052
-695,699	-200,000	0,012	0,054
-694,685	-200,000	0,063	0,000
-693,670	271,678	-0,155	-0,202
-692,656	15,191	-0,142	-0,082
-691,641	-135,579	-0,122	0,011
-690,627	-81,736	-0,193	0,046
-689,612	590,742	0,019	-0,034
-688,597	379,006	-0,069	-0,104
-687,583	800,000	-0,046	-0,132
-686,568	578,641	-0,071	-0,129
-685,554	797,255	0,095	-0,195
-684,539	447,102	-0,073	-0,120
-683,524	-200,000	0,004	-0,057
-682,510	800,000	-0,024	0,052
-681,495	-200,000	-0,004	0,017
-680,481	-44,246	-0,060	0,022
-679,466	-200,000	-0,021	-0,084
-678,451	-116,908	-0,133	-0,018
-677,437	-200,000	0,003	-0,083
-676,422	-56,358	0,039	-0,013
-675,408	126,805	0,108	0,101
-674,393	-125,495	0,040	0,004
-673,378	-200,000	-0,034	0,178
-672,364	139,567	-0,150	-0,146
-671,349	-77,911	-0,070	0,018
-670,335	-85,813	0,020	0,005
-669,320	792,929	0,017	-0,035
-668,305	-200,000	0,019	-0,080
-667,291	-120,582	-0,077	-0,010
-666,276	295,923	-0,057	-0,077
-665,262	800,000	0,014	0,041
-664,247	75,806	-0,062	-0,049
-663,232	-200,000	-0,000	-0,049
-662,218	136,370	-0,106	-0,102
-661,203	164,616	-0,089	-0,093
-660,189	800,000	0,068	0,170
-659,174	176,827	0,014	-0,015
-658,159	71,481	-0,046	-0,035
-657,145	-111,001	-0,078	-0,012
-656,130	800,000	0,057	-0,129
-655,116	41,796	-0,072	0,048
-654,101	-70,227	-0,063	0,018
-653,086	800,000	0,026	0,058
-652,072	140,381	-0,059	0,058
-651,057	-130,181	-0,021	-0,002
-650,043	800,000	0,009	0,023
-649,028	346,224	0,036	0,052
-648,014	239,081	-0,061	0,075
-646,999	-200,000	0,005	0,089
-645,984	-163,434	0,105	-0,004
-644,970	558,193	0,076	-0,136
-643,955	800,000	-0,056	-0,169
-642,941	103,399	-0,040	-0,034
-641,926	-200,000	0,001	-0,080
-640,911	-101,211	-0,058	-0,010
-639,897	97,319	0,105	0,089
-638,882	232,649	-0,085	-0,103
-637,868	106,378	0,043	-0,038
-636,853	800,000	-0,035	-0,074
-635,838	-35,823	-0,071	-0,028
-634,824	262,352	0,032	0,041
-633,809	-200,000	-0,029	-0,123
-632,795	-17,428	0,133	-0,061
-631,780	-28,290	-0,124	0,053
-630,765	57,888	-0,035	-0,025
-629,751	205,496	0,037	0,043
-628,736	85,999	-0,055	0,045
-627,722	368,900	-0,028	0,042
-626,707	165,735	0,043	0,044
-625,692	800,000	0,019	0,044
-624,678	176,460	0,014	0,016
-623,663	84,344	-0,048	0,039
-622,649	-119,223	0,087	-0,011
-621,634	359,840	0,095	-0,140
-620,619	157,781	-0,119	-0,122
-619,605	-200,000	-0,007	0,149
-618,590	800,000	0,017	-0,035
-617,576	142,480	-0,045	0,044
-616,561	224,822	-0,088	-0,105
-615,546	-200,000	0,003	0,086
-614,532	800,000	-0,016	0,033
-613,517	86,842	-0,066	0,054
-612,503	-14,142	-0,057	0,027
-611,488	162,305	0,143	0,148
-610,474	-161,766	-0,088	-0,003
-609,459	800,000	-0,019	-0,051
-608,444	-200,000	0,014	0,052
-607,430	259,749	-0,076	-0,096
-606,415	-200,000	0,008	-0,063
-605,401	705,475	0,027	0,054
-604,386	27,315	-0,106	-0,066
-603,371	-200,000	0,001	-0,068
-602,357	59,397	-0,099	0,072
-601,342	-130,898	0,185	0,018
-600,328	-117,401	-0,020	0,003
-599,313	800,000	0,013	0,041
-598,298	601,086	-0,030	-0,055
-597,284	800,000	-0,025	0,069
-596,269	-58,496	-0,033	-0,010
-595,255	-136,801	0,082	-0,007
-594,240	230,588	-0,050	0,060
-593,225	15,408	-0,123	-0,071
-592,211	83,355	-0,095	-0,076
-591,196	59,279	0,074	-0,054
-590,182	-164,062	0,087	-0,003
-589,167	-200,000	0,002	-0,070
-588,152	-72,990	0,081	0,022
-587,138	-10,834	-0,065	0,031
-586,123	320,527	-0,042	0,060
-585,109	109,589	-0,076	-0,067
-584,094	261,656	0,017	-0,021
-583,079	-200,000	0,006	0,036
-582,065	-200,000	-0,000	-0,075
-581,050	-143,656	0,101	0,007
-580,036	3,289	-0,103	0,055
-579,021	508,685	-0,100	-0,172
-578,006	800,000	-0,011	0,024
-576,992	220,039	-0,109	0,129
-575,977	159,859	0,071	-0,073
-574,963	-200,000	-0,002	-0,176
-573,948	205,397	-0,127	0,145
-572,934	-62,168	-0,179	0,055
-571,919	-35,944	-0,087	0,035
-570,904	-162,009	-0,054	-0,002
-569,890	-94,804	0,160	-0,032
-568,875	-158,327	-0,030	0,001
-567,861	-125,153	-0,061	0,007
-566,846	-68,705	-0,055	-0,016
-565,831	800,000	-0,021	0,049
-564,817	-32,832	-0,137	-0,056
-563,802	378,563	-0,085	-0,129
-562,788	583,284	-0,057	0,104
-561,773	-200,000	0,008	-0,101
-560,758	-200,000	-0,011	0,108
-559,744	-200,000	0,006	0,102
-558,729	-106,189	0,133	-0,022
-557,715	-19,228	0,063	0,029
-556,700	800,000	-0,053	0,129
-555,685	-200,000	0,001	-0,081
-554,671	800,000	0,047	0,121
-553,656	-152,844	0,158	-0,008
-552,642	-133,525	0,081	0,007
-551,627	-200,000	0,037	0,161
-550,612	800,000	-0,026	0,061
-549,598	699,653	-0,052	-0,101
-548,583	290,623	-0,099	0,133
-547,569	-200,000	0,018	-0,112
-546,554	-200,000	-0,010	-0,094
-545,539	551,516	0,045	-0,080
-544,525	349,399	0,124	0,180
-543,510	-200,000	-0,006	0,111
-542,496	-107,593	-0,134	-0,021
-541,481	313,740	0,091	-0,126
-540,466	39,860	-0,038	0,025
-539,452	800,000	0,030	0,094
-538,437	116,838	0,090	0,082
-537,423	-200,000	-0,046	0,195
-536,408	48,849	-0,078	0,054
-535,393	-63,160	-0,082	-0,025
-534,379	46,499	0,058	0,040
-533,364	-77,944	-0,039	0,010
-532,350	-200,000	-0,035	-0,123
-531,335	800,000	0,033	0,104
-530,321	126,140	-0,072	0,067
-529,306	615,328	-0,072	0,134
-528,291	41,808	-0,082	-0,055
-527,277	-200,000	0,007	-0,168
-526,262	72,357	0,038	0,029
-525,248	-200,000	-0,010	0,137
-524,233	-200,000	0,015	0,106
-523,218	800,000	0,007	0,021
-522,204	-56,008	0,037	0,012
-521,189	800,000	0,035	0,087
-520,175	800,000	-0,032	0,093
-519,160	458,595	0,017	-0,027
-518,145	30,574	0,105	0,066
-517,131	90,879	0,087	-0,072
-516,116	-158,814	0,040	-0,002
-515,102	161,765	0,058	-0,059
-514,087	326,885	-0,122	0,172
-513,072	233,978	-0,065	-0,079
-512,058	537,145	-0,052	-0,091
-511,043	128,970	0,052	0,049
-510,029	-200,000	-0,002	0,143
-509,014	800,000	0,042	0,128
-507,999	-67,730	-0,094	0,027
-506,985	800,000	0,018	0,047
-505,970	554,107	-0,081	-0,144
-504,956	417,623	-0,036	-0,056
-503,941	50,158	-0,042	0,029
-502,926	-200,000	-0,014	0,059
-501,912	170,507	0,059	0,062
-500,897	199,514	0,069	-0,078
-499,883	-103,146	0,017	0,003
-498,868	-108,000	-0,085	0,013
-497,853	-200,000	0,013	-0,049
-496,839	226,951	0,096	-0,115
-495,824	-200,000	0,005	0,118
-494,810	-53,442	0,090	0,030
-493,795	-147,630	0,075	-0,005
-492,781	-113,781	0,096	0,014
-491,766	363,803	-0,012	-0,018
-490,751	800,000	-0,041	0,093
-489,737	800,000	-0,028	-0,077
-488,722	-200,000	-0,024	-0,141
-487,708	-71,441	0,085	-0,023
-486,693	-73,401	0,067	0,018
-485,678	-124,056	-0,045	0,005
-484,664	112,909	-0,060	0,053
-483,649	92,321	0,027	0,023
-482,635	79,773	-0,037	0,029
-481,620	-8,394	-0,121	-0,060
-480,605	-23,298	-0,073	0,032
-479,591	190,148	-0,057	0,063
-478,576	-200,000	-0,023	-0,126
-477,562	340,508	-0,047	-0,068
-476,547	-9,836	0,054	0,026
-475,532	66,591	-0,086	-0,064
-474,518	-70,129	-0,087	-0,024
-473,503	-200,000	0,006	-0,081
-472,489	-55,016	-0,131	-0,043
-471,474	750,111	-0,052	-0,103
-470,459	-149,125	-0,127	0,007
-469,445	-95,059	0,100	-0,020
-468,430	166,507	-0,087	-0,090
-467,416	-200,000	-0,004	-0,019
-466,401	282,482	0,025	-0,033
-465,386	14,955	-0,148	-0,085
-464,372	336,729	-0,008	-0,012
-463,357	-31,325	-0,036	0,015
-462,343	1,567	-0,186	-0,098
-461,328	-41,940	0,055	0,021
-460,313	232,724	-0,086	0,104
-459,299	-105,736	0,110	0,018
-458,284	34,366	0,046	-0,030
-457,270	111,232	0,044	0,039
-456,255	-116,876	0,094	0,013
-455,241	-88,754	-0,133	-0,029
-454,226	-200,000	-0,021	-0,113
-453,211	800,000	0,052	0,117
-452,197	741,583	-0,065	-0,129
-451,182	-101,210	0,063	0,011
-450,168	-37,258	-0,039	-0,015
-449,153	57,204	0,138	0,099
-448,138	84,524	-0,070	-0,056
-447,124	-11,751	-0,131	0,063
-446,109	800,000	-0,050	0,125
-445,095	-200,000	0,002	0,066
-444,080	800,000	0,013	0,042
-443,065	800,000	-0,059	0,140
-442,051	800,000	0,067	0,145
-441,036	-94,068	0,203	-0,041
-440,022	-113,621	-0,046	0,006
-439,007	-200,000	-0,008	-0,044
-437,992	800,000	-0,038	-0,078
-436,978	-200,000	-0,036	0,125
-435,963	96,378	0,031	0,026
-434,949	-139,195	-0,096	-0,007
-433,934	23,551	0,020	-0,012
-432,919	86,801	-0,119	-0,096
-431,905	-37,940	0,089	0,034
-430,890	104,748	-0,048	-0,041
-429,876	184,436	-0,050	-0,054
-428,861	-76,654	-0,037	-0,009
-427,846	219,243	-0,065	-0,077
-426,832	558,818	0,070	-0,124
-425,817	150,521	-0,055	0,055
-424,803	51,842	0,083	-0,058
-423,788	40,775	-0,068	0,045
-422,773	430,003	0,111	0,176
-421,759	-44,055	0,136	0,050
-420,744	91,842	0,061	-0,050
-419,730	318,430	-0,119	-0,166
-418,715	134,877	-0,070	-0,066
-417,701	800,000	-0,015	-0,039
-416,686	375,655	0,026	0,039
-415,671	232,176	-0,042	-0,051
-414,657	800,000	0,026	-0,075
-413,642	-200,000	-0,032	-0,134
-412,628	800,000	0,045	-0,107
-411,613	-200,000	-0,022	-0,098
-410,598	58,723	-0,154	-0,111
-409,584	-17,916	0,078	-0,036
-408,569	78,599	0,114	-0,089
-407,555	117,463	0,070	0,063
-406,540	-69,457	-0,023	-0,007
-405,525	-99,123	0,073	-0,013
-404,511	-54,254	-0,073	0,024
-403,496	-200,000	-0,002	0,077
-402,482	-14,901	0,076	-0,036
-401,467	-103,792	-0,114	0,019
-400,452	-27,230	0,205	0,087
-399,438	212,807	0,036	-0,041
-398,423	159,148	-0,063	-0,064
-397,409	159,193	-0,099	-0,101
-396,394	-15,434	0,141	-0,066
-395,379	466,001	-0,019	-0,032
-394,365	215,572	0,056	0,065
-393,350	-200,000	0,012	-0,079
-392,336	138,890	0,168	-0,161
-391,321	-162,924	0,062	-0,002
-390,306	-169,459	0,011	0,000
-389,292	800,000	-0,021	0,063
-388,277	-42,192	-0,019	0,007
-387,263	800,000	0,049	0,112
-386,248	-200,000	-0,017	0,132
-385,233	87,876	-0,044	0,036
-384,219	17,538	-0,070	0,041
-383,204	-132,607	-0,058	0,005
-382,190	-0,724	0,082	-0,042
-381,175	-200,000	0,005	0,079
-380,160	450,445	0,052	-0,084
-379,146	-153,990	0,104	-0,005
-378,131	-98,288	0,082	0,015
-377,117	800,000	0,025	-0,058
-376,102	-200,000	0,019	-0,097
-375,088	-83,651	-0,024	0,006
-374,073	-46,962	-0,117	-0,042
-373,058	18,008	0,070	-0,041
-372,044	-73,708	0,090	-0,024
-371,029	166,198	-0,015	-0,016
-370,015	-200,000	0,002	0,030
-369,000	800,000	-0,030	-0,076
-367,985	-200,000	-0,013	-0,113
-366,971	-200,000	-0,000	0,128
-365,956	19,004	0,106	-0,062
-364,942	622,958	0,044	-0,080
-363,927	-200,000	0,005	0,043
-362,912	5,899	-0,078	-0,042
-361,898	-138,515	-0,089	0,007
-360,883	-165,828	-0,056	-0,002
-359,869	243,672	0,075	-0,092
-358,854	484,552	-0,025	-0,042
-357,839	-200,000	0,009	-0,056
-356,825	560,426	0,086	0,153
-355,810	-140,216	-0,066	-0,005
-354,796	-200,000	0,001	0,049
-353,781	-125,737	-0,068	-0,007
-352,766	800,000	0,024	-0,073
-351,752	24,769	-0,118	-0,071
-350,737	-200,000	0,008	0,123
-349,723	-132,807	0,142	-0,013
-348,708	-179,837	-0,119	0,002
-347,693	-98,825	0,078	-0,014
-346,679	643,968	-0,066	-0,124
-345,664	-56,588	0,056	-0,018
-344,650	-121,270	-0,120	0,014
-343,635	325,864	0,053	-0,074
-342,620	-200,000	0,006	0,192
-341,606	800,000	0,053	0,124
-340,591	167,063	0,130	0,134
-339,577	-0,573	-0,133	0,069
-338,562	52,225	0,038	0,026
-337,548	-200,000	-0,009	-0,032
-336,533	-44,504	0,075	-0,027
-335,518	22,294	0,079	0,047
-334,504	-91,263	0,160	-0,033
-333,489	411,377	-0,070	-0,109
-332,475	339,968	-0,017	-0,025
-331,460	-200,000	-0,008	-0,144
-330,445	226,106	-0,074	0,088
-329,431	800,000	-0,019	-0,045
-328,416	51,798	-0,085	0,059
-327,402	-89,538	0,115	-0,024
-326,387	-18,027	-0,043	0,019
-325,372	800,000	-0,043	-0,096
-324,358	727,802	-0,008	0,015
-323,343	-62,659	0,115	0,035
-322,329	65,508	-0,039	0,029
-321,314	-162,383	-0,090	0,003
-320,299	765,332	0,054	-0,107
-319,285	-158,677	0,075	0,003
-318,270	-200,000	-0,000	0,041
-317,256	-51,008	0,095	-0,032
-316,241	-200,000	0,037	-0,131
-315,226	651,150	0,058	0,109
-314,212	-180,179	0,101	-0,002
-313,197	800,000	0,065	-0,168
-312,183	-20,726	0,162	-0,072
-311,168	800,000	-0,049	-0,120
-310,153	-200,000	0,040	-0,206
-309,139	727,138	0,087	-0,171
-308,124	24,791	-0,085	0,052
-307,110	-200,000	0,057	0,199
-306,095	-200,000	0,008	0,054
-305,080	-182,449	0,161	0,002
-304,066	-4,729	0,047	-0,024
-303,051	-120,541	0,060	-0,007
-302,037	-44,371	0,043	0,016
-301,022	-16,349	-0,169	0,078
-300,008	-111,817	0,187	-0,027
-298,993	-166,452	0,045	0,001
-297,978	-74,074	0,065	0,017
-296,964	-54,823	-0,096	-0,031
-295,949	463,694	0,041	-0,068
-294,935	79,881	-0,120	-0,094
-293,920	-200,000	0,011	0,077
-292,905	-200,000	0,009	-0,055
-291,891	384,878	-0,066	0,099
-290,876	800,000	0,031	0,063
-289,862	271,618	0,094	0,121
-288,847	-200,000	-0,023	-0,088
-287,832	-200,000	0,034	0,125
-286,818	107,956	0,064	0,055
-285,803	-146,678	-0,118	0,007
-284,789	173,574	0,044	0,046
-283,774	-200,000	0,025	0,128
-282,759	-200,000	0,021	0,133
-281,745	-168,710	0,044	0,001
-280,730	-57,592	-0,050	0,016
-279,716	308,233	0,060	0,082
-278,701	-200,000	-0,006	-0,085
-277,686	41,821	0,089	0,059
-276,672	-200,000	0,003	-0,085
-275,657	-200,000	-0,005	0,068
-274,643	138,875	0,020	0,019
-273,628	648,523	0,044	-0,083
-272,613	691,288	0,011	-0,021
-271,599	800,000	-0,013	-0,039
-270,584	-149,309	0,122	0,007
-269,570	-174,278	-0,100	-0,002
-268,555	-99,472	0,115	-0,021
-267,540	56,214	-0,113	0,080
-266,526	800,000	-0,015	0,047
-265,511	108,305	-0,123	0,106
-264,497	-132,114	0,090	-0,008
-263,482	-45,448	0,027	-0,010
-262,467	-200,000	-0,029	0,141
-261,453	800,000	-0,021	-0,052
-260,438	-200,000	0,012	0,063
-259,424	28,435	-0,071	0,044
-258,409	-200,000	-0,008	0,039
-257,395	-200,000	0,025	-0,116
-256,380	-77,986	-0,113	0,028
-255,365	-31,661	0,095	-0,039
-254,351	673,173	-0,073	0,138
-253,336	790,144	0,059	-0,118
-252,322	127,466	-0,045	-0,041
-251,307	-38,316	0,080	0,031
-250,292	720,459	0,037	-0,073
-249,278	232,203	0,008	0,009
-248,263	123,798	0,045	0,041
-247,249	330,525	-0,022	0,031
-246,234	51,243	0,081	0,056
-245,219	-200,000	0,004	0,102
-244,205	340,926	-0,018	0,025
-243,190	-200,000	0,021	0,112
-242,176	-68,412	0,032	-0,009
-241,161	800,000	-0,043	0,128
-240,146	-19,636	0,224	0,100
-239,132	593,532	0,047	-0,084
-238,117	267,756	-0,067	0,086
-237,103	800,000	0,032	-0,072
-236,088	-30,022	-0,055	0,023
-235,073	-200,000	-0,004	-0,070
-234,059	-89,795	-0,048	0,010
-233,044	66,345	0,030	-0,022
-232,030	-200,000	-0,013	-0,057
-231,015	800,000	-0,036	-0,076
-230,000	284,201	-0,063	-0,083
-228,986	230,241	0,041	-0,049
-227,971	-200,000	0,021	0,097
-226,957	-8,826	0,129	0,062
-225,942	136,207	-0,067	0,063
-224,927	800,000	-0,020	0,054
-223,913	-42,246	-0,071	0,026
-222,898	566,233	0,025	-0,045
-221,884	76,708	-0,104	-0,080
-220,869	4,765	0,133	0,071
-219,855	800,000	-0,011	0,028
-218,840	800,000	0,021	0,056
-217,825	-200,000	0,003	-0,015
-216,811	-200,000	0,009	0,164
-215,796	69,121	-0,164	-0,122
-214,782	16,848	-0,061	0,035
-213,767	-200,000	0,014	0,082
-212,752	717,241	0,073	0,142
-211,738	800,000	0,041	-0,125
-210,723	-57,822	-0,149	-0,047
-209,709	-132,257	0,101	0,009
-208,694	205,121	-0,004	-0,005
-207,679	800,000	0,040	0,097
-206,665	17,945	0,018	-0,010
-205,650	198,886	-0,033	0,037
-204,636	7,289	0,191	0,104
-203,621	800,000	-0,005	0,011
-202,606	359,280	-0,049	0,071
-201,592	416,438	0,060	-0,093
-200,577	683,024	-0,031	-0,059
-199,563	-9,983	0,065	-0,031
-198,548	-200,000	0,000	0,012
-197,533	72,258	-0,064	-0,049
-196,519	800,000	0,034	-0,071
-195,504	188,696	0,027	0,030
-194,490	-200,000	-0,002	-0,175
-193,475	-200,000	0,018	-0,102
-192,460	-200,000	0,009	0,054
-191,446	-200,000	-0,023	0,081
-190,431	543,672	-0,046	0,080
-189,417	61,241	-0,041	0,029
-188,402	-136,165	-0,077	-0,006
-187,387	135,925	-0,098	-0,093
-186,373	-68,637	-0,097	-0,027
-185,358	49,647	0,134	-0,092
-184,344	800,000	0,078	0,169
-183,329	-126,015	-0,231	0,025
-182,315	-200,000	-0,023	0,164
-181,300	-27,934	-0,106	0,044
-180,285	-200,000	0,034	-0,145
-179,271	-126,475	-0,053	-0,006
-178,256	69,066	-0,146	-0,109
-177,242	-31,264	0,118	0,048
-176,227	-200,000	-0,012	0,070
-175,212	313,080	-0,052	0,072
-174,198	607,872	0,038	-0,070
-173,183	38,921	-0,147	-0,095
-172,169	10,461	-0,016	0,009
-171,154	9,293	-0,049	0,027
-170,139	-162,465	0,108	-0,004
-169,125	458,291	0,028	-0,046
-168,110	429,105	0,023	0,036
-167,096	24,539	0,035	-0,021
-166,081	-200,000	-0,014	-0,152
-165,066	-200,000	-0,004	-0,046
-164,052	-200,000	-0,025	-0,124
-163,037	-200,000	0,006	-0,153
-162,023	800,000	-0,027	0,066
-161,008	-33,644	0,060	0,024
-159,993	-141,349	0,055	0,004
-158,979	-35,558	-0,125	0,049
-157,964	-200,000	0,022	-0,105
-156,950	327,289	-0,045	0,063
-155,935	92,693	0,071	-0,058
-154,920	-93,312	0,050	0,010
-153,906	-149,107	0,129	-0,007
-152,891	244,863	0,140	0,171
-151,877	-200,000	-0,031	0,167
-150,862	450,466	0,028	0,045
-149,847	-200,000	-0,002	-0,190
-148,833	309,259	0,030	-0,041
-147,818	332,415	-0,040	-0,056
-146,804	-44,892	0,106	0,038
-145,789	15,905	0,041	0,024
-144,775	-200,000	-0,017	-0,143
-143,760	-123,868	-0,103	-0,012
-142,745	-81,738	-0,178	-0,042
-141,731	800,000	0,018	0,056
-140,716	71,407	-0,032	-0,024
-139,702	-46,559	0,206	0,073
-138,687	-200,000	0,003	0,022
-137,672	-200,000	0,028	-0,091
-136,658	57,232	-0,068	-0,048
-135,643	68,351	-0,081	0,060
-134,629	-16,841	-0,082	0,037
-133,614	-169,723	0,109	0,003
-132,599	-200,000	-0,010	0,059
-131,585	-89,258	0,029	0,006
-130,570	29,879	0,143	-0,088
-129,556	213,979	0,080	-0,092
-128,541	-200,000	-0,005	0,069
-127,526	-200,000	-0,017	0,158
-126,512	-42,766	-0,100	-0,037
-125,497	800,000	0,052	0,153
-124,483	-73,039	0,117	-0,031
-123,468	-60,819	-0,126	-0,038
-122,453	-200,000	0,005	0,029
-121,439	113,306	-0,044	-0,039
-120,424	800,000	0,052	-0,109
-119,410	60,634	0,054	0,039
