DTS Sentinel unit serial number:	SN410029Multiplexer serial number:	ORYXHardware model number:	OX2-SRSoftware version number:	ORYX F/W v4,00 Oryx Data Collector v3.7.2.0data status	okinstallation	B3 Nyhavnadifferential loss correction	single-endedforward channel	channel 1reverse channel	N/Adate	2023/11/28time	10:57:30forward acquisition time	300,00reverse acquisition time	0,00gamma	499,1914k internal	0,3153k external	0,3153temperature offset calibration	1,0000default loss term (dB/km)	0,3820temperature slope calibration	1,0000multiplexer offset coefficient	1,0000multiplexer slope coefficient	1,0000fibre end	0,00T internal ref (°C)	9,53T ext. ref 1 (°C)	-7,41T ext. ref 2 (°C)	-7,64length (m)	temperature (°C)	Stokes	anti-Stokes-744,400	273,511	-0,171	-0,224
-743,385	-200,000	-0,066	0,226
-742,371	-200,000	-0,049	-0,269
-741,356	800,000	-0,097	0,283
-740,342	37,572	-0,123	-0,080
-739,327	-200,000	-0,040	0,282
-738,312	800,000	-0,081	-0,175
-737,298	398,443	-0,141	0,219
-736,283	800,000	-0,163	-0,355
-735,269	-200,000	-0,030	0,363
-734,254	-200,000	-0,055	-0,320
-733,239	150,883	-0,124	0,124
-732,225	-61,518	-0,258	-0,079
-731,210	800,000	0,069	0,179
-730,196	-11,566	0,075	0,036
-729,181	288,064	0,118	0,158
-728,167	209,135	-0,043	-0,050
-727,152	243,281	-0,040	0,050
-726,137	121,983	-0,026	-0,024
-725,123	-33,146	-0,016	-0,006
-724,108	-112,042	-0,114	-0,017
-723,094	3,829	-0,110	-0,059
-722,079	-200,000	-0,011	0,052
-721,064	248,608	0,023	0,029
-720,050	-46,655	-0,110	-0,040
-719,035	8,713	0,138	-0,077
-718,021	756,266	-0,034	0,069
-717,006	-44,727	-0,216	-0,079
-715,991	144,032	-0,139	-0,136
-714,977	-200,000	0,001	-0,043
-713,962	158,403	-0,048	-0,049
-712,948	-161,893	0,057	-0,002
-711,933	800,000	-0,012	0,034
-710,918	85,114	-0,119	0,096
-709,904	17,713	-0,078	-0,046
-708,889	-58,914	-0,061	0,019
-707,875	-17,708	-0,047	0,022
-706,860	-137,741	0,019	0,002
-705,845	358,947	0,030	-0,044
-704,831	-106,939	-0,054	-0,009
-703,816	-200,000	-0,011	-0,076
-702,802	-93,933	-0,029	0,006
-701,787	10,929	-0,015	0,008
-700,772	-200,000	0,021	-0,087
-699,758	-200,000	0,019	-0,070
-698,743	-200,000	-0,003	0,028
-697,729	800,000	0,056	0,155
-696,714	62,272	0,038	-0,028
-695,699	-99,939	-0,036	0,007
-694,685	265,714	-0,067	0,087
-693,670	800,000	-0,017	0,049
-692,656	120,915	0,067	-0,061
-691,641	-82,897	-0,093	-0,022
-690,627	-116,862	0,076	-0,010
-689,612	-200,000	0,007	-0,077
-688,597	-27,054	-0,174	0,074
-687,583	263,509	-0,048	0,062
-686,568	430,012	0,018	0,030
-685,554	-20,727	0,061	0,027
-684,539	-155,621	-0,159	0,007
-683,524	-28,634	0,086	-0,036
-682,510	-73,265	-0,096	-0,026
-681,495	800,000	-0,070	-0,162
-680,481	800,000	-0,054	-0,147
-679,466	-35,374	-0,093	0,037
-678,451	-200,000	-0,005	-0,141
-677,437	-200,000	-0,011	-0,067
-676,422	277,816	0,068	0,089
-675,408	-200,000	-0,001	-0,044
-674,393	-200,000	0,004	-0,069
-673,378	-3,765	-0,047	-0,024
-672,364	800,000	0,098	-0,298
-671,349	-200,000	0,030	-0,151
-670,335	22,314	0,149	-0,089
-669,320	249,568	-0,065	-0,081
-668,305	248,643	0,061	0,077
-667,291	577,716	-0,020	-0,037
-666,276	-200,000	-0,004	-0,084
-665,262	-200,000	-0,014	0,049
-664,247	-106,002	0,172	0,028
-663,232	-38,494	-0,251	0,097
-662,218	-99,062	0,154	0,028
-661,203	-118,450	0,094	-0,012
-660,189	260,329	-0,028	0,036
-659,174	132,105	-0,075	-0,071
-658,159	-6,727	0,094	0,047
-657,145	626,010	-0,032	-0,060
-656,130	-200,000	0,033	0,111
-655,116	-200,000	0,041	0,252
-654,101	286,019	-0,068	-0,091
-653,086	800,000	-0,019	-0,047
-652,072	800,000	-0,058	-0,149
-651,057	-48,729	-0,095	0,033
-650,043	68,652	-0,106	0,080
-649,028	16,451	-0,032	-0,019
-648,014	296,467	-0,071	0,097
-646,999	-80,188	-0,137	-0,033
-645,984	-200,000	-0,006	0,091
-644,970	385,177	0,017	-0,026
-643,955	-13,298	-0,075	-0,036
-642,941	-200,000	0,028	-0,158
-641,926	791,193	0,045	-0,092
-640,911	374,441	0,070	-0,106
-639,897	7,866	-0,102	0,056
-638,882	429,971	0,024	0,038
-637,868	-90,749	-0,161	-0,034
-636,853	-200,000	0,010	0,036
-635,838	-200,000	0,006	-0,048
-634,824	-200,000	-0,000	0,080
-633,809	-81,545	0,110	-0,026
-632,795	800,000	0,035	0,095
-631,780	285,814	-0,079	0,105
-630,765	-46,349	0,018	0,007
-629,751	-15,628	0,041	0,019
-628,736	-16,467	-0,046	-0,021
-627,722	-200,000	-0,005	-0,070
-626,707	27,158	-0,128	-0,079
-625,692	18,584	0,024	0,014
-624,678	-200,000	-0,009	0,140
-623,663	-164,910	-0,098	-0,003
-622,649	263,632	-0,047	-0,060
-621,634	-170,614	0,058	-0,001
-620,619	-149,636	-0,164	0,009
-619,605	-36,875	-0,038	0,015
-618,590	-65,834	0,059	-0,017
-617,576	104,142	0,088	0,076
-616,561	58,311	-0,103	0,074
-615,546	-99,497	-0,212	0,039
-614,532	23,567	0,109	0,066
-613,517	-136,825	-0,108	-0,009
-612,503	-77,645	-0,051	-0,013
-611,488	-200,000	0,003	0,024
-610,474	71,142	0,027	-0,021
-609,459	-22,079	0,025	-0,011
-608,444	-117,473	-0,074	0,010
-607,430	372,906	-0,074	0,110
-606,415	7,444	-0,033	0,018
-605,401	-83,948	0,208	0,048
-604,386	-135,946	0,083	0,007
-603,371	-200,000	0,003	0,041
-602,357	800,000	0,020	-0,053
-601,342	-200,000	-0,001	0,024
-600,328	10,252	-0,061	-0,034
-599,313	800,000	-0,052	-0,122
-598,298	-200,000	0,017	0,063
-597,284	800,000	0,041	-0,086
-596,269	272,776	0,124	0,161
-595,255	-180,222	0,039	-0,001
-594,240	-11,278	-0,105	-0,051
-593,225	800,000	0,047	-0,105
-592,211	203,423	0,045	0,051
-591,196	-11,911	-0,050	-0,024
-590,182	800,000	-0,020	0,042
-589,167	-57,109	0,091	-0,029
-588,152	766,220	-0,041	0,082
-587,138	189,249	-0,039	0,043
-586,123	147,194	-0,147	-0,145
-585,109	159,907	-0,082	-0,084
-584,094	239,639	-0,075	0,092
-583,079	322,248	0,014	0,019
-582,065	-91,303	0,117	0,024
-581,050	17,932	-0,020	-0,012
-580,036	55,180	-0,079	0,056
-579,021	-200,000	0,017	-0,123
-578,006	20,406	-0,087	-0,051
-576,992	198,416	-0,117	-0,131
-575,977	40,085	-0,021	-0,014
-574,963	-27,224	0,073	0,031
-573,948	254,897	0,117	0,147
-572,934	-200,000	0,000	-0,039
-571,919	-200,000	0,013	-0,115
-570,904	188,631	0,087	-0,096
-569,890	59,472	0,084	-0,060
-568,875	-55,377	0,089	0,029
-567,861	-1,904	0,026	0,013
-566,846	226,227	0,097	0,116
-565,831	-200,000	0,008	0,036
-564,817	110,352	-0,095	-0,083
-563,802	-200,000	-0,049	-0,162
-562,788	-68,666	0,067	0,019
-561,773	14,211	0,022	-0,013
-560,758	33,842	0,068	0,043
-559,744	357,576	-0,014	0,021
-558,729	-97,778	0,027	0,005
-557,715	-200,000	0,000	-0,007
-556,700	-200,000	-0,005	-0,070
-555,685	22,580	-0,123	0,074
-554,671	-135,414	-0,092	0,008
-553,656	800,000	0,048	0,106
-552,642	-50,551	0,071	-0,024
-551,627	-20,759	0,018	-0,008
-550,612	-200,000	-0,005	-0,040
-549,598	-82,832	-0,106	-0,025
-548,583	-200,000	-0,033	-0,217
-547,569	47,348	0,061	0,041
-546,554	-119,378	0,147	0,019
-545,539	-200,000	-0,014	-0,119
-544,525	549,078	0,040	0,071
-543,510	146,859	-0,099	-0,097
-542,496	-200,000	-0,049	-0,165
-541,481	800,000	-0,020	-0,051
-540,466	0,964	-0,041	-0,022
-539,452	-30,130	0,082	-0,034
-538,437	800,000	0,060	0,132
-537,423	-200,000	0,001	0,004
-536,408	-200,000	-0,001	0,057
-535,393	-200,000	0,010	-0,098
-534,379	800,000	-0,048	-0,103
-533,364	-200,000	0,002	-0,116
-532,350	-101,382	0,143	-0,025
-531,335	1,195	-0,061	-0,032
-530,321	726,058	0,055	0,108
-529,306	53,990	0,037	-0,026
-528,291	38,928	-0,080	-0,053
-527,277	-34,825	0,100	0,040
-526,262	800,000	-0,019	-0,054
-525,248	-200,000	0,024	0,185
-524,233	-97,008	0,205	-0,039
-523,218	564,060	-0,057	-0,102
-522,204	37,398	-0,121	-0,078
-521,189	663,186	0,052	-0,098
-520,175	44,010	-0,071	0,048
-519,160	-44,490	0,111	0,040
-518,145	800,000	0,025	0,070
-517,131	411,596	0,045	0,069
-516,116	-142,991	-0,016	-0,001
-515,102	800,000	-0,011	0,023
-514,087	-93,697	-0,009	-0,002
-513,072	-119,831	0,012	-0,001
-512,058	-200,000	0,003	-0,052
-511,043	-25,070	0,115	-0,050
-510,029	105,001	-0,059	0,050
-509,014	-110,113	0,070	-0,011
-507,999	192,762	-0,078	0,086
-506,985	-35,428	0,035	0,014
-505,970	-200,000	0,012	-0,145
-504,956	-27,349	0,056	-0,024
-503,941	92,698	-0,077	0,064
-502,926	66,004	-0,028	-0,021
-501,912	800,000	-0,121	0,276
-500,897	170,144	0,149	0,156
-499,883	-40,611	-0,030	-0,011
-498,868	800,000	0,012	-0,027
-497,853	-38,535	-0,141	-0,054
-496,839	-40,050	0,067	-0,025
-495,824	-200,000	-0,005	-0,093
-494,810	-200,000	0,003	0,026
-493,795	800,000	0,023	-0,049
-492,781	800,000	-0,021	-0,063
-491,766	-200,000	-0,004	-0,053
-490,751	800,000	0,030	0,062
-489,737	-164,629	-0,078	-0,003
-488,722	476,990	0,031	0,051
-487,708	402,354	-0,016	-0,024
-486,693	83,922	0,022	-0,018
-485,678	-114,666	-0,035	-0,005
-484,664	-200,000	0,004	-0,014
-483,649	5,801	-0,093	0,050
-482,635	-9,981	0,109	-0,053
-481,620	14,741	-0,051	0,029
-480,605	5,179	-0,083	-0,044
-479,591	213,548	-0,055	0,063
-478,576	17,862	-0,059	0,034
-477,562	-200,000	-0,002	-0,158
-476,547	149,262	0,089	-0,088
-475,532	33,091	0,107	-0,068
-474,518	-57,403	-0,030	-0,010
-473,503	161,406	0,083	0,085
-472,489	27,642	0,100	0,061
-471,474	-9,413	-0,070	-0,034
-470,459	-78,811	-0,033	-0,008
-469,445	800,000	-0,017	0,039
-468,430	-200,000	-0,005	-0,050
-467,416	-196,709	-0,037	0,000
-466,401	11,632	0,123	0,069
-465,386	400,971	0,069	0,105
-464,372	-60,326	-0,071	-0,022
-463,357	126,095	0,118	-0,109
-462,343	-135,135	-0,086	-0,007
-461,328	-200,000	0,024	-0,090
-460,313	-200,000	0,002	-0,072
-459,299	-61,604	-0,018	0,005
-458,284	-75,345	0,029	-0,008
-457,270	492,956	-0,027	0,046
-456,255	-200,000	0,028	-0,217
-455,241	224,043	-0,022	-0,026
-454,226	-200,000	0,028	0,099
-453,211	800,000	-0,027	0,078
-452,197	-79,430	-0,017	0,004
-451,182	87,072	-0,099	-0,080
-450,168	-119,562	-0,026	-0,003
-449,153	-41,779	0,045	-0,017
-448,138	-101,315	-0,077	0,014
-447,124	-45,308	-0,129	0,047
-446,109	-168,474	-0,018	-0,000
-445,095	800,000	0,056	0,123
-444,080	360,124	0,075	0,109
-443,065	800,000	-0,008	0,024
-442,051	-118,911	-0,182	-0,023
-441,036	-200,000	0,014	0,058
-440,022	-25,133	-0,175	-0,075
-439,007	41,424	0,137	0,090
-437,992	-2,012	0,087	0,044
-436,978	-200,000	-0,010	0,096
-435,963	-0,854	0,114	0,059
-434,949	800,000	-0,034	0,080
-433,934	-87,146	0,052	0,011
-432,919	-50,466	-0,146	-0,050
-431,905	800,000	0,031	-0,093
-430,890	-156,482	0,057	-0,003
-429,876	276,041	-0,050	-0,065
-428,861	-200,000	-0,001	0,023
-427,846	396,685	-0,041	0,062
-426,832	422,281	-0,093	-0,146
-425,817	196,962	-0,185	-0,206
-424,803	487,565	0,027	-0,045
-423,788	59,443	-0,103	-0,074
-422,773	-200,000	0,019	0,110
-421,759	194,867	0,061	-0,068
-420,744	800,000	0,006	-0,019
-419,730	51,376	0,097	-0,067
-418,715	-43,812	0,082	-0,030
-417,701	-139,699	-0,100	-0,008
-416,686	-13,957	0,131	0,061
-415,671	591,186	0,080	0,144
-414,657	-13,355	0,103	0,048
-413,642	86,990	0,030	0,024
-412,628	-200,000	0,019	-0,139
-411,613	308,613	0,047	-0,064
-410,598	365,168	-0,036	0,053
-409,584	87,702	0,094	-0,076
-408,569	-45,853	0,171	0,061
-407,555	-28,553	-0,033	-0,014
-406,540	394,779	-0,058	0,088
-405,525	282,655	-0,064	-0,084
-404,511	-77,866	0,111	-0,028
-403,496	800,000	-0,033	-0,101
-402,482	-99,882	-0,090	0,016
-401,467	-108,024	-0,178	0,028
-400,452	-59,343	0,056	0,018
-399,438	-200,000	-0,001	0,093
-398,423	-101,349	0,097	-0,017
-397,409	-74,133	-0,017	-0,004
-396,394	-71,461	0,074	0,020
-395,379	472,342	-0,015	-0,025
-394,365	35,653	0,091	-0,058
-393,350	800,000	0,017	0,043
-392,336	-101,962	0,016	0,003
-391,321	117,271	-0,024	0,022
-390,306	-82,156	-0,061	0,014
-389,292	222,531	-0,031	-0,037
-388,277	31,073	-0,048	0,030
-387,263	152,674	-0,078	-0,078
-386,248	258,437	0,066	0,083
-385,233	127,330	0,082	0,076
-384,219	800,000	-0,031	-0,085
-383,204	164,025	-0,094	-0,097
-382,190	-200,000	0,006	-0,190
-381,175	-95,260	-0,041	-0,008
-380,160	-95,287	0,111	0,022
-379,146	-100,812	0,083	-0,015
-378,131	800,000	0,023	0,061
-377,117	100,320	0,049	-0,041
-376,102	-139,013	-0,012	-0,001
-375,088	134,475	-0,009	0,008
-374,073	-200,000	-0,023	-0,087
-373,058	-97,229	0,060	0,011
-372,044	137,796	-0,064	-0,061
-371,029	52,292	0,017	-0,012
-370,015	-85,927	0,081	0,018
-369,000	-125,094	0,081	0,009
-367,985	295,272	0,068	-0,090
-366,971	121,901	0,024	-0,022
-365,956	800,000	0,021	0,062
-364,942	-17,846	0,189	0,086
-363,927	-97,891	0,022	0,004
-362,912	92,983	0,042	0,034
-361,898	-172,072	-0,130	0,003
-360,883	-200,000	-0,008	-0,068
-359,869	78,545	-0,067	-0,052
-358,854	-184,801	0,053	-0,001
-357,839	800,000	-0,050	-0,151
-356,825	-135,729	0,073	-0,006
-355,810	-200,000	0,003	-0,110
-354,796	-3,128	0,098	-0,050
-353,781	495,643	-0,060	-0,100
-352,766	-140,640	0,049	0,004
-351,752	50,661	0,040	0,027
-350,737	23,399	0,155	-0,093
-349,723	800,000	0,059	0,144
-348,708	103,856	-0,025	-0,021
-347,693	-92,231	0,129	-0,026
-346,679	-121,036	-0,107	-0,013
-345,664	156,100	-0,116	-0,117
-344,650	-200,000	-0,003	0,068
-343,635	551,902	0,053	0,093
-342,620	800,000	0,036	0,093
-341,606	-200,000	0,011	0,135
-340,591	-101,080	-0,035	-0,006
-339,577	-128,505	0,085	-0,009
-338,562	800,000	-0,057	-0,133
-337,548	396,417	0,051	0,077
-336,533	187,961	0,110	0,119
-335,518	800,000	0,027	0,063
-334,504	-15,804	-0,186	0,086
-333,489	-124,960	0,126	0,014
-332,475	582,890	-0,020	0,035
-331,460	79,510	-0,033	-0,026
-330,445	4,935	0,044	0,023
-329,431	235,125	0,075	-0,090
-328,416	800,000	0,070	0,194
-327,402	371,211	-0,058	0,086
-326,387	800,000	0,011	-0,028
-325,372	800,000	0,068	-0,142
-324,358	494,382	0,074	-0,123
-323,343	-123,131	-0,117	0,013
-322,329	-100,963	0,075	0,013
-321,314	-190,692	0,052	0,000
-320,299	73,393	-0,116	0,088
-319,285	-200,000	0,027	0,139
-318,270	738,169	0,040	-0,077
-317,256	-200,000	0,008	-0,103
-316,241	-200,000	0,047	-0,163
-315,226	8,593	0,098	0,054
-314,212	-200,000	-0,007	0,107
-313,197	388,640	-0,045	0,068
-312,183	318,661	-0,040	0,055
-311,168	-111,331	0,087	0,013
-310,153	725,292	-0,006	-0,012
-309,139	-164,735	-0,133	0,004
-308,124	401,523	0,034	0,052
-307,110	17,518	-0,088	0,051
-306,095	59,035	-0,083	0,059
-305,080	516,814	-0,013	-0,023
-304,066	213,229	0,049	-0,056
-303,051	-200,000	-0,013	-0,137
-302,037	64,224	-0,085	-0,062
-301,022	584,744	0,041	-0,073
-300,008	104,699	0,103	0,088
-298,993	-111,015	-0,087	-0,013
-297,978	-85,495	0,048	0,011
-296,964	-73,832	-0,013	0,003
-295,949	800,000	-0,074	-0,160
-294,935	-180,477	0,091	-0,001
-293,920	225,098	-0,079	-0,093
-292,905	100,885	0,062	-0,052
-291,891	-200,000	0,001	0,040
-290,876	-31,635	-0,073	0,030
-289,862	301,289	0,082	-0,110
-288,847	423,386	-0,099	-0,154
-287,832	-200,000	0,016	0,073
-286,818	-57,129	0,132	-0,042
-285,803	509,018	0,028	0,048
-284,789	44,735	-0,050	0,033
-283,774	607,239	-0,057	0,103
-282,759	772,408	0,036	0,071
-281,745	-79,575	-0,046	0,011
-280,730	-200,000	-0,014	-0,145
-279,716	-103,407	-0,087	-0,015
-278,701	-22,844	0,088	-0,038
-277,686	-75,019	0,110	-0,028
-276,672	-149,764	0,078	0,004
-275,657	86,846	-0,109	0,087
-274,643	-200,000	-0,010	-0,034
-273,628	-200,000	0,009	-0,053
-272,613	-19,372	0,046	-0,020
-271,599	586,455	0,030	0,054
-270,584	57,446	0,056	-0,040
-269,570	12,136	-0,081	0,045
-268,555	-30,998	-0,063	-0,026
-267,540	64,752	-0,069	-0,050
-266,526	219,668	-0,085	-0,099
-265,511	-123,683	-0,067	0,008
-264,497	185,077	0,091	0,098
-263,482	800,000	0,050	0,103
-262,467	-200,000	-0,001	-0,068
-261,453	81,192	-0,104	-0,081
-260,438	-21,680	0,107	-0,047
-259,424	-200,000	0,006	0,143
-258,409	-200,000	0,008	-0,053
-257,395	-200,000	0,004	0,022
-256,380	-200,000	-0,027	0,196
-255,365	-175,706	-0,104	0,002
-254,351	-128,199	0,095	-0,010
-253,336	-194,035	-0,100	0,001
-252,322	156,477	0,058	-0,058
-251,307	29,316	-0,075	0,046
-250,292	434,242	-0,037	0,059
-249,278	281,801	-0,016	0,020
-248,263	10,630	-0,107	0,059
-247,249	27,922	0,150	-0,092
-246,234	-200,000	0,018	-0,077
-245,219	-200,000	0,013	-0,047
-244,205	177,766	0,041	-0,043
-243,190	800,000	0,012	-0,033
-242,176	-3,597	0,087	-0,044
-241,161	139,602	0,074	0,071
-240,146	-200,000	-0,003	0,137
-239,132	800,000	-0,040	-0,118
-238,117	-56,332	0,039	-0,013
-237,103	151,252	0,095	-0,094
-236,088	-200,000	-0,015	0,188
-235,073	456,873	-0,059	0,095
-234,059	317,074	0,039	-0,054
-233,044	-113,528	-0,104	-0,015
-232,030	-191,701	0,102	0,001
-231,015	-200,000	-0,001	-0,159
-230,000	-59,633	-0,143	-0,044
-228,986	800,000	0,072	0,207
-227,971	800,000	0,037	-0,093
-226,957	177,534	0,063	-0,067
-225,942	-53,601	0,047	-0,015
-224,927	530,048	0,023	-0,040
-223,913	800,000	-0,044	0,106
-222,898	11,134	-0,075	0,041
-221,884	800,000	-0,071	-0,183
-220,869	143,703	0,054	0,052
-219,855	181,466	0,085	0,091
-218,840	39,587	-0,047	0,031
-217,825	372,288	-0,042	0,062
-216,811	230,098	-0,119	0,141
-215,796	-178,005	-0,068	0,001
-214,782	800,000	-0,028	0,079
-213,767	-74,289	0,070	-0,018
-212,752	449,292	0,055	0,088
-211,738	351,011	0,012	-0,017
-210,723	-4,887	0,111	-0,055
-209,709	-117,215	-0,119	0,016
-208,694	200,832	-0,116	0,129
-207,679	580,038	-0,039	-0,070
-206,665	-26,216	0,049	-0,021
-205,650	-107,522	-0,162	0,025
-204,636	78,530	-0,049	-0,038
-203,621	115,258	0,020	-0,018
-202,606	-91,235	-0,120	-0,025
-201,592	-200,000	-0,002	0,077
-200,577	-148,073	-0,045	0,003
-199,563	800,000	0,090	0,249
-198,548	800,000	0,004	-0,010
-197,533	-200,000	-0,033	0,168
-196,519	-200,000	0,015	0,085
-195,504	-125,507	-0,118	0,013
-194,490	-180,481	0,129	0,002
-193,475	215,858	-0,062	0,071
-192,460	-162,830	-0,099	-0,003
-191,446	-32,923	-0,030	-0,012
-190,431	-94,748	0,046	0,009
-189,417	-52,835	0,105	-0,035
-188,402	800,000	0,017	-0,045
-187,387	800,000	-0,053	0,124
-186,373	800,000	0,051	-0,141
-185,358	42,755	-0,040	0,027
-184,344	409,166	-0,044	0,068
-183,329	232,337	0,087	0,103
-182,315	800,000	0,015	0,037
-181,300	-200,000	0,005	0,034
-180,285	294,522	-0,041	0,055
-179,271	-200,000	-0,007	0,059
-178,256	-99,176	0,041	-0,007
-177,242	19,286	-0,095	-0,055
-176,227	71,289	-0,086	0,064
-175,212	368,437	-0,051	0,074
-174,198	-200,000	-0,002	0,086
-173,183	-179,497	-0,018	0,000
-172,169	-200,000	0,023	0,080
-171,154	800,000	0,018	0,038
-170,139	-120,895	0,071	0,009
-169,125	-104,770	0,099	0,016
-168,110	302,467	0,070	-0,094
-167,096	-113,996	-0,103	0,014
-166,081	205,573	-0,068	-0,076
-165,066	-200,000	-0,026	-0,161
-164,052	800,000	-0,022	0,056
-163,037	-200,000	-0,006	0,058
-162,023	800,000	0,035	-0,080
-161,008	236,950	-0,076	0,091
-159,993	800,000	0,061	0,152
-158,979	298,250	-0,028	-0,037
-157,964	-134,172	-0,229	0,020
-156,950	800,000	-0,034	-0,068
-155,935	-89,539	0,091	-0,019
-154,920	-200,000	0,012	0,084
-153,906	15,517	0,122	0,069
-152,891	14,016	-0,104	0,058
-151,877	-200,000	-0,007	-0,069
-150,862	348,484	-0,018	0,026
-149,847	800,000	-0,043	-0,122
-148,833	22,203	0,115	0,068
-147,818	53,050	0,141	0,097
-146,804	-40,997	0,046	-0,017
-145,789	256,773	-0,085	0,105
-144,775	-200,000	-0,019	-0,090
-143,760	800,000	-0,025	-0,070
-142,745	186,421	-0,135	-0,145
-141,731	69,038	0,059	-0,044
-140,716	-77,682	-0,050	-0,012
-139,702	-125,673	0,068	0,007
-138,687	-200,000	-0,030	-0,096
-137,672	12,731	0,065	0,036
-136,658	-88,056	0,031	-0,007
-135,643	-130,026	0,060	0,006
-134,629	-200,000	-0,029	-0,130
-133,614	-47,437	0,054	0,019
-132,599	800,000	0,041	-0,123
-131,585	-200,000	0,047	0,000
-130,570	-200,000	0,002	0,055
-129,556	71,261	-0,065	-0,048
-128,541	-67,944	-0,128	-0,036
-127,526	800,000	0,026	0,078
-126,512	-200,000	0,025	0,113
-125,497	-200,000	-0,003	-0,037
-124,483	160,614	0,037	-0,038
-123,468	-74,817	0,041	-0,010
-122,453	800,000	0,038	-0,110
-121,439	-100,151	0,037	-0,007
-120,424	98,203	0,057	-0,047
-119,410	800,000	0,056	0,113
