DTS Sentinel unit serial number:	SN410029Multiplexer serial number:	ORYXHardware model number:	OX2-SRSoftware version number:	ORYX F/W v4,00 Oryx Data Collector v3.7.2.0data status	okinstallation	B3 Nyhavnadifferential loss correction	single-endedforward channel	channel 1reverse channel	N/Adate	2023/11/28time	10:47:30forward acquisition time	300,00reverse acquisition time	0,00gamma	499,1914k internal	0,3157k external	0,3157temperature offset calibration	1,0000default loss term (dB/km)	0,3820temperature slope calibration	1,0000multiplexer offset coefficient	1,0000multiplexer slope coefficient	1,0000fibre end	0,00T internal ref (°C)	9,66T ext. ref 1 (°C)	-7,29T ext. ref 2 (°C)	-7,54length (m)	temperature (°C)	Stokes	anti-Stokes-744,400	163,043	-0,265	-0,275
-743,385	-200,000	-0,034	0,374
-742,371	47,211	-0,193	-0,132
-741,356	-200,000	0,059	0,389
-740,342	603,402	-0,154	-0,283
-739,327	-200,000	-0,084	0,376
-738,312	297,732	-0,156	-0,211
-737,298	-200,000	-0,052	0,259
-736,283	800,000	-0,102	-0,280
-735,269	-200,000	0,032	0,399
-734,254	-10,811	-0,219	-0,106
-733,239	22,155	-0,308	0,185
-732,225	73,444	-0,187	-0,144
-731,210	307,776	0,127	0,175
-730,196	-200,000	0,008	0,058
-729,181	378,861	-0,057	0,087
-728,167	-2,455	-0,032	-0,017
-727,152	-16,734	0,111	-0,052
-726,137	-13,792	-0,092	-0,044
-725,123	-73,540	0,054	0,014
-724,108	-176,933	-0,082	-0,001
-723,094	133,805	-0,136	0,130
-722,079	-38,882	-0,119	0,046
-721,064	416,344	-0,070	-0,110
-720,050	-24,508	0,103	-0,045
-719,035	-200,000	0,002	-0,045
-718,021	-52,311	-0,101	-0,034
-717,006	533,808	0,029	-0,051
-715,991	-174,475	-0,116	0,002
-714,977	800,000	-0,021	-0,044
-713,962	-102,811	0,049	-0,009
-712,948	571,430	0,040	-0,072
-711,933	108,985	0,102	0,090
-710,918	84,739	-0,113	0,091
-709,904	-18,012	-0,056	-0,026
-708,889	253,113	-0,100	-0,126
-707,875	-200,000	0,031	-0,128
-706,860	379,023	-0,031	0,047
-705,845	-105,036	0,060	-0,010
-704,831	-200,000	-0,012	-0,052
-703,816	800,000	-0,025	-0,058
-702,802	-183,443	-0,138	-0,002
-701,787	-200,000	0,011	-0,060
-700,772	144,116	0,025	-0,025
-699,758	-200,000	0,023	0,086
-698,743	-200,000	-0,011	-0,085
-697,729	203,502	-0,051	0,058
-696,714	-200,000	-0,005	0,216
-695,699	225,775	-0,054	-0,064
-694,685	-36,527	-0,080	-0,031
-693,670	-118,984	-0,036	0,005
-692,656	800,000	-0,029	-0,083
-691,641	-200,000	0,002	0,057
-690,627	-117,427	0,105	0,014
-689,612	800,000	-0,004	0,008
-688,597	-130,555	-0,111	-0,011
-687,583	65,903	-0,086	-0,064
-686,568	-142,047	-0,041	0,003
-685,554	-200,000	0,001	-0,019
-684,539	418,104	0,020	-0,032
-683,524	68,515	-0,014	-0,010
-682,510	800,000	0,027	0,087
-681,495	59,550	-0,134	-0,097
-680,481	78,391	-0,099	0,078
-679,466	-200,000	0,012	-0,090
-678,451	-56,983	-0,029	0,009
-677,437	69,830	0,037	0,028
-676,422	43,108	0,085	0,057
-675,408	89,221	-0,021	-0,018
-674,393	427,511	-0,117	-0,187
-673,378	3,642	-0,044	0,024
-672,364	-200,000	-0,025	-0,103
-671,349	40,676	-0,087	-0,057
-670,335	-200,000	0,012	-0,074
-669,320	-57,733	-0,102	0,033
-668,305	40,140	-0,061	0,040
-667,291	-200,000	-0,016	-0,139
-666,276	-133,418	0,146	-0,013
-665,262	-131,663	-0,229	0,022
-664,247	-200,000	-0,005	-0,110
-663,232	260,887	-0,048	0,061
-662,218	365,451	-0,071	-0,105
-661,203	-200,000	0,006	0,141
-660,189	155,211	0,002	0,002
-659,174	-105,750	-0,138	0,023
-658,159	-140,073	-0,101	0,008
-657,145	93,808	-0,091	-0,076
-656,130	-91,028	-0,031	-0,006
-655,116	322,909	0,046	-0,065
-654,101	-39,366	0,083	0,032
-653,086	-200,000	-0,022	0,085
-652,072	104,819	-0,076	0,066
-651,057	-200,000	-0,042	-0,161
-650,043	-46,609	0,082	-0,029
-649,028	-200,000	0,008	0,029
-648,014	-200,000	-0,025	-0,104
-646,999	-16,753	-0,073	-0,034
-645,984	-89,070	0,025	-0,005
-644,970	51,787	-0,069	-0,048
-643,955	-200,000	-0,010	-0,115
-642,941	-120,029	-0,163	0,020
-641,926	-200,000	0,013	-0,084
-640,911	-2,145	-0,115	-0,059
-639,897	-75,509	-0,110	0,029
-638,882	77,216	-0,075	0,058
-637,868	-127,084	-0,116	-0,012
-636,853	732,327	-0,032	-0,063
-635,838	84,913	0,040	-0,032
-634,824	57,856	-0,096	0,069
-633,809	755,068	0,020	-0,040
-632,795	45,606	-0,030	-0,021
-631,780	-164,390	0,036	0,001
-630,765	800,000	-0,036	0,099
-629,751	-190,341	-0,181	0,001
-628,736	99,090	0,040	-0,034
-627,722	134,753	-0,067	-0,064
-626,707	-67,140	0,063	-0,018
-625,692	91,682	-0,162	0,133
-624,678	42,737	-0,052	0,035
-623,663	-71,804	-0,114	-0,031
-622,649	111,632	-0,081	-0,072
-621,634	-21,176	-0,057	-0,026
-620,619	188,744	-0,041	-0,045
-619,605	-98,942	-0,096	-0,018
-618,590	-87,163	0,049	-0,011
-617,576	42,667	-0,035	0,023
-616,561	61,421	0,056	-0,041
-615,546	-200,000	-0,009	-0,090
-614,532	115,496	-0,040	-0,036
-613,517	-200,000	0,003	-0,016
-612,503	-22,001	-0,107	0,048
-611,488	377,827	-0,049	0,073
-610,474	-28,239	0,050	-0,021
-609,459	-172,864	-0,064	0,001
-608,444	-200,000	0,046	-0,180
-607,430	756,662	0,013	0,027
-606,415	-141,235	-0,055	-0,004
-605,401	-147,174	0,072	0,004
-604,386	800,000	-0,051	0,156
-603,371	7,269	-0,078	0,042
-602,357	800,000	0,025	-0,052
-601,342	-29,292	-0,040	0,017
-600,328	-200,000	0,001	-0,033
-599,313	800,000	0,011	-0,025
-598,298	-128,913	0,124	-0,013
-597,284	88,216	0,102	-0,083
-596,269	372,946	0,053	0,080
-595,255	-200,000	0,042	0,175
-594,240	729,539	-0,048	0,094
-593,225	-17,470	-0,035	-0,016
-592,211	800,000	-0,022	-0,047
-591,196	10,294	0,052	0,029
-590,182	46,960	0,100	0,068
-589,167	-133,664	-0,029	0,003
-588,152	-200,000	-0,035	0,114
-587,138	-78,238	0,080	-0,020
-586,123	-200,000	-0,035	-0,139
-585,109	-200,000	-0,013	-0,081
-584,094	-9,973	-0,109	-0,053
-583,079	490,619	0,126	0,212
-582,065	-77,908	0,198	0,050
-581,050	719,129	-0,033	-0,064
-580,036	-200,000	-0,001	-0,045
-579,021	-200,000	0,010	-0,057
-578,006	-124,618	0,075	-0,008
-576,992	-200,000	0,008	-0,105
-575,977	-102,337	0,115	0,020
-574,963	-200,000	0,011	-0,104
-573,948	800,000	0,024	-0,053
-572,934	800,000	-0,023	-0,050
-571,919	103,411	-0,089	-0,076
-570,904	274,695	-0,061	-0,080
-569,890	-4,423	0,111	-0,056
-568,875	-109,390	-0,066	0,010
-567,861	-200,000	0,001	0,099
-566,846	467,544	-0,033	0,054
-565,831	-200,000	-0,026	0,136
-564,817	-60,590	-0,032	0,010
-563,802	-133,460	-0,180	-0,016
-562,788	33,241	-0,109	-0,069
-561,773	67,015	0,162	-0,120
-560,758	192,753	0,094	0,104
-559,744	21,229	0,079	0,047
-558,729	-200,000	0,003	0,236
-557,715	483,915	0,078	-0,131
-556,700	-127,242	-0,148	-0,016
-555,685	-200,000	0,006	0,025
-554,671	48,476	0,072	0,049
-553,656	-200,000	0,045	0,177
-552,642	232,162	0,034	0,041
-551,627	450,751	0,059	0,096
-550,612	-166,328	0,140	0,004
-549,598	269,195	-0,093	-0,120
-548,583	125,055	-0,087	-0,080
-547,569	-110,994	0,108	0,016
-546,554	121,926	0,030	0,027
-545,539	274,971	0,080	0,104
-544,525	68,775	0,082	-0,061
-543,510	655,127	-0,058	-0,109
-542,496	800,000	-0,023	-0,057
-541,481	-200,000	-0,020	-0,148
-540,466	94,891	-0,016	-0,013
-539,452	-114,195	0,066	-0,009
-538,437	75,355	-0,081	0,063
-537,423	-55,398	0,049	-0,016
-536,408	206,493	-0,112	-0,128
-535,393	-52,023	-0,037	-0,013
-534,379	-200,000	0,012	-0,140
-533,364	236,780	-0,128	-0,156
-532,350	26,901	0,109	0,067
-531,335	365,275	0,067	0,099
-530,321	800,000	-0,004	0,012
-529,306	46,925	-0,113	0,077
-528,291	-27,291	0,093	-0,039
-527,277	139,676	0,104	-0,101
-526,262	-76,773	-0,036	0,009
-525,248	-61,055	0,063	0,019
-524,233	719,089	0,037	0,073
-523,218	-73,307	0,101	-0,027
-522,204	372,341	0,025	-0,038
-521,189	13,326	-0,089	-0,050
-520,175	-80,209	0,035	0,009
-519,160	800,000	-0,043	-0,094
-518,145	140,544	0,025	-0,024
-517,131	289,313	0,053	0,070
-516,116	-137,080	0,110	0,009
-515,102	40,958	-0,084	0,056
-514,087	-200,000	0,029	-0,139
-513,072	800,000	-0,014	-0,030
-512,058	-127,831	0,131	-0,014
-511,043	-200,000	-0,008	-0,077
-510,029	241,533	-0,016	0,020
-509,014	216,247	-0,030	0,035
-507,999	9,112	0,051	0,028
-506,985	-200,000	-0,005	-0,044
-505,970	255,873	-0,085	0,106
-504,956	35,717	0,094	0,060
-503,941	800,000	-0,043	-0,106
-502,926	-123,866	0,050	0,006
-501,912	119,374	0,037	0,033
-500,897	-200,000	0,018	-0,078
-499,883	-54,073	-0,017	-0,006
-498,868	574,961	0,040	-0,071
-497,853	41,059	-0,103	-0,067
-496,839	281,292	0,038	-0,050
-495,824	-21,352	-0,076	-0,034
-494,810	591,359	-0,025	-0,046
-493,795	-36,947	0,081	0,032
-492,781	163,947	-0,013	0,013
-491,766	-44,236	-0,136	-0,050
-490,751	14,230	-0,045	-0,026
-489,737	-155,980	0,176	0,008
-488,722	189,300	-0,029	-0,032
-487,708	-76,166	-0,035	0,009
-486,693	141,977	-0,067	0,065
-485,678	800,000	-0,048	-0,116
-484,664	-200,000	-0,019	0,170
-483,649	800,000	0,007	-0,020
-482,635	258,223	-0,082	-0,104
-481,620	-105,603	0,116	-0,019
-480,605	186,433	0,125	-0,136
-479,591	86,911	-0,128	0,103
-478,576	450,829	0,021	0,034
-477,562	-36,031	-0,025	-0,010
-476,547	-77,699	-0,071	-0,018
-475,532	435,306	0,059	0,094
-474,518	-200,000	0,001	-0,019
-473,503	-91,041	0,219	0,045
-472,489	-200,000	0,022	0,165
-471,474	-200,000	-0,013	0,108
-470,459	-64,416	-0,107	-0,031
-469,445	-59,849	0,158	0,049
-468,430	279,699	0,065	-0,085
-467,416	-2,484	0,092	-0,047
-466,401	17,059	0,094	0,054
-465,386	242,472	0,043	0,053
-464,372	111,282	0,073	0,064
-463,357	430,886	-0,065	0,103
-462,343	-200,000	-0,018	-0,099
-461,328	800,000	0,008	0,016
-460,313	-86,843	0,105	0,023
-459,299	-171,958	0,108	0,002
-458,284	-121,069	0,025	-0,003
-457,270	-72,438	0,128	0,034
-456,255	447,429	-0,068	0,110
-455,241	53,998	0,022	0,016
-454,226	126,637	0,065	0,060
-453,211	353,109	0,083	-0,120
-452,197	576,824	-0,025	0,044
-451,182	139,797	-0,028	-0,027
-450,168	-200,000	0,007	0,111
-449,153	75,434	-0,083	0,064
-448,138	125,548	-0,013	0,012
-447,124	-95,509	0,153	-0,030
-446,109	277,902	0,099	-0,129
-445,095	152,780	0,157	0,157
-444,080	-83,231	0,033	-0,008
-443,065	-200,000	-0,022	0,094
-442,051	-158,159	0,083	0,003
-441,036	-137,518	0,070	-0,006
-440,022	516,757	-0,067	-0,115
-439,007	19,281	0,041	-0,024
-437,992	31,982	-0,091	0,057
-436,978	-200,000	0,008	0,054
-435,963	-23,898	0,064	-0,028
-434,949	-28,809	-0,168	0,070
-433,934	-16,261	-0,055	-0,025
-432,919	-200,000	-0,013	-0,121
-431,905	383,520	0,012	0,018
-430,890	27,227	0,046	0,028
-429,876	-114,762	0,115	-0,016
-428,861	130,978	0,109	0,102
-427,846	752,453	-0,068	-0,135
-426,832	800,000	-0,059	-0,136
-425,817	-40,772	0,058	0,022
-424,803	27,374	-0,055	0,034
-423,788	4,833	-0,011	-0,006
-422,773	-39,051	-0,096	-0,037
-421,759	70,785	-0,033	-0,025
-420,744	-38,438	-0,031	-0,012
-419,730	366,431	-0,006	-0,008
-418,715	189,665	0,034	-0,037
-417,701	230,617	-0,035	-0,042
-416,686	402,848	-0,044	-0,068
-415,671	-200,000	-0,020	0,093
-414,657	-200,000	-0,008	0,030
-413,642	189,523	-0,058	-0,064
-412,628	50,207	0,030	0,021
-411,613	-129,224	-0,225	-0,023
-410,598	-200,000	0,030	0,116
-409,584	263,501	0,031	-0,040
-408,569	-200,000	-0,007	-0,060
-407,555	-200,000	-0,029	0,100
-406,540	197,447	-0,020	-0,022
-405,525	-31,985	-0,084	0,034
-404,511	-200,000	-0,005	-0,048
-403,496	-160,961	-0,106	-0,004
-402,482	800,000	0,074	0,153
-401,467	-200,000	0,015	0,138
-400,452	226,137	0,067	-0,079
-399,438	262,842	-0,061	-0,077
-398,423	263,960	-0,073	0,093
-397,409	-200,000	0,004	-0,041
-396,394	-87,695	-0,145	-0,032
-395,379	-200,000	-0,004	0,148
-394,365	-164,249	0,063	0,002
-393,350	85,775	0,105	0,084
-392,336	111,646	-0,108	0,095
-391,321	-132,455	-0,105	0,010
-390,306	392,892	0,019	-0,028
-389,292	203,662	-0,073	-0,082
-388,277	423,122	-0,041	0,064
-387,263	800,000	0,028	-0,076
-386,248	-44,660	0,158	0,057
-385,233	-200,000	0,019	0,070
-384,219	-183,278	-0,051	-0,001
-383,204	-200,000	0,026	-0,086
-382,190	768,099	-0,080	-0,159
-381,175	-200,000	0,015	0,050
-380,160	-39,660	-0,221	-0,084
-379,146	-65,818	0,163	0,047
-378,131	-200,000	-0,004	0,035
-377,117	418,262	-0,040	-0,063
-376,102	-175,840	-0,193	-0,004
-375,088	800,000	0,020	0,044
-374,073	-58,370	-0,068	0,022
-373,058	800,000	0,107	0,245
-372,044	-200,000	0,031	-0,178
-371,029	22,618	-0,161	0,096
-370,015	-200,000	0,001	0,052
-369,000	-128,102	-0,072	0,007
-367,985	-188,978	0,087	-0,001
-366,971	135,611	0,030	0,028
-365,956	107,569	0,084	0,073
-364,942	-87,232	0,078	-0,017
-363,927	-109,072	0,047	-0,007
-362,912	69,823	0,066	-0,050
-361,898	-44,245	-0,182	0,066
-360,883	487,641	-0,010	-0,017
-359,869	-42,855	-0,187	-0,069
-358,854	330,870	0,044	-0,062
-357,839	-38,842	0,103	-0,039
-356,825	147,739	0,042	0,041
-355,810	-200,000	-0,026	0,084
-354,796	43,141	-0,186	-0,123
-353,781	427,423	0,062	0,098
-352,766	-132,616	0,058	0,005
-351,752	9,676	0,119	0,065
-350,737	19,328	0,073	0,042
-349,723	-200,000	-0,018	0,073
-348,708	-200,000	0,014	0,049
-347,693	-38,862	0,036	-0,014
-346,679	64,903	-0,041	-0,030
-345,664	47,505	0,095	-0,064
-344,650	-27,135	-0,138	-0,058
-343,635	-66,766	0,128	0,037
-342,620	140,323	-0,066	0,064
-341,606	277,718	-0,062	0,080
-340,591	103,139	-0,063	-0,053
-339,577	368,167	0,009	-0,014
-338,562	800,000	0,024	-0,058
-337,548	206,994	-0,033	0,037
-336,533	389,931	0,076	-0,115
-335,518	-127,661	0,068	-0,007
-334,504	800,000	-0,031	0,076
-333,489	800,000	0,034	0,074
-332,475	-77,796	-0,036	-0,009
-331,460	48,780	-0,124	-0,085
-330,445	-164,115	-0,096	0,003
-329,431	90,657	0,075	-0,061
-328,416	-200,000	0,019	0,178
-327,402	-66,807	0,022	0,006
-326,387	800,000	0,038	0,115
-325,372	-200,000	0,027	-0,199
-324,358	800,000	-0,051	-0,103
-323,343	-109,907	-0,176	0,026
-322,329	-45,085	0,067	-0,024
-321,314	-200,000	0,021	0,090
-320,299	301,100	-0,032	0,043
-319,285	-89,535	-0,135	-0,029
-318,270	-200,000	0,041	-0,180
-317,256	296,782	-0,050	-0,066
-316,241	-200,000	0,027	-0,106
-315,226	-200,000	0,002	-0,053
-314,212	-55,160	0,077	0,025
-313,197	-200,000	0,000	0,064
-312,183	-92,266	-0,066	0,013
-311,168	-200,000	0,026	-0,087
-310,153	-200,000	-0,024	0,080
-309,139	242,904	0,056	-0,068
-308,124	-115,575	-0,058	0,008
-307,110	38,931	0,031	0,020
-306,095	-117,812	0,155	0,020
-305,080	-200,000	-0,047	0,157
-304,066	-200,000	0,038	-0,149
-303,051	107,603	0,065	-0,056
-302,037	-200,000	-0,035	-0,231
-301,022	94,657	0,067	-0,055
-300,008	-200,000	0,007	0,094
-298,993	191,218	-0,102	0,112
-297,978	-200,000	0,007	0,150
-296,964	-200,000	-0,046	-0,149
-295,949	166,528	0,035	0,036
-294,935	800,000	-0,008	-0,017
-293,920	223,786	-0,034	-0,040
-292,905	-92,876	0,086	-0,017
-291,891	800,000	-0,063	0,187
-290,876	-18,916	0,092	0,041
-289,862	373,698	-0,070	0,104
-288,847	200,723	0,025	0,028
-287,832	-85,548	0,075	-0,017
-286,818	263,983	-0,067	0,084
-285,803	800,000	-0,049	-0,104
-284,789	-81,232	0,050	-0,012
-283,774	-200,000	0,000	-0,005
-282,759	-200,000	0,027	-0,105
-281,745	-200,000	-0,001	-0,087
-280,730	362,179	-0,109	-0,159
-279,716	774,994	0,057	-0,113
-278,701	119,602	0,063	0,056
-277,686	-200,000	-0,000	0,069
-276,672	-200,000	-0,059	0,196
-275,657	339,112	0,035	0,050
-274,643	384,086	-0,122	0,183
-273,628	757,827	-0,048	0,094
-272,613	-200,000	0,011	-0,047
-271,599	-200,000	-0,007	-0,050
-270,584	800,000	0,003	0,008
-269,570	66,934	0,146	0,108
-268,555	-200,000	0,021	0,093
-267,540	-68,054	-0,113	0,032
-266,526	800,000	0,043	-0,098
-265,511	-80,485	-0,111	0,026
-264,497	-63,587	0,228	0,067
-263,482	800,000	-0,036	-0,103
-262,467	26,664	-0,050	0,030
-261,453	800,000	0,038	0,111
-260,438	103,590	-0,124	-0,105
-259,424	375,756	0,058	0,085
-258,409	11,455	-0,060	0,033
-257,395	109,940	0,066	-0,057
-256,380	-200,000	0,003	-0,062
-255,365	-200,000	-0,005	-0,121
-254,351	-110,256	0,125	-0,019
-253,336	65,187	-0,087	-0,063
-252,322	-118,973	-0,112	-0,014
-251,307	-200,000	-0,004	-0,066
-250,292	-122,517	-0,014	-0,002
-249,278	800,000	-0,013	-0,042
-248,263	72,885	-0,031	0,023
-247,249	800,000	-0,041	0,090
-246,234	129,802	0,023	-0,021
-245,219	-84,338	-0,083	-0,019
-244,205	-200,000	-0,005	-0,052
-243,190	800,000	-0,055	0,163
-242,176	-99,091	0,033	0,006
-241,161	-200,000	0,012	0,131
-240,146	-200,000	-0,008	0,049
-239,132	-144,622	0,032	0,002
-238,117	145,104	-0,081	-0,078
-237,103	-200,000	0,013	0,057
-236,088	-163,290	-0,105	0,004
-235,073	44,261	0,022	0,015
-234,059	-169,773	-0,042	-0,001
-233,044	-125,035	0,107	0,012
-232,030	75,128	-0,081	-0,061
-231,015	5,140	0,055	0,029
-230,000	-200,000	0,034	0,155
-228,986	185,003	-0,111	-0,119
-227,971	-19,164	0,096	0,043
-226,957	-200,000	0,007	0,036
-225,942	-11,718	0,020	-0,009
-224,927	-107,779	-0,068	-0,011
-223,913	57,578	-0,125	0,088
-222,898	-122,909	-0,084	-0,010
-221,884	-200,000	-0,004	0,076
-220,869	800,000	0,022	0,056
-219,855	-200,000	0,008	-0,034
-218,840	-200,000	0,005	0,043
-217,825	-200,000	0,004	-0,108
-216,811	354,405	-0,043	-0,062
-215,796	-185,908	0,043	0,000
-214,782	198,733	0,053	-0,059
-213,767	-12,399	0,070	0,033
-212,752	119,591	-0,021	-0,018
-211,738	-200,000	0,002	0,084
-210,723	-13,923	-0,075	-0,035
-209,709	800,000	-0,038	-0,089
-208,694	-52,483	-0,112	0,037
-207,679	366,070	0,089	0,129
-206,665	416,020	0,019	0,029
-205,650	342,655	0,032	0,045
-204,636	800,000	-0,042	0,115
-203,621	-3,561	0,049	0,025
-202,606	165,307	-0,079	0,081
-201,592	-200,000	0,031	0,140
-200,577	-63,279	0,095	0,028
-199,563	279,999	-0,049	0,064
-198,548	52,911	0,078	0,054
-197,533	79,036	0,020	0,016
-196,519	-200,000	0,035	-0,115
-195,504	268,363	-0,172	-0,218
-194,490	391,329	-0,019	-0,028
-193,475	79,837	0,067	0,052
-192,460	-50,244	0,139	-0,047
-191,446	362,272	-0,023	0,033
-190,431	-94,667	0,138	0,027
-189,417	-52,838	-0,009	0,003
-188,402	132,786	-0,043	-0,040
-187,387	307,234	-0,053	-0,071
-186,373	-200,000	-0,005	0,046
-185,358	411,301	-0,018	0,028
-184,344	800,000	-0,029	-0,064
-183,329	-200,000	0,016	-0,074
-182,315	18,114	0,056	0,032
-181,300	-200,000	-0,023	0,077
-180,285	229,234	-0,038	0,045
-179,271	-32,237	0,098	-0,039
-178,256	-141,765	0,038	-0,003
-177,242	-200,000	0,028	-0,150
-176,227	241,374	0,073	0,088
-175,212	-200,000	0,009	-0,065
-174,198	26,021	0,060	-0,036
-173,183	800,000	0,047	-0,134
-172,169	319,618	-0,026	0,035
-171,154	152,043	0,082	-0,080
-170,139	48,398	0,104	0,070
-169,125	800,000	-0,021	0,061
-168,110	178,498	0,050	0,053
-167,096	800,000	0,008	-0,020
-166,081	800,000	0,060	-0,170
-165,066	-200,000	0,018	-0,171
-164,052	389,149	0,021	-0,032
-163,037	574,718	0,010	-0,018
-162,023	-131,616	0,070	-0,007
-161,008	22,369	0,110	0,065
-159,993	-34,327	-0,052	-0,020
-158,979	-190,193	0,099	0,001
-157,964	705,064	0,062	-0,118
-156,950	-90,316	0,074	-0,015
-155,935	223,421	-0,074	0,086
-154,920	-200,000	-0,017	0,214
-153,906	363,518	0,022	0,032
-152,891	-33,624	-0,082	-0,032
-151,877	123,504	0,110	-0,100
-150,862	168,135	-0,126	-0,130
-149,847	800,000	-0,074	-0,191
-148,833	167,116	0,079	0,081
-147,818	111,237	0,022	-0,019
-146,804	-117,893	-0,075	-0,010
-145,789	110,848	0,078	-0,068
-144,775	129,433	-0,126	-0,116
-143,760	-133,693	-0,163	-0,014
-142,745	33,525	-0,135	0,085
-141,731	37,356	0,131	-0,084
-140,716	132,240	0,131	-0,121
-139,702	800,000	-0,043	0,123
-138,687	-145,905	0,174	0,011
-137,672	-200,000	0,006	0,058
-136,658	-3,705	-0,125	-0,063
-135,643	-76,918	-0,062	-0,016
-134,629	-54,167	-0,044	0,014
-133,614	8,807	0,176	-0,095
-132,599	457,119	-0,051	0,081
-131,585	205,596	-0,077	-0,086
-130,570	-114,284	-0,089	0,012
-129,556	36,023	0,087	0,055
-128,541	-200,000	-0,008	-0,194
-127,526	152,127	-0,031	-0,031
-126,512	116,364	0,031	-0,028
-125,497	-200,000	0,004	0,091
-124,483	586,680	0,075	0,133
-123,468	218,716	0,051	0,058
-122,453	-185,933	0,074	0,001
-121,439	-129,803	-0,150	-0,015
-120,424	-78,137	-0,103	-0,025
