DTS Sentinel unit serial number:	SN410029Multiplexer serial number:	ORYXHardware model number:	OX2-SRSoftware version number:	ORYX F/W v4,00 Oryx Data Collector v3.7.2.0data status	okinstallation	B3 Nyhavnadifferential loss correction	single-endedforward channel	channel 1reverse channel	N/Adate	2023/11/28time	18:37:30forward acquisition time	300,00reverse acquisition time	0,00gamma	499,1914k internal	0,3132k external	0,3132temperature offset calibration	1,0000default loss term (dB/km)	0,3820temperature slope calibration	1,0000multiplexer offset coefficient	1,0000multiplexer slope coefficient	1,0000fibre end	0,00T internal ref (°C)	7,47T ext. ref 1 (°C)	-7,31T ext. ref 2 (°C)	-7,45length (m)	temperature (°C)	Stokes	anti-Stokes-744,400	41,387	-0,212	-0,142
-743,385	543,194	-0,131	0,233
-742,371	-200,000	0,020	-0,273
-741,356	-200,000	-0,044	0,366
-740,342	-73,217	-0,200	-0,054
-739,327	-200,000	0,010	0,145
-738,312	200,353	-0,166	-0,189
-737,298	-200,000	0,048	0,229
-736,283	265,726	-0,189	-0,246
-735,269	-200,000	-0,023	0,307
-734,254	170,647	-0,193	-0,206
-733,239	-66,441	-0,184	0,054
-732,225	73,645	-0,158	-0,123
-731,210	-200,000	0,015	0,075
-730,196	526,482	0,043	-0,076
-729,181	137,516	0,026	0,026
-728,167	-200,000	-0,011	0,087
-727,152	443,447	0,051	0,083
-726,137	-75,190	0,066	-0,017
-725,123	22,332	-0,080	0,049
-724,108	800,000	0,035	0,104
-723,094	800,000	-0,024	-0,058
-722,079	115,072	0,074	-0,067
-721,064	-200,000	-0,002	0,088
-720,050	-200,000	-0,025	-0,104
-719,035	85,361	-0,072	-0,059
-718,021	14,466	0,073	-0,042
-717,006	305,941	-0,095	-0,132
-715,991	516,146	-0,055	-0,097
-714,977	-200,000	-0,013	-0,067
-713,962	112,702	-0,186	-0,167
-712,948	-187,776	0,163	-0,002
-711,933	-81,524	-0,058	0,014
-710,918	-200,000	-0,005	-0,055
-709,904	-119,848	-0,043	-0,005
-708,889	-61,968	-0,073	0,022
-707,875	-200,000	-0,052	-0,183
-706,860	-200,000	-0,003	-0,043
-705,845	525,566	0,031	0,055
-704,831	-200,000	-0,003	0,074
-703,816	-200,000	0,002	-0,036
-702,802	538,155	0,083	-0,147
-701,787	-200,000	-0,014	-0,060
-700,772	-200,000	-0,014	-0,132
-699,758	-9,741	-0,072	0,035
-698,743	-132,706	0,205	0,019
-697,729	-41,339	-0,189	-0,072
-696,714	167,058	-0,020	0,021
-695,699	-68,406	-0,082	0,023
-694,685	24,411	-0,144	-0,088
-693,670	-133,369	0,122	0,011
-692,656	279,392	-0,039	-0,051
-691,641	-75,007	0,035	-0,009
-690,627	147,057	0,114	0,114
-689,612	800,000	0,042	0,088
-688,597	-200,000	-0,001	-0,009
-687,583	-200,000	0,023	-0,244
-686,568	202,751	-0,050	-0,058
-685,554	-47,406	0,076	-0,027
-684,539	-124,583	0,081	0,009
-683,524	407,315	-0,073	0,115
-682,510	49,863	-0,021	0,015
-681,495	42,433	-0,045	0,030
-680,481	-200,000	-0,005	-0,111
-679,466	742,435	-0,104	-0,207
-678,451	800,000	-0,017	0,034
-677,437	800,000	-0,034	-0,103
-676,422	132,362	0,153	0,146
-675,408	-53,095	-0,078	0,026
-674,393	449,654	-0,040	0,066
-673,378	-121,403	-0,058	0,007
-672,364	800,000	0,053	-0,140
-671,349	-51,983	-0,045	-0,015
-670,335	367,325	0,066	0,099
-669,320	-142,922	-0,087	-0,006
-668,305	293,752	0,055	-0,075
-667,291	-88,415	-0,038	0,008
-666,276	-54,896	0,113	0,038
-665,262	-112,065	0,040	0,006
-664,247	800,000	0,041	-0,106
-663,232	-200,000	0,007	-0,027
-662,218	-17,944	0,149	-0,069
-661,203	58,477	-0,034	-0,025
-660,189	-200,000	-0,004	0,117
-659,174	-89,781	0,053	0,011
-658,159	-89,662	-0,090	-0,019
-657,145	-163,373	-0,169	-0,006
-656,130	800,000	-0,045	-0,113
-655,116	-124,131	-0,087	-0,010
-654,101	269,492	-0,027	-0,036
-653,086	233,241	0,026	0,031
-652,072	73,277	0,070	-0,054
-651,057	800,000	-0,007	0,018
-650,043	-126,298	-0,110	0,012
-649,028	-200,000	-0,005	-0,152
-648,014	800,000	-0,064	-0,138
-646,999	746,208	0,036	-0,072
-645,984	-200,000	-0,008	0,194
-644,970	-200,000	0,017	-0,065
-643,955	-60,365	-0,111	-0,035
-642,941	220,347	0,104	-0,124
-641,926	149,502	-0,053	-0,053
-640,911	-132,740	0,098	0,009
-639,897	-200,000	-0,001	-0,029
-638,882	26,101	-0,083	-0,051
-637,868	128,535	-0,022	-0,020
-636,853	-200,000	-0,001	-0,072
-635,838	535,775	-0,038	-0,068
-634,824	-129,978	-0,257	0,026
-633,809	288,520	0,107	-0,143
-632,795	-200,000	0,004	-0,145
-631,780	-57,705	-0,053	-0,017
-630,765	-181,421	-0,193	-0,003
-629,751	-150,041	-0,053	0,003
-628,736	-96,844	-0,113	0,022
-627,722	582,031	-0,033	0,061
-626,707	50,302	0,068	0,047
-625,692	800,000	-0,062	0,131
-624,678	75,392	0,123	-0,096
-623,663	-155,253	-0,092	-0,004
-622,649	-47,568	-0,064	-0,023
-621,634	296,974	-0,025	-0,034
-620,619	-80,024	0,053	-0,013
-619,605	101,818	0,056	-0,048
-618,590	393,660	0,100	0,154
-617,576	126,682	0,052	-0,048
-616,561	-68,954	-0,097	0,028
-615,546	-200,000	-0,002	-0,109
-614,532	431,656	0,092	-0,148
-613,517	100,108	0,096	0,082
-612,503	199,122	-0,089	-0,101
-611,488	54,790	0,053	0,038
-610,474	703,481	0,027	0,053
-609,459	-200,000	0,017	0,072
-608,444	-200,000	0,020	0,195
-607,430	800,000	-0,018	0,058
-606,415	-200,000	-0,015	-0,085
-605,401	-9,419	-0,046	-0,023
-604,386	196,544	-0,052	-0,059
-603,371	800,000	0,031	0,089
-602,357	800,000	0,044	-0,112
-601,342	37,401	-0,138	-0,090
-600,328	-200,000	0,001	-0,028
-599,313	-100,753	0,035	0,006
-598,298	-200,000	0,027	-0,182
-597,284	800,000	0,059	-0,153
-596,269	-138,680	-0,095	-0,008
-595,255	-53,592	0,066	0,022
-594,240	107,249	0,046	0,040
-593,225	6,289	0,089	0,049
-592,211	-200,000	-0,002	-0,144
-591,196	-112,419	-0,097	-0,014
-590,182	-22,044	0,009	0,004
-589,167	509,531	-0,023	-0,040
-588,152	-200,000	0,019	0,085
-587,138	-19,588	0,102	-0,046
-586,123	131,724	0,044	-0,042
-585,109	100,195	-0,124	-0,107
-584,094	702,211	0,062	-0,121
-583,079	57,008	-0,095	0,069
-582,065	800,000	0,002	-0,006
-581,050	340,385	0,094	-0,135
-580,036	-200,000	0,016	-0,060
-579,021	-200,000	0,023	0,093
-578,006	42,178	-0,075	-0,050
-576,992	92,151	0,121	0,101
-575,977	161,246	0,032	-0,033
-574,963	-200,000	0,026	0,148
-573,948	32,964	0,064	-0,041
-572,934	-27,357	-0,119	0,051
-571,919	135,456	0,108	-0,104
-570,904	-200,000	0,014	-0,119
-569,890	142,834	0,114	-0,112
-568,875	94,033	-0,023	-0,019
-567,861	-200,000	-0,047	-0,185
-566,846	-200,000	0,034	-0,142
-565,831	102,683	-0,062	-0,053
-564,817	-200,000	-0,013	-0,051
-563,802	481,354	-0,054	-0,092
-562,788	-55,481	-0,038	-0,013
-561,773	-200,000	-0,013	-0,045
-560,758	-200,000	0,003	0,172
-559,744	177,676	0,056	0,061
-558,729	-200,000	0,023	0,118
-557,715	98,480	-0,071	0,060
-556,700	8,537	-0,056	-0,031
-555,685	800,000	-0,014	0,039
-554,671	-7,642	0,109	0,054
-553,656	-141,668	0,100	0,007
-552,642	-200,000	0,008	-0,137
-551,627	153,100	-0,057	0,058
-550,612	253,961	-0,026	-0,033
-549,598	-39,810	-0,054	0,021
-548,583	233,713	-0,097	-0,118
-547,569	33,372	-0,082	0,052
-546,554	-200,000	0,024	0,122
-545,539	800,000	-0,028	0,077
-544,525	-137,431	-0,143	0,012
-543,510	800,000	-0,051	0,126
-542,496	800,000	-0,016	-0,043
-541,481	-94,289	-0,118	0,024
-540,466	-200,000	-0,019	0,064
-539,452	-157,573	0,101	0,004
-538,437	-14,441	0,196	-0,093
-537,423	-200,000	-0,017	0,110
-536,408	370,783	-0,033	-0,049
-535,393	369,124	-0,071	-0,106
-534,379	231,146	-0,126	-0,152
-533,364	-175,261	0,129	0,003
-532,350	479,465	0,019	0,031
-531,335	159,214	0,116	-0,119
-530,321	-15,219	0,147	0,069
-529,306	-200,000	0,007	-0,132
-528,291	-200,000	-0,009	-0,066
-527,277	318,394	0,021	0,030
-526,262	-200,000	0,004	-0,018
-525,248	-200,000	0,021	0,087
-524,233	-200,000	-0,005	0,077
-523,218	373,857	0,072	0,109
-522,204	225,831	0,041	0,049
-521,189	-124,020	-0,102	-0,012
-520,175	-200,000	-0,007	-0,068
-519,160	800,000	0,016	-0,039
-518,145	-200,000	0,008	-0,033
-517,131	-98,655	0,109	0,020
-516,116	-70,938	-0,037	0,010
-515,102	-200,000	0,001	0,052
-514,087	50,187	0,049	0,034
-513,072	281,142	-0,128	0,169
-512,058	-32,305	-0,114	-0,047
-511,043	466,440	-0,075	0,124
-510,029	-92,994	-0,060	-0,012
-509,014	-98,678	-0,074	-0,014
-507,999	-200,000	-0,008	0,042
-506,985	-87,406	-0,125	0,028
-505,970	-145,971	-0,065	0,004
-504,956	-88,050	0,041	-0,009
-503,941	-38,028	0,103	0,040
-502,926	56,342	0,044	0,032
-501,912	-85,866	0,044	0,010
-500,897	-4,672	-0,125	0,063
-499,883	-64,831	0,086	-0,026
-498,868	85,789	-0,066	-0,054
-497,853	-21,153	-0,062	-0,028
-496,839	-173,432	-0,185	-0,004
-495,824	12,632	0,156	-0,088
-494,810	-21,527	-0,099	-0,044
-493,795	-104,855	-0,057	-0,010
-492,781	250,452	-0,036	0,045
-491,766	-200,000	0,019	-0,168
-490,751	177,741	-0,032	-0,034
-489,737	-200,000	-0,002	-0,119
-488,722	72,113	0,175	0,134
-487,708	447,606	0,049	-0,079
-486,693	-83,394	0,054	0,013
-485,678	800,000	-0,031	0,077
-484,664	19,536	-0,041	-0,024
-483,649	-30,377	0,079	-0,033
-482,635	28,480	-0,173	-0,107
-481,620	-200,000	0,003	0,132
-480,605	-200,000	0,010	0,137
-479,591	800,000	0,049	-0,104
-478,576	-14,284	-0,050	-0,024
-477,562	800,000	0,039	-0,092
-476,547	800,000	-0,041	-0,121
-475,532	587,596	-0,047	0,086
-474,518	547,458	0,080	0,141
-473,503	-165,612	-0,078	0,002
-472,489	185,229	-0,046	0,050
-471,474	301,202	-0,108	0,146
-470,459	-108,136	0,059	-0,009
-469,445	197,931	0,062	-0,070
-468,430	-200,000	0,029	-0,103
-467,416	-159,665	0,113	0,005
-466,401	800,000	0,025	0,059
-465,386	449,458	0,033	-0,054
-464,372	-200,000	-0,028	-0,096
-463,357	33,290	-0,031	0,020
-462,343	-102,305	-0,084	0,015
-461,328	-200,000	0,043	-0,152
-460,313	-200,000	-0,020	-0,123
-459,299	33,807	0,111	0,071
-458,284	322,908	0,113	0,159
-457,270	-74,298	0,049	-0,013
-456,255	35,633	-0,022	0,014
-455,241	-72,289	-0,076	0,020
-454,226	-118,970	0,034	-0,004
-453,211	-23,130	0,102	0,045
-452,197	-0,193	-0,059	0,031
-451,182	-16,348	0,076	0,035
-450,168	800,000	-0,024	0,053
-449,153	141,777	-0,131	-0,128
-448,138	29,631	0,113	0,070
-447,124	800,000	-0,060	-0,151
-446,109	56,775	-0,093	-0,067
-445,095	-200,000	0,011	0,079
-444,080	-188,091	0,114	0,001
-443,065	-58,388	0,129	0,041
-442,051	800,000	-0,004	0,010
-441,036	800,000	-0,026	-0,060
-440,022	32,084	-0,186	-0,117
-439,007	-72,759	-0,208	0,056
-437,992	-55,579	0,015	-0,005
-436,978	800,000	0,022	0,057
-435,963	591,315	0,046	-0,083
-434,949	800,000	-0,033	-0,083
-433,934	765,978	0,043	-0,086
-432,919	-200,000	-0,009	-0,041
-431,905	550,642	-0,019	-0,034
-430,890	-25,452	0,038	0,016
-429,876	-200,000	-0,043	0,164
-428,861	800,000	0,040	-0,100
-427,846	-200,000	0,005	-0,037
-426,832	-178,394	-0,108	0,002
-425,817	800,000	0,016	-0,038
-424,803	-20,442	-0,156	-0,070
-423,788	-200,000	0,050	0,000
-422,773	-200,000	0,003	0,182
-421,759	326,361	0,041	-0,057
-420,744	251,724	-0,114	0,143
-419,730	800,000	0,039	0,121
-418,715	22,711	-0,228	-0,137
-417,701	-106,326	-0,037	-0,006
-416,686	-200,000	-0,003	0,091
-415,671	290,536	0,043	-0,057
-414,657	-45,451	0,073	0,026
-413,642	800,000	0,025	0,054
-412,628	-200,000	-0,005	-0,136
-411,613	35,038	-0,129	-0,083
-410,598	197,257	0,057	0,063
-409,584	75,574	-0,045	0,035
-408,569	50,711	-0,092	0,064
-407,555	265,860	0,108	0,139
-406,540	-79,334	-0,011	-0,003
-405,525	-200,000	0,004	-0,057
-404,511	46,719	0,054	-0,037
-403,496	88,606	0,092	-0,075
-402,482	-200,000	-0,019	-0,079
-401,467	151,494	0,051	-0,051
-400,452	-200,000	-0,001	0,041
-399,438	130,152	0,080	0,075
-398,423	52,745	-0,041	-0,029
-397,409	34,889	0,011	0,007
-396,394	148,310	0,042	0,041
-395,379	339,733	-0,097	-0,139
-394,365	262,473	0,083	0,105
-393,350	414,998	-0,027	0,042
-392,336	-200,000	0,026	0,104
-391,321	800,000	-0,018	-0,055
-390,306	42,830	0,050	-0,034
-389,292	-159,424	-0,093	0,004
-388,277	316,911	0,049	0,068
-387,263	590,625	0,033	0,060
-386,248	3,910	0,065	0,035
-385,233	-113,270	0,211	0,030
-384,219	622,569	-0,022	-0,041
-383,204	247,901	0,026	0,032
-382,190	222,505	0,065	-0,077
-381,175	346,778	-0,021	0,031
-380,160	376,994	0,022	-0,033
-379,146	-35,087	-0,053	-0,021
-378,131	-200,000	-0,002	0,135
-377,117	800,000	0,040	0,106
-376,102	-104,813	-0,071	-0,012
-375,088	223,457	-0,022	0,026
-374,073	-66,537	-0,070	-0,020
-373,058	33,339	0,063	0,040
-372,044	-200,000	-0,025	0,208
-371,029	800,000	0,051	0,148
-370,015	-200,000	0,007	0,057
-369,000	-72,144	-0,069	-0,019
-367,985	800,000	-0,030	0,061
-366,971	10,263	0,048	0,027
-365,956	-50,053	0,087	-0,030
-364,942	117,354	0,014	0,013
-363,927	800,000	0,042	0,113
-362,912	95,614	-0,028	0,023
-361,898	-168,645	-0,106	0,003
-360,883	43,060	0,172	-0,114
-359,869	257,476	-0,085	0,107
-358,854	337,002	-0,085	-0,121
-357,839	-31,120	0,123	0,051
-356,825	800,000	0,086	-0,205
-355,810	152,980	0,020	0,020
-354,796	47,129	0,058	-0,040
-353,781	-42,694	-0,160	-0,059
-352,766	201,064	-0,037	0,042
-351,752	-140,470	0,167	-0,013
-350,737	-45,183	-0,055	0,020
-349,723	21,698	-0,002	0,001
-348,708	-200,000	-0,010	0,091
-347,693	324,939	-0,049	0,069
-346,679	-152,798	-0,006	0,000
-345,664	161,723	0,068	-0,070
-344,650	289,728	-0,061	-0,081
-343,635	-200,000	-0,014	-0,058
-342,620	80,487	0,178	0,140
-341,606	-200,000	0,018	0,059
-340,591	-45,590	0,019	-0,007
-339,577	168,195	0,114	-0,119
-338,562	-200,000	-0,014	-0,054
-337,548	-165,856	-0,129	0,004
-336,533	800,000	0,056	0,150
-335,518	-200,000	0,003	0,134
-334,504	-200,000	-0,009	0,028
-333,489	102,306	-0,088	-0,075
-332,475	-200,000	0,011	0,127
-331,460	-200,000	0,005	-0,149
-330,445	377,860	-0,032	0,048
-329,431	54,840	0,075	-0,053
-328,416	-200,000	-0,026	0,234
-327,402	32,172	0,128	0,080
-326,387	381,671	0,058	-0,087
-325,372	800,000	0,010	0,027
-324,358	-22,493	0,039	-0,017
-323,343	-200,000	0,011	-0,043
-322,329	-60,781	-0,022	0,007
-321,314	420,430	-0,030	0,047
-320,299	-200,000	0,023	-0,107
-319,285	136,037	-0,051	0,048
-318,270	800,000	-0,047	-0,097
-317,256	-28,773	0,134	-0,056
-316,241	-21,836	-0,130	0,058
-315,226	-124,062	0,217	0,025
-314,212	158,718	0,028	0,028
-313,197	496,928	0,052	-0,087
-312,183	-200,000	0,019	0,117
-311,168	-200,000	-0,008	-0,049
-310,153	322,229	-0,070	-0,098
-309,139	217,220	-0,081	-0,095
-308,124	65,807	0,212	0,157
-307,110	386,956	0,023	0,035
-306,095	-200,000	-0,013	0,056
-305,080	365,631	-0,035	-0,052
-304,066	-117,013	0,143	0,019
-303,051	-131,933	-0,108	-0,010
-302,037	84,439	-0,055	0,044
-301,022	-200,000	0,007	-0,074
-300,008	235,997	0,056	0,068
-298,993	-20,264	0,127	0,057
-297,978	800,000	-0,039	0,113
-296,964	-60,663	-0,119	-0,037
-295,949	-200,000	0,005	-0,064
-294,935	-108,506	0,146	0,023
-293,920	167,751	0,047	0,049
-292,905	-20,865	0,033	0,015
-291,891	100,948	0,017	-0,015
-290,876	-200,000	-0,024	-0,107
-289,862	-130,075	0,158	0,016
-288,847	-200,000	-0,001	-0,031
-287,832	800,000	-0,009	0,023
-286,818	90,310	-0,024	-0,019
-285,803	279,024	0,174	0,227
-284,789	800,000	0,033	0,079
-283,774	-200,000	0,003	0,065
-282,759	188,680	0,080	0,087
-281,745	393,851	-0,063	0,096
-280,730	-200,000	0,004	0,026
-279,716	-101,319	-0,134	-0,024
-278,701	580,292	0,037	-0,067
-277,686	-98,351	-0,066	-0,012
-276,672	199,608	0,050	0,056
-275,657	436,685	0,057	0,090
-274,643	-9,478	-0,052	0,025
-273,628	-158,308	-0,104	-0,004
-272,613	12,801	-0,103	0,058
-271,599	21,676	0,051	0,030
-270,584	-78,734	0,044	0,011
-269,570	-49,200	0,044	-0,015
-268,555	740,876	-0,058	0,114
-267,540	800,000	-0,030	-0,064
-266,526	800,000	0,007	0,019
-265,511	-12,075	0,079	-0,037
-264,497	239,299	0,092	0,112
-263,482	127,658	0,033	-0,030
-262,467	5,086	0,044	0,024
-261,453	-157,979	0,078	0,003
-260,438	16,449	-0,117	-0,067
-259,424	-200,000	-0,005	-0,226
-258,409	-122,232	-0,038	0,005
-257,395	-83,148	0,081	0,019
-256,380	95,516	-0,085	0,070
-255,365	-82,640	0,058	0,014
-254,351	-74,150	0,030	0,008
-253,336	-88,143	-0,088	-0,019
-252,322	800,000	-0,016	0,036
-251,307	-200,000	-0,020	-0,118
-250,292	85,240	0,046	0,037
-249,278	61,614	-0,075	0,054
-248,263	610,738	0,036	0,066
-247,249	-5,749	0,091	-0,045
-246,234	22,848	-0,057	0,034
-245,219	105,036	-0,026	-0,023
-244,205	774,213	-0,062	-0,123
-243,190	10,330	-0,077	-0,043
-242,176	-150,678	-0,058	-0,003
-241,161	800,000	0,047	0,106
-240,146	-101,569	0,117	0,020
-239,132	-98,575	-0,171	-0,032
-238,117	-200,000	0,008	-0,087
-237,103	218,074	-0,027	0,031
-236,088	-85,895	0,043	0,010
-235,073	65,052	0,040	0,030
-234,059	131,095	0,147	0,138
-233,044	-200,000	-0,038	0,177
-232,030	102,079	-0,069	-0,059
-231,015	153,277	0,059	-0,059
-230,000	585,231	-0,040	-0,071
-228,986	-76,672	-0,091	-0,023
-227,971	458,507	0,049	0,080
-226,957	336,902	0,044	-0,062
-225,942	-106,754	0,023	0,004
-224,927	80,713	-0,110	-0,086
-223,913	-200,000	0,005	-0,062
-222,898	-133,575	-0,092	-0,008
-221,884	-200,000	-0,002	0,101
-220,869	37,025	-0,095	0,061
-219,855	229,356	0,099	0,118
-218,840	-125,947	0,074	-0,008
-217,825	6,219	-0,080	0,043
-216,811	-32,627	-0,146	0,059
-215,796	7,857	-0,075	-0,041
-214,782	800,000	0,027	0,081
-213,767	-129,099	0,076	0,008
-212,752	32,341	0,081	0,051
-211,738	-200,000	0,018	0,061
-210,723	-88,018	-0,108	-0,023
-209,709	-51,911	0,094	-0,032
-208,694	353,366	0,021	-0,031
-207,679	-200,000	-0,025	-0,144
-206,665	800,000	0,026	-0,063
-205,650	800,000	0,012	-0,029
-204,636	174,519	0,004	0,005
-203,621	140,221	-0,046	0,045
-202,606	265,053	-0,026	-0,033
-201,592	166,317	0,044	-0,045
-200,577	-200,000	-0,006	-0,087
-199,563	-200,000	0,011	0,047
-198,548	-46,294	-0,050	-0,018
-197,533	88,038	0,053	0,043
-196,519	238,405	-0,080	0,097
-195,504	-138,534	-0,218	-0,017
-194,490	11,580	0,047	0,026
-193,475	-200,000	0,028	-0,191
-192,460	800,000	-0,054	-0,115
-191,446	72,603	0,136	0,103
-190,431	-3,532	0,112	0,056
-189,417	-9,973	0,068	-0,033
-188,402	19,691	-0,058	0,034
-187,387	-200,000	-0,033	-0,139
-186,373	-200,000	0,013	-0,071
-185,358	-200,000	0,041	-0,144
-184,344	-44,162	-0,049	0,018
-183,329	-61,265	-0,113	0,034
-182,315	48,811	-0,013	0,009
-181,300	203,625	-0,041	0,046
-180,285	283,230	0,087	-0,114
-179,271	-200,000	-0,011	0,044
-178,256	-73,143	-0,117	0,031
-177,242	236,805	-0,037	0,045
-176,227	187,374	0,040	0,044
-175,212	217,344	-0,083	0,096
-174,198	-200,000	0,011	0,160
-173,183	25,022	-0,058	0,035
-172,169	81,567	-0,091	0,072
-171,154	800,000	0,039	-0,083
-170,139	-46,112	0,121	0,043
-169,125	800,000	0,029	0,069
-168,110	-200,000	0,010	0,086
-167,096	-200,000	0,021	0,141
-166,081	-161,246	0,155	-0,006
-165,066	221,209	-0,044	-0,051
-164,052	-200,000	0,018	-0,078
-163,037	-77,736	-0,126	0,031
-162,023	317,318	0,061	0,084
-161,008	-15,720	0,137	0,063
-159,993	-200,000	0,008	-0,073
-158,979	105,487	-0,126	-0,108
-157,964	52,377	-0,093	-0,065
-156,950	-92,822	-0,031	-0,006
-155,935	237,474	-0,062	-0,074
-154,920	206,041	-0,042	0,047
-153,906	23,144	0,115	0,068
-152,891	773,715	0,023	0,047
-151,877	-87,699	-0,093	-0,020
-150,862	-200,000	0,037	0,171
-149,847	-200,000	-0,010	-0,039
-148,833	-200,000	-0,021	0,156
-147,818	146,728	-0,017	0,017
-146,804	83,212	0,112	0,089
-145,789	25,179	0,055	-0,033
-144,775	-200,000	-0,028	0,124
-143,760	220,130	0,093	-0,108
-142,745	-200,000	0,002	-0,037
-141,731	755,384	0,051	-0,101
-140,716	538,609	0,086	0,149
-139,702	-133,449	0,145	0,013
-138,687	-200,000	0,020	0,070
-137,672	-200,000	0,014	-0,175
-136,658	-200,000	0,006	-0,041
-135,643	-72,740	-0,122	-0,032
-134,629	-200,000	0,025	-0,090
-133,614	237,946	0,081	0,098
-132,599	213,340	-0,128	0,147
-131,585	-35,173	0,083	0,033
-130,570	-200,000	0,012	-0,107
-129,556	-48,142	-0,070	0,024
-128,541	800,000	-0,031	-0,085
-127,526	-200,000	0,019	-0,099
-126,512	800,000	0,032	-0,067
-125,497	-28,053	-0,104	-0,044
-124,483	-200,000	0,014	-0,047
-123,468	800,000	-0,047	-0,094
-122,453	66,892	0,161	-0,119
-121,439	-131,712	0,033	-0,003
-120,424	80,577	-0,173	0,135
-119,410	211,872	0,077	0,088
