DTS Sentinel unit serial number:	SN410029Multiplexer serial number:	ORYXHardware model number:	OX2-SRSoftware version number:	ORYX F/W v4,00 Oryx Data Collector v3.7.2.0data status	okinstallation	B3 Nyhavnadifferential loss correction	single-endedforward channel	channel 1reverse channel	N/Adate	2023/11/28time	17:47:30forward acquisition time	300,00reverse acquisition time	0,00gamma	499,1914k internal	0,3161k external	0,3161temperature offset calibration	1,0000default loss term (dB/km)	0,3820temperature slope calibration	1,0000multiplexer offset coefficient	1,0000multiplexer slope coefficient	1,0000fibre end	0,00T internal ref (°C)	7,32T ext. ref 1 (°C)	-7,59T ext. ref 2 (°C)	-7,74length (m)	temperature (°C)	Stokes	anti-Stokes-744,400	238,163	-0,211	-0,258
-743,385	800,000	0,124	0,269
-742,371	193,392	-0,190	-0,212
-741,356	518,223	0,207	0,358
-740,342	800,000	-0,130	-0,289
-739,327	-200,000	0,030	0,276
-738,312	302,457	-0,210	-0,287
-737,298	-200,000	0,032	0,235
-736,283	369,600	-0,154	-0,231
-735,269	-200,000	0,100	0,330
-734,254	-200,000	-0,060	-0,273
-733,239	-15,326	-0,338	0,158
-732,225	215,004	-0,106	-0,124
-731,210	621,521	0,072	0,134
-730,196	-200,000	0,015	0,139
-729,181	21,469	-0,047	-0,028
-728,167	22,179	-0,091	0,054
-727,152	220,621	-0,075	0,089
-726,137	-200,000	-0,030	0,114
-725,123	-48,272	-0,118	0,042
-724,108	-47,106	-0,168	-0,060
-723,094	14,757	0,090	-0,052
-722,079	-53,512	-0,120	-0,040
-721,064	-77,186	-0,085	-0,022
-720,050	-200,000	0,014	0,058
-719,035	-200,000	0,020	0,078
-718,021	150,582	-0,058	0,058
-717,006	-78,267	-0,176	0,044
-715,991	-200,000	-0,008	-0,151
-714,977	324,495	-0,033	-0,047
-713,962	4,240	-0,045	-0,024
-712,948	735,647	0,027	0,054
-711,933	-77,396	-0,099	0,025
-710,918	-126,286	0,130	-0,014
-709,904	800,000	-0,067	-0,166
-708,889	-200,000	0,041	-0,134
-707,875	261,849	-0,099	-0,127
-706,860	800,000	0,051	-0,159
-705,845	-165,781	0,071	0,002
-704,831	-89,164	0,071	-0,015
-703,816	120,808	0,030	-0,028
-702,802	-17,193	0,145	-0,067
-701,787	-41,234	-0,021	-0,008
-700,772	800,000	0,028	-0,078
-699,758	-25,083	-0,211	-0,092
-698,743	-19,577	-0,034	0,015
-697,729	-200,000	-0,007	0,040
-696,714	-200,000	0,001	0,047
-695,699	647,146	-0,064	-0,120
-694,685	800,000	0,030	-0,088
-693,670	290,787	-0,067	-0,089
-692,656	761,100	-0,048	0,095
-691,641	-88,079	-0,111	-0,024
-690,627	-70,036	0,127	-0,035
-689,612	-200,000	0,029	-0,154
-688,597	115,482	-0,064	-0,057
-687,583	70,281	-0,169	-0,128
-686,568	2,341	0,105	-0,056
-685,554	-128,408	-0,066	0,007
-684,539	258,764	0,029	0,037
-683,524	737,857	-0,050	0,098
-682,510	197,854	0,082	-0,092
-681,495	167,268	0,022	-0,023
-680,481	43,237	-0,031	0,021
-679,466	632,277	-0,049	-0,091
-678,451	-200,000	-0,029	-0,220
-677,437	167,372	0,014	-0,015
-676,422	695,000	-0,052	0,102
-675,408	305,049	0,031	0,043
-674,393	316,424	0,029	-0,041
-673,378	-200,000	0,013	0,069
-672,364	-155,488	-0,093	-0,004
-671,349	-20,848	0,110	0,049
-670,335	224,828	-0,047	0,056
-669,320	-200,000	0,029	-0,142
-668,305	-105,773	-0,051	0,008
-667,291	-200,000	-0,018	0,074
-666,276	800,000	-0,045	-0,096
-665,262	90,219	-0,039	-0,032
-664,247	3,013	0,126	-0,067
-663,232	800,000	-0,026	-0,083
-662,218	17,225	0,143	0,083
-661,203	326,139	0,031	0,044
-660,189	-200,000	-0,009	-0,071
-659,174	-123,553	0,176	-0,020
-658,159	244,545	-0,041	0,051
-657,145	32,809	-0,090	-0,057
-656,130	24,878	0,044	0,027
-655,116	74,817	0,042	-0,033
-654,101	-200,000	0,019	0,089
-653,086	387,960	-0,087	0,132
-652,072	-77,040	0,073	0,019
-651,057	120,548	-0,146	-0,134
-650,043	442,192	-0,028	-0,045
-649,028	-12,876	-0,030	0,015
-648,014	79,862	0,071	0,056
-646,999	375,588	0,028	0,042
-645,984	-200,000	0,031	-0,121
-644,970	800,000	0,030	-0,069
-643,955	-61,805	-0,048	0,015
-642,941	263,337	0,088	0,113
-641,926	-200,000	-0,002	0,108
-640,911	-102,209	0,046	-0,008
-639,897	-200,000	-0,002	0,087
-638,882	575,983	0,060	-0,108
-637,868	-115,210	-0,028	0,004
-636,853	326,376	-0,071	-0,100
-635,838	265,882	-0,084	0,108
-634,824	-92,472	0,129	0,026
-633,809	-156,290	0,092	0,004
-632,795	-200,000	-0,002	-0,020
-631,780	553,328	0,029	-0,051
-630,765	-200,000	0,034	-0,177
-629,751	489,600	-0,026	0,044
-628,736	-164,910	-0,021	0,001
-627,722	-200,000	-0,004	-0,091
-626,707	-200,000	0,031	-0,155
-625,692	9,850	0,010	0,005
-624,678	-200,000	-0,002	-0,096
-623,663	-200,000	-0,003	0,057
-622,649	-171,167	-0,100	0,002
-621,634	524,401	0,060	-0,104
-620,619	-200,000	-0,041	-0,162
-619,605	-200,000	-0,021	-0,078
-618,590	-200,000	0,016	-0,137
-617,576	303,300	0,028	-0,038
-616,561	47,566	-0,088	-0,060
-615,546	-181,904	-0,153	-0,002
-614,532	315,338	-0,012	0,016
-613,517	195,163	-0,042	-0,047
-612,503	13,959	0,085	-0,048
-611,488	800,000	-0,036	0,109
-610,474	221,824	-0,033	-0,039
-609,459	659,051	-0,086	0,163
-608,444	-88,981	0,064	-0,014
-607,430	-200,000	0,007	-0,043
-606,415	800,000	0,034	-0,093
-605,401	-143,242	0,053	-0,004
-604,386	-200,000	-0,013	0,075
-603,371	-200,000	-0,024	0,187
-602,357	-72,536	0,157	-0,042
-601,342	275,577	-0,080	-0,105
-600,328	779,880	0,026	-0,053
-599,313	-59,412	0,120	-0,038
-598,298	-143,209	-0,137	0,010
-597,284	800,000	-0,042	0,105
-596,269	-138,167	0,047	-0,004
-595,255	-200,000	0,012	-0,045
-594,240	-200,000	0,009	0,050
-593,225	-168,671	-0,146	0,004
-592,211	77,819	-0,127	-0,099
-591,196	-13,135	-0,098	-0,046
-590,182	165,680	0,058	0,060
-589,167	-146,149	0,044	0,003
-588,152	147,280	0,072	0,071
-587,138	-37,943	0,088	-0,034
-586,123	280,320	-0,092	-0,121
-585,109	-143,218	-0,028	0,002
-584,094	32,773	-0,029	-0,018
-583,079	-155,648	-0,108	-0,005
-582,065	-200,000	-0,025	0,083
-581,050	80,393	0,055	0,043
-580,036	-94,449	-0,107	-0,021
-579,021	-2,496	0,046	-0,024
-578,006	-7,206	0,059	0,029
-576,992	57,833	0,064	0,046
-575,977	-160,651	-0,053	-0,002
-574,963	47,455	0,181	0,123
-573,948	-200,000	0,041	0,136
-572,934	800,000	0,043	-0,103
-571,919	340,781	-0,071	-0,101
-570,904	-21,251	0,044	-0,020
-569,890	800,000	0,021	-0,044
-568,875	-200,000	-0,002	0,125
-567,861	249,517	0,008	-0,010
-566,846	114,281	0,068	0,060
-565,831	-133,055	-0,123	-0,011
-564,817	-200,000	-0,002	-0,091
-563,802	-200,000	-0,009	0,071
-562,788	-55,145	0,059	0,019
-561,773	-170,714	-0,067	0,002
-560,758	800,000	-0,009	0,020
-559,744	-165,061	0,056	-0,002
-558,729	-200,000	0,006	-0,046
-557,715	-200,000	0,010	-0,135
-556,700	1,195	-0,072	-0,038
-555,685	202,757	0,046	0,052
-554,671	97,085	-0,046	-0,039
-553,656	-200,000	0,007	0,083
-552,642	-200,000	-0,004	-0,016
-551,627	-97,142	-0,160	0,030
-550,612	-155,443	-0,073	-0,003
-549,598	-144,150	-0,125	-0,008
-548,583	33,894	-0,089	0,057
-547,569	-200,000	0,002	0,107
-546,554	-2,866	0,030	0,015
-545,539	60,585	0,114	-0,082
-544,525	578,607	-0,019	0,035
-543,510	37,978	-0,035	0,022
-542,496	243,754	-0,111	0,136
-541,481	-200,000	-0,024	0,153
-540,466	-52,592	-0,037	0,012
-539,452	-200,000	-0,000	-0,017
-538,437	-200,000	0,019	0,065
-537,423	-108,958	0,098	0,015
-536,408	485,070	0,049	-0,082
-535,393	-134,618	-0,137	-0,012
-534,379	-75,915	0,157	-0,040
-533,364	104,457	-0,089	0,077
-532,350	-36,291	0,057	0,023
-531,335	-66,337	0,112	0,032
-530,321	-122,765	-0,091	0,011
-529,306	-200,000	0,002	-0,012
-528,291	335,087	0,072	-0,103
-527,277	-35,953	0,054	-0,021
-526,262	800,000	-0,048	-0,117
-525,248	185,134	0,013	0,015
-524,233	152,099	-0,035	0,035
-523,218	-200,000	0,033	0,147
-522,204	-70,670	-0,062	-0,017
-521,189	260,414	-0,032	-0,040
-520,175	-200,000	-0,005	-0,047
-519,160	-22,354	0,048	-0,021
-518,145	0,661	0,102	0,053
-517,131	54,805	0,044	-0,031
-516,116	86,015	-0,037	-0,030
-515,102	800,000	-0,024	-0,063
-514,087	393,130	-0,059	-0,089
-513,072	71,609	-0,093	-0,070
-512,058	-34,047	-0,070	-0,028
-511,043	800,000	-0,028	-0,066
-510,029	623,434	0,052	0,096
-509,014	-10,477	0,098	0,047
-507,999	-49,827	0,043	0,015
-506,985	-101,607	0,116	0,020
-505,970	800,000	0,042	-0,117
-504,956	-153,463	-0,086	-0,004
-503,941	365,515	0,043	-0,063
-502,926	-80,187	0,068	-0,016
-501,912	-174,830	-0,034	-0,001
-500,897	59,227	0,161	0,116
-499,883	-124,190	-0,173	-0,019
-498,868	800,000	0,041	0,088
-497,853	524,425	-0,072	-0,124
-496,839	-50,924	0,030	-0,010
-495,824	-200,000	0,016	0,106
-494,810	-49,376	0,086	-0,030
-493,795	324,985	0,079	0,110
-492,781	82,968	-0,090	0,071
-491,766	-43,380	-0,151	0,055
-490,751	39,277	-0,056	-0,036
-489,737	-112,478	0,065	-0,009
-488,722	-86,300	0,049	0,011
-487,708	-200,000	0,016	0,114
-486,693	-63,380	-0,035	0,010
-485,678	-82,893	0,160	-0,037
-484,664	424,329	0,077	-0,121
-483,649	27,335	-0,160	-0,098
-482,635	-100,083	-0,145	-0,026
-481,620	80,571	-0,093	0,073
-480,605	-10,408	0,067	0,032
-479,591	-69,404	-0,063	0,018
-478,576	800,000	-0,055	-0,171
-477,562	-35,876	0,125	-0,049
-476,547	45,520	-0,100	-0,067
-475,532	-14,789	-0,121	-0,056
-474,518	-85,514	0,028	0,006
-473,503	-200,000	0,011	0,111
-472,489	-195,392	0,069	0,000
-471,474	-85,556	-0,094	0,021
-470,459	-200,000	0,021	0,090
-469,445	800,000	-0,009	0,018
-468,430	-17,276	-0,145	0,066
-467,416	160,513	-0,047	-0,048
-466,401	-200,000	0,001	0,050
-465,386	48,842	0,087	0,059
-464,372	-137,383	-0,053	-0,004
-463,357	39,799	-0,147	-0,096
-462,343	30,658	0,083	-0,051
-461,328	800,000	-0,045	-0,119
-460,313	-18,548	0,040	-0,018
-459,299	-200,000	0,012	0,091
-458,284	-14,466	0,048	-0,022
-457,270	-200,000	-0,006	0,034
-456,255	185,884	-0,113	-0,122
-455,241	800,000	0,027	0,069
-454,226	-96,786	-0,074	0,014
-453,211	-55,535	0,109	-0,035
-452,197	-36,851	-0,038	0,015
-451,182	516,210	-0,020	-0,034
-450,168	-43,938	0,110	-0,040
-449,153	800,000	0,056	-0,137
-448,138	623,238	-0,065	-0,121
-447,124	253,116	0,118	0,147
-446,109	-200,000	0,002	0,136
-445,095	232,258	0,064	0,076
-444,080	674,273	0,027	-0,052
-443,065	-200,000	0,039	0,146
-442,051	334,965	0,070	-0,099
-441,036	800,000	0,071	-0,145
-440,022	197,266	-0,170	-0,189
-439,007	800,000	0,044	0,141
-437,992	-33,147	-0,195	0,078
-436,978	-200,000	-0,017	0,216
-435,963	340,075	0,056	0,080
-434,949	-140,104	-0,018	-0,001
-433,934	-21,772	0,112	0,049
-432,919	-90,623	-0,074	-0,015
-431,905	800,000	0,028	-0,086
-430,890	56,222	0,095	0,067
-429,876	316,615	-0,023	0,032
-428,861	-200,000	0,097	0,000
-427,846	-200,000	-0,008	0,050
-426,832	-71,000	0,052	0,014
-425,817	64,070	0,057	-0,042
-424,803	-139,934	0,118	0,009
-423,788	-200,000	0,007	0,100
-422,773	72,237	-0,042	0,032
-421,759	36,312	0,080	-0,051
-420,744	800,000	-0,030	0,064
-419,730	-98,689	-0,170	-0,031
-418,715	-85,739	-0,021	-0,005
-417,701	206,019	0,087	-0,098
-416,686	-200,000	-0,013	0,110
-415,671	184,698	-0,035	-0,037
-414,657	53,252	0,085	0,059
-413,642	648,251	0,064	0,119
-412,628	394,773	0,017	0,026
-411,613	14,917	0,049	0,028
-410,598	619,841	-0,068	-0,125
-409,584	42,643	0,062	0,041
-408,569	-200,000	0,002	-0,067
-407,555	121,765	0,082	0,074
-406,540	-70,359	0,056	-0,015
-405,525	569,741	-0,056	-0,100
-404,511	-200,000	0,030	-0,114
-403,496	-43,526	-0,081	0,029
-402,482	-200,000	0,005	0,107
-401,467	120,407	0,024	-0,022
-400,452	-200,000	0,050	0,187
-399,438	-200,000	-0,004	-0,065
-398,423	-52,597	0,076	-0,025
-397,409	136,698	0,067	0,063
-396,394	215,197	0,071	-0,082
-395,379	-85,009	-0,139	0,031
-394,365	-11,432	0,063	-0,030
-393,350	514,146	0,019	0,032
-392,336	34,603	0,056	-0,035
-391,321	448,127	-0,073	-0,117
-390,306	136,848	0,134	-0,127
-389,292	442,884	-0,128	-0,204
-388,277	-200,000	-0,002	-0,115
-387,263	11,846	-0,068	0,038
-386,248	-195,154	-0,129	-0,001
-385,233	-31,322	-0,060	0,024
-384,219	-20,246	-0,204	-0,091
-383,204	255,120	0,047	0,059
-382,190	800,000	-0,036	-0,094
-381,175	569,607	-0,036	0,063
-380,160	301,931	0,051	0,069
-379,146	794,826	-0,047	0,094
-378,131	-58,084	-0,019	0,006
-377,117	38,694	-0,071	0,046
-376,102	3,041	0,075	0,039
-375,088	125,620	-0,067	-0,061
-374,073	800,000	0,020	-0,046
-373,058	-1,248	0,034	0,017
-372,044	-200,000	-0,011	0,077
-371,029	159,945	0,097	-0,098
-370,015	55,960	-0,146	0,102
-369,000	800,000	0,026	0,072
-367,985	800,000	-0,016	0,036
-366,971	150,129	-0,051	0,050
-365,956	-200,000	0,052	0,181
-364,942	800,000	0,027	-0,071
-363,927	786,054	-0,037	-0,075
-362,912	88,525	0,095	0,076
-361,898	-200,000	-0,029	0,095
-360,883	-88,488	-0,125	0,027
-359,869	275,155	0,094	0,122
-358,854	416,397	0,066	0,103
-357,839	-49,877	0,228	0,078
-356,825	-88,642	0,078	-0,017
-355,810	178,554	-0,012	-0,013
-354,796	-200,000	0,043	0,156
-353,781	-63,457	-0,053	0,016
-352,766	444,669	-0,039	0,063
-351,752	-21,978	-0,023	-0,010
-350,737	236,669	-0,014	-0,016
-349,723	102,397	0,083	0,070
-348,708	191,056	0,051	-0,056
-347,693	-200,000	-0,020	-0,084
-346,679	-200,000	-0,006	-0,118
-345,664	-72,808	-0,037	-0,010
-344,650	-200,000	-0,036	0,205
-343,635	11,413	0,028	0,016
-342,620	-200,000	-0,021	0,078
-341,606	-131,172	0,124	-0,012
-340,591	-106,586	-0,046	-0,007
-339,577	-38,207	-0,154	0,059
-338,562	-200,000	0,021	0,083
-337,548	178,938	-0,040	-0,043
-336,533	127,927	0,120	0,110
-335,518	-200,000	0,021	-0,066
-334,504	245,345	-0,041	-0,050
-333,489	106,382	0,082	-0,070
-332,475	213,360	-0,097	-0,111
-331,460	312,952	-0,060	-0,082
-330,445	-94,831	0,037	0,007
-329,431	399,678	-0,039	0,060
-328,416	286,097	0,082	0,107
-327,402	800,000	-0,028	0,083
-326,387	37,769	-0,038	0,024
-325,372	5,999	-0,111	-0,059
-324,358	12,163	0,088	-0,049
-323,343	-200,000	-0,017	-0,100
-322,329	800,000	-0,046	-0,128
-321,314	800,000	0,089	-0,199
-320,299	-200,000	0,004	0,056
-319,285	10,845	0,159	0,088
-318,270	-200,000	0,037	-0,138
-317,256	235,085	0,034	0,040
-316,241	-51,932	-0,041	-0,014
-315,226	800,000	-0,015	-0,039
-314,212	81,635	0,068	0,053
-313,197	144,189	0,048	0,046
-312,183	30,669	0,140	0,087
-311,168	637,538	-0,054	-0,100
-310,153	66,151	-0,076	0,056
-309,139	-200,000	-0,001	-0,213
-308,124	-11,448	0,004	0,002
-307,110	-173,908	0,040	0,001
-306,095	-200,000	0,022	0,151
-305,080	416,008	-0,028	0,043
-304,066	800,000	-0,010	0,023
-303,051	800,000	-0,077	-0,213
-302,037	-200,000	0,011	-0,085
-301,022	-25,575	-0,080	-0,034
-300,008	-200,000	0,011	0,054
-298,993	20,314	0,122	0,071
-297,978	175,834	0,082	-0,086
-296,964	-109,274	-0,090	0,014
-295,949	171,587	-0,052	-0,054
-294,935	-200,000	0,012	-0,092
-293,920	-200,000	0,014	-0,068
-292,905	86,871	0,039	-0,031
-291,891	479,640	-0,064	-0,105
-290,876	-180,341	-0,093	0,001
-289,862	800,000	0,068	0,150
-288,847	-200,000	0,027	-0,088
-287,832	219,070	-0,112	-0,130
-286,818	-102,569	0,074	0,013
-285,803	-200,000	-0,010	0,063
-284,789	-12,494	0,094	0,044
-283,774	-200,000	0,009	-0,077
-282,759	800,000	-0,023	-0,061
-281,745	62,186	0,078	-0,056
-280,730	-162,578	-0,181	0,006
-279,716	58,156	0,138	-0,098
-278,701	-200,000	0,001	-0,053
-277,686	-125,094	0,129	-0,014
-276,672	-200,000	0,001	0,088
-275,657	800,000	0,016	-0,041
-274,643	-200,000	0,004	0,044
-273,628	-123,845	-0,034	-0,004
-272,613	208,210	0,034	-0,038
-271,599	-200,000	-0,029	0,100
-270,584	-136,428	-0,114	0,009
-269,570	800,000	0,058	-0,153
-268,555	-48,382	-0,095	0,033
-267,540	12,273	-0,094	-0,052
-266,526	-200,000	0,001	-0,068
-265,511	114,757	0,087	-0,077
-264,497	-116,191	-0,176	-0,023
-263,482	29,953	0,122	0,075
-262,467	344,746	0,062	-0,089
-261,453	-155,507	0,076	0,003
-260,438	48,783	-0,129	-0,087
-259,424	800,000	-0,003	0,009
-258,409	-200,000	0,009	-0,121
-257,395	150,185	0,020	0,019
-256,380	143,515	-0,047	-0,046
-255,365	-200,000	0,001	0,011
-254,351	-45,808	0,071	-0,025
-253,336	-164,147	-0,107	0,003
-252,322	800,000	-0,046	0,096
-251,307	48,840	-0,044	0,030
-250,292	-200,000	0,006	0,042
-249,278	-100,293	0,101	0,018
-248,263	-125,452	0,054	-0,006
-247,249	800,000	0,038	0,091
-246,234	26,572	-0,089	-0,054
-245,219	800,000	-0,038	-0,087
-244,205	-29,468	0,133	0,055
-243,190	595,724	-0,030	0,053
-242,176	-200,000	-0,022	0,126
-241,161	-200,000	0,008	-0,064
-240,146	197,407	-0,041	0,045
-239,132	-200,000	-0,005	-0,105
-238,117	4,652	-0,134	-0,071
-237,103	-143,636	0,091	-0,006
-236,088	129,279	0,056	0,052
-235,073	-94,760	0,126	0,025
-234,059	-40,674	0,095	0,035
-233,044	-2,934	0,105	0,053
-232,030	800,000	0,039	-0,081
-231,015	-200,000	-0,017	0,074
-230,000	-200,000	0,006	-0,087
-228,986	-26,203	-0,068	0,029
-227,971	800,000	-0,068	0,210
-226,957	-200,000	-0,023	0,077
-225,942	-200,000	0,015	-0,081
-224,927	794,838	0,029	-0,058
-223,913	-64,330	-0,129	-0,038
-222,898	-43,513	-0,063	-0,023
-221,884	-16,881	-0,006	0,003
-220,869	800,000	-0,002	-0,004
-219,855	324,586	0,068	0,093
-218,840	27,244	0,104	0,063
-217,825	800,000	-0,058	-0,120
-216,811	-102,334	-0,056	-0,010
-215,796	510,072	0,050	-0,085
-214,782	-200,000	-0,017	0,107
-213,767	-200,000	-0,008	0,168
-212,752	800,000	-0,065	0,135
-211,738	280,721	-0,009	-0,011
-210,723	558,701	0,020	-0,034
-209,709	32,292	-0,110	0,068
-208,694	493,530	0,047	0,077
-207,679	182,691	-0,069	-0,073
-206,665	54,092	-0,074	0,051
-205,650	52,900	0,057	0,040
-204,636	-200,000	-0,002	0,150
-203,621	687,081	-0,026	0,049
-202,606	580,351	-0,047	-0,084
-201,592	-200,000	0,028	-0,161
-200,577	-200,000	-0,012	-0,120
-199,563	-200,000	0,002	0,065
-198,548	-54,004	-0,103	0,034
-197,533	-133,836	0,168	0,015
-196,519	-17,973	-0,105	-0,047
-195,504	545,094	-0,039	0,068
-194,490	407,423	0,061	0,094
-193,475	21,746	-0,090	0,053
-192,460	-117,870	-0,050	0,006
-191,446	-167,521	0,112	-0,003
-190,431	-200,000	0,001	0,061
-189,417	-200,000	0,022	0,106
-188,402	800,000	0,046	-0,094
-187,387	147,133	0,072	-0,070
-186,373	-77,067	-0,189	-0,047
-185,358	800,000	0,025	-0,059
-184,344	194,138	0,033	0,036
-183,329	299,005	0,060	0,080
-182,315	-200,000	0,040	-0,147
-181,300	800,000	0,037	-0,103
-180,285	-16,578	-0,216	0,098
-179,271	-200,000	0,003	-0,099
-178,256	800,000	-0,025	0,068
-177,242	-50,175	0,080	-0,027
-176,227	-200,000	0,026	0,105
-175,212	364,081	0,025	0,036
-174,198	262,839	-0,038	-0,048
-173,183	232,159	-0,054	-0,064
-172,169	-200,000	-0,005	-0,016
-171,154	46,332	-0,101	-0,068
-170,139	800,000	0,039	0,119
-169,125	34,427	0,111	0,070
-168,110	800,000	-0,034	0,098
-167,096	-200,000	-0,005	0,072
-166,081	1,092	-0,185	0,095
-165,066	800,000	-0,016	0,038
-164,052	15,651	0,176	0,099
-163,037	-200,000	-0,014	-0,094
-162,023	-88,347	0,077	-0,016
-161,008	40,401	-0,059	-0,038
-159,993	90,887	0,040	-0,032
-158,979	800,000	-0,023	-0,072
-157,964	298,975	-0,049	0,065
-156,950	559,511	-0,072	0,125
-155,935	229,026	0,051	-0,060
-154,920	63,830	0,091	-0,065
-153,906	-200,000	0,002	0,036
-152,891	800,000	-0,015	0,047
-151,877	-158,710	-0,028	0,001
-150,862	350,748	0,068	0,097
-149,847	257,932	-0,097	-0,120
-148,833	370,563	0,053	-0,077
-147,818	108,654	0,020	0,017
-146,804	-22,280	0,095	0,041
-145,789	415,456	0,050	-0,077
-144,775	-143,254	0,020	-0,001
-143,760	205,190	-0,073	-0,082
-142,745	571,741	0,015	-0,026
-141,731	264,397	0,071	-0,089
-140,716	-200,000	0,006	-0,105
-139,702	44,160	0,087	0,058
-138,687	264,359	-0,058	-0,072
-137,672	12,364	0,192	-0,106
-136,658	-151,996	-0,060	0,003
-135,643	464,465	-0,075	0,122
-134,629	-200,000	0,015	-0,073
-133,614	-123,500	0,077	-0,009
-132,599	369,934	-0,036	0,052
-131,585	-200,000	-0,001	0,099
-130,570	-200,000	-0,007	-0,047
-129,556	45,031	-0,049	0,033
-128,541	60,004	-0,129	-0,092
-127,526	-200,000	-0,024	0,102
-126,512	381,493	-0,040	-0,060
-125,497	-200,000	0,009	0,037
-124,483	-200,000	0,000	0,004
-123,468	-53,493	-0,105	-0,034
-122,453	800,000	-0,018	0,039
-121,439	137,821	-0,130	0,123
-120,424	-115,370	-0,104	0,014
-119,410	20,019	0,006	-0,003
