DTS Sentinel unit serial number:	SN410029Multiplexer serial number:	ORYXHardware model number:	OX2-SRSoftware version number:	ORYX F/W v4,00 Oryx Data Collector v3.7.2.0data status	okinstallation	B3 Nyhavnadifferential loss correction	single-endedforward channel	channel 1reverse channel	N/Adate	2023/11/28time	18:32:30forward acquisition time	300,00reverse acquisition time	0,00gamma	499,1914k internal	0,3136k external	0,3136temperature offset calibration	1,0000default loss term (dB/km)	0,3820temperature slope calibration	1,0000multiplexer offset coefficient	1,0000multiplexer slope coefficient	1,0000fibre end	0,00T internal ref (°C)	7,44T ext. ref 1 (°C)	-7,31T ext. ref 2 (°C)	-7,45length (m)	temperature (°C)	Stokes	anti-Stokes-744,400	-70,267	-0,364	-0,102
-743,385	-200,000	-0,056	0,231
-742,371	-200,000	-0,067	-0,313
-741,356	-200,000	0,022	0,204
-740,342	800,000	-0,058	-0,170
-739,327	184,181	-0,116	0,128
-738,312	800,000	-0,101	-0,232
-737,298	-200,000	-0,093	0,349
-736,283	238,470	-0,239	-0,295
-735,269	-200,000	0,034	0,300
-734,254	203,656	-0,240	-0,276
-733,239	-125,403	-0,269	0,030
-732,225	481,193	-0,090	-0,152
-731,210	-200,000	0,031	0,251
-730,196	71,499	0,017	0,013
-729,181	-200,000	-0,006	-0,020
-728,167	-59,842	-0,061	0,019
-727,152	800,000	-0,052	-0,108
-726,137	-70,267	-0,090	0,025
-725,123	63,581	-0,137	-0,102
-724,108	-200,000	0,002	-0,084
-723,094	68,376	-0,168	-0,128
-722,079	-72,813	-0,183	0,050
-721,064	246,509	-0,068	0,085
-720,050	-169,257	0,154	0,004
-719,035	800,000	0,023	0,054
-718,021	-38,914	-0,153	-0,060
-717,006	-200,000	-0,016	-0,163
-715,991	754,932	0,036	-0,072
-714,977	-200,000	0,012	0,055
-713,962	-200,000	-0,011	-0,036
-712,948	-172,382	-0,058	0,001
-711,933	16,925	0,087	0,051
-710,918	-200,000	0,022	-0,084
-709,904	800,000	-0,056	-0,124
-708,889	8,489	-0,132	-0,073
-707,875	-200,000	-0,002	0,031
-706,860	-200,000	-0,002	-0,137
-705,845	475,854	0,008	-0,014
-704,831	173,034	0,038	-0,040
-703,816	800,000	-0,026	0,060
-702,802	7,999	-0,159	-0,088
-701,787	178,142	-0,054	-0,058
-700,772	-200,000	0,016	-0,168
-699,758	-80,609	0,174	-0,043
-698,743	-71,718	-0,080	-0,022
-697,729	213,285	-0,030	0,036
-696,714	-200,000	-0,001	0,143
-695,699	-40,199	-0,088	-0,034
-694,685	-200,000	-0,021	-0,091
-693,670	-200,000	-0,029	-0,141
-692,656	-0,084	0,026	-0,014
-691,641	215,019	-0,024	0,028
-690,627	368,385	-0,076	0,115
-689,612	-200,000	0,002	0,032
-688,597	-48,693	0,200	-0,071
-687,583	-174,332	0,046	-0,001
-686,568	-200,000	0,000	0,006
-685,554	94,061	-0,038	-0,032
-684,539	-118,569	0,103	0,013
-683,524	-179,525	0,135	-0,002
-682,510	800,000	-0,057	-0,127
-681,495	127,534	-0,021	-0,020
-680,481	-200,000	0,020	-0,078
-679,466	-9,837	-0,042	-0,021
-678,451	-200,000	0,013	-0,201
-677,437	-20,721	-0,058	-0,026
-676,422	29,716	-0,010	0,006
-675,408	4,678	0,118	-0,064
-674,393	-200,000	0,002	-0,131
-673,378	-200,000	0,010	-0,090
-672,364	-125,242	0,072	0,008
-671,349	2,490	0,087	-0,046
-670,335	800,000	-0,045	-0,103
-669,320	-200,000	-0,031	0,153
-668,305	-200,000	-0,004	0,029
-667,291	-200,000	-0,005	-0,066
-666,276	-8,441	-0,095	-0,047
-665,262	-9,872	-0,122	-0,060
-664,247	-147,398	0,097	-0,006
-663,232	-7,036	-0,082	-0,041
-662,218	-200,000	0,024	0,172
-661,203	45,819	0,088	-0,060
-660,189	51,692	0,101	0,071
-659,174	129,132	-0,104	0,098
-658,159	143,757	-0,073	0,072
-657,145	800,000	-0,035	-0,080
-656,130	-200,000	0,002	-0,107
-655,116	-176,293	0,053	0,001
-654,101	-25,968	0,083	0,036
-653,086	-35,021	-0,028	-0,011
-652,072	-200,000	0,004	0,032
-651,057	-200,000	0,007	-0,077
-650,043	-200,000	0,028	0,117
-649,028	-37,182	0,097	0,038
-648,014	-132,247	0,053	0,005
-646,999	800,000	-0,039	-0,097
-645,984	-123,223	-0,094	-0,011
-644,970	234,391	-0,107	-0,130
-643,955	758,169	0,014	-0,027
-642,941	800,000	0,018	-0,037
-641,926	473,740	-0,043	-0,072
-640,911	-79,080	0,046	-0,011
-639,897	446,451	-0,065	0,105
-638,882	102,300	-0,035	-0,031
-637,868	206,305	0,014	-0,016
-636,853	-200,000	-0,010	-0,090
-635,838	174,711	0,060	-0,064
-634,824	-125,413	-0,086	0,010
-633,809	23,784	0,128	-0,078
-632,795	-162,184	-0,120	0,004
-631,780	-200,000	0,013	-0,129
-630,765	-68,540	-0,137	-0,039
-629,751	72,239	-0,098	0,075
-628,736	28,272	0,042	-0,026
-627,722	207,087	-0,013	0,015
-626,707	-47,812	-0,046	0,016
-625,692	800,000	0,028	-0,063
-624,678	-200,000	0,002	0,035
-623,663	48,893	0,043	-0,030
-622,649	-15,671	-0,108	-0,051
-621,634	-56,537	-0,088	-0,029
-620,619	800,000	0,051	-0,151
-619,605	-200,000	0,000	-0,089
-618,590	-127,213	0,065	-0,007
-617,576	-144,508	-0,129	-0,009
-616,561	-200,000	0,004	0,152
-615,546	659,382	-0,062	-0,117
-614,532	-13,336	-0,214	-0,102
-613,517	108,852	-0,040	0,035
-612,503	-117,879	0,032	-0,004
-611,488	376,089	0,068	-0,102
-610,474	3,936	-0,011	-0,006
-609,459	61,256	-0,034	-0,025
-608,444	-100,311	0,105	0,019
-607,430	-60,469	0,057	0,018
-606,415	207,603	-0,067	-0,078
-605,401	83,938	0,049	-0,039
-604,386	277,802	0,092	-0,121
-603,371	5,118	-0,132	0,072
-602,357	60,706	0,121	-0,089
-601,342	-200,000	-0,022	-0,082
-600,328	-131,677	-0,139	0,013
-599,313	82,068	-0,106	-0,085
-598,298	-56,668	-0,090	-0,029
-597,284	197,642	-0,042	-0,047
-596,269	221,689	0,026	0,030
-595,255	305,062	-0,085	0,117
-594,240	800,000	-0,006	0,018
-593,225	-38,254	-0,219	-0,085
-592,211	114,599	-0,073	0,066
-591,196	-43,012	0,041	0,015
-590,182	800,000	-0,023	0,052
-589,167	800,000	-0,064	0,153
-588,152	195,293	-0,015	0,016
-587,138	-200,000	-0,018	0,077
-586,123	433,021	-0,063	-0,101
-585,109	51,078	0,089	-0,062
-584,094	27,181	-0,015	0,009
-583,079	-200,000	-0,034	-0,163
-582,065	-32,393	0,110	0,045
-581,050	11,466	0,160	-0,090
-580,036	551,522	0,064	-0,113
-579,021	-200,000	0,005	-0,092
-578,006	42,021	-0,098	-0,066
-576,992	225,206	-0,029	-0,034
-575,977	34,473	-0,096	-0,062
-574,963	352,557	0,085	0,124
-573,948	-200,000	0,005	-0,059
-572,934	-128,435	0,123	0,013
-571,919	-200,000	-0,021	-0,087
-570,904	-47,296	-0,054	0,019
-569,890	493,909	-0,053	0,090
-568,875	-136,524	0,081	0,007
-567,861	594,046	-0,086	0,158
-566,846	1,916	0,126	0,067
-565,831	24,025	-0,074	-0,045
-564,817	-91,515	0,075	-0,016
-563,802	-147,668	-0,098	0,006
-562,788	266,666	0,028	0,036
-561,773	114,697	-0,060	-0,054
-560,758	138,200	0,079	0,076
-559,744	-200,000	-0,009	-0,055
-558,729	32,197	-0,056	-0,036
-557,715	76,134	-0,061	-0,048
-556,700	11,890	-0,065	0,036
-555,685	-200,000	0,025	0,086
-554,671	-200,000	0,008	-0,108
-553,656	-144,708	0,101	0,007
-552,642	231,746	-0,032	-0,039
-551,627	540,356	-0,077	0,136
-550,612	90,178	-0,042	-0,035
-549,598	90,293	0,077	0,064
-548,583	36,311	0,032	-0,021
-547,569	-200,000	0,015	-0,072
-546,554	-95,112	0,134	0,026
-545,539	-200,000	-0,005	0,141
-544,525	-3,458	-0,036	0,019
-543,510	-54,341	-0,065	0,022
-542,496	-200,000	0,001	-0,066
-541,481	800,000	-0,078	-0,244
-540,466	800,000	-0,043	-0,138
-539,452	123,070	0,074	0,068
-538,437	-67,766	0,040	0,011
-537,423	-128,290	0,096	0,010
-536,408	-31,913	0,125	0,051
-535,393	-62,796	0,025	-0,008
-534,379	206,885	-0,064	-0,074
-533,364	106,987	0,013	0,011
-532,350	51,044	0,135	0,094
-531,335	55,720	-0,071	-0,051
-530,321	153,279	0,066	-0,066
-529,306	-200,000	-0,003	-0,106
-528,291	-18,299	-0,125	-0,057
-527,277	-79,605	-0,061	0,015
-526,262	170,287	-0,111	0,117
-525,248	-200,000	0,007	0,161
-524,233	-200,000	-0,012	0,163
-523,218	-148,780	-0,092	-0,005
-522,204	-200,000	-0,002	-0,038
-521,189	451,513	0,060	-0,097
-520,175	44,927	-0,086	0,058
-519,160	800,000	0,069	0,142
-518,145	-48,977	0,132	0,046
-517,131	-21,019	0,174	0,078
-516,116	-108,216	0,165	0,026
-515,102	347,455	0,025	-0,036
-514,087	800,000	0,045	0,130
-513,072	-200,000	0,045	-0,164
-512,058	800,000	0,044	-0,130
-511,043	-91,378	0,066	-0,014
-510,029	-31,923	0,051	-0,021
-509,014	52,335	-0,069	0,048
-507,999	0,920	-0,069	0,036
-506,985	-139,950	-0,180	-0,014
-505,970	377,277	0,019	-0,028
-504,956	-86,293	-0,058	-0,013
-503,941	-108,919	-0,071	-0,011
-502,926	-53,009	-0,121	0,041
-501,912	74,423	-0,029	0,023
-500,897	6,652	-0,044	0,024
-499,883	59,294	-0,130	0,094
-498,868	305,042	-0,042	-0,058
-497,853	4,895	-0,186	-0,100
-496,839	-16,972	0,125	-0,058
-495,824	-200,000	0,032	0,118
-494,810	180,348	0,059	0,064
-493,795	108,922	0,024	0,021
-492,781	276,383	0,044	-0,058
-491,766	2,272	0,039	0,020
-490,751	576,447	-0,071	-0,128
-489,737	21,976	-0,167	0,100
-488,722	194,713	-0,043	0,048
-487,708	365,694	-0,050	-0,075
-486,693	-61,518	0,217	0,067
-485,678	293,993	-0,066	-0,088
-484,664	800,000	-0,038	-0,101
-483,649	-200,000	0,010	0,036
-482,635	-140,314	0,130	0,010
-481,620	308,278	0,036	-0,050
-480,605	145,261	0,045	-0,044
-479,591	-200,000	0,036	-0,148
-478,576	363,580	0,020	0,030
-477,562	-49,525	0,084	-0,029
-476,547	343,039	-0,031	0,044
-475,532	-38,406	0,048	-0,019
-474,518	30,085	-0,029	-0,018
-473,503	-173,839	0,089	0,002
-472,489	-171,697	0,051	0,001
-471,474	800,000	-0,030	0,079
-470,459	-200,000	-0,038	0,178
-469,445	-200,000	0,015	-0,070
-468,430	33,688	-0,049	-0,031
-467,416	588,727	-0,045	-0,081
-466,401	-200,000	0,005	-0,017
-465,386	541,483	-0,071	0,125
-464,372	283,544	0,091	0,121
-463,357	-11,823	-0,010	0,005
-462,343	-155,199	-0,065	0,003
-461,328	163,017	-0,023	0,024
-460,313	-200,000	-0,017	0,130
-459,299	-59,733	0,130	-0,041
-458,284	27,526	0,118	0,073
-457,270	136,691	-0,134	-0,128
-456,255	100,033	-0,187	-0,159
-455,241	92,847	-0,043	-0,035
-454,226	-200,000	0,009	-0,068
-453,211	220,631	0,068	-0,080
-452,197	800,000	0,016	0,047
-451,182	-6,592	-0,154	-0,077
-450,168	10,956	-0,045	-0,025
-449,153	-67,431	-0,199	0,057
-448,138	-82,104	-0,041	0,010
-447,124	-200,000	-0,016	-0,089
-446,109	119,734	-0,071	0,064
-445,095	-25,564	0,100	0,043
-444,080	474,309	0,066	0,110
-443,065	-200,000	0,031	0,108
-442,051	-23,026	0,072	0,032
-441,036	-1,392	-0,049	-0,025
-440,022	-64,703	-0,110	0,033
-439,007	-200,000	0,007	-0,065
-437,992	-111,280	0,090	0,013
-436,978	413,802	0,120	0,187
-435,963	661,342	0,027	-0,051
-434,949	-200,000	0,000	0,022
-433,934	108,219	-0,136	-0,119
-432,919	-200,000	0,009	0,032
-431,905	-24,876	-0,153	-0,066
-430,890	120,434	-0,080	0,073
-429,876	800,000	-0,004	-0,013
-428,861	800,000	0,040	-0,124
-427,846	-56,985	0,067	0,022
-426,832	-200,000	-0,029	-0,253
-425,817	-185,615	0,158	-0,002
-424,803	38,535	-0,076	0,050
-423,788	17,966	0,199	-0,116
-422,773	800,000	-0,032	0,079
-421,759	-109,959	0,062	-0,009
-420,744	-179,417	-0,092	0,001
-419,730	-46,387	-0,081	-0,029
-418,715	-200,000	-0,001	-0,050
-417,701	800,000	-0,022	0,049
-416,686	-26,292	0,050	-0,021
-415,671	67,875	0,054	0,041
-414,657	772,548	-0,064	-0,128
-413,642	-58,038	-0,109	0,035
-412,628	-200,000	-0,007	0,128
-411,613	514,327	0,028	0,048
-410,598	-64,658	0,099	-0,029
-409,584	800,000	0,050	0,107
-408,569	800,000	0,054	-0,111
-407,555	-65,028	0,067	0,020
-406,540	32,596	-0,095	0,060
-405,525	-200,000	-0,014	-0,055
-404,511	800,000	0,017	-0,039
-403,496	231,502	0,063	-0,076
-402,482	-200,000	0,006	0,075
-401,467	-200,000	-0,017	0,070
-400,452	800,000	-0,038	0,094
-399,438	161,526	-0,061	0,063
-398,423	15,379	0,092	0,053
-397,409	-182,654	-0,048	-0,001
-396,394	-128,540	-0,123	0,013
-395,379	-93,995	0,174	-0,035
-394,365	-49,083	0,105	-0,037
-393,350	-13,315	0,063	-0,030
-392,336	313,184	0,083	0,114
-391,321	-21,235	0,114	0,051
-390,306	281,055	-0,119	0,157
-389,292	585,692	-0,030	-0,054
-388,277	-19,206	-0,090	-0,041
-387,263	-148,906	0,139	-0,008
-386,248	313,910	0,113	-0,157
-385,233	-162,574	0,077	0,003
-384,219	-200,000	0,038	-0,138
-383,204	-0,507	0,024	0,012
-382,190	-140,635	-0,067	0,005
-381,175	8,641	0,085	0,047
-380,160	328,328	0,076	0,107
-379,146	507,524	0,023	0,039
-378,131	77,167	0,099	0,077
-377,117	135,718	-0,073	-0,070
-376,102	-200,000	0,013	-0,102
-375,088	-179,951	-0,108	0,002
-374,073	180,085	0,038	0,041
-373,058	-200,000	0,048	0,166
-372,044	-157,862	0,062	0,003
-371,029	-200,000	0,007	-0,059
-370,015	-136,097	-0,034	0,003
-369,000	21,472	-0,052	0,031
-367,985	680,411	0,061	-0,116
-366,971	775,279	0,022	0,045
-365,956	144,888	-0,010	-0,010
-364,942	-150,522	-0,188	-0,010
-363,927	-59,833	0,068	0,021
-362,912	800,000	-0,012	-0,031
-361,898	156,451	-0,062	0,062
-360,883	391,256	0,091	-0,138
-359,869	267,962	0,033	0,042
-358,854	-200,000	0,029	0,145
-357,839	-78,286	-0,041	-0,010
-356,825	-17,244	-0,104	0,048
-355,810	399,225	-0,096	0,148
-354,796	77,873	0,042	-0,033
-353,781	-200,000	-0,003	-0,114
-352,766	-200,000	0,006	0,057
-351,752	17,773	-0,072	0,042
-350,737	453,259	0,041	0,066
-349,723	-200,000	-0,014	0,074
-348,708	224,604	-0,025	-0,029
-347,693	-42,926	-0,007	0,003
-346,679	-151,239	0,026	-0,001
-345,664	772,977	0,102	-0,204
-344,650	-47,017	-0,102	0,036
-343,635	800,000	0,031	0,073
-342,620	109,372	0,080	0,070
-341,606	-200,000	0,011	0,135
-340,591	-23,444	-0,127	-0,055
-339,577	72,213	0,018	-0,013
-338,562	-128,846	0,086	-0,009
-337,548	-45,643	0,046	0,017
-336,533	-178,776	0,065	-0,001
-335,518	-200,000	-0,003	-0,048
-334,504	164,473	0,034	0,035
-333,489	-200,000	-0,006	-0,052
-332,475	-200,000	-0,004	0,127
-331,460	178,464	0,102	0,108
-330,445	-48,826	-0,026	0,009
-329,431	-20,563	0,176	0,079
-328,416	236,015	0,074	0,090
-327,402	-200,000	-0,006	0,074
-326,387	-200,000	-0,020	0,118
-325,372	-200,000	-0,017	0,088
-324,358	-53,999	-0,039	0,013
-323,343	679,360	-0,036	-0,069
-322,329	800,000	-0,019	0,041
-321,314	-200,000	0,008	-0,072
-320,299	154,874	0,083	-0,083
-319,285	104,449	-0,052	0,045
-318,270	122,752	-0,028	-0,026
-317,256	-62,793	-0,149	-0,045
-316,241	79,715	-0,147	0,115
-315,226	27,568	0,018	0,011
-314,212	800,000	0,045	-0,097
-313,197	-200,000	0,017	0,084
-312,183	23,675	0,073	-0,044
-311,168	800,000	-0,061	-0,151
-310,153	-200,000	-0,022	-0,139
-309,139	-200,000	0,000	-0,159
-308,124	-70,206	0,058	0,016
-307,110	-200,000	0,019	0,075
-306,095	-121,196	0,111	0,013
-305,080	544,325	0,024	-0,043
-304,066	29,447	-0,154	-0,095
-303,051	-0,250	0,108	-0,056
-302,037	251,241	0,084	-0,104
-301,022	-200,000	0,035	0,131
-300,008	800,000	0,048	0,104
-298,993	511,060	-0,119	0,202
-297,978	-200,000	0,007	-0,132
-296,964	-200,000	0,004	-0,093
-295,949	168,717	-0,088	-0,092
-294,935	-131,897	0,018	-0,002
-293,920	111,383	0,106	0,093
-292,905	378,795	-0,055	-0,083
-291,891	146,769	0,087	0,085
-290,876	159,021	0,029	0,030
-289,862	450,992	-0,093	0,151
-288,847	-200,000	-0,004	-0,170
-287,832	-200,000	0,001	0,018
-286,818	-123,759	0,083	-0,009
-285,803	-200,000	-0,036	0,122
-284,789	-200,000	0,025	0,108
-283,774	800,000	0,046	0,128
-282,759	-200,000	0,015	0,091
-281,745	205,254	0,051	0,057
-280,730	312,267	-0,034	-0,047
-279,716	-47,796	-0,128	-0,045
-278,701	109,854	0,020	0,017
-277,686	-9,165	0,152	0,074
-276,672	-200,000	-0,028	0,124
-275,657	-123,302	0,024	-0,003
-274,643	463,281	0,034	0,056
-273,628	271,574	-0,033	0,042
-272,613	40,703	-0,140	0,092
-271,599	-154,797	0,208	0,010
-270,584	-129,342	-0,103	-0,010
-269,570	-200,000	0,004	-0,033
-268,555	-200,000	-0,015	0,080
-267,540	800,000	0,029	-0,060
-266,526	-40,821	-0,095	0,036
-265,511	-45,793	0,063	-0,022
-264,497	-16,790	-0,054	-0,025
-263,482	727,880	0,069	0,136
-262,467	562,076	-0,075	0,132
-261,453	17,566	0,051	0,029
-260,438	758,433	0,040	-0,080
-259,424	-200,000	0,009	0,105
-258,409	-164,550	0,041	0,001
-257,395	14,066	0,072	-0,041
-256,380	-113,824	0,128	0,018
-255,365	34,455	-0,114	-0,073
-254,351	109,496	0,095	-0,083
-253,336	-52,249	0,017	0,006
-252,322	-92,696	-0,089	-0,018
-251,307	-200,000	0,005	0,020
-250,292	-200,000	-0,015	0,127
-249,278	102,805	0,105	0,089
-248,263	800,000	0,035	0,088
-247,249	-200,000	0,013	0,084
-246,234	-122,759	-0,045	-0,005
-245,219	453,323	0,024	-0,038
-244,205	-200,000	0,014	-0,119
-243,190	-200,000	-0,003	-0,121
-242,176	521,168	0,104	0,177
-241,161	173,568	0,084	0,088
-240,146	411,981	0,072	0,112
-239,132	696,053	-0,084	-0,162
-238,117	-200,000	0,016	-0,090
-237,103	800,000	-0,041	-0,106
-236,088	-109,270	0,085	-0,013
-235,073	41,942	0,058	0,038
-234,059	-115,197	0,067	-0,009
-233,044	-200,000	0,015	-0,088
-232,030	800,000	-0,033	0,078
-231,015	176,427	-0,119	-0,126
-230,000	-121,262	0,063	-0,008
-228,986	-65,758	-0,025	0,007
-227,971	-33,908	-0,115	0,046
-226,957	471,221	0,045	0,073
-225,942	-68,078	0,052	0,015
-224,927	204,488	0,017	-0,019
-223,913	-26,455	-0,096	-0,041
-222,898	-26,072	0,018	0,007
-221,884	-2,229	-0,084	-0,043
-220,869	-151,237	-0,090	-0,005
-219,855	45,479	0,075	-0,050
-218,840	448,238	-0,064	0,102
-217,825	-87,221	-0,062	0,014
-216,811	44,440	-0,058	-0,039
-215,796	79,429	-0,041	-0,032
-214,782	-59,307	0,107	-0,033
-213,767	-124,847	0,073	0,008
-212,752	210,803	-0,043	0,049
-211,738	41,912	0,103	0,068
-210,723	-9,357	-0,017	0,008
-209,709	-18,961	-0,028	0,013
-208,694	-146,844	-0,128	0,008
-207,679	-35,727	0,110	-0,043
-206,665	-200,000	-0,010	0,117
-205,650	399,876	0,069	-0,105
-204,636	-90,335	0,203	-0,043
-203,621	-3,175	-0,088	0,044
-202,606	-49,386	-0,106	-0,037
-201,592	-200,000	-0,012	-0,071
-200,577	-101,746	-0,113	0,020
-199,563	-91,261	0,092	0,019
-198,548	800,000	0,033	0,073
-197,533	-200,000	0,028	-0,107
-196,519	402,966	-0,091	0,140
-195,504	-117,713	0,050	0,007
-194,490	80,288	-0,025	0,019
-193,475	11,368	-0,074	-0,041
-192,460	34,490	0,019	0,012
-191,446	-82,610	0,172	0,040
-190,431	-66,336	0,068	-0,020
-189,417	-200,000	-0,002	-0,124
-188,402	378,122	-0,034	-0,051
-187,387	-200,000	-0,021	-0,089
-186,373	21,120	0,118	-0,069
-185,358	147,986	-0,022	0,022
-184,344	-167,261	-0,012	0,000
-183,329	145,280	0,123	0,119
-182,315	800,000	-0,020	0,040
-181,300	712,521	-0,050	-0,097
-180,285	-200,000	-0,003	-0,038
-179,271	130,307	-0,107	0,100
-178,256	-200,000	-0,010	-0,146
-177,242	-147,542	0,164	0,010
-176,227	180,021	-0,042	0,045
-175,212	4,550	-0,060	-0,032
-174,198	716,098	-0,026	-0,050
-173,183	-115,943	-0,125	-0,017
-172,169	258,636	0,054	0,068
-171,154	64,285	0,106	0,077
-170,139	293,457	-0,033	0,044
-169,125	-48,084	0,061	-0,021
-168,110	50,517	-0,018	-0,012
-167,096	525,362	0,018	0,030
-166,081	270,632	-0,063	-0,081
-165,066	-200,000	0,010	-0,135
-164,052	97,176	-0,138	-0,115
-163,037	187,468	0,058	-0,063
-162,023	-200,000	0,005	-0,046
-161,008	759,706	-0,075	0,148
-159,993	-10,986	-0,024	0,012
-158,979	-200,000	0,019	0,071
-157,964	680,275	0,032	0,062
-156,950	2,599	-0,077	0,040
-155,935	346,018	0,044	-0,063
-154,920	800,000	0,058	0,149
-153,906	18,273	0,124	-0,072
-152,891	-46,619	-0,271	0,096
-151,877	19,760	0,055	-0,032
-150,862	-189,379	-0,020	-0,000
-149,847	255,540	-0,079	0,098
-148,833	-38,307	0,082	-0,031
-147,818	-153,773	0,075	-0,004
-146,804	222,314	-0,043	0,050
-145,789	47,312	-0,066	-0,045
-144,775	-200,000	-0,046	-0,167
-143,760	-200,000	-0,004	-0,137
-142,745	-200,000	-0,005	0,065
-141,731	-117,386	-0,099	0,013
-140,716	-200,000	0,003	0,108
-139,702	-200,000	-0,014	-0,094
-138,687	800,000	0,010	-0,029
-137,672	403,571	-0,042	-0,064
-136,658	121,419	-0,075	-0,068
-135,643	421,361	-0,020	0,032
-134,629	800,000	-0,050	-0,155
-133,614	-74,983	0,119	0,031
-132,599	95,186	-0,074	0,061
-131,585	-200,000	0,004	-0,062
-130,570	-200,000	0,021	-0,120
-129,556	-148,011	0,068	0,004
-128,541	-31,705	0,104	0,042
-127,526	108,454	-0,078	0,067
-126,512	89,907	0,060	0,049
-125,497	800,000	0,042	0,125
-124,483	236,183	-0,124	0,149
-123,468	-200,000	0,000	-0,094
-122,453	-23,834	-0,065	-0,028
-121,439	-53,088	-0,033	-0,011
-120,424	420,091	-0,033	0,051
-119,410	-200,000	-0,004	0,016
