DTS Sentinel unit serial number:	SN410029Multiplexer serial number:	ORYXHardware model number:	OX2-SRSoftware version number:	ORYX F/W v4,00 Oryx Data Collector v3.7.2.0data status	okinstallation	B3 Nyhavnadifferential loss correction	single-endedforward channel	channel 1reverse channel	N/Adate	2023/11/28time	15:37:30forward acquisition time	300,00reverse acquisition time	0,00gamma	499,1914k internal	0,3188k external	0,3188temperature offset calibration	1,0000default loss term (dB/km)	0,3820temperature slope calibration	1,0000multiplexer offset coefficient	1,0000multiplexer slope coefficient	1,0000fibre end	0,00T internal ref (°C)	7,27T ext. ref 1 (°C)	-7,63T ext. ref 2 (°C)	-7,80length (m)	temperature (°C)	Stokes	anti-Stokes-744,400	177,095	-0,200	-0,213
-743,385	798,634	0,108	0,219
-742,371	800,000	-0,094	-0,233
-741,356	800,000	0,063	0,181
-740,342	-200,000	-0,021	-0,270
-739,327	42,391	-0,156	0,104
-738,312	448,850	-0,219	-0,354
-737,298	800,000	-0,119	0,262
-736,283	505,534	-0,168	-0,285
-735,269	-200,000	-0,072	0,320
-734,254	244,129	-0,155	-0,191
-733,239	-123,474	-0,187	-0,021
-732,225	-200,000	-0,044	-0,279
-731,210	225,445	0,121	0,143
-730,196	378,425	-0,070	-0,105
-729,181	800,000	-0,031	-0,099
-728,167	311,088	-0,031	-0,043
-727,152	-43,399	-0,051	0,019
-726,137	141,675	-0,053	0,052
-725,123	800,000	-0,006	-0,014
-724,108	193,683	-0,096	-0,107
-723,094	800,000	0,015	-0,041
-722,079	-149,113	-0,108	-0,006
-721,064	-22,728	-0,093	0,041
-720,050	520,276	0,070	-0,120
-719,035	-72,459	-0,102	0,027
-718,021	92,031	-0,162	-0,133
-717,006	-14,528	-0,134	-0,063
-715,991	403,171	-0,054	-0,082
-714,977	78,090	-0,095	-0,074
-713,962	-131,023	-0,035	-0,003
-712,948	62,418	0,089	-0,065
-711,933	-200,000	-0,013	0,098
-710,918	108,635	-0,117	-0,102
-709,904	-55,176	-0,067	-0,022
-708,889	340,611	-0,128	-0,183
-707,875	-59,924	-0,156	-0,048
-706,860	17,330	0,130	-0,075
-705,845	139,326	0,085	0,082
-704,831	-50,553	0,081	0,028
-703,816	143,312	0,051	0,049
-702,802	-200,000	0,011	-0,058
-701,787	332,445	-0,050	0,071
-700,772	426,720	-0,070	-0,110
-699,758	-25,012	0,075	0,032
-698,743	-200,000	0,031	0,133
-697,729	-22,937	0,056	0,025
-696,714	128,015	-0,079	0,073
-695,699	-178,406	-0,108	0,002
-694,685	-75,539	-0,122	-0,031
-693,670	6,762	0,098	-0,053
-692,656	-134,273	-0,086	-0,008
-691,641	-5,160	-0,077	0,039
-690,627	534,964	-0,067	0,117
-689,612	245,687	-0,071	-0,088
-688,597	800,000	-0,060	-0,157
-687,583	-200,000	-0,015	-0,146
-686,568	39,221	-0,075	0,049
-685,554	295,343	0,043	-0,057
-684,539	-200,000	-0,017	-0,064
-683,524	-200,000	-0,003	-0,044
-682,510	119,840	0,029	0,026
-681,495	-200,000	-0,025	-0,124
-680,481	800,000	-0,075	-0,218
-679,466	45,540	-0,107	-0,072
-678,451	800,000	0,071	-0,186
-677,437	-200,000	0,010	-0,052
-676,422	43,611	-0,050	0,033
-675,408	587,318	0,011	0,020
-674,393	800,000	-0,039	-0,110
-673,378	-93,734	-0,129	0,026
-672,364	284,478	0,026	-0,035
-671,349	-9,285	-0,064	-0,031
-670,335	185,689	-0,031	0,033
-669,320	188,812	0,061	-0,066
-668,305	-200,000	0,034	0,144
-667,291	-123,351	-0,012	0,001
-666,276	46,108	-0,067	-0,045
-665,262	-38,625	-0,070	0,027
-664,247	-200,000	-0,001	0,008
-663,232	655,303	-0,012	-0,022
-662,218	-84,593	-0,078	0,018
-661,203	204,369	-0,035	-0,040
-660,189	419,191	0,065	0,102
-659,174	800,000	0,022	0,060
-658,159	306,490	-0,120	-0,164
-657,145	34,523	-0,086	-0,055
-656,130	-56,739	0,045	-0,014
-655,116	179,424	0,100	0,106
-654,101	-200,000	0,015	0,058
-653,086	120,093	-0,059	-0,054
-652,072	509,375	0,065	-0,111
-651,057	-200,000	-0,001	-0,023
-650,043	33,703	-0,075	0,047
-649,028	-200,000	0,005	0,066
-648,014	6,926	-0,098	0,053
-646,999	800,000	-0,023	-0,057
-645,984	-115,381	0,074	0,010
-644,970	800,000	0,040	-0,084
-643,955	209,843	-0,060	0,068
-642,941	800,000	-0,018	-0,040
-641,926	800,000	-0,061	-0,123
-640,911	-92,063	-0,094	-0,019
-639,897	33,468	0,056	0,035
-638,882	394,198	0,060	-0,091
-637,868	563,223	-0,040	-0,072
-636,853	800,000	-0,054	-0,112
-635,838	369,160	-0,104	-0,154
-634,824	800,000	-0,020	-0,052
-633,809	800,000	0,020	-0,050
-632,795	-162,594	0,100	0,004
-631,780	-14,119	0,047	0,022
-630,765	-200,000	0,002	0,153
-629,751	-200,000	-0,031	-0,129
-628,736	-124,539	-0,235	-0,026
-627,722	-44,706	0,045	-0,016
-626,707	57,367	0,089	-0,063
-625,692	-200,000	-0,011	0,051
-624,678	486,162	-0,032	0,054
-623,663	-58,290	-0,090	0,028
-622,649	-105,156	-0,091	-0,015
-621,634	800,000	0,029	-0,087
-620,619	136,641	-0,077	0,073
-619,605	800,000	-0,041	0,130
-618,590	347,795	0,136	0,196
-617,576	18,055	0,035	-0,020
-616,561	-99,643	0,142	-0,026
-615,546	800,000	0,044	0,091
-614,532	761,328	0,037	0,073
-613,517	-15,590	0,039	0,018
-612,503	134,850	0,061	0,057
-611,488	-76,754	-0,128	0,032
-610,474	33,211	0,025	-0,016
-609,459	-109,547	-0,061	-0,009
-608,444	248,818	-0,082	0,101
-607,430	-200,000	0,030	-0,095
-606,415	600,042	0,055	0,099
-605,401	800,000	-0,037	-0,114
-604,386	54,505	-0,068	-0,047
-603,371	-95,775	0,125	0,024
-602,357	-179,652	-0,088	0,001
-601,342	331,104	-0,035	0,050
-600,328	-200,000	-0,003	-0,082
-599,313	-200,000	-0,012	-0,058
-598,298	-132,282	-0,097	-0,009
-597,284	-58,392	-0,039	-0,012
-596,269	-106,138	-0,130	0,021
-595,255	-200,000	-0,040	0,139
-594,240	-7,518	-0,029	0,014
-593,225	-72,642	-0,036	-0,010
-592,211	-200,000	-0,011	0,140
-591,196	284,741	0,078	-0,102
-590,182	-39,686	0,107	0,041
-589,167	800,000	0,029	0,060
-588,152	800,000	-0,022	-0,055
-587,138	-95,403	0,034	-0,007
-586,123	-75,553	-0,098	0,025
-585,109	800,000	-0,032	0,066
-584,094	33,761	0,056	0,035
-583,079	-98,230	-0,092	-0,017
-582,065	800,000	-0,039	0,108
-581,050	-200,000	-0,012	0,125
-580,036	-37,528	-0,165	0,063
-579,021	-200,000	-0,027	-0,156
-578,006	4,864	-0,161	-0,085
-576,992	-20,868	-0,099	0,044
-575,977	800,000	0,049	0,123
-574,963	-5,438	0,093	0,046
-573,948	762,172	-0,102	0,202
-572,934	-120,432	0,104	-0,013
-571,919	-82,200	-0,203	-0,048
-570,904	-51,844	0,175	-0,059
-569,890	-200,000	-0,002	-0,185
-568,875	800,000	0,025	0,050
-567,861	-70,279	0,057	0,016
-566,846	-200,000	0,041	0,148
-565,831	-118,301	-0,144	-0,018
-564,817	-22,714	-0,141	-0,062
-563,802	-200,000	0,005	-0,081
-562,788	800,000	-0,076	0,166
-561,773	-200,000	-0,004	-0,120
-560,758	-200,000	0,007	0,117
-559,744	-200,000	0,013	0,090
-558,729	800,000	0,052	0,115
-557,715	47,251	-0,013	-0,009
-556,700	193,837	-0,020	0,022
-555,685	800,000	0,021	-0,061
-554,671	-25,778	0,183	-0,078
-553,656	-200,000	-0,010	-0,074
-552,642	-63,304	-0,008	0,002
-551,627	207,037	-0,024	-0,027
-550,612	800,000	-0,037	-0,089
-549,598	-65,884	0,121	0,035
-548,583	800,000	-0,046	-0,105
-547,569	-200,000	-0,009	-0,043
-546,554	800,000	0,066	0,149
-545,539	-78,650	-0,115	-0,028
-544,525	31,393	0,141	-0,087
-543,510	800,000	0,021	0,052
-542,496	800,000	-0,058	0,117
-541,481	46,660	0,100	-0,067
-540,466	357,750	0,019	0,028
-539,452	-200,000	-0,000	-0,039
-538,437	495,577	-0,066	-0,110
-537,423	-65,631	0,158	-0,046
-536,408	-200,000	-0,019	-0,117
-535,393	190,699	-0,131	-0,143
-534,379	-200,000	0,007	-0,042
-533,364	32,932	0,080	-0,050
-532,350	-107,450	0,134	0,021
-531,335	553,465	0,072	-0,127
-530,321	800,000	0,063	-0,129
-529,306	-75,099	0,115	-0,030
-528,291	199,413	-0,054	-0,060
-527,277	54,000	-0,121	-0,084
-526,262	800,000	-0,055	-0,151
-525,248	74,940	-0,070	0,053
-524,233	336,443	0,044	0,062
-523,218	-200,000	-0,022	-0,098
-522,204	-73,079	0,049	0,013
-521,189	-200,000	-0,036	-0,142
-520,175	1,716	-0,063	0,033
-519,160	23,088	-0,043	-0,025
-518,145	-11,189	0,103	-0,049
-517,131	800,000	0,039	0,109
-516,116	-200,000	0,014	0,136
-515,102	-63,051	0,070	0,021
-514,087	-146,394	-0,091	-0,006
-513,072	-200,000	0,016	-0,156
-512,058	-200,000	0,034	-0,142
-511,043	238,396	-0,021	-0,026
-510,029	-200,000	0,125	-0,000
-509,014	-64,724	0,047	0,014
-507,999	-79,588	-0,175	-0,042
-506,985	420,545	-0,027	0,042
-505,970	800,000	0,018	-0,050
-504,956	223,745	0,076	0,089
-503,941	0,135	0,148	0,076
-502,926	-87,257	0,169	-0,037
-501,912	726,747	0,019	0,038
-500,897	60,788	0,035	-0,025
-499,883	469,866	-0,031	-0,050
-498,868	-200,000	0,036	-0,128
-497,853	297,779	-0,044	-0,059
-496,839	-189,108	-0,021	0,000
-495,824	48,913	-0,113	-0,077
-494,810	437,838	-0,042	-0,067
-493,795	800,000	0,014	0,029
-492,781	-200,000	-0,020	0,088
-491,766	-20,193	0,048	0,021
-490,751	-200,000	-0,001	-0,077
-489,737	-200,000	0,010	-0,059
-488,722	-200,000	-0,011	0,114
-487,708	130,320	0,118	0,110
-486,693	800,000	0,040	0,120
-485,678	-39,975	-0,107	-0,040
-484,664	-6,163	-0,059	0,029
-483,649	192,161	-0,077	-0,084
-482,635	-200,000	0,003	-0,169
-481,620	-200,000	0,015	0,164
-480,605	101,688	0,082	-0,069
-479,591	800,000	0,015	0,040
-478,576	-33,921	-0,178	-0,070
-477,562	800,000	0,043	-0,111
-476,547	192,678	0,105	-0,115
-475,532	-147,194	0,143	-0,009
-474,518	57,395	0,015	-0,011
-473,503	-200,000	0,013	0,064
-472,489	-200,000	-0,014	0,090
-471,474	376,796	-0,090	-0,133
-470,459	800,000	-0,036	-0,093
-469,445	329,443	0,023	-0,031
-468,430	369,212	0,023	0,034
-467,416	580,899	0,073	0,131
-466,401	-103,709	0,099	-0,017
-465,386	55,822	-0,030	0,021
-464,372	38,573	0,144	0,093
-463,357	-71,698	0,022	0,006
-462,343	121,675	-0,116	-0,104
-461,328	-200,000	-0,008	-0,121
-460,313	578,032	0,044	0,078
-459,299	-200,000	0,011	0,211
-458,284	-200,000	-0,040	0,220
-457,270	-200,000	0,015	0,064
-456,255	-147,261	-0,037	0,002
-455,241	-200,000	-0,017	-0,106
-454,226	800,000	0,011	-0,024
-453,211	265,820	0,032	-0,040
-452,197	88,273	-0,036	-0,029
-451,182	-43,431	0,139	0,050
-450,168	17,599	0,053	-0,030
-449,153	17,253	-0,096	-0,055
-448,138	13,565	0,190	-0,106
-447,124	-29,818	-0,047	-0,019
-446,109	252,977	-0,058	-0,072
-445,095	-200,000	0,053	0,175
-444,080	-200,000	-0,024	0,124
-443,065	539,109	0,070	0,120
-442,051	149,854	-0,047	0,046
-441,036	-162,507	-0,094	-0,003
-440,022	395,707	-0,078	-0,117
-439,007	489,667	0,019	-0,032
-437,992	190,341	0,050	0,054
-436,978	286,446	-0,028	0,037
-435,963	-130,220	0,131	-0,013
-434,949	23,905	-0,065	-0,038
-433,934	800,000	0,031	0,072
-432,919	-200,000	0,022	-0,103
-431,905	-200,000	-0,001	-0,072
-430,890	-50,558	0,141	0,048
-429,876	140,612	-0,109	0,104
-428,861	800,000	0,046	0,117
-427,846	-200,000	-0,011	0,075
-426,832	-57,447	-0,070	-0,022
-425,817	24,065	-0,036	-0,022
-424,803	-120,572	-0,091	0,011
-423,788	117,921	0,035	-0,031
-422,773	800,000	0,032	0,091
-421,759	800,000	0,049	0,135
-420,744	-200,000	-0,009	0,167
-419,730	-172,934	0,116	-0,003
-418,715	-200,000	0,006	-0,056
-417,701	123,873	-0,045	-0,041
-416,686	492,923	0,023	0,039
-415,671	49,324	0,120	0,081
-414,657	329,509	0,080	0,111
-413,642	800,000	0,028	-0,063
-412,628	-25,600	-0,043	-0,018
-411,613	800,000	0,014	0,032
-410,598	-61,566	0,128	-0,038
-409,584	-200,000	-0,044	0,164
-408,569	-200,000	0,030	0,104
-407,555	-200,000	-0,020	0,108
-406,540	-200,000	-0,003	0,062
-405,525	-200,000	-0,025	-0,114
-404,511	138,835	-0,029	-0,028
-403,496	61,117	-0,048	0,034
-402,482	94,708	-0,081	0,066
-401,467	82,118	0,073	-0,057
-400,452	-31,589	0,044	0,018
-399,438	-38,215	0,140	0,053
-398,423	800,000	0,078	0,176
-397,409	-200,000	-0,028	-0,148
-396,394	-200,000	-0,006	0,131
-395,379	-46,032	0,040	-0,014
-394,365	-41,199	0,128	0,047
-393,350	-30,799	0,069	-0,028
-392,336	200,080	0,083	0,091
-391,321	67,389	0,029	0,022
-390,306	-200,000	-0,054	-0,188
-389,292	80,926	-0,059	0,046
-388,277	800,000	0,046	-0,104
-387,263	-97,290	0,144	0,027
-386,248	800,000	0,020	0,043
-385,233	-115,574	0,066	-0,009
-384,219	-91,196	0,080	0,016
-383,204	-200,000	-0,008	-0,140
-382,190	-200,000	0,020	-0,104
-381,175	-200,000	-0,006	0,069
-380,160	800,000	0,007	-0,016
-379,146	-200,000	0,015	0,129
-378,131	80,682	-0,057	0,044
-377,117	35,488	-0,045	0,028
-376,102	-200,000	0,002	0,054
-375,088	-96,954	0,093	-0,017
-374,073	-200,000	-0,001	-0,028
-373,058	-36,649	-0,058	0,023
-372,044	-200,000	0,017	-0,119
-371,029	-100,879	-0,098	-0,017
-370,015	800,000	0,084	0,220
-369,000	-33,342	-0,103	0,041
-367,985	-23,657	-0,147	-0,063
-366,971	-170,512	0,072	-0,002
-365,956	-200,000	-0,031	0,107
-364,942	800,000	0,022	-0,067
-363,927	-200,000	-0,005	-0,048
-362,912	247,932	0,127	0,155
-361,898	800,000	-0,032	-0,074
-360,883	-169,765	-0,040	-0,001
-359,869	13,971	0,090	-0,050
-358,854	-13,269	0,106	0,049
-357,839	148,832	0,083	0,081
-356,825	5,759	0,117	-0,062
-355,810	-200,000	-0,016	-0,065
-354,796	139,743	-0,059	-0,056
-353,781	295,562	0,081	0,107
-352,766	-200,000	-0,002	0,025
-351,752	-200,000	-0,003	-0,053
-350,737	-123,192	0,059	0,007
-349,723	-200,000	-0,013	0,071
-348,708	-38,151	-0,131	-0,050
-347,693	451,066	0,016	0,025
-346,679	-56,268	-0,111	0,035
-345,664	10,891	-0,057	-0,031
-344,650	-59,308	0,032	-0,010
-343,635	800,000	0,026	0,074
-342,620	89,693	0,057	0,046
-341,606	126,650	0,041	0,037
-340,591	-200,000	-0,015	-0,131
-339,577	715,610	-0,019	-0,037
-338,562	-132,604	0,016	-0,001
-337,548	-200,000	0,020	0,153
-336,533	-200,000	0,049	-0,162
-335,518	92,418	-0,126	0,102
-334,504	-200,000	0,010	0,116
-333,489	30,889	0,091	0,056
-332,475	428,406	-0,025	0,039
-331,460	-48,209	-0,130	-0,045
-330,445	213,014	-0,073	-0,082
-329,431	95,700	0,126	-0,103
-328,416	-98,112	-0,124	0,023
-327,402	-11,911	-0,068	0,032
-326,387	-112,332	-0,030	-0,004
-325,372	800,000	-0,049	-0,138
-324,358	800,000	-0,056	-0,163
-323,343	-118,449	-0,070	-0,009
-322,329	426,236	0,062	-0,096
-321,314	-132,910	0,060	0,005
-320,299	295,703	0,064	0,085
-319,285	-79,046	-0,086	-0,021
-318,270	-200,000	-0,017	-0,056
-317,256	416,992	0,111	-0,171
-316,241	-5,485	0,058	-0,028
-315,226	695,104	-0,054	-0,102
-314,212	620,963	-0,133	0,241
-313,197	40,079	0,059	0,038
-312,183	52,113	-0,092	-0,063
-311,168	-200,000	0,022	0,084
-310,153	-200,000	0,016	0,067
-309,139	-200,000	-0,012	0,086
-308,124	-200,000	-0,005	-0,059
-307,110	-40,194	-0,076	0,028
-306,095	44,563	-0,026	0,017
-305,080	800,000	-0,047	0,115
-304,066	-91,047	-0,094	0,019
-303,051	5,529	-0,122	-0,064
-302,037	800,000	0,030	0,083
-301,022	201,281	0,025	0,027
-300,008	111,184	0,045	0,039
-298,993	-200,000	0,036	0,170
-297,978	-89,675	0,080	-0,017
-296,964	-124,942	-0,074	-0,008
-295,949	80,823	-0,016	-0,013
-294,935	754,922	-0,081	-0,159
-293,920	-200,000	-0,027	0,122
-292,905	-200,000	-0,044	-0,194
-291,891	-39,134	-0,081	-0,030
-290,876	55,394	0,111	0,077
-289,862	-39,842	0,093	0,035
-288,847	-152,966	-0,225	-0,011
-287,832	-81,444	0,080	-0,019
-286,818	21,449	-0,029	-0,017
-285,803	30,811	0,124	0,076
-284,789	226,003	-0,056	-0,065
-283,774	800,000	-0,072	0,183
-282,759	-200,000	0,031	0,134
-281,745	-200,000	0,030	-0,111
-280,730	-200,000	-0,025	-0,128
-279,716	-200,000	0,001	0,023
-278,701	-200,000	0,029	0,097
-277,686	-122,667	-0,035	-0,004
-276,672	-13,243	0,030	-0,014
-275,657	-200,000	0,026	0,105
-274,643	185,483	0,036	-0,039
-273,628	-200,000	0,007	-0,043
-272,613	-200,000	0,018	-0,084
-271,599	-40,302	0,077	0,029
-270,584	245,865	-0,052	0,063
-269,570	-126,560	0,027	0,003
-268,555	36,596	-0,140	0,088
-267,540	95,748	-0,082	0,067
-266,526	33,827	-0,201	-0,125
-265,511	50,262	-0,155	-0,105
-264,497	800,000	0,005	0,013
-263,482	-200,000	0,002	-0,040
-262,467	-200,000	0,021	-0,111
-261,453	-200,000	0,001	-0,085
-260,438	352,576	0,041	-0,058
-259,424	144,705	-0,052	0,050
-258,409	-200,000	-0,013	0,044
-257,395	136,810	0,060	0,056
-256,380	-33,912	-0,076	-0,030
-255,365	246,251	0,123	0,149
-254,351	92,769	0,045	-0,036
-253,336	55,860	-0,091	0,063
-252,322	121,182	-0,109	-0,097
-251,307	103,082	-0,112	0,094
-250,292	-89,115	-0,049	0,010
-249,278	800,000	0,008	0,025
-248,263	-200,000	0,035	-0,221
-247,249	-200,000	0,007	-0,072
-246,234	-200,000	0,016	-0,110
-245,219	83,560	-0,072	0,056
-244,205	-85,488	-0,061	0,013
-243,190	654,094	-0,090	0,167
-242,176	-39,387	0,063	0,023
-241,161	216,645	0,097	0,110
-240,146	-79,973	0,074	-0,018
-239,132	213,326	-0,036	0,041
-238,117	17,338	-0,086	0,049
-237,103	-200,000	-0,030	-0,130
-236,088	46,235	-0,050	0,033
-235,073	800,000	-0,032	0,070
-234,059	516,299	0,006	0,010
-233,044	-186,111	0,131	-0,001
-232,030	-107,164	0,080	0,012
-231,015	74,956	-0,066	0,050
-230,000	212,465	-0,054	-0,061
-228,986	-200,000	-0,002	0,012
-227,971	-0,246	-0,024	-0,012
-226,957	800,000	0,037	-0,074
-225,942	544,431	-0,049	0,084
-224,927	-200,000	0,000	-0,081
-223,913	-200,000	0,001	-0,015
-222,898	-75,890	-0,067	-0,017
-221,884	-54,701	-0,077	0,025
-220,869	-200,000	-0,007	-0,043
-219,855	-31,582	-0,076	-0,030
-218,840	-55,465	0,160	0,051
-217,825	800,000	0,055	-0,150
-216,811	-34,244	0,079	0,031
-215,796	800,000	0,049	-0,150
-214,782	800,000	-0,043	-0,116
-213,767	-40,866	0,094	0,035
-212,752	-147,411	0,102	-0,006
-211,738	-200,000	-0,026	0,092
-210,723	-200,000	0,004	-0,174
-209,709	206,017	-0,119	-0,133
-208,694	66,008	-0,092	-0,066
-207,679	800,000	0,021	0,050
-206,665	409,463	0,072	-0,109
-205,650	796,023	0,042	0,084
-204,636	368,744	0,075	-0,109
-203,621	15,740	0,032	0,018
-202,606	800,000	-0,066	0,181
-201,592	389,240	0,056	0,084
-200,577	128,686	-0,107	-0,097
-199,563	-84,481	-0,065	-0,015
-198,548	-193,407	0,114	-0,001
-197,533	-183,321	0,119	0,001
-196,519	-200,000	0,010	0,088
-195,504	-200,000	-0,003	0,076
-194,490	127,820	-0,049	-0,045
-193,475	800,000	-0,051	-0,103
-192,460	135,072	-0,072	-0,067
-191,446	800,000	-0,033	-0,073
-190,431	-184,017	-0,006	0,000
-189,417	-200,000	0,006	-0,108
-188,402	-25,629	-0,089	0,038
-187,387	37,443	-0,021	-0,013
-186,373	105,976	0,106	-0,090
-185,358	-200,000	-0,021	0,084
-184,344	-200,000	0,002	0,061
-183,329	800,000	0,041	0,115
-182,315	423,865	0,052	0,080
-181,300	-33,326	-0,102	-0,040
-180,285	353,659	-0,098	-0,139
-179,271	800,000	-0,056	-0,134
-178,256	-96,377	-0,049	0,009
-177,242	800,000	0,029	-0,074
-176,227	-58,336	0,105	-0,033
-175,212	573,126	-0,035	-0,061
-174,198	11,894	-0,101	0,055
-173,183	-126,419	0,054	-0,006
-172,169	371,474	0,060	-0,088
-171,154	603,408	0,017	-0,030
-170,139	-120,917	0,071	-0,008
-169,125	-121,588	0,160	0,019
-168,110	800,000	-0,052	0,117
-167,096	69,270	0,023	0,017
-166,081	-200,000	0,003	0,035
-165,066	800,000	-0,037	0,085
-164,052	-200,000	-0,002	0,039
-163,037	249,036	0,014	0,017
-162,023	-121,840	0,065	0,008
-161,008	-200,000	-0,005	0,045
-159,993	-36,728	-0,119	-0,045
-158,979	800,000	0,029	-0,083
-157,964	-200,000	-0,008	-0,066
-156,950	-200,000	0,029	0,103
-155,935	180,497	0,074	0,078
-154,920	800,000	0,006	0,012
-153,906	0,190	0,034	-0,017
-152,891	-47,416	0,034	0,012
-151,877	-49,242	-0,115	0,039
-150,862	-200,000	-0,029	0,104
-149,847	109,045	-0,033	-0,028
-148,833	-200,000	-0,006	-0,058
-147,818	-24,674	-0,059	0,025
-146,804	199,260	-0,193	0,211
-145,789	800,000	0,028	0,083
-144,775	66,229	-0,042	0,031
-143,760	-65,446	-0,193	-0,055
-142,745	-200,000	0,008	-0,144
-141,731	-200,000	-0,024	0,142
-140,716	-200,000	-0,017	0,157
-139,702	-70,554	0,192	0,052
-138,687	-60,712	0,054	0,016
-137,672	-10,462	-0,061	-0,029
-136,658	334,677	-0,024	-0,033
-135,643	196,432	-0,023	0,025
-134,629	537,198	0,094	0,159
-133,614	800,000	0,055	0,131
-132,599	800,000	0,028	-0,065
-131,585	-106,968	0,020	0,003
-130,570	415,765	0,095	-0,144
-129,556	-108,236	-0,192	0,029
-128,541	800,000	0,058	-0,134
-127,526	460,750	-0,059	-0,094
-126,512	418,397	0,056	-0,086
-125,497	800,000	0,036	0,077
-124,483	800,000	0,040	0,104
-123,468	107,153	-0,052	0,044
-122,453	-200,000	0,007	0,202
-121,439	115,351	0,058	0,051
-120,424	800,000	-0,074	0,202
