DTS Sentinel unit serial number:	SN410029Multiplexer serial number:	ORYXHardware model number:	OX2-SRSoftware version number:	ORYX F/W v4,00 Oryx Data Collector v3.7.2.0data status	okinstallation	B3 Nyhavnadifferential loss correction	single-endedforward channel	channel 1reverse channel	N/Adate	2023/11/28time	16:22:30forward acquisition time	300,00reverse acquisition time	0,00gamma	499,1914k internal	0,3219k external	0,3219temperature offset calibration	1,0000default loss term (dB/km)	0,3820temperature slope calibration	1,0000multiplexer offset coefficient	1,0000multiplexer slope coefficient	1,0000fibre end	0,00T internal ref (°C)	7,26T ext. ref 1 (°C)	-7,51T ext. ref 2 (°C)	-7,66length (m)	temperature (°C)	Stokes	anti-Stokes-744,400	426,314	-0,194	-0,303
-743,385	-200,000	0,021	0,256
-742,371	-200,000	0,022	-0,095
-741,356	-200,000	-0,036	0,370
-740,342	-8,281	-0,284	-0,138
-739,327	-200,000	0,021	0,246
-738,312	182,033	-0,250	-0,266
-737,298	800,000	-0,087	0,260
-736,283	286,866	-0,161	-0,211
-735,269	-200,000	-0,100	0,436
-734,254	800,000	-0,106	-0,241
-733,239	-4,912	-0,158	0,079
-732,225	-155,580	-0,244	-0,011
-731,210	800,000	0,087	0,210
-730,196	-200,000	0,037	-0,173
-729,181	-42,452	-0,118	-0,043
-728,167	-60,027	-0,088	0,027
-727,152	800,000	-0,006	0,017
-726,137	-5,146	-0,070	0,035
-725,123	-192,408	-0,081	-0,001
-724,108	-200,000	0,000	-0,102
-723,094	-93,515	-0,098	0,019
-722,079	-4,814	0,062	-0,031
-721,064	-92,337	0,066	-0,013
-720,050	-200,000	-0,005	-0,049
-719,035	90,896	0,107	0,087
-718,021	-7,088	-0,102	-0,050
-717,006	38,034	-0,052	-0,034
-715,991	-150,219	-0,089	-0,005
-714,977	-99,548	-0,107	-0,019
-713,962	-200,000	-0,026	-0,167
-712,948	800,000	0,025	0,067
-711,933	-65,393	0,043	0,012
-710,918	-200,000	0,008	-0,048
-709,904	134,759	0,016	-0,015
-708,889	69,937	-0,060	-0,045
-707,875	38,498	-0,120	-0,077
-706,860	-200,000	0,004	0,083
-705,845	-200,000	-0,003	-0,018
-704,831	-137,165	-0,032	0,003
-703,816	-62,658	-0,112	0,033
-702,802	-11,021	-0,132	0,063
-701,787	800,000	-0,035	-0,093
-700,772	-200,000	0,030	-0,136
-699,758	-74,213	-0,051	0,013
-698,743	437,173	0,075	-0,119
-697,729	-200,000	-0,006	0,070
-696,714	-200,000	0,016	0,080
-695,699	-200,000	0,005	0,091
-694,685	-58,838	-0,066	0,021
-693,670	463,945	-0,066	-0,107
-692,656	-46,599	0,046	-0,016
-691,641	-148,324	-0,070	0,004
-690,627	461,543	0,037	0,060
-689,612	130,744	-0,077	-0,071
-688,597	800,000	0,008	0,022
-687,583	-200,000	0,042	-0,140
-686,568	-7,596	-0,108	0,053
-685,554	57,868	0,055	-0,039
-684,539	-96,554	-0,165	-0,031
-683,524	203,913	-0,039	0,043
-682,510	-200,000	0,001	-0,127
-681,495	-113,014	0,105	0,015
-680,481	69,811	0,074	0,055
-679,466	-200,000	0,001	0,034
-678,451	800,000	0,054	-0,113
-677,437	-200,000	0,024	-0,100
-676,422	58,024	0,155	0,109
-675,408	-46,538	0,076	0,027
-674,393	800,000	-0,010	0,022
-673,378	75,760	-0,084	0,064
-672,364	-200,000	0,021	-0,150
-671,349	243,391	-0,044	0,053
-670,335	-58,329	0,116	-0,036
-669,320	232,050	0,033	0,039
-668,305	144,474	0,012	0,012
-667,291	546,390	-0,056	0,097
-666,276	-113,354	-0,077	0,011
-665,262	-9,680	-0,098	0,047
-664,247	794,914	0,050	-0,100
-663,232	800,000	0,020	0,059
-662,218	221,606	-0,050	-0,058
-661,203	800,000	0,019	0,048
-660,189	91,917	-0,064	-0,052
-659,174	-109,215	0,059	-0,009
-658,159	-88,096	-0,093	-0,020
-657,145	243,807	-0,111	-0,134
-656,130	-200,000	-0,002	-0,120
-655,116	320,925	-0,050	0,068
-654,101	-21,168	0,061	-0,027
-653,086	24,099	0,083	-0,049
-652,072	421,717	-0,031	0,049
-651,057	-155,811	0,087	-0,004
-650,043	338,743	-0,079	-0,112
-649,028	-162,402	0,110	0,004
-648,014	1,312	-0,132	0,068
-646,999	260,458	0,036	0,046
-645,984	-80,548	0,118	-0,028
-644,970	-23,878	-0,056	0,024
-643,955	401,669	0,034	-0,051
-642,941	29,024	-0,082	-0,050
-641,926	-7,623	0,097	-0,047
-640,911	-118,717	0,169	0,021
-639,897	-200,000	-0,002	-0,041
-638,882	254,437	-0,055	0,068
-637,868	167,870	-0,014	0,014
-636,853	800,000	-0,044	-0,130
-635,838	-33,121	-0,114	-0,045
-634,824	212,933	-0,036	-0,041
-633,809	519,979	-0,058	-0,099
-632,795	-144,830	0,036	-0,002
-631,780	105,344	-0,043	-0,037
-630,765	238,147	0,040	0,048
-629,751	-124,863	-0,108	-0,012
-628,736	7,056	-0,113	-0,060
-627,722	800,000	0,023	0,061
-626,707	13,337	0,104	-0,058
-625,692	-200,000	0,008	0,075
-624,678	-200,000	0,037	-0,163
-623,663	393,267	-0,070	-0,105
-622,649	-78,662	0,124	-0,030
-621,634	800,000	0,030	0,063
-620,619	-69,544	-0,140	-0,038
-619,605	-200,000	0,025	0,090
-618,590	45,945	0,085	-0,057
-617,576	77,260	-0,059	0,045
-616,561	61,003	-0,052	-0,037
-615,546	-200,000	-0,001	0,067
-614,532	432,927	-0,070	0,110
-613,517	354,011	-0,011	-0,016
-612,503	60,882	0,046	0,033
-611,488	-164,767	-0,112	-0,004
-610,474	-200,000	-0,005	-0,028
-609,459	-200,000	0,023	-0,144
-608,444	-9,724	-0,056	-0,027
-607,430	169,889	-0,049	0,050
-606,415	-88,787	-0,173	-0,037
-605,401	-200,000	0,027	0,125
-604,386	141,279	0,093	0,089
-603,371	-200,000	0,012	0,208
-602,357	-200,000	0,007	0,068
-601,342	84,563	-0,073	-0,058
-600,328	117,382	-0,126	-0,111
-599,313	-200,000	-0,005	-0,050
-598,298	800,000	-0,012	-0,034
-597,284	-153,702	-0,142	-0,007
-596,269	128,638	0,056	0,051
-595,255	-2,949	0,082	-0,041
-594,240	290,089	0,063	0,082
-593,225	-200,000	0,014	0,073
-592,211	160,347	-0,097	-0,098
-591,196	14,918	-0,070	-0,039
-590,182	445,918	-0,030	-0,048
-589,167	800,000	-0,016	0,037
-588,152	800,000	0,022	-0,055
-587,138	196,509	0,112	-0,123
-586,123	800,000	-0,064	-0,161
-585,109	181,278	0,087	0,093
-584,094	-200,000	-0,023	-0,166
-583,079	102,689	-0,026	0,021
-582,065	800,000	-0,043	0,114
-581,050	800,000	0,015	-0,039
-580,036	91,421	-0,064	-0,051
-579,021	-62,798	-0,060	-0,018
-578,006	-200,000	-0,021	-0,129
-576,992	-200,000	0,003	0,034
-575,977	-200,000	-0,006	-0,075
-574,963	173,767	0,053	-0,055
-573,948	124,757	0,038	0,034
-572,934	136,104	0,043	0,040
-571,919	-200,000	-0,005	0,020
-570,904	800,000	-0,013	0,035
-569,890	546,949	-0,047	-0,081
-568,875	-107,266	0,108	0,017
-567,861	122,704	-0,094	0,085
-566,846	-159,269	0,052	0,002
-565,831	781,672	0,044	0,086
-564,817	205,720	-0,112	-0,125
-563,802	-184,007	0,033	0,000
-562,788	-156,896	0,053	0,002
-561,773	79,620	-0,044	-0,034
-560,758	41,760	0,110	0,071
-559,744	244,533	0,016	0,019
-558,729	-200,000	0,025	0,102
-557,715	-76,661	0,063	-0,016
-556,700	319,329	0,024	-0,033
-555,685	269,660	0,049	0,062
-554,671	189,337	0,031	0,033
-553,656	800,000	-0,002	0,005
-552,642	800,000	0,009	-0,027
-551,627	256,561	-0,012	0,014
-550,612	708,820	-0,013	0,025
-549,598	-5,119	-0,102	0,050
-548,583	206,750	-0,119	-0,133
-547,569	800,000	-0,017	-0,046
-546,554	-18,252	-0,042	-0,019
-545,539	-200,000	0,007	-0,056
-544,525	-200,000	0,077	-0,000
-543,510	-87,991	-0,160	0,034
-542,496	-92,196	-0,077	-0,015
-541,481	-50,292	0,120	0,040
-540,466	800,000	0,028	0,064
-539,452	800,000	0,032	-0,075
-538,437	-194,774	0,078	-0,000
-537,423	-26,672	-0,164	-0,069
-536,408	-200,000	0,024	-0,133
-535,393	800,000	0,021	0,059
-534,379	-8,704	-0,044	0,021
-533,364	-200,000	0,018	-0,092
-532,350	-2,550	0,096	0,048
-531,335	2,102	0,067	0,035
-530,321	102,390	0,093	-0,078
-529,306	461,945	-0,021	0,034
-528,291	-14,361	0,034	0,016
-527,277	55,187	-0,056	0,039
-526,262	800,000	-0,084	-0,181
-525,248	242,316	0,026	0,031
-524,233	-200,000	-0,012	-0,050
-523,218	128,394	-0,156	0,143
-522,204	-133,778	0,144	0,013
-521,189	-59,159	-0,235	-0,072
-520,175	224,475	-0,010	0,011
-519,160	436,166	-0,046	0,073
-518,145	800,000	0,042	0,107
-517,131	180,955	0,113	0,119
-516,116	-200,000	-0,035	0,231
-515,102	293,483	-0,067	-0,087
-514,087	800,000	-0,013	-0,040
-513,072	800,000	-0,033	-0,104
-512,058	-200,000	0,004	-0,047
-511,043	800,000	0,020	-0,045
-510,029	-200,000	0,006	-0,062
-509,014	37,315	0,093	0,059
-507,999	-200,000	-0,026	0,135
-506,985	800,000	0,026	0,054
-505,970	751,710	-0,063	-0,122
-504,956	-72,731	0,142	-0,037
-503,941	344,169	0,107	-0,151
-502,926	352,243	-0,022	0,031
-501,912	-48,981	-0,055	-0,019
-500,897	800,000	0,021	0,046
-499,883	-200,000	-0,003	-0,138
-498,868	122,918	-0,117	-0,105
-497,853	81,614	-0,007	0,005
-496,839	309,384	-0,037	-0,050
-495,824	0,437	-0,200	-0,102
-494,810	-51,903	0,083	0,027
-493,795	800,000	-0,081	0,201
-492,781	-81,264	0,067	0,016
-491,766	165,341	0,048	-0,049
-490,751	-145,671	-0,109	0,007
-489,737	-200,000	-0,001	-0,053
-488,722	-200,000	-0,008	0,071
-487,708	284,187	0,048	0,062
-486,693	452,525	0,043	0,068
-485,678	72,790	0,075	0,056
-484,664	114,080	-0,031	-0,027
-483,649	135,835	-0,131	0,122
-482,635	2,618	0,024	0,012
-481,620	-24,835	0,147	0,062
-480,605	152,640	0,027	-0,027
-479,591	-79,272	0,095	-0,023
-478,576	-100,641	0,094	-0,016
-477,562	529,769	-0,052	-0,088
-476,547	684,534	0,032	-0,061
-475,532	446,256	-0,061	-0,096
-474,518	-95,007	0,088	0,017
-473,503	-200,000	0,032	0,166
-472,489	800,000	0,036	0,072
-471,474	-200,000	0,032	0,123
-470,459	283,076	-0,084	0,108
-469,445	128,706	-0,129	0,117
-468,430	-151,668	-0,039	0,002
-467,416	5,514	0,058	-0,031
-466,401	-200,000	0,018	0,262
-465,386	-200,000	0,046	0,207
-464,372	418,019	0,094	0,144
-463,357	-171,913	0,132	-0,003
-462,343	448,887	-0,070	-0,111
-461,328	-200,000	-0,001	0,043
-460,313	640,081	-0,049	0,090
-459,299	-0,829	-0,069	0,035
-458,284	-0,541	0,068	0,034
-457,270	285,750	0,079	0,102
-456,255	232,053	0,040	-0,047
-455,241	-59,154	0,067	-0,021
-454,226	306,136	-0,151	-0,202
-453,211	102,966	0,067	-0,056
-452,197	-73,566	-0,077	0,020
-451,182	-200,000	-0,008	-0,042
-450,168	158,999	-0,068	0,068
-449,153	289,524	-0,059	0,077
-448,138	-128,640	-0,085	0,008
-447,124	157,123	0,073	-0,072
-446,109	167,363	0,077	-0,078
-445,095	-114,038	0,093	0,013
-444,080	789,508	-0,015	0,030
-443,065	747,548	0,007	0,014
-442,051	-167,120	-0,033	0,001
-441,036	-38,973	0,089	-0,033
-440,022	276,836	-0,086	-0,109
-439,007	-130,993	-0,072	0,007
-437,992	225,645	0,208	0,241
-436,978	-121,351	0,116	-0,014
-435,963	-190,687	-0,064	-0,000
-434,949	-200,000	0,003	-0,095
-433,934	98,518	-0,008	0,006
-432,919	-200,000	-0,005	0,079
-431,905	-124,014	0,097	0,011
-430,890	-110,701	0,035	-0,005
-429,876	-37,950	-0,048	0,018
-428,861	-192,787	-0,084	-0,001
-427,846	-200,000	0,009	0,100
-426,832	800,000	-0,020	-0,044
-425,817	-120,766	-0,155	-0,019
-424,803	-200,000	-0,008	0,080
-423,788	77,098	0,135	-0,102
-422,773	-143,429	0,111	-0,007
-421,759	259,406	-0,019	-0,023
-420,744	17,199	0,094	0,053
-419,730	765,773	-0,041	0,079
-418,715	800,000	-0,068	-0,146
-417,701	-200,000	0,016	0,078
-416,686	370,944	0,036	0,052
-415,671	-181,171	0,104	-0,001
-414,657	785,298	0,086	0,169
-413,642	18,092	-0,036	0,020
-412,628	-40,446	0,082	0,030
-411,613	-81,794	-0,078	-0,018
-410,598	-200,000	0,001	-0,220
-409,584	-200,000	0,001	-0,116
-408,569	487,594	0,116	0,189
-407,555	800,000	0,047	0,117
-406,540	800,000	0,057	-0,116
-405,525	169,900	0,040	0,041
-404,511	800,000	-0,068	-0,136
-403,496	515,828	-0,053	-0,088
-402,482	-13,788	-0,124	0,057
-401,467	76,867	0,115	0,087
-400,452	-200,000	-0,001	-0,113
-399,438	-50,514	0,085	0,028
-398,423	6,231	-0,130	0,068
-397,409	134,603	0,096	-0,088
-396,394	-104,264	-0,179	0,029
-395,379	584,755	-0,034	-0,060
-394,365	35,662	0,072	0,045
-393,350	-200,000	0,009	0,148
-392,336	-171,379	0,079	0,002
-391,321	-114,204	-0,090	-0,012
-390,306	-180,339	-0,133	-0,002
-389,292	-137,139	-0,140	-0,011
-388,277	92,998	0,035	-0,028
-387,263	695,845	0,060	0,113
-386,248	166,730	0,087	0,088
-385,233	-24,658	0,144	0,061
-384,219	517,602	-0,073	0,122
-383,204	197,758	-0,062	-0,068
-382,190	-42,637	-0,126	-0,045
-381,175	71,179	0,187	-0,138
-380,160	122,954	0,083	0,074
-379,146	-154,348	0,113	-0,005
-378,131	-120,277	0,130	0,016
-377,117	-123,814	-0,107	-0,012
-376,102	-200,000	-0,002	0,072
-375,088	599,588	0,046	-0,082
-374,073	800,000	0,013	0,025
-373,058	-63,268	0,138	0,040
-372,044	213,546	-0,090	0,102
-371,029	-131,723	0,134	-0,012
-370,015	800,000	-0,039	-0,089
-369,000	153,064	0,059	-0,057
-367,985	800,000	0,014	0,034
-366,971	-15,226	0,030	0,014
-365,956	800,000	-0,009	0,026
-364,942	25,541	0,115	0,068
-363,927	-200,000	-0,005	0,055
-362,912	-150,872	0,056	-0,003
-361,898	142,298	0,118	-0,112
-360,883	-52,623	-0,155	-0,051
-359,869	14,387	-0,122	0,067
-358,854	-200,000	-0,028	0,099
-357,839	487,745	0,057	-0,094
-356,825	-200,000	-0,008	0,040
-355,810	254,132	-0,105	0,128
-354,796	8,016	-0,090	-0,048
-353,781	200,447	0,049	0,054
-352,766	33,740	-0,179	0,110
-351,752	-66,827	-0,086	-0,024
-350,737	-116,433	0,177	0,023
-349,723	-200,000	0,009	0,046
-348,708	82,244	0,083	0,064
-347,693	-38,570	-0,149	-0,056
-346,679	-200,000	-0,007	0,078
-345,664	-24,996	-0,009	0,004
-344,650	329,248	-0,046	-0,063
-343,635	-200,000	-0,004	0,120
-342,620	51,795	0,093	0,063
-341,606	-128,689	0,099	-0,010
-340,591	-88,925	0,095	0,020
-339,577	800,000	-0,063	-0,157
-338,562	-200,000	0,003	0,020
-337,548	385,809	-0,017	0,025
-336,533	306,502	-0,049	0,065
-335,518	333,767	0,064	0,089
-334,504	373,122	0,059	0,086
-333,489	106,545	0,080	-0,067
-332,475	800,000	0,061	-0,190
-331,460	96,232	-0,117	0,095
-330,445	800,000	0,048	0,110
-329,431	800,000	-0,058	0,152
-328,416	230,197	0,018	-0,021
-327,402	603,826	0,047	0,084
-326,387	-200,000	-0,006	-0,037
-325,372	800,000	-0,041	-0,087
-324,358	-200,000	-0,014	-0,143
-323,343	680,309	0,038	-0,071
-322,329	84,102	-0,073	-0,057
-321,314	-200,000	-0,001	-0,032
-320,299	43,027	-0,116	0,075
-319,285	98,434	-0,050	-0,041
-318,270	8,060	-0,129	-0,068
-317,256	80,557	-0,114	-0,087
-316,241	-111,072	0,103	-0,015
-315,226	165,987	-0,074	-0,074
-314,212	97,587	0,053	0,043
-313,197	657,997	0,054	-0,099
-312,183	-200,000	0,016	-0,054
-311,168	-200,000	0,008	-0,180
-310,153	25,303	-0,075	-0,044
-309,139	-200,000	0,010	-0,098
-308,124	800,000	0,040	-0,084
-307,110	54,362	0,080	0,055
-306,095	140,767	-0,015	0,014
-305,080	-200,000	-0,012	-0,152
-304,066	-27,717	-0,118	0,048
-303,051	-200,000	0,016	-0,100
-302,037	599,755	-0,028	0,049
-301,022	-71,441	-0,114	-0,030
-300,008	-78,759	-0,045	-0,011
-298,993	-46,657	-0,122	-0,042
-297,978	-61,457	-0,068	-0,020
-296,964	139,235	0,074	-0,069
-295,949	-182,972	-0,145	0,002
-294,935	150,793	0,062	0,060
-293,920	55,713	0,026	0,018
-292,905	-89,204	-0,105	0,022
-291,891	610,458	0,068	0,121
-290,876	-164,537	0,092	-0,003
-289,862	768,534	-0,040	-0,077
-288,847	-29,319	-0,034	0,014
-287,832	-200,000	0,008	-0,142
-286,818	128,671	0,028	0,025
-285,803	-18,366	-0,098	0,043
-284,789	-14,032	-0,065	0,029
-283,774	-200,000	0,011	-0,099
-282,759	-127,310	-0,019	0,002
-281,745	800,000	0,009	0,026
-280,730	-200,000	-0,031	-0,133
-279,716	407,690	-0,036	-0,054
-278,701	800,000	0,014	0,035
-277,686	30,991	-0,080	0,049
-276,672	-200,000	0,020	0,104
-275,657	-200,000	-0,027	-0,089
-274,643	-200,000	0,026	-0,115
-273,628	234,110	0,063	-0,073
-272,613	-200,000	-0,028	-0,100
-271,599	105,296	0,064	-0,054
-270,584	23,230	-0,036	-0,021
-269,570	349,557	0,056	0,078
-268,555	800,000	-0,024	-0,062
-267,540	-200,000	-0,012	-0,108
-266,526	72,270	-0,083	-0,061
-265,511	179,837	0,078	-0,081
-264,497	-39,566	-0,025	0,009
-263,482	-200,000	-0,014	-0,082
-262,467	-48,567	0,149	0,051
-261,453	19,551	-0,097	0,055
-260,438	-107,342	-0,059	0,009
-259,424	800,000	-0,029	-0,087
-258,409	-200,000	0,001	-0,080
-257,395	-7,605	-0,083	-0,039
-256,380	112,806	0,246	0,211
-255,365	-121,614	0,101	0,012
-254,351	800,000	0,021	-0,050
-253,336	-200,000	0,007	0,066
-252,322	121,529	0,064	0,056
-251,307	-200,000	0,007	-0,057
-250,292	-200,000	0,008	-0,074
-249,278	203,066	-0,081	0,089
-248,263	67,011	0,050	-0,036
-247,249	214,504	0,104	0,117
-246,234	-200,000	-0,002	0,077
-245,219	-28,997	-0,042	-0,017
-244,205	60,688	0,032	-0,022
-243,190	-21,514	-0,065	0,028
-242,176	-200,000	-0,001	-0,061
-241,161	-5,174	0,068	0,033
-240,146	800,000	0,033	-0,065
-239,132	-200,000	0,000	0,053
-238,117	207,869	0,087	-0,096
-237,103	-200,000	-0,005	-0,071
-236,088	280,236	0,002	-0,003
-235,073	-25,588	0,120	0,050
-234,059	125,012	-0,043	0,039
-233,044	-200,000	0,002	0,021
-232,030	224,376	0,017	0,019
-231,015	97,002	0,062	-0,050
-230,000	-115,318	-0,030	-0,004
-228,986	190,686	0,075	-0,080
-227,971	-114,278	0,108	-0,015
-226,957	227,047	0,036	0,042
-225,942	597,541	-0,059	0,104
-224,927	265,312	-0,058	-0,072
-223,913	-102,507	-0,057	0,010
-222,898	426,530	0,028	0,043
-221,884	148,620	-0,048	-0,046
-220,869	-200,000	-0,000	0,073
-219,855	-200,000	0,054	0,220
-218,840	751,519	-0,035	-0,066
-217,825	-200,000	-0,000	0,010
-216,811	498,572	0,063	-0,103
-215,796	11,677	-0,108	-0,058
-214,782	133,510	0,013	-0,012
-213,767	28,636	0,025	0,015
-212,752	-200,000	0,002	0,023
-211,738	703,866	-0,030	0,056
-210,723	103,943	0,051	0,042
-209,709	188,080	-0,127	-0,135
-208,694	207,224	-0,084	-0,092
-207,679	181,011	-0,130	-0,135
-206,665	357,597	-0,061	0,086
-205,650	137,863	-0,060	-0,056
-204,636	393,063	0,117	0,173
-203,621	-185,556	-0,020	-0,000
-202,606	-100,307	-0,019	-0,003
-201,592	800,000	0,057	0,129
-200,577	800,000	0,071	-0,144
-199,563	452,152	0,044	0,069
-198,548	800,000	0,052	0,110
-197,533	-27,727	-0,151	0,062
-196,519	800,000	0,028	0,067
-195,504	-61,418	-0,246	-0,073
-194,490	-200,000	0,019	0,103
-193,475	-200,000	-0,008	-0,052
-192,460	637,009	-0,013	0,023
-191,446	194,247	0,068	0,074
-190,431	794,493	-0,010	0,019
-189,417	-200,000	-0,001	0,050
-188,402	-200,000	-0,027	0,117
-187,387	-200,000	-0,023	-0,142
-186,373	64,820	-0,102	0,073
-185,358	19,253	0,183	0,104
-184,344	-188,341	0,107	0,001
-183,329	-200,000	-0,019	0,078
-182,315	-200,000	0,021	0,130
-181,300	109,912	-0,080	0,068
-180,285	65,008	-0,118	-0,084
-179,271	-200,000	0,003	-0,089
-178,256	620,002	-0,038	-0,068
-177,242	800,000	-0,040	-0,085
-176,227	-68,770	-0,054	0,015
-175,212	800,000	-0,017	-0,035
-174,198	800,000	0,051	-0,103
-173,183	-7,314	-0,137	-0,065
-172,169	-94,748	-0,023	-0,004
-171,154	-87,122	0,175	0,037
-170,139	-74,413	0,039	0,010
-169,125	-200,000	-0,008	-0,037
-168,110	324,153	0,060	0,081
-167,096	-200,000	-0,002	0,106
-166,081	65,573	0,028	0,020
-165,066	38,611	-0,011	0,007
-164,052	-200,000	0,039	-0,121
-163,037	211,942	0,079	0,088
-162,023	-21,882	0,060	0,026
-161,008	-200,000	-0,008	-0,032
-159,993	-200,000	-0,000	0,030
-158,979	-99,602	0,079	0,014
-157,964	485,961	-0,056	-0,090
-156,950	800,000	-0,086	-0,178
-155,935	203,502	0,092	-0,100
-154,920	-117,619	0,098	-0,012
-153,906	-15,427	-0,117	0,053
-152,891	160,782	0,122	0,121
-151,877	-114,178	0,200	0,027
-150,862	-142,506	-0,144	0,010
-149,847	396,325	-0,082	0,122
-148,833	-200,000	0,008	0,099
-147,818	68,518	0,053	0,039
-146,804	-200,000	0,057	0,196
-145,789	800,000	0,029	0,076
-144,775	127,720	0,038	-0,034
-143,760	51,218	-0,104	-0,069
-142,745	-119,517	-0,103	-0,013
-141,731	-138,889	0,011	0,001
-140,716	-200,000	0,004	0,090
-139,702	-200,000	0,003	0,105
-138,687	41,980	-0,093	0,059
-137,672	-132,096	0,105	-0,010
-136,658	-94,484	-0,197	0,038
-135,643	-98,661	-0,007	0,001
-134,629	414,667	0,022	0,033
-133,614	287,738	0,048	0,061
-132,599	39,058	0,085	-0,054
-131,585	-48,073	0,127	0,043
-130,570	385,560	-0,041	-0,060
-129,556	-94,879	-0,168	-0,032
-128,541	191,367	-0,151	-0,161
-127,526	-19,019	0,135	-0,059
-126,512	-124,114	-0,089	-0,010
-125,497	-74,674	-0,086	0,022
-124,483	267,387	0,063	0,078
-123,468	-200,000	-0,007	-0,035
-122,453	25,186	-0,092	-0,054
-121,439	-200,000	0,034	-0,168
-120,424	-200,000	-0,012	-0,057
-119,410	-61,391	0,133	-0,039
