DTS Sentinel unit serial number:	SN410029Multiplexer serial number:	ORYXHardware model number:	OX2-SRSoftware version number:	ORYX F/W v4,00 Oryx Data Collector v3.7.2.0data status	okinstallation	B3 Nyhavnadifferential loss correction	single-endedforward channel	channel 1reverse channel	N/Adate	2023/11/28time	12:17:30forward acquisition time	300,00reverse acquisition time	0,00gamma	499,1914k internal	0,3141k external	0,3141temperature offset calibration	1,0000default loss term (dB/km)	0,3820temperature slope calibration	1,0000multiplexer offset coefficient	1,0000multiplexer slope coefficient	1,0000fibre end	0,00T internal ref (°C)	8,60T ext. ref 1 (°C)	-7,61T ext. ref 2 (°C)	-7,81length (m)	temperature (°C)	Stokes	anti-Stokes-744,400	457,342	-0,169	-0,279
-743,385	-200,000	-0,055	0,294
-742,371	-200,000	0,025	-0,313
-741,356	-200,000	0,030	0,250
-740,342	174,129	-0,128	-0,138
-739,327	-200,000	-0,002	0,245
-738,312	333,123	-0,228	-0,327
-737,298	-200,000	0,067	0,334
-736,283	211,456	-0,249	-0,291
-735,269	-200,000	-0,077	0,286
-734,254	143,004	-0,203	-0,200
-733,239	-153,823	-0,228	-0,011
-732,225	800,000	-0,086	-0,236
-731,210	-200,000	0,020	0,091
-730,196	779,003	-0,011	-0,023
-729,181	-200,000	-0,011	-0,134
-728,167	112,537	-0,059	-0,053
-727,152	-27,942	0,054	-0,023
-726,137	213,422	-0,053	-0,062
-725,123	-10,182	-0,062	-0,030
-724,108	-102,064	-0,068	0,012
-723,094	59,525	-0,130	-0,095
-722,079	-200,000	-0,010	-0,111
-721,064	204,266	-0,012	0,014
-720,050	39,809	0,110	0,073
-719,035	-141,841	0,054	0,004
-718,021	150,388	-0,079	-0,080
-717,006	14,201	0,033	-0,019
-715,991	-200,000	-0,019	-0,066
-714,977	-57,820	-0,151	0,049
-713,962	-35,998	0,003	0,001
-712,948	164,015	-0,005	0,005
-711,933	119,454	-0,041	-0,037
-710,918	71,799	-0,041	0,032
-709,904	800,000	-0,070	-0,171
-708,889	-94,732	0,085	-0,017
-707,875	352,570	0,095	-0,139
-706,860	73,785	0,096	0,075
-705,845	-200,000	0,008	-0,166
-704,831	163,036	0,093	-0,097
-703,816	160,180	0,091	0,094
-702,802	800,000	-0,075	0,165
-701,787	-73,527	-0,108	-0,029
-700,772	-12,756	-0,070	-0,034
-699,758	-52,086	-0,021	-0,007
-698,743	558,025	0,015	-0,027
-697,729	275,023	0,057	-0,075
-696,714	373,491	0,051	0,078
-695,699	655,007	0,037	0,071
-694,685	-200,000	-0,004	-0,075
-693,670	25,168	-0,107	-0,066
-692,656	171,631	0,046	-0,049
-691,641	-90,690	-0,165	-0,035
-690,627	-200,000	0,006	0,070
-689,612	100,238	0,061	-0,052
-688,597	254,069	0,044	0,055
-687,583	-200,000	-0,007	-0,109
-686,568	453,932	-0,077	0,127
-685,554	515,763	-0,037	-0,064
-684,539	516,672	0,056	0,097
-683,524	89,354	0,038	0,032
-682,510	32,414	0,196	0,125
-681,495	26,548	-0,079	-0,049
-680,481	-35,002	-0,105	0,042
-679,466	-145,054	-0,130	0,009
-678,451	18,293	-0,020	0,012
-677,437	-47,189	-0,059	-0,021
-676,422	-200,000	-0,004	0,034
-675,408	-200,000	0,019	-0,130
-674,393	-71,376	-0,037	0,010
-673,378	243,972	0,045	-0,056
-672,364	-178,058	-0,089	-0,002
-671,349	-200,000	-0,006	0,044
-670,335	-116,806	-0,097	0,013
-669,320	182,090	-0,049	0,054
-668,305	800,000	0,070	0,154
-667,291	-200,000	-0,001	0,044
-666,276	-200,000	-0,012	-0,078
-665,262	12,418	0,110	-0,063
-664,247	-200,000	-0,034	-0,120
-663,232	-200,000	0,016	0,070
-662,218	194,096	-0,022	0,025
-661,203	126,227	-0,028	0,026
-660,189	-129,088	-0,067	0,007
-659,174	243,122	-0,009	-0,011
-658,159	-200,000	-0,031	-0,106
-657,145	-81,403	-0,136	-0,033
-656,130	137,239	-0,073	-0,070
-655,116	800,000	0,025	-0,057
-654,101	-24,327	0,052	0,023
-653,086	326,660	0,052	-0,073
-652,072	59,059	-0,073	-0,053
-651,057	155,974	0,062	-0,063
-650,043	50,658	0,038	-0,027
-649,028	-61,779	-0,074	-0,023
-648,014	611,457	0,085	-0,158
-646,999	198,558	-0,060	0,068
-645,984	800,000	-0,036	-0,087
-644,970	134,336	0,054	-0,052
-643,955	207,396	-0,041	-0,047
-642,941	-3,241	-0,038	0,019
-641,926	37,020	-0,071	-0,046
-640,911	-71,392	0,005	-0,001
-639,897	800,000	0,023	0,050
-638,882	98,930	0,075	0,064
-637,868	-200,000	-0,022	0,073
-636,853	-200,000	0,009	-0,085
-635,838	233,310	-0,085	-0,103
-634,824	-200,000	0,001	-0,104
-633,809	0,555	0,072	0,038
-632,795	44,747	-0,078	-0,053
-631,780	241,453	-0,057	-0,071
-630,765	131,770	-0,058	0,055
-629,751	-200,000	0,029	-0,151
-628,736	-29,555	-0,074	-0,031
-627,722	28,363	-0,104	-0,065
-626,707	-83,404	0,061	-0,014
-625,692	-42,719	-0,192	0,072
-624,678	-91,725	-0,114	-0,024
-623,663	72,068	0,140	0,107
-622,649	-200,000	0,030	-0,153
-621,634	-43,678	-0,196	0,072
-620,619	-200,000	0,011	-0,115
-619,605	36,276	-0,055	0,036
-618,590	800,000	0,039	0,084
-617,576	800,000	0,033	0,079
-616,561	44,938	-0,067	-0,045
-615,546	48,138	0,087	0,060
-614,532	-109,457	-0,049	0,008
-613,517	-44,432	-0,165	0,060
-612,503	-18,844	-0,122	-0,056
-611,488	-200,000	0,004	0,024
-610,474	-178,457	-0,077	0,001
-609,459	90,206	0,115	0,095
-608,444	-200,000	0,030	0,128
-607,430	425,041	-0,092	-0,146
-606,415	58,997	-0,047	0,034
-605,401	-200,000	0,008	0,082
-604,386	-86,023	0,065	0,015
-603,371	525,845	-0,053	0,092
-602,357	63,339	-0,045	-0,033
-601,342	46,077	-0,056	0,038
-600,328	-61,085	-0,103	0,032
-599,313	299,978	-0,126	-0,171
-598,298	766,531	0,029	-0,059
-597,284	44,564	0,167	0,113
-596,269	-150,979	0,069	0,004
-595,255	589,319	-0,008	-0,014
-594,240	-87,336	0,064	-0,014
-593,225	800,000	0,061	-0,168
-592,211	-7,132	-0,072	-0,036
-591,196	352,347	-0,051	-0,074
-590,182	-200,000	-0,034	-0,163
-589,167	-200,000	0,011	-0,079
-588,152	800,000	-0,014	0,038
-587,138	-200,000	-0,029	-0,111
-586,123	-200,000	0,027	-0,135
-585,109	-200,000	-0,045	-0,193
-584,094	800,000	-0,060	-0,174
-583,079	800,000	0,015	-0,039
-582,065	-63,965	0,132	0,040
-581,050	446,336	-0,027	0,044
-580,036	108,011	-0,063	0,055
-579,021	160,164	-0,107	-0,110
-578,006	-11,455	-0,111	-0,053
-576,992	522,114	0,056	-0,097
-575,977	-101,779	-0,059	0,010
-574,963	674,539	0,045	-0,086
-573,948	403,758	0,057	-0,089
-572,934	27,947	-0,069	-0,043
-571,919	-0,942	-0,036	0,019
-570,904	240,661	0,030	-0,037
-569,890	48,263	-0,106	0,073
-568,875	-200,000	0,015	0,093
-567,861	-200,000	-0,020	0,094
-566,846	105,660	0,049	0,043
-565,831	800,000	-0,011	-0,034
-564,817	-200,000	-0,020	-0,086
-563,802	-176,730	-0,223	0,004
-562,788	670,522	0,064	-0,122
-561,773	19,590	0,140	0,083
-560,758	-200,000	-0,005	0,054
-559,744	28,264	0,098	-0,061
-558,729	451,768	0,032	0,051
-557,715	-44,740	-0,099	0,036
-556,700	-36,656	-0,060	-0,023
-555,685	-78,691	-0,101	0,025
-554,671	48,797	0,050	0,034
-553,656	263,490	-0,032	0,040
-552,642	-200,000	0,009	0,051
-551,627	160,848	-0,116	-0,119
-550,612	-200,000	0,015	0,142
-549,598	-139,646	-0,175	-0,014
-548,583	-169,395	-0,103	-0,003
-547,569	37,838	-0,045	0,029
-546,554	91,982	0,081	-0,067
-545,539	-14,643	-0,105	-0,049
-544,525	150,659	-0,030	0,030
-543,510	-0,663	-0,124	-0,064
-542,496	1,395	-0,058	0,030
-541,481	-200,000	-0,024	-0,080
-540,466	42,642	0,118	-0,079
-539,452	-5,432	0,008	0,004
-538,437	-200,000	0,041	0,151
-537,423	166,287	-0,080	-0,083
-536,408	800,000	-0,028	-0,059
-535,393	158,571	0,105	-0,108
-534,379	138,045	0,033	-0,032
-533,364	-54,956	-0,085	0,028
-532,350	226,977	-0,023	0,027
-531,335	-200,000	0,008	0,165
-530,321	-25,197	0,066	-0,028
-529,306	-37,704	0,046	0,018
-528,291	696,890	-0,056	-0,110
-527,277	31,690	-0,064	-0,040
-526,262	251,388	-0,024	-0,031
-525,248	-200,000	0,030	0,115
-524,233	58,328	-0,077	-0,056
-523,218	-200,000	-0,003	0,116
-522,204	501,980	0,030	-0,050
-521,189	-200,000	-0,003	-0,082
-520,175	-136,101	0,053	0,005
-519,160	287,380	-0,048	-0,064
-518,145	800,000	-0,025	-0,073
-517,131	330,854	-0,043	0,061
-516,116	-124,546	0,134	-0,015
-515,102	-48,370	-0,237	-0,083
-514,087	-200,000	0,012	-0,084
-513,072	-200,000	-0,003	-0,190
-512,058	208,443	-0,030	-0,035
-511,043	166,149	0,026	-0,027
-510,029	-11,380	-0,071	0,034
-509,014	58,511	-0,039	0,028
-507,999	51,356	0,127	0,089
-506,985	800,000	-0,054	-0,118
-505,970	-22,577	-0,060	0,027
-504,956	-200,000	0,015	-0,065
-503,941	-134,910	0,099	-0,009
-502,926	-127,059	0,116	0,012
-501,912	800,000	0,038	-0,101
-500,897	-82,702	0,062	0,015
-499,883	-198,192	0,047	0,000
-498,868	363,070	0,016	0,023
-497,853	64,364	-0,098	0,072
-496,839	-200,000	0,008	-0,145
-495,824	800,000	-0,014	-0,030
-494,810	-137,860	0,144	0,012
-493,795	800,000	0,063	0,129
-492,781	-11,760	0,050	0,024
-491,766	-14,986	-0,108	-0,050
-490,751	-151,610	-0,028	0,001
-489,737	-200,000	0,013	0,125
-488,722	-109,078	0,081	-0,013
-487,708	-200,000	0,027	0,110
-486,693	118,255	0,123	0,112
-485,678	-10,846	0,102	-0,049
-484,664	-200,000	0,007	0,038
-483,649	574,583	-0,015	-0,027
-482,635	104,578	-0,144	0,125
-481,620	217,271	-0,051	0,060
-480,605	-200,000	-0,030	-0,107
-479,591	-101,031	-0,121	0,021
-478,576	191,414	0,030	0,033
-477,562	800,000	0,012	0,037
-476,547	-200,000	0,007	0,055
-475,532	-102,969	0,183	-0,032
-474,518	46,465	-0,046	-0,031
-473,503	321,751	0,121	0,169
-472,489	-171,700	0,091	0,002
-471,474	-68,233	0,150	-0,043
-470,459	-3,146	-0,092	-0,047
-469,445	800,000	-0,015	-0,032
-468,430	-200,000	-0,010	0,057
-467,416	-200,000	0,014	0,073
-466,401	-200,000	0,021	0,092
-465,386	-127,992	0,063	-0,007
-464,372	-24,693	-0,027	-0,012
-463,357	-142,440	-0,109	0,008
-462,343	-52,585	0,034	-0,012
-461,328	-68,304	0,032	0,009
-460,313	601,567	-0,043	0,079
-459,299	-133,204	0,097	-0,009
-458,284	376,552	-0,026	0,039
-457,270	288,267	-0,098	-0,130
-456,255	800,000	0,029	-0,088
-455,241	-70,958	-0,095	0,026
-454,226	143,513	0,134	-0,131
-453,211	-200,000	-0,017	-0,127
-452,197	406,314	-0,027	-0,042
-451,182	-200,000	0,013	0,148
-450,168	16,622	0,058	-0,034
-449,153	-200,000	0,006	-0,095
-448,138	96,687	-0,072	-0,061
-447,124	563,159	0,041	-0,074
-446,109	264,138	0,074	0,094
-445,095	-200,000	-0,022	0,083
-444,080	-200,000	-0,015	-0,060
-443,065	-81,280	0,090	0,022
-442,051	800,000	0,041	0,088
-441,036	268,398	0,117	-0,151
-440,022	800,000	-0,071	-0,173
-439,007	-200,000	0,029	0,098
-437,992	13,348	0,128	-0,072
-436,978	-171,811	0,033	-0,001
-435,963	163,069	-0,062	0,064
-434,949	-200,000	-0,001	0,041
-433,934	79,852	0,056	0,044
-432,919	-200,000	-0,001	-0,052
-431,905	-46,630	-0,088	0,032
-430,890	94,250	0,144	0,120
-429,876	569,126	-0,057	0,101
-428,861	-19,084	0,092	0,042
-427,846	128,896	0,014	0,013
-426,832	142,146	0,053	-0,052
-425,817	-200,000	0,006	0,086
-424,803	158,655	-0,059	-0,060
-423,788	-2,175	-0,047	-0,024
-422,773	-80,172	-0,158	0,038
-421,759	-91,308	0,090	-0,019
-420,744	-123,439	-0,109	-0,013
-419,730	-200,000	-0,030	0,154
-418,715	-120,999	-0,032	0,004
-417,701	-16,950	0,111	-0,051
-416,686	-200,000	-0,014	-0,056
-415,671	-168,318	0,171	0,005
-414,657	-200,000	-0,007	0,111
-413,642	-59,372	0,171	-0,053
-412,628	800,000	-0,062	0,153
-411,613	418,815	0,036	-0,056
-410,598	508,245	-0,020	-0,034
-409,584	627,582	-0,033	0,061
-408,569	53,775	0,150	0,105
-407,555	464,527	0,021	0,035
-406,540	-200,000	-0,034	0,118
-405,525	800,000	-0,066	-0,143
-404,511	800,000	-0,007	0,016
-403,496	75,058	0,094	-0,072
-402,482	50,584	-0,035	0,024
-401,467	-89,413	0,006	-0,001
-400,452	374,272	0,068	-0,102
-399,438	-200,000	0,021	0,083
-398,423	-11,844	-0,177	-0,085
-397,409	88,690	0,016	0,013
-396,394	-200,000	-0,008	-0,132
-395,379	-96,574	-0,121	-0,023
-394,365	570,412	0,104	0,186
-393,350	-200,000	0,007	0,123
-392,336	92,777	0,089	0,074
-391,321	57,968	0,083	-0,059
-390,306	-200,000	0,032	-0,125
-389,292	-200,000	0,031	-0,162
-388,277	277,466	-0,015	-0,020
-387,263	800,000	0,025	0,054
-386,248	15,386	0,083	-0,047
-385,233	298,264	0,087	0,118
-384,219	52,181	-0,120	-0,084
-383,204	800,000	-0,066	-0,149
-382,190	346,190	0,018	0,026
-381,175	-200,000	0,016	-0,067
-380,160	19,657	-0,043	-0,025
-379,146	197,356	0,024	0,026
-378,131	-200,000	-0,040	0,136
-377,117	-200,000	-0,001	-0,026
-376,102	-132,289	-0,148	-0,014
-375,088	251,361	-0,042	-0,052
-374,073	800,000	-0,010	-0,023
-373,058	38,791	-0,058	0,037
-372,044	-4,161	0,108	0,054
-371,029	-200,000	0,009	0,079
-370,015	109,081	0,050	-0,044
-369,000	-200,000	0,003	-0,062
-367,985	-95,190	-0,039	-0,008
-366,971	-200,000	0,014	0,061
-365,956	28,473	0,080	-0,050
-364,942	285,369	0,078	0,102
-363,927	128,395	0,059	0,055
-362,912	162,439	0,064	-0,066
-361,898	142,159	0,050	0,049
-360,883	-129,221	0,071	0,007
-359,869	262,576	0,120	0,152
-358,854	437,497	-0,030	-0,048
-357,839	-96,007	0,116	0,022
-356,825	-200,000	-0,009	0,060
-355,810	-105,929	-0,128	0,021
-354,796	132,906	-0,035	-0,033
-353,781	162,674	-0,064	0,066
-352,766	-200,000	-0,027	-0,109
-351,752	-87,832	0,027	-0,006
-350,737	-24,787	0,175	0,075
-349,723	395,873	-0,064	0,097
-348,708	317,270	0,078	0,109
-347,693	-28,037	0,093	0,039
-346,679	51,143	-0,110	-0,076
-345,664	567,934	0,032	0,056
-344,650	800,000	-0,032	-0,090
-343,635	800,000	-0,067	0,143
-342,620	800,000	0,046	0,123
-341,606	-143,451	0,079	-0,005
-340,591	-200,000	0,029	0,000
-339,577	-62,872	-0,064	0,019
-338,562	240,605	0,064	-0,077
-337,548	-200,000	0,022	-0,146
-336,533	-2,298	0,011	-0,006
-335,518	38,369	0,090	-0,058
-334,504	-122,099	-0,131	0,016
-333,489	525,990	-0,058	-0,100
-332,475	9,179	0,050	-0,028
-331,460	34,494	0,138	-0,088
-330,445	417,405	-0,060	0,094
-329,431	-158,204	0,219	0,009
-328,416	-200,000	0,004	0,118
-327,402	-21,292	0,067	0,030
-326,387	3,631	-0,068	0,036
-325,372	-200,000	0,018	-0,070
-324,358	-200,000	-0,011	0,096
-323,343	-200,000	-0,007	0,066
-322,329	-98,131	0,037	0,007
-321,314	-64,845	0,126	-0,037
-320,299	163,084	0,076	0,078
-319,285	109,071	-0,112	0,098
-318,270	14,230	0,067	-0,038
-317,256	800,000	-0,003	-0,009
-316,241	-5,055	0,092	-0,046
-315,226	-200,000	-0,002	0,029
-314,212	196,272	0,017	0,019
-313,197	-200,000	-0,015	0,091
-312,183	800,000	-0,013	0,040
-311,168	-83,384	0,049	0,011
-310,153	800,000	-0,028	0,078
-309,139	-61,874	0,037	-0,011
-308,124	-6,728	-0,049	-0,024
-307,110	-16,948	0,053	-0,024
-306,095	138,414	0,090	-0,086
-305,080	26,132	-0,011	-0,007
-304,066	-57,951	-0,106	-0,033
-303,051	-46,698	-0,080	-0,028
-302,037	800,000	0,047	-0,101
-301,022	395,326	-0,038	0,058
-300,008	-118,333	0,123	-0,016
-298,993	350,085	0,124	0,179
-297,978	98,894	0,090	0,076
-296,964	-108,967	0,102	-0,016
-295,949	800,000	0,023	-0,073
-294,935	-159,887	-0,088	0,003
-293,920	-200,000	-0,024	0,088
-292,905	249,907	0,030	-0,037
-291,891	800,000	-0,016	0,043
-290,876	-16,579	-0,118	-0,054
-289,862	-200,000	-0,017	0,102
-288,847	-67,476	0,075	-0,021
-287,832	-45,467	0,060	0,021
-286,818	-30,478	-0,166	-0,068
-285,803	75,908	-0,124	0,095
-284,789	629,872	0,057	0,106
-283,774	221,028	-0,086	-0,101
-282,759	-132,791	0,046	0,004
-281,745	15,869	-0,028	0,016
-280,730	-101,436	0,084	0,015
-279,716	-66,989	0,166	-0,047
-278,701	-200,000	0,002	0,103
-277,686	-200,000	0,017	-0,169
-276,672	519,456	0,024	-0,041
-275,657	111,274	0,100	0,088
-274,643	-119,690	-0,129	-0,016
-273,628	74,316	-0,100	-0,077
-272,613	483,408	-0,060	-0,100
-271,599	-14,144	0,031	0,014
-270,584	-200,000	0,017	0,140
-269,570	409,448	0,028	0,043
-268,555	-66,123	-0,142	-0,041
-267,540	-200,000	0,013	0,062
-266,526	385,866	-0,053	-0,080
-265,511	-106,250	-0,026	0,004
-264,497	207,846	0,062	0,071
-263,482	-119,871	0,067	0,008
-262,467	-107,710	-0,015	0,002
-261,453	800,000	0,036	0,110
-260,438	-115,588	0,118	-0,016
-259,424	-29,779	-0,105	0,043
-258,409	800,000	-0,067	-0,146
-257,395	-26,044	0,056	-0,024
-256,380	-200,000	0,009	0,041
-255,365	-96,575	0,103	-0,020
-254,351	135,274	-0,076	0,072
-253,336	54,154	0,123	0,086
-252,322	-176,187	-0,123	-0,002
-251,307	766,491	0,034	-0,068
-250,292	-200,000	-0,013	-0,124
-249,278	1,695	-0,068	0,036
-248,263	-79,005	0,046	0,011
-247,249	479,120	0,042	0,069
-246,234	89,258	0,134	-0,108
-245,219	31,870	0,051	-0,032
-244,205	-200,000	0,001	-0,091
-243,190	61,983	-0,073	-0,053
-242,176	131,348	-0,019	-0,018
-241,161	-110,497	0,150	0,022
-240,146	56,433	0,052	0,037
-239,132	130,509	0,062	-0,058
-238,117	-116,378	-0,061	-0,008
-237,103	-61,341	0,090	0,027
-236,088	360,357	-0,024	0,034
-235,073	-200,000	-0,026	0,132
-234,059	-200,000	-0,022	0,146
-233,044	-200,000	-0,057	0,234
-232,030	68,582	-0,098	0,073
-231,015	69,573	-0,151	0,113
-230,000	-200,000	0,003	-0,057
-228,986	-200,000	-0,006	-0,073
-227,971	434,650	-0,031	-0,050
-226,957	-200,000	-0,016	-0,057
-225,942	800,000	0,036	0,085
-224,927	350,222	0,057	0,082
-223,913	800,000	-0,035	-0,107
-222,898	-27,987	-0,059	0,025
-221,884	-73,736	-0,131	-0,034
-220,869	-200,000	-0,010	0,044
-219,855	356,111	-0,034	0,049
-218,840	-112,709	0,091	0,013
-217,825	-200,000	0,017	-0,094
-216,811	-200,000	-0,045	-0,145
-215,796	-200,000	-0,004	-0,070
-214,782	269,751	-0,032	0,041
-213,767	-2,491	-0,075	-0,038
-212,752	266,427	-0,032	0,041
-211,738	-108,045	0,181	0,028
-210,723	128,530	0,056	-0,052
-209,709	-116,413	-0,040	-0,005
-208,694	-120,927	-0,122	0,015
-207,679	-200,000	-0,008	-0,212
-206,665	-147,484	0,055	0,003
-205,650	-200,000	-0,008	0,088
-204,636	-200,000	-0,005	0,143
-203,621	129,607	0,018	0,017
-202,606	-78,606	0,062	-0,015
-201,592	26,306	-0,077	0,046
-200,577	343,203	0,022	-0,031
-199,563	-22,477	0,051	-0,022
-198,548	800,000	0,025	0,052
-197,533	-150,865	0,050	0,003
-196,519	800,000	-0,013	-0,028
-195,504	321,894	0,094	0,131
-194,490	236,000	-0,036	0,044
-193,475	-129,747	-0,172	0,017
-192,460	422,560	-0,069	-0,107
-191,446	-32,048	0,140	0,057
-190,431	-153,010	0,133	0,007
-189,417	-76,336	0,063	0,016
-188,402	115,748	-0,016	0,014
-187,387	-91,211	-0,105	0,022
-186,373	-200,000	0,007	-0,090
-185,358	707,066	-0,109	-0,210
-184,344	800,000	0,057	0,136
-183,329	489,779	-0,070	0,117
-182,315	41,002	0,085	0,055
-181,300	800,000	-0,041	-0,089
-180,285	800,000	-0,033	-0,094
-179,271	56,423	-0,150	-0,105
-178,256	217,410	0,095	0,110
-177,242	38,433	-0,057	0,036
-176,227	-200,000	0,006	0,079
-175,212	-142,598	-0,120	0,008
-174,198	45,474	-0,053	0,035
-173,183	285,071	-0,044	-0,057
-172,169	5,066	0,089	-0,048
-171,154	245,160	0,045	0,055
-170,139	728,568	-0,055	-0,107
-169,125	237,639	-0,047	0,056
-168,110	-200,000	-0,012	-0,059
-167,096	48,883	-0,066	0,045
-166,081	242,015	-0,077	-0,093
-165,066	77,764	0,096	0,074
-164,052	10,952	0,051	-0,028
-163,037	124,590	0,038	0,035
-162,023	185,929	-0,065	0,070
-161,008	800,000	0,076	0,192
-159,993	127,912	-0,024	-0,022
-158,979	-200,000	0,007	0,086
-157,964	-200,000	0,003	0,057
-156,950	504,596	0,029	-0,049
-155,935	-99,558	-0,073	0,013
-154,920	32,480	0,042	-0,026
-153,906	-200,000	0,005	0,137
-152,891	-143,736	-0,064	-0,004
-151,877	694,756	0,050	0,095
-150,862	800,000	0,036	0,074
-149,847	-32,597	-0,097	-0,039
-148,833	-200,000	-0,003	0,083
-147,818	-102,048	-0,070	-0,012
-146,804	180,004	0,010	0,010
-145,789	146,004	0,059	0,057
-144,775	800,000	-0,020	0,041
-143,760	201,566	-0,095	-0,106
-142,745	73,454	-0,083	-0,063
-141,731	-73,908	0,099	-0,026
-140,716	-172,886	0,021	-0,000
-139,702	-200,000	-0,021	0,083
-138,687	-57,900	0,058	0,018
-137,672	94,778	-0,077	0,064
-136,658	-31,924	-0,070	0,028
-135,643	-200,000	0,006	-0,149
-134,629	-17,895	-0,081	-0,036
-133,614	423,099	-0,023	-0,037
-132,599	800,000	-0,022	-0,066
-131,585	-200,000	0,037	0,130
-130,570	800,000	0,010	0,025
-129,556	-40,390	-0,120	0,045
-128,541	-91,128	0,130	-0,027
-127,526	-118,945	-0,030	0,004
-126,512	800,000	-0,051	0,128
-125,497	800,000	-0,014	0,039
-124,483	800,000	-0,033	0,076
-123,468	495,884	-0,028	0,047
-122,453	370,044	-0,045	0,066
-121,439	-200,000	-0,007	-0,121
-120,424	-200,000	0,026	0,091
-119,410	-174,120	0,161	0,003
