DTS Sentinel unit serial number:	SN410029Multiplexer serial number:	ORYXHardware model number:	OX2-SRSoftware version number:	ORYX F/W v4,00 Oryx Data Collector v3.7.2.0data status	okinstallation	B3 Nyhavnadifferential loss correction	single-endedforward channel	channel 1reverse channel	N/Adate	2023/11/28time	15:12:30forward acquisition time	300,00reverse acquisition time	0,00gamma	499,1914k internal	0,3170k external	0,3170temperature offset calibration	1,0000default loss term (dB/km)	0,3820temperature slope calibration	1,0000multiplexer offset coefficient	1,0000multiplexer slope coefficient	1,0000fibre end	0,00T internal ref (°C)	7,31T ext. ref 1 (°C)	-7,68T ext. ref 2 (°C)	-7,86length (m)	temperature (°C)	Stokes	anti-Stokes-744,400	279,637	-0,185	-0,243
-743,385	354,785	-0,101	0,148
-742,371	449,627	-0,103	-0,167
-741,356	-200,000	-0,003	0,292
-740,342	465,193	-0,188	-0,309
-739,327	800,000	0,055	0,114
-738,312	81,380	-0,270	-0,214
-737,298	800,000	-0,128	0,312
-736,283	800,000	-0,078	-0,236
-735,269	800,000	-0,066	0,158
-734,254	753,573	-0,097	-0,192
-733,239	-55,122	-0,174	0,057
-732,225	800,000	-0,130	-0,267
-731,210	-45,258	0,133	0,048
-730,196	59,568	-0,135	-0,097
-729,181	189,525	0,065	0,071
-728,167	-72,914	-0,036	0,010
-727,152	-200,000	-0,007	-0,103
-726,137	413,247	-0,046	-0,072
-725,123	529,853	-0,031	0,054
-724,108	-200,000	-0,036	-0,156
-723,094	39,359	0,068	-0,045
-722,079	273,238	-0,032	-0,041
-721,064	213,900	0,063	-0,074
-720,050	-102,684	0,010	-0,002
-719,035	-200,000	-0,007	0,185
-718,021	319,789	0,053	-0,074
-717,006	176,605	-0,104	-0,111
-715,991	-200,000	-0,023	-0,077
-714,977	-200,000	-0,018	-0,098
-713,962	-13,215	0,061	-0,029
-712,948	-37,809	0,018	0,007
-711,933	179,765	-0,147	0,158
-710,918	-200,000	-0,023	-0,176
-709,904	331,057	-0,059	-0,084
-708,889	-200,000	-0,030	-0,115
-707,875	165,315	-0,133	-0,138
-706,860	-77,959	0,058	0,015
-705,845	-200,000	0,016	-0,147
-704,831	137,226	0,094	-0,091
-703,816	592,459	-0,047	0,086
-702,802	382,573	0,035	0,054
-701,787	800,000	0,033	-0,078
-700,772	800,000	-0,029	-0,082
-699,758	-200,000	-0,004	-0,046
-698,743	432,100	-0,055	0,087
-697,729	312,657	0,006	0,008
-696,714	161,159	0,057	-0,058
-695,699	-74,466	-0,030	0,008
-694,685	-11,754	-0,138	-0,066
-693,670	-200,000	-0,026	-0,136
-692,656	208,263	-0,054	0,062
-691,641	-0,854	0,059	0,031
-690,627	-0,888	-0,093	0,048
-689,612	449,765	0,066	-0,107
-688,597	175,506	-0,015	-0,016
-687,583	537,476	0,046	0,081
-686,568	-68,834	-0,080	-0,022
-685,554	-200,000	0,006	-0,046
-684,539	-200,000	-0,012	0,151
-683,524	-145,587	-0,107	-0,007
-682,510	642,990	-0,008	-0,015
-681,495	26,108	-0,112	0,068
-680,481	-200,000	-0,012	0,156
-679,466	-104,812	-0,072	-0,012
-678,451	424,772	-0,069	-0,109
-677,437	800,000	-0,014	0,033
-676,422	800,000	0,024	-0,055
-675,408	289,866	-0,091	-0,121
-674,393	35,167	0,025	-0,016
-673,378	800,000	-0,039	-0,121
-672,364	-79,242	0,022	0,005
-671,349	164,181	-0,099	-0,102
-670,335	155,693	0,170	0,172
-669,320	-200,000	-0,002	0,030
-668,305	-128,338	0,103	0,011
-667,291	-136,948	-0,111	0,009
-666,276	-200,000	0,001	-0,134
-665,262	800,000	-0,010	0,023
-664,247	-200,000	-0,006	0,083
-663,232	-140,956	-0,069	0,005
-662,218	-116,437	0,202	0,027
-661,203	-200,000	0,037	0,125
-660,189	800,000	-0,009	0,022
-659,174	336,478	0,061	0,088
-658,159	211,042	0,047	-0,054
-657,145	-89,688	-0,033	-0,007
-656,130	-200,000	0,002	-0,018
-655,116	92,314	-0,076	0,063
-654,101	-200,000	0,013	0,112
-653,086	-8,271	-0,050	0,025
-652,072	800,000	0,027	0,062
-651,057	-39,683	-0,056	-0,021
-650,043	361,153	-0,061	-0,090
-649,028	26,996	0,034	-0,021
-648,014	96,189	-0,088	-0,074
-646,999	-200,000	-0,009	0,055
-645,984	173,734	-0,075	0,079
-644,970	114,946	0,073	-0,065
-643,955	-98,839	0,064	0,012
-642,941	-111,708	-0,070	0,010
-641,926	800,000	-0,016	0,039
-640,911	132,558	-0,084	-0,080
-639,897	-200,000	0,004	0,134
-638,882	236,497	-0,083	0,101
-637,868	353,211	-0,052	0,075
-636,853	800,000	-0,080	-0,164
-635,838	-200,000	-0,037	-0,145
-634,824	216,738	0,068	0,079
-633,809	-200,000	0,002	0,019
-632,795	64,407	-0,095	0,070
-631,780	800,000	0,007	-0,021
-630,765	-0,790	0,140	-0,072
-629,751	800,000	-0,063	-0,131
-628,736	797,297	0,062	-0,126
-627,722	-200,000	-0,011	0,045
-626,707	438,821	0,083	0,133
-625,692	289,106	0,065	0,087
-624,678	800,000	-0,055	0,155
-623,663	-108,505	-0,107	-0,017
-622,649	61,580	0,099	0,072
-621,634	606,455	0,011	-0,021
-620,619	-200,000	0,004	-0,047
-619,605	546,001	0,047	0,082
-618,590	266,991	0,032	0,040
-617,576	47,894	0,023	-0,016
-616,561	-200,000	-0,012	-0,092
-615,546	-160,813	-0,072	0,003
-614,532	-200,000	0,020	-0,164
-613,517	120,137	-0,093	-0,084
-612,503	195,780	0,113	-0,125
-611,488	180,048	-0,061	0,065
-610,474	258,451	-0,029	-0,036
-609,459	226,280	-0,069	-0,081
-608,444	19,172	-0,088	-0,052
-607,430	800,000	-0,008	-0,020
-606,415	11,090	-0,060	-0,034
-605,401	-60,800	0,050	-0,015
-604,386	311,332	-0,025	0,034
-603,371	441,223	0,035	-0,057
-602,357	52,062	0,093	0,065
-601,342	657,740	-0,029	-0,055
-600,328	43,654	-0,169	-0,113
-599,313	-200,000	0,008	0,088
-598,298	-200,000	-0,014	-0,055
-597,284	-75,494	0,078	0,020
-596,269	-200,000	0,011	0,069
-595,255	800,000	-0,029	-0,082
-594,240	141,407	0,108	0,104
-593,225	135,058	-0,030	-0,028
-592,211	800,000	0,064	-0,134
-591,196	-101,622	-0,118	0,021
-590,182	-200,000	-0,009	0,037
-589,167	92,617	-0,052	-0,043
-588,152	-200,000	-0,013	0,100
-587,138	1,552	0,058	0,030
-586,123	-130,241	-0,132	-0,013
-585,109	-127,801	-0,040	0,004
-584,094	773,573	-0,063	-0,126
-583,079	24,079	0,114	-0,068
-582,065	-200,000	-0,048	0,172
-581,050	800,000	0,034	-0,079
-580,036	346,653	-0,063	-0,090
-579,021	170,634	-0,020	0,021
-578,006	160,497	0,021	-0,021
-576,992	-96,605	-0,028	0,005
-575,977	-200,000	0,023	-0,086
-574,963	57,530	-0,061	-0,043
-573,948	-22,819	0,114	0,050
-572,934	111,900	-0,116	-0,102
-571,919	-4,990	-0,068	-0,034
-570,904	800,000	-0,039	0,088
-569,890	-200,000	0,026	-0,085
-568,875	22,524	0,111	-0,066
-567,861	-200,000	0,000	-0,034
-566,846	111,674	0,071	0,063
-565,831	-84,383	0,103	-0,024
-564,817	80,486	-0,101	0,079
-563,802	-81,824	-0,115	-0,027
-562,788	-104,982	0,094	0,015
-561,773	-146,906	0,131	-0,008
-560,758	71,504	0,151	-0,114
-559,744	-68,293	0,064	-0,018
-558,729	122,456	0,022	0,020
-557,715	-24,576	-0,097	-0,042
-556,700	-200,000	0,034	-0,178
-555,685	-200,000	0,002	-0,208
-554,671	800,000	-0,015	-0,049
-553,656	331,602	0,036	0,051
-552,642	-44,144	0,061	0,022
-551,627	755,566	-0,037	0,074
-550,612	139,323	0,044	-0,042
-549,598	-155,294	-0,056	0,003
-548,583	-5,343	-0,076	-0,038
-547,569	37,172	0,086	-0,055
-546,554	27,822	0,054	0,033
-545,539	131,325	0,053	0,049
-544,525	-18,951	0,037	0,017
-543,510	-200,000	-0,016	-0,088
-542,496	204,520	-0,109	-0,124
-541,481	227,898	0,018	-0,021
-540,466	-93,033	0,107	0,022
-539,452	-104,459	-0,123	0,021
-538,437	7,303	0,140	-0,076
-537,423	-17,792	-0,106	0,048
-536,408	2,617	-0,050	-0,027
-535,393	-118,660	-0,142	-0,018
-534,379	55,104	0,108	-0,076
-533,364	800,000	0,048	-0,112
-532,350	800,000	0,076	0,219
-531,335	-200,000	-0,013	0,101
-530,321	-33,246	0,183	0,073
-529,306	582,833	0,030	-0,054
-528,291	-200,000	0,005	0,043
-527,277	139,962	0,124	-0,119
-526,262	176,022	-0,100	-0,106
-525,248	234,622	0,049	0,060
-524,233	800,000	0,024	0,056
-523,218	154,491	-0,070	0,071
-522,204	233,341	-0,016	0,019
-521,189	-144,539	-0,181	0,012
-520,175	-200,000	0,001	-0,041
-519,160	218,074	0,058	0,068
-518,145	-200,000	0,012	-0,057
-517,131	-200,000	-0,036	0,200
-516,116	-200,000	-0,008	0,075
-515,102	800,000	0,019	0,039
-514,087	279,418	-0,042	-0,054
-513,072	39,006	-0,052	-0,034
-512,058	288,546	-0,007	0,009
-511,043	-196,662	-0,096	0,000
-510,029	-7,654	0,020	0,010
-509,014	-128,852	-0,078	-0,008
-507,999	800,000	0,009	0,025
-506,985	-93,901	-0,074	-0,015
-505,970	727,703	0,057	-0,111
-504,956	800,000	-0,020	-0,059
-503,941	800,000	-0,024	-0,077
-502,926	-123,601	0,034	-0,004
-501,912	800,000	0,039	0,092
-500,897	77,774	0,035	-0,027
-499,883	341,294	-0,094	-0,134
-498,868	-64,414	-0,074	-0,022
-497,853	23,147	-0,090	0,054
-496,839	-77,416	-0,072	0,018
-495,824	800,000	-0,031	-0,071
-494,810	261,850	-0,021	0,027
-493,795	-128,857	0,150	-0,015
-492,781	-129,071	0,125	-0,013
-491,766	800,000	-0,021	0,052
-490,751	-112,389	-0,118	-0,017
-489,737	335,680	0,014	0,020
-488,722	146,652	0,043	0,042
-487,708	6,347	0,145	0,078
-486,693	261,175	0,037	-0,047
-485,678	445,696	0,063	0,101
-484,664	-200,000	0,014	0,091
-483,649	159,815	-0,064	-0,064
-482,635	185,210	0,075	0,081
-481,620	-108,086	-0,090	-0,014
-480,605	800,000	0,074	0,175
-479,591	-200,000	-0,010	0,076
-478,576	5,505	-0,119	0,064
-477,562	800,000	-0,082	-0,170
-476,547	-200,000	0,007	-0,059
-475,532	-200,000	-0,014	-0,100
-474,518	-200,000	0,002	0,011
-473,503	426,654	0,087	0,136
-472,489	-200,000	-0,020	-0,087
-471,474	-61,366	0,017	-0,005
-470,459	-131,885	-0,115	-0,011
-469,445	-96,581	-0,033	-0,006
-468,430	120,283	-0,098	0,088
-467,416	115,344	0,041	-0,036
-466,401	-200,000	0,027	0,095
-465,386	121,641	-0,070	0,064
-464,372	-141,099	0,040	0,003
-463,357	-101,693	0,105	0,018
-462,343	73,888	-0,056	-0,042
-461,328	92,739	-0,030	-0,025
-460,313	-134,946	-0,100	0,009
-459,299	-21,872	0,044	-0,019
-458,284	178,261	0,092	0,097
-457,270	335,507	0,080	0,114
-456,255	-118,260	0,135	-0,017
-455,241	247,649	0,018	-0,022
-454,226	156,071	0,034	-0,034
-453,211	-200,000	-0,005	-0,087
-452,197	-50,877	0,092	-0,031
-451,182	-200,000	-0,005	0,016
-450,168	353,212	0,103	0,149
-449,153	-41,907	-0,080	0,030
-448,138	-20,595	-0,101	-0,045
-447,124	-200,000	-0,006	-0,129
-446,109	-161,754	-0,113	-0,004
-445,095	287,104	0,041	-0,053
-444,080	-33,360	0,150	-0,060
-443,065	463,223	0,045	0,073
-442,051	323,004	-0,070	-0,097
-441,036	-100,281	-0,137	-0,024
-440,022	90,040	-0,060	-0,049
-439,007	315,998	0,039	-0,053
-437,992	800,000	0,046	0,129
-436,978	-200,000	0,019	0,085
-435,963	-39,111	-0,024	-0,009
-434,949	-14,024	-0,081	0,038
-433,934	-200,000	0,030	-0,231
-432,919	800,000	-0,007	0,023
-431,905	-130,155	0,230	-0,022
-430,890	-21,594	0,111	0,049
-429,876	189,991	0,103	-0,112
-428,861	-71,482	0,110	-0,030
-427,846	371,644	-0,046	-0,068
-426,832	17,949	-0,078	-0,045
-425,817	-200,000	0,013	-0,112
-424,803	106,651	0,050	-0,043
-423,788	24,577	0,043	-0,026
-422,773	800,000	0,048	0,119
-421,759	126,482	0,069	0,063
-420,744	495,247	0,013	-0,021
-419,730	-22,810	-0,049	-0,021
-418,715	-200,000	0,046	-0,177
-417,701	-200,000	-0,011	0,036
-416,686	90,612	0,120	0,097
-415,671	190,162	0,180	-0,196
-414,657	-200,000	0,008	0,063
-413,642	-200,000	0,005	0,111
-412,628	800,000	-0,023	-0,059
-411,613	655,617	-0,032	-0,060
-410,598	-200,000	-0,009	0,076
-409,584	337,275	-0,073	-0,103
-408,569	37,227	-0,055	0,035
-407,555	-96,554	0,147	0,028
-406,540	-141,919	0,047	0,003
-405,525	450,118	-0,047	-0,075
-404,511	800,000	-0,024	0,061
-403,496	379,515	0,009	-0,014
-402,482	-200,000	-0,025	0,127
-401,467	800,000	0,039	-0,107
-400,452	-200,000	-0,007	0,056
-399,438	-91,762	0,095	-0,019
-398,423	-200,000	-0,001	-0,068
-397,409	-69,585	0,028	-0,008
-396,394	747,027	0,024	-0,048
-395,379	16,119	0,062	0,035
-394,365	-51,351	-0,052	-0,018
-393,350	-42,280	0,037	-0,013
-392,336	-29,589	0,103	0,043
-391,321	-4,621	-0,153	0,076
-390,306	-165,234	-0,078	-0,002
-389,292	145,187	0,105	-0,102
-388,277	383,775	-0,026	-0,038
-387,263	-140,903	-0,041	0,003
-386,248	621,794	0,070	0,127
-385,233	178,834	0,097	-0,103
-384,219	-200,000	-0,036	-0,157
-383,204	-25,506	0,092	-0,039
-382,190	-10,660	-0,160	0,076
-381,175	-167,635	0,072	-0,002
-380,160	-14,094	-0,075	0,035
-379,146	194,304	0,175	0,192
-378,131	-89,234	-0,071	0,015
-377,117	-200,000	0,015	0,112
-376,102	318,164	0,045	0,062
-375,088	53,227	-0,171	0,119
-374,073	-101,431	0,018	-0,003
-373,058	63,364	-0,084	0,061
-372,044	369,239	0,025	0,036
-371,029	-200,000	-0,004	0,036
-370,015	-40,416	0,081	0,030
-369,000	763,903	-0,080	-0,159
-367,985	56,982	0,018	-0,012
-366,971	598,473	0,047	-0,084
-365,956	-200,000	-0,025	0,126
-364,942	486,427	0,042	0,069
-363,927	-200,000	-0,003	0,045
-362,912	-194,415	-0,041	0,000
-361,898	-68,863	-0,116	0,032
-360,883	712,426	0,019	-0,037
-359,869	-22,801	0,101	0,044
-358,854	-37,625	0,058	-0,022
-357,839	800,000	-0,032	-0,093
-356,825	-114,883	0,107	-0,015
-355,810	339,969	0,013	-0,018
-354,796	6,421	-0,075	0,040
-353,781	-133,184	-0,207	0,019
-352,766	119,354	0,114	-0,102
-351,752	-200,000	-0,025	-0,097
-350,737	212,777	0,045	0,052
-349,723	124,624	0,097	0,089
-348,708	39,210	-0,094	0,061
-347,693	800,000	0,039	-0,103
-346,679	-39,699	-0,019	0,007
-345,664	367,725	-0,031	0,045
-344,650	-200,000	-0,021	0,085
-343,635	140,071	0,051	0,049
-342,620	-200,000	0,023	0,200
-341,606	800,000	0,056	0,135
-340,591	-200,000	0,004	-0,071
-339,577	-200,000	0,055	0,245
-338,562	-200,000	-0,013	-0,063
-337,548	6,112	-0,040	-0,022
-336,533	258,205	-0,039	-0,049
-335,518	-16,538	-0,105	0,048
-334,504	309,169	0,093	0,126
-333,489	150,662	-0,178	0,174
-332,475	50,973	-0,078	0,054
-331,460	40,087	-0,158	-0,103
-330,445	-200,000	-0,017	0,077
-329,431	154,528	0,060	0,060
-328,416	177,028	0,120	-0,127
-327,402	51,078	0,083	-0,057
-326,387	-200,000	-0,006	0,078
-325,372	212,764	-0,062	-0,070
-324,358	-124,772	-0,082	0,009
-323,343	31,644	-0,140	-0,087
-322,329	-200,000	-0,012	-0,052
-321,314	800,000	0,062	0,130
-320,299	-139,346	-0,013	0,001
-319,285	560,138	-0,024	0,041
-318,270	224,439	0,018	0,021
-317,256	152,894	-0,050	0,049
-316,241	581,660	0,051	-0,091
-315,226	243,020	0,053	-0,064
-314,212	-200,000	0,009	-0,068
-313,197	-200,000	0,006	0,219
-312,183	144,622	-0,081	-0,078
-311,168	-37,700	-0,030	-0,012
-310,153	72,648	-0,089	-0,067
-309,139	-200,000	-0,006	-0,079
-308,124	285,322	-0,017	-0,022
-307,110	118,570	0,078	0,070
-306,095	-12,679	0,038	0,018
-305,080	-122,786	0,130	-0,015
-304,066	134,605	-0,063	-0,059
-303,051	7,189	-0,078	0,042
-302,037	-122,506	-0,009	-0,001
-301,022	-81,618	0,134	-0,032
-300,008	257,426	0,093	0,116
-298,993	183,386	0,085	0,090
-297,978	145,750	-0,093	0,090
-296,964	49,631	-0,031	0,021
-295,949	79,718	-0,120	-0,093
-294,935	54,459	-0,066	-0,046
-293,920	16,715	-0,157	-0,090
-292,905	800,000	0,023	-0,051
-291,891	-200,000	-0,010	0,108
-290,876	800,000	-0,054	0,112
-289,862	309,394	0,015	-0,020
-288,847	43,117	-0,147	-0,097
-287,832	-200,000	-0,009	-0,055
-286,818	371,570	-0,032	0,047
-285,803	44,765	0,077	0,051
-284,789	-200,000	0,051	0,177
-283,774	800,000	-0,037	0,090
-282,759	130,740	0,059	-0,054
-281,745	601,318	0,014	-0,026
-280,730	-52,445	-0,040	0,013
-279,716	-200,000	0,015	0,163
-278,701	-200,000	0,006	-0,038
-277,686	279,692	0,130	0,167
-276,672	800,000	-0,077	0,180
-275,657	47,856	-0,037	0,025
-274,643	-200,000	-0,007	-0,029
-273,628	10,597	0,080	0,044
-272,613	-4,045	0,108	-0,054
-271,599	800,000	0,047	0,134
-270,584	-11,195	0,093	0,044
-269,570	28,534	-0,128	0,078
-268,555	800,000	0,038	0,081
-267,540	-73,084	-0,075	0,020
-266,526	-200,000	-0,004	-0,127
-265,511	309,349	-0,126	-0,170
-264,497	450,851	0,091	0,145
-263,482	-200,000	-0,052	0,178
-262,467	-200,000	-0,023	0,129
-261,453	12,122	-0,032	0,018
-260,438	-64,400	-0,077	-0,022
-259,424	81,960	-0,069	-0,054
-258,409	-61,752	0,113	-0,034
-257,395	-45,048	-0,089	0,032
-256,380	18,744	0,057	0,033
-255,365	110,078	0,099	0,086
-254,351	800,000	-0,015	-0,044
-253,336	-200,000	-0,037	-0,165
-252,322	-200,000	-0,008	-0,188
-251,307	-14,647	-0,053	-0,024
-250,292	461,528	0,015	-0,025
-249,278	746,351	-0,046	0,089
-248,263	63,627	0,079	0,057
-247,249	-140,076	0,110	-0,008
-246,234	274,948	-0,074	-0,094
-245,219	515,806	0,099	-0,167
-244,205	524,275	-0,081	-0,138
-243,190	-73,691	0,142	-0,037
-242,176	368,880	0,066	-0,096
-241,161	566,775	0,006	-0,011
-240,146	555,656	-0,031	0,053
-239,132	-8,213	0,076	0,037
-238,117	62,704	-0,104	-0,075
-237,103	-85,864	0,044	-0,010
-236,088	-200,000	0,000	0,052
-235,073	-200,000	-0,009	-0,084
-234,059	800,000	-0,012	-0,038
-233,044	-200,000	-0,015	0,100
-232,030	125,379	-0,105	0,096
-231,015	116,571	-0,075	-0,066
-230,000	800,000	0,012	-0,035
-228,986	800,000	0,031	-0,083
-227,971	-34,043	-0,011	-0,005
-226,957	15,156	0,203	0,114
-225,942	296,205	0,042	0,056
-224,927	444,760	0,026	0,041
-223,913	43,974	-0,163	-0,107
-222,898	429,494	-0,046	0,072
-221,884	659,450	-0,017	-0,031
-220,869	96,654	-0,092	0,076
-219,855	176,591	0,092	0,096
-218,840	-200,000	-0,013	0,052
-217,825	177,880	0,072	-0,075
-216,811	206,399	-0,069	-0,078
-215,796	32,319	-0,081	0,050
-214,782	352,224	0,032	0,045
-213,767	-115,518	-0,108	-0,014
-212,752	654,344	-0,056	0,104
-211,738	-77,550	0,053	0,013
-210,723	-75,916	-0,005	-0,001
-209,709	-27,095	0,107	-0,045
-208,694	-108,952	-0,139	-0,021
-207,679	83,164	0,052	0,040
-206,665	-66,169	-0,042	-0,012
-205,650	-14,569	0,136	-0,062
-204,636	6,154	-0,176	-0,094
-203,621	-200,000	0,018	0,063
-202,606	-200,000	-0,007	0,063
-201,592	-145,893	-0,085	-0,005
-200,577	-200,000	0,020	0,072
-199,563	314,217	0,078	0,106
-198,548	-200,000	0,029	0,115
-197,533	137,834	0,070	-0,066
-196,519	134,868	0,030	-0,028
-195,504	42,658	-0,093	-0,061
-194,490	800,000	0,019	0,048
-193,475	248,269	-0,049	-0,060
-192,460	-69,061	0,139	-0,038
-191,446	-28,947	-0,061	-0,025
-190,431	800,000	0,051	0,120
-189,417	-200,000	-0,021	-0,116
-188,402	106,287	0,080	0,068
-187,387	800,000	-0,040	-0,123
-186,373	-14,019	0,036	-0,017
-185,358	-83,206	-0,107	0,024
-184,344	800,000	0,049	0,104
-183,329	-56,481	0,110	0,035
-182,315	686,176	0,059	-0,111
-181,300	672,375	-0,086	-0,161
-180,285	569,308	0,029	-0,050
-179,271	745,561	0,030	-0,058
-178,256	-108,953	-0,100	-0,015
-177,242	703,245	-0,026	0,049
-176,227	107,059	-0,035	0,030
-175,212	-131,991	-0,128	0,012
-174,198	-149,710	-0,022	0,001
-173,183	-200,000	-0,002	0,100
-172,169	153,773	0,022	0,021
-171,154	800,000	0,022	-0,062
-170,139	-200,000	0,007	-0,057
-169,125	69,311	0,027	-0,020
-168,110	-8,117	-0,074	0,036
-167,096	-90,784	-0,080	-0,016
-166,081	-36,513	0,087	0,034
-165,066	65,524	0,042	-0,030
-164,052	-82,078	0,035	-0,008
-163,037	325,734	0,052	0,072
-162,023	123,687	0,020	-0,018
-161,008	50,085	0,035	0,023
-159,993	79,032	0,028	-0,022
-158,979	-200,000	-0,041	-0,148
-157,964	38,462	-0,126	0,080
-156,950	8,280	0,070	-0,038
-155,935	162,365	-0,104	-0,105
-154,920	107,508	0,082	-0,070
-153,906	-200,000	-0,004	-0,021
-152,891	-200,000	0,022	0,076
-151,877	800,000	0,025	-0,052
-150,862	164,060	0,079	-0,080
-149,847	800,000	0,042	-0,102
-148,833	48,859	0,023	0,015
-147,818	384,967	-0,019	-0,029
-146,804	-97,276	0,127	0,023
-145,789	84,734	-0,069	-0,054
-144,775	-200,000	-0,022	-0,101
-143,760	69,584	0,061	0,045
-142,745	-147,226	-0,077	-0,005
-141,731	-3,831	0,056	0,028
-140,716	331,597	-0,058	0,080
-139,702	126,977	-0,090	0,082
-138,687	380,207	0,037	0,054
-137,672	43,560	0,066	-0,043
-136,658	310,156	0,033	-0,044
-135,643	-4,969	0,131	0,065
-134,629	487,019	-0,079	0,129
-133,614	-62,011	0,173	-0,052
-132,599	-105,803	0,052	-0,008
-131,585	800,000	-0,044	0,100
-130,570	-27,262	-0,046	-0,019
-129,556	83,288	0,054	-0,042
-128,541	-200,000	0,021	-0,073
-127,526	14,237	0,136	0,076
-126,512	-39,656	0,053	0,020
-125,497	-200,000	0,001	0,085
-124,483	800,000	-0,015	0,043
-123,468	530,269	-0,075	0,128
-122,453	72,846	-0,179	-0,134
-121,439	800,000	-0,030	-0,085
-120,424	616,296	-0,025	-0,045
-119,410	-193,459	0,093	0,001
