DTS Sentinel unit serial number:	SN410029Multiplexer serial number:	ORYXHardware model number:	OX2-SRSoftware version number:	ORYX F/W v4,00 Oryx Data Collector v3.7.2.0data status	okinstallation	B3 Nyhavnadifferential loss correction	single-endedforward channel	channel 1reverse channel	N/Adate	2023/11/28time	14:42:30forward acquisition time	300,00reverse acquisition time	0,00gamma	499,1914k internal	0,3152k external	0,3152temperature offset calibration	1,0000default loss term (dB/km)	0,3820temperature slope calibration	1,0000multiplexer offset coefficient	1,0000multiplexer slope coefficient	1,0000fibre end	0,00T internal ref (°C)	7,41T ext. ref 1 (°C)	-7,85T ext. ref 2 (°C)	-8,00length (m)	temperature (°C)	Stokes	anti-Stokes-744,400	-61,111	-0,250	-0,077
-743,385	-200,000	0,004	0,182
-742,371	128,901	-0,213	-0,201
-741,356	-200,000	-0,040	0,208
-740,342	800,000	-0,083	-0,232
-739,327	208,749	-0,096	0,111
-738,312	798,407	-0,101	-0,207
-737,298	619,906	-0,090	0,168
-736,283	800,000	-0,078	-0,244
-735,269	-200,000	-0,033	0,271
-734,254	140,566	-0,189	-0,185
-733,239	-91,674	-0,256	0,053
-732,225	183,331	-0,175	-0,191
-731,210	470,241	0,054	0,090
-730,196	-200,000	0,013	-0,071
-729,181	-87,835	-0,046	-0,010
-728,167	-200,000	-0,009	-0,054
-727,152	800,000	-0,037	0,092
-726,137	216,911	-0,120	0,141
-725,123	68,960	0,086	-0,065
-724,108	-55,479	-0,137	-0,045
-723,094	800,000	-0,069	-0,166
-722,079	-162,905	0,134	-0,005
-721,064	-23,439	0,050	0,022
-720,050	-33,385	0,015	0,006
-719,035	-101,434	0,113	-0,020
-718,021	-75,242	-0,196	-0,051
-717,006	-200,000	0,015	-0,123
-715,991	-181,654	-0,244	0,003
-714,977	26,217	-0,135	-0,083
-713,962	420,541	-0,041	0,065
-712,948	-200,000	0,059	0,196
-711,933	113,826	-0,034	0,030
-710,918	389,664	-0,063	-0,096
-709,904	-77,093	-0,067	0,017
-708,889	61,975	-0,083	-0,061
-707,875	121,411	0,124	-0,114
-706,860	-100,574	-0,101	-0,018
-705,845	73,953	0,091	0,070
-704,831	-200,000	-0,013	0,076
-703,816	116,050	-0,057	-0,051
-702,802	-38,203	-0,107	0,042
-701,787	215,780	-0,036	-0,042
-700,772	-115,845	-0,173	-0,024
-699,758	800,000	-0,014	-0,034
-698,743	-200,000	-0,024	0,092
-697,729	-200,000	-0,036	0,119
-696,714	400,205	0,031	-0,048
-695,699	5,021	-0,052	0,028
-694,685	-2,213	-0,080	0,041
-693,670	-94,106	0,051	0,010
-692,656	-50,989	0,116	-0,040
-691,641	297,412	0,054	0,073
-690,627	-200,000	-0,010	-0,063
-689,612	-108,655	0,102	0,016
-688,597	637,179	0,012	-0,022
-687,583	149,926	-0,077	-0,077
-686,568	-200,000	-0,020	0,097
-685,554	455,581	-0,054	0,088
-684,539	-200,000	-0,005	-0,034
-683,524	-200,000	0,010	-0,048
-682,510	9,993	-0,100	0,056
-681,495	-70,794	-0,051	0,014
-680,481	20,041	-0,082	-0,048
-679,466	-200,000	0,027	-0,159
-678,451	-161,666	-0,062	0,002
-677,437	194,431	-0,058	-0,065
-676,422	66,021	0,116	0,087
-675,408	34,644	-0,021	-0,014
-674,393	-200,000	-0,009	0,089
-673,378	800,000	0,005	0,010
-672,364	-200,000	-0,014	0,059
-671,349	800,000	0,028	-0,082
-670,335	-89,165	0,132	0,029
-669,320	-200,000	-0,051	-0,225
-668,305	-129,381	0,150	-0,015
-667,291	384,642	0,028	0,042
-666,276	-46,648	-0,030	0,011
-665,262	-160,596	-0,102	0,004
-664,247	-200,000	-0,004	-0,211
-663,232	9,664	-0,055	0,030
-662,218	636,732	0,066	0,124
-661,203	800,000	-0,039	0,113
-660,189	-168,938	0,061	0,002
-659,174	-27,255	0,048	0,021
-658,159	-74,875	-0,052	0,014
-657,145	-200,000	0,008	-0,088
-656,130	800,000	0,056	0,131
-655,116	800,000	0,023	-0,050
-654,101	324,209	0,085	0,120
-653,086	-138,081	-0,031	0,003
-652,072	798,015	-0,043	-0,087
-651,057	297,849	-0,073	-0,100
-650,043	170,178	-0,075	-0,080
-649,028	-200,000	-0,003	-0,062
-648,014	-114,861	0,032	0,004
-646,999	-87,196	0,183	0,041
-645,984	227,564	-0,057	0,068
-644,970	800,000	0,007	-0,020
-643,955	-72,324	0,051	0,014
-642,941	487,237	-0,120	-0,203
-641,926	800,000	0,059	0,125
-640,911	-200,000	0,006	-0,034
-639,897	-122,143	0,088	0,010
-638,882	-200,000	-0,007	0,049
-637,868	751,740	0,021	-0,042
-636,853	-94,240	-0,129	0,026
-635,838	103,469	-0,031	0,026
-634,824	-200,000	0,000	-0,018
-633,809	199,352	0,036	0,041
-632,795	-200,000	0,037	0,191
-631,780	213,213	0,084	-0,098
-630,765	-200,000	0,016	0,120
-629,751	-200,000	0,000	-0,007
-628,736	-61,931	-0,061	-0,019
-627,722	619,018	-0,063	-0,117
-626,707	27,641	0,103	-0,063
-625,692	-77,441	0,028	-0,007
-624,678	8,587	0,061	0,034
-623,663	-146,537	0,088	0,006
-622,649	-141,873	-0,136	0,010
-621,634	-131,786	-0,033	0,003
-620,619	-56,148	-0,046	0,015
-619,605	-51,669	-0,104	0,035
-618,590	80,132	0,076	-0,060
-617,576	-70,905	0,176	0,048
-616,561	73,508	0,191	-0,147
-615,546	83,113	0,067	-0,054
-614,532	225,005	-0,134	-0,160
-613,517	-37,333	-0,143	0,056
-612,503	800,000	0,067	0,166
-611,488	-63,606	-0,072	0,022
-610,474	55,552	0,050	0,036
-609,459	-87,990	-0,134	-0,029
-608,444	221,800	0,081	-0,096
-607,430	-56,912	0,031	0,010
-606,415	560,354	-0,020	0,036
-605,401	-94,229	0,077	-0,015
-604,386	-130,178	0,080	0,008
-603,371	120,554	0,076	0,070
-602,357	-179,188	-0,193	-0,003
-601,342	335,360	0,029	0,041
-600,328	-168,788	-0,201	0,005
-599,313	-200,000	0,002	-0,109
-598,298	-56,892	0,032	-0,010
-597,284	636,402	-0,027	0,051
-596,269	-143,872	0,139	-0,009
-595,255	198,935	0,040	0,046
-594,240	-200,000	-0,005	-0,209
-593,225	-90,739	-0,051	0,011
-592,211	527,364	-0,030	-0,052
-591,196	-35,156	0,116	0,046
-590,182	-75,184	-0,042	0,011
-589,167	93,224	0,060	-0,050
-588,152	-51,211	-0,026	-0,009
-587,138	-157,663	-0,221	-0,009
-586,123	687,813	0,052	0,100
-585,109	-163,684	-0,060	-0,002
-584,094	-194,893	-0,129	-0,001
-583,079	800,000	-0,064	0,167
-582,065	-200,000	-0,014	0,085
-581,050	800,000	0,029	0,082
-580,036	334,619	0,060	0,085
-579,021	24,520	-0,156	-0,095
-578,006	-134,820	-0,018	0,002
-576,992	-200,000	-0,002	-0,037
-575,977	635,527	0,068	0,127
-574,963	-53,564	-0,050	0,017
-573,948	397,678	0,097	0,149
-572,934	339,296	0,068	-0,097
-571,919	63,651	-0,107	-0,079
-570,904	-14,019	-0,072	-0,034
-569,890	46,375	-0,060	-0,040
-568,875	800,000	0,061	0,132
-567,861	-200,000	0,011	0,059
-566,846	-200,000	0,010	-0,055
-565,831	-100,057	0,055	0,010
-564,817	-133,816	-0,047	0,004
-563,802	-77,946	0,046	-0,012
-562,788	466,157	-0,052	-0,086
-561,773	800,000	-0,020	0,046
-560,758	235,620	-0,076	0,093
-559,744	239,485	-0,043	-0,053
-558,729	-98,528	-0,053	-0,010
-557,715	-26,442	-0,130	0,056
-556,700	106,256	-0,054	-0,047
-555,685	-13,125	0,067	-0,032
-554,671	800,000	-0,047	0,105
-553,656	400,855	0,060	-0,093
-552,642	114,741	0,061	0,054
-551,627	-126,514	-0,080	0,009
-550,612	-39,049	-0,087	-0,033
-549,598	800,000	-0,028	-0,070
-548,583	26,814	0,134	-0,082
-547,569	153,344	-0,051	0,051
-546,554	-0,350	0,013	-0,007
-545,539	-71,721	-0,140	0,038
-544,525	-3,098	0,061	-0,031
-543,510	302,253	-0,075	0,101
-542,496	-200,000	0,002	-0,106
-541,481	788,372	-0,032	-0,065
-540,466	800,000	-0,033	-0,080
-539,452	-18,368	-0,250	-0,114
-538,437	-6,945	0,157	0,078
-537,423	-81,064	0,137	0,033
-536,408	16,171	-0,033	-0,019
-535,393	126,148	0,057	-0,053
-534,379	800,000	0,060	-0,157
-533,364	144,194	0,059	-0,057
-532,350	459,434	0,077	-0,126
-531,335	187,154	-0,136	0,149
-530,321	208,029	0,036	0,041
-529,306	11,333	0,090	0,051
-528,291	-136,259	-0,087	-0,007
-527,277	13,372	-0,101	-0,057
-526,262	-200,000	0,031	0,184
-525,248	-97,647	0,119	0,022
-524,233	-200,000	0,006	0,063
-523,218	-74,628	0,115	0,030
-522,204	-200,000	-0,034	0,146
-521,189	-200,000	-0,059	-0,192
-520,175	800,000	0,076	-0,164
-519,160	709,581	-0,070	-0,136
-518,145	-200,000	-0,003	-0,083
-517,131	79,952	0,028	0,022
-516,116	800,000	0,045	0,095
-515,102	139,022	0,029	0,028
-514,087	289,115	0,044	0,059
-513,072	11,383	-0,101	-0,056
-512,058	612,307	-0,065	-0,120
-511,043	-200,000	0,002	0,101
-510,029	-59,787	-0,086	0,027
-509,014	-149,312	-0,137	-0,008
-507,999	266,037	-0,036	-0,046
-506,985	-200,000	0,011	-0,065
-505,970	36,282	-0,077	0,049
-504,956	-200,000	-0,017	0,133
-503,941	-51,689	0,072	-0,024
-502,926	-200,000	-0,011	-0,098
-501,912	586,732	0,023	0,041
-500,897	-67,288	-0,089	-0,025
-499,883	-200,000	0,008	-0,114
-498,868	94,228	0,039	-0,032
-497,853	-200,000	-0,011	-0,085
-496,839	800,000	0,031	-0,080
-495,824	142,150	0,056	-0,054
-494,810	-200,000	0,007	-0,056
-493,795	-98,619	0,051	0,010
-492,781	-164,636	0,075	0,002
-491,766	286,328	-0,093	-0,123
-490,751	253,627	-0,067	-0,084
-489,737	86,238	0,071	-0,057
-488,722	118,803	0,083	0,075
-487,708	-84,354	0,104	0,024
-486,693	-29,248	0,098	0,041
-485,678	800,000	-0,054	-0,115
-484,664	482,811	0,111	-0,185
-483,649	147,606	-0,115	-0,114
-482,635	-200,000	-0,003	-0,096
-481,620	137,071	0,079	-0,075
-480,605	-111,664	0,038	-0,006
-479,591	-200,000	0,007	0,143
-478,576	-0,997	0,027	-0,014
-477,562	800,000	-0,044	0,111
-476,547	-200,000	-0,019	0,092
-475,532	137,647	-0,030	0,029
-474,518	-200,000	-0,025	0,162
-473,503	800,000	0,032	0,093
-472,489	-200,000	0,013	0,176
-471,474	800,000	0,024	-0,059
-470,459	15,535	-0,069	-0,039
-469,445	-200,000	-0,006	0,077
-468,430	-57,060	0,082	-0,026
-467,416	46,679	0,087	0,059
-466,401	30,062	0,145	0,090
-465,386	19,397	0,059	-0,035
-464,372	800,000	-0,037	0,099
-463,357	-18,533	-0,112	0,051
-462,343	-66,948	0,143	-0,041
-461,328	-200,000	-0,034	0,111
-460,313	-99,416	0,084	0,015
-459,299	134,916	0,048	0,046
-458,284	-62,153	0,092	-0,028
-457,270	-200,000	-0,026	0,142
-456,255	800,000	-0,055	-0,130
-455,241	294,235	-0,007	0,010
-454,226	-200,000	-0,026	0,148
-453,211	179,504	-0,090	-0,096
-452,197	283,438	0,033	0,043
-451,182	-108,991	-0,170	0,026
-450,168	-137,577	0,094	-0,008
-449,153	307,594	0,067	-0,092
-448,138	-69,454	0,044	-0,012
-447,124	321,059	0,051	0,071
-446,109	2,806	-0,128	-0,068
-445,095	800,000	-0,038	0,078
-444,080	-200,000	-0,028	0,101
-443,065	0,875	-0,033	0,017
-442,051	-7,994	-0,100	0,049
-441,036	253,468	0,055	-0,069
-440,022	-116,078	-0,073	0,010
-439,007	758,556	0,028	0,056
-437,992	653,952	0,054	-0,101
-436,978	-200,000	-0,007	-0,026
-435,963	800,000	-0,063	0,170
-434,949	-200,000	0,002	-0,123
-433,934	800,000	0,049	0,099
-432,919	-1,815	-0,133	0,068
-431,905	-49,818	-0,050	0,017
-430,890	69,879	0,134	-0,101
-429,876	-102,561	0,052	0,009
-428,861	140,426	-0,099	-0,095
-427,846	-125,330	-0,093	0,010
-426,832	-71,147	-0,073	-0,020
-425,817	-99,842	-0,027	-0,005
-424,803	-154,368	-0,112	-0,005
-423,788	0,933	0,037	0,019
-422,773	231,332	-0,032	0,039
-421,759	43,512	0,048	-0,032
-420,744	800,000	0,021	-0,065
-419,730	-29,961	-0,071	0,029
-418,715	453,941	-0,080	-0,130
-417,701	250,688	0,083	0,103
-416,686	129,067	-0,041	0,038
-415,671	560,715	-0,044	-0,077
-414,657	538,385	0,083	0,144
-413,642	-200,000	0,033	0,121
-412,628	4,961	0,017	-0,009
-411,613	-200,000	-0,025	-0,126
-410,598	800,000	-0,026	-0,064
-409,584	-108,914	0,147	0,023
-408,569	642,880	0,018	-0,033
-407,555	2,515	0,161	0,085
-406,540	285,763	-0,046	0,060
-405,525	-65,800	0,106	-0,031
-404,511	444,686	-0,038	-0,062
-403,496	615,564	0,071	-0,130
-402,482	-149,084	0,080	-0,005
-401,467	84,088	-0,041	-0,033
-400,452	669,790	0,039	0,073
-399,438	-68,543	0,080	0,022
-398,423	-200,000	-0,012	-0,077
-397,409	407,189	0,025	-0,039
-396,394	96,399	-0,052	-0,043
-395,379	-200,000	0,019	0,109
-394,365	684,104	-0,038	0,073
-393,350	-51,205	0,149	0,050
-392,336	-78,355	-0,033	0,008
-391,321	-46,769	-0,108	0,038
-390,306	33,373	0,095	-0,060
-389,292	-95,003	-0,084	-0,016
-388,277	4,095	-0,093	0,050
-387,263	-0,957	0,114	0,059
-386,248	-200,000	0,002	0,227
-385,233	-182,373	-0,013	-0,000
-384,219	-200,000	0,008	-0,051
-383,204	266,551	0,106	-0,135
-382,190	-68,333	-0,018	-0,005
-381,175	48,718	-0,080	-0,054
-380,160	800,000	-0,021	0,065
-379,146	374,799	0,061	0,091
-378,131	-200,000	0,015	0,130
-377,117	169,135	0,057	0,059
-376,102	434,722	-0,015	-0,024
-375,088	-38,649	-0,023	0,009
-374,073	213,028	-0,048	-0,056
-373,058	-65,193	0,134	-0,039
-372,044	-15,525	0,021	-0,010
-371,029	433,375	-0,037	-0,058
-370,015	697,597	0,023	-0,045
-369,000	-200,000	-0,015	0,086
-367,985	475,848	0,013	0,021
-366,971	-117,914	-0,020	0,003
-365,956	-19,356	0,151	-0,068
-364,942	-200,000	-0,013	0,086
-363,927	126,599	-0,103	0,095
-362,912	456,112	-0,013	-0,021
-361,898	-200,000	-0,014	0,077
-360,883	194,489	0,095	-0,105
-359,869	-146,249	-0,193	0,012
-358,854	359,862	0,021	-0,030
-357,839	-58,367	-0,047	0,015
-356,825	496,981	0,040	0,068
-355,810	-200,000	-0,000	0,131
-354,796	800,000	-0,043	-0,111
-353,781	-200,000	0,012	-0,101
-352,766	1,228	-0,095	0,049
-351,752	-53,735	-0,097	-0,032
-350,737	75,009	-0,018	0,013
-349,723	-200,000	-0,003	-0,045
-348,708	-112,561	-0,015	0,002
-347,693	486,576	0,031	-0,051
-346,679	606,595	-0,079	-0,143
-345,664	-108,748	-0,092	-0,014
-344,650	-200,000	0,017	0,107
-343,635	287,378	0,039	0,051
-342,620	800,000	-0,067	0,181
-341,606	100,141	0,089	-0,075
-340,591	-200,000	-0,027	-0,106
-339,577	-200,000	0,000	-0,074
-338,562	-88,061	-0,101	-0,022
-337,548	-200,000	0,007	0,147
-336,533	132,253	0,060	0,056
-335,518	135,357	0,085	0,080
-334,504	-200,000	0,001	0,107
-333,489	800,000	-0,030	0,088
-332,475	-200,000	-0,012	-0,109
-331,460	246,831	0,061	-0,075
-330,445	601,277	-0,055	0,099
-329,431	800,000	-0,045	-0,130
-328,416	-60,902	0,125	0,038
-327,402	255,841	0,021	-0,027
-326,387	66,105	0,126	-0,093
-325,372	313,224	-0,065	0,088
-324,358	-200,000	-0,020	-0,073
-323,343	250,212	-0,061	-0,075
-322,329	129,112	-0,007	-0,007
-321,314	185,934	0,083	0,089
-320,299	30,158	0,078	-0,048
-319,285	-117,440	-0,058	-0,008
-318,270	191,202	0,042	0,046
-317,256	-200,000	-0,017	-0,116
-316,241	-59,172	0,042	-0,013
-315,226	-67,012	0,077	-0,022
-314,212	42,906	0,136	0,090
-313,197	-172,384	0,042	-0,001
-312,183	-136,901	-0,078	-0,006
-311,168	-200,000	0,021	-0,084
-310,153	443,897	-0,019	-0,031
-309,139	164,120	-0,082	0,084
-308,124	695,638	-0,034	-0,065
-307,110	-200,000	0,061	0,000
-306,095	-200,000	-0,053	0,196
-305,080	148,718	-0,077	0,076
-304,066	-163,628	-0,114	0,004
-303,051	242,326	-0,078	-0,095
-302,037	-200,000	-0,001	0,061
-301,022	800,000	0,068	-0,170
-300,008	-200,000	0,004	0,019
-298,993	3,203	0,089	0,047
-297,978	158,508	0,066	-0,067
-296,964	-80,437	-0,032	0,008
-295,949	-138,533	-0,104	-0,008
-294,935	-55,730	-0,062	0,020
-293,920	202,305	0,128	-0,144
-292,905	502,783	0,011	-0,018
-291,891	91,742	0,096	0,078
-290,876	-200,000	0,002	0,007
-289,862	-200,000	0,001	-0,066
-288,847	178,596	-0,095	-0,101
-287,832	124,076	-0,088	-0,080
-286,818	695,092	-0,039	-0,075
-285,803	-200,000	0,028	-0,236
-284,789	-200,000	0,083	0,000
-283,774	87,521	0,120	0,096
-282,759	702,509	0,016	-0,031
-281,745	130,188	0,170	-0,158
-280,730	-200,000	-0,039	-0,177
-279,716	-169,886	-0,045	-0,001
-278,701	-200,000	-0,008	0,065
-277,686	10,298	0,049	-0,027
-276,672	-200,000	-0,004	-0,056
-275,657	39,881	-0,098	0,064
-274,643	66,524	0,073	-0,053
-273,628	-200,000	-0,011	0,043
-272,613	-200,000	-0,003	-0,083
-271,599	291,414	-0,108	0,143
-270,584	61,294	0,086	0,062
-269,570	-107,863	0,020	0,003
-268,555	-200,000	0,003	0,050
-267,540	-200,000	-0,030	-0,106
-266,526	-200,000	0,012	-0,078
-265,511	384,359	0,037	-0,056
-264,497	-200,000	0,002	0,158
-263,482	-57,743	0,054	-0,017
-262,467	-200,000	-0,005	0,138
-261,453	727,054	-0,037	-0,072
-260,438	173,948	0,055	0,058
-259,424	-82,013	-0,095	-0,022
-258,409	-200,000	-0,012	0,043
-257,395	-200,000	0,003	0,011
-256,380	26,342	0,103	0,062
-255,365	275,719	0,096	0,124
-254,351	-2,178	0,091	-0,046
-253,336	-200,000	0,023	-0,072
-252,322	-200,000	-0,011	-0,079
-251,307	-200,000	0,039	0,000
-250,292	-200,000	0,003	0,059
-249,278	99,736	-0,013	0,011
-248,263	-200,000	-0,042	0,193
-247,249	264,979	-0,067	0,084
-246,234	800,000	0,054	-0,129
-245,219	-200,000	-0,019	-0,094
-244,205	-200,000	0,018	0,118
-243,190	-114,954	-0,060	0,008
-242,176	-200,000	0,034	-0,168
-241,161	800,000	0,019	-0,055
-240,146	-146,047	-0,067	0,004
-239,132	-3,869	0,102	-0,051
-238,117	800,000	0,010	0,025
-237,103	800,000	0,010	-0,033
-236,088	82,505	0,125	-0,098
-235,073	800,000	-0,019	-0,058
-234,059	800,000	-0,042	-0,086
-233,044	-14,950	-0,136	-0,063
-232,030	-37,049	0,144	0,055
-231,015	800,000	-0,015	0,030
-230,000	800,000	-0,019	-0,055
-228,986	-200,000	-0,002	0,049
-227,971	-32,158	0,135	0,054
-226,957	66,633	0,072	0,053
-225,942	-200,000	0,006	0,021
-224,927	17,101	-0,081	-0,046
-223,913	-40,667	0,094	-0,035
-222,898	-146,230	0,042	-0,003
-221,884	658,491	-0,015	-0,029
-220,869	-84,250	-0,067	0,015
-219,855	238,924	0,067	0,081
-218,840	79,213	-0,134	0,104
-217,825	162,281	0,113	-0,115
-216,811	-200,000	-0,050	-0,165
-215,796	-100,903	-0,133	-0,023
-214,782	19,538	-0,110	0,064
-213,767	-200,000	0,012	0,069
-212,752	517,351	-0,022	0,038
-211,738	-90,880	0,123	0,025
-210,723	148,817	-0,061	0,059
-209,709	-137,569	0,135	-0,011
-208,694	-131,592	-0,155	-0,015
-207,679	800,000	-0,054	0,151
-206,665	-200,000	-0,002	0,058
-205,650	-200,000	0,001	0,185
-204,636	1,350	0,114	0,059
-203,621	-200,000	-0,036	0,244
-202,606	-27,615	-0,148	-0,062
-201,592	129,456	-0,141	-0,131
-200,577	-200,000	-0,026	-0,083
-199,563	-149,680	-0,093	0,005
-198,548	75,484	0,074	0,056
-197,533	-200,000	0,025	-0,089
-196,519	97,023	-0,016	0,013
-195,504	247,414	0,067	0,082
-194,490	641,287	-0,005	0,010
-193,475	-38,166	0,025	-0,010
-192,460	104,377	0,107	0,091
-191,446	162,275	0,084	-0,085
-190,431	125,041	0,042	-0,039
-189,417	76,657	-0,094	-0,072
-188,402	9,228	-0,104	0,057
-187,387	-27,765	0,065	-0,027
-186,373	222,403	-0,031	-0,037
-185,358	-121,438	-0,106	0,013
-184,344	-10,696	0,065	-0,031
-183,329	85,932	-0,042	-0,033
-182,315	-76,903	-0,105	-0,026
-181,300	-52,977	0,030	-0,010
-180,285	800,000	-0,005	-0,016
-179,271	73,719	-0,039	0,029
-178,256	265,185	-0,046	-0,058
-177,242	22,230	0,080	-0,047
-176,227	-173,778	-0,018	-0,000
-175,212	98,888	-0,056	-0,047
-174,198	-22,924	0,078	-0,034
-173,183	-35,914	0,060	0,023
-172,169	601,520	-0,042	0,075
-171,154	356,202	-0,045	0,065
-170,139	800,000	-0,011	0,031
-169,125	-73,384	0,040	0,010
-168,110	800,000	0,058	0,152
-167,096	158,516	-0,035	0,035
-166,081	452,414	-0,035	0,056
-165,066	3,642	-0,041	0,022
-164,052	49,858	-0,039	0,027
-163,037	455,586	0,050	-0,080
-162,023	396,831	-0,014	-0,022
-161,008	-200,000	0,017	-0,094
-159,993	109,416	0,067	-0,058
-158,979	256,092	-0,055	0,068
-157,964	-200,000	-0,004	-0,091
-156,950	800,000	0,020	-0,047
-155,935	51,469	-0,095	-0,065
-154,920	291,179	0,014	0,019
-153,906	490,265	0,031	0,051
-152,891	147,683	-0,137	0,133
-151,877	604,335	0,057	0,103
-150,862	480,690	-0,045	0,074
-149,847	63,795	-0,036	-0,026
-148,833	-69,889	0,153	-0,042
-147,818	800,000	-0,067	0,168
-146,804	-153,666	0,109	0,005
-145,789	-21,491	-0,147	0,064
-144,775	-22,322	-0,100	-0,043
-143,760	-85,185	0,070	0,016
-142,745	-200,000	-0,001	-0,083
-141,731	585,119	-0,091	0,162
-140,716	-88,951	0,115	-0,024
-139,702	34,628	-0,065	0,041
-138,687	800,000	-0,016	-0,036
-137,672	34,480	0,038	-0,024
-136,658	-8,742	0,058	-0,028
-135,643	-156,526	-0,053	0,002
-134,629	800,000	0,064	-0,184
-133,614	190,036	0,054	0,059
-132,599	-137,571	0,101	0,008
-131,585	800,000	-0,052	0,126
-130,570	-151,320	-0,047	0,003
-129,556	168,891	0,082	-0,084
-128,541	113,995	-0,024	0,021
-127,526	-38,886	0,045	-0,017
-126,512	-200,000	-0,013	-0,050
-125,497	426,119	0,074	0,115
-124,483	-141,196	0,036	0,003
-123,468	800,000	-0,024	-0,060
-122,453	-200,000	0,017	-0,055
-121,439	200,308	0,015	-0,017
-120,424	-46,064	-0,132	-0,047
-119,410	-200,000	-0,008	-0,103
