DTS Sentinel unit serial number:	SN410029Multiplexer serial number:	ORYXHardware model number:	OX2-SRSoftware version number:	ORYX F/W v4,00 Oryx Data Collector v3.7.2.0data status	okinstallation	B3 Nyhavnadifferential loss correction	single-endedforward channel	channel 1reverse channel	N/Adate	2023/11/28time	17:12:30forward acquisition time	300,00reverse acquisition time	0,00gamma	499,1914k internal	0,3201k external	0,3201temperature offset calibration	1,0000default loss term (dB/km)	0,3820temperature slope calibration	1,0000multiplexer offset coefficient	1,0000multiplexer slope coefficient	1,0000fibre end	0,00T internal ref (°C)	7,31T ext. ref 1 (°C)	-7,59T ext. ref 2 (°C)	-7,76length (m)	temperature (°C)	Stokes	anti-Stokes-744,400	800,000	-0,119	-0,380
-743,385	-200,000	0,066	0,284
-742,371	41,159	-0,231	-0,151
-741,356	-200,000	0,054	0,252
-740,342	129,631	-0,209	-0,194
-739,327	800,000	-0,093	0,244
-738,312	800,000	-0,097	-0,221
-737,298	-200,000	-0,008	0,130
-736,283	800,000	-0,149	-0,303
-735,269	800,000	-0,077	0,212
-734,254	65,291	-0,255	-0,187
-733,239	-47,772	-0,294	0,103
-732,225	-200,000	-0,057	-0,212
-731,210	800,000	0,103	0,213
-730,196	-132,561	0,080	-0,007
-729,181	383,009	0,052	-0,077
-728,167	-48,835	-0,054	0,019
-727,152	-96,976	0,055	0,010
-726,137	244,903	-0,050	0,061
-725,123	-138,087	-0,090	-0,007
-724,108	800,000	-0,016	-0,041
-723,094	522,028	-0,090	-0,154
-722,079	800,000	0,006	0,014
-721,064	215,453	0,080	-0,093
-720,050	-150,184	-0,080	0,004
-719,035	-109,923	0,125	0,019
-718,021	800,000	-0,005	-0,013
-717,006	345,970	-0,082	-0,117
-715,991	-200,000	-0,017	-0,187
-714,977	275,883	-0,076	-0,098
-713,962	-200,000	0,028	0,100
-712,948	527,692	0,008	0,015
-711,933	-200,000	-0,025	0,136
-710,918	800,000	-0,026	0,075
-709,904	400,785	0,040	0,061
-708,889	224,174	-0,103	-0,121
-707,875	118,505	-0,130	-0,117
-706,860	-200,000	0,005	0,049
-705,845	357,098	0,059	-0,086
-704,831	15,531	0,060	-0,034
-703,816	-200,000	0,014	0,072
-702,802	511,716	-0,043	-0,073
-701,787	485,475	-0,026	0,044
-700,772	-200,000	-0,002	-0,070
-699,758	43,322	0,040	0,026
-698,743	46,829	0,081	0,054
-697,729	-124,390	-0,151	0,017
-696,714	165,584	0,049	0,050
-695,699	-96,103	-0,055	-0,010
-694,685	800,000	-0,055	-0,173
-693,670	51,099	-0,070	0,048
-692,656	168,005	0,033	0,034
-691,641	441,974	0,010	-0,016
-690,627	480,941	-0,056	-0,093
-689,612	46,493	0,090	0,061
-688,597	400,701	-0,080	-0,122
-687,583	224,488	-0,018	0,021
-686,568	-200,000	0,037	-0,148
-685,554	88,992	-0,013	0,010
-684,539	120,752	-0,139	-0,126
-683,524	-53,862	-0,065	-0,021
-682,510	6,936	0,090	0,049
-681,495	-87,015	-0,015	-0,003
-680,481	604,556	0,061	-0,111
-679,466	-200,000	-0,041	-0,210
-678,451	99,670	-0,127	-0,106
-677,437	64,850	0,083	-0,061
-676,422	47,638	-0,084	0,056
-675,408	-200,000	-0,007	0,060
-674,393	-56,255	-0,135	-0,043
-673,378	458,320	-0,040	-0,065
-672,364	49,378	-0,136	-0,092
-671,349	800,000	-0,045	-0,101
-670,335	-61,434	0,101	0,031
-669,320	-87,418	-0,049	0,011
-668,305	184,861	-0,046	-0,050
-667,291	35,148	-0,143	-0,091
-666,276	31,609	-0,073	0,046
-665,262	444,147	0,042	-0,068
-664,247	428,438	-0,076	-0,120
-663,232	-200,000	0,020	0,079
-662,218	-52,710	0,099	0,033
-661,203	71,968	0,091	0,068
-660,189	-130,954	-0,064	0,006
-659,174	-40,544	-0,084	0,032
-658,159	-47,508	-0,058	0,020
-657,145	10,121	-0,167	-0,092
-656,130	-30,690	0,075	-0,031
-655,116	-164,480	-0,111	0,004
-654,101	733,329	0,103	0,200
-653,086	357,910	-0,048	-0,070
-652,072	203,248	-0,017	0,019
-651,057	-200,000	0,024	-0,172
-650,043	-200,000	-0,028	-0,107
-649,028	-109,324	-0,107	-0,016
-648,014	10,847	-0,007	0,004
-646,999	-200,000	-0,037	0,000
-645,984	47,398	-0,057	-0,038
-644,970	86,133	-0,105	0,084
-643,955	74,179	-0,048	0,037
-642,941	-200,000	0,018	-0,086
-641,926	-200,000	-0,027	-0,113
-640,911	-58,191	-0,115	0,036
-639,897	250,827	0,067	0,082
-638,882	162,984	-0,105	0,107
-637,868	80,443	-0,111	0,087
-636,853	800,000	-0,048	-0,110
-635,838	-126,678	0,012	0,001
-634,824	800,000	-0,014	0,039
-633,809	-58,826	0,073	-0,023
-632,795	-200,000	0,007	0,169
-631,780	303,181	-0,088	0,118
-630,765	-200,000	-0,009	-0,104
-629,751	81,496	0,062	-0,049
-628,736	800,000	0,033	-0,099
-627,722	129,484	0,045	-0,041
-626,707	-8,697	-0,071	-0,034
-625,692	52,999	0,084	0,058
-624,678	-163,452	0,023	0,001
-623,663	-56,843	0,087	0,028
-622,649	251,722	-0,082	-0,102
-621,634	-93,721	-0,101	-0,020
-620,619	26,744	0,063	-0,038
-619,605	18,235	0,146	0,084
-618,590	-53,948	0,121	0,040
-617,576	-164,593	0,129	-0,004
-616,561	169,942	-0,067	-0,070
-615,546	49,298	-0,189	0,128
-614,532	-200,000	-0,051	-0,179
-613,517	298,387	-0,022	0,030
-612,503	800,000	0,008	-0,026
-611,488	11,849	0,097	0,054
-610,474	325,101	0,088	-0,123
-609,459	574,363	0,038	0,067
-608,444	154,498	-0,135	0,134
-607,430	68,678	-0,196	-0,145
-606,415	-17,070	-0,109	0,049
-605,401	-51,351	-0,109	-0,037
-604,386	61,959	0,139	0,100
-603,371	-200,000	-0,023	0,090
-602,357	488,645	0,052	-0,087
-601,342	83,036	0,056	0,044
-600,328	-200,000	-0,010	-0,123
-599,313	-200,000	0,006	-0,073
-598,298	-200,000	-0,031	0,134
-597,284	-200,000	-0,004	0,051
-596,269	46,553	0,098	-0,065
-595,255	136,823	-0,026	-0,025
-594,240	105,965	-0,216	-0,185
-593,225	629,133	-0,049	-0,089
-592,211	-172,268	-0,190	-0,004
-591,196	-200,000	-0,028	-0,134
-590,182	-166,568	-0,054	-0,002
-589,167	213,641	-0,016	-0,018
-588,152	-42,772	-0,059	-0,022
-587,138	88,936	-0,036	0,029
-586,123	-26,721	0,091	-0,038
-585,109	132,807	-0,096	-0,089
-584,094	-200,000	0,019	-0,086
-583,079	-200,000	0,015	0,057
-582,065	-65,202	0,035	-0,010
-581,050	143,009	-0,126	0,121
-580,036	-168,190	0,056	0,002
-579,021	-114,943	-0,094	0,013
-578,006	-200,000	0,007	0,063
-576,992	-149,580	-0,096	0,005
-575,977	8,699	0,098	-0,053
-574,963	-200,000	-0,019	0,073
-573,948	86,457	-0,047	0,037
-572,934	487,337	-0,048	0,080
-571,919	383,171	-0,027	0,040
-570,904	-140,307	-0,146	0,011
-569,890	-60,141	0,120	-0,037
-568,875	234,574	-0,062	0,073
-567,861	286,945	-0,038	0,050
-566,846	175,306	0,069	0,072
-565,831	331,327	0,025	-0,034
-564,817	-200,000	-0,024	-0,097
-563,802	63,868	-0,085	-0,061
-562,788	-68,381	0,079	0,022
-561,773	-200,000	-0,017	0,115
-560,758	-111,939	0,090	0,013
-559,744	-75,906	-0,022	0,006
-558,729	800,000	0,053	-0,158
-557,715	691,740	0,043	-0,082
-556,700	87,886	0,072	-0,058
-555,685	721,005	-0,034	0,065
-554,671	-118,213	0,078	-0,010
-553,656	800,000	-0,030	0,072
-552,642	-200,000	0,012	-0,071
-551,627	-17,965	-0,033	-0,015
-550,612	66,286	-0,071	-0,052
-549,598	-138,326	-0,066	-0,005
-548,583	800,000	-0,019	0,047
-547,569	800,000	0,070	0,159
-546,554	-200,000	0,018	0,119
-545,539	651,094	0,035	0,065
-544,525	-164,335	0,034	-0,001
-543,510	-59,623	-0,111	-0,034
-542,496	223,459	0,104	-0,121
-541,481	800,000	0,025	0,064
-540,466	14,237	-0,029	0,016
-539,452	-46,697	-0,083	0,029
-538,437	706,376	0,057	0,110
-537,423	136,411	-0,016	-0,015
-536,408	43,693	0,111	0,073
-535,393	800,000	-0,111	-0,224
-534,379	-52,555	-0,085	0,028
-533,364	222,961	0,034	0,040
-532,350	-200,000	-0,027	0,126
-531,335	-45,891	-0,102	0,036
-530,321	-200,000	0,012	-0,155
-529,306	800,000	-0,017	-0,055
-528,291	266,624	-0,067	-0,085
-527,277	-26,152	-0,114	-0,048
-526,262	441,871	0,043	0,069
-525,248	139,596	0,049	-0,046
-524,233	-146,925	-0,049	0,003
-523,218	611,868	-0,029	0,053
-522,204	-76,788	-0,055	0,014
-521,189	-200,000	-0,012	0,090
-520,175	344,591	-0,112	-0,159
-519,160	506,164	0,039	-0,066
-518,145	114,484	-0,136	-0,119
-517,131	190,082	0,085	0,092
-516,116	204,926	0,043	-0,048
-515,102	69,346	-0,034	0,025
-514,087	-200,000	0,012	-0,137
-513,072	11,391	-0,158	-0,087
-512,058	274,685	-0,084	-0,107
-511,043	800,000	0,048	0,142
-510,029	216,770	0,041	0,047
-509,014	800,000	0,070	0,197
-507,999	158,682	0,028	0,028
-506,985	322,424	-0,049	-0,067
-505,970	-89,183	-0,006	-0,001
-504,956	-200,000	-0,006	0,060
-503,941	-200,000	-0,007	0,057
-502,926	43,612	0,095	-0,062
-501,912	-118,288	-0,138	-0,018
-500,897	-200,000	-0,002	0,026
-499,883	243,131	0,049	0,059
-498,868	-46,243	-0,213	0,075
-497,853	404,087	0,041	-0,063
-496,839	185,232	-0,040	-0,043
-495,824	-143,553	0,212	0,014
-494,810	125,697	-0,088	-0,080
-493,795	-34,215	0,081	-0,032
-492,781	800,000	-0,040	-0,089
-491,766	30,381	0,099	-0,061
-490,751	138,062	0,053	-0,050
-489,737	-40,919	-0,151	-0,056
-488,722	-200,000	0,003	0,057
-487,708	-200,000	0,007	-0,046
-486,693	800,000	-0,045	0,133
-485,678	68,570	0,056	-0,041
-484,664	800,000	-0,055	-0,114
-483,649	-49,657	-0,076	-0,026
-482,635	-11,766	0,083	0,039
-481,620	-77,888	0,200	0,049
-480,605	800,000	0,054	0,112
-479,591	506,336	0,087	-0,147
-478,576	-172,086	-0,176	0,004
-477,562	279,347	-0,100	-0,129
-476,547	-200,000	-0,001	-0,083
-475,532	800,000	0,050	0,105
-474,518	118,545	0,050	0,045
-473,503	-200,000	-0,004	-0,048
-472,489	90,219	0,080	-0,064
-471,474	411,776	0,045	0,069
-470,459	800,000	0,060	-0,151
-469,445	99,419	-0,082	-0,069
-468,430	78,593	-0,061	-0,047
-467,416	-200,000	0,066	0,210
-466,401	309,197	0,010	0,014
-465,386	800,000	-0,036	0,075
-464,372	343,343	0,085	0,120
-463,357	136,153	-0,027	-0,025
-462,343	172,667	-0,051	-0,053
-461,328	-174,027	-0,072	0,001
-460,313	-161,239	0,068	0,003
-459,299	-200,000	0,006	-0,046
-458,284	800,000	-0,024	0,068
-457,270	-59,657	-0,036	-0,011
-456,255	54,623	-0,044	0,030
-455,241	800,000	-0,038	-0,090
-454,226	11,490	0,134	-0,074
-453,211	33,977	0,188	0,118
-452,197	66,242	0,079	-0,058
-451,182	10,163	-0,117	0,064
-450,168	-125,792	0,221	0,024
-449,153	-115,829	-0,148	-0,020
-448,138	-51,014	-0,115	0,039
-447,124	-200,000	-0,000	-0,077
-446,109	132,294	0,108	0,100
-445,095	577,366	0,041	0,073
-444,080	-200,000	0,023	-0,079
-443,065	800,000	0,030	0,067
-442,051	244,373	-0,043	0,052
-441,036	229,285	-0,062	-0,072
-440,022	-149,161	0,111	0,006
-439,007	170,679	-0,060	0,062
-437,992	-80,746	-0,044	-0,010
-436,978	106,153	-0,062	0,053
-435,963	-200,000	0,001	0,101
-434,949	515,257	-0,038	-0,064
-433,934	151,312	-0,050	-0,049
-432,919	437,472	0,082	-0,129
-431,905	-81,426	-0,107	-0,025
-430,890	70,685	0,139	-0,103
-429,876	-28,139	0,053	0,022
-428,861	-200,000	0,035	-0,219
-427,846	94,170	-0,082	0,067
-426,832	-134,014	-0,019	-0,002
-425,817	-38,248	-0,172	0,065
-424,803	332,156	0,032	-0,045
-423,788	-200,000	-0,010	0,076
-422,773	250,108	0,052	0,063
-421,759	-170,875	0,037	0,001
-420,744	17,685	0,157	0,089
-419,730	-200,000	-0,048	0,163
-418,715	800,000	0,016	-0,036
-417,701	56,149	0,072	-0,050
-416,686	-107,685	0,044	0,007
-415,671	-15,353	-0,037	-0,017
-414,657	43,546	-0,068	0,045
-413,642	800,000	0,050	-0,110
-412,628	-200,000	-0,014	0,120
-411,613	800,000	-0,071	-0,161
-410,598	-200,000	0,015	0,055
-409,584	244,297	0,025	-0,030
-408,569	-200,000	0,005	0,033
-407,555	-89,662	0,077	-0,016
-406,540	185,112	-0,058	-0,062
-405,525	-200,000	-0,007	-0,106
-404,511	800,000	-0,023	-0,055
-403,496	-73,087	-0,061	-0,016
-402,482	-200,000	-0,020	-0,134
-401,467	-200,000	-0,030	-0,095
-400,452	80,763	0,073	-0,056
-399,438	-200,000	0,039	-0,134
-398,423	253,607	-0,038	-0,047
-397,409	-200,000	-0,009	-0,078
-396,394	16,496	0,039	0,022
-395,379	205,042	0,032	-0,036
-394,365	675,780	0,039	0,072
-393,350	-200,000	-0,010	0,179
-392,336	118,717	0,097	0,086
-391,321	-200,000	-0,007	-0,095
-390,306	275,162	-0,026	0,033
-389,292	89,949	-0,117	-0,094
-388,277	150,724	0,039	-0,038
-387,263	0,917	-0,042	0,022
-386,248	768,422	-0,073	0,144
-385,233	256,356	-0,065	0,080
-384,219	-200,000	-0,028	0,150
-383,204	171,773	0,087	0,089
-382,190	-200,000	0,004	0,097
-381,175	33,422	0,041	-0,025
-380,160	-180,328	0,094	0,001
-379,146	-128,454	0,072	0,007
-378,131	-200,000	-0,019	0,090
-377,117	-53,666	0,069	-0,022
-376,102	-133,249	-0,115	-0,010
-375,088	36,463	0,122	-0,077
-374,073	-200,000	-0,010	-0,089
-373,058	-141,393	0,225	0,016
-372,044	180,341	-0,077	-0,081
-371,029	403,155	0,020	-0,030
-370,015	-14,793	0,049	0,023
-369,000	-67,659	-0,190	-0,053
-367,985	-125,227	-0,122	0,013
-366,971	462,535	-0,110	-0,177
-365,956	672,850	0,018	-0,034
-364,942	-85,803	-0,061	-0,013
-363,927	-121,266	0,062	0,007
-362,912	85,936	0,130	0,103
-361,898	185,446	0,024	0,025
-360,883	-109,188	-0,098	0,015
-359,869	84,362	0,058	0,045
-358,854	246,946	0,129	0,156
-357,839	75,120	-0,121	0,092
-356,825	800,000	0,053	0,130
-355,810	-200,000	0,013	-0,045
-354,796	-200,000	-0,001	-0,092
-353,781	216,857	-0,059	-0,068
-352,766	-200,000	-0,030	-0,102
-351,752	6,724	-0,098	0,052
-350,737	-200,000	-0,029	0,108
-349,723	102,908	0,015	-0,013
-348,708	483,813	0,062	0,101
-347,693	800,000	-0,027	-0,063
-346,679	-200,000	0,036	-0,166
-345,664	233,360	-0,064	0,076
-344,650	-200,000	-0,007	-0,047
-343,635	800,000	-0,005	0,016
-342,620	-200,000	0,008	-0,044
-341,606	353,647	0,062	-0,089
-340,591	-128,484	-0,066	-0,007
-339,577	146,816	0,020	-0,020
-338,562	-91,173	-0,148	-0,030
-337,548	-85,644	0,156	0,034
-336,533	83,138	0,125	0,097
-335,518	215,697	0,038	-0,043
-334,504	131,512	-0,024	-0,022
-333,489	-200,000	-0,023	-0,134
-332,475	711,631	0,019	-0,036
-331,460	-200,000	0,033	-0,105
-330,445	513,180	0,017	0,029
-329,431	43,470	0,088	-0,058
-328,416	-200,000	0,021	0,073
-327,402	800,000	0,060	0,128
-326,387	139,868	0,061	0,058
-325,372	100,480	0,083	0,069
-324,358	-39,837	-0,053	0,020
-323,343	689,120	0,067	0,125
-322,329	-81,407	0,123	-0,029
-321,314	-200,000	-0,007	0,124
-320,299	551,083	0,015	0,026
-319,285	299,058	-0,026	0,034
-318,270	-17,806	-0,054	0,024
-317,256	509,029	0,034	-0,057
-316,241	800,000	0,008	0,024
-315,226	195,329	0,067	0,073
-314,212	320,173	0,018	0,025
-313,197	-200,000	-0,023	0,144
-312,183	-169,665	-0,145	0,004
-311,168	800,000	-0,014	-0,040
-310,153	-80,855	-0,059	0,014
-309,139	48,147	0,094	0,063
-308,124	-200,000	0,016	0,091
-307,110	-94,570	-0,055	0,011
-306,095	-119,664	0,059	-0,007
-305,080	-69,359	0,110	0,030
-304,066	401,447	-0,070	-0,106
-303,051	-89,586	-0,147	0,031
-302,037	-47,573	-0,057	-0,020
-301,022	159,489	0,024	-0,024
-300,008	-110,178	-0,045	0,007
-298,993	455,848	0,017	0,028
-297,978	-64,227	0,022	-0,006
-296,964	86,231	0,071	0,056
-295,949	-200,000	0,001	-0,011
-294,935	-200,000	-0,005	-0,045
-293,920	38,634	-0,098	0,062
-292,905	-200,000	0,019	0,062
-291,891	-150,736	0,087	-0,005
-290,876	65,689	-0,096	-0,069
-289,862	-200,000	0,008	0,047
-288,847	-50,559	-0,076	0,025
-287,832	-105,524	-0,037	0,006
-286,818	-200,000	0,001	0,094
-285,803	-90,037	0,139	-0,029
-284,789	-200,000	-0,007	0,032
-283,774	-139,508	-0,048	0,004
-282,759	-103,258	0,040	0,007
-281,745	-104,440	-0,004	-0,001
-280,730	561,210	-0,007	-0,013
-279,716	-111,486	0,074	-0,011
-278,701	-28,433	0,073	-0,030
-277,686	-158,737	0,151	0,006
-276,672	-200,000	-0,002	0,089
-275,657	266,425	0,041	0,052
-274,643	313,883	-0,064	-0,086
-273,628	-200,000	0,029	-0,094
-272,613	800,000	-0,026	0,065
-271,599	-200,000	0,027	-0,095
-270,584	-200,000	0,012	0,089
-269,570	-200,000	0,006	-0,019
-268,555	4,147	0,057	0,030
-267,540	800,000	0,030	0,079
-266,526	800,000	0,044	-0,103
-265,511	800,000	-0,059	-0,180
-264,497	800,000	0,024	-0,067
-263,482	-108,563	0,206	-0,031
-262,467	71,868	0,026	0,019
-261,453	-200,000	-0,024	0,077
-260,438	-38,199	-0,172	0,065
-259,424	665,576	-0,027	0,050
-258,409	509,528	-0,134	-0,223
-257,395	-200,000	-0,018	0,085
-256,380	-61,140	0,014	0,004
-255,365	800,000	-0,062	0,173
-254,351	-200,000	-0,002	0,021
-253,336	800,000	-0,012	0,037
-252,322	-200,000	0,022	-0,108
-251,307	800,000	0,004	-0,012
-250,292	270,960	0,049	0,061
-249,278	301,769	0,006	-0,008
-248,263	32,664	-0,028	-0,018
-247,249	-200,000	0,011	-0,072
-246,234	-18,717	-0,143	-0,063
-245,219	-200,000	-0,004	0,078
-244,205	794,556	-0,052	-0,102
-243,190	74,460	0,087	0,065
-242,176	309,228	-0,145	0,193
-241,161	-78,034	0,133	0,032
-240,146	227,681	0,055	-0,064
-239,132	430,051	0,024	-0,038
-238,117	623,662	0,079	-0,143
-237,103	-151,030	-0,128	-0,007
-236,088	473,832	-0,086	-0,139
-235,073	-139,513	0,111	0,008
-234,059	-200,000	-0,006	-0,045
-233,044	96,923	0,029	-0,024
-232,030	-200,000	0,023	-0,123
-231,015	684,041	0,054	0,100
-230,000	-25,738	-0,139	0,058
-228,986	-200,000	0,011	-0,064
-227,971	800,000	-0,039	0,087
-226,957	-200,000	0,058	0,189
-225,942	108,871	0,105	0,089
-224,927	-51,589	0,064	-0,021
-223,913	713,892	0,050	-0,095
-222,898	800,000	-0,020	-0,054
-221,884	-200,000	0,021	-0,112
-220,869	71,032	0,109	-0,080
-219,855	449,199	0,049	0,077
-218,840	107,112	0,127	0,107
-217,825	292,461	-0,008	0,010
-216,811	800,000	-0,027	-0,070
-215,796	60,403	0,051	-0,036
-214,782	-86,261	-0,046	-0,010
-213,767	800,000	0,037	-0,087
-212,752	-200,000	-0,004	-0,021
-211,738	318,886	0,079	0,106
-210,723	147,302	-0,084	0,080
-209,709	233,258	0,021	0,024
-208,694	124,252	-0,061	0,055
-207,679	-200,000	0,003	-0,057
-206,665	800,000	-0,019	0,049
-205,650	-200,000	0,032	0,102
-204,636	43,434	0,189	0,123
-203,621	153,666	0,075	0,074
-202,606	128,039	0,023	0,021
-201,592	-101,991	-0,095	-0,016
-200,577	578,928	0,011	-0,019
-199,563	243,492	-0,026	0,031
-198,548	800,000	0,061	0,139
-197,533	108,517	0,062	0,052
-196,519	7,801	0,095	0,051
-195,504	531,876	-0,091	-0,155
-194,490	-200,000	0,039	-0,138
-193,475	800,000	0,035	-0,070
-192,460	140,576	-0,081	-0,076
-191,446	-200,000	-0,043	0,143
-190,431	-200,000	0,015	-0,117
-189,417	-82,826	-0,034	-0,008
-188,402	-200,000	0,043	0,160
-187,387	800,000	-0,030	-0,083
-186,373	201,233	0,064	-0,070
-185,358	264,866	0,070	-0,087
-184,344	-118,096	-0,069	-0,009
-183,329	-103,435	-0,079	0,013
-182,315	177,464	0,059	-0,061
-181,300	60,324	-0,097	0,068
-180,285	511,702	-0,072	-0,120
-179,271	800,000	0,020	-0,052
-178,256	-200,000	0,007	-0,070
-177,242	-200,000	-0,010	0,080
-176,227	-200,000	-0,021	0,142
-175,212	800,000	0,025	0,062
-174,198	-200,000	-0,001	-0,037
-173,183	71,620	0,140	-0,103
-172,169	64,961	-0,063	-0,045
-171,154	-177,713	0,150	-0,003
-170,139	177,243	0,055	-0,057
-169,125	-200,000	0,029	0,222
-168,110	-47,152	-0,112	0,039
-167,096	81,056	0,063	-0,048
-166,081	300,306	-0,115	-0,151
-165,066	454,190	-0,032	0,050
-164,052	-192,210	0,063	-0,000
-163,037	138,808	0,122	-0,114
-162,023	-200,000	-0,019	0,157
-161,008	-26,756	-0,114	-0,047
-159,993	357,660	-0,037	-0,053
-158,979	-200,000	-0,029	0,098
-157,964	-200,000	-0,033	0,115
-156,950	4,366	0,034	-0,018
-155,935	26,530	0,125	0,074
-154,920	-200,000	-0,007	0,099
-153,906	-178,355	0,141	0,002
-152,891	-200,000	-0,022	-0,151
-151,877	2,353	-0,020	0,010
-150,862	596,931	-0,020	0,035
-149,847	-181,211	-0,132	-0,002
-148,833	-5,027	-0,052	-0,025
-147,818	-94,149	0,068	-0,013
-146,804	51,600	0,062	-0,042
-145,789	-5,057	-0,098	-0,048
-144,775	-48,039	-0,019	0,007
-143,760	29,880	-0,034	-0,020
-142,745	72,210	0,086	-0,063
-141,731	-10,512	0,107	-0,050
-140,716	-200,000	-0,016	-0,059
-139,702	7,204	-0,049	-0,026
-138,687	-6,562	0,190	0,092
-137,672	187,286	-0,028	0,029
-136,658	800,000	0,028	0,085
-135,643	800,000	0,020	-0,057
-134,629	-28,805	0,047	-0,019
-133,614	85,585	0,031	0,025
-132,599	-103,876	-0,109	0,018
-131,585	17,107	-0,017	-0,009
-130,570	57,208	0,034	0,023
-129,556	436,806	0,075	-0,116
-128,541	800,000	-0,036	-0,074
-127,526	-200,000	0,002	0,016
-126,512	-125,470	0,034	-0,004
-125,497	-41,180	-0,047	-0,017
-124,483	254,723	0,060	0,073
-123,468	-200,000	0,013	0,086
-122,453	-200,000	0,001	0,075
-121,439	16,988	-0,039	-0,022
-120,424	68,205	-0,039	0,028
-119,410	662,250	-0,054	-0,098
