DTS Sentinel unit serial number:	SN410029Multiplexer serial number:	ORYXHardware model number:	OX2-SRSoftware version number:	ORYX F/W v4,00 Oryx Data Collector v3.7.2.0data status	okinstallation	B3 Nyhavnadifferential loss correction	single-endedforward channel	channel 1reverse channel	N/Adate	2023/11/28time	18:22:30forward acquisition time	300,00reverse acquisition time	0,00gamma	499,1914k internal	0,3149k external	0,3149temperature offset calibration	1,0000default loss term (dB/km)	0,3820temperature slope calibration	1,0000multiplexer offset coefficient	1,0000multiplexer slope coefficient	1,0000fibre end	0,00T internal ref (°C)	7,42T ext. ref 1 (°C)	-7,35T ext. ref 2 (°C)	-7,50length (m)	temperature (°C)	Stokes	anti-Stokes-744,400	229,289	-0,206	-0,250
-743,385	800,000	-0,108	0,251
-742,371	112,370	-0,232	-0,207
-741,356	-200,000	-0,037	0,226
-740,342	149,768	-0,085	-0,086
-739,327	508,074	-0,115	0,198
-738,312	-24,194	-0,208	-0,092
-737,298	495,513	-0,114	0,195
-736,283	170,165	-0,246	-0,260
-735,269	-200,000	-0,012	0,266
-734,254	495,843	-0,167	-0,284
-733,239	-117,987	-0,277	0,036
-732,225	-200,000	0,046	-0,230
-731,210	-200,000	0,042	0,187
-730,196	-164,390	-0,144	-0,005
-729,181	800,000	-0,028	-0,077
-728,167	-53,259	0,037	-0,013
-727,152	-113,917	0,035	0,005
-726,137	-200,000	-0,020	0,091
-725,123	112,887	-0,061	-0,055
-724,108	-89,205	-0,069	0,015
-723,094	-10,237	-0,115	0,056
-722,079	-9,808	-0,128	-0,063
-721,064	-5,520	-0,117	-0,059
-720,050	534,076	0,014	0,024
-719,035	28,151	-0,081	-0,050
-718,021	-108,288	-0,092	-0,014
-717,006	-36,619	-0,056	-0,022
-715,991	800,000	-0,047	-0,141
-714,977	800,000	-0,062	-0,158
-713,962	470,365	-0,025	0,042
-712,948	344,515	-0,089	0,129
-711,933	-15,763	0,091	0,043
-710,918	39,051	-0,085	-0,056
-709,904	109,217	-0,055	0,049
-708,889	679,147	-0,090	-0,173
-707,875	2,770	0,060	0,032
-706,860	-22,011	-0,103	-0,046
-705,845	-198,748	-0,075	0,000
-704,831	172,024	-0,075	0,079
-703,816	-200,000	0,032	0,118
-702,802	-47,919	0,042	-0,015
-701,787	21,231	0,031	0,018
-700,772	84,660	-0,024	0,019
-699,758	-200,000	-0,006	-0,165
-698,743	-200,000	0,007	-0,036
-697,729	-18,154	0,120	0,055
-696,714	-127,292	-0,028	-0,003
-695,699	207,425	0,111	-0,128
-694,685	-22,972	-0,129	-0,057
-693,670	127,664	-0,120	-0,112
-692,656	19,104	0,127	0,075
-691,641	800,000	-0,055	0,137
-690,627	-200,000	0,010	-0,047
-689,612	-72,843	0,095	-0,026
-688,597	-200,000	-0,004	-0,078
-687,583	352,545	-0,065	-0,095
-686,568	-11,721	-0,149	-0,072
-685,554	-200,000	0,026	-0,113
-684,539	800,000	0,017	0,047
-683,524	262,212	-0,015	0,019
-682,510	-88,628	0,022	-0,005
-681,495	-166,343	-0,114	-0,003
-680,481	800,000	-0,096	-0,226
-679,466	163,505	-0,095	0,099
-678,451	-200,000	-0,006	-0,033
-677,437	-143,970	0,073	-0,005
-676,422	49,960	-0,097	0,068
-675,408	-13,327	0,075	0,036
-674,393	195,591	-0,130	-0,146
-673,378	-41,313	-0,141	-0,053
-672,364	426,008	-0,091	-0,145
-671,349	-200,000	-0,001	-0,022
-670,335	258,255	0,069	0,088
-669,320	-148,703	-0,094	-0,006
-668,305	-25,869	-0,073	-0,031
-667,291	33,412	0,034	-0,022
-666,276	97,230	-0,187	-0,158
-665,262	135,689	-0,105	-0,101
-664,247	-185,396	-0,033	-0,000
-663,232	-15,481	-0,076	-0,036
-662,218	154,752	-0,038	-0,038
-661,203	116,992	-0,022	0,020
-660,189	532,181	-0,035	-0,061
-659,174	-62,447	-0,093	-0,028
-658,159	-200,000	0,005	-0,106
-657,145	-122,283	-0,067	0,008
-656,130	-200,000	0,003	0,031
-655,116	-200,000	-0,010	0,115
-654,101	253,723	-0,055	-0,070
-653,086	717,396	0,019	0,037
-652,072	-200,000	0,022	-0,096
-651,057	-109,346	-0,026	-0,004
-650,043	391,834	0,041	0,064
-649,028	800,000	-0,041	-0,102
-648,014	41,476	-0,067	-0,044
-646,999	35,787	0,086	0,055
-645,984	135,507	0,010	-0,010
-644,970	800,000	-0,023	-0,072
-643,955	-134,027	-0,129	0,012
-642,941	-112,962	0,131	-0,019
-641,926	800,000	-0,027	-0,070
-640,911	248,525	0,059	0,073
-639,897	-106,040	0,125	0,020
-638,882	-58,656	0,097	0,031
-637,868	-200,000	0,005	0,059
-636,853	100,050	-0,121	-0,104
-635,838	-200,000	0,023	0,153
-634,824	800,000	0,050	-0,133
-633,809	106,279	-0,102	-0,089
-632,795	708,698	-0,055	-0,108
-631,780	-200,000	-0,001	0,032
-630,765	-86,992	-0,123	-0,027
-629,751	157,196	-0,021	-0,022
-628,736	-200,000	-0,015	-0,106
-627,722	-200,000	-0,008	0,104
-626,707	56,531	-0,043	0,031
-625,692	-173,499	-0,112	-0,002
-624,678	39,967	-0,066	-0,044
-623,663	737,619	0,064	0,127
-622,649	-86,310	-0,040	-0,009
-621,634	171,943	-0,022	-0,023
-620,619	800,000	0,047	0,121
-619,605	186,567	-0,046	0,050
-618,590	13,586	-0,202	-0,115
-617,576	74,523	0,084	0,065
-616,561	27,912	-0,135	0,083
-615,546	-78,628	-0,076	0,019
-614,532	-16,223	-0,042	-0,019
-613,517	800,000	-0,035	0,072
-612,503	800,000	0,082	0,236
-611,488	-143,724	0,259	-0,018
-610,474	-200,000	-0,015	0,152
-609,459	109,229	0,066	0,058
-608,444	406,543	-0,032	-0,049
-607,430	800,000	0,052	-0,131
-606,415	800,000	0,021	0,058
-605,401	290,820	-0,083	0,111
-604,386	-200,000	0,023	-0,169
-603,371	-200,000	-0,007	-0,122
-602,357	757,335	-0,018	-0,037
-601,342	8,323	-0,034	-0,019
-600,328	237,846	-0,072	-0,089
-599,313	-62,682	-0,141	0,043
-598,298	800,000	0,023	-0,070
-597,284	800,000	-0,029	-0,094
-596,269	-200,000	0,028	0,122
-595,255	-69,458	0,054	0,015
-594,240	-200,000	-0,033	0,133
-593,225	-97,932	-0,057	0,011
-592,211	488,069	0,018	0,030
-591,196	-98,374	-0,104	0,019
-590,182	29,752	-0,066	-0,041
-589,167	-200,000	-0,013	0,128
-588,152	184,387	-0,055	0,060
-587,138	-12,692	-0,063	0,030
-586,123	2,738	-0,037	-0,020
-585,109	121,759	-0,052	-0,048
-584,094	212,607	-0,052	-0,060
-583,079	102,621	0,050	0,043
-582,065	216,425	0,092	-0,107
-581,050	-42,368	-0,035	0,013
-580,036	-102,543	-0,175	-0,030
-579,021	-161,828	0,067	0,002
-578,006	800,000	-0,092	-0,208
-576,992	-200,000	-0,004	0,029
-575,977	257,149	-0,079	-0,099
-574,963	-200,000	0,048	0,217
-573,948	800,000	0,051	0,136
-572,934	379,045	0,069	-0,104
-571,919	-113,706	0,110	0,016
-570,904	-71,477	0,031	-0,008
-569,890	-41,250	-0,098	-0,037
-568,875	-137,347	-0,048	0,004
-567,861	-113,785	0,035	-0,005
-566,846	-200,000	0,002	0,012
-565,831	42,878	-0,105	0,070
-564,817	174,741	0,010	-0,011
-563,802	800,000	-0,049	-0,102
-562,788	154,711	0,196	-0,197
-561,773	-200,000	0,015	-0,138
-560,758	-68,111	0,079	0,022
-559,744	-64,542	0,125	0,037
-558,729	-41,627	-0,068	-0,026
-557,715	49,738	0,045	-0,031
-556,700	221,619	0,061	-0,072
-555,685	-2,377	-0,052	0,027
-554,671	-200,000	0,001	0,067
-553,656	-44,187	0,114	-0,042
-552,642	-200,000	-0,006	0,107
-551,627	73,894	0,052	-0,040
-550,612	660,989	-0,023	-0,044
-549,598	-200,000	-0,013	-0,070
-548,583	-200,000	0,013	-0,100
-547,569	-26,824	-0,141	-0,060
-546,554	-109,680	-0,155	0,024
-545,539	56,152	0,098	0,070
-544,525	491,884	0,038	0,063
-543,510	-200,000	0,019	0,096
-542,496	-200,000	-0,034	-0,124
-541,481	61,659	-0,058	-0,042
-540,466	-200,000	0,012	-0,054
-539,452	-179,441	0,122	0,002
-538,437	-200,000	-0,016	0,059
-537,423	109,426	-0,066	0,058
-536,408	800,000	0,058	0,128
-535,393	87,768	-0,058	0,047
-534,379	-113,821	-0,049	0,007
-533,364	465,151	0,022	0,036
-532,350	527,396	0,052	-0,090
-531,335	51,794	-0,034	-0,024
-530,321	-162,005	0,108	-0,004
-529,306	-200,000	0,004	0,100
-528,291	106,437	0,116	-0,101
-527,277	235,239	-0,016	-0,020
-526,262	73,770	-0,048	-0,037
-525,248	-104,829	0,084	-0,014
-524,233	56,394	0,080	-0,057
-523,218	-170,376	-0,076	0,002
-522,204	364,059	0,017	0,025
-521,189	8,466	-0,150	-0,082
-520,175	-42,986	-0,090	-0,033
-519,160	743,079	-0,057	0,113
-518,145	36,125	0,134	-0,086
-517,131	146,094	-0,039	-0,038
-516,116	-200,000	-0,017	0,057
-515,102	800,000	0,021	-0,069
-514,087	195,034	0,067	-0,075
-513,072	566,828	-0,074	-0,132
-512,058	-200,000	0,005	0,029
-511,043	800,000	-0,030	-0,075
-510,029	-200,000	0,020	0,101
-509,014	781,458	0,093	0,188
-507,999	-167,851	-0,063	0,002
-506,985	142,832	0,101	0,098
-505,970	164,841	0,079	0,081
-504,956	-32,725	-0,198	-0,080
-503,941	-200,000	0,003	-0,059
-502,926	132,494	0,087	-0,082
-501,912	111,335	0,028	0,025
-500,897	-84,806	-0,136	-0,031
-499,883	-24,515	0,087	0,038
-498,868	-200,000	0,001	-0,032
-497,853	-200,000	-0,018	-0,110
-496,839	63,474	0,077	-0,056
-495,824	255,246	0,073	-0,091
-494,810	24,239	-0,056	-0,034
-493,795	88,482	-0,049	-0,040
-492,781	800,000	0,023	0,062
-491,766	48,456	-0,091	0,062
-490,751	529,440	-0,055	0,096
-489,737	-11,135	0,040	0,019
-488,722	-37,492	0,086	0,033
-487,708	527,929	0,084	0,145
-486,693	-76,142	-0,175	0,045
-485,678	-200,000	0,011	0,132
-484,664	-200,000	-0,062	0,207
-483,649	362,881	0,032	-0,047
-482,635	-200,000	0,004	-0,138
-481,620	-200,000	0,019	0,079
-480,605	-200,000	-0,016	0,109
-479,591	-91,167	-0,106	0,022
-478,576	-5,891	-0,033	0,017
-477,562	800,000	0,038	-0,093
-476,547	-118,825	-0,110	0,014
-475,532	-200,000	0,007	-0,085
-474,518	-200,000	0,014	0,078
-473,503	251,413	0,092	0,115
-472,489	385,845	-0,038	0,058
-471,474	800,000	-0,034	0,081
-470,459	267,288	0,016	-0,021
-469,445	-106,348	-0,051	-0,008
-468,430	-200,000	0,012	-0,157
-467,416	-200,000	-0,004	0,081
-466,401	278,822	0,025	0,033
-465,386	-58,557	0,123	0,039
-464,372	517,097	0,057	-0,099
-463,357	427,419	-0,059	-0,094
-462,343	-200,000	-0,009	-0,043
-461,328	57,530	-0,046	0,033
-460,313	-200,000	-0,003	-0,032
-459,299	312,031	-0,065	0,089
-458,284	-200,000	-0,011	0,098
-457,270	-200,000	-0,017	0,116
-456,255	-45,070	0,163	-0,059
-455,241	-200,000	-0,016	-0,077
-454,226	698,455	0,017	0,033
-453,211	-94,482	0,114	-0,023
-452,197	-200,000	0,017	-0,056
-451,182	-200,000	-0,005	0,190
-450,168	333,960	0,067	0,095
-449,153	-79,753	-0,221	-0,054
-448,138	790,975	0,077	-0,156
-447,124	-200,000	0,009	-0,041
-446,109	800,000	0,035	0,077
-445,095	160,063	-0,061	0,062
-444,080	-200,000	-0,016	0,072
-443,065	-122,644	0,142	-0,017
-442,051	-200,000	0,001	-0,047
-441,036	-80,978	0,043	-0,010
-440,022	224,930	0,028	0,033
-439,007	-200,000	0,001	0,023
-437,992	-90,206	0,075	0,016
-436,978	-200,000	0,007	-0,054
-435,963	-169,111	0,032	0,001
-434,949	-101,347	0,083	0,015
-433,934	-115,218	-0,039	-0,005
-432,919	-200,000	0,011	-0,117
-431,905	-200,000	-0,041	0,138
-430,890	23,894	0,146	0,088
-429,876	-36,820	0,080	-0,031
-428,861	489,383	0,026	-0,044
-427,846	-200,000	-0,002	0,032
-426,832	-124,108	-0,085	0,010
-425,817	248,819	0,041	0,050
-424,803	-200,000	-0,025	-0,121
-423,788	-99,307	0,092	0,017
-422,773	39,981	0,062	-0,040
-421,759	327,158	0,034	0,047
-420,744	800,000	-0,066	-0,145
-419,730	-200,000	-0,052	-0,167
-418,715	-74,454	0,070	-0,018
-417,701	100,986	0,031	-0,026
-416,686	-200,000	0,016	-0,140
-415,671	-200,000	0,004	0,036
-414,657	3,334	-0,019	0,010
-413,642	-144,120	-0,028	-0,002
-412,628	-200,000	0,000	-0,052
-411,613	800,000	-0,041	-0,084
-410,598	-24,085	0,073	-0,032
-409,584	284,729	0,051	0,067
-408,569	146,664	-0,059	-0,058
-407,555	97,316	0,204	0,171
-406,540	800,000	-0,031	-0,089
-405,525	800,000	0,012	0,038
-404,511	186,197	-0,064	-0,070
-403,496	800,000	-0,039	-0,090
-402,482	130,718	-0,088	0,082
-401,467	-200,000	0,004	-0,048
-400,452	-123,831	0,090	0,010
-399,438	800,000	-0,025	-0,079
-398,423	800,000	-0,059	0,172
-397,409	169,353	-0,073	0,076
-396,394	438,251	-0,027	-0,044
-395,379	-200,000	0,036	-0,120
-394,365	-82,349	-0,031	-0,007
-393,350	-109,921	0,080	0,012
-392,336	-104,045	-0,116	0,020
-391,321	800,000	0,016	0,045
-390,306	-32,234	-0,137	-0,056
-389,292	-200,000	-0,019	-0,085
-388,277	498,057	-0,026	0,044
-387,263	145,615	0,032	-0,031
-386,248	474,936	0,058	0,096
-385,233	-200,000	-0,006	-0,094
-384,219	-46,263	0,046	-0,016
-383,204	-123,761	-0,029	0,003
-382,190	-200,000	-0,010	-0,064
-381,175	-41,991	0,058	0,022
-380,160	-90,729	0,178	-0,037
-379,146	454,327	0,035	-0,057
-378,131	246,522	0,029	-0,036
-377,117	-124,771	-0,171	0,019
-376,102	44,241	-0,033	-0,022
-375,088	-200,000	0,002	-0,099
-374,073	800,000	-0,026	0,055
-373,058	-200,000	-0,011	0,052
-372,044	242,538	0,060	0,074
-371,029	-68,595	0,116	0,032
-370,015	-200,000	-0,030	-0,108
-369,000	232,294	-0,043	-0,052
-367,985	-171,248	0,195	-0,005
-366,971	-200,000	-0,018	0,071
-365,956	309,555	0,043	-0,059
-364,942	-164,963	0,079	-0,003
-363,927	-27,143	0,061	0,026
-362,912	307,597	-0,035	-0,047
-361,898	-200,000	0,002	-0,026
-360,883	-95,758	-0,064	0,012
-359,869	92,098	-0,025	-0,021
-358,854	-200,000	0,016	0,119
-357,839	236,939	0,030	0,036
-356,825	-200,000	0,015	0,138
-355,810	4,440	-0,066	0,035
-354,796	323,633	-0,049	0,069
-353,781	18,115	-0,154	0,089
-352,766	41,678	0,086	0,057
-351,752	478,061	0,033	-0,055
-350,737	-22,618	-0,040	-0,018
-349,723	800,000	0,034	-0,104
-348,708	20,033	0,022	0,013
-347,693	-200,000	0,007	0,038
-346,679	-200,000	-0,021	-0,071
-345,664	116,948	-0,012	-0,011
-344,650	-200,000	0,048	-0,222
-343,635	587,339	0,062	-0,112
-342,620	458,199	-0,046	0,074
-341,606	305,916	0,025	0,034
-340,591	-37,794	0,086	-0,033
-339,577	150,447	-0,071	-0,070
-338,562	-200,000	-0,042	-0,137
-337,548	116,811	-0,110	-0,098
-336,533	549,297	0,039	-0,069
-335,518	-37,994	0,105	-0,040
-334,504	356,487	-0,043	0,063
-333,489	42,917	0,115	-0,076
-332,475	-76,953	0,169	0,043
-331,460	-76,774	-0,113	-0,029
-330,445	84,790	0,059	0,047
-329,431	-200,000	-0,018	-0,108
-328,416	-200,000	0,004	0,156
-327,402	-200,000	-0,001	-0,049
-326,387	800,000	-0,021	0,064
-325,372	-200,000	-0,033	-0,127
-324,358	-48,143	0,023	0,008
-323,343	67,783	0,072	-0,053
-322,329	169,905	0,092	0,096
-321,314	800,000	-0,040	-0,101
-320,299	800,000	-0,064	0,139
-319,285	-200,000	0,007	-0,022
-318,270	-177,059	-0,047	0,001
-317,256	352,656	-0,069	-0,100
-316,241	-200,000	0,003	-0,032
-315,226	-25,758	-0,147	0,063
-314,212	-200,000	0,022	-0,169
-313,197	95,622	0,126	0,104
-312,183	73,926	0,039	-0,030
-311,168	-200,000	-0,009	-0,085
-310,153	-200,000	-0,020	-0,073
-309,139	578,191	-0,047	0,083
-308,124	-200,000	-0,014	0,050
-307,110	64,122	-0,152	-0,111
-306,095	150,750	0,058	0,057
-305,080	-200,000	-0,001	0,015
-304,066	-79,511	-0,030	0,007
-303,051	199,206	-0,034	-0,038
-302,037	-200,000	0,006	-0,042
-301,022	-200,000	-0,013	0,145
-300,008	-200,000	-0,002	0,094
-298,993	-200,000	-0,016	0,063
-297,978	62,976	0,025	0,018
-296,964	-200,000	-0,019	0,106
-295,949	-200,000	-0,015	-0,064
-294,935	800,000	-0,024	-0,049
-293,920	44,744	0,068	-0,046
-292,905	-200,000	-0,004	0,062
-291,891	-48,203	0,064	0,022
-290,876	-200,000	0,008	0,045
-289,862	133,945	-0,024	-0,022
-288,847	-200,000	-0,010	-0,157
-287,832	91,128	-0,189	-0,154
-286,818	23,289	0,060	0,036
-285,803	-200,000	-0,036	0,194
-284,789	-200,000	0,004	0,031
-283,774	800,000	-0,028	0,071
-282,759	-60,475	0,052	0,016
-281,745	-113,384	-0,028	-0,004
-280,730	474,855	-0,061	-0,101
-279,716	-22,385	-0,053	0,023
-278,701	-0,562	-0,084	-0,043
-277,686	-200,000	0,004	-0,086
-276,672	800,000	-0,023	0,058
-275,657	-40,592	0,025	0,009
-274,643	-200,000	-0,020	-0,073
-273,628	568,438	0,050	0,088
-272,613	34,136	-0,091	0,058
-271,599	-94,567	-0,072	-0,014
-270,584	800,000	-0,020	0,044
-269,570	-66,381	0,130	0,037
-268,555	94,255	0,092	0,076
-267,540	49,454	-0,079	-0,054
-266,526	-11,104	0,150	0,071
-265,511	-200,000	0,036	-0,160
-264,497	-200,000	0,022	0,093
-263,482	-180,600	-0,035	0,001
-262,467	800,000	-0,034	0,086
-261,453	-200,000	0,196	-0,000
-260,438	800,000	-0,050	-0,102
-259,424	-144,991	-0,060	-0,004
-258,409	134,308	-0,117	-0,110
-257,395	800,000	0,060	-0,131
-256,380	-7,561	0,177	0,086
-255,365	800,000	-0,032	-0,068
-254,351	351,400	-0,006	0,009
-253,336	-126,016	0,044	-0,005
-252,322	800,000	-0,043	-0,092
-251,307	-133,071	0,075	-0,007
-250,292	113,321	-0,073	0,064
-249,278	-200,000	0,042	0,143
-248,263	800,000	0,044	0,100
-247,249	235,295	0,074	0,088
-246,234	-40,472	-0,171	0,064
-245,219	800,000	-0,049	-0,144
-244,205	210,497	-0,014	0,016
-243,190	800,000	0,019	0,046
-242,176	340,414	0,052	0,074
-241,161	-61,919	0,125	-0,038
-240,146	-200,000	-0,001	-0,057
-239,132	117,281	-0,046	0,041
-238,117	220,697	-0,029	0,034
-237,103	-200,000	-0,027	0,110
-236,088	800,000	0,037	0,091
-235,073	800,000	-0,068	0,174
-234,059	-14,352	0,103	-0,048
-233,044	664,982	0,034	0,064
-232,030	-200,000	-0,011	0,167
-231,015	568,766	-0,031	-0,054
-230,000	-16,104	0,063	0,029
-228,986	800,000	-0,016	-0,039
-227,971	477,121	0,073	-0,121
-226,957	-200,000	-0,013	0,050
-225,942	-83,310	0,147	0,034
-224,927	677,454	-0,037	0,069
-223,913	9,757	0,038	-0,021
-222,898	-44,566	0,041	0,015
-221,884	-200,000	-0,031	0,102
-220,869	-121,364	0,135	-0,016
-219,855	44,996	-0,124	-0,082
-218,840	-200,000	0,020	0,161
-217,825	45,307	0,054	-0,036
-216,811	-200,000	0,012	-0,140
-215,796	531,792	0,038	0,065
-214,782	294,711	-0,061	-0,081
-213,767	-12,039	0,120	-0,057
-212,752	333,638	-0,110	0,154
-211,738	593,151	0,022	-0,039
-210,723	-127,034	0,160	0,017
-209,709	-83,308	-0,088	0,020
-208,694	-200,000	0,003	-0,091
-207,679	-46,264	-0,035	-0,013
-206,665	621,359	-0,047	-0,086
-205,650	48,578	-0,092	0,062
-204,636	800,000	0,018	0,043
-203,621	-200,000	0,003	-0,014
-202,606	-200,000	-0,001	-0,090
-201,592	397,705	-0,017	-0,026
-200,577	-29,658	-0,047	0,019
-199,563	-61,057	0,164	-0,050
-198,548	316,204	-0,127	0,175
-197,533	567,312	0,105	0,185
-196,519	75,397	0,021	0,016
-195,504	28,338	-0,053	0,032
-194,490	319,161	-0,106	-0,146
-193,475	-200,000	-0,012	-0,078
-192,460	-84,265	0,133	0,030
-191,446	-79,854	0,038	0,009
-190,431	-121,721	0,151	0,018
-189,417	586,157	0,030	-0,054
-188,402	352,842	-0,079	-0,113
-187,387	-48,676	0,019	0,007
-186,373	285,593	0,101	-0,132
-185,358	800,000	0,042	-0,090
-184,344	-1,072	0,161	0,082
-183,329	57,088	-0,064	0,045
-182,315	-156,887	-0,086	0,004
-181,300	646,625	-0,052	-0,096
-180,285	-200,000	-0,000	0,033
-179,271	27,555	0,063	0,039
-178,256	-157,519	-0,152	0,006
-177,242	800,000	-0,018	0,046
-176,227	-200,000	0,001	0,098
-175,212	-200,000	-0,020	-0,157
-174,198	800,000	0,012	0,036
-173,183	-102,005	-0,169	0,029
-172,169	-155,139	0,044	0,002
-171,154	-35,023	-0,106	0,041
-170,139	-36,066	-0,063	-0,025
-169,125	-67,970	0,123	-0,034
-168,110	-57,092	0,045	0,014
-167,096	-26,475	-0,064	0,027
-166,081	800,000	0,076	0,156
-165,066	-200,000	-0,040	-0,150
-164,052	-200,000	0,007	-0,078
-163,037	93,434	0,047	0,039
-162,023	-34,602	-0,015	0,006
-161,008	800,000	-0,037	0,089
-159,993	-44,157	-0,142	0,051
-158,979	260,334	-0,032	0,040
-157,964	-123,748	-0,146	-0,016
-156,950	800,000	-0,064	0,145
-155,935	-107,672	0,119	0,019
-154,920	57,998	-0,094	0,067
-153,906	-111,607	0,057	0,008
-152,891	1,289	-0,056	-0,029
-151,877	-200,000	-0,015	-0,052
-150,862	23,080	-0,033	0,019
-149,847	192,674	0,033	0,036
-148,833	-24,866	0,094	0,040
-147,818	-18,971	-0,116	0,052
-146,804	85,020	0,132	0,104
-145,789	125,821	-0,065	-0,060
-144,775	166,680	0,073	-0,075
-143,760	2,228	0,041	-0,021
-142,745	17,904	0,074	-0,043
-141,731	15,927	-0,043	0,024
-140,716	-200,000	-0,015	0,145
-139,702	800,000	0,030	0,072
-138,687	-86,634	0,052	0,011
-137,672	99,320	-0,139	0,116
-136,658	-200,000	-0,004	-0,071
-135,643	-60,029	0,017	0,005
-134,629	-200,000	-0,003	-0,122
-133,614	392,449	0,064	0,096
-132,599	800,000	-0,020	0,063
-131,585	-140,240	-0,010	-0,001
-130,570	-41,922	-0,122	0,045
-129,556	-119,533	-0,128	0,016
-128,541	-200,000	0,020	-0,077
-127,526	800,000	0,043	-0,096
-126,512	-200,000	-0,026	0,092
-125,497	800,000	-0,039	0,097
-124,483	-32,236	-0,029	0,012
-123,468	-200,000	0,014	0,096
-122,453	578,329	0,037	0,065
-121,439	28,309	-0,092	0,056
-120,424	-0,105	0,107	0,055
