DTS Sentinel unit serial number:	SN410029Multiplexer serial number:	ORYXHardware model number:	OX2-SRSoftware version number:	ORYX F/W v4,00 Oryx Data Collector v3.7.2.0data status	okinstallation	B3 Nyhavnadifferential loss correction	single-endedforward channel	channel 1reverse channel	N/Adate	2023/11/28time	18:07:30forward acquisition time	300,00reverse acquisition time	0,00gamma	499,1914k internal	0,3159k external	0,3159temperature offset calibration	1,0000default loss term (dB/km)	0,3820temperature slope calibration	1,0000multiplexer offset coefficient	1,0000multiplexer slope coefficient	1,0000fibre end	0,00T internal ref (°C)	7,38T ext. ref 1 (°C)	-7,43T ext. ref 2 (°C)	-7,59length (m)	temperature (°C)	Stokes	anti-Stokes-744,400	255,330	-0,227	-0,288
-743,385	800,000	0,094	0,294
-742,371	83,094	-0,158	-0,127
-741,356	-200,000	0,016	0,254
-740,342	93,818	-0,167	-0,139
-739,327	560,366	-0,195	0,348
-738,312	-88,164	-0,125	-0,027
-737,298	366,274	-0,148	0,220
-736,283	542,711	-0,139	-0,245
-735,269	800,000	0,091	0,256
-734,254	177,062	-0,160	-0,172
-733,239	-157,466	-0,332	0,014
-732,225	-200,000	-0,034	-0,280
-731,210	800,000	0,061	0,142
-730,196	-199,585	-0,113	-0,000
-729,181	311,947	0,104	-0,144
-728,167	-163,720	-0,048	0,002
-727,152	70,121	0,100	0,076
-726,137	-176,227	-0,219	0,004
-725,123	-200,000	-0,024	-0,089
-724,108	220,860	-0,063	-0,075
-723,094	2,748	-0,193	0,103
-722,079	-167,000	0,154	0,005
-721,064	5,763	-0,048	-0,026
-720,050	57,161	-0,133	0,095
-719,035	168,359	-0,015	-0,015
-718,021	-90,524	-0,141	0,030
-717,006	184,374	-0,047	-0,051
-715,991	-200,000	-0,027	-0,145
-714,977	-114,246	-0,084	0,012
-713,962	43,823	-0,028	-0,019
-712,948	800,000	-0,024	-0,053
-711,933	135,996	-0,125	0,120
-710,918	-32,253	0,021	-0,009
-709,904	-51,208	-0,104	-0,036
-708,889	119,636	0,031	-0,028
-707,875	-200,000	-0,004	0,071
-706,860	-200,000	-0,012	-0,144
-705,845	-200,000	-0,014	-0,082
-704,831	-138,173	0,116	0,009
-703,816	-110,885	-0,081	-0,012
-702,802	800,000	-0,036	-0,086
-701,787	200,211	-0,110	-0,124
-700,772	-200,000	0,001	-0,158
-699,758	383,902	0,055	-0,083
-698,743	-10,816	0,173	-0,084
-697,729	32,784	-0,081	0,051
-696,714	-53,911	0,065	0,022
-695,699	-200,000	-0,010	-0,141
-694,685	144,650	-0,021	-0,021
-693,670	109,045	-0,070	-0,062
-692,656	-200,000	-0,030	0,109
-691,641	-188,513	0,050	0,000
-690,627	-200,000	-0,008	-0,028
-689,612	-200,000	-0,042	0,211
-688,597	167,974	-0,103	-0,107
-687,583	-200,000	0,021	-0,102
-686,568	-96,504	-0,053	0,010
-685,554	249,979	0,050	0,063
-684,539	800,000	0,014	-0,038
-683,524	800,000	-0,036	0,094
-682,510	-13,086	-0,106	-0,051
-681,495	800,000	0,029	0,077
-680,481	69,777	-0,041	0,031
-679,466	800,000	0,015	0,042
-678,451	685,788	-0,009	0,018
-677,437	287,083	-0,017	0,023
-676,422	800,000	-0,016	0,046
-675,408	51,206	-0,161	0,112
-674,393	-99,541	-0,037	-0,007
-673,378	239,950	0,046	-0,056
-672,364	-165,148	-0,064	0,002
-671,349	800,000	0,070	-0,154
-670,335	-200,000	0,012	0,140
-669,320	-200,000	0,014	0,052
-668,305	76,491	-0,020	0,015
-667,291	-63,312	0,146	0,044
-666,276	473,530	-0,040	-0,066
-665,262	48,395	-0,071	0,049
-664,247	-200,000	0,000	-0,148
-663,232	-144,439	0,067	-0,005
-662,218	506,440	0,063	0,108
-661,203	-72,172	-0,175	0,047
-660,189	-138,610	-0,070	-0,006
-659,174	218,416	-0,046	-0,054
-658,159	177,335	-0,105	-0,112
-657,145	-200,000	-0,013	0,126
-656,130	-145,181	0,140	-0,009
-655,116	203,199	0,077	0,087
-654,101	-58,757	-0,083	0,026
-653,086	800,000	-0,052	0,152
-652,072	276,899	-0,041	0,054
-651,057	-200,000	0,016	-0,164
-650,043	-11,861	-0,112	0,054
-649,028	-200,000	-0,007	-0,053
-648,014	54,194	0,100	-0,070
-646,999	-54,427	-0,012	0,004
-645,984	-200,000	-0,021	-0,132
-644,970	800,000	0,031	-0,066
-643,955	177,758	-0,056	-0,060
-642,941	-57,438	-0,025	0,008
-641,926	235,067	-0,051	0,062
-640,911	46,159	0,156	-0,106
-639,897	-200,000	0,006	0,124
-638,882	800,000	0,070	0,152
-637,868	598,425	0,041	-0,075
-636,853	-200,000	0,001	-0,016
-635,838	-200,000	-0,016	-0,135
-634,824	800,000	0,042	-0,116
-633,809	-200,000	-0,020	0,124
-632,795	800,000	0,060	0,151
-631,780	-62,749	0,030	-0,009
-630,765	-200,000	0,000	-0,056
-629,751	484,680	0,070	-0,118
-628,736	-118,428	-0,084	-0,011
-627,722	-200,000	-0,002	0,045
-626,707	800,000	0,014	-0,035
-625,692	-76,373	0,175	-0,045
-624,678	800,000	-0,012	-0,036
-623,663	-105,203	-0,216	0,036
-622,649	-104,045	-0,034	-0,006
-621,634	-159,486	-0,148	0,006
-620,619	-200,000	0,026	0,101
-619,605	-200,000	-0,006	-0,073
-618,590	-7,467	0,094	0,046
-617,576	800,000	0,036	0,080
-616,561	-200,000	0,004	-0,113
-615,546	-200,000	0,006	0,026
-614,532	179,616	-0,095	0,102
-613,517	-77,957	0,130	-0,033
-612,503	234,422	-0,026	0,031
-611,488	33,061	0,014	-0,009
-610,474	-200,000	0,003	0,128
-609,459	-24,357	-0,146	0,063
-608,444	405,092	-0,027	0,042
-607,430	-18,972	-0,063	0,029
-606,415	13,435	-0,089	-0,050
-605,401	-53,713	0,050	-0,017
-604,386	211,242	-0,037	0,043
-603,371	800,000	0,022	0,059
-602,357	-59,536	-0,026	-0,008
-601,342	-200,000	-0,011	0,161
-600,328	-44,583	0,099	-0,036
-599,313	187,588	-0,045	-0,049
-598,298	-200,000	0,010	0,078
-597,284	-200,000	-0,045	0,000
-596,269	503,398	-0,069	0,117
-595,255	-86,754	0,041	-0,009
-594,240	-153,354	-0,178	-0,009
-593,225	-143,569	0,058	0,004
-592,211	-200,000	-0,000	-0,279
-591,196	-200,000	-0,020	-0,133
-590,182	203,595	0,082	0,093
-589,167	800,000	-0,064	-0,145
-588,152	-86,829	0,107	-0,024
-587,138	29,730	-0,079	0,049
-586,123	-200,000	-0,012	-0,128
-585,109	-200,000	0,005	0,095
-584,094	800,000	-0,058	0,120
-583,079	-77,098	0,121	-0,031
-582,065	800,000	0,008	0,021
-581,050	-104,812	-0,080	-0,013
-580,036	-148,118	-0,147	0,009
-579,021	-79,615	-0,030	0,007
-578,006	461,153	-0,146	-0,240
-576,992	-67,405	0,132	-0,038
-575,977	37,238	0,052	0,033
-574,963	-124,112	-0,023	-0,003
-573,948	-124,405	0,052	-0,006
-572,934	-179,143	0,029	-0,000
-571,919	106,281	-0,054	0,047
-570,904	-200,000	-0,021	-0,125
-569,890	-200,000	-0,035	-0,303
-568,875	205,525	-0,006	0,006
-567,861	400,874	-0,024	0,037
-566,846	800,000	-0,021	0,044
-565,831	440,434	-0,071	-0,113
-564,817	-106,883	-0,067	-0,011
-563,802	-75,519	0,109	0,028
-562,788	-200,000	-0,008	-0,063
-561,773	-200,000	0,004	0,045
-560,758	772,160	0,047	0,095
-559,744	68,620	-0,054	0,040
-558,729	336,579	-0,016	-0,023
-557,715	431,545	-0,071	-0,113
-556,700	-0,186	-0,095	-0,049
-555,685	-80,618	0,069	-0,017
-554,671	394,430	0,026	0,040
-553,656	-200,000	0,011	-0,059
-552,642	-200,000	0,008	-0,083
-551,627	245,599	-0,055	0,068
-550,612	-200,000	-0,037	-0,138
-549,598	483,534	0,054	-0,091
-548,583	-200,000	-0,007	0,076
-547,569	136,708	0,014	-0,013
-546,554	-48,720	0,134	-0,047
-545,539	-76,608	-0,123	0,031
-544,525	-200,000	-0,025	0,141
-543,510	88,377	-0,131	0,107
-542,496	-3,353	-0,044	0,022
-541,481	-200,000	-0,022	-0,079
-540,466	-200,000	0,029	-0,119
-539,452	800,000	0,021	0,067
-538,437	409,916	0,030	-0,046
-537,423	-200,000	0,027	-0,109
-536,408	-154,366	-0,038	0,002
-535,393	-41,853	-0,021	-0,008
-534,379	111,647	0,009	0,008
-533,364	-97,997	0,020	-0,004
-532,350	132,924	-0,045	-0,042
-531,335	-200,000	0,026	0,085
-530,321	800,000	-0,029	0,080
-529,306	-0,816	-0,071	0,036
-528,291	800,000	0,062	0,127
-527,277	-106,891	-0,029	0,005
-526,262	-200,000	0,012	0,138
-525,248	800,000	0,035	-0,103
-524,233	135,830	0,037	-0,035
-523,218	-108,300	0,172	0,027
-522,204	174,067	0,091	-0,096
-521,189	-200,000	0,012	-0,040
-520,175	-200,000	-0,019	-0,081
-519,160	18,215	-0,064	-0,037
-518,145	192,521	-0,024	-0,026
-517,131	800,000	0,026	0,085
-516,116	558,801	-0,078	0,139
-515,102	641,419	-0,015	-0,029
-514,087	800,000	0,006	-0,019
-513,072	17,253	-0,036	-0,021
-512,058	-7,353	-0,092	0,045
-511,043	-200,000	0,007	-0,037
-510,029	97,989	-0,073	0,062
-509,014	-126,636	0,042	-0,005
-507,999	-200,000	0,000	0,046
-506,985	257,898	-0,020	0,025
-505,970	-200,000	-0,001	-0,052
-504,956	581,366	0,013	-0,023
-503,941	-200,000	0,008	-0,079
-502,926	-200,000	-0,020	0,097
-501,912	99,053	0,136	-0,114
-500,897	201,067	-0,050	-0,056
-499,883	-56,230	-0,104	-0,034
-498,868	-102,184	-0,127	0,022
-497,853	-200,000	-0,022	-0,200
-496,839	34,376	0,046	-0,029
-495,824	800,000	-0,011	0,029
-494,810	198,290	0,050	-0,056
-493,795	-200,000	0,008	0,027
-492,781	-34,880	0,050	-0,020
-491,766	-200,000	0,024	0,103
-490,751	57,852	0,131	-0,093
-489,737	-200,000	0,022	-0,076
-488,722	180,049	-0,117	0,125
-487,708	599,163	0,074	0,134
-486,693	11,843	-0,089	0,050
-485,678	688,057	0,031	-0,059
-484,664	-147,405	0,025	-0,001
-483,649	-133,418	0,089	-0,008
-482,635	-115,432	0,088	0,012
-481,620	49,131	-0,029	0,020
-480,605	-200,000	-0,036	0,127
-479,591	800,000	0,041	0,127
-478,576	464,909	-0,070	0,115
-477,562	-67,910	-0,067	-0,019
-476,547	-139,855	-0,055	-0,004
-475,532	262,162	0,033	-0,042
-474,518	-200,000	-0,010	0,048
-473,503	-25,762	0,031	0,013
-472,489	110,520	0,100	0,088
-471,474	16,103	-0,121	0,069
-470,459	-80,947	-0,060	0,014
-469,445	-200,000	0,006	0,041
-468,430	-124,735	-0,124	-0,014
-467,416	-47,595	0,103	-0,036
-466,401	-100,559	0,028	0,005
-465,386	-117,858	0,115	0,015
-464,372	-200,000	0,024	0,102
-463,357	-175,943	0,130	0,002
-462,343	-0,160	-0,064	0,033
-461,328	142,023	0,043	-0,042
-460,313	-49,623	-0,044	-0,015
-459,299	-175,617	0,130	-0,003
-458,284	576,758	0,052	0,093
-457,270	-200,000	-0,013	-0,047
-456,255	800,000	-0,021	0,058
-455,241	-4,075	-0,066	-0,033
-454,226	56,635	0,108	-0,076
-453,211	-200,000	0,003	0,094
-452,197	-200,000	0,021	0,167
-451,182	-200,000	-0,004	-0,044
-450,168	-57,813	0,026	0,008
-449,153	82,742	0,090	-0,071
-448,138	800,000	-0,041	-0,126
-447,124	-70,123	-0,266	-0,073
-446,109	-153,979	0,169	0,008
-445,095	-46,655	0,051	0,018
-444,080	-63,106	0,114	0,034
-443,065	-116,205	0,079	-0,010
-442,051	160,951	0,060	-0,061
-441,036	-200,000	-0,017	-0,110
-440,022	43,904	0,039	-0,026
-439,007	-24,351	-0,041	0,018
-437,992	1,805	-0,049	-0,026
-436,978	238,737	0,092	0,111
-435,963	564,869	0,045	-0,080
-434,949	219,132	0,177	0,206
-433,934	-200,000	-0,009	-0,074
-432,919	5,877	-0,081	0,044
-431,905	800,000	0,016	-0,040
-430,890	-29,121	0,171	0,071
-429,876	465,581	0,008	0,013
-428,861	735,040	-0,047	-0,091
-427,846	215,009	-0,104	0,121
-426,832	381,972	0,011	0,016
-425,817	46,939	-0,124	0,084
-424,803	-200,000	-0,041	-0,196
-423,788	-46,051	0,109	0,039
-422,773	800,000	-0,026	0,059
-421,759	-200,000	0,013	-0,049
-420,744	800,000	0,065	0,158
-419,730	-116,917	-0,047	0,006
-418,715	92,103	0,042	-0,034
-417,701	38,899	0,114	-0,074
-416,686	-84,923	-0,059	0,013
-415,671	758,819	0,001	0,001
-414,657	-200,000	-0,004	0,035
-413,642	-200,000	-0,006	-0,075
-412,628	38,706	0,140	-0,091
-411,613	800,000	-0,057	0,141
-410,598	800,000	0,067	0,168
-409,584	-19,513	0,036	0,016
-408,569	6,137	-0,033	-0,018
-407,555	-182,702	-0,077	0,001
-406,540	421,462	0,052	0,082
-405,525	285,798	0,052	-0,068
-404,511	121,316	-0,175	-0,158
-403,496	257,627	0,038	-0,048
-402,482	-66,796	0,144	0,041
-401,467	800,000	-0,048	-0,154
-400,452	1,529	-0,015	-0,008
-399,438	157,059	-0,068	0,068
-398,423	-116,239	-0,125	0,017
-397,409	-200,000	-0,000	-0,070
-396,394	46,556	-0,113	-0,076
-395,379	266,507	0,067	-0,085
-394,365	207,610	-0,050	-0,057
-393,350	390,674	0,097	0,146
-392,336	334,793	0,096	0,136
-391,321	-103,871	-0,202	-0,034
-390,306	325,546	-0,008	-0,011
-389,292	-16,172	0,074	-0,034
-388,277	-200,000	-0,003	-0,033
-387,263	-172,848	-0,054	0,001
-386,248	-200,000	-0,012	-0,196
-385,233	774,372	0,030	0,059
-384,219	-18,577	-0,068	-0,031
-383,204	162,341	-0,025	-0,025
-382,190	37,856	-0,093	-0,060
-381,175	753,483	0,065	-0,128
-380,160	-200,000	0,008	-0,157
-379,146	229,326	0,049	-0,058
-378,131	-200,000	0,013	0,088
-377,117	-200,000	0,008	0,037
-376,102	29,275	-0,050	0,031
-375,088	-5,198	0,081	0,040
-374,073	-80,310	0,034	0,008
-373,058	-200,000	-0,026	0,153
-372,044	-16,175	0,088	0,041
-371,029	232,813	-0,063	-0,076
-370,015	23,558	0,059	-0,035
-369,000	182,225	-0,016	0,018
-367,985	-200,000	0,017	-0,073
-366,971	13,455	-0,090	0,051
-365,956	312,110	0,080	0,109
-364,942	-20,668	0,181	-0,080
-363,927	438,728	0,126	0,200
-362,912	-200,000	-0,033	0,200
-361,898	-58,618	-0,037	0,012
-360,883	444,561	0,039	-0,062
-359,869	800,000	0,007	0,019
-358,854	-53,315	0,061	-0,020
-357,839	-200,000	-0,003	0,062
-356,825	-115,615	0,101	-0,014
-355,810	-35,131	-0,116	-0,046
-354,796	800,000	-0,070	-0,163
-353,781	154,041	0,020	0,020
-352,766	-200,000	-0,011	-0,250
-351,752	271,324	0,037	0,047
-350,737	-37,214	0,035	-0,013
-349,723	544,620	0,045	0,079
-348,708	-200,000	0,011	0,071
-347,693	-187,039	0,020	0,000
-346,679	-18,736	-0,192	0,087
-345,664	302,426	0,068	-0,092
-344,650	6,502	-0,031	-0,017
-343,635	355,787	-0,060	0,086
-342,620	-109,233	0,157	-0,024
-341,606	-107,460	0,123	0,019
-340,591	-200,000	-0,015	-0,138
-339,577	-200,000	0,023	-0,087
-338,562	800,000	-0,036	0,078
-337,548	-79,798	-0,096	-0,023
-336,533	-145,646	0,059	0,004
-335,518	-53,365	-0,051	0,017
-334,504	-200,000	-0,016	0,130
-333,489	65,836	0,027	-0,020
-332,475	116,064	-0,107	-0,095
-331,460	75,822	-0,066	0,050
-330,445	483,869	-0,057	0,094
-329,431	-87,790	0,129	-0,028
-328,416	-69,271	0,057	0,016
-327,402	-200,000	0,041	-0,177
-326,387	-200,000	-0,009	0,042
-325,372	199,838	-0,049	0,054
-324,358	-32,584	-0,145	-0,058
-323,343	-200,000	-0,026	-0,100
-322,329	-80,975	0,063	-0,015
-321,314	-56,976	0,014	-0,004
-320,299	615,928	0,030	0,054
-319,285	-28,534	-0,040	-0,017
-318,270	-90,235	0,047	-0,010
-317,256	-47,372	-0,040	-0,014
-316,241	22,383	-0,099	0,058
-315,226	18,901	0,101	-0,058
-314,212	800,000	0,034	0,071
-313,197	-200,000	-0,006	-0,115
-312,183	-63,988	-0,117	-0,035
-311,168	800,000	0,018	-0,042
-310,153	-12,161	0,050	0,023
-309,139	10,141	-0,093	0,051
-308,124	-142,435	0,111	0,008
-307,110	142,251	-0,080	-0,077
-306,095	-200,000	0,000	-0,025
-305,080	647,596	-0,052	0,096
-304,066	-119,922	0,131	-0,016
-303,051	151,391	-0,063	0,062
-302,037	-200,000	0,001	0,031
-301,022	2,694	-0,135	-0,071
-300,008	301,475	0,106	0,142
-298,993	755,971	-0,076	0,151
-297,978	-103,227	0,054	0,009
-296,964	-111,823	0,122	0,018
-295,949	-200,000	-0,015	-0,145
-294,935	613,516	-0,123	-0,225
-293,920	-200,000	-0,019	-0,140
-292,905	118,064	0,091	0,081
-291,891	161,438	0,084	0,085
-290,876	117,504	-0,073	0,065
-289,862	-200,000	0,021	-0,153
-288,847	-72,191	-0,165	-0,044
-287,832	143,813	-0,104	0,100
-286,818	54,253	0,109	0,076
-285,803	-90,462	0,071	0,015
-284,789	-90,743	0,084	0,017
-283,774	800,000	0,041	0,091
-282,759	-200,000	0,008	0,143
-281,745	-82,955	0,041	-0,010
-280,730	122,740	-0,056	-0,051
-279,716	800,000	-0,046	0,136
-278,701	-200,000	-0,015	0,060
-277,686	800,000	0,038	0,115
-276,672	-87,159	0,149	0,032
-275,657	128,172	-0,040	-0,037
-274,643	458,904	-0,104	0,168
-273,628	-107,118	-0,104	-0,017
-272,613	430,644	0,068	-0,106
-271,599	-59,491	-0,123	-0,038
-270,584	139,048	0,144	0,137
-269,570	177,622	0,115	-0,122
-268,555	800,000	-0,030	-0,070
-267,540	-200,000	0,007	0,048
-266,526	-151,437	-0,199	-0,010
-265,511	-18,258	0,197	0,089
-264,497	-167,924	-0,077	0,002
-263,482	-200,000	0,011	0,127
-262,467	-200,000	0,009	-0,060
-261,453	-200,000	-0,003	-0,056
-260,438	77,209	-0,099	-0,076
-259,424	-129,780	-0,047	-0,005
-258,409	-97,020	-0,069	-0,013
-257,395	160,984	0,080	-0,081
-256,380	42,030	-0,098	0,064
-255,365	-88,946	0,165	-0,035
-254,351	-26,184	0,060	0,025
-253,336	153,120	0,026	0,026
-252,322	-200,000	-0,004	-0,058
-251,307	23,032	0,055	0,032
-250,292	14,323	0,106	0,060
-249,278	-41,543	-0,069	0,026
-248,263	151,809	0,036	0,036
-247,249	1,558	-0,160	0,083
-246,234	-200,000	0,026	0,137
-245,219	732,645	-0,103	-0,200
-244,205	800,000	0,015	-0,046
-243,190	-97,838	-0,029	-0,005
-242,176	-200,000	-0,009	-0,052
-241,161	-200,000	-0,008	-0,101
-240,146	9,223	0,052	0,028
-239,132	179,611	-0,053	0,056
-238,117	8,356	-0,039	0,021
-237,103	-200,000	-0,048	-0,208
-236,088	-42,308	0,069	0,025
-235,073	93,431	0,037	-0,030
-234,059	-97,001	0,106	0,020
-233,044	-51,265	-0,101	0,034
-232,030	34,828	0,138	0,087
-231,015	556,918	0,036	0,063
-230,000	45,892	-0,071	-0,047
-228,986	325,261	-0,056	0,078
-227,971	800,000	-0,021	-0,063
-226,957	-200,000	-0,016	0,071
-225,942	-200,000	0,011	0,065
-224,927	-200,000	-0,000	-0,049
-223,913	-7,270	0,079	0,039
-222,898	-200,000	-0,004	-0,068
-221,884	800,000	0,045	0,112
-220,869	258,912	0,017	0,022
-219,855	800,000	0,042	0,107
-218,840	-200,000	0,006	0,073
-217,825	52,167	-0,053	0,037
-216,811	61,960	0,071	0,051
-215,796	-56,550	-0,099	0,032
-214,782	-200,000	0,013	-0,078
-213,767	800,000	0,052	-0,107
-212,752	-200,000	-0,020	-0,146
-211,738	46,569	-0,029	-0,020
-210,723	-169,558	0,092	-0,002
-209,709	-200,000	-0,025	-0,112
-208,694	-42,347	-0,056	-0,020
-207,679	800,000	-0,037	-0,100
-206,665	60,966	-0,143	-0,102
-205,650	103,064	0,062	0,052
-204,636	-156,132	0,115	-0,005
-203,621	-34,682	-0,092	-0,036
-202,606	229,803	-0,053	0,063
-201,592	93,408	-0,042	-0,034
-200,577	-200,000	0,009	-0,067
-199,563	-200,000	0,000	0,068
-198,548	-200,000	-0,033	0,127
-197,533	32,562	0,041	0,026
-196,519	441,815	-0,076	0,121
-195,504	-43,071	-0,050	0,018
-194,490	137,541	-0,110	-0,104
-193,475	-18,486	0,033	-0,015
-192,460	-32,847	-0,095	0,038
-191,446	800,000	-0,062	0,137
-190,431	-200,000	-0,008	0,033
-189,417	-135,114	0,041	-0,003
-188,402	-200,000	-0,013	-0,063
-187,387	236,342	-0,044	-0,052
-186,373	-92,443	-0,061	-0,012
-185,358	761,380	-0,050	0,098
-184,344	137,967	-0,101	0,095
-183,329	49,484	0,122	-0,082
-182,315	13,933	0,007	0,004
-181,300	113,437	0,034	-0,030
-180,285	598,037	0,040	0,072
-179,271	10,392	-0,085	0,046
-178,256	143,603	0,054	0,051
-177,242	-200,000	-0,002	0,074
-176,227	232,425	-0,022	-0,027
-175,212	-200,000	0,002	0,023
-174,198	17,323	0,107	0,061
-173,183	-159,117	-0,076	-0,003
-172,169	41,995	0,077	-0,050
-171,154	-151,363	-0,118	0,006
-170,139	-102,413	0,165	0,028
-169,125	-4,689	0,098	-0,048
-168,110	-27,993	0,147	0,061
-167,096	-137,701	-0,140	-0,011
-166,081	-118,403	0,080	-0,010
-165,066	33,222	-0,106	-0,066
-164,052	140,188	0,089	-0,085
-163,037	800,000	0,035	-0,076
-162,023	-200,000	0,009	0,052
-161,008	-200,000	-0,007	0,070
-159,993	-164,565	-0,057	-0,002
-158,979	-200,000	-0,012	-0,109
-157,964	-59,627	-0,064	-0,020
-156,950	570,613	-0,021	-0,036
-155,935	800,000	-0,020	0,042
-154,920	-139,676	0,104	0,008
-153,906	637,687	-0,058	0,106
-152,891	800,000	-0,011	-0,022
-151,877	-46,395	0,039	0,014
-150,862	67,365	-0,038	-0,028
-149,847	423,746	0,033	0,051
-148,833	-200,000	0,034	-0,139
-147,818	-186,923	-0,113	0,001
-146,804	-200,000	-0,015	0,056
-145,789	25,184	0,133	0,079
-144,775	38,067	-0,043	0,027
-143,760	800,000	0,025	-0,052
-142,745	75,004	0,050	-0,038
-141,731	-55,347	0,128	0,041
-140,716	-170,506	0,105	0,003
-139,702	-83,538	-0,096	0,022
-138,687	313,731	-0,089	-0,121
-137,672	385,082	0,029	-0,043
-136,658	102,977	-0,037	0,031
-135,643	-200,000	0,009	-0,106
-134,629	-154,141	-0,123	0,006
-133,614	-200,000	0,014	-0,071
-132,599	-86,383	0,064	0,014
-131,585	-200,000	0,010	0,133
-130,570	-41,257	-0,159	0,059
-129,556	127,410	0,017	-0,016
-128,541	800,000	0,025	-0,064
-127,526	-200,000	0,018	0,081
-126,512	-200,000	0,018	-0,112
-125,497	-200,000	0,013	0,050
-124,483	800,000	0,071	0,144
-123,468	-102,600	0,248	0,042
-122,453	-200,000	0,018	0,124
-121,439	-0,469	-0,199	-0,101
-120,424	287,758	-0,051	-0,066
