DTS Sentinel unit serial number:	SN410029Multiplexer serial number:	ORYXHardware model number:	OX2-SRSoftware version number:	ORYX F/W v4,00 Oryx Data Collector v3.7.2.0data status	okinstallation	B3 Nyhavnadifferential loss correction	single-endedforward channel	channel 1reverse channel	N/Adate	2023/11/28time	18:52:30forward acquisition time	300,00reverse acquisition time	0,00gamma	499,1914k internal	0,3133k external	0,3133temperature offset calibration	1,0000default loss term (dB/km)	0,3820temperature slope calibration	1,0000multiplexer offset coefficient	1,0000multiplexer slope coefficient	1,0000fibre end	0,00T internal ref (°C)	7,51T ext. ref 1 (°C)	-7,32T ext. ref 2 (°C)	-7,47length (m)	temperature (°C)	Stokes	anti-Stokes-744,400	-200,000	-0,069	-0,259
-743,385	-200,000	-0,007	0,199
-742,371	221,223	-0,073	-0,088
-741,356	-200,000	-0,020	0,299
-740,342	121,719	-0,151	-0,140
-739,327	800,000	-0,094	0,302
-738,312	-200,000	0,033	-0,499
-737,298	170,872	-0,087	0,092
-736,283	-49,968	-0,260	-0,091
-735,269	-200,000	0,023	0,315
-734,254	95,345	-0,219	-0,185
-733,239	-45,042	-0,304	0,112
-732,225	-200,000	0,001	-0,215
-731,210	-110,687	0,148	0,023
-730,196	217,550	-0,054	-0,064
-729,181	-132,753	-0,197	0,018
-728,167	682,745	0,035	-0,068
-727,152	666,727	0,007	0,014
-726,137	498,474	-0,080	-0,137
-725,123	-39,676	-0,085	0,033
-724,108	-4,883	-0,145	-0,074
-723,094	565,171	0,083	-0,150
-722,079	35,689	-0,077	0,050
-721,064	-40,616	-0,077	-0,029
-720,050	41,567	-0,043	-0,029
-719,035	269,514	-0,031	0,041
-718,021	-200,000	-0,011	-0,093
-717,006	228,795	-0,062	-0,075
-715,991	-200,000	0,028	-0,243
-714,977	359,860	-0,108	-0,161
-713,962	-200,000	0,051	-0,194
-712,948	6,125	0,127	-0,070
-711,933	185,313	0,026	0,028
-710,918	3,839	0,021	-0,011
-709,904	-200,000	-0,009	-0,056
-708,889	750,076	-0,061	-0,123
-707,875	-7,683	-0,042	-0,021
-706,860	324,218	0,024	-0,035
-705,845	-24,425	0,127	0,056
-704,831	403,413	0,058	0,091
-703,816	-91,320	-0,120	-0,025
-702,802	-90,727	0,092	-0,020
-701,787	-26,033	0,092	-0,040
-700,772	-60,162	0,027	-0,008
-699,758	554,024	0,050	-0,089
-698,743	-200,000	-0,007	-0,053
-697,729	312,316	-0,073	-0,103
-696,714	-200,000	0,007	-0,165
-695,699	-200,000	-0,008	0,048
-694,685	156,299	-0,080	0,081
-693,670	465,302	0,045	-0,076
-692,656	0,194	0,090	-0,047
-691,641	-3,176	-0,024	-0,012
-690,627	37,815	0,049	-0,032
-689,612	-163,053	-0,063	-0,002
-688,597	385,291	-0,048	-0,073
-687,583	-47,914	0,029	-0,010
-686,568	-200,000	0,035	-0,189
-685,554	2,354	-0,084	0,045
-684,539	-4,341	-0,019	-0,010
-683,524	-200,000	-0,003	-0,037
-682,510	-39,779	0,236	-0,091
-681,495	-200,000	0,006	-0,072
-680,481	-51,248	-0,116	-0,040
-679,466	-200,000	0,010	0,040
-678,451	-100,996	-0,152	-0,027
-677,437	-200,000	0,014	0,080
-676,422	-200,000	0,030	0,099
-675,408	276,333	-0,089	-0,117
-674,393	800,000	0,022	-0,062
-673,378	66,038	-0,092	-0,069
-672,364	-200,000	0,063	-0,231
-671,349	650,967	-0,072	-0,137
-670,335	-1,915	-0,132	0,069
-669,320	11,703	0,056	-0,032
-668,305	-200,000	-0,016	0,139
-667,291	44,894	-0,069	-0,047
-666,276	-158,808	-0,080	0,003
-665,262	-200,000	-0,025	-0,084
-664,247	58,855	-0,061	-0,044
-663,232	-200,000	0,002	-0,048
-662,218	-200,000	-0,010	-0,129
-661,203	-92,798	-0,153	0,031
-660,189	-58,850	-0,057	-0,018
-659,174	800,000	0,031	-0,079
-658,159	681,351	-0,067	-0,130
-657,145	800,000	0,041	-0,097
-656,130	78,833	-0,012	-0,010
-655,116	800,000	-0,028	0,075
-654,101	106,797	0,129	0,113
-653,086	-67,893	-0,063	0,018
-652,072	53,116	-0,087	0,061
-651,057	-152,246	-0,210	-0,011
-650,043	-50,032	-0,097	0,034
-649,028	301,340	0,095	-0,131
-648,014	17,501	-0,095	0,056
-646,999	16,978	0,091	0,053
-645,984	449,292	-0,049	-0,080
-644,970	95,727	0,110	-0,093
-643,955	-104,751	-0,166	-0,028
-642,941	-200,000	0,016	-0,110
-641,926	-78,813	0,086	0,021
-640,911	331,852	-0,105	0,151
-639,897	613,415	0,065	0,121
-638,882	-89,705	0,088	-0,019
-637,868	-146,858	-0,014	-0,001
-636,853	800,000	0,019	0,048
-635,838	-48,943	-0,228	0,081
-634,824	43,843	0,051	-0,035
-633,809	-200,000	-0,047	0,202
-632,795	306,803	0,072	-0,099
-631,780	178,061	-0,039	0,042
-630,765	202,167	-0,150	0,172
-629,751	-200,000	-0,020	0,068
-628,736	76,499	-0,092	-0,072
-627,722	143,604	-0,071	0,070
-626,707	11,728	-0,056	0,031
-625,692	-112,762	0,090	0,013
-624,678	-200,000	-0,008	-0,028
-623,663	169,231	0,062	0,065
-622,649	33,560	-0,135	-0,087
-621,634	209,904	-0,056	-0,065
-620,619	-200,000	-0,006	0,227
-619,605	-6,865	-0,049	-0,024
-618,590	641,240	-0,033	0,063
-617,576	800,000	0,047	0,121
-616,561	-200,000	-0,030	0,101
-615,546	239,678	-0,078	-0,096
-614,532	200,826	0,060	-0,068
-613,517	-127,111	0,047	0,005
-612,503	-115,212	0,039	-0,005
-611,488	160,896	0,079	0,081
-610,474	202,736	-0,106	-0,122
-609,459	86,315	-0,086	0,070
-608,444	-200,000	0,010	0,047
-607,430	-38,176	-0,059	0,023
-606,415	-45,746	-0,134	-0,049
-605,401	46,466	0,088	-0,060
-604,386	800,000	0,048	0,108
-603,371	-91,807	0,060	-0,013
-602,357	-132,988	0,082	0,008
-601,342	-200,000	-0,013	0,098
-600,328	208,120	-0,075	-0,087
-599,313	208,898	-0,095	-0,110
-598,298	243,584	0,114	0,141
-597,284	-121,107	-0,098	-0,012
-596,269	-200,000	0,003	0,050
-595,255	263,523	0,025	0,033
-594,240	-200,000	0,017	-0,066
-593,225	107,030	-0,075	-0,066
-592,211	470,780	0,025	0,042
-591,196	-43,951	-0,169	0,062
-590,182	-200,000	-0,013	0,108
-589,167	-14,250	-0,077	0,036
-588,152	800,000	-0,034	-0,109
-587,138	408,289	0,009	0,015
-586,123	-200,000	0,018	-0,102
-585,109	-152,963	-0,037	0,002
-584,094	158,797	-0,092	0,094
-583,079	88,631	-0,034	0,028
-582,065	800,000	0,010	0,023
-581,050	296,066	0,044	-0,060
-580,036	104,981	0,063	0,055
-579,021	-128,247	0,044	0,005
-578,006	-200,000	-0,024	-0,090
-576,992	151,917	0,061	-0,061
-575,977	0,083	-0,116	-0,061
-574,963	135,180	0,078	-0,075
-573,948	-124,305	0,023	-0,003
-572,934	58,997	0,120	-0,087
-571,919	738,167	-0,067	-0,134
-570,904	800,000	0,024	-0,077
-569,890	-200,000	-0,007	0,035
-568,875	-155,098	0,131	0,006
-567,861	-200,000	-0,001	-0,026
-566,846	3,803	-0,100	-0,053
-565,831	-120,941	0,070	0,009
-564,817	95,736	-0,023	0,019
-563,802	800,000	0,048	-0,146
-562,788	279,170	-0,032	-0,043
-561,773	800,000	0,015	-0,042
-560,758	-108,169	0,065	0,010
-559,744	424,256	-0,076	0,120
-558,729	-200,000	-0,018	0,076
-557,715	182,987	-0,084	-0,092
-556,700	800,000	-0,005	-0,011
-555,685	499,757	-0,029	-0,049
-554,671	800,000	0,016	0,046
-553,656	24,158	-0,049	-0,030
-552,642	-93,968	0,063	-0,013
-551,627	-84,769	-0,048	-0,011
-550,612	132,334	-0,161	-0,153
-549,598	-200,000	-0,041	-0,156
-548,583	-119,722	-0,081	-0,010
-547,569	-108,647	0,105	0,016
-546,554	-200,000	-0,007	-0,056
-545,539	-198,637	0,124	0,000
-544,525	800,000	-0,028	-0,074
-543,510	-200,000	0,018	-0,124
-542,496	251,573	-0,068	0,085
-541,481	-200,000	-0,016	-0,122
-540,466	317,601	-0,105	-0,146
-539,452	-200,000	0,010	0,057
-538,437	234,916	0,108	0,132
-537,423	800,000	0,067	0,150
-536,408	65,244	-0,107	0,080
-535,393	112,863	-0,141	-0,126
-534,379	324,375	-0,021	-0,029
-533,364	-200,000	0,010	-0,070
-532,350	34,000	-0,049	0,032
-531,335	-119,467	0,181	0,023
-530,321	-69,894	-0,075	0,021
-529,306	410,141	0,054	-0,085
-528,291	39,905	-0,103	-0,068
-527,277	800,000	-0,035	-0,091
-526,262	-200,000	0,019	-0,162
-525,248	209,021	0,073	0,084
-524,233	557,207	0,072	0,128
-523,218	-82,299	-0,068	0,016
-522,204	207,071	-0,052	0,059
-521,189	105,469	-0,065	0,057
-520,175	800,000	-0,059	-0,124
-519,160	-17,358	0,092	0,043
-518,145	183,795	-0,032	-0,034
-517,131	-200,000	0,027	-0,146
-516,116	59,586	-0,072	0,053
-515,102	589,409	0,124	0,225
-514,087	415,161	0,093	-0,147
-513,072	800,000	-0,065	-0,166
-512,058	-94,264	0,028	-0,006
-511,043	15,078	0,049	-0,028
-510,029	800,000	-0,030	-0,074
-509,014	-200,000	0,002	0,071
-507,999	-97,743	-0,092	0,017
-506,985	344,833	-0,079	-0,115
-505,970	133,003	0,075	-0,071
-504,956	800,000	0,063	-0,138
-503,941	800,000	-0,022	0,061
-502,926	371,914	0,028	-0,042
-501,912	-29,682	-0,109	0,046
-500,897	-114,477	0,104	-0,015
-499,883	800,000	-0,037	0,093
-498,868	-200,000	-0,015	-0,063
-497,853	-63,053	0,050	0,015
-496,839	800,000	-0,084	-0,215
-495,824	451,054	0,069	0,112
-494,810	-96,757	0,094	0,018
-493,795	-25,253	0,063	0,027
-492,781	80,208	-0,053	0,042
-491,766	-200,000	-0,004	-0,044
-490,751	-200,000	-0,040	0,178
-489,737	51,449	0,051	0,036
-488,722	-128,533	0,099	0,010
-487,708	-200,000	-0,032	-0,157
-486,693	469,416	-0,053	0,087
-485,678	324,097	0,084	0,119
-484,664	-71,775	-0,037	-0,010
-483,649	-200,000	0,007	-0,084
-482,635	-27,316	-0,017	0,007
-481,620	-200,000	-0,030	0,138
-480,605	310,720	0,081	-0,112
-479,591	-200,000	-0,009	-0,083
-478,576	-109,106	-0,049	0,008
-477,562	320,668	0,096	-0,134
-476,547	800,000	-0,022	-0,057
-475,532	-47,168	0,069	-0,025
-474,518	741,190	0,047	0,092
-473,503	65,212	0,119	0,089
-472,489	-200,000	-0,009	0,053
-471,474	488,434	0,055	-0,093
-470,459	594,137	-0,085	-0,156
-469,445	-199,424	0,068	-0,000
-468,430	-63,970	-0,050	-0,015
-467,416	-200,000	-0,006	-0,040
-466,401	-200,000	0,012	-0,081
-465,386	800,000	0,050	0,134
-464,372	800,000	0,035	0,104
-463,357	101,471	-0,124	-0,106
-462,343	-124,345	-0,192	0,022
-461,328	-200,000	-0,012	-0,058
-460,313	267,686	-0,054	0,070
-459,299	-88,065	-0,047	0,010
-458,284	-122,296	-0,105	-0,012
-457,270	352,885	0,069	-0,101
-456,255	620,421	0,060	-0,112
-455,241	-131,993	-0,118	-0,011
-454,226	-200,000	-0,006	0,044
-453,211	-200,000	0,024	-0,116
-452,197	-172,507	0,093	0,002
-451,182	323,758	0,036	-0,051
-450,168	126,443	-0,068	0,064
-449,153	-132,852	-0,083	-0,008
-448,138	247,909	-0,015	-0,019
-447,124	49,195	0,042	0,029
-446,109	-59,985	-0,104	0,032
-445,095	-50,169	-0,006	-0,002
-444,080	-200,000	-0,005	0,023
-443,065	280,518	-0,011	0,015
-442,051	-200,000	-0,036	-0,132
-441,036	253,118	0,058	0,073
-440,022	-200,000	0,010	0,084
-439,007	158,976	-0,030	0,030
-437,992	-105,189	0,064	0,011
-436,978	448,451	0,029	-0,047
-435,963	-200,000	0,002	-0,084
-434,949	-200,000	0,019	-0,139
-433,934	-133,328	-0,037	-0,003
-432,919	-42,984	0,048	-0,018
-431,905	59,254	-0,092	-0,066
-430,890	345,168	0,041	0,059
-429,876	800,000	-0,038	0,109
-428,861	800,000	0,070	0,145
-427,846	18,559	0,123	0,072
-426,832	-200,000	0,021	0,090
-425,817	-65,075	-0,120	0,035
-424,803	645,061	0,028	0,053
-423,788	800,000	0,031	-0,076
-422,773	198,178	0,072	0,081
-421,759	446,889	0,025	-0,041
-420,744	-200,000	0,029	-0,122
-419,730	-136,257	-0,199	-0,017
-418,715	531,713	-0,149	-0,259
-417,701	-200,000	0,021	0,082
-416,686	-200,000	-0,001	-0,013
-415,671	24,756	0,084	0,051
-414,657	-200,000	-0,016	0,084
-413,642	-20,584	0,108	-0,048
-412,628	800,000	-0,020	-0,055
-411,613	218,927	-0,086	0,101
-410,598	371,506	-0,056	0,083
-409,584	0,705	-0,024	0,012
-408,569	-110,623	0,077	0,012
-407,555	-106,368	-0,168	0,027
-406,540	-112,291	0,080	-0,012
-405,525	87,033	-0,119	-0,096
-404,511	219,910	-0,099	-0,117
-403,496	-200,000	0,005	-0,021
-402,482	-24,960	0,144	-0,063
-401,467	654,924	-0,029	0,055
-400,452	-121,044	0,190	0,023
-399,438	110,038	0,099	-0,087
-398,423	-200,000	-0,015	0,096
-397,409	87,943	-0,150	-0,122
-396,394	106,093	-0,064	0,055
-395,379	-200,000	0,032	0,109
-394,365	711,719	-0,031	-0,060
-393,350	134,577	-0,081	0,077
-392,336	-72,222	0,062	0,017
-391,321	87,808	-0,125	-0,101
-390,306	333,718	0,034	0,048
-389,292	-200,000	-0,008	0,028
-388,277	-200,000	-0,017	0,136
-387,263	800,000	0,020	0,043
-386,248	-33,759	0,173	0,069
-385,233	800,000	0,005	0,011
-384,219	-10,368	-0,062	-0,030
-383,204	-200,000	-0,033	-0,151
-382,190	12,903	-0,071	-0,040
-381,175	800,000	-0,031	-0,102
-380,160	-49,429	0,181	-0,063
-379,146	-200,000	0,028	0,109
-378,131	-72,289	-0,064	0,017
-377,117	-71,132	-0,107	-0,029
-376,102	244,989	0,047	-0,058
-375,088	-200,000	0,023	-0,129
-374,073	-200,000	0,014	-0,110
-373,058	-36,765	0,131	0,051
-372,044	116,273	0,055	0,050
-371,029	-194,853	0,027	-0,000
-370,015	325,985	-0,096	0,134
-369,000	256,926	-0,049	-0,062
-367,985	-115,370	0,086	0,012
-366,971	-200,000	-0,028	-0,115
-365,956	-200,000	-0,011	0,090
-364,942	-200,000	-0,002	0,037
-363,927	-200,000	-0,013	0,092
-362,912	-127,529	-0,136	-0,014
-361,898	747,735	-0,045	-0,089
-360,883	364,527	-0,089	-0,132
-359,869	252,998	0,024	-0,030
-358,854	-20,225	0,047	-0,021
-357,839	-200,000	0,035	0,112
-356,825	269,807	0,099	0,127
-355,810	-173,113	-0,134	-0,003
-354,796	-58,245	0,013	-0,004
-353,781	368,776	0,110	-0,164
-352,766	-28,454	-0,059	-0,025
-351,752	389,891	0,073	0,111
-350,737	-200,000	-0,018	0,073
-349,723	24,044	0,043	0,026
-348,708	-200,000	-0,010	0,094
-347,693	800,000	-0,043	0,099
-346,679	299,445	-0,079	0,107
-345,664	-200,000	0,007	0,056
-344,650	74,261	0,049	0,038
-343,635	-200,000	0,010	0,080
-342,620	800,000	0,024	0,061
-341,606	24,278	-0,050	0,030
-340,591	31,424	0,048	-0,030
-339,577	-200,000	0,038	-0,128
-338,562	493,653	-0,046	-0,077
-337,548	-38,778	-0,092	-0,035
-336,533	-145,595	0,146	-0,009
-335,518	319,015	-0,042	0,058
-334,504	155,927	0,129	0,130
-333,489	153,449	-0,098	0,099
-332,475	81,407	-0,077	0,061
-331,460	153,469	-0,082	-0,082
-330,445	376,108	0,063	0,094
-329,431	170,457	0,025	-0,026
-328,416	512,640	0,049	0,084
-327,402	187,140	-0,094	0,103
-326,387	169,361	0,141	0,147
-325,372	-200,000	-0,005	-0,083
-324,358	-200,000	0,026	-0,101
-323,343	-47,185	0,150	0,053
-322,329	75,386	-0,020	0,016
-321,314	77,912	0,054	-0,042
-320,299	-100,761	-0,077	0,014
-319,285	-200,000	0,023	0,089
-318,270	375,029	-0,086	0,129
-317,256	-88,171	-0,156	-0,034
-316,241	-200,000	0,003	0,070
-315,226	54,250	0,060	0,042
-314,212	-98,415	0,115	0,021
-313,197	-166,020	0,090	-0,003
-312,183	68,160	0,130	0,097
-311,168	-84,286	0,125	0,029
-310,153	800,000	0,011	0,027
-309,139	-65,801	0,042	-0,012
-308,124	-81,923	0,058	-0,014
-307,110	45,707	0,056	0,038
-306,095	-55,923	0,183	0,059
-305,080	800,000	-0,067	0,143
-304,066	800,000	0,015	-0,034
-303,051	299,242	0,099	-0,133
-302,037	114,422	-0,072	0,064
-301,022	-124,670	0,137	-0,015
-300,008	209,819	0,030	-0,034
-298,993	-200,000	0,014	0,101
-297,978	-200,000	-0,023	0,106
-296,964	20,741	-0,055	-0,033
-295,949	32,912	-0,094	-0,059
-294,935	800,000	-0,051	-0,131
-293,920	-84,631	0,047	-0,011
-292,905	-115,631	0,142	0,019
-291,891	205,647	0,036	-0,041
-290,876	-200,000	0,017	-0,060
-289,862	-200,000	0,029	0,105
-288,847	-67,119	-0,123	-0,035
-287,832	-200,000	0,006	0,045
-286,818	-71,476	0,167	-0,045
-285,803	-91,502	-0,091	-0,019
-284,789	-200,000	-0,032	-0,175
-283,774	-31,400	0,128	0,052
-282,759	-137,981	-0,052	-0,004
-281,745	-83,538	0,160	-0,037
-280,730	800,000	0,035	0,097
-279,716	-200,000	0,033	0,110
-278,701	-144,010	-0,087	-0,006
-277,686	-97,180	0,035	-0,007
-276,672	-10,505	-0,088	-0,043
-275,657	12,051	0,097	-0,054
-274,643	800,000	-0,052	0,166
-273,628	-114,179	-0,041	-0,006
-272,613	19,787	-0,020	0,012
-271,599	-200,000	-0,016	0,125
-270,584	233,061	0,074	0,089
-269,570	-200,000	-0,004	0,094
-268,555	800,000	-0,038	0,098
-267,540	179,437	0,093	-0,099
-266,526	-200,000	0,004	-0,092
-265,511	-91,989	-0,164	0,034
-264,497	-53,762	0,152	-0,050
-263,482	158,516	-0,055	0,056
-262,467	157,982	0,076	-0,077
-261,453	197,829	-0,121	-0,135
-260,438	171,586	0,068	-0,071
-259,424	-18,452	0,085	0,038
-258,409	-32,393	-0,115	-0,047
-257,395	-200,000	-0,024	0,115
-256,380	51,309	0,117	0,081
-255,365	-47,787	0,169	0,059
-254,351	-200,000	-0,012	-0,110
-253,336	36,198	-0,047	-0,030
-252,322	-200,000	-0,026	-0,120
-251,307	216,707	0,070	-0,081
-250,292	-16,283	0,010	-0,005
-249,278	66,345	0,115	0,085
-248,263	800,000	-0,010	-0,024
-247,249	-14,355	-0,035	0,016
-246,234	-53,992	-0,113	-0,037
-245,219	1,462	0,090	-0,047
-244,205	-200,000	0,012	-0,056
-243,190	3,934	-0,145	0,077
-242,176	-200,000	0,024	0,166
-241,161	240,882	0,034	0,041
-240,146	-55,189	-0,117	0,038
-239,132	256,386	0,051	-0,064
-238,117	800,000	0,039	-0,112
-237,103	94,278	-0,040	-0,033
-236,088	195,605	0,067	-0,074
-235,073	169,004	0,063	0,066
-234,059	-46,412	-0,116	0,041
-233,044	136,371	0,108	0,103
-232,030	8,819	-0,024	0,013
-231,015	55,933	-0,061	0,043
-230,000	29,338	-0,047	-0,029
-228,986	800,000	-0,042	0,097
-227,971	-179,678	0,061	0,001
-226,957	-85,104	0,038	-0,009
-225,942	-200,000	0,006	-0,052
-224,927	-96,548	-0,166	0,032
-223,913	58,038	-0,041	0,029
-222,898	-200,000	-0,006	-0,026
-221,884	-200,000	0,010	-0,081
-220,869	173,187	0,050	-0,052
-219,855	454,804	-0,083	-0,134
-218,840	527,064	-0,037	0,063
-217,825	384,999	0,037	0,055
-216,811	-200,000	-0,038	-0,126
-215,796	-200,000	-0,024	-0,103
-214,782	-200,000	-0,001	0,054
-213,767	85,366	0,193	0,154
-212,752	-48,187	-0,112	0,039
-211,738	-108,522	-0,121	-0,019
-210,723	-43,487	-0,077	-0,028
-209,709	699,869	-0,054	-0,104
-208,694	43,483	-0,044	0,029
-207,679	136,840	-0,073	0,069
-206,665	-122,645	-0,094	0,011
-205,650	-200,000	-0,024	0,100
-204,636	10,455	0,061	-0,034
-203,621	800,000	0,034	0,070
-202,606	213,943	-0,068	0,078
-201,592	-5,327	-0,150	-0,075
-200,577	613,695	-0,063	-0,115
-199,563	-200,000	0,050	0,167
-198,548	-200,000	0,005	0,035
-197,533	73,106	-0,089	0,068
-196,519	-110,312	-0,146	0,022
-195,504	37,170	-0,066	0,042
-194,490	-103,819	-0,069	0,012
-193,475	-200,000	-0,002	-0,083
-192,460	-200,000	-0,004	0,043
-191,446	-69,314	0,074	-0,021
-190,431	17,695	0,105	-0,061
-189,417	-61,328	0,088	0,027
-188,402	-200,000	-0,003	-0,021
-187,387	-104,271	0,084	0,014
-186,373	316,135	-0,020	-0,027
-185,358	-59,170	-0,087	0,027
-184,344	-108,839	-0,059	0,009
-183,329	-80,804	0,053	0,013
-182,315	261,456	0,065	0,081
-181,300	-116,090	0,109	-0,015
-180,285	-200,000	0,009	-0,105
-179,271	255,240	0,090	0,113
-178,256	-200,000	-0,008	0,036
-177,242	242,348	0,040	0,048
-176,227	-22,958	0,106	-0,046
-175,212	-6,480	-0,069	-0,034
-174,198	76,068	0,186	-0,143
-173,183	-200,000	-0,016	0,066
-172,169	-158,926	-0,084	0,003
-171,154	-151,604	0,072	-0,004
-170,139	72,301	0,086	0,065
-169,125	208,956	0,016	0,018
-168,110	377,247	0,064	0,096
-167,096	-81,939	-0,099	0,023
-166,081	6,012	0,160	-0,086
-165,066	800,000	0,023	-0,048
-164,052	244,899	-0,085	-0,104
-163,037	96,365	0,111	-0,092
-162,023	-200,000	-0,017	-0,094
-161,008	-3,572	0,023	-0,012
-159,993	-140,020	-0,034	0,003
-158,979	-200,000	0,006	-0,093
-157,964	182,935	-0,045	-0,048
-156,950	-132,334	-0,140	-0,013
-155,935	111,080	0,119	-0,104
-154,920	-200,000	0,004	0,104
-153,906	-18,151	0,197	0,089
-152,891	125,593	0,047	-0,043
-151,877	57,607	0,050	-0,035
-150,862	131,545	-0,123	-0,115
-149,847	-200,000	0,013	-0,165
-148,833	-22,220	0,102	-0,045
-147,818	-200,000	0,016	-0,073
-146,804	-114,266	0,074	-0,010
-145,789	800,000	0,057	0,117
-144,775	71,793	0,066	-0,050
-143,760	486,905	-0,067	0,112
-142,745	54,225	-0,110	-0,077
-141,731	617,077	-0,025	0,047
-140,716	467,310	-0,033	-0,054
-139,702	-94,013	-0,094	0,019
-138,687	-72,370	0,124	0,033
-137,672	117,785	-0,095	0,085
-136,658	447,456	0,041	-0,065
-135,643	-200,000	-0,012	-0,062
-134,629	13,973	0,062	0,035
-133,614	800,000	-0,041	0,103
-132,599	800,000	0,028	0,076
-131,585	800,000	-0,029	0,090
-130,570	-130,621	0,051	0,005
-129,556	-102,128	0,050	0,009
-128,541	245,184	-0,045	0,055
-127,526	-200,000	0,026	-0,103
-126,512	232,824	0,010	0,012
-125,497	250,047	-0,038	-0,047
-124,483	-200,000	0,010	-0,060
-123,468	-97,577	0,055	-0,010
-122,453	66,391	-0,106	-0,078
-121,439	-129,828	-0,040	-0,004
-120,424	-67,233	0,085	-0,024
