DTS Sentinel unit serial number:	SN410029Multiplexer serial number:	ORYXHardware model number:	OX2-SRSoftware version number:	ORYX F/W v4,00 Oryx Data Collector v3.7.2.0data status	okinstallation	B3 Nyhavnadifferential loss correction	single-endedforward channel	channel 1reverse channel	N/Adate	2023/11/28time	14:27:30forward acquisition time	300,00reverse acquisition time	0,00gamma	499,1914k internal	0,3146k external	0,3146temperature offset calibration	1,0000default loss term (dB/km)	0,3820temperature slope calibration	1,0000multiplexer offset coefficient	1,0000multiplexer slope coefficient	1,0000fibre end	0,00T internal ref (°C)	7,47T ext. ref 1 (°C)	-7,77T ext. ref 2 (°C)	-7,94length (m)	temperature (°C)	Stokes	anti-Stokes-744,400	125,236	-0,215	-0,200
-743,385	700,446	-0,147	0,288
-742,371	-85,789	-0,193	-0,044
-741,356	-200,000	-0,003	0,266
-740,342	188,144	-0,196	-0,217
-739,327	-200,000	0,002	0,216
-738,312	97,610	-0,213	-0,181
-737,298	-200,000	0,054	0,192
-736,283	120,727	-0,217	-0,200
-735,269	-200,000	0,015	0,250
-734,254	24,083	-0,332	-0,202
-733,239	17,986	-0,201	0,118
-732,225	62,364	-0,247	-0,182
-731,210	164,901	0,109	0,114
-730,196	7,659	0,094	-0,052
-729,181	388,695	-0,014	0,022
-728,167	-200,000	0,008	0,059
-727,152	800,000	-0,028	0,087
-726,137	-11,955	0,033	-0,016
-725,123	109,402	-0,164	-0,145
-724,108	264,831	-0,052	-0,067
-723,094	-200,000	-0,025	-0,111
-722,079	-200,000	-0,012	-0,050
-721,064	800,000	0,039	0,093
-720,050	-200,000	0,025	-0,135
-719,035	310,928	-0,066	0,091
-718,021	390,695	0,088	-0,135
-717,006	-200,000	-0,024	-0,090
-715,991	-153,334	-0,059	0,003
-714,977	187,407	-0,078	-0,087
-713,962	-40,148	0,156	-0,060
-712,948	161,056	0,036	0,038
-711,933	-200,000	0,058	0,214
-710,918	-93,604	0,056	0,011
-709,904	325,526	0,052	-0,074
-708,889	-200,000	0,021	-0,205
-707,875	-200,000	0,019	-0,100
-706,860	-120,907	0,105	-0,013
-705,845	333,598	-0,108	0,155
-704,831	26,021	0,076	0,047
-703,816	743,798	-0,068	0,135
-702,802	233,194	-0,027	0,032
-701,787	131,599	-0,025	-0,024
-700,772	563,963	0,040	-0,073
-699,758	-107,818	-0,112	0,018
-698,743	-6,858	-0,063	0,032
-697,729	222,777	0,049	0,059
-696,714	-200,000	-0,012	0,169
-695,699	-108,242	-0,065	0,010
-694,685	380,780	0,033	-0,051
-693,670	227,555	-0,055	0,066
-692,656	421,226	0,066	-0,104
-691,641	-135,030	0,027	0,002
-690,627	591,093	0,097	0,177
-689,612	-6,914	0,067	0,033
-688,597	556,128	-0,039	-0,070
-687,583	-200,000	0,010	-0,054
-686,568	615,474	0,077	0,143
-685,554	-62,625	-0,094	-0,029
-684,539	383,372	-0,053	0,081
-683,524	301,437	0,086	0,117
-682,510	-200,000	-0,022	0,086
-681,495	-200,000	-0,011	0,052
-680,481	57,606	-0,032	-0,023
-679,466	16,608	-0,075	-0,044
-678,451	800,000	-0,054	0,157
-677,437	157,916	-0,122	0,125
-676,422	-200,000	-0,026	0,101
-675,408	97,122	0,073	0,062
-674,393	282,934	0,023	0,030
-673,378	-200,000	-0,006	0,075
-672,364	103,093	-0,058	-0,050
-671,349	-200,000	0,003	-0,199
-670,335	-200,000	0,008	-0,043
-669,320	800,000	-0,006	0,018
-668,305	654,011	0,046	0,088
-667,291	84,595	0,040	-0,032
-666,276	43,513	-0,066	-0,044
-665,262	7,064	-0,004	-0,002
-664,247	-200,000	-0,037	-0,204
-663,232	466,755	-0,042	0,070
-662,218	70,270	0,134	0,102
-661,203	-180,621	0,061	-0,001
-660,189	800,000	-0,049	-0,111
-659,174	216,610	-0,072	0,085
-658,159	232,277	-0,039	0,047
-657,145	-200,000	-0,006	-0,030
-656,130	165,915	-0,011	-0,012
-655,116	-86,992	0,051	-0,011
-654,101	293,507	0,119	0,160
-653,086	11,154	-0,003	0,002
-652,072	-200,000	0,003	-0,055
-651,057	556,898	-0,109	-0,194
-650,043	-200,000	-0,030	-0,107
-649,028	-72,241	-0,039	0,011
-648,014	-139,562	-0,130	-0,010
-646,999	800,000	-0,025	0,070
-645,984	-98,350	-0,091	0,017
-644,970	34,030	0,077	-0,049
-643,955	-130,331	-0,086	-0,009
-642,941	161,895	-0,100	-0,103
-641,926	-47,823	-0,078	0,028
-640,911	-200,000	-0,004	0,081
-639,897	-80,642	0,116	-0,028
-638,882	334,693	0,067	-0,096
-637,868	-200,000	-0,000	0,022
-636,853	-39,016	-0,163	-0,063
-635,838	-100,003	0,013	0,002
-634,824	725,007	-0,081	-0,161
-633,809	-22,489	0,055	0,024
-632,795	133,109	-0,070	0,067
-631,780	800,000	0,065	0,190
-630,765	800,000	0,034	0,087
-629,751	196,679	-0,060	-0,067
-628,736	-100,281	-0,071	-0,013
-627,722	-104,300	0,142	-0,024
-626,707	141,059	-0,040	-0,039
-625,692	271,297	0,149	0,194
-624,678	800,000	-0,018	0,039
-623,663	-88,696	-0,096	-0,021
-622,649	-175,106	-0,126	-0,003
-621,634	241,107	0,046	0,057
-620,619	-33,919	0,071	0,029
-619,605	29,660	-0,050	0,031
-618,590	315,469	0,055	0,077
-617,576	-85,617	-0,112	0,025
-616,561	128,302	0,038	-0,035
-615,546	-27,843	-0,033	-0,014
-614,532	78,245	-0,095	-0,074
-613,517	-81,619	-0,030	-0,007
-612,503	800,000	-0,057	-0,131
-611,488	175,328	0,025	-0,026
-610,474	-121,430	-0,078	0,009
-609,459	143,461	0,048	0,047
-608,444	-200,000	-0,005	-0,041
-607,430	-17,855	-0,062	-0,029
-606,415	-40,521	0,114	-0,043
-605,401	-121,742	-0,107	0,013
-604,386	91,280	0,101	0,083
-603,371	-200,000	0,034	-0,196
-602,357	800,000	-0,024	-0,078
-601,342	64,919	-0,088	0,065
-600,328	200,276	-0,081	-0,091
-599,313	-200,000	-0,000	-0,065
-598,298	-200,000	0,032	0,114
-597,284	-200,000	-0,001	0,126
-596,269	-27,119	0,032	-0,014
-595,255	-6,945	-0,099	0,049
-594,240	366,994	0,083	0,124
-593,225	464,865	0,030	-0,050
-592,211	554,905	-0,056	0,099
-591,196	132,141	0,092	0,087
-590,182	599,991	-0,066	0,121
-589,167	59,813	0,126	-0,091
-588,152	222,625	0,044	-0,052
-587,138	-101,805	0,146	0,026
-586,123	-34,154	-0,065	0,026
-585,109	-14,960	-0,086	-0,041
-584,094	-76,746	0,006	0,002
-583,079	-13,191	0,106	-0,051
-582,065	-200,000	0,009	0,064
-581,050	391,522	-0,026	0,040
-580,036	-105,760	-0,081	-0,013
-579,021	-56,811	0,062	0,020
-578,006	-81,556	-0,112	0,027
-576,992	-26,912	0,064	-0,028
-575,977	-65,843	0,070	-0,020
-574,963	-200,000	-0,003	0,129
-573,948	49,085	0,069	-0,047
-572,934	23,230	-0,088	0,053
-571,919	-200,000	-0,006	0,034
-570,904	347,184	-0,014	0,020
-569,890	-63,163	0,097	0,029
-568,875	248,380	-0,058	0,072
-567,861	-200,000	-0,018	0,141
-566,846	29,797	-0,016	0,010
-565,831	-20,289	-0,073	0,033
-564,817	-124,262	-0,195	0,022
-563,802	-47,845	0,038	-0,014
-562,788	382,264	0,095	0,144
-561,773	-69,258	0,067	-0,019
-560,758	-200,000	0,008	0,091
-559,744	800,000	0,050	0,130
-558,729	514,272	0,065	0,112
-557,715	-35,257	-0,088	-0,035
-556,700	672,269	-0,048	-0,092
-555,685	436,583	-0,063	-0,102
-554,671	-200,000	0,007	0,118
-553,656	-4,430	-0,058	0,029
-552,642	86,002	0,117	0,094
-551,627	-200,000	0,002	0,012
-550,612	116,975	-0,114	-0,103
-549,598	-54,869	-0,145	0,048
-548,583	-50,475	0,126	0,043
-547,569	40,016	-0,211	-0,139
-546,554	314,795	0,043	0,059
-545,539	179,639	0,071	0,077
-544,525	-101,721	-0,100	0,018
-543,510	359,267	-0,026	0,038
-542,496	-200,000	-0,022	0,000
-541,481	-145,162	-0,103	-0,007
-540,466	306,316	0,114	0,157
-539,452	149,504	-0,132	0,131
-538,437	309,241	-0,088	-0,121
-537,423	-165,999	0,079	-0,002
-536,408	-157,055	-0,098	-0,004
-535,393	23,001	0,072	-0,043
-534,379	189,800	0,057	-0,063
-533,364	38,977	0,098	-0,064
-532,350	-13,133	-0,042	-0,020
-531,335	-55,348	0,095	0,031
-530,321	-110,892	0,037	-0,006
-529,306	128,288	0,031	-0,029
-528,291	428,490	-0,037	-0,060
-527,277	78,613	-0,078	0,061
-526,262	774,259	0,074	-0,148
-525,248	-200,000	0,009	-0,118
-524,233	152,881	0,043	-0,043
-523,218	131,435	-0,025	0,024
-522,204	101,555	-0,052	0,045
-521,189	92,114	-0,070	0,058
-520,175	800,000	-0,057	-0,128
-519,160	303,078	-0,028	-0,038
-518,145	-39,341	0,132	-0,050
-517,131	-200,000	-0,036	0,207
-516,116	-30,155	0,101	0,042
-515,102	-200,000	0,019	-0,092
-514,087	-96,972	-0,123	-0,023
-513,072	785,156	-0,036	-0,073
-512,058	42,148	0,005	0,004
-511,043	-7,496	0,059	0,029
-510,029	800,000	0,044	0,098
-509,014	-156,616	-0,122	0,005
-507,999	-49,703	0,096	-0,033
-506,985	-200,000	0,006	0,050
-505,970	415,125	0,045	0,071
-504,956	-97,075	0,038	-0,007
-503,941	800,000	-0,011	0,031
-502,926	577,276	0,058	0,105
-501,912	-200,000	0,018	0,170
-500,897	-200,000	0,003	-0,092
-499,883	-59,446	0,117	0,036
-498,868	294,591	-0,054	-0,072
-497,853	-13,918	-0,066	-0,031
-496,839	-134,373	-0,149	0,013
-495,824	164,381	0,039	0,041
-494,810	-200,000	-0,012	0,058
-493,795	765,713	-0,017	-0,034
-492,781	-142,394	0,010	0,001
-491,766	261,597	0,163	-0,207
-490,751	20,418	-0,125	-0,074
-489,737	800,000	0,012	-0,039
-488,722	-160,238	-0,115	-0,004
-487,708	-21,472	0,096	0,043
-486,693	-38,176	-0,141	-0,054
-485,678	-141,954	-0,066	0,005
-484,664	-200,000	0,012	0,080
-483,649	-60,985	0,139	-0,043
-482,635	-200,000	0,000	0,066
-481,620	800,000	0,017	0,053
-480,605	800,000	-0,044	-0,097
-479,591	-200,000	-0,024	0,090
-478,576	-113,715	0,179	0,025
-477,562	-87,803	-0,040	-0,009
-476,547	800,000	0,012	0,029
-475,532	307,206	-0,078	0,107
-474,518	800,000	0,024	0,055
-473,503	86,272	-0,033	-0,027
-472,489	51,547	0,100	0,070
-471,474	26,397	0,157	0,096
-470,459	-26,399	-0,116	-0,049
-469,445	-200,000	0,012	-0,155
-468,430	-59,790	-0,079	0,025
-467,416	75,601	-0,005	0,004
-466,401	28,374	0,104	-0,064
-465,386	-89,352	0,050	0,011
-464,372	-200,000	0,020	0,069
-463,357	-41,827	0,071	0,027
-462,343	-74,768	-0,075	-0,020
-461,328	205,679	0,014	-0,016
-460,313	-19,846	-0,074	0,034
-459,299	-146,788	0,071	0,004
-458,284	-169,519	-0,098	0,003
-457,270	499,995	0,041	0,069
-456,255	-25,509	-0,076	0,033
-455,241	-22,517	-0,139	-0,061
-454,226	-200,000	0,005	-0,134
-453,211	589,232	0,016	-0,029
-452,197	172,512	0,109	0,115
-451,182	-200,000	-0,029	0,144
-450,168	-200,000	-0,048	-0,160
-449,153	2,243	0,039	-0,020
-448,138	-61,779	-0,129	-0,039
-447,124	29,407	-0,101	-0,063
-446,109	-39,053	0,057	0,022
-445,095	-17,107	0,149	0,069
-444,080	-200,000	-0,004	0,167
-443,065	115,096	0,119	0,107
-442,051	148,706	0,035	0,035
-441,036	618,663	-0,052	-0,096
-440,022	-126,872	0,042	0,004
-439,007	-41,244	0,087	0,033
-437,992	-111,456	0,057	-0,008
-436,978	161,153	0,054	0,055
-435,963	-200,000	-0,005	0,136
-434,949	-42,105	0,023	0,009
-433,934	522,001	-0,021	0,036
-432,919	-8,551	-0,129	0,063
-431,905	-178,167	-0,030	0,000
-430,890	800,000	0,050	0,155
-429,876	-200,000	0,035	0,121
-428,861	-200,000	0,034	0,122
-427,846	-200,000	0,031	-0,157
-426,832	-180,862	0,119	0,002
-425,817	578,905	-0,034	0,062
-424,803	-94,238	0,111	-0,022
-423,788	27,339	0,102	-0,062
-422,773	-85,736	0,078	0,018
-421,759	399,956	-0,055	-0,084
-420,744	434,686	0,103	-0,164
-419,730	121,086	-0,026	0,024
-418,715	408,366	-0,027	-0,042
-417,701	-159,838	-0,114	0,004
-416,686	24,967	0,081	0,049
-415,671	28,351	0,081	-0,050
-414,657	96,283	0,047	0,039
-413,642	335,940	0,057	0,080
-412,628	44,685	0,081	-0,055
-411,613	156,601	0,073	0,074
-410,598	2,761	-0,125	0,066
-409,584	596,144	0,050	0,090
-408,569	-52,247	0,150	-0,050
-407,555	-98,786	-0,057	-0,011
-406,540	128,132	0,132	-0,123
-405,525	-200,000	-0,013	-0,074
-404,511	-200,000	0,015	-0,154
-403,496	548,821	-0,032	-0,057
-402,482	234,371	0,086	-0,103
-401,467	575,581	0,084	-0,150
-400,452	385,311	0,043	-0,065
-399,438	226,654	-0,082	-0,098
-398,423	-200,000	-0,012	0,068
-397,409	800,000	-0,016	-0,039
-396,394	-200,000	-0,014	-0,052
-395,379	-55,566	0,109	-0,035
-394,365	-42,956	0,151	0,056
-393,350	24,071	-0,174	0,104
-392,336	423,515	0,034	-0,053
-391,321	243,817	-0,079	0,097
-390,306	178,956	-0,044	-0,047
-389,292	800,000	0,042	-0,094
-388,277	96,212	-0,104	0,087
-387,263	-180,291	0,113	0,002
-386,248	4,671	-0,053	-0,028
-385,233	-10,979	-0,066	0,032
-384,219	800,000	-0,048	0,100
-383,204	22,626	-0,101	-0,060
-382,190	800,000	-0,028	0,057
-381,175	91,902	0,087	-0,071
-380,160	-99,452	-0,136	0,025
-379,146	-48,237	0,136	-0,047
-378,131	20,963	-0,123	0,072
-377,117	353,996	-0,031	-0,045
-376,102	100,047	-0,055	-0,047
-375,088	-4,460	0,045	0,023
-374,073	-41,394	-0,037	0,014
-373,058	-182,564	0,088	0,001
-372,044	-200,000	-0,030	-0,125
-371,029	142,635	0,077	-0,075
-370,015	-113,770	-0,131	-0,018
-369,000	393,830	0,086	-0,130
-367,985	-29,581	-0,146	-0,060
-366,971	792,482	0,021	-0,041
-365,956	289,791	0,110	-0,146
-364,942	-185,329	0,142	-0,002
-363,927	800,000	0,037	-0,091
-362,912	631,530	-0,072	0,134
-361,898	-3,623	0,101	-0,051
-360,883	156,605	0,103	-0,104
-359,869	121,727	-0,086	0,078
-358,854	0,024	0,133	-0,069
-357,839	99,830	-0,062	-0,052
-356,825	-200,000	0,033	0,117
-355,810	-200,000	-0,007	0,110
-354,796	515,234	-0,042	-0,072
-353,781	-200,000	-0,018	-0,088
-352,766	-43,057	-0,079	0,029
-351,752	-97,281	0,076	-0,014
-350,737	180,470	0,085	0,091
-349,723	62,542	-0,079	0,057
-348,708	-155,623	-0,083	-0,004
-347,693	150,881	-0,079	-0,079
-346,679	613,124	-0,026	-0,048
-345,664	-68,488	0,021	-0,006
-344,650	148,017	-0,048	-0,047
-343,635	-200,000	0,043	0,141
-342,620	66,891	-0,057	0,042
-341,606	800,000	0,020	-0,056
-340,591	90,000	-0,070	-0,057
-339,577	20,129	-0,113	0,066
-338,562	163,219	0,071	-0,073
-337,548	225,687	-0,110	-0,130
-336,533	-200,000	-0,015	0,100
-335,518	-84,843	0,132	0,030
-334,504	81,133	0,087	0,068
-333,489	-137,707	-0,033	0,003
-332,475	35,424	-0,144	0,092
-331,460	-176,214	-0,104	-0,002
-330,445	176,214	0,052	-0,055
-329,431	-39,691	0,116	-0,044
-328,416	-63,671	-0,055	0,016
-327,402	-200,000	0,011	-0,126
-326,387	30,826	-0,052	0,033
-325,372	-44,481	0,006	-0,002
-324,358	-200,000	0,019	-0,092
-323,343	82,829	0,046	0,036
-322,329	800,000	0,040	-0,087
-321,314	73,446	-0,088	0,067
-320,299	201,131	-0,051	-0,057
-319,285	484,446	-0,047	-0,078
-318,270	149,782	-0,079	-0,078
-317,256	237,610	0,066	0,080
-316,241	53,270	0,023	-0,016
-315,226	240,533	-0,044	0,053
-314,212	390,613	0,052	-0,079
-313,197	-200,000	-0,031	-0,137
-312,183	-200,000	-0,024	-0,101
-311,168	785,697	-0,026	-0,051
-310,153	58,804	-0,125	0,090
-309,139	361,826	-0,060	-0,087
-308,124	-200,000	0,019	-0,066
-307,110	-137,945	0,069	0,006
-306,095	-38,037	0,080	0,031
-305,080	-200,000	0,006	0,140
-304,066	-159,978	0,095	-0,004
-303,051	-32,412	-0,104	-0,042
-302,037	-108,213	0,061	0,010
-301,022	789,818	0,066	0,132
-300,008	191,689	0,066	0,072
-298,993	-200,000	-0,023	-0,114
-297,978	-92,195	0,086	0,017
-296,964	141,898	-0,047	0,045
-295,949	520,685	-0,033	-0,056
-294,935	-200,000	0,010	0,090
-293,920	175,013	0,062	-0,066
-292,905	151,492	0,137	0,136
-291,891	800,000	-0,030	-0,087
-290,876	-106,925	-0,010	-0,002
-289,862	800,000	-0,022	-0,048
-288,847	-200,000	-0,002	-0,013
-287,832	192,596	0,049	-0,054
-286,818	-200,000	-0,000	-0,052
-285,803	-188,407	0,029	-0,000
-284,789	74,483	0,049	-0,037
-283,774	800,000	0,050	0,142
-282,759	-200,000	0,007	-0,067
-281,745	-200,000	0,018	0,081
-280,730	-9,307	-0,094	-0,046
-279,716	-135,739	0,073	-0,006
-278,701	-200,000	0,043	-0,158
-277,686	-157,801	0,032	0,001
-276,672	-106,034	-0,049	-0,008
-275,657	163,444	0,025	-0,025
-274,643	48,781	-0,076	0,051
-273,628	535,738	0,078	-0,135
-272,613	9,910	-0,068	-0,037
-271,599	229,601	0,049	-0,059
-270,584	48,448	0,083	-0,056
-269,570	-41,452	-0,077	-0,029
-268,555	190,599	0,039	-0,042
-267,540	-142,867	-0,224	-0,016
-266,526	501,662	0,038	-0,064
-265,511	800,000	0,017	0,046
-264,497	-200,000	-0,018	-0,059
-263,482	-64,237	0,084	-0,025
-262,467	276,965	-0,094	0,122
-261,453	293,203	0,033	-0,043
-260,438	-200,000	0,006	0,061
-259,424	411,419	-0,077	-0,120
-258,409	265,860	-0,105	-0,133
-257,395	142,047	-0,062	0,060
-256,380	-200,000	0,008	0,161
-255,365	800,000	-0,019	0,061
-254,351	-200,000	-0,015	0,103
-253,336	396,191	0,034	-0,052
-252,322	800,000	-0,039	-0,103
-251,307	772,839	-0,050	-0,099
-250,292	800,000	-0,023	0,052
-249,278	6,171	0,044	-0,023
-248,263	312,084	0,014	0,019
-247,249	322,997	0,017	0,024
-246,234	33,468	-0,018	0,011
-245,219	-88,069	-0,153	0,033
-244,205	509,487	0,034	0,057
-243,190	-117,172	-0,081	0,011
-242,176	-200,000	-0,003	-0,121
-241,161	-200,000	-0,038	0,136
-240,146	800,000	0,031	-0,077
-239,132	-100,823	0,035	0,006
-238,117	220,113	-0,070	-0,082
-237,103	-67,658	0,097	0,027
-236,088	-200,000	0,009	-0,091
-235,073	-26,802	0,119	-0,050
-234,059	-154,774	-0,082	0,004
-233,044	800,000	0,024	-0,056
-232,030	302,703	-0,083	0,112
-231,015	650,505	-0,039	0,073
-230,000	182,123	0,075	-0,080
-228,986	9,337	0,091	0,050
-227,971	88,919	-0,052	0,042
-226,957	277,730	-0,024	-0,031
-225,942	-200,000	-0,048	0,170
-224,927	-200,000	0,014	0,096
-223,913	80,711	-0,094	-0,074
-222,898	81,970	-0,086	0,068
-221,884	-200,000	-0,012	-0,177
-220,869	668,414	0,040	-0,076
-219,855	-200,000	0,002	0,054
-218,840	7,934	0,055	0,030
-217,825	-20,472	-0,113	0,050
-216,811	-37,945	0,202	-0,078
-215,796	-77,774	-0,066	-0,016
-214,782	-200,000	-0,008	0,066
-213,767	547,885	0,026	0,045
-212,752	415,613	-0,019	0,030
-211,738	61,053	-0,049	0,035
-210,723	-86,308	0,206	-0,046
-209,709	208,121	-0,133	-0,151
-208,694	-200,000	0,012	0,074
-207,679	119,439	0,014	-0,013
-206,665	-200,000	-0,018	0,150
-205,650	800,000	-0,032	-0,075
-204,636	-200,000	0,008	-0,079
-203,621	800,000	-0,018	-0,041
-202,606	552,172	-0,067	0,117
-201,592	-200,000	-0,002	0,029
-200,577	173,772	-0,165	-0,173
-199,563	800,000	-0,056	-0,118
-198,548	800,000	-0,020	0,043
-197,533	199,025	0,095	-0,105
-196,519	800,000	0,026	0,055
-195,504	81,502	-0,135	0,106
-194,490	423,085	0,038	-0,059
-193,475	126,134	0,177	-0,162
-192,460	-122,790	0,049	0,006
-191,446	170,383	-0,091	-0,094
-190,431	683,061	0,070	0,133
-189,417	800,000	0,021	0,064
-188,402	146,884	-0,052	-0,051
-187,387	58,897	0,094	0,067
-186,373	768,811	-0,059	0,117
-185,358	-200,000	-0,001	-0,040
-184,344	4,612	0,120	-0,064
-183,329	-29,192	-0,134	-0,056
-182,315	-200,000	-0,013	-0,110
-181,300	55,077	-0,025	-0,018
-180,285	-200,000	-0,032	-0,103
-179,271	-200,000	-0,022	0,127
-178,256	83,314	0,090	0,071
-177,242	452,188	-0,018	-0,029
-176,227	-77,913	0,071	0,018
-175,212	-51,929	0,120	0,040
-174,198	-200,000	0,012	0,066
-173,183	16,989	0,048	0,027
-172,169	-82,056	-0,137	-0,032
-171,154	-200,000	-0,007	-0,076
-170,139	800,000	0,027	-0,056
-169,125	132,892	-0,139	0,130
-168,110	-138,488	0,064	-0,005
-167,096	55,852	-0,119	0,083
-166,081	191,907	0,083	0,090
-165,066	-105,180	0,048	-0,008
-164,052	-104,989	0,113	-0,019
-163,037	153,477	0,019	-0,019
-162,023	331,785	0,090	0,127
-161,008	129,345	0,059	-0,055
-159,993	800,000	-0,034	-0,076
-158,979	15,322	-0,084	0,048
-157,964	-54,199	0,076	-0,025
-156,950	800,000	0,040	-0,125
-155,935	202,265	0,066	0,073
-154,920	-50,449	0,086	-0,029
-153,906	-200,000	0,003	0,127
-152,891	604,241	0,051	0,091
-151,877	224,479	0,031	0,037
-150,862	800,000	0,005	-0,011
-149,847	-10,226	0,080	-0,038
-148,833	284,676	0,043	-0,056
-147,818	140,132	-0,005	0,005
-146,804	-200,000	-0,015	-0,064
-145,789	124,764	0,051	0,047
-144,775	800,000	-0,023	-0,059
-143,760	-200,000	-0,017	-0,112
-142,745	-99,356	0,166	0,030
-141,731	-32,890	-0,081	0,032
-140,716	-7,931	-0,086	0,042
-139,702	-24,230	0,123	0,053
-138,687	-42,843	0,116	0,043
-137,672	-85,529	0,118	0,026
-136,658	101,535	-0,157	-0,132
-135,643	258,064	-0,111	-0,138
-134,629	13,093	0,126	-0,070
-133,614	-200,000	-0,010	-0,070
-132,599	-69,332	0,080	-0,022
-131,585	-200,000	-0,005	-0,027
-130,570	235,237	0,050	0,060
-129,556	448,114	0,061	0,098
-128,541	581,870	-0,032	-0,056
-127,526	523,946	-0,047	-0,080
-126,512	-49,382	-0,061	-0,021
-125,497	103,742	0,030	-0,026
-124,483	-200,000	0,022	0,198
-123,468	-200,000	0,007	0,094
-122,453	4,941	0,068	-0,036
-121,439	123,780	-0,032	-0,029
-120,424	-3,099	0,084	0,042
-119,410	28,811	-0,093	0,057
-118,395	157,727	0,148	0,148
