DTS Sentinel unit serial number:	SN410029Multiplexer serial number:	ORYXHardware model number:	OX2-SRSoftware version number:	ORYX F/W v4,00 Oryx Data Collector v3.7.2.0data status	okinstallation	B3 Nyhavnadifferential loss correction	single-endedforward channel	channel 1reverse channel	N/Adate	2023/11/28time	19:02:30forward acquisition time	300,00reverse acquisition time	0,00gamma	499,1914k internal	0,3142k external	0,3142temperature offset calibration	1,0000default loss term (dB/km)	0,3820temperature slope calibration	1,0000multiplexer offset coefficient	1,0000multiplexer slope coefficient	1,0000fibre end	0,00T internal ref (°C)	7,56T ext. ref 1 (°C)	-7,21T ext. ref 2 (°C)	-7,36length (m)	temperature (°C)	Stokes	anti-Stokes-744,400	190,833	-0,133	-0,149
-743,385	-200,000	0,065	0,292
-742,371	555,456	-0,101	-0,182
-741,356	-200,000	-0,077	0,328
-740,342	800,000	-0,109	-0,247
-739,327	-200,000	-0,059	0,255
-738,312	309,608	-0,159	-0,220
-737,298	800,000	-0,068	0,219
-736,283	84,973	-0,212	-0,172
-735,269	-200,000	-0,051	0,260
-734,254	-200,000	-0,041	-0,205
-733,239	42,070	-0,207	0,139
-732,225	-200,000	0,093	-0,319
-731,210	-148,281	0,084	-0,005
-730,196	30,369	-0,041	0,026
-729,181	49,059	-0,077	-0,054
-728,167	-200,000	0,021	-0,086
-727,152	800,000	-0,077	-0,176
-726,137	347,265	0,057	0,083
-725,123	64,989	-0,026	0,019
-724,108	-130,837	-0,101	-0,010
-723,094	-200,000	-0,039	-0,219
-722,079	48,524	-0,058	0,040
-721,064	800,000	0,041	-0,127
-720,050	452,497	0,089	-0,146
-719,035	-58,952	-0,088	-0,028
-718,021	557,495	0,021	0,038
-717,006	800,000	0,032	-0,093
-715,991	-186,999	-0,113	-0,001
-714,977	-200,000	0,021	-0,107
-713,962	-40,497	-0,101	-0,039
-712,948	800,000	0,014	-0,044
-711,933	-80,524	0,025	0,006
-710,918	77,497	-0,075	0,059
-709,904	-200,000	0,002	0,011
-708,889	-4,403	-0,089	0,045
-707,875	-200,000	-0,020	0,094
-706,860	-200,000	-0,005	-0,159
-705,845	179,307	0,092	0,099
-704,831	-102,892	-0,048	0,008
-703,816	339,886	-0,030	-0,043
-702,802	800,000	0,021	-0,045
-701,787	233,957	-0,044	0,054
-700,772	181,771	0,028	-0,030
-699,758	19,769	0,014	0,008
-698,743	32,278	0,105	0,067
-697,729	-200,000	0,061	0,208
-696,714	-200,000	0,024	0,111
-695,699	18,239	0,081	0,048
-694,685	-200,000	0,003	0,014
-693,670	-72,810	-0,073	0,020
-692,656	-200,000	0,036	-0,175
-691,641	-59,080	-0,095	0,030
-690,627	34,117	0,106	-0,068
-689,612	-200,000	-0,027	-0,131
-688,597	-200,000	0,008	-0,112
-687,583	-24,409	0,014	0,006
-686,568	-15,985	-0,215	-0,101
-685,554	473,812	-0,074	-0,124
-684,539	-200,000	-0,005	-0,082
-683,524	235,296	-0,037	0,045
-682,510	-200,000	0,001	0,125
-681,495	283,387	-0,042	-0,055
-680,481	91,876	-0,033	-0,027
-679,466	210,510	-0,046	0,053
-678,451	216,431	-0,084	-0,099
-677,437	319,745	-0,046	-0,065
-676,422	101,391	-0,042	-0,037
-675,408	118,699	-0,082	0,075
-674,393	800,000	-0,040	0,099
-673,378	-128,699	-0,026	-0,003
-672,364	-200,000	-0,017	0,133
-671,349	-200,000	0,000	-0,072
-670,335	-200,000	0,009	-0,105
-669,320	242,019	-0,043	-0,053
-668,305	800,000	0,010	0,022
-667,291	80,528	-0,072	0,057
-666,276	371,601	-0,026	-0,039
-665,262	-2,562	-0,058	0,030
-664,247	45,086	-0,028	-0,019
-663,232	-1,678	-0,105	-0,054
-662,218	14,699	0,090	0,052
-661,203	163,990	0,085	0,089
-660,189	33,493	-0,104	-0,066
-659,174	106,539	-0,110	-0,096
-658,159	-200,000	0,006	-0,086
-657,145	779,697	0,029	0,059
-656,130	-85,633	0,068	0,015
-655,116	-42,514	0,108	0,040
-654,101	-24,897	-0,069	0,030
-653,086	231,656	-0,055	-0,067
-652,072	-67,730	-0,174	-0,050
-651,057	800,000	0,021	0,057
-650,043	21,521	0,066	0,040
-649,028	101,310	0,051	-0,044
-648,014	-148,424	0,093	0,006
-646,999	800,000	0,021	0,062
-645,984	-126,729	0,090	-0,010
-644,970	-25,482	-0,126	-0,055
-643,955	-55,824	-0,126	-0,041
-642,941	406,714	-0,014	-0,022
-641,926	-34,684	0,084	0,034
-640,911	-200,000	-0,001	0,011
-639,897	48,195	0,080	0,055
-638,882	124,192	-0,086	-0,079
-637,868	-28,811	-0,099	0,042
-636,853	76,963	0,078	-0,061
-635,838	-200,000	-0,006	-0,055
-634,824	41,233	-0,097	-0,064
-633,809	-57,377	-0,124	0,040
-632,795	389,151	-0,052	0,080
-631,780	146,286	-0,048	0,048
-630,765	-200,000	-0,042	-0,157
-629,751	-35,392	-0,087	-0,035
-628,736	-200,000	0,024	-0,162
-627,722	95,137	-0,038	-0,032
-626,707	234,046	0,075	-0,091
-625,692	-200,000	-0,006	-0,136
-624,678	352,219	-0,043	-0,063
-623,663	-17,057	0,029	0,014
-622,649	13,880	-0,089	0,051
-621,634	561,790	0,050	-0,089
-620,619	-115,682	-0,183	0,025
-619,605	-92,868	0,155	-0,032
-618,590	800,000	-0,048	0,119
-617,576	-101,169	-0,015	0,003
-616,561	318,210	-0,050	0,070
-615,546	172,449	0,031	-0,033
-614,532	75,008	-0,024	-0,019
-613,517	-76,083	0,076	-0,020
-612,503	51,874	0,080	-0,056
-611,488	130,782	-0,092	0,087
-610,474	364,079	0,084	-0,125
-609,459	-200,000	0,005	0,071
-608,444	800,000	0,041	-0,120
-607,430	48,123	0,040	0,028
-606,415	432,861	-0,034	-0,054
-605,401	-122,221	0,061	0,007
-604,386	-200,000	0,008	-0,034
-603,371	217,976	-0,083	0,097
-602,357	102,396	-0,103	0,089
-601,342	298,491	-0,026	-0,035
-600,328	-81,784	-0,029	-0,007
-599,313	-36,650	-0,117	-0,046
-598,298	-200,000	0,003	-0,022
-597,284	800,000	0,026	0,074
-596,269	800,000	-0,029	0,071
-595,255	163,005	-0,015	0,015
-594,240	35,531	0,139	0,090
-593,225	210,881	0,042	-0,049
-592,211	800,000	-0,046	0,143
-591,196	-44,871	0,063	0,023
-590,182	-77,885	-0,021	0,005
-589,167	800,000	-0,076	0,178
-588,152	-200,000	-0,005	0,101
-587,138	42,634	-0,072	0,048
-586,123	-200,000	-0,027	-0,112
-585,109	-200,000	0,033	-0,155
-584,094	-40,339	0,150	-0,057
-583,079	236,277	-0,083	0,101
-582,065	711,982	-0,047	0,091
-581,050	800,000	-0,013	0,037
-580,036	459,294	-0,061	0,100
-579,021	747,447	-0,041	0,081
-578,006	-136,704	-0,078	-0,007
-576,992	-200,000	-0,041	-0,145
-575,977	-200,000	0,001	0,023
-574,963	-200,000	-0,007	0,033
-573,948	631,130	0,071	0,134
-572,934	94,389	0,060	-0,051
-571,919	33,744	-0,180	-0,115
-570,904	-2,993	-0,039	-0,020
-569,890	-200,000	-0,002	0,148
-568,875	-200,000	-0,019	-0,107
-567,861	-185,004	0,035	0,000
-566,846	800,000	0,037	0,093
-565,831	82,974	-0,141	-0,113
-564,817	-200,000	-0,029	-0,191
-563,802	97,404	-0,082	-0,069
-562,788	171,326	-0,094	-0,099
-561,773	14,057	-0,047	0,027
-560,758	234,568	0,031	-0,037
-559,744	259,380	0,028	-0,035
-558,729	-1,866	0,014	0,007
-557,715	-200,000	0,047	0,174
-556,700	-200,000	0,003	-0,049
-555,685	-93,987	-0,127	0,025
-554,671	-137,156	-0,054	0,004
-553,656	-133,838	-0,056	0,005
-552,642	17,791	-0,060	-0,035
-551,627	238,411	0,056	-0,069
-550,612	-116,378	0,070	-0,009
-549,598	-200,000	-0,013	-0,056
-548,583	-200,000	-0,014	0,119
-547,569	-200,000	0,022	-0,147
-546,554	138,857	-0,042	0,041
-545,539	-39,379	0,082	0,031
-544,525	800,000	-0,037	0,101
-543,510	-200,000	-0,082	-0,318
-542,496	-86,370	-0,135	0,030
-541,481	-200,000	0,009	0,051
-540,466	40,661	-0,035	-0,023
-539,452	228,503	0,030	-0,036
-538,437	252,410	-0,051	0,064
-537,423	416,616	0,048	0,075
-536,408	-83,678	0,041	0,010
-535,393	163,580	-0,039	-0,041
-534,379	-99,024	-0,093	0,017
-533,364	-73,906	0,033	0,009
-532,350	73,886	-0,142	-0,109
-531,335	-4,543	-0,229	-0,116
-530,321	-200,000	-0,002	0,023
-529,306	-200,000	-0,001	-0,037
-528,291	125,072	-0,020	-0,019
-527,277	52,427	-0,226	-0,158
-526,262	-200,000	-0,002	-0,044
-525,248	37,817	0,051	-0,033
-524,233	-200,000	0,020	0,115
-523,218	-200,000	-0,035	0,139
-522,204	-136,156	0,090	-0,008
-521,189	-14,002	-0,107	0,051
-520,175	-167,349	-0,147	0,004
-519,160	-47,024	0,085	-0,030
-518,145	-196,143	0,079	-0,000
-517,131	-200,000	0,021	0,104
-516,116	505,894	0,030	0,052
-515,102	639,966	0,027	-0,050
-514,087	-75,120	-0,038	-0,010
-513,072	190,129	0,131	-0,145
-512,058	118,608	0,012	-0,010
-511,043	800,000	-0,050	0,147
-510,029	-55,918	0,101	0,033
-509,014	5,067	0,135	-0,073
-507,999	77,781	0,072	0,057
-506,985	-39,157	0,059	-0,023
-505,970	394,026	-0,046	-0,070
-504,956	730,547	0,026	0,052
-503,941	-48,596	0,097	-0,034
-502,926	200,338	0,043	-0,049
-501,912	-47,128	0,072	-0,026
-500,897	-121,282	0,057	-0,007
-499,883	-200,000	0,028	-0,174
-498,868	55,760	-0,092	0,065
-497,853	-142,644	-0,167	-0,012
-496,839	-96,361	-0,085	0,016
-495,824	-63,193	0,106	0,032
-494,810	-45,115	0,031	-0,011
-493,795	800,000	0,064	-0,186
-492,781	259,376	-0,030	0,038
-491,766	183,068	-0,121	0,131
-490,751	-200,000	0,013	0,062
-489,737	-77,490	0,236	-0,060
-488,722	-83,712	0,070	-0,016
-487,708	-200,000	-0,002	0,116
-486,693	405,973	-0,090	-0,140
-485,678	-76,334	-0,034	-0,009
-484,664	-200,000	-0,042	0,135
-483,649	800,000	-0,016	-0,051
-482,635	800,000	-0,028	0,071
-481,620	115,938	0,047	-0,043
-480,605	-200,000	-0,012	0,097
-479,591	-2,884	-0,145	-0,074
-478,576	12,396	0,017	-0,010
-477,562	800,000	0,080	-0,192
-476,547	800,000	-0,058	-0,123
-475,532	627,706	0,087	-0,162
-474,518	-121,531	0,192	-0,023
-473,503	800,000	0,049	-0,127
-472,489	35,047	0,107	-0,068
-471,474	704,201	-0,062	-0,121
-470,459	-200,000	0,020	-0,131
-469,445	-59,863	-0,059	-0,018
-468,430	386,753	-0,037	0,057
-467,416	-200,000	0,081	-0,000
-466,401	-200,000	-0,011	0,063
-465,386	-124,395	0,080	0,009
-464,372	315,294	0,029	0,040
-463,357	648,730	0,056	-0,105
-462,343	150,451	0,052	-0,051
-461,328	113,732	-0,067	-0,060
-460,313	-83,983	0,040	-0,009
-459,299	800,000	0,027	0,066
-458,284	-200,000	-0,017	0,072
-457,270	-12,353	-0,132	0,063
-456,255	-200,000	0,006	-0,226
-455,241	81,384	-0,120	-0,095
-454,226	800,000	-0,028	-0,068
-453,211	-200,000	-0,002	0,059
-452,197	-200,000	0,020	0,082
-451,182	-160,053	0,078	0,003
-450,168	315,039	-0,117	0,161
-449,153	800,000	0,027	-0,058
-448,138	309,733	-0,023	0,032
-447,124	800,000	-0,072	0,216
-446,109	-200,000	0,019	-0,116
-445,095	800,000	-0,040	0,083
-444,080	619,076	0,099	0,183
-443,065	800,000	-0,054	0,137
-442,051	-200,000	0,011	0,165
-441,036	-33,450	-0,031	-0,013
-440,022	-62,980	-0,144	0,043
-439,007	-102,969	0,052	0,009
-437,992	401,544	0,074	0,114
-436,978	-132,113	0,082	0,008
-435,963	-109,295	-0,126	0,019
-434,949	255,469	0,039	-0,050
-433,934	-200,000	0,000	0,057
-432,919	171,945	-0,082	-0,086
-431,905	800,000	0,025	-0,065
-430,890	128,843	0,064	0,060
-429,876	171,325	0,160	-0,168
-428,861	-139,706	0,062	0,005
-427,846	88,614	-0,065	0,053
-426,832	0,809	-0,097	0,051
-425,817	-119,362	-0,157	-0,020
-424,803	-200,000	-0,021	0,143
-423,788	83,927	0,057	0,045
-422,773	129,158	-0,135	0,126
-421,759	-200,000	-0,003	-0,035
-420,744	45,766	-0,054	-0,036
-419,730	-200,000	-0,013	-0,057
-418,715	-102,500	-0,068	-0,012
-417,701	131,478	0,086	-0,081
-416,686	346,434	-0,023	0,034
-415,671	402,312	0,005	0,008
-414,657	800,000	0,038	0,097
-413,642	800,000	-0,029	0,062
-412,628	312,497	-0,093	0,128
-411,613	488,983	-0,061	-0,103
-410,598	-153,677	0,012	-0,001
-409,584	-118,611	0,122	0,016
-408,569	-12,752	0,121	-0,057
-407,555	-200,000	0,029	0,183
-406,540	-74,406	0,074	0,019
-405,525	268,216	0,012	-0,015
-404,511	-200,000	0,005	-0,184
-403,496	-200,000	-0,014	-0,139
-402,482	230,171	-0,050	0,060
-401,467	-200,000	0,048	-0,166
-400,452	193,864	0,034	0,037
-399,438	-58,613	0,129	0,041
-398,423	800,000	0,033	0,077
-397,409	326,140	-0,014	-0,019
-396,394	-200,000	-0,012	-0,097
-395,379	-69,941	-0,116	-0,032
-394,365	346,488	0,081	0,117
-393,350	365,028	-0,038	0,056
-392,336	-200,000	-0,015	-0,051
-391,321	-35,610	-0,174	-0,069
-390,306	-200,000	-0,001	-0,016
-389,292	800,000	-0,043	-0,120
-388,277	800,000	0,030	0,074
-387,263	14,161	0,058	-0,033
-386,248	161,163	0,086	0,088
-385,233	532,880	-0,066	0,115
-384,219	-17,597	-0,026	-0,012
-383,204	800,000	0,082	-0,209
-382,190	414,528	-0,019	-0,029
-381,175	-99,645	0,082	0,015
-380,160	52,330	0,044	-0,031
-379,146	516,019	0,072	0,124
-378,131	695,788	0,033	-0,064
-377,117	634,777	0,036	-0,067
-376,102	-97,858	-0,132	0,025
-375,088	800,000	-0,033	-0,088
-374,073	-92,542	0,074	0,015
-373,058	-200,000	-0,000	0,114
-372,044	436,351	0,105	-0,168
-371,029	-109,424	-0,053	0,008
-370,015	-111,898	-0,081	-0,012
-369,000	-57,166	-0,162	-0,052
-367,985	96,097	-0,041	0,034
-366,971	-200,000	0,005	-0,073
-365,956	284,746	0,069	0,091
-364,942	72,967	-0,064	0,048
-363,927	-72,020	0,199	0,054
-362,912	800,000	0,004	-0,010
-361,898	-107,249	-0,088	0,014
-360,883	-28,114	0,139	0,058
-359,869	800,000	-0,058	0,131
-358,854	427,241	0,057	0,091
-357,839	774,799	0,018	0,036
-356,825	467,534	-0,029	0,048
-355,810	-120,325	-0,009	0,001
-354,796	-200,000	0,004	-0,051
-353,781	800,000	-0,039	0,113
-352,766	-200,000	0,009	0,117
-351,752	63,143	0,114	0,083
-350,737	-200,000	-0,017	-0,089
-349,723	-200,000	0,025	-0,124
-348,708	199,016	0,056	0,063
-347,693	135,187	-0,073	-0,070
-346,679	-123,944	-0,038	-0,004
-345,664	800,000	0,008	0,017
-344,650	800,000	0,037	0,118
-343,635	-60,814	-0,051	0,016
-342,620	299,314	-0,006	-0,009
-341,606	-200,000	0,003	-0,106
-340,591	800,000	-0,021	0,051
-339,577	45,677	-0,104	-0,070
-338,562	720,401	-0,023	-0,045
-337,548	-104,441	0,078	0,013
-336,533	410,704	0,016	0,025
-335,518	208,417	-0,073	0,083
-334,504	133,112	0,035	0,033
-333,489	-129,671	-0,033	-0,003
-332,475	47,543	0,093	-0,063
-331,460	-134,517	0,090	-0,008
-330,445	566,387	0,040	0,071
-329,431	-91,234	0,102	0,021
-328,416	330,911	0,071	0,100
-327,402	280,138	0,029	-0,038
-326,387	145,057	-0,063	0,061
-325,372	-0,352	-0,113	0,058
-324,358	-200,000	0,015	-0,116
-323,343	-200,000	0,005	0,046
-322,329	712,599	0,048	0,094
-321,314	-200,000	0,000	-0,026
-320,299	476,186	-0,054	0,090
-319,285	169,833	-0,073	0,076
-318,270	389,347	-0,021	-0,032
-317,256	13,810	0,086	0,048
-316,241	-90,124	0,049	-0,010
-315,226	785,112	0,047	0,094
-314,212	33,588	0,043	-0,027
-313,197	800,000	-0,037	0,106
-312,183	-66,402	-0,090	-0,026
-311,168	437,619	0,030	0,048
-310,153	-15,461	-0,145	-0,067
-309,139	-0,724	0,097	-0,050
-308,124	50,346	0,061	0,042
-307,110	-164,147	0,034	0,001
-306,095	208,742	-0,059	0,067
-305,080	746,908	0,048	0,096
-304,066	357,077	0,013	0,019
-303,051	-65,943	-0,063	0,018
-302,037	255,067	0,022	0,028
-301,022	429,687	-0,036	-0,057
-300,008	-62,515	0,084	-0,025
-298,993	-133,819	0,076	-0,007
-297,978	-200,000	0,021	0,111
-296,964	-16,620	-0,066	0,030
-295,949	145,046	-0,026	0,025
-294,935	222,490	-0,030	-0,035
-293,920	-171,456	-0,080	0,002
-292,905	-15,879	0,081	-0,037
-291,891	-1,541	-0,098	-0,050
-290,876	257,571	-0,045	-0,057
-289,862	800,000	0,024	-0,052
-288,847	104,372	-0,032	0,028
-287,832	29,238	-0,027	-0,017
-286,818	-200,000	-0,002	-0,035
-285,803	161,639	-0,044	0,045
-284,789	237,391	0,080	0,096
-283,774	734,096	-0,045	0,089
-282,759	-108,570	-0,037	-0,006
-281,745	-200,000	-0,013	-0,092
-280,730	-60,430	-0,093	-0,028
-279,716	-61,006	0,087	0,027
-278,701	520,383	0,045	-0,076
-277,686	83,447	-0,013	0,010
-276,672	159,207	0,101	0,103
-275,657	-4,955	0,057	-0,028
-274,643	800,000	0,042	-0,135
-273,628	269,493	-0,092	-0,118
-272,613	106,441	0,030	-0,026
-271,599	-200,000	-0,001	-0,067
-270,584	-136,513	-0,132	-0,011
-269,570	-200,000	-0,015	0,177
-268,555	-82,422	0,096	-0,022
-267,540	-171,294	-0,048	0,001
-266,526	800,000	-0,040	-0,084
-265,511	800,000	0,009	-0,022
-264,497	800,000	0,033	0,085
-263,482	-200,000	-0,015	0,050
-262,467	800,000	-0,022	-0,056
-261,453	-54,116	0,173	-0,057
-260,438	181,483	-0,040	-0,043
-259,424	-21,964	-0,113	-0,050
-258,409	-200,000	-0,026	-0,087
-257,395	-200,000	0,000	0,090
-256,380	800,000	-0,019	-0,041
-255,365	-13,031	0,124	-0,058
-254,351	5,470	0,107	0,057
-253,336	100,302	0,104	0,088
-252,322	-200,000	0,007	-0,114
-251,307	125,786	0,070	-0,064
-250,292	-200,000	-0,006	0,036
-249,278	-27,929	0,048	-0,020
-248,263	567,180	-0,093	0,164
-247,249	-61,392	0,118	0,036
-246,234	800,000	-0,072	-0,216
-245,219	-200,000	0,001	-0,062
-244,205	289,204	0,075	-0,099
-243,190	156,143	-0,134	-0,134
-242,176	800,000	0,032	0,070
-241,161	800,000	0,059	0,126
-240,146	730,748	0,008	0,016
-239,132	97,824	-0,040	0,033
-238,117	188,859	-0,097	-0,106
-237,103	48,106	-0,015	-0,010
-236,088	-8,846	0,023	-0,011
-235,073	-200,000	-0,025	0,192
-234,059	-104,081	0,074	-0,012
-233,044	-200,000	-0,003	0,063
-232,030	-116,537	0,094	0,012
-231,015	-94,550	-0,046	0,009
-230,000	-200,000	-0,021	0,069
-228,986	-65,653	0,021	0,006
-227,971	-200,000	-0,053	0,218
-226,957	-58,321	0,155	0,049
-225,942	-200,000	-0,021	0,083
-224,927	43,203	-0,099	0,065
-223,913	205,721	0,097	0,109
-222,898	-49,577	-0,094	0,032
-221,884	314,331	0,062	0,085
-220,869	-95,536	0,129	-0,025
-219,855	412,465	0,080	0,124
-218,840	-59,453	0,045	-0,014
-217,825	322,966	-0,031	-0,043
-216,811	-200,000	-0,008	0,036
-215,796	-200,000	0,004	-0,062
-214,782	-200,000	0,027	-0,096
-213,767	25,245	-0,036	0,022
-212,752	800,000	0,035	0,085
-211,738	113,943	0,110	-0,097
-210,723	800,000	-0,019	-0,052
-209,709	-66,926	0,071	0,020
-208,694	-180,158	-0,120	0,002
-207,679	325,113	0,031	0,043
-206,665	-200,000	-0,002	0,016
-205,650	255,352	0,054	-0,067
-204,636	-182,343	0,135	-0,002
-203,621	-200,000	-0,016	0,157
-202,606	800,000	0,018	0,049
-201,592	683,777	-0,042	-0,080
-200,577	240,003	-0,070	0,084
-199,563	269,156	0,070	-0,089
-198,548	119,656	0,085	-0,077
-197,533	493,427	0,036	0,061
-196,519	-68,343	0,093	0,026
-195,504	144,824	-0,090	-0,087
-194,490	-168,294	0,105	0,003
-193,475	75,706	-0,083	-0,064
-192,460	304,448	-0,073	0,098
-191,446	-1,552	-0,016	-0,008
-190,431	100,560	0,080	0,067
-189,417	-37,636	0,049	0,019
-188,402	-200,000	0,001	0,078
-187,387	800,000	-0,017	0,047
-186,373	144,620	0,115	-0,112
-185,358	800,000	-0,033	0,071
-184,344	800,000	0,021	-0,059
-183,329	-200,000	0,005	-0,029
-182,315	249,758	0,106	-0,131
-181,300	-79,236	-0,022	0,005
-180,285	800,000	0,027	0,056
-179,271	-200,000	-0,031	-0,182
-178,256	-111,008	0,033	-0,005
-177,242	168,231	0,088	0,091
-176,227	-200,000	0,007	-0,039
-175,212	6,062	-0,101	0,054
-174,198	-105,044	-0,059	0,010
-173,183	54,974	-0,085	-0,059
-172,169	800,000	0,047	-0,150
-171,154	800,000	-0,020	0,065
-170,139	275,679	0,068	-0,088
-169,125	-29,188	0,098	0,040
-168,110	800,000	0,022	0,046
-167,096	285,231	0,028	0,036
-166,081	199,047	0,051	-0,057
-165,066	15,117	-0,097	-0,055
-164,052	659,906	-0,088	0,166
-163,037	32,728	0,038	-0,024
-162,023	-86,462	0,135	0,030
-161,008	-195,277	-0,049	0,000
-159,993	95,313	-0,041	0,034
-158,979	465,641	-0,065	-0,106
-157,964	-96,951	-0,021	0,004
-156,950	-200,000	-0,012	-0,103
-155,935	179,683	0,025	0,027
-154,920	753,720	0,009	0,017
-153,906	59,218	-0,088	-0,063
-152,891	-68,367	0,110	-0,031
-151,877	406,390	-0,104	-0,159
-150,862	-65,329	-0,081	-0,023
-149,847	-200,000	0,019	0,174
-148,833	-200,000	-0,007	-0,104
-147,818	541,718	-0,065	-0,112
-146,804	41,134	-0,065	0,042
-145,789	800,000	0,005	-0,010
-144,775	-78,208	-0,139	-0,034
-143,760	-200,000	-0,037	0,125
-142,745	-200,000	-0,008	-0,113
-141,731	183,178	0,125	0,134
-140,716	-1,769	-0,026	-0,013
-139,702	-200,000	0,001	0,074
-138,687	800,000	-0,035	0,103
-137,672	-200,000	-0,014	-0,068
-136,658	-40,264	0,025	-0,009
-135,643	-170,491	-0,194	-0,005
-134,629	252,049	0,049	0,061
-133,614	-53,518	0,046	0,015
-132,599	-10,306	-0,045	-0,022
-131,585	-200,000	0,023	0,090
-130,570	-54,003	-0,028	-0,009
-129,556	-48,387	0,137	0,048
-128,541	800,000	-0,022	-0,053
-127,526	40,374	0,038	0,025
-126,512	246,709	-0,080	0,097
-125,497	800,000	0,022	-0,057
-124,483	-200,000	0,002	0,044
-123,468	800,000	0,048	0,102
-122,453	533,895	-0,043	-0,075
-121,439	-200,000	-0,020	-0,099
-120,424	46,015	0,106	-0,071
-119,410	2,825	0,121	0,063
