DTS Sentinel unit serial number:	SN410029Multiplexer serial number:	ORYXHardware model number:	OX2-SRSoftware version number:	ORYX F/W v4,00 Oryx Data Collector v3.7.2.0data status	okinstallation	B3 Nyhavnadifferential loss correction	single-endedforward channel	channel 1reverse channel	N/Adate	2023/11/28time	14:07:30forward acquisition time	300,00reverse acquisition time	0,00gamma	499,1914k internal	0,3140k external	0,3140temperature offset calibration	1,0000default loss term (dB/km)	0,3820temperature slope calibration	1,0000multiplexer offset coefficient	1,0000multiplexer slope coefficient	1,0000fibre end	0,00T internal ref (°C)	7,57T ext. ref 1 (°C)	-7,66T ext. ref 2 (°C)	-7,84length (m)	temperature (°C)	Stokes	anti-Stokes-744,400	698,577	-0,206	-0,403
-743,385	-200,000	-0,032	0,166
-742,371	670,796	-0,063	-0,121
-741,356	800,000	-0,097	0,237
-740,342	463,870	-0,083	-0,139
-739,327	800,000	-0,143	0,295
-738,312	621,414	-0,195	-0,365
-737,298	800,000	-0,092	0,277
-736,283	-200,000	-0,090	-0,374
-735,269	-200,000	-0,002	0,277
-734,254	-200,000	-0,011	-0,205
-733,239	-50,425	-0,276	0,096
-732,225	-200,000	-0,021	-0,247
-731,210	800,000	0,037	0,086
-730,196	436,271	0,012	0,020
-729,181	800,000	0,008	0,023
-728,167	-49,915	0,073	0,025
-727,152	1,789	-0,093	-0,049
-726,137	132,295	-0,069	0,066
-725,123	624,527	-0,049	-0,092
-724,108	-200,000	-0,038	-0,203
-723,094	-85,115	-0,096	0,022
-722,079	201,169	-0,076	-0,086
-721,064	17,820	0,073	0,043
-720,050	406,443	0,031	0,048
-719,035	305,482	-0,016	-0,021
-718,021	800,000	0,033	-0,079
-717,006	407,222	-0,042	-0,066
-715,991	-23,160	-0,091	-0,040
-714,977	702,344	-0,020	-0,039
-713,962	-31,470	-0,136	0,056
-712,948	106,155	0,108	-0,095
-711,933	21,417	-0,089	-0,053
-710,918	-35,089	0,075	-0,030
-709,904	800,000	0,012	0,032
-708,889	-105,467	-0,135	-0,023
-707,875	211,227	-0,046	-0,053
-706,860	-200,000	-0,003	-0,164
-705,845	316,317	0,062	0,087
-704,831	-200,000	0,029	0,171
-703,816	87,776	-0,035	0,028
-702,802	-56,406	-0,024	-0,008
-701,787	65,983	0,025	-0,019
-700,772	-50,956	-0,092	-0,032
-699,758	164,174	-0,041	0,042
-698,743	-178,354	0,076	-0,001
-697,729	-200,000	-0,016	0,083
-696,714	800,000	-0,040	0,126
-695,699	-200,000	0,023	-0,089
-694,685	303,909	-0,050	-0,068
-693,670	-158,246	-0,107	-0,005
-692,656	80,824	0,089	0,071
-691,641	-4,051	0,097	0,049
-690,627	-200,000	0,018	0,076
-689,612	296,938	-0,016	-0,022
-688,597	160,836	-0,056	-0,058
-687,583	125,863	-0,105	-0,099
-686,568	-81,626	0,104	-0,025
-685,554	-44,376	0,079	-0,029
-684,539	49,606	0,055	-0,038
-683,524	180,139	-0,076	0,083
-682,510	-200,000	-0,010	0,048
-681,495	-117,408	-0,162	-0,021
-680,481	-200,000	0,009	-0,087
-679,466	-37,746	-0,008	0,003
-678,451	-56,238	0,120	-0,039
-677,437	33,236	-0,073	-0,046
-676,422	15,082	0,152	0,088
-675,408	800,000	-0,035	0,078
-674,393	30,971	0,061	-0,039
-673,378	-98,152	-0,125	0,024
-672,364	-47,860	-0,066	-0,023
-671,349	-124,187	-0,029	-0,003
-670,335	-129,490	0,025	-0,003
-669,320	138,101	-0,105	0,102
-668,305	-79,142	0,098	-0,024
-667,291	240,617	-0,075	-0,093
-666,276	33,842	-0,040	-0,026
-665,262	-2,227	0,057	0,029
-664,247	77,585	0,030	-0,024
-663,232	-67,324	-0,116	0,034
-662,218	7,620	-0,020	0,011
-661,203	-200,000	-0,037	0,148
-660,189	-65,620	0,073	0,022
-659,174	800,000	-0,028	-0,075
-658,159	-109,088	0,113	0,018
-657,145	-25,443	-0,049	-0,021
-656,130	-92,864	-0,138	0,028
-655,116	-170,314	0,089	0,002
-654,101	105,224	0,125	0,109
-653,086	181,038	0,033	-0,036
-652,072	-200,000	-0,010	0,051
-651,057	163,312	-0,020	-0,021
-650,043	-26,008	-0,021	-0,009
-649,028	662,063	-0,021	0,041
-648,014	66,705	-0,126	-0,095
-646,999	258,350	0,062	-0,079
-645,984	-200,000	-0,013	-0,088
-644,970	14,648	0,019	0,011
-643,955	-200,000	-0,013	0,102
-642,941	5,919	-0,062	0,034
-641,926	101,093	-0,141	-0,121
-640,911	115,529	-0,035	0,032
-639,897	3,458	-0,109	0,058
-638,882	471,722	-0,021	0,035
-637,868	405,050	-0,023	0,036
-636,853	-136,585	-0,133	-0,011
-635,838	229,965	-0,036	0,044
-634,824	-3,253	0,075	0,039
-633,809	-121,534	0,055	0,007
-632,795	-200,000	0,029	0,229
-631,780	-7,441	-0,062	-0,031
-630,765	-200,000	0,006	0,124
-629,751	-108,181	0,100	-0,016
-628,736	429,835	-0,095	-0,152
-627,722	-71,453	-0,084	-0,023
-626,707	15,043	0,079	-0,045
-625,692	111,650	-0,014	0,012
-624,678	309,307	0,046	-0,063
-623,663	331,196	0,022	-0,031
-622,649	384,099	0,064	-0,098
-621,634	800,000	0,013	0,028
-620,619	-200,000	0,001	-0,030
-619,605	-200,000	0,011	-0,045
-618,590	19,398	0,107	-0,063
-617,576	800,000	-0,017	-0,052
-616,561	510,713	0,028	0,048
-615,546	489,357	-0,044	-0,074
-614,532	-1,113	-0,091	-0,047
-613,517	672,874	0,023	-0,045
-612,503	242,565	-0,071	0,088
-611,488	129,450	0,075	-0,071
-610,474	659,080	0,057	-0,109
-609,459	800,000	0,123	-0,288
-608,444	99,372	-0,088	-0,075
-607,430	-200,000	-0,018	-0,062
-606,415	-200,000	0,010	0,000
-605,401	151,179	0,080	-0,080
-604,386	167,870	0,034	-0,036
-603,371	25,775	0,115	-0,071
-602,357	800,000	-0,006	0,019
-601,342	170,820	0,017	0,018
-600,328	36,516	-0,067	-0,044
-599,313	800,000	0,014	0,040
-598,298	69,141	-0,019	0,015
-597,284	143,178	0,035	-0,034
-596,269	-47,236	0,095	0,034
-595,255	150,295	0,024	0,024
-594,240	-59,247	-0,072	0,023
-593,225	-200,000	-0,028	0,099
-592,211	19,577	-0,141	0,083
-591,196	-106,913	0,126	-0,020
-590,182	-132,571	0,140	0,013
-589,167	-200,000	0,016	0,099
-588,152	396,370	0,052	0,081
-587,138	29,762	-0,074	0,046
-586,123	-68,016	0,067	0,019
-585,109	-168,603	-0,090	-0,002
-584,094	800,000	0,052	0,120
-583,079	-200,000	-0,009	-0,051
-582,065	-200,000	0,004	0,037
-581,050	-72,405	0,077	0,021
-580,036	20,851	-0,074	0,044
-579,021	7,469	0,081	-0,045
-578,006	-95,809	-0,094	0,018
-576,992	-101,041	0,028	-0,005
-575,977	38,146	-0,053	0,034
-574,963	-200,000	-0,021	0,120
-573,948	-156,941	0,078	-0,003
-572,934	-77,857	0,052	-0,013
-571,919	800,000	0,034	-0,097
-570,904	-200,000	0,014	-0,101
-569,890	73,812	-0,077	-0,060
-568,875	41,710	-0,037	0,025
-567,861	474,971	0,008	-0,014
-566,846	470,541	-0,047	0,078
-565,831	502,297	-0,024	-0,041
-564,817	352,928	-0,090	-0,132
-563,802	547,485	-0,062	-0,110
-562,788	800,000	0,032	-0,085
-561,773	-200,000	0,021	-0,074
-560,758	143,164	-0,055	-0,054
-559,744	82,317	0,078	-0,062
-558,729	-200,000	0,002	0,027
-557,715	800,000	-0,034	0,081
-556,700	-46,155	-0,122	0,044
-555,685	800,000	0,003	-0,011
-554,671	-77,089	0,079	0,020
-553,656	-200,000	-0,044	0,149
-552,642	-200,000	0,001	0,134
-551,627	-34,217	0,138	0,055
-550,612	197,232	-0,098	0,111
-549,598	9,685	-0,061	0,034
-548,583	-176,952	-0,162	0,003
-547,569	442,051	-0,028	-0,046
-546,554	-200,000	0,003	0,038
-545,539	-71,183	-0,034	0,009
-544,525	-108,446	-0,141	0,022
-543,510	-200,000	0,012	-0,094
-542,496	-200,000	-0,013	-0,080
-541,481	-61,606	0,141	0,043
-540,466	276,942	0,101	-0,132
-539,452	-72,012	0,169	-0,046
-538,437	-108,634	0,137	-0,021
-537,423	800,000	-0,020	-0,051
-536,408	800,000	-0,043	-0,112
-535,393	756,099	0,070	-0,140
-534,379	138,616	0,051	-0,049
-533,364	29,651	-0,067	0,042
-532,350	-70,025	-0,067	-0,019
-531,335	-95,294	0,129	-0,025
-530,321	-39,535	0,183	-0,070
-529,306	108,667	0,014	0,012
-528,291	43,521	-0,052	0,035
-527,277	196,626	-0,103	-0,116
-526,262	23,955	0,082	0,049
-525,248	55,749	0,055	0,039
-524,233	105,175	-0,063	0,054
-523,218	-24,734	0,057	-0,025
-522,204	137,355	-0,085	0,081
-521,189	444,184	0,051	-0,082
-520,175	61,237	-0,107	0,078
-519,160	-59,621	0,137	-0,043
-518,145	-108,143	-0,077	0,012
-517,131	-200,000	-0,001	-0,102
-516,116	128,180	0,135	0,126
-515,102	-44,799	-0,144	0,052
-514,087	-200,000	-0,027	0,099
-513,072	-35,550	-0,097	0,039
-512,058	800,000	-0,022	0,049
-511,043	-200,000	-0,013	0,044
-510,029	-200,000	0,016	-0,077
-509,014	49,394	0,052	0,036
-507,999	318,466	-0,033	0,046
-506,985	93,044	-0,053	-0,044
-505,970	-88,464	-0,107	0,023
-504,956	800,000	-0,016	-0,046
-503,941	280,272	0,090	-0,119
-502,926	181,858	-0,048	0,052
-501,912	-46,426	0,099	-0,036
-500,897	800,000	0,044	0,122
-499,883	-200,000	0,018	-0,065
-498,868	-112,150	-0,089	-0,013
-497,853	800,000	0,003	-0,011
-496,839	72,209	0,020	0,015
-495,824	65,677	0,057	0,043
-494,810	800,000	0,020	0,064
-493,795	-179,410	-0,076	0,001
-492,781	-68,261	-0,114	0,032
-491,766	-69,856	-0,102	0,028
-490,751	-200,000	-0,002	-0,062
-489,737	-87,164	0,138	0,030
-488,722	364,273	0,048	0,071
-487,708	721,132	-0,043	-0,084
-486,693	30,453	0,096	0,060
-485,678	136,583	-0,096	-0,092
-484,664	800,000	0,017	-0,047
-483,649	-200,000	0,004	-0,143
-482,635	208,553	0,094	-0,109
-481,620	131,132	-0,054	0,051
-480,605	45,983	0,107	0,073
-479,591	299,589	0,020	0,026
-478,576	-86,987	0,117	0,026
-477,562	800,000	0,046	-0,125
-476,547	233,160	-0,103	-0,125
-475,532	439,240	0,049	0,078
-474,518	-200,000	-0,014	-0,071
-473,503	-200,000	-0,014	0,089
-472,489	215,679	-0,051	0,060
-471,474	-68,873	0,048	-0,013
-470,459	94,356	0,114	-0,095
-469,445	-115,700	0,038	-0,005
-468,430	139,093	-0,072	0,070
-467,416	317,840	-0,042	0,059
-466,401	-44,942	0,115	0,042
-465,386	-200,000	-0,006	0,195
-464,372	2,704	-0,024	0,013
-463,357	-94,540	0,104	0,021
-462,343	51,946	0,044	-0,031
-461,328	-145,245	-0,146	0,010
-460,313	90,427	0,110	-0,090
-459,299	12,108	0,050	0,028
-458,284	-30,615	-0,187	0,077
-457,270	800,000	-0,027	0,066
-456,255	209,297	-0,033	-0,037
-455,241	-200,000	0,008	-0,149
-454,226	617,640	0,056	-0,103
-453,211	-32,257	-0,109	0,044
-452,197	-200,000	-0,026	0,108
-451,182	-156,515	-0,026	-0,001
-450,168	-38,801	-0,135	-0,052
-449,153	24,377	-0,113	-0,068
-448,138	-87,356	0,053	0,012
-447,124	32,364	-0,083	0,053
-446,109	-200,000	-0,001	0,003
-445,095	565,287	0,008	-0,014
-444,080	-145,904	0,137	0,009
-443,065	428,637	0,032	-0,050
-442,051	800,000	0,058	-0,164
-441,036	392,230	0,072	-0,110
-440,022	-68,680	-0,206	-0,058
-439,007	40,427	-0,106	-0,070
-437,992	481,655	0,007	0,012
-436,978	-1,403	0,151	0,078
-435,963	244,272	0,038	0,046
-434,949	88,906	-0,049	0,040
-433,934	-57,725	-0,103	-0,033
-432,919	-200,000	-0,001	-0,063
-431,905	474,446	0,059	0,097
-430,890	267,492	0,100	0,128
-429,876	800,000	-0,009	0,025
-428,861	-114,125	-0,066	0,009
-427,846	-200,000	-0,032	-0,117
-426,832	117,276	0,087	-0,078
-425,817	583,346	-0,042	-0,076
-424,803	269,053	0,044	0,057
-423,788	800,000	-0,056	0,164
-422,773	-21,454	0,062	-0,028
-421,759	56,589	-0,011	0,008
-420,744	-18,866	0,075	-0,034
-419,730	182,741	0,077	0,083
-418,715	168,942	-0,075	0,078
-417,701	800,000	0,063	0,136
-416,686	-200,000	0,007	0,197
-415,671	-200,000	-0,000	-0,078
-414,657	182,273	-0,082	-0,089
-413,642	354,562	-0,056	0,082
-412,628	-11,812	0,084	0,040
-411,613	185,451	-0,081	-0,089
-410,598	614,307	-0,052	0,096
-409,584	-200,000	-0,010	0,048
-408,569	572,265	-0,045	0,081
-407,555	496,259	-0,021	0,035
-406,540	312,520	0,061	0,084
-405,525	440,437	-0,051	-0,082
-404,511	-87,891	0,058	-0,013
-403,496	26,362	-0,092	-0,056
-402,482	-56,827	0,052	0,017
-401,467	70,687	0,017	-0,013
-400,452	-45,537	0,023	0,008
-399,438	-200,000	0,002	0,103
-398,423	-85,815	0,141	0,032
-397,409	-159,646	-0,106	0,004
-396,394	82,330	-0,059	0,047
-395,379	-184,847	-0,191	0,002
-394,365	-200,000	-0,014	0,047
-393,350	-29,379	0,089	-0,037
-392,336	800,000	-0,015	0,032
-391,321	-200,000	-0,024	-0,092
-390,306	-200,000	0,013	-0,121
-389,292	-77,343	-0,100	-0,025
-388,277	-76,013	0,146	-0,037
-387,263	800,000	0,018	-0,037
-386,248	-39,304	0,040	-0,015
-385,233	-56,828	0,024	0,008
-384,219	-200,000	0,004	0,131
-383,204	-200,000	0,031	0,109
-382,190	800,000	0,040	-0,113
-381,175	-200,000	0,010	-0,094
-380,160	-162,940	0,007	0,000
-379,146	147,765	0,115	0,113
-378,131	-115,749	0,053	-0,007
-377,117	73,654	0,015	0,011
-376,102	19,627	0,082	-0,048
-375,088	-148,591	-0,116	-0,007
-374,073	800,000	-0,025	-0,066
-373,058	161,983	0,141	0,144
-372,044	-200,000	0,008	-0,086
-371,029	141,649	-0,084	0,081
-370,015	21,459	-0,124	0,073
-369,000	-55,923	-0,057	-0,019
-367,985	76,758	0,022	0,017
-366,971	800,000	-0,029	-0,060
-365,956	800,000	0,038	-0,092
-364,942	-24,541	-0,058	-0,025
-363,927	-200,000	0,016	0,152
-362,912	204,278	0,051	-0,057
-361,898	349,135	0,031	0,045
-360,883	800,000	-0,079	-0,181
-359,869	162,821	-0,016	-0,016
-358,854	-200,000	-0,026	0,229
-357,839	18,086	0,086	-0,050
-356,825	-130,456	0,113	0,011
-355,810	-63,020	0,075	0,023
-354,796	-200,000	-0,014	-0,083
-353,781	45,601	-0,083	0,056
-352,766	360,089	-0,016	-0,023
-351,752	-200,000	0,056	-0,190
-350,737	-84,268	0,103	-0,024
-349,723	538,445	0,032	-0,056
-348,708	52,624	0,043	0,030
-347,693	-200,000	0,004	-0,032
-346,679	800,000	-0,055	-0,159
-345,664	766,509	0,087	-0,174
-344,650	-82,698	-0,082	0,019
-343,635	-200,000	-0,053	-0,177
-342,620	-200,000	0,033	-0,168
-341,606	-200,000	0,024	-0,114
-340,591	800,000	0,035	-0,072
-339,577	-15,950	0,051	-0,024
-338,562	113,906	-0,093	-0,083
-337,548	194,306	0,005	-0,005
-336,533	-37,719	-0,047	-0,018
-335,518	168,909	-0,042	0,044
-334,504	-135,082	0,150	-0,013
-333,489	179,490	0,020	-0,022
-332,475	-44,829	-0,156	-0,056
-331,460	-200,000	0,015	0,100
-330,445	160,136	0,078	0,079
-329,431	169,161	0,135	0,141
-328,416	136,233	0,101	0,096
-327,402	354,780	0,151	0,219
-326,387	-11,637	0,132	-0,063
-325,372	250,452	-0,122	-0,152
-324,358	800,000	-0,041	-0,114
-323,343	-25,597	0,046	-0,020
-322,329	-200,000	-0,015	0,142
-321,314	87,746	0,101	-0,082
-320,299	800,000	0,050	-0,141
-319,285	331,268	0,032	0,046
-318,270	-98,069	0,092	-0,017
-317,256	-200,000	0,043	-0,189
-316,241	370,954	0,028	0,042
-315,226	-82,115	0,076	0,018
-314,212	800,000	0,037	-0,075
-313,197	-200,000	-0,026	-0,102
-312,183	-200,000	-0,000	-0,179
-311,168	-92,312	0,050	-0,010
-310,153	360,262	-0,094	-0,138
-309,139	-144,176	0,132	-0,009
-308,124	50,184	-0,086	0,059
-307,110	-42,222	0,118	0,044
-306,095	182,211	0,113	0,122
-305,080	109,835	0,117	-0,103
-304,066	61,009	0,036	0,026
-303,051	99,053	0,023	0,019
-302,037	-200,000	0,008	0,035
-301,022	800,000	-0,017	0,042
-300,008	-200,000	0,022	0,089
-298,993	504,633	0,030	0,050
-297,978	59,851	-0,093	0,067
-296,964	577,338	0,018	0,032
-295,949	-10,549	0,065	-0,031
-294,935	125,021	-0,040	-0,037
-293,920	-29,272	0,074	-0,031
-292,905	-44,052	-0,112	0,041
-291,891	266,842	0,031	0,039
-290,876	-200,000	-0,007	0,041
-289,862	127,128	-0,124	0,115
-288,847	-51,514	-0,115	0,039
-287,832	2,755	-0,094	-0,049
-286,818	100,954	-0,067	0,057
-285,803	46,188	0,023	-0,015
-284,789	-35,163	-0,044	-0,017
-283,774	800,000	-0,073	0,190
-282,759	27,090	-0,076	-0,046
-281,745	128,846	0,097	0,090
-280,730	-2,100	-0,227	-0,116
-279,716	292,719	0,014	0,019
-278,701	107,964	-0,053	-0,046
-277,686	349,094	-0,091	0,132
-276,672	-200,000	0,004	-0,047
-275,657	-200,000	0,005	-0,019
-274,643	-200,000	-0,007	-0,080
-273,628	122,892	-0,104	-0,095
-272,613	-200,000	0,014	-0,049
-271,599	23,768	-0,115	0,069
-270,584	800,000	0,041	0,105
-269,570	-200,000	-0,008	0,065
-268,555	242,246	-0,118	0,145
-267,540	628,413	-0,039	-0,072
-266,526	-200,000	-0,008	-0,040
-265,511	106,348	-0,136	0,117
-264,497	-121,135	-0,133	-0,016
-263,482	-19,951	0,144	0,064
-262,467	494,190	-0,054	-0,091
-261,453	624,087	0,032	-0,059
-260,438	-134,830	-0,083	0,007
-259,424	112,359	0,041	-0,036
-258,409	-48,344	0,037	0,013
-257,395	800,000	-0,025	-0,075
-256,380	120,404	0,106	0,096
-255,365	-200,000	0,029	0,222
-254,351	283,755	0,033	0,043
-253,336	721,596	-0,020	0,039
-252,322	800,000	0,051	0,134
-251,307	-69,393	-0,123	-0,034
-250,292	163,770	0,055	0,056
-249,278	159,958	0,176	0,178
-248,263	-82,298	0,155	0,036
-247,249	-50,373	0,007	-0,002
-246,234	800,000	-0,031	0,066
-245,219	-200,000	-0,002	0,031
-244,205	83,061	-0,033	0,026
-243,190	-121,661	0,136	0,016
-242,176	-34,643	0,070	-0,028
-241,161	-200,000	0,009	0,040
-240,146	351,405	-0,061	0,088
-239,132	411,033	-0,080	-0,124
-238,117	127,363	-0,055	-0,051
-237,103	282,369	0,069	-0,090
-236,088	800,000	-0,019	0,044
-235,073	-61,979	0,119	-0,036
-234,059	354,056	-0,091	0,131
-233,044	45,057	0,096	0,064
-232,030	151,904	-0,112	0,111
-231,015	103,268	-0,087	-0,074
-230,000	28,816	-0,151	-0,093
-228,986	-200,000	0,015	0,125
-227,971	-145,516	0,054	-0,003
-226,957	158,926	-0,034	-0,035
-225,942	-200,000	0,011	-0,094
-224,927	307,630	0,054	-0,073
-223,913	164,219	0,032	0,033
-222,898	98,136	-0,116	-0,097
-221,884	-200,000	0,017	-0,069
-220,869	385,855	0,108	0,163
-219,855	-148,218	-0,049	-0,003
-218,840	-112,770	-0,033	0,005
-217,825	15,613	0,046	0,026
-216,811	800,000	0,065	-0,169
-215,796	187,457	0,046	-0,050
-214,782	-5,567	-0,113	0,056
-213,767	377,975	0,048	0,072
-212,752	26,389	0,051	0,031
-211,738	2,681	0,074	-0,039
-210,723	-200,000	-0,015	0,178
-209,709	166,831	-0,063	0,065
-208,694	38,632	-0,140	-0,090
-207,679	-121,827	-0,111	0,013
-206,665	-25,525	0,166	0,071
-205,650	509,060	-0,066	-0,111
-204,636	-200,000	-0,015	0,085
-203,621	-200,000	0,008	-0,107
-202,606	-0,691	-0,097	-0,050
-201,592	-200,000	-0,036	0,125
-200,577	515,721	0,047	-0,081
-199,563	-200,000	-0,021	0,134
-198,548	-200,000	-0,012	-0,041
-197,533	-200,000	0,015	-0,068
-196,519	800,000	0,031	-0,091
-195,504	-179,587	-0,127	0,002
-194,490	800,000	0,051	-0,145
-193,475	-200,000	-0,013	0,092
-192,460	21,511	-0,026	0,016
-191,446	800,000	0,060	-0,136
-190,431	101,170	0,024	0,021
-189,417	-200,000	-0,001	-0,008
-188,402	-58,521	-0,016	-0,005
-187,387	-200,000	-0,030	0,129
-186,373	-86,031	-0,058	-0,013
-185,358	-168,759	0,056	-0,001
-184,344	652,921	-0,007	-0,013
-183,329	-40,535	-0,083	0,031
-182,315	38,733	0,110	-0,071
-181,300	577,225	-0,010	0,018
-180,285	107,389	-0,059	0,051
-179,271	138,260	0,089	-0,085
-178,256	800,000	-0,036	0,081
-177,242	-200,000	-0,003	0,127
-176,227	-67,422	0,120	0,034
-175,212	108,384	-0,128	0,111
-174,198	59,586	-0,087	0,062
-173,183	686,959	-0,020	0,038
-172,169	800,000	-0,059	-0,148
-171,154	194,944	-0,039	-0,043
-170,139	-116,492	0,060	0,008
-169,125	-200,000	0,007	0,078
-168,110	-200,000	-0,001	0,095
-167,096	-96,606	0,044	-0,008
-166,081	-200,000	-0,005	-0,085
-165,066	5,934	0,018	0,009
-164,052	-172,375	-0,158	0,004
-163,037	54,796	-0,102	0,071
-162,023	229,727	0,089	0,105
-161,008	-109,520	0,109	0,016
-159,993	-200,000	-0,007	0,062
-158,979	-200,000	0,026	-0,112
-157,964	-12,643	-0,105	0,049
-156,950	86,151	-0,073	-0,058
-155,935	255,153	0,055	0,069
-154,920	-134,660	0,059	-0,005
-153,906	-200,000	0,012	-0,088
-152,891	143,977	-0,106	0,103
-151,877	-200,000	0,004	0,093
-150,862	56,686	0,069	-0,049
-149,847	800,000	0,032	-0,097
-148,833	2,726	0,225	0,118
-147,818	106,790	0,094	0,081
-146,804	41,326	0,051	0,034
-145,789	144,617	-0,070	-0,068
-144,775	-55,055	-0,085	-0,027
-143,760	95,859	0,111	-0,092
-142,745	-97,519	-0,154	0,029
-141,731	6,594	0,091	0,049
-140,716	-71,639	0,105	-0,028
-139,702	69,158	-0,133	-0,099
-138,687	2,399	0,096	-0,050
-137,672	-9,780	-0,136	0,065
-136,658	222,297	0,080	-0,094
-135,643	5,768	0,078	-0,041
-134,629	642,098	-0,037	0,068
-133,614	-200,000	-0,016	0,065
-132,599	-12,205	-0,106	-0,050
-131,585	-200,000	0,015	-0,062
-130,570	-161,310	-0,203	0,007
-129,556	462,663	-0,047	-0,076
-128,541	800,000	-0,061	-0,160
-127,526	-200,000	-0,012	-0,066
-126,512	-34,399	0,093	0,037
-125,497	-92,501	-0,049	0,010
-124,483	30,483	0,107	0,066
-123,468	7,272	-0,101	0,054
-122,453	-2,660	-0,066	-0,033
-121,439	102,920	-0,089	0,075
-120,424	-200,000	0,010	-0,096
-119,410	-72,705	0,151	-0,040
-118,395	152,915	-0,115	0,114
-117,380	670,852	0,029	0,055
