DTS Sentinel unit serial number:	SN410029Multiplexer serial number:	ORYXHardware model number:	OX2-SRSoftware version number:	ORYX F/W v4,00 Oryx Data Collector v3.7.2.0data status	okinstallation	B3 Nyhavnadifferential loss correction	single-endedforward channel	channel 1reverse channel	N/Adate	2023/11/28time	15:52:30forward acquisition time	300,00reverse acquisition time	0,00gamma	499,1914k internal	0,3200k external	0,3200temperature offset calibration	1,0000default loss term (dB/km)	0,3820temperature slope calibration	1,0000multiplexer offset coefficient	1,0000multiplexer slope coefficient	1,0000fibre end	0,00T internal ref (°C)	7,27T ext. ref 1 (°C)	-7,62T ext. ref 2 (°C)	-7,78length (m)	temperature (°C)	Stokes	anti-Stokes-744,400	63,531	-0,253	-0,184
-743,385	800,000	-0,050	0,157
-742,371	299,597	-0,180	-0,241
-741,356	-200,000	-0,048	0,322
-740,342	-4,949	-0,230	-0,115
-739,327	-200,000	-0,006	0,179
-738,312	360,080	-0,189	-0,275
-737,298	-42,456	-0,204	0,075
-736,283	118,917	-0,142	-0,128
-735,269	-200,000	-0,007	0,300
-734,254	-43,709	-0,272	-0,099
-733,239	454,248	-0,103	0,166
-732,225	-200,000	-0,015	-0,144
-731,210	160,995	0,141	0,143
-730,196	548,366	-0,034	0,060
-729,181	-200,000	0,008	-0,074
-728,167	169,361	-0,046	-0,048
-727,152	-200,000	-0,008	-0,079
-726,137	-200,000	-0,005	-0,071
-725,123	-200,000	-0,041	-0,227
-724,108	-19,548	-0,095	-0,043
-723,094	-200,000	0,112	-0,000
-722,079	415,120	-0,085	-0,132
-721,064	193,085	-0,090	0,099
-720,050	-200,000	0,024	0,081
-719,035	82,211	-0,044	0,034
-718,021	558,677	-0,090	-0,158
-717,006	800,000	-0,056	-0,140
-715,991	-21,672	-0,197	-0,087
-714,977	-2,622	0,099	-0,050
-713,962	-200,000	-0,007	-0,134
-712,948	-200,000	-0,022	0,076
-711,933	-123,536	0,019	0,002
-710,918	800,000	0,024	-0,055
-709,904	72,749	-0,105	-0,079
-708,889	255,091	0,089	-0,111
-707,875	-143,713	-0,046	0,003
-706,860	-61,545	0,153	0,046
-705,845	140,592	-0,124	-0,119
-704,831	-200,000	-0,023	0,132
-703,816	19,895	0,016	-0,010
-702,802	-115,764	-0,157	0,021
-701,787	-200,000	0,004	-0,085
-700,772	14,687	0,125	0,071
-699,758	-200,000	0,004	-0,026
-698,743	74,081	-0,081	-0,062
-697,729	800,000	-0,009	0,020
-696,714	-34,076	0,067	0,027
-695,699	-200,000	-0,010	0,075
-694,685	199,035	0,062	-0,069
-693,670	-118,222	-0,183	-0,023
-692,656	-200,000	-0,001	0,039
-691,641	800,000	0,033	0,073
-690,627	-96,679	-0,102	0,019
-689,612	-200,000	-0,002	-0,081
-688,597	-200,000	0,008	-0,054
-687,583	-200,000	-0,002	-0,197
-686,568	-200,000	0,016	-0,102
-685,554	-179,801	-0,125	0,002
-684,539	158,372	-0,046	-0,046
-683,524	181,919	-0,016	-0,018
-682,510	19,714	-0,044	-0,025
-681,495	800,000	0,022	-0,053
-680,481	142,074	-0,072	-0,069
-679,466	-22,264	-0,176	-0,077
-678,451	800,000	0,008	0,026
-677,437	-89,894	-0,070	-0,015
-676,422	-200,000	0,005	-0,047
-675,408	457,249	0,071	0,115
-674,393	182,302	-0,059	-0,063
-673,378	220,615	-0,055	0,065
-672,364	636,467	-0,057	-0,105
-671,349	417,609	0,007	-0,010
-670,335	24,814	-0,063	-0,038
-669,320	-141,932	0,043	-0,003
-668,305	-93,691	-0,147	0,029
-667,291	160,536	-0,089	-0,091
-666,276	800,000	-0,078	-0,202
-665,262	-22,984	-0,149	-0,065
-664,247	559,568	-0,090	-0,159
-663,232	-200,000	0,008	0,037
-662,218	-200,000	-0,003	0,096
-661,203	53,845	-0,054	0,038
-660,189	-9,347	-0,050	-0,024
-659,174	-78,129	-0,124	-0,031
-658,159	139,596	-0,086	-0,082
-657,145	438,457	-0,042	0,067
-656,130	-83,492	0,168	0,039
-655,116	800,000	-0,050	0,102
-654,101	-55,555	0,047	-0,015
-653,086	-29,822	0,119	0,049
-652,072	88,151	-0,112	0,090
-651,057	-93,865	-0,167	-0,033
-650,043	-200,000	0,044	-0,169
-649,028	715,747	-0,055	-0,107
-648,014	385,601	-0,030	0,046
-646,999	276,875	-0,081	-0,105
-645,984	-107,673	-0,053	-0,008
-644,970	-42,502	-0,051	0,019
-643,955	9,822	-0,046	-0,025
-642,941	97,043	0,110	-0,092
-641,926	254,132	0,030	0,038
-640,911	529,852	0,048	-0,082
-639,897	235,201	-0,081	-0,097
-638,882	-53,296	-0,090	-0,030
-637,868	-200,000	-0,005	-0,037
-636,853	355,840	-0,060	-0,086
-635,838	800,000	0,042	-0,095
-634,824	800,000	-0,029	-0,078
-633,809	-200,000	0,008	0,032
-632,795	-200,000	-0,013	0,155
-631,780	134,932	0,031	-0,029
-630,765	14,704	-0,141	0,080
-629,751	31,260	-0,169	0,105
-628,736	-141,384	-0,084	-0,006
-627,722	-200,000	-0,017	0,140
-626,707	102,077	-0,046	-0,039
-625,692	-152,639	0,091	-0,005
-624,678	800,000	0,045	0,132
-623,663	-200,000	-0,003	0,037
-622,649	-129,257	-0,171	0,017
-621,634	-200,000	-0,003	-0,119
-620,619	131,807	-0,035	0,032
-619,605	-80,305	-0,007	0,002
-618,590	-184,455	0,053	0,001
-617,576	-150,314	-0,052	-0,003
-616,561	73,839	0,216	0,163
-615,546	39,827	-0,102	0,066
-614,532	800,000	-0,048	-0,146
-613,517	-200,000	0,020	-0,093
-612,503	130,906	-0,046	-0,043
-611,488	90,951	-0,066	0,053
-610,474	-0,260	0,060	-0,031
-609,459	-20,412	0,045	-0,020
-608,444	160,888	-0,053	-0,054
-607,430	-200,000	-0,005	-0,175
-606,415	269,894	-0,046	-0,059
-605,401	623,709	0,022	-0,041
-604,386	272,520	0,087	-0,112
-603,371	800,000	-0,033	-0,087
-602,357	7,548	0,026	0,014
-601,342	234,706	-0,090	0,107
-600,328	68,913	-0,027	-0,020
-599,313	-200,000	0,006	-0,099
-598,298	326,012	-0,026	0,037
-597,284	-200,000	-0,018	0,150
-596,269	160,780	-0,077	-0,078
-595,255	-200,000	-0,000	-0,058
-594,240	-11,576	-0,088	-0,042
-593,225	-200,000	-0,010	-0,061
-592,211	-9,760	0,007	-0,003
-591,196	356,921	0,055	0,079
-590,182	360,459	0,025	-0,036
-589,167	67,885	0,105	0,078
-588,152	-200,000	0,010	0,064
-587,138	-27,859	0,008	0,003
-586,123	-200,000	0,016	-0,066
-585,109	187,398	0,040	0,043
-584,094	-93,985	-0,202	-0,040
-583,079	454,609	0,051	0,082
-582,065	426,516	-0,095	0,149
-581,050	-200,000	-0,007	-0,034
-580,036	29,236	0,036	-0,022
-579,021	-43,442	-0,112	0,041
-578,006	-3,691	-0,074	0,037
-576,992	663,260	0,065	-0,122
-575,977	-115,244	0,132	0,018
-574,963	-200,000	0,007	0,072
-573,948	-200,000	-0,013	0,098
-572,934	-200,000	0,004	0,091
-571,919	800,000	-0,032	0,099
-570,904	800,000	-0,007	-0,021
-569,890	-33,825	-0,069	0,027
-568,875	-68,431	0,033	0,009
-567,861	-20,318	0,057	0,025
-566,846	563,210	-0,074	0,129
-565,831	-95,352	0,083	0,016
-564,817	-149,530	-0,172	-0,010
-563,802	-188,575	-0,079	-0,001
-562,788	800,000	-0,077	0,165
-561,773	282,652	-0,046	-0,059
-560,758	-200,000	0,000	0,022
-559,744	714,397	-0,050	0,097
-558,729	-200,000	0,002	0,081
-557,715	-200,000	-0,011	-0,072
-556,700	32,838	-0,135	-0,084
-555,685	-200,000	-0,008	-0,084
-554,671	-200,000	-0,014	0,199
-553,656	-3,136	0,096	-0,048
-552,642	-200,000	-0,026	0,148
-551,627	-200,000	-0,003	0,101
-550,612	-200,000	0,001	0,017
-549,598	796,367	0,025	-0,050
-548,583	-105,251	-0,028	-0,005
-547,569	-29,026	0,131	0,054
-546,554	55,682	0,162	-0,113
-545,539	-18,789	0,114	-0,051
-544,525	106,383	0,120	-0,103
-543,510	-200,000	0,021	0,073
-542,496	-91,922	-0,036	-0,007
-541,481	800,000	-0,061	-0,178
-540,466	-18,637	-0,051	-0,023
-539,452	451,807	0,060	-0,095
-538,437	162,424	0,057	0,057
-537,423	800,000	-0,008	0,018
-536,408	800,000	0,003	-0,009
-535,393	-200,000	-0,006	-0,035
-534,379	47,222	-0,110	-0,074
-533,364	215,704	0,044	-0,050
-532,350	-102,859	0,022	-0,004
-531,335	111,083	0,074	0,064
-530,321	-200,000	0,003	0,063
-529,306	-14,793	-0,051	0,023
-528,291	-200,000	-0,020	-0,081
-527,277	23,228	-0,091	0,054
-526,262	403,880	0,101	-0,155
-525,248	78,847	0,018	-0,014
-524,233	-200,000	0,013	0,058
-523,218	-50,880	0,095	-0,032
-522,204	-200,000	-0,008	-0,040
-521,189	-200,000	-0,007	0,098
-520,175	150,582	0,066	-0,065
-519,160	183,318	-0,076	0,081
-518,145	-77,926	0,146	0,036
-517,131	-24,427	0,049	0,021
-516,116	-42,610	0,127	-0,046
-515,102	-200,000	-0,017	-0,064
-514,087	477,659	-0,071	-0,116
-513,072	-200,000	-0,003	-0,026
-512,058	-110,360	0,037	0,006
-511,043	74,303	-0,047	-0,035
-510,029	-200,000	0,025	0,108
-509,014	800,000	0,064	0,147
-507,999	-200,000	-0,008	-0,126
-506,985	82,242	-0,045	-0,035
-505,970	800,000	0,031	-0,090
-504,956	379,651	0,029	-0,044
-503,941	127,032	0,086	0,078
-502,926	100,587	-0,104	0,087
-501,912	52,310	0,108	0,074
-500,897	-200,000	0,011	0,058
-499,883	102,196	-0,065	-0,054
-498,868	800,000	-0,013	-0,038
-497,853	-35,920	0,111	0,043
-496,839	-108,383	0,084	0,013
-495,824	568,905	-0,060	0,106
-494,810	110,741	-0,052	0,045
-493,795	-200,000	0,006	-0,031
-492,781	615,578	0,055	-0,100
-491,766	156,063	-0,084	-0,084
-490,751	-200,000	-0,005	-0,100
-489,737	800,000	0,019	0,047
-488,722	-94,267	0,052	-0,010
-487,708	125,462	0,077	0,070
-486,693	44,594	0,096	-0,064
-485,678	-146,235	-0,159	-0,010
-484,664	91,522	0,020	0,016
-483,649	316,595	-0,105	0,144
-482,635	800,000	-0,024	-0,075
-481,620	-200,000	-0,030	0,153
-480,605	23,073	0,071	0,042
-479,591	-200,000	0,003	0,120
-478,576	501,166	0,032	-0,054
-477,562	-200,000	-0,015	-0,106
-476,547	800,000	0,035	0,074
-475,532	21,302	0,053	0,031
-474,518	800,000	-0,017	0,051
-473,503	55,122	0,116	0,080
-472,489	62,475	0,060	0,043
-471,474	2,130	0,065	0,034
-470,459	-99,791	-0,106	0,019
-469,445	-200,000	-0,016	-0,116
-468,430	65,726	0,081	0,059
-467,416	-200,000	0,056	0,210
-466,401	-128,227	0,040	0,004
-465,386	-200,000	-0,015	0,055
-464,372	212,717	-0,064	-0,073
-463,357	-200,000	-0,012	-0,071
-462,343	800,000	0,028	-0,086
-461,328	-200,000	0,019	-0,117
-460,313	614,750	-0,070	-0,127
-459,299	120,241	-0,041	-0,037
-458,284	755,968	0,061	0,118
-457,270	307,063	0,018	-0,024
-456,255	-56,202	0,166	0,053
-455,241	-200,000	-0,151	-0,000
-454,226	128,423	-0,057	-0,052
-453,211	-200,000	0,025	0,094
-452,197	-24,928	-0,050	-0,021
-451,182	-200,000	0,042	0,245
-450,168	125,778	-0,096	-0,087
-449,153	142,909	-0,118	-0,113
-448,138	800,000	-0,024	0,058
-447,124	-200,000	-0,032	-0,164
-446,109	731,991	0,039	-0,075
-445,095	139,917	0,050	-0,047
-444,080	65,212	0,057	0,041
-443,065	29,599	0,126	-0,077
-442,051	-157,217	-0,188	0,008
-441,036	263,593	-0,045	-0,057
-440,022	-114,655	0,072	-0,010
-439,007	152,067	0,047	0,046
-437,992	-200,000	-0,017	0,070
-436,978	73,747	0,098	0,074
-435,963	-152,860	0,094	-0,005
-434,949	800,000	-0,005	-0,011
-433,934	31,736	-0,079	-0,049
-432,919	-152,485	-0,061	-0,003
-431,905	337,317	-0,069	-0,097
-430,890	-200,000	-0,036	0,147
-429,876	-200,000	0,001	-0,055
-428,861	16,658	0,190	-0,108
-427,846	-200,000	-0,016	0,063
-426,832	-200,000	0,007	0,057
-425,817	456,852	0,051	-0,081
-424,803	236,459	-0,045	-0,054
-423,788	50,401	0,153	0,104
-422,773	800,000	0,023	0,071
-421,759	800,000	-0,048	0,113
-420,744	372,081	-0,040	0,058
-419,730	102,465	-0,114	0,096
-418,715	28,642	-0,043	-0,026
-417,701	62,248	0,079	0,056
-416,686	745,296	-0,030	0,059
-415,671	611,612	0,074	0,134
-414,657	-24,728	-0,142	0,060
-413,642	-200,000	0,003	-0,124
-412,628	259,845	0,047	0,059
-411,613	527,988	-0,054	-0,092
-410,598	199,555	-0,054	-0,059
-409,584	-200,000	0,018	0,177
-408,569	-200,000	-0,010	0,097
-407,555	-121,942	0,027	-0,003
-406,540	174,791	0,048	-0,050
-405,525	154,809	-0,076	0,075
-404,511	800,000	-0,084	0,174
-403,496	183,608	-0,039	-0,042
-402,482	12,806	-0,030	-0,017
-401,467	-200,000	0,014	0,197
-400,452	65,544	0,067	-0,048
-399,438	372,009	-0,027	-0,040
-398,423	-200,000	-0,004	0,080
-397,409	-200,000	-0,008	-0,090
-396,394	800,000	0,020	-0,047
-395,379	-12,733	-0,139	0,065
-394,365	-200,000	0,012	0,109
-393,350	-25,906	-0,089	0,037
-392,336	181,717	0,077	0,081
-391,321	-143,667	-0,151	0,010
-390,306	2,853	-0,093	-0,048
-389,292	-125,095	-0,080	0,009
-388,277	-109,172	-0,249	0,038
-387,263	110,240	-0,034	0,030
-386,248	800,000	0,051	-0,105
-385,233	-93,196	0,117	-0,023
-384,219	220,777	0,073	0,084
-383,204	-10,823	-0,075	0,035
-382,190	277,066	-0,071	-0,090
-381,175	227,202	-0,061	0,071
-380,160	800,000	0,057	0,144
-379,146	-200,000	0,030	-0,160
-378,131	-104,666	0,142	-0,023
-377,117	-200,000	0,010	-0,051
-376,102	-115,117	-0,065	0,009
-375,088	8,107	-0,137	-0,074
-374,073	-200,000	0,008	-0,088
-373,058	800,000	0,028	-0,083
-372,044	-200,000	-0,028	-0,133
-371,029	1,097	0,040	-0,020
-370,015	800,000	-0,018	-0,039
-369,000	402,209	0,032	-0,048
-367,985	-200,000	0,012	0,040
-366,971	134,187	0,055	-0,051
-365,956	-200,000	0,013	-0,095
-364,942	-27,982	-0,021	0,009
-363,927	-200,000	0,002	0,127
-362,912	61,070	0,063	0,044
-361,898	577,442	0,101	-0,178
-360,883	10,600	-0,068	0,037
-359,869	-112,473	0,161	-0,023
-358,854	-101,034	-0,089	-0,015
-357,839	406,598	-0,021	0,031
-356,825	-200,000	0,009	0,097
-355,810	730,477	0,027	0,052
-354,796	138,351	-0,055	-0,052
-353,781	287,578	-0,080	-0,104
-352,766	-200,000	0,003	-0,015
-351,752	-34,813	-0,110	-0,043
-350,737	116,710	0,032	-0,028
-349,723	-81,446	0,017	-0,004
-348,708	-200,000	0,000	-0,010
-347,693	800,000	-0,052	0,127
-346,679	-46,559	-0,039	-0,014
-345,664	-73,155	-0,115	0,030
-344,650	121,253	0,071	0,063
-343,635	98,417	-0,035	0,029
-342,620	-9,377	0,106	0,050
-341,606	27,216	0,121	-0,072
-340,591	-129,937	0,168	-0,016
-339,577	163,922	-0,076	-0,077
-338,562	800,000	0,047	-0,128
-337,548	94,042	-0,033	-0,026
-336,533	669,760	-0,104	-0,193
-335,518	-111,692	0,111	0,016
-334,504	-31,394	0,063	0,025
-333,489	-200,000	0,000	0,015
-332,475	-176,219	0,104	0,002
-331,460	-119,468	-0,133	0,016
-330,445	-146,737	-0,073	-0,004
-329,431	146,585	-0,045	0,044
-328,416	9,358	0,049	0,026
-327,402	-200,000	0,013	-0,188
-326,387	-82,535	0,061	0,014
-325,372	-200,000	-0,006	-0,084
-324,358	-110,559	0,037	-0,005
-323,343	-200,000	-0,002	-0,045
-322,329	12,625	0,097	0,053
-321,314	-124,978	0,092	0,010
-320,299	28,544	0,080	0,048
-319,285	538,911	-0,031	0,053
-318,270	420,740	-0,057	-0,088
-317,256	-170,813	-0,105	0,003
-316,241	-200,000	-0,003	0,096
-315,226	-28,216	0,037	-0,015
-314,212	256,807	0,098	0,121
-313,197	303,636	-0,038	-0,051
-312,183	234,138	0,075	-0,089
-311,168	88,001	0,032	-0,025
-310,153	-200,000	-0,002	-0,204
-309,139	426,743	0,020	-0,030
-308,124	-200,000	0,005	-0,046
-307,110	800,000	0,047	-0,100
-306,095	800,000	-0,012	0,025
-305,080	-76,419	0,078	0,020
-304,066	-69,917	0,082	0,022
-303,051	59,717	-0,104	-0,074
-302,037	-12,359	0,064	-0,030
-301,022	-67,499	0,062	0,017
-300,008	257,269	-0,064	0,079
-298,993	-132,986	0,078	-0,007
-297,978	-200,000	-0,011	-0,103
-296,964	117,780	0,075	-0,066
-295,949	-24,001	-0,102	-0,043
-294,935	105,924	0,032	-0,027
-293,920	369,597	-0,028	0,040
-292,905	-100,250	0,096	-0,017
-291,891	409,237	0,054	0,082
-290,876	450,259	-0,025	0,040
-289,862	356,535	-0,070	-0,100
-288,847	29,563	-0,182	-0,111
-287,832	-200,000	0,014	-0,064
-286,818	6,803	0,125	-0,066
-285,803	-200,000	0,009	0,077
-284,789	-56,392	0,043	0,014
-283,774	84,063	0,056	-0,044
-282,759	-200,000	-0,004	0,081
-281,745	800,000	-0,060	-0,124
-280,730	211,890	0,062	0,070
-279,716	-48,390	0,100	-0,034
-278,701	752,357	-0,021	-0,041
-277,686	253,041	-0,005	-0,006
-276,672	-103,941	0,101	-0,017
-275,657	42,338	-0,097	-0,063
-274,643	-128,254	-0,068	0,007
-273,628	0,718	-0,080	-0,041
-272,613	137,730	-0,080	-0,075
-271,599	-130,738	0,067	0,006
-270,584	-122,649	0,170	-0,019
-269,570	18,521	0,111	0,063
-268,555	68,935	-0,130	-0,096
-267,540	37,537	-0,148	0,093
-266,526	-69,128	-0,084	-0,023
-265,511	-40,146	-0,094	0,035
-264,497	-14,651	0,167	0,076
-263,482	353,366	0,127	0,181
-262,467	634,009	0,104	0,190
-261,453	57,638	0,079	-0,055
-260,438	425,621	-0,081	-0,125
-259,424	460,241	-0,091	-0,145
-258,409	204,205	0,038	-0,042
-257,395	-200,000	-0,004	0,077
-256,380	118,168	-0,055	0,048
-255,365	-31,413	-0,034	-0,014
-254,351	33,768	-0,046	-0,029
-253,336	-200,000	0,009	-0,076
-252,322	-200,000	-0,012	-0,063
-251,307	27,701	-0,072	0,043
-250,292	-200,000	0,058	-0,214
-249,278	-200,000	-0,009	-0,179
-248,263	23,950	0,100	-0,058
-247,249	-200,000	0,001	0,092
-246,234	-68,539	0,147	0,040
-245,219	349,600	-0,033	-0,047
-244,205	-200,000	0,001	-0,071
-243,190	-200,000	-0,003	0,011
-242,176	62,602	0,199	0,142
-241,161	-132,330	-0,061	-0,006
-240,146	215,224	0,088	0,100
-239,132	-200,000	-0,008	0,084
-238,117	-200,000	0,011	-0,048
-237,103	-200,000	0,000	-0,116
-236,088	800,000	-0,010	0,025
-235,073	-200,000	-0,003	0,079
-234,059	-110,577	0,073	0,011
-233,044	-200,000	-0,037	0,121
-232,030	-200,000	-0,054	0,201
-231,015	-200,000	-0,013	-0,140
-230,000	800,000	0,025	0,073
-228,986	-120,906	-0,053	0,006
-227,971	800,000	-0,047	0,121
-226,957	-200,000	-0,021	0,172
-225,942	43,362	-0,037	-0,024
-224,927	97,330	-0,018	-0,015
-223,913	-117,548	-0,072	0,009
-222,898	-145,162	-0,107	-0,007
-221,884	-200,000	-0,020	-0,094
-220,869	63,443	0,095	0,068
-219,855	-69,485	-0,089	-0,024
-218,840	-200,000	-0,014	0,115
-217,825	-77,292	0,110	-0,027
-216,811	731,293	-0,047	0,091
-215,796	127,367	-0,074	-0,067
-214,782	173,752	-0,086	-0,089
-213,767	-200,000	0,001	0,027
-212,752	380,348	-0,061	0,089
-211,738	112,115	-0,070	-0,060
-210,723	-13,843	0,035	-0,016
-209,709	45,775	-0,033	0,022
-208,694	-97,447	0,071	0,013
-207,679	-200,000	0,031	-0,135
-206,665	800,000	-0,034	0,069
-205,650	537,548	0,006	0,011
-204,636	-16,903	0,149	0,067
-203,621	53,195	0,116	0,079
-202,606	-200,000	0,001	0,046
-201,592	-62,802	0,043	0,013
-200,577	78,395	0,080	0,061
-199,563	-68,505	-0,108	-0,030
-198,548	-200,000	-0,001	0,205
-197,533	-29,748	0,082	-0,033
-196,519	-200,000	0,016	0,100
-195,504	-23,629	-0,083	0,035
-194,490	-22,919	0,182	-0,078
-193,475	106,807	0,059	-0,050
-192,460	800,000	0,035	0,094
-191,446	-36,336	-0,011	-0,004
-190,431	90,389	0,115	-0,092
-189,417	237,580	0,092	0,109
-188,402	-200,000	-0,034	0,125
-187,387	6,858	0,035	-0,019
-186,373	-200,000	0,008	-0,092
-185,358	9,394	-0,137	-0,074
-184,344	72,170	0,091	-0,067
-183,329	158,272	-0,071	0,070
-182,315	-200,000	-0,012	0,088
-181,300	800,000	-0,065	-0,131
-180,285	-70,671	0,091	-0,024
-179,271	127,217	-0,066	-0,060
-178,256	388,551	0,016	0,024
-177,242	800,000	-0,029	-0,088
-176,227	800,000	0,035	0,107
-175,212	-200,000	-0,001	0,067
-174,198	-200,000	-0,008	0,068
-173,183	-31,454	-0,043	0,017
-172,169	-74,727	-0,021	0,005
-171,154	92,109	-0,113	-0,090
-170,139	800,000	-0,061	0,138
-169,125	800,000	0,048	0,096
-168,110	-200,000	0,003	-0,073
-167,096	78,405	-0,059	0,045
-166,081	133,234	0,091	-0,084
-165,066	-200,000	-0,001	0,035
-164,052	-200,000	0,013	-0,180
-163,037	39,291	-0,045	0,029
-162,023	554,796	-0,040	0,068
-161,008	800,000	-0,041	0,087
-159,993	-200,000	0,002	-0,019
-158,979	124,826	-0,047	0,042
-157,964	-200,000	0,012	-0,092
-156,950	-200,000	-0,004	-0,188
-155,935	220,505	0,120	-0,137
-154,920	172,388	0,054	0,055
-153,906	4,630	-0,105	0,055
-152,891	-36,430	0,065	-0,025
-151,877	137,728	-0,055	-0,052
-150,862	-60,029	-0,089	0,027
-149,847	-161,881	-0,032	-0,001
-148,833	-99,382	-0,094	-0,017
-147,818	-200,000	-0,006	-0,031
-146,804	-200,000	-0,001	-0,086
-145,789	-83,073	-0,104	0,024
-144,775	204,071	0,117	-0,129
-143,760	-129,473	-0,105	-0,010
-142,745	-158,822	-0,164	0,007
-141,731	448,961	-0,078	-0,123
-140,716	41,956	0,076	0,049
-139,702	-200,000	0,033	0,121
-138,687	800,000	-0,012	0,033
-137,672	102,854	-0,103	0,086
-136,658	-149,568	-0,066	-0,004
-135,643	-25,189	-0,076	-0,032
-134,629	-200,000	0,001	-0,104
-133,614	-200,000	-0,042	0,169
-132,599	800,000	0,037	0,090
-131,585	44,144	-0,045	-0,029
-130,570	-200,000	-0,003	0,106
-129,556	-200,000	0,009	-0,100
-128,541	687,351	-0,069	-0,128
-127,526	651,855	-0,036	-0,066
-126,512	275,819	-0,015	0,019
-125,497	-78,503	0,089	-0,022
-124,483	-200,000	-0,044	0,196
-123,468	-119,101	0,074	-0,009
-122,453	162,282	0,085	-0,085
-121,439	-59,975	-0,101	-0,030
