DTS Sentinel unit serial number:	SN410029Multiplexer serial number:	ORYXHardware model number:	OX2-SRSoftware version number:	ORYX F/W v4,00 Oryx Data Collector v3.7.2.0data status	okinstallation	B3 Nyhavnadifferential loss correction	single-endedforward channel	channel 1reverse channel	N/Adate	2023/11/28time	19:12:30forward acquisition time	300,00reverse acquisition time	0,00gamma	499,1914k internal	0,3154k external	0,3154temperature offset calibration	1,0000default loss term (dB/km)	0,3820temperature slope calibration	1,0000multiplexer offset coefficient	1,0000multiplexer slope coefficient	1,0000fibre end	0,00T internal ref (°C)	7,59T ext. ref 1 (°C)	-7,21T ext. ref 2 (°C)	-7,36length (m)	temperature (°C)	Stokes	anti-Stokes-744,400	386,052	-0,147	-0,225
-743,385	308,494	0,043	0,060
-742,371	800,000	-0,085	-0,262
-741,356	-200,000	-0,032	0,259
-740,342	-200,000	-0,001	-0,140
-739,327	800,000	0,100	0,220
-738,312	145,650	-0,215	-0,212
-737,298	800,000	-0,062	0,193
-736,283	-38,775	-0,203	-0,079
-735,269	-200,000	0,064	0,262
-734,254	129,764	-0,210	-0,198
-733,239	-51,270	-0,189	0,065
-732,225	800,000	-0,081	-0,185
-731,210	-200,000	0,014	0,129
-730,196	126,071	0,049	-0,045
-729,181	-69,326	-0,086	0,024
-728,167	-98,572	0,014	0,003
-727,152	36,318	-0,081	-0,053
-726,137	24,573	-0,092	-0,056
-725,123	206,360	-0,103	-0,119
-724,108	-200,000	-0,026	0,133
-723,094	800,000	-0,050	-0,106
-722,079	129,043	-0,042	-0,040
-721,064	10,843	-0,057	-0,032
-720,050	-200,000	-0,007	-0,136
-719,035	-42,867	-0,193	0,072
-718,021	188,204	0,047	-0,052
-717,006	266,116	-0,123	-0,158
-715,991	89,859	0,063	0,052
-714,977	800,000	0,072	-0,158
-713,962	407,816	-0,034	0,053
-712,948	-200,000	-0,011	-0,043
-711,933	473,538	0,022	0,037
-710,918	522,289	-0,046	-0,081
-709,904	800,000	-0,044	-0,124
-708,889	592,760	-0,013	0,023
-707,875	252,247	-0,023	0,030
-706,860	108,850	0,047	-0,041
-705,845	-182,648	0,104	0,001
-704,831	83,386	0,078	0,063
-703,816	-1,267	-0,037	0,019
-702,802	196,622	-0,097	0,110
-701,787	-16,848	0,125	0,058
-700,772	-200,000	-0,008	-0,046
-699,758	-200,000	0,018	-0,068
-698,743	-200,000	0,017	0,118
-697,729	24,585	-0,068	-0,042
-696,714	62,917	-0,057	-0,042
-695,699	-182,593	-0,168	-0,002
-694,685	81,650	-0,088	-0,070
-693,670	42,200	-0,087	-0,058
-692,656	-73,662	-0,227	0,060
-691,641	800,000	0,015	-0,047
-690,627	800,000	-0,070	0,177
-689,612	294,005	0,066	0,089
-688,597	800,000	0,023	-0,072
-687,583	800,000	-0,071	-0,214
-686,568	410,636	0,051	-0,080
-685,554	57,100	0,117	-0,084
-684,539	-200,000	0,007	0,201
-683,524	-200,000	0,017	0,195
-682,510	148,942	0,043	0,043
-681,495	-184,347	-0,006	0,000
-680,481	466,357	0,065	-0,108
-679,466	-200,000	-0,027	-0,213
-678,451	95,030	0,053	0,044
-677,437	-61,855	-0,092	-0,028
-676,422	-93,850	-0,102	0,021
-675,408	800,000	0,029	0,085
-674,393	-200,000	0,010	0,035
-673,378	-200,000	0,011	-0,039
-672,364	435,772	-0,058	-0,093
-671,349	-200,000	-0,034	-0,129
-670,335	-200,000	0,042	-0,167
-669,320	800,000	-0,007	-0,022
-668,305	76,305	-0,066	-0,052
-667,291	-131,464	0,102	-0,010
-666,276	-66,937	0,140	-0,040
-665,262	-90,428	-0,067	-0,014
-664,247	-200,000	-0,006	-0,129
-663,232	-26,671	0,078	-0,033
-662,218	-200,000	-0,009	0,117
-661,203	711,463	0,034	0,066
-660,189	66,840	-0,074	0,055
-659,174	116,226	-0,036	0,032
-658,159	400,215	-0,065	-0,101
-657,145	-200,000	-0,011	0,066
-656,130	215,614	-0,037	-0,043
-655,116	800,000	0,020	0,049
-654,101	45,653	0,096	0,065
-653,086	800,000	-0,011	0,028
-652,072	-200,000	-0,178	0,000
-651,057	-200,000	-0,022	0,084
-650,043	61,688	-0,053	0,039
-649,028	-114,056	-0,069	-0,010
-648,014	-200,000	0,003	0,074
-646,999	-143,577	0,073	0,005
-645,984	173,771	-0,077	-0,081
-644,970	3,078	-0,040	-0,021
-643,955	206,120	-0,036	-0,041
-642,941	-200,000	0,053	-0,215
-641,926	168,554	0,015	0,015
-640,911	12,126	0,015	0,008
-639,897	-113,963	-0,062	-0,009
-638,882	-200,000	-0,077	0,000
-637,868	74,994	-0,108	-0,083
-636,853	-200,000	0,005	-0,048
-635,838	-46,305	-0,049	0,017
-634,824	157,898	-0,061	-0,062
-633,809	-200,000	-0,026	0,088
-632,795	800,000	0,052	0,122
-631,780	-72,417	0,043	-0,012
-630,765	-118,863	-0,018	-0,002
-629,751	-99,546	-0,110	-0,020
-628,736	-11,516	0,088	0,043
-627,722	-200,000	0,034	0,113
-626,707	-12,787	-0,032	-0,015
-625,692	100,698	-0,017	0,014
-624,678	-200,000	-0,026	0,233
-623,663	35,305	-0,067	0,043
-622,649	-13,244	0,060	0,028
-621,634	-200,000	0,039	-0,140
-620,619	-200,000	-0,009	-0,094
-619,605	800,000	0,060	-0,163
-618,590	-200,000	-0,030	0,197
-617,576	46,113	-0,052	0,035
-616,561	-29,854	-0,145	0,060
-615,546	414,636	-0,059	0,093
-614,532	-69,017	0,114	0,032
-613,517	-12,672	-0,064	-0,030
-612,503	-34,501	0,039	-0,016
-611,488	-200,000	0,024	0,142
-610,474	311,944	-0,089	0,123
-609,459	-19,958	0,101	-0,046
-608,444	199,011	-0,084	0,095
-607,430	-98,074	-0,077	-0,014
-606,415	-200,000	-0,001	-0,046
-605,401	-200,000	-0,014	-0,098
-604,386	800,000	0,028	0,082
-603,371	800,000	-0,023	0,074
-602,357	800,000	0,006	0,013
-601,342	-85,459	0,079	0,018
-600,328	95,981	-0,184	-0,154
-599,313	-200,000	-0,009	-0,050
-598,298	256,548	-0,043	0,054
-597,284	187,512	-0,097	-0,106
-596,269	-200,000	0,003	0,015
-595,255	44,684	0,074	0,050
-594,240	800,000	0,099	-0,207
-593,225	29,652	-0,105	-0,065
-592,211	-200,000	-0,002	-0,165
-591,196	-2,996	0,051	0,026
-590,182	-200,000	-0,031	-0,185
-589,167	-200,000	0,009	0,105
-588,152	513,834	0,022	0,039
-587,138	-200,000	-0,012	-0,175
-586,123	-55,371	0,039	-0,013
-585,109	-80,228	0,076	0,019
-584,094	27,833	-0,057	-0,035
-583,079	-200,000	0,003	0,116
-582,065	-99,668	0,170	0,031
-581,050	800,000	0,007	0,020
-580,036	-31,735	-0,036	-0,015
-579,021	28,973	-0,070	0,044
-578,006	131,392	-0,051	-0,048
-576,992	519,542	0,043	-0,074
-575,977	-128,283	0,098	-0,010
-574,963	-91,193	0,053	0,011
-573,948	-200,000	0,011	-0,111
-572,934	-200,000	-0,007	-0,032
-571,919	479,694	-0,002	-0,003
-570,904	84,239	-0,077	-0,062
-569,890	-81,089	0,081	0,020
-568,875	-8,330	0,032	0,015
-567,861	800,000	0,028	0,063
-566,846	-200,000	-0,024	0,164
-565,831	-87,740	-0,069	-0,015
-564,817	-200,000	-0,018	0,086
-563,802	103,760	-0,052	-0,045
-562,788	233,830	-0,033	-0,040
-561,773	69,051	0,106	0,079
-560,758	-29,903	0,155	0,064
-559,744	-92,737	-0,145	0,029
-558,729	-93,772	-0,090	-0,018
-557,715	58,545	-0,062	-0,045
-556,700	800,000	-0,014	-0,039
-555,685	-77,870	-0,080	0,020
-554,671	-200,000	0,013	-0,044
-553,656	159,967	-0,085	0,087
-552,642	58,757	-0,107	0,077
-551,627	-200,000	-0,027	0,119
-550,612	-42,859	-0,070	0,026
-549,598	158,718	-0,083	-0,084
-548,583	-200,000	-0,008	-0,045
-547,569	-51,367	0,080	0,027
-546,554	173,697	0,066	-0,070
-545,539	340,085	0,033	0,048
-544,525	-42,548	-0,085	-0,032
-543,510	-200,000	0,023	0,088
-542,496	-200,000	-0,007	-0,175
-541,481	65,504	-0,099	0,073
-540,466	800,000	-0,014	0,040
-539,452	-84,162	0,069	-0,016
-538,437	-13,981	0,071	-0,033
-537,423	-200,000	0,003	0,028
-536,408	66,693	0,085	-0,063
-535,393	-200,000	-0,005	0,056
-534,379	-200,000	0,016	-0,071
-533,364	-200,000	0,001	-0,035
-532,350	-116,433	0,072	0,010
-531,335	-120,730	-0,075	0,009
-530,321	791,621	0,032	0,065
-529,306	-87,228	-0,094	-0,021
-528,291	205,519	-0,050	0,057
-527,277	-200,000	-0,015	0,100
-526,262	-200,000	0,001	-0,076
-525,248	-151,089	-0,099	-0,005
-524,233	-41,237	0,086	-0,032
-523,218	800,000	0,076	-0,160
-522,204	-140,219	0,095	0,007
-521,189	-65,206	-0,164	0,048
-520,175	-139,016	-0,136	0,011
-519,160	225,610	-0,110	0,130
-518,145	238,941	0,054	0,066
-517,131	-114,038	0,081	-0,011
-516,116	-200,000	0,110	-0,000
-515,102	800,000	0,062	-0,181
-514,087	800,000	0,079	-0,182
-513,072	-16,778	0,104	0,048
-512,058	134,136	-0,062	-0,058
-511,043	-111,640	-0,051	-0,007
-510,029	-13,233	0,082	-0,039
-509,014	-65,052	0,116	-0,034
-507,999	571,639	0,088	-0,157
-506,985	800,000	-0,030	-0,067
-505,970	-200,000	-0,035	0,125
-504,956	39,969	-0,051	-0,034
-503,941	84,196	0,025	-0,020
-502,926	43,213	0,167	-0,111
-501,912	-47,117	0,077	-0,027
-500,897	-71,635	-0,105	-0,028
-499,883	-200,000	-0,009	-0,085
-498,868	800,000	-0,016	-0,037
-497,853	68,386	0,050	0,037
-496,839	-200,000	-0,036	-0,135
-495,824	38,320	0,108	0,070
-494,810	145,917	-0,077	0,076
-493,795	-143,870	-0,014	-0,001
-492,781	85,282	-0,053	-0,043
-491,766	-101,431	-0,040	-0,007
-490,751	69,895	-0,020	-0,015
-489,737	-105,416	-0,151	-0,025
-488,722	-102,535	0,169	-0,029
-487,708	-200,000	-0,004	0,067
-486,693	-64,810	0,071	-0,021
-485,678	-17,267	0,056	0,026
-484,664	188,191	-0,046	0,051
-483,649	98,421	-0,132	0,111
-482,635	107,596	0,062	-0,054
-481,620	-194,161	0,045	0,000
-480,605	117,827	0,123	0,111
-479,591	-200,000	0,004	0,031
-478,576	59,419	0,109	0,078
-477,562	134,235	-0,067	-0,063
-476,547	-200,000	0,056	-0,196
-475,532	-143,741	0,147	-0,010
-474,518	-200,000	-0,002	-0,137
-473,503	-200,000	-0,030	0,117
-472,489	-17,944	-0,116	0,053
-471,474	-35,931	-0,049	-0,019
-470,459	184,508	-0,066	0,072
-469,445	-200,000	0,005	0,207
-468,430	72,457	-0,097	-0,074
-467,416	-21,601	0,109	0,048
-466,401	-200,000	0,015	0,062
-465,386	294,722	0,152	0,204
-464,372	800,000	-0,028	0,074
-463,357	800,000	-0,010	-0,026
-462,343	-200,000	0,000	-0,074
-461,328	-133,793	0,151	0,014
-460,313	-200,000	0,022	0,084
-459,299	-49,504	-0,191	-0,066
-458,284	800,000	0,028	0,092
-457,270	800,000	0,019	0,060
-456,255	-200,000	0,137	0,000
-455,241	-200,000	-0,025	-0,109
-454,226	-200,000	-0,073	-0,285
-453,211	11,547	0,137	0,076
-452,197	-22,887	-0,038	0,017
-451,182	-85,917	-0,071	0,016
-450,168	339,233	-0,076	0,108
-449,153	800,000	-0,033	0,098
-448,138	18,687	-0,142	-0,083
-447,124	-160,887	-0,090	-0,003
-446,109	800,000	0,014	0,039
-445,095	123,554	0,111	0,102
-444,080	-200,000	0,013	0,119
-443,065	-37,580	0,099	0,038
-442,051	800,000	-0,011	-0,036
-441,036	581,111	-0,032	-0,058
-440,022	800,000	-0,035	-0,076
-439,007	635,701	-0,045	0,083
-437,992	-51,019	-0,115	0,039
-436,978	-31,596	-0,044	0,018
-435,963	232,315	0,070	-0,084
-434,949	800,000	0,054	-0,151
-433,934	11,025	0,107	0,059
-432,919	355,053	0,076	0,110
-431,905	-200,000	0,007	-0,151
-430,890	104,632	0,061	-0,052
-429,876	800,000	-0,014	-0,030
-428,861	-32,906	-0,074	-0,030
-427,846	15,889	0,096	0,055
-426,832	-163,024	-0,070	-0,002
-425,817	719,856	0,075	-0,146
-424,803	-90,259	0,097	0,020
-423,788	-200,000	-0,002	-0,057
-422,773	-117,944	0,164	0,021
-421,759	-160,323	0,072	0,003
-420,744	-200,000	-0,012	0,049
-419,730	775,220	-0,051	-0,102
-418,715	-200,000	0,001	-0,066
-417,701	-170,689	-0,108	0,003
-416,686	-72,354	0,068	0,018
-415,671	-164,318	0,074	-0,002
-414,657	-83,474	0,067	-0,015
-413,642	6,114	-0,042	0,023
-412,628	-177,535	-0,170	0,003
-411,613	-200,000	0,022	-0,094
-410,598	800,000	0,027	-0,074
-409,584	7,084	0,095	0,052
-408,569	200,668	0,127	0,143
-407,555	439,126	-0,055	0,088
-406,540	800,000	-0,008	-0,021
-405,525	150,183	-0,070	-0,069
-404,511	28,649	-0,128	-0,079
-403,496	340,540	0,047	-0,068
-402,482	697,832	-0,056	0,108
-401,467	800,000	-0,026	-0,072
-400,452	330,301	0,134	0,189
-399,438	-7,908	-0,147	0,072
-398,423	-69,481	-0,111	-0,031
-397,409	-106,044	0,093	-0,015
-396,394	-45,922	-0,138	0,049
-395,379	91,154	0,144	0,117
-394,365	143,298	0,076	0,074
-393,350	0,058	0,049	0,025
-392,336	26,157	0,014	-0,009
-391,321	-200,000	0,028	0,099
-390,306	-200,000	-0,034	-0,114
-389,292	109,728	-0,047	-0,041
-388,277	246,196	0,061	-0,075
-387,263	800,000	0,028	0,083
-386,248	800,000	0,054	-0,152
-385,233	235,467	0,115	0,138
-384,219	-85,637	-0,085	-0,019
-383,204	449,512	-0,020	0,032
-382,190	241,617	0,027	0,033
-381,175	-104,303	-0,075	-0,013
-380,160	130,336	-0,032	0,029
-379,146	-75,474	0,120	-0,031
-378,131	415,352	-0,043	-0,067
-377,117	18,428	-0,038	0,022
-376,102	216,153	-0,051	-0,059
-375,088	800,000	-0,037	0,117
-374,073	425,891	-0,034	0,053
-373,058	800,000	0,032	0,083
-372,044	-200,000	-0,003	0,073
-371,029	-12,451	-0,031	0,015
-370,015	-143,102	0,017	-0,001
-369,000	-135,587	-0,112	-0,010
-367,985	-100,837	0,115	-0,020
-366,971	-72,573	-0,116	-0,031
-365,956	271,130	0,052	0,067
-364,942	170,246	0,015	-0,016
-363,927	-200,000	-0,020	-0,085
-362,912	237,101	0,020	0,024
-361,898	-39,953	0,069	-0,026
-360,883	-115,608	0,060	0,008
-359,869	678,429	-0,076	-0,145
-358,854	-60,090	0,169	-0,052
-357,839	-74,190	0,077	0,020
-356,825	-200,000	-0,006	-0,079
-355,810	-93,482	0,110	0,022
-354,796	-200,000	-0,047	-0,157
-353,781	187,754	0,066	-0,071
-352,766	121,372	-0,132	-0,119
-351,752	420,961	0,036	0,056
-350,737	-23,642	0,042	-0,018
-349,723	341,652	0,040	0,057
-348,708	800,000	0,027	-0,082
-347,693	800,000	-0,068	-0,143
-346,679	-112,839	0,064	0,009
-345,664	25,340	-0,184	-0,111
-344,650	-69,368	0,095	-0,026
-343,635	268,910	0,067	0,086
-342,620	-200,000	0,007	0,157
-341,606	-86,712	-0,024	0,005
-340,591	53,475	-0,020	0,014
-339,577	800,000	-0,034	-0,075
-338,562	800,000	-0,016	-0,035
-337,548	-200,000	0,010	0,098
-336,533	-200,000	0,027	0,088
-335,518	116,627	0,042	0,038
-334,504	238,585	0,053	0,064
-333,489	-28,373	0,083	0,035
-332,475	-45,303	0,053	-0,019
-331,460	434,869	-0,041	-0,065
-330,445	-200,000	-0,009	-0,036
-329,431	-99,150	0,075	-0,014
-328,416	199,099	0,101	0,113
-327,402	141,691	0,036	0,034
-326,387	-77,051	0,071	-0,018
-325,372	-36,375	0,046	0,018
-324,358	-89,254	-0,090	0,019
-323,343	-45,201	-0,051	0,018
-322,329	77,106	0,041	0,032
-321,314	-8,325	0,031	-0,015
-320,299	-88,830	-0,075	-0,016
-319,285	800,000	-0,055	-0,156
-318,270	333,590	-0,057	-0,080
-317,256	12,535	-0,120	-0,067
-316,241	-90,731	-0,161	-0,034
-315,226	-43,240	0,047	-0,017
-314,212	53,818	0,146	-0,102
-313,197	31,272	0,075	0,047
-312,183	-100,470	-0,060	-0,011
-311,168	-200,000	0,001	0,055
-310,153	441,910	-0,038	0,061
-309,139	-52,171	-0,082	0,027
-308,124	9,067	0,145	0,079
-307,110	108,144	-0,082	0,071
-306,095	-200,000	-0,004	0,108
-305,080	7,601	-0,105	0,057
-304,066	-200,000	0,023	-0,098
-303,051	-73,621	0,087	-0,023
-302,037	-44,069	-0,137	-0,050
-301,022	800,000	-0,043	-0,108
-300,008	-69,777	0,074	-0,020
-298,993	-13,180	0,073	0,034
-297,978	593,181	-0,030	-0,055
-296,964	-2,176	0,050	0,026
-295,949	800,000	0,069	-0,149
-294,935	439,101	0,068	-0,109
-293,920	16,012	-0,089	0,051
-292,905	165,708	0,031	0,031
-291,891	800,000	0,077	0,226
-290,876	96,823	0,039	0,032
-289,862	-146,500	0,119	-0,007
-288,847	-154,279	-0,109	0,005
-287,832	66,829	0,069	-0,051
-286,818	-200,000	-0,003	-0,028
-285,803	-126,173	0,211	-0,023
-284,789	-200,000	-0,010	0,176
-283,774	-81,279	0,124	0,029
-282,759	-200,000	0,012	-0,095
-281,745	-200,000	-0,009	-0,079
-280,730	-179,612	0,109	-0,002
-279,716	44,312	-0,104	0,069
-278,701	-27,027	0,069	0,029
-277,686	-33,384	0,074	-0,030
-276,672	-51,112	0,062	-0,021
-275,657	-92,151	0,068	-0,014
-274,643	800,000	0,015	0,046
-273,628	231,653	-0,036	0,043
-272,613	-52,459	0,058	-0,019
-271,599	646,067	0,061	-0,114
-270,584	-68,762	0,022	0,006
-269,570	278,409	-0,022	-0,028
-268,555	800,000	-0,043	0,104
-267,540	-200,000	0,034	0,124
-266,526	13,240	-0,041	-0,023
-265,511	600,310	0,043	-0,077
-264,497	221,158	0,028	0,032
-263,482	117,508	0,110	0,098
-262,467	217,308	0,069	0,080
-261,453	-200,000	0,009	0,177
-260,438	-200,000	0,007	0,042
-259,424	-28,177	-0,111	0,046
-258,409	800,000	-0,071	-0,214
-257,395	-77,085	-0,044	0,011
-256,380	251,733	0,043	0,054
-255,365	118,688	-0,148	0,132
-254,351	-200,000	0,025	-0,097
-253,336	-200,000	-0,003	-0,083
-252,322	26,133	-0,030	-0,018
-251,307	-93,960	-0,120	-0,024
-250,292	-200,000	-0,008	0,037
-249,278	-107,818	0,220	0,034
-248,263	-200,000	-0,018	0,059
-247,249	509,969	0,040	0,068
-246,234	-48,206	-0,054	0,019
-245,219	496,660	0,065	-0,108
-244,205	-200,000	0,013	-0,095
-243,190	800,000	-0,034	0,107
-242,176	-200,000	-0,008	0,181
-241,161	128,105	0,112	-0,104
-240,146	256,867	-0,082	0,102
-239,132	89,410	-0,042	0,034
-238,117	648,190	0,029	0,054
-237,103	800,000	0,016	-0,048
-236,088	-24,425	-0,121	0,052
-235,073	334,338	0,077	0,108
-234,059	-71,393	-0,029	0,008
-233,044	366,388	0,106	0,156
-232,030	-104,366	-0,064	0,011
-231,015	461,247	-0,029	-0,047
-230,000	-200,000	0,034	-0,124
-228,986	25,022	-0,093	0,056
-227,971	13,488	-0,080	-0,045
-226,957	-74,340	-0,055	-0,014
-225,942	156,446	0,059	0,059
-224,927	800,000	0,029	0,059
-223,913	68,314	-0,084	-0,062
-222,898	-2,294	0,211	-0,107
-221,884	315,765	-0,077	0,106
-220,869	-115,592	-0,069	-0,009
-219,855	-200,000	0,001	-0,049
-218,840	257,205	-0,118	-0,147
-217,825	510,412	-0,024	0,040
-216,811	-200,000	-0,008	0,059
-215,796	-165,020	-0,043	-0,001
-214,782	-63,875	0,163	-0,048
-213,767	800,000	-0,041	-0,082
-212,752	642,841	0,059	0,109
-211,738	-33,264	0,021	0,008
-210,723	-50,376	-0,074	-0,025
-209,709	33,947	-0,104	-0,066
-208,694	-17,609	-0,079	0,036
-207,679	-41,166	-0,131	-0,049
-206,665	-200,000	-0,028	0,108
-205,650	41,605	-0,065	0,043
-204,636	-114,248	-0,119	0,016
-203,621	-200,000	0,001	0,067
-202,606	-20,760	-0,111	0,049
-201,592	679,936	-0,025	0,048
-200,577	800,000	-0,027	0,081
-199,563	313,439	-0,055	-0,074
-198,548	492,710	0,071	0,118
-197,533	242,263	0,083	0,101
-196,519	-200,000	0,028	0,097
-195,504	245,358	0,041	-0,050
-194,490	-7,212	-0,099	-0,048
-193,475	73,273	-0,031	-0,023
-192,460	21,503	-0,076	0,045
-191,446	51,540	-0,109	-0,075
-190,431	101,092	0,064	0,054
-189,417	-200,000	-0,008	0,053
-188,402	-200,000	0,000	-0,019
-187,387	-200,000	0,008	-0,078
-186,373	-200,000	-0,008	-0,028
-185,358	146,770	0,069	-0,067
-184,344	-200,000	-0,007	-0,074
-183,329	54,534	0,152	-0,106
-182,315	-200,000	0,093	0,000
-181,300	-200,000	0,012	-0,044
-180,285	172,054	0,049	-0,051
-179,271	-200,000	0,032	-0,118
-178,256	-23,208	-0,122	0,053
-177,242	-91,469	0,133	0,027
-176,227	137,308	0,059	-0,056
-175,212	74,763	0,035	-0,026
-174,198	102,632	-0,117	0,099
-173,183	-9,310	-0,106	-0,051
-172,169	800,000	-0,064	-0,161
-171,154	345,501	0,030	-0,043
-170,139	160,376	-0,042	-0,042
-169,125	800,000	-0,033	0,075
-168,110	40,249	0,087	0,057
-167,096	530,163	-0,055	0,094
-166,081	-9,620	-0,152	0,073
-165,066	-101,017	-0,122	0,021
-164,052	572,989	-0,004	-0,008
-163,037	409,491	-0,049	-0,076
-162,023	101,820	-0,085	0,072
-161,008	-16,367	-0,041	0,019
-159,993	11,025	-0,085	-0,047
-158,979	-200,000	-0,010	-0,044
-157,964	-200,000	-0,010	-0,137
-156,950	99,480	0,056	-0,047
-155,935	126,246	0,052	-0,048
-154,920	-200,000	0,032	0,155
-153,906	368,149	-0,054	-0,079
-152,891	-141,140	-0,032	-0,002
-151,877	378,182	-0,023	-0,034
-150,862	515,704	-0,060	-0,101
-149,847	-118,020	-0,057	0,007
-148,833	-131,816	0,053	0,005
-147,818	800,000	-0,045	0,109
-146,804	447,839	0,021	0,034
-145,789	800,000	-0,037	-0,094
-144,775	-200,000	-0,014	-0,108
-143,760	-4,417	-0,104	0,052
-142,745	-200,000	-0,016	-0,077
-141,731	-56,135	0,120	-0,038
-140,716	39,027	-0,151	0,097
-139,702	33,415	0,046	-0,029
-138,687	-200,000	0,001	0,180
-137,672	84,238	-0,039	-0,031
-136,658	46,327	-0,107	-0,072
-135,643	-200,000	0,001	-0,052
-134,629	340,121	0,062	0,088
-133,614	-200,000	0,008	0,064
-132,599	-200,000	-0,008	0,077
-131,585	-200,000	0,014	-0,071
-130,570	-119,860	0,030	-0,004
-129,556	-0,731	-0,090	-0,046
-128,541	53,649	-0,070	0,049
-127,526	65,142	0,079	-0,058
-126,512	-163,243	0,053	-0,002
-125,497	-200,000	-0,000	0,060
-124,483	372,260	-0,070	0,103
-123,468	660,198	0,071	0,132
-122,453	85,616	-0,166	-0,132
-121,439	800,000	-0,021	-0,052
-120,424	-44,284	0,034	0,012
-119,410	-200,000	-0,010	0,078
