DTS Sentinel unit serial number:	SN410029Multiplexer serial number:	ORYXHardware model number:	OX2-SRSoftware version number:	ORYX F/W v4,00 Oryx Data Collector v3.7.2.0data status	okinstallation	B3 Nyhavnadifferential loss correction	single-endedforward channel	channel 1reverse channel	N/Adate	2023/11/28time	11:57:30forward acquisition time	300,00reverse acquisition time	0,00gamma	499,1914k internal	0,3145k external	0,3145temperature offset calibration	1,0000default loss term (dB/km)	0,3820temperature slope calibration	1,0000multiplexer offset coefficient	1,0000multiplexer slope coefficient	1,0000fibre end	0,00T internal ref (°C)	8,84T ext. ref 1 (°C)	-7,65T ext. ref 2 (°C)	-7,85length (m)	temperature (°C)	Stokes	anti-Stokes-744,400	96,375	-0,287	-0,243
-743,385	-200,000	-0,073	0,254
-742,371	65,730	-0,150	-0,112
-741,356	-200,000	-0,010	0,442
-740,342	64,265	-0,175	-0,130
-739,327	-200,000	0,054	0,388
-738,312	800,000	-0,122	-0,271
-737,298	-200,000	-0,029	0,217
-736,283	-33,458	-0,297	-0,121
-735,269	-200,000	0,053	0,296
-734,254	597,412	-0,141	-0,260
-733,239	119,638	-0,177	0,162
-732,225	117,995	-0,163	-0,149
-731,210	464,445	0,073	0,122
-730,196	-200,000	0,013	-0,079
-729,181	-80,102	0,014	-0,003
-728,167	-200,000	-0,006	0,081
-727,152	-0,944	-0,083	-0,043
-726,137	295,786	-0,071	-0,097
-725,123	-164,836	-0,046	-0,002
-724,108	-200,000	-0,033	-0,140
-723,094	60,330	-0,142	-0,104
-722,079	236,086	-0,057	-0,070
-721,064	-29,609	0,173	-0,073
-720,050	-96,336	0,109	0,021
-719,035	458,661	-0,047	-0,078
-718,021	167,620	-0,107	-0,113
-717,006	21,906	-0,113	-0,068
-715,991	800,000	-0,058	-0,122
-714,977	-200,000	-0,001	-0,128
-713,962	800,000	-0,019	-0,058
-712,948	-166,909	-0,098	0,003
-711,933	30,956	0,115	0,073
-710,918	800,000	-0,014	0,037
-709,904	-200,000	-0,028	-0,128
-708,889	-200,000	0,029	-0,205
-707,875	35,275	0,120	-0,078
-706,860	396,107	-0,069	-0,107
-705,845	19,907	0,085	-0,051
-704,831	178,778	0,084	-0,090
-703,816	82,530	-0,080	0,064
-702,802	-200,000	0,005	0,055
-701,787	317,059	-0,093	0,130
-700,772	-135,227	0,097	-0,009
-699,758	506,518	-0,068	-0,118
-698,743	56,370	0,034	0,025
-697,729	89,820	0,119	-0,098
-696,714	192,012	0,076	-0,084
-695,699	-200,000	0,022	0,093
-694,685	51,659	-0,124	-0,087
-693,670	-147,094	0,120	0,007
-692,656	-200,000	0,038	0,126
-691,641	117,301	0,056	-0,051
-690,627	-200,000	0,002	-0,082
-689,612	122,224	-0,010	0,009
-688,597	800,000	-0,030	-0,092
-687,583	29,824	-0,056	-0,035
-686,568	222,114	-0,042	-0,051
-685,554	44,196	-0,110	-0,074
-684,539	800,000	0,066	-0,167
-683,524	-200,000	0,013	-0,067
-682,510	-200,000	-0,025	0,083
-681,495	751,917	-0,054	-0,109
-680,481	-200,000	-0,007	-0,090
-679,466	-200,000	0,015	-0,101
-678,451	156,607	-0,041	-0,042
-677,437	159,592	0,072	-0,074
-676,422	-200,000	0,001	-0,110
-675,408	154,403	-0,068	-0,069
-674,393	-107,837	0,144	-0,023
-673,378	6,376	-0,126	-0,069
-672,364	-200,000	-0,021	-0,104
-671,349	508,347	0,049	-0,084
-670,335	-18,688	-0,081	-0,037
-669,320	222,806	0,053	-0,063
-668,305	-147,427	0,188	-0,012
-667,291	-200,000	-0,006	-0,240
-666,276	800,000	0,039	-0,101
-665,262	-200,000	-0,014	-0,082
-664,247	-130,493	-0,048	0,005
-663,232	277,378	-0,061	0,080
-662,218	-200,000	0,016	0,130
-661,203	171,325	-0,076	0,080
-660,189	-200,000	0,005	0,024
-659,174	470,572	0,039	-0,065
-658,159	-200,000	-0,027	0,121
-657,145	13,654	0,085	-0,049
-656,130	698,165	0,073	-0,142
-655,116	-14,732	0,146	-0,069
-654,101	28,774	0,150	-0,094
-653,086	222,216	-0,128	0,152
-652,072	193,430	-0,087	-0,098
-651,057	81,339	0,004	-0,003
-650,043	-200,000	0,044	-0,147
-649,028	-133,819	0,119	-0,011
-648,014	-57,251	-0,047	0,015
-646,999	482,610	-0,016	-0,026
-645,984	-200,000	0,072	0,000
-644,970	-200,000	-0,002	-0,027
-643,955	-101,372	0,019	-0,003
-642,941	728,891	-0,010	-0,021
-641,926	-200,000	-0,015	-0,056
-640,911	-124,545	0,051	0,006
-639,897	-200,000	0,060	0,220
-638,882	268,168	-0,014	0,018
-637,868	86,334	-0,111	-0,090
-636,853	127,129	-0,045	-0,042
-635,838	-72,443	-0,269	0,073
-634,824	10,955	0,151	-0,085
-633,809	112,939	0,014	0,013
-632,795	-200,000	-0,002	0,031
-631,780	733,985	0,061	0,120
-630,765	-200,000	-0,026	0,086
-629,751	-53,803	-0,038	0,013
-628,736	-200,000	-0,050	-0,187
-627,722	-200,000	-0,003	0,151
-626,707	279,711	-0,034	0,045
-625,692	173,214	-0,143	0,152
-624,678	379,341	-0,068	0,104
-623,663	-134,212	-0,160	-0,014
-622,649	-143,623	-0,124	0,009
-621,634	-103,567	0,023	-0,004
-620,619	274,374	-0,084	-0,110
-619,605	800,000	0,051	-0,121
-618,590	-83,866	0,152	0,035
-617,576	106,412	-0,062	0,054
-616,561	722,901	0,065	-0,129
-615,546	153,663	-0,075	-0,075
-614,532	-200,000	0,003	-0,145
-613,517	161,463	-0,069	-0,071
-612,503	-200,000	-0,037	-0,123
-611,488	-74,062	0,068	-0,018
-610,474	-66,652	0,097	-0,028
-609,459	-96,194	0,109	-0,021
-608,444	303,367	-0,033	-0,045
-607,430	-200,000	0,011	-0,049
-606,415	-200,000	-0,003	-0,029
-605,401	-123,254	0,113	0,013
-604,386	-133,363	-0,084	0,008
-603,371	-200,000	-0,013	0,166
-602,357	234,407	-0,119	-0,144
-601,342	-200,000	-0,010	-0,177
-600,328	-40,654	-0,071	-0,027
-599,313	-200,000	0,001	-0,073
-598,298	269,296	0,043	-0,056
-597,284	-75,501	-0,113	0,029
-596,269	163,365	-0,051	-0,053
-595,255	-200,000	-0,000	-0,011
-594,240	15,738	0,062	-0,036
-593,225	-60,027	-0,159	0,050
-592,211	-44,814	0,142	-0,052
-591,196	297,565	0,092	-0,125
-590,182	-106,312	-0,094	-0,015
-589,167	-200,000	0,013	0,091
-588,152	800,000	-0,025	-0,057
-587,138	-200,000	-0,005	-0,023
-586,123	336,477	0,079	0,113
-585,109	-200,000	-0,009	-0,047
-584,094	301,880	-0,071	-0,097
-583,079	500,512	-0,078	0,133
-582,065	185,889	0,013	-0,014
-581,050	-200,000	0,032	0,113
-580,036	141,448	0,080	0,078
-579,021	406,796	-0,031	-0,048
-578,006	-200,000	-0,010	0,053
-576,992	800,000	-0,026	0,082
-575,977	-74,694	0,052	-0,014
-574,963	-200,000	-0,014	-0,110
-573,948	127,593	0,023	-0,021
-572,934	-175,723	-0,134	0,003
-571,919	-17,617	-0,117	-0,054
-570,904	800,000	-0,042	0,089
-569,890	-200,000	-0,052	0,172
-568,875	-14,326	0,107	0,051
-567,861	293,053	-0,087	0,117
-566,846	49,931	0,033	0,023
-565,831	800,000	-0,049	0,102
-564,817	-136,101	-0,072	-0,006
-563,802	55,914	-0,101	0,072
-562,788	-200,000	0,005	0,033
-561,773	-155,478	0,097	-0,005
-560,758	-35,503	0,090	0,036
-559,744	-43,037	0,069	-0,026
-558,729	-196,860	-0,092	-0,000
-557,715	800,000	-0,017	0,053
-556,700	-200,000	-0,014	0,144
-555,685	35,542	-0,066	0,042
-554,671	800,000	0,053	-0,114
-553,656	559,950	0,046	0,081
-552,642	-126,174	-0,107	0,012
-551,627	-200,000	-0,011	-0,056
-550,612	-31,742	-0,069	0,028
-549,598	194,135	-0,077	0,086
-548,583	-200,000	-0,021	-0,125
-547,569	90,613	-0,077	0,063
-546,554	294,208	0,042	-0,056
-545,539	96,525	0,104	0,088
-544,525	-200,000	0,019	0,064
-543,510	-88,513	-0,139	0,030
-542,496	597,880	-0,071	0,129
-541,481	-114,635	-0,124	0,017
-540,466	-76,616	0,070	-0,018
-539,452	-74,446	-0,141	0,037
-538,437	348,214	0,110	0,160
-537,423	-165,423	0,055	-0,002
-536,408	663,170	-0,073	-0,140
-535,393	-200,000	0,026	0,130
-534,379	31,493	0,068	-0,043
-533,364	800,000	0,021	-0,055
-532,350	36,328	0,125	0,081
-531,335	404,581	-0,045	0,070
-530,321	746,425	0,071	0,142
-529,306	492,682	-0,055	0,093
-528,291	-65,416	-0,027	0,008
-527,277	61,923	-0,162	-0,118
-526,262	131,761	0,127	-0,120
-525,248	-200,000	0,004	0,053
-524,233	198,748	0,061	0,069
-523,218	531,854	-0,054	0,094
-522,204	-14,834	-0,039	0,018
-521,189	338,621	-0,061	-0,088
-520,175	800,000	0,058	-0,123
-519,160	-200,000	-0,005	0,123
-518,145	52,577	-0,096	0,067
-517,131	477,878	0,046	0,077
-516,116	-200,000	-0,002	0,012
-515,102	-161,021	-0,137	-0,005
-514,087	337,791	0,062	-0,089
-513,072	-200,000	-0,007	0,067
-512,058	-200,000	-0,064	-0,000
-511,043	201,158	0,035	-0,039
-510,029	-23,542	0,105	-0,046
-509,014	62,139	-0,053	0,038
-507,999	800,000	0,051	-0,110
-506,985	210,356	-0,093	-0,107
-505,970	-200,000	-0,015	-0,163
-504,956	-200,000	0,005	-0,037
-503,941	800,000	0,041	0,101
-502,926	-200,000	0,017	0,069
-501,912	-24,505	0,121	0,053
-500,897	-200,000	0,012	-0,153
-499,883	-38,179	-0,007	0,003
-498,868	-43,627	0,050	-0,018
-497,853	800,000	-0,050	0,110
-496,839	800,000	0,006	0,020
-495,824	132,731	0,058	0,055
-494,810	611,791	-0,053	0,097
-493,795	-146,037	0,046	-0,003
-492,781	-71,207	-0,022	-0,006
-491,766	-157,578	0,025	0,001
-490,751	-200,000	0,009	-0,142
-489,737	125,086	-0,027	-0,025
-488,722	-200,000	0,010	0,089
-487,708	-200,000	0,006	0,028
-486,693	-139,167	0,060	-0,005
-485,678	-19,764	-0,016	0,007
-484,664	-4,885	-0,097	-0,049
-483,649	61,852	-0,065	-0,048
-482,635	44,705	0,060	-0,040
-481,620	123,705	0,070	-0,064
-480,605	-33,812	0,090	0,036
-479,591	15,833	0,088	0,051
-478,576	-145,846	-0,137	-0,009
-477,562	231,426	0,021	0,026
-476,547	31,148	-0,146	-0,092
-475,532	-132,201	0,167	0,016
-474,518	69,376	-0,048	0,036
-473,503	112,303	0,055	0,048
-472,489	-71,123	0,042	-0,011
-471,474	-33,521	0,190	0,076
-470,459	-200,000	-0,004	-0,075
-469,445	380,437	-0,045	-0,067
-468,430	-38,287	-0,036	-0,014
-467,416	159,047	-0,108	-0,110
-466,401	151,060	-0,106	0,106
-465,386	241,581	-0,083	0,101
-464,372	47,954	0,097	-0,066
-463,357	-188,363	0,036	-0,000
-462,343	173,343	-0,098	-0,104
-461,328	-24,153	-0,122	-0,053
-460,313	-200,000	0,008	-0,040
-459,299	-33,208	-0,058	0,024
-458,284	-136,734	0,131	0,011
-457,270	-71,437	-0,044	-0,012
-456,255	195,727	0,065	0,072
-455,241	-200,000	0,004	-0,118
-454,226	-157,555	-0,113	-0,005
-453,211	-200,000	-0,009	0,036
-452,197	-200,000	0,013	0,059
-451,182	79,836	0,099	-0,078
-450,168	105,322	-0,052	-0,045
-449,153	-133,521	-0,012	-0,001
-448,138	-200,000	0,021	0,079
-447,124	-200,000	0,003	-0,023
-446,109	-106,670	-0,174	-0,028
-445,095	82,575	-0,076	-0,060
-444,080	-102,492	0,150	0,026
-443,065	-137,391	0,093	0,008
-442,051	800,000	-0,009	0,028
-441,036	-200,000	-0,007	0,032
-440,022	-148,663	-0,037	-0,002
-439,007	-105,394	-0,056	0,009
-437,992	-200,000	0,023	0,080
-436,978	199,758	0,129	0,145
-435,963	751,092	0,019	-0,038
-434,949	-65,216	0,104	0,030
-433,934	204,978	-0,099	-0,112
-432,919	-200,000	-0,013	-0,102
-431,905	-95,773	0,118	0,023
-430,890	32,895	0,056	0,035
-429,876	800,000	0,055	0,118
-428,861	153,122	0,115	0,115
-427,846	-51,515	0,058	0,020
-426,832	800,000	0,009	0,027
-425,817	-10,651	-0,070	0,034
-424,803	59,575	0,043	-0,031
-423,788	-75,631	0,027	0,007
-422,773	-71,883	0,104	-0,028
-421,759	-74,671	0,113	-0,030
-420,744	147,651	0,090	-0,088
-419,730	-200,000	0,000	0,061
-418,715	49,680	-0,089	0,061
-417,701	-152,550	0,069	0,004
-416,686	192,355	0,054	-0,059
-415,671	-16,182	0,032	-0,015
-414,657	706,108	0,050	0,098
-413,642	397,709	0,023	-0,035
-412,628	-176,600	0,029	-0,001
-411,613	-58,500	-0,062	0,020
-410,598	-114,891	-0,108	-0,015
-409,584	-200,000	0,008	0,027
-408,569	-127,242	0,191	0,020
-407,555	-69,418	0,054	-0,015
-406,540	-87,205	-0,081	0,018
-405,525	51,393	0,059	-0,041
-404,511	462,929	0,075	-0,123
-403,496	-200,000	0,001	-0,111
-402,482	131,515	0,046	-0,043
-401,467	253,658	0,010	0,012
-400,452	32,546	-0,074	0,047
-399,438	48,709	0,067	0,046
-398,423	-200,000	-0,023	-0,121
-397,409	-200,000	-0,031	0,121
-396,394	176,035	-0,061	-0,065
-395,379	313,040	0,030	0,041
-394,365	-200,000	0,000	-0,050
-393,350	344,103	0,017	0,024
-392,336	-133,824	0,108	-0,010
-391,321	31,106	-0,012	-0,008
-390,306	105,789	-0,048	-0,042
-389,292	199,242	0,042	0,047
-388,277	234,797	0,035	-0,042
-387,263	-200,000	0,006	0,036
-386,248	-200,000	0,008	0,064
-385,233	122,762	-0,046	0,042
-384,219	800,000	0,037	0,102
-383,204	800,000	0,023	-0,058
-382,190	-151,570	0,106	0,006
-381,175	-200,000	-0,000	-0,051
-380,160	-71,183	0,123	0,034
-379,146	-53,482	0,149	0,049
-378,131	-200,000	0,001	0,034
-377,117	-75,088	0,115	0,030
-376,102	-71,932	-0,135	-0,036
-375,088	233,512	0,162	0,195
-374,073	-89,354	-0,128	-0,027
-373,058	-200,000	0,013	0,105
-372,044	-200,000	0,016	0,094
-371,029	166,807	-0,081	0,084
-370,015	800,000	0,058	0,133
-369,000	800,000	0,034	0,069
-367,985	800,000	-0,057	-0,121
-366,971	-116,715	0,189	0,025
-365,956	-166,820	0,103	0,003
-364,942	-200,000	-0,002	0,096
-363,927	-200,000	0,005	0,136
-362,912	37,435	0,052	-0,034
-361,898	136,799	0,023	-0,022
-360,883	-125,357	0,095	-0,010
-359,869	800,000	-0,097	-0,207
-358,854	-179,327	0,089	-0,001
-357,839	800,000	0,037	0,115
-356,825	750,492	0,047	0,093
-355,810	-4,423	-0,063	-0,032
-354,796	-200,000	0,011	0,039
-353,781	473,008	-0,017	0,029
-352,766	-53,017	-0,058	-0,019
-351,752	-200,000	-0,025	0,000
-350,737	192,987	0,039	0,043
-349,723	-144,719	0,038	-0,002
-348,708	-102,823	-0,029	-0,005
-347,693	-83,822	-0,154	-0,035
-346,679	800,000	-0,059	-0,145
-345,664	-200,000	0,008	0,117
-344,650	-104,290	-0,043	0,007
-343,635	-200,000	0,030	0,181
-342,620	-98,028	0,062	0,012
-341,606	-50,429	0,062	-0,021
-340,591	-101,180	-0,102	-0,018
-339,577	-200,000	0,018	-0,062
-338,562	800,000	0,067	-0,150
-337,548	-90,002	-0,122	-0,026
-336,533	-33,343	-0,035	-0,014
-335,518	800,000	-0,052	0,112
-334,504	-38,030	0,126	0,049
-333,489	-25,345	0,061	-0,026
-332,475	-1,211	0,058	-0,030
-331,460	158,877	-0,083	0,084
-330,445	-200,000	-0,004	-0,041
-329,431	-200,000	-0,011	-0,109
-328,416	-30,254	0,080	0,033
-327,402	280,155	0,029	0,038
-326,387	581,829	-0,117	-0,210
-325,372	-200,000	0,026	-0,124
-324,358	242,091	-0,122	-0,149
-323,343	-163,326	-0,174	0,006
-322,329	800,000	0,053	-0,109
-321,314	212,911	-0,057	0,066
-320,299	16,047	-0,059	-0,034
-319,285	173,814	-0,072	-0,076
-318,270	-200,000	-0,012	0,062
-317,256	800,000	-0,039	-0,107
-316,241	800,000	0,060	-0,123
-315,226	-76,562	-0,044	0,011
-314,212	-115,781	0,111	-0,015
-313,197	-70,608	-0,084	-0,023
-312,183	86,042	-0,044	0,036
-311,168	302,602	-0,072	-0,097
-310,153	-96,855	-0,070	0,013
-309,139	341,000	0,038	-0,054
-308,124	-89,173	0,068	-0,014
-307,110	-200,000	-0,027	0,172
-306,095	-105,487	0,204	0,033
-305,080	-142,093	0,059	0,004
-304,066	-200,000	-0,003	0,028
-303,051	417,228	0,038	-0,059
-302,037	-200,000	-0,017	0,110
-301,022	69,876	-0,017	0,013
-300,008	-200,000	-0,007	-0,128
-298,993	-155,727	0,123	0,006
-297,978	-115,055	-0,095	0,013
-296,964	177,546	0,028	-0,030
-295,949	629,436	0,082	-0,152
-294,935	75,539	-0,016	-0,013
-293,920	-134,433	-0,031	0,003
-292,905	-98,835	-0,152	0,028
-291,891	405,681	0,075	0,116
-290,876	-200,000	0,014	0,094
-289,862	-77,893	-0,088	-0,022
-288,847	255,608	0,049	0,062
-287,832	135,986	-0,017	-0,016
-286,818	-11,129	0,075	-0,036
-285,803	-6,429	-0,055	-0,027
-284,789	86,139	0,136	-0,109
-283,774	800,000	0,090	0,181
-282,759	-200,000	-0,013	-0,132
-281,745	800,000	-0,014	-0,029
-280,730	-140,460	-0,077	-0,006
-279,716	71,660	0,092	0,069
-278,701	-70,566	-0,228	0,062
-277,686	-200,000	0,002	0,126
-276,672	800,000	-0,044	-0,110
-275,657	-200,000	0,042	0,157
-274,643	800,000	0,093	-0,188
-273,628	36,312	-0,162	0,104
-272,613	-200,000	-0,034	-0,133
-271,599	-177,322	-0,074	0,001
-270,584	115,406	0,059	-0,052
-269,570	403,737	0,072	-0,110
-268,555	-200,000	0,018	0,120
-267,540	-200,000	0,006	-0,184
-266,526	522,469	0,055	-0,093
-265,511	-52,532	-0,068	-0,023
-264,497	-58,009	0,025	0,008
-263,482	-27,919	0,077	0,032
-262,467	324,461	0,065	0,091
-261,453	800,000	-0,022	-0,046
-260,438	72,239	-0,039	-0,029
-259,424	290,961	-0,017	0,022
-258,409	-200,000	0,011	-0,094
-257,395	438,440	-0,034	-0,054
-256,380	211,960	0,032	-0,036
-255,365	588,387	0,049	0,089
-254,351	-200,000	-0,022	-0,093
-253,336	-135,987	-0,045	0,004
-252,322	56,489	-0,152	-0,108
-251,307	-46,583	-0,130	-0,046
-250,292	-200,000	-0,011	0,083
-249,278	71,543	0,087	0,065
-248,263	-200,000	0,011	0,179
-247,249	-200,000	0,001	0,123
-246,234	36,985	-0,124	0,079
-245,219	145,119	0,046	0,045
-244,205	-200,000	-0,023	-0,086
-243,190	800,000	-0,020	0,047
-242,176	-200,000	-0,002	-0,119
-241,161	-31,536	-0,079	-0,032
-240,146	-200,000	-0,010	0,052
-239,132	800,000	-0,023	-0,048
-238,117	-156,258	0,026	-0,001
-237,103	-22,394	-0,086	-0,038
-236,088	800,000	0,064	-0,161
-235,073	77,116	0,094	-0,072
-234,059	-200,000	-0,014	0,119
-233,044	238,957	0,032	0,039
-232,030	-200,000	-0,001	-0,014
-231,015	-200,000	-0,020	-0,065
-230,000	-132,841	-0,103	0,009
-228,986	43,478	-0,024	-0,016
-227,971	205,626	-0,068	-0,076
-226,957	21,949	0,120	-0,071
-225,942	-200,000	0,003	0,094
-224,927	21,049	0,022	0,013
-223,913	41,015	-0,110	0,072
-222,898	-200,000	0,042	-0,214
-221,884	116,732	-0,128	-0,114
-220,869	800,000	-0,004	-0,009
-219,855	800,000	-0,036	-0,096
-218,840	-200,000	0,015	0,154
-217,825	196,826	0,028	0,031
-216,811	-83,805	0,146	0,034
-215,796	-200,000	0,009	-0,041
-214,782	322,972	0,042	-0,058
-213,767	62,853	0,084	0,061
-212,752	-109,483	0,106	-0,016
-211,738	800,000	0,024	-0,054
-210,723	-4,963	-0,094	-0,047
-209,709	-15,490	0,135	0,062
-208,694	120,237	0,013	-0,012
-207,679	-200,000	0,049	0,219
-206,665	695,318	0,044	-0,084
-205,650	-200,000	0,002	0,083
-204,636	-72,584	-0,034	0,009
-203,621	350,817	-0,047	-0,067
-202,606	588,437	-0,092	0,165
-201,592	358,697	0,056	-0,082
-200,577	800,000	-0,040	-0,094
-199,563	344,717	-0,055	-0,079
-198,548	-14,723	0,054	0,025
-197,533	-200,000	0,008	0,026
-196,519	-88,984	-0,147	0,031
-195,504	6,690	0,092	0,050
-194,490	800,000	-0,041	-0,113
-193,475	-106,648	0,091	0,014
-192,460	-200,000	0,012	-0,113
-191,446	-28,669	0,062	0,026
-190,431	117,394	-0,035	0,031
-189,417	-133,333	-0,098	0,009
-188,402	297,016	-0,065	-0,086
-187,387	800,000	0,020	-0,062
-186,373	278,226	0,028	-0,036
-185,358	-97,510	0,027	-0,005
-184,344	800,000	0,023	0,067
-183,329	138,057	0,058	-0,055
-182,315	-200,000	0,019	0,095
-181,300	271,725	0,021	0,027
-180,285	-200,000	-0,002	0,024
-179,271	-54,852	-0,200	-0,065
-178,256	-200,000	0,001	-0,012
-177,242	333,043	0,037	-0,052
-176,227	222,065	0,046	0,054
-175,212	-64,123	-0,050	0,015
-174,198	-200,000	0,020	-0,097
-173,183	-32,742	-0,044	-0,017
-172,169	-8,745	-0,033	-0,016
-171,154	-155,682	-0,081	0,004
-170,139	277,386	-0,137	0,176
-169,125	-99,582	-0,056	-0,010
-168,110	-200,000	-0,008	-0,029
-167,096	-70,942	0,073	0,020
-166,081	-7,374	-0,038	0,019
-165,066	-200,000	0,015	-0,068
-164,052	800,000	0,086	-0,184
-163,037	228,027	-0,019	0,023
-162,023	3,225	-0,154	-0,081
-161,008	-94,040	0,087	0,017
-159,993	-200,000	-0,014	0,150
-158,979	385,567	0,033	0,050
-157,964	-200,000	0,004	-0,035
-156,950	-36,390	0,035	0,014
-155,935	-117,557	0,141	-0,018
-154,920	143,988	-0,044	0,042
-153,906	-114,121	0,106	-0,015
-152,891	160,321	0,090	0,091
-151,877	50,152	-0,065	0,044
-150,862	-200,000	0,010	-0,138
-149,847	-200,000	-0,017	-0,057
-148,833	-200,000	0,013	0,075
-147,818	149,262	0,105	-0,103
-146,804	-184,024	0,074	0,001
-145,789	-49,317	-0,087	-0,030
-144,775	-200,000	-0,017	-0,081
-143,760	76,677	0,140	-0,107
-142,745	359,236	0,086	0,125
-141,731	363,895	0,079	-0,115
-140,716	-200,000	0,010	0,069
-139,702	-200,000	0,006	0,031
-138,687	-200,000	0,004	-0,022
-137,672	800,000	0,008	0,017
-136,658	12,573	-0,065	-0,036
-135,643	-69,105	-0,129	0,036
-134,629	144,802	-0,043	-0,041
-133,614	-200,000	-0,029	-0,111
-132,599	-136,145	-0,087	-0,007
-131,585	-93,203	0,081	0,016
-130,570	-32,323	-0,118	-0,047
-129,556	-62,411	0,128	-0,038
-128,541	8,681	-0,077	-0,042
-127,526	443,684	-0,039	-0,062
-126,512	-150,493	0,065	-0,004
-125,497	800,000	0,019	-0,054
-124,483	237,397	0,065	-0,078
-123,468	19,359	-0,111	0,064
-122,453	241,603	0,097	-0,117
-121,439	800,000	0,051	-0,116
