DTS Sentinel unit serial number:	SN410029Multiplexer serial number:	ORYXHardware model number:	OX2-SRSoftware version number:	ORYX F/W v4,00 Oryx Data Collector v3.7.2.0data status	okinstallation	B3 Nyhavnadifferential loss correction	single-endedforward channel	channel 1reverse channel	N/Adate	2023/11/28time	12:27:30forward acquisition time	300,00reverse acquisition time	0,00gamma	499,1914k internal	0,3140k external	0,3140temperature offset calibration	1,0000default loss term (dB/km)	0,3820temperature slope calibration	1,0000multiplexer offset coefficient	1,0000multiplexer slope coefficient	1,0000fibre end	0,00T internal ref (°C)	8,49T ext. ref 1 (°C)	-7,66T ext. ref 2 (°C)	-7,87length (m)	temperature (°C)	Stokes	anti-Stokes-744,400	253,054	-0,169	-0,215
-743,385	-200,000	-0,028	0,281
-742,371	-200,000	-0,051	-0,280
-741,356	-200,000	0,009	0,250
-740,342	155,665	-0,255	-0,261
-739,327	-200,000	0,034	0,371
-738,312	157,987	-0,236	-0,243
-737,298	800,000	0,095	0,284
-736,283	-3,943	-0,192	-0,098
-735,269	-200,000	0,054	0,375
-734,254	234,044	-0,247	-0,302
-733,239	-107,960	-0,189	0,030
-732,225	305,611	-0,154	-0,213
-731,210	51,728	0,196	0,138
-730,196	-68,671	-0,066	-0,019
-729,181	93,023	-0,174	-0,146
-728,167	298,583	-0,037	-0,051
-727,152	78,966	-0,094	-0,075
-726,137	-34,568	-0,155	0,063
-725,123	800,000	-0,044	-0,093
-724,108	338,237	0,016	0,024
-723,094	-40,005	-0,131	-0,050
-722,079	-200,000	0,004	-0,058
-721,064	325,566	-0,073	-0,103
-720,050	521,343	0,052	-0,092
-719,035	-116,851	-0,116	-0,016
-718,021	47,453	0,064	0,044
-717,006	-58,733	-0,080	0,026
-715,991	-200,000	-0,015	-0,130
-714,977	800,000	0,016	0,042
-713,962	-200,000	-0,032	0,113
-712,948	601,827	0,053	0,098
-711,933	-92,299	-0,028	-0,006
-710,918	18,629	-0,157	-0,093
-709,904	-156,472	-0,040	0,002
-708,889	3,279	0,024	-0,013
-707,875	800,000	-0,050	-0,126
-706,860	800,000	-0,044	0,129
-705,845	262,059	0,025	-0,032
-704,831	16,612	0,098	0,057
-703,816	161,153	-0,051	-0,053
-702,802	-200,000	-0,011	-0,037
-701,787	-79,525	-0,096	0,024
-700,772	-53,148	-0,049	-0,016
-699,758	-136,110	0,113	-0,010
-698,743	274,587	-0,053	0,070
-697,729	119,456	0,126	0,116
-696,714	-8,926	-0,084	-0,042
-695,699	-7,576	-0,046	0,023
-694,685	-23,061	-0,089	0,040
-693,670	127,788	-0,142	-0,134
-692,656	303,508	0,030	-0,042
-691,641	-200,000	-0,019	-0,098
-690,627	-200,000	0,036	0,174
-689,612	800,000	-0,049	0,123
-688,597	-115,765	-0,087	-0,012
-687,583	155,298	-0,108	-0,110
-686,568	-100,379	-0,087	-0,016
-685,554	197,210	-0,043	0,049
-684,539	-200,000	-0,007	-0,063
-683,524	-76,386	-0,166	0,043
-682,510	-200,000	0,003	0,085
-681,495	-93,281	0,103	-0,021
-680,481	-68,313	0,050	-0,014
-679,466	357,302	-0,042	0,062
-678,451	-38,080	-0,080	0,031
-677,437	-86,171	-0,098	0,022
-676,422	118,360	-0,091	-0,083
-675,408	-200,000	-0,002	-0,064
-674,393	-74,043	-0,154	0,041
-673,378	-105,993	-0,078	0,013
-672,364	-100,593	0,029	0,005
-671,349	33,472	-0,109	-0,070
-670,335	52,049	-0,056	0,039
-669,320	139,766	0,084	0,082
-668,305	768,135	0,034	-0,069
-667,291	-7,062	0,034	-0,017
-666,276	157,996	-0,068	-0,070
-665,262	129,351	-0,117	-0,110
-664,247	-200,000	0,022	-0,165
-663,232	-200,000	-0,151	-0,000
-662,218	-200,000	0,035	0,132
-661,203	-200,000	0,044	0,241
-660,189	325,291	0,091	0,129
-659,174	-111,029	-0,091	-0,014
-658,159	504,585	-0,038	0,065
-657,145	5,397	-0,192	-0,104
-656,130	778,208	-0,024	-0,049
-655,116	183,352	0,027	0,029
-654,101	81,179	0,041	-0,033
-653,086	221,139	0,090	0,107
-652,072	633,785	0,074	-0,139
-651,057	-133,294	-0,067	-0,006
-650,043	5,893	-0,015	-0,008
-649,028	-156,596	0,114	0,005
-648,014	800,000	0,030	-0,096
-646,999	129,645	-0,060	0,056
-645,984	540,168	0,048	0,084
-644,970	800,000	-0,027	-0,060
-643,955	-66,035	-0,150	-0,044
-642,941	800,000	-0,024	0,075
-641,926	-200,000	0,003	-0,030
-640,911	73,499	-0,090	-0,069
-639,897	-108,280	-0,084	0,013
-638,882	-2,488	0,065	0,034
-637,868	-20,820	0,088	-0,040
-636,853	-133,749	-0,144	0,013
-635,838	-200,000	-0,009	-0,162
-634,824	-105,482	-0,035	0,006
-633,809	577,034	-0,034	0,062
-632,795	209,081	0,074	0,086
-631,780	570,945	0,033	0,059
-630,765	800,000	-0,023	0,059
-629,751	193,661	0,106	-0,118
-628,736	-51,375	0,130	0,044
-627,722	386,764	-0,048	0,073
-626,707	-160,700	0,071	-0,003
-625,692	-119,785	0,190	-0,024
-624,678	203,001	-0,079	0,090
-623,663	107,230	-0,028	0,025
-622,649	-200,000	0,009	-0,162
-621,634	183,324	0,028	-0,031
-620,619	-149,771	-0,068	0,004
-619,605	-95,814	0,141	0,028
-618,590	28,443	0,071	-0,044
-617,576	43,176	-0,103	0,069
-616,561	800,000	0,055	-0,126
-615,546	-42,074	-0,080	-0,030
-614,532	286,265	-0,011	0,015
-613,517	218,370	0,014	0,016
-612,503	-62,329	0,053	-0,016
-611,488	800,000	0,016	-0,043
-610,474	800,000	0,052	0,130
-609,459	-124,160	0,008	0,001
-608,444	-200,000	0,041	0,177
-607,430	-200,000	-0,002	-0,045
-606,415	800,000	-0,086	-0,182
-605,401	-91,489	0,069	0,014
-604,386	35,130	-0,031	0,020
-603,371	579,197	-0,043	0,078
-602,357	800,000	-0,042	-0,105
-601,342	671,047	-0,037	0,071
-600,328	-200,000	-0,022	-0,161
-599,313	628,005	-0,021	0,040
-598,298	17,281	0,046	0,027
-597,284	560,593	0,014	-0,025
-596,269	430,674	0,057	0,091
-595,255	-23,791	-0,064	0,028
-594,240	-95,412	-0,131	0,026
-593,225	-200,000	0,040	-0,199
-592,211	-200,000	0,005	-0,101
-591,196	-200,000	0,028	-0,112
-590,182	36,988	-0,052	-0,034
-589,167	174,617	-0,045	0,048
-588,152	567,047	-0,055	-0,100
-587,138	650,844	0,018	0,034
-586,123	-200,000	-0,021	-0,085
-585,109	133,460	-0,030	0,029
-584,094	800,000	-0,049	-0,115
-583,079	112,684	0,149	-0,133
-582,065	4,959	-0,123	-0,066
-581,050	-52,389	0,130	0,044
-580,036	16,242	-0,059	-0,034
-579,021	-46,806	-0,204	-0,073
-578,006	131,769	-0,031	-0,030
-576,992	-200,000	0,009	-0,092
-575,977	-142,396	-0,063	0,005
-574,963	81,555	0,117	-0,093
-573,948	-200,000	0,003	-0,113
-572,934	-25,206	-0,011	0,005
-571,919	107,950	0,019	0,017
-570,904	97,699	0,084	-0,071
-569,890	177,084	-0,017	0,018
-568,875	-200,000	-0,011	0,082
-567,861	5,036	0,105	0,057
-566,846	68,743	-0,092	0,069
-565,831	146,930	0,080	0,079
-564,817	-200,000	0,011	-0,117
-563,802	229,028	-0,077	0,092
-562,788	214,273	0,085	-0,099
-561,773	211,689	-0,089	-0,103
-560,758	-200,000	-0,007	0,090
-559,744	-8,692	0,090	-0,044
-558,729	142,579	0,080	0,078
-557,715	69,824	-0,092	-0,069
-556,700	80,770	-0,150	-0,119
-555,685	-200,000	-0,008	0,030
-554,671	68,604	0,136	0,102
-553,656	642,153	0,016	-0,029
-552,642	800,000	-0,021	0,044
-551,627	788,858	0,058	0,118
-550,612	89,934	-0,073	0,060
-549,598	170,120	0,047	0,049
-548,583	-200,000	-0,003	-0,080
-547,569	-200,000	-0,016	0,068
-546,554	-82,921	0,099	0,023
-545,539	-110,669	0,074	-0,011
-544,525	-200,000	-0,039	0,145
-543,510	-151,887	-0,166	-0,009
-542,496	800,000	-0,068	-0,166
-541,481	14,244	-0,051	-0,029
-540,466	-57,983	-0,063	-0,020
-539,452	-200,000	0,037	0,144
-538,437	31,749	-0,051	-0,032
-537,423	-200,000	0,013	-0,128
-536,408	-200,000	-0,168	0,000
-535,393	800,000	0,077	-0,159
-534,379	-200,000	0,028	-0,238
-533,364	-17,453	-0,103	-0,048
-532,350	-0,268	0,110	0,057
-531,335	106,320	-0,052	0,045
-530,321	-200,000	0,000	-0,039
-529,306	250,089	-0,035	0,044
-528,291	-200,000	-0,007	0,106
-527,277	183,696	-0,067	0,073
-526,262	-200,000	0,025	0,085
-525,248	-200,000	0,006	0,119
-524,233	272,494	0,045	-0,058
-523,218	23,177	0,038	-0,023
-522,204	72,686	0,086	-0,066
-521,189	800,000	0,033	0,070
-520,175	-200,000	0,014	-0,058
-519,160	190,917	-0,070	0,078
-518,145	-135,678	-0,070	0,006
-517,131	-36,900	-0,076	0,030
-516,116	-161,123	0,127	0,005
-515,102	-123,669	-0,061	0,007
-514,087	366,747	0,060	-0,089
-513,072	-119,168	-0,029	-0,004
-512,058	174,991	-0,123	-0,131
-511,043	800,000	-0,032	0,096
-510,029	800,000	0,014	-0,042
-509,014	800,000	0,060	-0,147
-507,999	-200,000	0,035	-0,126
-506,985	-200,000	0,024	0,081
-505,970	86,089	0,032	0,026
-504,956	-46,550	0,035	-0,013
-503,941	800,000	0,017	-0,042
-502,926	47,497	-0,108	0,074
-501,912	-95,364	0,077	0,015
-500,897	59,100	0,015	-0,011
-499,883	800,000	0,037	-0,099
-498,868	800,000	-0,068	-0,150
-497,853	84,562	-0,108	-0,087
-496,839	-200,000	0,000	-0,013
-495,824	-106,294	0,042	0,007
-494,810	-102,605	-0,065	-0,011
-493,795	-63,858	0,053	-0,016
-492,781	4,569	-0,054	0,029
-491,766	-200,000	-0,028	0,122
-490,751	42,642	-0,086	0,057
-489,737	121,551	0,108	0,099
-488,722	-200,000	0,015	0,081
-487,708	118,258	0,043	0,039
-486,693	463,710	-0,023	0,038
-485,678	46,167	0,066	0,045
-484,664	-200,000	0,002	0,016
-483,649	21,405	-0,105	0,063
-482,635	321,375	0,062	0,087
-481,620	800,000	-0,027	0,061
-480,605	143,496	0,053	0,052
-479,591	13,978	-0,088	-0,050
-478,576	-145,813	-0,180	-0,012
-477,562	800,000	0,035	-0,098
-476,547	-61,141	0,026	-0,008
-475,532	-40,760	0,108	0,041
-474,518	392,364	0,028	0,043
-473,503	518,605	-0,099	0,171
-472,489	-200,000	0,003	0,022
-471,474	-94,253	0,105	-0,021
-470,459	6,376	-0,172	-0,093
-469,445	125,611	0,042	-0,039
-468,430	-138,953	-0,134	-0,011
-467,416	641,419	0,019	0,035
-466,401	-133,188	0,036	0,003
-465,386	205,631	0,020	-0,023
-464,372	-125,330	-0,085	-0,009
-463,357	-200,000	-0,039	-0,128
-462,343	-142,954	-0,175	-0,012
-461,328	461,044	0,035	0,057
-460,313	800,000	-0,035	0,071
-459,299	-200,000	-0,002	0,038
-458,284	53,178	-0,026	0,018
-457,270	-200,000	0,006	0,045
-456,255	-90,822	-0,078	0,016
-455,241	55,929	-0,112	0,079
-454,226	152,556	0,039	-0,039
-453,211	171,924	0,103	0,109
-452,197	800,000	-0,039	-0,080
-451,182	795,447	0,036	-0,074
-450,168	-7,487	0,078	0,038
-449,153	-79,179	-0,103	-0,025
-448,138	-200,000	0,013	-0,051
-447,124	-200,000	-0,031	-0,197
-446,109	800,000	-0,039	-0,119
-445,095	519,619	-0,098	0,170
-444,080	800,000	-0,024	0,078
-443,065	800,000	0,048	0,112
-442,051	-200,000	0,003	0,021
-441,036	-20,825	0,091	-0,041
-440,022	28,973	-0,034	-0,021
-439,007	360,980	0,041	-0,061
-437,992	155,631	0,056	0,057
-436,978	229,204	0,026	0,031
-435,963	-84,334	0,067	0,015
-434,949	-131,080	-0,054	-0,005
-433,934	-200,000	-0,030	-0,210
-432,919	18,489	0,018	0,011
-431,905	-200,000	0,031	-0,121
-430,890	75,765	0,016	-0,012
-429,876	-200,000	0,025	0,000
-428,861	-25,643	0,126	0,054
-427,846	-200,000	-0,009	0,108
-426,832	-20,294	-0,066	0,030
-425,817	800,000	-0,023	-0,060
-424,803	-142,460	-0,092	0,007
-423,788	-24,959	0,043	0,018
-422,773	44,838	0,077	-0,051
-421,759	35,141	-0,008	-0,005
-420,744	354,518	-0,066	-0,096
-419,730	-40,837	-0,075	-0,028
-418,715	264,891	-0,056	-0,072
-417,701	263,638	0,034	-0,044
-416,686	-120,744	-0,061	-0,007
-415,671	-200,000	-0,025	-0,152
-414,657	-200,000	0,008	-0,040
-413,642	282,075	0,036	0,047
-412,628	582,498	-0,081	-0,147
-411,613	108,424	0,112	-0,098
-410,598	-128,391	0,112	0,011
-409,584	6,383	-0,108	-0,058
-408,569	-42,391	-0,104	0,038
-407,555	800,000	-0,027	-0,083
-406,540	800,000	0,061	0,181
-405,525	-22,174	0,023	-0,010
-404,511	-200,000	-0,016	0,051
-403,496	-107,550	-0,128	-0,020
-402,482	800,000	0,013	0,035
-401,467	-200,000	-0,014	0,079
-400,452	720,818	-0,100	0,195
-399,438	205,223	-0,112	0,127
-398,423	-200,000	0,002	-0,026
-397,409	121,629	0,029	-0,026
-396,394	-200,000	-0,002	-0,115
-395,379	572,159	-0,035	0,063
-394,365	800,000	-0,034	0,093
-393,350	-120,063	0,074	-0,009
-392,336	800,000	-0,050	0,152
-391,321	-35,016	0,039	-0,016
-390,306	186,620	-0,037	-0,041
-389,292	800,000	0,076	-0,156
-388,277	102,446	0,010	-0,009
-387,263	123,719	0,083	0,076
-386,248	331,123	0,021	-0,029
-385,233	32,341	0,092	0,058
-384,219	-200,000	0,003	-0,036
-383,204	-200,000	-0,010	0,056
-382,190	287,693	-0,102	-0,135
-381,175	-200,000	0,001	0,038
-380,160	800,000	-0,054	0,119
-379,146	-189,365	-0,074	0,001
-378,131	144,274	0,154	0,150
-377,117	114,062	-0,054	0,048
-376,102	-45,041	-0,181	0,065
-375,088	153,629	-0,050	-0,050
-374,073	175,174	-0,090	0,096
-373,058	2,851	0,191	0,101
-372,044	133,849	0,036	0,034
-371,029	650,078	0,090	0,170
-370,015	58,813	-0,049	0,035
-369,000	206,658	0,038	-0,044
-367,985	-200,000	0,024	-0,081
-366,971	-84,038	-0,162	-0,037
-365,956	-200,000	0,058	0,224
-364,942	800,000	-0,108	0,244
-363,927	800,000	-0,053	0,171
-362,912	345,324	-0,106	0,153
-361,898	37,067	-0,071	-0,046
-360,883	642,503	0,034	-0,063
-359,869	-89,222	-0,068	0,015
-358,854	-97,357	0,103	-0,019
-357,839	-21,862	0,083	-0,037
-356,825	89,663	-0,047	0,038
-355,810	-24,877	-0,184	0,080
-354,796	63,574	0,030	-0,022
-353,781	-200,000	-0,031	-0,216
-352,766	69,276	-0,059	-0,044
-351,752	-75,159	0,062	-0,016
-350,737	-44,276	0,121	-0,044
-349,723	184,766	-0,044	0,047
-348,708	746,931	0,093	0,183
-347,693	11,403	-0,011	0,006
-346,679	800,000	-0,032	-0,094
-345,664	-61,348	-0,066	-0,020
-344,650	192,083	0,070	-0,078
-343,635	800,000	0,035	-0,108
-342,620	-126,168	0,085	0,009
-341,606	511,597	-0,067	0,115
-340,591	233,124	-0,105	-0,126
-339,577	-142,187	0,087	0,006
-338,562	99,229	-0,046	-0,039
-337,548	800,000	-0,007	0,015
-336,533	-154,776	-0,094	-0,004
-335,518	60,123	0,152	-0,109
-334,504	-200,000	0,017	0,059
-333,489	-20,305	0,068	-0,030
-332,475	-102,904	-0,014	0,002
-331,460	800,000	0,032	-0,093
-330,445	-84,123	0,089	0,020
-329,431	-20,621	0,114	0,051
-328,416	306,673	-0,012	-0,016
-327,402	98,813	0,134	0,113
-326,387	-64,030	0,031	-0,009
-325,372	-50,676	-0,124	-0,042
-324,358	438,518	-0,086	-0,137
-323,343	398,152	0,025	0,038
-322,329	49,067	-0,009	0,006
-321,314	-200,000	0,001	0,074
-320,299	800,000	0,032	0,097
-319,285	-90,161	-0,198	-0,042
-318,270	201,777	0,094	0,106
-317,256	343,660	-0,041	0,059
-316,241	261,205	0,069	-0,088
-315,226	178,128	0,083	-0,089
-314,212	-127,686	0,139	0,014
-313,197	47,413	0,069	0,046
-312,183	-174,607	0,044	-0,001
-311,168	42,628	-0,085	0,056
-310,153	420,997	0,062	0,097
-309,139	-88,756	-0,130	-0,028
-308,124	610,694	0,049	0,090
-307,110	-200,000	-0,011	0,048
-306,095	-171,340	-0,066	0,002
-305,080	-200,000	-0,019	-0,134
-304,066	-45,829	-0,161	-0,058
-303,051	212,525	0,050	-0,058
-302,037	800,000	0,022	0,062
-301,022	-200,000	-0,002	-0,128
-300,008	356,289	0,102	0,148
-298,993	525,964	0,053	0,092
-297,978	-128,577	0,149	0,015
-296,964	233,644	0,079	-0,095
-295,949	-82,615	-0,081	-0,019
-294,935	15,880	0,145	0,083
-293,920	-13,780	-0,187	-0,088
-292,905	-121,367	0,034	-0,004
-291,891	-200,000	0,009	0,089
-290,876	386,876	0,030	0,045
-289,862	402,967	-0,082	0,126
-288,847	-26,453	0,059	-0,025
-287,832	275,048	-0,023	-0,030
-286,818	-200,000	-0,008	0,073
-285,803	460,375	0,029	-0,047
-284,789	-149,027	0,059	-0,003
-283,774	-53,608	-0,095	0,032
-282,759	-200,000	-0,001	0,049
-281,745	-46,834	0,068	-0,024
-280,730	-200,000	0,016	0,057
-279,716	32,877	-0,070	0,044
-278,701	375,771	-0,030	0,045
-277,686	-14,386	0,200	-0,093
-276,672	-58,869	-0,152	0,048
-275,657	-83,998	0,209	0,048
-274,643	-200,000	-0,006	0,043
-273,628	306,093	-0,086	-0,117
-272,613	-200,000	0,001	0,021
-271,599	-152,441	0,140	0,007
-270,584	127,844	0,060	0,055
-269,570	-70,010	0,083	-0,023
-268,555	82,669	-0,024	-0,019
-267,540	143,277	-0,074	-0,072
-266,526	-200,000	0,007	0,074
-265,511	800,000	-0,018	0,039
-264,497	227,978	-0,045	-0,054
-263,482	-70,390	-0,100	0,027
-262,467	800,000	0,039	0,093
-261,453	800,000	0,026	0,059
-260,438	226,912	-0,071	-0,084
-259,424	-5,764	-0,077	-0,038
-258,409	185,627	-0,075	-0,081
-257,395	-118,000	0,033	0,004
-256,380	164,840	-0,039	0,040
-255,365	-131,494	-0,058	0,005
-254,351	800,000	-0,061	0,124
-253,336	-200,000	0,029	0,116
-252,322	-115,955	-0,115	0,015
-251,307	-130,476	0,017	-0,002
-250,292	-200,000	0,175	-0,001
-249,278	-200,000	0,018	-0,077
-248,263	-200,000	0,035	-0,117
-247,249	163,844	0,067	0,068
-246,234	324,490	-0,114	0,159
-245,219	293,799	0,053	-0,071
-244,205	-107,343	-0,023	-0,004
-243,190	-33,444	0,120	-0,048
-242,176	472,458	0,123	0,202
-241,161	9,618	0,041	0,023
-240,146	153,050	0,062	-0,062
-239,132	245,687	-0,069	-0,084
-238,117	338,715	0,032	-0,045
-237,103	163,808	0,028	0,028
-236,088	-200,000	0,051	0,168
-235,073	-200,000	-0,023	-0,132
-234,059	-115,476	0,058	-0,008
-233,044	-200,000	0,048	0,189
-232,030	202,143	0,035	0,039
-231,015	800,000	0,092	-0,187
-230,000	800,000	-0,040	-0,124
-228,986	22,350	0,115	-0,068
-227,971	335,768	0,046	-0,065
-226,957	-200,000	0,023	0,086
-225,942	800,000	0,022	0,046
-224,927	310,322	-0,037	-0,051
-223,913	153,082	0,076	-0,075
-222,898	-69,978	-0,091	-0,025
-221,884	-200,000	-0,022	-0,128
-220,869	-50,478	0,065	0,022
-219,855	-72,289	-0,028	-0,008
-218,840	-155,877	0,068	0,003
-217,825	-200,000	0,011	-0,104
-216,811	57,291	-0,093	-0,066
-215,796	-107,612	-0,139	-0,022
-214,782	-200,000	0,023	-0,092
-213,767	-200,000	0,025	0,128
-212,752	-50,972	-0,167	-0,057
-211,738	800,000	0,085	0,218
-210,723	-19,832	0,131	-0,059
-209,709	-200,000	-0,003	0,058
-208,694	-200,000	0,002	-0,051
-207,679	-58,457	0,028	0,009
-206,665	-124,196	0,110	-0,012
-205,650	-23,048	-0,056	-0,025
-204,636	-200,000	-0,002	0,097
-203,621	22,962	-0,084	-0,050
-202,606	15,286	-0,132	-0,075
-201,592	380,095	-0,035	0,053
-200,577	-200,000	0,002	0,172
-199,563	789,112	0,048	0,097
-198,548	42,971	0,108	0,072
-197,533	-141,679	0,097	0,007
-196,519	346,215	0,047	0,067
-195,504	800,000	-0,016	-0,038
-194,490	800,000	-0,015	-0,037
-193,475	34,704	-0,133	-0,084
-192,460	-92,033	0,115	-0,023
-191,446	39,691	-0,087	-0,057
-190,431	45,210	0,090	0,060
-189,417	-62,918	-0,159	-0,047
-188,402	130,271	0,056	0,052
-187,387	338,377	-0,023	-0,033
-186,373	-49,862	0,045	0,016
-185,358	130,551	-0,043	-0,040
-184,344	-54,966	0,064	-0,021
-183,329	-200,000	0,018	-0,076
-182,315	-46,616	0,102	0,036
-181,300	642,925	0,009	-0,017
-180,285	334,389	-0,015	-0,020
-179,271	624,605	-0,046	-0,084
-178,256	432,566	-0,070	-0,111
-177,242	190,040	0,091	0,099
-176,227	-200,000	-0,012	-0,065
-175,212	-200,000	-0,008	-0,034
-174,198	151,182	0,067	0,066
-173,183	17,245	-0,096	-0,055
-172,169	-200,000	0,005	-0,123
-171,154	800,000	-0,046	-0,099
-170,139	-200,000	0,000	-0,154
-169,125	-177,331	0,175	0,003
-168,110	697,199	0,091	0,173
-167,096	144,791	-0,081	-0,079
-166,081	-6,510	0,085	0,042
-165,066	-2,864	-0,030	-0,015
-164,052	119,377	-0,023	0,020
-163,037	85,313	-0,049	0,039
-162,023	-200,000	0,026	0,125
-161,008	800,000	0,011	0,026
-159,993	671,046	0,054	0,103
-158,979	392,187	-0,060	0,090
-157,964	96,080	0,030	-0,025
-156,950	133,168	-0,042	-0,040
-155,935	-200,000	0,009	-0,179
-154,920	-197,878	0,169	-0,001
-153,906	81,350	-0,067	0,052
-152,891	-68,732	0,068	-0,019
-151,877	-200,000	0,021	-0,073
-150,862	-200,000	-0,042	-0,138
-149,847	697,176	-0,007	-0,013
-148,833	-110,415	0,203	-0,030
-147,818	-111,646	-0,033	0,005
-146,804	64,804	0,098	-0,072
-145,789	-17,999	-0,075	-0,034
-144,775	-200,000	-0,028	0,113
-143,760	509,806	-0,036	-0,061
-142,745	409,232	-0,067	-0,102
-141,731	78,932	-0,082	0,063
-140,716	800,000	0,036	0,084
-139,702	-85,841	-0,018	0,004
-138,687	470,011	-0,032	0,052
-137,672	-114,015	-0,131	-0,018
-136,658	-200,000	0,000	-0,114
-135,643	800,000	0,045	-0,117
-134,629	800,000	0,011	0,023
-133,614	-200,000	0,030	0,160
-132,599	-200,000	-0,006	0,073
-131,585	-71,414	0,067	-0,018
-130,570	-27,837	-0,160	-0,067
-129,556	-200,000	0,012	-0,042
-128,541	-200,000	-0,025	-0,097
-127,526	0,545	-0,144	-0,074
-126,512	-113,586	0,112	-0,016
-125,497	-113,635	0,058	0,008
-124,483	-200,000	0,025	-0,091
-123,468	92,056	-0,044	-0,036
-122,453	279,082	0,076	0,098
-121,439	800,000	0,019	0,057
-120,424	-200,000	-0,014	-0,104
-119,410	800,000	0,032	-0,077
