DTS Sentinel unit serial number:	SN410029Multiplexer serial number:	ORYXHardware model number:	OX2-SRSoftware version number:	ORYX F/W v4,00 Oryx Data Collector v3.7.2.0data status	okinstallation	B3 Nyhavnadifferential loss correction	single-endedforward channel	channel 1reverse channel	N/Adate	2023/11/28time	12:52:30forward acquisition time	300,00reverse acquisition time	0,00gamma	499,1914k internal	0,3138k external	0,3138temperature offset calibration	1,0000default loss term (dB/km)	0,3820temperature slope calibration	1,0000multiplexer offset coefficient	1,0000multiplexer slope coefficient	1,0000fibre end	0,00T internal ref (°C)	8,24T ext. ref 1 (°C)	-7,72T ext. ref 2 (°C)	-7,90length (m)	temperature (°C)	Stokes	anti-Stokes-744,400	667,321	-0,158	-0,304
-743,385	-200,000	-0,003	0,304
-742,371	224,094	-0,190	-0,228
-741,356	-200,000	0,041	0,308
-740,342	241,155	-0,127	-0,157
-739,327	-200,000	0,027	0,327
-738,312	145,439	-0,248	-0,247
-737,298	800,000	-0,099	0,278
-736,283	800,000	-0,097	-0,300
-735,269	-200,000	0,008	0,278
-734,254	-200,000	-0,103	-0,343
-733,239	-44,913	-0,200	0,074
-732,225	17,108	-0,084	-0,049
-731,210	114,404	0,223	0,202
-730,196	-109,952	-0,065	0,010
-729,181	-107,860	-0,014	0,002
-728,167	-200,000	0,002	-0,071
-727,152	800,000	-0,038	-0,082
-726,137	-200,000	-0,021	-0,114
-725,123	-200,000	0,006	0,103
-724,108	800,000	-0,085	-0,198
-723,094	-84,197	0,029	0,007
-722,079	-4,795	0,056	-0,028
-721,064	121,544	-0,089	0,082
-720,050	-115,935	-0,071	-0,010
-719,035	-94,167	-0,138	0,028
-718,021	-91,197	-0,087	0,018
-717,006	-99,835	-0,109	0,020
-715,991	-122,933	-0,144	-0,017
-714,977	457,735	0,038	-0,062
-713,962	113,337	0,075	-0,068
-712,948	800,000	-0,014	-0,046
-711,933	-200,000	-0,004	-0,071
-710,918	-200,000	0,028	0,196
-709,904	83,472	-0,144	-0,116
-708,889	36,882	-0,067	-0,044
-707,875	800,000	0,058	-0,144
-706,860	-200,000	0,029	0,122
-705,845	190,475	0,020	0,022
-704,831	211,765	0,048	0,057
-703,816	47,024	-0,072	-0,050
-702,802	-101,145	-0,086	0,015
-701,787	-169,030	-0,187	-0,005
-700,772	-200,000	-0,005	0,058
-699,758	-200,000	0,008	-0,063
-698,743	-200,000	0,021	0,101
-697,729	340,791	-0,121	0,176
-696,714	17,626	-0,051	0,030
-695,699	-92,732	-0,147	0,030
-694,685	-14,647	0,063	-0,030
-693,670	-86,480	0,127	0,029
-692,656	-200,000	0,021	-0,090
-691,641	-200,000	-0,007	0,049
-690,627	-32,943	0,141	0,058
-689,612	800,000	-0,045	-0,127
-688,597	800,000	-0,036	-0,076
-687,583	249,409	-0,080	-0,101
-686,568	-192,085	-0,185	0,001
-685,554	-200,000	-0,004	-0,043
-684,539	-49,415	0,068	0,024
-683,524	158,053	-0,017	0,017
-682,510	194,442	-0,079	0,089
-681,495	-200,000	0,001	-0,108
-680,481	687,597	-0,052	-0,101
-679,466	800,000	-0,024	-0,071
-678,451	82,725	-0,116	-0,093
-677,437	-48,474	-0,066	0,023
-676,422	-14,358	0,098	0,046
-675,408	-13,894	-0,082	0,039
-674,393	-200,000	0,023	0,101
-673,378	-200,000	0,001	0,063
-672,364	333,513	-0,080	-0,115
-671,349	-150,675	-0,086	0,005
-670,335	-200,000	0,033	-0,138
-669,320	-11,995	-0,069	0,033
-668,305	800,000	-0,014	-0,034
-667,291	-16,282	-0,164	0,077
-666,276	-200,000	-0,006	-0,021
-665,262	-200,000	0,006	-0,039
-664,247	-52,940	-0,097	-0,033
-663,232	-57,168	0,129	-0,042
-662,218	800,000	0,023	-0,065
-661,203	143,161	0,116	0,115
-660,189	-200,000	-0,014	-0,183
-659,174	800,000	-0,006	0,013
-658,159	-152,052	-0,116	0,006
-657,145	-200,000	0,011	0,070
-656,130	800,000	0,021	-0,057
-655,116	-74,073	-0,070	0,019
-654,101	-200,000	-0,005	0,070
-653,086	-146,913	-0,055	-0,003
-652,072	-52,663	-0,114	-0,039
-651,057	800,000	0,061	-0,129
-650,043	99,754	0,060	-0,051
-649,028	-200,000	-0,022	0,080
-648,014	-59,069	-0,090	0,029
-646,999	-200,000	-0,003	-0,075
-645,984	42,120	-0,035	-0,023
-644,970	-58,795	-0,032	0,010
-643,955	-65,985	-0,132	0,039
-642,941	90,532	-0,037	-0,031
-641,926	190,966	-0,075	0,083
-640,911	88,508	-0,128	0,105
-639,897	800,000	-0,008	0,020
-638,882	-15,749	-0,038	0,018
-637,868	-14,558	0,045	-0,021
-636,853	570,135	0,025	-0,045
-635,838	89,408	0,055	0,045
-634,824	194,173	-0,033	0,037
-633,809	135,754	-0,036	0,035
-632,795	-200,000	-0,004	0,198
-631,780	469,926	-0,039	-0,065
-630,765	49,850	0,080	-0,055
-629,751	351,528	-0,054	-0,080
-628,736	-139,835	0,206	0,016
-627,722	43,273	-0,105	0,071
-626,707	138,725	-0,044	-0,043
-625,692	-200,000	0,015	0,105
-624,678	-61,305	0,026	0,008
-623,663	800,000	0,004	-0,012
-622,649	5,842	0,020	-0,011
-621,634	-102,294	0,016	0,003
-620,619	-200,000	0,006	-0,039
-619,605	93,569	0,046	-0,038
-618,590	285,582	-0,016	0,021
-617,576	-67,200	-0,039	-0,011
-616,561	-26,595	-0,076	0,033
-615,546	-154,479	0,100	-0,005
-614,532	111,463	-0,014	-0,012
-613,517	570,018	-0,043	-0,078
-612,503	-200,000	0,016	0,253
-611,488	218,223	0,044	0,052
-610,474	701,496	0,039	-0,076
-609,459	304,931	-0,044	0,061
-608,444	-122,281	-0,087	0,010
-607,430	-64,056	-0,043	-0,013
-606,415	56,285	0,073	-0,053
-605,401	-94,296	-0,067	0,013
-604,386	108,349	-0,032	0,029
-603,371	-200,000	0,005	-0,029
-602,357	-200,000	0,018	0,081
-601,342	-80,403	-0,097	-0,024
-600,328	-112,240	-0,030	-0,004
-599,313	-200,000	0,006	-0,138
-598,298	584,340	-0,071	-0,129
-597,284	-200,000	0,021	0,172
-596,269	-188,796	-0,109	-0,001
-595,255	22,438	-0,096	0,058
-594,240	391,382	-0,063	-0,097
-593,225	78,536	-0,150	0,118
-592,211	59,666	-0,048	-0,035
-591,196	-18,715	-0,064	-0,029
-590,182	800,000	-0,058	0,145
-589,167	-7,746	0,130	0,065
-588,152	-174,014	0,047	0,001
-587,138	242,028	-0,046	0,057
-586,123	-84,958	-0,057	0,013
-585,109	169,517	0,023	-0,025
-584,094	-106,637	-0,060	0,010
-583,079	-66,454	0,090	-0,026
-582,065	-84,418	-0,067	-0,015
-581,050	110,945	0,080	-0,071
-580,036	-106,457	0,010	0,002
-579,021	0,537	0,056	0,030
-578,006	75,701	0,064	-0,050
-576,992	-58,823	-0,048	0,015
-575,977	371,218	0,051	-0,077
-574,963	-200,000	0,000	0,068
-573,948	800,000	0,052	-0,115
-572,934	-49,270	-0,065	0,023
-571,919	402,116	0,031	-0,048
-570,904	0,307	-0,065	0,034
-569,890	-73,364	-0,038	0,010
-568,875	-200,000	-0,020	-0,075
-567,861	-21,068	0,115	0,052
-566,846	800,000	0,063	0,149
-565,831	224,804	-0,048	-0,058
-564,817	-200,000	-0,003	-0,071
-563,802	-200,000	0,002	-0,086
-562,788	-200,000	0,025	-0,099
-561,773	-200,000	-0,017	-0,064
-560,758	-102,293	0,014	-0,002
-559,744	-86,005	0,225	0,051
-558,729	620,536	-0,043	0,080
-557,715	193,367	-0,020	-0,023
-556,700	-99,580	-0,163	-0,030
-555,685	161,910	-0,080	-0,082
-554,671	127,372	0,037	-0,035
-553,656	-122,509	0,154	0,018
-552,642	2,573	-0,108	-0,057
-551,627	-200,000	-0,000	0,001
-550,612	-43,452	-0,097	-0,036
-549,598	-200,000	-0,025	-0,131
-548,583	-85,153	0,128	-0,029
-547,569	-25,479	-0,080	-0,035
-546,554	-156,889	0,076	-0,003
-545,539	-200,000	-0,004	0,020
-544,525	-200,000	0,034	0,115
-543,510	800,000	0,034	-0,092
-542,496	-200,000	0,004	-0,068
-541,481	-74,634	0,024	0,006
-540,466	360,941	-0,048	-0,071
-539,452	-200,000	0,003	-0,042
-538,437	800,000	0,036	-0,083
-537,423	252,442	0,014	0,018
-536,408	121,057	0,066	0,061
-535,393	-71,824	0,086	0,023
-534,379	109,007	-0,118	-0,104
-533,364	800,000	0,007	0,022
-532,350	-31,664	-0,155	0,064
-531,335	-200,000	0,012	-0,066
-530,321	484,880	0,058	0,097
-529,306	-200,000	0,051	0,167
-528,291	-130,789	-0,169	0,017
-527,277	-36,797	-0,070	-0,028
-526,262	800,000	0,032	0,098
-525,248	7,043	-0,059	0,032
-524,233	-108,457	0,093	0,015
-523,218	800,000	0,040	-0,090
-522,204	355,586	-0,057	-0,083
-521,189	260,708	0,056	0,072
-520,175	357,932	-0,136	-0,200
-519,160	800,000	-0,017	-0,051
-518,145	21,705	0,053	-0,031
-517,131	199,681	0,064	0,073
-516,116	-62,736	0,053	0,016
-515,102	800,000	0,017	-0,049
-514,087	131,461	0,032	-0,030
-513,072	32,649	-0,015	-0,010
-512,058	-200,000	-0,005	0,101
-511,043	800,000	0,036	-0,096
-510,029	-69,804	0,108	-0,030
-509,014	149,506	0,054	0,053
-507,999	116,532	0,070	-0,064
-506,985	259,885	0,087	0,111
-505,970	322,951	-0,060	-0,085
-504,956	-53,499	-0,086	-0,029
-503,941	7,461	0,087	0,048
-502,926	-191,577	-0,063	0,000
-501,912	186,061	-0,103	0,113
-500,897	-200,000	-0,013	-0,149
-499,883	-67,188	0,072	-0,021
-498,868	75,126	0,066	0,051
-497,853	-176,745	-0,113	-0,002
-496,839	800,000	-0,020	0,047
-495,824	-200,000	0,004	0,026
-494,810	21,867	0,075	0,045
-493,795	678,583	-0,030	0,058
-492,781	-165,402	0,076	0,002
-491,766	-123,786	-0,015	-0,002
-490,751	800,000	-0,019	0,053
-489,737	119,950	-0,121	-0,110
-488,722	800,000	-0,020	0,044
-487,708	-82,061	0,141	0,033
-486,693	258,620	0,117	0,148
-485,678	-200,000	-0,006	0,068
-484,664	290,105	-0,090	0,120
-483,649	72,877	0,112	-0,086
-482,635	800,000	-0,031	0,098
-481,620	218,583	0,005	-0,006
-480,605	389,113	0,044	-0,066
-479,591	49,505	0,167	0,115
-478,576	92,623	0,062	-0,051
-477,562	99,209	-0,152	0,129
-476,547	-22,314	-0,066	-0,029
-475,532	-194,458	0,059	-0,000
-474,518	800,000	0,051	-0,153
-473,503	800,000	0,032	-0,073
-472,489	800,000	-0,015	-0,032
-471,474	37,532	0,071	0,046
-470,459	66,486	0,113	-0,084
-469,445	-200,000	-0,016	-0,084
-468,430	-36,294	0,101	-0,040
-467,416	-142,263	0,055	-0,004
-466,401	-200,000	-0,022	-0,077
-465,386	-200,000	0,019	-0,071
-464,372	-200,000	0,023	-0,205
-463,357	-200,000	0,022	-0,113
-462,343	800,000	-0,037	-0,112
-461,328	-151,939	0,145	0,008
-460,313	55,367	0,071	-0,051
-459,299	-200,000	-0,002	0,066
-458,284	-200,000	-0,003	0,019
-457,270	-200,000	0,034	0,120
-456,255	82,201	-0,124	-0,098
-455,241	379,595	-0,073	-0,111
-454,226	382,004	0,049	-0,075
-453,211	800,000	-0,048	-0,134
-452,197	-200,000	0,086	-0,294
-451,182	-156,705	0,043	0,002
-450,168	-32,005	-0,102	0,042
-449,153	-69,348	0,055	0,015
-448,138	-200,000	0,021	-0,169
-447,124	800,000	-0,041	0,127
-446,109	-200,000	-0,015	-0,111
-445,095	-107,464	-0,099	0,016
-444,080	800,000	0,046	0,134
-443,065	89,559	-0,076	0,062
-442,051	-3,336	0,089	-0,045
-441,036	-43,668	0,039	-0,014
-440,022	34,322	-0,129	0,083
-439,007	-191,841	-0,219	-0,002
-437,992	14,671	0,158	0,090
-436,978	800,000	0,048	-0,154
-435,963	-43,302	0,200	0,074
-434,949	-192,630	-0,068	-0,000
-433,934	-70,089	0,046	0,013
-432,919	429,771	-0,049	0,077
-431,905	-150,088	-0,137	0,008
-430,890	-11,996	0,084	0,040
-429,876	-105,623	0,112	0,018
-428,861	66,316	0,091	0,068
-427,846	800,000	-0,027	0,079
-426,832	-200,000	-0,031	0,103
-425,817	-200,000	0,003	0,019
-424,803	337,327	-0,046	0,066
-423,788	800,000	0,045	0,093
-422,773	-130,225	0,068	-0,007
-421,759	-200,000	-0,004	0,061
-420,744	800,000	-0,066	0,200
-419,730	-200,000	0,002	-0,071
-418,715	89,278	0,046	-0,038
-417,701	-200,000	0,014	-0,113
-416,686	381,580	0,013	-0,020
-415,671	800,000	0,004	0,009
-414,657	64,231	-0,093	0,068
-413,642	140,086	0,039	-0,037
-412,628	800,000	-0,018	-0,036
-411,613	686,790	-0,055	-0,105
-410,598	-200,000	0,000	-0,022
-409,584	59,555	-0,049	0,035
-408,569	-119,705	0,140	0,017
-407,555	171,738	0,183	0,192
-406,540	-62,604	-0,125	-0,038
-405,525	-76,159	-0,043	-0,011
-404,511	185,671	-0,032	0,035
-403,496	710,084	-0,028	-0,055
-402,482	-19,527	-0,065	-0,029
-401,467	650,346	0,040	0,076
-400,452	-14,836	-0,053	-0,025
-399,438	-20,288	0,056	0,025
-398,423	-93,396	0,119	0,024
-397,409	-200,000	0,015	-0,167
-396,394	126,805	0,041	-0,038
-395,379	579,592	-0,078	0,141
-394,365	1,537	0,065	-0,034
-393,350	121,912	-0,055	0,050
-392,336	-14,984	-0,187	-0,087
-391,321	-200,000	0,002	-0,028
-390,306	174,937	-0,015	-0,016
-389,292	-154,792	-0,029	-0,001
-388,277	-8,342	-0,093	-0,045
-387,263	800,000	0,031	0,088
-386,248	-7,232	0,058	-0,029
-385,233	161,909	0,055	-0,056
-384,219	-200,000	0,013	0,116
-383,204	287,016	-0,037	0,049
-382,190	399,208	-0,019	-0,030
-381,175	169,897	0,030	0,032
-380,160	-122,202	0,115	-0,014
-379,146	-23,461	-0,093	-0,040
-378,131	-200,000	-0,003	0,176
-377,117	514,277	-0,017	0,028
-376,102	-200,000	0,016	0,085
-375,088	90,271	-0,123	-0,101
-374,073	-61,815	0,023	-0,007
-373,058	-40,670	0,059	0,022
-372,044	380,824	-0,037	-0,056
-371,029	-200,000	0,012	-0,053
-370,015	-118,809	0,029	0,004
-369,000	12,217	-0,123	-0,069
-367,985	-49,398	-0,062	0,021
-366,971	-200,000	-0,013	-0,058
-365,956	210,397	0,043	-0,050
-364,942	278,314	-0,083	0,109
-363,927	-200,000	-0,008	-0,039
-362,912	-200,000	-0,004	-0,106
-361,898	-48,426	-0,032	-0,011
-360,883	26,494	-0,115	-0,070
-359,869	130,624	0,016	-0,015
-358,854	41,246	-0,033	0,022
-357,839	92,724	0,102	0,084
-356,825	-200,000	-0,001	0,074
-355,810	-29,916	0,057	-0,024
-354,796	9,653	-0,128	-0,071
-353,781	-39,000	-0,025	0,009
-352,766	214,349	-0,044	0,051
-351,752	-126,529	-0,081	0,009
-350,737	207,518	0,012	0,013
-349,723	-57,844	0,102	-0,032
-348,708	-200,000	0,024	0,105
-347,693	110,797	-0,095	0,084
-346,679	-200,000	-0,002	0,018
-345,664	-102,959	-0,022	-0,004
-344,650	10,370	-0,065	0,036
-343,635	-37,198	-0,102	0,040
-342,620	-158,862	0,089	-0,004
-341,606	-200,000	0,016	-0,111
-340,591	86,709	-0,072	-0,058
-339,577	-191,894	0,045	0,000
-338,562	-196,152	-0,113	0,001
-337,548	800,000	-0,034	-0,079
-336,533	16,522	0,113	0,065
-335,518	384,693	0,041	-0,061
-334,504	-3,084	-0,051	0,026
-333,489	-125,649	-0,095	-0,010
-332,475	-200,000	0,024	-0,099
-331,460	40,517	-0,044	0,029
-330,445	-200,000	0,004	0,098
-329,431	-43,107	-0,083	0,031
-328,416	-200,000	-0,006	-0,054
-327,402	49,694	0,025	0,017
-326,387	32,868	0,060	0,038
-325,372	800,000	0,010	-0,026
-324,358	-23,214	0,016	0,007
-323,343	267,186	0,041	0,053
-322,329	-52,920	0,079	0,026
-321,314	-107,682	0,098	-0,015
-320,299	170,804	-0,077	0,080
-319,285	-123,698	-0,123	0,014
-318,270	-75,723	0,025	-0,006
-317,256	57,984	0,033	0,024
-316,241	-15,836	0,125	0,058
-315,226	-96,521	0,181	-0,034
-314,212	34,517	-0,053	0,034
-313,197	52,171	0,029	-0,020
-312,183	800,000	-0,069	0,154
-311,168	84,772	-0,059	0,047
-310,153	82,280	0,050	-0,040
-309,139	-171,274	-0,028	-0,001
-308,124	-162,051	0,075	-0,003
-307,110	-116,671	0,092	-0,012
-306,095	-200,000	-0,050	0,255
-305,080	74,568	0,125	0,096
-304,066	35,440	-0,081	0,052
-303,051	487,790	0,057	-0,095
-302,037	-200,000	-0,000	-0,085
-301,022	213,090	0,064	0,074
-300,008	33,406	0,028	0,018
-298,993	172,075	-0,010	-0,010
-297,978	4,339	-0,123	0,065
-296,964	67,788	0,032	-0,024
-295,949	-130,064	-0,099	-0,010
-294,935	-32,237	0,015	0,006
-293,920	107,566	0,114	-0,099
-292,905	-200,000	-0,018	-0,058
-291,891	-82,025	-0,078	-0,018
-290,876	162,175	0,066	-0,068
-289,862	-114,379	-0,034	0,005
-288,847	-167,855	0,084	0,002
-287,832	52,834	-0,070	-0,048
-286,818	-59,276	-0,089	-0,028
-285,803	21,816	0,007	-0,004
-284,789	13,551	0,024	-0,014
-283,774	7,345	0,078	-0,042
-282,759	79,858	-0,058	-0,046
-281,745	438,923	-0,095	-0,152
-280,730	313,177	0,022	-0,030
-279,716	213,031	-0,053	0,061
-278,701	-200,000	-0,004	-0,035
-277,686	800,000	0,052	-0,145
-276,672	800,000	0,068	-0,182
-275,657	567,602	-0,057	0,101
-274,643	-24,802	0,045	-0,019
-273,628	-50,510	0,158	-0,054
-272,613	180,991	-0,085	-0,092
-271,599	800,000	0,029	-0,069
-270,584	77,527	0,074	0,057
-269,570	-121,169	0,056	0,007
-268,555	-71,925	-0,157	-0,042
-267,540	-200,000	0,033	-0,173
-266,526	-47,027	-0,103	0,036
-265,511	-34,090	0,166	0,066
-264,497	-200,000	0,012	0,046
-263,482	702,842	0,079	0,152
-262,467	-92,214	0,095	-0,019
-261,453	-129,218	0,079	0,008
-260,438	-200,000	-0,006	-0,125
-259,424	-186,215	-0,127	0,001
-258,409	-127,527	-0,064	-0,007
-257,395	431,060	-0,029	-0,045
-256,380	800,000	0,052	0,116
-255,365	-200,000	0,041	0,173
-254,351	322,817	0,117	0,162
-253,336	435,972	-0,018	-0,029
-252,322	506,406	0,074	-0,125
-251,307	-19,389	-0,055	-0,025
-250,292	800,000	0,054	0,152
-249,278	-122,193	-0,054	-0,006
-248,263	-93,470	0,049	-0,010
-247,249	-35,788	0,070	0,027
-246,234	-200,000	0,002	0,081
-245,219	-8,759	-0,064	-0,031
-244,205	-34,415	0,128	-0,051
-243,190	230,893	0,143	0,170
-242,176	18,324	0,121	0,070
-241,161	-200,000	0,017	0,063
-240,146	18,150	-0,055	-0,032
-239,132	-37,762	-0,077	0,029
-238,117	113,208	-0,179	-0,158
-237,103	-200,000	0,038	-0,123
-236,088	43,056	-0,016	-0,010
-235,073	-200,000	0,015	0,102
-234,059	24,969	0,111	0,067
-233,044	-107,534	0,086	0,014
-232,030	-176,878	-0,161	0,003
-231,015	244,983	-0,063	-0,077
-230,000	9,912	-0,072	-0,040
-228,986	128,516	-0,068	-0,063
-227,971	55,395	0,034	0,024
-226,957	-136,081	-0,089	0,007
-225,942	113,046	-0,092	-0,081
-224,927	73,973	0,134	0,102
-223,913	0,812	-0,023	0,012
-222,898	51,852	-0,025	-0,017
-221,884	800,000	-0,044	0,107
-220,869	155,056	0,055	0,055
-219,855	-83,041	0,061	0,014
-218,840	-200,000	0,037	0,153
-217,825	-99,985	0,159	0,029
-216,811	-74,346	-0,078	-0,020
-215,796	-200,000	-0,013	-0,057
-214,782	84,227	-0,055	-0,044
-213,767	-65,855	-0,019	-0,005
-212,752	-39,170	0,046	-0,017
-211,738	115,776	-0,064	-0,057
-210,723	60,329	0,086	0,062
-209,709	-200,000	-0,015	-0,063
-208,694	-15,967	0,016	0,007
-207,679	-200,000	-0,016	-0,158
-206,665	155,938	0,058	0,058
-205,650	-135,223	-0,102	0,009
-204,636	-200,000	-0,014	0,156
-203,621	91,090	-0,080	-0,065
-202,606	5,486	-0,088	0,047
-201,592	448,287	0,030	-0,049
-200,577	238,742	-0,074	-0,089
-199,563	574,381	0,028	0,050
-198,548	15,337	-0,089	0,050
-197,533	800,000	0,057	0,157
-196,519	-67,205	-0,055	-0,016
-195,504	-200,000	-0,031	-0,136
-194,490	-186,347	-0,200	-0,002
-193,475	-160,787	0,089	-0,003
-192,460	800,000	0,027	-0,066
-191,446	-80,676	0,068	0,016
-190,431	-200,000	-0,019	0,088
-189,417	-64,510	0,105	0,031
-188,402	96,751	0,053	-0,044
-187,387	-47,697	0,095	0,033
-186,373	800,000	0,019	-0,045
-185,358	-142,674	0,116	-0,008
-184,344	254,350	0,052	-0,064
-183,329	800,000	-0,007	0,020
-182,315	-200,000	-0,002	-0,077
-181,300	-99,651	-0,143	-0,026
-180,285	-148,292	-0,174	-0,010
-179,271	73,568	0,053	-0,040
-178,256	-6,288	0,056	0,028
-177,242	800,000	0,053	0,127
-176,227	63,082	0,060	0,043
-175,212	217,121	0,028	0,032
-174,198	-200,000	0,002	-0,054
-173,183	-200,000	-0,004	-0,104
-172,169	-73,249	-0,188	0,050
-171,154	800,000	-0,022	-0,069
-170,139	-200,000	0,025	0,097
-169,125	-200,000	-0,007	-0,059
-168,110	11,944	0,095	-0,053
-167,096	-200,000	-0,007	-0,138
-166,081	72,354	-0,113	0,085
-165,066	566,529	0,050	-0,088
-164,052	579,123	0,048	-0,086
-163,037	-200,000	0,001	0,126
-162,023	233,812	-0,090	-0,108
-161,008	8,296	0,114	0,062
-159,993	93,263	-0,067	0,055
-158,979	-200,000	-0,045	0,144
-157,964	65,589	0,082	-0,060
-156,950	115,467	-0,117	0,104
-155,935	800,000	-0,047	0,095
-154,920	-111,505	0,138	-0,020
-153,906	-66,942	0,070	0,020
-152,891	800,000	0,016	-0,037
-151,877	-92,168	-0,214	-0,044
-150,862	-200,000	0,003	-0,014
-149,847	-44,555	-0,023	0,008
-148,833	-0,020	0,186	0,096
-147,818	-34,636	-0,109	-0,043
-146,804	131,176	0,058	-0,054
-145,789	-158,018	0,091	0,004
-144,775	129,775	-0,076	-0,071
-143,760	134,596	-0,049	0,046
-142,745	-53,208	-0,030	-0,010
-141,731	308,873	0,065	-0,088
-140,716	655,727	-0,072	-0,135
-139,702	-200,000	0,002	-0,111
-138,687	-131,297	0,180	-0,017
-137,672	-200,000	0,003	0,057
-136,658	-124,625	-0,206	0,023
-135,643	-200,000	-0,011	-0,208
-134,629	43,456	0,109	0,072
-133,614	52,745	0,123	-0,085
-132,599	532,359	-0,021	-0,037
-131,585	21,591	0,006	0,003
-130,570	-115,339	-0,052	0,007
-129,556	175,976	-0,057	-0,060
-128,541	-200,000	-0,007	0,054
-127,526	-102,101	0,077	-0,013
-126,512	800,000	-0,017	-0,051
-125,497	614,729	0,094	0,170
-124,483	-85,434	0,129	0,029
-123,468	-200,000	-0,020	0,099
-122,453	68,778	0,111	-0,082
-121,439	232,558	-0,052	-0,062
-120,424	-0,368	-0,156	0,080
-119,410	800,000	0,046	-0,137
