DTS Sentinel unit serial number:	SN410029Multiplexer serial number:	ORYXHardware model number:	OX2-SRSoftware version number:	ORYX F/W v4,00 Oryx Data Collector v3.7.2.0data status	okinstallation	B3 Nyhavnadifferential loss correction	single-endedforward channel	channel 1reverse channel	N/Adate	2023/11/28time	16:57:30forward acquisition time	300,00reverse acquisition time	0,00gamma	499,1914k internal	0,3216k external	0,3216temperature offset calibration	1,0000default loss term (dB/km)	0,3820temperature slope calibration	1,0000multiplexer offset coefficient	1,0000multiplexer slope coefficient	1,0000fibre end	0,00T internal ref (°C)	7,30T ext. ref 1 (°C)	-7,62T ext. ref 2 (°C)	-7,78length (m)	temperature (°C)	Stokes	anti-Stokes-744,400	304,850	-0,262	-0,354
-743,385	-200,000	0,011	0,170
-742,371	106,433	-0,244	-0,209
-741,356	800,000	-0,097	0,234
-740,342	323,796	-0,152	-0,211
-739,327	-200,000	0,035	0,349
-738,312	42,882	-0,260	-0,171
-737,298	94,570	-0,180	0,148
-736,283	800,000	-0,133	-0,304
-735,269	-200,000	0,068	0,427
-734,254	92,065	-0,155	-0,126
-733,239	3,566	-0,275	0,145
-732,225	-200,000	-0,070	-0,273
-731,210	25,456	0,068	0,041
-730,196	65,290	0,073	0,053
-729,181	65,896	-0,102	0,075
-728,167	-200,000	0,027	0,122
-727,152	800,000	-0,010	0,024
-726,137	483,858	-0,101	-0,167
-725,123	-111,347	0,093	-0,014
-724,108	-39,546	-0,134	-0,051
-723,094	-68,689	0,096	0,027
-722,079	-19,806	-0,089	-0,040
-721,064	106,129	-0,098	0,084
-720,050	-200,000	-0,007	0,071
-719,035	111,452	-0,046	0,040
-718,021	29,219	-0,061	0,037
-717,006	132,980	-0,096	-0,090
-715,991	-200,000	0,031	-0,119
-714,977	112,936	-0,065	-0,057
-713,962	654,168	0,068	-0,126
-712,948	38,955	0,121	0,078
-711,933	-200,000	0,006	0,050
-710,918	736,922	-0,021	0,042
-709,904	-200,000	-0,001	-0,099
-708,889	800,000	-0,032	-0,093
-707,875	198,491	-0,094	-0,104
-706,860	101,256	-0,092	0,077
-705,845	-200,000	-0,013	-0,054
-704,831	-200,000	0,002	-0,028
-703,816	97,645	-0,062	-0,051
-702,802	-3,078	-0,054	-0,027
-701,787	800,000	-0,054	-0,136
-700,772	-200,000	0,011	-0,166
-699,758	584,236	-0,039	-0,069
-698,743	-200,000	-0,006	0,178
-697,729	291,360	0,054	0,071
-696,714	-200,000	-0,010	0,082
-695,699	-105,863	-0,071	-0,011
-694,685	800,000	-0,026	-0,078
-693,670	71,613	-0,077	0,058
-692,656	-200,000	-0,002	-0,089
-691,641	79,325	-0,118	-0,091
-690,627	12,531	-0,096	0,053
-689,612	17,305	-0,156	-0,089
-688,597	96,838	0,020	0,017
-687,583	-120,127	-0,175	-0,021
-686,568	-200,000	0,002	0,059
-685,554	-139,840	-0,044	-0,003
-684,539	58,149	-0,087	-0,061
-683,524	-200,000	0,028	0,202
-682,510	-7,236	-0,109	0,053
-681,495	129,360	0,067	0,062
-680,481	800,000	-0,068	-0,147
-679,466	800,000	-0,040	-0,090
-678,451	-112,632	0,118	0,017
-677,437	-40,054	0,063	-0,023
-676,422	99,684	0,012	-0,010
-675,408	-156,327	-0,066	0,003
-674,393	-200,000	0,026	-0,109
-673,378	202,300	-0,166	0,185
-672,364	-76,518	-0,121	-0,031
-671,349	800,000	-0,049	0,102
-670,335	5,028	0,141	-0,075
-669,320	290,229	0,022	-0,028
-668,305	86,407	0,171	0,136
-667,291	800,000	-0,064	-0,176
-666,276	394,800	-0,074	-0,112
-665,262	-200,000	0,029	-0,183
-664,247	-200,000	0,019	-0,099
-663,232	123,415	-0,081	-0,074
-662,218	-44,641	0,089	-0,032
-661,203	-112,924	-0,033	0,005
-660,189	-200,000	0,001	0,036
-659,174	385,607	-0,029	0,043
-658,159	153,541	0,077	-0,076
-657,145	158,330	0,044	0,044
-656,130	297,446	-0,063	-0,083
-655,116	216,290	0,067	-0,076
-654,101	-200,000	0,013	0,079
-653,086	-99,413	-0,052	-0,009
-652,072	-2,778	0,115	0,058
-651,057	-200,000	-0,005	-0,031
-650,043	-125,043	-0,065	-0,007
-649,028	-198,993	0,058	0,000
-648,014	800,000	0,056	0,158
-646,999	60,921	-0,085	0,061
-645,984	-24,436	-0,146	0,063
-644,970	238,248	-0,079	-0,095
-643,955	-200,000	0,008	-0,073
-642,941	-200,000	-0,006	-0,035
-641,926	288,207	-0,068	0,089
-640,911	800,000	-0,039	-0,084
-639,897	-80,869	-0,105	-0,025
-638,882	-43,169	-0,088	-0,032
-637,868	226,004	-0,020	-0,024
-636,853	800,000	-0,075	-0,167
-635,838	145,701	0,106	-0,103
-634,824	75,294	-0,046	0,035
-633,809	-200,000	-0,009	-0,047
-632,795	7,775	0,094	0,051
-631,780	800,000	-0,036	0,100
-630,765	-200,000	0,007	-0,200
-629,751	15,558	-0,098	-0,055
-628,736	128,301	0,054	-0,050
-627,722	-200,000	0,000	0,053
-626,707	-121,812	0,099	0,012
-625,692	-84,806	0,027	-0,006
-624,678	-200,000	-0,020	0,090
-623,663	-200,000	0,046	0,178
-622,649	315,698	-0,015	-0,021
-621,634	-119,773	-0,135	-0,017
-620,619	-200,000	-0,003	0,085
-619,605	-0,697	0,104	0,053
-618,590	-136,209	-0,035	-0,003
-617,576	800,000	0,050	0,155
-616,561	102,356	-0,039	-0,032
-615,546	687,322	-0,056	0,106
-614,532	-200,000	0,005	-0,129
-613,517	-111,266	-0,051	-0,007
-612,503	800,000	-0,021	-0,060
-611,488	580,281	0,062	0,110
-610,474	274,610	0,077	0,099
-609,459	204,305	-0,084	-0,093
-608,444	198,929	-0,099	-0,109
-607,430	462,530	-0,072	-0,115
-606,415	800,000	0,042	-0,100
-605,401	150,877	-0,063	-0,062
-604,386	50,755	0,158	0,108
-603,371	-52,817	-0,020	-0,007
-602,357	229,441	-0,037	-0,043
-601,342	-92,288	-0,075	0,015
-600,328	-103,932	-0,076	0,013
-599,313	-69,122	-0,061	0,017
-598,298	800,000	-0,032	0,090
-597,284	-200,000	0,004	-0,051
-596,269	144,031	-0,042	0,041
-595,255	19,771	0,052	0,030
-594,240	800,000	0,038	-0,077
-593,225	800,000	-0,065	-0,157
-592,211	157,106	0,113	-0,112
-591,196	-200,000	0,020	-0,098
-590,182	800,000	-0,043	-0,114
-589,167	-136,844	0,154	-0,013
-588,152	800,000	0,041	-0,126
-587,138	800,000	-0,017	-0,035
-586,123	-67,350	-0,124	0,035
-585,109	-88,145	-0,006	-0,001
-584,094	-200,000	0,001	0,023
-583,079	19,611	0,126	-0,073
-582,065	-34,962	0,207	0,081
-581,050	-34,722	0,071	0,028
-580,036	277,473	-0,006	0,008
-579,021	-96,753	-0,166	-0,031
-578,006	81,727	-0,027	0,021
-576,992	-14,934	0,184	0,085
-575,977	11,775	0,067	-0,037
-574,963	-148,078	-0,043	0,003
-573,948	-52,498	0,055	0,018
-572,934	641,043	-0,012	0,022
-571,919	-149,938	-0,225	-0,012
-570,904	81,057	-0,150	-0,116
-569,890	-200,000	-0,019	0,085
-568,875	244,970	0,049	0,059
-567,861	101,870	0,080	0,067
-566,846	61,667	0,081	0,058
-565,831	35,865	-0,014	0,009
-564,817	-32,441	-0,071	0,028
-563,802	-200,000	-0,002	-0,048
-562,788	284,390	0,094	-0,121
-561,773	9,809	0,076	-0,041
-560,758	-200,000	0,020	0,090
-559,744	-100,511	0,159	-0,028
-558,729	800,000	0,018	0,039
-557,715	-54,430	0,027	0,009
-556,700	-200,000	-0,019	0,121
-555,685	32,328	-0,020	0,012
-554,671	-148,989	0,103	-0,006
-553,656	800,000	0,067	-0,138
-552,642	800,000	-0,035	-0,083
-551,627	-147,082	0,039	0,002
-550,612	-86,940	-0,004	0,001
-549,598	-200,000	0,059	0,293
-548,583	800,000	0,019	-0,050
-547,569	129,759	-0,069	0,063
-546,554	-3,275	0,205	0,102
-545,539	-49,216	-0,084	0,029
-544,525	-200,000	-0,004	0,046
-543,510	47,884	0,025	-0,017
-542,496	577,405	0,099	-0,175
-541,481	-142,622	-0,116	0,008
-540,466	291,423	0,093	-0,122
-539,452	800,000	0,011	0,026
-538,437	800,000	0,026	0,077
-537,423	-96,429	-0,104	0,020
-536,408	-98,542	-0,075	0,014
-535,393	-67,773	-0,235	-0,065
-534,379	-200,000	0,006	-0,149
-533,364	-200,000	0,034	-0,117
-532,350	3,895	0,093	-0,049
-531,335	677,323	0,049	0,092
-530,321	-19,558	0,051	0,023
-529,306	579,805	0,034	-0,060
-528,291	0,570	-0,133	-0,068
-527,277	-48,765	-0,114	-0,039
-526,262	162,367	0,090	-0,090
-525,248	438,372	-0,062	0,097
-524,233	533,611	0,038	-0,064
-523,218	-200,000	0,004	-0,109
-522,204	-66,989	0,051	-0,014
-521,189	52,828	0,137	0,094
-520,175	-84,662	-0,071	-0,016
-519,160	800,000	-0,062	-0,143
-518,145	346,164	0,029	0,041
-517,131	-200,000	-0,007	-0,113
-516,116	573,612	0,022	0,038
-515,102	133,002	0,032	-0,029
-514,087	373,304	-0,039	-0,057
-513,072	473,345	0,027	-0,044
-512,058	350,480	-0,059	0,084
-511,043	-72,109	-0,173	-0,046
-510,029	176,214	-0,104	-0,108
-509,014	-200,000	-0,006	0,157
-507,999	31,702	0,087	-0,054
-506,985	-66,692	0,102	0,029
-505,970	-200,000	-0,017	-0,138
-504,956	438,666	0,081	0,128
-503,941	-6,056	0,143	-0,070
-502,926	439,645	-0,100	0,158
-501,912	221,432	-0,093	0,108
-500,897	66,510	-0,100	0,072
-499,883	-200,000	0,005	0,045
-498,868	-75,877	-0,073	0,018
-497,853	-86,785	-0,095	0,021
-496,839	258,712	-0,065	-0,080
-495,824	193,513	0,065	0,071
-494,810	159,805	0,046	0,045
-493,795	-107,896	-0,093	0,014
-492,781	800,000	0,036	-0,088
-491,766	-59,711	-0,186	0,057
-490,751	-131,182	-0,110	-0,010
-489,737	-37,494	-0,080	0,031
-488,722	-17,030	0,116	0,052
-487,708	-16,248	0,094	0,043
-486,693	800,000	-0,056	0,117
-485,678	-200,000	-0,005	0,080
-484,664	-200,000	-0,017	0,105
-483,649	-160,794	-0,028	-0,001
-482,635	165,283	0,120	0,122
-481,620	217,589	0,082	0,094
-480,605	304,103	-0,073	0,097
-479,591	309,041	0,098	0,131
-478,576	2,692	-0,147	-0,076
-477,562	4,689	-0,063	0,033
-476,547	92,152	0,124	-0,100
-475,532	93,845	-0,072	-0,059
-474,518	800,000	-0,020	0,057
-473,503	-117,272	0,178	0,023
-472,489	70,003	0,152	0,112
-471,474	2,604	-0,083	-0,043
-470,459	-133,089	-0,037	0,003
-469,445	-72,267	-0,206	-0,054
-468,430	-200,000	0,015	-0,097
-467,416	-95,210	0,025	-0,005
-466,401	69,172	0,134	0,099
-465,386	292,641	-0,016	0,022
-464,372	-64,050	-0,056	0,016
-463,357	-200,000	0,023	-0,109
-462,343	-200,000	0,034	-0,109
-461,328	-5,254	-0,132	-0,065
-460,313	-178,404	0,060	0,001
-459,299	-110,304	-0,099	0,015
-458,284	-140,731	0,193	-0,014
-457,270	-77,407	-0,037	0,009
-456,255	141,705	-0,056	-0,053
-455,241	751,808	0,019	-0,038
-454,226	-134,074	0,108	0,009
-453,211	800,000	0,038	-0,079
-452,197	136,696	0,098	-0,092
-451,182	-58,957	-0,117	-0,036
-450,168	-141,941	0,115	-0,008
-449,153	-200,000	-0,001	0,006
-448,138	-200,000	-0,035	-0,112
-447,124	-200,000	-0,002	-0,071
-446,109	800,000	0,026	0,078
-445,095	-126,027	0,066	0,007
-444,080	-127,675	0,060	0,006
-443,065	287,029	-0,125	0,161
-442,051	798,759	-0,039	-0,077
-441,036	-90,524	-0,024	0,005
-440,022	-200,000	-0,001	-0,086
-439,007	-200,000	0,007	0,065
-437,992	148,331	0,049	0,047
-436,978	91,738	-0,079	0,063
-435,963	35,907	0,118	0,074
-434,949	800,000	0,031	0,066
-433,934	-70,724	-0,182	0,049
-432,919	63,499	0,013	-0,009
-431,905	253,030	0,065	0,079
-430,890	-200,000	-0,007	-0,038
-429,876	72,688	-0,033	0,025
-428,861	-134,255	0,062	-0,005
-427,846	-200,000	0,045	0,207
-426,832	228,059	-0,108	0,126
-425,817	-72,409	0,035	-0,009
-424,803	-200,000	0,021	-0,078
-423,788	188,395	0,063	0,067
-422,773	104,920	0,043	0,036
-421,759	150,101	0,114	0,111
-420,744	310,044	0,069	-0,093
-419,730	-119,178	-0,121	-0,015
-418,715	733,409	-0,042	0,081
-417,701	-200,000	-0,003	0,109
-416,686	800,000	-0,014	-0,028
-415,671	200,544	0,087	-0,096
-414,657	800,000	0,030	-0,080
-413,642	776,552	0,027	0,053
-412,628	-200,000	-0,007	-0,077
-411,613	147,268	-0,062	-0,060
-410,598	-200,000	0,011	0,041
-409,584	-39,275	-0,034	0,013
-408,569	800,000	-0,022	0,061
-407,555	-200,000	0,003	0,118
-406,540	347,413	-0,099	0,139
-405,525	447,357	-0,158	-0,250
-404,511	-200,000	0,012	0,094
-403,496	-77,442	0,139	0,034
-402,482	-200,000	-0,024	-0,082
-401,467	800,000	-0,051	0,130
-400,452	-41,846	0,091	0,033
-399,438	800,000	-0,039	-0,090
-398,423	800,000	-0,083	-0,176
-397,409	695,022	-0,076	-0,143
-396,394	-200,000	0,018	-0,107
-395,379	800,000	0,039	0,080
-394,365	3,752	0,018	0,009
-393,350	800,000	-0,041	-0,110
-392,336	136,959	0,076	0,071
-391,321	95,540	-0,035	-0,028
-390,306	-200,000	-0,004	0,035
-389,292	-200,000	0,021	0,121
-388,277	59,443	0,084	0,059
-387,263	16,076	0,023	-0,013
-386,248	-32,693	0,159	-0,063
-385,233	761,862	0,069	0,134
-384,219	374,624	-0,037	0,054
-383,204	-200,000	0,009	-0,085
-382,190	-63,094	-0,174	-0,051
-381,175	-200,000	0,016	-0,060
-380,160	353,892	-0,056	0,079
-379,146	275,635	0,117	0,149
-378,131	-200,000	-0,007	-0,037
-377,117	800,000	0,028	-0,078
-376,102	331,939	0,008	0,011
-375,088	511,550	-0,004	0,006
-374,073	-200,000	0,030	-0,179
-373,058	-77,255	0,069	0,017
-372,044	111,587	0,119	-0,102
-371,029	800,000	0,044	0,118
-370,015	-200,000	-0,023	0,075
-369,000	800,000	-0,038	-0,107
-367,985	48,133	0,027	0,018
-366,971	25,044	-0,070	-0,041
-365,956	-200,000	0,007	-0,129
-364,942	-45,673	0,102	0,036
-363,927	800,000	-0,060	-0,145
-362,912	308,557	0,030	-0,041
-361,898	-17,684	0,074	-0,033
-360,883	800,000	-0,035	-0,099
-359,869	328,044	0,045	0,061
-358,854	572,391	0,057	0,099
-357,839	365,927	-0,040	0,058
-356,825	-200,000	0,009	0,084
-355,810	82,906	0,098	0,076
-354,796	565,541	0,053	-0,092
-353,781	-36,413	-0,100	-0,038
-352,766	750,691	0,067	-0,130
-351,752	-200,000	0,002	0,037
-350,737	-200,000	-0,014	0,072
-349,723	800,000	-0,035	0,073
-348,708	-200,000	0,024	-0,125
-347,693	267,483	-0,092	-0,116
-346,679	-155,189	-0,064	0,003
-345,664	-200,000	0,005	-0,074
-344,650	218,880	0,051	0,058
-343,635	-59,344	0,075	-0,023
-342,620	800,000	-0,060	-0,141
-341,606	-159,970	0,177	-0,007
-340,591	-200,000	0,014	-0,087
-339,577	-139,343	0,100	-0,008
-338,562	-200,000	-0,037	-0,173
-337,548	540,116	0,038	-0,065
-336,533	10,452	0,060	-0,032
-335,518	-115,776	0,139	0,018
-334,504	-200,000	0,010	0,079
-333,489	800,000	0,015	0,036
-332,475	361,382	-0,041	0,059
-331,460	190,005	-0,071	-0,076
-330,445	462,367	0,024	-0,039
-329,431	-200,000	0,031	0,213
-328,416	-200,000	-0,031	0,111
-327,402	-129,894	0,132	0,013
-326,387	71,957	-0,073	0,054
-325,372	149,970	0,093	0,090
-324,358	-33,204	-0,089	-0,035
-323,343	589,395	-0,045	-0,079
-322,329	-11,044	-0,074	0,034
-321,314	-200,000	-0,007	0,105
-320,299	-200,000	-0,008	0,041
-319,285	-39,584	-0,063	0,023
-318,270	-200,000	0,001	-0,095
-317,256	194,730	0,069	-0,075
-316,241	22,093	0,031	-0,018
-315,226	-200,000	0,033	-0,153
-314,212	-200,000	0,019	0,110
-313,197	553,784	0,031	0,054
-312,183	42,230	0,161	-0,104
-311,168	-32,670	-0,121	-0,048
-310,153	-200,000	-0,004	-0,058
-309,139	800,000	0,020	-0,047
-308,124	800,000	-0,072	0,173
-307,110	8,712	-0,043	0,023
-306,095	652,452	0,015	0,028
-305,080	-200,000	0,006	0,124
-304,066	167,473	-0,076	-0,077
-303,051	-200,000	0,017	-0,078
-302,037	800,000	-0,022	0,062
-301,022	-57,750	0,035	0,011
-300,008	-102,275	-0,037	-0,006
-298,993	443,367	-0,028	0,044
-297,978	-200,000	-0,014	0,082
-296,964	-124,035	-0,054	0,006
-295,949	-200,000	-0,027	-0,105
-294,935	192,496	-0,052	-0,056
-293,920	-62,728	0,155	-0,045
-292,905	110,300	0,119	0,101
-291,891	-157,252	-0,074	-0,003
-290,876	800,000	-0,040	0,098
-289,862	-70,514	0,124	0,033
-288,847	148,815	-0,088	-0,084
-287,832	-200,000	-0,023	0,111
-286,818	-119,126	0,153	0,019
-285,803	800,000	0,044	0,090
-284,789	-200,000	0,008	0,098
-283,774	172,588	0,119	0,121
-282,759	800,000	-0,041	-0,087
-281,745	281,999	-0,076	0,097
-280,730	207,887	0,053	0,059
-279,716	-32,202	-0,065	0,026
-278,701	43,572	-0,042	-0,027
-277,686	158,627	0,065	-0,064
-276,672	170,862	-0,055	0,056
-275,657	-93,930	-0,025	0,005
-274,643	-102,769	0,108	0,018
-273,628	800,000	-0,074	-0,146
-272,613	34,245	-0,061	-0,038
-271,599	115,088	0,097	0,084
-270,584	-200,000	0,108	0,000
-269,570	49,642	-0,039	-0,026
-268,555	-74,095	-0,091	0,023
-267,540	800,000	-0,049	0,124
-266,526	-200,000	-0,021	-0,083
-265,511	-100,675	0,122	0,021
-264,497	800,000	0,038	0,095
-263,482	583,043	-0,020	-0,035
-262,467	245,360	0,023	-0,027
-261,453	-81,136	-0,111	-0,026
-260,438	-137,052	-0,090	0,007
-259,424	-189,558	-0,148	-0,001
-258,409	-200,000	-0,003	-0,020
-257,395	800,000	0,051	-0,134
-256,380	152,264	0,086	-0,083
-255,365	28,408	-0,033	0,020
-254,351	-200,000	-0,027	0,136
-253,336	159,960	0,038	-0,037
-252,322	800,000	0,072	-0,204
-251,307	800,000	-0,075	-0,182
-250,292	-200,000	-0,017	-0,109
-249,278	138,754	0,064	-0,059
-248,263	198,710	0,099	0,108
-247,249	-43,399	-0,052	-0,019
-246,234	-200,000	0,017	0,065
-245,219	491,192	0,078	-0,127
-244,205	154,535	0,040	0,039
-243,190	-200,000	-0,021	0,121
-242,176	-200,000	0,033	0,131
-241,161	792,380	-0,023	0,045
-240,146	599,469	0,047	-0,084
-239,132	629,458	-0,012	-0,022
-238,117	703,495	0,022	0,041
-237,103	800,000	0,036	-0,071
-236,088	800,000	0,045	0,089
-235,073	-14,760	0,020	-0,009
-234,059	-26,686	0,096	-0,040
-233,044	-6,963	-0,062	-0,030
-232,030	153,734	-0,107	0,104
-231,015	5,464	-0,135	-0,071
-230,000	106,385	-0,133	-0,112
-228,986	-181,382	-0,096	0,001
-227,971	-200,000	0,035	0,114
-226,957	61,519	-0,114	0,081
-225,942	257,388	-0,048	-0,059
-224,927	-200,000	0,000	0,003
-223,913	39,496	-0,089	0,056
-222,898	-127,472	0,031	0,003
-221,884	84,548	0,128	-0,099
-220,869	-200,000	-0,028	0,181
-219,855	191,135	-0,032	-0,034
-218,840	-51,226	-0,098	0,032
-217,825	393,808	-0,053	-0,078
-216,811	-200,000	-0,006	-0,063
-215,796	-200,000	-0,033	0,107
-214,782	118,625	0,026	-0,023
-213,767	800,000	-0,085	-0,194
-212,752	-62,556	-0,058	-0,017
-211,738	-38,015	0,082	-0,031
-210,723	150,062	0,055	0,053
-209,709	800,000	-0,027	-0,079
-208,694	-17,332	0,054	-0,024
-207,679	-67,218	-0,042	-0,012
-206,665	555,572	0,037	-0,063
-205,650	-200,000	-0,008	0,078
-204,636	4,526	0,061	0,031
-203,621	767,300	0,025	0,048
-202,606	-69,377	0,069	-0,019
-201,592	10,260	-0,147	-0,079
-200,577	-200,000	0,033	-0,104
-199,563	-200,000	0,009	-0,051
-198,548	247,900	0,083	0,099
-197,533	23,107	0,081	-0,047
-196,519	174,373	0,002	-0,002
-195,504	627,149	-0,071	-0,128
-194,490	278,745	0,092	-0,117
-193,475	271,181	-0,084	0,105
-192,460	-115,546	-0,070	0,009
-191,446	177,139	0,195	0,201
-190,431	130,279	-0,027	0,025
-189,417	-109,874	0,033	-0,005
-188,402	6,241	-0,155	0,081
-187,387	-79,209	-0,050	0,012
-186,373	-27,553	-0,095	-0,039
-185,358	465,573	0,028	0,044
-184,344	95,994	-0,053	-0,043
-183,329	-74,421	0,168	-0,043
-182,315	-200,000	0,034	0,116
-181,300	-168,960	-0,169	-0,004
-180,285	-109,287	0,138	-0,021
-179,271	168,945	-0,071	0,071
-178,256	12,543	0,076	0,041
-177,242	-200,000	-0,021	0,142
-176,227	66,362	0,116	0,083
-175,212	-200,000	-0,011	-0,084
-174,198	568,787	-0,071	0,123
-173,183	-200,000	0,011	-0,091
-172,169	-146,951	-0,079	-0,005
-171,154	-200,000	-0,010	-0,041
-170,139	146,902	-0,065	-0,062
-169,125	138,938	0,020	0,019
-168,110	-124,374	-0,019	0,002
-167,096	-200,000	-0,044	0,161
-166,081	-200,000	-0,018	0,059
-165,066	800,000	-0,034	0,096
-164,052	-200,000	-0,007	-0,071
-163,037	-200,000	0,001	-0,014
-162,023	-200,000	-0,009	0,076
-161,008	-200,000	0,006	0,054
-159,993	15,826	-0,049	-0,027
-158,979	96,150	0,032	-0,026
-157,964	296,726	-0,035	-0,045
-156,950	-153,222	-0,137	0,007
-155,935	-200,000	-0,000	0,021
-154,920	-85,425	-0,038	-0,008
-153,906	-49,361	-0,099	-0,033
-152,891	118,099	0,093	-0,081
-151,877	800,000	-0,071	-0,147
-150,862	229,247	-0,151	-0,174
-149,847	750,872	-0,061	-0,117
-148,833	143,589	-0,047	0,044
-147,818	-200,000	0,001	-0,007
-146,804	382,908	0,035	0,051
-145,789	48,215	0,015	0,010
-144,775	800,000	-0,031	0,067
-143,760	-78,945	-0,043	-0,010
-142,745	-200,000	0,005	-0,062
-141,731	146,181	0,094	0,090
-140,716	717,754	0,049	0,092
-139,702	-12,586	0,036	0,017
-138,687	-200,000	0,022	0,107
-137,672	-28,973	0,027	-0,011
-136,658	124,718	-0,081	0,073
-135,643	62,569	-0,118	-0,083
-134,629	-51,689	0,025	0,008
-133,614	800,000	0,044	0,113
-132,599	-168,963	0,081	0,002
-131,585	72,485	-0,038	0,028
-130,570	214,830	-0,065	0,073
-129,556	621,716	-0,052	0,092
-128,541	322,053	-0,069	-0,094
-127,526	-200,000	0,004	0,028
-126,512	-200,000	-0,011	0,083
-125,497	-131,295	-0,051	-0,005
-124,483	755,486	0,040	0,077
-123,468	800,000	0,019	0,057
-122,453	523,450	-0,011	0,019
-121,439	-200,000	0,004	0,118
-120,424	205,802	-0,056	0,062
-119,410	-80,287	0,075	0,017
