DTS Sentinel unit serial number:	SN410029Multiplexer serial number:	ORYXHardware model number:	OX2-SRSoftware version number:	ORYX F/W v4,00 Oryx Data Collector v3.7.2.0data status	okinstallation	B3 Nyhavnadifferential loss correction	single-endedforward channel	channel 1reverse channel	N/Adate	2023/11/28time	16:37:30forward acquisition time	300,00reverse acquisition time	0,00gamma	499,1914k internal	0,3223k external	0,3223temperature offset calibration	1,0000default loss term (dB/km)	0,3820temperature slope calibration	1,0000multiplexer offset coefficient	1,0000multiplexer slope coefficient	1,0000fibre end	0,00T internal ref (°C)	7,28T ext. ref 1 (°C)	-7,67T ext. ref 2 (°C)	-7,82length (m)	temperature (°C)	Stokes	anti-Stokes-744,400	430,423	-0,095	-0,149
-743,385	800,000	-0,086	0,241
-742,371	549,146	-0,105	-0,182
-741,356	-200,000	-0,041	0,432
-740,342	-119,950	-0,221	-0,027
-739,327	238,237	-0,119	0,143
-738,312	-200,000	-0,075	-0,246
-737,298	426,950	-0,140	0,219
-736,283	735,809	-0,119	-0,232
-735,269	-200,000	-0,039	0,347
-734,254	666,952	-0,103	-0,194
-733,239	87,211	-0,157	0,125
-732,225	-200,000	-0,066	-0,215
-731,210	-10,003	0,116	0,055
-730,196	-95,985	-0,122	-0,023
-729,181	800,000	0,036	0,094
-728,167	536,132	-0,065	-0,111
-727,152	253,658	-0,051	-0,063
-726,137	74,474	-0,087	-0,066
-725,123	-138,682	-0,105	-0,008
-724,108	151,833	-0,037	0,037
-723,094	-200,000	-0,004	-0,071
-722,079	800,000	-0,043	-0,125
-721,064	-36,939	-0,007	-0,003
-720,050	800,000	-0,063	-0,167
-719,035	-87,785	-0,204	0,044
-718,021	-200,000	-0,005	-0,058
-717,006	485,377	-0,040	-0,066
-715,991	-200,000	-0,079	-0,273
-714,977	382,758	-0,092	-0,137
-713,962	-200,000	0,015	0,059
-712,948	383,111	0,029	0,044
-711,933	132,913	0,073	0,068
-710,918	37,761	0,044	-0,028
-709,904	-130,530	-0,104	-0,010
-708,889	185,228	-0,090	-0,097
-707,875	-88,752	0,105	0,022
-706,860	68,790	0,044	-0,033
-705,845	-200,000	0,014	0,234
-704,831	-76,304	0,086	0,022
-703,816	-65,367	-0,167	-0,048
-702,802	-200,000	-0,017	-0,119
-701,787	497,178	-0,060	-0,101
-700,772	-200,000	0,014	0,061
-699,758	-169,192	-0,027	-0,001
-698,743	192,298	-0,007	0,007
-697,729	800,000	0,019	0,057
-696,714	-200,000	-0,009	0,105
-695,699	-146,987	-0,068	-0,004
-694,685	-116,545	-0,140	-0,018
-693,670	252,575	0,069	-0,085
-692,656	-44,062	-0,105	-0,038
-691,641	-187,250	0,107	0,001
-690,627	42,843	0,107	0,070
-689,612	-200,000	-0,022	-0,106
-688,597	-200,000	-0,017	0,054
-687,583	800,000	0,009	-0,019
-686,568	-23,758	-0,107	0,046
-685,554	674,458	-0,060	-0,112
-684,539	10,281	-0,039	-0,021
-683,524	800,000	-0,066	0,138
-682,510	38,372	-0,125	0,080
-681,495	-71,480	0,071	0,019
-680,481	-102,834	-0,180	-0,031
-679,466	-200,000	0,019	-0,115
-678,451	-118,537	-0,145	-0,018
-677,437	-200,000	0,027	-0,110
-676,422	130,288	-0,084	-0,078
-675,408	117,064	0,096	-0,085
-674,393	-200,000	-0,001	0,081
-673,378	-200,000	-0,001	-0,094
-672,364	-200,000	0,017	-0,171
-671,349	17,478	-0,074	-0,042
-670,335	-30,238	-0,047	0,019
-669,320	-200,000	0,008	-0,144
-668,305	-73,644	-0,011	0,003
-667,291	-113,451	0,049	0,007
-666,276	-200,000	-0,030	-0,127
-665,262	-31,388	-0,037	0,015
-664,247	800,000	-0,028	-0,079
-663,232	59,254	0,019	0,013
-662,218	-200,000	0,002	0,016
-661,203	800,000	-0,044	-0,132
-660,189	330,744	-0,059	-0,082
-659,174	-200,000	0,015	0,140
-658,159	212,299	-0,056	-0,064
-657,145	-71,976	-0,048	0,013
-656,130	800,000	0,025	-0,051
-655,116	-200,000	-0,010	0,079
-654,101	800,000	0,013	-0,030
-653,086	-6,855	-0,191	0,093
-652,072	143,615	0,008	0,007
-651,057	466,319	-0,114	-0,184
-650,043	800,000	-0,030	0,062
-649,028	-68,335	0,084	0,023
-648,014	-200,000	0,027	0,094
-646,999	15,712	0,059	0,033
-645,984	220,127	-0,037	-0,043
-644,970	39,626	-0,237	0,153
-643,955	116,535	-0,051	-0,045
-642,941	6,415	-0,110	-0,058
-641,926	-93,673	0,100	0,020
-640,911	-200,000	0,017	-0,101
-639,897	800,000	0,056	0,112
-638,882	-1,021	-0,016	0,008
-637,868	94,514	-0,050	0,041
-636,853	800,000	0,061	-0,124
-635,838	-44,954	-0,120	-0,043
-634,824	-130,169	-0,106	-0,010
-633,809	566,772	-0,053	-0,093
-632,795	363,622	0,067	-0,097
-631,780	-111,851	0,145	0,021
-630,765	130,843	-0,103	0,095
-629,751	-107,467	-0,104	-0,016
-628,736	-167,504	-0,174	0,005
-627,722	-200,000	-0,020	-0,155
-626,707	758,901	0,043	-0,084
-625,692	800,000	0,036	-0,084
-624,678	-41,366	-0,134	-0,050
-623,663	800,000	-0,025	-0,069
-622,649	229,495	-0,032	0,038
-621,634	128,648	0,059	0,054
-620,619	-200,000	0,017	-0,075
-619,605	18,850	-0,107	-0,061
-618,590	-61,653	0,201	0,060
-617,576	800,000	-0,028	0,068
-616,561	408,363	-0,053	-0,081
-615,546	-200,000	-0,014	-0,118
-614,532	-200,000	0,041	-0,171
-613,517	800,000	-0,057	-0,141
-612,503	-200,000	0,018	0,161
-611,488	-70,076	0,064	0,017
-610,474	303,488	-0,073	0,098
-609,459	208,088	-0,006	-0,007
-608,444	-103,811	-0,151	-0,025
-607,430	93,020	-0,012	-0,010
-606,415	-16,583	-0,112	-0,051
-605,401	-141,153	0,017	0,001
-604,386	118,880	0,073	0,065
-603,371	800,000	-0,033	0,078
-602,357	-102,384	-0,107	0,018
-601,342	190,024	-0,018	-0,019
-600,328	-147,103	-0,053	0,003
-599,313	699,501	-0,017	0,033
-598,298	19,799	-0,138	0,080
-597,284	-25,306	-0,063	0,027
-596,269	800,000	-0,041	0,087
-595,255	800,000	-0,011	-0,026
-594,240	-200,000	-0,004	0,036
-593,225	309,675	-0,112	0,151
-592,211	250,858	0,012	0,014
-591,196	426,670	-0,026	-0,041
-590,182	-67,087	0,139	0,039
-589,167	-129,683	-0,066	0,006
-588,152	303,328	0,031	0,042
-587,138	800,000	0,034	0,080
-586,123	394,500	0,024	-0,036
-585,109	-200,000	0,003	-0,061
-584,094	-42,698	-0,093	0,034
-583,079	-154,178	0,133	-0,006
-582,065	164,155	0,109	0,110
-581,050	800,000	-0,079	0,215
-580,036	267,211	-0,079	-0,099
-579,021	183,464	-0,087	-0,092
-578,006	555,213	-0,074	-0,129
-576,992	225,636	0,049	-0,058
-575,977	97,963	-0,080	-0,066
-574,963	29,668	-0,071	0,044
-573,948	800,000	-0,003	0,009
-572,934	624,207	-0,042	-0,076
-571,919	93,303	-0,161	0,131
-570,904	300,630	0,034	-0,045
-569,890	-55,864	-0,118	-0,038
-568,875	800,000	0,055	0,126
-567,861	800,000	0,053	0,116
-566,846	-4,187	0,127	0,063
-565,831	-32,193	-0,114	0,045
-564,817	258,554	0,084	-0,103
-563,802	-191,242	-0,009	0,000
-562,788	800,000	-0,037	0,113
-561,773	-17,512	0,062	-0,028
-560,758	44,651	-0,183	0,121
-559,744	-200,000	-0,016	-0,092
-558,729	-89,328	0,019	-0,004
-557,715	-200,000	0,018	-0,113
-556,700	-200,000	-0,007	-0,178
-555,685	314,119	-0,013	0,018
-554,671	-200,000	0,015	0,051
-553,656	488,440	0,033	0,054
-552,642	-200,000	-0,004	0,024
-551,627	-68,609	0,145	0,040
-550,612	-169,342	-0,091	-0,002
-549,598	-20,307	0,155	-0,068
-548,583	-200,000	-0,032	0,166
-547,569	-200,000	-0,039	-0,147
-546,554	304,747	0,085	0,114
-545,539	629,239	0,016	0,029
-544,525	800,000	0,016	-0,042
-543,510	-172,642	-0,155	-0,003
-542,496	-4,740	-0,090	0,044
-541,481	203,733	-0,092	-0,103
-540,466	800,000	-0,037	0,080
-539,452	88,791	0,083	0,066
-538,437	-56,636	0,095	-0,030
-537,423	712,693	0,047	-0,090
-536,408	-149,851	-0,099	-0,005
-535,393	553,824	-0,033	-0,057
-534,379	-98,401	-0,166	-0,030
-533,364	111,755	0,080	0,069
-532,350	-104,684	0,041	0,007
-531,335	-40,697	0,145	0,054
-530,321	-200,000	-0,010	0,044
-529,306	19,747	0,031	0,018
-528,291	-47,471	-0,101	0,035
-527,277	800,000	0,013	-0,026
-526,262	-200,000	0,004	-0,076
-525,248	-23,592	0,123	0,053
-524,233	380,905	0,034	0,049
-523,218	-108,738	0,041	-0,006
-522,204	129,640	0,084	0,077
-521,189	-200,000	-0,021	0,137
-520,175	-128,171	-0,053	0,005
-519,160	-200,000	0,026	0,109
-518,145	-200,000	0,032	0,111
-517,131	55,329	-0,130	0,090
-516,116	-200,000	-0,003	0,105
-515,102	26,215	-0,082	-0,049
-514,087	-41,849	0,097	0,035
-513,072	74,580	-0,014	-0,011
-512,058	-106,857	-0,033	-0,005
-511,043	-200,000	-0,005	0,026
-510,029	-136,179	0,094	-0,008
-509,014	800,000	-0,058	0,172
-507,999	493,782	-0,023	0,039
-506,985	1,786	0,167	-0,086
-505,970	88,858	-0,115	-0,092
-504,956	-113,914	-0,085	0,012
-503,941	-200,000	-0,012	-0,103
-502,926	134,318	0,094	0,088
-501,912	187,247	0,108	-0,116
-500,897	-56,195	-0,142	0,045
-499,883	-116,428	0,049	-0,006
-498,868	-200,000	-0,018	-0,095
-497,853	4,041	-0,049	0,026
-496,839	-80,983	0,053	-0,012
-495,824	47,557	0,205	0,137
-494,810	-200,000	0,000	-0,003
-493,795	130,888	0,051	-0,047
-492,781	-200,000	0,006	-0,020
-491,766	422,421	-0,064	-0,098
-490,751	-200,000	0,039	-0,142
-489,737	-84,394	0,138	-0,031
-488,722	-200,000	0,013	0,124
-487,708	-128,740	-0,066	-0,007
-486,693	126,663	0,091	0,082
-485,678	-11,100	-0,253	0,119
-484,664	158,583	0,077	-0,077
-483,649	378,196	-0,033	-0,048
-482,635	293,083	-0,070	0,092
-481,620	-200,000	0,020	0,116
-480,605	-66,530	0,157	0,044
-479,591	25,458	-0,066	-0,039
-478,576	-17,621	-0,096	-0,043
-477,562	-173,027	-0,044	-0,001
-476,547	199,914	0,010	-0,011
-475,532	-12,625	-0,066	-0,031
-474,518	800,000	-0,020	-0,060
-473,503	-138,766	0,106	0,008
-472,489	-16,470	-0,070	-0,032
-471,474	270,561	-0,030	-0,038
-470,459	125,153	-0,104	-0,094
-469,445	570,387	0,059	-0,102
-468,430	336,386	0,114	-0,158
-467,416	-26,631	0,028	-0,012
-466,401	800,000	-0,024	-0,053
-465,386	-54,035	0,116	0,037
-464,372	-172,456	-0,081	-0,002
-463,357	-87,320	0,063	-0,013
-462,343	146,674	-0,078	0,074
-461,328	-163,490	-0,102	0,003
-460,313	-200,000	0,013	0,165
-459,299	52,185	0,107	0,073
-458,284	-31,317	-0,119	0,047
-457,270	19,973	-0,067	-0,038
-456,255	201,226	-0,074	0,082
-455,241	-200,000	-0,042	-0,154
-454,226	-2,397	0,075	0,038
-453,211	115,807	0,057	0,050
-452,197	-38,450	0,039	0,015
-451,182	-200,000	0,003	0,108
-450,168	-82,908	0,072	0,016
-449,153	800,000	-0,047	0,095
-448,138	-133,985	-0,106	-0,009
-447,124	-86,599	0,037	-0,008
-446,109	-158,725	-0,114	0,005
-445,095	-13,861	0,098	-0,045
-444,080	-200,000	-0,016	0,120
-443,065	-75,307	0,044	-0,011
-442,051	-39,430	-0,101	-0,037
-441,036	52,238	-0,087	0,059
-440,022	582,780	-0,034	-0,060
-439,007	800,000	-0,022	-0,049
-437,992	800,000	0,031	0,092
-436,978	-128,744	0,103	-0,010
-435,963	800,000	0,078	-0,233
-434,949	800,000	-0,021	-0,049
-433,934	-200,000	-0,009	-0,095
-432,919	141,877	-0,087	-0,082
-431,905	71,589	-0,048	-0,035
-430,890	106,090	0,081	0,069
-429,876	-38,906	0,100	0,037
-428,861	515,065	0,043	0,072
-427,846	-133,498	-0,091	-0,008
-426,832	-63,149	-0,010	-0,003
-425,817	-200,000	0,025	-0,106
-424,803	734,796	-0,068	-0,131
-423,788	-89,279	-0,051	-0,011
-422,773	-176,107	0,190	0,003
-421,759	563,179	0,029	0,050
-420,744	-200,000	0,005	0,015
-419,730	-74,248	-0,013	0,003
-418,715	441,366	-0,054	0,085
-417,701	58,455	-0,059	-0,041
-416,686	-46,979	0,038	-0,013
-415,671	379,433	0,040	0,059
-414,657	-200,000	0,003	0,142
-413,642	183,841	0,072	-0,076
-412,628	341,590	-0,017	-0,024
-411,613	800,000	-0,048	-0,115
-410,598	-124,480	0,045	0,005
-409,584	87,046	0,073	-0,058
-408,569	800,000	0,026	0,058
-407,555	-14,783	0,086	-0,039
-406,540	-200,000	0,016	0,073
-405,525	-200,000	-0,008	0,067
-404,511	-73,779	0,068	-0,018
-403,496	-24,803	-0,096	-0,041
-402,482	-200,000	0,026	-0,106
-401,467	-200,000	0,004	0,050
-400,452	397,294	-0,047	0,070
-399,438	186,191	-0,022	0,024
-398,423	-200,000	0,005	-0,095
-397,409	6,864	-0,164	-0,087
-396,394	44,465	-0,062	0,040
-395,379	69,150	0,078	0,057
-394,365	-200,000	-0,014	-0,102
-393,350	800,000	-0,033	-0,096
-392,336	185,522	-0,107	-0,113
-391,321	465,861	-0,032	0,052
-390,306	-200,000	-0,003	-0,066
-389,292	229,605	0,090	0,104
-388,277	-57,023	-0,140	0,044
-387,263	139,474	0,111	0,104
-386,248	-200,000	-0,022	0,095
-385,233	800,000	0,032	0,071
-384,219	9,998	0,040	-0,022
-383,204	-200,000	-0,008	-0,175
-382,190	64,477	-0,126	-0,090
-381,175	-200,000	-0,024	-0,144
-380,160	320,963	0,091	0,123
-379,146	90,590	0,191	0,152
-378,131	800,000	-0,042	0,100
-377,117	107,463	0,114	0,096
-376,102	-200,000	-0,000	-0,127
-375,088	387,922	-0,053	0,079
-374,073	-200,000	-0,006	-0,045
-373,058	-163,498	0,194	-0,006
-372,044	-200,000	0,002	0,104
-371,029	775,290	0,016	0,032
-370,015	800,000	-0,015	-0,043
-369,000	800,000	0,072	-0,143
-367,985	-200,000	0,019	0,071
-366,971	-111,368	-0,063	0,009
-365,956	238,365	0,077	0,091
-364,942	92,345	0,057	0,046
-363,927	71,026	0,095	0,070
-362,912	30,312	0,044	-0,026
-361,898	-177,053	-0,101	0,002
-360,883	800,000	0,009	0,019
-359,869	-180,537	-0,017	0,000
-358,854	493,486	-0,039	-0,064
-357,839	-200,000	-0,030	0,137
-356,825	-200,000	-0,009	0,220
-355,810	-147,798	0,125	-0,007
-354,796	-200,000	-0,004	-0,064
-353,781	800,000	-0,064	-0,165
-352,766	218,427	-0,053	-0,061
-351,752	-129,340	-0,086	0,008
-350,737	-200,000	0,021	0,206
-349,723	-31,746	-0,144	-0,057
-348,708	242,768	0,087	0,103
-347,693	800,000	-0,043	-0,110
-346,679	251,910	0,142	-0,173
-345,664	5,650	0,063	-0,033
-344,650	-200,000	0,010	0,032
-343,635	800,000	0,045	0,133
-342,620	-77,510	0,129	-0,031
-341,606	167,465	-0,101	0,103
-340,591	-56,988	0,081	-0,025
-339,577	-200,000	0,012	0,118
-338,562	107,676	-0,030	-0,026
-337,548	800,000	-0,055	-0,129
-336,533	206,669	0,050	-0,055
-335,518	-200,000	0,000	-0,050
-334,504	-178,252	0,056	0,001
-333,489	226,759	-0,103	0,119
-332,475	-61,389	-0,060	0,018
-331,460	96,816	-0,055	0,045
-330,445	-200,000	0,018	-0,110
-329,431	25,406	0,178	0,105
-328,416	-200,000	0,008	0,037
-327,402	800,000	-0,012	-0,025
-326,387	-200,000	0,008	-0,068
-325,372	313,461	0,114	-0,152
-324,358	91,925	-0,159	0,127
-323,343	228,541	-0,088	-0,103
-322,329	-16,745	0,024	0,011
-321,314	47,592	0,052	-0,035
-320,299	-200,000	0,014	0,166
-319,285	140,481	0,136	-0,127
-318,270	-11,779	0,110	0,051
-317,256	171,161	-0,065	-0,066
-316,241	800,000	0,044	0,106
-315,226	-20,804	0,048	-0,021
-314,212	76,903	0,135	-0,102
-313,197	58,208	-0,152	-0,106
-312,183	91,119	-0,050	-0,040
-311,168	-200,000	0,015	-0,112
-310,153	71,445	-0,101	0,075
-309,139	13,490	-0,037	-0,020
-308,124	-120,736	0,209	0,025
-307,110	-98,535	-0,042	-0,008
-306,095	-200,000	0,001	-0,076
-305,080	-184,446	-0,160	-0,002
-304,066	800,000	0,038	-0,116
-303,051	160,254	-0,166	-0,164
-302,037	119,425	-0,074	-0,065
-301,022	-200,000	0,001	-0,007
-300,008	60,339	0,070	0,049
-298,993	-5,114	0,092	0,045
-297,978	-200,000	-0,004	0,050
-296,964	701,983	-0,036	-0,068
-295,949	-200,000	-0,001	-0,184
-294,935	52,471	0,096	0,065
-293,920	-11,945	-0,080	0,037
-292,905	7,529	0,039	0,021
-291,891	-200,000	-0,023	0,182
-290,876	326,120	0,045	-0,062
-289,862	-111,305	0,049	0,007
-288,847	115,036	-0,076	0,066
-287,832	-36,245	-0,090	-0,034
-286,818	240,190	-0,007	0,009
-285,803	34,384	0,100	0,062
-284,789	-200,000	0,030	0,185
-283,774	-200,000	0,018	-0,109
-282,759	800,000	-0,028	0,060
-281,745	73,355	-0,008	0,006
-280,730	-65,077	-0,030	-0,009
-279,716	-102,634	0,187	-0,031
-278,701	-103,579	0,098	0,016
-277,686	184,002	0,089	0,094
-276,672	135,172	0,037	0,034
-275,657	-58,522	-0,031	0,009
-274,643	587,996	0,059	-0,103
-273,628	43,376	-0,028	-0,018
-272,613	145,253	-0,040	0,038
-271,599	800,000	-0,045	0,089
-270,584	97,038	0,102	0,083
-269,570	-56,830	-0,086	0,027
-268,555	-200,000	-0,031	0,138
-267,540	-4,140	0,110	0,054
-266,526	10,098	-0,057	-0,031
-265,511	800,000	-0,039	-0,083
-264,497	-148,693	0,094	0,005
-263,482	-5,275	0,023	-0,011
-262,467	347,303	0,051	0,072
-261,453	88,823	-0,007	-0,006
-260,438	-127,577	-0,115	-0,012
-259,424	-83,457	0,053	0,012
-258,409	51,817	-0,109	-0,073
-257,395	800,000	0,029	-0,069
-256,380	-44,833	0,045	0,016
-255,365	7,763	0,051	0,027
-254,351	-141,950	0,167	-0,012
-253,336	76,903	0,029	0,022
-252,322	-200,000	-0,004	-0,145
-251,307	-200,000	0,016	0,078
-250,292	359,055	0,087	0,123
-249,278	800,000	0,029	0,068
-248,263	800,000	0,058	-0,123
-247,249	255,028	0,046	0,056
-246,234	800,000	0,017	-0,041
-245,219	-156,910	-0,247	-0,011
-244,205	800,000	0,050	-0,113
-243,190	11,961	-0,163	0,089
-242,176	-200,000	0,020	0,077
-241,161	37,310	0,079	-0,050
-240,146	5,211	0,038	0,020
-239,132	-63,310	-0,125	0,036
-238,117	-200,000	0,013	0,049
-237,103	409,232	0,088	-0,133
-236,088	669,931	-0,084	-0,155
-235,073	153,746	0,126	0,122
-234,059	95,207	-0,050	-0,040
-233,044	800,000	0,038	0,111
-232,030	-200,000	0,004	0,089
-231,015	84,095	-0,014	-0,011
-230,000	280,926	0,063	-0,080
-228,986	453,119	-0,059	-0,093
-227,971	96,223	0,072	0,059
-226,957	-71,957	-0,085	0,022
-225,942	101,485	0,036	0,029
-224,927	285,257	-0,020	0,026
-223,913	-67,661	-0,108	-0,030
-222,898	-165,491	0,130	-0,004
-221,884	115,207	0,056	0,049
-220,869	342,158	0,044	-0,062
-219,855	-112,940	-0,100	-0,014
-218,840	555,525	0,057	0,098
-217,825	-23,200	-0,181	0,077
-216,811	800,000	0,037	-0,085
-215,796	103,346	-0,072	-0,059
-214,782	99,164	-0,096	0,078
-213,767	-153,608	0,095	0,005
-212,752	333,141	0,106	0,145
-211,738	-200,000	0,003	0,099
-210,723	29,658	-0,113	0,068
-209,709	96,138	0,033	-0,027
-208,694	602,808	-0,061	-0,108
-207,679	61,990	-0,047	0,033
-206,665	-200,000	-0,028	-0,118
-205,650	800,000	0,039	-0,114
-204,636	-35,281	0,089	0,034
-203,621	2,049	0,116	0,059
-202,606	800,000	-0,029	-0,062
-201,592	800,000	-0,022	-0,050
-200,577	5,405	-0,084	-0,044
-199,563	-119,797	-0,099	0,012
-198,548	-200,000	0,025	-0,135
-197,533	33,104	0,049	0,030
-196,519	800,000	0,029	-0,060
-195,504	233,048	-0,045	0,052
-194,490	-111,592	-0,131	0,019
-193,475	-61,892	0,075	-0,022
-192,460	242,888	0,023	-0,028
-191,446	-17,150	0,140	0,062
-190,431	28,920	0,038	0,023
-189,417	-96,704	0,033	-0,006
-188,402	-200,000	0,012	-0,085
-187,387	60,629	0,027	-0,019
-186,373	-178,454	-0,151	0,002
-185,358	12,981	0,144	0,078
-184,344	-136,455	0,054	0,004
-183,329	163,581	0,053	-0,053
-182,315	237,237	0,042	0,050
-181,300	31,449	-0,059	0,036
-180,285	800,000	-0,041	0,084
-179,271	30,639	0,093	-0,056
-178,256	115,678	0,106	-0,092
-177,242	326,752	0,062	-0,084
-176,227	43,899	0,088	0,057
-175,212	55,151	0,040	-0,027
-174,198	-87,185	-0,045	-0,010
-173,183	125,897	-0,076	-0,067
-172,169	800,000	0,040	-0,117
-171,154	-43,705	-0,103	-0,036
-170,139	-105,279	-0,082	-0,013
-169,125	768,926	0,021	0,040
-168,110	-129,987	-0,039	0,004
-167,096	59,945	0,058	0,040
-166,081	-51,391	-0,121	-0,040
-165,066	258,731	0,020	-0,024
-164,052	343,671	-0,068	-0,095
-163,037	120,246	0,110	-0,096
-162,023	-93,813	0,117	-0,023
-161,008	187,644	0,038	-0,040
-159,993	-200,000	-0,023	0,080
-158,979	202,476	0,025	-0,028
-157,964	-200,000	-0,025	-0,097
-156,950	168,906	-0,036	0,036
-155,935	177,391	-0,029	-0,030
-154,920	-200,000	0,002	0,034
-153,906	-200,000	0,030	-0,109
-152,891	-13,859	-0,016	-0,007
-151,877	-81,340	0,045	0,010
-150,862	12,720	0,043	0,023
-149,847	70,142	0,078	-0,057
-148,833	122,422	-0,044	-0,039
-147,818	-200,000	-0,027	0,110
-146,804	293,422	0,065	0,083
-145,789	153,252	0,064	0,061
-144,775	72,029	-0,107	0,079
-143,760	238,661	-0,104	0,123
-142,745	-200,000	0,007	-0,046
-141,731	-200,000	-0,004	0,031
-140,716	334,562	0,013	-0,018
-139,702	165,023	-0,011	0,011
-138,687	800,000	0,022	0,046
-137,672	71,724	0,056	0,041
-136,658	339,534	-0,107	-0,148
-135,643	-200,000	-0,026	-0,086
-134,629	292,429	0,023	0,030
-133,614	-120,217	0,043	0,005
-132,599	-200,000	0,017	0,149
-131,585	221,594	-0,022	0,025
-130,570	141,540	0,067	0,063
-129,556	-104,605	-0,222	0,036
-128,541	153,327	-0,092	-0,089
-127,526	800,000	0,068	0,137
-126,512	800,000	0,071	0,215
-125,497	-200,000	0,008	-0,079
-124,483	-103,642	-0,112	0,018
-123,468	19,356	0,131	0,074
-122,453	53,926	0,122	-0,083
-121,439	800,000	-0,042	-0,090
-120,424	-85,025	-0,082	-0,018
-119,410	109,874	-0,050	-0,043
