DTS Sentinel unit serial number:	SN410029Multiplexer serial number:	ORYXHardware model number:	OX2-SRSoftware version number:	ORYX F/W v4,00 Oryx Data Collector v3.7.2.0data status	okinstallation	B3 Nyhavnadifferential loss correction	single-endedforward channel	channel 1reverse channel	N/Adate	2023/11/28time	11:17:30forward acquisition time	300,00reverse acquisition time	0,00gamma	499,1914k internal	0,3152k external	0,3152temperature offset calibration	1,0000default loss term (dB/km)	0,3820temperature slope calibration	1,0000multiplexer offset coefficient	1,0000multiplexer slope coefficient	1,0000fibre end	0,00T internal ref (°C)	9,33T ext. ref 1 (°C)	-7,48T ext. ref 2 (°C)	-7,70length (m)	temperature (°C)	Stokes	anti-Stokes-744,400	800,000	-0,073	-0,219
-743,385	-200,000	0,001	0,193
-742,371	30,079	-0,147	-0,092
-741,356	-200,000	-0,082	0,399
-740,342	110,420	-0,219	-0,194
-739,327	-200,000	-0,057	0,373
-738,312	133,997	-0,276	-0,264
-737,298	800,000	-0,108	0,226
-736,283	30,263	-0,284	-0,178
-735,269	-200,000	0,075	0,391
-734,254	42,976	-0,213	-0,143
-733,239	-22,436	-0,176	0,078
-732,225	-200,000	-0,027	-0,172
-731,210	546,952	-0,050	0,088
-730,196	121,142	0,082	0,075
-729,181	-200,000	0,034	-0,130
-728,167	-200,000	0,008	-0,079
-727,152	-200,000	-0,009	0,065
-726,137	12,586	0,129	-0,073
-725,123	57,457	0,012	-0,009
-724,108	-200,000	0,005	-0,095
-723,094	-65,773	-0,072	-0,021
-722,079	-200,000	0,005	-0,235
-721,064	-74,917	-0,013	0,003
-720,050	249,722	-0,022	-0,027
-719,035	377,005	0,019	0,029
-718,021	-200,000	-0,047	-0,158
-717,006	69,653	-0,173	-0,131
-715,991	-200,000	-0,000	-0,220
-714,977	45,127	0,077	-0,052
-713,962	65,277	0,035	-0,026
-712,948	-4,808	-0,027	-0,014
-711,933	-139,085	0,128	0,010
-710,918	-137,367	0,040	-0,003
-709,904	70,631	0,062	0,047
-708,889	-200,000	-0,019	-0,157
-707,875	800,000	-0,059	-0,133
-706,860	67,047	-0,058	-0,043
-705,845	468,396	0,010	0,016
-704,831	-42,781	-0,091	-0,034
-703,816	-200,000	0,011	-0,050
-702,802	-89,203	0,043	-0,009
-701,787	68,312	-0,217	-0,164
-700,772	-70,066	-0,081	-0,023
-699,758	800,000	-0,042	-0,103
-698,743	-150,513	0,089	0,005
-697,729	-200,000	0,015	-0,047
-696,714	10,303	-0,080	0,045
-695,699	164,320	-0,080	-0,083
-694,685	106,341	-0,092	-0,080
-693,670	-29,474	-0,093	0,039
-692,656	-200,000	-0,018	-0,080
-691,641	800,000	-0,015	0,042
-690,627	69,879	0,099	0,075
-689,612	-55,622	0,028	0,009
-688,597	-58,815	-0,047	0,015
-687,583	-128,244	-0,109	0,011
-686,568	-200,000	-0,029	-0,101
-685,554	-200,000	-0,008	-0,033
-684,539	40,340	0,073	0,048
-683,524	-195,300	-0,044	0,000
-682,510	11,870	0,183	0,103
-681,495	800,000	-0,055	-0,119
-680,481	-200,000	-0,005	-0,137
-679,466	-14,543	-0,235	-0,111
-678,451	11,840	0,157	-0,089
-677,437	55,787	0,091	0,065
-676,422	800,000	0,064	0,147
-675,408	3,139	-0,071	-0,038
-674,393	-200,000	-0,029	-0,128
-673,378	-122,551	0,042	0,005
-672,364	-200,000	-0,007	0,123
-671,349	-200,000	-0,044	-0,171
-670,335	11,707	-0,064	0,036
-669,320	-200,000	0,001	-0,078
-668,305	-200,000	0,007	-0,046
-667,291	-200,000	-0,012	0,062
-666,276	721,553	-0,103	-0,204
-665,262	564,370	-0,059	-0,106
-664,247	201,732	0,055	0,062
-663,232	160,917	-0,077	0,080
-662,218	375,801	-0,032	-0,049
-661,203	-200,000	0,004	-0,140
-660,189	800,000	0,039	-0,121
-659,174	147,693	-0,108	-0,108
-658,159	206,101	-0,028	0,032
-657,145	-17,034	-0,085	-0,039
-656,130	800,000	-0,030	-0,078
-655,116	-37,070	0,060	0,024
-654,101	-22,778	0,052	0,023
-653,086	800,000	-0,036	0,084
-652,072	-200,000	0,038	-0,154
-651,057	53,710	-0,050	-0,035
-650,043	201,143	-0,116	-0,131
-649,028	-160,462	0,066	-0,003
-648,014	-146,848	0,077	0,005
-646,999	-58,574	-0,057	0,018
-645,984	186,046	-0,080	-0,088
-644,970	208,439	0,076	-0,087
-643,955	564,540	-0,123	-0,219
-642,941	38,852	0,043	0,029
-641,926	169,579	0,060	-0,063
-640,911	800,000	-0,016	0,051
-639,897	800,000	-0,042	0,109
-638,882	-200,000	0,022	0,088
-637,868	-200,000	-0,001	-0,016
-636,853	800,000	0,014	0,044
-635,838	643,219	-0,083	-0,156
-634,824	163,306	-0,041	0,042
-633,809	-98,584	0,108	0,020
-632,795	268,262	0,051	0,066
-631,780	800,000	-0,053	-0,150
-630,765	72,226	-0,103	-0,079
-629,751	-120,996	0,021	-0,003
-628,736	-200,000	-0,013	-0,077
-627,722	-171,429	-0,084	0,002
-626,707	-152,640	0,083	-0,004
-625,692	-193,638	0,096	-0,001
-624,678	-200,000	0,015	0,093
-623,663	800,000	-0,051	-0,121
-622,649	-48,818	0,120	0,042
-621,634	67,497	-0,124	-0,093
-620,619	539,805	-0,051	-0,089
-619,605	-151,641	-0,057	-0,003
-618,590	84,997	-0,108	0,087
-617,576	800,000	0,046	0,114
-616,561	-102,688	-0,092	0,016
-615,546	161,411	-0,125	0,128
-614,532	-126,441	-0,102	0,011
-613,517	800,000	0,044	-0,119
-612,503	-39,290	0,110	-0,042
-611,488	-44,313	0,076	0,028
-610,474	-124,388	-0,137	0,015
-609,459	89,189	-0,046	-0,038
-608,444	800,000	-0,037	-0,113
-607,430	-7,130	-0,091	-0,045
-606,415	746,295	-0,037	0,074
-605,401	-165,475	-0,073	-0,002
-604,386	800,000	0,028	-0,072
-603,371	264,557	0,048	-0,061
-602,357	-33,203	0,092	-0,037
-601,342	10,927	-0,146	-0,081
-600,328	311,931	-0,019	-0,026
-599,313	350,110	0,033	0,048
-598,298	103,235	-0,069	-0,060
-597,284	-20,479	0,094	-0,042
-596,269	-200,000	-0,006	0,142
-595,255	-121,534	0,025	-0,003
-594,240	118,103	0,016	-0,014
-593,225	800,000	-0,037	-0,103
-592,211	24,490	-0,104	-0,063
-591,196	90,695	0,118	0,097
-590,182	-197,964	0,081	0,000
-589,167	-200,000	0,003	0,132
-588,152	800,000	0,052	0,112
-587,138	-190,457	-0,050	0,000
-586,123	800,000	-0,015	-0,038
-585,109	800,000	-0,027	-0,065
-584,094	-39,943	-0,093	0,035
-583,079	96,073	0,036	0,030
-582,065	3,246	0,117	0,063
-581,050	42,384	0,097	0,064
-580,036	75,284	0,042	-0,033
-579,021	582,222	-0,095	-0,172
-578,006	-200,000	0,007	-0,104
-576,992	198,430	-0,051	0,057
-575,977	-200,000	0,004	-0,068
-574,963	312,287	-0,079	0,109
-573,948	372,967	-0,044	0,065
-572,934	81,882	-0,063	-0,050
-571,919	-200,000	0,007	0,080
-570,904	-200,000	-0,004	-0,017
-569,890	-200,000	-0,002	0,177
-568,875	53,689	0,155	0,109
-567,861	209,896	0,104	0,120
-566,846	-38,583	0,083	-0,032
-565,831	464,936	-0,015	0,025
-564,817	-89,083	-0,086	0,018
-563,802	-200,000	-0,000	-0,148
-562,788	352,933	-0,052	-0,075
-561,773	401,667	0,009	-0,013
-560,758	-84,644	-0,031	-0,007
-559,744	-171,846	-0,029	0,001
-558,729	-200,000	-0,010	0,101
-557,715	-94,802	-0,038	0,008
-556,700	319,747	-0,053	-0,073
-555,685	66,148	0,071	-0,053
-554,671	-138,089	0,105	-0,008
-553,656	-93,566	0,103	-0,021
-552,642	138,585	0,096	0,093
-551,627	-101,499	0,102	0,018
-550,612	127,109	-0,012	-0,011
-549,598	-200,000	0,025	-0,139
-548,583	-200,000	0,011	-0,051
-547,569	-51,533	-0,049	0,017
-546,554	177,870	-0,059	0,063
-545,539	4,585	0,102	-0,055
-544,525	-0,631	-0,034	-0,018
-543,510	-200,000	-0,006	-0,191
-542,496	180,148	-0,066	-0,071
-541,481	-200,000	-0,004	-0,096
-540,466	-200,000	0,003	-0,022
-539,452	800,000	-0,037	0,080
-538,437	-200,000	0,002	0,117
-537,423	-200,000	-0,032	0,115
-536,408	-27,277	0,118	-0,050
-535,393	32,744	-0,263	-0,166
-534,379	-62,408	-0,015	-0,005
-533,364	83,692	0,132	-0,105
-532,350	-200,000	-0,007	-0,047
-531,335	156,778	-0,051	0,052
-530,321	154,701	0,045	0,045
-529,306	-133,423	-0,108	0,010
-528,291	155,279	-0,051	-0,052
-527,277	121,018	-0,082	-0,075
-526,262	48,046	-0,007	0,005
-525,248	800,000	0,031	0,067
-524,233	272,252	0,072	-0,093
-523,218	-163,368	0,105	0,004
-522,204	800,000	0,033	-0,080
-521,189	-179,388	-0,095	-0,001
-520,175	247,160	-0,040	-0,050
-519,160	-200,000	-0,011	-0,039
-518,145	-74,658	0,035	-0,009
-517,131	162,730	0,023	-0,023
-516,116	800,000	0,025	0,065
-515,102	46,545	-0,094	0,064
-514,087	11,281	0,048	0,027
-513,072	-28,365	-0,002	-0,001
-512,058	-11,661	-0,142	0,068
-511,043	-90,395	0,126	0,027
-510,029	411,380	0,091	0,141
-509,014	800,000	-0,040	-0,098
-507,999	-83,825	0,031	-0,007
-506,985	-133,867	-0,082	0,007
-505,970	-32,834	-0,137	0,056
-504,956	-63,748	0,048	0,014
-503,941	-13,780	-0,073	-0,034
-502,926	800,000	-0,026	0,075
-501,912	-88,504	-0,110	-0,024
-500,897	18,457	0,080	0,047
-499,883	-200,000	-0,006	-0,072
-498,868	-200,000	0,001	0,018
-497,853	-200,000	0,036	0,132
-496,839	800,000	0,031	-0,094
-495,824	-200,000	-0,027	0,109
-494,810	197,860	-0,014	-0,016
-493,795	-200,000	0,006	0,066
-492,781	351,645	-0,044	-0,064
-491,766	-41,310	-0,062	0,023
-490,751	800,000	-0,030	-0,095
-489,737	800,000	0,029	-0,063
-488,722	39,008	0,092	-0,060
-487,708	-200,000	0,007	0,061
-486,693	800,000	-0,036	0,091
-485,678	800,000	-0,025	-0,077
-484,664	155,454	-0,030	0,030
-483,649	145,452	-0,046	0,045
-482,635	-162,708	0,064	-0,002
-481,620	49,197	0,112	0,077
-480,605	-47,367	0,091	-0,032
-479,591	-117,832	-0,115	0,015
-478,576	536,738	-0,040	-0,070
-477,562	8,549	-0,033	0,018
-476,547	307,764	-0,014	-0,019
-475,532	800,000	-0,029	-0,071
-474,518	-58,377	0,138	0,044
-473,503	-200,000	0,037	0,147
-472,489	19,608	0,077	-0,045
-471,474	144,240	0,113	-0,110
-470,459	-200,000	0,005	0,032
-469,445	-103,300	0,102	0,017
-468,430	-33,923	-0,151	0,060
-467,416	427,754	-0,052	0,082
-466,401	413,893	0,020	0,031
-465,386	800,000	0,042	0,130
-464,372	800,000	0,028	0,062
-463,357	800,000	0,039	0,119
-462,343	268,098	-0,048	-0,061
-461,328	-200,000	0,032	0,104
-460,313	-200,000	-0,001	0,015
-459,299	251,478	-0,101	0,126
-458,284	-200,000	0,012	0,159
-457,270	53,891	-0,100	0,070
-456,255	800,000	-0,062	-0,183
-455,241	-44,903	-0,093	-0,034
-454,226	-34,357	0,090	0,036
-453,211	85,523	0,069	0,055
-452,197	157,390	-0,143	0,145
-451,182	104,161	0,058	-0,050
-450,168	-94,850	0,071	-0,014
-449,153	-68,479	-0,083	-0,023
-448,138	-20,413	-0,072	0,032
-447,124	-144,291	0,076	-0,005
-446,109	-200,000	0,004	0,039
-445,095	40,025	0,009	-0,006
-444,080	323,396	-0,049	-0,069
-443,065	328,407	0,066	0,093
-442,051	292,275	-0,034	-0,045
-441,036	-38,154	-0,121	-0,046
-440,022	-200,000	0,033	-0,127
-439,007	6,260	0,020	-0,011
-437,992	-20,121	-0,067	-0,030
-436,978	-169,266	-0,117	0,003
-435,963	800,000	-0,054	0,127
-434,949	55,018	-0,049	-0,034
-433,934	78,627	-0,114	0,089
-432,919	770,961	0,071	0,142
-431,905	-65,083	-0,045	0,013
-430,890	-58,170	-0,123	0,039
-429,876	137,824	0,046	0,044
-428,861	-17,737	0,087	0,040
-427,846	-200,000	-0,011	0,067
-426,832	484,187	0,042	0,070
-425,817	800,000	-0,034	-0,075
-424,803	-65,636	-0,109	-0,032
-423,788	85,502	0,054	-0,043
-422,773	35,500	0,173	0,110
-421,759	-200,000	0,013	0,091
-420,744	800,000	0,036	0,103
-419,730	511,952	-0,111	-0,189
-418,715	800,000	-0,026	0,057
-417,701	38,906	0,117	0,076
-416,686	0,146	-0,049	-0,025
-415,671	-200,000	0,018	0,099
-414,657	453,509	-0,090	-0,146
-413,642	172,950	0,032	0,034
-412,628	-20,628	0,132	-0,059
-411,613	10,638	-0,088	-0,049
-410,598	61,551	-0,046	-0,033
-409,584	784,598	0,021	0,043
-408,569	-200,000	0,021	0,122
-407,555	800,000	-0,029	-0,082
-406,540	184,185	-0,111	-0,120
-405,525	-173,554	-0,016	0,000
-404,511	-93,159	0,096	-0,019
-403,496	465,552	0,012	-0,019
-402,482	164,730	0,058	-0,060
-401,467	-200,000	0,001	-0,036
-400,452	-200,000	0,009	0,056
-399,438	8,588	0,134	-0,073
-398,423	800,000	-0,030	-0,080
-397,409	-30,334	-0,084	0,034
-396,394	73,021	0,133	-0,101
-395,379	-80,188	-0,092	-0,022
-394,365	800,000	-0,025	0,074
-393,350	-200,000	-0,009	0,109
-392,336	80,691	0,060	-0,047
-391,321	-101,102	0,154	-0,027
-390,306	-69,001	-0,109	0,031
-389,292	-200,000	-0,013	-0,083
-388,277	250,637	0,024	-0,029
-387,263	-200,000	0,001	-0,044
-386,248	-2,695	0,135	0,069
-385,233	318,561	-0,035	-0,049
-384,219	-6,261	0,140	-0,069
-383,204	-126,606	-0,164	0,018
-382,190	800,000	-0,057	0,161
-381,175	61,334	-0,101	0,073
-380,160	-200,000	0,023	0,087
-379,146	-200,000	-0,012	0,186
-378,131	14,290	0,121	0,069
-377,117	-200,000	0,013	-0,078
-376,102	-184,518	0,135	-0,002
-375,088	-200,000	0,014	-0,131
-374,073	239,206	0,099	0,120
-373,058	-200,000	-0,001	0,088
-372,044	321,430	0,065	0,090
-371,029	-200,000	-0,005	0,145
-370,015	696,338	-0,097	-0,186
-369,000	-131,378	-0,035	-0,003
-367,985	800,000	-0,018	0,053
-366,971	800,000	-0,043	0,112
-365,956	-200,000	0,002	0,045
-364,942	-200,000	-0,032	0,119
-363,927	-11,737	0,131	0,063
-362,912	-107,754	-0,034	0,005
-361,898	-151,031	0,057	0,003
-360,883	683,449	-0,034	-0,065
-359,869	33,796	0,075	0,047
-358,854	5,682	-0,095	-0,051
-357,839	89,994	0,028	0,023
-356,825	-182,504	-0,084	0,001
-355,810	120,593	0,056	0,051
-354,796	-200,000	0,000	-0,061
-353,781	480,702	0,029	-0,047
-352,766	800,000	0,032	-0,068
-351,752	-159,379	0,188	0,008
-350,737	148,351	-0,093	0,091
-349,723	-200,000	0,016	-0,117
-348,708	112,513	-0,053	-0,047
-347,693	-4,476	-0,028	-0,014
-346,679	264,908	0,074	-0,094
-345,664	198,714	0,076	-0,085
-344,650	164,118	0,092	0,094
-343,635	215,010	0,031	-0,035
-342,620	-200,000	-0,017	0,108
-341,606	-200,000	-0,008	0,041
-340,591	-75,177	-0,135	0,035
-339,577	42,720	-0,037	0,024
-338,562	616,370	-0,020	-0,036
-337,548	800,000	-0,052	0,166
-336,533	373,347	-0,064	0,095
-335,518	-136,912	0,153	0,013
-334,504	-200,000	0,009	-0,068
-333,489	-79,730	0,089	-0,022
-332,475	385,956	0,081	-0,122
-331,460	-176,864	-0,044	-0,001
-330,445	-71,361	0,173	0,047
-329,431	800,000	-0,039	-0,110
-328,416	-122,186	0,139	-0,016
-327,402	28,180	0,139	0,085
-326,387	383,804	-0,068	0,103
-325,372	-184,523	-0,100	0,001
-324,358	667,097	-0,057	-0,107
-323,343	800,000	0,015	-0,035
-322,329	34,252	0,076	-0,048
-321,314	-143,096	0,046	0,003
-320,299	471,365	0,017	0,028
-319,285	800,000	0,073	-0,184
-318,270	-148,454	0,105	0,006
-317,256	800,000	0,028	-0,058
-316,241	18,466	0,113	-0,065
-315,226	800,000	-0,049	0,110
-314,212	-200,000	0,000	-0,040
-313,197	-200,000	-0,014	0,064
-312,183	800,000	-0,054	0,125
-311,168	475,867	0,019	0,031
-310,153	50,166	-0,050	-0,034
-309,139	-92,354	0,058	-0,012
-308,124	-27,783	0,058	0,024
-307,110	98,652	0,084	0,070
-306,095	470,038	0,111	-0,182
-305,080	-45,021	0,038	-0,014
-304,066	800,000	0,031	-0,071
-303,051	737,755	-0,040	-0,079
-302,037	215,033	0,025	-0,028
-301,022	430,153	-0,085	-0,134
-300,008	-200,000	-0,037	-0,154
-298,993	-200,000	-0,005	0,059
-297,978	32,022	0,128	0,080
-296,964	800,000	0,018	-0,041
-295,949	800,000	-0,039	-0,101
-294,935	98,983	-0,118	-0,099
-293,920	424,064	0,078	0,123
-292,905	-35,450	0,167	0,066
-291,891	800,000	0,019	0,056
-290,876	-200,000	-0,002	0,037
-289,862	-74,036	-0,114	-0,030
-288,847	-119,335	-0,162	0,020
-287,832	-200,000	0,045	-0,188
-286,818	139,302	-0,043	-0,041
-285,803	-200,000	0,009	0,112
-284,789	800,000	-0,043	0,101
-283,774	450,388	0,037	-0,059
-282,759	-200,000	0,014	0,128
-281,745	800,000	-0,024	0,053
-280,730	-138,660	-0,153	0,012
-279,716	-200,000	-0,016	0,072
-278,701	-200,000	-0,014	0,113
-277,686	83,571	0,053	0,042
-276,672	716,274	0,055	0,106
-275,657	-168,876	-0,193	-0,005
-274,643	-41,571	-0,026	-0,010
-273,628	-127,066	-0,077	-0,008
-272,613	-34,122	0,066	0,026
-271,599	94,746	-0,070	-0,057
-270,584	-200,000	0,009	0,103
-269,570	800,000	-0,080	0,172
-268,555	261,853	0,077	-0,097
-267,540	196,947	-0,086	0,095
-266,526	-200,000	0,009	0,049
-265,511	-26,424	0,118	-0,050
-264,497	-106,064	0,153	-0,025
-263,482	23,450	0,043	0,025
-262,467	0,858	0,169	-0,088
-261,453	-200,000	-0,011	-0,171
-260,438	-200,000	0,002	-0,121
-259,424	800,000	-0,026	-0,071
-258,409	-20,177	-0,153	-0,068
-257,395	43,674	0,124	-0,082
-256,380	457,750	0,034	-0,055
-255,365	37,970	0,032	-0,021
-254,351	-200,000	-0,003	-0,025
-253,336	-200,000	0,013	0,096
-252,322	15,629	-0,117	-0,067
-251,307	800,000	-0,038	0,090
-250,292	681,201	0,063	-0,120
-249,278	-111,795	0,047	0,007
-248,263	124,738	0,078	-0,071
-247,249	-25,203	0,055	0,024
-246,234	118,687	-0,062	-0,056
-245,219	62,830	0,036	-0,026
-244,205	-200,000	-0,013	-0,096
-243,190	-2,399	-0,074	0,037
-242,176	87,834	-0,075	0,060
-241,161	-200,000	0,049	0,239
-240,146	-200,000	0,013	0,087
-239,132	111,669	-0,068	-0,059
-238,117	-200,000	-0,006	0,095
-237,103	-31,687	-0,185	-0,075
-236,088	-29,505	-0,031	-0,013
-235,073	254,750	0,066	-0,082
-234,059	-114,423	-0,072	0,010
-233,044	-200,000	-0,022	-0,101
-232,030	-63,246	-0,077	0,023
-231,015	19,788	-0,064	-0,037
-230,000	-17,287	0,027	0,012
-228,986	95,760	0,044	0,036
-227,971	56,306	0,051	-0,036
-226,957	130,757	0,061	-0,056
-225,942	-200,000	-0,001	-0,012
-224,927	800,000	0,055	-0,144
-223,913	-200,000	-0,058	-0,210
-222,898	-200,000	0,022	-0,080
-221,884	46,122	-0,092	0,061
-220,869	-52,823	0,084	0,028
-219,855	265,192	-0,009	-0,012
-218,840	127,933	0,085	0,078
-217,825	-200,000	-0,024	0,080
-216,811	-97,958	0,068	0,013
-215,796	-100,519	-0,072	-0,013
-214,782	-94,621	0,124	-0,024
-213,767	800,000	0,067	-0,161
-212,752	800,000	-0,058	0,157
-211,738	131,619	-0,087	0,081
-210,723	-200,000	-0,037	0,128
-209,709	589,323	-0,072	0,128
-208,694	-120,734	0,048	0,006
-207,679	444,728	0,058	-0,093
-206,665	78,481	-0,073	-0,056
-205,650	-200,000	0,018	-0,072
-204,636	398,520	0,090	-0,137
-203,621	-30,331	-0,043	0,018
-202,606	56,376	-0,033	-0,023
-201,592	-200,000	-0,005	-0,147
-200,577	-200,000	-0,010	0,083
-199,563	163,646	-0,049	0,050
-198,548	350,652	0,038	-0,054
-197,533	343,699	0,030	0,043
-196,519	-10,782	0,058	0,027
-195,504	800,000	-0,050	-0,144
-194,490	236,599	0,034	-0,041
-193,475	-130,457	-0,145	-0,014
-192,460	262,964	-0,031	0,038
-191,446	86,898	0,054	0,043
-190,431	-163,716	0,078	0,003
-189,417	800,000	-0,016	0,033
-188,402	133,395	0,107	0,100
-187,387	306,926	0,058	0,078
-186,373	-200,000	0,008	-0,073
-185,358	-104,964	0,036	-0,006
-184,344	-200,000	0,022	-0,110
-183,329	800,000	-0,047	0,136
-182,315	-200,000	0,033	0,162
-181,300	-88,874	-0,101	0,022
-180,285	257,587	-0,087	-0,108
-179,271	31,653	-0,099	-0,062
-178,256	-20,380	-0,068	0,030
-177,242	-200,000	-0,029	-0,106
-176,227	685,357	-0,063	0,119
-175,212	-200,000	-0,000	0,044
-174,198	-200,000	0,006	0,092
-173,183	-200,000	0,005	0,020
-172,169	202,122	0,041	0,046
-171,154	-200,000	-0,026	-0,111
-170,139	104,400	-0,062	0,053
-169,125	150,883	0,062	0,061
-168,110	-30,050	0,182	-0,074
-167,096	26,470	-0,059	0,035
-166,081	-134,321	-0,072	0,006
-165,066	800,000	0,010	0,029
-164,052	-200,000	-0,025	0,097
-163,037	265,793	-0,127	-0,160
-162,023	294,139	0,111	-0,146
-161,008	762,415	0,037	-0,074
-159,993	800,000	-0,024	0,060
-158,979	351,908	0,083	-0,119
-157,964	75,563	-0,077	0,059
-156,950	-200,000	0,018	-0,072
-155,935	178,298	-0,054	-0,057
-154,920	56,828	0,018	0,012
-153,906	360,404	0,047	0,068
-152,891	170,853	-0,034	0,036
-151,877	35,532	-0,063	-0,040
-150,862	-72,024	-0,046	0,012
-149,847	179,352	-0,085	0,090
-148,833	102,170	0,084	0,071
-147,818	46,393	-0,059	0,039
-146,804	-200,000	0,006	0,078
-145,789	-200,000	-0,028	0,119
-144,775	743,365	0,021	0,041
-143,760	153,139	0,058	0,057
-142,745	-200,000	-0,050	-0,172
-141,731	800,000	0,057	0,169
-140,716	-200,000	0,035	0,224
-139,702	800,000	0,025	0,068
-138,687	-88,023	0,038	-0,008
-137,672	800,000	-0,007	0,018
-136,658	-80,897	-0,072	-0,017
-135,643	107,152	-0,049	-0,042
-134,629	116,374	0,074	0,065
-133,614	14,314	-0,084	0,047
-132,599	-87,330	0,212	0,046
-131,585	-200,000	0,026	0,143
-130,570	63,391	0,054	-0,039
-129,556	-200,000	0,009	-0,158
-128,541	63,545	-0,165	0,120
-127,526	-52,560	0,089	0,029
-126,512	245,244	0,123	0,149
-125,497	-102,552	0,074	0,013
-124,483	391,122	0,048	0,071
-123,468	135,432	0,091	-0,085
-122,453	121,573	-0,087	0,078
-121,439	-200,000	-0,037	-0,181
-120,424	21,527	-0,083	-0,049
-119,410	361,799	0,074	-0,108
