DTS Sentinel unit serial number:	SN410029Multiplexer serial number:	ORYXHardware model number:	OX2-SRSoftware version number:	ORYX F/W v4,00 Oryx Data Collector v3.7.2.0data status	okinstallation	B3 Nyhavnadifferential loss correction	single-endedforward channel	channel 1reverse channel	N/Adate	2023/11/28time	13:02:30forward acquisition time	300,00reverse acquisition time	0,00gamma	499,1914k internal	0,3138k external	0,3138temperature offset calibration	1,0000default loss term (dB/km)	0,3820temperature slope calibration	1,0000multiplexer offset coefficient	1,0000multiplexer slope coefficient	1,0000fibre end	0,00T internal ref (°C)	8,13T ext. ref 1 (°C)	-7,73T ext. ref 2 (°C)	-7,90length (m)	temperature (°C)	Stokes	anti-Stokes-744,400	201,988	-0,201	-0,230
-743,385	-200,000	0,005	0,312
-742,371	-200,000	-0,095	-0,327
-741,356	621,738	-0,134	0,250
-740,342	-200,000	-0,071	-0,236
-739,327	-200,000	-0,074	0,319
-738,312	17,520	-0,298	-0,175
-737,298	-200,000	0,028	0,231
-736,283	127,590	-0,302	-0,285
-735,269	800,000	0,080	0,228
-734,254	110,437	-0,211	-0,188
-733,239	10,076	-0,222	-0,125
-732,225	-200,000	0,061	-0,262
-731,210	-200,000	-0,001	0,165
-730,196	-200,000	-0,014	-0,057
-729,181	127,345	0,080	-0,076
-728,167	85,571	0,034	0,028
-727,152	629,366	-0,040	-0,075
-726,137	-200,000	0,017	-0,092
-725,123	-112,912	-0,081	0,012
-724,108	179,424	-0,052	-0,057
-723,094	46,242	-0,159	-0,109
-722,079	-17,783	-0,097	-0,045
-721,064	-107,930	-0,002	-0,000
-720,050	11,459	0,065	-0,037
-719,035	28,998	-0,069	0,043
-718,021	475,482	-0,048	0,080
-717,006	210,091	-0,036	-0,042
-715,991	145,212	-0,060	-0,060
-714,977	-200,000	-0,002	0,109
-713,962	610,079	-0,032	0,060
-712,948	-147,206	-0,096	0,006
-711,933	344,995	0,096	-0,140
-710,918	-83,926	-0,149	-0,035
-709,904	-38,687	-0,140	-0,054
-708,889	800,000	-0,059	-0,177
-707,875	89,495	0,078	0,064
-706,860	145,109	-0,045	0,045
-705,845	-126,398	0,082	0,009
-704,831	166,213	-0,038	-0,040
-703,816	-64,101	-0,086	0,026
-702,802	13,124	-0,144	-0,082
-701,787	-22,032	-0,119	-0,053
-700,772	66,297	0,087	0,065
-699,758	-95,786	-0,083	-0,016
-698,743	-200,000	-0,008	0,124
-697,729	50,546	0,074	0,052
-696,714	13,492	0,041	-0,023
-695,699	695,759	-0,006	0,012
-694,685	486,845	0,043	-0,073
-693,670	76,550	0,063	-0,049
-692,656	197,825	-0,052	0,059
-691,641	-74,512	-0,056	0,015
-690,627	248,605	0,027	0,034
-689,612	-1,002	0,026	0,013
-688,597	30,667	-0,136	0,086
-687,583	-36,153	-0,113	0,045
-686,568	86,967	-0,085	-0,069
-685,554	-159,400	-0,111	-0,005
-684,539	551,004	-0,088	-0,157
-683,524	358,321	-0,011	0,016
-682,510	-14,047	0,045	-0,021
-681,495	113,781	0,024	0,022
-680,481	318,968	-0,080	-0,112
-679,466	800,000	0,008	-0,026
-678,451	87,398	-0,054	0,044
-677,437	427,744	0,033	0,053
-676,422	800,000	-0,046	0,126
-675,408	209,141	0,028	-0,033
-674,393	-187,192	0,126	0,001
-673,378	377,626	-0,080	-0,122
-672,364	-200,000	-0,017	-0,128
-671,349	42,448	-0,101	-0,068
-670,335	-200,000	-0,008	0,094
-669,320	46,759	0,030	-0,021
-668,305	96,143	0,019	0,016
-667,291	-110,963	0,096	-0,014
-666,276	-115,551	-0,068	-0,009
-665,262	480,694	-0,031	-0,052
-664,247	95,221	-0,129	-0,109
-663,232	-20,950	-0,021	-0,009
-662,218	-97,428	0,075	-0,014
-661,203	766,817	0,033	0,067
-660,189	-167,657	0,024	-0,001
-659,174	-13,943	-0,086	-0,041
-658,159	708,975	-0,049	-0,097
-657,145	-33,018	-0,197	0,080
-656,130	800,000	-0,024	-0,049
-655,116	-76,151	-0,075	-0,019
-654,101	29,817	0,102	-0,064
-653,086	426,161	0,057	-0,091
-652,072	800,000	-0,049	-0,147
-651,057	737,774	0,044	-0,088
-650,043	130,689	0,124	0,118
-649,028	-200,000	0,004	-0,033
-648,014	-54,925	0,117	-0,039
-646,999	79,096	-0,077	0,061
-645,984	-60,231	0,133	-0,042
-644,970	-200,000	-0,031	-0,164
-643,955	-114,272	-0,158	-0,022
-642,941	238,548	-0,086	-0,105
-641,926	-67,498	-0,124	0,036
-640,911	73,591	0,068	0,053
-639,897	2,623	0,056	-0,030
-638,882	178,380	-0,066	-0,071
-637,868	-200,000	0,013	0,087
-636,853	46,796	-0,034	0,023
-635,838	70,860	-0,055	-0,042
-634,824	-117,098	0,201	-0,027
-633,809	54,000	-0,099	-0,070
-632,795	8,044	0,031	0,017
-631,780	-51,451	-0,053	0,018
-630,765	-39,073	0,104	-0,040
-629,751	-100,031	0,055	-0,010
-628,736	749,412	-0,116	-0,233
-627,722	171,510	0,036	-0,038
-626,707	-81,478	0,168	-0,040
-625,692	-77,325	0,028	-0,007
-624,678	179,273	-0,119	0,129
-623,663	-70,975	0,146	-0,040
-622,649	-92,707	-0,046	-0,009
-621,634	435,634	-0,080	-0,129
-620,619	-200,000	0,001	-0,021
-619,605	506,823	0,046	0,078
-618,590	-26,545	0,024	-0,010
-617,576	469,829	-0,006	0,010
-616,561	-120,938	0,083	-0,010
-615,546	139,748	-0,042	0,041
-614,532	800,000	0,074	0,208
-613,517	96,473	-0,070	-0,059
-612,503	-91,239	-0,041	0,009
-611,488	-200,000	-0,013	-0,057
-610,474	-45,727	-0,082	0,030
-609,459	539,602	-0,027	0,048
-608,444	13,234	-0,128	0,073
-607,430	-200,000	-0,106	0,000
-606,415	8,068	-0,112	-0,062
-605,401	754,096	-0,041	-0,082
-604,386	-19,068	0,083	0,038
-603,371	-53,870	-0,085	0,028
-602,357	47,077	-0,063	0,043
-601,342	-195,421	-0,031	0,000
-600,328	-79,004	-0,085	-0,021
-599,313	24,829	0,025	0,015
-598,298	-200,000	-0,020	-0,206
-597,284	56,110	0,039	0,028
-596,269	-59,139	-0,167	0,053
-595,255	-152,697	0,049	0,003
-594,240	-60,740	-0,114	0,035
-593,225	128,849	0,083	-0,078
-592,211	-60,448	-0,087	-0,027
-591,196	85,303	0,078	-0,063
-590,182	-95,225	0,093	-0,018
-589,167	-200,000	0,032	0,150
-588,152	-200,000	0,048	-0,285
-587,138	28,974	-0,167	-0,104
-586,123	-124,615	0,167	0,019
-585,109	800,000	0,049	-0,137
-584,094	145,224	-0,015	0,015
-583,079	-200,000	0,016	0,166
-582,065	-162,095	-0,022	0,001
-581,050	-200,000	-0,005	0,058
-580,036	769,091	0,015	0,031
-579,021	-200,000	0,060	-0,238
-578,006	-200,000	0,008	-0,067
-576,992	136,176	-0,015	-0,015
-575,977	-39,798	0,138	0,053
-574,963	-200,000	-0,039	0,170
-573,948	-200,000	-0,008	-0,051
-572,934	16,487	-0,056	-0,033
-571,919	-106,975	0,120	0,019
-570,904	-200,000	0,007	-0,077
-569,890	800,000	-0,073	-0,154
-568,875	-200,000	0,006	-0,114
-567,861	62,024	0,093	-0,068
-566,846	-98,936	0,071	-0,013
-565,831	-200,000	-0,003	0,122
-564,817	-152,782	0,083	0,004
-563,802	81,782	-0,068	-0,054
-562,788	143,027	-0,002	-0,002
-561,773	-200,000	-0,009	0,085
-560,758	-135,967	-0,071	-0,006
-559,744	-200,000	0,002	-0,095
-558,729	-52,069	-0,051	-0,017
-557,715	336,376	0,053	-0,077
-556,700	-200,000	-0,007	-0,101
-555,685	-200,000	-0,025	-0,107
-554,671	-200,000	0,001	-0,016
-553,656	375,457	-0,101	0,153
-552,642	-69,881	-0,072	0,020
-551,627	800,000	0,014	0,042
-550,612	800,000	0,055	-0,114
-549,598	-108,487	-0,060	-0,009
-548,583	685,491	0,040	-0,078
-547,569	432,721	0,029	-0,047
-546,554	-122,841	0,041	0,005
-545,539	242,042	-0,054	0,067
-544,525	-200,000	-0,003	-0,029
-543,510	-119,197	-0,053	-0,007
-542,496	215,232	-0,071	-0,083
-541,481	-40,180	0,108	-0,041
-540,466	-154,454	-0,070	0,003
-539,452	-25,090	0,098	0,042
-538,437	800,000	-0,026	0,071
-537,423	-200,000	0,015	-0,052
-536,408	317,375	-0,090	0,125
-535,393	-200,000	-0,046	-0,161
-534,379	358,807	-0,030	0,044
-533,364	-137,752	-0,103	-0,008
-532,350	800,000	0,020	-0,050
-531,335	-14,918	0,069	0,033
-530,321	512,463	-0,007	-0,012
-529,306	121,249	0,098	0,089
-528,291	239,360	0,059	-0,072
-527,277	-66,621	0,042	0,012
-526,262	-200,000	0,000	0,030
-525,248	-200,000	0,003	0,049
-524,233	-143,729	0,204	0,014
-523,218	87,379	-0,116	0,094
-522,204	-200,000	-0,021	-0,103
-521,189	-200,000	0,024	-0,121
-520,175	109,135	-0,070	0,061
-519,160	800,000	0,024	0,052
-518,145	64,097	-0,039	0,029
-517,131	115,584	0,025	0,023
-516,116	28,481	0,039	-0,024
-515,102	85,180	0,093	-0,075
-514,087	304,143	-0,058	-0,079
-513,072	-200,000	-0,047	-0,155
-512,058	-117,326	0,199	0,026
-511,043	-37,105	0,054	0,021
-510,029	-135,417	0,270	-0,023
-509,014	135,238	0,058	0,056
-507,999	67,987	-0,126	0,094
-506,985	800,000	-0,042	0,118
-505,970	-72,322	-0,061	0,017
-504,956	-35,089	0,038	-0,015
-503,941	183,198	0,084	0,091
-502,926	86,707	-0,056	0,045
-501,912	-154,872	0,128	0,006
-500,897	54,892	-0,125	-0,089
-499,883	-40,829	-0,044	-0,016
-498,868	-200,000	0,004	-0,207
-497,853	-29,709	-0,128	-0,054
-496,839	210,009	0,040	-0,046
-495,824	28,314	-0,084	0,052
-494,810	445,738	-0,064	-0,104
-493,795	-73,706	0,061	0,016
-492,781	800,000	0,042	0,125
-491,766	-200,000	0,009	-0,140
-490,751	221,708	-0,035	0,041
-489,737	-57,053	0,027	-0,009
-488,722	-85,605	-0,063	0,014
-487,708	-200,000	0,021	-0,104
-486,693	710,258	0,069	0,135
-485,678	448,658	0,037	-0,060
-484,664	351,466	0,021	0,031
-483,649	-200,000	-0,020	-0,134
-482,635	-200,000	0,011	-0,079
-481,620	800,000	0,066	0,142
-480,605	-200,000	0,032	0,194
-479,591	80,953	-0,101	0,080
-478,576	581,390	-0,043	-0,078
-477,562	163,630	-0,158	-0,163
-476,547	100,304	0,025	-0,021
-475,532	628,726	-0,058	-0,108
-474,518	122,225	0,017	-0,016
-473,503	223,881	0,032	0,038
-472,489	800,000	0,052	0,127
-471,474	-200,000	-0,011	0,056
-470,459	779,238	0,049	-0,100
-469,445	-200,000	-0,017	0,080
-468,430	-200,000	0,037	-0,214
-467,416	16,213	0,105	-0,061
-466,401	217,796	-0,007	-0,009
-465,386	-200,000	-0,004	0,025
-464,372	-157,905	-0,031	0,001
-463,357	-200,000	0,009	-0,037
-462,343	-200,000	0,039	-0,133
-461,328	58,692	-0,019	0,013
-460,313	-200,000	0,004	0,016
-459,299	708,814	0,058	0,113
-458,284	168,872	-0,078	0,082
-457,270	119,628	-0,106	0,096
-456,255	-43,023	-0,081	-0,030
-455,241	-200,000	0,010	-0,077
-454,226	-92,948	0,079	-0,016
-453,211	-35,517	-0,085	-0,034
-452,197	-200,000	0,020	0,087
-451,182	-200,000	-0,013	-0,081
-450,168	106,962	-0,030	0,026
-449,153	800,000	-0,022	-0,055
-448,138	111,503	0,067	-0,059
-447,124	-200,000	-0,030	-0,106
-446,109	-48,156	0,060	-0,021
-445,095	800,000	-0,026	-0,068
-444,080	-50,593	-0,174	0,060
-443,065	800,000	0,031	-0,066
-442,051	-200,000	0,000	0,029
-441,036	800,000	-0,028	-0,076
-440,022	372,432	-0,041	-0,062
-439,007	-200,000	-0,017	0,086
-437,992	-200,000	-0,009	0,037
-436,978	-200,000	0,006	-0,037
-435,963	-200,000	-0,008	-0,089
-434,949	-138,636	0,088	-0,007
-433,934	-200,000	-0,035	-0,119
-432,919	-200,000	0,006	-0,052
-431,905	800,000	-0,043	-0,094
-430,890	-48,747	0,151	-0,053
-429,876	-200,000	0,033	0,133
-428,861	24,886	0,065	0,039
-427,846	432,991	-0,048	-0,076
-426,832	54,302	-0,147	-0,104
-425,817	635,793	0,049	0,091
-424,803	-109,463	-0,078	-0,012
-423,788	-200,000	-0,003	0,061
-422,773	523,879	-0,035	0,060
-421,759	65,730	0,156	0,115
-420,744	569,416	-0,069	0,124
-419,730	-176,720	-0,090	0,002
-418,715	-200,000	0,005	-0,018
-417,701	285,094	-0,107	-0,142
-416,686	-107,893	0,020	-0,003
-415,671	-200,000	0,017	0,102
-414,657	89,184	0,051	0,041
-413,642	-200,000	-0,001	0,038
-412,628	-200,000	-0,009	0,034
-411,613	41,802	0,066	0,044
-410,598	789,931	0,047	-0,094
-409,584	280,843	-0,040	0,052
-408,569	259,242	0,089	-0,113
-407,555	-88,887	0,145	-0,031
-406,540	-200,000	-0,015	0,102
-405,525	-200,000	-0,036	0,119
-404,511	123,941	-0,087	-0,080
-403,496	656,072	-0,014	0,027
-402,482	-35,222	0,074	-0,029
-401,467	-200,000	0,005	0,054
-400,452	129,323	0,066	-0,061
-399,438	-56,530	-0,031	0,010
-398,423	47,063	-0,029	0,020
-397,409	66,205	-0,071	-0,053
-396,394	-70,324	-0,140	0,039
-395,379	-200,000	0,009	-0,060
-394,365	51,991	0,061	-0,042
-393,350	-200,000	-0,011	0,075
-392,336	-193,616	0,098	0,001
-391,321	515,208	0,033	-0,056
-390,306	98,508	-0,015	-0,012
-389,292	-200,000	0,028	-0,107
-388,277	-27,753	0,078	-0,033
-387,263	10,124	0,041	-0,023
-386,248	18,230	0,033	0,019
-385,233	-168,980	-0,013	0,000
-384,219	32,880	0,221	0,139
-383,204	46,133	-0,051	0,034
-382,190	-113,541	-0,041	0,006
-381,175	800,000	-0,038	-0,090
-380,160	-62,476	0,088	0,027
-379,146	80,420	-0,111	0,087
-378,131	46,150	0,106	-0,072
-377,117	678,180	0,024	0,046
-376,102	-181,534	0,082	-0,001
-375,088	419,734	-0,117	-0,184
-374,073	800,000	-0,041	0,127
-373,058	42,930	0,086	-0,057
-372,044	27,281	-0,075	-0,046
-371,029	78,375	-0,087	-0,068
-370,015	316,442	0,075	0,104
-369,000	135,224	-0,054	0,052
-367,985	525,389	-0,058	-0,100
-366,971	40,080	-0,109	-0,072
-365,956	101,122	0,046	0,039
-364,942	-174,105	0,040	-0,001
-363,927	475,411	-0,052	0,086
-362,912	800,000	0,039	0,114
-361,898	-49,524	-0,185	0,064
-360,883	-112,744	-0,115	0,017
-359,869	142,947	-0,025	0,024
-358,854	702,394	0,027	-0,052
-357,839	800,000	-0,016	0,048
-356,825	-200,000	0,023	0,098
-355,810	-64,114	-0,068	0,020
-354,796	82,509	0,125	0,099
-353,781	-12,074	-0,095	0,045
-352,766	800,000	0,061	0,141
-351,752	6,403	-0,099	0,054
-350,737	560,831	0,026	0,046
-349,723	153,982	-0,110	0,111
-348,708	297,183	0,013	0,017
-347,693	6,782	-0,127	-0,069
-346,679	-200,000	-0,005	-0,131
-345,664	-200,000	-0,026	-0,160
-344,650	188,475	0,045	0,049
-343,635	14,867	0,079	-0,045
-342,620	-200,000	0,000	0,143
-341,606	88,110	0,012	0,009
-340,591	-28,937	0,086	-0,036
-339,577	187,454	-0,053	-0,058
-338,562	444,063	-0,067	-0,108
-337,548	607,948	0,047	0,087
-336,533	53,613	0,103	0,072
-335,518	107,431	0,135	0,117
-334,504	-132,777	-0,113	0,010
-333,489	-200,000	0,002	0,066
-332,475	-98,039	-0,106	-0,020
-331,460	-200,000	0,004	-0,074
-330,445	-200,000	0,014	-0,058
-329,431	424,989	0,096	0,151
-328,416	-86,380	0,116	-0,026
-327,402	-200,000	-0,020	-0,070
-326,387	-200,000	0,012	0,071
-325,372	-17,350	-0,184	-0,084
-324,358	209,122	0,138	-0,158
-323,343	-200,000	0,023	0,097
-322,329	-200,000	-0,001	0,069
-321,314	-200,000	0,009	0,048
-320,299	-39,816	-0,122	0,046
-319,285	304,131	-0,059	-0,080
-318,270	-200,000	0,021	-0,110
-317,256	800,000	0,027	0,077
-316,241	800,000	0,051	-0,118
-315,226	-200,000	-0,012	0,077
-314,212	447,890	-0,017	0,027
-313,197	98,315	-0,045	0,038
-312,183	539,876	0,027	0,047
-311,168	-6,076	-0,034	0,017
-310,153	307,816	0,065	-0,089
-309,139	-94,911	-0,017	-0,003
-308,124	105,309	0,108	-0,093
-307,110	-200,000	-0,012	0,161
-306,095	425,356	0,039	-0,061
-305,080	209,005	-0,090	-0,103
-304,066	-200,000	-0,001	-0,114
-303,051	48,637	0,098	-0,067
-302,037	-43,117	-0,034	0,013
-301,022	145,287	-0,025	0,025
-300,008	322,529	-0,020	0,028
-298,993	-52,768	0,018	0,006
-297,978	576,822	-0,086	-0,154
-296,964	-97,824	0,115	-0,021
-295,949	-110,968	-0,109	-0,016
-294,935	-95,764	0,156	0,030
-293,920	800,000	-0,034	-0,101
-292,905	-200,000	0,016	0,099
-291,891	-161,284	-0,078	-0,003
-290,876	-144,602	0,094	-0,006
-289,862	-200,000	-0,016	0,056
-288,847	2,921	-0,074	-0,039
-287,832	-73,719	-0,056	-0,015
-286,818	-67,224	-0,070	0,020
-285,803	144,867	-0,066	-0,064
-284,789	156,702	0,080	0,080
-283,774	800,000	-0,018	-0,049
-282,759	-126,323	0,108	-0,012
-281,745	235,781	-0,042	-0,051
-280,730	-40,054	0,046	0,017
-279,716	800,000	-0,030	0,064
-278,701	36,743	-0,051	-0,033
-277,686	-200,000	-0,015	-0,069
-276,672	-200,000	-0,004	0,054
-275,657	-200,000	-0,009	-0,034
-274,643	250,999	-0,041	-0,051
-273,628	-200,000	-0,012	0,063
-272,613	138,098	-0,115	-0,110
-271,599	-27,630	-0,043	-0,018
-270,584	-200,000	-0,025	0,196
-269,570	227,868	0,095	0,112
-268,555	-140,336	0,156	0,012
-267,540	-22,984	-0,067	-0,029
-266,526	254,730	0,056	0,070
-265,511	-200,000	0,002	0,079
-264,497	-200,000	0,012	0,070
-263,482	446,924	0,090	0,144
-262,467	-200,000	-0,021	0,165
-261,453	405,153	0,041	0,064
-260,438	-110,061	-0,119	0,018
-259,424	-200,000	-0,006	0,062
-258,409	-55,349	0,092	-0,030
-257,395	87,472	0,111	-0,089
-256,380	190,105	0,073	0,080
-255,365	215,789	-0,078	0,091
-254,351	800,000	0,049	0,123
-253,336	-200,000	-0,015	0,063
-252,322	21,194	-0,089	-0,052
-251,307	800,000	-0,033	0,093
-250,292	22,965	-0,030	0,018
-249,278	-200,000	-0,003	0,099
-248,263	118,087	0,045	0,040
-247,249	-96,684	0,074	0,014
-246,234	74,947	-0,155	-0,118
-245,219	-16,576	0,134	-0,062
-244,205	13,066	0,110	0,062
-243,190	-200,000	0,003	-0,035
-242,176	-200,000	-0,031	0,133
-241,161	7,182	0,054	0,029
-240,146	800,000	0,008	-0,022
-239,132	94,547	0,019	-0,016
-238,117	613,421	0,048	0,087
-237,103	-200,000	-0,008	0,048
-236,088	413,429	-0,075	-0,116
-235,073	2,364	0,010	-0,005
-234,059	-200,000	0,013	0,087
-233,044	-34,801	0,126	0,050
-232,030	706,294	-0,063	0,121
-231,015	-124,044	0,078	-0,009
-230,000	800,000	0,056	-0,124
-228,986	800,000	0,062	0,125
-227,971	372,490	-0,041	0,061
-226,957	-200,000	0,013	-0,077
-225,942	-49,592	0,028	-0,010
-224,927	559,018	0,052	-0,091
-223,913	-200,000	0,005	-0,087
-222,898	-164,229	-0,091	-0,003
-221,884	34,002	0,035	0,022
-220,869	800,000	-0,024	0,055
-219,855	-14,799	0,046	0,021
-218,840	800,000	-0,031	0,067
-217,825	800,000	-0,032	0,099
-216,811	47,591	-0,082	-0,056
-215,796	-37,206	-0,130	-0,050
-214,782	-22,548	0,094	-0,041
-213,767	94,242	0,035	-0,029
-212,752	150,319	0,090	0,089
-211,738	-108,690	0,082	-0,013
-210,723	654,142	0,046	0,087
-209,709	-43,617	-0,104	-0,038
-208,694	-35,339	0,074	-0,029
-207,679	49,928	-0,085	-0,058
-206,665	134,466	-0,127	-0,119
-205,650	-200,000	0,023	0,136
-204,636	-200,000	-0,043	0,193
-203,621	-200,000	-0,018	0,113
-202,606	-15,581	-0,081	-0,038
-201,592	-200,000	-0,045	-0,162
-200,577	-200,000	-0,023	0,171
-199,563	-200,000	0,002	-0,145
-198,548	10,475	-0,045	0,025
-197,533	800,000	-0,045	0,099
-196,519	395,514	-0,077	0,118
-195,504	180,601	-0,075	-0,080
-194,490	54,912	-0,121	-0,085
-193,475	-32,046	-0,190	-0,077
-192,460	-200,000	0,001	0,103
-191,446	472,783	0,079	0,130
-190,431	-200,000	-0,022	0,093
-189,417	-56,125	0,068	0,022
-188,402	220,285	-0,041	0,047
-187,387	73,959	-0,182	-0,138
-186,373	800,000	0,002	-0,005
-185,358	-84,677	0,117	-0,027
-184,344	-200,000	-0,009	0,070
-183,329	113,353	0,013	-0,012
-182,315	-119,507	0,113	-0,014
-181,300	-200,000	-0,028	0,159
-180,285	-200,000	-0,003	-0,040
-179,271	800,000	-0,054	-0,123
-178,256	-128,799	-0,032	0,003
-177,242	800,000	0,037	-0,098
-176,227	202,964	0,070	0,078
-175,212	-200,000	0,030	0,000
-174,198	-140,647	-0,042	-0,003
-173,183	800,000	-0,027	-0,061
-172,169	-23,028	0,071	-0,031
-171,154	-200,000	0,005	-0,044
-170,139	27,357	0,069	-0,042
-169,125	773,043	0,075	0,150
-168,110	402,729	0,086	0,132
-167,096	17,725	0,123	-0,071
-166,081	800,000	-0,030	-0,072
-165,066	13,486	-0,090	0,050
-164,052	217,641	0,075	-0,087
-163,037	-10,738	0,083	0,040
-162,023	36,316	-0,078	-0,050
-161,008	800,000	0,061	0,135
-159,993	119,538	0,064	0,058
-158,979	95,294	-0,049	0,040
-157,964	-11,395	0,038	0,018
-156,950	-113,468	0,050	0,007
-155,935	-200,000	-0,018	0,108
-154,920	-59,029	0,095	0,029
-153,906	-200,000	-0,044	0,186
-152,891	-115,010	0,109	0,015
-151,877	93,118	-0,039	-0,032
-150,862	1,396	-0,072	-0,037
-149,847	-47,521	0,072	0,025
-148,833	0,535	0,121	0,062
-147,818	269,696	0,076	0,097
-146,804	206,937	0,064	0,073
-145,789	62,035	-0,062	-0,045
-144,775	-200,000	0,046	-0,158
-143,760	419,435	-0,049	-0,077
-142,745	-18,577	0,062	-0,028
-141,731	-49,854	0,123	-0,042
-140,716	-161,457	-0,046	-0,002
-139,702	-22,487	0,120	-0,052
-138,687	25,390	0,073	0,044
-137,672	100,147	0,010	0,008
-136,658	-109,097	-0,148	0,023
-135,643	3,698	-0,035	0,018
-134,629	155,278	-0,066	-0,065
-133,614	229,879	0,081	-0,096
-132,599	274,624	0,019	-0,024
-131,585	-200,000	0,029	0,193
-130,570	-35,209	-0,156	-0,061
-129,556	-101,325	0,141	0,025
-128,541	-67,407	-0,195	-0,055
-127,526	6,965	-0,016	-0,009
-126,512	800,000	0,027	-0,058
-125,497	-92,571	0,168	-0,034
-124,483	211,492	-0,048	0,054
-123,468	220,981	0,017	0,020
-122,453	-200,000	-0,010	-0,115
-121,439	-200,000	-0,002	0,082
-120,424	586,151	0,041	0,073
-119,410	-200,000	0,075	0,000
