DTS Sentinel unit serial number:	SN410029Multiplexer serial number:	ORYXHardware model number:	OX2-SRSoftware version number:	ORYX F/W v4,00 Oryx Data Collector v3.7.2.0data status	okinstallation	B3 Nyhavnadifferential loss correction	single-endedforward channel	channel 1reverse channel	N/Adate	2023/11/28time	19:17:30forward acquisition time	300,00reverse acquisition time	0,00gamma	499,1914k internal	0,3161k external	0,3161temperature offset calibration	1,0000default loss term (dB/km)	0,3820temperature slope calibration	1,0000multiplexer offset coefficient	1,0000multiplexer slope coefficient	1,0000fibre end	0,00T internal ref (°C)	7,61T ext. ref 1 (°C)	-7,14T ext. ref 2 (°C)	-7,28length (m)	temperature (°C)	Stokes	anti-Stokes-744,400	207,758	-0,252	-0,290
-743,385	-200,000	0,008	0,376
-742,371	800,000	-0,095	-0,248
-741,356	-200,000	-0,065	0,298
-740,342	29,869	-0,152	-0,095
-739,327	767,144	-0,089	0,180
-738,312	368,076	-0,104	-0,156
-737,298	-200,000	-0,074	0,305
-736,283	23,518	-0,278	-0,168
-735,269	750,474	-0,112	0,223
-734,254	9,487	-0,320	-0,178
-733,239	-71,331	-0,248	0,068
-732,225	800,000	-0,071	-0,178
-731,210	107,867	0,147	0,129
-730,196	-38,366	0,083	0,032
-729,181	263,632	-0,046	-0,059
-728,167	800,000	-0,041	-0,097
-727,152	181,617	-0,066	-0,072
-726,137	-200,000	0,024	-0,127
-725,123	-67,752	-0,101	0,029
-724,108	-142,165	-0,050	-0,004
-723,094	-38,284	-0,162	-0,063
-722,079	10,833	-0,130	-0,073
-721,064	-200,000	-0,024	-0,114
-720,050	-51,073	-0,112	-0,039
-719,035	482,457	0,056	-0,094
-718,021	19,397	-0,094	-0,055
-717,006	-19,714	-0,234	-0,106
-715,991	230,363	-0,056	-0,068
-714,977	204,419	-0,086	-0,098
-713,962	791,168	-0,076	-0,154
-712,948	-94,006	0,191	0,038
-711,933	578,246	0,101	-0,183
-710,918	56,612	-0,083	0,059
-709,904	-11,707	-0,151	-0,073
-708,889	-200,000	-0,006	-0,030
-707,875	800,000	-0,071	-0,174
-706,860	-67,600	-0,087	-0,025
-705,845	-200,000	0,012	0,058
-704,831	13,811	0,054	-0,031
-703,816	230,298	-0,074	0,090
-702,802	-46,655	-0,161	0,058
-701,787	-200,000	-0,033	0,109
-700,772	170,701	-0,109	-0,115
-699,758	119,943	-0,110	0,101
-698,743	800,000	-0,020	-0,050
-697,729	-200,000	0,007	-0,049
-696,714	496,047	-0,086	0,146
-695,699	139,686	-0,019	-0,019
-694,685	800,000	0,002	-0,005
-693,670	800,000	-0,034	0,070
-692,656	-200,000	-0,004	-0,042
-691,641	-200,000	-0,008	0,237
-690,627	-87,699	0,063	0,014
-689,612	-91,742	-0,037	-0,008
-688,597	-3,464	0,099	0,051
-687,583	-200,000	-0,009	0,110
-686,568	-4,421	-0,115	0,058
-685,554	800,000	-0,022	-0,061
-684,539	800,000	0,048	-0,115
-683,524	46,960	-0,118	0,080
-682,510	114,416	0,037	-0,033
-681,495	272,042	-0,080	0,103
-680,481	800,000	0,029	0,064
-679,466	-8,976	-0,074	-0,036
-678,451	800,000	0,022	-0,064
-677,437	65,302	-0,149	0,110
-676,422	60,340	0,089	0,065
-675,408	-200,000	-0,000	0,017
-674,393	-100,905	-0,043	-0,008
-673,378	456,196	-0,059	-0,096
-672,364	-37,793	-0,040	0,015
-671,349	325,151	-0,055	-0,078
-670,335	-200,000	0,032	0,192
-669,320	-200,000	0,019	-0,082
-668,305	235,305	-0,081	-0,099
-667,291	298,314	0,051	-0,069
-666,276	800,000	0,014	-0,028
-665,262	150,607	-0,038	-0,037
-664,247	800,000	0,057	-0,124
-663,232	10,260	0,011	0,006
-662,218	65,639	0,113	-0,084
-661,203	70,531	-0,100	-0,076
-660,189	323,820	-0,074	0,103
-659,174	-200,000	0,015	-0,110
-658,159	-200,000	-0,009	-0,159
-657,145	-42,213	-0,083	0,031
-656,130	56,882	0,015	0,011
-655,116	-200,000	-0,002	0,017
-654,101	-91,287	0,083	0,017
-653,086	194,218	-0,111	-0,123
-652,072	-117,408	-0,058	-0,008
-651,057	-200,000	-0,008	-0,220
-650,043	313,529	-0,179	-0,248
-649,028	-200,000	-0,012	-0,061
-648,014	-0,479	0,052	-0,027
-646,999	-200,000	0,002	0,089
-645,984	305,808	0,040	-0,054
-644,970	-200,000	0,013	-0,064
-643,955	-21,762	-0,030	-0,013
-642,941	-17,594	0,095	-0,044
-641,926	-200,000	0,046	-0,157
-640,911	90,364	0,016	-0,013
-639,897	-60,612	-0,053	-0,016
-638,882	-200,000	-0,018	0,123
-637,868	-42,788	0,180	-0,067
-636,853	-61,640	-0,118	-0,036
-635,838	-83,913	-0,049	0,011
-634,824	-200,000	0,003	0,026
-633,809	800,000	0,030	-0,080
-632,795	37,431	0,002	0,001
-631,780	220,246	-0,060	-0,071
-630,765	135,935	-0,023	-0,022
-629,751	-200,000	-0,026	-0,124
-628,736	-200,000	-0,011	-0,129
-627,722	-79,830	-0,058	-0,014
-626,707	-200,000	0,032	0,160
-625,692	159,053	0,087	-0,089
-624,678	-19,571	0,119	0,054
-623,663	9,256	-0,157	-0,087
-622,649	800,000	-0,058	-0,141
-621,634	-152,231	-0,154	-0,008
-620,619	453,571	-0,056	-0,091
-619,605	-102,387	0,144	0,025
-618,590	800,000	0,051	-0,159
-617,576	135,162	0,089	-0,085
-616,561	187,092	0,012	0,013
-615,546	107,911	-0,147	-0,129
-614,532	332,929	-0,037	-0,053
-613,517	1,917	0,091	-0,048
-612,503	-200,000	0,005	0,020
-611,488	-60,988	0,061	0,019
-610,474	-200,000	-0,026	-0,142
-609,459	280,872	0,145	-0,190
-608,444	800,000	-0,041	0,090
-607,430	-200,000	-0,018	-0,096
-606,415	278,244	-0,031	-0,041
-605,401	-200,000	0,008	0,029
-604,386	353,489	0,143	0,209
-603,371	83,565	-0,021	-0,017
-602,357	-85,028	0,043	-0,010
-601,342	-43,867	0,146	-0,053
-600,328	-7,487	-0,057	-0,028
-599,313	-87,075	-0,139	-0,031
-598,298	-128,340	0,113	0,012
-597,284	-4,369	0,067	0,034
-596,269	-66,249	-0,070	-0,020
-595,255	-137,065	0,095	-0,008
-594,240	-200,000	0,027	-0,138
-593,225	72,828	0,185	-0,141
-592,211	-200,000	-0,017	0,086
-591,196	-102,780	-0,184	-0,032
-590,182	393,297	0,106	0,163
-589,167	-200,000	-0,013	0,117
-588,152	-57,285	0,162	0,052
-587,138	15,156	-0,160	-0,092
-586,123	-81,070	-0,106	-0,026
-585,109	800,000	0,017	-0,037
-584,094	-200,000	0,009	-0,043
-583,079	800,000	0,050	0,112
-582,065	121,523	-0,123	0,112
-581,050	800,000	0,089	0,193
-580,036	375,547	-0,101	0,151
-579,021	590,037	0,020	-0,037
-578,006	-200,000	-0,007	0,091
-576,992	278,266	-0,051	0,067
-575,977	401,161	0,078	0,120
-574,963	-200,000	-0,058	0,198
-573,948	62,874	0,089	0,065
-572,934	-200,000	-0,002	0,047
-571,919	-200,000	0,014	0,112
-570,904	219,585	0,121	0,142
-569,890	195,468	0,086	-0,096
-568,875	178,785	-0,021	0,023
-567,861	-200,000	0,010	-0,053
-566,846	-180,958	0,057	0,001
-565,831	381,945	0,097	0,146
-564,817	800,000	-0,051	0,125
-563,802	1,511	-0,078	-0,041
-562,788	283,953	0,068	-0,090
-561,773	-10,168	-0,061	0,029
-560,758	86,348	0,124	0,100
-559,744	170,815	0,027	-0,028
-558,729	100,008	-0,050	0,043
-557,715	61,282	0,063	-0,046
-556,700	-72,107	-0,103	0,028
-555,685	800,000	0,009	0,026
-554,671	-44,404	0,094	-0,034
-553,656	-200,000	-0,012	0,070
-552,642	274,490	-0,006	-0,007
-551,627	133,677	-0,064	0,061
-550,612	102,745	0,051	-0,043
-549,598	-11,502	-0,098	0,047
-548,583	-200,000	-0,016	-0,060
-547,569	30,502	0,095	-0,059
-546,554	-125,052	0,046	0,005
-545,539	237,219	0,061	0,074
-544,525	191,725	0,033	0,036
-543,510	-86,012	0,083	-0,019
-542,496	-200,000	0,003	0,025
-541,481	-152,096	-0,054	-0,003
-540,466	-200,000	-0,024	0,089
-539,452	8,625	0,180	0,099
-538,437	320,723	0,067	0,093
-537,423	112,535	-0,097	-0,085
-536,408	-200,000	0,011	-0,084
-535,393	13,419	-0,074	0,042
-534,379	-81,311	-0,131	-0,031
-533,364	52,478	-0,172	-0,120
-532,350	548,860	0,061	0,108
-531,335	-199,593	0,142	0,001
-530,321	-30,245	-0,031	0,013
-529,306	800,000	0,047	-0,099
-528,291	-105,110	-0,086	-0,014
-527,277	-62,503	0,025	0,007
-526,262	-1,299	0,069	0,035
-525,248	-77,671	0,117	-0,029
-524,233	800,000	0,052	0,109
-523,218	-200,000	0,023	0,087
-522,204	139,143	-0,102	-0,098
-521,189	139,159	0,018	0,017
-520,175	416,000	-0,077	-0,120
-519,160	604,967	0,072	0,132
-518,145	480,818	0,037	-0,062
-517,131	-22,468	-0,135	-0,059
-516,116	-1,212	0,015	0,008
-515,102	52,554	-0,068	0,047
-514,087	75,670	0,015	-0,012
-513,072	164,203	0,092	-0,095
-512,058	-200,000	0,016	-0,085
-511,043	-200,000	-0,030	-0,272
-510,029	800,000	-0,019	0,057
-509,014	88,446	0,083	0,067
-507,999	615,484	-0,026	0,047
-506,985	294,727	-0,074	0,099
-505,970	255,578	0,048	0,060
-504,956	15,614	0,087	-0,049
-503,941	94,965	0,095	0,078
-502,926	-137,203	-0,123	-0,010
-501,912	132,819	0,096	0,091
-500,897	-7,303	-0,128	-0,063
-499,883	800,000	0,025	-0,062
-498,868	-103,369	-0,110	0,019
-497,853	-149,563	-0,068	0,004
-496,839	-30,645	-0,072	0,030
-495,824	312,639	-0,048	0,066
-494,810	-167,961	0,090	-0,003
-493,795	-149,979	0,117	0,007
-492,781	800,000	0,049	-0,118
-491,766	-200,000	0,016	-0,110
-490,751	800,000	-0,068	0,166
-489,737	606,220	-0,017	-0,030
-488,722	-200,000	0,025	-0,119
-487,708	-200,000	-0,001	0,037
-486,693	-200,000	-0,031	0,146
-485,678	69,387	-0,047	-0,035
-484,664	391,834	0,044	-0,066
-483,649	-72,371	-0,107	0,029
-482,635	15,315	-0,073	-0,041
-481,620	-200,000	0,023	0,098
-480,605	800,000	0,035	-0,108
-479,591	-200,000	0,032	0,136
-478,576	800,000	0,066	0,144
-477,562	-200,000	-0,146	0,000
-476,547	-46,729	0,162	0,058
-475,532	23,279	-0,133	-0,080
-474,518	134,013	-0,085	-0,080
-473,503	-200,000	-0,009	-0,159
-472,489	447,463	0,087	0,140
-471,474	158,442	-0,006	-0,006
-470,459	32,664	0,060	0,038
-469,445	103,462	0,146	0,125
-468,430	209,916	-0,049	-0,056
-467,416	390,671	0,049	-0,074
-466,401	230,359	0,072	0,086
-465,386	798,965	0,028	0,057
-464,372	-46,159	0,068	0,024
-463,357	-200,000	-0,057	-0,225
-462,343	-200,000	-0,001	0,010
-461,328	-48,686	0,063	0,022
-460,313	800,000	0,051	0,146
-459,299	800,000	-0,007	0,015
-458,284	-116,154	0,107	-0,014
-457,270	433,617	0,116	0,184
-456,255	94,286	-0,066	-0,054
-455,241	-121,115	-0,042	-0,005
-454,226	-97,700	-0,102	-0,019
-453,211	-200,000	-0,036	0,146
-452,197	-200,000	-0,006	0,037
-451,182	23,221	0,101	0,060
-450,168	72,364	-0,076	0,058
-449,153	-200,000	0,007	-0,047
-448,138	800,000	0,029	-0,069
-447,124	97,713	-0,049	0,041
-446,109	405,615	-0,038	-0,059
-445,095	5,874	0,058	0,031
-444,080	225,405	-0,054	0,064
-443,065	-123,874	0,032	0,004
-442,051	342,082	-0,034	-0,049
-441,036	51,252	-0,077	-0,053
-440,022	284,891	-0,104	-0,137
-439,007	-200,000	0,007	-0,163
-437,992	107,432	0,023	0,020
-436,978	800,000	-0,022	0,069
-435,963	-32,313	-0,146	0,059
-434,949	-200,000	0,023	0,123
-433,934	-50,803	-0,123	-0,042
-432,919	-152,870	-0,114	0,006
-431,905	-97,327	-0,053	-0,010
-430,890	-200,000	0,012	0,151
-429,876	542,759	0,063	0,110
-428,861	800,000	0,057	-0,125
-427,846	800,000	-0,042	-0,131
-426,832	-200,000	0,003	-0,106
-425,817	64,413	-0,093	0,068
-424,803	567,905	-0,045	-0,081
-423,788	65,960	0,034	-0,025
-422,773	-17,916	0,025	0,011
-421,759	-200,000	-0,009	-0,047
-420,744	-200,000	-0,040	-0,145
-419,730	-200,000	-0,027	-0,113
-418,715	47,228	0,040	0,027
-417,701	-200,000	0,025	-0,110
-416,686	800,000	-0,014	-0,043
-415,671	-200,000	0,014	0,096
-414,657	-156,827	0,048	0,002
-413,642	800,000	-0,044	0,118
-412,628	-155,924	0,072	-0,003
-411,613	800,000	0,049	-0,127
-410,598	800,000	-0,016	-0,047
-409,584	-200,000	0,022	-0,171
-408,569	-29,309	0,008	0,003
-407,555	369,565	0,037	-0,054
-406,540	215,744	-0,023	0,026
-405,525	-200,000	0,015	-0,068
-404,511	-47,969	-0,029	0,010
-403,496	-200,000	0,016	0,156
-402,482	-147,542	0,040	-0,002
-401,467	-65,672	0,077	-0,022
-400,452	-27,847	0,071	0,030
-399,438	800,000	-0,040	0,108
-398,423	124,010	-0,108	-0,099
-397,409	-200,000	0,018	-0,144
-396,394	13,561	-0,083	-0,047
-395,379	65,790	-0,091	-0,067
-394,365	257,641	-0,064	-0,080
-393,350	9,481	0,084	0,046
-392,336	800,000	-0,069	-0,155
-391,321	-7,340	-0,160	-0,079
-390,306	-2,643	-0,093	0,047
-389,292	-200,000	-0,027	0,100
-388,277	30,371	-0,070	0,043
-387,263	690,872	0,055	-0,104
-386,248	-2,516	0,107	0,054
-385,233	-131,119	0,064	0,006
-384,219	-200,000	0,012	-0,061
-383,204	800,000	-0,009	-0,026
-382,190	23,188	-0,106	-0,063
-381,175	5,546	0,003	-0,002
-380,160	800,000	0,016	0,046
-379,146	-152,675	-0,213	-0,011
-378,131	800,000	-0,005	0,017
-377,117	800,000	0,009	-0,023
-376,102	691,926	-0,006	-0,012
-375,088	-123,640	0,032	0,004
-374,073	-128,291	0,033	-0,003
-373,058	-44,156	-0,065	0,024
-372,044	77,148	-0,087	0,067
-371,029	800,000	-0,072	0,191
-370,015	-200,000	0,020	0,107
-369,000	163,291	-0,022	-0,023
-367,985	-200,000	-0,005	-0,047
-366,971	-71,411	-0,026	0,007
-365,956	800,000	0,042	-0,131
-364,942	-186,745	0,107	0,001
-363,927	-66,296	-0,072	-0,021
-362,912	-137,459	-0,179	-0,014
-361,898	-200,000	-0,001	-0,011
-360,883	-117,237	-0,145	0,019
-359,869	-3,719	-0,058	0,029
-358,854	-31,664	0,023	0,009
-357,839	-115,306	0,070	0,009
-356,825	120,447	-0,073	0,066
-355,810	5,514	0,128	0,069
-354,796	267,105	-0,099	0,125
-353,781	-61,055	-0,086	-0,026
-352,766	-200,000	-0,019	-0,064
-351,752	519,112	-0,021	-0,036
-350,737	-200,000	-0,007	0,065
-349,723	-200,000	0,003	0,211
-348,708	224,339	0,031	0,036
-347,693	-200,000	0,010	0,150
-346,679	-200,000	-0,026	0,123
-345,664	675,014	-0,022	0,041
-344,650	-117,427	-0,044	0,006
-343,635	800,000	0,019	0,053
-342,620	-175,499	-0,021	0,000
-341,606	-10,861	0,087	-0,041
-340,591	-154,389	0,103	0,005
-339,577	45,868	-0,087	-0,058
-338,562	-14,796	-0,030	0,014
-337,548	18,723	0,042	0,025
-336,533	405,165	0,042	0,065
-335,518	436,643	0,072	-0,115
-334,504	-105,026	0,026	0,004
-333,489	138,789	0,038	-0,037
-332,475	128,142	-0,032	0,030
-331,460	60,290	-0,052	-0,037
-330,445	-15,188	0,101	-0,047
-329,431	-17,047	-0,052	-0,024
-328,416	284,830	-0,061	0,079
-327,402	203,665	-0,060	0,068
-326,387	-137,024	-0,053	-0,004
-325,372	284,526	-0,070	-0,091
-324,358	-79,367	-0,135	-0,033
-323,343	-200,000	-0,014	0,101
-322,329	-200,000	0,046	-0,155
-321,314	-200,000	-0,008	0,073
-320,299	190,462	0,038	0,041
-319,285	800,000	0,045	0,100
-318,270	-162,532	-0,070	0,002
-317,256	36,832	0,012	-0,008
-316,241	319,799	0,043	-0,059
-315,226	13,385	-0,032	-0,018
-314,212	-144,141	-0,023	-0,002
-313,197	372,963	-0,042	0,062
-312,183	-126,096	-0,006	-0,001
-311,168	-114,073	-0,129	-0,018
-310,153	-200,000	0,040	-0,141
-309,139	-49,694	0,071	-0,024
-308,124	800,000	-0,016	-0,032
-307,110	800,000	-0,081	0,249
-306,095	-45,143	0,145	0,052
-305,080	800,000	-0,038	0,099
-304,066	-200,000	0,007	0,090
-303,051	-200,000	-0,012	-0,147
-302,037	-200,000	-0,099	0,000
-301,022	-200,000	0,000	0,073
-300,008	139,100	-0,038	-0,036
-298,993	-200,000	-0,017	0,097
-297,978	-66,274	0,074	0,021
-296,964	-200,000	0,038	-0,135
-295,949	331,418	0,010	0,013
-294,935	-200,000	-0,018	-0,138
-293,920	-159,308	-0,121	0,005
-292,905	-200,000	0,007	0,133
-291,891	82,526	-0,016	-0,013
-290,876	153,289	0,071	-0,070
-289,862	-200,000	-0,004	-0,087
-288,847	62,740	-0,085	0,061
-287,832	800,000	0,004	-0,010
-286,818	-200,000	-0,009	-0,148
-285,803	-192,997	0,106	-0,001
-284,789	159,776	-0,129	0,130
-283,774	-47,876	0,113	0,039
-282,759	-98,058	0,058	0,011
-281,745	331,930	-0,045	-0,063
-280,730	-200,000	-0,053	-0,262
-279,716	-200,000	-0,004	0,098
-278,701	-200,000	-0,035	-0,137
-277,686	166,413	0,092	-0,095
-276,672	56,264	0,115	0,080
-275,657	436,808	0,009	0,015
-274,643	145,645	-0,064	0,062
-273,628	-200,000	-0,012	-0,043
-272,613	-99,873	-0,089	-0,016
-271,599	798,076	0,092	-0,184
-270,584	214,553	0,084	0,096
-269,570	800,000	0,053	-0,129
-268,555	-200,000	-0,015	0,123
-267,540	-88,054	-0,023	0,005
-266,526	-121,047	-0,102	0,012
-265,511	1,443	0,013	0,007
-264,497	430,600	0,099	0,156
-263,482	220,877	0,066	0,076
-262,467	63,483	-0,099	0,072
-261,453	252,183	-0,004	-0,005
-260,438	-102,521	0,126	0,022
-259,424	-200,000	0,004	-0,037
-258,409	59,176	0,102	0,073
-257,395	46,523	0,055	-0,037
-256,380	800,000	0,016	-0,047
-255,365	-165,935	0,163	0,005
-254,351	-200,000	0,001	0,069
-253,336	-200,000	0,022	-0,258
-252,322	-169,874	-0,125	-0,003
-251,307	-200,000	0,004	-0,051
-250,292	-45,139	0,088	0,031
-249,278	-182,229	0,133	-0,002
-248,263	-200,000	0,021	0,092
-247,249	373,775	-0,042	0,062
-246,234	-200,000	-0,019	-0,101
-245,219	-200,000	-0,012	0,153
-244,205	-74,266	-0,076	-0,020
-243,190	119,023	0,055	0,049
-242,176	309,986	0,071	-0,096
-241,161	-200,000	-0,024	0,132
-240,146	-102,372	-0,055	-0,009
-239,132	-43,498	0,117	0,042
-238,117	-200,000	-0,009	-0,108
-237,103	-200,000	-0,004	-0,063
-236,088	117,483	0,112	-0,099
-235,073	-200,000	0,006	0,060
-234,059	161,194	0,100	0,101
-233,044	306,022	-0,017	0,023
-232,030	595,529	-0,044	-0,078
-231,015	272,521	-0,035	-0,045
-230,000	22,671	-0,048	-0,028
-228,986	-200,000	-0,007	-0,047
-227,971	-200,000	0,042	0,137
-226,957	656,679	0,014	0,026
-225,942	-108,953	0,079	0,012
-224,927	434,581	-0,009	0,014
-223,913	102,869	-0,031	0,027
-222,898	450,050	-0,026	-0,041
-221,884	-200,000	0,005	-0,022
-220,869	-23,821	-0,091	0,039
-219,855	194,468	0,098	0,107
-218,840	-102,031	0,101	0,017
-217,825	-160,166	-0,114	-0,004
-216,811	-12,736	-0,167	-0,078
-215,796	393,345	0,025	-0,038
-214,782	181,726	0,096	-0,102
-213,767	331,368	0,029	0,041
-212,752	-200,000	0,003	-0,023
-211,738	-166,249	0,099	-0,003
-210,723	-200,000	0,005	-0,168
-209,709	-114,978	-0,094	-0,013
-208,694	254,817	-0,123	-0,152
-207,679	-200,000	-0,019	-0,146
-206,665	107,904	0,086	0,074
-205,650	-200,000	0,037	0,126
-204,636	-200,000	0,029	0,151
-203,621	-60,571	-0,178	0,054
-202,606	-200,000	-0,028	-0,125
-201,592	579,607	0,010	-0,018
-200,577	203,426	0,034	0,038
-199,563	-200,000	-0,019	0,067
-198,548	-200,000	-0,013	0,066
-197,533	494,266	0,042	0,070
-196,519	-54,404	-0,130	0,042
-195,504	-200,000	-0,002	-0,041
-194,490	480,131	-0,015	-0,024
-193,475	-4,514	-0,066	0,033
-192,460	800,000	-0,034	0,096
-191,446	43,761	0,092	-0,061
-190,431	-200,000	-0,021	0,068
-189,417	-200,000	-0,011	-0,073
-188,402	203,561	0,124	-0,138
-187,387	800,000	-0,072	-0,186
-186,373	200,425	-0,096	-0,106
-185,358	131,442	-0,099	0,091
-184,344	551,771	0,035	-0,060
-183,329	14,366	0,039	-0,022
-182,315	-19,243	0,189	0,084
-181,300	-47,358	-0,034	-0,012
-180,285	-200,000	-0,105	0,000
-179,271	-200,000	0,023	0,088
-178,256	449,968	0,027	-0,043
-177,242	616,792	-0,002	0,004
-176,227	-200,000	-0,029	0,118
-175,212	50,943	0,087	0,059
-174,198	-24,236	0,064	-0,028
-173,183	-174,543	-0,127	0,003
-172,169	37,117	0,046	-0,029
-171,154	-56,981	-0,067	-0,021
-170,139	-200,000	-0,012	0,067
-169,125	64,528	-0,078	-0,056
-168,110	146,501	0,078	0,076
-167,096	712,443	0,030	0,057
-166,081	-89,222	-0,160	-0,034
-165,066	800,000	0,032	-0,094
-164,052	168,381	-0,038	-0,039
-163,037	-120,845	0,197	-0,024
-162,023	-200,000	0,034	0,118
-161,008	154,767	0,115	0,114
-159,993	800,000	-0,029	-0,061
-158,979	422,348	-0,033	0,051
-157,964	-200,000	0,008	-0,037
-156,950	800,000	-0,066	-0,172
-155,935	-63,924	0,090	0,026
-154,920	-200,000	-0,002	0,088
-153,906	327,325	-0,061	0,085
-152,891	241,852	0,056	-0,068
-151,877	-200,000	-0,008	-0,046
-150,862	229,570	0,034	0,040
-149,847	79,977	0,038	-0,029
-148,833	-200,000	0,001	0,046
-147,818	457,377	0,095	0,152
-146,804	174,072	-0,045	0,047
-145,789	130,585	0,026	-0,024
-144,775	800,000	0,015	0,045
-143,760	800,000	-0,047	-0,124
-142,745	92,837	-0,047	-0,038
-141,731	-16,045	-0,092	-0,042
-140,716	-125,160	0,118	0,013
-139,702	-200,000	0,029	0,132
-138,687	363,108	0,064	0,093
-137,672	371,140	-0,025	0,036
-136,658	-200,000	-0,014	0,102
-135,643	-200,000	0,006	-0,028
-134,629	230,199	0,080	0,094
-133,614	-200,000	-0,004	-0,032
-132,599	35,790	0,118	-0,075
-131,585	-200,000	-0,002	0,051
-130,570	-55,771	-0,121	-0,039
-129,556	-109,054	-0,051	-0,008
-128,541	10,647	-0,015	-0,008
-127,526	-83,218	0,140	0,032
-126,512	174,269	0,070	-0,073
-125,497	-111,707	0,161	0,023
-124,483	132,831	-0,076	-0,070
-123,468	399,938	0,068	0,103
-122,453	-62,421	-0,172	-0,051
-121,439	-200,000	0,041	0,139
-120,424	73,461	0,087	-0,065
