DTS Sentinel unit serial number:	SN410029Multiplexer serial number:	ORYXHardware model number:	OX2-SRSoftware version number:	ORYX F/W v4,00 Oryx Data Collector v3.7.2.0data status	okinstallation	B3 Nyhavnadifferential loss correction	single-endedforward channel	channel 1reverse channel	N/Adate	2023/11/28time	14:22:30forward acquisition time	300,00reverse acquisition time	0,00gamma	499,1914k internal	0,3145k external	0,3145temperature offset calibration	1,0000default loss term (dB/km)	0,3820temperature slope calibration	1,0000multiplexer offset coefficient	1,0000multiplexer slope coefficient	1,0000fibre end	0,00T internal ref (°C)	7,50T ext. ref 1 (°C)	-7,75T ext. ref 2 (°C)	-7,92length (m)	temperature (°C)	Stokes	anti-Stokes-744,400	800,000	-0,124	-0,330
-743,385	-200,000	0,021	0,304
-742,371	800,000	-0,097	-0,255
-741,356	-200,000	-0,041	0,158
-740,342	-104,353	-0,297	-0,050
-739,327	-200,000	0,085	0,358
-738,312	333,097	-0,216	-0,310
-737,298	800,000	-0,103	0,228
-736,283	389,339	-0,122	-0,187
-735,269	-200,000	0,027	0,343
-734,254	-46,002	-0,291	-0,106
-733,239	-26,531	-0,192	-0,083
-732,225	-200,000	-0,009	-0,198
-731,210	-200,000	0,047	0,159
-730,196	-16,468	-0,126	-0,059
-729,181	170,433	-0,046	-0,049
-728,167	266,611	-0,087	-0,113
-727,152	121,983	0,200	-0,185
-726,137	482,260	-0,050	0,085
-725,123	391,977	-0,066	-0,102
-724,108	-200,000	-0,053	-0,194
-723,094	13,157	-0,111	-0,063
-722,079	4,012	0,069	-0,037
-721,064	437,176	0,027	0,044
-720,050	-200,000	0,011	-0,080
-719,035	97,567	-0,076	-0,065
-718,021	230,610	-0,091	-0,111
-717,006	442,104	-0,075	-0,121
-715,991	-200,000	-0,003	0,048
-714,977	-200,000	-0,016	-0,074
-713,962	127,140	-0,062	-0,058
-712,948	800,000	-0,026	-0,075
-711,933	-200,000	0,022	-0,087
-710,918	800,000	0,007	-0,019
-709,904	-33,929	-0,148	-0,060
-708,889	-200,000	0,020	-0,165
-707,875	-200,000	-0,021	-0,142
-706,860	591,403	-0,020	0,038
-705,845	-70,578	-0,037	0,010
-704,831	322,195	0,041	0,058
-703,816	-41,157	0,050	0,019
-702,802	22,758	0,065	-0,039
-701,787	-160,253	-0,113	0,004
-700,772	-200,000	-0,003	0,022
-699,758	-158,492	-0,206	-0,009
-698,743	800,000	0,080	0,179
-697,729	800,000	-0,020	0,041
-696,714	-85,137	0,126	0,029
-695,699	107,156	-0,125	-0,110
-694,685	-200,000	-0,036	-0,159
-693,670	201,678	-0,068	-0,077
-692,656	158,176	0,040	0,041
-691,641	800,000	0,047	0,112
-690,627	-124,291	0,016	-0,002
-689,612	800,000	-0,044	0,140
-688,597	120,316	-0,076	-0,070
-687,583	86,116	-0,036	-0,029
-686,568	153,970	-0,165	-0,167
-685,554	-61,047	0,154	0,048
-684,539	431,296	-0,055	-0,088
-683,524	-48,771	-0,102	0,036
-682,510	-200,000	-0,033	0,117
-681,495	119,124	0,061	-0,056
-680,481	112,594	-0,126	-0,112
-679,466	-125,789	-0,116	0,013
-678,451	-200,000	-0,007	0,082
-677,437	800,000	0,044	0,102
-676,422	-200,000	0,008	-0,068
-675,408	174,380	-0,114	-0,122
-674,393	142,747	0,039	0,038
-673,378	42,296	-0,106	-0,071
-672,364	800,000	0,024	0,057
-671,349	370,887	-0,070	-0,106
-670,335	-200,000	-0,002	0,051
-669,320	163,639	0,096	-0,100
-668,305	175,723	0,032	0,034
-667,291	-200,000	-0,077	0,000
-666,276	771,832	-0,026	0,053
-665,262	-200,000	-0,026	-0,129
-664,247	-200,000	0,018	-0,086
-663,232	-157,440	-0,106	-0,005
-662,218	52,176	-0,170	0,119
-661,203	800,000	0,037	-0,085
-660,189	-200,000	-0,041	-0,178
-659,174	-132,737	-0,033	0,003
-658,159	-200,000	-0,015	0,051
-657,145	-200,000	0,018	-0,126
-656,130	800,000	-0,039	-0,084
-655,116	684,091	0,050	0,096
-654,101	800,000	-0,022	-0,068
-653,086	-88,130	-0,109	0,024
-652,072	-200,000	-0,022	0,082
-651,057	-80,943	-0,105	-0,025
-650,043	105,048	-0,055	0,048
-649,028	-139,327	-0,021	-0,002
-648,014	-102,413	0,103	0,018
-646,999	-105,078	-0,091	-0,015
-645,984	-200,000	0,013	0,070
-644,970	-109,836	-0,147	0,023
-643,955	800,000	0,019	-0,043
-642,941	464,063	-0,074	-0,123
-641,926	800,000	-0,024	0,065
-640,911	139,045	-0,058	0,056
-639,897	-200,000	0,014	0,104
-638,882	86,223	-0,180	0,146
-637,868	255,451	0,045	-0,058
-636,853	653,060	0,058	-0,111
-635,838	-115,253	-0,051	0,007
-634,824	35,294	-0,067	-0,043
-633,809	53,584	0,110	0,078
-632,795	557,962	-0,047	0,084
-631,780	-113,920	0,034	0,005
-630,765	800,000	0,049	-0,155
-629,751	-200,000	-0,011	-0,179
-628,736	-83,380	-0,046	-0,011
-627,722	800,000	0,044	-0,097
-626,707	800,000	0,026	0,067
-625,692	164,011	0,048	-0,050
-624,678	800,000	-0,031	-0,100
-623,663	-5,187	-0,135	0,068
-622,649	-200,000	-0,008	0,034
-621,634	800,000	0,032	-0,073
-620,619	-200,000	0,009	-0,100
-619,605	-122,116	0,140	-0,017
-618,590	-200,000	0,032	0,121
-617,576	800,000	0,032	-0,083
-616,561	-114,262	0,072	0,010
-615,546	-56,663	-0,105	0,034
-614,532	-67,121	-0,067	0,019
-613,517	247,393	0,053	-0,067
-612,503	-200,000	-0,000	0,010
-611,488	149,244	0,038	-0,038
-610,474	377,423	-0,020	0,030
-609,459	-113,972	-0,181	0,026
-608,444	-39,512	0,150	-0,058
-607,430	796,847	-0,041	-0,084
-606,415	-160,147	0,130	0,005
-605,401	-200,000	0,021	-0,103
-604,386	120,630	0,108	0,099
-603,371	123,433	0,107	0,098
-602,357	374,693	-0,050	-0,075
-601,342	-14,585	-0,067	0,032
-600,328	-200,000	-0,002	-0,051
-599,313	-200,000	-0,007	-0,059
-598,298	50,789	-0,089	0,062
-597,284	-200,000	-0,028	0,105
-596,269	-200,000	-0,000	-0,007
-595,255	-25,511	-0,083	-0,036
-594,240	800,000	0,050	0,118
-593,225	88,773	0,078	-0,064
-592,211	514,067	0,013	0,022
-591,196	-6,715	-0,079	0,039
-590,182	-200,000	-0,019	-0,182
-589,167	800,000	0,031	-0,072
-588,152	23,010	-0,046	-0,028
-587,138	-85,516	-0,066	0,015
-586,123	-200,000	-0,008	-0,075
-585,109	-200,000	-0,016	-0,081
-584,094	-97,155	0,139	-0,027
-583,079	82,521	0,108	0,086
-582,065	10,842	0,041	0,023
-581,050	14,254	0,080	0,046
-580,036	-152,590	0,109	0,006
-579,021	48,354	-0,110	-0,076
-578,006	122,045	-0,082	0,075
-576,992	3,749	-0,021	0,011
-575,977	246,305	-0,095	0,118
-574,963	540,765	-0,033	0,058
-573,948	170,833	-0,027	-0,028
-572,934	800,000	-0,065	-0,162
-571,919	-200,000	0,010	-0,040
-570,904	-200,000	-0,047	0,159
-569,890	-21,122	-0,126	-0,056
-568,875	-86,713	0,036	-0,008
-567,861	48,763	0,024	0,017
-566,846	199,639	-0,128	0,145
-565,831	65,183	-0,155	0,115
-564,817	-79,852	-0,158	0,039
-563,802	-200,000	-0,014	-0,062
-562,788	-200,000	0,000	-0,074
-561,773	475,551	0,032	0,054
-560,758	167,240	-0,005	0,005
-559,744	-177,085	-0,017	-0,000
-558,729	-200,000	0,015	-0,102
-557,715	114,499	-0,105	-0,094
-556,700	800,000	0,039	-0,100
-555,685	-17,882	-0,063	0,029
-554,671	-95,489	0,068	-0,013
-553,656	-200,000	-0,028	-0,091
-552,642	303,511	0,100	0,137
-551,627	-95,248	0,019	-0,004
-550,612	-165,699	-0,136	-0,004
-549,598	196,918	-0,050	0,056
-548,583	-200,000	-0,001	-0,176
-547,569	-200,000	-0,037	0,136
-546,554	800,000	-0,024	-0,056
-545,539	-200,000	0,053	0,193
-544,525	4,524	-0,028	0,015
-543,510	-200,000	-0,021	-0,076
-542,496	-73,287	-0,112	-0,030
-541,481	-177,556	0,038	0,001
-540,466	12,172	-0,055	-0,031
-539,452	88,111	0,060	0,049
-538,437	800,000	0,038	0,108
-537,423	327,804	-0,110	0,156
-536,408	85,846	-0,102	-0,082
-535,393	800,000	0,034	-0,079
-534,379	27,471	0,017	-0,011
-533,364	-200,000	-0,000	0,055
-532,350	-147,240	0,078	-0,005
-531,335	800,000	-0,022	-0,049
-530,321	542,361	-0,026	-0,046
-529,306	-6,736	-0,154	-0,077
-528,291	-200,000	0,000	-0,028
-527,277	800,000	-0,012	-0,036
-526,262	-102,388	-0,158	-0,028
-525,248	-200,000	-0,002	0,137
-524,233	793,149	0,063	0,128
-523,218	283,474	-0,080	0,105
-522,204	252,353	0,033	-0,041
-521,189	-76,111	-0,098	-0,025
-520,175	-136,743	-0,182	-0,015
-519,160	9,221	0,130	0,072
-518,145	369,757	0,026	0,039
-517,131	151,382	-0,034	0,034
-516,116	387,414	0,083	0,127
-515,102	-46,515	0,045	0,016
-514,087	-145,199	0,072	-0,005
-513,072	176,570	-0,143	-0,153
-512,058	-200,000	-0,003	-0,177
-511,043	167,029	-0,074	0,077
-510,029	179,827	0,110	-0,118
-509,014	100,543	0,080	-0,068
-507,999	36,441	-0,011	0,007
-506,985	-5,954	-0,095	0,048
-505,970	-138,911	-0,025	-0,002
-504,956	42,863	0,115	0,077
-503,941	-136,274	-0,107	0,009
-502,926	388,817	0,069	0,106
-501,912	-200,000	0,015	0,075
-500,897	-46,414	0,105	0,038
-499,883	0,746	0,050	-0,026
-498,868	395,536	-0,089	-0,136
-497,853	344,338	-0,031	-0,045
-496,839	800,000	-0,053	0,111
-495,824	-200,000	-0,006	0,029
-494,810	-200,000	-0,004	0,144
-493,795	4,199	-0,055	0,029
-492,781	151,634	-0,019	0,019
-491,766	-200,000	-0,000	0,036
-490,751	108,337	-0,017	0,015
-489,737	61,934	0,084	-0,061
-488,722	-140,542	0,030	0,002
-487,708	-88,651	0,074	0,016
-486,693	-71,666	0,072	-0,020
-485,678	-200,000	0,012	0,131
-484,664	683,242	-0,053	-0,103
-483,649	-54,405	0,037	-0,012
-482,635	-82,842	0,024	0,006
-481,620	-108,407	-0,101	0,016
-480,605	-69,660	0,087	0,024
-479,591	-52,649	0,022	-0,007
-478,576	-114,277	0,043	0,006
-477,562	-65,258	-0,100	0,029
-476,547	-200,000	-0,019	-0,132
-475,532	-176,137	-0,019	-0,000
-474,518	-200,000	0,021	0,085
-473,503	800,000	0,035	0,096
-472,489	-2,375	0,039	0,020
-471,474	693,407	-0,020	-0,039
-470,459	-20,010	0,045	0,020
-469,445	-200,000	-0,006	-0,086
-468,430	731,799	-0,015	-0,030
-467,416	800,000	0,046	0,108
-466,401	-138,911	0,056	-0,004
-465,386	267,217	0,076	0,098
-464,372	-28,811	-0,096	0,040
-463,357	199,135	0,050	0,056
-462,343	-200,000	-0,000	0,070
-461,328	188,671	0,088	0,097
-460,313	215,822	0,011	-0,012
-459,299	-183,660	0,109	-0,001
-458,284	-6,988	-0,166	0,082
-457,270	402,339	0,038	-0,059
-456,255	-200,000	-0,005	-0,031
-455,241	404,563	-0,014	0,021
-454,226	470,386	-0,001	-0,002
-453,211	277,693	0,061	-0,080
-452,197	-200,000	0,011	0,055
-451,182	-23,486	0,169	0,074
-450,168	-166,077	-0,064	0,002
-449,153	800,000	0,018	-0,052
-448,138	182,830	0,113	-0,122
-447,124	-89,321	-0,116	0,025
-446,109	-200,000	0,036	-0,124
-445,095	112,654	0,040	-0,035
-444,080	-83,411	0,095	0,022
-443,065	-200,000	0,019	0,088
-442,051	580,356	0,051	0,092
-441,036	-200,000	-0,046	-0,211
-440,022	-19,053	-0,065	-0,029
-439,007	-73,877	0,094	0,025
-437,992	326,373	0,071	0,099
-436,978	800,000	-0,021	0,059
-435,963	-200,000	-0,019	0,103
-434,949	-57,278	0,049	0,016
-433,934	-200,000	-0,016	-0,109
-432,919	-91,813	-0,064	0,013
-431,905	-148,239	0,058	-0,003
-430,890	-99,667	0,059	0,011
-429,876	669,742	0,039	0,074
-428,861	283,022	0,039	-0,052
-427,846	-200,000	0,006	-0,136
-426,832	-47,564	-0,100	0,035
-425,817	-29,196	-0,093	-0,039
-424,803	-136,095	0,194	0,016
-423,788	-18,869	0,142	-0,064
-422,773	-34,279	0,013	0,005
-421,759	213,249	0,088	-0,102
-420,744	-150,240	-0,098	0,005
-419,730	12,582	-0,022	0,013
-418,715	-114,574	0,031	-0,004
-417,701	800,000	-0,052	-0,132
-416,686	53,139	-0,026	0,018
-415,671	51,970	0,126	0,087
-414,657	-75,340	0,044	-0,011
-413,642	282,093	0,106	-0,140
-412,628	-200,000	-0,026	-0,133
-411,613	44,781	-0,064	-0,043
-410,598	800,000	-0,037	0,102
-409,584	800,000	0,037	-0,092
-408,569	232,279	-0,052	0,062
-407,555	21,676	0,038	0,022
-406,540	732,980	0,021	0,041
-405,525	747,201	-0,018	-0,035
-404,511	-129,461	-0,014	-0,001
-403,496	-150,089	-0,070	0,004
-402,482	-200,000	-0,007	0,057
-401,467	-18,205	0,085	0,039
-400,452	800,000	-0,009	-0,019
-399,438	683,498	-0,015	0,030
-398,423	-4,922	-0,056	0,028
-397,409	-200,000	0,024	-0,151
-396,394	270,619	-0,032	0,041
-395,379	-41,641	-0,108	-0,040
-394,365	-151,359	0,096	0,005
-393,350	116,580	-0,057	0,051
-392,336	-200,000	-0,005	0,069
-391,321	800,000	-0,057	0,158
-390,306	113,149	-0,103	-0,091
-389,292	-200,000	-0,011	-0,136
-388,277	108,494	-0,090	-0,079
-387,263	800,000	-0,044	0,095
-386,248	291,646	-0,148	0,197
-385,233	-200,000	0,004	-0,070
-384,219	-200,000	-0,004	0,062
-383,204	609,626	-0,026	-0,048
-382,190	-200,000	0,001	-0,075
-381,175	800,000	0,041	0,090
-380,160	-24,968	0,075	-0,032
-379,146	-99,512	0,049	0,009
-378,131	800,000	0,067	0,193
-377,117	-200,000	-0,004	-0,025
-376,102	-58,362	-0,133	-0,042
-375,088	52,350	-0,034	0,024
-374,073	-115,468	0,031	0,004
-373,058	148,316	-0,070	-0,069
-372,044	306,138	0,047	-0,064
-371,029	-200,000	-0,023	0,103
-370,015	-200,000	0,013	0,076
-369,000	-69,086	-0,036	-0,010
-367,985	150,984	0,010	0,010
-366,971	-16,395	0,111	-0,051
-365,956	570,701	-0,058	0,103
-364,942	83,286	0,082	0,065
-363,927	-177,772	0,084	-0,001
-362,912	-106,624	-0,119	0,019
-361,898	161,591	0,051	-0,052
-360,883	55,787	-0,030	0,021
-359,869	-200,000	-0,018	-0,104
-358,854	-200,000	-0,018	-0,080
-357,839	-85,337	0,016	-0,004
-356,825	434,620	0,082	0,130
-355,810	575,204	0,073	0,131
-354,796	-200,000	-0,011	-0,071
-353,781	534,504	-0,043	-0,074
-352,766	-120,807	0,069	0,008
-351,752	320,686	0,054	0,075
-350,737	-101,437	0,155	0,027
-349,723	241,852	-0,063	0,077
-348,708	233,874	0,035	0,043
-347,693	249,247	-0,056	-0,069
-346,679	-200,000	0,008	-0,057
-345,664	58,407	-0,079	-0,057
-344,650	40,973	0,117	-0,077
-343,635	45,475	0,024	0,016
-342,620	90,626	0,077	0,063
-341,606	525,432	0,028	0,047
-340,591	72,092	0,100	-0,076
-339,577	-200,000	-0,004	-0,018
-338,562	139,610	-0,055	-0,053
-337,548	800,000	0,034	-0,068
-336,533	285,380	-0,070	0,093
-335,518	-66,882	0,043	0,012
-334,504	326,570	-0,083	-0,116
-333,489	161,402	-0,074	-0,076
-332,475	-42,624	-0,033	0,012
-331,460	-17,576	0,114	-0,052
-330,445	146,359	-0,092	-0,090
-329,431	-66,214	0,161	-0,046
-328,416	112,604	0,118	0,104
-327,402	-32,260	-0,108	-0,044
-326,387	211,811	0,082	0,095
-325,372	523,605	-0,025	-0,042
-324,358	382,470	-0,063	-0,095
-323,343	-83,657	0,053	-0,012
-322,329	194,766	0,059	0,066
-321,314	775,522	0,123	0,247
-320,299	169,717	0,068	-0,071
-319,285	-42,064	-0,210	0,078
-318,270	-200,000	-0,030	-0,105
-317,256	23,213	-0,161	0,096
-316,241	47,371	0,013	0,009
-315,226	91,420	0,148	0,121
-314,212	800,000	-0,039	0,126
-313,197	82,267	0,027	0,022
-312,183	-7,327	-0,076	0,037
-311,168	284,453	-0,028	-0,037
-310,153	412,417	0,056	0,088
-309,139	262,346	-0,030	-0,038
-308,124	503,122	0,004	-0,007
-307,110	-12,630	0,034	0,016
-306,095	-162,391	0,070	0,002
-305,080	800,000	0,051	0,123
-304,066	-170,565	-0,040	0,001
-303,051	57,783	-0,167	-0,119
-302,037	395,586	-0,072	0,109
-301,022	9,866	0,083	-0,046
-300,008	-67,980	0,080	-0,023
-298,993	-112,717	-0,143	-0,020
-297,978	-200,000	-0,003	-0,117
-296,964	-62,496	-0,107	-0,032
-295,949	-63,990	0,062	0,018
-294,935	800,000	-0,018	-0,049
-293,920	-200,000	0,003	0,031
-292,905	-107,011	-0,031	0,005
-291,891	383,692	0,056	0,083
-290,876	566,990	0,080	0,142
-289,862	110,991	0,035	-0,030
-288,847	800,000	-0,019	-0,047
-287,832	-200,000	-0,038	-0,148
-286,818	-200,000	-0,009	0,056
-285,803	800,000	0,021	0,053
-284,789	-30,835	0,038	-0,016
-283,774	-100,635	0,063	0,011
-282,759	0,687	0,043	0,023
-281,745	15,037	0,026	-0,015
-280,730	-26,459	-0,105	0,044
-279,716	-200,000	-0,006	0,081
-278,701	-200,000	0,038	0,132
-277,686	153,408	0,024	-0,024
-276,672	-149,640	-0,072	-0,004
-275,657	8,788	-0,087	0,048
-274,643	-46,780	0,102	0,036
-273,628	194,271	-0,092	0,102
-272,613	81,098	-0,014	-0,011
-271,599	800,000	-0,094	-0,230
-270,584	-92,088	0,068	-0,014
-269,570	144,273	0,086	0,084
-268,555	-40,132	-0,097	-0,036
-267,540	82,549	-0,112	-0,088
-266,526	-90,819	0,076	0,016
-265,511	570,099	0,012	0,022
-264,497	-200,000	0,031	-0,218
-263,482	190,289	0,063	-0,069
-262,467	-65,264	-0,110	-0,032
-261,453	-86,718	-0,049	0,011
-260,438	-200,000	0,001	-0,094
-259,424	-200,000	-0,008	-0,033
-258,409	-191,805	-0,130	-0,001
-257,395	-108,720	0,028	-0,004
-256,380	23,364	-0,031	-0,019
-255,365	641,705	-0,025	0,047
-254,351	-81,099	0,057	0,014
-253,336	319,765	0,005	0,008
-252,322	-33,694	0,096	-0,038
-251,307	230,678	0,066	-0,079
-250,292	390,440	-0,105	-0,158
-249,278	800,000	0,015	-0,032
-248,263	19,258	0,125	0,072
-247,249	800,000	0,034	0,071
-246,234	106,448	-0,050	-0,043
-245,219	800,000	0,034	-0,086
-244,205	162,691	-0,086	-0,087
-243,190	-200,000	0,041	0,183
-242,176	-200,000	-0,002	0,083
-241,161	653,719	-0,016	0,030
-240,146	-31,976	-0,122	-0,049
-239,132	199,710	0,066	-0,073
-238,117	-137,860	-0,160	-0,013
-237,103	-73,853	0,107	-0,028
-236,088	-200,000	0,001	0,013
-235,073	-60,529	-0,069	-0,021
-234,059	284,941	0,064	0,083
-233,044	-200,000	-0,040	0,127
-232,030	-200,000	0,014	-0,080
-231,015	800,000	0,012	-0,033
-230,000	-108,015	-0,111	-0,017
-228,986	621,185	0,076	-0,139
-227,971	18,909	0,125	0,073
-226,957	-200,000	-0,007	-0,074
-225,942	-200,000	0,020	0,143
-224,927	-200,000	-0,005	0,140
-223,913	-200,000	-0,004	-0,077
-222,898	46,807	0,069	0,046
-221,884	260,564	0,047	0,059
-220,869	304,379	-0,084	0,114
-219,855	-54,974	0,109	0,035
-218,840	-139,459	0,097	-0,007
-217,825	800,000	-0,011	0,023
-216,811	800,000	-0,073	-0,183
-215,796	-12,973	-0,024	0,011
-214,782	2,966	0,071	-0,037
-213,767	122,061	0,026	0,023
-212,752	228,402	0,132	0,156
-211,738	-200,000	-0,023	-0,083
-210,723	543,445	0,008	0,014
-209,709	-181,922	0,061	0,001
-208,694	-29,245	-0,101	-0,042
-207,679	5,718	-0,079	0,042
-206,665	159,342	0,060	-0,060
-205,650	778,007	0,037	-0,073
-204,636	208,936	-0,076	0,086
-203,621	-49,484	0,070	-0,024
-202,606	-75,510	-0,105	0,027
-201,592	-41,623	0,090	-0,033
-200,577	-200,000	0,013	-0,055
-199,563	-200,000	0,011	0,090
-198,548	-171,963	0,009	-0,000
-197,533	-200,000	-0,001	0,094
-196,519	-61,670	-0,097	0,029
-195,504	-200,000	0,001	-0,121
-194,490	494,741	-0,047	-0,078
-193,475	-200,000	0,007	-0,056
-192,460	63,149	-0,099	0,072
-191,446	125,296	0,053	0,049
-190,431	342,841	-0,049	-0,069
-189,417	-200,000	0,014	0,098
-188,402	593,702	-0,035	-0,063
-187,387	254,045	0,035	-0,043
-186,373	-82,955	-0,084	0,019
-185,358	54,863	0,084	-0,059
-184,344	16,674	0,111	-0,064
-183,329	-44,006	0,086	-0,031
-182,315	15,511	0,093	0,053
-181,300	487,760	-0,033	0,054
-180,285	-90,880	-0,074	-0,015
-179,271	800,000	0,034	-0,076
-178,256	-42,184	-0,101	-0,037
-177,242	-13,944	0,047	-0,022
-176,227	-200,000	0,069	0,000
-175,212	49,940	-0,016	-0,011
-174,198	-145,757	-0,106	0,007
-173,183	-59,578	-0,137	0,042
-172,169	-200,000	-0,002	-0,033
-171,154	-65,153	0,126	0,037
-170,139	60,287	0,132	0,094
-169,125	555,872	-0,037	-0,064
-168,110	-158,851	0,014	0,001
-167,096	-166,700	-0,105	0,003
-166,081	-200,000	0,001	-0,080
-165,066	-99,492	0,078	0,014
-164,052	-45,865	-0,118	-0,042
-163,037	-200,000	-0,003	-0,048
-162,023	-128,658	0,112	-0,011
-161,008	-200,000	-0,033	0,125
-159,993	-200,000	0,020	-0,101
-158,979	800,000	-0,031	-0,078
-157,964	-139,325	0,114	0,009
-156,950	800,000	-0,062	-0,129
-155,935	-104,247	-0,019	0,003
-154,920	-158,824	0,082	0,003
-153,906	45,161	0,079	0,052
-152,891	-80,188	0,078	0,019
-151,877	-81,701	0,131	-0,031
-150,862	-200,000	-0,010	-0,080
-149,847	800,000	-0,008	0,019
-148,833	-91,481	-0,108	-0,022
-147,818	-107,443	0,082	0,013
-146,804	-200,000	0,021	0,085
-145,789	-78,982	-0,193	0,047
-144,775	-65,597	-0,126	-0,036
-143,760	800,000	0,088	-0,205
-142,745	-146,197	0,065	0,004
-141,731	-107,166	0,088	-0,014
-140,716	-28,423	0,042	0,017
-139,702	-200,000	-0,007	0,171
-138,687	135,635	-0,039	0,037
-137,672	-45,715	0,104	-0,037
-136,658	800,000	0,013	-0,042
-135,643	-109,173	0,049	0,007
-134,629	-200,000	-0,112	0,000
-133,614	28,307	0,084	0,051
-132,599	2,862	0,019	0,010
-131,585	61,587	-0,007	-0,005
-130,570	-31,010	-0,070	0,028
-129,556	64,774	-0,131	-0,095
-128,541	-200,000	-0,021	-0,238
-127,526	8,074	0,122	-0,066
-126,512	108,371	-0,108	-0,094
-125,497	-163,698	0,194	-0,006
-124,483	-200,000	-0,026	0,131
-123,468	29,080	0,022	-0,014
-122,453	-81,737	-0,200	-0,047
-121,439	-45,880	0,099	0,035
-120,424	-64,960	-0,050	-0,015
