DTS Sentinel unit serial number:	SN410029Multiplexer serial number:	ORYXHardware model number:	OX2-SRSoftware version number:	ORYX F/W v4,00 Oryx Data Collector v3.7.2.0data status	okinstallation	B3 Nyhavnadifferential loss correction	single-endedforward channel	channel 1reverse channel	N/Adate	2023/11/28time	17:27:30forward acquisition time	300,00reverse acquisition time	0,00gamma	499,1914k internal	0,3183k external	0,3183temperature offset calibration	1,0000default loss term (dB/km)	0,3820temperature slope calibration	1,0000multiplexer offset coefficient	1,0000multiplexer slope coefficient	1,0000fibre end	0,00T internal ref (°C)	7,31T ext. ref 1 (°C)	-7,58T ext. ref 2 (°C)	-7,72length (m)	temperature (°C)	Stokes	anti-Stokes-744,400	226,491	-0,176	-0,209
-743,385	-200,000	-0,044	0,206
-742,371	178,981	-0,187	-0,200
-741,356	-200,000	0,027	0,256
-740,342	152,006	-0,221	-0,221
-739,327	412,864	-0,026	0,040
-738,312	695,376	-0,144	-0,277
-737,298	800,000	-0,091	0,255
-736,283	443,244	-0,121	-0,195
-735,269	-200,000	-0,014	0,338
-734,254	596,312	-0,190	-0,345
-733,239	-103,200	-0,228	0,039
-732,225	-200,000	-0,021	-0,182
-731,210	-200,000	0,040	0,195
-730,196	370,185	-0,027	0,040
-729,181	-200,000	-0,012	-0,045
-728,167	653,168	-0,045	0,084
-727,152	-200,000	-0,001	0,070
-726,137	-200,000	-0,003	0,108
-725,123	190,977	-0,073	-0,080
-724,108	-200,000	-0,010	-0,035
-723,094	-200,000	-0,010	0,083
-722,079	-23,275	0,020	0,009
-721,064	107,727	-0,034	-0,030
-720,050	-200,000	-0,018	0,174
-719,035	-36,045	-0,085	0,033
-718,021	-165,510	-0,099	0,003
-717,006	188,296	-0,063	-0,069
-715,991	439,409	-0,028	0,045
-714,977	-97,446	-0,060	0,011
-713,962	-200,000	0,000	0,172
-712,948	-200,000	0,003	0,060
-711,933	-200,000	-0,016	0,072
-710,918	-200,000	0,006	0,169
-709,904	1,379	-0,066	-0,035
-708,889	125,395	0,133	-0,123
-707,875	-95,404	-0,054	-0,011
-706,860	66,569	-0,079	0,059
-705,845	-200,000	0,008	0,053
-704,831	-200,000	-0,008	-0,035
-703,816	177,755	0,029	-0,031
-702,802	637,075	0,023	0,044
-701,787	208,870	0,030	-0,034
-700,772	32,301	0,017	-0,011
-699,758	-88,197	0,137	-0,030
-698,743	78,461	-0,015	0,012
-697,729	-200,000	0,010	0,170
-696,714	416,691	-0,024	0,038
-695,699	-200,000	-0,019	0,091
-694,685	-111,747	-0,069	0,010
-693,670	-200,000	-0,009	0,050
-692,656	323,181	-0,068	0,095
-691,641	205,326	-0,007	0,008
-690,627	-70,704	-0,146	-0,040
-689,612	143,624	-0,063	0,062
-688,597	660,087	-0,029	-0,055
-687,583	-200,000	0,012	-0,099
-686,568	800,000	-0,037	-0,098
-685,554	-200,000	0,016	-0,095
-684,539	699,958	0,013	0,025
-683,524	129,491	-0,046	-0,043
-682,510	800,000	0,074	0,174
-681,495	-170,598	-0,089	-0,002
-680,481	510,804	-0,043	-0,074
-679,466	200,623	-0,056	0,063
-678,451	-200,000	-0,003	0,125
-677,437	-200,000	0,022	0,112
-676,422	285,837	-0,106	0,140
-675,408	278,715	0,035	0,046
-674,393	267,748	0,105	0,135
-673,378	-18,459	-0,083	-0,038
-672,364	54,217	0,089	-0,063
-671,349	-200,000	0,021	-0,180
-670,335	257,228	0,055	-0,070
-669,320	-93,380	0,097	0,019
-668,305	800,000	-0,009	-0,022
-667,291	-38,823	-0,073	-0,028
-666,276	768,718	-0,051	0,102
-665,262	-200,000	0,011	0,042
-664,247	-200,000	-0,021	-0,134
-663,232	104,082	-0,060	0,052
-662,218	800,000	-0,002	0,007
-661,203	-180,211	-0,011	-0,000
-660,189	800,000	0,005	0,015
-659,174	224,756	-0,049	0,058
-658,159	800,000	-0,054	-0,109
-657,145	-96,233	0,072	0,014
-656,130	-85,986	-0,033	0,007
-655,116	509,682	-0,028	0,047
-654,101	77,916	0,090	-0,070
-653,086	9,620	-0,090	-0,050
-652,072	-200,000	-0,034	0,125
-651,057	-53,936	-0,087	-0,029
-650,043	208,354	-0,103	-0,118
-649,028	309,862	-0,028	0,038
-648,014	47,783	0,123	0,084
-646,999	357,075	0,028	0,040
-645,984	-13,053	-0,084	0,040
-644,970	-200,000	-0,013	-0,052
-643,955	800,000	-0,038	-0,103
-642,941	0,214	-0,092	-0,047
-641,926	-200,000	0,010	-0,059
-640,911	181,637	-0,052	0,056
-639,897	-200,000	0,003	0,095
-638,882	108,775	0,087	-0,076
-637,868	-200,000	-0,018	-0,107
-636,853	-154,603	-0,130	-0,006
-635,838	284,357	0,043	0,056
-634,824	800,000	0,022	-0,067
-633,809	-147,163	0,043	-0,003
-632,795	-200,000	0,006	0,189
-631,780	-200,000	-0,008	-0,032
-630,765	667,049	0,018	-0,033
-629,751	-83,589	-0,076	-0,018
-628,736	574,625	-0,058	-0,103
-627,722	-200,000	0,015	-0,053
-626,707	335,295	-0,049	0,070
-625,692	224,984	0,091	0,107
-624,678	127,410	-0,030	-0,028
-623,663	5,610	-0,087	0,047
-622,649	-156,862	-0,095	-0,004
-621,634	-200,000	0,023	-0,164
-620,619	40,776	-0,055	-0,036
-619,605	23,525	0,111	-0,066
-618,590	-72,610	-0,058	0,015
-617,576	-200,000	0,002	0,062
-616,561	-8,463	-0,036	-0,018
-615,546	295,546	-0,074	0,099
-614,532	-200,000	0,007	-0,133
-613,517	-86,332	-0,107	0,024
-612,503	-38,048	0,106	0,041
-611,488	-200,000	-0,001	0,031
-610,474	221,610	0,044	0,052
-609,459	-77,919	-0,107	-0,027
-608,444	800,000	-0,019	-0,049
-607,430	800,000	-0,015	-0,048
-606,415	311,676	-0,022	0,030
-605,401	39,110	0,077	0,050
-604,386	180,497	-0,107	0,114
-603,371	287,417	-0,067	0,088
-602,357	800,000	0,056	0,176
-601,342	472,287	0,032	0,053
-600,328	-200,000	0,000	0,011
-599,313	-143,714	-0,123	-0,008
-598,298	-91,358	-0,071	-0,015
-597,284	-200,000	-0,012	0,060
-596,269	800,000	0,019	-0,059
-595,255	468,268	0,019	-0,030
-594,240	115,406	-0,109	-0,097
-593,225	-81,978	-0,177	0,042
-592,211	-50,217	-0,062	0,021
-591,196	800,000	0,045	0,129
-590,182	270,568	-0,043	-0,055
-589,167	260,988	0,071	-0,089
-588,152	36,761	-0,065	-0,042
-587,138	800,000	0,034	-0,091
-586,123	-200,000	-0,012	0,049
-585,109	-16,752	-0,117	-0,054
-584,094	-200,000	0,004	-0,132
-583,079	800,000	-0,075	0,198
-582,065	800,000	-0,019	0,057
-581,050	115,854	0,062	0,055
-580,036	308,291	-0,066	0,090
-579,021	129,169	0,034	0,032
-578,006	-22,684	0,044	-0,019
-576,992	158,651	-0,120	-0,121
-575,977	-137,844	0,079	0,006
-574,963	-200,000	0,010	-0,034
-573,948	161,596	-0,038	-0,038
-572,934	-36,445	-0,145	-0,057
-571,919	-47,127	-0,095	0,033
-570,904	151,098	0,048	0,048
-569,890	-107,231	-0,135	0,021
-568,875	-200,000	0,009	-0,128
-567,861	-162,707	0,107	0,004
-566,846	75,694	0,071	0,054
-565,831	87,709	0,005	0,004
-564,817	-200,000	0,016	0,196
-563,802	-200,000	-0,007	0,047
-562,788	-76,320	-0,101	-0,026
-561,773	373,078	0,028	0,042
-560,758	73,859	0,080	0,061
-559,744	800,000	-0,048	0,130
-558,729	512,275	0,031	0,052
-557,715	-34,886	-0,037	-0,014
-556,700	-39,183	-0,031	-0,012
-555,685	-200,000	-0,018	-0,083
-554,671	47,298	0,035	-0,023
-553,656	-200,000	-0,017	0,105
-552,642	-21,841	0,196	-0,086
-551,627	-200,000	0,011	0,069
-550,612	800,000	-0,040	-0,098
-549,598	213,482	-0,038	-0,044
-548,583	-16,988	-0,139	-0,064
-547,569	263,139	-0,044	0,056
-546,554	743,618	-0,035	-0,068
-545,539	462,672	0,033	0,054
-544,525	-61,925	0,089	-0,027
-543,510	386,671	-0,084	-0,126
-542,496	183,975	-0,092	-0,099
-541,481	253,198	0,092	0,114
-540,466	800,000	0,035	-0,093
-539,452	-200,000	0,007	-0,127
-538,437	-200,000	-0,023	0,128
-537,423	711,210	0,050	0,097
-536,408	800,000	0,047	-0,143
-535,393	-200,000	0,035	-0,151
-534,379	-71,288	-0,086	-0,023
-533,364	-200,000	-0,017	-0,187
-532,350	198,128	0,050	-0,056
-531,335	67,386	0,054	0,040
-530,321	-200,000	-0,004	0,016
-529,306	800,000	0,015	0,039
-528,291	-38,980	-0,097	0,037
-527,277	-200,000	0,007	-0,070
-526,262	403,873	-0,080	-0,123
-525,248	-200,000	-0,013	0,052
-524,233	800,000	0,020	0,054
-523,218	800,000	-0,075	0,189
-522,204	131,105	0,072	-0,067
-521,189	198,931	0,114	-0,126
-520,175	-52,316	-0,142	-0,048
-519,160	800,000	0,024	-0,060
-518,145	800,000	0,037	0,079
-517,131	800,000	0,048	0,108
-516,116	560,708	0,051	0,090
-515,102	311,070	-0,085	-0,116
-514,087	-115,275	0,051	0,007
-513,072	-23,971	-0,159	-0,069
-512,058	203,157	0,048	0,054
-511,043	22,912	0,074	-0,044
-510,029	800,000	0,011	-0,026
-509,014	-150,548	0,094	-0,005
-507,999	198,877	0,138	0,153
-506,985	-200,000	0,019	-0,063
-505,970	-200,000	-0,006	0,038
-504,956	-91,441	-0,089	-0,018
-503,941	726,283	0,046	0,088
-502,926	-200,000	0,010	0,142
-501,912	-200,000	0,026	0,118
-500,897	-36,155	-0,129	0,050
-499,883	-200,000	0,015	-0,076
-498,868	288,319	0,025	0,033
-497,853	47,967	0,047	0,032
-496,839	-186,265	-0,069	0,001
-495,824	373,095	0,054	0,079
-494,810	775,880	-0,028	0,055
-493,795	124,340	0,164	-0,150
-492,781	-139,012	-0,073	0,006
-491,766	-200,000	-0,006	0,026
-490,751	37,780	-0,044	-0,028
-489,737	-39,785	-0,110	-0,041
-488,722	-200,000	-0,001	0,069
-487,708	173,871	0,016	0,017
-486,693	-16,388	-0,116	0,053
-485,678	332,155	-0,028	-0,039
-484,664	-8,493	-0,087	-0,042
-483,649	73,229	0,065	-0,049
-482,635	-89,685	-0,131	-0,028
-481,620	800,000	-0,006	0,017
-480,605	-200,000	0,011	-0,105
-479,591	29,408	0,048	0,029
-478,576	61,903	-0,077	-0,055
-477,562	-166,338	0,104	0,003
-476,547	-87,142	-0,084	0,018
-475,532	-110,237	-0,035	0,005
-474,518	459,684	0,016	-0,025
-473,503	-200,000	0,021	0,160
-472,489	194,681	0,066	0,073
-471,474	41,278	-0,085	-0,056
-470,459	181,692	-0,026	-0,028
-469,445	800,000	-0,041	0,099
-468,430	212,566	-0,105	-0,120
-467,416	20,279	0,191	0,112
-466,401	409,128	-0,035	-0,054
-465,386	90,905	0,110	0,089
-464,372	-64,407	-0,081	-0,024
-463,357	-200,000	-0,007	0,039
-462,343	24,279	-0,138	-0,082
-461,328	-30,382	-0,034	0,014
-460,313	-100,003	-0,090	-0,016
-459,299	212,620	0,147	0,168
-458,284	250,632	0,084	0,104
-457,270	-200,000	0,000	0,047
-456,255	121,155	0,059	-0,053
-455,241	-3,566	-0,056	0,028
-454,226	63,846	-0,048	-0,035
-453,211	-126,153	-0,070	0,008
-452,197	234,349	0,052	0,062
-451,182	-200,000	0,031	-0,150
-450,168	-200,000	-0,002	0,093
-449,153	-51,582	-0,085	0,028
-448,138	-36,109	-0,132	0,051
-447,124	-69,270	0,033	0,009
-446,109	-5,592	0,116	0,057
-445,095	-160,618	0,139	0,005
-444,080	-200,000	0,051	0,179
-443,065	800,000	-0,008	-0,026
-442,051	-64,533	0,152	0,044
-441,036	-41,185	0,070	-0,026
-440,022	310,248	-0,062	0,085
-439,007	-200,000	-0,010	-0,118
-437,992	-200,000	0,025	-0,140
-436,978	-111,887	-0,041	-0,006
-435,963	93,254	-0,033	0,027
-434,949	347,272	0,083	0,118
-433,934	54,255	-0,099	0,069
-432,919	343,142	-0,085	-0,120
-431,905	800,000	-0,033	-0,096
-430,890	-37,250	0,101	0,039
-429,876	-150,385	0,066	-0,004
-428,861	42,805	-0,095	0,062
-427,846	-68,103	0,070	0,019
-426,832	-200,000	-0,041	-0,142
-425,817	393,743	0,031	-0,047
-424,803	-29,424	-0,151	0,062
-423,788	-124,457	0,094	-0,010
-422,773	421,709	0,056	-0,088
-421,759	292,662	-0,080	0,106
-420,744	-200,000	-0,007	-0,071
-419,730	-18,193	-0,121	0,054
-418,715	-20,399	-0,073	0,032
-417,701	436,567	0,066	-0,104
-416,686	340,000	-0,034	-0,048
-415,671	-70,281	-0,031	-0,008
-414,657	-141,748	0,154	0,011
-413,642	30,255	-0,102	0,062
-412,628	-200,000	-0,037	-0,119
-411,613	-16,202	-0,079	0,036
-410,598	126,443	-0,080	-0,074
-409,584	-200,000	-0,013	0,163
-408,569	800,000	0,033	0,086
-407,555	-146,943	0,263	-0,016
-406,540	-200,000	-0,012	-0,050
-405,525	54,883	0,087	-0,060
-404,511	227,546	-0,056	0,065
-403,496	-200,000	0,018	-0,102
-402,482	800,000	0,031	-0,088
-401,467	-25,632	0,136	-0,058
-400,452	344,824	-0,097	-0,138
-399,438	15,450	0,085	-0,048
-398,423	19,206	0,023	-0,014
-397,409	-48,890	-0,041	-0,014
-396,394	800,000	0,018	-0,054
-395,379	-200,000	-0,009	0,129
-394,365	-200,000	-0,008	0,058
-393,350	300,730	0,048	-0,064
-392,336	576,177	0,019	-0,033
-391,321	638,855	-0,044	-0,081
-390,306	-200,000	-0,003	-0,012
-389,292	-200,000	-0,015	0,138
-388,277	-42,114	0,110	-0,040
-387,263	44,117	0,027	-0,018
-386,248	77,465	-0,117	0,090
-385,233	800,000	0,071	0,155
-384,219	293,746	0,078	0,102
-383,204	-100,613	0,136	0,024
-382,190	-169,286	0,057	0,001
-381,175	109,733	-0,078	-0,067
-380,160	-50,202	-0,061	0,021
-379,146	-200,000	0,027	0,100
-378,131	-17,416	0,065	-0,029
-377,117	213,989	-0,027	0,030
-376,102	61,238	-0,094	-0,067
-375,088	-87,898	0,146	-0,031
-374,073	52,912	-0,097	-0,067
-373,058	47,435	0,019	0,013
-372,044	-3,242	0,064	0,032
-371,029	-200,000	0,016	0,118
-370,015	127,051	0,047	0,043
-369,000	-200,000	0,033	-0,120
-367,985	43,780	-0,174	0,114
-366,971	-87,317	0,073	-0,016
-365,956	-169,903	0,029	0,001
-364,942	800,000	-0,066	0,132
-363,927	-200,000	0,008	0,066
-362,912	61,359	0,071	-0,051
-361,898	-106,488	0,164	-0,026
-360,883	-200,000	-0,012	-0,051
-359,869	-200,000	0,009	-0,088
-358,854	800,000	0,049	-0,100
-357,839	554,858	0,033	-0,057
-356,825	-92,420	-0,073	0,015
-355,810	-63,165	-0,018	-0,005
-354,796	194,013	-0,103	-0,112
-353,781	31,123	-0,022	-0,014
-352,766	93,062	0,041	0,033
-351,752	-200,000	-0,034	0,114
-350,737	517,393	0,021	0,035
-349,723	-200,000	0,027	0,230
-348,708	-1,660	-0,063	0,032
-347,693	54,658	0,087	0,060
-346,679	112,430	0,041	0,036
-345,664	800,000	0,035	0,103
-344,650	-200,000	0,012	0,111
-343,635	133,570	0,108	0,100
-342,620	241,580	0,090	0,108
-341,606	-200,000	0,016	0,122
-340,591	-200,000	-0,012	0,088
-339,577	800,000	-0,024	0,058
-338,562	800,000	-0,012	-0,032
-337,548	334,337	0,071	0,100
-336,533	-119,060	0,104	-0,013
-335,518	-87,032	0,075	-0,016
-334,504	3,088	0,111	-0,058
-333,489	649,210	-0,030	0,056
-332,475	-2,627	-0,016	-0,008
-331,460	321,948	-0,042	-0,058
-330,445	168,113	-0,056	-0,058
-329,431	-200,000	-0,006	0,106
-328,416	-54,041	0,093	-0,030
-327,402	692,136	0,030	0,057
-326,387	-200,000	0,019	-0,090
-325,372	608,801	-0,029	-0,053
-324,358	784,186	0,028	-0,055
-323,343	-200,000	-0,002	0,031
-322,329	-54,538	-0,011	-0,004
-321,314	-2,026	0,081	0,041
-320,299	78,705	0,091	0,070
-319,285	527,828	-0,077	-0,131
-318,270	-200,000	0,002	0,063
-317,256	-200,000	-0,018	-0,124
-316,241	173,137	0,068	-0,071
-315,226	-22,047	-0,112	0,049
-314,212	-70,085	0,067	0,018
-313,197	674,502	-0,049	0,092
-312,183	-86,703	0,070	-0,015
-311,168	719,339	0,045	-0,086
-310,153	800,000	0,069	-0,187
-309,139	800,000	0,030	-0,074
-308,124	-200,000	-0,000	-0,025
-307,110	-200,000	0,034	0,143
-306,095	180,846	0,077	-0,081
-305,080	-174,775	0,023	-0,000
-304,066	81,405	0,031	-0,024
-303,051	300,428	-0,043	-0,057
-302,037	-200,000	0,004	0,043
-301,022	229,704	0,077	0,090
-300,008	-200,000	0,019	0,116
-298,993	-117,105	0,078	-0,010
-297,978	272,692	0,073	-0,093
-296,964	-32,308	-0,056	-0,022
-295,949	160,786	-0,027	-0,027
-294,935	299,594	-0,023	0,030
-293,920	800,000	-0,065	-0,138
-292,905	-200,000	-0,003	0,131
-291,891	265,701	-0,026	-0,032
-290,876	-200,000	0,012	-0,253
-289,862	349,319	0,075	-0,106
-288,847	-20,972	-0,109	-0,048
-287,832	300,951	0,061	-0,081
-286,818	234,062	0,073	0,086
-285,803	126,824	0,084	0,076
-284,789	23,777	0,141	0,083
-283,774	63,077	0,103	0,074
-282,759	800,000	0,016	-0,047
-281,745	333,002	-0,071	-0,098
-280,730	-84,295	-0,228	-0,052
-279,716	61,023	0,095	0,067
-278,701	-200,000	0,002	-0,012
-277,686	-200,000	0,001	0,110
-276,672	-200,000	-0,000	0,062
-275,657	800,000	-0,042	0,123
-274,643	-64,149	-0,093	0,027
-273,628	-200,000	0,023	-0,102
-272,613	-111,173	-0,037	-0,005
-271,599	280,523	0,010	0,013
-270,584	800,000	-0,025	0,051
-269,570	-174,970	0,069	0,001
-268,555	-200,000	0,005	-0,051
-267,540	-200,000	0,018	-0,188
-266,526	609,267	-0,025	-0,044
-265,511	335,341	-0,083	-0,115
-264,497	-160,740	0,147	0,005
-263,482	524,584	0,110	-0,187
-262,467	96,561	0,063	-0,051
-261,453	81,495	0,105	-0,082
-260,438	42,320	-0,054	0,035
-259,424	129,080	-0,111	-0,101
-258,409	800,000	0,084	-0,202
-257,395	17,400	-0,074	0,042
-256,380	-200,000	0,024	0,095
-255,365	-200,000	0,036	0,144
-254,351	800,000	0,008	-0,024
-253,336	70,709	-0,090	0,067
-252,322	-69,023	-0,100	-0,028
-251,307	105,911	0,038	0,032
-250,292	378,745	-0,061	-0,090
-249,278	-200,000	-0,006	0,033
-248,263	-200,000	0,005	0,031
-247,249	182,476	0,077	0,081
-246,234	-200,000	-0,011	-0,110
-245,219	-95,895	-0,094	-0,018
-244,205	-29,685	0,090	0,037
-243,190	340,032	0,008	-0,011
-242,176	-200,000	0,026	0,091
-241,161	-200,000	-0,012	0,040
-240,146	76,812	-0,113	-0,086
-239,132	-200,000	-0,010	0,058
-238,117	101,145	-0,031	-0,026
-237,103	800,000	-0,042	-0,086
-236,088	800,000	-0,050	0,105
-235,073	746,246	0,065	0,125
-234,059	134,017	-0,113	-0,105
-233,044	102,123	-0,101	-0,085
-232,030	-200,000	0,007	-0,052
-231,015	25,392	-0,079	-0,047
-230,000	717,668	0,066	-0,126
-228,986	800,000	-0,076	0,196
-227,971	97,120	-0,069	0,057
-226,957	800,000	0,025	0,062
-225,942	264,942	0,056	-0,070
-224,927	-53,717	0,059	0,019
-223,913	-106,306	-0,195	-0,031
-222,898	-33,672	-0,021	0,008
-221,884	-200,000	0,012	-0,040
-220,869	303,869	0,061	-0,081
-219,855	-21,665	0,132	-0,057
-218,840	679,682	-0,016	-0,031
-217,825	415,462	-0,038	-0,057
-216,811	-144,083	0,071	0,005
-215,796	800,000	-0,040	-0,084
-214,782	236,173	-0,042	0,049
-213,767	-42,285	0,025	0,009
-212,752	182,760	0,094	0,100
-211,738	-177,814	-0,082	0,001
-210,723	343,143	-0,021	0,030
-209,709	720,546	-0,023	-0,044
-208,694	-154,832	0,020	0,001
-207,679	555,539	0,042	0,073
-206,665	271,064	0,033	-0,042
-205,650	-200,000	-0,012	0,081
-204,636	58,559	-0,063	0,044
-203,621	765,349	-0,013	-0,025
-202,606	-131,903	-0,138	-0,013
-201,592	800,000	-0,046	-0,131
-200,577	-65,038	0,116	-0,033
-199,563	198,062	0,054	0,059
-198,548	13,124	-0,019	-0,011
-197,533	280,565	0,018	0,024
-196,519	-200,000	-0,003	-0,092
-195,504	800,000	0,012	-0,036
-194,490	11,405	0,077	-0,042
-193,475	137,829	0,074	-0,070
-192,460	188,095	-0,133	-0,142
-191,446	-132,220	-0,115	-0,010
-190,431	-111,476	0,082	0,012
-189,417	-200,000	0,012	0,124
-188,402	-200,000	0,006	0,037
-187,387	-200,000	-0,012	-0,189
-186,373	-200,000	0,026	0,086
-185,358	340,809	0,047	0,066
-184,344	13,581	0,109	0,061
-183,329	445,324	-0,028	0,044
-182,315	-65,250	-0,177	0,051
-181,300	-48,602	-0,132	0,045
-180,285	-7,116	-0,045	-0,022
-179,271	-200,000	0,006	-0,071
-178,256	-200,000	0,032	0,120
-177,242	-51,357	0,006	-0,002
-176,227	-111,237	0,098	-0,014
-175,212	-65,081	0,089	0,026
-174,198	-200,000	0,018	-0,070
-173,183	280,216	-0,090	-0,115
-172,169	42,907	-0,087	-0,057
-171,154	800,000	0,021	0,047
-170,139	800,000	0,024	0,070
-169,125	-200,000	0,008	0,064
-168,110	-191,820	-0,150	-0,001
-167,096	311,302	0,090	-0,121
-166,081	36,990	0,069	0,044
-165,066	448,955	-0,108	-0,171
-164,052	108,221	0,082	-0,070
-163,037	71,257	0,054	0,040
-162,023	493,946	0,059	0,098
-161,008	-146,190	0,072	-0,004
-159,993	-73,665	0,125	-0,032
-158,979	403,753	-0,003	-0,004
-157,964	-19,814	-0,121	-0,053
-156,950	325,186	0,024	-0,033
-155,935	412,538	0,059	-0,089
-154,920	800,000	-0,043	0,117
-153,906	-36,306	0,035	0,013
-152,891	72,260	0,030	0,023
-151,877	-101,858	-0,034	0,006
-150,862	784,371	-0,043	0,086
-149,847	-55,110	-0,084	0,027
-148,833	407,054	-0,120	0,182
-147,818	-200,000	0,014	0,054
-146,804	56,946	0,033	-0,023
-145,789	-124,397	-0,100	-0,011
-144,775	56,588	0,019	-0,013
-143,760	800,000	0,095	0,189
-142,745	188,591	-0,030	0,032
-141,731	-49,030	0,116	0,040
-140,716	625,109	-0,037	0,067
-139,702	-200,000	-0,013	0,087
-138,687	76,100	-0,078	0,059
-137,672	681,058	-0,043	-0,081
-136,658	-57,447	-0,071	-0,022
-135,643	-200,000	-0,005	-0,063
-134,629	28,189	-0,027	0,016
-133,614	-200,000	0,002	0,056
-132,599	-200,000	-0,001	0,085
-131,585	-23,002	0,168	0,072
-130,570	654,859	-0,064	-0,117
-129,556	96,376	-0,132	-0,108
-128,541	-146,881	-0,057	-0,003
-127,526	800,000	-0,056	0,164
-126,512	-128,555	0,047	-0,005
-125,497	-200,000	0,002	0,106
-124,483	586,616	0,030	0,052
-123,468	246,656	0,068	0,083
-122,453	13,118	-0,051	-0,028
-121,439	-200,000	0,011	0,036
-120,424	-200,000	-0,008	0,172
-119,410	4,141	0,089	-0,046
