DTS Sentinel unit serial number:	SN410029Multiplexer serial number:	ORYXHardware model number:	OX2-SRSoftware version number:	ORYX F/W v4,00 Oryx Data Collector v3.7.2.0data status	okinstallation	B5 Nyhavnadifferential loss correction	single-endedforward channel	channel 2reverse channel	N/Adate	2023/12/13time	12:12:13forward acquisition time	300,00reverse acquisition time	0,00gamma	499,1914k internal	0,3161k external	0,3161temperature offset calibration	1,0000default loss term (dB/km)	0,3820temperature slope calibration	1,0000multiplexer offset coefficient	1,0000multiplexer slope coefficient	1,0000fibre end	0,00T internal ref (°C)	14,02T ext. ref 1 (°C)	-1,85T ext. ref 2 (°C)	-2,15length (m)	temperature (°C)	Stokes	anti-Stokes-744,400	800,000	-0,028	0,076
-743,385	-143,097	-0,438	-0,031
-742,371	-73,635	0,188	-0,050
-741,356	-138,660	-0,425	-0,034
-740,342	7,710	0,116	0,064
-739,327	-145,547	-0,357	0,023
-738,312	49,978	0,164	-0,114
-737,298	-157,101	-0,371	0,016
-736,283	-4,132	0,139	-0,070
-735,269	-176,981	-0,345	-0,006
-734,254	-117,697	0,071	-0,009
-733,239	65,550	-0,464	-0,346
-732,225	65,677	0,150	-0,112
-731,210	415,783	-0,067	0,105
-730,196	-24,383	-0,030	-0,013
-729,181	-200,000	-0,002	-0,112
-728,167	800,000	-0,031	0,093
-727,152	-112,839	-0,073	0,010
-726,137	-200,000	-0,005	-0,056
-725,123	-200,000	0,001	-0,109
-724,108	-200,000	-0,024	-0,172
-723,094	243,794	-0,137	-0,170
-722,079	-200,000	-0,035	-0,116
-721,064	-200,000	0,031	-0,108
-720,050	-200,000	-0,014	0,072
-719,035	434,772	0,047	0,076
-718,021	-150,280	-0,120	0,007
-717,006	-73,995	-0,072	-0,019
-715,991	800,000	-0,060	-0,177
-714,977	131,963	-0,023	-0,021
-713,962	61,951	-0,018	-0,013
-712,948	-112,519	0,045	0,007
-711,933	-85,729	-0,086	0,020
-710,918	-200,000	0,030	-0,210
-709,904	511,638	0,039	-0,068
-708,889	-200,000	-0,033	-0,132
-707,875	331,759	-0,048	0,068
-706,860	-99,318	0,111	0,020
-705,845	-200,000	-0,004	-0,034
-704,831	589,333	0,015	-0,028
-703,816	-75,860	-0,199	-0,051
-702,802	-200,000	-0,029	-0,148
-701,787	331,781	-0,106	-0,151
-700,772	-200,000	0,006	0,101
-699,758	800,000	0,070	-0,212
-698,743	-200,000	-0,024	0,080
-697,729	-35,208	-0,027	-0,011
-696,714	-17,435	-0,068	-0,031
-695,699	-200,000	-0,034	-0,122
-694,685	800,000	-0,059	-0,147
-693,670	-33,991	-0,093	0,038
-692,656	69,005	-0,054	-0,040
-691,641	386,668	0,116	-0,176
-690,627	-200,000	0,005	-0,073
-689,612	403,365	-0,056	0,086
-688,597	198,795	-0,120	-0,135
-687,583	-73,828	-0,132	0,035
-686,568	-200,000	-0,028	-0,149
-685,554	87,935	-0,122	-0,099
-684,539	35,079	-0,054	0,034
-683,524	-90,214	0,061	0,013
-682,510	-200,000	-0,005	0,078
-681,495	-200,000	0,014	0,121
-680,481	-129,850	-0,062	0,006
-679,466	-118,996	0,073	0,009
-678,451	-2,449	0,027	-0,014
-677,437	-200,000	0,028	0,146
-676,422	56,931	0,044	-0,031
-675,408	-172,710	-0,069	0,002
-674,393	800,000	-0,037	0,087
-673,378	201,447	-0,078	0,089
-672,364	594,346	-0,075	-0,136
-671,349	-200,000	0,011	0,108
-670,335	-95,645	0,094	-0,018
-669,320	-59,495	-0,054	0,017
-668,305	-54,854	0,052	0,017
-667,291	346,127	0,026	-0,038
-666,276	50,722	-0,061	0,043
-665,262	-197,745	-0,132	0,001
-664,247	126,181	0,030	0,028
-663,232	800,000	-0,020	-0,044
-662,218	11,817	0,083	0,047
-661,203	121,462	0,044	-0,040
-660,189	-48,625	0,034	-0,012
-659,174	18,398	0,020	-0,012
-658,159	90,487	-0,118	0,097
-657,145	-200,000	-0,025	-0,162
-656,130	48,376	0,106	0,073
-655,116	-200,000	-0,024	-0,106
-654,101	-126,195	-0,042	-0,005
-653,086	-128,926	-0,058	-0,006
-652,072	381,983	0,045	-0,069
-651,057	-167,100	0,086	0,003
-650,043	20,479	-0,026	0,015
-649,028	-124,434	0,130	0,015
-648,014	800,000	-0,008	-0,025
-646,999	708,840	-0,053	0,104
-645,984	393,840	-0,044	0,068
-644,970	-200,000	0,012	-0,049
-643,955	360,453	-0,151	-0,222
-642,941	232,033	0,025	0,030
-641,926	664,850	0,030	0,057
-640,911	161,248	0,062	0,064
-639,897	-200,000	0,008	-0,035
-638,882	162,410	-0,157	-0,162
-637,868	8,894	0,046	-0,025
-636,853	84,146	-0,112	-0,090
-635,838	-200,000	0,029	-0,100
-634,824	-33,660	0,049	-0,020
-633,809	800,000	0,023	-0,065
-632,795	-14,970	0,028	0,013
-631,780	694,370	-0,047	0,092
-630,765	-15,270	-0,155	0,072
-629,751	-200,000	-0,039	-0,233
-628,736	800,000	0,045	-0,100
-627,722	-41,920	-0,026	0,010
-626,707	-200,000	-0,021	-0,078
-625,692	800,000	0,047	-0,113
-624,678	-200,000	-0,027	0,099
-623,663	130,152	-0,088	0,082
-622,649	-200,000	0,004	-0,094
-621,634	242,574	0,028	-0,034
-620,619	-147,399	0,103	0,006
-619,605	192,133	-0,051	0,056
-618,590	316,859	0,057	-0,079
-617,576	-200,000	0,003	-0,027
-616,561	4,795	-0,078	0,042
-615,546	-200,000	-0,032	0,145
-614,532	-98,171	0,096	0,018
-613,517	162,002	0,011	-0,011
-612,503	-200,000	-0,026	0,091
-611,488	-64,316	-0,123	-0,036
-610,474	800,000	-0,059	0,126
-609,459	88,369	-0,022	0,018
-608,444	46,025	-0,029	0,019
-607,430	180,434	-0,038	-0,041
-606,415	-200,000	0,007	-0,028
-605,401	-145,708	-0,074	0,005
-604,386	800,000	-0,046	-0,094
-603,371	43,938	0,046	0,031
-602,357	280,789	-0,024	-0,031
-601,342	-187,036	-0,097	-0,001
-600,328	404,453	-0,018	-0,028
-599,313	419,137	-0,030	-0,047
-598,298	432,689	0,064	0,102
-597,284	-200,000	0,002	0,046
-596,269	41,168	0,078	0,052
-595,255	-200,000	0,018	-0,068
-594,240	-135,955	0,067	-0,006
-593,225	-200,000	-0,004	-0,112
-592,211	194,343	-0,130	-0,144
-591,196	-121,883	-0,137	0,016
-590,182	-200,000	-0,010	0,094
-589,167	48,266	0,091	-0,062
-588,152	-200,000	-0,029	-0,111
-587,138	648,648	0,005	-0,009
-586,123	251,495	-0,032	-0,040
-585,109	-39,027	-0,060	-0,023
-584,094	58,611	-0,081	0,058
-583,079	-66,245	0,094	-0,027
-582,065	-58,866	0,042	-0,013
-581,050	-140,158	-0,074	-0,006
-580,036	127,179	0,084	0,078
-579,021	198,471	-0,140	-0,157
-578,006	-113,801	0,086	-0,012
-576,992	-200,000	0,009	0,106
-575,977	800,000	-0,074	-0,165
-574,963	91,875	0,049	0,041
-573,948	800,000	-0,044	0,123
-572,934	-101,142	0,052	-0,009
-571,919	291,262	-0,061	-0,082
-570,904	29,485	-0,022	0,014
-569,890	54,760	-0,152	-0,107
-568,875	-24,385	0,027	-0,012
-567,861	-200,000	0,024	-0,090
-566,846	38,698	0,139	0,091
-565,831	124,384	-0,031	-0,029
-564,817	800,000	-0,040	-0,087
-563,802	-94,999	-0,023	-0,005
-562,788	491,388	0,059	0,099
-561,773	249,232	-0,013	0,016
-560,758	197,179	0,078	0,087
-559,744	-200,000	-0,010	0,089
-558,729	800,000	-0,017	-0,053
-557,715	-172,843	-0,163	-0,004
-556,700	800,000	-0,055	-0,167
-555,685	86,470	0,047	-0,038
-554,671	800,000	0,009	-0,020
-553,656	10,001	0,088	0,049
-552,642	-184,449	0,148	-0,002
-551,627	-72,369	-0,034	0,009
-550,612	-7,448	-0,040	-0,020
-549,598	-13,493	-0,082	-0,039
-548,583	-148,803	0,163	0,010
-547,569	73,863	-0,089	-0,068
-546,554	185,298	-0,065	-0,071
-545,539	76,333	0,029	0,022
-544,525	194,322	0,070	0,078
-543,510	-200,000	0,007	-0,117
-542,496	-200,000	-0,009	-0,119
-541,481	-66,183	-0,054	-0,016
-540,466	-42,413	0,039	0,014
-539,452	-200,000	-0,030	0,138
-538,437	-9,564	0,188	0,091
-537,423	-200,000	-0,003	0,057
-536,408	-121,300	0,048	0,006
-535,393	-2,022	0,034	-0,017
-534,379	-84,524	-0,160	-0,037
-533,364	-137,180	0,131	-0,011
-532,350	800,000	-0,013	-0,030
-531,335	-40,960	0,039	0,015
-530,321	-200,000	0,021	0,096
-529,306	-200,000	-0,013	0,088
-528,291	-200,000	-0,016	-0,055
-527,277	800,000	-0,056	0,119
-526,262	70,802	-0,128	0,097
-525,248	-80,724	-0,164	0,040
-524,233	5,406	0,057	0,031
-523,218	-19,239	-0,057	-0,026
-522,204	-200,000	0,013	0,048
-521,189	524,495	-0,043	-0,074
-520,175	-200,000	-0,003	-0,013
-519,160	15,522	0,017	0,010
-518,145	68,782	-0,039	0,029
-517,131	-71,120	0,102	-0,028
-516,116	-116,497	-0,135	0,018
-515,102	502,393	0,030	-0,052
-514,087	800,000	-0,017	0,040
-513,072	-200,000	0,008	-0,081
-512,058	623,794	-0,022	-0,040
-511,043	-139,749	0,051	0,004
-510,029	800,000	-0,015	-0,041
-509,014	123,201	0,199	0,182
-507,999	-145,025	-0,197	0,013
-506,985	-101,078	-0,067	0,012
-505,970	-102,390	0,055	-0,010
-504,956	800,000	-0,026	-0,068
-503,941	128,065	-0,063	-0,059
-502,926	-199,343	0,096	0,000
-501,912	58,747	-0,098	0,070
-500,897	-200,000	-0,007	0,095
-499,883	-200,000	0,004	0,036
-498,868	-68,786	-0,085	0,024
-497,853	373,655	-0,067	0,100
-496,839	193,114	-0,078	0,087
-495,824	-4,556	0,068	-0,034
-494,810	-200,000	-0,017	0,064
-493,795	89,414	0,047	-0,039
-492,781	32,710	-0,077	0,049
-491,766	51,482	-0,066	-0,045
-490,751	-200,000	-0,026	0,096
-489,737	-143,867	0,105	-0,007
-488,722	-160,745	0,062	-0,002
-487,708	-200,000	0,008	0,073
-486,693	135,981	0,104	0,099
-485,678	-123,920	0,107	0,012
-484,664	-154,206	-0,115	-0,006
-483,649	-200,000	-0,007	-0,110
-482,635	800,000	-0,044	-0,092
-481,620	-104,244	-0,123	0,021
-480,605	-200,000	0,002	-0,104
-479,591	800,000	-0,018	-0,045
-478,576	-200,000	0,009	0,055
-477,562	84,981	-0,057	-0,046
-476,547	-158,349	-0,132	-0,005
-475,532	800,000	0,025	-0,071
-474,518	31,368	0,037	-0,023
-473,503	729,380	-0,038	0,074
-472,489	-156,244	0,194	-0,009
-471,474	34,700	-0,097	0,062
-470,459	-107,760	0,072	0,011
-469,445	-11,777	-0,028	-0,013
-468,430	-81,791	-0,027	-0,006
-467,416	431,077	-0,060	-0,096
-466,401	-200,000	-0,011	0,038
-465,386	239,417	0,114	0,139
-464,372	610,730	-0,024	0,044
-463,357	-60,789	0,123	-0,038
-462,343	-16,948	0,138	0,063
-461,328	165,955	0,119	0,123
-460,313	-105,400	-0,106	-0,017
-459,299	-200,000	0,007	0,230
-458,284	-178,844	0,098	-0,002
-457,270	800,000	0,058	0,138
-456,255	414,851	-0,041	0,064
-455,241	-200,000	0,029	0,095
-454,226	-200,000	0,038	0,123
-453,211	-200,000	-0,009	0,094
-452,197	-200,000	0,003	0,166
-451,182	212,899	-0,096	0,110
-450,168	76,813	0,099	0,076
-449,153	179,429	-0,073	0,078
-448,138	149,787	-0,087	-0,086
-447,124	40,932	-0,121	-0,079
-446,109	-200,000	-0,003	0,012
-445,095	-47,663	-0,187	-0,066
-444,080	-51,373	0,134	-0,045
-443,065	94,553	0,048	-0,040
-442,051	-2,439	0,034	-0,017
-441,036	109,798	0,069	-0,060
-440,022	4,266	-0,089	-0,047
-439,007	-110,029	0,022	0,003
-437,992	-200,000	-0,011	0,123
-436,978	611,675	-0,084	0,153
-435,963	-200,000	0,010	0,137
-434,949	125,563	-0,038	0,035
-433,934	1,490	-0,049	-0,025
-432,919	199,898	0,056	0,062
-431,905	-200,000	-0,005	0,144
-430,890	657,514	0,023	0,044
-429,876	-200,000	-0,008	0,047
-428,861	-13,273	0,082	0,039
-427,846	800,000	-0,008	-0,026
-426,832	397,342	-0,065	0,099
-425,817	-129,945	-0,138	0,014
-424,803	-200,000	-0,005	-0,043
-423,788	-200,000	0,012	0,050
-422,773	-200,000	0,009	0,104
-421,759	800,000	-0,010	0,027
-420,744	-200,000	-0,013	-0,135
-419,730	800,000	-0,004	-0,009
-418,715	800,000	-0,015	-0,047
-417,701	148,045	0,049	-0,048
-416,686	80,135	-0,068	-0,053
-415,671	-53,735	0,046	0,015
-414,657	-15,781	-0,060	0,028
-413,642	-200,000	0,013	0,059
-412,628	-200,000	0,020	-0,168
-411,613	245,692	-0,119	-0,146
-410,598	-68,765	-0,176	-0,049
-409,584	-6,008	0,089	-0,044
-408,569	-81,096	0,061	-0,014
-407,555	568,607	-0,051	0,090
-406,540	692,576	-0,066	0,126
-405,525	302,591	-0,052	-0,070
-404,511	65,877	-0,047	-0,034
-403,496	-200,000	-0,010	-0,077
-402,482	800,000	0,015	0,034
-401,467	64,575	0,109	-0,080
-400,452	800,000	0,025	0,056
-399,438	79,801	-0,114	0,089
-398,423	-102,477	-0,052	0,009
-397,409	169,731	0,007	-0,007
-396,394	-100,836	0,147	0,026
-395,379	-200,000	-0,030	0,114
-394,365	-115,844	0,045	0,006
-393,350	266,684	0,035	0,044
-392,336	335,043	-0,078	0,110
-391,321	800,000	0,021	0,067
-390,306	-84,880	0,060	0,014
-389,292	-200,000	-0,017	0,102
-388,277	-27,641	0,066	-0,028
-387,263	61,512	-0,078	-0,057
-386,248	40,581	-0,120	-0,078
-385,233	70,586	-0,103	0,077
-384,219	-180,704	0,046	0,001
-383,204	800,000	0,030	-0,079
-382,190	245,615	-0,029	-0,035
-381,175	101,069	0,059	-0,050
-380,160	-200,000	0,031	0,170
-379,146	276,553	-0,032	0,041
-378,131	-200,000	0,015	0,137
-377,117	-44,272	0,020	0,007
-376,102	693,256	0,031	-0,060
-375,088	112,254	0,023	-0,020
-374,073	699,341	0,052	0,099
-373,058	127,779	-0,094	-0,087
-372,044	800,000	0,050	0,129
-371,029	-100,140	-0,027	-0,005
-370,015	452,884	-0,006	-0,010
-369,000	-200,000	0,020	0,073
-367,985	-200,000	-0,001	0,041
-366,971	-200,000	0,013	-0,074
-365,956	-200,000	-0,017	0,090
-364,942	53,158	0,157	0,109
-363,927	-200,000	0,001	0,050
-362,912	-200,000	0,000	-0,158
-361,898	-14,861	0,210	-0,098
-360,883	413,201	-0,124	-0,192
-359,869	-200,000	-0,011	-0,128
-358,854	-27,943	0,107	-0,045
-357,839	-66,964	-0,124	0,035
-356,825	-157,095	0,054	-0,002
-355,810	800,000	-0,027	-0,068
-354,796	575,416	-0,106	-0,188
-353,781	-200,000	0,020	-0,259
-352,766	97,708	0,073	-0,061
-351,752	-105,260	0,098	-0,016
-350,737	237,549	-0,056	0,067
-349,723	302,492	-0,046	-0,061
-348,708	677,175	-0,014	0,026
-347,693	117,490	-0,058	0,052
-346,679	-200,000	-0,005	-0,160
-345,664	76,314	0,097	0,074
-344,650	223,887	0,008	0,010
-343,635	-200,000	0,015	-0,071
-342,620	339,134	0,050	0,071
-341,606	-200,000	-0,004	0,044
-340,591	800,000	0,035	-0,101
-339,577	70,064	0,063	-0,047
-338,562	14,037	-0,068	-0,039
-337,548	800,000	0,032	-0,093
-336,533	-100,949	0,185	-0,033
-335,518	22,948	0,064	-0,038
-334,504	800,000	-0,021	0,047
-333,489	-90,829	-0,017	-0,003
-332,475	377,842	-0,047	0,070
-331,460	800,000	0,044	-0,102
-330,445	1,421	0,132	-0,068
-329,431	186,679	0,136	0,147
-328,416	-169,467	0,049	-0,001
-327,402	800,000	-0,044	-0,106
-326,387	-82,066	-0,055	-0,013
-325,372	-52,436	-0,105	-0,035
-324,358	306,656	0,033	-0,045
-323,343	-48,418	0,115	-0,040
-322,329	271,460	-0,098	0,125
-321,314	-200,000	0,012	0,053
-320,299	-29,420	0,087	-0,036
-319,285	742,157	-0,026	0,051
-318,270	414,296	0,016	0,025
-317,256	-104,702	-0,091	-0,015
-316,241	129,084	-0,079	0,073
-315,226	-200,000	0,010	0,208
-314,212	783,852	0,064	-0,127
-313,197	-200,000	-0,017	-0,085
-312,183	-159,299	-0,047	0,002
-311,168	800,000	0,017	0,045
-310,153	662,368	-0,064	-0,120
-309,139	33,762	0,111	-0,070
-308,124	353,070	-0,007	0,010
-307,110	-22,416	0,019	0,008
-306,095	117,581	-0,096	0,085
-305,080	800,000	-0,040	-0,082
-304,066	234,716	0,041	-0,048
-303,051	-63,150	-0,091	-0,027
-302,037	-101,295	0,085	0,015
-301,022	357,825	0,084	-0,122
-300,008	-65,413	0,133	0,039
-298,993	-200,000	0,000	-0,049
-297,978	355,649	-0,044	0,063
-296,964	-200,000	0,025	0,112
-295,949	249,180	0,022	0,027
-294,935	45,543	-0,064	-0,043
-293,920	-200,000	-0,018	-0,090
-292,905	132,276	0,121	-0,113
-291,891	-86,555	0,087	0,019
-290,876	-60,682	0,114	0,035
-289,862	-42,778	-0,061	0,022
-288,847	411,239	-0,035	-0,054
-287,832	-200,000	-0,025	-0,112
-286,818	384,977	0,022	-0,033
-285,803	800,000	-0,050	-0,113
-284,789	52,931	0,055	-0,038
-283,774	-142,445	0,081	0,006
-282,759	376,078	0,076	-0,112
-281,745	527,177	0,021	-0,036
-280,730	-78,994	-0,085	-0,021
-279,716	193,383	-0,095	0,104
-278,701	800,000	0,031	0,079
-277,686	-7,379	0,143	0,070
-276,672	-28,728	-0,109	-0,045
-275,657	737,102	0,082	-0,160
-274,643	-34,371	-0,070	-0,028
-273,628	-200,000	-0,002	-0,025
-272,613	84,636	-0,084	-0,067
-271,599	-74,610	0,072	0,018
-270,584	25,362	0,122	0,073
-269,570	160,688	0,066	0,067
-268,555	-94,758	0,102	0,020
-267,540	84,353	-0,008	-0,007
-266,526	-139,451	-0,062	-0,005
-265,511	-103,713	-0,150	-0,025
-264,497	89,967	0,068	0,055
-263,482	285,498	0,047	0,061
-262,467	-200,000	-0,023	0,111
-261,453	62,859	-0,088	-0,064
-260,438	-200,000	0,016	-0,128
-259,424	-20,234	-0,122	0,054
-258,409	-200,000	0,001	0,028
-257,395	4,002	-0,078	0,041
-256,380	-31,967	0,049	-0,020
-255,365	120,552	0,068	0,061
-254,351	-105,050	0,112	0,018
-253,336	-200,000	-0,021	-0,165
-252,322	-200,000	0,010	-0,080
-251,307	-200,000	0,013	0,052
-250,292	-147,527	0,041	-0,002
-249,278	800,000	-0,049	0,102
-248,263	-200,000	-0,003	0,074
-247,249	107,511	0,065	-0,056
-246,234	506,889	-0,068	0,114
-245,219	800,000	-0,046	0,092
-244,205	14,492	0,046	0,026
-243,190	-125,782	-0,045	-0,005
-242,176	-200,000	0,084	0,000
-241,161	800,000	0,021	0,057
-240,146	-200,000	-0,007	0,078
-239,132	-68,642	0,054	0,015
-238,117	-200,000	0,012	-0,084
-237,103	81,858	-0,029	-0,022
-236,088	186,952	-0,087	0,094
-235,073	-107,525	0,094	-0,015
-234,059	800,000	0,055	-0,148
-233,044	68,469	-0,102	0,075
-232,030	800,000	0,021	-0,053
-231,015	-200,000	0,021	0,116
-230,000	58,441	-0,075	-0,053
-228,986	-200,000	0,025	-0,110
-227,971	-20,707	0,035	-0,016
-226,957	-56,732	0,052	-0,016
-225,942	-200,000	-0,027	0,105
-224,927	800,000	-0,016	-0,032
-223,913	-67,688	0,131	-0,037
-222,898	-200,000	-0,006	-0,066
-221,884	-200,000	0,022	-0,126
-220,869	-145,314	-0,056	0,004
-219,855	-33,062	0,096	0,038
-218,840	-200,000	-0,015	-0,099
-217,825	362,036	-0,059	-0,086
-216,811	800,000	-0,005	-0,013
-215,796	221,529	0,100	-0,116
-214,782	374,715	0,029	0,042
-213,767	-49,582	-0,121	0,041
-212,752	613,871	0,038	0,070
-211,738	-105,656	0,117	0,019
-210,723	800,000	0,013	0,038
-209,709	155,125	0,059	0,059
-208,694	-87,924	-0,162	-0,035
-207,679	-87,013	-0,099	0,022
-206,665	-27,175	0,107	-0,045
-205,650	-56,788	-0,133	0,042
-204,636	566,927	0,022	0,039
-203,621	-200,000	0,019	0,072
-202,606	248,376	0,048	-0,058
-201,592	-200,000	-0,001	-0,028
-200,577	-84,740	-0,119	-0,027
-199,563	24,085	0,137	0,081
-198,548	-142,253	-0,052	-0,004
-197,533	-19,593	0,156	0,069
-196,519	27,757	-0,033	-0,020
-195,504	-104,488	0,063	-0,010
-194,490	15,770	-0,053	0,030
-193,475	173,116	-0,073	-0,076
-192,460	-32,111	0,079	-0,032
-191,446	-154,505	0,043	-0,002
-190,431	-142,630	0,239	-0,017
-189,417	730,414	0,048	0,093
-188,402	-82,139	0,095	0,022
-187,387	-43,833	-0,190	-0,068
-186,373	155,489	0,103	0,102
-185,358	-200,000	0,016	-0,081
-184,344	-200,000	-0,009	-0,096
-183,329	321,287	0,022	0,031
-182,315	-135,907	0,209	0,018
-181,300	800,000	-0,064	0,133
-180,285	244,465	0,091	-0,110
-179,271	549,965	-0,053	-0,092
-178,256	32,499	0,072	0,044
-177,242	-200,000	0,019	0,099
-176,227	800,000	0,038	0,087
-175,212	-23,443	-0,080	0,034
-174,198	-109,154	-0,102	-0,015
-173,183	-200,000	0,022	-0,099
-172,169	289,259	-0,107	-0,139
-171,154	296,463	-0,052	-0,068
-170,139	-84,342	0,137	-0,031
-169,125	720,930	-0,022	0,043
-168,110	507,096	-0,031	0,052
-167,096	-200,000	0,027	0,125
-166,081	800,000	0,007	-0,018
-165,066	246,245	-0,107	-0,130
-164,052	-198,001	-0,201	-0,001
-163,037	220,718	0,042	0,049
-162,023	-200,000	0,002	0,077
-161,008	137,006	-0,113	0,106
-159,993	800,000	-0,016	-0,042
-158,979	758,773	-0,045	-0,088
-157,964	-200,000	-0,141	0,000
-156,950	-157,935	0,031	-0,001
-155,935	-15,466	0,116	-0,053
-154,920	-200,000	0,008	0,059
-153,906	-90,447	0,039	0,008
-152,891	-79,190	0,100	0,024
-151,877	146,628	0,069	0,067
-150,862	0,180	-0,079	-0,040
-149,847	222,024	0,017	-0,019
-148,833	800,000	0,064	-0,154
-147,818	-32,348	0,050	0,020
-146,804	-46,272	0,158	0,056
-145,789	-117,163	0,104	0,013
-144,775	6,558	-0,081	-0,043
-143,760	233,888	-0,040	-0,047
-142,745	-81,845	0,024	0,006
-141,731	451,315	0,030	0,048
-140,716	-200,000	-0,008	0,155
-139,702	-82,123	-0,102	-0,024
-138,687	266,883	-0,076	0,096
-137,672	106,370	-0,095	0,081
-136,658	38,254	0,058	-0,037
-135,643	-200,000	-0,002	-0,074
-134,629	2,080	0,051	-0,026
-133,614	-200,000	0,010	-0,087
-132,599	800,000	-0,009	0,023
-131,585	47,518	0,052	-0,035
-130,570	800,000	-0,032	0,070
-129,556	-200,000	0,033	0,133
-128,541	-64,435	-0,057	0,017
-127,526	-98,648	0,129	0,023
-126,512	113,904	0,092	-0,080
-125,497	99,785	-0,146	0,121
-124,483	800,000	-0,068	0,142
-123,468	3,168	-0,020	0,010
-122,453	-86,610	-0,062	0,014
-121,439	-128,370	-0,048	-0,005
-120,424	328,158	0,054	0,074
