DTS Sentinel unit serial number:	SN410029Multiplexer serial number:	ORYXHardware model number:	OX2-SRSoftware version number:	ORYX F/W v4,00 Oryx Data Collector v3.7.2.0data status	okinstallation	B5 Nyhavnadifferential loss correction	single-endedforward channel	channel 2reverse channel	N/Adate	2023/12/13time	00:12:13forward acquisition time	300,00reverse acquisition time	0,00gamma	499,1914k internal	0,3159k external	0,3159temperature offset calibration	1,0000default loss term (dB/km)	0,3820temperature slope calibration	1,0000multiplexer offset coefficient	1,0000multiplexer slope coefficient	1,0000fibre end	0,00T internal ref (°C)	14,32T ext. ref 1 (°C)	-2,21T ext. ref 2 (°C)	-2,53length (m)	temperature (°C)	Stokes	anti-Stokes-744,400	-44,986	0,111	0,041
-743,385	-80,469	-0,192	-0,047
-742,371	-200,000	0,003	0,045
-741,356	50,011	-0,198	0,137
-740,342	21,944	0,114	-0,068
-739,327	-89,487	-0,435	0,093
-738,312	-78,621	0,203	0,051
-737,298	-129,537	-0,186	0,019
-736,283	-118,818	0,095	-0,012
-735,269	-13,825	-0,209	-0,099
-734,254	800,000	-0,018	0,050
-733,239	-55,860	-0,515	-0,169
-732,225	-64,766	0,333	0,099
-731,210	412,062	-0,034	0,054
-730,196	170,482	0,080	-0,084
-729,181	-200,000	-0,007	0,106
-728,167	6,402	-0,152	-0,083
-727,152	68,899	-0,091	0,069
-726,137	-200,000	-0,004	0,156
-725,123	36,466	0,049	-0,032
-724,108	68,060	-0,053	-0,040
-723,094	646,647	0,069	-0,131
-722,079	-177,372	-0,111	-0,002
-721,064	-200,000	-0,018	-0,085
-720,050	109,056	0,073	0,064
-719,035	-165,453	-0,084	-0,003
-718,021	154,890	-0,016	0,016
-717,006	-67,110	-0,188	-0,054
-715,991	800,000	0,064	-0,203
-714,977	-172,534	-0,092	0,002
-713,962	-131,485	-0,191	0,018
-712,948	800,000	-0,010	0,023
-711,933	579,079	-0,053	-0,097
-710,918	-200,000	-0,004	-0,050
-709,904	-151,839	-0,201	0,011
-708,889	-200,000	0,006	-0,027
-707,875	129,776	0,018	-0,017
-706,860	91,744	0,060	0,050
-705,845	253,401	-0,095	-0,119
-704,831	-103,111	0,182	0,031
-703,816	258,798	-0,041	0,052
-702,802	32,804	-0,089	-0,056
-701,787	800,000	-0,011	-0,027
-700,772	-84,218	-0,142	0,033
-699,758	-200,000	0,008	0,059
-698,743	-200,000	0,023	0,144
-697,729	-200,000	-0,030	0,232
-696,714	-200,000	-0,027	0,183
-695,699	107,752	-0,081	-0,071
-694,685	285,944	-0,097	-0,130
-693,670	18,583	0,053	-0,031
-692,656	-200,000	-0,016	0,189
-691,641	387,781	-0,056	0,086
-690,627	351,638	-0,051	0,075
-689,612	800,000	0,057	0,165
-688,597	46,984	0,041	-0,028
-687,583	-26,810	-0,163	0,070
-686,568	800,000	-0,050	-0,108
-685,554	-57,208	-0,027	0,009
-684,539	126,540	-0,063	-0,059
-683,524	-200,000	0,009	-0,041
-682,510	25,479	0,131	-0,080
-681,495	800,000	0,066	0,166
-680,481	-200,000	-0,021	-0,072
-679,466	-164,551	-0,186	-0,006
-678,451	-200,000	-0,006	-0,030
-677,437	-6,844	-0,117	0,058
-676,422	-200,000	0,010	-0,067
-675,408	-105,627	-0,135	0,022
-674,393	-200,000	0,001	0,125
-673,378	244,810	-0,040	-0,050
-672,364	-174,215	0,045	-0,001
-671,349	143,147	-0,109	0,107
-670,335	-200,000	0,027	-0,114
-669,320	135,665	0,087	-0,084
-668,305	104,859	-0,022	-0,019
-667,291	77,058	-0,074	-0,058
-666,276	217,288	-0,074	-0,087
-665,262	-200,000	-0,028	-0,147
-664,247	-200,000	0,017	-0,065
-663,232	556,945	-0,051	-0,090
-662,218	12,628	0,087	0,049
-661,203	155,584	-0,056	-0,057
-660,189	308,733	-0,051	0,069
-659,174	-123,970	0,113	-0,013
-658,159	-200,000	-0,002	-0,166
-657,145	-140,258	0,100	-0,008
-656,130	-14,251	-0,067	-0,032
-655,116	-34,981	-0,050	0,020
-654,101	57,184	0,078	-0,056
-653,086	800,000	0,065	-0,152
-652,072	641,601	-0,038	-0,072
-651,057	-200,000	0,003	-0,131
-650,043	-17,647	0,039	-0,018
-649,028	-130,864	-0,102	0,010
-648,014	476,236	0,059	0,098
-646,999	190,447	0,122	0,134
-645,984	-200,000	0,012	0,053
-644,970	-42,395	-0,065	0,024
-643,955	-44,922	0,071	-0,026
-642,941	-87,467	-0,112	-0,025
-641,926	800,000	0,064	-0,166
-640,911	-200,000	0,012	-0,138
-639,897	-200,000	0,026	-0,153
-638,882	-47,537	0,063	0,022
-637,868	-200,000	-0,011	0,040
-636,853	86,763	0,018	0,014
-635,838	-200,000	0,008	0,103
-634,824	-200,000	0,005	0,063
-633,809	-118,480	0,095	0,012
-632,795	-96,712	0,094	-0,018
-631,780	462,017	0,061	-0,101
-630,765	99,833	0,118	0,100
-629,751	-131,411	-0,074	-0,007
-628,736	-200,000	0,017	-0,085
-627,722	-88,437	-0,085	-0,018
-626,707	-176,867	0,165	0,003
-625,692	434,522	-0,029	0,047
-624,678	750,661	0,026	0,052
-623,663	507,584	0,047	0,080
-622,649	-200,000	0,006	-0,055
-621,634	-123,170	-0,082	-0,009
-620,619	800,000	-0,037	-0,114
-619,605	437,208	0,018	-0,030
-618,590	73,446	0,039	-0,030
-617,576	472,555	-0,110	0,182
-616,561	216,048	0,014	-0,016
-615,546	268,109	-0,033	-0,043
-614,532	7,081	-0,045	0,024
-613,517	-200,000	-0,018	-0,065
-612,503	25,029	0,122	0,074
-611,488	-41,748	-0,050	0,019
-610,474	55,547	0,017	-0,012
-609,459	-70,615	-0,139	0,038
-608,444	84,351	0,049	-0,039
-607,430	20,155	0,113	-0,067
-606,415	135,100	-0,095	-0,091
-605,401	49,134	0,006	0,004
-604,386	446,033	0,030	0,049
-603,371	-200,000	0,007	0,045
-602,357	800,000	0,033	0,078
-601,342	-200,000	0,035	-0,139
-600,328	800,000	-0,081	-0,195
-599,313	-46,329	0,034	0,012
-598,298	137,736	-0,052	0,050
-597,284	28,683	-0,047	-0,029
-596,269	31,881	0,029	-0,018
-595,255	-8,927	-0,084	0,041
-594,240	202,202	-0,081	-0,092
-593,225	222,467	0,045	-0,053
-592,211	552,283	-0,026	-0,046
-591,196	-74,791	0,134	-0,035
-590,182	-110,276	0,122	-0,018
-589,167	3,015	0,115	0,061
-588,152	800,000	-0,012	0,028
-587,138	197,475	0,114	0,127
-586,123	100,133	-0,027	0,023
-585,109	-200,000	-0,033	0,204
-584,094	363,190	-0,027	0,039
-583,079	-75,797	0,025	-0,007
-582,065	31,270	0,073	0,046
-581,050	-78,495	0,088	0,022
-580,036	517,733	-0,025	0,043
-579,021	71,403	-0,059	0,044
-578,006	516,222	-0,045	0,078
-576,992	360,348	-0,028	0,041
-575,977	-47,723	-0,031	-0,011
-574,963	43,893	-0,096	0,064
-573,948	15,398	0,113	-0,065
-572,934	800,000	-0,023	-0,047
-571,919	-200,000	-0,025	-0,083
-570,904	-200,000	-0,028	-0,112
-569,890	-200,000	0,007	0,070
-568,875	-22,530	0,120	0,053
-567,861	-118,481	0,101	0,013
-566,846	136,598	0,112	0,107
-565,831	-24,271	0,033	-0,014
-564,817	177,087	0,047	0,051
-563,802	15,723	0,081	0,047
-562,788	-108,306	-0,061	-0,010
-561,773	-200,000	-0,007	0,068
-560,758	-200,000	-0,026	0,087
-559,744	-200,000	0,029	-0,224
-558,729	770,609	-0,047	-0,095
-557,715	-117,545	-0,206	0,027
-556,700	45,390	-0,037	0,025
-555,685	28,709	-0,068	-0,042
-554,671	439,922	-0,048	0,077
-553,656	-93,085	0,150	0,030
-552,642	-101,783	0,188	-0,033
-551,627	100,520	-0,087	-0,074
-550,612	101,063	-0,075	-0,064
-549,598	-192,659	0,177	0,001
-548,583	-200,000	-0,023	-0,144
-547,569	800,000	0,030	-0,070
-546,554	-200,000	0,013	0,104
-545,539	196,897	0,064	-0,072
-544,525	568,834	0,064	-0,114
-543,510	730,931	0,045	-0,089
-542,496	105,062	-0,020	0,017
-541,481	-200,000	0,009	0,076
-540,466	-200,000	0,009	-0,145
-539,452	-200,000	-0,015	-0,087
-538,437	9,756	0,044	0,025
-537,423	138,018	0,060	-0,057
-536,408	-64,772	-0,027	-0,008
-535,393	-48,916	-0,077	0,027
-534,379	71,586	0,072	0,054
-533,364	-83,967	-0,167	-0,038
-532,350	122,020	0,039	-0,036
-531,335	-184,147	0,153	0,002
-530,321	44,015	0,007	-0,005
-529,306	800,000	-0,029	0,063
-528,291	-16,972	-0,040	0,019
-527,277	9,674	-0,096	0,053
-526,262	-83,276	0,109	-0,025
-525,248	800,000	-0,018	0,038
-524,233	22,054	-0,090	-0,054
-523,218	-0,450	-0,040	0,020
-522,204	-200,000	-0,021	0,170
-521,189	-107,584	-0,030	-0,005
-520,175	167,938	0,044	-0,046
-519,160	38,796	-0,015	0,010
-518,145	-53,373	-0,109	0,036
-517,131	-102,374	-0,058	-0,010
-516,116	-101,824	-0,052	-0,009
-515,102	260,427	-0,098	0,124
-514,087	36,890	0,056	-0,036
-513,072	139,357	-0,094	-0,091
-512,058	800,000	-0,016	-0,047
-511,043	-200,000	-0,011	0,049
-510,029	800,000	0,025	0,062
-509,014	-200,000	-0,014	0,102
-507,999	167,035	-0,051	0,053
-506,985	136,153	-0,170	0,162
-505,970	-181,223	0,097	-0,001
-504,956	800,000	-0,011	-0,030
-503,941	625,599	0,099	-0,183
-502,926	-200,000	0,028	0,119
-501,912	-200,000	-0,007	0,170
-500,897	-200,000	0,016	-0,102
-499,883	-200,000	0,016	-0,147
-498,868	41,941	-0,063	-0,042
-497,853	-200,000	0,007	0,027
-496,839	85,601	-0,061	0,049
-495,824	-53,159	0,123	-0,041
-494,810	-79,006	-0,132	0,032
-493,795	-200,000	-0,001	0,132
-492,781	-200,000	-0,013	0,150
-491,766	412,133	0,041	0,064
-490,751	-200,000	-0,017	-0,067
-489,737	-10,306	0,128	-0,062
-488,722	-32,946	0,067	-0,027
-487,708	-62,692	-0,093	-0,028
-486,693	-200,000	0,003	0,104
-485,678	-200,000	-0,002	-0,057
-484,664	184,563	-0,037	0,040
-483,649	322,159	0,079	0,110
-482,635	-200,000	0,001	0,038
-481,620	253,375	0,080	0,099
-480,605	-84,899	-0,007	-0,002
-479,591	28,150	-0,034	0,021
-478,576	-200,000	0,028	0,093
-477,562	200,563	-0,004	-0,005
-476,547	-200,000	-0,005	-0,097
-475,532	-88,233	-0,055	0,012
-474,518	-65,571	0,027	0,008
-473,503	-200,000	0,015	0,051
-472,489	-200,000	-0,022	0,136
-471,474	-200,000	-0,004	-0,078
-470,459	465,593	0,098	0,160
-469,445	800,000	-0,035	-0,091
-468,430	-86,099	0,039	0,009
-467,416	167,327	-0,014	-0,015
-466,401	-200,000	0,048	0,224
-465,386	-114,663	0,144	0,020
-464,372	-200,000	-0,011	-0,171
-463,357	-200,000	-0,000	-0,049
-462,343	43,936	-0,136	-0,091
-461,328	-40,692	0,053	-0,020
-460,313	-200,000	0,051	-0,173
-459,299	-200,000	-0,016	0,118
-458,284	-6,060	0,163	-0,081
-457,270	84,027	0,029	0,023
-456,255	800,000	0,041	0,106
-455,241	265,011	-0,112	-0,143
-454,226	-106,862	0,068	-0,011
-453,211	88,388	0,072	-0,058
-452,197	-200,000	-0,025	-0,097
-451,182	482,202	-0,039	-0,066
-450,168	-119,563	-0,045	0,006
-449,153	-80,530	-0,102	-0,025
-448,138	508,576	0,048	-0,082
-447,124	284,908	0,076	0,100
-446,109	-200,000	0,011	0,058
-445,095	-59,960	0,069	0,021
-444,080	-200,000	0,028	0,111
-443,065	-137,720	0,086	0,007
-442,051	-44,835	0,116	0,042
-441,036	82,845	-0,054	-0,043
-440,022	282,668	-0,148	-0,194
-439,007	442,259	-0,047	0,075
-437,992	-11,392	0,196	0,094
-436,978	-111,710	0,041	0,006
-435,963	-200,000	0,002	0,101
-434,949	-87,808	-0,067	0,015
-433,934	25,602	0,055	-0,033
-432,919	-93,788	0,099	0,020
-431,905	34,691	-0,030	0,019
-430,890	-200,000	-0,015	0,065
-429,876	800,000	0,057	-0,136
-428,861	-81,389	-0,046	0,011
-427,846	15,947	-0,110	0,063
-426,832	176,513	-0,018	0,019
-425,817	-16,331	0,074	-0,034
-424,803	-200,000	-0,014	-0,062
-423,788	129,441	0,147	0,137
-422,773	800,000	-0,041	0,090
-421,759	-200,000	-0,013	0,056
-420,744	241,387	0,092	0,112
-419,730	15,521	0,097	0,055
-418,715	746,505	0,049	-0,096
-417,701	-56,029	0,099	0,032
-416,686	-59,260	-0,106	-0,033
-415,671	-200,000	0,001	0,015
-414,657	92,996	0,044	0,036
-413,642	-200,000	-0,001	0,007
-412,628	-74,100	-0,095	0,025
-411,613	148,917	-0,038	-0,038
-410,598	-200,000	0,008	-0,085
-409,584	297,439	-0,012	0,016
-408,569	101,827	-0,060	-0,051
-407,555	14,641	-0,100	0,057
-406,540	176,446	-0,027	0,029
-405,525	-143,044	-0,101	0,007
-404,511	-112,012	-0,085	-0,012
-403,496	-200,000	0,032	-0,186
-402,482	85,126	0,074	-0,059
-401,467	211,268	0,041	0,047
-400,452	-29,996	-0,028	-0,012
-399,438	800,000	0,021	-0,061
-398,423	37,057	-0,070	0,045
-397,409	-200,000	-0,015	-0,124
-396,394	54,828	0,182	-0,128
-395,379	-21,300	-0,066	-0,029
-394,365	-147,058	-0,124	0,008
-393,350	-62,663	-0,045	-0,013
-392,336	36,151	-0,156	0,099
-391,321	-78,134	-0,102	0,025
-390,306	-86,511	-0,063	0,014
-389,292	-66,976	0,124	-0,035
-388,277	93,794	-0,145	0,119
-387,263	-63,271	0,111	0,033
-386,248	495,002	0,032	0,054
-385,233	119,768	0,117	0,105
-384,219	-200,000	-0,011	-0,040
-383,204	375,103	0,049	-0,072
-382,190	180,786	-0,080	-0,086
-381,175	316,248	0,033	-0,046
-380,160	6,662	-0,118	0,064
-379,146	800,000	0,023	-0,060
-378,131	800,000	-0,029	0,061
-377,117	149,818	-0,093	-0,092
-376,102	800,000	0,013	-0,035
-375,088	745,843	-0,023	-0,045
-374,073	-59,372	-0,069	-0,021
-373,058	2,255	0,164	0,086
-372,044	99,454	-0,049	-0,041
-371,029	-200,000	0,009	-0,039
-370,015	-72,348	0,039	0,010
-369,000	800,000	0,044	-0,119
-367,985	-100,499	-0,055	0,010
-366,971	-140,762	-0,123	-0,009
-365,956	-2,925	-0,147	0,074
-364,942	-200,000	-0,067	0,000
-363,927	58,343	0,023	0,016
-362,912	555,388	0,046	0,080
-361,898	-6,838	-0,087	0,043
-360,883	270,286	0,072	0,092
-359,869	-200,000	0,021	0,071
-358,854	-139,005	0,080	-0,006
-357,839	-23,888	-0,035	0,015
-356,825	-200,000	-0,046	0,250
-355,810	-200,000	-0,015	0,158
-354,796	800,000	0,018	-0,054
-353,781	-200,000	-0,041	-0,219
-352,766	96,486	-0,071	0,059
-351,752	-90,390	0,131	-0,027
-350,737	800,000	-0,020	0,061
-349,723	-200,000	0,010	0,097
-348,708	-200,000	-0,013	-0,085
-347,693	82,899	-0,073	-0,058
-346,679	-200,000	0,013	0,068
-345,664	-200,000	-0,002	-0,024
-344,650	-200,000	-0,001	0,091
-343,635	800,000	0,043	0,099
-342,620	-200,000	0,006	-0,068
-341,606	-59,922	0,051	-0,016
-340,591	-51,404	-0,158	-0,053
-339,577	-100,611	-0,032	0,006
-338,562	325,467	0,029	-0,041
-337,548	-200,000	0,022	-0,101
-336,533	800,000	-0,016	-0,049
-335,518	213,404	0,075	0,086
-334,504	156,536	-0,146	0,146
-333,489	-200,000	-0,010	0,096
-332,475	216,031	0,020	0,023
-331,460	712,825	0,057	-0,110
-330,445	405,003	-0,029	-0,045
-329,431	47,108	-0,065	0,044
-328,416	251,255	-0,096	0,118
-327,402	9,502	0,101	0,055
-326,387	-52,495	-0,008	-0,003
-325,372	-121,320	0,143	-0,017
-324,358	-200,000	-0,026	-0,135
-323,343	800,000	-0,038	-0,077
-322,329	695,006	-0,051	0,098
-321,314	229,297	-0,033	0,039
-320,299	-176,769	0,079	-0,001
-319,285	-145,185	-0,101	0,007
-318,270	-200,000	-0,026	0,118
-317,256	-200,000	-0,009	-0,119
-316,241	-81,728	-0,166	0,039
-315,226	174,932	0,088	0,093
-314,212	-200,000	-0,006	0,044
-313,197	-154,500	0,013	-0,001
-312,183	-108,556	-0,078	0,012
-311,168	207,261	0,039	-0,044
-310,153	437,590	0,062	-0,099
-309,139	19,778	-0,123	-0,071
-308,124	546,445	0,056	-0,098
-307,110	-15,204	-0,086	-0,040
-306,095	-42,908	-0,093	0,034
-305,080	-38,739	-0,045	-0,017
-304,066	800,000	-0,053	0,108
-303,051	-50,503	0,070	-0,024
-302,037	-200,000	-0,018	-0,075
-301,022	1,062	-0,140	-0,072
-300,008	800,000	0,094	0,204
-298,993	-200,000	-0,044	-0,162
-297,978	304,872	-0,131	-0,177
-296,964	-7,233	-0,179	-0,088
-295,949	-200,000	-0,004	-0,189
-294,935	-11,658	-0,026	-0,012
-293,920	-49,936	0,059	-0,020
-292,905	97,766	0,124	0,103
-291,891	-200,000	-0,007	-0,064
-290,876	-35,974	-0,026	0,010
-289,862	213,777	-0,049	0,056
-288,847	303,001	-0,093	-0,126
-287,832	166,570	0,068	-0,070
-286,818	-82,494	-0,103	-0,024
-285,803	-71,015	0,089	0,024
-284,789	-200,000	-0,011	-0,083
-283,774	800,000	-0,043	0,118
-282,759	-200,000	-0,030	0,099
-281,745	800,000	0,033	-0,091
-280,730	46,115	-0,067	0,045
-279,716	187,968	-0,073	-0,079
-278,701	427,218	0,050	-0,078
-277,686	-200,000	0,006	-0,028
-276,672	640,594	0,051	-0,095
-275,657	302,082	0,049	-0,065
-274,643	-127,553	0,106	0,011
-273,628	-157,094	-0,127	0,005
-272,613	-77,693	-0,058	0,014
-271,599	255,195	0,093	0,116
-270,584	26,494	0,132	0,080
-269,570	800,000	-0,014	-0,039
-268,555	467,523	0,039	0,064
-267,540	800,000	-0,066	-0,154
-266,526	-200,000	0,001	-0,108
-265,511	800,000	0,013	0,035
-264,497	-200,000	0,013	-0,079
-263,482	-200,000	0,026	-0,085
-262,467	360,841	0,075	0,109
-261,453	126,210	-0,027	0,024
-260,438	318,731	0,021	0,028
-259,424	-126,291	-0,103	0,011
-258,409	-132,338	-0,064	-0,006
-257,395	350,850	0,100	0,143
-256,380	800,000	-0,062	0,139
-255,365	-200,000	0,009	0,211
-254,351	-200,000	-0,023	-0,126
-253,336	800,000	0,037	-0,099
-252,322	-128,834	-0,140	-0,014
-251,307	800,000	0,057	-0,138
-250,292	-134,824	-0,083	-0,007
-249,278	221,953	0,109	0,127
-248,263	-53,925	0,118	-0,039
-247,249	-200,000	0,019	-0,061
-246,234	-44,340	-0,169	-0,061
-245,219	34,726	-0,227	-0,143
-244,205	-200,000	0,024	-0,112
-243,190	-24,321	0,081	-0,035
-242,176	720,649	-0,049	0,094
-241,161	-96,621	-0,077	-0,015
-240,146	-104,244	0,076	-0,013
-239,132	4,352	0,062	-0,033
-238,117	-139,576	-0,072	0,005
-237,103	170,652	-0,034	-0,036
-236,088	40,282	0,132	0,086
-235,073	41,110	-0,053	0,035
-234,059	-200,000	0,057	0,203
-233,044	-85,520	0,049	0,011
-232,030	727,825	0,012	0,024
-231,015	-46,985	0,075	-0,026
-230,000	319,648	0,037	0,051
-228,986	-94,004	0,081	-0,016
-227,971	-200,000	0,001	0,073
-226,957	-71,120	-0,142	-0,038
-225,942	-35,237	0,161	0,063
-224,927	800,000	-0,029	0,082
-223,913	321,841	0,019	0,027
-222,898	-117,696	0,092	-0,012
-221,884	534,908	-0,024	-0,042
-220,869	327,244	-0,020	0,028
-219,855	800,000	0,066	0,154
-218,840	-157,568	-0,027	0,001
-217,825	-200,000	0,002	0,057
-216,811	-71,763	0,169	-0,045
-215,796	800,000	0,017	-0,051
-214,782	83,472	0,052	0,041
-213,767	-107,237	-0,080	0,013
-212,752	-59,641	0,028	0,009
-211,738	255,757	0,024	-0,030
-210,723	474,813	0,061	0,100
-209,709	72,065	0,042	-0,032
-208,694	147,838	-0,027	-0,026
-207,679	158,139	-0,044	0,044
-206,665	572,748	-0,046	-0,081
-205,650	86,959	0,057	-0,045
-204,636	-200,000	0,005	-0,101
-203,621	-129,031	0,042	-0,004
-202,606	126,134	0,017	-0,016
-201,592	-6,422	-0,139	0,068
-200,577	-8,366	-0,063	-0,031
-199,563	-122,802	0,104	0,012
-198,548	-145,539	-0,080	-0,005
-197,533	-200,000	0,011	-0,059
-196,519	-200,000	0,045	0,200
-195,504	-17,500	0,020	0,009
-194,490	96,861	-0,147	0,121
-193,475	14,110	-0,092	-0,051
-192,460	-15,733	0,020	0,009
-191,446	-30,607	-0,048	-0,019
-190,431	13,655	-0,040	-0,022
-189,417	395,503	0,084	-0,127
-188,402	-9,794	-0,141	-0,067
-187,387	21,437	-0,073	-0,043
-186,373	273,183	0,068	-0,086
-185,358	569,543	0,045	-0,079
-184,344	-26,180	0,058	-0,025
-183,329	40,417	0,122	0,079
-182,315	176,988	-0,013	0,013
-181,300	6,951	0,123	-0,066
-180,285	-200,000	-0,034	-0,157
-179,271	74,227	-0,086	-0,065
-178,256	-23,625	-0,035	-0,015
-177,242	352,826	-0,048	0,068
-176,227	711,698	0,065	0,124
-175,212	-54,783	0,068	-0,022
-174,198	449,578	0,089	-0,141
-173,183	178,888	-0,021	-0,023
-172,169	11,992	-0,088	-0,049
-171,154	800,000	0,034	-0,089
-170,139	-200,000	-0,033	0,138
-169,125	-164,158	0,098	-0,003
-168,110	390,715	0,031	-0,046
-167,096	-68,592	-0,067	-0,019
-166,081	493,032	-0,038	0,063
-165,066	80,940	0,039	-0,030
-164,052	-200,000	0,028	0,091
-163,037	37,574	-0,045	-0,029
-162,023	-147,254	-0,112	0,007
-161,008	-112,637	0,057	0,008
-159,993	-62,886	-0,017	0,005
-158,979	-79,736	-0,091	-0,022
-157,964	-200,000	-0,051	-0,000
-156,950	598,399	-0,026	-0,046
-155,935	280,605	0,053	-0,068
-154,920	52,662	0,049	0,033
-153,906	-127,516	0,029	-0,003
-152,891	-200,000	-0,023	0,000
-151,877	315,671	0,066	0,090
-150,862	800,000	0,055	-0,155
-149,847	57,811	-0,069	0,048
-148,833	-200,000	0,021	-0,150
-147,818	683,374	0,088	0,166
-146,804	800,000	-0,045	0,120
-145,789	1,209	0,019	0,010
-144,775	800,000	0,017	-0,036
-143,760	-17,554	-0,096	0,043
-142,745	-134,464	-0,085	0,007
-141,731	246,873	-0,036	-0,044
-140,716	678,355	0,015	0,027
-139,702	364,699	0,032	0,047
-138,687	-117,771	0,026	0,003
-137,672	554,901	0,050	0,088
-136,658	106,982	0,144	-0,123
-135,643	-200,000	-0,013	-0,160
-134,629	160,528	-0,040	-0,040
-133,614	-172,133	-0,051	0,001
-132,599	-104,642	-0,034	0,006
-131,585	-35,685	-0,049	0,019
-130,570	800,000	0,044	-0,089
-129,556	800,000	0,033	-0,088
-128,541	800,000	0,062	-0,143
-127,526	-200,000	0,016	-0,060
-126,512	-45,011	0,107	-0,038
-125,497	-112,933	0,116	0,016
-124,483	-91,574	0,087	-0,018
-123,468	-200,000	-0,021	-0,078
-122,453	800,000	-0,076	-0,203
-121,439	79,336	-0,052	0,040
-120,424	-200,000	-0,019	-0,099
-119,410	255,461	0,072	-0,089
