DTS Sentinel unit serial number:	SN410029Multiplexer serial number:	ORYXHardware model number:	OX2-SRSoftware version number:	ORYX F/W v4,00 Oryx Data Collector v3.7.2.0data status	okinstallation	B5 Nyhavnadifferential loss correction	single-endedforward channel	channel 2reverse channel	N/Adate	2023/12/13time	09:22:13forward acquisition time	300,00reverse acquisition time	0,00gamma	499,1914k internal	0,3161k external	0,3161temperature offset calibration	1,0000default loss term (dB/km)	0,3820temperature slope calibration	1,0000multiplexer offset coefficient	1,0000multiplexer slope coefficient	1,0000fibre end	0,00T internal ref (°C)	13,66T ext. ref 1 (°C)	-2,72T ext. ref 2 (°C)	-3,03length (m)	temperature (°C)	Stokes	anti-Stokes-744,400	47,012	0,080	-0,055
-743,385	-4,345	-0,205	0,104
-742,371	723,706	0,015	0,029
-741,356	-157,002	-0,356	-0,016
-740,342	50,436	0,088	0,062
-739,327	-36,496	-0,324	0,128
-738,312	-87,629	0,114	0,025
-737,298	-167,947	-0,293	-0,008
-736,283	10,330	0,095	0,053
-735,269	58,845	-0,223	0,161
-734,254	42,493	0,097	0,065
-733,239	-75,639	-0,546	-0,142
-732,225	22,738	0,168	0,101
-731,210	13,838	-0,105	0,060
-730,196	79,643	-0,064	0,050
-729,181	-83,214	0,120	-0,028
-728,167	502,132	-0,021	0,036
-727,152	5,573	-0,054	-0,029
-726,137	-31,127	-0,177	-0,073
-725,123	-200,000	0,010	-0,104
-724,108	800,000	0,007	-0,018
-723,094	41,228	0,037	0,025
-722,079	-181,075	-0,072	0,001
-721,064	80,375	0,046	0,036
-720,050	49,741	-0,016	0,011
-719,035	147,687	-0,082	0,081
-718,021	21,685	0,137	-0,082
-717,006	-200,000	-0,019	0,000
-715,991	687,889	0,034	-0,066
-714,977	-200,000	-0,005	-0,045
-713,962	145,601	-0,018	-0,018
-712,948	-95,222	0,105	0,021
-711,933	-85,028	-0,023	0,005
-710,918	189,709	-0,039	-0,043
-709,904	-200,000	-0,055	-0,243
-708,889	-46,416	0,063	0,022
-707,875	-200,000	-0,008	-0,062
-706,860	800,000	0,047	0,118
-705,845	-89,712	0,109	0,023
-704,831	-200,000	-0,005	0,032
-703,816	-200,000	0,007	-0,089
-702,802	-173,971	-0,085	-0,002
-701,787	800,000	-0,099	-0,254
-700,772	-200,000	0,004	0,116
-699,758	-200,000	-0,006	-0,034
-698,743	135,356	0,147	-0,140
-697,729	800,000	0,017	0,053
-696,714	407,798	-0,025	-0,039
-695,699	-63,939	-0,080	-0,024
-694,685	-185,433	0,036	-0,000
-693,670	596,817	-0,108	-0,197
-692,656	800,000	-0,034	0,071
-691,641	-65,126	-0,107	-0,032
-690,627	800,000	0,040	0,105
-689,612	-200,000	-0,031	0,154
-688,597	512,071	-0,060	-0,104
-687,583	800,000	-0,021	-0,051
-686,568	243,206	0,004	-0,005
-685,554	346,080	0,066	0,096
-684,539	140,736	-0,043	-0,042
-683,524	189,323	-0,052	0,057
-682,510	-86,022	0,113	0,025
-681,495	-92,175	-0,065	-0,013
-680,481	39,127	-0,041	-0,027
-679,466	-130,519	-0,130	0,013
-678,451	800,000	-0,034	-0,090
-677,437	8,856	-0,060	0,033
-676,422	-94,510	0,148	0,029
-675,408	372,638	0,045	-0,067
-674,393	558,969	-0,045	-0,080
-673,378	262,922	-0,092	0,118
-672,364	800,000	-0,014	-0,038
-671,349	-200,000	0,043	-0,159
-670,335	35,499	0,111	-0,071
-669,320	-107,914	-0,123	-0,019
-668,305	-200,000	-0,004	0,049
-667,291	-116,521	-0,054	0,007
-666,276	20,208	-0,155	0,092
-665,262	-200,000	-0,041	-0,180
-664,247	800,000	-0,016	-0,041
-663,232	-32,330	-0,091	-0,037
-662,218	-133,525	0,188	-0,017
-661,203	-144,118	-0,117	-0,008
-660,189	-93,083	0,038	-0,008
-659,174	-71,579	-0,179	-0,049
-658,159	-200,000	0,033	-0,128
-657,145	547,509	0,050	-0,088
-656,130	800,000	0,013	-0,029
-655,116	-40,616	0,054	0,021
-654,101	302,786	-0,079	0,107
-653,086	-1,125	-0,077	0,040
-652,072	-8,446	0,046	0,023
-651,057	-58,858	-0,049	-0,016
-650,043	16,931	0,107	-0,062
-649,028	2,672	0,174	0,092
-648,014	231,472	0,008	-0,009
-646,999	784,202	0,040	-0,081
-645,984	267,561	-0,040	0,051
-644,970	800,000	-0,038	-0,095
-643,955	160,128	0,059	-0,061
-642,941	-147,137	0,090	0,006
-641,926	-76,827	0,121	0,031
-640,911	-176,782	0,079	-0,001
-639,897	-100,091	0,088	0,016
-638,882	556,651	0,057	0,101
-637,868	-200,000	-0,001	0,032
-636,853	-163,855	0,044	0,001
-635,838	-200,000	0,037	-0,148
-634,824	800,000	-0,038	0,086
-633,809	-137,874	0,030	-0,002
-632,795	172,502	-0,057	-0,060
-631,780	-200,000	-0,037	0,147
-630,765	-190,351	-0,092	0,001
-629,751	-200,000	0,014	-0,167
-628,736	800,000	-0,090	-0,212
-627,722	-200,000	0,000	-0,285
-626,707	25,590	-0,080	-0,049
-625,692	-49,015	0,108	0,038
-624,678	-148,527	-0,122	-0,007
-623,663	800,000	-0,023	0,053
-622,649	297,785	-0,088	-0,119
-621,634	-82,831	0,225	0,053
-620,619	800,000	0,031	0,089
-619,605	353,988	-0,027	-0,040
-618,590	262,876	0,060	0,076
-617,576	800,000	0,037	0,098
-616,561	-30,702	0,046	-0,019
-615,546	457,265	-0,034	-0,055
-614,532	-200,000	0,009	-0,074
-613,517	193,792	0,069	0,076
-612,503	200,147	0,079	0,088
-611,488	800,000	-0,044	0,097
-610,474	659,163	0,043	0,081
-609,459	-187,547	-0,060	0,001
-608,444	90,729	0,097	-0,080
-607,430	412,202	-0,087	0,136
-606,415	-200,000	-0,013	0,139
-605,401	-140,759	0,075	-0,006
-604,386	-81,445	0,141	0,034
-603,371	-45,973	0,106	-0,038
-602,357	-127,662	0,131	0,014
-601,342	-36,256	-0,060	0,024
-600,328	-9,938	-0,236	-0,115
-599,313	13,946	0,198	0,113
-598,298	-20,979	0,018	0,008
-597,284	-104,520	0,127	0,021
-596,269	-101,324	0,015	-0,003
-595,255	800,000	0,055	0,115
-594,240	-109,890	0,122	-0,019
-593,225	282,435	-0,053	-0,069
-592,211	75,644	-0,086	0,066
-591,196	-129,987	0,097	0,010
-590,182	-200,000	0,009	0,035
-589,167	800,000	0,042	0,097
-588,152	102,021	-0,060	0,051
-587,138	-192,967	-0,029	-0,000
-586,123	800,000	-0,010	-0,028
-585,109	88,270	-0,037	0,030
-584,094	113,382	-0,114	-0,102
-583,079	152,778	-0,052	-0,052
-582,065	76,930	0,124	-0,096
-581,050	-200,000	-0,002	0,032
-580,036	317,065	-0,089	-0,124
-579,021	180,757	0,054	-0,058
-578,006	-114,388	0,034	0,005
-576,992	-113,689	-0,030	-0,004
-575,977	-162,496	-0,102	0,004
-574,963	160,470	-0,035	0,036
-573,948	-200,000	0,020	-0,132
-572,934	-2,539	-0,088	0,045
-571,919	-134,515	-0,046	0,004
-570,904	539,930	-0,056	-0,098
-569,890	164,673	-0,055	-0,057
-568,875	-33,318	0,065	-0,026
-567,861	-153,560	0,036	-0,002
-566,846	-200,000	0,009	0,088
-565,831	253,573	0,027	-0,033
-564,817	-10,022	-0,069	-0,033
-563,802	255,453	-0,077	-0,097
-562,788	205,803	-0,033	0,037
-561,773	137,283	0,017	0,016
-560,758	-118,732	-0,052	0,007
-559,744	-51,065	-0,108	0,037
-558,729	800,000	0,044	-0,090
-557,715	26,510	-0,138	-0,084
-556,700	289,434	0,073	-0,097
-555,685	-156,992	-0,062	-0,003
-554,671	189,516	-0,035	-0,038
-553,656	246,148	0,092	-0,114
-552,642	-200,000	-0,031	0,203
-551,627	138,435	0,021	0,020
-550,612	-26,584	0,101	-0,043
-549,598	-200,000	-0,024	-0,079
-548,583	-12,456	-0,152	-0,072
-547,569	367,544	-0,024	0,036
-546,554	-54,791	0,061	0,020
-545,539	-150,130	0,086	-0,005
-544,525	-74,996	0,071	-0,019
-543,510	-200,000	-0,001	0,012
-542,496	-200,000	-0,025	-0,115
-541,481	-200,000	0,018	-0,129
-540,466	-200,000	0,009	0,045
-539,452	-82,972	-0,143	0,033
-538,437	-200,000	0,024	-0,085
-537,423	-23,833	0,069	0,030
-536,408	-200,000	0,001	0,117
-535,393	-63,598	-0,122	0,036
-534,379	800,000	0,008	0,022
-533,364	-83,646	0,042	-0,010
-532,350	350,129	0,065	-0,095
-531,335	-156,615	0,113	-0,005
-530,321	121,358	-0,031	-0,028
-529,306	612,798	-0,032	0,059
-528,291	-200,000	0,014	-0,060
-527,277	-200,000	0,034	-0,145
-526,262	-147,402	-0,083	-0,005
-525,248	102,969	0,058	-0,050
-524,233	278,914	0,085	0,111
-523,218	-200,000	0,003	-0,031
-522,204	352,274	0,096	0,140
-521,189	475,661	-0,080	-0,132
-520,175	92,580	-0,083	-0,068
-519,160	18,625	0,091	-0,053
-518,145	-52,702	-0,113	-0,038
-517,131	-154,820	0,090	0,004
-516,116	-50,743	0,101	-0,035
-515,102	194,327	-0,090	-0,099
-514,087	31,236	-0,036	-0,022
-513,072	800,000	-0,070	-0,179
-512,058	306,841	-0,030	-0,040
-511,043	117,601	-0,091	0,082
-510,029	86,261	0,069	-0,056
-509,014	-200,000	-0,013	-0,052
-507,999	-200,000	-0,017	0,096
-506,985	-200,000	-0,009	0,061
-505,970	-30,711	-0,059	-0,024
-504,956	153,933	-0,066	-0,066
-503,941	369,608	-0,080	0,119
-502,926	184,972	-0,111	0,120
-501,912	508,236	0,109	0,185
-500,897	-41,035	0,105	0,039
-499,883	242,747	0,020	0,024
-498,868	292,295	-0,028	0,037
-497,853	507,102	0,049	0,084
-496,839	-91,115	0,089	0,018
-495,824	-59,093	-0,022	0,007
-494,810	-4,776	0,078	0,039
-493,795	165,622	-0,112	-0,115
-492,781	494,259	-0,057	-0,096
-491,766	-200,000	-0,020	0,066
-490,751	343,383	0,060	0,086
-489,737	-131,249	0,050	0,005
-488,722	-200,000	0,003	-0,033
-487,708	402,483	0,061	-0,094
-486,693	-46,075	0,021	-0,007
-485,678	-200,000	-0,014	0,112
-484,664	499,922	-0,069	-0,117
-483,649	-105,680	-0,035	0,006
-482,635	90,536	-0,035	0,028
-481,620	-200,000	-0,005	-0,144
-480,605	-200,000	-0,009	0,040
-479,591	-200,000	-0,019	-0,127
-478,576	138,489	0,023	-0,022
-477,562	-115,822	-0,060	0,008
-476,547	-118,949	-0,111	0,014
-475,532	-200,000	0,021	-0,076
-474,518	800,000	0,023	0,059
-473,503	88,613	0,066	0,053
-472,489	-200,000	0,010	0,052
-471,474	-80,544	-0,073	-0,018
-470,459	-48,013	-0,035	-0,012
-469,445	-200,000	0,006	-0,142
-468,430	259,386	-0,030	-0,038
-467,416	40,972	-0,020	0,013
-466,401	800,000	-0,036	-0,097
-465,386	164,002	-0,016	0,017
-464,372	136,067	0,079	0,075
-463,357	-77,977	-0,157	-0,039
-462,343	-200,000	0,007	-0,053
-461,328	800,000	-0,017	0,037
-460,313	-79,968	-0,105	-0,025
-459,299	800,000	-0,052	0,107
-458,284	-200,000	-0,008	0,135
-457,270	-92,252	-0,037	0,008
-456,255	31,046	0,115	-0,072
-455,241	-157,394	-0,126	0,005
-454,226	46,302	-0,039	-0,026
-453,211	-200,000	-0,040	-0,198
-452,197	-139,673	0,079	0,006
-451,182	800,000	0,057	0,123
-450,168	800,000	0,019	-0,041
-449,153	437,402	-0,023	-0,037
-448,138	-135,515	-0,032	-0,003
-447,124	-17,618	0,113	-0,051
-446,109	800,000	-0,048	-0,099
-445,095	508,466	-0,033	0,056
-444,080	-200,000	0,020	0,066
-443,065	230,073	0,014	-0,017
-442,051	-92,571	0,073	-0,015
-441,036	800,000	-0,054	-0,147
-440,022	-200,000	0,014	0,074
-439,007	-200,000	-0,010	0,067
-437,992	-200,000	-0,000	0,002
-436,978	800,000	-0,026	-0,070
-435,963	581,488	-0,015	0,028
-434,949	-200,000	-0,009	0,091
-433,934	16,657	-0,054	0,031
-432,919	-56,213	-0,153	0,049
-431,905	48,674	0,078	0,053
-430,890	116,182	0,020	-0,018
-429,876	-43,931	0,021	0,008
-428,861	107,228	-0,052	-0,045
-427,846	-103,602	0,021	-0,004
-426,832	-200,000	0,010	0,045
-425,817	486,098	-0,053	0,088
-424,803	-200,000	-0,006	-0,077
-423,788	800,000	-0,016	0,048
-422,773	-200,000	0,025	0,116
-421,759	800,000	0,062	0,149
-420,744	-109,271	-0,089	0,014
-419,730	-122,519	0,025	-0,003
-418,715	800,000	-0,019	0,056
-417,701	800,000	0,010	0,026
-416,686	-200,000	-0,002	-0,074
-415,671	-200,000	-0,013	-0,047
-414,657	-7,197	0,126	0,062
-413,642	-113,614	0,155	-0,022
-412,628	-200,000	0,010	-0,095
-411,613	-73,495	-0,074	-0,019
-410,598	275,718	0,050	-0,064
-409,584	-115,282	-0,073	-0,010
-408,569	-13,069	-0,031	0,015
-407,555	88,345	0,107	-0,087
-406,540	75,298	0,032	0,024
-405,525	9,893	-0,046	0,025
-404,511	-200,000	-0,013	-0,185
-403,496	-200,000	-0,003	-0,155
-402,482	-200,000	-0,004	0,079
-401,467	800,000	0,012	0,030
-400,452	699,851	-0,049	0,095
-399,438	142,878	0,064	0,061
-398,423	800,000	0,036	-0,106
-397,409	-68,768	-0,162	0,045
-396,394	70,567	-0,073	-0,054
-395,379	263,825	0,063	-0,080
-394,365	-198,961	0,104	-0,000
-393,350	800,000	0,019	0,040
-392,336	288,435	-0,066	0,088
-391,321	-200,000	0,004	-0,057
-390,306	327,672	-0,093	0,129
-389,292	-118,859	-0,084	0,011
-388,277	42,491	-0,033	0,022
-387,263	800,000	-0,009	0,024
-386,248	-4,274	0,046	0,023
-385,233	178,340	0,048	0,051
-384,219	44,804	-0,052	-0,035
-383,204	726,929	-0,077	-0,149
-382,190	27,856	-0,034	-0,021
-381,175	489,935	0,042	0,071
-380,160	-114,475	0,134	0,018
-379,146	-12,417	-0,011	0,005
-378,131	800,000	-0,063	0,171
-377,117	129,026	0,048	0,045
-376,102	790,698	-0,048	-0,097
-375,088	-51,776	0,083	0,028
-374,073	21,272	-0,020	0,012
-373,058	-200,000	-0,059	0,285
-372,044	800,000	-0,059	0,152
-371,029	-165,915	0,062	0,002
-370,015	800,000	-0,030	-0,067
-369,000	-28,153	0,073	-0,031
-367,985	69,510	-0,102	-0,077
-366,971	800,000	-0,019	-0,047
-365,956	-31,894	0,133	-0,054
-364,942	-146,806	0,097	-0,006
-363,927	800,000	0,050	0,105
-362,912	147,070	0,054	0,053
-361,898	543,212	-0,018	-0,031
-360,883	-87,601	-0,081	0,018
-359,869	800,000	-0,049	-0,101
-358,854	800,000	0,052	-0,127
-357,839	800,000	0,008	-0,018
-356,825	-200,000	-0,018	-0,074
-355,810	-90,626	-0,088	0,018
-354,796	800,000	0,028	0,061
-353,781	-80,951	0,158	-0,038
-352,766	-34,127	-0,063	-0,025
-351,752	101,625	0,019	0,016
-350,737	352,794	0,077	-0,112
-349,723	-200,000	0,000	-0,020
-348,708	800,000	-0,054	0,127
-347,693	49,587	0,065	0,044
-346,679	-200,000	0,019	-0,104
-345,664	-200,000	0,026	-0,154
-344,650	345,540	-0,102	0,146
-343,635	800,000	0,016	0,039
-342,620	-200,000	0,003	0,052
-341,606	89,945	0,068	0,055
-340,591	81,820	-0,140	0,110
-339,577	-0,251	0,177	-0,091
-338,562	72,813	-0,076	-0,057
-337,548	-200,000	-0,013	-0,144
-336,533	315,952	-0,050	-0,069
-335,518	800,000	0,014	0,040
-334,504	-200,000	-0,007	0,027
-333,489	56,982	0,062	-0,043
-332,475	800,000	-0,032	-0,101
-331,460	67,268	-0,045	0,034
-330,445	-200,000	-0,002	0,071
-329,431	270,260	0,041	-0,052
-328,416	-83,202	-0,137	0,032
-327,402	397,237	-0,077	0,118
-326,387	54,099	0,031	-0,022
-325,372	-200,000	-0,009	0,095
-324,358	-200,000	-0,015	0,143
-323,343	175,476	-0,055	0,058
-322,329	134,194	-0,084	0,079
-321,314	121,758	-0,041	0,037
-320,299	-153,194	-0,110	0,005
-319,285	-139,190	0,029	-0,002
-318,270	-85,975	-0,010	-0,002
-317,256	192,348	0,042	-0,046
-316,241	1,296	-0,058	-0,030
-315,226	-22,979	0,038	-0,017
-314,212	428,920	-0,019	0,030
-313,197	-112,345	0,221	0,032
-312,183	-81,605	0,079	0,019
-311,168	74,240	-0,059	0,045
-310,153	800,000	-0,093	0,248
-309,139	-128,321	0,025	0,003
-308,124	-26,112	0,161	-0,068
-307,110	43,313	-0,069	-0,045
-306,095	46,511	0,084	-0,057
-305,080	61,356	0,021	0,015
-304,066	800,000	0,041	-0,091
-303,051	800,000	0,030	-0,069
-302,037	488,937	-0,054	0,089
-301,022	-20,638	-0,076	0,034
-300,008	-35,525	0,055	0,021
-298,993	-54,820	-0,086	0,028
-297,978	800,000	-0,007	-0,017
-296,964	-24,144	-0,110	0,047
-295,949	145,324	-0,005	-0,004
-294,935	-200,000	0,014	-0,055
-293,920	-52,077	-0,020	-0,007
-292,905	-145,685	0,074	-0,005
-291,891	-5,823	-0,055	0,027
-290,876	-200,000	0,017	0,061
-289,862	184,067	-0,045	0,048
-288,847	679,175	-0,088	-0,167
-287,832	-200,000	0,005	0,023
-286,818	272,054	0,029	-0,037
-285,803	165,375	0,029	0,030
-284,789	101,201	0,025	0,021
-283,774	-39,564	0,199	0,075
-282,759	-82,446	-0,037	0,009
-281,745	-200,000	-0,007	-0,087
-280,730	204,900	-0,094	-0,105
-279,716	-67,543	-0,065	-0,018
-278,701	-17,315	0,035	0,016
-277,686	564,773	-0,061	-0,108
-276,672	-109,686	0,064	-0,010
-275,657	636,989	0,013	0,023
-274,643	-89,824	-0,170	0,036
-273,628	-200,000	-0,021	-0,132
-272,613	-200,000	0,032	-0,118
-271,599	800,000	0,061	0,169
-270,584	677,761	0,079	0,149
-269,570	407,574	0,060	0,093
-268,555	474,895	-0,049	0,080
-267,540	-200,000	-0,003	0,104
-266,526	636,683	-0,052	-0,095
-265,511	-139,477	-0,060	-0,005
-264,497	800,000	0,053	-0,168
-263,482	123,661	-0,034	0,031
-262,467	-200,000	0,020	0,076
-261,453	-135,270	0,155	-0,013
-260,438	0,609	-0,124	-0,064
-259,424	-1,624	0,071	0,036
-258,409	507,254	-0,050	-0,085
-257,395	59,432	0,053	0,037
-256,380	-19,819	-0,100	-0,045
-255,365	219,463	0,133	0,154
-254,351	-200,000	0,042	0,170
-253,336	800,000	0,028	0,065
-252,322	155,496	0,036	0,036
-251,307	21,354	-0,072	0,042
-250,292	42,352	0,037	-0,024
-249,278	-4,907	0,084	0,042
-248,263	-56,586	-0,091	0,029
-247,249	-200,000	-0,013	-0,167
-246,234	800,000	0,056	-0,115
-245,219	-103,465	0,027	0,005
-244,205	-140,913	-0,119	-0,009
-243,190	-99,855	0,087	-0,015
-242,176	181,267	0,056	-0,060
-241,161	-200,000	0,007	0,058
-240,146	318,115	-0,037	-0,050
-239,132	-200,000	-0,001	0,069
-238,117	-200,000	-0,002	0,089
-237,103	800,000	0,049	-0,121
-236,088	-200,000	-0,014	0,066
-235,073	109,658	-0,106	-0,092
-234,059	-200,000	-0,010	0,082
-233,044	-49,800	-0,089	0,031
-232,030	177,896	-0,066	0,070
-231,015	168,191	0,034	-0,035
-230,000	52,370	-0,062	0,043
-228,986	216,983	0,086	0,099
-227,971	54,269	0,036	0,025
-226,957	-200,000	0,029	0,105
-225,942	-14,417	0,040	-0,018
-224,927	-157,262	0,099	-0,004
-223,913	26,752	0,028	-0,017
-222,898	166,310	-0,046	0,047
-221,884	237,240	0,101	0,120
-220,869	-4,621	-0,108	-0,053
-219,855	187,625	0,058	-0,062
-218,840	800,000	0,033	-0,083
-217,825	800,000	0,042	0,125
-216,811	203,685	0,048	-0,054
-215,796	-2,155	-0,090	-0,046
-214,782	-71,915	0,085	0,023
-213,767	334,971	-0,075	0,106
-212,752	-63,890	0,196	0,057
-211,738	800,000	-0,040	-0,106
-210,723	800,000	0,031	0,062
-209,709	-30,259	0,112	-0,046
-208,694	112,503	-0,079	-0,069
-207,679	15,697	-0,055	-0,031
-206,665	471,514	0,087	-0,142
-205,650	800,000	-0,022	-0,057
-204,636	-85,462	-0,082	-0,018
-203,621	-200,000	0,007	-0,052
-202,606	211,587	0,078	-0,089
-201,592	-200,000	-0,014	-0,200
-200,577	379,321	-0,050	-0,074
-199,563	14,638	-0,077	-0,043
-198,548	-200,000	0,014	0,066
-197,533	-109,421	-0,066	-0,010
-196,519	-157,238	-0,117	-0,005
-195,504	128,112	-0,037	-0,034
-194,490	181,975	0,026	0,028
-193,475	93,410	-0,022	-0,018
-192,460	417,878	0,077	-0,119
-191,446	-200,000	-0,023	0,124
-190,431	-43,938	-0,031	0,011
-189,417	-127,047	0,127	-0,013
-188,402	-200,000	-0,000	0,113
-187,387	-55,903	-0,117	-0,037
-186,373	-47,505	-0,044	0,015
-185,358	-81,675	0,172	0,040
-184,344	-200,000	-0,004	0,083
-183,329	-200,000	-0,033	0,152
-182,315	-200,000	-0,015	-0,057
-181,300	-200,000	0,019	0,095
-180,285	618,233	-0,106	-0,192
-179,271	713,237	-0,022	-0,042
-178,256	800,000	0,026	-0,076
-177,242	41,486	0,095	0,062
-176,227	800,000	0,011	0,025
-175,212	-123,356	0,151	0,017
-174,198	-200,000	0,004	0,058
-173,183	74,031	-0,038	-0,028
-172,169	-200,000	-0,012	-0,056
-171,154	104,015	-0,082	0,069
-170,139	-69,880	-0,094	0,026
-169,125	173,832	0,102	0,106
-168,110	-43,816	-0,090	-0,033
-167,096	41,680	0,024	-0,016
-166,081	800,000	0,039	0,099
-165,066	-129,125	-0,148	0,015
-164,052	180,641	-0,020	-0,021
-163,037	-69,559	0,072	0,020
-162,023	800,000	0,087	0,181
-161,008	300,353	-0,033	0,044
-159,993	-55,826	0,122	0,039
-158,979	41,949	-0,040	-0,026
-157,964	330,276	-0,074	-0,102
-156,950	800,000	0,018	-0,039
-155,935	420,389	-0,060	0,092
-154,920	472,771	0,039	-0,064
-153,906	152,646	-0,142	0,140
-152,891	-71,899	0,029	0,008
-151,877	430,573	-0,034	-0,053
-150,862	-93,773	-0,111	0,022
-149,847	-126,903	0,106	-0,011
-148,833	32,125	-0,075	0,046
-147,818	-200,000	0,010	0,044
-146,804	-200,000	-0,107	-0,000
-145,789	-4,173	0,064	0,032
-144,775	800,000	-0,029	0,060
-143,760	-133,372	0,194	-0,017
-142,745	-22,467	0,078	-0,034
-141,731	-185,883	0,045	-0,000
-140,716	84,840	-0,046	-0,036
-139,702	800,000	-0,017	-0,045
-138,687	-93,170	0,106	0,021
-137,672	-200,000	0,022	0,070
-136,658	-200,000	-0,017	-0,135
-135,643	-70,599	0,093	-0,025
-134,629	41,432	-0,039	-0,025
-133,614	-200,000	0,016	0,111
-132,599	29,565	-0,039	-0,024
-131,585	313,974	0,047	-0,064
-130,570	800,000	0,026	0,069
-129,556	130,957	-0,037	0,034
-128,541	32,292	-0,051	-0,032
-127,526	-200,000	0,008	0,028
-126,512	-200,000	0,011	-0,171
-125,497	107,897	0,009	-0,008
-124,483	132,408	-0,062	0,057
-123,468	263,179	-0,058	-0,073
-122,453	552,005	0,048	-0,083
-121,439	-167,416	-0,075	0,002
-120,424	-200,000	-0,024	-0,098
-119,410	293,345	0,065	0,085
