DTS Sentinel unit serial number:	SN410029Multiplexer serial number:	ORYXHardware model number:	OX2-SRSoftware version number:	ORYX F/W v4,00 Oryx Data Collector v3.7.2.0data status	okinstallation	B5 Nyhavnadifferential loss correction	single-endedforward channel	channel 2reverse channel	N/Adate	2023/12/13time	03:52:13forward acquisition time	300,00reverse acquisition time	0,00gamma	499,1914k internal	0,3159k external	0,3159temperature offset calibration	1,0000default loss term (dB/km)	0,3820temperature slope calibration	1,0000multiplexer offset coefficient	1,0000multiplexer slope coefficient	1,0000fibre end	0,00T internal ref (°C)	13,94T ext. ref 1 (°C)	-2,46T ext. ref 2 (°C)	-2,78length (m)	temperature (°C)	Stokes	anti-Stokes-744,400	58,489	0,175	0,126
-743,385	-117,809	-0,331	-0,043
-742,371	-200,000	-0,015	0,084
-741,356	188,676	-0,159	0,175
-740,342	-42,811	0,208	0,078
-739,327	-141,066	-0,319	0,024
-738,312	-78,625	0,071	0,018
-737,298	-158,777	-0,271	0,011
-736,283	-164,522	-0,090	0,003
-735,269	5,442	-0,243	0,132
-734,254	-200,000	0,002	0,016
-733,239	-12,302	-0,378	-0,182
-732,225	146,023	0,086	0,085
-731,210	800,000	0,057	0,151
-730,196	-200,000	-0,007	-0,046
-729,181	800,000	0,023	-0,068
-728,167	-200,000	-0,002	-0,188
-727,152	800,000	-0,047	-0,126
-726,137	-200,000	-0,059	-0,252
-725,123	467,042	0,038	0,062
-724,108	-200,000	0,012	-0,116
-723,094	26,066	-0,086	-0,053
-722,079	800,000	-0,051	-0,117
-721,064	800,000	0,036	-0,076
-720,050	97,724	0,035	-0,030
-719,035	-20,323	0,088	0,040
-718,021	-165,741	-0,155	-0,005
-717,006	800,000	-0,026	0,055
-715,991	-110,579	-0,130	0,020
-714,977	565,678	0,013	-0,023
-713,962	-200,000	-0,023	-0,087
-712,948	800,000	-0,020	-0,043
-711,933	206,893	-0,096	0,110
-710,918	-137,071	0,024	-0,002
-709,904	402,455	0,056	-0,087
-708,889	-200,000	-0,049	-0,196
-707,875	-200,000	-0,016	-0,084
-706,860	-200,000	-0,009	0,110
-705,845	-200,000	0,001	0,018
-704,831	-73,950	-0,091	-0,024
-703,816	-89,769	0,029	-0,006
-702,802	-119,932	0,076	-0,010
-701,787	30,046	0,013	0,008
-700,772	-70,614	-0,169	-0,047
-699,758	-153,145	-0,067	0,003
-698,743	189,394	0,089	0,099
-697,729	800,000	-0,033	0,078
-696,714	64,493	-0,049	-0,036
-695,699	488,198	-0,022	-0,037
-694,685	97,063	-0,049	-0,041
-693,670	77,789	-0,091	0,071
-692,656	800,000	0,035	0,108
-691,641	121,958	0,079	0,073
-690,627	800,000	0,043	0,114
-689,612	74,023	0,072	0,056
-688,597	-17,153	-0,177	-0,082
-687,583	257,694	-0,121	-0,153
-686,568	-200,000	0,004	-0,052
-685,554	59,804	-0,131	-0,095
-684,539	266,703	0,108	0,139
-683,524	-102,231	-0,122	0,021
-682,510	-137,945	0,059	-0,005
-681,495	162,653	0,063	0,065
-680,481	278,620	0,070	-0,093
-679,466	87,389	-0,009	0,008
-678,451	800,000	-0,007	0,017
-677,437	-118,727	0,120	-0,015
-676,422	-157,201	0,092	-0,004
-675,408	800,000	0,039	0,107
-674,393	76,829	-0,056	-0,043
-673,378	53,144	-0,042	-0,030
-672,364	365,065	0,087	-0,129
-671,349	538,407	-0,044	-0,076
-670,335	156,000	-0,067	0,067
-669,320	46,994	0,116	-0,079
-668,305	127,973	0,093	-0,087
-667,291	276,164	-0,110	0,143
-666,276	15,061	-0,140	-0,080
-665,262	131,327	-0,212	-0,200
-664,247	800,000	0,058	-0,175
-663,232	516,362	-0,013	-0,022
-662,218	397,588	-0,041	-0,063
-661,203	800,000	-0,043	0,102
-660,189	-32,336	-0,092	-0,037
-659,174	53,823	0,122	0,086
-658,159	-44,438	-0,009	0,003
-657,145	-82,657	-0,169	0,040
-656,130	147,521	0,047	-0,046
-655,116	306,953	0,014	0,019
-654,101	-200,000	-0,007	-0,030
-653,086	280,889	0,096	0,126
-652,072	619,161	-0,068	0,126
-651,057	-200,000	0,013	-0,045
-650,043	-130,432	0,113	-0,011
-649,028	-200,000	0,019	0,135
-648,014	38,338	0,115	-0,075
-646,999	310,062	0,063	0,087
-645,984	800,000	0,021	0,043
-644,970	-200,000	-0,014	-0,123
-643,955	147,057	-0,089	-0,088
-642,941	-200,000	-0,012	0,042
-641,926	-67,272	0,135	-0,039
-640,911	-200,000	-0,010	-0,062
-639,897	-108,204	-0,077	0,012
-638,882	152,077	-0,075	-0,075
-637,868	800,000	-0,016	0,034
-636,853	-54,789	0,004	-0,001
-635,838	-200,000	-0,002	-0,075
-634,824	-2,149	-0,097	0,050
-633,809	49,676	0,057	-0,040
-632,795	-80,146	0,041	0,010
-631,780	-112,975	-0,044	-0,006
-630,765	-109,554	-0,089	0,014
-629,751	-200,000	0,028	-0,115
-628,736	-200,000	-0,011	-0,177
-627,722	-78,744	-0,121	-0,030
-626,707	-200,000	0,001	0,009
-625,692	-200,000	-0,004	0,161
-624,678	-80,915	-0,029	0,007
-623,663	-200,000	-0,031	-0,107
-622,649	524,520	-0,038	-0,066
-621,634	-134,953	-0,142	0,012
-620,619	34,045	-0,031	0,020
-619,605	-147,656	0,042	0,003
-618,590	-200,000	0,003	-0,113
-617,576	-200,000	0,008	0,125
-616,561	800,000	-0,035	-0,082
-615,546	-171,785	0,061	-0,001
-614,532	319,972	0,090	-0,126
-613,517	699,720	-0,054	-0,105
-612,503	-122,051	0,107	-0,013
-611,488	13,809	0,076	0,043
-610,474	-102,849	0,159	-0,027
-609,459	2,798	-0,072	0,038
-608,444	-60,580	0,086	0,026
-607,430	500,103	-0,038	-0,064
-606,415	-200,000	-0,016	0,059
-605,401	-200,000	0,031	-0,138
-604,386	297,607	0,056	0,075
-603,371	124,954	-0,009	0,008
-602,357	81,099	0,059	-0,046
-601,342	-200,000	-0,002	-0,013
-600,328	-200,000	0,013	0,075
-599,313	-134,746	-0,103	0,009
-598,298	-31,576	-0,068	0,028
-597,284	-56,701	0,090	0,029
-596,269	-18,377	-0,034	0,016
-595,255	-59,761	-0,031	-0,010
-594,240	164,712	-0,060	-0,062
-593,225	-143,669	-0,165	0,011
-592,211	121,071	0,025	0,022
-591,196	-200,000	-0,027	0,117
-590,182	536,256	0,048	0,084
-589,167	171,755	-0,054	0,057
-588,152	57,194	0,071	0,050
-587,138	13,312	-0,060	-0,034
-586,123	-200,000	-0,004	0,023
-585,109	-7,842	0,098	0,048
-584,094	-200,000	0,004	-0,103
-583,079	326,033	-0,075	0,106
-582,065	-145,981	0,081	-0,005
-581,050	-184,703	-0,158	0,002
-580,036	74,554	0,044	-0,034
-579,021	263,986	-0,109	-0,139
-578,006	-141,154	-0,143	0,011
-576,992	800,000	-0,019	0,044
-575,977	757,343	0,033	0,065
-574,963	256,063	-0,085	0,108
-573,948	53,478	0,018	0,012
-572,934	-90,470	-0,148	0,031
-571,919	46,235	-0,118	-0,080
-570,904	-143,276	0,087	0,006
-569,890	131,968	0,032	0,030
-568,875	-34,729	0,096	0,038
-567,861	-200,000	0,002	0,029
-566,846	-95,451	0,107	0,021
-565,831	800,000	0,007	0,017
-564,817	-48,919	0,094	-0,033
-563,802	-200,000	0,011	-0,047
-562,788	295,331	-0,064	0,085
-561,773	-200,000	0,003	0,039
-560,758	10,195	0,056	0,031
-559,744	800,000	0,012	0,026
-558,729	30,278	0,100	0,062
-557,715	243,919	0,032	-0,039
-556,700	235,453	-0,117	-0,142
-555,685	330,799	-0,029	-0,041
-554,671	-12,587	-0,074	0,035
-553,656	325,945	0,025	0,034
-552,642	-114,054	-0,114	0,016
-551,627	800,000	0,039	0,100
-550,612	-37,961	-0,116	0,045
-549,598	800,000	-0,037	-0,092
-548,583	-200,000	-0,028	-0,110
-547,569	10,059	-0,073	-0,040
-546,554	208,061	0,019	0,022
-545,539	-140,431	0,079	-0,006
-544,525	-107,449	-0,091	-0,015
-543,510	800,000	-0,084	-0,190
-542,496	800,000	0,032	-0,070
-541,481	-200,000	-0,026	-0,134
-540,466	-200,000	-0,016	0,084
-539,452	168,317	-0,073	-0,076
-538,437	800,000	0,074	-0,183
-537,423	-200,000	0,026	0,089
-536,408	-200,000	0,022	-0,111
-535,393	-200,000	-0,017	0,108
-534,379	74,353	-0,013	-0,010
-533,364	-200,000	0,006	0,073
-532,350	263,028	0,068	0,086
-531,335	800,000	-0,017	0,041
-530,321	5,820	-0,022	0,012
-529,306	21,486	0,078	-0,046
-528,291	180,699	-0,072	-0,077
-527,277	-200,000	-0,003	-0,018
-526,262	-200,000	-0,008	-0,112
-525,248	-106,641	0,190	0,031
-524,233	38,239	0,115	0,074
-523,218	199,956	0,119	-0,133
-522,204	-145,037	0,121	0,008
-521,189	-21,600	-0,035	0,016
-520,175	30,752	-0,102	-0,064
-519,160	75,741	-0,047	0,036
-518,145	46,563	0,066	0,045
-517,131	-134,733	0,157	-0,014
-516,116	97,098	0,061	-0,051
-515,102	-25,863	0,163	-0,070
-514,087	-85,102	-0,178	-0,040
-513,072	-200,000	0,015	-0,056
-512,058	364,021	0,071	-0,105
-511,043	-200,000	0,014	0,090
-510,029	-46,947	0,143	-0,051
-509,014	-200,000	0,015	-0,061
-507,999	-27,918	-0,102	0,043
-506,985	-189,257	-0,060	-0,001
-505,970	800,000	-0,040	0,094
-504,956	-200,000	0,011	-0,044
-503,941	-59,795	-0,151	-0,047
-502,926	8,115	0,159	0,087
-501,912	-93,056	0,064	0,013
-500,897	-200,000	-0,005	-0,164
-499,883	-28,854	0,045	-0,019
-498,868	800,000	-0,023	-0,056
-497,853	756,591	-0,036	-0,071
-496,839	-88,331	0,083	-0,018
-495,824	657,286	0,057	0,107
-494,810	115,575	0,104	0,093
-493,795	58,097	0,077	0,055
-492,781	-86,919	-0,069	0,015
-491,766	-12,622	-0,139	-0,066
-490,751	-200,000	0,002	-0,021
-489,737	23,483	0,014	0,008
-488,722	256,143	0,064	-0,080
-487,708	-99,945	-0,036	-0,007
-486,693	-200,000	0,012	-0,120
-485,678	79,903	0,100	0,078
-484,664	6,353	-0,195	-0,105
-483,649	800,000	-0,023	-0,067
-482,635	-200,000	-0,007	-0,023
-481,620	-34,229	-0,089	-0,036
-480,605	71,850	0,047	-0,035
-479,591	654,307	0,028	0,052
-478,576	657,821	0,019	0,036
-477,562	413,011	0,051	-0,079
-476,547	-200,000	0,009	-0,079
-475,532	-27,372	0,161	0,068
-474,518	-169,020	-0,039	-0,001
-473,503	-200,000	-0,001	0,024
-472,489	-200,000	0,023	-0,109
-471,474	147,499	0,056	0,055
-470,459	-200,000	0,011	-0,064
-469,445	-24,872	0,117	0,050
-468,430	-131,520	0,133	-0,013
-467,416	-38,091	0,090	0,035
-466,401	296,637	0,053	0,071
-465,386	168,560	-0,091	-0,094
-464,372	153,198	0,095	-0,095
-463,357	-177,456	0,076	-0,001
-462,343	-200,000	0,050	-0,194
-461,328	-200,000	-0,007	-0,055
-460,313	514,666	0,045	0,076
-459,299	789,816	-0,063	-0,127
-458,284	-200,000	-0,018	0,169
-457,270	-106,803	-0,104	-0,017
-456,255	-200,000	0,016	-0,070
-455,241	-167,737	-0,097	-0,003
-454,226	-27,381	-0,064	0,027
-453,211	238,236	-0,033	0,040
-452,197	282,330	-0,033	0,044
-451,182	-102,354	-0,087	-0,015
-450,168	645,155	0,036	-0,067
-449,153	214,309	0,037	-0,042
-448,138	-200,000	-0,018	0,074
-447,124	-93,766	-0,035	-0,007
-446,109	-200,000	0,072	0,000
-445,095	429,389	0,077	0,121
-444,080	548,314	0,061	0,107
-443,065	-116,800	0,082	-0,011
-442,051	-153,326	0,032	-0,002
-441,036	56,261	-0,165	-0,117
-440,022	-62,503	-0,184	-0,055
-439,007	-35,511	-0,033	0,013
-437,992	-200,000	-0,006	0,084
-436,978	-200,000	-0,011	-0,129
-435,963	-187,237	-0,048	0,000
-434,949	-200,000	0,002	0,078
-433,934	-193,277	-0,064	-0,000
-432,919	304,545	-0,151	-0,205
-431,905	-200,000	-0,003	-0,101
-430,890	-130,217	0,052	-0,005
-429,876	-200,000	0,009	0,053
-428,861	526,621	0,035	0,060
-427,846	9,885	0,057	0,032
-426,832	423,020	0,037	-0,058
-425,817	-76,723	0,020	-0,005
-424,803	23,946	0,164	-0,098
-423,788	585,863	-0,051	-0,091
-422,773	-44,869	0,118	-0,043
-421,759	30,835	0,108	0,067
-420,744	154,155	-0,050	0,050
-419,730	-200,000	-0,005	-0,031
-418,715	-200,000	-0,044	-0,146
-417,701	-200,000	0,013	-0,080
-416,686	-200,000	-0,016	-0,073
-415,671	800,000	-0,051	0,113
-414,657	-116,065	0,108	0,014
-413,642	-67,060	0,065	-0,019
-412,628	67,609	0,163	-0,121
-411,613	48,826	-0,167	-0,114
-410,598	409,697	0,026	0,040
-409,584	800,000	0,008	0,016
-408,569	208,952	0,134	0,153
-407,555	448,355	0,070	-0,113
-406,540	-143,723	0,058	0,004
-405,525	-75,997	-0,019	0,005
-404,511	26,671	-0,087	0,053
-403,496	-67,589	0,099	0,028
-402,482	-200,000	0,007	-0,067
-401,467	58,282	0,099	0,070
-400,452	-77,833	-0,067	-0,017
-399,438	-140,794	-0,157	0,012
-398,423	-200,000	0,005	0,071
-397,409	-143,985	-0,206	0,014
-396,394	-41,785	-0,072	-0,027
-395,379	-200,000	0,019	-0,068
-394,365	-200,000	-0,034	0,201
-393,350	133,970	-0,097	0,091
-392,336	479,939	0,056	0,092
-391,321	-200,000	-0,014	-0,076
-390,306	119,244	0,066	-0,059
-389,292	-14,300	-0,092	0,043
-388,277	61,205	-0,083	0,060
-387,263	0,237	-0,029	-0,015
-386,248	103,250	0,179	0,153
-385,233	162,816	0,133	0,136
-384,219	-22,587	-0,085	-0,037
-383,204	169,013	-0,028	0,029
-382,190	288,912	-0,087	0,115
-381,175	-83,206	0,166	-0,038
-380,160	-38,917	-0,004	0,002
-379,146	-200,000	-0,020	0,114
-378,131	-200,000	0,013	0,211
-377,117	-56,348	0,090	-0,029
-376,102	629,694	-0,049	0,091
-375,088	39,452	-0,061	-0,039
-374,073	800,000	-0,038	0,098
-373,058	95,683	0,083	0,069
-372,044	-200,000	-0,009	0,041
-371,029	373,052	0,022	0,033
-370,015	800,000	-0,029	-0,087
-369,000	374,001	-0,062	-0,092
-367,985	237,569	0,010	-0,012
-366,971	-172,592	0,080	-0,002
-365,956	-53,890	-0,077	-0,025
-364,942	-151,344	0,110	0,006
-363,927	369,847	0,010	-0,015
-362,912	649,466	-0,057	0,106
-361,898	17,853	-0,055	-0,031
-360,883	-22,932	-0,101	-0,044
-359,869	16,682	-0,122	0,070
-358,854	-178,283	0,076	-0,001
-357,839	-42,577	0,094	0,035
-356,825	-102,150	0,125	-0,022
-355,810	-200,000	-0,001	0,014
-354,796	-102,678	-0,094	-0,016
-353,781	-200,000	-0,015	-0,120
-352,766	59,146	0,139	-0,099
-351,752	800,000	0,092	-0,187
-350,737	800,000	0,053	-0,125
-349,723	338,341	0,073	0,104
-348,708	-28,223	-0,063	-0,026
-347,693	83,639	-0,093	-0,074
-346,679	-6,862	0,037	0,018
-345,664	247,276	-0,067	-0,082
-344,650	71,043	-0,139	0,104
-343,635	-98,523	0,188	-0,035
-342,620	-167,419	-0,131	-0,004
-341,606	-147,980	-0,082	-0,005
-340,591	44,131	-0,068	-0,045
-339,577	148,878	0,052	0,051
-338,562	-20,446	-0,084	-0,037
-337,548	800,000	0,012	0,035
-336,533	-200,000	0,003	0,038
-335,518	-74,570	0,099	0,026
-334,504	-172,036	0,119	0,003
-333,489	379,347	-0,027	-0,040
-332,475	-57,277	-0,069	-0,022
-331,460	790,078	-0,049	-0,098
-330,445	-200,000	0,012	-0,113
-329,431	-0,674	0,050	0,026
-328,416	-58,111	-0,121	0,038
-327,402	-200,000	0,023	0,085
-326,387	-200,000	0,007	0,027
-325,372	-153,891	-0,190	0,009
-324,358	-151,042	-0,150	-0,008
-323,343	323,455	-0,058	0,080
-322,329	-200,000	0,015	0,089
-321,314	43,364	0,054	0,036
-320,299	800,000	0,030	0,068
-319,285	-200,000	0,013	0,070
-318,270	51,836	0,065	0,045
-317,256	-200,000	-0,036	-0,175
-316,241	-200,000	0,002	-0,084
-315,226	-200,000	-0,015	0,149
-314,212	-200,000	0,032	0,231
-313,197	-97,209	0,021	0,004
-312,183	397,408	0,069	-0,105
-311,168	-200,000	-0,007	-0,065
-310,153	658,445	-0,039	-0,073
-309,139	444,872	-0,056	0,089
-308,124	-200,000	0,000	-0,082
-307,110	-200,000	-0,001	0,052
-306,095	-45,934	0,128	0,045
-305,080	800,000	-0,026	0,082
-304,066	52,610	-0,037	-0,026
-303,051	-200,000	-0,024	-0,083
-302,037	800,000	-0,030	-0,076
-301,022	-139,213	0,087	0,007
-300,008	-28,104	0,086	-0,036
-298,993	730,860	-0,015	0,029
-297,978	-200,000	0,012	0,060
-296,964	4,017	-0,076	-0,040
-295,949	-44,338	-0,164	0,059
-294,935	-200,000	-0,042	-0,146
-293,920	800,000	-0,007	0,017
-292,905	800,000	0,040	-0,103
-291,891	297,002	-0,072	0,096
-290,876	-200,000	-0,000	0,101
-289,862	-168,695	0,035	-0,001
-288,847	-200,000	0,037	-0,146
-287,832	-103,066	-0,055	-0,009
-286,818	-138,850	0,024	-0,002
-285,803	798,189	0,014	-0,028
-284,789	-200,000	0,034	0,120
-283,774	497,111	-0,079	0,132
-282,759	800,000	0,012	0,026
-281,745	800,000	-0,037	-0,089
-280,730	249,938	0,029	0,036
-279,716	33,370	0,080	-0,050
-278,701	-200,000	-0,003	0,061
-277,686	-16,817	0,068	0,031
-276,672	9,998	0,039	0,021
-275,657	-47,386	-0,078	0,027
-274,643	-106,985	-0,038	-0,006
-273,628	800,000	0,020	0,053
-272,613	-3,623	-0,064	-0,032
-271,599	43,263	-0,049	-0,033
-270,584	-200,000	-0,005	0,053
-269,570	557,052	-0,038	0,066
-268,555	294,611	-0,019	-0,025
-267,540	-166,996	0,044	-0,001
-266,526	99,009	-0,092	-0,077
-265,511	56,948	-0,032	-0,023
-264,497	-71,664	-0,087	-0,023
-263,482	66,100	0,130	0,095
-262,467	-200,000	0,011	-0,064
-261,453	85,183	0,091	0,072
-260,438	-200,000	0,032	0,159
-259,424	-72,355	-0,059	-0,016
-258,409	-200,000	0,139	0,000
-257,395	-3,274	-0,055	0,028
-256,380	-200,000	-0,026	0,124
-255,365	-123,718	-0,058	0,007
-254,351	-105,202	0,036	0,006
-253,336	-45,835	-0,077	-0,027
-252,322	-114,133	0,092	-0,013
-251,307	-64,945	-0,071	-0,021
-250,292	22,034	0,097	-0,057
-249,278	-191,782	0,026	-0,000
-248,263	603,449	0,041	-0,073
-247,249	-64,611	0,142	0,041
-246,234	-95,004	-0,060	-0,012
-245,219	-23,804	-0,158	-0,068
-244,205	-128,404	-0,028	0,003
-243,190	111,061	-0,031	-0,027
-242,176	172,264	0,113	0,117
-241,161	358,782	-0,056	0,081
-240,146	515,430	0,053	0,090
-239,132	96,110	0,015	0,012
-238,117	65,554	-0,134	-0,098
-237,103	-7,210	0,069	-0,034
-236,088	800,000	0,032	0,094
-235,073	-200,000	0,011	-0,036
-234,059	144,106	0,127	0,122
-233,044	-4,783	-0,092	-0,046
-232,030	-59,454	-0,115	-0,035
-231,015	-184,256	-0,081	-0,001
-230,000	-27,398	0,031	0,013
-228,986	-200,000	0,027	0,086
-227,971	47,023	0,133	0,089
-226,957	-135,230	0,174	-0,015
-225,942	800,000	-0,047	-0,138
-224,927	492,280	-0,077	0,127
-223,913	302,490	-0,060	-0,080
-222,898	-82,431	-0,166	-0,039
-221,884	800,000	-0,046	-0,099
-220,869	-10,994	0,023	0,011
-219,855	-98,293	0,095	0,017
-218,840	-46,071	-0,059	-0,021
-217,825	78,527	-0,062	-0,048
-216,811	800,000	-0,039	0,116
-215,796	665,181	-0,065	-0,122
-214,782	-200,000	0,020	-0,071
-213,767	-45,582	0,137	-0,049
-212,752	-200,000	-0,023	-0,083
-211,738	145,097	-0,024	0,023
-210,723	-160,903	-0,041	0,002
-209,709	688,227	-0,013	0,025
-208,694	-200,000	-0,022	-0,109
-207,679	1,218	-0,037	0,019
-206,665	-93,560	-0,028	0,006
-205,650	-61,591	0,101	0,030
-204,636	266,840	-0,099	0,125
-203,621	-164,012	0,176	0,006
-202,606	-30,697	-0,126	-0,051
-201,592	-120,549	0,087	-0,011
-200,577	800,000	-0,063	0,160
-199,563	-200,000	0,009	0,109
-198,548	-200,000	0,020	0,132
-197,533	-200,000	0,017	0,145
-196,519	-13,420	0,090	0,042
-195,504	-89,644	-0,056	-0,012
-194,490	-37,328	-0,096	-0,037
-193,475	800,000	-0,009	0,025
-192,460	-95,625	0,094	0,018
-191,446	-81,201	0,115	0,027
-190,431	656,012	0,031	0,059
-189,417	616,182	0,078	0,142
-188,402	-200,000	0,008	0,059
-187,387	309,115	0,031	-0,041
-186,373	-200,000	0,045	-0,266
-185,358	-83,649	-0,031	-0,007
-184,344	-125,637	0,127	0,014
-183,329	-200,000	0,010	-0,079
-182,315	-143,410	-0,083	0,006
-181,300	145,432	0,033	-0,032
-180,285	-90,966	-0,098	-0,020
-179,271	190,799	-0,055	-0,059
-178,256	-200,000	0,031	0,114
-177,242	-112,961	0,050	0,007
-176,227	-68,114	0,136	0,038
-175,212	-54,849	0,028	-0,009
-174,198	40,795	-0,129	0,084
-173,183	800,000	-0,035	-0,085
-172,169	-170,192	-0,053	0,001
-171,154	-110,134	0,090	0,013
-170,139	-200,000	-0,023	0,121
-169,125	441,179	-0,044	-0,069
-168,110	589,442	-0,077	0,137
-167,096	-200,000	0,029	-0,111
-166,081	21,405	0,109	-0,064
-165,066	38,372	-0,063	0,040
-164,052	-160,412	-0,158	-0,006
-163,037	-142,384	0,092	0,006
-162,023	-200,000	0,036	0,133
-161,008	-94,130	-0,087	-0,017
-159,993	-41,310	-0,052	-0,019
-158,979	-200,000	-0,011	-0,059
-157,964	-200,000	-0,030	-0,097
-156,950	146,038	0,016	0,016
-155,935	800,000	-0,050	0,154
-154,920	800,000	-0,093	0,199
-153,906	32,616	0,190	0,118
-152,891	-200,000	-0,034	0,137
-151,877	-200,000	-0,009	0,052
-150,862	800,000	0,052	-0,134
-149,847	88,117	0,018	0,014
-148,833	106,072	0,014	-0,012
-147,818	-4,261	0,111	-0,055
-146,804	171,175	0,158	0,163
-145,789	-200,000	0,031	0,132
-144,775	-200,000	-0,005	0,082
-143,760	288,057	-0,033	-0,043
-142,745	246,716	0,026	0,031
-141,731	132,157	0,049	0,046
-140,716	-200,000	0,024	-0,084
-139,702	-200,000	0,004	0,081
-138,687	800,000	0,049	0,098
-137,672	-120,241	0,105	0,013
-136,658	-128,256	-0,168	-0,017
-135,643	442,062	0,072	0,113
-134,629	-114,289	-0,120	-0,016
-133,614	800,000	0,040	0,092
-132,599	108,984	0,104	0,090
-131,585	800,000	0,028	-0,088
-130,570	800,000	0,031	-0,077
-129,556	-200,000	-0,016	-0,094
-128,541	6,262	-0,071	-0,038
-127,526	-8,689	-0,054	-0,026
-126,512	96,961	-0,033	-0,027
-125,497	800,000	0,038	-0,101
-124,483	-200,000	-0,006	0,158
-123,468	596,781	-0,049	0,088
-122,453	547,552	0,086	-0,149
-121,439	800,000	-0,010	-0,024
-120,424	336,489	0,030	-0,041
