DTS Sentinel unit serial number:	SN410029Multiplexer serial number:	ORYXHardware model number:	OX2-SRSoftware version number:	ORYX F/W v4,00 Oryx Data Collector v3.7.2.0data status	okinstallation	B5 Nyhavnadifferential loss correction	single-endedforward channel	channel 2reverse channel	N/Adate	2023/12/11time	21:47:13forward acquisition time	300,00reverse acquisition time	0,00gamma	499,1914k internal	0,3156k external	0,3156temperature offset calibration	1,0000default loss term (dB/km)	0,3820temperature slope calibration	1,0000multiplexer offset coefficient	1,0000multiplexer slope coefficient	1,0000fibre end	0,00T internal ref (°C)	16,26T ext. ref 1 (°C)	0,19T ext. ref 2 (°C)	-0,05length (m)	temperature (°C)	Stokes	anti-Stokes-744,400	800,000	0,054	-0,174
-743,385	-24,758	-0,243	0,106
-742,371	-200,000	0,007	-0,046
-741,356	-12,273	-0,269	0,129
-740,342	324,820	0,117	0,165
-739,327	-200,000	-0,309	0,001
-738,312	288,608	-0,059	0,079
-737,298	-25,132	-0,351	-0,153
-736,283	-32,870	0,067	0,027
-735,269	-155,040	-0,303	0,014
-734,254	187,578	0,096	0,105
-733,239	-44,922	-0,441	-0,161
-732,225	-101,075	0,134	-0,024
-731,210	-200,000	-0,002	0,145
-730,196	249,035	-0,064	0,080
-729,181	800,000	-0,065	-0,168
-728,167	-200,000	0,024	0,105
-727,152	109,966	-0,097	0,086
-726,137	-200,000	0,000	-0,126
-725,123	800,000	-0,033	-0,082
-724,108	-200,000	0,011	0,082
-723,094	166,325	-0,092	-0,096
-722,079	53,796	-0,018	-0,013
-721,064	-87,574	0,063	-0,014
-720,050	-11,790	-0,056	-0,027
-719,035	-30,195	-0,083	-0,035
-718,021	513,938	0,040	-0,068
-717,006	160,516	-0,113	-0,116
-715,991	110,653	-0,029	-0,025
-714,977	675,792	-0,104	-0,201
-713,962	621,943	-0,069	-0,129
-712,948	-85,292	-0,088	0,020
-711,933	42,894	-0,047	-0,031
-710,918	227,170	-0,044	0,053
-709,904	339,859	0,015	0,022
-708,889	-62,709	-0,100	-0,030
-707,875	94,188	-0,122	-0,102
-706,860	74,665	-0,100	-0,078
-705,845	800,000	-0,024	-0,050
-704,831	51,844	0,024	-0,017
-703,816	800,000	-0,024	-0,054
-702,802	-88,964	-0,048	-0,010
-701,787	-200,000	-0,010	-0,057
-700,772	526,479	-0,038	-0,067
-699,758	-46,397	-0,027	-0,010
-698,743	81,845	0,116	0,093
-697,729	0,259	-0,232	-0,122
-696,714	537,665	0,031	-0,054
-695,699	36,364	-0,186	-0,120
-694,685	-47,222	-0,038	0,013
-693,670	-200,000	-0,027	-0,087
-692,656	800,000	-0,041	0,090
-691,641	255,057	-0,072	-0,091
-690,627	800,000	0,033	-0,069
-689,612	-4,379	0,124	0,063
-688,597	-200,000	0,003	-0,151
-687,583	243,214	0,089	-0,110
-686,568	112,421	-0,022	-0,020
-685,554	37,225	-0,091	0,059
-684,539	-100,991	0,038	-0,007
-683,524	-200,000	0,016	0,101
-682,510	104,672	-0,028	-0,024
-681,495	174,560	-0,003	0,004
-680,481	258,398	-0,070	-0,089
-679,466	-200,000	0,015	-0,062
-678,451	-200,000	-0,003	-0,069
-677,437	-121,896	-0,071	0,008
-676,422	-200,000	0,003	0,104
-675,408	624,915	-0,090	0,167
-674,393	-200,000	0,007	0,053
-673,378	-99,710	-0,157	-0,029
-672,364	123,278	-0,092	-0,085
-671,349	207,679	-0,029	-0,034
-670,335	127,999	-0,134	0,126
-669,320	-119,577	-0,072	0,009
-668,305	193,801	0,037	-0,041
-667,291	-200,000	0,023	-0,197
-666,276	800,000	0,053	-0,114
-665,262	800,000	0,071	-0,168
-664,247	-200,000	-0,015	-0,117
-663,232	525,372	0,054	-0,094
-662,218	86,731	-0,094	0,076
-661,203	800,000	-0,026	0,076
-660,189	-200,000	0,001	-0,111
-659,174	-113,729	-0,099	-0,014
-658,159	-147,579	-0,135	0,008
-657,145	-200,000	-0,028	0,127
-656,130	-200,000	0,012	0,093
-655,116	-117,108	0,117	-0,015
-654,101	-200,000	0,001	-0,107
-653,086	-200,000	0,020	-0,141
-652,072	-144,211	0,047	0,003
-651,057	-93,694	-0,079	0,016
-650,043	-8,331	-0,124	-0,061
-649,028	101,455	-0,131	-0,112
-648,014	386,719	-0,054	0,082
-646,999	-200,000	0,006	-0,062
-645,984	139,106	-0,031	-0,030
-644,970	800,000	-0,037	-0,096
-643,955	-200,000	0,030	-0,187
-642,941	800,000	-0,064	-0,155
-641,926	-200,000	-0,010	-0,094
-640,911	177,259	-0,064	-0,068
-639,897	44,583	0,107	0,072
-638,882	-142,728	0,068	0,005
-637,868	-115,589	0,043	-0,006
-636,853	-35,336	0,063	-0,025
-635,838	243,878	0,056	-0,069
-634,824	73,171	0,030	-0,023
-633,809	-28,927	-0,101	0,042
-632,795	120,759	0,046	-0,042
-631,780	-62,650	-0,095	0,029
-630,765	-200,000	0,002	0,060
-629,751	-200,000	0,005	-0,073
-628,736	-79,029	-0,012	0,003
-627,722	254,963	0,014	0,018
-626,707	611,561	-0,041	-0,075
-625,692	-5,982	0,082	0,041
-624,678	-200,000	0,027	-0,106
-623,663	366,179	-0,098	-0,145
-622,649	-200,000	0,009	-0,080
-621,634	422,564	-0,014	-0,023
-620,619	365,214	-0,111	-0,165
-619,605	332,364	0,017	0,024
-618,590	-141,719	-0,148	-0,011
-617,576	-200,000	0,015	0,104
-616,561	136,722	0,074	-0,071
-615,546	127,927	-0,095	-0,089
-614,532	1,441	-0,020	0,011
-613,517	437,816	-0,025	-0,041
-612,503	114,495	-0,070	0,063
-611,488	426,852	0,064	0,101
-610,474	583,636	0,058	0,105
-609,459	-200,000	0,008	-0,067
-608,444	58,584	-0,067	-0,048
-607,430	-200,000	-0,015	-0,088
-606,415	0,058	-0,035	0,018
-605,401	78,615	0,036	0,028
-604,386	686,557	-0,048	-0,092
-603,371	-200,000	0,049	0,194
-602,357	451,634	-0,095	0,154
-601,342	-56,444	-0,083	0,027
-600,328	-131,148	-0,068	-0,007
-599,313	479,292	0,030	-0,050
-598,298	148,116	-0,066	0,065
-597,284	-53,954	0,090	0,030
-596,269	-42,255	-0,033	0,012
-595,255	196,485	0,053	0,060
-594,240	65,022	-0,071	0,052
-593,225	800,000	-0,022	-0,056
-592,211	75,965	-0,158	-0,123
-591,196	645,207	-0,054	-0,101
-590,182	800,000	-0,009	0,023
-589,167	800,000	0,025	0,069
-588,152	1,030	-0,116	-0,061
-587,138	-99,337	-0,067	0,012
-586,123	-200,000	0,000	-0,018
-585,109	127,349	-0,026	0,025
-584,094	128,004	-0,173	-0,162
-583,079	-200,000	-0,010	-0,060
-582,065	-200,000	0,006	-0,097
-581,050	34,028	0,047	0,030
-580,036	29,249	-0,073	-0,045
-579,021	800,000	0,045	0,122
-578,006	149,977	-0,079	0,079
-576,992	-200,000	0,008	-0,075
-575,977	42,644	0,050	0,034
-574,963	-200,000	0,022	0,112
-573,948	197,753	-0,100	0,112
-572,934	170,789	0,069	0,072
-571,919	-200,000	-0,012	-0,211
-570,904	97,253	-0,065	-0,054
-569,890	265,242	-0,056	0,072
-568,875	-19,862	-0,126	0,057
-567,861	800,000	0,022	-0,064
-566,846	800,000	-0,025	0,055
-565,831	-27,424	0,020	-0,009
-564,817	-79,669	-0,056	0,014
-563,802	-82,127	-0,163	-0,039
-562,788	-200,000	0,032	0,163
-561,773	-75,878	-0,068	-0,017
-560,758	207,440	0,037	-0,042
-559,744	-200,000	0,028	0,106
-558,729	212,207	0,041	0,048
-557,715	391,920	-0,011	0,017
-556,700	-98,513	-0,142	-0,026
-555,685	-156,602	-0,125	0,006
-554,671	-56,596	-0,018	0,006
-553,656	477,475	0,082	0,137
-552,642	65,958	0,054	0,040
-551,627	-71,817	0,070	0,019
-550,612	17,322	-0,131	-0,076
-549,598	800,000	0,058	-0,122
-548,583	-200,000	-0,053	-0,181
-547,569	-196,121	-0,058	0,000
-546,554	501,730	0,086	0,146
-545,539	176,374	0,077	-0,082
-544,525	-80,009	0,086	-0,021
-543,510	-200,000	0,006	-0,101
-542,496	-77,301	-0,131	0,033
-541,481	-131,094	0,149	-0,014
-540,466	249,775	0,067	-0,083
-539,452	340,011	0,099	-0,142
-538,437	-95,547	-0,106	-0,021
-537,423	-200,000	0,042	-0,145
-536,408	99,193	-0,079	-0,067
-535,393	-43,287	-0,088	-0,032
-534,379	-107,687	0,079	0,012
-533,364	-15,040	-0,064	-0,030
-532,350	-27,696	-0,031	0,013
-531,335	-200,000	0,013	0,103
-530,321	302,789	0,052	-0,070
-529,306	191,118	-0,050	-0,056
-528,291	-175,773	-0,165	0,003
-527,277	64,828	-0,050	0,037
-526,262	-200,000	0,032	-0,137
-525,248	261,899	-0,048	-0,061
-524,233	800,000	0,070	0,144
-523,218	235,147	0,096	-0,117
-522,204	237,354	0,096	0,116
-521,189	52,673	-0,103	-0,072
-520,175	0,297	-0,091	-0,047
-519,160	151,374	0,022	0,022
-518,145	187,386	0,012	0,013
-517,131	-55,342	0,074	0,024
-516,116	118,744	-0,038	-0,035
-515,102	158,062	-0,031	0,031
-514,087	87,484	0,041	-0,033
-513,072	-43,050	0,039	0,014
-512,058	-98,583	-0,078	-0,014
-511,043	83,122	0,054	0,043
-510,029	123,311	0,012	0,011
-509,014	-137,461	0,062	0,005
-507,999	189,397	-0,048	0,053
-506,985	715,023	0,039	0,077
-505,970	426,847	-0,060	-0,095
-504,956	173,257	-0,073	-0,076
-503,941	-15,530	0,063	0,029
-502,926	293,909	0,026	-0,035
-501,912	117,333	-0,071	0,064
-500,897	394,982	-0,052	0,080
-499,883	-200,000	0,005	-0,025
-498,868	800,000	-0,028	-0,087
-497,853	-200,000	0,002	-0,053
-496,839	-200,000	-0,025	0,091
-495,824	349,204	0,050	0,073
-494,810	378,407	0,043	-0,065
-493,795	-72,724	0,082	0,022
-492,781	744,444	-0,042	-0,083
-491,766	-143,781	-0,045	0,003
-490,751	-200,000	-0,009	0,047
-489,737	42,136	-0,065	-0,043
-488,722	-200,000	0,012	0,122
-487,708	800,000	0,040	-0,105
-486,693	27,726	-0,054	-0,033
-485,678	-200,000	-0,014	-0,152
-484,664	-94,102	0,072	0,014
-483,649	-200,000	-0,027	0,107
-482,635	-84,880	0,110	0,025
-481,620	-35,839	-0,060	0,023
-480,605	-77,977	0,113	0,028
-479,591	-200,000	0,018	0,111
-478,576	-200,000	0,032	0,135
-477,562	-200,000	0,004	-0,044
-476,547	77,699	-0,047	0,036
-475,532	800,000	-0,031	-0,072
-474,518	800,000	-0,036	0,105
-473,503	-44,324	-0,021	-0,008
-472,489	-200,000	-0,020	0,109
-471,474	-121,005	0,020	-0,002
-470,459	-184,040	-0,124	0,001
-469,445	-200,000	-0,010	0,105
-468,430	-200,000	-0,037	0,206
-467,416	-200,000	0,003	0,219
-466,401	67,195	0,151	0,112
-465,386	321,792	0,020	0,028
-464,372	800,000	0,020	0,062
-463,357	167,256	0,065	0,068
-462,343	-200,000	0,035	-0,197
-461,328	132,702	0,089	-0,084
-460,313	-110,980	-0,099	0,015
-459,299	800,000	0,027	0,068
-458,284	800,000	-0,026	-0,076
-457,270	-200,000	0,038	-0,133
-456,255	40,013	0,138	0,090
-455,241	661,440	-0,027	-0,050
-454,226	-8,772	0,048	0,023
-453,211	254,775	-0,023	0,029
-452,197	55,323	0,107	0,075
-451,182	-200,000	-0,016	-0,059
-450,168	-50,554	-0,094	-0,032
-449,153	-137,658	-0,056	-0,005
-448,138	319,398	0,091	-0,126
-447,124	66,042	-0,075	-0,056
-446,109	576,923	0,037	0,065
-445,095	64,724	0,096	-0,071
-444,080	-159,252	-0,127	-0,005
-443,065	-8,243	0,110	-0,054
-442,051	800,000	0,034	0,071
-441,036	49,620	-0,067	0,046
-440,022	552,485	-0,037	-0,064
-439,007	-120,999	-0,119	0,014
-437,992	660,458	-0,046	-0,087
-436,978	-43,785	0,087	-0,032
-435,963	457,960	-0,070	0,113
-434,949	102,709	0,111	0,095
-433,934	-44,147	-0,146	0,053
-432,919	-80,242	-0,101	0,025
-431,905	88,904	0,095	-0,077
-430,890	-143,616	-0,014	-0,001
-429,876	-118,470	-0,068	-0,009
-428,861	121,543	-0,055	0,050
-427,846	-68,864	-0,058	0,016
-426,832	-13,597	0,038	0,018
-425,817	-200,000	-0,028	0,199
-424,803	-156,807	0,093	-0,004
-423,788	-200,000	0,013	0,059
-422,773	100,246	0,183	0,155
-421,759	-6,929	0,096	0,048
-420,744	-1,963	-0,079	-0,040
-419,730	800,000	-0,053	0,110
-418,715	-200,000	0,018	0,076
-417,701	459,838	0,066	0,108
-416,686	-81,649	-0,058	-0,014
-415,671	659,963	0,064	0,121
-414,657	-155,916	0,088	0,004
-413,642	-200,000	-0,003	-0,030
-412,628	164,431	0,063	-0,064
-411,613	-200,000	0,005	0,062
-410,598	-200,000	0,013	-0,044
-409,584	-181,527	-0,065	-0,001
-408,569	72,744	0,168	-0,128
-407,555	-200,000	0,001	0,056
-406,540	95,341	-0,068	0,056
-405,525	-200,000	0,003	-0,049
-404,511	371,876	-0,041	-0,060
-403,496	495,746	-0,020	-0,034
-402,482	-67,605	0,093	-0,026
-401,467	20,079	0,120	0,070
-400,452	-94,178	0,137	0,027
-399,438	-200,000	0,018	0,106
-398,423	-68,301	-0,063	-0,018
-397,409	-200,000	0,001	-0,023
-396,394	0,968	-0,079	0,041
-395,379	-200,000	-0,030	0,155
-394,365	-200,000	0,015	0,196
-393,350	207,870	0,153	0,175
-392,336	339,310	-0,027	0,039
-391,321	-129,196	-0,051	-0,005
-390,306	-39,659	-0,138	-0,052
-389,292	-200,000	-0,000	0,113
-388,277	46,118	-0,068	0,046
-387,263	105,800	0,062	0,053
-386,248	-85,376	-0,149	0,034
-385,233	204,403	0,035	-0,040
-384,219	172,725	-0,146	-0,153
-383,204	147,405	-0,142	-0,139
-382,190	6,270	-0,068	0,037
-381,175	-18,616	0,075	0,034
-380,160	-135,426	0,127	-0,011
-379,146	519,366	-0,086	0,146
-378,131	234,653	0,009	0,011
-377,117	14,543	-0,045	0,025
-376,102	-95,914	0,054	-0,010
-375,088	173,110	0,059	-0,062
-374,073	-200,000	-0,029	-0,231
-373,058	-200,000	0,009	0,055
-372,044	-105,996	-0,119	0,019
-371,029	-75,043	0,097	-0,025
-370,015	692,939	0,004	-0,007
-369,000	721,010	-0,032	-0,062
-367,985	516,922	0,013	0,022
-366,971	164,975	-0,142	-0,146
-365,956	-200,000	0,002	-0,016
-364,942	-148,922	0,105	-0,006
-363,927	41,314	0,008	-0,005
-362,912	800,000	0,018	0,048
-361,898	-114,532	-0,086	0,012
-360,883	-200,000	-0,008	-0,105
-359,869	-72,348	0,078	0,021
-358,854	800,000	-0,016	-0,033
-357,839	-109,460	0,072	-0,011
-356,825	252,696	0,037	0,046
-355,810	212,554	0,080	-0,091
-354,796	-200,000	-0,042	0,157
-353,781	105,126	0,082	-0,070
-352,766	800,000	-0,030	-0,060
-351,752	-46,369	0,037	-0,013
-350,737	-9,600	0,199	0,096
-349,723	452,441	-0,025	-0,040
-348,708	-106,942	0,137	0,022
-347,693	533,023	0,101	-0,174
-346,679	144,346	0,062	-0,060
-345,664	800,000	0,023	-0,051
-344,650	204,841	-0,015	0,017
-343,635	-153,432	0,047	-0,002
-342,620	800,000	-0,024	-0,066
-341,606	800,000	-0,097	0,215
-340,591	-200,000	-0,014	-0,071
-339,577	-132,499	0,078	0,007
-338,562	-200,000	-0,011	0,092
-337,548	-45,808	-0,088	-0,031
-336,533	-200,000	-0,006	-0,074
-335,518	-162,979	-0,010	0,000
-334,504	4,437	0,058	0,031
-333,489	800,000	0,027	0,083
-332,475	-34,033	-0,127	-0,051
-331,460	-200,000	-0,019	-0,085
-330,445	800,000	-0,022	0,055
-329,431	-200,000	0,001	0,095
-328,416	800,000	-0,040	0,096
-327,402	-30,643	0,102	0,042
-326,387	-75,244	0,056	-0,014
-325,372	-200,000	0,011	-0,123
-324,358	-200,000	0,025	0,113
-323,343	-80,013	-0,049	0,012
-322,329	137,559	0,156	-0,149
-321,314	-58,596	0,102	-0,032
-320,299	-200,000	0,005	0,086
-319,285	-200,000	0,002	0,111
-318,270	268,571	0,058	-0,074
-317,256	298,317	-0,026	0,034
-316,241	98,956	-0,087	0,073
-315,226	-33,879	-0,053	-0,021
-314,212	9,424	-0,051	-0,028
-313,197	-96,917	0,188	-0,035
-312,183	-153,154	0,130	-0,007
-311,168	182,149	-0,131	-0,140
-310,153	9,298	-0,045	0,024
-309,139	44,855	-0,028	-0,019
-308,124	-0,163	-0,134	0,069
-307,110	-84,932	-0,021	-0,005
-306,095	-200,000	-0,003	-0,017
-305,080	18,380	-0,090	0,052
-304,066	800,000	-0,012	-0,033
-303,051	800,000	0,021	0,062
-302,037	345,368	0,049	0,070
-301,022	-200,000	-0,028	0,093
-300,008	-137,647	0,081	-0,007
-298,993	-127,330	-0,109	-0,011
-297,978	800,000	0,042	-0,120
-296,964	-112,953	-0,096	-0,014
-295,949	-84,590	-0,037	-0,008
-294,935	38,656	0,041	-0,027
-293,920	800,000	-0,014	-0,037
-292,905	30,277	0,087	0,054
-291,891	-60,359	-0,078	-0,024
-290,876	-19,763	0,105	-0,047
-289,862	-200,000	-0,011	-0,060
-288,847	-120,654	0,074	-0,009
-287,832	-200,000	0,029	-0,119
-286,818	-90,451	-0,127	0,026
-285,803	800,000	0,042	0,113
-284,789	295,559	-0,050	-0,067
-283,774	-108,952	0,034	0,005
-282,759	54,139	0,187	0,130
-281,745	-177,033	-0,065	0,001
-280,730	-200,000	0,006	-0,070
-279,716	-175,842	0,215	0,004
-278,701	-1,572	-0,044	-0,022
-277,686	-200,000	-0,029	0,094
-276,672	371,535	0,033	-0,049
-275,657	-200,000	0,001	-0,086
-274,643	-200,000	-0,033	-0,127
-273,628	-45,837	-0,137	-0,049
-272,613	-126,771	-0,104	-0,011
-271,599	-118,879	-0,111	-0,014
-270,584	353,929	0,020	-0,028
-269,570	310,957	0,027	0,037
-268,555	221,295	0,063	-0,073
-267,540	-40,612	-0,079	-0,030
-266,526	-110,091	-0,047	-0,007
-265,511	58,042	-0,087	0,061
-264,497	217,928	-0,085	0,099
-263,482	215,645	-0,016	-0,019
-262,467	-64,809	-0,056	-0,016
-261,453	485,993	-0,064	-0,106
-260,438	-200,000	-0,019	-0,128
-259,424	800,000	0,031	-0,068
-258,409	-96,303	-0,110	0,021
-257,395	-162,453	0,100	0,004
-256,380	-92,344	-0,104	0,021
-255,365	-200,000	-0,009	0,115
-254,351	-200,000	0,000	-0,065
-253,336	-25,700	-0,058	-0,024
-252,322	-42,280	0,085	-0,031
-251,307	-9,079	0,031	0,015
-250,292	214,030	-0,043	0,050
-249,278	613,825	0,033	-0,059
-248,263	-200,000	0,042	0,145
-247,249	-138,707	0,057	-0,004
-246,234	-200,000	-0,012	-0,046
-245,219	-200,000	0,022	-0,108
-244,205	36,697	-0,049	0,032
-243,190	138,956	-0,089	-0,085
-242,176	103,074	0,112	0,095
-241,161	-120,259	0,095	0,012
-240,146	36,943	0,075	0,048
-239,132	-200,000	-0,008	0,126
-238,117	-51,464	-0,014	-0,005
-237,103	32,503	0,070	0,044
-236,088	-200,000	-0,005	-0,075
-235,073	800,000	0,016	0,049
-234,059	25,740	0,176	0,106
-233,044	100,966	-0,099	0,083
-232,030	200,466	0,043	-0,048
-231,015	800,000	-0,009	-0,019
-230,000	136,768	0,053	-0,050
-228,986	800,000	-0,025	-0,064
-227,971	-200,000	-0,022	-0,077
-226,957	75,330	0,036	-0,028
-225,942	-60,046	-0,149	0,046
-224,927	292,002	0,080	-0,106
-223,913	630,175	0,038	-0,070
-222,898	29,739	0,090	0,055
-221,884	800,000	-0,030	0,076
-220,869	800,000	0,056	0,130
-219,855	-51,937	0,066	-0,022
-218,840	-44,527	0,049	-0,018
-217,825	-74,755	-0,073	0,019
-216,811	306,009	-0,045	-0,060
-215,796	-117,560	-0,227	-0,029
-214,782	42,228	-0,086	-0,056
-213,767	-154,058	0,049	-0,002
-212,752	-200,000	0,005	0,128
-211,738	-97,205	0,096	-0,018
-210,723	-71,741	0,078	-0,021
-209,709	19,384	-0,030	0,018
-208,694	800,000	-0,020	0,054
-207,679	800,000	-0,069	0,163
-206,665	14,159	0,077	0,043
-205,650	-139,581	0,125	0,010
-204,636	-78,064	-0,053	-0,013
-203,621	91,722	0,158	0,128
-202,606	800,000	-0,049	0,121
-201,592	223,314	0,043	-0,051
-200,577	123,233	0,055	-0,049
-199,563	-85,661	0,127	0,028
-198,548	10,826	-0,111	-0,061
-197,533	-172,212	0,096	0,002
-196,519	58,318	0,101	-0,071
-195,504	-200,000	-0,010	0,102
-194,490	73,507	-0,039	-0,029
-193,475	-200,000	-0,001	-0,018
-192,460	150,651	-0,023	0,023
-191,446	-147,025	0,146	0,009
-190,431	-32,271	0,092	0,037
-189,417	-110,502	0,060	-0,009
-188,402	-200,000	0,021	-0,113
-187,387	-200,000	0,006	-0,057
-186,373	60,034	0,149	0,106
-185,358	101,397	-0,016	-0,013
-184,344	289,278	0,005	0,006
-183,329	193,556	0,106	0,116
-182,315	230,589	0,090	0,106
-181,300	-41,894	-0,044	-0,016
-180,285	197,433	0,096	-0,106
-179,271	-0,482	-0,188	0,096
-178,256	800,000	0,013	-0,026
-177,242	800,000	0,046	0,106
-176,227	-200,000	0,024	0,087
-175,212	-200,000	-0,022	-0,074
-174,198	800,000	0,062	-0,152
-173,183	-60,675	-0,070	0,021
-172,169	384,782	-0,064	-0,095
-171,154	800,000	-0,026	0,067
-170,139	-200,000	0,011	-0,105
-169,125	800,000	0,029	0,087
-168,110	316,474	0,086	0,117
-167,096	204,813	-0,075	-0,084
-166,081	633,291	-0,026	-0,047
-165,066	-200,000	0,004	-0,079
-164,052	-124,134	0,125	0,014
-163,037	-21,705	-0,091	-0,040
-162,023	56,964	0,074	0,052
-161,008	4,168	0,045	-0,024
-159,993	583,587	0,049	0,087
-158,979	-1,562	0,047	0,024
-157,964	193,459	-0,009	0,010
-156,950	800,000	0,060	-0,180
-155,935	268,447	-0,049	-0,061
-154,920	64,858	-0,121	0,088
-153,906	174,994	0,034	-0,035
-152,891	197,376	0,025	-0,028
-151,877	251,313	-0,074	0,091
-150,862	-122,901	-0,132	-0,015
-149,847	800,000	0,037	-0,083
-148,833	560,567	0,049	-0,085
-147,818	-200,000	-0,008	0,049
-146,804	-15,509	-0,109	0,050
-145,789	-71,486	0,122	-0,033
-144,775	-71,976	-0,219	-0,058
-143,760	231,421	-0,070	0,083
-142,745	-115,885	-0,046	0,006
-141,731	-33,814	0,198	-0,078
-140,716	-200,000	0,026	-0,103
-139,702	-200,000	0,006	-0,140
-138,687	800,000	0,034	0,075
-137,672	225,618	0,049	0,058
-136,658	127,737	-0,042	-0,038
-135,643	-88,035	-0,130	-0,028
-134,629	-200,000	0,022	0,093
-133,614	0,606	0,037	-0,019
-132,599	48,435	-0,062	-0,042
-131,585	-200,000	-0,015	0,077
-130,570	-200,000	-0,014	-0,051
-129,556	20,217	-0,099	-0,058
-128,541	-132,849	0,051	-0,005
-127,526	-200,000	-0,016	-0,169
-126,512	226,067	0,106	0,124
-125,497	196,845	0,082	-0,090
-124,483	-200,000	0,026	0,155
-123,468	58,765	-0,039	0,027
-122,453	104,713	-0,032	-0,027
-121,439	800,000	-0,038	-0,082
-120,424	-31,357	0,040	-0,016
