DTS Sentinel unit serial number:	SN410029Multiplexer serial number:	ORYXHardware model number:	OX2-SRSoftware version number:	ORYX F/W v4,00 Oryx Data Collector v3.7.2.0data status	okinstallation	B5 Nyhavnadifferential loss correction	single-endedforward channel	channel 2reverse channel	N/Adate	2023/12/12time	01:42:13forward acquisition time	300,00reverse acquisition time	0,00gamma	499,1914k internal	0,3156k external	0,3156temperature offset calibration	1,0000default loss term (dB/km)	0,3820temperature slope calibration	1,0000multiplexer offset coefficient	1,0000multiplexer slope coefficient	1,0000fibre end	0,00T internal ref (°C)	15,88T ext. ref 1 (°C)	-0,54T ext. ref 2 (°C)	-0,81length (m)	temperature (°C)	Stokes	anti-Stokes-744,400	-13,751	0,234	0,111
-743,385	-15,792	-0,273	-0,128
-742,371	99,330	0,164	0,139
-741,356	43,033	-0,263	0,176
-740,342	455,388	0,041	-0,068
-739,327	-149,442	-0,311	-0,018
-738,312	-200,000	0,017	0,076
-737,298	-119,879	-0,270	-0,034
-736,283	800,000	0,024	0,051
-735,269	-166,106	-0,245	-0,008
-734,254	-89,585	0,064	-0,014
-733,239	-73,421	-0,508	-0,136
-732,225	-39,689	0,163	0,062
-731,210	5,165	-0,132	0,071
-730,196	146,288	-0,061	-0,061
-729,181	-200,000	0,009	0,123
-728,167	60,757	-0,082	0,060
-727,152	266,735	-0,013	-0,017
-726,137	-5,808	-0,069	-0,035
-725,123	-85,391	-0,095	-0,022
-724,108	82,952	-0,117	0,094
-723,094	25,940	-0,080	-0,049
-722,079	49,304	-0,126	0,087
-721,064	81,861	0,128	0,102
-720,050	184,734	-0,040	0,043
-719,035	-102,040	-0,039	-0,007
-718,021	800,000	0,040	0,082
-717,006	-51,475	-0,063	0,022
-715,991	-157,948	0,016	-0,001
-714,977	-64,550	-0,045	-0,013
-713,962	203,539	-0,073	-0,083
-712,948	446,712	-0,051	-0,083
-711,933	-27,773	0,071	0,030
-710,918	-200,000	-0,000	-0,016
-709,904	-200,000	-0,091	0,000
-708,889	386,127	-0,048	-0,074
-707,875	87,917	-0,077	0,063
-706,860	800,000	-0,033	0,094
-705,845	277,885	0,049	0,065
-704,831	112,403	0,059	0,053
-703,816	-54,178	-0,022	0,007
-702,802	-46,814	0,057	-0,020
-701,787	86,000	0,062	-0,050
-700,772	800,000	0,028	-0,065
-699,758	-67,676	0,100	-0,029
-698,743	625,610	-0,046	0,087
-697,729	-200,000	-0,028	-0,091
-696,714	71,684	-0,084	0,064
-695,699	-138,470	0,112	0,009
-694,685	223,575	-0,019	0,023
-693,670	39,907	-0,140	-0,093
-692,656	193,743	0,060	-0,067
-691,641	800,000	0,063	-0,130
-690,627	-200,000	0,006	-0,066
-689,612	744,276	-0,079	0,157
-688,597	-200,000	-0,010	0,055
-687,583	265,758	-0,031	0,039
-686,568	173,175	-0,055	-0,059
-685,554	66,440	-0,032	-0,024
-684,539	59,286	-0,066	-0,048
-683,524	-200,000	-0,004	0,120
-682,510	30,800	-0,095	0,060
-681,495	-108,125	-0,028	0,004
-680,481	-99,438	-0,103	-0,019
-679,466	86,431	0,038	-0,031
-678,451	460,600	0,043	-0,070
-677,437	-45,945	0,044	-0,016
-676,422	-200,000	0,029	-0,095
-675,408	147,757	0,005	0,005
-674,393	-50,262	-0,142	0,049
-673,378	94,650	-0,094	-0,079
-672,364	76,699	-0,139	-0,108
-671,349	-54,600	0,047	0,015
-670,335	190,604	-0,016	-0,018
-669,320	194,114	-0,103	0,115
-668,305	-72,469	-0,063	-0,017
-667,291	-200,000	-0,016	-0,116
-666,276	123,656	-0,108	-0,100
-665,262	-200,000	-0,009	0,074
-664,247	-136,034	-0,060	0,005
-663,232	-200,000	0,017	0,116
-662,218	182,838	-0,064	0,070
-661,203	-72,788	0,140	0,038
-660,189	171,015	-0,032	0,033
-659,174	-200,000	-0,016	0,083
-658,159	-200,000	-0,030	-0,125
-657,145	-200,000	0,005	-0,088
-656,130	48,502	0,091	0,062
-655,116	60,879	0,080	-0,059
-654,101	-100,412	-0,075	0,014
-653,086	-4,956	0,074	0,037
-652,072	-155,248	-0,238	-0,011
-651,057	-200,000	-0,016	-0,083
-650,043	800,000	0,028	-0,064
-649,028	-200,000	-0,009	-0,109
-648,014	-200,000	-0,002	-0,016
-646,999	-41,545	0,040	0,015
-645,984	40,986	0,092	0,061
-644,970	75,628	0,093	-0,072
-643,955	-62,530	-0,157	0,048
-642,941	338,099	-0,071	-0,102
-641,926	578,413	0,031	0,056
-640,911	-200,000	0,008	0,174
-639,897	320,721	-0,006	0,008
-638,882	45,399	-0,052	0,035
-637,868	-200,000	0,014	-0,055
-636,853	-200,000	0,097	0,000
-635,838	-28,706	0,027	0,011
-634,824	-200,000	0,019	0,074
-633,809	-163,845	0,185	-0,006
-632,795	-115,146	0,036	0,005
-631,780	50,636	0,091	0,063
-630,765	-51,856	0,053	-0,018
-629,751	479,102	-0,099	-0,165
-628,736	186,983	-0,038	-0,041
-627,722	60,428	-0,088	0,064
-626,707	-200,000	-0,016	-0,072
-625,692	785,977	0,041	-0,083
-624,678	-85,479	-0,053	-0,012
-623,663	350,733	-0,004	-0,006
-622,649	20,116	-0,046	0,027
-621,634	-200,000	-0,006	-0,069
-620,619	-170,332	-0,246	0,006
-619,605	668,236	0,023	0,044
-618,590	-73,928	0,105	0,028
-617,576	-107,392	0,098	-0,016
-616,561	-88,027	-0,153	0,034
-615,546	-200,000	0,014	-0,124
-614,532	-2,707	-0,111	-0,057
-613,517	783,579	0,022	0,045
-612,503	70,083	-0,059	-0,045
-611,488	-104,105	0,142	-0,024
-610,474	800,000	-0,017	0,051
-609,459	94,425	-0,089	-0,074
-608,444	-82,711	-0,109	-0,026
-607,430	426,354	-0,030	-0,047
-606,415	155,906	0,095	-0,096
-605,401	15,237	-0,118	0,068
-604,386	800,000	-0,046	0,136
-603,371	-62,989	0,057	-0,017
-602,357	-120,143	0,061	0,008
-601,342	139,694	-0,090	0,087
-600,328	-1,509	-0,104	-0,053
-599,313	79,808	-0,042	-0,033
-598,298	39,317	-0,206	-0,135
-597,284	-130,497	0,049	-0,005
-596,269	-200,000	0,021	0,146
-595,255	-200,000	0,004	0,065
-594,240	31,005	-0,090	0,056
-593,225	-200,000	0,035	-0,153
-592,211	-65,813	0,084	-0,024
-591,196	-125,399	-0,060	-0,007
-590,182	-137,493	0,093	0,008
-589,167	-200,000	-0,020	0,138
-588,152	-27,574	0,109	-0,046
-587,138	-15,182	0,163	-0,076
-586,123	-200,000	0,012	0,060
-585,109	488,936	-0,098	-0,165
-584,094	113,282	-0,014	0,013
-583,079	423,370	-0,052	-0,082
-582,065	-200,000	0,021	-0,072
-581,050	170,807	-0,027	-0,028
-580,036	800,000	0,018	-0,053
-579,021	46,468	0,058	-0,039
-578,006	-200,000	-0,028	0,183
-576,992	191,490	0,082	0,091
-575,977	333,664	0,047	-0,066
-574,963	16,040	0,067	-0,038
-573,948	-200,000	-0,002	0,067
-572,934	-189,404	-0,218	-0,002
-571,919	352,024	0,018	0,026
-570,904	-127,141	0,107	0,011
-569,890	-21,609	-0,064	0,029
-568,875	-78,049	0,089	-0,022
-567,861	67,463	0,054	-0,040
-566,846	479,629	0,064	-0,107
-565,831	302,878	-0,031	0,042
-564,817	-200,000	-0,004	-0,174
-563,802	-200,000	-0,025	0,101
-562,788	568,025	0,055	-0,099
-561,773	-154,796	0,135	-0,006
-560,758	-115,950	0,086	0,012
-559,744	253,448	-0,062	0,077
-558,729	-200,000	-0,045	-0,165
-557,715	287,396	-0,088	0,117
-556,700	-200,000	-0,038	-0,168
-555,685	-14,366	0,043	-0,020
-554,671	166,873	0,044	0,046
-553,656	187,369	-0,040	-0,043
-552,642	-90,341	0,101	0,021
-551,627	-200,000	0,029	0,207
-550,612	-200,000	0,006	-0,028
-549,598	-49,057	-0,167	0,058
-548,583	359,150	-0,024	-0,035
-547,569	101,813	-0,124	-0,106
-546,554	-21,309	0,212	0,094
-545,539	800,000	-0,027	0,067
-544,525	800,000	0,027	-0,056
-543,510	800,000	-0,038	0,094
-542,496	138,635	-0,114	0,110
-541,481	18,375	-0,050	0,029
-540,466	490,256	0,050	0,084
-539,452	-119,023	0,142	-0,018
-538,437	230,106	0,069	0,082
-537,423	38,093	-0,033	0,021
-536,408	-91,641	-0,100	0,021
-535,393	325,151	-0,007	-0,010
-534,379	221,535	0,063	0,075
-533,364	414,742	-0,030	-0,046
-532,350	800,000	0,069	0,145
-531,335	63,126	0,056	0,041
-530,321	800,000	0,011	0,033
-529,306	155,488	-0,047	-0,047
-528,291	160,079	-0,017	0,017
-527,277	-200,000	0,006	-0,083
-526,262	-144,368	-0,157	0,010
-525,248	102,134	-0,021	0,018
-524,233	47,732	0,084	0,057
-523,218	-140,133	-0,078	-0,006
-522,204	-13,686	-0,058	0,027
-521,189	-100,632	-0,056	-0,010
-520,175	106,475	-0,083	-0,072
-519,160	366,555	0,004	0,007
-518,145	-50,105	-0,107	0,037
-517,131	82,806	0,051	0,041
-516,116	-111,281	-0,105	0,015
-515,102	-200,000	0,022	-0,116
-514,087	700,412	0,034	-0,066
-513,072	399,879	0,060	-0,092
-512,058	-79,242	0,048	0,012
-511,043	-35,024	0,078	0,031
-510,029	-96,567	-0,228	-0,044
-509,014	-200,000	-0,007	-0,078
-507,999	-200,000	0,014	-0,100
-506,985	-15,072	-0,063	-0,029
-505,970	800,000	0,071	-0,155
-504,956	-200,000	-0,005	0,046
-503,941	-85,017	-0,043	0,010
-502,926	-200,000	0,016	-0,108
-501,912	-200,000	-0,003	-0,009
-500,897	207,609	0,032	0,037
-499,883	158,954	-0,156	0,159
-498,868	476,220	-0,054	0,090
-497,853	-3,364	-0,113	-0,057
-496,839	235,381	0,091	0,111
-495,824	62,866	-0,056	0,041
-494,810	376,507	-0,041	-0,062
-493,795	-41,228	-0,196	-0,073
-492,781	-200,000	-0,003	0,066
-491,766	-74,697	-0,103	0,027
-490,751	-200,000	-0,008	0,181
-489,737	191,335	-0,066	-0,073
-488,722	104,771	-0,017	-0,014
-487,708	455,876	0,068	-0,111
-486,693	-128,371	0,083	0,008
-485,678	-111,626	0,228	-0,033
-484,664	800,000	-0,047	-0,138
-483,649	205,653	-0,067	0,077
-482,635	52,418	0,116	0,081
-481,620	56,487	0,121	0,086
-480,605	177,507	-0,051	0,054
-479,591	1,572	-0,024	0,012
-478,576	315,556	-0,025	-0,034
-477,562	122,467	0,048	-0,044
-476,547	-200,000	0,003	-0,031
-475,532	154,359	0,051	0,051
-474,518	452,920	0,057	-0,092
-473,503	421,181	0,043	0,068
-472,489	118,406	0,065	-0,058
-471,474	-95,709	0,139	-0,027
-470,459	179,504	-0,189	-0,202
-469,445	359,484	0,027	-0,040
-468,430	138,787	0,075	0,072
-467,416	3,260	-0,113	0,060
-466,401	-50,312	-0,050	-0,017
-465,386	800,000	0,043	-0,096
-464,372	693,871	-0,029	0,055
-463,357	5,980	0,100	0,054
-462,343	61,020	-0,078	-0,056
-461,328	-116,854	-0,098	-0,013
-460,313	-200,000	0,014	-0,080
-459,299	76,941	-0,041	0,032
-458,284	589,674	0,046	0,084
-457,270	-115,475	0,090	-0,012
-456,255	-200,000	-0,030	0,155
-455,241	122,740	-0,147	-0,134
-454,226	-12,851	0,020	-0,010
-453,211	-34,265	0,108	0,043
-452,197	42,333	-0,113	-0,075
-451,182	74,185	0,061	0,047
-450,168	24,499	0,030	-0,018
-449,153	-47,193	0,024	-0,009
-448,138	385,152	0,061	-0,091
-447,124	-119,662	-0,072	0,009
-446,109	768,364	0,071	-0,141
-445,095	368,143	-0,038	0,056
-444,080	-200,000	0,006	0,106
-443,065	742,952	-0,028	0,054
-442,051	-200,000	0,006	0,040
-441,036	-59,259	0,058	-0,018
-440,022	-4,282	0,064	0,032
-439,007	11,249	0,104	-0,058
-437,992	50,370	-0,071	0,049
-436,978	-152,062	0,122	-0,006
-435,963	231,185	-0,045	0,054
-434,949	-45,719	0,050	0,018
-433,934	43,211	0,101	0,067
-432,919	-54,065	-0,081	0,027
-431,905	-200,000	-0,012	0,092
-430,890	28,191	0,033	-0,020
-429,876	126,810	0,123	0,114
-428,861	316,860	-0,019	-0,026
-427,846	478,870	-0,052	-0,086
-426,832	394,975	-0,020	-0,030
-425,817	8,632	0,035	0,019
-424,803	74,940	0,041	-0,032
-423,788	-21,982	0,109	-0,048
-422,773	17,418	0,037	0,021
-421,759	-200,000	-0,008	-0,049
-420,744	800,000	-0,025	-0,080
-419,730	-200,000	0,000	0,052
-418,715	101,704	-0,048	-0,041
-417,701	-200,000	0,004	-0,119
-416,686	-179,179	0,015	0,000
-415,671	-200,000	0,001	-0,052
-414,657	800,000	-0,038	0,102
-413,642	-95,374	0,111	0,022
-412,628	-9,840	-0,062	0,030
-411,613	-68,981	-0,063	0,018
-410,598	800,000	0,020	0,045
-409,584	-156,980	-0,137	0,006
-408,569	-102,800	0,129	0,022
-407,555	-183,205	-0,142	-0,002
-406,540	118,829	0,052	-0,047
-405,525	272,026	-0,060	-0,077
-404,511	800,000	0,037	-0,092
-403,496	-200,000	-0,006	-0,169
-402,482	-22,681	-0,121	-0,053
-401,467	449,639	0,031	0,050
-400,452	76,912	0,005	0,004
-399,438	41,868	-0,061	0,040
-398,423	-58,848	0,046	0,014
-397,409	800,000	0,027	-0,060
-396,394	-200,000	-0,036	-0,137
-395,379	-200,000	-0,003	0,057
-394,365	153,540	-0,144	0,143
-393,350	-100,847	0,144	-0,026
-392,336	-200,000	-0,005	-0,047
-391,321	-200,000	-0,003	-0,033
-390,306	800,000	-0,025	0,063
-389,292	-48,404	0,095	0,033
-388,277	344,876	-0,109	0,155
-387,263	-200,000	-0,011	0,054
-386,248	-200,000	-0,031	0,126
-385,233	-200,000	0,004	0,210
-384,219	210,897	0,107	0,122
-383,204	109,789	-0,103	-0,089
-382,190	-171,910	0,074	-0,002
-381,175	-200,000	0,008	-0,076
-380,160	-200,000	0,004	-0,204
-379,146	63,364	-0,161	0,117
-378,131	800,000	-0,027	0,055
-377,117	114,436	-0,101	0,090
-376,102	178,839	0,071	0,076
-375,088	-92,177	-0,192	-0,039
-374,073	-200,000	-0,009	0,124
-373,058	-16,634	0,063	0,029
-372,044	-8,173	-0,025	0,012
-371,029	-44,369	0,036	0,013
-370,015	-51,494	-0,039	0,013
-369,000	-84,276	-0,025	-0,006
-367,985	522,653	-0,048	-0,083
-366,971	151,489	0,061	0,060
-365,956	800,000	-0,040	0,104
-364,942	-200,000	-0,051	0,214
-363,927	-4,133	-0,020	-0,010
-362,912	120,451	0,025	-0,023
-361,898	-131,363	-0,120	-0,011
-360,883	95,281	0,117	-0,097
-359,869	270,513	-0,102	-0,130
-358,854	800,000	0,057	-0,179
-357,839	-151,998	0,152	0,008
-356,825	-85,332	0,069	-0,015
-355,810	-179,394	-0,022	0,000
-354,796	-200,000	0,019	0,078
-353,781	399,316	-0,015	-0,023
-352,766	56,946	0,064	-0,045
-351,752	-46,184	0,129	0,046
-350,737	10,175	0,115	0,063
-349,723	179,374	0,071	0,076
-348,708	800,000	0,015	-0,039
-347,693	800,000	0,063	0,143
-346,679	-200,000	0,009	-0,154
-345,664	800,000	-0,054	0,125
-344,650	-14,642	-0,126	0,059
-343,635	-200,000	0,005	0,100
-342,620	-91,377	-0,052	0,011
-341,606	480,724	0,036	-0,060
-340,591	-97,478	-0,094	-0,018
-339,577	-17,440	0,147	-0,067
-338,562	800,000	-0,021	-0,053
-337,548	-62,754	0,064	-0,019
-336,533	-170,347	0,037	0,001
-335,518	94,522	0,131	-0,108
-334,504	-72,383	-0,059	0,016
-333,489	-200,000	-0,036	-0,168
-332,475	-200,000	-0,001	0,012
-331,460	-200,000	-0,041	0,145
-330,445	-61,360	-0,023	-0,007
-329,431	-200,000	-0,016	0,060
-328,416	800,000	0,037	-0,110
-327,402	-169,814	-0,144	0,004
-326,387	800,000	-0,026	0,064
-325,372	217,637	-0,067	0,077
-324,358	118,824	-0,090	-0,081
-323,343	173,177	-0,093	0,097
-322,329	-95,967	0,069	0,013
-321,314	124,050	-0,043	-0,039
-320,299	-3,470	-0,104	0,053
-319,285	-200,000	0,028	0,096
-318,270	-143,888	0,039	-0,003
-317,256	90,136	0,027	0,022
-316,241	259,935	-0,119	-0,150
-315,226	-200,000	0,003	0,036
-314,212	-79,984	0,144	0,035
-313,197	74,197	-0,130	-0,099
-312,183	-108,880	0,078	0,012
-311,168	315,479	-0,089	-0,122
-310,153	-200,000	-0,002	-0,084
-309,139	49,015	-0,078	0,053
-308,124	240,316	0,011	-0,013
-307,110	-1,645	0,073	0,037
-306,095	-132,817	-0,076	0,007
-305,080	-200,000	0,002	0,105
-304,066	800,000	0,033	0,083
-303,051	23,447	-0,103	-0,061
-302,037	-136,720	0,016	-0,001
-301,022	340,130	-0,086	0,122
-300,008	172,416	0,139	0,145
-298,993	-103,964	-0,050	0,008
-297,978	-200,000	-0,003	0,039
-296,964	-101,364	0,131	-0,023
-295,949	781,326	-0,011	-0,022
-294,935	291,325	0,041	-0,055
-293,920	544,238	-0,034	-0,058
-292,905	117,912	-0,042	0,038
-291,891	800,000	0,071	0,152
-290,876	-32,393	-0,174	0,070
-289,862	-50,843	-0,197	0,067
-288,847	41,455	-0,070	0,046
-287,832	-137,820	-0,005	-0,000
-286,818	-200,000	-0,015	0,080
-285,803	-38,809	0,111	-0,042
-284,789	-200,000	-0,019	-0,106
-283,774	76,879	0,122	0,094
-282,759	800,000	-0,050	-0,127
-281,745	96,683	-0,027	0,022
-280,730	-93,694	-0,147	0,029
-279,716	-44,630	-0,069	-0,025
-278,701	-169,539	0,097	0,003
-277,686	322,936	0,024	0,033
-276,672	140,110	-0,004	0,004
-275,657	35,076	0,088	-0,056
-274,643	-124,077	0,056	0,006
-273,628	-87,087	-0,073	0,016
-272,613	-200,000	0,012	0,042
-271,599	-65,985	-0,080	-0,023
-270,584	513,339	0,048	0,082
-269,570	-156,658	0,102	0,004
-268,555	-200,000	0,021	0,123
-267,540	-105,368	0,098	-0,016
-266,526	139,933	-0,031	-0,030
-265,511	-181,332	0,120	-0,002
-264,497	28,716	-0,056	0,034
-263,482	272,114	0,060	0,077
-262,467	190,170	0,115	0,126
-261,453	-141,096	0,038	-0,003
-260,438	153,032	0,070	-0,070
-259,424	117,084	-0,061	-0,054
-258,409	-200,000	-0,002	0,048
-257,395	241,705	0,027	-0,032
-256,380	-12,716	-0,171	-0,081
-255,365	-45,695	0,062	0,022
-254,351	402,151	0,037	0,056
-253,336	-200,000	0,022	0,258
-252,322	-200,000	-0,012	-0,118
-251,307	-200,000	-0,003	-0,045
-250,292	-200,000	0,015	0,085
-249,278	-200,000	-0,035	-0,130
-248,263	29,384	-0,006	-0,004
-247,249	-200,000	-0,003	-0,016
-246,234	-200,000	0,015	0,116
-245,219	-197,433	0,112	0,000
-244,205	-166,233	-0,094	0,003
-243,190	-200,000	0,007	-0,034
-242,176	-200,000	-0,025	0,082
-241,161	-79,212	0,081	0,020
-240,146	-200,000	0,007	0,038
-239,132	197,567	0,131	-0,145
-238,117	800,000	0,077	-0,183
-237,103	-200,000	-0,020	-0,064
-236,088	-200,000	-0,018	0,082
-235,073	-23,204	0,103	-0,045
-234,059	-17,845	0,110	0,050
-233,044	-133,306	-0,051	-0,005
-232,030	-109,667	0,069	-0,010
-231,015	259,962	-0,036	0,045
-230,000	800,000	-0,034	-0,068
-228,986	384,901	0,051	-0,076
-227,971	186,348	-0,068	0,073
-226,957	271,496	0,058	-0,074
-225,942	-200,000	0,009	0,047
-224,927	-200,000	0,045	0,197
-223,913	-32,594	-0,109	-0,044
-222,898	-200,000	-0,031	-0,115
-221,884	-98,981	0,101	-0,018
-220,869	-200,000	-0,023	-0,084
-219,855	420,631	0,055	0,085
-218,840	113,444	0,051	-0,044
-217,825	24,502	-0,035	-0,021
-216,811	219,827	-0,040	0,046
-215,796	186,107	0,078	-0,084
-214,782	800,000	-0,035	-0,103
-213,767	-89,644	0,129	0,027
-212,752	46,082	0,112	-0,075
-211,738	373,614	0,076	-0,112
-210,723	800,000	-0,042	0,109
-209,709	-106,205	-0,128	0,021
-208,694	51,716	-0,196	0,135
-207,679	800,000	-0,017	0,039
-206,665	240,297	-0,048	-0,058
-205,650	119,748	-0,044	0,039
-204,636	285,509	0,048	0,063
-203,621	800,000	-0,013	0,041
-202,606	-125,403	-0,125	0,014
-201,592	800,000	0,041	-0,111
-200,577	624,454	-0,073	-0,134
-199,563	-63,315	0,055	-0,016
-198,548	-200,000	-0,019	0,114
-197,533	-98,332	-0,107	0,020
-196,519	199,309	0,103	0,115
-195,504	134,783	0,102	-0,096
-194,490	160,286	-0,107	0,108
-193,475	0,863	0,093	-0,048
-192,460	615,499	0,010	-0,018
-191,446	800,000	0,045	0,105
-190,431	-74,141	0,219	0,057
-189,417	800,000	0,036	-0,110
-188,402	-42,267	-0,034	-0,012
-187,387	800,000	-0,034	-0,089
-186,373	800,000	-0,013	-0,037
-185,358	-79,376	-0,114	0,028
-184,344	-200,000	-0,002	-0,039
-183,329	-200,000	0,099	0,000
-182,315	-200,000	0,009	-0,105
-181,300	31,323	0,039	0,024
-180,285	11,250	-0,119	-0,066
-179,271	-72,353	-0,109	-0,029
-178,256	-86,327	0,167	-0,037
-177,242	344,135	0,018	0,026
-176,227	-200,000	0,032	0,105
-175,212	-68,376	0,125	0,035
-174,198	182,549	-0,019	-0,020
-173,183	-16,173	-0,055	0,025
-172,169	-200,000	-0,046	-0,234
-171,154	800,000	-0,051	-0,156
-170,139	545,431	-0,080	-0,138
-169,125	86,301	0,014	-0,011
-168,110	-126,580	0,158	0,017
-167,096	800,000	-0,077	-0,157
-166,081	104,366	-0,019	0,016
-165,066	-200,000	0,001	-0,099
-164,052	198,953	0,090	-0,100
-163,037	36,438	-0,144	0,091
-162,023	-200,000	0,007	0,135
-161,008	-5,256	0,058	0,029
-159,993	-200,000	0,016	-0,084
-158,979	135,758	0,042	0,040
-157,964	800,000	-0,052	-0,105
-156,950	788,749	0,051	-0,101
-155,935	-0,401	-0,026	0,013
-154,920	-200,000	0,016	0,089
-153,906	677,900	0,055	0,103
-152,891	-75,083	0,090	0,023
-151,877	156,217	-0,035	-0,034
-150,862	-127,172	0,058	-0,006
-149,847	-200,000	-0,044	-0,158
-148,833	379,565	-0,016	0,024
-147,818	-99,383	0,209	-0,038
-146,804	800,000	-0,078	0,162
-145,789	-200,000	-0,015	0,078
-144,775	-76,774	0,088	-0,022
-143,760	800,000	0,055	0,116
-142,745	-200,000	0,001	-0,022
-141,731	-6,689	-0,072	-0,035
-140,716	118,627	0,139	-0,124
-139,702	163,457	-0,082	0,083
-138,687	64,913	0,106	-0,077
-137,672	31,549	-0,117	-0,072
-136,658	-45,375	0,050	-0,018
-135,643	-200,000	-0,018	-0,105
-134,629	-135,644	0,040	0,003
-133,614	564,886	-0,043	-0,076
-132,599	-200,000	0,017	0,075
-131,585	131,323	0,096	0,089
-130,570	-128,810	0,017	-0,002
-129,556	620,954	0,054	-0,098
-128,541	750,319	-0,088	-0,172
-127,526	215,814	0,059	0,068
-126,512	-102,250	0,144	-0,025
-125,497	294,440	-0,055	0,073
-124,483	-200,000	0,029	0,160
-123,468	300,084	0,122	-0,162
-122,453	320,219	-0,146	-0,200
-121,439	800,000	-0,016	-0,035
-120,424	-63,128	0,048	0,014
-119,410	-34,375	0,133	0,052
