DTS Sentinel unit serial number:	SN410029Multiplexer serial number:	ORYXHardware model number:	OX2-SRSoftware version number:	ORYX F/W v4,00 Oryx Data Collector v3.7.2.0data status	okinstallation	B5 Nyhavnadifferential loss correction	single-endedforward channel	channel 2reverse channel	N/Adate	2023/12/14time	03:12:13forward acquisition time	300,00reverse acquisition time	0,00gamma	499,1914k internal	0,3155k external	0,3155temperature offset calibration	1,0000default loss term (dB/km)	0,3820temperature slope calibration	1,0000multiplexer offset coefficient	1,0000multiplexer slope coefficient	1,0000fibre end	0,00T internal ref (°C)	8,29T ext. ref 1 (°C)	-8,09T ext. ref 2 (°C)	-8,15length (m)	temperature (°C)	Stokes	anti-Stokes-744,400	43,383	0,121	0,081
-743,385	-23,183	-0,249	-0,110
-742,371	234,217	0,065	0,079
-741,356	-132,294	-0,398	-0,037
-740,342	27,292	0,093	0,058
-739,327	-57,163	-0,290	-0,094
-738,312	14,513	0,132	0,076
-737,298	2,159	-0,324	-0,172
-736,283	98,340	0,207	0,176
-735,269	-42,000	-0,346	-0,130
-734,254	12,509	0,192	0,109
-733,239	-2,060	-0,475	-0,245
-732,225	-100,698	0,136	0,025
-731,210	728,733	-0,047	0,093
-730,196	-200,000	0,096	0,000
-729,181	-200,000	-0,021	-0,124
-728,167	-151,527	-0,106	0,006
-727,152	98,901	0,024	0,020
-726,137	236,729	0,100	-0,122
-725,123	321,865	-0,073	-0,102
-724,108	-200,000	-0,010	-0,087
-723,094	-200,000	-0,044	-0,143
-722,079	-200,000	0,001	-0,100
-721,064	521,767	0,038	-0,066
-720,050	-15,925	-0,044	0,021
-719,035	-14,642	-0,125	0,059
-718,021	-129,092	0,026	0,003
-717,006	412,347	-0,027	-0,043
-715,991	78,431	-0,108	-0,085
-714,977	17,597	-0,070	0,041
-713,962	438,813	-0,038	-0,062
-712,948	526,206	-0,077	-0,134
-711,933	508,578	-0,015	0,027
-710,918	800,000	0,046	-0,112
-709,904	298,408	0,077	-0,105
-708,889	94,645	-0,025	-0,021
-707,875	234,222	0,045	0,055
-706,860	-200,000	0,001	0,087
-705,845	-200,000	-0,006	-0,024
-704,831	414,036	-0,010	0,016
-703,816	-165,853	-0,103	0,003
-702,802	133,043	-0,041	-0,039
-701,787	800,000	0,046	-0,100
-700,772	800,000	-0,031	-0,100
-699,758	-200,000	0,006	-0,059
-698,743	785,497	0,091	0,185
-697,729	75,709	0,043	0,033
-696,714	92,401	0,014	0,012
-695,699	-200,000	0,009	-0,101
-694,685	547,848	-0,024	0,043
-693,670	138,599	0,045	-0,044
-692,656	465,356	0,138	0,229
-691,641	800,000	-0,027	0,069
-690,627	125,913	0,112	0,104
-689,612	-106,548	-0,116	-0,019
-688,597	-200,000	-0,008	-0,036
-687,583	-91,685	-0,162	-0,034
-686,568	-37,011	-0,108	0,042
-685,554	-29,861	0,018	-0,008
-684,539	739,975	0,020	-0,040
-683,524	-200,000	-0,014	0,136
-682,510	36,712	-0,120	0,078
-681,495	-98,356	-0,148	-0,028
-680,481	-200,000	-0,007	-0,113
-679,466	-89,760	-0,123	0,026
-678,451	-115,911	0,016	0,002
-677,437	-200,000	-0,010	0,064
-676,422	-32,156	0,044	-0,018
-675,408	2,296	0,102	-0,054
-674,393	-200,000	0,000	-0,068
-673,378	-57,596	-0,029	0,009
-672,364	-200,000	0,014	-0,067
-671,349	-51,764	-0,129	0,044
-670,335	145,404	0,020	0,020
-669,320	-102,100	0,106	-0,019
-668,305	274,639	-0,061	0,080
-667,291	-17,650	-0,083	0,038
-666,276	-34,520	0,073	-0,029
-665,262	-200,000	0,007	-0,037
-664,247	517,599	-0,030	0,052
-663,232	-200,000	0,011	-0,148
-662,218	18,912	-0,092	0,054
-661,203	92,176	-0,091	0,076
-660,189	-150,277	0,121	0,007
-659,174	322,611	-0,041	-0,057
-658,159	556,375	-0,059	-0,105
-657,145	-149,029	0,149	0,009
-656,130	-16,551	-0,117	0,054
-655,116	-93,611	-0,045	0,009
-654,101	182,560	-0,023	0,025
-653,086	98,047	0,047	-0,040
-652,072	-67,539	0,084	-0,024
-651,057	-200,000	-0,005	-0,128
-650,043	-65,252	-0,093	-0,027
-649,028	-111,209	-0,103	0,015
-648,014	762,743	-0,026	-0,053
-646,999	666,573	0,041	0,078
-645,984	-99,357	-0,046	0,008
-644,970	71,885	-0,063	-0,048
-643,955	158,942	0,082	-0,084
-642,941	-89,835	-0,184	-0,039
-641,926	-200,000	0,017	-0,085
-640,911	2,541	0,067	0,035
-639,897	-171,990	-0,084	-0,002
-638,882	92,109	-0,042	0,035
-637,868	-76,659	-0,195	0,050
-636,853	372,068	0,071	-0,106
-635,838	-200,000	-0,033	-0,136
-634,824	186,813	-0,090	-0,098
-633,809	800,000	0,043	0,116
-632,795	800,000	-0,027	0,074
-631,780	800,000	0,025	-0,066
-630,765	57,602	-0,073	0,053
-629,751	800,000	-0,032	0,080
-628,736	65,057	0,020	-0,015
-627,722	321,329	0,004	-0,005
-626,707	193,863	0,037	0,042
-625,692	800,000	-0,012	0,037
-624,678	30,754	-0,057	-0,036
-623,663	-10,212	-0,042	0,020
-622,649	491,666	-0,107	-0,180
-621,634	85,966	-0,106	-0,085
-620,619	-74,992	-0,112	-0,029
-619,605	535,028	0,105	-0,183
-618,590	16,458	0,136	0,078
-617,576	36,399	0,127	0,082
-616,561	13,636	-0,065	0,037
-615,546	800,000	-0,054	-0,111
-614,532	105,896	0,075	-0,065
-613,517	800,000	0,065	-0,137
-612,503	8,368	-0,141	-0,077
-611,488	-36,661	-0,109	0,043
-610,474	-200,000	-0,004	0,064
-609,459	373,986	-0,005	0,008
-608,444	18,428	0,122	-0,071
-607,430	21,497	0,022	0,013
-606,415	-57,987	-0,115	-0,037
-605,401	800,000	-0,077	-0,176
-604,386	-145,698	-0,100	-0,006
-603,371	718,508	0,045	0,087
-602,357	-153,945	0,076	0,004
-601,342	-200,000	0,010	-0,052
-600,328	742,790	-0,074	-0,147
-599,313	-93,574	-0,057	-0,011
-598,298	-74,154	-0,066	0,017
-597,284	-200,000	-0,030	0,121
-596,269	-200,000	0,011	-0,064
-595,255	-200,000	0,008	0,098
-594,240	800,000	0,006	0,014
-593,225	177,765	0,036	-0,039
-592,211	454,505	-0,078	-0,127
-591,196	-8,698	-0,028	0,014
-590,182	-18,503	-0,043	0,019
-589,167	-29,597	0,021	0,009
-588,152	288,632	0,043	-0,057
-587,138	-200,000	-0,019	-0,079
-586,123	-41,237	0,071	-0,027
-585,109	-200,000	-0,015	-0,076
-584,094	-11,014	-0,070	-0,034
-583,079	548,565	0,072	0,127
-582,065	96,348	0,051	-0,042
-581,050	-200,000	-0,027	-0,132
-580,036	-200,000	-0,032	0,125
-579,021	-72,765	-0,074	-0,020
-578,006	-200,000	-0,020	-0,084
-576,992	800,000	-0,011	-0,027
-575,977	-158,158	0,047	-0,002
-574,963	-164,277	-0,009	0,000
-573,948	347,039	0,021	0,030
-572,934	122,163	-0,023	-0,021
-571,919	652,936	-0,109	-0,206
-570,904	31,176	0,015	0,010
-569,890	114,173	-0,041	-0,037
-568,875	239,365	-0,069	-0,084
-567,861	-38,726	-0,040	-0,015
-566,846	800,000	0,056	-0,126
-565,831	-53,862	-0,221	-0,073
-564,817	22,806	-0,070	-0,042
-563,802	354,563	-0,059	-0,085
-562,788	-200,000	0,005	0,112
-561,773	-67,964	0,035	-0,010
-560,758	228,150	-0,048	-0,057
-559,744	137,626	-0,132	0,126
-558,729	-53,626	0,124	-0,041
-557,715	257,944	-0,103	-0,130
-556,700	-69,356	-0,089	-0,025
-555,685	-32,371	-0,028	0,012
-554,671	-72,425	0,100	-0,027
-553,656	-117,243	-0,089	0,012
-552,642	98,055	0,193	-0,163
-551,627	794,476	0,039	-0,078
-550,612	-151,342	-0,032	0,002
-549,598	-200,000	0,008	0,079
-548,583	-170,132	-0,024	0,001
-547,569	-24,129	0,096	0,042
-546,554	62,610	0,016	-0,012
-545,539	-16,507	0,091	0,042
-544,525	-10,871	0,089	-0,043
-543,510	81,331	-0,113	-0,089
-542,496	461,018	-0,042	-0,069
-541,481	-200,000	0,026	-0,148
-540,466	241,781	-0,064	0,078
-539,452	-200,000	0,030	0,113
-538,437	800,000	0,022	0,064
-537,423	-200,000	0,017	-0,088
-536,408	509,817	0,106	0,181
-535,393	41,989	-0,100	-0,066
-534,379	-102,436	-0,088	-0,015
-533,364	-200,000	-0,004	0,113
-532,350	800,000	0,023	0,065
-531,335	-200,000	-0,011	-0,078
-530,321	338,139	0,042	0,060
-529,306	-70,783	-0,023	-0,006
-528,291	-177,390	-0,161	-0,003
-527,277	-200,000	-0,003	-0,018
-526,262	-80,327	-0,042	-0,010
-525,248	231,368	0,048	0,058
-524,233	506,611	-0,068	0,116
-523,218	310,003	0,090	-0,123
-522,204	-200,000	0,002	-0,093
-521,189	-138,193	-0,099	0,008
-520,175	-200,000	-0,022	0,099
-519,160	-34,181	-0,075	-0,030
-518,145	51,946	0,091	0,063
-517,131	-81,546	0,073	0,017
-516,116	-85,073	0,082	0,019
-515,102	499,291	0,080	0,135
-514,087	-173,309	0,076	-0,002
-513,072	-34,551	-0,078	-0,031
-512,058	-119,419	0,116	0,015
-511,043	-200,000	-0,014	-0,081
-510,029	-200,000	0,018	-0,138
-509,014	-122,901	0,130	0,015
-507,999	-200,000	-0,052	0,176
-506,985	332,359	0,066	0,093
-505,970	188,741	-0,096	-0,105
-504,956	54,003	-0,068	-0,048
-503,941	-44,549	0,084	-0,030
-502,926	747,438	0,024	0,047
-501,912	195,245	0,132	0,146
-500,897	-200,000	0,007	-0,065
-499,883	-136,742	-0,156	0,013
-498,868	-200,000	0,022	0,111
-497,853	-133,386	-0,136	-0,012
-496,839	103,619	0,101	-0,086
-495,824	-200,000	0,011	0,117
-494,810	-200,000	0,005	-0,149
-493,795	-200,000	0,012	0,147
-492,781	161,445	0,016	0,017
-491,766	-117,253	0,025	-0,003
-490,751	184,816	-0,072	-0,078
-489,737	-149,040	0,161	-0,009
-488,722	-200,000	0,007	-0,146
-487,708	-33,175	-0,046	-0,018
-486,693	87,426	-0,118	-0,095
-485,678	-200,000	-0,002	-0,054
-484,664	-200,000	0,015	0,067
-483,649	-135,356	-0,124	0,011
-482,635	64,580	-0,050	-0,037
-481,620	-200,000	-0,018	0,103
-480,605	58,339	0,099	0,071
-479,591	784,682	0,055	0,111
-478,576	-148,743	0,138	0,008
-477,562	-134,803	-0,128	0,011
-476,547	-200,000	-0,003	0,021
-475,532	800,000	-0,018	-0,055
-474,518	800,000	-0,048	0,099
-473,503	800,000	0,080	-0,247
-472,489	167,418	0,120	0,125
-471,474	-143,957	0,036	0,002
-470,459	-162,490	-0,114	-0,004
-469,445	-4,129	-0,067	-0,034
-468,430	-157,571	0,135	-0,006
-467,416	-79,808	-0,024	0,006
-466,401	-200,000	-0,012	0,092
-465,386	800,000	0,040	0,094
-464,372	-22,759	-0,087	-0,038
-463,357	689,901	-0,044	-0,084
-462,343	-1,440	-0,017	-0,008
-461,328	-200,000	0,023	-0,112
-460,313	800,000	-0,045	-0,120
-459,299	-200,000	-0,013	-0,069
-458,284	-135,696	-0,082	-0,007
-457,270	172,594	-0,097	0,102
-456,255	190,986	-0,085	0,093
-455,241	321,742	0,033	0,046
-454,226	153,852	-0,086	-0,086
-453,211	75,945	-0,114	-0,088
-452,197	-20,487	0,142	-0,063
-451,182	800,000	0,046	0,127
-450,168	-29,934	0,033	0,013
-449,153	91,103	0,092	0,076
-448,138	-200,000	-0,006	0,148
-447,124	800,000	-0,033	0,092
-446,109	113,500	-0,131	-0,116
-445,095	-200,000	0,022	-0,088
-444,080	-23,191	0,061	0,027
-443,065	-200,000	-0,002	-0,103
-442,051	-200,000	-0,021	-0,131
-441,036	-159,433	0,028	-0,001
-440,022	208,348	0,038	0,044
-439,007	-103,193	-0,094	-0,016
-437,992	702,390	0,043	0,082
-436,978	-83,977	-0,094	0,022
-435,963	800,000	0,017	0,037
-434,949	43,960	-0,116	-0,077
-433,934	36,165	-0,058	0,037
-432,919	73,308	-0,057	-0,044
-431,905	301,359	-0,002	-0,002
-430,890	235,648	0,063	0,077
-429,876	489,855	0,069	-0,115
-428,861	-156,534	0,064	-0,003
-427,846	800,000	-0,023	0,058
-426,832	-30,423	-0,076	0,031
-425,817	-46,904	-0,056	-0,020
-424,803	800,000	0,024	-0,066
-423,788	-145,543	0,034	0,002
-422,773	218,539	-0,059	0,069
-421,759	-200,000	0,012	0,127
-420,744	800,000	-0,005	-0,016
-419,730	-62,376	-0,116	-0,035
-418,715	-191,875	0,051	-0,000
-417,701	-112,258	0,085	-0,012
-416,686	-20,303	0,066	0,029
-415,671	-200,000	0,025	0,110
-414,657	-113,910	0,127	0,018
-413,642	131,069	-0,026	0,024
-412,628	800,000	0,033	0,074
-411,613	-28,771	-0,122	0,051
-410,598	-200,000	0,013	-0,073
-409,584	36,264	0,118	0,076
-408,569	149,751	-0,046	-0,046
-407,555	24,139	-0,036	-0,021
-406,540	-200,000	-0,016	-0,138
-405,525	613,520	0,022	0,041
-404,511	60,574	-0,096	-0,069
-403,496	800,000	-0,074	-0,182
-402,482	800,000	-0,031	0,080
-401,467	800,000	0,048	0,112
-400,452	-128,593	0,138	-0,014
-399,438	800,000	-0,036	0,101
-398,423	-142,406	0,133	-0,009
-397,409	98,457	0,085	0,071
-396,394	476,446	-0,040	-0,066
-395,379	81,606	0,049	0,038
-394,365	88,211	0,141	0,114
-393,350	448,157	-0,057	0,092
-392,336	30,145	0,059	-0,037
-391,321	800,000	0,005	-0,016
-390,306	306,588	-0,049	0,067
-389,292	-6,547	-0,090	-0,044
-388,277	-26,095	0,119	0,051
-387,263	183,188	-0,059	0,064
-386,248	-56,124	0,032	0,010
-385,233	800,000	-0,049	-0,135
-384,219	224,523	0,019	-0,023
-383,204	-13,240	-0,095	0,045
-382,190	-74,660	0,115	-0,030
-381,175	378,398	-0,043	0,064
-380,160	-69,580	0,146	0,040
-379,146	-200,000	0,018	-0,079
-378,131	-200,000	0,009	0,184
-377,117	72,184	-0,078	0,059
-376,102	-157,108	0,025	-0,001
-375,088	800,000	0,033	0,072
-374,073	-2,066	0,117	-0,060
-373,058	-200,000	-0,002	0,088
-372,044	174,301	0,076	-0,080
-371,029	378,238	-0,052	0,077
-370,015	464,239	0,015	-0,024
-369,000	270,886	-0,087	-0,112
-367,985	284,637	0,057	-0,075
-366,971	65,710	0,084	-0,062
-365,956	-124,773	0,169	-0,019
-364,942	493,583	0,099	0,166
-363,927	43,314	0,091	0,060
-362,912	423,954	0,041	-0,064
-361,898	800,000	0,007	0,023
-360,883	-200,000	-0,005	0,035
-359,869	98,097	-0,050	-0,042
-358,854	99,111	0,056	-0,047
-357,839	117,870	0,053	0,048
-356,825	-26,947	0,057	0,024
-355,810	800,000	-0,021	0,060
-354,796	-87,894	-0,042	0,009
-353,781	-200,000	-0,008	-0,075
-352,766	43,758	-0,085	0,057
-351,752	38,007	0,079	0,051
-350,737	6,021	0,118	-0,063
-349,723	-200,000	0,016	0,086
-348,708	-119,026	0,055	0,007
-347,693	110,087	-0,103	-0,090
-346,679	3,225	0,044	-0,023
-345,664	-180,616	0,020	0,000
-344,650	-200,000	-0,003	-0,179
-343,635	3,781	0,009	-0,005
-342,620	357,616	0,062	-0,090
-341,606	24,366	-0,083	0,050
-340,591	-200,000	0,008	-0,057
-339,577	-200,000	0,007	-0,120
-338,562	800,000	-0,033	-0,078
-337,548	-19,739	0,088	-0,039
-336,533	-8,933	-0,077	0,037
-335,518	-200,000	-0,010	0,165
-334,504	-200,000	0,002	0,071
-333,489	4,779	0,012	0,006
-332,475	12,361	-0,095	0,053
-331,460	253,669	-0,048	-0,060
-330,445	158,194	-0,037	0,037
-329,431	64,914	-0,048	0,035
-328,416	800,000	0,043	0,099
-327,402	-38,149	-0,087	-0,033
-326,387	-200,000	-0,006	-0,069
-325,372	104,287	-0,105	-0,090
-324,358	-200,000	0,006	-0,130
-323,343	-19,640	0,042	0,019
-322,329	-74,332	0,189	-0,049
-321,314	195,238	-0,097	0,107
-320,299	800,000	-0,013	0,039
-319,285	7,152	0,069	0,037
-318,270	47,429	-0,121	0,082
-317,256	194,927	0,021	0,024
-316,241	800,000	-0,001	0,004
-315,226	800,000	0,048	0,107
-314,212	-200,000	0,035	0,162
-313,197	-200,000	0,010	0,063
-312,183	76,416	0,014	-0,011
-311,168	532,873	-0,043	-0,074
-310,153	800,000	-0,014	-0,033
-309,139	374,945	0,046	-0,069
-308,124	-200,000	0,023	-0,096
-307,110	410,284	0,063	0,098
-306,095	679,740	-0,063	-0,120
-305,080	211,520	-0,058	0,066
-304,066	800,000	-0,053	0,117
-303,051	-200,000	-0,004	-0,070
-302,037	-200,000	-0,029	-0,110
-301,022	586,166	-0,026	-0,047
-300,008	14,091	0,076	0,043
-298,993	-98,594	0,152	0,028
-297,978	800,000	-0,046	0,099
-296,964	100,091	0,046	0,039
-295,949	198,623	-0,093	0,103
-294,935	45,097	0,049	0,032
-293,920	-200,000	0,004	-0,092
-292,905	141,442	0,089	0,085
-291,891	-71,057	0,054	-0,015
-290,876	800,000	-0,045	-0,109
-289,862	-200,000	0,014	0,090
-288,847	32,163	-0,199	-0,124
-287,832	528,635	-0,078	-0,135
-286,818	300,221	0,036	0,048
-285,803	-200,000	-0,004	-0,066
-284,789	430,680	-0,017	0,026
-283,774	74,594	0,046	0,035
-282,759	0,676	0,096	0,050
-281,745	-200,000	0,014	-0,057
-280,730	1,004	0,012	0,006
-279,716	44,851	-0,047	0,031
-278,701	800,000	0,001	0,004
-277,686	800,000	0,134	0,272
-276,672	-200,000	-0,010	0,037
-275,657	-200,000	0,010	0,075
-274,643	800,000	0,095	-0,233
-273,628	-55,147	-0,120	0,039
-272,613	800,000	-0,027	-0,079
-271,599	116,648	-0,058	-0,051
-270,584	-200,000	-0,028	0,117
-269,570	-102,953	0,141	0,024
-268,555	-200,000	-0,005	-0,084
-267,540	-200,000	-0,013	-0,174
-266,526	-95,373	-0,135	-0,026
-265,511	431,449	0,037	-0,058
-264,497	205,689	-0,018	0,020
-263,482	129,214	-0,038	0,035
-262,467	2,192	-0,072	-0,038
-261,453	531,073	0,075	-0,130
-260,438	-94,813	-0,035	0,007
-259,424	35,522	-0,047	0,030
-258,409	-35,997	-0,128	-0,050
-257,395	41,990	-0,060	0,039
-256,380	-200,000	-0,019	0,150
-255,365	-200,000	0,018	0,141
-254,351	12,600	-0,094	0,052
-253,336	54,040	-0,009	0,006
-252,322	-11,431	-0,032	-0,015
-251,307	800,000	-0,045	-0,117
-250,292	318,602	0,115	-0,158
-249,278	-200,000	-0,007	0,138
-248,263	-134,442	0,079	0,007
-247,249	-200,000	0,004	0,077
-246,234	-200,000	0,004	-0,114
-245,219	800,000	0,054	0,123
-244,205	-46,607	-0,043	-0,015
-243,190	218,248	0,041	0,047
-242,176	-200,000	0,001	0,135
-241,161	18,361	0,223	0,128
-240,146	-200,000	-0,011	0,080
-239,132	-34,301	0,026	-0,010
-238,117	601,295	-0,053	0,096
-237,103	186,594	-0,104	0,112
-236,088	437,103	0,027	0,042
-235,073	-101,049	0,086	-0,015
-234,059	-200,000	-0,012	0,090
-233,044	-200,000	-0,012	-0,078
-232,030	435,666	-0,057	0,090
-231,015	359,061	0,033	0,047
-230,000	-200,000	-0,006	-0,076
-228,986	-186,735	0,017	0,000
-227,971	60,498	0,114	-0,082
-226,957	-143,006	0,137	0,009
-225,942	800,000	0,018	-0,048
-224,927	26,281	0,107	0,065
-223,913	20,845	-0,086	-0,050
-222,898	-22,130	0,051	0,022
-221,884	497,023	0,032	-0,053
-220,869	-200,000	-0,004	0,130
-219,855	-200,000	-0,002	0,082
-218,840	150,954	0,090	-0,088
-217,825	-116,345	-0,144	-0,019
-216,811	-3,878	0,013	0,006
-215,796	-200,000	-0,003	-0,057
-214,782	-59,769	0,093	-0,029
-213,767	-60,349	-0,013	0,004
-212,752	405,826	0,049	0,074
-211,738	42,442	0,143	-0,094
-210,723	24,253	-0,097	0,058
-209,709	800,000	0,064	-0,146
-208,694	-47,956	-0,067	-0,023
-207,679	800,000	0,037	-0,076
-206,665	-200,000	0,008	0,055
-205,650	474,937	0,030	0,049
-204,636	-200,000	0,022	0,118
-203,621	9,056	-0,109	0,059
-202,606	800,000	0,058	0,146
-201,592	763,902	-0,031	0,061
-200,577	114,050	0,149	-0,131
-199,563	800,000	0,049	0,115
-198,548	171,163	0,071	0,074
-197,533	-127,709	-0,081	-0,008
-196,519	800,000	-0,021	0,060
-195,504	472,180	-0,034	0,055
-194,490	15,243	0,100	-0,056
-193,475	-155,536	-0,133	-0,006
-192,460	264,033	0,110	-0,139
-191,446	-25,972	-0,099	-0,042
-190,431	56,729	0,081	-0,057
-189,417	-129,115	-0,142	0,014
-188,402	-78,611	0,023	-0,006
-187,387	279,477	-0,087	0,113
-186,373	181,312	0,021	-0,023
-185,358	81,967	-0,064	-0,050
-184,344	-79,288	0,027	-0,007
-183,329	800,000	0,066	0,208
-182,315	-52,018	0,107	-0,036
-181,300	800,000	-0,031	0,087
-180,285	-12,211	0,038	0,018
-179,271	385,277	-0,025	0,037
-178,256	104,483	-0,031	-0,027
-177,242	-200,000	-0,014	-0,099
-176,227	-200,000	0,006	0,102
-175,212	-8,707	0,138	0,067
-174,198	-200,000	0,010	0,037
-173,183	-6,267	0,005	0,003
-172,169	6,318	-0,107	0,057
-171,154	-30,412	-0,032	-0,013
-170,139	57,316	0,155	-0,109
-169,125	29,608	0,042	0,026
-168,110	800,000	-0,035	0,070
-167,096	370,510	0,050	-0,073
-166,081	800,000	0,058	0,130
-165,066	-200,000	-0,006	0,146
-164,052	-31,340	0,055	0,022
-163,037	164,806	0,065	0,066
-162,023	-200,000	-0,013	-0,066
-161,008	646,478	0,065	-0,121
-159,993	-47,901	-0,032	-0,011
-158,979	237,875	-0,029	0,035
-157,964	273,570	-0,030	0,038
-156,950	57,145	-0,066	0,046
-155,935	-200,000	0,035	-0,187
-154,920	88,056	0,019	-0,015
-153,906	-75,535	0,046	-0,012
-152,891	800,000	-0,019	-0,039
-151,877	-80,886	0,066	0,016
-150,862	-102,389	-0,036	0,006
-149,847	-142,343	0,032	0,002
-148,833	142,425	-0,099	0,094
-147,818	-200,000	0,025	0,112
-146,804	2,265	0,047	0,024
-145,789	-200,000	0,004	0,015
-144,775	18,922	0,055	0,032
-143,760	-106,855	0,042	0,007
-142,745	220,563	-0,063	-0,073
-141,731	588,011	-0,016	-0,028
-140,716	45,135	-0,058	0,039
-139,702	-200,000	-0,020	0,092
-138,687	-200,000	0,013	0,068
-137,672	-200,000	0,007	-0,126
-136,658	-180,281	-0,072	0,001
-135,643	97,575	0,065	-0,054
-134,629	45,023	0,132	-0,088
-133,614	-173,254	-0,063	-0,001
-132,599	552,212	-0,057	0,100
-131,585	-13,970	0,002	0,001
-130,570	-186,381	-0,088	-0,001
-129,556	9,667	0,081	-0,044
-128,541	691,166	-0,116	-0,221
-127,526	25,569	-0,088	0,052
-126,512	-200,000	-0,017	0,056
-125,497	800,000	-0,046	0,093
-124,483	-200,000	0,035	-0,141
-123,468	428,493	0,065	-0,102
-122,453	194,678	0,126	-0,138
-121,439	-53,757	-0,029	0,009
-120,424	-200,000	-0,009	0,046
-119,410	-200,000	0,014	0,068
-118,395	180,561	-0,061	-0,064
