DTS Sentinel unit serial number:	SN410029Multiplexer serial number:	ORYXHardware model number:	OX2-SRSoftware version number:	ORYX F/W v4,00 Oryx Data Collector v3.7.2.0data status	okinstallation	B5 Nyhavnadifferential loss correction	single-endedforward channel	channel 2reverse channel	N/Adate	2023/12/13time	16:12:13forward acquisition time	300,00reverse acquisition time	0,00gamma	499,1914k internal	0,3160k external	0,3160temperature offset calibration	1,0000default loss term (dB/km)	0,3820temperature slope calibration	1,0000multiplexer offset coefficient	1,0000multiplexer slope coefficient	1,0000fibre end	0,00T internal ref (°C)	14,87T ext. ref 1 (°C)	-1,78T ext. ref 2 (°C)	-2,00length (m)	temperature (°C)	Stokes	anti-Stokes-744,400	8,466	0,086	0,048
-743,385	-165,729	-0,375	0,012
-742,371	24,471	0,103	0,062
-741,356	-25,502	-0,280	0,121
-740,342	-107,904	0,176	0,028
-739,327	-60,352	-0,390	-0,122
-738,312	-58,275	0,065	-0,021
-737,298	-59,931	-0,282	-0,088
-736,283	309,944	0,064	-0,088
-735,269	-181,082	-0,243	0,003
-734,254	-102,820	0,136	-0,024
-733,239	-12,744	-0,531	-0,254
-732,225	-129,283	0,205	-0,021
-731,210	-200,000	-0,030	0,105
-730,196	-80,256	0,033	-0,008
-729,181	379,233	-0,039	-0,059
-728,167	-150,603	-0,116	0,006
-727,152	220,037	-0,044	-0,052
-726,137	223,710	-0,183	-0,218
-725,123	-84,266	0,074	-0,017
-724,108	-54,211	-0,089	-0,030
-723,094	81,078	-0,044	-0,035
-722,079	93,867	-0,038	-0,032
-721,064	-32,950	-0,088	0,036
-720,050	-53,783	-0,096	0,032
-719,035	224,554	-0,038	-0,045
-718,021	127,880	-0,106	-0,099
-717,006	-200,000	0,020	-0,107
-715,991	-200,000	0,041	-0,158
-714,977	-200,000	-0,010	-0,183
-713,962	391,583	-0,061	-0,093
-712,948	137,556	-0,073	0,071
-711,933	240,846	-0,080	-0,098
-710,918	-200,000	-0,003	-0,066
-709,904	5,842	-0,052	0,028
-708,889	-200,000	-0,014	-0,082
-707,875	-200,000	0,013	-0,104
-706,860	213,833	0,105	-0,122
-705,845	-173,159	-0,195	-0,004
-704,831	457,086	0,092	0,152
-703,816	215,826	-0,084	0,099
-702,802	800,000	0,059	-0,126
-701,787	394,565	-0,052	-0,080
-700,772	-36,200	0,054	-0,021
-699,758	-200,000	-0,023	-0,135
-698,743	43,296	0,076	-0,051
-697,729	132,863	0,060	-0,057
-696,714	-200,000	-0,012	-0,049
-695,699	800,000	-0,079	-0,193
-694,685	-98,511	-0,078	-0,015
-693,670	-135,614	-0,138	0,012
-692,656	800,000	-0,019	-0,059
-691,641	-60,427	0,121	-0,038
-690,627	37,014	-0,085	0,055
-689,612	251,529	0,044	0,055
-688,597	-200,000	-0,001	-0,121
-687,583	44,002	-0,112	-0,076
-686,568	-183,716	-0,047	0,001
-685,554	-161,854	-0,116	0,004
-684,539	178,081	-0,036	0,038
-683,524	-200,000	0,024	-0,106
-682,510	94,932	-0,044	0,037
-681,495	800,000	-0,039	-0,081
-680,481	6,652	-0,034	0,019
-679,466	136,722	-0,051	0,049
-678,451	-200,000	0,025	-0,144
-677,437	-119,505	0,031	-0,004
-676,422	800,000	0,026	-0,069
-675,408	28,322	0,128	0,080
-674,393	800,000	-0,032	0,077
-673,378	800,000	-0,018	-0,058
-672,364	128,191	-0,071	-0,066
-671,349	-200,000	-0,020	-0,107
-670,335	-35,290	0,096	0,038
-669,320	-19,650	-0,015	0,007
-668,305	91,545	0,039	0,032
-667,291	31,019	-0,053	0,034
-666,276	-200,000	-0,018	0,096
-665,262	-200,000	0,046	-0,159
-664,247	-200,000	-0,010	0,050
-663,232	-168,882	-0,101	0,003
-662,218	-44,171	0,084	-0,031
-661,203	-200,000	0,014	0,065
-660,189	238,853	-0,066	0,081
-659,174	-200,000	-0,003	-0,116
-658,159	-200,000	0,024	-0,093
-657,145	380,520	0,059	-0,089
-656,130	-158,886	0,035	0,001
-655,116	-141,898	0,068	-0,005
-654,101	28,088	0,095	-0,059
-653,086	800,000	0,035	-0,089
-652,072	145,661	0,093	0,091
-651,057	-127,126	-0,022	0,002
-650,043	800,000	0,026	-0,058
-649,028	224,219	0,070	0,084
-648,014	-200,000	-0,047	0,204
-646,999	38,807	0,168	0,110
-645,984	-200,000	0,025	0,136
-644,970	640,775	-0,012	-0,023
-643,955	-200,000	-0,002	-0,151
-642,941	-164,988	-0,093	-0,003
-641,926	800,000	0,046	-0,106
-640,911	-200,000	-0,007	0,082
-639,897	223,192	-0,081	-0,096
-638,882	28,237	-0,054	-0,033
-637,868	73,421	0,095	0,073
-636,853	269,560	-0,070	-0,091
-635,838	-140,886	-0,128	0,010
-634,824	-200,000	0,041	-0,169
-633,809	-152,116	-0,197	0,010
-632,795	-200,000	0,016	-0,063
-631,780	-11,012	0,051	-0,024
-630,765	155,261	-0,037	-0,037
-629,751	306,860	-0,052	0,071
-628,736	-24,082	-0,067	-0,029
-627,722	-200,000	0,001	0,005
-626,707	137,484	-0,088	-0,085
-625,692	157,094	-0,012	-0,012
-624,678	800,000	0,028	-0,058
-623,663	-185,880	-0,017	-0,000
-622,649	-86,428	-0,047	0,011
-621,634	-193,682	-0,190	-0,001
-620,619	253,784	-0,032	0,040
-619,605	137,681	0,146	0,140
-618,590	-200,000	-0,005	0,026
-617,576	-200,000	-0,003	0,032
-616,561	800,000	-0,014	0,033
-615,546	-200,000	-0,028	-0,106
-614,532	-120,865	0,034	0,004
-613,517	-6,112	0,099	-0,049
-612,503	-128,273	-0,128	-0,013
-611,488	259,970	0,047	0,060
-610,474	-123,995	-0,040	-0,005
-609,459	800,000	-0,042	-0,088
-608,444	800,000	-0,025	0,051
-607,430	40,163	-0,037	-0,024
-606,415	-200,000	0,020	0,100
-605,401	800,000	0,077	0,175
-604,386	-189,962	-0,158	-0,001
-603,371	57,576	-0,076	0,054
-602,357	-56,436	0,110	0,035
-601,342	-65,776	-0,132	0,038
-600,328	-19,727	-0,087	-0,039
-599,313	777,152	0,047	-0,095
-598,298	-200,000	-0,019	-0,093
-597,284	214,444	-0,036	0,041
-596,269	-200,000	0,003	-0,081
-595,255	287,688	-0,049	-0,065
-594,240	141,382	-0,063	-0,061
-593,225	-16,957	0,099	-0,045
-592,211	-200,000	0,014	0,072
-591,196	-200,000	-0,020	-0,084
-590,182	800,000	0,018	-0,045
-589,167	-118,166	0,064	-0,008
-588,152	77,505	0,130	0,101
-587,138	79,607	0,074	-0,058
-586,123	-122,201	-0,041	0,005
-585,109	49,799	-0,075	-0,052
-584,094	-5,941	-0,051	0,025
-583,079	-200,000	0,011	0,135
-582,065	-133,292	0,137	-0,012
-581,050	452,419	-0,044	-0,071
-580,036	-200,000	-0,013	-0,167
-579,021	-200,000	0,044	-0,165
-578,006	-200,000	0,049	-0,184
-576,992	-26,782	-0,116	0,049
-575,977	800,000	0,012	0,034
-574,963	-200,000	0,003	-0,024
-573,948	387,626	0,082	0,125
-572,934	-84,431	0,080	-0,018
-571,919	-200,000	0,010	0,037
-570,904	-43,869	-0,110	0,040
-569,890	-200,000	0,002	-0,103
-568,875	171,695	0,122	-0,129
-567,861	-20,638	0,020	0,009
-566,846	109,279	0,078	0,068
-565,831	259,114	-0,043	0,055
-564,817	-200,000	0,019	0,096
-563,802	132,457	-0,114	-0,107
-562,788	-200,000	0,000	0,060
-561,773	219,298	-0,108	0,126
-560,758	800,000	0,016	-0,037
-559,744	422,311	0,068	-0,108
-558,729	74,068	-0,109	0,083
-557,715	800,000	0,031	-0,071
-556,700	-200,000	-0,003	-0,036
-555,685	-200,000	0,033	-0,133
-554,671	9,309	-0,078	-0,043
-553,656	347,041	-0,035	0,051
-552,642	524,440	-0,036	-0,062
-551,627	168,996	0,091	-0,095
-550,612	-200,000	-0,010	-0,099
-549,598	-24,681	-0,123	-0,053
-548,583	-9,239	0,036	-0,017
-547,569	-75,888	0,044	0,011
-546,554	-200,000	0,022	-0,113
-545,539	-125,049	0,080	0,009
-544,525	-200,000	0,072	0,279
-543,510	800,000	0,016	0,036
-542,496	33,117	0,072	-0,046
-541,481	756,737	0,057	-0,114
-540,466	800,000	-0,033	-0,074
-539,452	87,629	0,046	-0,037
-538,437	-32,907	0,078	-0,031
-537,423	-200,000	-0,082	0,000
-536,408	198,526	0,026	-0,029
-535,393	-94,414	-0,009	0,002
-534,379	-85,169	-0,075	-0,017
-533,364	281,043	0,004	0,006
-532,350	-200,000	-0,005	-0,075
-531,335	-200,000	0,030	-0,106
-530,321	-200,000	0,015	-0,119
-529,306	348,702	0,025	0,036
-528,291	-200,000	0,005	-0,022
-527,277	-200,000	0,030	-0,218
-526,262	647,684	0,052	-0,098
-525,248	-191,006	-0,062	0,000
-524,233	800,000	0,007	0,014
-523,218	-200,000	0,013	0,065
-522,204	-130,988	-0,025	0,002
-521,189	-48,575	0,071	-0,025
-520,175	-46,260	-0,065	-0,023
-519,160	-29,791	-0,061	-0,025
-518,145	-173,815	0,049	-0,001
-517,131	-152,152	-0,047	-0,002
-516,116	-49,315	0,025	-0,008
-515,102	-200,000	0,006	-0,050
-514,087	-200,000	0,017	0,073
-513,072	-131,478	-0,112	-0,011
-512,058	-90,193	-0,031	-0,007
-511,043	166,760	0,043	0,045
-510,029	-200,000	0,036	0,137
-509,014	-200,000	-0,050	0,225
-507,999	800,000	-0,022	0,068
-506,985	-173,329	0,068	-0,001
-505,970	20,642	0,028	0,017
-504,956	0,953	-0,046	0,024
-503,941	-116,649	0,058	-0,008
-502,926	800,000	0,066	0,134
-501,912	-71,207	0,042	0,011
-500,897	800,000	-0,054	0,121
-499,883	349,878	-0,048	0,070
-498,868	-200,000	0,010	-0,034
-497,853	-200,000	-0,020	0,139
-496,839	28,835	-0,044	0,027
-495,824	-26,463	0,074	-0,031
-494,810	800,000	0,029	0,077
-493,795	800,000	-0,025	-0,054
-492,781	193,138	-0,035	0,039
-491,766	-63,411	0,075	-0,022
-490,751	800,000	-0,032	-0,086
-489,737	-200,000	0,005	0,092
-488,722	63,772	0,021	0,015
-487,708	-97,197	0,182	0,034
-486,693	602,725	0,041	0,075
-485,678	12,151	-0,062	0,035
-484,664	-148,007	-0,026	0,002
-483,649	-200,000	0,025	-0,114
-482,635	326,024	-0,064	0,089
-481,620	165,273	0,102	0,105
-480,605	357,870	0,124	0,180
-479,591	-156,691	0,077	-0,003
-478,576	800,000	0,021	-0,044
-477,562	800,000	-0,066	0,136
-476,547	-95,002	-0,102	0,020
-475,532	-200,000	0,008	0,037
-474,518	186,548	0,076	0,082
-473,503	-67,573	0,112	0,032
-472,489	-21,518	0,083	0,037
-471,474	-200,000	0,002	0,196
-470,459	44,563	-0,175	0,117
-469,445	-200,000	-0,000	-0,024
-468,430	618,452	-0,019	-0,036
-467,416	40,397	-0,016	-0,010
-466,401	393,244	-0,026	0,040
-465,386	140,392	-0,013	-0,012
-464,372	-200,000	0,013	0,090
-463,357	-45,745	-0,113	-0,040
-462,343	-127,234	0,091	0,010
-461,328	800,000	-0,069	-0,210
-460,313	-200,000	-0,015	-0,094
-459,299	-200,000	-0,016	0,093
-458,284	-200,000	-0,017	0,084
-457,270	-104,186	-0,038	0,006
-456,255	147,060	-0,061	0,060
-455,241	800,000	-0,056	0,144
-454,226	225,042	-0,006	-0,007
-453,211	-200,000	-0,005	-0,102
-452,197	127,956	0,088	-0,082
-451,182	432,693	0,048	-0,076
-450,168	-57,627	-0,059	0,019
-449,153	79,168	0,009	-0,007
-448,138	77,033	0,023	0,017
-447,124	800,000	0,012	0,030
-446,109	-200,000	0,003	-0,142
-445,095	130,539	0,059	0,056
-444,080	52,426	-0,038	0,027
-443,065	-200,000	0,021	0,157
-442,051	800,000	-0,030	-0,081
-441,036	-200,000	0,012	0,128
-440,022	53,914	0,018	-0,012
-439,007	126,660	0,066	-0,061
-437,992	75,758	-0,070	0,053
-436,978	735,393	0,017	0,034
-435,963	60,563	0,111	-0,080
-434,949	107,064	-0,075	-0,064
-433,934	-47,000	0,099	-0,035
-432,919	-61,586	-0,040	0,012
-431,905	152,053	0,047	-0,047
-430,890	237,815	0,072	0,087
-429,876	-200,000	0,014	-0,090
-428,861	96,176	0,059	-0,049
-427,846	800,000	0,011	-0,032
-426,832	800,000	0,023	-0,050
-425,817	197,857	0,034	-0,038
-424,803	-200,000	-0,007	-0,030
-423,788	-115,427	0,071	-0,010
-422,773	119,270	0,094	0,084
-421,759	-110,933	0,040	0,006
-420,744	-200,000	0,014	-0,065
-419,730	350,764	-0,036	-0,051
-418,715	-200,000	0,004	-0,088
-417,701	-200,000	0,000	0,012
-416,686	271,853	-0,030	0,039
-415,671	-200,000	0,009	0,072
-414,657	220,781	0,128	0,150
-413,642	63,165	-0,054	-0,039
-412,628	-98,896	-0,095	0,017
-411,613	-200,000	-0,001	-0,018
-410,598	-140,020	0,128	-0,010
-409,584	-200,000	0,015	-0,154
-408,569	497,087	0,142	0,238
-407,555	32,978	0,052	0,033
-406,540	-200,000	0,013	-0,092
-405,525	-99,593	0,055	-0,010
-404,511	-200,000	-0,006	-0,072
-403,496	-55,007	-0,136	-0,044
-402,482	-200,000	0,012	0,081
-401,467	98,425	0,173	0,145
-400,452	-200,000	-0,009	0,128
-399,438	-200,000	0,000	-0,044
-398,423	422,193	0,050	-0,078
-397,409	-150,878	-0,055	-0,003
-396,394	-13,294	-0,008	0,004
-395,379	-200,000	0,005	0,027
-394,365	-171,608	0,072	-0,002
-393,350	-161,268	0,037	-0,001
-392,336	88,218	0,121	0,098
-391,321	-200,000	-0,020	-0,092
-390,306	-200,000	-0,006	-0,038
-389,292	800,000	-0,029	-0,072
-388,277	-39,436	0,069	-0,026
-387,263	-200,000	-0,021	0,091
-386,248	0,052	0,154	0,080
-385,233	-200,000	0,035	0,219
-384,219	-36,857	0,025	0,010
-383,204	150,181	-0,060	-0,059
-382,190	-27,195	0,052	-0,022
-381,175	295,528	-0,050	-0,067
-380,160	111,767	-0,033	0,029
-379,146	-200,000	-0,031	0,154
-378,131	-200,000	-0,039	0,133
-377,117	789,874	0,043	0,087
-376,102	193,312	-0,106	0,117
-375,088	-78,119	-0,030	0,007
-374,073	-200,000	-0,010	-0,155
-373,058	670,932	-0,011	-0,020
-372,044	800,000	0,023	0,052
-371,029	509,434	0,017	0,028
-370,015	-200,000	0,050	0,182
-369,000	157,654	-0,059	-0,059
-367,985	-94,203	0,058	0,011
-366,971	-200,000	0,021	-0,079
-365,956	800,000	0,031	0,082
-364,942	-200,000	-0,003	0,076
-363,927	0,647	0,091	0,047
-362,912	-21,443	0,064	0,028
-361,898	95,387	-0,078	-0,065
-360,883	-113,271	-0,142	0,020
-359,869	313,750	-0,074	-0,101
-358,854	35,690	-0,060	-0,038
-357,839	704,196	-0,025	0,048
-356,825	-200,000	0,035	0,163
-355,810	-200,000	-0,005	-0,082
-354,796	-200,000	-0,017	0,061
-353,781	-200,000	-0,010	-0,058
-352,766	800,000	-0,046	0,094
-351,752	-121,277	-0,054	0,007
-350,737	-157,152	-0,104	-0,005
-349,723	424,444	-0,043	-0,068
-348,708	-16,359	-0,091	0,042
-347,693	137,225	-0,064	-0,061
-346,679	720,347	-0,036	-0,071
-345,664	-44,680	-0,033	0,012
-344,650	-27,692	-0,057	-0,024
-343,635	-6,976	0,108	0,053
-342,620	-200,000	0,030	0,097
-341,606	-93,325	-0,031	-0,006
-340,591	461,119	-0,039	0,063
-339,577	72,780	-0,096	-0,073
-338,562	674,641	-0,078	-0,148
-337,548	-32,134	0,040	-0,016
-336,533	-200,000	-0,022	-0,084
-335,518	-19,061	0,039	-0,017
-334,504	-200,000	0,017	0,072
-333,489	-135,238	0,075	0,006
-332,475	-34,790	0,007	0,003
-331,460	385,148	-0,092	-0,138
-330,445	-200,000	0,002	0,036
-329,431	236,590	0,023	0,027
-328,416	74,280	0,195	0,148
-327,402	-144,287	-0,139	-0,009
-326,387	-188,188	-0,069	-0,001
-325,372	-12,513	-0,013	-0,006
-324,358	528,059	-0,089	-0,153
-323,343	-35,013	0,128	-0,050
-322,329	800,000	0,011	-0,026
-321,314	-44,743	-0,141	0,051
-320,299	-167,005	-0,113	0,003
-319,285	800,000	0,056	0,127
-318,270	233,087	0,087	0,104
-317,256	187,999	0,073	-0,079
-316,241	571,482	0,059	0,104
-315,226	762,641	0,068	0,135
-314,212	-200,000	-0,005	0,173
-313,197	100,401	-0,116	0,097
-312,183	-200,000	0,012	-0,108
-311,168	320,296	-0,096	-0,133
-310,153	-200,000	-0,006	-0,172
-309,139	488,761	-0,046	0,076
-308,124	-200,000	0,010	-0,060
-307,110	684,708	0,054	0,103
-306,095	-28,738	0,057	0,024
-305,080	-200,000	-0,002	0,061
-304,066	606,563	-0,061	0,110
-303,051	144,928	-0,071	-0,068
-302,037	-200,000	-0,003	-0,097
-301,022	-96,611	0,079	-0,015
-300,008	-126,746	-0,072	-0,008
-298,993	174,423	0,123	-0,129
-297,978	74,422	-0,007	-0,006
-296,964	342,105	0,061	-0,087
-295,949	-78,316	-0,112	0,028
-294,935	22,699	0,125	0,074
-293,920	721,358	0,061	0,119
-292,905	61,792	-0,048	0,035
-291,891	617,125	0,052	0,095
-290,876	-78,775	-0,047	0,012
-289,862	-200,000	0,008	0,168
-288,847	-35,024	-0,150	0,059
-287,832	-28,008	0,039	-0,016
-286,818	-200,000	-0,002	-0,059
-285,803	-95,009	0,040	0,008
-284,789	282,760	0,017	-0,022
-283,774	231,331	0,104	-0,124
-282,759	-30,514	-0,136	-0,056
-281,745	1,274	0,023	-0,012
-280,730	800,000	-0,045	0,108
-279,716	483,196	0,033	0,055
-278,701	800,000	0,013	0,038
-277,686	-146,419	0,091	0,006
-276,672	-81,820	0,078	-0,018
-275,657	-200,000	0,004	-0,041
-274,643	800,000	-0,031	0,087
-273,628	-112,218	-0,036	-0,005
-272,613	1,863	0,035	0,018
-271,599	284,819	0,091	0,118
-270,584	-200,000	-0,009	-0,065
-269,570	291,932	0,042	0,056
-268,555	-119,240	-0,228	0,028
-267,540	-19,946	0,074	-0,033
-266,526	273,765	-0,035	0,045
-265,511	-200,000	-0,027	-0,148
-264,497	800,000	0,060	-0,138
-263,482	139,060	0,067	0,064
-262,467	20,474	0,143	-0,083
-261,453	270,792	0,095	0,121
-260,438	51,036	-0,099	-0,068
-259,424	160,019	-0,057	-0,058
-258,409	-94,545	0,018	0,004
-257,395	-200,000	-0,011	0,089
-256,380	-124,158	-0,045	0,005
-255,365	-32,282	0,093	-0,037
-254,351	63,809	0,091	0,066
-253,336	800,000	-0,088	-0,271
-252,322	-7,557	0,014	0,007
-251,307	335,788	0,027	-0,038
-250,292	800,000	-0,045	0,100
-249,278	188,902	0,041	0,045
-248,263	800,000	0,017	-0,048
-247,249	-200,000	-0,012	-0,090
-246,234	293,751	-0,064	-0,085
-245,219	-98,997	0,144	-0,026
-244,205	122,951	0,045	0,041
-243,190	-200,000	0,002	0,130
-242,176	175,763	-0,050	-0,052
-241,161	-200,000	-0,013	0,099
-240,146	53,598	0,119	0,082
-239,132	47,661	-0,137	-0,092
-238,117	107,759	0,043	-0,037
-237,103	800,000	0,043	-0,103
-236,088	66,231	0,040	-0,030
-235,073	-200,000	0,002	0,042
-234,059	227,769	-0,058	-0,068
-233,044	139,621	-0,026	-0,025
-232,030	-35,094	0,065	0,025
-231,015	-23,839	-0,168	-0,072
-230,000	63,486	-0,229	-0,166
-228,986	403,696	-0,116	-0,177
-227,971	800,000	-0,030	0,063
-226,957	-2,279	0,054	-0,027
-225,942	-64,660	0,063	-0,018
-224,927	236,574	-0,036	0,043
-223,913	-200,000	-0,004	-0,125
-222,898	-35,201	-0,039	-0,015
-221,884	279,478	-0,016	-0,020
-220,869	586,425	0,048	0,085
-219,855	62,457	-0,054	-0,039
-218,840	800,000	0,046	-0,118
-217,825	-29,270	0,059	-0,024
-216,811	52,008	-0,113	0,078
-215,796	42,245	-0,235	-0,154
-214,782	227,236	0,026	0,031
-213,767	800,000	0,023	0,051
-212,752	-99,381	0,078	-0,014
-211,738	800,000	-0,038	-0,098
-210,723	800,000	-0,012	-0,030
-209,709	-115,363	0,038	-0,005
-208,694	-36,802	-0,018	-0,007
-207,679	-63,593	-0,178	-0,052
-206,665	119,454	0,087	0,078
-205,650	506,421	0,054	-0,090
-204,636	800,000	-0,030	-0,084
-203,621	233,827	-0,089	-0,106
-202,606	800,000	-0,050	0,133
-201,592	800,000	-0,062	-0,134
-200,577	-200,000	-0,004	-0,014
-199,563	61,321	-0,029	0,021
-198,548	-200,000	-0,046	-0,153
-197,533	-92,378	-0,064	0,013
-196,519	-200,000	0,009	0,077
-195,504	88,750	-0,121	0,097
-194,490	-84,087	0,101	0,023
-193,475	228,407	-0,060	0,071
-192,460	-200,000	0,027	-0,149
-191,446	73,914	0,068	-0,051
-190,431	-103,820	-0,086	0,014
-189,417	215,905	0,056	0,064
-188,402	800,000	0,006	0,015
-187,387	-4,022	-0,048	-0,024
-186,373	-127,358	-0,134	-0,014
-185,358	-36,691	0,142	0,055
-184,344	-126,207	0,071	-0,008
-183,329	-104,445	0,021	0,003
-182,315	664,445	0,019	-0,035
-181,300	177,821	-0,023	0,025
-180,285	800,000	0,022	-0,047
-179,271	-13,767	0,062	-0,029
-178,256	-19,452	-0,044	-0,020
-177,242	-200,000	0,040	0,143
-176,227	-200,000	0,022	0,129
-175,212	-108,646	0,054	0,008
-174,198	-200,000	-0,016	0,077
-173,183	-200,000	-0,004	-0,029
-172,169	-200,000	-0,007	0,072
-171,154	459,473	-0,072	-0,115
-170,139	43,141	0,073	-0,048
-169,125	15,983	0,122	-0,069
-168,110	204,271	0,061	-0,068
-167,096	-200,000	-0,013	0,074
-166,081	-200,000	-0,006	0,117
-165,066	-130,365	-0,065	-0,006
-164,052	-12,619	0,019	0,009
-163,037	800,000	0,020	-0,059
-162,023	-17,594	0,035	-0,016
-161,008	800,000	0,035	0,102
-159,993	14,742	0,155	0,087
-158,979	-45,904	-0,111	-0,039
-157,964	-200,000	-0,010	-0,122
-156,950	-200,000	-0,000	-0,132
-155,935	-200,000	-0,006	-0,074
-154,920	719,265	-0,053	-0,103
-153,906	130,490	0,050	0,046
-152,891	-104,686	-0,065	0,011
-151,877	800,000	-0,026	-0,077
-150,862	-200,000	-0,015	0,083
-149,847	-1,995	0,099	-0,050
-148,833	-200,000	0,012	-0,130
-147,818	-139,735	0,097	-0,007
-146,804	199,950	0,038	0,042
-145,789	66,121	-0,130	0,095
-144,775	10,338	0,083	0,045
-143,760	800,000	-0,029	-0,063
-142,745	278,174	0,029	-0,037
-141,731	223,603	-0,046	-0,053
-140,716	33,194	0,024	0,015
-139,702	233,847	-0,022	-0,026
-138,687	167,330	-0,063	0,064
-137,672	-120,007	-0,070	-0,009
-136,658	292,044	0,041	-0,054
-135,643	30,062	-0,126	-0,077
-134,629	27,707	0,073	0,044
-133,614	51,190	-0,005	0,003
-132,599	101,855	0,083	-0,070
-131,585	-200,000	-0,004	-0,050
-130,570	699,029	-0,056	-0,106
-129,556	127,968	0,101	-0,093
-128,541	71,218	-0,061	0,045
-127,526	-200,000	0,032	-0,123
-126,512	-200,000	-0,012	-0,080
-125,497	800,000	0,031	0,078
-124,483	514,912	-0,071	0,120
-123,468	800,000	0,046	-0,106
-122,453	800,000	0,056	-0,112
-121,439	-19,552	0,118	0,053
-120,424	800,000	-0,063	-0,192
