DTS Sentinel unit serial number:	SN410029Multiplexer serial number:	ORYXHardware model number:	OX2-SRSoftware version number:	ORYX F/W v4,00 Oryx Data Collector v3.7.2.0data status	okinstallation	B5 Nyhavnadifferential loss correction	single-endedforward channel	channel 2reverse channel	N/Adate	2023/12/12time	03:17:13forward acquisition time	300,00reverse acquisition time	0,00gamma	499,1914k internal	0,3156k external	0,3156temperature offset calibration	1,0000default loss term (dB/km)	0,3820temperature slope calibration	1,0000multiplexer offset coefficient	1,0000multiplexer slope coefficient	1,0000fibre end	0,00T internal ref (°C)	15,70T ext. ref 1 (°C)	-0,71T ext. ref 2 (°C)	-1,03length (m)	temperature (°C)	Stokes	anti-Stokes-744,400	23,955	0,144	-0,087
-743,385	-112,514	-0,235	-0,034
-742,371	59,974	0,099	0,072
-741,356	-78,826	-0,294	0,073
-740,342	-2,242	0,066	0,034
-739,327	-11,019	-0,186	0,090
-738,312	-200,000	0,025	-0,095
-737,298	-99,851	-0,381	-0,070
-736,283	-128,080	0,063	-0,007
-735,269	37,848	-0,314	0,205
-734,254	800,000	-0,013	-0,040
-733,239	23,347	-0,418	-0,253
-732,225	50,272	0,095	-0,066
-731,210	800,000	-0,044	0,106
-730,196	-200,000	0,035	0,131
-729,181	179,933	-0,019	-0,021
-728,167	800,000	0,059	-0,138
-727,152	23,571	0,027	-0,016
-726,137	204,680	-0,039	-0,045
-725,123	-15,555	-0,156	-0,073
-724,108	800,000	-0,042	-0,090
-723,094	18,073	0,040	0,023
-722,079	210,311	-0,115	-0,134
-721,064	800,000	-0,015	-0,047
-720,050	-40,022	-0,061	0,023
-719,035	635,410	0,036	-0,068
-718,021	40,840	-0,045	-0,030
-717,006	286,433	-0,010	0,013
-715,991	-66,798	0,039	-0,011
-714,977	800,000	0,033	-0,103
-713,962	-69,741	0,154	-0,043
-712,948	-200,000	-0,007	0,186
-711,933	-68,177	0,118	0,034
-710,918	-60,545	-0,098	0,030
-709,904	16,146	0,026	-0,015
-708,889	-200,000	-0,028	-0,196
-707,875	174,369	-0,047	-0,050
-706,860	7,498	0,029	0,016
-705,845	-200,000	-0,006	0,082
-704,831	-200,000	-0,007	0,110
-703,816	605,538	-0,079	0,146
-702,802	529,714	-0,050	0,088
-701,787	-200,000	-0,005	-0,179
-700,772	107,406	0,060	-0,053
-699,758	-29,330	0,107	0,045
-698,743	-65,867	-0,066	-0,019
-697,729	-200,000	0,015	0,109
-696,714	18,395	-0,050	-0,029
-695,699	-200,000	-0,011	0,040
-694,685	-200,000	0,024	0,120
-693,670	-200,000	0,004	0,016
-692,656	182,350	0,041	-0,044
-691,641	-77,142	0,045	0,011
-690,627	202,309	-0,068	-0,077
-689,612	800,000	0,041	-0,130
-688,597	-7,405	0,018	-0,009
-687,583	222,062	-0,077	0,091
-686,568	379,584	0,031	-0,047
-685,554	800,000	-0,026	-0,058
-684,539	638,860	-0,022	-0,041
-683,524	-77,857	0,046	0,012
-682,510	-134,266	-0,119	-0,011
-681,495	-200,000	-0,028	-0,110
-680,481	-104,704	0,086	-0,014
-679,466	79,349	0,038	-0,030
-678,451	-200,000	-0,005	-0,033
-677,437	333,289	0,013	0,019
-676,422	291,760	0,036	-0,048
-675,408	76,703	0,021	-0,016
-674,393	68,501	-0,103	-0,078
-673,378	800,000	-0,019	0,039
-672,364	-200,000	-0,029	-0,112
-671,349	77,845	-0,086	-0,067
-670,335	-200,000	-0,032	-0,107
-669,320	69,391	0,131	0,099
-668,305	-70,206	-0,070	0,019
-667,291	171,761	-0,049	0,052
-666,276	-200,000	-0,015	-0,093
-665,262	66,678	-0,072	-0,054
-664,247	-9,727	-0,156	-0,076
-663,232	-200,000	0,002	-0,024
-662,218	-136,044	0,113	-0,010
-661,203	800,000	0,050	0,124
-660,189	-157,319	-0,034	0,002
-659,174	-174,192	-0,135	0,003
-658,159	-200,000	-0,032	-0,269
-657,145	-200,000	0,029	-0,143
-656,130	-200,000	-0,010	0,048
-655,116	-133,066	-0,014	-0,001
-654,101	-88,781	0,122	0,026
-653,086	-123,905	-0,250	0,029
-652,072	800,000	0,028	-0,075
-651,057	-142,560	0,058	-0,004
-650,043	-150,487	-0,098	-0,005
-649,028	487,578	-0,067	-0,113
-648,014	-59,696	0,067	0,021
-646,999	167,260	-0,034	0,035
-645,984	717,339	0,037	-0,072
-644,970	800,000	0,047	-0,135
-643,955	-200,000	0,000	-0,007
-642,941	-200,000	-0,019	-0,143
-641,926	381,819	0,095	-0,143
-640,911	755,345	0,076	0,152
-639,897	-200,000	-0,006	0,026
-638,882	-200,000	-0,012	-0,085
-637,868	-123,201	-0,038	-0,004
-636,853	57,587	-0,081	-0,058
-635,838	-200,000	-0,039	-0,185
-634,824	0,320	-0,083	0,044
-633,809	-156,441	0,017	0,001
-632,795	-200,000	-0,004	-0,023
-631,780	-97,164	-0,094	-0,018
-630,765	-81,980	-0,152	-0,036
-629,751	800,000	-0,047	-0,111
-628,736	-52,543	-0,172	-0,058
-627,722	455,519	0,064	0,105
-626,707	-200,000	-0,035	-0,144
-625,692	-105,455	0,121	0,020
-624,678	1,862	0,008	-0,004
-623,663	-177,241	-0,164	-0,003
-622,649	-57,489	-0,019	0,006
-621,634	305,662	-0,038	-0,052
-620,619	289,678	0,070	-0,094
-619,605	800,000	-0,038	-0,085
-618,590	-200,000	-0,004	0,103
-617,576	-128,108	-0,154	0,016
-616,561	-200,000	-0,014	0,104
-615,546	-142,553	-0,116	0,008
-614,532	800,000	0,056	-0,139
-613,517	784,225	-0,040	-0,080
-612,503	22,988	-0,122	-0,073
-611,488	276,502	-0,040	-0,052
-610,474	391,990	-0,095	-0,145
-609,459	41,517	-0,067	0,044
-608,444	-109,672	0,009	0,001
-607,430	-41,168	-0,123	0,046
-606,415	800,000	0,010	0,032
-605,401	-134,932	-0,065	0,006
-604,386	-200,000	-0,014	0,084
-603,371	19,570	0,177	-0,104
-602,357	-200,000	-0,011	-0,071
-601,342	123,788	-0,084	-0,077
-600,328	150,457	0,063	-0,063
-599,313	355,923	-0,055	-0,080
-598,298	90,063	0,122	0,100
-597,284	-200,000	-0,028	0,107
-596,269	-64,293	0,028	-0,008
-595,255	800,000	-0,023	-0,073
-594,240	199,298	-0,064	0,071
-593,225	800,000	0,050	-0,110
-592,211	525,085	0,090	-0,156
-591,196	-200,000	0,014	-0,096
-590,182	64,708	0,065	0,048
-589,167	37,451	0,062	-0,040
-588,152	800,000	-0,031	-0,095
-587,138	-200,000	0,000	-0,161
-586,123	-200,000	-0,028	-0,149
-585,109	-124,034	-0,108	0,012
-584,094	101,389	-0,097	-0,083
-583,079	-141,353	0,038	0,003
-582,065	434,363	0,047	-0,075
-581,050	671,693	0,045	-0,086
-580,036	800,000	-0,033	0,090
-579,021	93,191	-0,126	-0,105
-578,006	21,871	-0,121	0,072
-576,992	71,361	0,093	0,070
-575,977	214,500	0,057	-0,066
-574,963	639,741	-0,077	-0,145
-573,948	-150,595	0,096	0,005
-572,934	-117,013	-0,092	0,012
-571,919	-44,134	-0,033	0,012
-570,904	-14,476	0,080	-0,038
-569,890	-200,000	0,013	-0,082
-568,875	95,425	0,114	-0,095
-567,861	-200,000	0,013	0,095
-566,846	14,270	0,029	-0,017
-565,831	800,000	-0,063	-0,133
-564,817	145,195	-0,032	0,032
-563,802	59,657	-0,032	-0,023
-562,788	-72,750	-0,065	-0,017
-561,773	105,076	0,046	-0,040
-560,758	-200,000	0,013	-0,047
-559,744	315,318	0,078	0,107
-558,729	-200,000	-0,014	0,116
-557,715	-200,000	-0,002	-0,101
-556,700	181,478	-0,079	-0,085
-555,685	438,664	-0,074	-0,118
-554,671	-63,963	0,113	0,033
-553,656	-36,601	-0,060	0,024
-552,642	800,000	0,038	-0,097
-551,627	800,000	-0,024	-0,078
-550,612	761,107	0,054	-0,107
-549,598	-29,300	0,161	0,067
-548,583	800,000	0,087	0,219
-547,569	90,484	0,092	-0,076
-546,554	800,000	0,006	0,017
-545,539	97,163	-0,077	-0,065
-544,525	-54,911	0,046	0,015
-543,510	43,597	-0,182	-0,122
-542,496	-132,747	-0,045	-0,004
-541,481	-10,119	-0,060	-0,029
-540,466	-200,000	-0,041	-0,206
-539,452	258,126	0,027	0,034
-538,437	-200,000	0,007	0,098
-537,423	94,385	-0,159	0,132
-536,408	26,156	-0,094	-0,058
-535,393	-41,677	0,028	0,010
-534,379	-200,000	0,021	-0,150
-533,364	-200,000	0,000	-0,032
-532,350	-117,760	-0,235	0,031
-531,335	-29,461	0,144	0,060
-530,321	99,759	-0,015	0,012
-529,306	-58,708	-0,092	0,029
-528,291	-118,030	-0,058	0,008
-527,277	-49,136	-0,100	0,035
-526,262	163,588	-0,038	-0,039
-525,248	381,604	0,007	0,011
-524,233	-9,942	0,120	-0,058
-523,218	800,000	-0,095	0,215
-522,204	390,014	0,082	0,124
-521,189	-143,626	-0,063	0,004
-520,175	800,000	0,026	-0,061
-519,160	-37,686	-0,145	0,056
-518,145	800,000	-0,038	-0,096
-517,131	-9,777	0,127	-0,061
-516,116	171,185	-0,003	0,003
-515,102	800,000	0,008	0,018
-514,087	-187,304	-0,136	-0,001
-513,072	-200,000	0,009	-0,201
-512,058	-157,045	-0,133	-0,006
-511,043	267,378	0,054	0,069
-510,029	-128,549	0,149	0,015
-509,014	-200,000	0,007	0,041
-507,999	800,000	0,014	0,030
-506,985	-30,922	0,065	-0,027
-505,970	800,000	0,031	-0,065
-504,956	48,865	-0,117	0,080
-503,941	-96,545	0,077	0,015
-502,926	-68,760	-0,067	-0,019
-501,912	-138,085	-0,058	0,005
-500,897	800,000	0,029	0,085
-499,883	-200,000	-0,005	0,080
-498,868	-58,377	-0,117	-0,037
-497,853	800,000	0,022	-0,061
-496,839	456,885	0,018	-0,029
-495,824	45,590	0,039	-0,027
-494,810	-200,000	-0,002	0,071
-493,795	557,872	0,085	-0,150
-492,781	-200,000	0,026	-0,100
-491,766	-105,561	0,094	-0,015
-490,751	25,986	-0,126	-0,077
-489,737	322,293	-0,090	-0,126
-488,722	21,996	0,048	-0,029
-487,708	-90,500	-0,161	0,034
-486,693	-144,779	0,165	0,011
-485,678	-200,000	-0,015	-0,052
-484,664	-200,000	0,011	-0,197
-483,649	-91,912	-0,062	0,013
-482,635	56,981	0,029	-0,020
-481,620	800,000	0,017	0,044
-480,605	433,244	0,037	-0,059
-479,591	161,834	0,059	0,060
-478,576	68,172	0,055	-0,041
-477,562	166,139	-0,114	-0,118
-476,547	-119,023	0,052	-0,007
-475,532	574,019	0,069	0,123
-474,518	800,000	0,030	-0,078
-473,503	-200,000	-0,005	0,063
-472,489	-47,587	-0,153	0,054
-471,474	800,000	0,058	0,179
-470,459	-200,000	0,002	-0,080
-469,445	93,610	-0,072	-0,059
-468,430	-200,000	0,006	-0,060
-467,416	-109,578	0,262	-0,040
-466,401	-75,990	0,047	0,012
-465,386	-103,096	-0,158	0,027
-464,372	-85,483	0,067	0,015
-463,357	-160,488	0,102	-0,004
-462,343	-73,919	-0,132	0,035
-461,328	75,831	0,045	-0,035
-460,313	24,497	0,087	0,052
-459,299	191,650	0,122	0,134
-458,284	117,958	0,069	0,062
-457,270	341,345	0,029	-0,041
-456,255	14,822	-0,073	-0,042
-455,241	-200,000	-0,024	-0,099
-454,226	-200,000	0,029	-0,118
-453,211	-175,609	0,022	0,000
-452,197	-38,162	-0,129	0,050
-451,182	-200,000	0,014	-0,049
-450,168	-103,115	-0,064	-0,011
-449,153	-200,000	0,023	0,095
-448,138	-79,298	0,046	0,011
-447,124	-132,470	-0,093	0,009
-446,109	-83,588	0,140	0,032
-445,095	-43,904	0,109	-0,040
-444,080	-183,237	-0,010	0,000
-443,065	-200,000	-0,033	0,155
-442,051	798,022	-0,020	0,041
-441,036	-200,000	-0,019	-0,117
-440,022	102,098	-0,135	-0,115
-439,007	1,271	0,056	-0,029
-437,992	95,797	-0,055	-0,046
-436,978	-200,000	0,028	-0,093
-435,963	673,538	0,093	0,176
-434,949	8,276	-0,151	0,083
-433,934	78,019	0,096	-0,074
-432,919	258,751	0,052	0,066
-431,905	800,000	-0,048	0,137
-430,890	362,964	0,045	-0,066
-429,876	-65,841	0,074	0,021
-428,861	275,429	-0,062	0,080
-427,846	16,415	-0,055	-0,031
-426,832	155,418	-0,043	-0,043
-425,817	-200,000	-0,010	0,082
-424,803	800,000	0,039	-0,092
-423,788	69,661	-0,034	0,025
-422,773	205,465	0,083	-0,094
-421,759	33,417	0,033	0,021
-420,744	-200,000	-0,004	0,097
-419,730	-35,965	-0,113	-0,044
-418,715	130,781	0,050	-0,047
-417,701	-104,858	0,136	0,023
-416,686	271,319	-0,058	0,074
-415,671	38,826	0,109	0,071
-414,657	337,382	-0,069	0,097
-413,642	-10,766	0,069	-0,033
-412,628	-99,550	-0,042	-0,008
-411,613	413,819	-0,056	0,087
-410,598	-200,000	-0,158	0,000
-409,584	391,572	-0,068	0,104
-408,569	-200,000	0,017	0,102
-407,555	-12,460	0,059	-0,028
-406,540	800,000	0,044	0,094
-405,525	-200,000	-0,000	-0,130
-404,511	-35,168	0,060	0,024
-403,496	120,549	-0,142	0,129
-402,482	207,124	0,022	-0,025
-401,467	-50,975	0,187	0,064
-400,452	-54,127	0,041	-0,014
-399,438	-46,781	-0,119	0,042
-398,423	-99,288	-0,047	-0,009
-397,409	38,832	-0,108	0,070
-396,394	17,868	0,048	-0,028
-395,379	-200,000	0,002	0,064
-394,365	-104,656	0,055	0,009
-393,350	-200,000	-0,007	0,163
-392,336	800,000	0,053	0,119
-391,321	169,556	-0,158	0,165
-390,306	779,249	-0,047	0,093
-389,292	-167,138	-0,078	-0,002
-388,277	-200,000	-0,001	-0,021
-387,263	58,534	0,110	-0,079
-386,248	496,280	0,047	-0,079
-385,233	-64,126	0,185	0,055
-384,219	144,880	0,117	0,114
-383,204	800,000	-0,047	-0,119
-382,190	-10,466	-0,080	-0,038
-381,175	296,761	-0,034	-0,045
-380,160	53,123	0,150	0,104
-379,146	-200,000	-0,013	-0,158
-378,131	214,004	0,106	-0,122
-377,117	284,729	0,021	-0,028
-376,102	78,312	-0,129	-0,100
-375,088	-144,244	0,110	0,007
-374,073	-83,292	-0,098	-0,023
-373,058	8,961	0,028	0,015
-372,044	-200,000	-0,005	0,017
-371,029	643,878	0,040	0,075
-370,015	-134,312	-0,016	-0,001
-369,000	-200,000	0,001	-0,039
-367,985	-88,499	-0,042	0,009
-366,971	-106,734	-0,150	-0,024
-365,956	-143,299	0,058	0,004
-364,942	7,311	0,135	0,073
-363,927	-200,000	-0,007	0,067
-362,912	-200,000	0,019	0,083
-361,898	-200,000	-0,003	-0,133
-360,883	800,000	-0,004	0,007
-359,869	-63,005	-0,082	0,024
-358,854	33,279	0,019	0,012
-357,839	800,000	0,005	0,010
-356,825	-59,290	-0,065	0,020
-355,810	42,522	-0,046	0,030
-354,796	-100,556	-0,084	-0,015
-353,781	7,661	-0,048	-0,026
-352,766	391,390	0,075	-0,113
-351,752	-200,000	-0,010	0,099
-350,737	-70,974	0,079	-0,021
-349,723	164,957	-0,100	0,102
-348,708	165,463	-0,082	0,084
-347,693	100,278	-0,062	0,052
-346,679	-200,000	-0,013	-0,192
-345,664	-66,320	-0,089	-0,025
-344,650	-200,000	-0,018	0,085
-343,635	-200,000	-0,031	0,108
-342,620	-200,000	0,004	0,104
-341,606	583,492	0,025	0,045
-340,591	67,297	0,002	0,002
-339,577	-200,000	-0,041	0,204
-338,562	-70,635	-0,045	-0,012
-337,548	-200,000	0,005	-0,067
-336,533	800,000	0,030	0,064
-335,518	-200,000	0,001	0,194
-334,504	-51,411	0,043	-0,015
-333,489	-127,340	0,171	-0,018
-332,475	-5,893	-0,130	0,064
-331,460	-200,000	-0,012	-0,039
-330,445	8,694	0,018	0,010
-329,431	-200,000	-0,020	-0,093
-328,416	800,000	0,050	0,117
-327,402	59,815	0,158	0,113
-326,387	553,016	0,027	-0,048
-325,372	800,000	-0,044	-0,101
-324,358	800,000	0,041	-0,087
-323,343	13,265	0,073	0,041
-322,329	49,345	0,073	0,050
-321,314	-105,432	0,116	-0,019
-320,299	523,470	0,042	0,071
-319,285	171,249	-0,050	0,052
-318,270	-148,279	-0,057	-0,003
-317,256	-200,000	0,006	-0,095
-316,241	-200,000	-0,002	-0,029
-315,226	41,943	0,154	0,101
-314,212	6,073	0,175	0,094
-313,197	-200,000	0,019	0,117
-312,183	-102,269	0,082	-0,014
-311,168	74,102	-0,065	-0,049
-310,153	-30,928	-0,028	-0,011
-309,139	-200,000	-0,018	0,073
-308,124	800,000	-0,020	-0,050
-307,110	-79,946	0,103	0,025
-306,095	-156,470	0,131	-0,006
-305,080	134,554	0,037	0,035
-304,066	281,121	0,080	-0,104
-303,051	0,387	0,117	-0,060
-302,037	-68,794	0,053	0,015
-301,022	-24,664	-0,032	-0,014
-300,008	-41,831	0,054	0,020
-298,993	-200,000	-0,007	-0,107
-297,978	-73,944	-0,143	0,037
-296,964	-153,224	-0,085	-0,004
-295,949	-14,015	-0,036	-0,017
-294,935	-105,998	-0,074	0,012
-293,920	96,596	0,043	0,036
-292,905	-200,000	-0,002	-0,108
-291,891	437,621	0,052	0,083
-290,876	503,641	0,052	0,087
-289,862	62,379	0,059	-0,043
-288,847	-102,297	-0,076	0,013
-287,832	-139,431	-0,097	-0,007
-286,818	-173,812	-0,036	-0,001
-285,803	-125,333	0,101	0,011
-284,789	-115,962	0,107	0,014
-283,774	486,641	0,054	0,089
-282,759	-200,000	0,014	0,124
-281,745	-200,000	0,010	-0,089
-280,730	195,704	-0,105	-0,116
-279,716	800,000	-0,026	0,074
-278,701	-37,736	-0,051	0,020
-277,686	800,000	0,042	0,118
-276,672	-59,140	0,129	0,040
-275,657	8,238	0,095	0,051
-274,643	-99,230	-0,079	0,014
-273,628	-200,000	-0,004	0,079
-272,613	-131,028	0,094	0,009
-271,599	-108,434	-0,062	0,010
-270,584	213,395	-0,085	-0,097
-269,570	-122,943	0,074	0,009
-268,555	800,000	-0,080	0,206
-267,540	220,128	0,050	0,058
-266,526	5,807	-0,198	-0,106
-265,511	-180,614	0,155	-0,002
-264,497	181,313	0,049	-0,052
-263,482	-73,959	-0,146	-0,038
-262,467	-150,580	0,153	-0,008
-261,453	-161,417	-0,089	0,003
-260,438	182,056	0,012	-0,013
-259,424	-200,000	-0,015	-0,146
-258,409	-200,000	0,007	0,068
-257,395	-139,170	0,094	-0,007
-256,380	85,966	0,061	-0,049
-255,365	39,938	0,176	-0,114
-254,351	-67,517	-0,149	0,042
-253,336	218,635	0,075	0,087
-252,322	800,000	0,016	-0,051
-251,307	-151,589	0,121	0,006
-250,292	797,865	0,006	0,012
-249,278	800,000	0,031	-0,077
-248,263	-148,937	0,158	0,009
-247,249	-86,852	-0,160	0,035
-246,234	485,470	-0,058	-0,096
-245,219	-200,000	-0,024	0,135
-244,205	-61,194	0,082	-0,025
-243,190	-64,377	0,060	-0,017
-242,176	-96,243	-0,087	-0,017
-241,161	206,521	0,108	0,122
-240,146	-76,910	0,062	-0,016
-239,132	-200,000	-0,028	-0,159
-238,117	-33,952	-0,123	-0,049
-237,103	88,456	-0,041	-0,033
-236,088	-47,762	0,069	0,024
-235,073	-200,000	-0,009	0,108
-234,059	-200,000	0,010	0,121
-233,044	125,772	0,112	0,102
-232,030	60,192	0,067	-0,048
-231,015	487,712	0,058	0,096
-230,000	37,472	-0,097	-0,062
-228,986	-101,601	-0,125	0,022
-227,971	-119,004	-0,141	-0,018
-226,957	800,000	0,036	0,103
-225,942	-194,478	-0,152	0,001
-224,927	262,684	-0,107	0,134
-223,913	-200,000	0,007	-0,065
-222,898	43,523	-0,133	-0,088
-221,884	57,165	-0,073	0,051
-220,869	6,451	-0,028	-0,015
-219,855	-16,421	0,071	0,033
-218,840	-79,273	-0,011	0,003
-217,825	94,866	0,086	0,071
-216,811	-46,664	-0,120	-0,042
-215,796	356,113	-0,034	0,050
-214,782	105,817	-0,175	-0,149
-213,767	-40,005	0,180	-0,067
-212,752	29,404	0,082	0,050
-211,738	-49,966	0,065	0,022
-210,723	-149,461	0,105	-0,006
-209,709	-200,000	-0,001	0,006
-208,694	800,000	0,030	0,068
-207,679	-200,000	0,008	0,034
-206,665	-113,309	-0,069	-0,010
-205,650	236,710	0,059	0,070
-204,636	-200,000	0,005	-0,026
-203,621	558,000	0,072	0,126
-202,606	-124,343	-0,037	-0,004
-201,592	38,978	-0,020	0,013
-200,577	47,139	0,093	-0,062
-199,563	-200,000	-0,026	-0,141
-198,548	800,000	0,052	-0,139
-197,533	190,687	0,099	0,108
-196,519	-200,000	-0,014	0,059
-195,504	-53,638	0,135	-0,044
-194,490	-119,979	-0,124	-0,015
-193,475	-26,194	0,072	-0,030
-192,460	-167,542	-0,126	-0,004
-191,446	274,536	0,099	0,127
-190,431	668,758	0,029	0,055
-189,417	524,385	0,066	0,112
-188,402	175,629	-0,013	0,014
-187,387	-200,000	-0,001	0,201
-186,373	-99,239	0,072	-0,013
-185,358	286,084	0,054	0,071
-184,344	800,000	-0,020	0,043
-183,329	138,848	-0,042	0,039
-182,315	800,000	0,051	0,108
-181,300	-200,000	-0,004	0,044
-180,285	-200,000	0,006	-0,114
-179,271	57,067	-0,005	0,004
-178,256	143,733	0,093	0,089
-177,242	-42,294	0,081	0,030
-176,227	-37,709	0,171	-0,065
-175,212	800,000	-0,025	0,051
-174,198	-95,625	-0,037	0,007
-173,183	121,903	-0,163	0,147
-172,169	-200,000	-0,008	0,047
-171,154	800,000	-0,020	-0,063
-170,139	14,661	-0,051	0,029
-169,125	194,233	-0,049	0,054
-168,110	11,371	0,074	-0,041
-167,096	-200,000	-0,013	-0,046
-166,081	-87,969	-0,034	-0,007
-165,066	-200,000	-0,006	-0,155
-164,052	-56,522	-0,069	-0,022
-163,037	5,469	0,014	-0,007
-162,023	-29,714	-0,093	0,038
-161,008	704,859	0,066	0,127
-159,993	160,194	0,060	0,060
-158,979	-200,000	-0,007	-0,039
-157,964	203,899	0,029	0,032
-156,950	42,882	-0,072	0,047
-155,935	-187,267	-0,033	-0,000
-154,920	-130,610	0,072	-0,007
-153,906	-200,000	0,007	0,031
-152,891	195,255	-0,118	0,129
-151,877	800,000	0,043	-0,092
-150,862	-0,643	-0,154	0,078
-149,847	-200,000	-0,033	-0,145
-148,833	379,856	-0,050	0,074
-147,818	-200,000	0,016	0,081
-146,804	107,537	0,024	0,020
-145,789	-160,070	-0,082	0,003
-144,775	-200,000	0,015	-0,051
-143,760	-200,000	-0,007	0,050
-142,745	-200,000	-0,021	0,133
-141,731	-200,000	-0,001	0,081
-140,716	14,688	0,031	0,017
-139,702	-44,111	0,020	0,007
-138,687	-82,696	0,117	0,027
-137,672	608,855	-0,042	0,076
-136,658	156,318	0,049	0,049
-135,643	-200,000	0,009	-0,057
-134,629	-200,000	0,029	-0,114
-133,614	38,969	-0,027	0,017
-132,599	650,842	0,033	-0,060
-131,585	71,045	0,117	0,088
-130,570	59,520	0,019	0,013
-129,556	-200,000	0,017	-0,120
-128,541	-82,114	0,062	-0,014
-127,526	800,000	0,021	-0,044
-126,512	-61,070	0,074	-0,022
-125,497	102,724	0,069	0,058
-124,483	-29,393	0,053	0,022
-123,468	-200,000	0,004	0,046
-122,453	-78,143	0,062	0,015
-121,439	-93,216	-0,086	0,017
-120,424	64,140	-0,101	-0,073
-119,410	108,172	0,040	0,034
-118,395	-200,000	-0,002	0,084
