DTS Sentinel unit serial number:	SN410029Multiplexer serial number:	ORYXHardware model number:	OX2-SRSoftware version number:	ORYX F/W v4,00 Oryx Data Collector v3.7.2.0data status	okinstallation	B5 Nyhavnadifferential loss correction	single-endedforward channel	channel 2reverse channel	N/Adate	2023/12/12time	21:42:13forward acquisition time	300,00reverse acquisition time	0,00gamma	499,1914k internal	0,3158k external	0,3158temperature offset calibration	1,0000default loss term (dB/km)	0,3820temperature slope calibration	1,0000multiplexer offset coefficient	1,0000multiplexer slope coefficient	1,0000fibre end	0,00T internal ref (°C)	14,84T ext. ref 1 (°C)	-1,78T ext. ref 2 (°C)	-2,09length (m)	temperature (°C)	Stokes	anti-Stokes-744,400	310,521	-0,035	-0,048
-743,385	197,189	-0,146	0,164
-742,371	-26,325	0,138	0,060
-741,356	-170,520	-0,299	-0,008
-740,342	800,000	0,009	-0,023
-739,327	-15,335	-0,309	0,145
-738,312	800,000	-0,059	0,169
-737,298	-32,052	-0,237	0,097
-736,283	46,488	0,020	0,014
-735,269	-171,677	-0,234	-0,006
-734,254	-46,252	-0,103	-0,037
-733,239	-118,665	-0,328	-0,042
-732,225	-95,902	0,271	-0,053
-731,210	-171,126	0,104	-0,003
-730,196	-200,000	-0,004	0,149
-729,181	-200,000	-0,006	0,075
-728,167	-200,000	0,005	0,036
-727,152	612,379	0,033	-0,061
-726,137	-94,446	-0,094	0,019
-725,123	-33,749	-0,139	0,056
-724,108	430,593	0,035	0,057
-723,094	800,000	-0,037	0,090
-722,079	256,438	0,075	0,095
-721,064	452,876	-0,061	0,100
-720,050	-40,278	0,061	0,023
-719,035	114,953	0,068	-0,061
-718,021	-78,973	-0,129	-0,032
-717,006	-12,171	-0,133	-0,064
-715,991	-120,858	0,022	0,003
-714,977	-65,489	0,054	0,016
-713,962	99,893	-0,055	-0,047
-712,948	-37,433	-0,062	-0,024
-711,933	-200,000	-0,008	0,040
-710,918	800,000	0,038	0,121
-709,904	-17,422	-0,127	-0,059
-708,889	209,096	-0,067	0,077
-707,875	-113,056	0,016	-0,002
-706,860	-200,000	0,010	0,094
-705,845	-157,356	-0,025	-0,001
-704,831	11,811	0,058	0,032
-703,816	-174,540	-0,069	-0,001
-702,802	48,171	0,046	-0,032
-701,787	-200,000	0,004	-0,026
-700,772	-88,658	-0,062	0,014
-699,758	24,502	-0,044	0,027
-698,743	800,000	0,043	-0,125
-697,729	-8,222	0,046	-0,022
-696,714	109,787	0,107	0,094
-695,699	8,487	-0,052	-0,029
-694,685	-200,000	-0,076	-0,258
-693,670	800,000	-0,020	0,058
-692,656	48,244	0,072	-0,050
-691,641	253,550	-0,051	-0,065
-690,627	-22,463	0,079	0,035
-689,612	439,886	-0,025	0,041
-688,597	-200,000	0,028	-0,173
-687,583	-80,939	0,042	0,010
-686,568	-105,921	0,092	-0,015
-685,554	229,640	-0,067	0,080
-684,539	156,511	-0,043	0,044
-683,524	-200,000	-0,011	0,131
-682,510	800,000	-0,038	0,120
-681,495	35,365	-0,066	-0,043
-680,481	55,769	-0,047	-0,033
-679,466	-80,791	-0,059	0,014
-678,451	-75,014	0,142	0,037
-677,437	-200,000	-0,004	0,101
-676,422	-200,000	-0,014	0,126
-675,408	800,000	-0,064	0,135
-674,393	800,000	0,043	-0,122
-673,378	699,345	0,045	-0,087
-672,364	196,616	-0,100	-0,112
-671,349	-200,000	0,006	0,025
-670,335	132,688	0,066	0,063
-669,320	-164,183	-0,136	0,005
-668,305	800,000	-0,030	-0,078
-667,291	-52,501	-0,100	-0,034
-666,276	-41,408	-0,110	-0,041
-665,262	256,452	0,051	-0,064
-664,247	184,409	0,037	0,040
-663,232	358,944	0,071	0,104
-662,218	800,000	-0,027	-0,071
-661,203	715,239	0,025	-0,049
-660,189	-200,000	-0,032	-0,141
-659,174	194,757	-0,096	-0,107
-658,159	248,732	-0,100	-0,125
-657,145	262,308	-0,126	-0,161
-656,130	-121,154	0,121	-0,015
-655,116	800,000	-0,046	-0,117
-654,101	551,633	-0,060	-0,106
-653,086	-17,943	-0,099	-0,045
-652,072	430,789	0,035	0,057
-651,057	56,365	0,018	0,013
-650,043	-135,928	-0,163	-0,014
-649,028	25,169	-0,091	-0,055
-648,014	179,722	0,123	0,132
-646,999	-7,232	-0,275	-0,137
-645,984	-89,871	0,132	0,028
-644,970	800,000	-0,033	-0,102
-643,955	23,736	0,060	0,036
-642,941	548,466	-0,044	-0,078
-641,926	-17,842	0,085	0,039
-640,911	-111,857	-0,035	-0,005
-639,897	668,510	0,093	0,178
-638,882	-200,000	0,011	0,054
-637,868	256,130	0,090	-0,114
-636,853	800,000	-0,056	-0,149
-635,838	298,836	-0,104	-0,141
-634,824	108,269	0,053	-0,047
-633,809	-105,513	0,118	-0,019
-632,795	-31,385	-0,096	0,040
-631,780	800,000	0,017	-0,051
-630,765	-200,000	0,007	0,044
-629,751	43,219	-0,041	-0,027
-628,736	-200,000	0,005	0,036
-627,722	-121,016	-0,067	-0,008
-626,707	-107,729	0,121	0,019
-625,692	13,493	0,067	0,038
-624,678	13,239	0,052	0,029
-623,663	50,553	-0,061	0,042
-622,649	747,718	0,031	-0,061
-621,634	-200,000	-0,025	-0,159
-620,619	53,395	-0,058	-0,040
-619,605	-200,000	-0,050	-0,193
-618,590	116,821	0,054	-0,048
-617,576	92,147	0,022	-0,018
-616,561	-10,654	-0,045	0,022
-615,546	-78,056	0,117	0,029
-614,532	-50,973	-0,066	-0,022
-613,517	-200,000	0,018	-0,072
-612,503	469,821	-0,026	0,042
-611,488	-130,207	-0,082	0,008
-610,474	391,495	-0,026	-0,040
-609,459	-16,350	-0,074	-0,034
-608,444	-108,122	-0,058	-0,009
-607,430	434,517	0,041	-0,066
-606,415	800,000	-0,041	-0,122
-605,401	-88,096	0,139	-0,030
-604,386	17,578	-0,112	0,065
-603,371	-73,571	0,095	-0,025
-602,357	553,918	0,020	0,035
-601,342	185,344	-0,098	0,107
-600,328	-100,375	-0,058	-0,010
-599,313	-200,000	0,013	-0,165
-598,298	-200,000	-0,023	0,092
-597,284	800,000	0,051	0,152
-596,269	-135,137	0,050	0,004
-595,255	-83,721	0,081	-0,019
-594,240	-200,000	-0,008	0,053
-593,225	-19,248	0,056	-0,026
-592,211	2,937	0,017	-0,009
-591,196	-200,000	0,013	-0,075
-590,182	-200,000	-0,011	0,063
-589,167	-108,048	-0,056	-0,009
-588,152	91,273	-0,111	0,091
-587,138	344,034	-0,028	-0,041
-586,123	-200,000	-0,002	0,012
-585,109	-200,000	-0,001	-0,091
-584,094	-28,423	-0,140	-0,059
-583,079	800,000	0,062	0,135
-582,065	-200,000	-0,016	0,146
-581,050	800,000	-0,028	0,067
-580,036	-200,000	0,018	0,066
-579,021	-179,351	0,051	0,001
-578,006	-200,000	0,008	-0,093
-576,992	-78,711	-0,073	0,018
-575,977	-74,274	0,092	-0,024
-574,963	35,970	0,061	-0,039
-573,948	-7,213	0,110	0,055
-572,934	134,912	0,037	-0,035
-571,919	-72,770	-0,057	-0,015
-570,904	800,000	0,050	-0,146
-569,890	403,893	-0,056	-0,087
-568,875	220,497	-0,017	0,021
-567,861	-86,102	-0,052	0,012
-566,846	539,187	0,038	0,067
-565,831	716,496	-0,041	-0,079
-564,817	-75,531	-0,136	-0,035
-563,802	224,716	-0,051	-0,060
-562,788	176,201	-0,033	0,035
-561,773	4,254	0,035	0,019
-560,758	-200,000	0,002	0,068
-559,744	90,595	0,034	-0,028
-558,729	800,000	0,069	-0,141
-557,715	800,000	-0,024	-0,058
-556,700	-107,527	-0,043	0,007
-555,685	-200,000	-0,014	-0,196
-554,671	-51,584	0,084	-0,029
-553,656	190,161	-0,055	0,061
-552,642	49,496	-0,081	-0,056
-551,627	-68,182	0,034	0,010
-550,612	731,348	0,045	-0,089
-549,598	-200,000	0,008	-0,143
-548,583	191,249	-0,113	-0,125
-547,569	243,671	-0,064	-0,079
-546,554	800,000	0,023	-0,075
-545,539	-11,208	0,122	0,059
-544,525	-12,335	-0,071	-0,034
-543,510	27,281	-0,089	0,055
-542,496	111,829	-0,040	-0,035
-541,481	-200,000	0,005	-0,039
-540,466	132,041	0,070	-0,066
-539,452	-58,069	0,156	0,049
-538,437	75,930	0,141	0,109
-537,423	-200,000	-0,010	0,054
-536,408	100,538	0,120	0,102
-535,393	-8,922	-0,016	-0,008
-534,379	-200,000	0,018	-0,233
-533,364	800,000	0,038	0,086
-532,350	357,236	-0,047	0,069
-531,335	-116,827	0,089	0,012
-530,321	-200,000	-0,014	0,045
-529,306	27,541	-0,153	-0,094
-528,291	246,026	0,034	-0,042
-527,277	132,918	0,093	-0,088
-526,262	-144,126	-0,055	0,004
-525,248	-17,395	0,128	0,059
-524,233	-200,000	-0,002	-0,040
-523,218	754,496	0,028	-0,056
-522,204	449,750	-0,042	0,068
-521,189	800,000	0,050	0,110
-520,175	-133,998	0,106	0,009
-519,160	800,000	-0,022	0,049
-518,145	-26,908	0,108	0,046
-517,131	-120,839	0,119	-0,014
-516,116	127,278	0,022	-0,020
-515,102	-13,887	-0,092	-0,043
-514,087	301,717	-0,086	-0,116
-513,072	-59,148	-0,065	-0,020
-512,058	-82,373	-0,047	-0,011
-511,043	34,394	-0,095	-0,060
-510,029	-77,138	0,131	0,033
-509,014	-200,000	-0,006	0,073
-507,999	800,000	0,012	0,037
-506,985	800,000	-0,037	0,085
-505,970	-85,584	-0,085	0,019
-504,956	-159,137	-0,104	0,004
-503,941	381,552	0,049	-0,074
-502,926	63,416	0,083	-0,060
-501,912	279,841	0,048	0,063
-500,897	-54,726	0,024	0,008
-499,883	800,000	-0,024	0,069
-498,868	142,695	-0,061	-0,059
-497,853	229,819	0,092	0,110
-496,839	-200,000	-0,008	-0,110
-495,824	778,866	-0,010	0,020
-494,810	-41,207	0,069	0,026
-493,795	565,917	0,014	-0,026
-492,781	143,962	-0,031	-0,030
-491,766	144,357	-0,063	0,061
-490,751	-88,497	0,097	0,021
-489,737	-68,993	-0,117	0,033
-488,722	105,247	-0,073	-0,063
-487,708	141,635	-0,051	-0,049
-486,693	19,794	-0,188	0,110
-485,678	-200,000	0,036	0,125
-484,664	114,145	0,024	-0,022
-483,649	-200,000	0,002	-0,062
-482,635	800,000	-0,053	0,127
-481,620	4,582	0,095	-0,051
-480,605	-200,000	0,011	0,044
-479,591	19,408	-0,031	0,018
-478,576	140,271	-0,095	0,092
-477,562	-84,676	0,045	-0,010
-476,547	-58,261	-0,041	-0,013
-475,532	-51,346	-0,160	-0,054
-474,518	18,414	-0,109	-0,064
-473,503	112,528	0,064	-0,057
-472,489	298,342	-0,047	-0,064
-471,474	-138,293	-0,073	-0,006
-470,459	-126,330	0,013	0,001
-469,445	-77,324	-0,065	0,016
-468,430	-157,294	0,117	-0,005
-467,416	-140,723	-0,076	0,006
-466,401	-35,569	0,092	0,036
-465,386	11,274	-0,028	0,015
-464,372	112,614	-0,078	0,069
-463,357	-152,308	0,022	0,001
-462,343	800,000	0,042	0,132
-461,328	-145,963	0,101	-0,006
-460,313	-69,358	-0,164	0,045
-459,299	219,143	-0,069	0,080
-458,284	-200,000	-0,010	0,047
-457,270	-3,317	0,026	-0,013
-456,255	800,000	0,053	-0,135
-455,241	-200,000	0,022	0,140
-454,226	41,566	-0,078	-0,051
-453,211	-47,779	0,083	0,029
-452,197	-200,000	-0,008	0,051
-451,182	101,718	-0,048	0,041
-450,168	-200,000	0,024	0,110
-449,153	-1,350	-0,068	0,035
-448,138	-200,000	0,003	-0,013
-447,124	201,508	0,043	0,048
-446,109	-121,600	0,099	-0,012
-445,095	42,546	-0,116	-0,077
-444,080	-200,000	0,011	-0,064
-443,065	800,000	0,071	0,225
-442,051	-65,311	0,066	0,019
-441,036	-200,000	0,010	-0,049
-440,022	800,000	0,036	-0,096
-439,007	9,852	0,123	-0,068
-437,992	176,572	0,089	-0,095
-436,978	101,340	0,079	0,067
-435,963	497,562	-0,067	0,112
-434,949	800,000	-0,027	0,072
-433,934	522,237	0,014	-0,023
-432,919	-200,000	-0,003	-0,011
-431,905	-54,317	0,064	0,021
-430,890	-200,000	-0,019	0,070
-429,876	409,702	0,129	0,200
-428,861	219,602	-0,047	-0,055
-427,846	480,388	-0,031	-0,051
-426,832	-200,000	0,018	0,086
-425,817	46,510	-0,148	-0,100
-424,803	-200,000	-0,033	-0,129
-423,788	-200,000	0,007	0,056
-422,773	-77,356	-0,123	-0,031
-421,759	-200,000	0,196	0,000
-420,744	41,434	0,081	0,053
-419,730	-200,000	-0,012	-0,085
-418,715	-200,000	-0,027	-0,158
-417,701	127,709	0,113	-0,105
-416,686	-200,000	-0,019	0,112
-415,671	800,000	0,028	0,079
-414,657	800,000	0,041	0,101
-413,642	74,678	-0,013	0,010
-412,628	-200,000	-0,010	0,185
-411,613	-55,553	0,033	0,011
-410,598	-149,620	-0,058	-0,003
-409,584	-73,093	-0,091	-0,024
-408,569	-98,274	-0,008	0,001
-407,555	-200,000	-0,012	-0,114
-406,540	-74,124	0,044	-0,012
-405,525	800,000	0,046	0,125
-404,511	-29,876	0,030	-0,012
-403,496	737,596	-0,079	0,155
-402,482	-35,156	0,048	-0,019
-401,467	247,951	0,074	0,091
-400,452	-80,194	0,162	0,039
-399,438	11,705	-0,048	0,027
-398,423	-47,386	-0,051	-0,018
-397,409	-30,945	-0,053	0,021
-396,394	-22,191	0,029	0,013
-395,379	-19,550	-0,036	-0,016
-394,365	230,191	0,061	-0,073
-393,350	-200,000	0,000	-0,002
-392,336	78,566	-0,126	-0,098
-391,321	-200,000	0,013	0,059
-390,306	72,446	-0,075	-0,056
-389,292	-200,000	-0,025	-0,091
-388,277	241,347	-0,094	0,115
-387,263	-53,721	0,046	-0,015
-386,248	372,191	0,031	-0,046
-385,233	623,267	0,021	0,039
-384,219	14,240	-0,125	-0,070
-383,204	-181,392	-0,024	-0,000
-382,190	12,295	-0,135	0,075
-381,175	90,886	-0,089	0,072
-380,160	800,000	0,035	0,073
-379,146	-200,000	-0,018	-0,092
-378,131	-103,659	0,009	0,001
-377,117	-200,000	-0,000	0,062
-376,102	78,959	-0,064	0,050
-375,088	89,683	0,044	-0,036
-374,073	169,149	0,073	0,076
-373,058	-72,036	-0,079	-0,021
-372,044	800,000	0,028	0,078
-371,029	-151,653	-0,195	-0,010
-370,015	-101,020	0,145	-0,026
-369,000	800,000	-0,019	-0,045
-367,985	-200,000	-0,038	0,159
-366,971	-64,382	-0,079	-0,023
-365,956	-200,000	-0,018	-0,088
-364,942	-200,000	0,007	-0,135
-363,927	70,412	-0,023	-0,017
-362,912	-200,000	0,019	0,081
-361,898	590,662	-0,041	-0,074
-360,883	19,545	-0,040	-0,023
-359,869	3,178	-0,095	0,050
-358,854	800,000	0,036	-0,078
-357,839	-139,104	0,115	-0,009
-356,825	-200,000	0,019	0,096
-355,810	-200,000	0,010	-0,087
-354,796	-1,862	-0,079	0,040
-353,781	-200,000	-0,005	0,027
-352,766	-200,000	0,011	0,055
-351,752	142,752	-0,042	-0,040
-350,737	-133,746	0,054	0,005
-349,723	120,079	-0,054	-0,048
-348,708	-200,000	-0,004	0,030
-347,693	-64,817	0,081	-0,024
-346,679	-200,000	0,001	0,021
-345,664	-93,367	-0,106	-0,021
-344,650	215,057	0,091	-0,105
-343,635	698,711	-0,019	0,036
-342,620	-85,664	0,148	-0,033
-341,606	800,000	0,055	0,124
-340,591	-62,731	-0,065	-0,019
-339,577	-200,000	0,002	0,014
-338,562	-200,000	-0,009	-0,074
-337,548	800,000	0,053	0,119
-336,533	800,000	-0,028	0,079
-335,518	800,000	0,035	0,073
-334,504	-200,000	-0,001	-0,005
-333,489	-99,284	-0,061	-0,011
-332,475	9,185	0,075	-0,041
-331,460	17,456	0,102	-0,058
-330,445	-200,000	0,005	-0,170
-329,431	-12,879	0,044	-0,021
-328,416	-200,000	-0,010	-0,034
-327,402	-87,017	0,217	0,048
-326,387	-75,695	-0,134	-0,034
-325,372	-30,716	0,077	-0,032
-324,358	-172,322	0,109	0,002
-323,343	51,882	-0,068	0,047
-322,329	-80,636	-0,191	-0,046
-321,314	-84,110	0,046	-0,011
-320,299	800,000	0,049	0,118
-319,285	682,639	0,013	-0,025
-318,270	-200,000	-0,021	0,123
-317,256	800,000	-0,036	0,085
-316,241	-200,000	-0,025	0,088
-315,226	800,000	0,016	0,046
-314,212	-5,719	0,114	0,056
-313,197	-200,000	-0,004	0,036
-312,183	138,037	-0,060	-0,057
-311,168	128,873	0,029	-0,027
-310,153	-200,000	-0,001	0,016
-309,139	119,695	-0,022	0,019
-308,124	800,000	-0,028	0,072
-307,110	269,598	0,071	0,090
-306,095	-181,258	-0,092	0,001
-305,080	-10,219	0,115	-0,055
-304,066	-200,000	0,003	-0,148
-303,051	-133,042	-0,130	0,012
-302,037	705,977	-0,050	-0,095
-301,022	-78,572	-0,127	-0,031
-300,008	800,000	-0,041	0,107
-298,993	698,498	0,013	-0,025
-297,978	-200,000	-0,005	-0,078
-296,964	611,133	0,046	-0,084
-295,949	-200,000	0,013	-0,122
-294,935	27,849	-0,068	-0,041
-293,920	-35,629	-0,128	0,050
-292,905	-8,116	0,059	-0,029
-291,891	-200,000	-0,002	0,097
-290,876	-67,586	-0,052	0,015
-289,862	-132,155	0,071	-0,007
-288,847	-54,718	-0,083	-0,027
-287,832	-200,000	0,008	-0,070
-286,818	153,635	0,022	0,022
-285,803	-200,000	-0,006	-0,046
-284,789	-13,934	0,040	0,019
-283,774	280,267	0,096	0,125
-282,759	-170,034	-0,195	0,005
-281,745	-90,366	0,130	-0,027
-280,730	-28,327	-0,135	0,056
-279,716	-200,000	-0,017	0,173
-278,701	-177,152	0,119	0,002
-277,686	669,750	0,027	-0,052
-276,672	137,728	-0,032	0,031
-275,657	202,468	0,040	0,045
-274,643	-151,353	-0,105	0,006
-273,628	-94,687	0,130	0,025
-272,613	52,803	0,076	0,053
-271,599	800,000	-0,007	-0,017
-270,584	-200,000	0,013	0,077
-269,570	-121,082	-0,014	-0,002
-268,555	800,000	-0,043	0,104
-267,540	-200,000	0,017	0,057
-266,526	-30,117	-0,160	-0,066
-265,511	65,033	0,052	0,038
-264,497	35,757	0,040	-0,025
-263,482	-159,450	0,073	0,003
-262,467	-90,996	0,023	0,005
-261,453	-71,816	-0,077	-0,021
-260,438	-200,000	-0,012	-0,121
-259,424	41,294	-0,019	0,013
-258,409	-127,924	-0,129	-0,013
-257,395	199,311	0,083	0,092
-256,380	36,008	0,026	-0,016
-255,365	-41,408	-0,069	0,026
-254,351	-200,000	-0,036	-0,118
-253,336	405,426	-0,060	-0,091
-252,322	-76,947	0,107	0,027
-251,307	125,042	-0,081	0,074
-250,292	-148,983	-0,031	0,002
-249,278	290,146	0,098	0,129
-248,263	82,240	-0,063	0,049
-247,249	-73,573	0,076	-0,020
-246,234	-7,610	-0,046	-0,023
-245,219	-200,000	0,015	-0,121
-244,205	-48,411	-0,146	-0,051
-243,190	-118,080	0,133	-0,017
-242,176	800,000	0,087	0,186
-241,161	800,000	0,025	-0,068
-240,146	800,000	0,028	0,069
-239,132	21,743	-0,049	0,029
-238,117	121,944	-0,171	-0,155
-237,103	165,714	-0,100	-0,102
-236,088	800,000	0,054	-0,116
-235,073	96,682	-0,138	-0,114
-234,059	30,969	0,066	-0,041
-233,044	-133,752	-0,157	-0,014
-232,030	-166,493	-0,016	-0,000
-231,015	-140,497	-0,125	0,009
-230,000	-48,293	-0,116	0,040
-228,986	800,000	-0,009	-0,027
-227,971	54,972	0,040	0,028
-226,957	-172,616	0,087	0,002
-225,942	42,597	0,019	-0,013
-224,927	275,369	-0,021	0,027
-223,913	800,000	0,019	0,044
-222,898	345,511	-0,009	0,013
-221,884	554,092	0,057	-0,100
-220,869	-169,638	0,110	-0,003
-219,855	-15,783	0,109	0,050
-218,840	-79,209	-0,027	0,006
-217,825	-58,767	-0,076	-0,023
-216,811	-139,205	-0,062	0,005
-215,796	-200,000	-0,008	-0,115
-214,782	-200,000	-0,008	0,074
-213,767	-91,457	0,062	-0,013
-212,752	7,752	0,104	0,056
-211,738	-200,000	0,022	0,142
-210,723	669,324	-0,053	0,099
-209,709	46,521	0,025	0,017
-208,694	-200,000	0,020	0,131
-207,679	88,537	-0,056	0,045
-206,665	15,917	0,138	0,078
-205,650	190,311	0,094	0,102
-204,636	47,567	0,042	-0,028
-203,621	583,423	-0,019	-0,034
-202,606	62,257	0,049	-0,035
-201,592	-131,468	-0,153	-0,014
-200,577	426,425	0,066	0,103
-199,563	-154,308	-0,053	-0,003
-198,548	-54,180	-0,063	0,020
-197,533	22,647	-0,108	-0,064
-196,519	-200,000	0,009	-0,034
-195,504	370,656	-0,048	0,070
-194,490	-166,854	0,159	0,005
-193,475	-152,544	-0,167	-0,008
-192,460	-200,000	0,005	0,075
-191,446	23,643	0,111	-0,066
-190,431	-200,000	-0,018	0,092
-189,417	-42,005	-0,068	-0,025
-188,402	223,568	0,008	0,009
-187,387	-51,290	-0,069	-0,023
-186,373	-200,000	-0,018	-0,083
-185,358	51,498	0,129	-0,088
-184,344	129,405	0,204	-0,188
-183,329	-78,529	-0,054	-0,013
-182,315	-65,392	0,122	0,035
-181,300	800,000	-0,002	0,006
-180,285	144,345	0,045	-0,043
-179,271	-50,186	-0,093	0,032
-178,256	386,018	0,080	0,120
-177,242	15,350	-0,016	0,009
-176,227	-64,132	0,167	-0,049
-175,212	-200,000	-0,003	0,105
-174,198	3,535	0,040	-0,021
-173,183	800,000	-0,071	-0,213
-172,169	-138,735	-0,074	-0,006
-171,154	-200,000	-0,009	-0,035
-170,139	332,648	0,036	0,050
-169,125	-134,979	0,079	0,007
-168,110	800,000	0,042	0,093
-167,096	32,214	-0,043	0,026
-166,081	142,330	0,016	-0,015
-165,066	-118,022	-0,050	-0,006
-164,052	60,879	0,082	-0,059
-163,037	-105,773	0,026	0,004
-162,023	127,864	0,055	-0,050
-161,008	-200,000	0,011	-0,111
-159,993	84,362	-0,072	-0,057
-158,979	-200,000	-0,023	0,089
-157,964	44,084	0,055	0,036
-156,950	800,000	0,041	0,093
-155,935	-200,000	-0,009	-0,052
-154,920	-33,886	0,099	-0,039
-153,906	-95,483	0,131	-0,025
-152,891	127,667	0,038	0,035
-151,877	410,460	-0,045	0,069
-150,862	-36,232	-0,159	-0,061
-149,847	5,755	-0,087	0,046
-148,833	-104,739	-0,113	-0,019
-147,818	-76,762	0,028	0,007
-146,804	322,021	-0,054	0,074
-145,789	238,787	0,025	0,030
-144,775	-28,864	0,139	0,057
-143,760	-200,000	0,001	0,008
-142,745	-200,000	-0,017	0,092
-141,731	-61,633	-0,054	-0,016
-140,716	413,276	0,049	0,075
-139,702	267,668	0,013	-0,016
-138,687	35,229	0,163	-0,103
-137,672	-120,419	-0,162	-0,020
-136,658	-200,000	0,011	-0,067
-135,643	25,075	0,158	-0,094
-134,629	282,374	-0,027	-0,035
-133,614	-179,071	0,144	-0,002
-132,599	-91,737	0,126	0,026
-131,585	384,561	-0,074	0,110
-130,570	-200,000	-0,017	-0,130
-129,556	47,005	-0,060	0,040
-128,541	248,643	-0,067	0,082
-127,526	-21,380	0,028	0,012
-126,512	117,975	0,053	-0,047
-125,497	-40,073	0,146	-0,055
-124,483	-0,268	-0,065	0,033
-123,468	-60,713	-0,078	-0,024
-122,453	221,353	-0,060	-0,069
-121,439	197,231	0,032	0,035
-120,424	-51,757	-0,150	0,050
-119,410	17,297	0,101	-0,057
