DTS Sentinel unit serial number:	SN410029Multiplexer serial number:	ORYXHardware model number:	OX2-SRSoftware version number:	ORYX F/W v4,00 Oryx Data Collector v3.7.2.0data status	okinstallation	B5 Nyhavnadifferential loss correction	single-endedforward channel	channel 2reverse channel	N/Adate	2023/12/13time	07:47:13forward acquisition time	300,00reverse acquisition time	0,00gamma	499,1914k internal	0,3160k external	0,3160temperature offset calibration	1,0000default loss term (dB/km)	0,3820temperature slope calibration	1,0000multiplexer offset coefficient	1,0000multiplexer slope coefficient	1,0000fibre end	0,00T internal ref (°C)	13,67T ext. ref 1 (°C)	-2,80T ext. ref 2 (°C)	-3,10length (m)	temperature (°C)	Stokes	anti-Stokes-744,400	200,355	0,047	0,054
-743,385	-18,140	-0,289	-0,133
-742,371	800,000	0,059	0,132
-741,356	-130,454	-0,193	-0,019
-740,342	66,310	0,101	0,076
-739,327	-108,555	-0,247	-0,039
-738,312	440,967	0,044	0,071
-737,298	-144,403	-0,422	0,028
-736,283	-4,629	0,177	0,090
-735,269	-180,876	-0,273	-0,004
-734,254	800,000	0,075	0,203
-733,239	-12,878	-0,410	-0,196
-732,225	-65,358	0,174	0,051
-731,210	60,343	-0,041	-0,030
-730,196	800,000	-0,036	-0,084
-729,181	800,000	-0,071	-0,147
-728,167	24,334	0,075	0,046
-727,152	128,662	-0,096	0,090
-726,137	-200,000	-0,000	0,057
-725,123	-132,494	-0,085	0,008
-724,108	-148,745	0,053	-0,003
-723,094	800,000	0,003	-0,008
-722,079	93,023	-0,029	-0,024
-721,064	-52,482	0,236	0,080
-720,050	-89,396	0,032	-0,007
-719,035	-184,909	-0,159	-0,002
-718,021	-129,956	-0,049	0,005
-717,006	415,181	-0,077	-0,120
-715,991	-200,000	-0,036	-0,135
-714,977	269,251	-0,089	-0,115
-713,962	800,000	0,007	-0,018
-712,948	-170,790	0,062	0,002
-711,933	-3,580	-0,080	0,041
-710,918	207,073	0,050	0,058
-709,904	139,420	-0,027	0,026
-708,889	-200,000	-0,010	-0,054
-707,875	-200,000	0,007	-0,025
-706,860	95,280	0,050	0,042
-705,845	-107,161	-0,093	0,015
-704,831	-200,000	-0,016	0,106
-703,816	-200,000	-0,028	0,120
-702,802	-200,000	0,037	0,124
-701,787	-133,516	0,143	-0,013
-700,772	-86,686	-0,048	0,011
-699,758	800,000	0,025	0,053
-698,743	-103,100	0,078	0,013
-697,729	82,083	0,044	-0,035
-696,714	-70,551	-0,079	0,022
-695,699	800,000	-0,012	-0,036
-694,685	-200,000	-0,003	0,021
-693,670	-80,084	0,182	0,044
-692,656	-200,000	-0,017	-0,059
-691,641	800,000	0,048	0,110
-690,627	-15,452	0,041	0,019
-689,612	488,073	-0,069	0,116
-688,597	-31,378	0,085	-0,035
-687,583	-85,370	0,104	0,024
-686,568	-200,000	-0,019	-0,155
-685,554	519,080	-0,019	-0,033
-684,539	-200,000	0,000	-0,096
-683,524	12,878	-0,112	-0,063
-682,510	800,000	-0,033	-0,074
-681,495	-200,000	0,026	0,123
-680,481	322,797	-0,068	-0,095
-679,466	277,260	0,010	-0,013
-678,451	432,516	-0,043	-0,069
-677,437	-96,718	-0,106	0,020
-676,422	-113,819	0,041	0,006
-675,408	-55,534	0,041	-0,013
-674,393	-200,000	-0,013	-0,186
-673,378	60,594	-0,093	0,068
-672,364	-135,923	-0,064	0,005
-671,349	-200,000	0,004	-0,035
-670,335	213,171	0,083	-0,096
-669,320	-93,455	0,122	0,025
-668,305	-200,000	0,017	-0,146
-667,291	-200,000	-0,002	-0,139
-666,276	-200,000	-0,035	-0,135
-665,262	178,162	-0,061	0,066
-664,247	-47,472	-0,043	0,015
-663,232	-41,447	0,086	-0,032
-662,218	107,142	0,076	-0,067
-661,203	211,621	0,029	-0,033
-660,189	-132,406	-0,128	-0,012
-659,174	-135,698	0,129	-0,011
-658,159	800,000	0,008	-0,024
-657,145	-200,000	-0,016	0,115
-656,130	-54,951	-0,083	-0,027
-655,116	-200,000	0,016	-0,061
-654,101	-19,005	-0,145	0,066
-653,086	-124,394	-0,156	0,018
-652,072	92,772	-0,072	0,060
-651,057	24,677	-0,117	0,071
-650,043	277,791	-0,073	-0,096
-649,028	580,374	0,025	0,044
-648,014	-172,142	0,083	-0,002
-646,999	-118,693	0,083	-0,011
-645,984	-200,000	0,016	-0,082
-644,970	52,716	-0,116	0,081
-643,955	147,348	0,033	0,033
-642,941	-200,000	-0,029	-0,098
-641,926	-65,052	-0,106	0,031
-640,911	242,078	-0,028	-0,034
-639,897	129,682	0,018	0,017
-638,882	-1,174	0,101	-0,052
-637,868	-57,650	-0,081	0,026
-636,853	223,849	-0,069	-0,082
-635,838	-126,977	0,050	0,005
-634,824	-102,906	0,102	0,018
-633,809	186,357	0,035	0,039
-632,795	-200,000	0,003	0,020
-631,780	137,388	0,103	-0,099
-630,765	-200,000	-0,006	-0,217
-629,751	-200,000	-0,007	-0,097
-628,736	50,489	0,023	-0,016
-627,722	-19,026	-0,170	-0,077
-626,707	800,000	0,037	0,092
-625,692	99,175	0,202	0,171
-624,678	71,348	0,045	-0,034
-623,663	-22,748	-0,155	-0,068
-622,649	800,000	0,026	-0,072
-621,634	-200,000	-0,002	0,036
-620,619	-40,774	0,121	-0,046
-619,605	472,574	-0,061	0,101
-618,590	740,864	-0,093	-0,184
-617,576	-25,952	0,126	0,054
-616,561	199,307	-0,078	0,088
-615,546	25,733	-0,107	-0,065
-614,532	-23,088	-0,134	-0,059
-613,517	-118,546	-0,047	0,006
-612,503	-59,877	-0,018	0,006
-611,488	26,530	0,026	-0,016
-610,474	347,353	-0,026	0,038
-609,459	-200,000	0,002	0,117
-608,444	227,060	0,094	-0,112
-607,430	-200,000	-0,008	-0,034
-606,415	-200,000	0,011	-0,117
-605,401	800,000	0,008	0,024
-604,386	194,545	-0,100	-0,111
-603,371	211,008	0,144	0,166
-602,357	-200,000	-0,003	0,123
-601,342	-25,989	-0,086	0,037
-600,328	-200,000	-0,005	-0,071
-599,313	-69,551	0,043	-0,012
-598,298	-91,576	-0,062	0,013
-597,284	800,000	0,013	-0,032
-596,269	294,923	0,070	0,094
-595,255	800,000	0,050	-0,126
-594,240	-19,060	0,054	-0,024
-593,225	51,995	-0,086	0,060
-592,211	-200,000	-0,028	0,099
-591,196	-15,407	0,155	0,072
-590,182	800,000	0,018	0,053
-589,167	531,069	-0,060	0,105
-588,152	363,663	-0,030	-0,044
-587,138	-69,547	-0,011	0,003
-586,123	-64,039	-0,150	-0,045
-585,109	151,945	-0,044	-0,044
-584,094	88,240	0,049	0,040
-583,079	-6,695	-0,132	-0,066
-582,065	-200,000	0,024	-0,115
-581,050	159,423	0,075	0,077
-580,036	-200,000	-0,022	0,119
-579,021	703,347	-0,024	-0,046
-578,006	259,925	-0,052	-0,066
-576,992	-62,559	-0,021	-0,006
-575,977	-200,000	0,001	-0,024
-574,963	-94,963	0,093	0,018
-573,948	469,315	0,076	-0,126
-572,934	-34,692	-0,061	0,024
-571,919	-200,000	-0,008	0,152
-570,904	250,838	0,049	0,061
-569,890	489,944	-0,042	-0,071
-568,875	145,883	-0,028	0,028
-567,861	-126,602	-0,147	0,016
-566,846	-108,859	0,165	0,026
-565,831	42,070	-0,100	-0,066
-564,817	255,735	-0,009	0,012
-563,802	-53,213	-0,056	-0,019
-562,788	-101,479	-0,111	0,020
-561,773	35,563	0,122	-0,078
-560,758	-200,000	0,013	0,142
-559,744	-88,881	0,146	0,031
-558,729	687,692	0,036	0,069
-557,715	-200,000	-0,013	0,115
-556,700	-5,125	0,062	-0,031
-555,685	-90,117	-0,164	0,035
-554,671	800,000	-0,039	-0,117
-553,656	62,218	0,079	0,057
-552,642	285,509	-0,037	0,049
-551,627	519,092	-0,043	-0,073
-550,612	-42,532	0,022	0,008
-549,598	-83,518	-0,078	0,018
-548,583	25,880	-0,032	0,020
-547,569	800,000	-0,003	-0,010
-546,554	-200,000	-0,009	0,090
-545,539	800,000	-0,048	0,104
-544,525	-200,000	-0,005	0,049
-543,510	-200,000	0,004	0,057
-542,496	-200,000	0,015	-0,059
-541,481	-137,110	-0,046	0,004
-540,466	-167,499	-0,056	-0,002
-539,452	-167,016	0,095	-0,003
-538,437	-200,000	0,011	0,043
-537,423	-200,000	-0,021	0,099
-536,408	-200,000	0,012	0,163
-535,393	4,267	-0,128	0,068
-534,379	800,000	0,035	0,086
-533,364	210,142	-0,037	-0,042
-532,350	580,075	0,030	0,054
-531,335	-200,000	-0,019	0,000
-530,321	219,001	0,045	0,053
-529,306	800,000	0,004	0,014
-528,291	-89,849	0,032	0,007
-527,277	-200,000	0,024	-0,142
-526,262	-200,000	-0,025	-0,152
-525,248	122,206	-0,083	0,076
-524,233	-200,000	0,020	0,216
-523,218	-200,000	-0,001	0,012
-522,204	-200,000	-0,001	-0,075
-521,189	-200,000	-0,003	-0,075
-520,175	137,556	-0,112	-0,107
-519,160	43,886	-0,098	0,065
-518,145	-200,000	-0,022	0,094
-517,131	800,000	0,043	0,107
-516,116	800,000	0,048	0,137
-515,102	-200,000	0,022	0,072
-514,087	-200,000	-0,019	0,095
-513,072	63,168	-0,081	-0,059
-512,058	-200,000	-0,008	-0,145
-511,043	102,794	-0,077	0,066
-510,029	-200,000	-0,008	0,119
-509,014	725,453	-0,031	0,061
-507,999	25,202	0,050	-0,030
-506,985	127,817	-0,021	0,019
-505,970	224,944	-0,057	0,068
-504,956	384,471	0,063	-0,095
-503,941	-154,118	-0,097	-0,005
-502,926	-200,000	0,026	0,092
-501,912	303,038	-0,045	-0,060
-500,897	-111,390	0,021	0,003
-499,883	671,813	-0,046	-0,087
-498,868	800,000	0,069	-0,149
-497,853	800,000	-0,023	-0,067
-496,839	-200,000	0,011	0,113
-495,824	264,443	0,047	-0,060
-494,810	-155,532	-0,125	-0,006
-493,795	-48,129	0,123	-0,043
-492,781	-200,000	0,032	0,106
-491,766	-104,695	-0,079	0,013
-490,751	671,409	-0,049	-0,092
-489,737	-200,000	-0,024	0,102
-488,722	621,735	0,004	0,007
-487,708	-200,000	0,021	-0,107
-486,693	800,000	-0,042	0,129
-485,678	800,000	0,048	-0,140
-484,664	21,515	-0,136	0,081
-483,649	-26,554	-0,049	0,021
-482,635	-151,138	-0,094	-0,005
-481,620	-200,000	0,003	0,028
-480,605	-200,000	-0,006	0,027
-479,591	-200,000	0,024	0,102
-478,576	-200,000	0,002	-0,105
-477,562	-24,137	-0,063	-0,027
-476,547	234,362	0,030	-0,036
-475,532	-88,502	-0,088	0,019
-474,518	2,239	-0,052	0,028
-473,503	-121,656	0,196	-0,023
-472,489	-200,000	-0,006	-0,139
-471,474	-200,000	0,016	-0,076
-470,459	-13,854	0,006	-0,003
-469,445	27,698	0,060	-0,037
-468,430	-92,133	0,131	0,027
-467,416	-200,000	-0,030	0,143
-466,401	-147,503	0,124	-0,008
-465,386	241,998	0,093	-0,113
-464,372	-95,250	0,046	-0,009
-463,357	-111,185	0,086	-0,013
-462,343	800,000	-0,027	-0,056
-461,328	-200,000	-0,016	-0,116
-460,313	55,307	-0,064	0,045
-459,299	40,666	0,077	0,050
-458,284	-74,785	0,069	0,018
-457,270	800,000	-0,037	0,078
-456,255	63,028	0,104	0,076
-455,241	170,434	0,101	-0,105
-454,226	-96,228	0,110	-0,021
-453,211	94,839	0,003	-0,003
-452,197	800,000	0,010	-0,023
-451,182	-121,143	-0,046	-0,006
-450,168	295,417	-0,050	-0,066
-449,153	-200,000	0,010	-0,067
-448,138	-23,734	0,169	-0,073
-447,124	163,514	0,019	0,020
-446,109	507,586	0,092	-0,156
-445,095	-200,000	-0,030	0,169
-444,080	800,000	-0,019	-0,052
-443,065	-200,000	0,040	0,141
-442,051	-200,000	-0,005	0,059
-441,036	317,715	-0,062	-0,085
-440,022	32,459	-0,100	-0,063
-439,007	-200,000	0,016	0,096
-437,992	278,932	0,090	0,117
-436,978	-77,997	0,051	-0,013
-435,963	-47,225	0,118	0,042
-434,949	239,891	-0,046	-0,055
-433,934	155,164	-0,144	-0,144
-432,919	-200,000	0,061	-0,215
-431,905	-69,765	0,163	-0,045
-430,890	-200,000	-0,030	0,161
-429,876	-200,000	0,018	0,092
-428,861	60,905	0,055	0,040
-427,846	23,149	-0,108	-0,064
-426,832	64,946	-0,083	-0,061
-425,817	67,006	-0,082	-0,061
-424,803	-200,000	-0,003	-0,013
-423,788	-200,000	0,035	0,124
-422,773	356,906	0,089	0,129
-421,759	506,786	-0,038	0,064
-420,744	-168,294	0,187	-0,005
-419,730	72,581	0,014	0,010
-418,715	249,841	-0,028	-0,034
-417,701	247,659	-0,018	-0,022
-416,686	-50,009	0,098	0,034
-415,671	-200,000	-0,009	-0,044
-414,657	477,245	0,021	-0,034
-413,642	-200,000	0,043	0,154
-412,628	799,176	-0,075	0,152
-411,613	101,727	-0,048	0,041
-410,598	61,032	-0,038	0,028
-409,584	-58,499	-0,057	0,018
-408,569	-200,000	-0,023	-0,193
-407,555	800,000	0,018	0,041
-406,540	-200,000	-0,009	-0,099
-405,525	505,841	-0,010	-0,018
-404,511	-150,031	-0,042	-0,002
-403,496	-200,000	-0,018	-0,115
-402,482	-61,797	0,093	0,028
-401,467	-156,635	0,050	0,002
-400,452	800,000	-0,047	0,116
-399,438	-54,838	-0,159	0,052
-398,423	-200,000	0,015	-0,081
-397,409	143,617	0,035	-0,034
-396,394	-200,000	0,006	-0,081
-395,379	183,500	-0,059	-0,064
-394,365	-107,239	0,027	-0,004
-393,350	-200,000	0,004	0,030
-392,336	-83,471	-0,121	-0,028
-391,321	-41,602	-0,125	-0,046
-390,306	-53,683	-0,045	0,015
-389,292	-131,310	-0,072	0,007
-388,277	57,473	-0,068	-0,048
-387,263	-200,000	-0,013	-0,050
-386,248	-27,851	0,042	-0,017
-385,233	-200,000	0,007	0,167
-384,219	-15,809	0,064	0,030
-383,204	-116,609	-0,060	0,008
-382,190	-27,640	-0,129	-0,054
-381,175	154,625	-0,049	0,049
-380,160	-200,000	0,012	-0,092
-379,146	-200,000	0,011	0,098
-378,131	167,024	-0,113	0,117
-377,117	800,000	-0,046	0,112
-376,102	800,000	0,035	-0,108
-375,088	-93,579	0,114	-0,023
-374,073	800,000	-0,061	-0,172
-373,058	206,980	0,041	0,046
-372,044	-113,209	0,040	-0,006
-371,029	263,901	0,097	-0,123
-370,015	240,586	0,102	0,123
-369,000	800,000	-0,006	-0,017
-367,985	235,796	0,040	-0,048
-366,971	525,667	0,048	-0,083
-365,956	342,904	0,053	0,076
-364,942	-200,000	-0,007	0,057
-363,927	800,000	0,020	0,044
-362,912	-200,000	-0,007	0,058
-361,898	291,006	-0,053	0,070
-360,883	-200,000	0,008	0,064
-359,869	489,560	-0,022	0,037
-358,854	-14,824	-0,084	-0,039
-357,839	328,427	0,068	0,095
-356,825	557,275	-0,062	0,110
-355,810	-200,000	0,019	-0,111
-354,796	800,000	-0,015	-0,039
-353,781	-200,000	-0,026	-0,163
-352,766	-26,534	-0,068	0,029
-351,752	249,025	-0,040	-0,050
-350,737	-108,575	0,067	0,010
-349,723	-200,000	-0,001	0,005
-348,708	-75,709	-0,050	0,013
-347,693	775,276	-0,057	-0,113
-346,679	127,725	0,021	0,020
-345,664	110,224	0,116	-0,101
-344,650	-200,000	0,001	-0,048
-343,635	-10,076	-0,048	0,023
-342,620	-16,071	0,220	-0,101
-341,606	89,551	-0,008	-0,006
-340,591	800,000	0,050	-0,128
-339,577	800,000	-0,027	-0,072
-338,562	800,000	0,066	-0,135
-337,548	148,974	0,104	-0,102
-336,533	-200,000	0,006	-0,039
-335,518	-108,809	0,080	-0,012
-334,504	62,550	0,136	0,098
-333,489	10,557	-0,162	0,089
-332,475	528,135	0,024	0,041
-331,460	800,000	0,013	-0,034
-330,445	800,000	-0,069	-0,179
-329,431	474,560	0,048	0,078
-328,416	-200,000	0,021	0,103
-327,402	800,000	0,013	0,029
-326,387	-119,495	-0,039	-0,005
-325,372	-200,000	0,007	-0,108
-324,358	-70,534	0,019	-0,005
-323,343	-23,436	-0,110	0,048
-322,329	-89,223	-0,081	-0,017
-321,314	-98,273	0,107	-0,020
-320,299	98,942	-0,053	-0,044
-319,285	218,855	0,049	-0,056
-318,270	-200,000	-0,002	0,025
-317,256	800,000	-0,029	-0,090
-316,241	87,272	0,050	0,040
-315,226	266,824	0,101	0,128
-314,212	-148,351	0,062	-0,004
-313,197	273,604	-0,079	0,102
-312,183	118,902	0,082	-0,073
-311,168	800,000	0,027	-0,084
-310,153	800,000	-0,096	-0,264
-309,139	126,284	-0,035	-0,032
-308,124	-195,285	0,131	0,001
-307,110	-104,438	0,141	0,023
-306,095	132,594	0,058	-0,054
-305,080	128,050	-0,068	-0,062
-304,066	131,891	-0,035	0,032
-303,051	800,000	0,055	-0,115
-302,037	800,000	0,059	-0,145
-301,022	-200,000	-0,004	-0,092
-300,008	71,930	-0,046	0,035
-298,993	800,000	0,058	0,145
-297,978	-61,482	-0,039	0,012
-296,964	105,702	-0,034	-0,029
-295,949	-197,948	-0,042	-0,000
-294,935	-68,444	-0,220	-0,061
-293,920	382,118	-0,058	0,086
-292,905	-155,931	0,207	-0,009
-291,891	-17,900	0,079	0,036
-290,876	-200,000	-0,006	0,106
-289,862	277,194	0,058	0,075
-288,847	800,000	0,043	-0,094
-287,832	-197,699	-0,085	0,000
-286,818	337,142	-0,100	-0,141
-285,803	467,628	0,082	0,134
-284,789	-58,826	0,167	0,052
-283,774	-58,979	-0,042	-0,013
-282,759	380,872	-0,089	-0,132
-281,745	-107,678	0,050	0,008
-280,730	472,193	-0,039	-0,064
-279,716	87,078	0,066	-0,053
-278,701	-93,597	-0,088	0,018
-277,686	12,161	0,088	-0,049
-276,672	-61,956	-0,115	-0,035
-275,657	800,000	0,047	0,118
-274,643	135,150	0,035	0,033
-273,628	-200,000	-0,031	-0,118
-272,613	-171,000	0,109	0,003
-271,599	-200,000	-0,007	-0,037
-270,584	-200,000	0,002	0,024
-269,570	800,000	0,016	-0,052
-268,555	-200,000	-0,009	0,056
-267,540	-90,753	-0,101	0,021
-266,526	160,078	-0,058	-0,058
-265,511	800,000	-0,016	-0,050
-264,497	180,373	-0,081	-0,086
-263,482	40,209	0,091	-0,059
-262,467	-200,000	-0,026	0,113
-261,453	-200,000	0,017	0,067
-260,438	-167,397	0,168	0,005
-259,424	-55,276	-0,039	-0,012
-258,409	159,711	-0,038	-0,039
-257,395	193,896	0,067	0,073
-256,380	-200,000	0,025	0,095
-255,365	121,309	-0,115	-0,104
-254,351	-200,000	-0,007	-0,096
-253,336	332,328	-0,095	0,133
-252,322	345,875	-0,066	-0,094
-251,307	15,670	0,022	-0,013
-250,292	194,591	-0,043	-0,047
-249,278	-76,388	0,203	0,051
-248,263	17,207	0,103	-0,059
-247,249	53,963	0,103	0,071
-246,234	396,502	-0,063	-0,096
-245,219	-41,455	0,033	0,012
-244,205	-99,632	-0,068	0,012
-243,190	-1,406	-0,104	0,053
-242,176	68,735	0,090	0,067
-241,161	532,860	0,029	0,049
-240,146	7,616	-0,106	0,057
-239,132	405,868	0,062	0,095
-238,117	37,544	-0,093	0,060
-237,103	-82,746	-0,098	0,023
-236,088	75,174	-0,090	0,069
-235,073	-10,251	0,095	-0,045
-234,059	138,810	-0,032	0,030
-233,044	92,346	-0,039	0,031
-232,030	-109,366	-0,033	-0,005
-231,015	-200,000	0,005	-0,157
-230,000	-200,000	0,001	0,026
-228,986	-200,000	0,001	0,081
-227,971	421,106	-0,061	-0,095
-226,957	800,000	0,039	-0,091
-225,942	-130,667	0,124	0,012
-224,927	-200,000	-0,071	0,290
-223,913	-200,000	-0,069	-0,221
-222,898	-110,820	0,127	-0,019
-221,884	-90,672	-0,086	-0,018
-220,869	800,000	0,028	0,057
-219,855	178,102	0,071	0,075
-218,840	-103,724	-0,129	0,022
-217,825	209,047	-0,055	0,062
-216,811	353,479	0,082	-0,118
-215,796	299,694	-0,121	-0,161
-214,782	-200,000	-0,056	-0,202
-213,767	336,227	0,078	0,110
-212,752	160,649	0,116	0,117
-211,738	150,031	-0,088	0,086
-210,723	321,125	0,053	-0,073
-209,709	-200,000	-0,018	-0,138
-208,694	-6,525	0,009	-0,004
-207,679	-200,000	0,031	-0,142
-206,665	279,990	-0,045	0,057
-205,650	25,198	0,110	0,066
-204,636	-1,617	-0,120	0,061
-203,621	-140,900	-0,107	-0,008
-202,606	-122,177	0,161	-0,019
-201,592	112,473	-0,044	0,038
-200,577	-200,000	-0,010	-0,205
-199,563	163,892	-0,064	-0,065
-198,548	800,000	0,041	0,094
-197,533	800,000	0,051	0,127
-196,519	-200,000	0,020	0,103
-195,504	400,472	-0,069	-0,104
-194,490	-120,833	0,043	0,005
-193,475	675,657	0,038	0,071
-192,460	302,257	0,049	0,065
-191,446	-78,344	0,089	-0,022
-190,431	-99,319	0,017	-0,003
-189,417	295,284	-0,066	0,087
-188,402	-140,448	-0,107	-0,008
-187,387	-110,807	-0,081	0,012
-186,373	795,414	0,042	-0,083
-185,358	442,684	0,013	-0,020
-184,344	-140,504	-0,052	0,004
-183,329	242,166	0,023	0,028
-182,315	-106,807	-0,127	-0,020
-181,300	28,142	-0,135	0,082
-180,285	-16,664	0,050	0,023
-179,271	58,298	-0,054	-0,038
-178,256	-45,095	-0,070	0,025
-177,242	-200,000	-0,004	0,061
-176,227	800,000	0,066	0,187
-175,212	800,000	0,078	0,197
-174,198	-65,536	0,049	0,014
-173,183	-200,000	-0,002	0,108
-172,169	-46,969	0,059	-0,020
-171,154	-147,118	0,121	-0,007
-170,139	-87,551	-0,211	0,045
-169,125	-94,275	-0,089	0,017
-168,110	646,428	0,027	0,050
-167,096	71,750	0,034	-0,026
-166,081	-49,683	0,170	0,058
-165,066	48,844	0,122	0,082
-164,052	33,503	-0,095	-0,059
-163,037	-200,000	-0,023	-0,079
-162,023	-200,000	0,025	0,081
-161,008	-102,764	0,106	-0,018
-159,993	-100,950	-0,098	0,017
-158,979	601,642	0,058	-0,104
-157,964	387,785	-0,104	-0,156
-156,950	-136,171	0,017	0,001
-155,935	221,034	0,102	0,118
-154,920	-200,000	-0,012	0,140
-153,906	800,000	0,018	-0,046
-152,891	-8,647	-0,069	-0,033
-151,877	96,077	-0,127	0,105
-150,862	800,000	0,034	0,101
-149,847	800,000	-0,010	0,031
-148,833	800,000	-0,013	0,032
-147,818	383,639	0,103	0,153
-146,804	65,541	0,090	0,066
-145,789	-75,772	-0,052	0,013
-144,775	-200,000	-0,014	-0,069
-143,760	147,625	0,040	-0,039
-142,745	13,881	-0,032	0,018
-141,731	-27,460	0,088	-0,037
-140,716	-67,791	0,053	-0,015
-139,702	-200,000	-0,003	0,135
-138,687	588,049	-0,072	0,129
-137,672	225,688	0,007	0,009
-136,658	565,949	-0,037	-0,065
-135,643	800,000	-0,042	-0,105
-134,629	288,511	0,013	-0,017
-133,614	-126,251	0,047	0,005
-132,599	-200,000	0,028	-0,152
-131,585	761,420	-0,062	0,122
-130,570	-200,000	0,004	0,095
-129,556	-5,822	-0,133	-0,065
-128,541	800,000	-0,011	0,033
-127,526	-200,000	0,022	0,076
-126,512	-114,754	-0,176	-0,024
-125,497	248,901	0,034	-0,042
-124,483	-200,000	0,005	0,060
-123,468	800,000	0,012	-0,033
-122,453	-75,308	0,024	-0,006
-121,439	207,383	-0,034	0,039
-120,424	-200,000	0,016	0,063
