DTS Sentinel unit serial number:	SN410029Multiplexer serial number:	ORYXHardware model number:	OX2-SRSoftware version number:	ORYX F/W v4,00 Oryx Data Collector v3.7.2.0data status	okinstallation	B5 Nyhavnadifferential loss correction	single-endedforward channel	channel 2reverse channel	N/Adate	2023/12/12time	19:12:13forward acquisition time	300,00reverse acquisition time	0,00gamma	499,1914k internal	0,3157k external	0,3157temperature offset calibration	1,0000default loss term (dB/km)	0,3820temperature slope calibration	1,0000multiplexer offset coefficient	1,0000multiplexer slope coefficient	1,0000fibre end	0,00T internal ref (°C)	15,50T ext. ref 1 (°C)	-1,11T ext. ref 2 (°C)	-1,41length (m)	temperature (°C)	Stokes	anti-Stokes-744,400	-32,186	0,129	0,053
-743,385	-1,189	-0,230	0,119
-742,371	68,402	0,131	0,099
-741,356	-72,181	-0,266	0,072
-740,342	152,676	0,163	0,165
-739,327	-174,356	-0,329	-0,007
-738,312	34,292	-0,062	0,040
-737,298	-92,664	-0,173	-0,035
-736,283	15,231	0,138	-0,079
-735,269	-109,390	-0,230	-0,036
-734,254	81,695	-0,054	0,043
-733,239	-14,793	-0,388	-0,183
-732,225	-98,856	0,125	0,023
-731,210	669,280	-0,058	0,111
-730,196	223,789	0,023	0,027
-729,181	478,293	0,048	0,081
-728,167	-35,972	0,102	-0,040
-727,152	800,000	-0,035	-0,103
-726,137	-66,944	0,072	-0,021
-725,123	800,000	0,016	0,041
-724,108	70,446	-0,101	-0,077
-723,094	267,240	-0,086	-0,111
-722,079	-23,187	0,062	-0,027
-721,064	-40,018	0,087	0,033
-720,050	-129,997	-0,097	0,010
-719,035	800,000	-0,054	-0,154
-718,021	392,287	-0,043	-0,066
-717,006	-40,479	-0,191	-0,073
-715,991	19,977	-0,047	0,028
-714,977	-49,970	-0,059	-0,020
-713,962	-151,183	-0,074	0,004
-712,948	-200,000	-0,034	0,115
-711,933	-159,147	-0,182	-0,007
-710,918	111,729	-0,013	0,012
-709,904	-90,617	-0,071	-0,015
-708,889	-200,000	-0,011	-0,057
-707,875	800,000	-0,055	-0,114
-706,860	-138,187	-0,054	-0,004
-705,845	19,263	0,041	0,024
-704,831	205,144	0,030	-0,034
-703,816	-58,247	-0,089	-0,029
-702,802	-119,217	0,054	0,007
-701,787	699,089	0,024	0,047
-700,772	800,000	0,015	-0,040
-699,758	-46,419	0,067	-0,024
-698,743	116,010	0,079	-0,071
-697,729	167,797	-0,049	0,052
-696,714	-200,000	-0,039	0,190
-695,699	-33,498	-0,111	-0,045
-694,685	173,301	-0,018	0,019
-693,670	77,045	0,042	0,033
-692,656	-1,758	-0,138	0,071
-691,641	-57,451	-0,098	0,031
-690,627	35,160	-0,114	0,073
-689,612	-200,000	0,001	0,040
-688,597	-13,886	0,059	0,028
-687,583	4,238	-0,014	0,008
-686,568	800,000	-0,026	-0,065
-685,554	-3,474	0,127	-0,065
-684,539	-175,933	-0,031	0,001
-683,524	478,658	0,044	0,073
-682,510	31,958	0,044	0,028
-681,495	-200,000	0,002	-0,032
-680,481	191,836	-0,087	0,096
-679,466	67,615	-0,027	-0,020
-678,451	-200,000	0,007	-0,119
-677,437	209,391	0,039	0,046
-676,422	-55,347	-0,014	-0,005
-675,408	432,186	0,009	-0,014
-674,393	407,345	-0,032	-0,050
-673,378	800,000	-0,033	0,083
-672,364	-200,000	-0,014	-0,078
-671,349	-8,930	-0,116	-0,057
-670,335	415,355	0,054	0,084
-669,320	-200,000	-0,011	-0,087
-668,305	800,000	-0,023	0,053
-667,291	-56,070	-0,075	0,024
-666,276	-200,000	0,001	-0,219
-665,262	-19,117	-0,101	-0,046
-664,247	-200,000	-0,004	0,022
-663,232	67,679	-0,030	0,023
-662,218	42,766	-0,055	-0,037
-661,203	-53,058	0,014	-0,005
-660,189	800,000	-0,028	0,073
-659,174	173,412	-0,049	-0,052
-658,159	145,290	-0,046	0,046
-657,145	-109,580	-0,132	-0,020
-656,130	162,610	0,080	-0,082
-655,116	583,111	-0,026	0,046
-654,101	-200,000	-0,005	0,088
-653,086	-44,721	-0,136	0,050
-652,072	-200,000	0,036	0,144
-651,057	89,208	-0,084	0,069
-650,043	-133,494	-0,126	-0,011
-649,028	-200,000	0,011	0,085
-648,014	52,859	0,084	0,059
-646,999	-28,539	-0,118	0,050
-645,984	-36,659	0,108	-0,043
-644,970	16,884	-0,163	0,095
-643,955	363,843	-0,093	-0,138
-642,941	-72,398	-0,119	-0,032
-641,926	10,517	0,075	-0,042
-640,911	650,784	-0,050	0,095
-639,897	800,000	0,055	0,132
-638,882	218,592	-0,018	0,021
-637,868	-37,111	0,070	-0,027
-636,853	-135,049	-0,159	-0,014
-635,838	49,592	0,065	-0,045
-634,824	-200,000	-0,006	-0,069
-633,809	-200,000	-0,002	-0,094
-632,795	-142,604	-0,139	0,010
-631,780	-190,670	0,077	-0,001
-630,765	126,624	-0,084	0,078
-629,751	-200,000	0,040	-0,179
-628,736	9,052	-0,081	0,045
-627,722	-164,300	0,044	0,001
-626,707	244,506	-0,047	-0,059
-625,692	-121,953	0,192	-0,023
-624,678	-107,835	-0,066	0,010
-623,663	74,619	0,049	0,038
-622,649	427,338	-0,050	-0,080
-621,634	-200,000	0,025	0,100
-620,619	-200,000	0,031	-0,143
-619,605	-62,358	0,143	-0,043
-618,590	94,267	0,067	-0,056
-617,576	-200,000	0,003	0,135
-616,561	-200,000	0,010	-0,062
-615,546	55,540	-0,046	0,033
-614,532	160,206	-0,052	-0,054
-613,517	-0,406	-0,076	-0,040
-612,503	61,537	-0,047	-0,034
-611,488	109,396	0,112	0,099
-610,474	800,000	0,013	0,038
-609,459	-200,000	0,035	0,157
-608,444	800,000	0,011	0,024
-607,430	339,297	-0,029	0,042
-606,415	318,722	0,031	-0,043
-605,401	800,000	-0,015	0,045
-604,386	800,000	-0,063	0,175
-603,371	9,316	0,018	0,010
-602,357	-200,000	-0,021	0,081
-601,342	-0,062	0,050	-0,026
-600,328	392,456	0,029	-0,044
-599,313	-97,885	-0,107	-0,020
-598,298	104,288	-0,023	-0,020
-597,284	76,079	0,039	0,030
-596,269	-200,000	0,022	0,129
-595,255	189,490	-0,094	-0,103
-594,240	-11,333	-0,098	-0,047
-593,225	-146,180	-0,052	-0,003
-592,211	-75,231	-0,060	0,016
-591,196	546,543	-0,078	0,137
-590,182	-151,073	0,140	0,008
-589,167	99,256	0,072	-0,061
-588,152	91,375	-0,073	-0,060
-587,138	497,489	-0,038	0,065
-586,123	115,011	-0,056	-0,050
-585,109	514,180	0,067	-0,115
-584,094	674,404	-0,012	-0,023
-583,079	399,940	-0,027	0,041
-582,065	318,164	0,015	-0,021
-581,050	-200,000	0,024	-0,084
-580,036	270,166	0,043	0,055
-579,021	87,913	0,073	-0,059
-578,006	-16,579	-0,148	-0,069
-576,992	-60,044	0,090	-0,028
-575,977	-68,516	0,103	-0,029
-574,963	-43,545	0,099	0,036
-573,948	475,394	0,084	-0,140
-572,934	70,324	0,061	0,046
-571,919	-200,000	-0,014	0,065
-570,904	-200,000	-0,025	-0,099
-569,890	-200,000	0,023	-0,109
-568,875	-106,285	-0,099	-0,016
-567,861	-56,348	0,143	0,046
-566,846	642,280	-0,072	-0,134
-565,831	-25,607	0,088	0,038
-564,817	780,122	-0,074	-0,149
-563,802	-200,000	0,011	-0,052
-562,788	-200,000	-0,001	-0,026
-561,773	113,733	0,035	0,031
-560,758	-39,725	-0,022	-0,008
-559,744	119,373	0,060	-0,054
-558,729	-28,901	-0,072	-0,030
-557,715	269,335	-0,049	-0,063
-556,700	33,803	-0,062	-0,039
-555,685	544,550	-0,051	-0,089
-554,671	158,518	-0,059	-0,060
-553,656	61,607	0,090	0,065
-552,642	-12,441	0,090	0,043
-551,627	800,000	-0,047	0,114
-550,612	-200,000	0,022	-0,103
-549,598	-64,917	0,074	0,022
-548,583	416,526	-0,020	-0,032
-547,569	107,620	-0,072	-0,062
-546,554	-13,511	0,150	0,071
-545,539	28,062	0,049	0,030
-544,525	-58,655	0,026	0,008
-543,510	-71,840	-0,113	0,030
-542,496	36,124	-0,043	0,027
-541,481	11,328	-0,065	0,036
-540,466	800,000	-0,038	-0,103
-539,452	63,460	0,038	0,028
-538,437	-200,000	-0,013	-0,154
-537,423	-164,977	0,193	0,006
-536,408	336,483	-0,070	-0,099
-535,393	250,462	0,048	0,060
-534,379	22,055	-0,166	-0,099
-533,364	347,573	0,061	0,088
-532,350	481,961	-0,075	0,124
-531,335	-200,000	-0,001	-0,026
-530,321	800,000	-0,042	0,094
-529,306	508,427	0,006	0,010
-528,291	289,464	-0,094	-0,126
-527,277	264,611	-0,001	-0,001
-526,262	-200,000	0,002	0,120
-525,248	-78,845	0,184	0,046
-524,233	-200,000	0,000	0,001
-523,218	-19,559	0,084	0,038
-522,204	-200,000	-0,019	0,085
-521,189	-200,000	-0,020	-0,071
-520,175	-68,760	0,051	0,014
-519,160	23,610	0,034	0,021
-518,145	16,558	-0,113	0,065
-517,131	50,833	-0,113	0,078
-516,116	-130,285	0,148	0,015
-515,102	800,000	-0,019	-0,041
-514,087	-107,628	-0,025	0,004
-513,072	226,254	-0,088	-0,105
-512,058	-200,000	0,009	-0,047
-511,043	-94,318	-0,195	0,039
-510,029	-200,000	0,016	0,116
-509,014	-96,225	0,090	-0,017
-507,999	800,000	-0,027	0,063
-506,985	328,137	0,095	0,134
-505,970	-189,144	0,056	-0,000
-504,956	800,000	-0,071	0,196
-503,941	18,985	-0,044	0,025
-502,926	214,386	0,032	-0,037
-501,912	235,823	0,088	0,106
-500,897	8,695	-0,148	0,081
-499,883	261,464	0,058	-0,073
-498,868	-111,186	-0,104	-0,015
-497,853	800,000	0,035	0,081
-496,839	17,842	-0,141	-0,082
-495,824	-200,000	0,013	-0,061
-494,810	-180,499	0,029	-0,000
-493,795	56,769	0,089	0,063
-492,781	-200,000	0,008	0,096
-491,766	347,126	-0,082	-0,118
-490,751	36,787	0,073	-0,047
-489,737	219,621	0,059	-0,069
-488,722	73,758	-0,080	-0,062
-487,708	-200,000	0,030	-0,214
-486,693	-76,446	0,061	-0,016
-485,678	800,000	0,043	-0,092
-484,664	-28,584	-0,077	-0,032
-483,649	-162,084	-0,103	-0,004
-482,635	23,700	-0,041	0,025
-481,620	65,866	-0,034	0,025
-480,605	-200,000	0,005	-0,132
-479,591	800,000	0,011	0,034
-478,576	800,000	0,034	0,103
-477,562	-185,792	-0,126	-0,001
-476,547	-17,954	-0,107	-0,049
-475,532	4,399	0,047	-0,025
-474,518	800,000	-0,035	0,085
-473,503	-52,359	0,028	0,009
-472,489	-58,796	0,055	-0,017
-471,474	32,583	0,032	-0,020
-470,459	156,612	-0,033	-0,033
-469,445	800,000	-0,041	0,123
-468,430	-6,566	0,055	-0,027
-467,416	800,000	-0,016	-0,050
-466,401	800,000	0,031	-0,067
-465,386	-55,428	-0,025	0,008
-464,372	-200,000	0,009	0,042
-463,357	-15,759	-0,063	0,029
-462,343	-200,000	0,000	-0,071
-461,328	201,722	-0,072	0,081
-460,313	800,000	-0,055	-0,119
-459,299	180,701	0,024	-0,025
-458,284	-200,000	0,018	0,104
-457,270	-44,470	-0,108	0,039
-456,255	144,967	0,021	-0,021
-455,241	-111,456	0,214	0,031
-454,226	343,699	-0,075	-0,107
-453,211	315,716	0,046	-0,063
-452,197	800,000	-0,020	-0,049
-451,182	155,641	0,040	0,040
-450,168	-200,000	-0,013	0,068
-449,153	269,393	-0,053	0,068
-448,138	428,992	0,037	0,059
-447,124	-13,273	-0,116	-0,055
-446,109	-73,467	0,042	-0,011
-445,095	-200,000	0,016	0,144
-444,080	142,607	-0,053	0,051
-443,065	800,000	0,030	0,068
-442,051	-58,431	-0,091	0,029
-441,036	-200,000	-0,012	-0,060
-440,022	-200,000	0,039	-0,177
-439,007	779,653	0,037	-0,075
-437,992	800,000	-0,067	0,152
-436,978	67,433	0,107	0,080
-435,963	800,000	-0,010	0,025
-434,949	-12,162	-0,022	0,010
-433,934	800,000	-0,043	-0,095
-432,919	34,360	0,024	-0,015
-431,905	-200,000	0,016	0,155
-430,890	-200,000	0,013	-0,053
-429,876	-76,039	0,076	0,019
-428,861	-200,000	-0,002	0,114
-427,846	800,000	-0,039	-0,123
-426,832	63,354	0,103	0,075
-425,817	-200,000	-0,022	0,136
-424,803	-28,748	-0,117	-0,049
-423,788	142,206	0,071	-0,068
-422,773	-200,000	0,010	0,116
-421,759	-20,492	-0,109	-0,049
-420,744	-200,000	-0,001	-0,061
-419,730	800,000	-0,045	-0,127
-418,715	-99,124	-0,055	-0,010
-417,701	-200,000	-0,008	-0,076
-416,686	140,128	0,113	0,109
-415,671	800,000	0,033	0,103
-414,657	-25,974	0,081	-0,034
-413,642	-22,309	0,104	0,046
-412,628	241,420	-0,112	-0,137
-411,613	800,000	0,050	-0,132
-410,598	527,640	-0,041	-0,071
-409,584	-44,947	-0,076	-0,027
-408,569	-134,591	0,109	-0,010
-407,555	-200,000	0,002	-0,017
-406,540	-24,048	0,093	0,040
-405,525	574,123	0,041	0,073
-404,511	305,796	-0,110	-0,149
-403,496	800,000	-0,006	-0,013
-402,482	179,297	0,014	0,015
-401,467	-41,938	0,065	-0,024
-400,452	-34,026	0,096	-0,038
-399,438	241,767	-0,110	0,134
-398,423	59,870	-0,032	-0,023
-397,409	-93,765	-0,048	-0,010
-396,394	54,528	-0,090	-0,063
-395,379	800,000	-0,009	-0,024
-394,365	86,329	0,017	0,014
-393,350	-200,000	-0,008	-0,077
-392,336	1,010	0,090	0,047
-391,321	-130,691	0,037	0,004
-390,306	60,873	-0,051	0,037
-389,292	37,332	0,131	0,084
-388,277	214,931	-0,093	0,107
-387,263	-200,000	0,017	0,077
-386,248	309,976	-0,045	0,062
-385,233	-200,000	-0,005	-0,057
-384,219	-200,000	-0,030	0,126
-383,204	22,044	-0,086	-0,051
-382,190	800,000	0,037	-0,112
-381,175	439,088	-0,025	0,039
-380,160	3,974	-0,116	-0,062
-379,146	800,000	0,022	0,054
-378,131	53,099	0,088	0,061
-377,117	530,421	-0,068	0,117
-376,102	142,542	-0,047	-0,045
-375,088	125,885	0,146	-0,134
-374,073	-137,492	-0,043	0,004
-373,058	54,124	-0,020	0,014
-372,044	782,639	0,054	0,107
-371,029	-32,531	0,169	0,068
-370,015	800,000	0,024	0,077
-369,000	10,074	0,077	-0,042
-367,985	-31,846	-0,061	0,025
-366,971	-200,000	0,026	-0,134
-365,956	-87,654	-0,074	-0,016
-364,942	-24,080	0,063	0,027
-363,927	800,000	-0,026	0,075
-362,912	-200,000	0,023	-0,106
-361,898	-200,000	0,001	-0,089
-360,883	-25,968	-0,064	-0,027
-359,869	358,303	-0,044	0,064
-358,854	316,372	-0,038	0,053
-357,839	-200,000	-0,003	-0,077
-356,825	15,282	0,106	0,060
-355,810	81,302	0,034	-0,027
-354,796	-75,343	-0,046	0,012
-353,781	337,076	0,016	-0,022
-352,766	800,000	0,008	0,017
-351,752	-65,668	-0,122	-0,035
-350,737	-124,586	0,067	-0,007
-349,723	-83,715	0,107	0,025
-348,708	563,606	0,070	-0,124
-347,693	75,994	0,098	-0,075
-346,679	137,306	-0,101	-0,096
-345,664	8,490	0,080	-0,043
-344,650	-26,877	0,151	0,064
-343,635	-51,075	0,089	0,030
-342,620	800,000	0,024	0,060
-341,606	-200,000	-0,012	0,139
-340,591	-192,175	0,047	-0,000
-339,577	-200,000	-0,004	-0,087
-338,562	-52,311	-0,162	-0,054
-337,548	800,000	0,017	0,044
-336,533	-200,000	0,015	-0,063
-335,518	120,024	0,058	-0,052
-334,504	-200,000	-0,004	0,042
-333,489	126,597	-0,079	-0,072
-332,475	65,009	0,101	-0,074
-331,460	593,729	0,021	-0,038
-330,445	-200,000	-0,005	-0,020
-329,431	96,831	-0,040	-0,033
-328,416	6,846	0,088	-0,047
-327,402	-55,738	-0,069	-0,022
-326,387	390,312	0,055	-0,083
-325,372	64,023	-0,086	-0,062
-324,358	-70,691	0,214	0,058
-323,343	2,436	-0,061	-0,032
-322,329	800,000	-0,041	0,117
-321,314	800,000	0,052	0,134
-320,299	-200,000	-0,021	0,113
-319,285	-200,000	0,010	0,046
-318,270	-62,420	-0,114	0,034
-317,256	-200,000	0,000	-0,049
-316,241	169,925	-0,033	-0,034
-315,226	46,678	-0,030	-0,020
-314,212	-200,000	-0,015	0,111
-313,197	428,592	-0,053	0,084
-312,183	-200,000	0,005	0,071
-311,168	388,824	-0,030	0,044
-310,153	800,000	0,012	-0,025
-309,139	800,000	0,065	-0,139
-308,124	-0,770	0,054	-0,028
-307,110	800,000	0,042	0,119
-306,095	-56,405	0,055	0,018
-305,080	463,182	0,028	0,046
-304,066	-200,000	0,014	0,054
-303,051	-123,486	-0,117	-0,013
-302,037	-200,000	-0,013	-0,171
-301,022	800,000	0,033	-0,104
-300,008	-38,765	0,140	0,053
-298,993	-32,266	-0,072	-0,029
-297,978	179,588	-0,086	-0,091
-296,964	310,539	0,025	0,034
-295,949	489,308	-0,043	-0,072
-294,935	60,362	-0,045	0,032
-293,920	-135,752	-0,050	0,004
-292,905	-181,880	0,021	0,000
-291,891	-200,000	0,062	0,227
-290,876	-103,018	0,067	-0,011
-289,862	503,149	0,037	-0,062
-288,847	188,256	-0,144	-0,156
-287,832	800,000	-0,025	-0,063
-286,818	205,609	-0,027	-0,031
-285,803	-200,000	0,005	0,041
-284,789	-17,376	-0,021	-0,009
-283,774	-18,899	0,006	0,003
-282,759	453,581	0,059	0,096
-281,745	800,000	0,036	0,074
-280,730	452,207	0,031	0,050
-279,716	-200,000	0,001	0,041
-278,701	-33,429	0,049	-0,019
-277,686	57,918	0,140	-0,099
-276,672	-59,563	0,146	0,045
-275,657	800,000	-0,033	-0,074
-274,643	800,000	0,042	-0,115
-273,628	256,659	-0,070	0,087
-272,613	-200,000	-0,013	-0,061
-271,599	39,632	0,040	-0,026
-270,584	344,519	-0,026	0,036
-269,570	394,042	0,052	0,079
-268,555	-94,194	0,088	-0,017
-267,540	265,727	-0,070	0,089
-266,526	-38,919	-0,049	-0,018
-265,511	310,667	0,031	-0,042
-264,497	197,090	-0,048	-0,053
-263,482	-200,000	-0,010	0,050
-262,467	775,540	-0,029	0,057
-261,453	60,057	0,137	0,098
-260,438	169,648	-0,075	-0,077
-259,424	-200,000	0,015	-0,109
-258,409	-60,681	-0,172	-0,052
-257,395	195,113	0,077	0,085
-256,380	-45,213	0,084	-0,030
-255,365	-2,123	0,038	0,019
-254,351	-200,000	-0,006	0,082
-253,336	-137,039	-0,068	0,006
-252,322	-200,000	-0,006	0,051
-251,307	800,000	-0,027	0,076
-250,292	-0,968	-0,036	0,018
-249,278	800,000	0,033	0,067
-248,263	-64,902	0,056	0,016
-247,249	800,000	-0,045	-0,113
-246,234	532,793	0,027	-0,046
-245,219	485,748	0,045	-0,075
-244,205	65,988	-0,109	0,080
-243,190	390,991	0,044	-0,066
-242,176	-200,000	0,019	0,073
-241,161	196,935	0,121	0,133
-240,146	739,480	-0,043	0,084
-239,132	-42,975	-0,048	-0,018
-238,117	-200,000	-0,023	0,079
-237,103	800,000	-0,007	0,018
-236,088	-53,786	-0,084	0,027
-235,073	-60,284	0,138	0,042
-234,059	493,194	0,020	-0,033
-233,044	800,000	0,013	-0,035
-232,030	104,576	0,012	0,010
-231,015	-58,117	-0,076	-0,024
-230,000	-200,000	0,010	-0,076
-228,986	305,149	0,034	-0,045
-227,971	228,897	-0,026	0,031
-226,957	-200,000	0,002	-0,148
-225,942	-200,000	0,007	0,057
-224,927	323,989	0,056	-0,078
-223,913	38,545	-0,082	-0,053
-222,898	51,827	-0,034	0,023
-221,884	-31,438	-0,035	0,014
-220,869	-24,538	-0,095	0,041
-219,855	106,751	0,117	0,101
-218,840	-200,000	0,010	0,044
-217,825	-200,000	0,004	0,064
-216,811	20,082	-0,070	-0,041
-215,796	-200,000	-0,004	-0,067
-214,782	-200,000	0,029	0,000
-213,767	-200,000	0,001	0,057
-212,752	-200,000	0,001	0,057
-211,738	50,205	0,054	-0,037
-210,723	800,000	-0,036	-0,113
-209,709	153,630	0,024	0,023
-208,694	362,020	-0,023	-0,034
-207,679	232,675	0,134	-0,160
-206,665	141,576	-0,049	-0,047
-205,650	-41,717	-0,099	0,036
-204,636	364,403	0,005	0,007
-203,621	90,046	-0,079	0,063
-202,606	11,815	0,015	-0,009
-201,592	-41,845	-0,041	-0,015
-200,577	-200,000	0,105	0,000
-199,563	454,581	0,033	-0,053
-198,548	78,582	0,066	0,051
-197,533	-200,000	-0,009	0,102
-196,519	-69,496	-0,074	0,020
-195,504	261,213	-0,053	-0,066
-194,490	48,377	0,113	-0,077
-193,475	-126,566	-0,152	-0,016
-192,460	-200,000	0,008	-0,055
-191,446	-200,000	-0,002	0,110
-190,431	15,070	0,121	0,068
-189,417	-108,891	0,156	0,024
-188,402	134,449	-0,024	-0,023
-187,387	800,000	-0,020	-0,060
-186,373	321,821	0,025	0,035
-185,358	50,230	-0,046	-0,031
-184,344	800,000	-0,041	-0,084
-183,329	233,841	0,078	0,093
-182,315	20,435	-0,149	0,086
-181,300	800,000	0,043	0,123
-180,285	-14,724	-0,077	0,036
-179,271	274,676	-0,004	-0,005
-178,256	303,015	-0,037	0,049
-177,242	42,392	-0,111	0,072
-176,227	260,804	0,015	-0,019
-175,212	-53,751	-0,116	0,038
-174,198	88,648	0,109	-0,087
-173,183	141,582	-0,104	-0,100
-172,169	-55,228	-0,114	0,037
-171,154	-138,262	0,109	-0,009
-170,139	59,085	0,017	-0,012
-169,125	75,747	-0,065	0,050
-168,110	-200,000	0,010	0,071
-167,096	-47,786	0,137	0,048
-166,081	271,907	-0,036	0,046
-165,066	-138,575	-0,105	0,008
-164,052	-7,421	-0,012	0,006
-163,037	84,247	0,094	0,074
-162,023	-200,000	-0,018	0,073
-161,008	-60,546	0,034	-0,010
-159,993	800,000	-0,021	-0,044
-158,979	800,000	0,026	-0,074
-157,964	50,640	0,075	0,051
-156,950	-200,000	0,006	-0,028
-155,935	-200,000	-0,023	-0,097
-154,920	-200,000	0,021	-0,080
-153,906	202,460	-0,050	-0,056
-152,891	271,612	-0,058	0,074
-151,877	100,445	-0,089	-0,075
-150,862	85,901	-0,048	0,038
-149,847	417,541	-0,049	0,076
-148,833	182,240	-0,061	0,064
-147,818	7,884	0,004	-0,002
-146,804	-92,450	0,159	0,032
-145,789	277,464	-0,070	0,090
-144,775	304,797	0,008	0,011
-143,760	-13,133	-0,046	-0,021
-142,745	-200,000	-0,028	-0,106
-141,731	800,000	0,013	-0,035
-140,716	523,605	-0,041	-0,070
-139,702	-146,727	0,064	0,004
-138,687	-200,000	-0,000	-0,058
-137,672	800,000	0,045	-0,105
-136,658	-200,000	-0,016	-0,089
-135,643	100,569	0,077	-0,064
-134,629	800,000	-0,088	-0,189
-133,614	76,920	-0,030	0,023
-132,599	790,825	-0,067	0,132
-131,585	200,825	0,044	0,049
-130,570	42,627	0,052	0,034
-129,556	800,000	-0,054	-0,116
-128,541	-47,745	0,111	-0,039
-127,526	-66,825	0,089	0,025
-126,512	-200,000	0,048	0,000
-125,497	140,350	-0,109	0,104
-124,483	75,115	-0,065	0,050
-123,468	357,224	0,037	0,054
-122,453	-40,493	0,096	0,036
-121,439	-136,480	-0,215	-0,018
-120,424	265,692	0,084	-0,106
-119,410	-146,721	-0,083	-0,005
-118,395	-200,000	-0,019	-0,089
-117,380	66,588	-0,019	0,014
