DTS Sentinel unit serial number:	SN410029Multiplexer serial number:	ORYXHardware model number:	OX2-SRSoftware version number:	ORYX F/W v4,00 Oryx Data Collector v3.7.2.0data status	okinstallation	B5 Nyhavnadifferential loss correction	single-endedforward channel	channel 2reverse channel	N/Adate	2023/12/13time	00:02:13forward acquisition time	300,00reverse acquisition time	0,00gamma	499,1914k internal	0,3159k external	0,3159temperature offset calibration	1,0000default loss term (dB/km)	0,3820temperature slope calibration	1,0000multiplexer offset coefficient	1,0000multiplexer slope coefficient	1,0000fibre end	0,00T internal ref (°C)	14,36T ext. ref 1 (°C)	-2,16T ext. ref 2 (°C)	-2,46length (m)	temperature (°C)	Stokes	anti-Stokes-744,400	38,414	0,164	0,107
-743,385	-110,145	-0,258	-0,039
-742,371	-17,375	0,250	0,116
-741,356	-200,000	-0,277	0,001
-740,342	-102,759	0,066	-0,011
-739,327	-70,392	-0,354	-0,098
-738,312	800,000	0,075	0,176
-737,298	105,141	-0,117	-0,101
-736,283	-118,950	0,111	0,014
-735,269	-79,564	-0,210	0,052
-734,254	-11,780	0,046	0,022
-733,239	-31,806	-0,401	-0,165
-732,225	-89,201	0,275	-0,059
-731,210	800,000	0,053	0,160
-730,196	-150,221	-0,147	-0,008
-729,181	63,319	0,088	-0,065
-728,167	800,000	-0,015	-0,042
-727,152	0,845	-0,184	0,097
-726,137	-200,000	-0,007	-0,050
-725,123	-143,535	-0,114	0,008
-724,108	-47,763	-0,123	-0,044
-723,094	800,000	0,028	-0,082
-722,079	32,805	-0,100	-0,064
-721,064	-200,000	-0,008	-0,061
-720,050	-30,563	-0,133	-0,055
-719,035	-154,618	-0,034	0,002
-718,021	95,473	-0,101	0,085
-717,006	108,960	-0,154	-0,136
-715,991	196,057	-0,047	0,053
-714,977	-200,000	0,034	0,120
-713,962	51,792	-0,009	-0,006
-712,948	-115,909	0,163	0,022
-711,933	537,708	-0,045	-0,079
-710,918	-0,059	-0,142	-0,074
-709,904	43,573	0,055	-0,037
-708,889	-165,868	-0,146	-0,005
-707,875	367,235	0,056	-0,083
-706,860	-48,068	-0,007	-0,002
-705,845	132,999	-0,087	-0,083
-704,831	148,064	0,160	-0,159
-703,816	223,812	0,055	-0,065
-702,802	-200,000	0,011	-0,092
-701,787	-200,000	-0,008	-0,209
-700,772	-200,000	-0,007	-0,175
-699,758	800,000	-0,054	-0,122
-698,743	-200,000	0,027	0,132
-697,729	-90,598	-0,144	0,030
-696,714	-49,740	0,025	0,009
-695,699	20,360	0,053	0,031
-694,685	178,612	-0,101	-0,109
-693,670	26,790	0,096	0,059
-692,656	80,696	-0,090	0,072
-691,641	-200,000	0,016	0,076
-690,627	110,649	-0,023	-0,021
-689,612	66,133	-0,005	0,004
-688,597	-200,000	0,022	0,105
-687,583	132,760	-0,049	-0,046
-686,568	800,000	0,038	-0,100
-685,554	-87,360	-0,128	-0,028
-684,539	-48,640	0,104	-0,036
-683,524	51,382	0,044	0,031
-682,510	800,000	-0,017	-0,035
-681,495	-62,241	0,055	0,017
-680,481	-190,399	-0,098	0,001
-679,466	17,898	0,064	-0,038
-678,451	194,443	-0,079	0,088
-677,437	144,639	-0,122	0,120
-676,422	-200,000	0,007	-0,031
-675,408	16,595	-0,112	-0,065
-674,393	156,824	-0,060	0,061
-673,378	800,000	0,031	-0,071
-672,364	114,004	-0,082	-0,074
-671,349	-200,000	0,005	-0,149
-670,335	-60,909	-0,042	0,013
-669,320	353,123	-0,015	0,023
-668,305	223,660	0,084	-0,100
-667,291	205,579	0,043	-0,050
-666,276	-200,000	0,004	-0,090
-665,262	-200,000	0,006	0,032
-664,247	-74,414	-0,060	-0,016
-663,232	156,311	-0,069	-0,070
-662,218	4,349	0,062	-0,033
-661,203	-200,000	-0,013	0,056
-660,189	-30,649	-0,141	-0,058
-659,174	13,353	-0,091	-0,052
-658,159	-35,240	-0,109	-0,044
-657,145	611,956	-0,044	-0,081
-656,130	-200,000	-0,006	0,069
-655,116	271,543	-0,083	0,108
-654,101	-8,625	-0,074	-0,036
-653,086	106,548	-0,073	0,063
-652,072	800,000	0,003	0,008
-651,057	-173,394	-0,042	-0,001
-650,043	76,762	-0,020	-0,016
-649,028	32,154	-0,125	-0,079
-648,014	734,563	0,031	-0,062
-646,999	48,407	-0,035	0,024
-645,984	-137,022	0,043	-0,004
-644,970	579,830	-0,016	0,028
-643,955	-200,000	0,017	-0,079
-642,941	204,409	0,083	-0,095
-641,926	-70,206	-0,008	0,002
-640,911	121,552	0,087	-0,079
-639,897	800,000	0,007	0,022
-638,882	-200,000	-0,011	0,044
-637,868	555,820	0,062	-0,111
-636,853	23,957	-0,134	-0,081
-635,838	-200,000	0,002	-0,053
-634,824	319,198	0,030	0,042
-633,809	720,618	0,060	0,118
-632,795	-62,545	-0,171	-0,052
-631,780	800,000	-0,031	-0,090
-630,765	-200,000	0,003	-0,080
-629,751	236,743	0,068	-0,083
-628,736	800,000	0,037	-0,081
-627,722	-200,000	0,010	0,090
-626,707	-95,433	0,051	-0,010
-625,692	153,722	0,074	0,074
-624,678	287,502	0,029	0,039
-623,663	-150,873	-0,164	-0,009
-622,649	140,275	-0,044	-0,042
-621,634	800,000	-0,028	-0,070
-620,619	236,618	-0,065	-0,078
-619,605	800,000	0,045	0,118
-618,590	172,946	0,150	0,159
-617,576	-200,000	0,003	0,094
-616,561	800,000	-0,008	0,025
-615,546	39,948	-0,050	-0,033
-614,532	69,088	-0,187	-0,140
-613,517	60,373	0,072	-0,052
-612,503	-200,000	-0,006	0,044
-611,488	-200,000	0,017	0,138
-610,474	-200,000	0,003	0,093
-609,459	-200,000	-0,007	0,061
-608,444	404,997	-0,040	0,062
-607,430	-148,631	-0,033	0,002
-606,415	-109,369	-0,024	0,004
-605,401	155,240	0,046	-0,046
-604,386	-92,254	0,130	-0,027
-603,371	68,912	0,145	-0,109
-602,357	755,692	0,039	-0,077
-601,342	800,000	-0,034	-0,090
-600,328	-86,980	-0,112	-0,025
-599,313	71,325	-0,051	-0,039
-598,298	-200,000	0,018	-0,097
-597,284	491,523	0,033	0,055
-596,269	319,518	-0,032	-0,045
-595,255	-200,000	-0,013	0,082
-594,240	39,018	-0,064	0,042
-593,225	133,177	0,026	0,025
-592,211	-35,098	-0,114	-0,045
-591,196	125,461	0,056	0,052
-590,182	27,844	0,074	-0,045
-589,167	-86,623	0,087	-0,019
-588,152	-200,000	0,005	0,017
-587,138	310,164	-0,038	0,052
-586,123	-200,000	0,019	-0,086
-585,109	-27,595	-0,135	0,057
-584,094	172,618	-0,077	-0,081
-583,079	137,394	0,052	-0,050
-582,065	98,420	-0,029	0,024
-581,050	-136,711	0,133	-0,011
-580,036	97,203	-0,135	-0,113
-579,021	-26,522	0,053	0,022
-578,006	41,841	-0,055	0,036
-576,992	6,126	0,032	0,017
-575,977	-91,005	-0,142	0,030
-574,963	18,029	0,093	0,054
-573,948	-158,734	0,143	-0,006
-572,934	-64,563	-0,069	0,020
-571,919	-49,805	-0,073	-0,025
-570,904	-200,000	-0,060	-0,240
-569,890	426,155	-0,038	-0,060
-568,875	748,767	-0,074	0,147
-567,861	64,230	0,142	-0,104
-566,846	-200,000	0,024	-0,089
-565,831	-104,354	-0,102	0,017
-564,817	-162,439	0,082	-0,003
-563,802	800,000	-0,035	-0,090
-562,788	53,365	0,062	-0,043
-561,773	-106,777	-0,089	0,014
-560,758	-152,609	0,124	0,006
-559,744	581,397	-0,050	0,090
-558,729	81,747	-0,100	-0,079
-557,715	25,400	0,071	0,043
-556,700	-137,677	0,079	0,006
-555,685	800,000	0,034	-0,087
-554,671	-168,564	0,174	-0,005
-553,656	-200,000	-0,002	-0,085
-552,642	800,000	0,058	0,146
-551,627	69,846	-0,085	-0,064
-550,612	274,308	-0,030	0,039
-549,598	262,682	-0,073	-0,092
-548,583	161,267	-0,079	0,081
-547,569	-97,370	-0,043	0,008
-546,554	-121,418	-0,148	0,018
-545,539	-200,000	-0,026	0,117
-544,525	800,000	0,011	0,034
-543,510	50,590	-0,075	0,052
-542,496	-200,000	-0,026	-0,154
-541,481	109,568	0,048	0,042
-540,466	-1,631	-0,125	0,064
-539,452	371,678	0,088	0,131
-538,437	210,268	0,070	-0,081
-537,423	-200,000	-0,009	-0,040
-536,408	216,640	-0,092	-0,108
-535,393	438,238	0,038	-0,061
-534,379	90,793	-0,126	-0,103
-533,364	-200,000	0,010	0,075
-532,350	10,406	0,134	0,074
-531,335	27,940	0,081	0,050
-530,321	-200,000	0,032	-0,119
-529,306	800,000	0,055	-0,139
-528,291	800,000	-0,091	-0,187
-527,277	-150,907	-0,124	-0,007
-526,262	62,141	-0,160	-0,117
-525,248	800,000	-0,020	-0,042
-524,233	-79,900	-0,072	0,017
-523,218	-85,518	0,054	-0,012
-522,204	403,761	0,025	-0,038
-521,189	601,388	-0,080	-0,147
-520,175	-200,000	0,022	0,197
-519,160	553,917	-0,080	-0,140
-518,145	56,647	0,044	-0,031
-517,131	598,689	-0,055	0,100
-516,116	50,670	0,136	0,094
-515,102	212,102	-0,044	0,051
-514,087	386,109	-0,005	-0,007
-513,072	-200,000	0,018	0,106
-512,058	-21,876	0,068	-0,030
-511,043	800,000	0,047	-0,140
-510,029	658,456	0,026	0,049
-509,014	163,005	-0,115	-0,118
-507,999	-200,000	0,004	-0,221
-506,985	-16,910	0,090	-0,042
-505,970	146,920	0,043	-0,043
-504,956	-200,000	0,008	0,129
-503,941	214,729	-0,118	-0,137
-502,926	-200,000	-0,015	-0,085
-501,912	764,659	0,058	0,116
-500,897	306,863	-0,096	-0,131
-499,883	-37,467	-0,136	-0,053
-498,868	345,226	-0,081	0,117
-497,853	150,677	-0,013	0,013
-496,839	102,994	-0,078	0,067
-495,824	-200,000	-0,039	0,146
-494,810	-72,999	0,202	0,054
-493,795	256,171	-0,048	0,060
-492,781	106,937	-0,034	-0,029
-491,766	413,354	0,062	-0,097
-490,751	338,082	0,093	-0,132
-489,737	-200,000	0,007	-0,047
-488,722	-78,339	0,199	0,049
-487,708	-200,000	0,020	0,076
-486,693	93,376	-0,069	0,057
-485,678	-200,000	0,001	-0,146
-484,664	354,580	0,023	-0,033
-483,649	17,722	-0,117	-0,068
-482,635	-97,040	0,125	-0,024
-481,620	-107,884	-0,017	-0,003
-480,605	-200,000	-0,015	0,134
-479,591	266,326	-0,098	0,125
-478,576	282,269	0,024	0,032
-477,562	800,000	0,012	0,033
-476,547	76,943	-0,116	-0,090
-475,532	-38,195	0,114	0,044
-474,518	548,485	0,053	0,094
-473,503	498,312	-0,063	0,106
-472,489	800,000	-0,017	0,046
-471,474	800,000	-0,029	0,080
-470,459	-138,069	0,094	0,008
-469,445	-200,000	0,010	0,041
-468,430	800,000	0,018	0,052
-467,416	800,000	0,085	0,222
-466,401	739,664	0,063	0,125
-465,386	613,425	0,091	0,167
-464,372	153,825	0,068	0,068
-463,357	277,504	0,010	-0,013
-462,343	71,356	0,085	-0,065
-461,328	-118,070	-0,030	0,004
-460,313	800,000	0,025	-0,062
-459,299	195,336	0,026	0,029
-458,284	-144,808	0,048	0,003
-457,270	-200,000	-0,022	-0,088
-456,255	33,907	-0,084	-0,053
-455,241	-200,000	0,008	0,054
-454,226	-1,231	0,079	-0,041
-453,211	-200,000	0,016	0,126
-452,197	346,838	0,065	-0,093
-451,182	800,000	0,033	0,092
-450,168	-200,000	0,041	0,181
-449,153	584,042	-0,028	0,050
-448,138	-75,429	-0,078	0,020
-447,124	800,000	-0,051	0,149
-446,109	388,279	0,063	0,095
-445,095	-200,000	-0,012	0,104
-444,080	-189,850	0,047	0,000
-443,065	-18,278	-0,045	0,021
-442,051	90,431	-0,073	0,059
-441,036	-200,000	0,002	-0,134
-440,022	-51,307	-0,125	-0,042
-439,007	800,000	0,030	0,085
-437,992	-200,000	-0,025	0,146
-436,978	665,540	0,062	0,118
-435,963	187,306	-0,037	0,041
-434,949	6,433	0,062	-0,033
-433,934	71,079	-0,098	0,074
-432,919	-200,000	0,021	0,080
-431,905	127,750	-0,081	-0,075
-430,890	-200,000	0,006	-0,125
-429,876	-200,000	0,007	0,156
-428,861	800,000	-0,016	0,050
-427,846	-200,000	0,004	0,040
-426,832	-200,000	0,002	-0,024
-425,817	-79,071	0,057	0,014
-424,803	-135,293	-0,036	-0,003
-423,788	800,000	-0,032	0,092
-422,773	-200,000	-0,009	0,031
-421,759	64,448	-0,057	-0,042
-420,744	310,647	0,032	-0,044
-419,730	71,055	0,125	-0,094
-418,715	292,304	-0,061	0,081
-417,701	-117,647	0,069	0,009
-416,686	758,426	-0,021	0,041
-415,671	-136,374	0,096	-0,008
-414,657	661,440	0,031	0,059
-413,642	171,299	0,033	0,035
-412,628	-126,589	-0,025	0,003
-411,613	-143,477	0,081	0,006
-410,598	-200,000	-0,010	-0,041
-409,584	-0,767	-0,038	0,020
-408,569	216,143	0,033	-0,039
-407,555	800,000	-0,014	-0,040
-406,540	800,000	-0,044	0,118
-405,525	-200,000	-0,016	-0,098
-404,511	788,905	-0,145	-0,291
-403,496	316,393	-0,085	-0,116
-402,482	-45,292	0,021	0,008
-401,467	-40,977	0,049	0,018
-400,452	34,660	0,032	0,020
-399,438	800,000	0,017	0,036
-398,423	270,444	-0,039	-0,050
-397,409	-100,588	0,093	-0,017
-396,394	-122,844	0,061	0,007
-395,379	-200,000	-0,015	-0,084
-394,365	-100,110	-0,064	0,012
-393,350	-200,000	0,009	-0,087
-392,336	-146,760	0,134	-0,008
-391,321	-200,000	-0,022	0,129
-390,306	-146,595	-0,101	-0,006
-389,292	142,180	-0,076	-0,073
-388,277	-200,000	0,014	-0,049
-387,263	-75,652	0,106	0,027
-386,248	489,509	-0,018	0,030
-385,233	61,455	-0,081	0,058
-384,219	136,933	-0,075	0,071
-383,204	262,783	-0,051	-0,064
-382,190	18,961	0,047	0,028
-381,175	752,486	0,041	0,082
-380,160	800,000	-0,018	-0,042
-379,146	-200,000	0,012	0,059
-378,131	800,000	0,058	0,143
-377,117	-114,916	0,118	-0,016
-376,102	-86,900	0,078	-0,017
-375,088	800,000	0,035	0,081
-374,073	194,704	0,090	-0,099
-373,058	-200,000	-0,008	-0,102
-372,044	6,603	-0,031	0,017
-371,029	81,707	0,061	0,048
-370,015	441,356	0,052	0,083
-369,000	80,930	-0,034	0,026
-367,985	800,000	0,078	-0,174
-366,971	-51,396	-0,026	-0,009
-365,956	-8,935	0,088	-0,043
-364,942	-158,269	0,069	-0,003
-363,927	-125,753	-0,070	0,008
-362,912	-200,000	0,032	0,185
-361,898	291,199	0,023	-0,031
-360,883	205,813	-0,053	0,060
-359,869	88,528	0,093	-0,075
-358,854	800,000	-0,037	0,112
-357,839	-66,548	-0,056	0,016
-356,825	172,138	-0,066	0,069
-355,810	-32,254	0,029	-0,012
-354,796	-200,000	-0,006	-0,072
-353,781	-32,289	-0,051	-0,021
-352,766	446,229	0,065	-0,104
-351,752	-200,000	0,016	0,088
-350,737	43,933	0,132	0,088
-349,723	800,000	-0,033	-0,074
-348,708	127,171	-0,083	-0,076
-347,693	65,392	-0,153	0,112
-346,679	-12,049	0,040	-0,019
-345,664	-149,818	-0,114	-0,006
-344,650	800,000	-0,028	-0,064
-343,635	-31,066	0,095	-0,039
-342,620	74,746	0,053	0,040
-341,606	411,643	-0,053	0,082
-340,591	41,602	-0,089	0,059
-339,577	-200,000	-0,036	-0,170
-338,562	-40,142	-0,079	0,030
-337,548	800,000	-0,015	-0,034
-336,533	-111,754	0,099	-0,014
-335,518	50,000	0,130	-0,089
-334,504	-93,838	0,082	0,016
-333,489	768,708	-0,038	-0,075
-332,475	-200,000	-0,004	0,037
-331,460	-200,000	-0,004	0,038
-330,445	-200,000	0,008	-0,094
-329,431	145,427	-0,106	0,102
-328,416	381,384	0,040	-0,060
-327,402	-200,000	0,017	0,208
-326,387	685,452	0,034	0,064
-325,372	-200,000	0,003	-0,061
-324,358	-200,000	0,004	-0,047
-323,343	309,871	-0,037	-0,051
-322,329	-102,595	0,153	0,026
-321,314	-8,450	-0,096	0,047
-320,299	566,021	0,004	-0,006
-319,285	2,350	-0,121	-0,063
-318,270	2,161	-0,070	0,037
-317,256	-67,388	0,117	0,033
-316,241	140,561	0,046	-0,044
-315,226	163,232	0,123	-0,125
-314,212	414,684	0,105	0,162
-313,197	-200,000	0,017	0,084
-312,183	-200,000	0,013	0,151
-311,168	2,806	-0,023	0,012
-310,153	40,527	0,033	0,021
-309,139	-200,000	0,004	0,127
-308,124	-41,738	-0,170	0,063
-307,110	34,292	-0,107	-0,067
-306,095	228,223	0,067	0,079
-305,080	-182,558	-0,208	-0,003
-304,066	-200,000	-0,024	-0,079
-303,051	-84,942	-0,106	0,024
-302,037	-165,373	0,054	0,002
-301,022	-130,490	0,060	0,006
-300,008	399,219	-0,022	0,034
-298,993	-120,290	-0,090	0,011
-297,978	-20,323	0,108	-0,048
-296,964	253,675	-0,098	-0,122
-295,949	266,759	-0,146	-0,185
-294,935	-131,398	-0,093	-0,009
-293,920	-11,696	0,148	-0,070
-292,905	-109,975	0,120	-0,018
-291,891	-200,000	0,001	-0,008
-290,876	39,478	0,057	-0,037
-289,862	-80,462	0,065	-0,015
-288,847	-200,000	0,008	-0,054
-287,832	542,133	0,045	0,078
-286,818	69,826	-0,166	-0,124
-285,803	-50,119	0,038	0,013
-284,789	569,717	0,079	0,141
-283,774	91,221	-0,130	0,105
-282,759	-165,891	0,099	-0,003
-281,745	390,031	0,020	0,031
-280,730	-200,000	-0,001	-0,121
-279,716	-200,000	0,020	-0,095
-278,701	-26,112	0,146	-0,062
-277,686	241,480	0,082	-0,099
-276,672	263,496	0,023	0,029
-275,657	-200,000	-0,003	-0,115
-274,643	-200,000	0,002	-0,042
-273,628	-59,536	-0,083	-0,026
-272,613	800,000	-0,039	-0,113
-271,599	-200,000	0,003	0,035
-270,584	-200,000	0,023	-0,156
-269,570	-40,383	-0,060	-0,023
-268,555	65,380	-0,043	-0,031
-267,540	-28,484	-0,114	0,047
-266,526	800,000	-0,042	-0,125
-265,511	-200,000	0,002	0,038
-264,497	-122,378	0,115	-0,013
-263,482	281,139	-0,055	0,071
-262,467	455,857	-0,016	-0,025
-261,453	-34,510	0,103	0,041
-260,438	-128,524	0,057	0,006
-259,424	-101,000	-0,059	-0,010
-258,409	-88,747	-0,033	-0,007
-257,395	42,788	0,098	0,064
-256,380	36,303	-0,047	0,030
-255,365	510,604	0,045	-0,075
-254,351	-200,000	-0,019	0,079
-253,336	-67,869	0,166	-0,047
-252,322	800,000	-0,033	-0,087
-251,307	474,829	-0,066	-0,107
-250,292	55,673	-0,048	-0,034
-249,278	483,853	0,047	-0,077
-248,263	-25,196	-0,066	-0,028
-247,249	-200,000	0,012	0,070
-246,234	800,000	0,028	0,064
-245,219	143,941	0,034	-0,033
-244,205	5,329	0,084	0,045
-243,190	493,914	-0,081	-0,135
-242,176	478,336	0,071	-0,116
-241,161	800,000	-0,058	0,146
-240,146	-92,044	0,266	-0,054
-239,132	-104,524	-0,027	0,004
-238,117	-126,645	-0,142	-0,015
-237,103	800,000	0,033	0,069
-236,088	800,000	0,039	-0,089
-235,073	-95,020	0,047	0,009
-234,059	800,000	-0,020	0,044
-233,044	800,000	0,032	0,074
-232,030	179,020	-0,166	0,175
-231,015	537,500	-0,037	-0,064
-230,000	-136,568	-0,162	-0,013
-228,986	261,136	0,024	-0,030
-227,971	-130,414	-0,045	-0,004
-226,957	53,566	-0,035	-0,024
-225,942	69,208	0,031	-0,023
-224,927	-19,560	0,034	-0,015
-223,913	373,999	-0,056	-0,083
-222,898	362,292	-0,015	-0,022
-221,884	24,221	-0,037	0,022
-220,869	-200,000	-0,020	0,114
-219,855	-137,722	0,051	-0,004
-218,840	90,053	0,106	-0,086
-217,825	-200,000	0,010	0,141
-216,811	270,839	-0,029	0,036
-215,796	800,000	0,015	-0,031
-214,782	800,000	-0,034	-0,072
-213,767	-200,000	0,019	-0,069
-212,752	57,198	-0,045	-0,032
-211,738	269,845	-0,065	-0,083
-210,723	543,534	-0,072	0,124
-209,709	15,991	-0,057	0,032
-208,694	385,233	-0,067	0,100
-207,679	800,000	0,014	0,039
-206,665	-7,804	-0,068	0,033
-205,650	800,000	0,035	0,095
-204,636	800,000	-0,065	0,148
-203,621	-200,000	0,025	0,137
-202,606	-21,571	-0,103	0,045
-201,592	800,000	0,040	-0,088
-200,577	625,149	0,043	0,079
-199,563	800,000	-0,011	-0,036
-198,548	368,296	-0,014	0,021
-197,533	-101,096	-0,032	-0,006
-196,519	800,000	0,086	0,184
-195,504	800,000	-0,025	0,054
-194,490	293,074	-0,034	-0,045
-193,475	800,000	-0,069	-0,177
-192,460	800,000	0,042	-0,098
-191,446	-60,911	-0,049	-0,015
-190,431	-200,000	-0,009	-0,069
-189,417	800,000	0,061	0,180
-188,402	2,078	-0,084	-0,043
-187,387	-160,108	-0,152	-0,006
-186,373	-53,313	-0,061	-0,020
-185,358	-164,402	0,197	0,006
-184,344	60,330	-0,054	-0,038
-183,329	-172,872	0,069	0,002
-182,315	488,464	-0,088	-0,146
-181,300	-200,000	0,011	-0,126
-180,285	337,123	-0,066	-0,092
-179,271	56,619	-0,113	0,079
-178,256	80,450	0,077	-0,059
-177,242	72,165	-0,091	0,068
-176,227	-87,081	0,123	0,027
-175,212	-96,926	0,144	0,027
-174,198	-159,523	-0,133	-0,005
-173,183	-149,917	0,060	-0,003
-172,169	69,205	0,098	-0,073
-171,154	124,666	0,052	0,048
-170,139	-111,797	0,113	0,016
-169,125	-200,000	0,018	0,150
-168,110	70,038	-0,090	0,067
-167,096	-200,000	0,000	0,008
-166,081	363,657	0,055	0,079
-165,066	-112,527	-0,049	-0,007
-164,052	-200,000	-0,002	0,051
-163,037	115,266	-0,053	0,047
-162,023	-51,275	0,032	-0,011
-161,008	-139,886	0,039	-0,003
-159,993	59,671	0,046	0,033
-158,979	-57,421	0,099	-0,031
-157,964	-75,042	0,007	0,002
-156,950	5,855	-0,098	0,052
-155,935	800,000	-0,005	-0,011
-154,920	138,447	0,077	0,073
-153,906	196,549	0,081	0,089
-152,891	56,644	0,098	-0,068
-151,877	48,786	-0,037	0,025
-150,862	-88,165	-0,106	0,023
-149,847	110,712	0,042	-0,036
-148,833	262,227	0,101	-0,126
-147,818	-95,904	0,174	0,033
-146,804	281,234	0,043	0,055
-145,789	800,000	-0,029	-0,058
-144,775	-15,724	-0,053	-0,024
-143,760	387,258	-0,101	-0,151
-142,745	800,000	-0,017	0,051
-141,731	-56,208	-0,064	0,020
-140,716	-30,672	0,101	0,041
-139,702	91,376	-0,129	0,104
-138,687	15,304	-0,104	0,058
-137,672	-85,209	0,130	-0,029
-136,658	-72,744	-0,125	0,033
-135,643	114,341	-0,043	-0,037
-134,629	-200,000	0,018	0,061
-133,614	226,157	-0,061	0,071
-132,599	267,975	0,077	0,098
-131,585	-6,519	0,135	0,066
-130,570	-133,430	-0,133	-0,012
-129,556	800,000	0,066	-0,138
-128,541	-154,334	0,073	-0,003
-127,526	199,434	0,034	-0,037
-126,512	248,886	-0,056	0,068
-125,497	-200,000	-0,034	0,121
-124,483	158,341	-0,075	0,075
-123,468	449,091	0,074	0,118
-122,453	-200,000	0,006	-0,070
-121,439	-200,000	0,033	-0,169
-120,424	-198,834	0,057	0,000
-119,410	144,237	0,079	0,076
-118,395	-62,450	0,057	-0,017
