DTS Sentinel unit serial number:	SN410029Multiplexer serial number:	ORYXHardware model number:	OX2-SRSoftware version number:	ORYX F/W v4,00 Oryx Data Collector v3.7.2.0data status	okinstallation	B5 Nyhavnadifferential loss correction	single-endedforward channel	channel 2reverse channel	N/Adate	2023/12/13time	19:07:13forward acquisition time	300,00reverse acquisition time	0,00gamma	499,1914k internal	0,3160k external	0,3160temperature offset calibration	1,0000default loss term (dB/km)	0,3820temperature slope calibration	1,0000multiplexer offset coefficient	1,0000multiplexer slope coefficient	1,0000fibre end	0,00T internal ref (°C)	12,06T ext. ref 1 (°C)	-5,13T ext. ref 2 (°C)	-5,22length (m)	temperature (°C)	Stokes	anti-Stokes-744,400	-19,224	0,184	-0,084
-743,385	78,896	-0,296	-0,233
-742,371	21,730	0,106	-0,064
-741,356	73,743	-0,213	0,164
-740,342	731,123	-0,033	0,065
-739,327	-95,675	-0,393	-0,077
-738,312	-128,115	0,114	-0,012
-737,298	25,562	-0,304	-0,186
-736,283	-200,000	0,025	0,169
-735,269	-149,993	-0,335	0,019
-734,254	173,326	-0,070	-0,075
-733,239	12,447	-0,460	-0,260
-732,225	6,979	0,287	0,157
-731,210	-48,937	-0,075	-0,026
-730,196	-7,781	-0,067	0,033
-729,181	-200,000	-0,003	-0,171
-728,167	297,412	-0,078	-0,106
-727,152	-200,000	0,023	0,081
-726,137	35,688	-0,083	0,054
-725,123	-140,831	0,075	-0,006
-724,108	-14,509	0,119	-0,056
-723,094	-123,269	-0,252	0,029
-722,079	-55,051	0,066	0,022
-721,064	-192,193	-0,015	0,000
-720,050	-55,029	-0,037	-0,012
-719,035	-200,000	0,002	-0,051
-718,021	-55,819	0,104	-0,034
-717,006	800,000	-0,073	0,157
-715,991	-200,000	0,029	-0,135
-714,977	105,921	-0,066	0,058
-713,962	-200,000	-0,001	-0,035
-712,948	-200,000	0,037	-0,137
-711,933	-64,296	-0,151	-0,045
-710,918	800,000	0,022	-0,063
-709,904	800,000	-0,051	-0,129
-708,889	689,811	-0,058	-0,112
-707,875	159,028	-0,037	0,038
-706,860	-58,786	-0,029	-0,009
-705,845	93,482	-0,102	0,085
-704,831	251,163	-0,118	0,148
-703,816	19,331	-0,081	0,048
-702,802	-105,153	0,069	-0,012
-701,787	-200,000	-0,004	-0,063
-700,772	530,659	-0,099	0,173
-699,758	-200,000	0,002	0,049
-698,743	-200,000	-0,031	-0,219
-697,729	-108,723	0,028	0,004
-696,714	-82,136	-0,070	-0,017
-695,699	-77,436	0,127	-0,032
-694,685	166,605	-0,093	-0,097
-693,670	10,115	-0,144	-0,080
-692,656	164,487	0,030	0,032
-691,641	-200,000	-0,006	-0,044
-690,627	800,000	0,019	0,055
-689,612	98,297	-0,042	-0,035
-688,597	-200,000	0,024	-0,093
-687,583	106,303	0,058	-0,051
-686,568	-200,000	-0,028	-0,121
-685,554	199,343	-0,019	-0,021
-684,539	800,000	0,026	0,076
-683,524	-161,319	-0,128	0,005
-682,510	-49,022	-0,042	0,015
-681,495	-200,000	-0,002	0,030
-680,481	-38,913	-0,197	0,076
-679,466	367,867	-0,008	0,012
-678,451	-200,000	-0,004	-0,074
-677,437	83,465	-0,069	-0,055
-676,422	-34,559	0,060	0,024
-675,408	-16,527	-0,105	-0,049
-674,393	-200,000	-0,007	0,066
-673,378	169,719	0,068	-0,072
-672,364	260,777	-0,042	-0,053
-671,349	800,000	0,072	-0,165
-670,335	49,236	-0,126	0,087
-669,320	-84,925	0,053	0,012
-668,305	-40,301	0,049	0,019
-667,291	800,000	-0,046	-0,119
-666,276	-110,513	-0,183	0,028
-665,262	800,000	0,037	-0,112
-664,247	403,553	-0,039	0,060
-663,232	537,367	-0,027	-0,047
-662,218	-200,000	0,017	0,173
-661,203	82,801	-0,070	0,056
-660,189	243,921	-0,047	-0,058
-659,174	-200,000	0,071	-0,000
-658,159	-94,927	-0,105	0,021
-657,145	-72,391	-0,126	-0,034
-656,130	-200,000	-0,004	0,083
-655,116	800,000	-0,018	0,044
-654,101	-34,950	0,237	0,094
-653,086	85,644	-0,092	-0,074
-652,072	-200,000	0,005	-0,123
-651,057	-104,023	-0,182	0,031
-650,043	-6,432	0,061	0,030
-649,028	197,447	-0,135	0,151
-648,014	109,201	0,104	0,091
-646,999	343,116	-0,045	-0,065
-645,984	100,101	-0,065	-0,055
-644,970	-200,000	-0,021	0,102
-643,955	318,358	-0,038	-0,053
-642,941	-200,000	-0,032	-0,113
-641,926	-27,207	0,104	-0,044
-640,911	529,788	0,030	0,052
-639,897	799,345	0,013	0,027
-638,882	65,855	-0,078	-0,058
-637,868	-200,000	-0,010	-0,082
-636,853	224,378	-0,027	-0,032
-635,838	14,282	-0,074	-0,042
-634,824	208,890	0,069	-0,079
-633,809	35,837	0,074	0,048
-632,795	253,452	0,104	0,131
-631,780	-200,000	0,001	0,035
-630,765	-106,321	-0,089	0,015
-629,751	-72,547	0,048	0,013
-628,736	800,000	-0,084	-0,203
-627,722	55,920	0,100	-0,071
-626,707	-88,117	-0,081	-0,018
-625,692	-200,000	-0,048	0,157
-624,678	323,282	-0,051	0,072
-623,663	274,343	0,028	-0,037
-622,649	309,119	-0,081	-0,111
-621,634	-40,863	0,072	-0,027
-620,619	-200,000	-0,015	-0,077
-619,605	584,267	0,031	0,057
-618,590	800,000	-0,056	-0,142
-617,576	800,000	0,015	-0,041
-616,561	-20,301	0,123	0,055
-615,546	-200,000	-0,001	-0,056
-614,532	287,795	0,064	0,085
-613,517	1,769	0,089	-0,047
-612,503	-174,176	0,080	-0,002
-611,488	-15,928	-0,053	-0,025
-610,474	-131,987	-0,040	-0,004
-609,459	75,654	0,144	0,111
-608,444	800,000	-0,015	-0,034
-607,430	166,304	-0,043	-0,044
-606,415	-119,615	-0,038	-0,005
-605,401	-200,000	-0,013	-0,050
-604,386	-200,000	-0,026	-0,103
-603,371	-200,000	0,020	0,151
-602,357	8,367	-0,062	-0,034
-601,342	24,244	0,064	-0,039
-600,328	169,641	-0,066	-0,069
-599,313	-147,856	0,056	0,003
-598,298	-200,000	0,001	0,041
-597,284	686,108	0,050	0,095
-596,269	674,873	-0,058	0,111
-595,255	181,255	0,045	0,049
-594,240	166,685	-0,071	0,074
-593,225	179,692	-0,104	0,112
-592,211	-37,841	0,129	-0,050
-591,196	-200,000	-0,017	-0,080
-590,182	190,109	-0,108	-0,119
-589,167	-200,000	0,058	0,222
-588,152	-200,000	-0,009	0,168
-587,138	55,617	-0,139	-0,098
-586,123	-20,751	0,022	0,010
-585,109	800,000	-0,068	-0,162
-584,094	-164,509	0,025	0,001
-583,079	193,834	-0,022	0,024
-582,065	-27,358	0,016	-0,007
-581,050	-64,222	-0,087	-0,026
-580,036	-114,793	0,070	0,010
-579,021	38,025	-0,081	-0,053
-578,006	-26,421	0,112	0,048
-576,992	-81,727	0,102	0,024
-575,977	-200,000	0,001	0,012
-574,963	-82,842	0,060	0,014
-573,948	-200,000	-0,009	-0,035
-572,934	-200,000	-0,016	-0,119
-571,919	273,331	-0,017	0,022
-570,904	-200,000	0,010	-0,141
-569,890	-200,000	-0,022	-0,193
-568,875	208,154	0,098	-0,112
-567,861	800,000	-0,069	0,153
-566,846	217,928	0,085	-0,100
-565,831	-81,879	-0,142	0,034
-564,817	33,326	0,129	-0,082
-563,802	535,249	0,040	-0,069
-562,788	-110,227	0,075	-0,011
-561,773	132,336	-0,138	-0,130
-560,758	-200,000	0,017	-0,055
-559,744	381,118	0,024	0,036
-558,729	466,059	-0,056	-0,092
-557,715	-200,000	0,006	-0,075
-556,700	-200,000	0,008	-0,088
-555,685	180,596	-0,038	-0,040
-554,671	250,511	0,089	-0,111
-553,656	-91,154	0,071	0,015
-552,642	65,796	0,081	0,060
-551,627	68,433	-0,050	-0,037
-550,612	-30,505	-0,113	0,047
-549,598	-200,000	-0,005	-0,180
-548,583	-200,000	0,048	0,172
-547,569	192,155	0,143	0,158
-546,554	-107,532	0,135	0,021
-545,539	-200,000	-0,032	0,154
-544,525	800,000	0,029	0,093
-543,510	-200,000	0,004	0,038
-542,496	-164,351	-0,109	-0,004
-541,481	-79,134	-0,055	0,014
-540,466	-120,598	0,142	0,017
-539,452	-9,901	0,067	-0,033
-538,437	800,000	-0,044	0,100
-537,423	800,000	0,025	0,062
-536,408	-200,000	-0,024	-0,084
-535,393	-153,944	-0,102	0,005
-534,379	-200,000	0,008	0,030
-533,364	91,238	0,042	0,034
-532,350	29,630	-0,010	0,006
-531,335	-89,486	0,113	0,024
-530,321	800,000	0,057	0,117
-529,306	45,558	0,035	-0,024
-528,291	484,586	-0,078	-0,130
-527,277	-75,244	0,051	-0,013
-526,262	258,360	-0,132	0,166
-525,248	15,223	0,085	0,048
-524,233	800,000	0,042	0,099
-523,218	167,802	-0,049	0,051
-522,204	-134,354	0,007	0,001
-521,189	-121,879	-0,045	-0,005
-520,175	-200,000	-0,009	-0,149
-519,160	81,957	-0,099	-0,078
-518,145	18,044	0,104	0,060
-517,131	-200,000	-0,000	0,139
-516,116	444,844	0,047	0,076
-515,102	-58,972	0,090	-0,028
-514,087	800,000	-0,036	-0,098
-513,072	8,087	-0,044	0,024
-512,058	-200,000	-0,006	-0,093
-511,043	29,741	0,073	-0,045
-510,029	143,950	0,010	-0,010
-509,014	800,000	-0,037	-0,087
-507,999	142,049	0,049	-0,048
-506,985	115,781	-0,077	-0,068
-505,970	800,000	-0,063	-0,132
-504,956	657,620	0,058	-0,110
-503,941	32,424	0,049	0,031
-502,926	800,000	0,034	-0,071
-501,912	-200,000	-0,021	0,091
-500,897	151,616	-0,062	-0,061
-499,883	465,999	0,012	0,020
-498,868	52,202	-0,117	-0,081
-497,853	800,000	0,083	-0,208
-496,839	177,479	-0,020	-0,022
-495,824	800,000	-0,028	-0,071
-494,810	531,191	0,058	-0,100
-493,795	129,557	-0,076	0,071
-492,781	-79,088	-0,290	0,071
-491,766	-82,935	-0,030	-0,007
-490,751	-200,000	-0,008	-0,139
-489,737	13,687	-0,058	-0,033
-488,722	-4,871	0,082	0,041
-487,708	124,093	0,053	-0,049
-486,693	436,658	0,047	0,075
-485,678	-96,729	-0,128	0,024
-484,664	-200,000	0,014	0,050
-483,649	473,635	-0,026	0,043
-482,635	100,241	-0,063	0,053
-481,620	-200,000	-0,035	-0,147
-480,605	-71,507	0,093	-0,025
-479,591	50,385	-0,063	0,044
-478,576	14,339	-0,019	-0,011
-477,562	-87,428	-0,136	-0,030
-476,547	177,001	0,052	0,056
-475,532	13,716	-0,024	-0,013
-474,518	-200,000	0,060	-0,230
-473,503	79,256	0,120	0,094
-472,489	-169,380	0,105	-0,003
-471,474	-200,000	-0,007	-0,048
-470,459	798,804	-0,019	-0,038
-469,445	780,693	0,035	-0,070
-468,430	-136,253	0,075	-0,006
-467,416	-60,931	-0,043	-0,013
-466,401	469,611	0,033	0,055
-465,386	-200,000	-0,009	0,132
-464,372	466,966	0,040	-0,065
-463,357	-107,195	0,026	-0,004
-462,343	-200,000	0,014	-0,085
-461,328	800,000	-0,059	0,144
-460,313	406,169	-0,036	0,055
-459,299	-200,000	-0,008	0,032
-458,284	-57,807	0,056	0,018
-457,270	721,368	-0,033	0,064
-456,255	-200,000	0,017	0,103
-455,241	-62,636	-0,076	0,023
-454,226	-4,233	0,100	-0,050
-453,211	-115,392	0,087	0,012
-452,197	144,408	0,124	0,120
-451,182	-50,606	-0,089	-0,030
-450,168	800,000	-0,094	0,212
-449,153	-15,933	-0,090	-0,041
-448,138	-22,062	0,094	-0,041
-447,124	-200,000	0,004	-0,036
-446,109	800,000	-0,031	0,077
-445,095	-200,000	0,014	0,120
-444,080	-139,874	0,038	-0,003
-443,065	-148,137	-0,024	0,001
-442,051	405,305	0,028	-0,043
-441,036	-200,000	0,018	0,097
-440,022	-53,134	-0,087	0,029
-439,007	800,000	-0,004	0,013
-437,992	-151,856	0,127	-0,007
-436,978	-151,023	-0,136	-0,007
-435,963	212,687	0,093	0,107
-434,949	270,181	-0,034	0,044
-433,934	-200,000	0,005	-0,038
-432,919	-53,387	-0,126	-0,042
-431,905	9,585	-0,055	0,030
-430,890	83,606	0,087	-0,069
-429,876	-77,862	-0,108	0,027
-428,861	-172,469	0,105	-0,002
-427,846	-200,000	-0,014	0,071
-426,832	-200,000	0,022	-0,092
-425,817	-153,419	-0,162	-0,008
-424,803	-107,403	-0,068	-0,011
-423,788	-59,575	0,104	-0,032
-422,773	104,810	-0,008	0,007
-421,759	800,000	0,040	0,084
-420,744	-200,000	-0,000	-0,030
-419,730	214,083	-0,068	0,078
-418,715	-200,000	0,017	0,074
-417,701	-158,598	-0,138	0,006
-416,686	-17,667	0,008	-0,003
-415,671	168,805	0,069	-0,071
-414,657	-200,000	0,019	-0,065
-413,642	5,682	-0,085	0,045
-412,628	247,491	-0,091	-0,113
-411,613	379,231	-0,040	0,060
-410,598	-49,229	0,087	0,030
-409,584	30,060	0,115	0,071
-408,569	-79,828	0,113	0,028
-407,555	12,579	-0,130	0,073
-406,540	105,969	-0,061	-0,053
-405,525	1,399	0,071	0,037
-404,511	-200,000	0,000	-0,018
-403,496	-19,860	0,113	0,051
-402,482	54,671	-0,098	-0,069
-401,467	512,870	-0,005	-0,009
-400,452	387,439	-0,039	-0,059
-399,438	-200,000	-0,016	-0,062
-398,423	291,284	-0,042	0,056
-397,409	95,198	-0,017	-0,014
-396,394	-18,624	0,058	-0,026
-395,379	733,983	-0,016	0,031
-394,365	-91,200	-0,036	-0,007
-393,350	-60,030	-0,049	0,015
-392,336	-174,014	0,046	0,001
-391,321	200,782	-0,018	0,020
-390,306	556,738	0,039	-0,068
-389,292	413,755	-0,046	-0,071
-388,277	558,400	-0,044	-0,077
-387,263	800,000	0,069	-0,159
-386,248	-200,000	-0,010	0,122
-385,233	-200,000	-0,015	0,078
-384,219	321,386	0,072	0,100
-383,204	-136,124	-0,059	-0,005
-382,190	102,565	-0,071	0,060
-381,175	171,040	0,056	-0,059
-380,160	617,340	-0,105	0,193
-379,146	-200,000	-0,018	0,131
-378,131	157,493	-0,114	0,115
-377,117	13,469	0,101	0,057
-376,102	-67,626	-0,145	0,041
-375,088	-200,000	0,006	0,047
-374,073	-6,076	-0,066	0,033
-373,058	800,000	0,039	0,108
-372,044	800,000	0,041	0,091
-371,029	-25,179	0,046	0,019
-370,015	800,000	-0,026	0,058
-369,000	-200,000	-0,001	-0,255
-367,985	621,804	-0,054	-0,100
-366,971	35,820	0,054	-0,034
-365,956	322,548	0,030	-0,041
-364,942	-94,940	0,211	0,041
-363,927	-58,558	0,122	-0,038
-362,912	-200,000	0,027	-0,130
-361,898	-181,421	-0,070	0,001
-360,883	-31,006	-0,030	-0,012
-359,869	-97,112	-0,091	-0,017
-358,854	-142,704	-0,103	-0,007
-357,839	103,330	0,036	0,030
-356,825	11,386	0,194	-0,107
-355,810	-200,000	0,038	-0,168
-354,796	-1,353	-0,023	-0,012
-353,781	59,998	-0,012	-0,009
-352,766	-56,210	0,052	0,017
-351,752	-98,275	-0,005	-0,001
-350,737	-114,298	0,070	-0,010
-349,723	-200,000	-0,019	0,187
-348,708	232,236	-0,068	0,081
-347,693	-200,000	-0,012	0,100
-346,679	635,554	-0,073	-0,135
-345,664	-169,881	0,017	0,000
-344,650	-113,605	-0,059	0,008
-343,635	664,846	-0,065	-0,123
-342,620	800,000	-0,013	0,034
-341,606	-200,000	0,005	-0,025
-340,591	392,193	-0,025	-0,037
-339,577	-22,661	-0,137	-0,060
-338,562	-91,441	-0,096	-0,020
-337,548	-8,214	-0,019	0,009
-336,533	-77,787	-0,034	0,008
-335,518	93,561	-0,033	-0,027
-334,504	72,663	0,153	0,116
-333,489	85,603	0,082	0,065
-332,475	-200,000	-0,002	-0,085
-331,460	390,491	-0,046	-0,070
-330,445	9,976	-0,077	0,042
-329,431	-200,000	0,002	0,157
-328,416	-137,751	0,168	0,013
-327,402	800,000	0,032	0,102
-326,387	-118,796	0,155	0,019
-325,372	800,000	-0,021	-0,068
-324,358	-200,000	-0,022	-0,096
-323,343	-200,000	0,004	0,084
-322,329	-200,000	-0,013	0,080
-321,314	212,725	0,023	0,027
-320,299	175,694	0,106	-0,111
-319,285	-200,000	0,019	0,075
-318,270	-17,236	0,025	0,011
-317,256	-113,904	-0,147	0,020
-316,241	800,000	-0,034	0,073
-315,226	-148,049	0,036	0,002
-314,212	-39,822	0,153	0,058
-313,197	38,637	0,095	0,061
-312,183	243,955	-0,086	-0,104
-311,168	43,215	0,093	0,061
-310,153	187,702	-0,119	-0,129
-309,139	15,884	0,026	0,015
-308,124	20,642	-0,052	-0,030
-307,110	-200,000	-0,015	0,048
-306,095	-200,000	0,005	0,136
-305,080	-200,000	-0,035	0,208
-304,066	364,026	0,058	0,085
-303,051	800,000	-0,056	-0,162
-302,037	800,000	-0,022	0,066
-301,022	-28,117	0,027	-0,011
-300,008	800,000	-0,037	-0,110
-298,993	-84,616	0,112	-0,025
-297,978	-200,000	-0,016	0,093
-296,964	-65,148	-0,067	0,019
-295,949	638,182	-0,067	-0,124
-294,935	800,000	-0,061	-0,124
-293,920	800,000	0,016	-0,035
-292,905	-200,000	-0,001	-0,049
-291,891	18,491	0,087	0,050
-290,876	-18,091	-0,129	-0,058
-289,862	8,830	-0,111	0,060
-288,847	9,234	0,086	0,047
-287,832	15,372	0,088	-0,050
-286,818	-200,000	0,016	0,175
-285,803	800,000	0,054	0,139
-284,789	-115,829	0,139	0,019
-283,774	800,000	0,008	0,022
-282,759	-200,000	-0,014	0,091
-281,745	-200,000	-0,022	-0,161
-280,730	196,087	-0,062	-0,068
-279,716	125,719	0,051	-0,047
-278,701	674,645	-0,071	-0,135
-277,686	40,536	0,041	0,027
-276,672	800,000	0,018	0,043
-275,657	-51,041	-0,080	-0,027
-274,643	4,809	-0,010	0,005
-273,628	607,734	-0,112	-0,203
-272,613	-200,000	0,000	-0,088
-271,599	689,622	0,051	0,097
-270,584	52,805	0,087	0,060
-269,570	12,083	0,064	0,035
-268,555	395,651	-0,097	-0,146
-267,540	266,526	-0,043	-0,054
-266,526	-118,456	0,043	0,005
-265,511	-200,000	-0,004	-0,057
-264,497	800,000	-0,050	-0,144
-263,482	-200,000	0,000	0,058
-262,467	-200,000	0,000	-0,017
-261,453	-200,000	0,007	0,027
-260,438	-200,000	-0,019	-0,087
-259,424	-38,600	-0,065	-0,025
-258,409	524,457	-0,042	0,072
-257,395	800,000	0,094	0,195
-256,380	41,309	0,038	0,025
-255,365	347,463	0,039	0,056
-254,351	-37,560	-0,102	0,039
-253,336	-21,541	-0,041	-0,018
-252,322	60,120	0,062	0,044
-251,307	180,851	-0,093	-0,099
-250,292	-200,000	-0,010	-0,071
-249,278	-200,000	-0,010	0,070
-248,263	307,775	0,037	0,051
-247,249	401,373	-0,023	0,035
-246,234	-200,000	-0,002	-0,198
-245,219	333,340	-0,112	-0,157
-244,205	800,000	-0,024	0,059
-243,190	-79,007	0,077	0,019
-242,176	-200,000	-0,013	-0,080
-241,161	-200,000	0,015	0,057
-240,146	800,000	0,071	0,181
-239,132	-95,047	-0,102	0,020
-238,117	800,000	0,060	0,125
-237,103	-200,000	0,037	0,147
-236,088	-35,164	-0,066	0,026
-235,073	-33,082	-0,036	-0,015
-234,059	154,316	0,045	0,045
-233,044	800,000	0,028	0,056
-232,030	800,000	0,043	-0,091
-231,015	302,895	-0,065	-0,088
-230,000	-200,000	0,023	-0,210
-228,986	800,000	-0,052	0,123
-227,971	43,644	0,049	0,032
-226,957	800,000	0,079	0,163
-225,942	-200,000	0,011	0,069
-224,927	-200,000	0,016	-0,087
-223,913	72,513	-0,014	0,011
-222,898	-76,931	0,112	0,028
-221,884	8,544	-0,052	0,028
-220,869	63,521	0,089	0,064
-219,855	-24,893	0,100	0,043
-218,840	352,628	-0,080	0,115
-217,825	-136,779	0,051	0,004
-216,811	-7,374	-0,131	-0,064
-215,796	-200,000	0,005	-0,078
-214,782	-200,000	0,004	0,020
-213,767	147,226	0,093	-0,090
-212,752	-61,086	0,111	-0,034
-211,738	-200,000	-0,000	0,016
-210,723	295,700	0,031	0,041
-209,709	800,000	-0,036	-0,090
-208,694	-200,000	-0,022	-0,099
-207,679	-16,930	0,072	0,033
-206,665	-36,367	-0,054	0,021
-205,650	575,718	0,065	-0,115
-204,636	-200,000	-0,002	-0,147
-203,621	800,000	-0,026	-0,078
-202,606	576,615	0,051	0,091
-201,592	-15,904	-0,110	0,050
-200,577	-14,024	0,178	-0,083
-199,563	42,209	-0,040	0,026
-198,548	468,045	0,122	-0,198
-197,533	257,217	-0,025	0,031
-196,519	49,859	0,016	0,011
-195,504	-120,144	0,090	0,011
-194,490	58,119	-0,104	-0,074
-193,475	-151,964	-0,038	-0,002
-192,460	60,246	0,056	-0,040
-191,446	595,725	-0,101	0,182
-190,431	-200,000	-0,050	0,253
-189,417	-78,807	0,163	0,040
-188,402	-16,911	0,171	-0,077
-187,387	-56,247	0,101	-0,032
-186,373	-126,429	-0,022	0,002
-185,358	-22,191	0,061	-0,027
-184,344	135,921	-0,073	0,069
-183,329	800,000	-0,001	0,003
-182,315	503,743	-0,046	0,076
-181,300	-200,000	0,020	0,083
-180,285	-200,000	-0,049	-0,163
-179,271	228,208	-0,094	-0,110
-178,256	344,922	-0,057	0,082
-177,242	679,123	-0,025	0,048
-176,227	586,435	-0,021	0,037
-175,212	-104,155	0,114	-0,019
-174,198	-44,809	-0,061	0,022
-173,183	-200,000	-0,022	-0,076
-172,169	800,000	0,050	0,112
-171,154	-200,000	-0,002	0,089
-170,139	24,200	-0,046	-0,027
-169,125	800,000	-0,040	0,119
-168,110	-146,532	-0,041	-0,003
-167,096	-33,967	0,110	0,043
-166,081	72,603	-0,026	-0,019
-165,066	64,786	-0,095	-0,069
-164,052	-85,891	-0,057	-0,013
-163,037	639,306	-0,074	-0,137
-162,023	356,250	-0,084	0,121
-161,008	-33,502	0,129	0,051
-159,993	24,344	-0,118	0,070
-158,979	-47,424	-0,120	-0,042
-157,964	706,144	-0,021	-0,040
-156,950	777,583	-0,052	0,103
-155,935	161,369	0,072	-0,072
-154,920	800,000	-0,018	-0,043
-153,906	79,170	0,094	-0,072
-152,891	-26,671	0,041	0,017
-151,877	800,000	0,041	0,104
-150,862	496,948	-0,053	-0,089
-149,847	20,877	-0,099	-0,057
-148,833	-154,190	0,018	0,001
-147,818	70,939	0,085	-0,063
-146,804	-46,513	0,028	-0,010
-145,789	800,000	0,044	0,108
-144,775	-7,848	-0,046	-0,022
-143,760	544,456	0,040	0,069
-142,745	800,000	0,048	-0,124
-141,731	102,576	0,005	0,005
-140,716	-200,000	0,003	0,062
-139,702	-85,138	-0,113	0,025
-138,687	133,755	-0,099	-0,092
-137,672	-49,069	0,069	-0,023
-136,658	724,512	-0,032	-0,062
-135,643	517,999	-0,105	-0,177
-134,629	388,067	-0,050	-0,075
-133,614	564,317	0,066	0,115
-132,599	343,264	0,075	0,105
-131,585	-200,000	0,017	0,096
-130,570	800,000	-0,011	0,031
-129,556	77,690	-0,067	0,051
-128,541	96,199	-0,037	-0,031
-127,526	18,658	-0,070	0,040
-126,512	-107,894	-0,086	0,013
-125,497	-200,000	0,020	0,065
-124,483	-200,000	-0,011	-0,071
-123,468	800,000	0,001	0,004
-122,453	296,972	-0,028	-0,036
-121,439	-6,682	-0,154	-0,075
-120,424	-89,077	0,108	-0,023
-119,410	325,543	-0,031	0,043
