DTS Sentinel unit serial number:	SN410029Multiplexer serial number:	ORYXHardware model number:	OX2-SRSoftware version number:	ORYX F/W v4,00 Oryx Data Collector v3.7.2.0data status	okinstallation	B5 Nyhavnadifferential loss correction	single-endedforward channel	channel 2reverse channel	N/Adate	2023/12/13time	05:02:13forward acquisition time	300,00reverse acquisition time	0,00gamma	499,1914k internal	0,3160k external	0,3160temperature offset calibration	1,0000default loss term (dB/km)	0,3820temperature slope calibration	1,0000multiplexer offset coefficient	1,0000multiplexer slope coefficient	1,0000fibre end	0,00T internal ref (°C)	13,90T ext. ref 1 (°C)	-2,52T ext. ref 2 (°C)	-2,80length (m)	temperature (°C)	Stokes	anti-Stokes-744,400	336,957	0,064	-0,093
-743,385	-66,954	-0,206	-0,060
-742,371	317,390	0,056	0,078
-741,356	-57,900	-0,313	0,100
-740,342	-200,000	-0,026	0,126
-739,327	-120,760	-0,276	0,034
-738,312	10,669	0,059	0,033
-737,298	-51,731	-0,366	-0,125
-736,283	-83,846	0,187	-0,043
-735,269	-137,843	-0,248	0,020
-734,254	800,000	0,004	-0,012
-733,239	53,946	-0,407	-0,288
-732,225	-166,385	0,263	-0,008
-731,210	-200,000	-0,011	-0,075
-730,196	24,159	-0,070	0,042
-729,181	-32,912	-0,097	-0,039
-728,167	202,419	-0,015	-0,017
-727,152	502,329	-0,039	0,067
-726,137	-200,000	-0,003	-0,098
-725,123	460,180	-0,068	-0,112
-724,108	227,518	-0,058	-0,069
-723,094	619,046	-0,067	-0,124
-722,079	-200,000	-0,028	0,097
-721,064	81,024	-0,066	0,052
-720,050	36,524	-0,056	-0,036
-719,035	143,075	0,047	-0,046
-718,021	-200,000	0,005	0,035
-717,006	-76,461	-0,149	0,038
-715,991	-200,000	-0,007	-0,057
-714,977	212,083	-0,064	-0,074
-713,962	800,000	0,046	-0,096
-712,948	-149,740	-0,114	0,006
-711,933	314,822	-0,034	0,047
-710,918	8,838	0,146	0,081
-709,904	122,002	-0,025	0,023
-708,889	-200,000	-0,013	0,050
-707,875	44,714	-0,055	-0,037
-706,860	98,036	0,069	0,058
-705,845	85,927	0,032	0,026
-704,831	800,000	0,061	-0,132
-703,816	112,489	0,073	-0,065
-702,802	316,616	0,021	-0,029
-701,787	800,000	-0,063	-0,142
-700,772	-153,803	-0,037	-0,002
-699,758	-4,971	0,017	-0,008
-698,743	-151,364	0,058	-0,003
-697,729	83,424	-0,100	-0,080
-696,714	-43,011	0,063	-0,023
-695,699	515,762	-0,133	-0,230
-694,685	90,426	-0,088	0,072
-693,670	-76,474	-0,027	-0,007
-692,656	162,982	0,110	-0,113
-691,641	-66,125	-0,062	0,018
-690,627	-122,991	-0,155	0,018
-689,612	-200,000	0,016	0,125
-688,597	287,421	-0,059	-0,078
-687,583	155,581	0,089	-0,090
-686,568	452,519	-0,057	-0,093
-685,554	721,959	-0,068	-0,133
-684,539	-200,000	0,026	-0,084
-683,524	-56,488	0,065	0,021
-682,510	-200,000	-0,035	0,117
-681,495	-7,115	-0,080	0,040
-680,481	-35,395	0,066	-0,026
-679,466	89,609	-0,070	-0,058
-678,451	-70,448	-0,042	-0,012
-677,437	-200,000	0,007	-0,059
-676,422	367,866	0,074	-0,110
-675,408	-104,423	0,140	0,024
-674,393	-74,750	-0,088	-0,023
-673,378	4,836	0,093	-0,050
-672,364	-200,000	-0,018	-0,165
-671,349	-200,000	0,022	-0,120
-670,335	-200,000	-0,003	0,092
-669,320	800,000	0,036	0,080
-668,305	-129,285	-0,081	0,008
-667,291	-145,961	-0,088	0,006
-666,276	-200,000	0,032	-0,104
-665,262	-200,000	0,012	-0,146
-664,247	-49,487	-0,166	0,058
-663,232	82,095	0,066	0,052
-662,218	759,930	0,043	-0,085
-661,203	800,000	0,016	-0,036
-660,189	-15,744	0,138	0,064
-659,174	-134,761	-0,245	0,022
-658,159	800,000	-0,015	-0,034
-657,145	357,650	0,092	-0,135
-656,130	-7,585	0,013	0,006
-655,116	700,210	-0,022	0,043
-654,101	-200,000	0,040	0,137
-653,086	800,000	-0,032	0,074
-652,072	-200,000	0,001	-0,135
-651,057	-27,851	0,031	0,013
-650,043	-200,000	0,016	-0,107
-649,028	352,636	-0,082	-0,120
-648,014	113,751	0,062	-0,055
-646,999	-27,153	-0,107	0,045
-645,984	631,125	0,031	-0,057
-644,970	263,355	-0,056	-0,071
-643,955	-26,122	-0,028	-0,012
-642,941	-54,287	-0,135	0,045
-641,926	-200,000	0,005	0,061
-640,911	367,974	-0,043	-0,064
-639,897	800,000	-0,029	-0,069
-638,882	28,599	-0,097	-0,060
-637,868	-200,000	0,012	0,162
-636,853	-34,926	-0,082	0,033
-635,838	-33,880	-0,176	-0,071
-634,824	330,444	0,010	0,015
-633,809	514,417	0,048	0,082
-632,795	800,000	0,044	-0,092
-631,780	-200,000	-0,021	-0,111
-630,765	178,911	-0,029	-0,031
-629,751	-200,000	0,024	-0,129
-628,736	499,494	-0,058	0,098
-627,722	-46,510	0,084	-0,030
-626,707	44,663	0,068	0,046
-625,692	330,388	-0,051	-0,072
-624,678	-200,000	-0,003	0,144
-623,663	800,000	0,017	0,047
-622,649	-79,383	-0,194	0,048
-621,634	28,596	-0,054	0,033
-620,619	727,456	0,032	-0,062
-619,605	261,745	0,015	0,019
-618,590	-72,576	0,017	0,004
-617,576	-143,395	0,040	0,003
-616,561	309,029	0,087	0,120
-615,546	800,000	0,043	-0,125
-614,532	127,866	-0,069	-0,065
-613,517	-200,000	-0,003	-0,047
-612,503	603,587	0,104	0,190
-611,488	-200,000	-0,021	0,170
-610,474	149,361	0,018	-0,018
-609,459	89,569	-0,056	-0,046
-608,444	-200,000	0,042	-0,154
-607,430	582,892	-0,021	0,037
-606,415	80,394	0,016	0,013
-605,401	-103,241	0,158	-0,027
-604,386	749,207	-0,050	-0,099
-603,371	512,755	-0,047	0,080
-602,357	83,148	0,096	0,076
-601,342	93,328	0,103	-0,086
-600,328	560,078	-0,054	-0,095
-599,313	199,249	0,054	-0,061
-598,298	-102,296	0,166	0,029
-597,284	159,184	0,044	0,045
-596,269	-200,000	0,046	0,164
-595,255	729,375	-0,069	0,136
-594,240	-200,000	-0,004	0,043
-593,225	-200,000	0,001	-0,011
-592,211	42,424	-0,047	0,031
-591,196	800,000	-0,093	0,212
-590,182	-200,000	0,009	0,127
-589,167	-200,000	-0,032	-0,218
-588,152	-200,000	0,014	0,191
-587,138	-45,810	-0,147	0,053
-586,123	112,566	-0,075	-0,066
-585,109	426,479	-0,058	-0,092
-584,094	134,546	-0,034	0,033
-583,079	800,000	0,040	0,092
-582,065	-200,000	-0,015	0,097
-581,050	55,725	-0,054	-0,038
-580,036	92,618	0,047	-0,039
-579,021	-70,091	-0,089	0,025
-578,006	29,935	0,071	-0,044
-576,992	-200,000	-0,016	-0,236
-575,977	-21,278	-0,070	-0,031
-574,963	615,373	-0,019	-0,035
-573,948	302,330	0,027	-0,036
-572,934	41,070	0,144	0,095
-571,919	-99,515	-0,161	-0,029
-570,904	-200,000	-0,007	-0,069
-569,890	-200,000	0,015	0,089
-568,875	-200,000	0,009	0,065
-567,861	231,953	0,126	0,152
-566,846	-71,984	0,107	0,029
-565,831	-99,716	0,059	0,011
-564,817	-174,144	-0,093	0,002
-563,802	-12,569	0,138	-0,066
-562,788	268,053	-0,046	0,059
-561,773	232,155	-0,029	0,035
-560,758	800,000	0,023	0,067
-559,744	-200,000	0,010	-0,072
-558,729	-200,000	0,009	0,058
-557,715	-200,000	-0,023	0,109
-556,700	800,000	-0,024	-0,052
-555,685	-57,917	0,107	0,034
-554,671	-194,680	-0,153	0,001
-553,656	101,315	0,041	-0,035
-552,642	219,535	0,033	0,039
-551,627	-112,389	0,099	-0,014
-550,612	3,981	-0,030	-0,016
-549,598	-65,886	-0,044	-0,013
-548,583	800,000	-0,027	0,084
-547,569	390,917	-0,049	0,074
-546,554	800,000	0,059	-0,129
-545,539	114,643	0,139	0,124
-544,525	-39,476	0,129	0,049
-543,510	-38,238	-0,043	0,016
-542,496	800,000	0,022	-0,058
-541,481	7,731	-0,192	-0,105
-540,466	43,498	0,058	0,039
-539,452	507,344	0,093	0,158
-538,437	-200,000	-0,043	0,149
-537,423	141,966	0,076	0,074
-536,408	800,000	0,050	-0,155
-535,393	-200,000	0,025	-0,147
-534,379	609,297	0,040	-0,073
-533,364	202,783	0,045	-0,051
-532,350	800,000	0,044	0,095
-531,335	-200,000	0,044	0,173
-530,321	800,000	-0,021	0,048
-529,306	201,975	-0,057	0,064
-528,291	-47,141	-0,072	0,025
-527,277	319,730	0,016	-0,022
-526,262	-71,269	-0,092	0,025
-525,248	-17,967	0,069	0,031
-524,233	-39,583	0,084	0,032
-523,218	239,633	-0,009	0,011
-522,204	800,000	0,026	0,076
-521,189	-15,361	0,226	0,105
-520,175	96,699	0,040	-0,034
-519,160	-200,000	0,005	-0,067
-518,145	-101,176	0,075	-0,013
-517,131	218,407	0,018	-0,021
-516,116	-10,627	-0,110	-0,053
-515,102	225,195	-0,102	0,121
-514,087	-29,300	0,124	-0,052
-513,072	-200,000	-0,008	-0,087
-512,058	-94,570	-0,124	-0,024
-511,043	214,270	0,109	0,126
-510,029	-200,000	-0,020	0,105
-509,014	-200,000	0,014	-0,052
-507,999	-101,793	0,096	0,017
-506,985	-200,000	-0,006	-0,020
-505,970	-86,845	-0,033	-0,007
-504,956	8,298	-0,054	-0,030
-503,941	118,384	-0,006	0,005
-502,926	-200,000	-0,012	-0,048
-501,912	-200,000	0,010	0,045
-500,897	19,917	-0,058	0,034
-499,883	-200,000	-0,015	-0,102
-498,868	787,856	0,042	-0,085
-497,853	800,000	-0,035	0,085
-496,839	630,392	0,044	0,081
-495,824	156,110	0,044	0,045
-494,810	-200,000	-0,003	0,118
-493,795	297,486	0,085	-0,114
-492,781	2,322	0,121	-0,064
-491,766	104,884	-0,099	-0,086
-490,751	154,517	-0,022	-0,022
-489,737	-69,621	-0,099	0,027
-488,722	-200,000	-0,025	0,113
-487,708	-200,000	-0,039	0,130
-486,693	-54,481	0,065	0,021
-485,678	-59,049	0,028	-0,009
-484,664	326,512	-0,003	-0,004
-483,649	-49,304	-0,087	-0,030
-482,635	800,000	-0,032	-0,086
-481,620	-200,000	0,011	-0,052
-480,605	-200,000	0,000	0,106
-479,591	-12,322	-0,043	0,021
-478,576	-27,116	-0,079	0,034
-477,562	100,657	-0,054	-0,046
-476,547	351,302	-0,065	-0,094
-475,532	155,264	0,030	-0,030
-474,518	48,027	-0,086	0,059
-473,503	-39,945	0,078	0,029
-472,489	256,282	0,040	-0,051
-471,474	38,521	0,058	-0,037
-470,459	-200,000	-0,018	-0,147
-469,445	193,835	0,064	0,070
-468,430	800,000	0,022	-0,071
-467,416	-125,635	-0,102	0,011
-466,401	-97,095	0,011	-0,002
-465,386	-200,000	-0,012	0,083
-464,372	22,400	0,107	-0,063
-463,357	55,298	-0,164	-0,115
-462,343	352,782	-0,066	-0,096
-461,328	220,905	-0,010	0,012
-460,313	800,000	-0,082	0,232
-459,299	-138,813	0,032	-0,002
-458,284	-123,910	0,119	0,014
-457,270	-200,000	0,004	-0,067
-456,255	-61,380	-0,165	0,050
-455,241	-160,585	-0,020	-0,001
-454,226	800,000	-0,037	-0,114
-453,211	258,847	-0,033	-0,042
-452,197	800,000	0,049	0,111
-451,182	-164,118	-0,117	0,004
-450,168	-80,560	0,065	-0,016
-449,153	159,589	0,023	-0,023
-448,138	198,657	-0,147	-0,164
-447,124	715,432	-0,045	-0,088
-446,109	222,409	-0,028	0,033
-445,095	4,180	-0,091	-0,048
-444,080	-43,855	-0,052	-0,019
-443,065	-101,806	0,161	0,028
-442,051	-200,000	-0,024	0,108
-441,036	-200,000	0,009	0,103
-440,022	-200,000	-0,022	0,103
-439,007	293,954	0,040	0,054
-437,992	39,193	-0,042	-0,027
-436,978	800,000	0,043	-0,131
-435,963	-143,728	0,157	-0,011
-434,949	244,763	0,087	-0,107
-433,934	800,000	0,049	-0,155
-432,919	-45,116	-0,067	0,024
-431,905	402,462	-0,043	0,067
-430,890	566,459	0,060	-0,106
-429,876	502,177	0,056	0,094
-428,861	-53,432	0,130	0,043
-427,846	800,000	-0,023	0,075
-426,832	196,979	-0,052	-0,057
-425,817	800,000	0,024	-0,053
-424,803	153,954	0,073	0,072
-423,788	67,531	0,086	0,064
-422,773	-200,000	0,009	-0,095
-421,759	-57,309	0,058	0,019
-420,744	-200,000	0,026	0,096
-419,730	-101,212	0,116	0,020
-418,715	-74,295	-0,082	-0,021
-417,701	800,000	0,035	-0,100
-416,686	46,250	-0,048	-0,032
-415,671	-200,000	-0,001	0,015
-414,657	-143,137	-0,031	-0,002
-413,642	570,107	-0,079	0,141
-412,628	218,231	-0,079	0,092
-411,613	-62,197	0,024	0,007
-410,598	-200,000	-0,012	-0,088
-409,584	-125,016	0,121	0,013
-408,569	-200,000	0,006	-0,022
-407,555	-73,313	-0,066	0,017
-406,540	105,302	0,097	0,083
-405,525	-200,000	0,005	0,028
-404,511	-39,788	-0,131	0,050
-403,496	-200,000	-0,008	-0,102
-402,482	-200,000	0,000	-0,040
-401,467	-45,725	0,030	-0,011
-400,452	-200,000	0,010	0,128
-399,438	176,132	0,037	0,039
-398,423	-200,000	-0,020	0,080
-397,409	-200,000	0,004	-0,080
-396,394	800,000	-0,117	-0,245
-395,379	-155,448	0,078	0,004
-394,365	-200,000	-0,011	0,041
-393,350	-200,000	-0,005	0,036
-392,336	731,813	0,075	0,147
-391,321	-105,680	-0,156	0,025
-390,306	405,810	0,082	0,126
-389,292	-153,944	0,034	0,002
-388,277	196,271	-0,044	0,049
-387,263	-88,666	0,036	0,008
-386,248	725,432	-0,064	0,124
-385,233	229,722	-0,045	-0,054
-384,219	-95,401	-0,103	0,020
-383,204	800,000	-0,082	-0,178
-382,190	27,483	-0,101	-0,061
-381,175	3,720	-0,040	-0,021
-380,160	390,381	0,076	-0,115
-379,146	19,422	0,096	-0,056
-378,131	-17,686	0,081	0,037
-377,117	-0,419	-0,046	-0,024
-376,102	-110,859	-0,032	-0,005
-375,088	128,872	-0,096	-0,089
-374,073	-153,568	0,057	-0,003
-373,058	-200,000	-0,012	0,091
-372,044	148,320	0,029	0,028
-371,029	-111,932	-0,090	0,013
-370,015	-150,629	-0,061	0,003
-369,000	-69,880	0,046	-0,013
-367,985	-24,189	-0,080	-0,034
-366,971	-200,000	0,009	-0,034
-365,956	-35,720	-0,080	0,031
-364,942	555,007	0,049	0,086
-363,927	12,123	-0,076	0,042
-362,912	-82,991	0,141	-0,033
-361,898	-18,737	0,022	0,010
-360,883	-159,427	0,075	-0,003
-359,869	-185,566	-0,011	-0,000
-358,854	218,956	-0,051	-0,059
-357,839	-146,273	0,143	-0,009
-356,825	49,839	0,049	0,033
-355,810	800,000	-0,074	0,169
-354,796	483,589	0,008	-0,012
-353,781	184,091	0,016	-0,017
-352,766	-71,707	0,063	-0,017
-351,752	-168,335	0,098	0,003
-350,737	451,404	-0,083	0,133
-349,723	800,000	0,045	0,132
-348,708	514,180	-0,069	0,117
-347,693	-159,284	0,071	-0,003
-346,679	800,000	-0,044	-0,118
-345,664	-200,000	-0,007	-0,038
-344,650	-31,958	0,081	0,033
-343,635	-144,012	0,093	0,006
-342,620	414,143	0,077	0,120
-341,606	77,357	-0,144	0,111
-340,591	-173,239	-0,022	0,000
-339,577	124,674	0,035	-0,032
-338,562	120,868	-0,054	0,049
-337,548	725,700	-0,079	-0,152
-336,533	291,197	0,064	0,085
-335,518	800,000	-0,042	0,087
-334,504	-200,000	0,007	-0,114
-333,489	214,843	-0,066	0,076
-332,475	-106,449	-0,208	-0,033
-331,460	225,265	0,114	-0,134
-330,445	-200,000	-0,054	-0,178
-329,431	-93,633	0,117	-0,023
-328,416	-200,000	-0,004	0,093
-327,402	291,088	0,082	0,108
-326,387	800,000	-0,008	-0,022
-325,372	10,114	-0,109	0,060
-324,358	683,352	0,081	-0,154
-323,343	800,000	-0,031	-0,066
-322,329	-17,701	-0,046	-0,021
-321,314	376,314	-0,022	-0,033
-320,299	-162,331	0,188	-0,007
-319,285	-200,000	-0,018	0,112
-318,270	160,047	-0,045	-0,046
-317,256	-53,132	0,055	-0,018
-316,241	-141,026	-0,118	-0,009
-315,226	-200,000	-0,017	0,058
-314,212	29,340	0,116	-0,071
-313,197	-155,124	0,162	0,008
-312,183	-200,000	0,029	0,097
-311,168	-200,000	0,002	0,062
-310,153	-200,000	0,014	-0,051
-309,139	-179,829	-0,114	-0,002
-308,124	-200,000	-0,012	0,060
-307,110	102,067	0,071	-0,060
-306,095	800,000	0,040	-0,112
-305,080	451,316	-0,091	0,145
-304,066	54,667	0,030	-0,021
-303,051	-200,000	0,034	0,176
-302,037	-114,726	-0,097	-0,013
-301,022	31,637	0,035	0,021
-300,008	-168,763	0,042	0,001
-298,993	-135,854	0,049	-0,004
-297,978	-70,282	-0,054	0,015
-296,964	503,230	0,071	0,120
-295,949	-7,475	0,044	-0,021
-294,935	-200,000	0,011	0,100
-293,920	139,107	0,152	-0,145
-292,905	-126,869	0,091	0,010
-291,891	-200,000	-0,008	-0,101
-290,876	198,946	0,029	-0,033
-289,862	-109,278	-0,089	-0,014
-288,847	-200,000	-0,033	-0,159
-287,832	-49,148	0,047	-0,016
-286,818	-200,000	0,024	-0,110
-285,803	169,970	-0,022	0,022
-284,789	-200,000	0,008	0,076
-283,774	-59,537	-0,024	-0,007
-282,759	-200,000	-0,050	0,229
-281,745	-140,669	-0,062	-0,005
-280,730	800,000	0,024	0,053
-279,716	-200,000	0,013	0,050
-278,701	-200,000	-0,011	0,094
-277,686	-200,000	0,009	0,126
-276,672	37,524	0,092	-0,059
-275,657	27,546	-0,155	-0,094
-274,643	-23,781	-0,018	0,008
-273,628	-24,767	-0,062	0,026
-272,613	313,603	-0,134	-0,183
-271,599	464,332	0,101	-0,163
-270,584	-200,000	0,006	-0,020
-269,570	108,484	0,029	-0,025
-268,555	-200,000	-0,006	0,091
-267,540	-130,530	-0,188	-0,018
-266,526	698,772	-0,064	0,122
-265,511	-9,648	0,083	-0,040
-264,497	-200,000	0,005	-0,029
-263,482	-200,000	-0,001	0,059
-262,467	-200,000	0,025	0,136
-261,453	-200,000	0,023	0,098
-260,438	-122,535	0,058	-0,007
-259,424	-156,946	-0,180	0,008
-258,409	-200,000	0,014	-0,077
-257,395	524,701	-0,030	0,052
-256,380	-200,000	-0,039	-0,142
-255,365	-159,006	-0,111	0,004
-254,351	-200,000	-0,006	-0,097
-253,336	-88,294	0,073	-0,016
-252,322	-200,000	-0,037	-0,127
-251,307	-166,509	0,049	0,001
-250,292	-200,000	0,012	0,176
-249,278	482,718	0,026	0,043
-248,263	86,469	0,123	-0,098
-247,249	12,930	-0,094	0,052
-246,234	-200,000	-0,002	-0,035
-245,219	-11,517	-0,074	0,035
-244,205	800,000	-0,017	0,052
-243,190	103,465	0,040	-0,034
-242,176	57,039	-0,062	0,043
-241,161	-200,000	-0,007	0,091
-240,146	800,000	0,053	-0,125
-239,132	-36,840	-0,050	-0,019
-238,117	-77,675	-0,062	0,015
-237,103	49,590	-0,129	-0,088
-236,088	-200,000	0,014	-0,197
-235,073	-200,000	0,017	-0,072
-234,059	-104,108	0,104	0,017
-233,044	223,516	-0,031	-0,037
-232,030	-200,000	-0,032	-0,102
-231,015	-200,000	0,001	-0,020
-230,000	800,000	0,023	0,069
-228,986	-21,863	0,091	0,040
-227,971	165,632	-0,074	-0,076
-226,957	-19,900	0,075	-0,033
-225,942	800,000	-0,055	0,136
-224,927	-19,984	0,040	-0,018
-223,913	254,389	0,083	-0,102
-222,898	-70,381	0,044	-0,012
-221,884	-200,000	0,035	0,158
-220,869	-133,489	0,091	-0,008
-219,855	-154,764	0,025	-0,001
-218,840	504,617	-0,037	-0,063
-217,825	249,336	-0,072	0,088
-216,811	153,936	0,038	0,038
-215,796	403,285	0,065	-0,099
-214,782	800,000	-0,038	0,096
-213,767	128,700	0,085	0,078
-212,752	-75,458	0,019	0,005
-211,738	-200,000	0,009	-0,092
-210,723	534,132	-0,023	-0,040
-209,709	-200,000	0,002	0,053
-208,694	526,666	-0,078	-0,132
-207,679	-155,573	-0,026	0,001
-206,665	800,000	0,031	-0,084
-205,650	-4,688	0,054	-0,027
-204,636	-140,558	0,158	-0,012
-203,621	-59,726	0,136	0,042
-202,606	-107,741	-0,119	-0,019
-201,592	214,794	0,056	-0,064
-200,577	662,447	0,036	-0,067
-199,563	-74,366	-0,069	0,018
-198,548	-177,885	0,079	0,001
-197,533	-200,000	-0,013	0,057
-196,519	11,751	0,056	-0,031
-195,504	-191,940	0,078	0,001
-194,490	-0,386	-0,149	0,076
-193,475	581,145	0,055	0,097
-192,460	-102,157	0,102	0,018
-191,446	-31,626	0,163	0,066
-190,431	800,000	0,045	0,118
-189,417	133,455	0,064	0,060
-188,402	-200,000	-0,016	-0,137
-187,387	800,000	-0,073	-0,201
-186,373	226,232	-0,041	-0,048
-185,358	37,570	-0,142	-0,091
-184,344	-108,114	-0,079	0,012
-183,329	-200,000	-0,019	-0,074
-182,315	-200,000	-0,007	0,060
-181,300	-200,000	0,010	-0,052
-180,285	-36,659	0,102	-0,039
-179,271	-83,178	0,064	-0,015
-178,256	800,000	-0,024	-0,067
-177,242	348,841	-0,078	-0,111
-176,227	-200,000	-0,007	-0,087
-175,212	800,000	0,041	-0,082
-174,198	107,092	-0,018	-0,016
-173,183	-5,626	-0,092	0,045
-172,169	-135,162	0,031	-0,003
-171,154	297,841	-0,078	-0,103
-170,139	13,270	-0,012	-0,006
-169,125	-85,486	0,051	0,011
-168,110	800,000	-0,026	-0,078
-167,096	-200,000	-0,029	-0,127
-166,081	128,785	-0,078	-0,071
-165,066	148,124	-0,097	-0,095
-164,052	-98,689	-0,055	0,010
-163,037	127,569	0,011	-0,010
-162,023	13,306	0,141	0,078
-161,008	-61,138	0,057	-0,017
-159,993	37,504	0,033	0,021
-158,979	5,090	0,024	0,013
-157,964	-23,432	-0,182	-0,078
-156,950	-200,000	0,014	-0,046
-155,935	800,000	-0,009	0,023
-154,920	-75,836	-0,128	-0,032
-153,906	219,263	-0,026	0,030
-152,891	-200,000	0,002	-0,033
-151,877	396,149	0,041	-0,062
-150,862	-200,000	-0,006	-0,053
-149,847	-19,857	0,064	-0,028
-148,833	-94,844	0,102	-0,020
-147,818	-200,000	-0,014	-0,048
-146,804	-83,208	-0,151	0,035
-145,789	-200,000	-0,005	0,047
-144,775	-200,000	-0,022	0,082
-143,760	-200,000	-0,005	-0,149
-142,745	800,000	0,058	-0,123
-141,731	-108,426	0,088	0,014
-140,716	800,000	-0,016	-0,043
-139,702	-112,723	0,046	-0,007
-138,687	388,802	0,052	0,077
-137,672	323,271	0,013	0,018
-136,658	713,407	-0,122	-0,234
-135,643	17,143	0,036	-0,021
-134,629	-136,537	-0,058	0,005
-133,614	-200,000	0,028	0,092
-132,599	-57,846	0,104	-0,032
-131,585	-145,195	-0,123	0,008
-130,570	91,429	-0,004	-0,004
-129,556	52,290	-0,147	-0,100
-128,541	576,513	-0,025	0,045
-127,526	-200,000	0,010	-0,076
-126,512	314,605	0,040	0,054
-125,497	-123,297	-0,114	-0,013
-124,483	-9,643	0,089	-0,042
-123,468	356,366	0,013	0,019
-122,453	153,880	-0,126	-0,124
-121,439	238,460	0,060	0,071
-120,424	174,381	-0,048	0,050
