DTS Sentinel unit serial number:	SN410029Multiplexer serial number:	ORYXHardware model number:	OX2-SRSoftware version number:	ORYX F/W v4,00 Oryx Data Collector v3.7.2.0data status	okinstallation	B5 Nyhavnadifferential loss correction	single-endedforward channel	channel 2reverse channel	N/Adate	2023/12/12time	21:07:14forward acquisition time	300,00reverse acquisition time	0,00gamma	499,1914k internal	0,3157k external	0,3157temperature offset calibration	1,0000default loss term (dB/km)	0,3820temperature slope calibration	1,0000multiplexer offset coefficient	1,0000multiplexer slope coefficient	1,0000fibre end	0,00T internal ref (°C)	15,00T ext. ref 1 (°C)	-1,64T ext. ref 2 (°C)	-1,95length (m)	temperature (°C)	Stokes	anti-Stokes-744,400	36,436	0,081	-0,053
-743,385	-132,735	-0,298	0,028
-742,371	66,267	0,088	0,066
-741,356	-56,897	-0,201	-0,065
-740,342	-61,479	0,125	0,038
-739,327	-107,726	-0,256	-0,041
-738,312	207,599	0,022	-0,025
-737,298	-124,542	-0,254	0,029
-736,283	-200,000	0,009	0,070
-735,269	-158,900	-0,306	0,013
-734,254	20,289	0,124	0,074
-733,239	-52,877	-0,374	-0,126
-732,225	-142,843	0,150	0,011
-731,210	158,004	0,104	0,107
-730,196	800,000	0,050	-0,123
-729,181	800,000	-0,111	-0,254
-728,167	151,092	-0,003	0,003
-727,152	-53,233	0,049	0,016
-726,137	-200,000	0,018	-0,078
-725,123	12,360	-0,102	-0,058
-724,108	-200,000	-0,029	-0,132
-723,094	-200,000	0,015	-0,086
-722,079	592,163	-0,023	-0,043
-721,064	-200,000	0,036	-0,142
-720,050	800,000	0,074	-0,218
-719,035	111,888	0,048	-0,042
-718,021	-18,626	-0,148	-0,068
-717,006	800,000	-0,088	-0,185
-715,991	800,000	0,028	-0,080
-714,977	137,604	-0,136	0,131
-713,962	214,826	-0,068	0,079
-712,948	105,548	0,031	0,027
-711,933	77,914	0,054	0,043
-710,918	68,824	-0,037	0,028
-709,904	254,749	0,029	-0,036
-708,889	-200,000	-0,002	-0,036
-707,875	-88,812	-0,119	0,026
-706,860	-200,000	-0,024	0,087
-705,845	-200,000	0,000	0,092
-704,831	225,601	0,046	-0,055
-703,816	10,372	0,089	-0,050
-702,802	-0,175	0,080	-0,042
-701,787	800,000	-0,069	-0,191
-700,772	-155,552	-0,216	-0,010
-699,758	-200,000	-0,001	-0,132
-698,743	800,000	-0,033	0,082
-697,729	-200,000	-0,011	0,110
-696,714	-200,000	0,004	-0,033
-695,699	-200,000	-0,004	0,024
-694,685	800,000	-0,056	0,174
-693,670	-127,526	-0,070	0,007
-692,656	-200,000	-0,019	-0,087
-691,641	-14,094	-0,033	0,016
-690,627	130,329	-0,061	0,058
-689,612	29,688	0,056	-0,035
-688,597	-26,110	-0,016	0,007
-687,583	1,560	-0,030	0,016
-686,568	137,878	-0,069	-0,066
-685,554	-200,000	-0,014	0,061
-684,539	-200,000	-0,001	-0,088
-683,524	-200,000	-0,022	0,138
-682,510	588,103	-0,094	0,171
-681,495	112,808	-0,031	-0,028
-680,481	56,482	-0,091	0,065
-679,466	800,000	0,030	-0,066
-678,451	-17,572	-0,070	0,032
-677,437	-5,045	-0,099	0,050
-676,422	469,938	-0,024	0,040
-675,408	-200,000	0,005	-0,043
-674,393	-200,000	-0,014	-0,069
-673,378	21,295	-0,062	-0,037
-672,364	-98,192	-0,155	-0,029
-671,349	-200,000	-0,052	0,170
-670,335	241,697	-0,095	-0,118
-669,320	-117,535	-0,109	-0,014
-668,305	27,033	0,096	0,059
-667,291	-200,000	0,003	-0,033
-666,276	586,285	-0,012	0,022
-665,262	-200,000	0,007	-0,069
-664,247	158,898	0,041	-0,042
-663,232	460,021	-0,016	-0,026
-662,218	220,620	-0,017	0,020
-661,203	64,850	-0,083	-0,061
-660,189	130,546	-0,061	-0,058
-659,174	-200,000	-0,009	-0,054
-658,159	433,534	0,025	0,040
-657,145	-149,550	0,085	-0,005
-656,130	13,803	-0,016	0,009
-655,116	88,184	-0,041	-0,033
-654,101	-200,000	-0,003	-0,026
-653,086	8,078	-0,111	-0,061
-652,072	-42,144	-0,112	0,042
-651,057	800,000	0,040	-0,097
-650,043	286,930	0,050	0,066
-649,028	-200,000	0,002	-0,082
-648,014	-0,074	0,054	0,028
-646,999	26,260	-0,052	-0,032
-645,984	289,539	0,111	-0,148
-644,970	-10,382	0,133	-0,064
-643,955	281,791	0,002	-0,002
-642,941	94,450	0,035	-0,029
-641,926	-200,000	0,001	-0,027
-640,911	-109,611	0,075	-0,012
-639,897	-200,000	-0,018	-0,119
-638,882	-200,000	-0,019	0,063
-637,868	513,146	-0,046	-0,079
-636,853	236,966	-0,101	-0,123
-635,838	-119,182	0,097	-0,012
-634,824	800,000	0,042	-0,103
-633,809	694,545	-0,055	-0,106
-632,795	-123,519	0,182	-0,021
-631,780	-200,000	0,026	-0,112
-630,765	-62,158	-0,114	0,035
-629,751	686,942	-0,017	0,033
-628,736	148,855	0,048	-0,048
-627,722	800,000	0,029	0,070
-626,707	-200,000	0,021	-0,136
-625,692	227,959	0,053	-0,063
-624,678	167,541	-0,067	0,069
-623,663	485,991	-0,020	0,033
-622,649	-9,038	0,038	-0,018
-621,634	-62,435	-0,111	-0,034
-620,619	800,000	-0,013	-0,041
-619,605	-101,824	-0,058	0,010
-618,590	-51,311	-0,090	-0,031
-617,576	-38,474	0,079	0,031
-616,561	61,892	-0,052	0,038
-615,546	41,012	-0,200	-0,133
-614,532	-140,978	-0,144	0,011
-613,517	46,697	0,088	0,060
-612,503	-104,817	0,043	0,007
-611,488	75,215	0,100	0,077
-610,474	22,443	0,083	0,049
-609,459	1,817	0,096	0,051
-608,444	-60,265	-0,026	0,008
-607,430	-24,387	0,068	-0,030
-606,415	148,592	0,026	-0,026
-605,401	-74,787	-0,145	-0,038
-604,386	-114,646	-0,038	-0,005
-603,371	800,000	-0,024	0,070
-602,357	800,000	-0,066	0,142
-601,342	800,000	-0,033	0,089
-600,328	-14,933	0,084	-0,039
-599,313	-200,000	0,017	-0,084
-598,298	800,000	0,015	0,039
-597,284	-130,315	-0,026	-0,003
-596,269	-80,840	-0,054	0,013
-595,255	800,000	-0,033	0,075
-594,240	20,871	-0,033	0,019
-593,225	-172,123	0,073	0,002
-592,211	-200,000	0,036	-0,133
-591,196	-200,000	-0,089	0,000
-590,182	-110,775	-0,111	0,017
-589,167	-56,648	0,192	0,062
-588,152	800,000	-0,041	0,089
-587,138	57,741	-0,076	-0,055
-586,123	101,211	-0,126	0,108
-585,109	-112,961	-0,035	0,005
-584,094	172,611	-0,054	0,057
-583,079	-200,000	-0,019	0,124
-582,065	86,602	0,050	0,040
-581,050	208,120	0,114	-0,131
-580,036	133,592	-0,066	0,063
-579,021	563,236	0,019	0,034
-578,006	800,000	0,031	-0,100
-576,992	-143,864	-0,066	-0,004
-575,977	-200,000	0,011	0,152
-574,963	115,056	0,082	0,073
-573,948	321,471	0,029	-0,040
-572,934	-200,000	-0,003	-0,122
-571,919	590,137	-0,106	-0,193
-570,904	-200,000	0,024	-0,088
-569,890	-154,361	-0,054	0,003
-568,875	363,624	0,039	-0,058
-567,861	-200,000	0,045	0,149
-566,846	-82,677	-0,037	-0,009
-565,831	106,273	0,016	0,014
-564,817	-82,304	-0,146	0,035
-563,802	-200,000	-0,001	0,041
-562,788	76,711	-0,090	-0,070
-561,773	-118,261	-0,032	-0,004
-560,758	800,000	0,032	-0,088
-559,744	152,846	-0,046	-0,046
-558,729	-43,455	-0,055	0,020
-557,715	34,585	0,126	-0,080
-556,700	167,900	-0,037	0,039
-555,685	-200,000	-0,043	-0,163
-554,671	-78,194	0,047	0,012
-553,656	-90,349	0,157	-0,033
-552,642	115,433	-0,025	0,022
-551,627	59,765	-0,071	0,051
-550,612	-49,906	0,086	0,030
-549,598	254,934	-0,026	-0,032
-548,583	636,955	0,017	-0,033
-547,569	295,818	-0,086	-0,116
-546,554	800,000	0,057	0,183
-545,539	335,603	-0,059	0,084
-544,525	-21,664	-0,166	-0,073
-543,510	-35,659	0,027	0,011
-542,496	50,860	-0,071	0,049
-541,481	41,747	-0,075	-0,050
-540,466	-17,110	-0,064	0,029
-539,452	153,298	0,112	-0,112
-538,437	-200,000	0,010	0,142
-537,423	800,000	-0,054	0,154
-536,408	17,028	0,023	-0,013
-535,393	-55,644	-0,020	0,007
-534,379	210,033	-0,028	-0,032
-533,364	-200,000	0,005	0,037
-532,350	-98,947	-0,048	-0,009
-531,335	-200,000	-0,006	0,094
-530,321	181,074	-0,048	-0,051
-529,306	-77,707	0,133	0,033
-528,291	-49,776	-0,145	-0,050
-527,277	74,404	0,045	0,034
-526,262	800,000	-0,058	0,135
-525,248	43,729	0,136	0,091
-524,233	-200,000	-0,006	0,095
-523,218	800,000	0,022	-0,045
-522,204	800,000	0,047	0,128
-521,189	-200,000	-0,020	-0,132
-520,175	800,000	0,014	-0,032
-519,160	208,680	-0,039	-0,045
-518,145	-200,000	0,003	0,091
-517,131	-200,000	0,021	0,131
-516,116	527,326	-0,030	0,052
-515,102	75,113	0,056	-0,043
-514,087	-200,000	0,003	-0,061
-513,072	68,468	-0,174	0,130
-512,058	-200,000	-0,007	0,057
-511,043	-188,457	0,137	0,001
-510,029	800,000	0,036	0,099
-509,014	-200,000	-0,011	0,109
-507,999	800,000	-0,034	-0,083
-506,985	800,000	-0,032	0,097
-505,970	-113,813	0,077	-0,011
-504,956	-200,000	-0,002	-0,160
-503,941	37,268	0,095	-0,061
-502,926	536,019	-0,009	0,015
-501,912	-2,917	-0,027	0,014
-500,897	24,294	0,054	-0,033
-499,883	16,541	-0,043	-0,025
-498,868	-200,000	0,002	0,011
-497,853	203,555	-0,069	-0,078
-496,839	134,489	-0,087	-0,083
-495,824	-69,829	-0,050	0,014
-494,810	800,000	-0,011	-0,032
-493,795	-52,506	-0,112	-0,038
-492,781	-15,825	-0,125	-0,058
-491,766	278,792	-0,100	-0,130
-490,751	-200,000	-0,001	0,054
-489,737	9,721	-0,056	-0,031
-488,722	800,000	0,024	0,055
-487,708	-200,000	-0,003	0,089
-486,693	-58,631	0,039	-0,012
-485,678	234,447	-0,027	0,033
-484,664	145,433	0,040	-0,039
-483,649	-200,000	-0,012	-0,145
-482,635	62,722	0,082	-0,060
-481,620	-153,175	0,132	0,007
-480,605	-200,000	0,001	0,094
-479,591	-200,000	-0,003	0,075
-478,576	391,970	0,081	0,124
-477,562	758,408	0,050	-0,100
-476,547	-6,720	-0,110	-0,054
-475,532	-115,056	-0,063	0,009
-474,518	86,355	0,039	-0,031
-473,503	-200,000	0,006	-0,064
-472,489	-65,738	0,186	0,054
-471,474	-141,996	0,099	-0,007
-470,459	790,487	-0,040	-0,081
-469,445	65,114	-0,055	0,040
-468,430	800,000	-0,043	-0,118
-467,416	403,623	0,060	-0,092
-466,401	800,000	-0,020	0,056
-465,386	800,000	-0,018	0,044
-464,372	-91,672	0,045	-0,009
-463,357	800,000	-0,090	-0,250
-462,343	-200,000	-0,012	-0,143
-461,328	800,000	0,015	0,032
-460,313	243,692	0,108	0,132
-459,299	364,003	0,035	-0,052
-458,284	-38,787	0,066	0,025
-457,270	207,329	0,100	-0,114
-456,255	800,000	-0,024	0,053
-455,241	-129,417	-0,012	-0,001
-454,226	-200,000	-0,008	-0,146
-453,211	419,538	-0,017	0,026
-452,197	-200,000	0,009	0,193
-451,182	698,514	-0,057	0,110
-450,168	-2,128	0,030	-0,015
-449,153	339,127	-0,056	0,080
-448,138	-34,521	0,052	0,021
-447,124	119,449	-0,101	-0,092
-446,109	-12,155	0,092	-0,044
-445,095	-200,000	0,021	0,112
-444,080	316,104	-0,017	0,023
-443,065	21,782	-0,061	0,036
-442,051	-200,000	-0,003	0,019
-441,036	17,623	-0,076	0,044
-440,022	146,476	-0,098	0,096
-439,007	77,218	0,045	-0,035
-437,992	160,861	0,040	-0,041
-436,978	-5,522	0,035	-0,018
-435,963	151,630	0,057	0,057
-434,949	11,942	0,045	0,025
-433,934	800,000	0,070	-0,196
-432,919	79,703	-0,096	-0,075
-431,905	-29,583	-0,067	0,028
-430,890	-200,000	0,011	0,042
-429,876	-200,000	0,002	0,063
-428,861	253,778	0,130	0,162
-427,846	800,000	0,030	-0,080
-426,832	-5,358	-0,140	0,070
-425,817	-200,000	0,046	-0,162
-424,803	340,953	0,077	0,109
-423,788	-200,000	0,015	0,129
-422,773	-200,000	0,006	0,081
-421,759	-200,000	-0,005	0,017
-420,744	800,000	-0,028	0,074
-419,730	75,188	-0,082	0,063
-418,715	-200,000	0,007	-0,071
-417,701	-4,593	-0,072	-0,036
-416,686	-200,000	0,020	-0,085
-415,671	793,346	0,043	-0,086
-414,657	800,000	0,042	0,124
-413,642	800,000	-0,057	-0,129
-412,628	-17,906	0,049	-0,022
-411,613	-63,889	-0,062	0,018
-410,598	-14,612	-0,167	0,078
-409,584	800,000	0,059	0,122
-408,569	-89,318	0,034	0,007
-407,555	133,897	0,052	0,049
-406,540	-200,000	-0,016	0,059
-405,525	86,545	-0,012	-0,010
-404,511	800,000	-0,022	-0,068
-403,496	-200,000	0,004	0,085
-402,482	604,798	0,019	0,035
-401,467	-190,813	0,069	-0,001
-400,452	80,157	0,042	-0,033
-399,438	-200,000	-0,007	0,035
-398,423	42,406	0,091	0,060
-397,409	134,255	-0,041	-0,038
-396,394	111,627	0,031	0,027
-395,379	96,274	0,077	-0,064
-394,365	19,030	0,137	0,080
-393,350	800,000	-0,016	0,044
-392,336	-200,000	-0,010	-0,044
-391,321	643,629	-0,021	0,038
-390,306	800,000	0,035	0,084
-389,292	800,000	0,011	0,022
-388,277	-200,000	0,019	0,077
-387,263	-200,000	-0,004	0,029
-386,248	-179,733	0,066	-0,001
-385,233	543,588	-0,039	-0,068
-384,219	-108,806	-0,073	0,011
-383,204	-122,467	-0,127	0,015
-382,190	-200,000	-0,026	-0,135
-381,175	363,696	-0,066	-0,097
-380,160	182,709	0,067	-0,071
-379,146	-200,000	-0,021	0,104
-378,131	237,113	-0,029	0,035
-377,117	139,641	0,101	0,097
-376,102	800,000	-0,021	-0,048
-375,088	714,103	-0,024	0,046
-374,073	-64,862	0,083	0,024
-373,058	-111,814	0,009	-0,001
-372,044	279,364	0,089	-0,116
-371,029	-14,517	0,153	0,071
-370,015	-200,000	-0,022	0,162
-369,000	119,855	-0,169	-0,152
-367,985	-200,000	0,001	-0,099
-366,971	800,000	0,027	-0,076
-365,956	74,986	-0,047	0,036
-364,942	358,483	0,117	0,171
-363,927	-200,000	-0,014	0,057
-362,912	-38,004	-0,111	0,043
-361,898	-94,540	-0,039	-0,008
-360,883	800,000	0,045	-0,125
-359,869	800,000	0,038	-0,118
-358,854	800,000	0,025	0,064
-357,839	582,689	0,041	0,074
-356,825	426,739	0,085	0,133
-355,810	481,743	-0,014	0,023
-354,796	406,329	-0,030	-0,046
-353,781	-24,211	-0,023	-0,010
-352,766	-106,267	-0,060	-0,010
-351,752	8,130	-0,098	-0,053
-350,737	-135,831	-0,115	0,010
-349,723	166,455	-0,103	0,106
-348,708	-200,000	0,023	0,180
-347,693	120,523	0,050	0,045
-346,679	800,000	-0,013	-0,036
-345,664	-123,451	-0,173	0,020
-344,650	83,878	0,076	-0,060
-343,635	-112,456	0,045	-0,006
-342,620	430,586	0,059	0,093
-341,606	49,154	0,038	-0,026
-340,591	-62,305	-0,102	0,031
-339,577	800,000	0,028	-0,059
-338,562	188,956	-0,039	-0,042
-337,548	632,331	0,023	0,043
-336,533	-200,000	0,003	-0,073
-335,518	270,973	0,053	-0,068
-334,504	-200,000	0,008	-0,029
-333,489	-48,883	-0,135	-0,047
-332,475	-37,229	-0,101	0,039
-331,460	24,478	0,085	-0,051
-330,445	162,566	0,103	-0,105
-329,431	152,354	-0,080	-0,080
-328,416	-120,872	0,009	0,001
-327,402	-11,603	0,135	0,064
-326,387	717,908	0,045	-0,087
-325,372	800,000	-0,025	-0,062
-324,358	-4,763	0,013	-0,006
-323,343	-200,000	0,021	-0,067
-322,329	-200,000	-0,000	0,015
-321,314	-24,615	0,032	0,014
-320,299	613,201	0,007	-0,012
-319,285	-200,000	-0,025	0,120
-318,270	-119,955	-0,122	0,015
-317,256	-126,853	0,051	0,005
-316,241	800,000	-0,043	-0,117
-315,226	14,848	0,106	-0,060
-314,212	-200,000	-0,050	0,172
-313,197	-56,561	-0,076	0,024
-312,183	226,789	0,105	-0,124
-311,168	800,000	0,046	0,094
-310,153	-13,454	-0,084	0,040
-309,139	-200,000	0,045	-0,156
-308,124	472,443	0,020	0,033
-307,110	-50,225	0,089	0,030
-306,095	-40,449	-0,048	-0,018
-305,080	-200,000	0,028	0,111
-304,066	-200,000	-0,002	0,092
-303,051	-200,000	0,028	-0,100
-302,037	83,940	0,091	0,072
-301,022	-200,000	-0,001	0,172
-300,008	458,931	0,052	-0,084
-298,993	-200,000	-0,015	0,064
-297,978	148,652	0,030	0,029
-296,964	800,000	-0,007	-0,015
-295,949	-114,381	-0,087	-0,012
-294,935	-24,661	-0,121	0,052
-293,920	-36,167	-0,155	-0,060
-292,905	203,317	0,053	0,059
-291,891	-200,000	0,004	-0,024
-290,876	-141,606	0,103	0,007
-289,862	-45,516	-0,044	0,016
-288,847	-135,054	0,115	0,010
-287,832	-200,000	0,008	0,037
-286,818	59,121	0,075	0,053
-285,803	800,000	-0,046	-0,129
-284,789	-200,000	-0,003	-0,051
-283,774	-200,000	0,014	-0,087
-282,759	248,303	0,033	-0,040
-281,745	-200,000	0,003	0,056
-280,730	-84,566	-0,059	-0,013
-279,716	800,000	-0,069	-0,162
-278,701	13,919	0,026	0,015
-277,686	-75,307	-0,041	0,011
-276,672	272,323	-0,061	0,078
-275,657	-200,000	0,031	-0,159
-274,643	-200,000	-0,035	-0,216
-273,628	-200,000	0,031	-0,109
-272,613	-103,120	0,046	0,008
-271,599	-91,994	0,128	-0,026
-270,584	-111,990	0,097	0,014
-269,570	-66,792	-0,147	-0,042
-268,555	-164,446	0,121	-0,004
-267,540	539,324	-0,052	0,090
-266,526	-28,878	-0,186	0,077
-265,511	800,000	-0,041	0,094
-264,497	278,599	-0,056	0,072
-263,482	164,378	-0,088	0,090
-262,467	323,093	0,009	0,012
-261,453	-2,006	-0,089	0,045
-260,438	-102,078	-0,082	-0,014
-259,424	-190,998	0,099	-0,001
-258,409	193,775	0,071	0,078
-257,395	-20,620	0,141	0,062
-256,380	161,904	-0,066	0,067
-255,365	-200,000	0,011	0,081
-254,351	-76,675	-0,056	-0,014
-253,336	-200,000	-0,014	-0,071
-252,322	590,040	-0,028	-0,050
-251,307	-19,017	0,093	0,041
-250,292	-19,671	-0,064	0,029
-249,278	-200,000	-0,002	-0,024
-248,263	-103,804	0,058	0,010
-247,249	-42,720	0,019	0,007
-246,234	-71,856	-0,151	-0,040
-245,219	151,526	0,031	-0,030
-244,205	-134,060	-0,128	0,011
-243,190	-200,000	0,001	-0,117
-242,176	-200,000	0,021	0,109
-241,161	195,716	-0,099	0,109
-240,146	-181,600	0,121	-0,002
-239,132	-200,000	-0,015	0,151
-238,117	-173,585	0,044	0,001
-237,103	-144,851	-0,127	-0,008
-236,088	731,265	-0,033	-0,064
-235,073	282,609	0,050	-0,065
-234,059	-200,000	0,018	-0,139
-233,044	-200,000	0,003	0,017
-232,030	133,152	0,022	-0,021
-231,015	800,000	0,072	-0,167
-230,000	557,218	-0,055	-0,095
-228,986	76,498	-0,099	0,076
-227,971	34,124	-0,007	-0,005
-226,957	175,597	0,030	0,031
-225,942	111,640	0,067	-0,058
-224,927	219,964	-0,028	-0,033
-223,913	800,000	0,018	-0,052
-222,898	800,000	0,036	-0,082
-221,884	-114,102	-0,143	0,020
-220,869	-200,000	-0,060	0,200
-219,855	800,000	-0,026	0,075
-218,840	-66,661	0,066	0,019
-217,825	-200,000	-0,010	0,048
-216,811	-11,002	0,163	-0,077
-215,796	-147,092	-0,072	0,004
-214,782	50,920	-0,041	-0,028
-213,767	-200,000	0,007	-0,089
-212,752	17,910	0,058	-0,033
-211,738	-200,000	0,009	0,127
-210,723	-200,000	-0,005	0,037
-209,709	308,857	-0,051	-0,069
-208,694	-90,272	-0,093	-0,019
-207,679	800,000	-0,021	0,053
-206,665	-200,000	-0,008	-0,042
-205,650	-70,546	0,070	0,019
-204,636	-193,446	0,085	-0,001
-203,621	2,240	0,093	-0,048
-202,606	-55,603	0,108	0,035
-201,592	800,000	-0,045	-0,122
-200,577	800,000	0,045	-0,091
-199,563	607,718	0,021	-0,038
-198,548	-116,187	0,069	0,009
-197,533	16,702	0,080	0,046
-196,519	-200,000	-0,012	0,160
-195,504	-96,042	-0,157	-0,030
-194,490	-53,571	-0,030	0,010
-193,475	-200,000	-0,002	0,037
-192,460	622,820	0,010	-0,019
-191,446	22,884	-0,079	0,046
-190,431	-200,000	-0,001	0,090
-189,417	-86,701	0,088	0,019
-188,402	-31,305	0,067	0,027
-187,387	705,980	-0,053	-0,102
-186,373	-200,000	0,013	-0,135
-185,358	399,202	0,035	0,053
-184,344	64,746	0,111	0,081
-183,329	748,590	-0,018	-0,035
-182,315	-200,000	0,004	0,082
-181,300	800,000	0,062	-0,129
-180,285	-200,000	-0,007	-0,183
-179,271	61,385	0,094	0,068
-178,256	-90,191	0,086	-0,018
-177,242	-37,921	-0,019	0,007
-176,227	-82,314	0,097	0,023
-175,212	-200,000	0,013	-0,096
-174,198	-200,000	0,017	0,081
-173,183	24,387	-0,103	-0,061
-172,169	-166,746	-0,090	0,003
-171,154	-108,335	-0,100	0,015
-170,139	-101,585	0,194	0,034
-169,125	83,994	0,078	0,062
-168,110	-55,946	-0,220	0,070
-167,096	-133,564	0,049	0,004
-166,081	-82,465	-0,067	0,016
-165,066	-47,330	0,083	-0,029
-164,052	-200,000	0,021	-0,128
-163,037	-127,602	0,077	0,008
-162,023	-200,000	0,008	0,039
-161,008	-54,946	0,094	0,031
-159,993	-44,703	-0,156	-0,056
-158,979	-200,000	0,002	-0,069
-157,964	-16,787	-0,043	-0,020
-156,950	-200,000	-0,010	0,037
-155,935	286,509	-0,036	-0,047
-154,920	-148,723	0,145	-0,008
-153,906	-200,000	-0,021	0,104
-152,891	122,127	0,084	0,076
-151,877	-163,293	-0,041	-0,001
-150,862	52,217	0,067	0,046
-149,847	800,000	0,040	0,096
-148,833	406,426	-0,099	-0,152
-147,818	-25,515	0,029	-0,012
-146,804	-175,502	0,060	0,001
-145,789	-12,081	0,119	0,056
-144,775	-10,945	-0,036	-0,017
-143,760	173,020	0,040	0,042
-142,745	-188,856	0,122	0,001
-141,731	800,000	-0,056	0,160
-140,716	800,000	0,063	0,139
-139,702	439,207	0,081	0,128
-138,687	54,672	0,093	-0,064
-137,672	-200,000	0,002	0,023
-136,658	-200,000	-0,010	-0,075
-135,643	-200,000	0,003	-0,069
-134,629	-44,460	0,157	-0,056
-133,614	-200,000	-0,018	-0,061
-132,599	-154,785	0,178	-0,008
-131,585	800,000	0,043	0,125
-130,570	800,000	0,009	0,024
-129,556	-200,000	-0,002	0,036
-128,541	-200,000	0,002	-0,024
-127,526	402,312	0,051	-0,078
-126,512	-112,763	0,092	0,013
-125,497	-53,236	0,080	0,026
-124,483	-200,000	-0,005	0,025
-123,468	113,039	0,047	0,041
-122,453	30,175	-0,044	0,027
-121,439	64,622	0,024	0,018
-120,424	-200,000	-0,004	-0,049
-119,410	451,744	0,079	0,126
