DTS Sentinel unit serial number:	SN410029Multiplexer serial number:	ORYXHardware model number:	OX2-SRSoftware version number:	ORYX F/W v4,00 Oryx Data Collector v3.7.2.0data status	okinstallation	B5 Nyhavnadifferential loss correction	single-endedforward channel	channel 2reverse channel	N/Adate	2023/12/12time	07:17:13forward acquisition time	300,00reverse acquisition time	0,00gamma	499,1914k internal	0,3157k external	0,3157temperature offset calibration	1,0000default loss term (dB/km)	0,3820temperature slope calibration	1,0000multiplexer offset coefficient	1,0000multiplexer slope coefficient	1,0000fibre end	0,00T internal ref (°C)	15,16T ext. ref 1 (°C)	-1,12T ext. ref 2 (°C)	-1,42length (m)	temperature (°C)	Stokes	anti-Stokes-744,400	-79,184	0,061	-0,015
-743,385	-71,297	-0,288	0,079
-742,371	352,629	0,065	0,095
-741,356	-39,884	-0,175	-0,067
-740,342	-24,179	0,175	-0,077
-739,327	-54,567	-0,144	-0,048
-738,312	-200,000	-0,032	-0,110
-737,298	-88,036	-0,404	0,089
-736,283	-10,663	0,136	0,066
-735,269	-108,463	-0,202	0,032
-734,254	-4,903	0,087	-0,044
-733,239	-71,160	-0,480	-0,132
-732,225	-5,769	0,134	0,068
-731,210	46,466	0,088	0,060
-730,196	121,747	0,091	0,084
-729,181	102,131	-0,092	-0,079
-728,167	-112,055	-0,193	-0,028
-727,152	187,032	-0,150	-0,165
-726,137	529,691	-0,065	-0,113
-725,123	-200,000	-0,007	-0,082
-724,108	800,000	-0,049	-0,154
-723,094	-200,000	0,006	-0,168
-722,079	800,000	-0,066	-0,159
-721,064	450,327	0,027	0,044
-720,050	-18,013	-0,063	0,029
-719,035	-200,000	0,006	-0,111
-718,021	-151,776	-0,075	-0,004
-717,006	-15,499	-0,048	-0,023
-715,991	-134,644	-0,028	-0,002
-714,977	422,117	0,039	-0,062
-713,962	800,000	-0,014	-0,042
-712,948	-200,000	0,009	-0,073
-711,933	-62,552	0,121	-0,037
-710,918	-61,537	0,057	-0,017
-709,904	298,229	-0,046	0,063
-708,889	-200,000	-0,001	-0,060
-707,875	223,372	-0,079	-0,094
-706,860	-108,159	0,156	-0,025
-705,845	111,072	-0,019	-0,017
-704,831	-151,593	-0,009	-0,000
-703,816	61,377	0,065	0,048
-702,802	-200,000	0,000	-0,057
-701,787	50,590	0,082	-0,057
-700,772	-58,951	-0,085	-0,027
-699,758	-200,000	0,008	0,052
-698,743	-55,456	0,062	-0,020
-697,729	-200,000	0,012	-0,040
-696,714	70,910	-0,057	-0,043
-695,699	-162,274	-0,132	-0,005
-694,685	-13,305	-0,068	0,032
-693,670	-53,919	0,057	-0,019
-692,656	-78,263	-0,133	-0,033
-691,641	800,000	0,016	-0,039
-690,627	379,151	0,033	-0,050
-689,612	93,034	-0,036	-0,030
-688,597	-200,000	-0,024	-0,096
-687,583	-200,000	-0,029	-0,137
-686,568	-200,000	0,005	0,044
-685,554	38,060	-0,050	0,033
-684,539	-96,258	0,113	0,022
-683,524	-200,000	0,007	0,185
-682,510	800,000	-0,060	-0,138
-681,495	-200,000	0,001	-0,023
-680,481	471,509	0,026	-0,043
-679,466	276,960	-0,035	-0,045
-678,451	150,984	-0,037	-0,037
-677,437	-61,515	-0,072	-0,022
-676,422	337,494	-0,034	0,049
-675,408	-138,308	-0,092	-0,007
-674,393	-200,000	-0,010	0,056
-673,378	30,745	-0,085	-0,054
-672,364	800,000	-0,094	-0,231
-671,349	-200,000	0,015	-0,214
-670,335	-158,249	0,075	0,003
-669,320	87,735	-0,096	0,078
-668,305	27,579	-0,106	0,065
-667,291	71,492	-0,037	0,028
-666,276	335,934	-0,022	-0,032
-665,262	800,000	-0,058	-0,142
-664,247	29,997	0,069	0,043
-663,232	543,824	0,073	0,128
-662,218	-200,000	0,004	0,015
-661,203	72,056	0,045	-0,034
-660,189	440,071	-0,018	-0,029
-659,174	-200,000	0,004	-0,104
-658,159	211,816	-0,107	-0,124
-657,145	418,287	0,065	-0,102
-656,130	-66,489	0,108	-0,031
-655,116	28,636	-0,058	-0,036
-654,101	-37,517	-0,076	0,030
-653,086	-200,000	-0,015	-0,170
-652,072	-127,880	0,071	-0,007
-651,057	570,300	0,023	-0,042
-650,043	505,402	-0,089	-0,152
-649,028	-70,944	0,095	-0,026
-648,014	112,504	0,092	0,081
-646,999	-33,940	-0,009	0,004
-645,984	29,331	-0,057	0,035
-644,970	26,342	0,059	0,036
-643,955	-98,167	-0,104	-0,020
-642,941	144,143	0,094	-0,092
-641,926	115,902	-0,123	-0,111
-640,911	419,382	0,045	-0,070
-639,897	24,607	0,128	0,078
-638,882	778,802	-0,046	0,093
-637,868	504,071	0,023	0,039
-636,853	-200,000	-0,009	-0,064
-635,838	6,430	-0,117	0,064
-634,824	19,941	0,047	0,028
-633,809	-35,990	-0,054	0,021
-632,795	107,079	0,099	0,086
-631,780	800,000	-0,036	-0,102
-630,765	-124,927	-0,039	-0,004
-629,751	-200,000	0,015	-0,088
-628,736	483,990	-0,058	-0,096
-627,722	-200,000	0,039	-0,160
-626,707	217,985	0,056	-0,065
-625,692	416,935	0,025	0,040
-624,678	-200,000	0,000	0,005
-623,663	-200,000	-0,003	-0,118
-622,649	248,720	-0,094	-0,117
-621,634	-141,632	-0,076	-0,006
-620,619	-121,617	-0,107	-0,013
-619,605	206,858	0,035	0,040
-618,590	-69,910	0,115	-0,032
-617,576	-24,252	0,054	-0,023
-616,561	17,665	0,127	0,074
-615,546	800,000	-0,008	-0,016
-614,532	-75,940	-0,122	0,032
-613,517	297,323	-0,045	0,061
-612,503	332,747	0,038	0,054
-611,488	800,000	0,020	-0,047
-610,474	-200,000	0,009	-0,106
-609,459	49,435	-0,067	0,046
-608,444	800,000	0,025	-0,068
-607,430	180,035	-0,085	-0,092
-606,415	-200,000	0,017	-0,091
-605,401	-200,000	-0,001	0,026
-604,386	-61,475	0,045	-0,014
-603,371	-200,000	0,016	-0,084
-602,357	-58,445	-0,120	0,038
-601,342	103,225	0,092	-0,079
-600,328	-81,642	-0,132	-0,032
-599,313	800,000	-0,026	-0,057
-598,298	800,000	-0,013	-0,029
-597,284	0,570	0,091	0,048
-596,269	-200,000	0,012	0,094
-595,255	79,836	-0,084	0,066
-594,240	-125,857	-0,082	-0,009
-593,225	-200,000	0,024	-0,154
-592,211	-199,605	0,061	-0,000
-591,196	-107,703	0,042	-0,007
-590,182	-200,000	-0,013	0,076
-589,167	-200,000	0,010	0,055
-588,152	361,549	0,059	0,087
-587,138	511,456	-0,039	-0,068
-586,123	175,201	-0,050	0,053
-585,109	-8,559	-0,070	0,034
-584,094	-200,000	-0,001	0,134
-583,079	309,263	0,030	0,042
-582,065	-7,938	0,189	-0,093
-581,050	-40,598	-0,116	0,044
-580,036	-200,000	0,024	-0,083
-579,021	-65,947	-0,057	0,016
-578,006	-13,006	-0,117	-0,055
-576,992	-150,210	-0,045	0,003
-575,977	-200,000	-0,005	-0,132
-574,963	-179,416	0,202	0,003
-573,948	-200,000	-0,001	-0,027
-572,934	71,367	-0,083	0,063
-571,919	-103,346	-0,140	-0,024
-570,904	192,123	0,052	-0,057
-569,890	146,802	-0,113	-0,111
-568,875	-174,583	-0,140	0,003
-567,861	152,549	-0,038	-0,038
-566,846	-45,560	0,023	0,008
-565,831	-200,000	0,016	-0,064
-564,817	64,994	-0,059	-0,043
-563,802	-200,000	-0,002	0,024
-562,788	117,535	0,036	0,033
-561,773	800,000	0,050	0,156
-560,758	142,508	0,052	0,051
-559,744	800,000	0,061	0,146
-558,729	388,089	-0,051	-0,078
-557,715	-200,000	-0,000	0,043
-556,700	202,308	-0,107	-0,121
-555,685	-143,410	-0,036	-0,002
-554,671	800,000	-0,059	-0,145
-553,656	-131,785	0,149	0,014
-552,642	157,213	0,055	0,056
-551,627	-113,271	-0,068	-0,010
-550,612	-200,000	-0,003	0,092
-549,598	9,527	-0,067	0,037
-548,583	8,591	0,030	-0,016
-547,569	-57,594	-0,056	-0,018
-546,554	328,196	0,069	0,097
-545,539	36,719	0,096	0,062
-544,525	28,498	-0,154	0,095
-543,510	268,983	-0,042	-0,054
-542,496	800,000	0,039	0,082
-541,481	147,447	0,099	-0,098
-540,466	463,320	-0,057	-0,094
-539,452	54,873	-0,096	-0,068
-538,437	800,000	0,044	-0,101
-537,423	-200,000	-0,026	0,096
-536,408	800,000	-0,032	-0,067
-535,393	800,000	-0,064	-0,159
-534,379	800,000	-0,064	-0,154
-533,364	-200,000	-0,033	0,125
-532,350	26,604	-0,101	-0,062
-531,335	-113,117	-0,100	-0,014
-530,321	56,099	-0,035	0,025
-529,306	102,000	-0,053	0,045
-528,291	-3,214	0,077	-0,039
-527,277	800,000	-0,058	-0,131
-526,262	-106,451	0,115	-0,019
-525,248	800,000	0,023	0,054
-524,233	359,743	0,048	0,070
-523,218	-117,813	0,072	-0,009
-522,204	-121,502	0,128	0,015
-521,189	-94,108	-0,191	-0,038
-520,175	800,000	0,044	-0,132
-519,160	800,000	-0,059	-0,175
-518,145	74,615	-0,036	0,027
-517,131	-200,000	0,013	0,105
-516,116	800,000	-0,047	0,137
-515,102	1,395	-0,062	0,032
-514,087	549,818	-0,044	0,077
-513,072	155,651	-0,032	0,032
-512,058	-200,000	-0,013	0,110
-511,043	-80,458	0,126	-0,030
-510,029	-1,545	0,121	0,062
-509,014	98,567	0,064	0,054
-507,999	-200,000	-0,012	0,077
-506,985	-200,000	-0,010	-0,039
-505,970	-200,000	-0,013	-0,044
-504,956	-57,268	-0,088	0,028
-503,941	671,852	-0,040	0,075
-502,926	-112,761	0,126	0,018
-501,912	78,401	-0,076	-0,059
-500,897	-200,000	-0,000	0,029
-499,883	123,231	-0,030	0,028
-498,868	-200,000	-0,058	-0,188
-497,853	676,070	-0,060	-0,113
-496,839	-138,396	0,071	-0,006
-495,824	-200,000	0,001	0,124
-494,810	124,905	0,081	0,075
-493,795	0,978	0,117	-0,061
-492,781	-8,412	-0,123	-0,060
-491,766	51,176	-0,079	-0,055
-490,751	800,000	-0,006	-0,020
-489,737	-33,620	0,067	-0,027
-488,722	800,000	-0,011	-0,031
-487,708	-151,354	0,039	-0,002
-486,693	-200,000	-0,014	-0,066
-485,678	-124,851	-0,129	0,014
-484,664	-74,375	0,020	0,005
-483,649	112,517	0,055	-0,048
-482,635	800,000	0,058	-0,145
-481,620	800,000	0,026	0,074
-480,605	419,295	-0,011	0,017
-479,591	224,631	-0,038	-0,045
-478,576	-200,000	-0,005	-0,022
-477,562	-41,748	0,049	-0,018
-476,547	-200,000	-0,004	0,053
-475,532	584,237	-0,022	0,040
-474,518	-200,000	0,006	0,054
-473,503	800,000	0,029	0,078
-472,489	195,912	0,071	0,078
-471,474	800,000	0,010	-0,030
-470,459	-200,000	0,006	-0,042
-469,445	674,863	-0,044	-0,084
-468,430	800,000	-0,030	0,084
-467,416	-200,000	-0,039	-0,181
-466,401	150,581	0,065	-0,065
-465,386	800,000	-0,042	-0,094
-464,372	323,656	0,063	-0,088
-463,357	-26,573	0,131	-0,056
-462,343	788,724	-0,038	0,077
-461,328	-31,754	-0,040	-0,016
-460,313	-175,011	0,028	-0,001
-459,299	-200,000	-0,001	0,065
-458,284	800,000	-0,032	0,089
-457,270	-62,614	-0,031	-0,009
-456,255	-200,000	0,009	0,060
-455,241	-200,000	-0,015	0,126
-454,226	-200,000	-0,019	-0,069
-453,211	800,000	0,039	-0,106
-452,197	-200,000	-0,011	0,078
-451,182	-39,384	0,063	0,024
-450,168	163,739	-0,050	-0,051
-449,153	-200,000	0,006	-0,095
-448,138	-200,000	-0,007	0,054
-447,124	-200,000	0,014	-0,052
-446,109	800,000	0,044	-0,092
-445,095	-200,000	0,027	0,140
-444,080	-124,504	-0,036	0,004
-443,065	-80,143	-0,033	0,008
-442,051	139,648	-0,097	-0,093
-441,036	-200,000	-0,003	-0,049
-440,022	732,397	0,069	0,134
-439,007	329,995	0,017	-0,023
-437,992	-200,000	-0,002	0,066
-436,978	-200,000	0,037	0,141
-435,963	198,348	-0,051	-0,056
-434,949	800,000	0,038	0,100
-433,934	-22,988	0,009	-0,004
-432,919	478,320	-0,043	-0,071
-431,905	14,743	-0,029	-0,016
-430,890	120,792	0,032	-0,029
-429,876	29,151	0,101	-0,062
-428,861	26,907	-0,094	-0,057
-427,846	-200,000	0,008	-0,057
-426,832	-88,563	-0,081	-0,017
-425,817	800,000	-0,019	0,055
-424,803	-101,998	-0,054	-0,009
-423,788	800,000	0,038	-0,088
-422,773	94,143	0,044	0,036
-421,759	-4,800	0,097	0,048
-420,744	651,234	0,076	-0,142
-419,730	-53,143	0,140	0,046
-418,715	59,087	0,072	0,052
-417,701	-200,000	0,007	-0,097
-416,686	654,788	0,047	0,087
-415,671	800,000	0,034	0,104
-414,657	-121,879	0,042	0,005
-413,642	44,375	-0,014	0,009
-412,628	-200,000	-0,006	0,089
-411,613	81,445	-0,056	0,044
-410,598	581,205	-0,054	0,097
-409,584	-29,148	0,163	-0,068
-408,569	-200,000	0,001	0,045
-407,555	225,618	0,045	0,053
-406,540	-46,993	0,146	0,052
-405,525	-57,503	-0,202	-0,064
-404,511	-36,391	0,092	0,036
-403,496	-200,000	0,002	-0,156
-402,482	-88,023	0,087	-0,019
-401,467	424,281	0,077	0,121
-400,452	174,967	0,160	0,169
-399,438	46,546	-0,080	0,054
-398,423	-139,589	-0,112	-0,009
-397,409	-200,000	-0,015	0,117
-396,394	471,616	-0,041	-0,067
-395,379	-0,429	0,141	-0,072
-394,365	-42,785	0,132	0,049
-393,350	-80,347	0,111	0,027
-392,336	262,035	0,064	0,081
-391,321	35,157	0,073	-0,046
-390,306	-42,342	0,110	0,041
-389,292	-58,450	-0,175	-0,055
-388,277	213,956	0,093	-0,107
-387,263	168,794	0,160	0,166
-386,248	724,348	0,058	0,114
-385,233	-200,000	-0,017	0,125
-384,219	800,000	0,026	0,067
-383,204	-200,000	-0,014	-0,061
-382,190	800,000	0,026	-0,074
-381,175	800,000	-0,012	0,026
-380,160	199,372	0,099	-0,110
-379,146	-200,000	-0,012	-0,053
-378,131	474,811	-0,025	0,041
-377,117	-200,000	0,043	0,201
-376,102	-14,686	0,041	-0,019
-375,088	800,000	0,026	0,057
-374,073	443,102	0,034	0,055
-373,058	262,752	0,049	0,062
-372,044	-112,318	-0,063	-0,009
-371,029	-200,000	0,025	0,184
-370,015	800,000	0,081	0,178
-369,000	122,082	-0,070	-0,063
-367,985	-132,942	-0,119	0,011
-366,971	91,591	0,058	-0,047
-365,956	-165,060	-0,080	0,003
-364,942	-92,904	0,067	0,013
-363,927	-10,892	0,121	0,058
-362,912	-115,559	0,007	-0,001
-361,898	35,251	-0,072	-0,046
-360,883	201,359	0,061	-0,068
-359,869	-200,000	0,003	-0,084
-358,854	-113,521	-0,056	-0,008
-357,839	554,873	0,073	-0,128
-356,825	-76,489	-0,072	0,018
-355,810	51,836	0,038	0,026
-354,796	800,000	-0,031	-0,077
-353,781	-96,549	-0,173	-0,033
-352,766	-200,000	-0,000	0,071
-351,752	-38,044	0,056	0,021
-350,737	-46,535	0,074	-0,026
-349,723	-17,963	0,019	-0,009
-348,708	-116,844	0,111	-0,015
-347,693	800,000	0,016	0,039
-346,679	-85,331	-0,091	0,020
-345,664	-200,000	-0,013	-0,068
-344,650	-26,317	-0,104	-0,044
-343,635	366,263	0,031	0,046
-342,620	800,000	-0,035	-0,087
-341,606	-41,313	-0,114	-0,042
-340,591	-103,625	0,048	-0,008
-339,577	-200,000	-0,043	-0,160
-338,562	-11,823	-0,098	-0,047
-337,548	-200,000	-0,003	-0,039
-336,533	435,611	0,066	0,105
-335,518	108,650	-0,012	0,010
-334,504	800,000	0,036	0,106
-333,489	-91,460	-0,097	0,020
-332,475	-200,000	-0,016	-0,106
-331,460	-106,285	-0,154	-0,025
-330,445	-200,000	0,034	-0,142
-329,431	314,933	0,039	-0,054
-328,416	602,345	-0,048	0,087
-327,402	-200,000	0,028	0,142
-326,387	295,945	0,037	0,050
-325,372	389,530	-0,077	-0,117
-324,358	-9,885	-0,038	-0,018
-323,343	-95,489	-0,070	0,013
-322,329	267,791	0,096	-0,122
-321,314	9,085	-0,073	0,040
-320,299	800,000	-0,021	-0,056
-319,285	1,915	0,131	0,068
-318,270	-200,000	-0,020	-0,091
-317,256	-200,000	0,003	0,067
-316,241	79,680	-0,027	-0,021
-315,226	-15,228	-0,041	0,019
-314,212	-200,000	-0,034	0,158
-313,197	-115,135	0,108	0,015
-312,183	-200,000	0,002	0,038
-311,168	-24,385	0,008	0,003
-310,153	456,773	0,052	-0,084
-309,139	91,472	0,054	-0,044
-308,124	-115,208	0,111	-0,015
-307,110	-44,176	0,135	0,049
-306,095	-100,103	0,095	0,017
-305,080	64,513	0,092	-0,067
-304,066	-200,000	-0,004	-0,160
-303,051	-13,939	0,048	-0,022
-302,037	-200,000	-0,017	0,103
-301,022	42,788	-0,110	0,072
-300,008	800,000	0,055	0,157
-298,993	666,691	-0,059	0,111
-297,978	97,957	0,084	0,070
-296,964	1,235	-0,129	0,067
-295,949	-13,907	-0,113	-0,053
-294,935	-200,000	0,007	0,105
-293,920	174,034	-0,053	-0,055
-292,905	800,000	0,062	0,146
-291,891	-200,000	0,004	-0,159
-290,876	150,390	-0,040	0,039
-289,862	49,379	-0,022	0,015
-288,847	125,544	-0,019	0,017
-287,832	-23,097	0,084	0,037
-286,818	54,703	-0,028	-0,020
-285,803	-87,832	0,064	-0,014
-284,789	-200,000	-0,017	0,132
-283,774	491,422	0,085	0,142
-282,759	790,738	0,050	0,100
-281,745	-200,000	-0,010	-0,034
-280,730	800,000	-0,041	-0,117
-279,716	-33,758	0,065	-0,026
-278,701	-156,912	0,115	0,005
-277,686	-17,817	-0,091	0,041
-276,672	-76,224	-0,080	-0,020
-275,657	-24,430	0,028	0,012
-274,643	208,427	0,003	0,003
-273,628	-200,000	0,021	0,158
-272,613	-115,090	0,089	0,012
-271,599	-90,659	-0,189	0,039
-270,584	-127,144	0,039	0,004
-269,570	56,624	0,025	0,017
-268,555	-90,829	0,138	-0,028
-267,540	-200,000	0,003	-0,090
-266,526	-95,256	-0,149	-0,029
-265,511	-37,682	-0,106	-0,041
-264,497	412,577	0,050	-0,078
-263,482	-105,858	0,114	0,018
-262,467	131,188	-0,052	0,048
-261,453	800,000	-0,097	-0,209
-260,438	358,911	-0,047	-0,069
-259,424	800,000	0,028	-0,057
-258,409	103,319	-0,131	0,111
-257,395	183,687	-0,035	0,038
-256,380	800,000	0,042	0,116
-255,365	-189,854	0,177	-0,001
-254,351	-200,000	-0,000	0,017
-253,336	-7,458	0,023	-0,011
-252,322	440,822	0,025	-0,040
-251,307	-77,065	-0,128	0,032
-250,292	71,897	0,081	0,061
-249,278	146,974	-0,068	0,066
-248,263	136,024	0,046	-0,043
-247,249	-200,000	0,005	-0,022
-246,234	-200,000	0,020	-0,072
-245,219	42,911	-0,039	-0,025
-244,205	-144,172	-0,053	0,004
-243,190	800,000	0,014	0,038
-242,176	123,649	-0,059	0,054
-241,161	60,361	0,073	0,052
-240,146	-111,460	0,024	0,004
-239,132	-47,885	-0,081	0,028
-238,117	169,783	0,117	-0,120
-237,103	800,000	0,019	-0,038
-236,088	-111,557	-0,054	-0,008
-235,073	310,345	-0,036	-0,049
-234,059	-50,492	0,012	-0,004
-233,044	370,906	0,097	0,143
-232,030	-8,137	-0,165	0,080
-231,015	270,420	-0,048	-0,061
-230,000	139,886	0,060	-0,057
-228,986	212,767	-0,059	-0,067
-227,971	800,000	-0,055	-0,149
-226,957	-200,000	0,004	0,082
-225,942	800,000	0,029	-0,069
-224,927	-48,395	-0,124	0,043
-223,913	800,000	-0,024	-0,065
-222,898	-45,595	0,058	-0,021
-221,884	-200,000	-0,006	-0,094
-220,869	15,827	-0,057	-0,032
-219,855	-200,000	-0,013	0,088
-218,840	-101,524	-0,041	-0,007
-217,825	-183,408	0,093	-0,001
-216,811	157,737	-0,026	-0,026
-215,796	117,245	-0,092	-0,082
-214,782	800,000	0,094	-0,200
-213,767	-64,625	-0,053	-0,016
-212,752	-200,000	-0,000	0,226
-211,738	-110,276	0,050	0,007
-210,723	-200,000	-0,033	0,146
-209,709	800,000	-0,066	0,175
-208,694	800,000	0,039	-0,104
-207,679	180,482	-0,105	-0,112
-206,665	-200,000	-0,138	0,000
-205,650	-94,670	0,155	-0,030
-204,636	800,000	-0,036	0,090
-203,621	764,186	-0,036	0,072
-202,606	182,056	-0,057	0,061
-201,592	-41,882	0,035	0,013
-200,577	800,000	0,049	-0,128
-199,563	-200,000	0,002	-0,134
-198,548	-200,000	-0,002	-0,041
-197,533	-200,000	0,013	-0,081
-196,519	72,449	-0,103	0,077
-195,504	69,221	-0,079	0,059
-194,490	257,581	-0,082	0,101
-193,475	-125,238	-0,129	0,014
-192,460	-111,030	0,080	0,012
-191,446	800,000	-0,048	-0,120
-190,431	362,397	0,022	-0,032
-189,417	-200,000	-0,019	0,127
-188,402	-200,000	-0,009	-0,105
-187,387	129,722	-0,032	0,029
-186,373	2,913	-0,049	0,025
-185,358	477,615	-0,037	0,060
-184,344	307,854	0,056	-0,076
-183,329	549,130	0,020	-0,035
-182,315	-113,039	0,126	-0,018
-181,300	158,171	0,076	0,076
-180,285	226,252	-0,077	0,091
-179,271	-200,000	0,022	-0,126
-178,256	37,680	-0,159	0,102
-177,242	196,054	0,052	-0,057
-176,227	-200,000	-0,006	0,053
-175,212	-24,970	-0,077	0,033
-174,198	-62,686	-0,087	-0,026
-173,183	104,099	0,038	-0,033
-172,169	40,676	0,077	-0,050
-171,154	171,932	-0,097	-0,101
-170,139	268,222	0,035	0,044
-169,125	628,414	0,048	0,087
-168,110	57,095	-0,075	-0,053
-167,096	-200,000	0,004	0,084
-166,081	202,005	-0,003	0,003
-165,066	155,284	-0,085	0,085
-164,052	-118,604	0,109	0,014
-163,037	-200,000	-0,010	-0,142
-162,023	-107,921	-0,016	-0,002
-161,008	-200,000	-0,015	0,143
-159,993	-72,265	0,143	0,038
-158,979	518,461	0,020	-0,034
-157,964	800,000	-0,040	0,088
-156,950	203,778	0,084	-0,094
-155,935	-200,000	-0,008	-0,028
-154,920	-16,910	0,100	0,045
-153,906	71,177	-0,073	0,054
-152,891	469,188	0,047	0,076
-151,877	428,988	-0,031	-0,048
-150,862	545,742	0,013	-0,022
-149,847	-7,418	-0,084	-0,041
-148,833	-200,000	0,022	-0,104
-147,818	31,537	0,117	0,072
-146,804	420,862	0,033	0,050
-145,789	-22,491	0,188	-0,081
-144,775	800,000	-0,059	-0,179
-143,760	800,000	0,058	-0,144
-142,745	-200,000	-0,008	-0,073
-141,731	800,000	0,061	-0,149
-140,716	40,663	0,096	0,062
-139,702	-72,227	0,081	0,022
-138,687	272,629	-0,043	0,055
-137,672	-200,000	0,009	0,078
-136,658	96,401	-0,078	0,064
-135,643	-200,000	0,020	-0,069
-134,629	10,762	-0,068	-0,037
-133,614	-172,745	0,122	0,003
-132,599	176,961	0,006	0,006
-131,585	-162,137	0,045	0,002
-130,570	316,912	-0,057	0,077
-129,556	-200,000	-0,014	-0,117
-128,541	-93,239	-0,139	-0,028
-127,526	-200,000	0,043	-0,137
-126,512	-200,000	0,004	-0,015
-125,497	215,979	0,063	0,072
-124,483	800,000	0,019	0,052
-123,468	-200,000	0,036	0,156
-122,453	800,000	-0,035	-0,076
-121,439	-136,709	-0,047	0,004
-120,424	434,505	0,007	0,011
