DTS Sentinel unit serial number:	SN410029Multiplexer serial number:	ORYXHardware model number:	OX2-SRSoftware version number:	ORYX F/W v4,00 Oryx Data Collector v3.7.2.0data status	okinstallation	B5 Nyhavnadifferential loss correction	single-endedforward channel	channel 2reverse channel	N/Adate	2023/12/13time	21:32:13forward acquisition time	300,00reverse acquisition time	0,00gamma	499,1914k internal	0,3156k external	0,3156temperature offset calibration	1,0000default loss term (dB/km)	0,3820temperature slope calibration	1,0000multiplexer offset coefficient	1,0000multiplexer slope coefficient	1,0000fibre end	0,00T internal ref (°C)	9,93T ext. ref 1 (°C)	-6,91T ext. ref 2 (°C)	-6,94length (m)	temperature (°C)	Stokes	anti-Stokes-744,400	-120,046	0,124	0,016
-743,385	-174,456	-0,406	-0,008
-742,371	311,119	0,155	0,215
-741,356	-117,735	-0,304	-0,040
-740,342	121,825	0,144	0,133
-739,327	-14,990	-0,389	-0,183
-738,312	2,073	0,140	0,074
-737,298	-21,547	-0,385	-0,172
-736,283	-48,613	0,156	0,055
-735,269	72,215	-0,192	0,147
-734,254	345,640	0,120	-0,174
-733,239	7,768	-0,568	-0,313
-732,225	-46,609	0,291	0,105
-731,210	-200,000	0,027	0,224
-730,196	-147,147	-0,028	0,002
-729,181	-63,464	-0,027	0,008
-728,167	365,826	0,097	0,145
-727,152	-183,343	-0,078	0,001
-726,137	515,328	-0,030	-0,051
-725,123	-70,705	-0,061	-0,017
-724,108	800,000	-0,027	0,066
-723,094	48,104	-0,132	-0,091
-722,079	-15,828	0,024	0,011
-721,064	800,000	0,016	-0,037
-720,050	773,449	0,025	-0,050
-719,035	8,124	-0,136	-0,075
-718,021	-200,000	0,026	0,108
-717,006	91,067	-0,072	-0,059
-715,991	-200,000	-0,014	0,051
-714,977	-200,000	-0,005	-0,092
-713,962	76,689	0,069	-0,054
-712,948	308,867	-0,105	0,145
-711,933	-48,933	-0,121	0,043
-710,918	580,848	-0,035	0,064
-709,904	-200,000	0,012	0,078
-708,889	88,071	0,028	-0,023
-707,875	415,637	-0,119	-0,188
-706,860	800,000	0,053	0,166
-705,845	152,911	0,091	0,092
-704,831	-24,931	-0,046	-0,020
-703,816	48,143	0,034	0,024
-702,802	-200,000	-0,020	-0,116
-701,787	106,130	-0,065	0,057
-700,772	287,442	-0,094	-0,125
-699,758	134,414	0,093	-0,088
-698,743	479,335	-0,006	-0,011
-697,729	800,000	0,058	0,131
-696,714	480,742	-0,079	-0,132
-695,699	21,605	-0,026	0,016
-694,685	41,954	-0,164	-0,110
-693,670	-99,958	-0,096	-0,017
-692,656	-91,694	0,144	0,030
-691,641	264,081	-0,093	0,119
-690,627	-200,000	0,024	0,136
-689,612	800,000	-0,003	0,006
-688,597	800,000	-0,019	-0,045
-687,583	-200,000	-0,005	-0,028
-686,568	-83,672	-0,075	0,017
-685,554	25,245	-0,125	-0,076
-684,539	-28,600	0,059	-0,025
-683,524	-200,000	0,024	-0,089
-682,510	111,097	-0,069	-0,061
-681,495	-179,739	-0,159	0,002
-680,481	-125,656	0,034	-0,004
-679,466	800,000	0,009	0,020
-678,451	-1,720	0,067	-0,035
-677,437	-115,568	0,075	-0,010
-676,422	756,448	-0,008	0,015
-675,408	-52,079	-0,074	0,025
-674,393	264,149	-0,041	0,052
-673,378	-192,209	-0,125	0,001
-672,364	183,973	-0,128	-0,139
-671,349	-2,794	0,047	-0,024
-670,335	-57,231	-0,182	0,059
-669,320	-164,285	0,079	-0,003
-668,305	-45,792	-0,048	0,017
-667,291	800,000	-0,027	-0,079
-666,276	504,923	-0,061	0,104
-665,262	310,765	-0,017	-0,023
-664,247	114,201	-0,091	-0,082
-663,232	8,406	-0,058	-0,032
-662,218	291,275	-0,057	0,077
-661,203	234,540	0,038	0,046
-660,189	-90,330	-0,038	-0,008
-659,174	-78,165	-0,195	0,049
-658,159	-200,000	0,014	-0,169
-657,145	800,000	-0,040	-0,113
-656,130	230,936	0,007	-0,008
-655,116	527,455	-0,046	-0,080
-654,101	37,413	-0,067	-0,044
-653,086	-200,000	-0,026	0,208
-652,072	-45,270	-0,140	-0,051
-651,057	-89,193	-0,082	0,018
-650,043	-99,416	0,059	-0,011
-649,028	-65,333	-0,257	0,075
-648,014	84,877	0,137	0,111
-646,999	293,662	-0,088	0,118
-645,984	-126,364	0,084	0,009
-644,970	615,946	-0,059	0,109
-643,955	62,211	-0,076	0,055
-642,941	-31,722	-0,141	-0,058
-641,926	0,078	-0,092	0,048
-640,911	12,431	0,058	-0,033
-639,897	-200,000	0,006	0,106
-638,882	800,000	0,045	-0,144
-637,868	-200,000	0,026	0,111
-636,853	168,446	-0,028	0,029
-635,838	429,265	-0,117	-0,187
-634,824	-200,000	0,001	-0,111
-633,809	-19,730	-0,100	-0,045
-632,795	217,597	-0,010	-0,012
-631,780	138,445	-0,074	0,072
-630,765	15,099	0,174	0,100
-629,751	-82,435	-0,151	-0,036
-628,736	-200,000	-0,022	-0,144
-627,722	-200,000	0,018	0,063
-626,707	-200,000	0,003	0,065
-625,692	280,110	0,040	-0,053
-624,678	698,602	-0,020	-0,040
-623,663	-200,000	0,002	-0,032
-622,649	-0,031	-0,135	0,070
-621,634	-200,000	-0,011	0,087
-620,619	-87,576	-0,126	-0,028
-619,605	-90,735	-0,098	0,021
-618,590	76,131	0,018	-0,014
-617,576	-200,000	0,035	0,168
-616,561	70,671	0,057	0,043
-615,546	639,954	-0,049	-0,092
-614,532	180,613	-0,073	-0,079
-613,517	438,381	0,027	-0,044
-612,503	-200,000	0,024	0,124
-611,488	-165,756	0,007	-0,000
-610,474	-20,967	-0,022	-0,010
-609,459	-37,291	0,062	0,024
-608,444	312,277	0,124	0,171
-607,430	-200,000	-0,010	-0,111
-606,415	800,000	-0,042	-0,106
-605,401	631,933	0,020	-0,038
-604,386	29,363	0,012	-0,008
-603,371	800,000	0,033	0,072
-602,357	-23,202	0,073	-0,032
-601,342	4,802	0,121	-0,065
-600,328	800,000	-0,030	-0,074
-599,313	800,000	-0,017	-0,039
-598,298	-77,081	-0,066	-0,017
-597,284	800,000	0,018	0,042
-596,269	-200,000	-0,005	0,098
-595,255	800,000	0,033	0,086
-594,240	-17,863	-0,127	-0,058
-593,225	-200,000	0,000	0,037
-592,211	273,729	0,046	-0,060
-591,196	800,000	0,029	0,084
-590,182	-200,000	0,005	0,100
-589,167	22,149	0,036	-0,021
-588,152	-200,000	-0,033	-0,143
-587,138	145,808	-0,036	0,035
-586,123	-200,000	0,006	-0,094
-585,109	800,000	0,042	0,113
-584,094	95,635	-0,037	-0,031
-583,079	-156,021	0,080	-0,004
-582,065	800,000	0,059	0,178
-581,050	-200,000	0,025	0,098
-580,036	152,167	-0,023	0,023
-579,021	800,000	-0,027	-0,055
-578,006	43,536	0,040	-0,027
-576,992	103,247	-0,113	-0,097
-575,977	109,763	0,091	0,080
-574,963	140,203	0,074	0,072
-573,948	-200,000	-0,039	0,211
-572,934	-86,709	-0,078	0,017
-571,919	-200,000	-0,001	-0,057
-570,904	-200,000	0,013	0,074
-569,890	236,405	0,047	-0,057
-568,875	45,825	0,088	0,060
-567,861	800,000	-0,053	0,112
-566,846	800,000	-0,053	0,134
-565,831	425,121	-0,049	-0,078
-564,817	-104,980	0,110	-0,018
-563,802	36,347	-0,114	0,074
-562,788	-127,845	-0,108	0,011
-561,773	-6,064	0,185	0,092
-560,758	23,906	-0,075	0,045
-559,744	7,739	-0,090	0,049
-558,729	192,986	0,048	-0,054
-557,715	-200,000	-0,031	-0,114
-556,700	301,783	-0,042	0,058
-555,685	201,666	-0,174	-0,196
-554,671	108,456	0,057	-0,050
-553,656	800,000	-0,023	-0,051
-552,642	-0,834	0,119	-0,061
-551,627	-200,000	-0,014	0,070
-550,612	-81,763	0,083	-0,020
-549,598	-200,000	0,016	-0,144
-548,583	525,474	-0,047	-0,082
-547,569	185,969	-0,069	-0,075
-546,554	259,329	0,049	0,061
-545,539	-164,292	-0,095	-0,003
-544,525	-200,000	-0,004	-0,042
-543,510	101,963	-0,041	0,035
-542,496	100,332	0,079	0,067
-541,481	-171,026	0,084	0,002
-540,466	-200,000	0,022	-0,084
-539,452	55,282	-0,038	0,027
-538,437	-200,000	-0,040	-0,195
-537,423	506,708	0,053	-0,091
-536,408	-139,850	-0,124	0,010
-535,393	-200,000	0,007	-0,048
-534,379	345,728	-0,105	-0,152
-533,364	-22,548	0,125	-0,055
-532,350	-12,498	-0,010	-0,005
-531,335	-200,000	0,018	0,163
-530,321	800,000	-0,020	0,065
-529,306	103,105	0,049	-0,042
-528,291	-115,256	-0,104	-0,014
-527,277	135,265	-0,119	-0,113
-526,262	-32,040	0,129	0,052
-525,248	457,933	-0,099	0,161
-524,233	82,686	0,027	-0,021
-523,218	53,658	0,111	0,078
-522,204	637,912	-0,012	0,023
-521,189	22,918	-0,068	0,041
-520,175	475,162	-0,074	-0,123
-519,160	-117,189	-0,115	0,015
-518,145	-65,109	0,018	-0,005
-517,131	154,223	0,075	-0,075
-516,116	-200,000	0,013	-0,046
-515,102	607,478	-0,036	0,065
-514,087	-37,707	-0,184	-0,071
-513,072	-200,000	0,002	0,020
-512,058	-27,048	-0,081	-0,035
-511,043	-200,000	-0,006	0,121
-510,029	-200,000	0,017	-0,080
-509,014	-53,067	-0,076	-0,025
-507,999	-200,000	-0,015	0,083
-506,985	27,036	-0,077	-0,047
-505,970	-13,202	-0,081	0,038
-504,956	800,000	0,022	-0,045
-503,941	523,334	0,067	-0,116
-502,926	-200,000	-0,002	0,074
-501,912	-44,128	0,073	0,026
-500,897	-200,000	-0,002	-0,105
-499,883	74,181	0,046	0,036
-498,868	494,800	-0,036	-0,061
-497,853	-200,000	0,019	-0,136
-496,839	128,845	0,028	0,026
-495,824	800,000	-0,023	0,069
-494,810	549,753	-0,050	-0,088
-493,795	-15,484	0,050	-0,023
-492,781	-176,549	-0,053	-0,001
-491,766	22,659	0,049	-0,029
-490,751	-200,000	-0,005	-0,033
-489,737	-49,588	0,065	-0,022
-488,722	221,623	0,073	0,086
-487,708	-200,000	-0,006	0,049
-486,693	362,533	-0,087	0,128
-485,678	43,805	-0,115	-0,077
-484,664	-27,203	-0,235	0,099
-483,649	206,845	0,064	0,073
-482,635	-200,000	0,004	-0,058
-481,620	213,904	0,095	0,110
-480,605	-37,726	-0,093	0,036
-479,591	-124,668	0,050	0,006
-478,576	800,000	0,042	0,111
-477,562	3,142	-0,165	-0,087
-476,547	-97,119	-0,134	-0,025
-475,532	9,543	-0,048	-0,026
-474,518	-85,002	0,101	-0,023
-473,503	-76,378	0,153	-0,039
-472,489	-200,000	-0,020	0,070
-471,474	-29,155	0,208	0,087
-470,459	-86,518	0,101	-0,022
-469,445	-24,646	-0,120	-0,052
-468,430	800,000	-0,025	-0,062
-467,416	-99,495	0,054	0,010
-466,401	-200,000	-0,011	-0,041
-465,386	-79,951	-0,093	0,023
-464,372	-127,162	0,130	0,014
-463,357	-22,173	-0,098	-0,043
-462,343	264,849	0,067	0,085
-461,328	-200,000	-0,019	-0,075
-460,313	-154,617	0,063	0,003
-459,299	21,496	0,138	-0,082
-458,284	427,310	0,065	0,103
-457,270	800,000	0,060	-0,181
-456,255	647,244	-0,015	0,028
-455,241	-38,375	-0,159	-0,061
-454,226	-164,101	0,065	0,002
-453,211	-91,580	0,030	-0,006
-452,197	-171,381	0,040	0,001
-451,182	-200,000	-0,007	0,028
-450,168	670,388	0,033	-0,063
-449,153	157,188	0,097	0,098
-448,138	-200,000	0,017	-0,060
-447,124	-200,000	-0,018	-0,141
-446,109	236,615	0,055	-0,067
-445,095	-116,536	0,024	-0,003
-444,080	-106,320	0,147	0,024
-443,065	800,000	-0,014	0,030
-442,051	-69,264	0,142	-0,040
-441,036	52,938	-0,054	-0,038
-440,022	126,725	0,124	0,114
-439,007	61,502	-0,054	0,039
-437,992	174,854	-0,021	0,023
-436,978	-115,761	-0,143	0,019
-435,963	-147,547	-0,014	0,001
-434,949	-101,600	-0,175	-0,031
-433,934	-200,000	0,033	-0,172
-432,919	-4,339	0,031	-0,016
-431,905	28,618	-0,112	-0,069
-430,890	-139,930	0,112	-0,009
-429,876	-146,818	0,019	0,001
-428,861	-64,829	-0,028	0,008
-427,846	-8,082	0,041	-0,020
-426,832	-200,000	0,014	-0,151
-425,817	800,000	-0,067	-0,180
-424,803	800,000	0,025	-0,053
-423,788	-117,662	0,133	0,017
-422,773	323,522	0,064	0,089
-421,759	40,332	0,029	0,019
-420,744	186,186	0,044	-0,048
-419,730	80,937	-0,122	0,096
-418,715	21,880	0,066	-0,039
-417,701	-149,503	-0,093	0,005
-416,686	-200,000	-0,007	-0,118
-415,671	55,476	-0,053	0,037
-414,657	-10,354	-0,039	0,019
-413,642	52,731	0,081	-0,056
-412,628	-200,000	-0,038	-0,124
-411,613	800,000	0,024	-0,055
-410,598	101,682	0,040	-0,034
-409,584	716,400	0,034	-0,066
-408,569	800,000	0,061	0,157
-407,555	800,000	-0,012	0,040
-406,540	334,965	-0,034	-0,049
-405,525	800,000	-0,031	0,090
-404,511	640,778	0,014	-0,026
-403,496	430,662	0,120	-0,190
-402,482	-200,000	-0,013	-0,071
-401,467	487,087	0,057	0,094
-400,452	232,433	-0,057	0,068
-399,438	344,301	0,071	0,102
-398,423	531,948	0,052	-0,090
-397,409	176,894	-0,094	-0,100
-396,394	-200,000	-0,009	0,151
-395,379	-65,765	-0,075	-0,022
-394,365	50,437	0,072	-0,050
-393,350	425,021	-0,121	0,190
-392,336	-77,095	-0,035	-0,009
-391,321	-105,263	-0,077	0,013
-390,306	-113,454	0,087	0,012
-389,292	-200,000	0,010	-0,102
-388,277	24,585	0,124	-0,074
-387,263	61,768	0,130	0,094
-386,248	-200,000	-0,020	0,081
-385,233	-200,000	0,011	-0,051
-384,219	31,078	-0,117	0,073
-383,204	295,835	0,067	0,090
-382,190	38,068	-0,036	-0,024
-381,175	658,938	-0,027	-0,051
-380,160	143,593	0,055	-0,053
-379,146	-75,475	0,144	0,037
-378,131	800,000	-0,015	-0,048
-377,117	-43,241	0,154	0,056
-376,102	-147,405	-0,061	-0,004
-375,088	-200,000	0,024	-0,103
-374,073	-156,524	-0,053	-0,002
-373,058	211,313	0,050	-0,058
-372,044	78,434	0,076	0,059
-371,029	59,124	-0,031	0,022
-370,015	227,437	0,040	-0,048
-369,000	800,000	0,039	0,088
-367,985	530,890	-0,095	0,165
-366,971	253,267	-0,034	-0,043
-365,956	55,324	-0,107	0,075
-364,942	756,275	0,049	0,096
-363,927	92,395	-0,132	0,108
-362,912	-108,757	-0,074	-0,011
-361,898	-141,487	0,046	0,003
-360,883	68,400	-0,146	-0,109
-359,869	607,087	0,062	-0,112
-358,854	201,818	0,068	0,076
-357,839	800,000	0,056	0,148
-356,825	27,082	0,038	0,023
-355,810	-200,000	-0,021	0,082
-354,796	182,827	0,020	0,021
-353,781	-4,779	0,050	-0,025
-352,766	-100,638	0,053	-0,009
-351,752	-200,000	-0,023	-0,133
-350,737	99,842	0,027	-0,023
-349,723	237,510	0,076	0,092
-348,708	191,112	0,043	-0,047
-347,693	-23,402	0,094	0,041
-346,679	265,500	-0,019	-0,024
-345,664	-44,725	0,034	-0,012
-344,650	266,054	-0,024	-0,031
-343,635	-200,000	0,002	-0,054
-342,620	58,990	0,067	-0,048
-341,606	800,000	0,037	0,082
-340,591	-47,394	0,021	0,007
-339,577	105,022	-0,121	0,103
-338,562	800,000	-0,043	-0,125
-337,548	-74,373	-0,139	0,036
-336,533	800,000	-0,046	0,144
-335,518	-200,000	-0,029	0,173
-334,504	800,000	0,019	0,040
-333,489	-47,774	-0,083	-0,029
-332,475	-200,000	0,007	0,051
-331,460	-71,354	0,116	-0,031
-330,445	41,412	-0,040	-0,026
-329,431	-162,180	0,097	-0,003
-328,416	25,423	-0,013	-0,008
-327,402	800,000	0,035	0,078
-326,387	40,144	0,075	0,049
-325,372	109,743	-0,111	0,097
-324,358	257,796	-0,013	-0,017
-323,343	285,616	-0,038	0,049
-322,329	731,161	0,040	0,077
-321,314	-71,993	0,144	-0,039
-320,299	117,543	0,093	0,083
-319,285	146,141	-0,123	-0,120
-318,270	-200,000	0,007	-0,051
-317,256	409,315	0,046	-0,071
-316,241	-200,000	0,014	-0,170
-315,226	-98,534	-0,023	0,004
-314,212	-161,942	0,090	-0,003
-313,197	-126,967	-0,052	0,006
-312,183	486,563	-0,016	0,027
-311,168	351,639	0,056	-0,081
-310,153	800,000	-0,042	0,124
-309,139	-138,841	-0,140	0,011
-308,124	-54,370	0,111	0,036
-307,110	-109,981	-0,089	0,013
-306,095	-150,528	0,045	0,002
-305,080	443,298	-0,026	0,042
-304,066	194,543	-0,097	-0,107
-303,051	-59,010	-0,147	0,046
-302,037	-121,506	-0,118	-0,014
-301,022	800,000	0,025	-0,068
-300,008	-126,328	0,071	0,008
-298,993	-200,000	0,049	-0,208
-297,978	-200,000	0,006	0,089
-296,964	137,712	0,031	0,030
-295,949	241,911	-0,065	-0,079
-294,935	-38,706	-0,023	0,009
-293,920	110,343	-0,032	0,028
-292,905	157,104	-0,086	-0,086
-291,891	137,795	0,087	-0,082
-290,876	131,084	-0,021	-0,020
-289,862	17,206	0,039	0,023
-288,847	127,721	0,068	-0,063
-287,832	800,000	0,039	-0,083
-286,818	-200,000	0,017	0,088
-285,803	-200,000	-0,001	0,089
-284,789	800,000	0,020	-0,056
-283,774	-200,000	0,005	-0,039
-282,759	615,159	0,064	-0,117
-281,745	-21,047	-0,059	0,026
-280,730	7,590	-0,050	-0,027
-279,716	15,331	0,091	0,051
-278,701	-79,383	0,131	-0,032
-277,686	-154,132	0,056	0,003
-276,672	800,000	0,045	0,106
-275,657	-200,000	-0,021	-0,098
-274,643	615,565	-0,108	-0,198
-273,628	-64,103	-0,068	-0,020
-272,613	800,000	0,044	0,099
-271,599	800,000	-0,012	0,025
-270,584	67,249	-0,118	0,087
-269,570	265,770	-0,029	-0,037
-268,555	-200,000	0,015	-0,192
-267,540	-200,000	-0,024	-0,105
-266,526	30,526	0,056	-0,035
-265,511	800,000	-0,034	-0,083
-264,497	-110,692	0,062	0,009
-263,482	-200,000	-0,006	0,042
-262,467	-200,000	0,000	0,048
-261,453	-20,844	-0,005	-0,002
-260,438	-50,690	0,081	0,027
-259,424	645,351	0,021	0,039
-258,409	-200,000	0,005	0,099
-257,395	-200,000	0,025	0,141
-256,380	78,955	0,040	-0,031
-255,365	-200,000	-0,020	-0,078
-254,351	158,127	-0,088	0,088
-253,336	-89,812	-0,119	0,025
-252,322	-43,817	-0,061	0,022
-251,307	-200,000	0,000	-0,082
-250,292	361,325	-0,030	-0,044
-249,278	-200,000	-0,014	0,082
-248,263	297,340	-0,021	0,028
-247,249	-11,405	-0,103	0,049
-246,234	203,469	-0,024	0,027
-245,219	214,162	-0,094	-0,108
-244,205	263,077	0,051	0,065
-243,190	212,813	-0,083	-0,095
-242,176	138,976	0,028	-0,026
-241,161	-200,000	0,007	0,038
-240,146	800,000	0,062	0,144
-239,132	-200,000	-0,006	-0,100
-238,117	-108,138	-0,094	-0,015
-237,103	271,500	0,043	-0,055
-236,088	-41,582	0,023	-0,009
-235,073	200,810	-0,086	-0,095
-234,059	800,000	0,045	0,132
-233,044	232,858	-0,041	0,049
-232,030	159,613	-0,079	-0,080
-231,015	608,875	0,038	-0,070
-230,000	245,879	-0,103	-0,126
-228,986	-62,842	0,065	0,019
-227,971	-92,644	0,054	-0,011
-226,957	800,000	0,044	0,100
-225,942	361,102	0,083	0,121
-224,927	-42,306	0,024	-0,009
-223,913	65,745	-0,088	-0,064
-222,898	-200,000	-0,006	0,042
-221,884	82,080	0,081	0,063
-220,869	-200,000	-0,013	0,084
-219,855	320,157	-0,036	-0,050
-218,840	-175,660	0,039	0,001
-217,825	-200,000	-0,001	-0,059
-216,811	-105,141	0,011	0,002
-215,796	-6,886	0,018	0,009
-214,782	323,252	-0,061	-0,084
-213,767	-41,983	0,092	0,034
-212,752	-141,480	0,068	-0,005
-211,738	265,952	0,057	-0,072
-210,723	-200,000	0,003	-0,053
-209,709	295,655	0,072	0,096
-208,694	38,245	-0,081	-0,052
-207,679	800,000	-0,022	-0,054
-206,665	-46,869	0,062	-0,022
-205,650	-200,000	-0,024	0,126
-204,636	800,000	-0,017	-0,043
-203,621	53,593	-0,042	-0,029
-202,606	47,973	0,064	-0,043
-201,592	-200,000	0,002	-0,078
-200,577	78,127	0,037	-0,029
-199,563	-65,881	0,096	0,028
-198,548	-200,000	-0,020	-0,065
-197,533	-81,873	-0,020	-0,005
-196,519	-200,000	-0,011	0,154
-195,504	-34,548	0,036	0,014
-194,490	-58,078	0,015	0,005
-193,475	-76,141	-0,051	0,013
-192,460	128,630	0,042	-0,039
-191,446	169,050	0,085	-0,088
-190,431	-200,000	0,010	0,068
-189,417	-112,496	0,090	-0,013
-188,402	161,352	-0,012	0,012
-187,387	-200,000	-0,021	0,090
-186,373	-51,179	-0,048	0,016
-185,358	-200,000	-0,000	-0,027
-184,344	-91,505	0,049	0,010
-183,329	-110,623	0,059	0,009
-182,315	143,548	0,026	-0,025
-181,300	-83,502	-0,137	0,031
-180,285	267,155	-0,054	0,069
-179,271	401,631	0,091	0,138
-178,256	-200,000	0,008	0,049
-177,242	42,739	-0,027	0,018
-176,227	800,000	-0,014	0,044
-175,212	54,346	0,070	0,049
-174,198	-74,843	0,151	0,039
-173,183	64,449	-0,040	0,029
-172,169	-200,000	-0,009	-0,030
-171,154	121,030	0,035	0,032
-170,139	-200,000	0,004	-0,030
-169,125	-200,000	0,010	-0,098
-168,110	800,000	-0,026	-0,065
-167,096	-144,955	0,083	-0,005
-166,081	-94,268	-0,159	-0,031
-165,066	206,691	0,092	0,103
-164,052	-200,000	-0,020	-0,178
-163,037	216,798	-0,070	0,080
-162,023	511,064	0,088	0,148
-161,008	-15,633	-0,108	0,049
-159,993	-164,696	0,065	-0,002
-158,979	-75,419	0,111	0,028
-157,964	-112,602	0,114	-0,016
-156,950	191,213	-0,113	-0,123
-155,935	476,328	0,096	0,158
-154,920	-200,000	-0,020	-0,081
-153,906	-200,000	-0,002	0,161
-152,891	33,911	-0,048	0,030
-151,877	800,000	-0,032	0,079
-150,862	-60,956	0,078	-0,024
-149,847	587,997	-0,038	-0,068
-148,833	-134,103	-0,034	-0,003
-147,818	166,634	0,036	0,037
-146,804	-200,000	0,001	0,015
-145,789	800,000	-0,028	0,060
-144,775	800,000	-0,093	-0,229
-143,760	-200,000	-0,007	0,063
-142,745	434,140	-0,037	0,058
-141,731	736,664	-0,021	0,041
-140,716	95,437	0,120	-0,098
-139,702	800,000	-0,043	0,103
-138,687	-200,000	-0,007	0,107
-137,672	145,913	-0,076	-0,074
-136,658	220,260	0,030	-0,035
-135,643	43,255	-0,051	-0,034
-134,629	-154,110	-0,130	-0,006
-133,614	69,790	0,037	0,028
-132,599	-126,443	-0,071	0,008
-131,585	10,764	0,078	0,043
-130,570	-10,577	-0,099	-0,047
-129,556	-200,000	0,002	0,020
-128,541	-40,087	-0,158	0,059
-127,526	-200,000	-0,025	-0,147
-126,512	-200,000	0,016	0,083
-125,497	648,658	0,033	-0,061
-124,483	-17,865	0,198	0,089
-123,468	-200,000	0,014	-0,077
-122,453	-18,074	0,065	-0,029
-121,439	-80,757	-0,092	0,022
-120,424	-200,000	-0,010	0,093
-119,410	-175,770	-0,046	-0,001
