DTS Sentinel unit serial number:	SN410029Multiplexer serial number:	ORYXHardware model number:	OX2-SRSoftware version number:	ORYX F/W v4,00 Oryx Data Collector v3.7.2.0data status	okinstallation	B5 Nyhavnadifferential loss correction	single-endedforward channel	channel 2reverse channel	N/Adate	2023/12/13time	22:17:13forward acquisition time	300,00reverse acquisition time	0,00gamma	499,1914k internal	0,3154k external	0,3154temperature offset calibration	1,0000default loss term (dB/km)	0,3820temperature slope calibration	1,0000multiplexer offset coefficient	1,0000multiplexer slope coefficient	1,0000fibre end	0,00T internal ref (°C)	9,48T ext. ref 1 (°C)	-7,17T ext. ref 2 (°C)	-7,20length (m)	temperature (°C)	Stokes	anti-Stokes-744,400	-108,571	0,045	0,007
-743,385	-53,751	-0,285	-0,096
-742,371	23,243	0,110	0,066
-741,356	-113,636	-0,355	-0,051
-740,342	-159,881	0,119	0,005
-739,327	-99,691	-0,371	-0,068
-738,312	165,383	0,136	0,142
-737,298	96,113	-0,245	-0,207
-736,283	51,424	0,128	0,090
-735,269	-153,796	-0,237	0,012
-734,254	800,000	0,098	0,227
-733,239	-50,757	-0,603	-0,208
-732,225	266,403	0,138	0,178
-731,210	-31,378	-0,056	-0,023
-730,196	73,551	0,035	-0,027
-729,181	-129,718	-0,117	0,012
-728,167	-18,635	0,019	-0,009
-727,152	87,704	0,029	0,023
-726,137	-200,000	0,008	-0,087
-725,123	104,909	0,060	0,052
-724,108	424,234	0,039	-0,062
-723,094	-200,000	-0,002	0,026
-722,079	370,666	0,011	0,016
-721,064	140,087	-0,110	0,107
-720,050	-100,963	-0,110	-0,020
-719,035	-200,000	-0,001	0,079
-718,021	-200,000	0,009	0,144
-717,006	209,830	-0,136	-0,157
-715,991	53,721	-0,115	-0,082
-714,977	59,628	0,074	-0,054
-713,962	-7,838	-0,039	0,019
-712,948	589,463	0,063	0,114
-711,933	121,703	0,055	-0,051
-710,918	-200,000	0,010	-0,107
-709,904	259,405	0,009	0,012
-708,889	800,000	-0,025	-0,074
-707,875	303,881	-0,087	-0,119
-706,860	-8,575	0,060	0,030
-705,845	-200,000	-0,001	-0,020
-704,831	278,796	-0,027	0,036
-703,816	-39,041	0,127	-0,049
-702,802	-95,298	0,100	-0,020
-701,787	-200,000	0,014	-0,078
-700,772	-12,982	-0,032	-0,015
-699,758	137,900	0,053	0,051
-698,743	-135,139	-0,102	0,009
-697,729	-62,629	-0,155	0,047
-696,714	-200,000	-0,012	0,060
-695,699	-44,560	-0,092	-0,034
-694,685	-200,000	-0,001	0,011
-693,670	-80,795	-0,095	0,023
-692,656	45,593	-0,016	0,011
-691,641	241,571	-0,020	0,024
-690,627	31,583	0,080	0,051
-689,612	-200,000	-0,002	0,024
-688,597	187,380	-0,054	0,060
-687,583	88,812	0,087	-0,071
-686,568	122,905	-0,068	-0,063
-685,554	-135,820	-0,039	0,003
-684,539	-140,882	0,091	-0,007
-683,524	136,078	-0,050	0,048
-682,510	-200,000	-0,011	-0,080
-681,495	-17,641	-0,117	-0,054
-680,481	-140,676	-0,044	-0,003
-679,466	-55,936	-0,146	-0,048
-678,451	-149,982	-0,073	0,004
-677,437	800,000	-0,034	0,093
-676,422	-136,641	0,068	-0,006
-675,408	-37,681	0,087	-0,034
-674,393	-139,143	-0,040	0,003
-673,378	-200,000	0,017	-0,104
-672,364	420,278	0,034	-0,054
-671,349	84,131	0,028	0,022
-670,335	-200,000	0,037	-0,138
-669,320	-200,000	0,004	-0,030
-668,305	-200,000	0,006	-0,041
-667,291	181,627	-0,064	-0,069
-666,276	-200,000	-0,002	-0,016
-665,262	-25,744	0,014	-0,006
-664,247	-200,000	0,010	0,094
-663,232	141,083	-0,068	0,066
-662,218	275,931	0,048	-0,063
-661,203	551,458	-0,055	-0,097
-660,189	-200,000	-0,022	-0,173
-659,174	291,727	-0,081	-0,108
-658,159	429,316	0,022	-0,035
-657,145	-42,487	-0,043	-0,016
-656,130	-121,252	-0,023	0,003
-655,116	-6,326	-0,023	-0,012
-654,101	-103,114	-0,068	-0,012
-653,086	-118,000	-0,188	-0,024
-652,072	-118,498	-0,101	0,013
-651,057	271,444	-0,062	-0,080
-650,043	-3,109	-0,118	-0,060
-649,028	-129,090	0,057	-0,006
-648,014	72,847	-0,030	0,023
-646,999	722,881	0,059	0,117
-645,984	5,990	-0,133	0,072
-644,970	-120,766	-0,037	-0,005
-643,955	800,000	0,008	-0,021
-642,941	800,000	-0,015	-0,039
-641,926	5,089	0,039	0,021
-640,911	-134,417	0,120	0,011
-639,897	328,638	-0,072	-0,102
-638,882	24,188	0,106	0,064
-637,868	-79,644	-0,027	0,007
-636,853	38,023	-0,112	-0,073
-635,838	-108,884	0,048	-0,008
-634,824	-200,000	0,018	0,142
-633,809	338,860	0,062	-0,089
-632,795	149,326	0,077	-0,077
-631,780	-18,044	0,136	-0,062
-630,765	-200,000	0,004	0,024
-629,751	186,581	-0,062	-0,068
-628,736	-4,572	-0,048	-0,024
-627,722	800,000	0,073	-0,200
-626,707	19,326	-0,073	0,043
-625,692	-200,000	-0,007	0,046
-624,678	408,824	-0,018	-0,028
-623,663	452,046	-0,024	0,040
-622,649	-11,368	0,104	0,050
-621,634	-32,924	-0,224	-0,091
-620,619	-200,000	-0,004	0,142
-619,605	-200,000	-0,010	0,033
-618,590	488,532	-0,023	0,039
-617,576	223,278	-0,022	0,026
-616,561	722,824	-0,040	0,078
-615,546	205,322	0,073	-0,084
-614,532	-195,558	0,109	-0,001
-613,517	113,622	-0,105	-0,094
-612,503	-63,814	-0,056	-0,017
-611,488	-200,000	-0,026	0,087
-610,474	-200,000	-0,003	-0,051
-609,459	13,910	0,063	-0,036
-608,444	298,246	-0,077	0,104
-607,430	800,000	0,018	0,043
-606,415	-200,000	0,019	-0,244
-605,401	521,969	0,047	-0,082
-604,386	194,621	0,069	0,077
-603,371	-200,000	-0,020	0,113
-602,357	396,686	0,023	0,035
-601,342	309,547	-0,088	-0,120
-600,328	-65,380	-0,087	0,026
-599,313	457,767	-0,026	-0,042
-598,298	-200,000	-0,002	0,010
-597,284	97,059	0,030	0,025
-596,269	-200,000	0,014	0,105
-595,255	103,366	-0,078	0,067
-594,240	-200,000	0,020	-0,084
-593,225	-97,164	-0,110	-0,021
-592,211	68,949	0,068	-0,051
-591,196	-200,000	0,039	-0,165
-590,182	-91,435	0,161	0,033
-589,167	54,396	0,031	0,022
-588,152	126,163	0,091	0,084
-587,138	800,000	-0,011	0,030
-586,123	95,870	0,031	0,026
-585,109	-200,000	0,023	-0,180
-584,094	-109,077	-0,108	0,017
-583,079	-58,456	0,066	-0,021
-582,065	-141,676	0,274	-0,020
-581,050	800,000	-0,103	-0,215
-580,036	-132,181	-0,184	0,017
-579,021	800,000	0,006	-0,014
-578,006	170,972	0,012	-0,012
-576,992	-200,000	-0,033	-0,152
-575,977	-200,000	-0,007	0,044
-574,963	800,000	0,062	0,128
-573,948	139,626	0,034	0,033
-572,934	91,858	0,005	-0,004
-571,919	-200,000	0,031	-0,201
-570,904	636,642	0,009	-0,016
-569,890	-10,107	-0,120	0,058
-568,875	-52,122	0,039	-0,013
-567,861	-200,000	0,002	0,114
-566,846	287,903	0,094	0,125
-565,831	67,897	-0,074	0,056
-564,817	-165,570	-0,131	-0,004
-563,802	-200,000	-0,008	0,094
-562,788	-200,000	0,028	-0,127
-561,773	530,870	-0,023	0,040
-560,758	-33,680	-0,047	0,019
-559,744	-108,165	0,088	-0,014
-558,729	2,638	-0,183	-0,097
-557,715	800,000	0,059	-0,174
-556,700	-95,791	-0,187	-0,036
-555,685	-200,000	-0,022	-0,099
-554,671	69,259	0,142	0,107
-553,656	487,676	-0,040	0,067
-552,642	800,000	-0,041	0,124
-551,627	-200,000	-0,115	0,000
-550,612	-129,147	-0,140	-0,014
-549,598	315,595	0,016	0,022
-548,583	364,847	0,055	-0,081
-547,569	-200,000	0,008	0,083
-546,554	14,366	0,052	-0,029
-545,539	-200,000	0,042	0,172
-544,525	-200,000	0,012	0,052
-543,510	299,081	-0,060	-0,080
-542,496	374,649	-0,019	-0,028
-541,481	5,711	-0,105	-0,056
-540,466	-16,964	0,056	-0,026
-539,452	-95,414	0,120	-0,023
-538,437	800,000	-0,019	-0,043
-537,423	-79,064	-0,022	-0,005
-536,408	-200,000	0,008	-0,049
-535,393	-200,000	-0,015	-0,136
-534,379	112,422	0,055	-0,049
-533,364	-200,000	0,016	-0,076
-532,350	49,488	0,056	-0,039
-531,335	-200,000	0,019	0,127
-530,321	-138,917	-0,029	-0,002
-529,306	-200,000	0,023	-0,130
-528,291	800,000	0,037	-0,100
-527,277	403,910	0,116	-0,180
-526,262	81,115	-0,126	-0,100
-525,248	-110,710	0,121	-0,018
-524,233	800,000	0,011	0,034
-523,218	528,927	-0,061	0,105
-522,204	-200,000	-0,002	-0,104
-521,189	-12,933	-0,126	-0,060
-520,175	-60,263	-0,056	-0,017
-519,160	-114,688	0,046	0,006
-518,145	276,938	0,091	-0,119
-517,131	-132,485	-0,135	-0,013
-516,116	-200,000	0,002	-0,040
-515,102	164,824	-0,019	-0,019
-514,087	95,603	0,096	0,080
-513,072	-120,361	-0,102	-0,013
-512,058	431,017	-0,065	-0,103
-511,043	-106,751	-0,027	0,004
-510,029	800,000	0,015	0,046
-509,014	223,122	-0,061	0,072
-507,999	539,261	-0,061	-0,106
-506,985	58,007	-0,085	-0,060
-505,970	449,556	0,058	-0,093
-504,956	150,428	-0,087	-0,086
-503,941	-200,000	0,003	0,137
-502,926	162,090	0,056	0,058
-501,912	390,643	-0,049	-0,074
-500,897	188,547	0,007	0,008
-499,883	-84,806	-0,044	0,010
-498,868	-144,172	-0,049	-0,003
-497,853	-125,633	0,051	-0,006
-496,839	205,374	-0,046	-0,052
-495,824	153,609	0,181	0,181
-494,810	4,878	-0,026	-0,014
-493,795	-92,748	-0,063	0,013
-492,781	-93,147	0,017	0,003
-491,766	-200,000	0,005	0,128
-490,751	800,000	-0,012	0,035
-489,737	-160,012	0,141	0,006
-488,722	-4,831	0,079	-0,039
-487,708	-95,889	-0,131	-0,025
-486,693	774,699	0,021	0,043
-485,678	-6,265	-0,061	-0,030
-484,664	800,000	-0,006	0,017
-483,649	-200,000	-0,003	-0,167
-482,635	-200,000	0,006	0,023
-481,620	183,997	0,095	0,102
-480,605	464,447	0,073	0,119
-479,591	21,448	0,015	-0,009
-478,576	439,214	-0,035	-0,056
-477,562	223,427	-0,078	0,092
-476,547	-200,000	0,028	0,136
-475,532	56,932	-0,049	-0,035
-474,518	358,589	0,049	0,071
-473,503	525,027	-0,052	0,090
-472,489	94,420	0,069	0,058
-471,474	2,358	-0,060	0,031
-470,459	-157,519	-0,160	0,007
-469,445	-156,617	-0,118	-0,005
-468,430	102,529	0,109	-0,093
-467,416	-200,000	-0,006	0,071
-466,401	-200,000	-0,019	-0,067
-465,386	196,371	0,118	0,132
-464,372	-145,374	-0,154	-0,010
-463,357	487,743	0,038	-0,064
-462,343	-6,626	-0,057	-0,028
-461,328	-52,659	0,051	-0,017
-460,313	254,219	0,013	0,017
-459,299	-73,689	0,057	-0,015
-458,284	-200,000	0,010	-0,067
-457,270	68,130	-0,081	0,061
-456,255	-25,686	-0,081	-0,035
-455,241	-200,000	-0,002	0,045
-454,226	-155,998	0,092	0,004
-453,211	-72,969	0,020	-0,005
-452,197	-200,000	0,010	-0,065
-451,182	-104,476	0,117	0,019
-450,168	47,706	-0,149	0,101
-449,153	-200,000	-0,015	0,126
-448,138	800,000	0,047	-0,109
-447,124	-104,749	0,026	0,004
-446,109	151,288	-0,054	-0,054
-445,095	-27,684	0,082	0,034
-444,080	800,000	0,069	0,184
-443,065	-87,270	-0,082	0,018
-442,051	-50,066	0,029	-0,010
-441,036	379,116	-0,069	0,103
-440,022	800,000	-0,045	-0,101
-439,007	-9,955	0,079	-0,038
-437,992	290,292	0,050	0,066
-436,978	-53,920	0,052	0,017
-435,963	95,539	-0,109	0,090
-434,949	75,390	-0,066	0,051
-433,934	800,000	0,022	-0,065
-432,919	65,789	0,180	0,133
-431,905	193,482	0,021	0,023
-430,890	-47,327	0,052	-0,018
-429,876	800,000	-0,031	0,064
-428,861	253,157	0,052	0,064
-427,846	-151,312	-0,061	-0,003
-426,832	-125,415	-0,204	-0,022
-425,817	800,000	-0,019	-0,050
-424,803	-12,835	-0,107	-0,050
-423,788	-179,188	0,124	-0,002
-422,773	-5,173	0,058	-0,029
-421,759	5,368	0,037	0,020
-420,744	396,216	-0,058	0,089
-419,730	-200,000	-0,029	-0,118
-418,715	254,317	-0,065	-0,081
-417,701	-88,586	0,074	0,016
-416,686	-125,428	0,153	-0,017
-415,671	678,588	-0,028	0,054
-414,657	-1,259	-0,127	-0,065
-413,642	-200,000	-0,016	0,143
-412,628	-56,104	-0,045	-0,015
-411,613	-101,615	-0,156	-0,027
-410,598	44,876	0,152	0,102
-409,584	-17,226	0,082	0,038
-408,569	64,027	0,014	0,010
-407,555	-200,000	-0,002	0,100
-406,540	-200,000	-0,017	0,057
-405,525	187,659	-0,097	-0,106
-404,511	340,668	-0,071	-0,101
-403,496	800,000	-0,036	-0,087
-402,482	-1,868	0,012	0,006
-401,467	137,486	0,050	0,048
-400,452	-54,704	0,016	-0,005
-399,438	117,035	0,063	0,057
-398,423	-45,234	0,092	-0,033
-397,409	242,271	-0,073	0,089
-396,394	199,149	-0,097	-0,109
-395,379	-9,026	0,075	0,037
-394,365	800,000	0,041	-0,116
-393,350	10,008	-0,046	-0,026
-392,336	-17,079	0,151	0,069
-391,321	30,793	0,092	0,058
-390,306	165,019	-0,101	-0,104
-389,292	-150,105	-0,131	-0,007
-388,277	192,178	0,090	0,099
-387,263	-7,720	-0,200	0,098
-386,248	-38,410	0,076	-0,029
-385,233	-10,776	-0,071	-0,034
-384,219	156,874	0,037	0,037
-383,204	18,944	0,043	-0,025
-382,190	495,501	0,066	-0,111
-381,175	103,382	-0,067	0,057
-380,160	145,017	0,102	0,099
-379,146	-151,227	0,182	-0,010
-378,131	713,657	-0,066	0,129
-377,117	-200,000	0,002	0,101
-376,102	795,125	0,022	-0,045
-375,088	-116,961	0,045	0,006
-374,073	-23,394	0,101	0,044
-373,058	-200,000	-0,002	-0,035
-372,044	503,673	-0,052	-0,088
-371,029	-200,000	0,031	-0,214
-370,015	493,612	-0,013	0,021
-369,000	-77,496	0,101	-0,025
-367,985	-200,000	-0,011	0,102
-366,971	-200,000	-0,004	0,058
-365,956	-200,000	0,029	0,177
-364,942	800,000	0,035	-0,095
-363,927	98,239	-0,062	0,052
-362,912	800,000	-0,021	0,060
-361,898	-49,932	-0,133	0,045
-360,883	762,337	-0,047	-0,093
-359,869	225,140	0,088	0,103
-358,854	-21,993	0,021	-0,009
-357,839	-200,000	-0,019	-0,081
-356,825	800,000	0,019	0,047
-355,810	5,365	0,040	0,021
-354,796	-71,448	0,076	-0,020
-353,781	-200,000	0,020	-0,145
-352,766	800,000	0,031	-0,086
-351,752	81,416	0,135	0,106
-350,737	31,438	0,093	-0,058
-349,723	219,219	0,124	0,145
-348,708	800,000	-0,019	0,052
-347,693	93,353	0,084	-0,069
-346,679	658,615	0,045	-0,084
-345,664	43,846	-0,111	0,074
-344,650	397,123	-0,028	0,043
-343,635	800,000	0,064	0,137
-342,620	475,837	-0,043	0,071
-341,606	190,932	-0,092	-0,100
-340,591	-106,946	-0,120	-0,019
-339,577	800,000	-0,042	0,093
-338,562	4,308	-0,104	-0,055
-337,548	-200,000	0,004	-0,029
-336,533	60,420	0,147	0,106
-335,518	128,369	-0,047	0,044
-334,504	11,283	0,166	0,092
-333,489	-18,806	0,152	-0,069
-332,475	800,000	-0,029	0,080
-331,460	-200,000	0,013	0,062
-330,445	-200,000	0,041	-0,151
-329,431	16,568	0,115	-0,066
-328,416	-177,148	-0,087	-0,002
-327,402	304,388	-0,049	0,066
-326,387	-133,068	0,045	0,004
-325,372	800,000	-0,029	-0,068
-324,358	230,077	0,062	-0,073
-323,343	-113,056	-0,021	0,003
-322,329	800,000	-0,034	-0,098
-321,314	-28,855	0,107	0,044
-320,299	800,000	-0,012	0,026
-319,285	-200,000	-0,022	-0,097
-318,270	-200,000	-0,027	-0,107
-317,256	-125,255	-0,032	-0,004
-316,241	269,720	0,061	0,078
-315,226	-8,815	-0,073	-0,035
-314,212	-65,458	0,051	0,015
-313,197	800,000	0,051	0,157
-312,183	-200,000	-0,030	-0,100
-311,168	-25,143	0,119	-0,051
-310,153	800,000	0,087	-0,261
-309,139	186,191	-0,107	0,116
-308,124	-40,982	0,155	0,058
-307,110	-200,000	0,022	-0,110
-306,095	-42,954	0,041	0,015
-305,080	36,254	-0,060	-0,038
-304,066	552,290	0,046	0,081
-303,051	800,000	-0,010	0,032
-302,037	62,683	0,026	-0,019
-301,022	85,135	-0,071	-0,056
-300,008	-200,000	0,019	-0,089
-298,993	-200,000	-0,003	-0,063
-297,978	671,606	-0,042	0,079
-296,964	34,036	-0,037	-0,024
-295,949	328,642	-0,071	-0,099
-294,935	-200,000	0,003	-0,031
-293,920	-111,623	-0,099	0,014
-292,905	-78,369	0,094	0,023
-291,891	-200,000	0,000	0,042
-290,876	-200,000	-0,006	-0,052
-289,862	800,000	0,009	-0,027
-288,847	-169,636	-0,100	-0,003
-287,832	196,785	-0,187	-0,207
-286,818	611,178	0,043	0,077
-285,803	-42,817	0,044	-0,016
-284,789	226,101	-0,035	0,042
-283,774	20,701	-0,003	-0,002
-282,759	-200,000	-0,001	-0,032
-281,745	599,268	-0,015	-0,027
-280,730	-200,000	0,005	0,022
-279,716	-200,000	0,003	0,012
-278,701	-76,877	-0,091	-0,023
-277,686	-200,000	-0,001	0,119
-276,672	-114,176	-0,072	0,010
-275,657	33,763	0,021	0,013
-274,643	800,000	0,034	0,080
-273,628	16,189	-0,080	-0,046
-272,613	197,144	-0,046	-0,051
-271,599	460,970	-0,044	-0,072
-270,584	256,152	0,044	-0,055
-269,570	74,044	0,083	0,063
-268,555	-200,000	-0,014	-0,075
-267,540	239,583	-0,014	-0,017
-266,526	195,104	-0,085	-0,094
-265,511	800,000	-0,045	-0,105
-264,497	-200,000	0,009	-0,060
-263,482	-200,000	0,014	0,065
-262,467	800,000	-0,013	0,029
-261,453	-200,000	-0,009	0,148
-260,438	85,439	-0,029	-0,023
-259,424	-200,000	0,002	-0,010
-258,409	-32,395	0,156	0,063
-257,395	403,398	0,054	-0,083
-256,380	19,924	0,170	0,099
-255,365	591,705	0,065	0,118
-254,351	-88,523	-0,086	0,018
-253,336	-90,577	-0,077	0,016
-252,322	254,694	0,065	0,081
-251,307	-152,699	-0,172	0,009
-250,292	-45,116	0,196	0,070
-249,278	-79,000	0,050	0,012
-248,263	800,000	0,079	0,162
-247,249	158,298	-0,050	0,051
-246,234	-129,411	-0,208	-0,021
-245,219	-47,416	-0,184	0,065
-244,205	15,485	0,109	-0,062
-243,190	-162,740	-0,046	0,002
-242,176	-165,809	0,162	-0,005
-241,161	-49,929	-0,044	0,015
-240,146	510,048	0,031	0,053
-239,132	-200,000	-0,008	-0,113
-238,117	-119,639	-0,198	-0,024
-237,103	253,590	0,015	0,019
-236,088	-200,000	-0,003	0,080
-235,073	447,644	0,054	0,086
-234,059	-200,000	0,011	0,116
-233,044	30,771	0,077	-0,048
-232,030	-189,234	-0,075	-0,001
-231,015	-200,000	0,031	0,111
-230,000	-58,109	-0,140	-0,044
-228,986	56,360	0,131	-0,092
-227,971	-200,000	0,016	0,051
-226,957	386,225	-0,023	-0,034
-225,942	235,424	-0,122	-0,146
-224,927	-200,000	-0,020	-0,147
-223,913	-132,615	-0,135	-0,012
-222,898	-47,399	0,023	0,008
-221,884	-133,374	-0,125	0,011
-220,869	33,590	-0,054	-0,034
-219,855	-160,120	0,079	0,003
-218,840	416,231	0,048	0,074
-217,825	800,000	0,018	0,056
-216,811	-200,000	-0,004	-0,014
-215,796	100,762	0,042	-0,035
-214,782	-200,000	0,007	-0,080
-213,767	800,000	0,095	0,191
-212,752	-200,000	-0,012	0,167
-211,738	-200,000	0,013	0,077
-210,723	-200,000	-0,018	0,088
-209,709	118,867	-0,082	0,073
-208,694	-2,809	0,030	0,015
-207,679	800,000	-0,027	-0,079
-206,665	-32,444	0,092	0,037
-205,650	20,921	0,107	-0,062
-204,636	800,000	0,049	0,107
-203,621	800,000	0,025	0,055
-202,606	-35,387	0,066	-0,026
-201,592	-74,014	0,008	-0,002
-200,577	561,059	0,054	-0,095
-199,563	-98,062	0,131	-0,024
-198,548	-200,000	-0,003	-0,037
-197,533	-24,355	-0,066	-0,028
-196,519	153,471	0,088	-0,087
-195,504	308,591	-0,039	-0,053
-194,490	-38,964	-0,058	-0,022
-193,475	-112,087	-0,129	0,018
-192,460	-200,000	0,006	0,085
-191,446	-200,000	0,004	-0,113
-190,431	-86,668	0,125	0,028
-189,417	-82,387	-0,094	-0,022
-188,402	124,208	-0,102	-0,093
-187,387	592,555	-0,071	-0,128
-186,373	800,000	0,040	-0,121
-185,358	161,116	0,030	-0,030
-184,344	524,362	-0,105	-0,179
-183,329	37,340	0,082	-0,052
-182,315	-93,711	0,069	-0,014
-181,300	156,951	0,066	0,066
-180,285	439,219	-0,085	-0,134
-179,271	-200,000	0,009	-0,032
-178,256	-58,859	-0,128	0,040
-177,242	-200,000	-0,023	0,198
-176,227	-55,441	0,063	0,020
-175,212	352,960	0,081	0,116
-174,198	704,172	0,039	-0,075
-173,183	32,091	-0,114	-0,071
-172,169	800,000	-0,035	0,084
-171,154	269,157	0,039	-0,050
-170,139	0,721	-0,095	0,049
-169,125	800,000	0,076	0,157
-168,110	-200,000	-0,002	0,094
-167,096	-105,029	0,062	0,010
-166,081	468,654	-0,029	0,047
-165,066	247,832	-0,041	0,051
-164,052	-110,625	0,094	-0,014
-163,037	-94,649	0,054	-0,011
-162,023	-200,000	-0,009	0,029
-161,008	-200,000	-0,023	-0,081
-159,993	800,000	0,054	0,142
-158,979	-101,531	-0,144	0,025
-157,964	-116,142	0,056	-0,007
-156,950	566,361	-0,027	-0,048
-155,935	800,000	-0,041	-0,090
-154,920	-103,735	0,041	0,007
-153,906	16,392	-0,099	0,056
-152,891	609,077	0,060	0,108
-151,877	-200,000	-0,004	-0,016
-150,862	96,858	-0,084	0,069
-149,847	-200,000	0,041	0,179
-148,833	-114,879	0,032	0,004
-147,818	-53,959	0,101	0,033
-146,804	81,111	-0,105	0,082
-145,789	-180,872	0,066	0,001
-144,775	-86,380	-0,105	-0,023
-143,760	479,333	-0,048	0,079
-142,745	49,627	0,130	0,088
-141,731	-83,761	-0,079	0,018
-140,716	-117,317	-0,108	-0,014
-139,702	272,390	-0,092	0,117
-138,687	-106,305	0,118	0,019
-137,672	-200,000	-0,002	-0,044
-136,658	-70,740	-0,110	0,030
-135,643	800,000	0,013	0,031
-134,629	-200,000	-0,013	0,057
-133,614	235,096	0,068	0,081
-132,599	296,831	0,158	0,209
-131,585	-7,402	0,051	-0,025
-130,570	-200,000	-0,006	0,020
-129,556	-200,000	-0,052	0,173
-128,541	-200,000	-0,028	-0,134
-127,526	-151,407	0,061	0,003
-126,512	184,612	0,070	-0,075
-125,497	470,115	0,046	0,075
-124,483	800,000	-0,045	-0,093
-123,468	-200,000	0,009	-0,084
-122,453	-200,000	0,010	-0,057
-121,439	800,000	0,039	0,101
-120,424	800,000	-0,050	-0,152
-119,410	-200,000	0,010	0,188
