DTS Sentinel unit serial number:	SN410029Multiplexer serial number:	ORYXHardware model number:	OX2-SRSoftware version number:	ORYX F/W v4,00 Oryx Data Collector v3.7.2.0data status	okinstallation	B5 Nyhavnadifferential loss correction	single-endedforward channel	channel 2reverse channel	N/Adate	2023/12/14time	06:07:13forward acquisition time	300,00reverse acquisition time	0,00gamma	499,1914k internal	0,3158k external	0,3158temperature offset calibration	1,0000default loss term (dB/km)	0,3820temperature slope calibration	1,0000multiplexer offset coefficient	1,0000multiplexer slope coefficient	1,0000fibre end	0,00T internal ref (°C)	7,60T ext. ref 1 (°C)	-8,80T ext. ref 2 (°C)	-8,93length (m)	temperature (°C)	Stokes	anti-Stokes-744,400	-8,048	0,156	0,077
-743,385	-78,864	-0,337	-0,084
-742,371	32,821	0,195	0,124
-741,356	-44,187	-0,358	-0,132
-740,342	800,000	0,053	0,117
-739,327	-165,151	-0,466	-0,015
-738,312	56,711	0,044	0,032
-737,298	-119,856	-0,365	-0,046
-736,283	-2,505	0,153	0,079
-735,269	-86,041	-0,291	-0,066
-734,254	453,078	0,096	0,158
-733,239	-25,039	-0,580	-0,252
-732,225	-59,184	0,162	0,051
-731,210	-200,000	-0,006	0,069
-730,196	61,225	-0,031	-0,023
-729,181	-67,317	0,033	0,009
-728,167	-200,000	0,011	0,052
-727,152	-159,821	-0,133	-0,005
-726,137	-200,000	-0,015	-0,055
-725,123	471,542	-0,061	-0,101
-724,108	135,111	0,057	-0,055
-723,094	148,567	-0,043	-0,043
-722,079	-200,000	0,019	-0,102
-721,064	340,679	-0,043	-0,062
-720,050	-0,774	0,062	0,032
-719,035	311,716	0,073	-0,101
-718,021	-125,322	0,022	-0,002
-717,006	-200,000	0,015	-0,055
-715,991	61,750	0,095	-0,070
-714,977	-200,000	-0,020	-0,146
-713,962	800,000	-0,020	0,053
-712,948	-32,779	0,099	-0,040
-711,933	-107,484	-0,072	-0,011
-710,918	-67,760	0,058	0,017
-709,904	-133,430	-0,137	-0,013
-708,889	-111,019	-0,139	0,021
-707,875	-200,000	-0,043	-0,170
-706,860	47,781	-0,014	0,010
-705,845	-37,252	-0,047	-0,019
-704,831	-34,099	-0,099	-0,040
-703,816	-200,000	-0,001	0,039
-702,802	800,000	-0,041	0,100
-701,787	-75,771	0,071	0,018
-700,772	-75,443	0,153	-0,040
-699,758	-121,537	0,077	-0,009
-698,743	-7,180	0,173	0,086
-697,729	-132,563	-0,074	0,007
-696,714	131,722	0,098	-0,093
-695,699	722,931	0,047	-0,093
-694,685	-200,000	0,011	-0,046
-693,670	-7,553	0,051	0,025
-692,656	-200,000	0,019	-0,100
-691,641	-68,664	-0,069	-0,020
-690,627	437,156	0,091	0,146
-689,612	151,912	-0,066	0,066
-688,597	-120,515	0,087	-0,011
-687,583	-200,000	-0,030	-0,127
-686,568	-27,019	0,101	-0,043
-685,554	800,000	-0,052	-0,146
-684,539	-200,000	0,004	-0,015
-683,524	419,171	0,062	0,097
-682,510	-12,997	-0,164	-0,078
-681,495	463,803	-0,040	-0,067
-680,481	-31,358	0,080	0,033
-679,466	-51,181	-0,062	0,021
-678,451	317,387	-0,099	-0,138
-677,437	-57,776	-0,069	-0,022
-676,422	121,476	0,040	0,037
-675,408	516,101	-0,036	0,062
-674,393	-129,772	0,022	-0,002
-673,378	-200,000	0,001	0,063
-672,364	412,989	-0,023	0,036
-671,349	-75,506	0,065	-0,017
-670,335	265,513	0,051	-0,066
-669,320	155,160	-0,057	0,058
-668,305	512,181	0,035	0,060
-667,291	116,400	0,104	-0,094
-666,276	-200,000	0,000	-0,019
-665,262	-200,000	-0,009	0,049
-664,247	648,900	0,033	0,061
-663,232	-76,382	0,097	-0,025
-662,218	-147,964	0,126	-0,008
-661,203	800,000	-0,030	0,090
-660,189	-200,000	0,003	-0,021
-659,174	492,004	-0,054	-0,092
-658,159	270,633	-0,025	-0,032
-657,145	800,000	-0,035	-0,101
-656,130	-200,000	-0,003	0,021
-655,116	-56,953	0,026	-0,008
-654,101	-200,000	-0,001	0,237
-653,086	420,161	-0,012	0,020
-652,072	-193,206	0,137	0,001
-651,057	-137,037	-0,099	0,008
-650,043	-200,000	-0,010	-0,099
-649,028	465,468	-0,052	-0,086
-648,014	-14,015	0,040	0,019
-646,999	-114,449	0,115	-0,016
-645,984	169,981	0,096	0,101
-644,970	-54,215	0,105	0,035
-643,955	-155,443	-0,134	0,006
-642,941	255,841	-0,038	-0,048
-641,926	1,865	0,032	0,017
-640,911	192,577	-0,079	-0,088
-639,897	-200,000	-0,031	0,145
-638,882	-200,000	0,024	0,154
-637,868	-195,655	-0,146	-0,001
-636,853	-99,389	0,043	0,008
-635,838	-200,000	-0,010	0,102
-634,824	-200,000	-0,017	-0,058
-633,809	800,000	0,057	-0,118
-632,795	800,000	0,011	0,035
-631,780	-162,721	-0,147	0,005
-630,765	-200,000	-0,010	0,105
-629,751	800,000	-0,043	0,129
-628,736	101,528	0,059	0,051
-627,722	-200,000	-0,014	-0,051
-626,707	-200,000	0,029	-0,120
-625,692	-103,408	0,031	0,005
-624,678	347,350	0,072	0,105
-623,663	267,131	0,049	-0,063
-622,649	-200,000	-0,035	-0,138
-621,634	54,952	-0,120	-0,085
-620,619	800,000	0,039	-0,113
-619,605	-126,885	0,064	0,007
-618,590	552,904	-0,032	0,056
-617,576	4,997	-0,044	0,024
-616,561	192,468	0,040	0,044
-615,546	88,576	-0,080	-0,065
-614,532	-200,000	0,004	-0,016
-613,517	6,299	-0,148	-0,080
-612,503	231,831	-0,054	0,066
-611,488	-84,718	0,093	0,021
-610,474	-87,189	-0,160	0,035
-609,459	134,861	-0,125	0,119
-608,444	-200,000	-0,005	0,068
-607,430	-92,540	-0,080	-0,016
-606,415	294,296	0,045	-0,061
-605,401	39,349	-0,049	-0,032
-604,386	-135,351	0,105	0,009
-603,371	-45,498	0,030	0,011
-602,357	286,596	0,025	0,033
-601,342	306,797	-0,010	-0,014
-600,328	-103,587	-0,116	-0,020
-599,313	190,134	0,058	0,064
-598,298	-65,033	-0,029	0,009
-597,284	723,509	0,010	0,020
-596,269	-200,000	-0,013	-0,123
-595,255	446,236	-0,074	-0,120
-594,240	-35,646	0,219	0,086
-593,225	35,602	0,098	-0,063
-592,211	143,781	-0,097	-0,095
-591,196	800,000	-0,024	-0,063
-590,182	621,938	-0,057	-0,106
-589,167	146,363	0,071	0,070
-588,152	36,912	0,073	-0,047
-587,138	800,000	0,039	-0,104
-586,123	371,440	0,061	0,090
-585,109	-76,016	-0,077	0,020
-584,094	198,876	-0,084	0,095
-583,079	-200,000	0,015	0,060
-582,065	-200,000	0,017	0,087
-581,050	800,000	0,007	0,017
-580,036	310,997	0,054	0,074
-579,021	215,125	-0,023	-0,026
-578,006	800,000	-0,029	-0,090
-576,992	800,000	0,040	0,121
-575,977	-119,428	0,144	-0,018
-574,963	602,013	-0,013	0,023
-573,948	-200,000	-0,007	-0,091
-572,934	-17,535	-0,095	0,044
-571,919	228,286	-0,073	-0,088
-570,904	-200,000	0,012	-0,051
-569,890	800,000	0,044	-0,096
-568,875	277,123	0,038	-0,050
-567,861	229,375	-0,024	0,028
-566,846	-20,252	-0,068	0,030
-565,831	-165,184	-0,149	0,005
-564,817	285,440	0,061	-0,081
-563,802	800,000	-0,032	-0,087
-562,788	344,770	-0,046	0,066
-561,773	800,000	-0,056	0,116
-560,758	800,000	0,012	-0,033
-559,744	215,932	-0,043	-0,050
-558,729	-79,026	-0,149	-0,037
-557,715	-200,000	-0,001	-0,071
-556,700	242,604	0,042	0,051
-555,685	336,377	-0,112	-0,160
-554,671	-134,806	0,112	0,010
-553,656	-164,120	-0,095	-0,003
-552,642	90,170	-0,056	0,046
-551,627	-47,006	0,028	0,010
-550,612	-169,965	-0,118	-0,003
-549,598	-104,586	-0,055	0,009
-548,583	-200,000	0,005	-0,137
-547,569	-85,672	0,125	0,028
-546,554	161,170	0,068	-0,069
-545,539	613,431	-0,023	-0,043
-544,525	24,474	-0,088	-0,053
-543,510	-43,995	-0,046	-0,017
-542,496	-4,201	-0,105	-0,053
-541,481	106,087	-0,096	-0,083
-540,466	255,139	-0,058	0,073
-539,452	201,803	0,097	-0,109
-538,437	-46,582	0,054	0,019
-537,423	-39,960	-0,050	0,019
-536,408	-69,942	0,135	0,037
-535,393	161,234	-0,062	0,063
-534,379	215,060	-0,034	-0,039
-533,364	15,561	0,095	-0,054
-532,350	800,000	-0,053	0,113
-531,335	-43,032	0,125	0,046
-530,321	-4,262	-0,016	-0,008
-529,306	-200,000	-0,005	-0,090
-528,291	800,000	0,041	-0,106
-527,277	-200,000	-0,017	0,077
-526,262	-131,548	-0,060	0,006
-525,248	-200,000	0,018	-0,064
-524,233	160,714	-0,042	0,043
-523,218	-143,298	-0,015	0,001
-522,204	518,528	0,024	-0,040
-521,189	41,023	0,039	-0,026
-520,175	-15,534	-0,156	0,072
-519,160	294,868	0,047	-0,062
-518,145	-121,607	-0,078	0,009
-517,131	800,000	0,016	-0,041
-516,116	188,330	0,039	0,042
-515,102	-200,000	-0,007	-0,080
-514,087	-200,000	0,014	-0,075
-513,072	440,402	-0,117	-0,188
-512,058	89,664	-0,022	-0,018
-511,043	192,184	0,039	-0,043
-510,029	-138,232	-0,060	0,005
-509,014	127,724	-0,028	0,026
-507,999	-200,000	0,023	0,125
-506,985	200,307	-0,044	0,049
-505,970	392,151	-0,021	0,032
-504,956	138,261	-0,118	-0,113
-503,941	-119,405	-0,040	0,005
-502,926	-1,229	-0,125	0,064
-501,912	365,594	0,047	-0,069
-500,897	4,047	-0,129	-0,069
-499,883	-86,672	0,040	-0,009
-498,868	184,094	0,037	0,040
-497,853	-13,327	0,105	-0,050
-496,839	-101,649	0,046	0,008
-495,824	-65,415	-0,099	0,029
-494,810	252,492	0,094	0,117
-493,795	170,888	0,077	0,080
-492,781	96,147	0,033	-0,028
-491,766	-106,400	-0,090	-0,014
-490,751	-28,985	-0,181	0,075
-489,737	75,428	-0,155	0,119
-488,722	-102,394	0,037	0,006
-487,708	333,129	-0,022	-0,031
-486,693	311,681	0,029	0,040
-485,678	106,872	-0,031	-0,027
-484,664	0,725	-0,073	0,038
-483,649	408,175	0,018	-0,028
-482,635	133,797	0,046	-0,043
-481,620	16,813	-0,181	0,104
-480,605	-200,000	0,005	0,170
-479,591	1,316	-0,187	-0,098
-478,576	-6,423	0,027	-0,014
-477,562	800,000	0,017	0,043
-476,547	-200,000	-0,006	-0,086
-475,532	-200,000	-0,005	-0,074
-474,518	-200,000	0,007	0,154
-473,503	-200,000	0,036	0,145
-472,489	-76,239	-0,139	-0,035
-471,474	-119,564	0,028	0,003
-470,459	-200,000	-0,016	-0,094
-469,445	208,987	-0,050	0,057
-468,430	118,808	-0,100	-0,090
-467,416	-5,657	-0,052	-0,026
-466,401	-141,260	0,124	0,009
-465,386	-200,000	0,004	0,037
-464,372	-200,000	-0,077	-0,000
-463,357	-200,000	0,013	0,044
-462,343	521,171	-0,057	-0,098
-461,328	-200,000	-0,014	0,062
-460,313	69,649	-0,056	-0,042
-459,299	690,226	0,037	0,072
-458,284	649,124	0,025	-0,048
-457,270	-163,242	-0,072	0,002
-456,255	-26,920	0,093	-0,039
-455,241	800,000	0,035	-0,107
-454,226	641,132	-0,051	-0,095
-453,211	-200,000	0,035	0,148
-452,197	-200,000	-0,020	-0,078
-451,182	52,219	0,100	-0,069
-450,168	-145,949	-0,082	-0,005
-449,153	6,933	0,148	0,080
-448,138	332,206	-0,051	0,072
-447,124	-26,802	0,038	-0,016
-446,109	-113,584	-0,060	0,008
-445,095	-31,142	-0,054	0,022
-444,080	-200,000	0,001	0,054
-443,065	415,971	0,023	0,036
-442,051	734,354	0,086	-0,169
-441,036	62,334	0,104	-0,076
-440,022	-188,509	-0,112	-0,001
-439,007	362,233	0,094	0,138
-437,992	71,630	0,080	-0,061
-436,978	-200,000	-0,019	0,063
-435,963	-46,127	0,097	0,035
-434,949	-200,000	-0,001	-0,029
-433,934	145,860	-0,060	0,058
-432,919	800,000	0,059	-0,141
-431,905	-48,079	0,061	-0,021
-430,890	544,660	0,048	-0,083
-429,876	210,773	0,200	0,229
-428,861	523,421	-0,010	-0,017
-427,846	-116,726	-0,037	-0,005
-426,832	-32,143	-0,144	-0,058
-425,817	231,039	-0,049	-0,059
-424,803	-200,000	0,022	-0,168
-423,788	-200,000	0,014	-0,079
-422,773	-200,000	-0,048	0,162
-421,759	709,293	0,057	-0,110
-420,744	66,918	0,095	0,070
-419,730	-44,729	0,092	-0,033
-418,715	343,036	-0,085	-0,122
-417,701	-32,654	0,035	0,014
-416,686	9,390	0,161	-0,088
-415,671	-129,546	-0,088	-0,009
-414,657	800,000	-0,009	0,023
-413,642	-200,000	0,007	-0,022
-412,628	393,867	-0,069	-0,105
-411,613	-58,301	0,087	-0,027
-410,598	800,000	0,039	-0,121
-409,584	-200,000	0,018	-0,071
-408,569	800,000	-0,033	-0,073
-407,555	-43,892	0,163	-0,059
-406,540	61,511	0,105	0,076
-405,525	800,000	0,003	-0,010
-404,511	196,172	-0,038	-0,042
-403,496	-200,000	0,007	-0,070
-402,482	406,356	-0,061	0,094
-401,467	258,056	0,129	0,162
-400,452	246,718	0,144	0,177
-399,438	-77,138	-0,116	0,029
-398,423	302,840	0,082	-0,110
-397,409	-49,328	-0,191	0,066
-396,394	-34,695	0,185	-0,073
-395,379	-200,000	-0,020	-0,127
-394,365	90,143	-0,041	-0,034
-393,350	-26,520	-0,098	-0,041
-392,336	600,104	0,049	-0,090
-391,321	-161,670	0,068	0,002
-390,306	-51,698	-0,102	-0,034
-389,292	96,202	-0,021	-0,018
-388,277	-200,000	0,009	-0,052
-387,263	163,023	0,023	-0,023
-386,248	4,989	0,150	-0,080
-385,233	305,235	0,057	0,077
-384,219	277,663	-0,113	0,147
-383,204	800,000	-0,034	0,093
-382,190	-30,060	0,015	-0,006
-381,175	165,375	-0,071	-0,073
-380,160	-200,000	0,025	0,142
-379,146	36,352	0,072	0,046
-378,131	151,419	0,048	0,047
-377,117	224,407	0,140	-0,165
-376,102	186,000	0,011	0,012
-375,088	54,659	-0,175	-0,123
-374,073	83,166	-0,067	0,053
-373,058	800,000	0,015	-0,033
-372,044	160,425	0,028	0,028
-371,029	-200,000	0,035	0,123
-370,015	-200,000	-0,008	-0,060
-369,000	800,000	-0,050	0,118
-367,985	-200,000	-0,025	-0,102
-366,971	-200,000	-0,023	-0,083
-365,956	-60,899	0,130	0,040
-364,942	-200,000	0,001	0,019
-363,927	-200,000	-0,079	0,000
-362,912	-200,000	-0,001	-0,004
-361,898	-190,284	0,070	-0,001
-360,883	214,213	-0,091	0,105
-359,869	-200,000	-0,004	-0,123
-358,854	-101,734	-0,053	-0,009
-357,839	800,000	0,051	0,106
-356,825	800,000	0,058	0,168
-355,810	166,454	0,118	0,121
-354,796	393,698	-0,054	-0,082
-353,781	800,000	0,012	0,034
-352,766	-150,296	-0,051	-0,003
-351,752	714,895	-0,053	-0,103
-350,737	283,348	0,047	0,062
-349,723	-3,034	0,083	-0,042
-348,708	120,879	0,077	0,070
-347,693	40,565	-0,061	0,040
-346,679	-10,470	-0,068	-0,033
-345,664	-104,515	0,038	-0,006
-344,650	-85,443	0,079	0,018
-343,635	-140,780	0,064	0,005
-342,620	563,933	0,022	0,038
-341,606	-200,000	0,009	-0,080
-340,591	-76,096	-0,127	0,032
-339,577	-21,843	-0,039	0,017
-338,562	9,730	-0,061	0,034
-337,548	289,860	0,036	-0,048
-336,533	443,952	0,026	0,042
-335,518	280,126	-0,031	0,040
-334,504	-200,000	0,009	0,031
-333,489	-159,062	0,024	-0,001
-332,475	-82,657	0,013	0,003
-331,460	-24,156	-0,075	-0,033
-330,445	-89,200	-0,037	-0,008
-329,431	119,558	0,102	0,092
-328,416	174,970	0,106	0,111
-327,402	0,442	-0,141	-0,073
-326,387	800,000	-0,025	-0,056
-325,372	-200,000	0,003	-0,063
-324,358	-126,758	0,043	0,005
-323,343	-92,567	0,117	-0,024
-322,329	-15,682	-0,127	0,059
-321,314	-21,084	0,067	0,030
-320,299	146,914	0,077	-0,075
-319,285	34,451	0,063	-0,040
-318,270	675,489	0,043	-0,081
-317,256	303,645	-0,036	-0,049
-316,241	-81,054	0,043	-0,010
-315,226	-200,000	0,004	-0,102
-314,212	110,303	0,062	0,054
-313,197	-28,746	-0,039	0,016
-312,183	330,929	0,084	0,117
-311,168	-130,905	0,105	-0,010
-310,153	-200,000	0,021	-0,138
-309,139	-200,000	0,007	-0,037
-308,124	-200,000	-0,004	-0,057
-307,110	-92,865	0,136	0,027
-306,095	-200,000	-0,017	0,098
-305,080	151,627	0,066	0,065
-304,066	394,545	-0,024	-0,036
-303,051	-200,000	-0,000	0,002
-302,037	144,617	0,073	-0,071
-301,022	74,155	0,030	0,023
-300,008	688,186	-0,045	0,086
-298,993	119,888	0,011	0,010
-297,978	800,000	-0,020	-0,046
-296,964	800,000	0,036	-0,081
-295,949	547,817	0,055	-0,097
-294,935	-0,428	0,116	-0,060
-293,920	-120,072	-0,033	0,004
-292,905	-99,971	0,056	0,010
-291,891	-135,524	0,198	0,017
-290,876	-49,716	0,058	-0,020
-289,862	-53,008	-0,119	-0,039
-288,847	466,038	-0,156	-0,253
-287,832	-38,339	-0,097	0,037
-286,818	-200,000	-0,034	-0,118
-285,803	-200,000	-0,009	0,133
-284,789	209,194	-0,054	0,062
-283,774	-200,000	0,008	-0,036
-282,759	-75,074	0,100	-0,026
-281,745	31,109	-0,078	-0,048
-280,730	281,093	-0,068	-0,088
-279,716	800,000	0,071	-0,193
-278,701	-4,827	-0,077	-0,038
-277,686	33,530	0,109	-0,069
-276,672	800,000	0,018	0,046
-275,657	-200,000	-0,010	0,050
-274,643	261,817	0,120	0,151
-273,628	-200,000	0,000	-0,073
-272,613	244,637	-0,056	-0,069
-271,599	-200,000	0,015	-0,125
-270,584	125,087	0,076	0,069
-269,570	428,928	0,017	0,026
-268,555	-174,029	0,140	0,003
-267,540	60,097	-0,031	0,022
-266,526	-67,250	-0,105	0,030
-265,511	-72,830	-0,072	-0,019
-264,497	-105,649	-0,031	0,005
-263,482	-2,952	0,034	0,017
-262,467	49,089	0,025	0,017
-261,453	633,882	-0,048	0,089
-260,438	800,000	-0,029	-0,067
-259,424	24,269	0,053	0,032
-258,409	-69,291	-0,075	-0,021
-257,395	109,302	0,050	0,043
-256,380	-45,184	-0,030	0,011
-255,365	160,875	0,043	0,043
-254,351	800,000	-0,010	0,030
-253,336	-200,000	-0,020	0,109
-252,322	325,787	-0,059	0,082
-251,307	800,000	0,021	0,058
-250,292	-167,363	-0,030	0,001
-249,278	-200,000	0,039	0,147
-248,263	-200,000	0,010	0,071
-247,249	-200,000	-0,002	-0,030
-246,234	-76,633	0,042	0,011
-245,219	366,844	-0,012	-0,018
-244,205	199,818	-0,149	-0,166
-243,190	154,442	-0,059	0,059
-242,176	543,817	-0,012	0,021
-241,161	66,636	0,164	-0,120
-240,146	-36,417	0,077	-0,030
-239,132	737,127	-0,049	-0,095
-238,117	-200,000	-0,009	-0,144
-237,103	29,836	-0,128	0,079
-236,088	-53,998	-0,074	0,024
-235,073	-200,000	0,033	0,111
-234,059	147,541	0,101	-0,099
-233,044	-200,000	-0,027	0,115
-232,030	327,091	0,067	-0,093
-231,015	799,423	-0,035	-0,070
-230,000	155,163	0,006	-0,006
-228,986	-200,000	-0,001	0,040
-227,971	-32,173	0,093	0,037
-226,957	-200,000	0,009	0,102
-225,942	-161,571	-0,107	-0,004
-224,927	800,000	0,044	-0,137
-223,913	-39,682	-0,123	-0,046
-222,898	422,887	-0,045	0,070
-221,884	152,983	-0,110	0,108
-220,869	97,939	0,024	-0,020
-219,855	-200,000	0,008	0,190
-218,840	-80,674	0,132	-0,032
-217,825	677,784	-0,036	-0,067
-216,811	135,200	0,040	-0,037
-215,796	130,682	-0,063	-0,058
-214,782	-200,000	0,004	0,089
-213,767	-200,000	0,014	0,070
-212,752	57,942	0,078	0,055
-211,738	-85,972	0,073	-0,016
-210,723	16,963	-0,037	0,021
-209,709	-200,000	0,006	0,071
-208,694	13,726	0,019	0,011
-207,679	-130,460	-0,068	-0,007
-206,665	-125,718	-0,052	0,006
-205,650	-200,000	-0,014	0,062
-204,636	60,232	0,081	0,058
-203,621	-64,691	0,110	0,032
-202,606	-151,756	0,056	0,003
-201,592	-170,062	-0,142	-0,004
-200,577	478,721	-0,025	-0,041
-199,563	-200,000	-0,014	-0,045
-198,548	-169,195	-0,127	0,003
-197,533	47,177	0,076	-0,051
-196,519	-7,816	0,161	-0,078
-195,504	246,578	-0,041	-0,050
-194,490	560,378	0,022	-0,038
-193,475	149,897	-0,024	0,024
-192,460	-63,043	0,060	-0,018
-191,446	-106,405	0,024	0,004
-190,431	20,524	0,064	0,037
-189,417	-106,685	0,122	0,019
-188,402	221,164	-0,064	0,074
-187,387	-123,168	0,042	0,005
-186,373	139,453	-0,124	-0,118
-185,358	-200,000	0,000	0,092
-184,344	800,000	-0,048	0,123
-183,329	329,701	0,088	0,122
-182,315	-200,000	0,016	0,215
-181,300	-200,000	0,003	0,027
-180,285	-51,242	-0,103	0,035
-179,271	-18,500	-0,101	-0,045
-178,256	19,724	0,037	-0,021
-177,242	-42,978	0,168	-0,061
-176,227	800,000	0,023	0,055
-175,212	53,244	0,061	0,042
-174,198	-124,217	-0,128	0,014
-173,183	551,222	-0,075	0,130
-172,169	-200,000	0,013	0,203
-171,154	142,060	0,036	0,034
-170,139	-125,327	0,159	0,017
-169,125	-200,000	-0,010	0,157
-168,110	-200,000	0,015	-0,117
-167,096	-11,250	-0,090	-0,043
-166,081	112,307	-0,038	-0,033
-165,066	-105,597	0,041	-0,007
-164,052	46,263	0,152	0,101
-163,037	-77,475	0,124	-0,031
-162,023	-26,555	-0,083	0,035
-161,008	-75,997	-0,121	0,031
-159,993	169,512	0,073	0,075
-158,979	12,133	-0,105	-0,058
-157,964	-7,588	0,055	0,027
-156,950	-102,001	0,078	-0,013
-155,935	693,227	-0,069	0,131
-154,920	25,145	0,113	0,067
-153,906	181,023	-0,109	0,115
-152,891	278,669	0,053	0,068
-151,877	138,468	-0,075	0,071
-150,862	-101,906	0,068	0,012
-149,847	-200,000	0,018	-0,076
-148,833	-200,000	-0,003	0,102
-147,818	676,144	0,049	0,091
-146,804	-27,238	0,093	0,039
-145,789	50,521	0,073	-0,050
-144,775	-104,391	-0,077	0,013
-143,760	-139,102	-0,124	0,009
-142,745	-200,000	-0,009	-0,053
-141,731	651,277	0,025	-0,046
-140,716	322,196	0,048	-0,066
-139,702	800,000	0,093	0,189
-138,687	100,396	0,105	0,088
-137,672	-170,757	0,102	0,002
-136,658	-138,250	-0,037	0,003
-135,643	-200,000	0,034	0,148
-134,629	-200,000	-0,013	0,102
-133,614	45,031	0,073	-0,048
-132,599	-58,365	-0,082	0,025
-131,585	800,000	0,020	0,042
-130,570	358,017	-0,039	0,057
-129,556	-24,570	0,027	0,012
-128,541	13,775	-0,039	-0,021
-127,526	-200,000	-0,017	0,085
-126,512	-200,000	0,039	-0,155
-125,497	-32,093	0,030	-0,012
-124,483	-89,574	-0,058	0,012
-123,468	265,361	-0,051	-0,064
-122,453	306,183	0,028	-0,037
-121,439	107,661	0,065	0,056
-120,424	-109,190	-0,059	0,009
-119,410	741,803	0,051	0,099
