DTS Sentinel unit serial number:	SN410029Multiplexer serial number:	ORYXHardware model number:	OX2-SRSoftware version number:	ORYX F/W v4,00 Oryx Data Collector v3.7.2.0data status	okinstallation	B5 Nyhavnadifferential loss correction	single-endedforward channel	channel 2reverse channel	N/Adate	2023/12/13time	07:22:13forward acquisition time	300,00reverse acquisition time	0,00gamma	499,1914k internal	0,3160k external	0,3160temperature offset calibration	1,0000default loss term (dB/km)	0,3820temperature slope calibration	1,0000multiplexer offset coefficient	1,0000multiplexer slope coefficient	1,0000fibre end	0,00T internal ref (°C)	13,69T ext. ref 1 (°C)	-2,74T ext. ref 2 (°C)	-3,04length (m)	temperature (°C)	Stokes	anti-Stokes-744,400	237,416	0,090	-0,110
-743,385	58,088	-0,170	0,123
-742,371	600,343	0,089	0,164
-741,356	-59,974	-0,387	0,121
-740,342	553,798	0,040	0,070
-739,327	-22,394	-0,347	0,154
-738,312	-89,741	0,053	0,011
-737,298	-24,373	-0,298	-0,130
-736,283	-200,000	0,019	-0,096
-735,269	-88,603	-0,177	-0,039
-734,254	-70,804	0,233	0,064
-733,239	-53,980	-0,607	-0,202
-732,225	-55,115	0,187	0,062
-731,210	800,000	0,050	-0,127
-730,196	-200,000	-0,005	-0,227
-729,181	198,025	-0,093	0,105
-728,167	-5,829	-0,066	-0,033
-727,152	-91,725	-0,097	0,020
-726,137	208,542	-0,045	-0,052
-725,123	-200,000	-0,026	-0,089
-724,108	-142,011	-0,047	-0,003
-723,094	-200,000	0,003	-0,083
-722,079	307,372	-0,116	-0,159
-721,064	167,506	0,091	-0,095
-720,050	-200,000	-0,014	-0,069
-719,035	800,000	-0,039	0,079
-718,021	-200,000	0,036	0,163
-717,006	-23,444	-0,135	0,059
-715,991	800,000	0,008	0,021
-714,977	94,813	0,004	-0,004
-713,962	-200,000	-0,035	0,121
-712,948	-162,869	0,084	0,003
-711,933	174,242	-0,089	0,095
-710,918	403,022	-0,047	-0,074
-709,904	-30,001	0,083	0,034
-708,889	800,000	0,046	-0,105
-707,875	199,030	-0,163	-0,184
-706,860	607,384	0,024	-0,045
-705,845	-200,000	0,022	0,136
-704,831	-200,000	0,003	-0,057
-703,816	503,446	-0,049	0,084
-702,802	-64,848	-0,081	0,024
-701,787	-200,000	-0,056	-0,188
-700,772	-43,157	0,122	0,045
-699,758	769,022	0,041	-0,082
-698,743	398,561	0,093	-0,143
-697,729	-200,000	0,038	0,147
-696,714	85,273	0,038	0,031
-695,699	351,499	0,035	0,051
-694,685	-106,399	-0,094	0,015
-693,670	-17,768	-0,059	0,027
-692,656	-120,648	0,132	-0,016
-691,641	484,916	0,054	-0,090
-690,627	800,000	-0,052	-0,118
-689,612	230,067	-0,059	0,071
-688,597	-200,000	0,024	-0,103
-687,583	800,000	-0,060	-0,134
-686,568	470,475	-0,018	0,029
-685,554	371,843	0,014	-0,021
-684,539	99,845	0,075	0,064
-683,524	-200,000	-0,004	-0,041
-682,510	-33,816	0,078	-0,031
-681,495	800,000	-0,023	-0,049
-680,481	-12,520	-0,112	-0,054
-679,466	-68,008	-0,052	-0,015
-678,451	295,483	0,093	0,126
-677,437	74,703	0,030	-0,023
-676,422	-108,959	0,035	-0,005
-675,408	106,971	0,045	-0,039
-674,393	-136,346	0,135	0,011
-673,378	252,030	-0,150	-0,187
-672,364	-182,578	-0,145	-0,002
-671,349	63,394	-0,104	-0,076
-670,335	-169,718	0,080	0,002
-669,320	53,632	0,084	-0,059
-668,305	259,576	0,025	-0,032
-667,291	215,759	-0,103	0,120
-666,276	82,578	-0,168	0,134
-665,262	-200,000	-0,021	-0,136
-664,247	800,000	-0,037	0,119
-663,232	-81,730	0,021	0,005
-662,218	465,839	0,099	0,163
-661,203	88,617	-0,101	0,083
-660,189	300,025	-0,036	0,049
-659,174	220,883	-0,077	0,091
-658,159	1,058	0,094	0,049
-657,145	107,441	-0,107	-0,093
-656,130	-75,640	0,080	0,021
-655,116	-147,972	0,024	-0,001
-654,101	-113,182	-0,033	0,005
-653,086	800,000	-0,035	-0,099
-652,072	278,275	-0,035	-0,046
-651,057	-104,529	-0,028	-0,005
-650,043	269,809	-0,033	0,043
-649,028	35,960	-0,083	0,054
-648,014	25,576	-0,045	0,028
-646,999	-7,644	0,087	0,043
-645,984	-68,102	0,033	0,009
-644,970	258,001	-0,131	-0,166
-643,955	52,564	0,042	-0,030
-642,941	54,751	-0,059	-0,042
-641,926	38,400	-0,085	-0,055
-640,911	-200,000	0,008	-0,092
-639,897	-52,301	0,140	0,047
-638,882	37,355	0,011	-0,007
-637,868	385,371	0,135	-0,206
-636,853	55,669	0,165	-0,117
-635,838	-79,082	-0,178	-0,044
-634,824	16,348	0,121	-0,070
-633,809	-64,467	0,163	0,048
-632,795	202,945	0,119	0,135
-631,780	800,000	0,041	0,127
-630,765	800,000	-0,048	-0,143
-629,751	-165,707	0,044	-0,001
-628,736	-200,000	0,012	-0,063
-627,722	-54,296	-0,165	-0,054
-626,707	-87,236	0,042	-0,009
-625,692	-200,000	-0,004	-0,044
-624,678	44,795	-0,068	0,046
-623,663	-200,000	0,008	-0,033
-622,649	673,159	-0,042	-0,080
-621,634	108,508	-0,051	-0,045
-620,619	111,668	-0,042	-0,037
-619,605	86,394	-0,039	0,032
-618,590	-186,891	-0,052	0,001
-617,576	181,268	-0,033	0,036
-616,561	800,000	0,058	0,121
-615,546	88,264	-0,137	0,112
-614,532	-117,843	-0,193	-0,025
-613,517	-57,202	0,129	-0,041
-612,503	-200,000	0,005	-0,089
-611,488	-34,764	-0,150	0,060
-610,474	-3,292	0,097	-0,049
-609,459	-52,045	-0,098	-0,033
-608,444	-200,000	0,008	0,088
-607,430	-79,187	-0,080	0,020
-606,415	-57,872	-0,102	0,032
-605,401	122,018	-0,022	0,020
-604,386	41,285	0,086	0,057
-603,371	262,872	0,039	0,050
-602,357	321,293	-0,069	-0,097
-601,342	-88,850	-0,115	0,025
-600,328	800,000	0,038	0,084
-599,313	570,377	-0,040	-0,071
-598,298	102,563	-0,019	-0,016
-597,284	-200,000	-0,017	0,071
-596,269	-200,000	-0,009	0,139
-595,255	342,351	-0,102	0,146
-594,240	267,193	-0,015	0,020
-593,225	800,000	0,038	-0,095
-592,211	-99,885	-0,078	0,014
-591,196	800,000	0,029	0,087
-590,182	131,541	0,120	0,113
-589,167	-152,835	-0,037	-0,002
-588,152	-200,000	0,037	-0,141
-587,138	-87,236	0,052	-0,011
-586,123	596,334	-0,060	-0,110
-585,109	-35,580	-0,060	-0,024
-584,094	-1,383	0,097	0,050
-583,079	181,750	0,067	0,073
-582,065	729,649	-0,029	0,057
-581,050	-200,000	0,016	-0,056
-580,036	43,981	0,110	0,074
-579,021	-200,000	0,024	-0,083
-578,006	-69,180	0,136	0,038
-576,992	2,243	-0,083	-0,044
-575,977	69,591	-0,020	0,015
-574,963	-22,637	-0,074	0,033
-573,948	-200,000	0,019	-0,086
-572,934	800,000	-0,061	-0,139
-571,919	114,376	-0,060	0,054
-570,904	457,234	-0,020	-0,033
-569,890	800,000	-0,017	0,048
-568,875	-200,000	0,018	0,070
-567,861	318,025	0,012	0,017
-566,846	-104,763	-0,072	-0,012
-565,831	800,000	-0,024	0,053
-564,817	-74,444	0,078	0,020
-563,802	-188,552	-0,095	0,001
-562,788	-79,561	-0,046	-0,011
-561,773	167,007	0,118	-0,123
-560,758	360,533	-0,082	-0,120
-559,744	-200,000	-0,019	0,128
-558,729	-200,000	0,003	0,026
-557,715	-48,724	-0,042	0,015
-556,700	-52,715	-0,153	-0,051
-555,685	-200,000	-0,004	-0,098
-554,671	-45,420	0,138	-0,050
-553,656	154,923	0,014	-0,014
-552,642	800,000	-0,011	0,035
-551,627	-30,312	0,081	0,033
-550,612	-161,314	-0,010	0,000
-549,598	22,465	-0,049	0,029
-548,583	-200,000	0,005	-0,065
-547,569	31,111	-0,088	-0,055
-546,554	-200,000	0,021	0,085
-545,539	211,342	0,029	-0,033
-544,525	777,175	0,037	0,073
-543,510	-129,021	-0,108	-0,011
-542,496	-200,000	-0,049	-0,173
-541,481	800,000	-0,027	-0,077
-540,466	-200,000	0,025	-0,130
-539,452	43,066	-0,082	-0,055
-538,437	56,907	-0,066	0,047
-537,423	-100,281	0,120	-0,022
-536,408	-200,000	0,045	0,176
-535,393	-130,701	0,087	0,008
-534,379	103,421	-0,100	-0,086
-533,364	-34,177	-0,126	-0,050
-532,350	-200,000	-0,001	0,050
-531,335	19,522	0,119	0,070
-530,321	800,000	0,044	-0,116
-529,306	-200,000	0,012	-0,040
-528,291	14,597	-0,063	-0,036
-527,277	265,556	-0,047	0,060
-526,262	203,431	0,053	-0,060
-525,248	-145,211	0,039	0,003
-524,233	800,000	0,036	0,078
-523,218	20,430	0,059	-0,035
-522,204	-200,000	0,007	0,124
-521,189	55,334	0,067	0,047
-520,175	-27,452	0,033	-0,014
-519,160	-117,457	-0,114	0,015
-518,145	267,361	0,055	0,071
-517,131	-2,307	0,072	0,037
-516,116	134,685	0,135	0,128
-515,102	72,003	-0,066	0,050
-514,087	-102,242	0,084	0,015
-513,072	175,091	-0,046	-0,048
-512,058	-200,000	0,007	-0,114
-511,043	-155,634	-0,101	-0,005
-510,029	14,066	-0,076	-0,043
-509,014	-53,016	0,064	0,021
-507,999	-200,000	-0,002	0,015
-506,985	-110,838	-0,071	-0,011
-505,970	-17,678	-0,137	-0,062
-504,956	-139,000	-0,177	0,014
-503,941	800,000	-0,045	-0,120
-502,926	800,000	0,025	-0,058
-501,912	286,271	0,066	-0,088
-500,897	274,622	-0,055	-0,072
-499,883	437,925	-0,083	0,133
-498,868	-76,150	-0,122	0,031
-497,853	-54,609	-0,112	-0,037
-496,839	670,653	-0,035	0,067
-495,824	-111,844	0,124	-0,018
-494,810	203,939	-0,087	0,099
-493,795	265,974	0,066	0,084
-492,781	269,992	0,093	0,120
-491,766	-95,157	-0,092	0,018
-490,751	96,876	-0,093	0,077
-489,737	315,263	0,028	-0,038
-488,722	310,843	0,098	0,134
-487,708	-120,179	0,070	0,009
-486,693	-60,010	-0,136	-0,042
-485,678	178,829	-0,080	-0,085
-484,664	425,390	-0,057	-0,089
-483,649	37,282	-0,086	0,055
-482,635	-84,784	0,105	0,024
-481,620	-87,196	-0,043	0,010
-480,605	800,000	-0,020	0,047
-479,591	226,744	-0,044	-0,053
-478,576	29,216	-0,031	-0,019
-477,562	-200,000	0,019	0,095
-476,547	-200,000	-0,021	-0,100
-475,532	133,284	0,083	-0,079
-474,518	-133,145	-0,013	-0,001
-473,503	493,210	-0,067	0,112
-472,489	-200,000	0,026	0,091
-471,474	-200,000	-0,023	-0,142
-470,459	-200,000	-0,009	-0,101
-469,445	800,000	-0,053	-0,165
-468,430	-200,000	0,032	-0,103
-467,416	98,528	0,061	-0,051
-466,401	-200,000	0,023	0,092
-465,386	-200,000	0,008	0,059
-464,372	-186,060	-0,034	-0,000
-463,357	575,568	0,009	0,016
-462,343	134,638	-0,087	-0,082
-461,328	236,503	0,069	-0,084
-460,313	800,000	0,063	-0,181
-459,299	800,000	0,020	-0,057
-458,284	162,496	-0,088	-0,090
-457,270	-67,441	0,124	0,035
-456,255	214,702	-0,078	-0,090
-455,241	35,221	0,082	-0,052
-454,226	-28,448	-0,110	-0,046
-453,211	-200,000	-0,019	0,105
-452,197	-200,000	0,007	-0,074
-451,182	800,000	-0,043	-0,126
-450,168	-200,000	0,001	-0,125
-449,153	188,348	0,031	-0,033
-448,138	79,797	-0,047	-0,037
-447,124	-78,244	0,132	-0,033
-446,109	-143,015	-0,049	0,003
-445,095	115,936	0,068	-0,061
-444,080	800,000	0,051	0,131
-443,065	-200,000	-0,026	0,086
-442,051	-200,000	-0,011	-0,039
-441,036	-200,000	-0,030	-0,121
-440,022	123,396	0,033	0,030
-439,007	508,152	-0,007	-0,012
-437,992	-200,000	0,011	-0,052
-436,978	-200,000	0,002	0,116
-435,963	-102,816	-0,122	-0,021
-434,949	-200,000	0,002	0,059
-433,934	-200,000	-0,003	0,080
-432,919	-146,738	-0,080	-0,005
-431,905	63,441	0,096	0,070
-430,890	-118,076	-0,032	-0,004
-429,876	-200,000	0,014	0,048
-428,861	800,000	0,058	0,125
-427,846	602,068	-0,059	-0,108
-426,832	8,977	-0,133	-0,073
-425,817	-200,000	-0,028	-0,091
-424,803	109,190	-0,031	0,027
-423,788	-200,000	0,018	0,084
-422,773	-134,583	0,125	-0,011
-421,759	105,929	-0,037	0,032
-420,744	800,000	0,039	-0,118
-419,730	-200,000	-0,034	-0,131
-418,715	800,000	-0,045	-0,106
-417,701	-63,555	-0,050	0,015
-416,686	69,486	0,066	-0,050
-415,671	82,503	0,089	0,071
-414,657	42,510	-0,053	-0,035
-413,642	137,934	-0,066	-0,063
-412,628	101,934	-0,106	-0,090
-411,613	117,794	0,045	0,040
-410,598	-200,000	0,004	0,080
-409,584	-130,501	0,058	0,006
-408,569	-24,528	0,087	0,037
-407,555	-5,068	0,128	0,064
-406,540	92,176	-0,062	-0,050
-405,525	287,334	0,109	-0,144
-404,511	-200,000	-0,019	-0,132
-403,496	257,165	-0,038	-0,047
-402,482	-200,000	0,030	-0,110
-401,467	89,756	-0,100	0,081
-400,452	-200,000	-0,001	0,002
-399,438	800,000	-0,035	0,089
-398,423	100,214	-0,077	-0,065
-397,409	251,524	-0,058	-0,072
-396,394	348,862	0,058	-0,083
-395,379	-200,000	0,001	-0,031
-394,365	800,000	-0,052	-0,130
-393,350	-146,440	0,134	0,008
-392,336	-200,000	0,007	0,075
-391,321	-120,149	0,109	-0,013
-390,306	-200,000	-0,006	-0,073
-389,292	-200,000	-0,001	-0,091
-388,277	-62,440	-0,037	-0,011
-387,263	-84,656	0,056	-0,013
-386,248	-99,186	0,112	0,020
-385,233	-148,999	-0,063	0,004
-384,219	95,537	0,014	0,012
-383,204	71,041	0,021	0,016
-382,190	-46,588	0,110	-0,039
-381,175	-112,907	-0,078	-0,011
-380,160	-104,948	-0,052	-0,008
-379,146	632,754	0,110	0,203
-378,131	-200,000	0,006	-0,024
-377,117	-200,000	0,045	-0,151
-376,102	-79,225	-0,133	0,033
-375,088	800,000	-0,016	0,034
-374,073	16,357	0,141	-0,081
-373,058	-200,000	-0,012	0,085
-372,044	140,731	0,041	-0,040
-371,029	89,561	-0,031	0,025
-370,015	-81,781	-0,048	0,011
-369,000	287,706	0,045	-0,059
-367,985	662,138	-0,056	0,106
-366,971	800,000	-0,065	-0,146
-365,956	337,124	0,075	0,106
-364,942	-200,000	-0,004	0,086
-363,927	-62,884	0,071	0,021
-362,912	-200,000	-0,034	-0,110
-361,898	495,166	-0,047	-0,079
-360,883	-87,645	-0,038	0,008
-359,869	-200,000	0,015	-0,049
-358,854	-31,296	0,052	-0,021
-357,839	521,418	0,091	0,156
-356,825	-200,000	-0,015	-0,050
-355,810	-200,000	-0,005	-0,017
-354,796	800,000	0,013	0,038
-353,781	183,622	-0,039	-0,042
-352,766	-41,288	-0,035	-0,013
-351,752	324,505	-0,031	0,044
-350,737	-200,000	-0,010	0,130
-349,723	-43,185	0,142	0,052
-348,708	800,000	-0,010	0,028
-347,693	-37,964	-0,062	-0,024
-346,679	800,000	-0,034	0,093
-345,664	44,568	0,032	0,021
-344,650	405,321	0,069	-0,106
-343,635	-200,000	-0,030	-0,128
-342,620	12,916	0,092	0,051
-341,606	-200,000	-0,010	0,043
-340,591	-200,000	-0,023	-0,095
-339,577	226,631	-0,012	0,014
-338,562	39,903	-0,039	0,025
-337,548	-200,000	-0,003	-0,066
-336,533	-7,766	0,108	0,053
-335,518	-60,688	-0,043	0,013
-334,504	-63,222	-0,070	0,021
-333,489	557,510	-0,049	0,086
-332,475	278,003	-0,072	0,094
-331,460	521,258	0,075	-0,129
-330,445	-200,000	0,003	0,062
-329,431	38,630	0,092	0,059
-328,416	-88,460	-0,031	-0,007
-327,402	16,657	-0,040	-0,023
-326,387	-32,284	0,208	-0,084
-325,372	182,581	-0,087	-0,093
-324,358	251,843	0,012	0,015
-323,343	291,587	0,026	-0,034
-322,329	-105,379	0,063	0,010
-321,314	-38,818	0,048	-0,018
-320,299	-7,600	-0,143	0,070
-319,285	166,040	-0,102	0,105
-318,270	-200,000	-0,025	-0,113
-317,256	800,000	0,010	-0,025
-316,241	800,000	0,065	0,200
-315,226	518,812	0,011	-0,018
-314,212	472,808	0,071	0,116
-313,197	280,038	0,074	0,096
-312,183	303,667	0,074	0,100
-311,168	-199,380	-0,107	-0,000
-310,153	255,134	0,013	-0,016
-309,139	800,000	0,003	-0,008
-308,124	800,000	-0,025	0,056
-307,110	-200,000	-0,003	0,069
-306,095	-58,283	0,016	0,005
-305,080	800,000	-0,034	-0,076
-304,066	800,000	0,026	0,064
-303,051	316,209	0,049	0,067
-302,037	-23,675	0,039	-0,017
-301,022	-42,894	0,003	0,001
-300,008	795,723	-0,016	0,033
-298,993	-200,000	0,001	0,060
-297,978	-101,075	0,056	0,010
-296,964	139,963	0,202	-0,193
-295,949	-200,000	-0,031	-0,111
-294,935	-102,933	0,026	0,004
-293,920	64,397	0,092	0,067
-292,905	-118,979	0,130	-0,016
-291,891	-200,000	-0,015	-0,127
-290,876	425,215	0,037	-0,059
-289,862	-24,209	-0,144	0,062
-288,847	-48,710	-0,047	0,016
-287,832	-200,000	-0,035	0,110
-286,818	19,207	0,088	-0,051
-285,803	-107,510	-0,046	-0,007
-284,789	31,224	0,046	-0,029
-283,774	780,565	-0,035	0,069
-282,759	-74,184	0,055	0,014
-281,745	-4,198	-0,083	-0,041
-280,730	-200,000	-0,025	0,124
-279,716	-200,000	-0,003	0,058
-278,701	76,004	0,030	-0,023
-277,686	249,369	0,051	0,063
-276,672	-69,232	0,158	0,044
-275,657	19,475	0,094	0,054
-274,643	-53,767	-0,063	-0,021
-273,628	-200,000	-0,017	-0,117
-272,613	800,000	-0,038	0,084
-271,599	11,720	0,129	0,071
-270,584	31,427	-0,149	0,092
-269,570	275,758	0,030	-0,038
-268,555	12,401	0,103	0,057
-267,540	102,335	-0,051	0,043
-266,526	-85,177	-0,109	-0,024
-265,511	33,328	-0,064	-0,040
-264,497	477,012	-0,035	0,058
-263,482	465,682	0,042	0,068
-262,467	-125,089	0,112	0,012
-261,453	508,515	0,007	-0,011
-260,438	-5,387	-0,076	0,037
-259,424	-200,000	-0,022	-0,087
-258,409	101,532	-0,039	0,033
-257,395	-95,520	-0,088	-0,017
-256,380	-200,000	0,021	-0,119
-255,365	82,356	0,041	-0,032
-254,351	-74,217	0,078	0,020
-253,336	-39,695	-0,065	0,024
-252,322	6,272	0,115	0,061
-251,307	410,289	-0,038	-0,058
-250,292	-159,883	0,134	0,005
-249,278	344,286	0,080	0,113
-248,263	-200,000	0,026	0,088
-247,249	800,000	-0,022	-0,062
-246,234	90,903	-0,095	0,077
-245,219	-40,150	-0,158	-0,059
-244,205	67,362	-0,071	0,052
-243,190	800,000	0,066	0,179
-242,176	-200,000	-0,024	0,239
-241,161	-152,981	-0,099	0,005
-240,146	-44,053	0,048	0,017
-239,132	-200,000	0,004	0,150
-238,117	660,835	-0,092	-0,171
-237,103	213,398	-0,065	-0,074
-236,088	-45,894	-0,090	0,032
-235,073	234,230	-0,057	0,068
-234,059	104,893	0,124	0,106
-233,044	51,187	0,035	-0,024
-232,030	228,560	0,061	-0,072
-231,015	-85,564	0,073	-0,016
-230,000	449,056	-0,092	-0,147
-228,986	217,801	-0,071	-0,082
-227,971	-200,000	0,001	0,005
-226,957	-146,499	0,130	0,008
-225,942	800,000	-0,032	0,085
-224,927	-99,247	0,119	-0,021
-223,913	-200,000	-0,014	-0,057
-222,898	-200,000	0,004	-0,105
-221,884	-200,000	0,001	-0,125
-220,869	37,606	-0,101	0,065
-219,855	-200,000	0,025	0,112
-218,840	-154,954	0,152	0,007
-217,825	-200,000	-0,002	0,037
-216,811	71,952	-0,069	-0,052
-215,796	-105,405	0,066	-0,011
-214,782	663,396	-0,089	-0,166
-213,767	-54,876	0,104	0,034
-212,752	-62,142	-0,051	-0,015
-211,738	-58,983	0,067	0,021
-210,723	-24,244	0,067	0,029
-209,709	800,000	-0,085	0,205
-208,694	355,816	0,053	-0,077
-207,679	606,111	-0,061	0,111
-206,665	424,894	0,064	0,100
-205,650	569,579	-0,029	0,052
-204,636	40,211	-0,050	-0,032
-203,621	97,422	-0,117	-0,097
-202,606	-200,000	-0,026	-0,158
-201,592	-33,295	-0,043	0,017
-200,577	-52,433	0,085	-0,028
-199,563	-200,000	-0,006	0,049
-198,548	228,379	0,044	-0,052
-197,533	-100,325	0,153	0,027
-196,519	361,159	-0,044	0,064
-195,504	-200,000	0,039	-0,147
-194,490	-130,264	-0,104	0,010
-193,475	800,000	-0,012	0,037
-192,460	174,988	0,064	-0,067
-191,446	22,763	-0,085	0,050
-190,431	493,975	0,048	0,079
-189,417	276,928	0,062	-0,080
-188,402	-200,000	0,003	-0,076
-187,387	-97,790	-0,067	0,012
-186,373	145,861	0,138	-0,134
-185,358	60,691	-0,108	-0,077
-184,344	390,015	0,060	0,091
-183,329	-200,000	0,010	0,120
-182,315	-200,000	-0,025	-0,100
-181,300	-200,000	-0,018	-0,067
-180,285	-200,000	-0,033	0,130
-179,271	800,000	-0,043	0,094
-178,256	734,073	-0,020	0,039
-177,242	3,774	0,151	0,079
-176,227	-141,863	0,148	-0,011
-175,212	-200,000	-0,028	-0,097
-174,198	-200,000	0,002	-0,132
-173,183	-143,325	-0,107	0,007
-172,169	114,503	0,035	0,031
-171,154	-84,528	0,117	0,026
-170,139	-25,696	0,124	0,053
-169,125	176,240	-0,051	0,053
-168,110	-200,000	0,002	0,113
-167,096	283,028	0,028	-0,037
-166,081	-77,521	-0,072	-0,018
-165,066	218,487	0,119	0,137
-164,052	101,992	-0,090	-0,075
-163,037	50,619	0,133	0,090
-162,023	-38,187	0,043	-0,016
-161,008	-200,000	0,033	0,120
-159,993	192,022	-0,023	0,024
-158,979	574,681	-0,115	0,204
-157,964	-200,000	0,012	0,077
-156,950	439,037	-0,086	0,135
-155,935	640,240	0,079	0,145
-154,920	800,000	0,028	-0,073
-153,906	755,254	0,080	0,156
-152,891	605,398	-0,035	-0,063
-151,877	-200,000	-0,001	0,032
-150,862	800,000	0,034	0,082
-149,847	800,000	-0,028	0,062
-148,833	-1,271	0,098	-0,050
-147,818	-149,029	-0,030	0,002
-146,804	800,000	0,059	0,132
-145,789	-200,000	-0,010	0,168
-144,775	239,060	-0,064	-0,077
-143,760	403,609	0,042	0,063
-142,745	-41,198	-0,079	0,029
-141,731	-200,000	0,036	-0,123
-140,716	-71,686	0,144	-0,038
-139,702	-114,162	0,076	0,010
-138,687	-200,000	-0,009	-0,105
-137,672	-70,659	0,117	-0,032
-136,658	195,700	-0,079	0,086
-135,643	38,625	0,050	-0,032
-134,629	-87,355	0,149	-0,032
-133,614	14,399	0,039	0,022
-132,599	89,884	-0,127	0,102
-131,585	-200,000	-0,003	-0,036
-130,570	800,000	0,026	0,073
-129,556	-195,478	-0,058	0,000
-128,541	-200,000	0,020	0,069
-127,526	-200,000	0,007	-0,083
-126,512	-58,109	0,106	-0,033
-125,497	402,648	0,010	0,015
-124,483	225,307	0,076	-0,088
-123,468	-151,986	-0,104	0,005
-122,453	37,101	-0,154	0,098
-121,439	348,701	-0,066	0,093
-120,424	-200,000	0,002	0,043
-119,410	-200,000	-0,021	-0,103
