DTS Sentinel unit serial number:	SN410029Multiplexer serial number:	ORYXHardware model number:	OX2-SRSoftware version number:	ORYX F/W v4,00 Oryx Data Collector v3.7.2.0data status	okinstallation	B5 Nyhavnadifferential loss correction	single-endedforward channel	channel 2reverse channel	N/Adate	2023/12/14time	02:02:13forward acquisition time	300,00reverse acquisition time	0,00gamma	499,1914k internal	0,3154k external	0,3154temperature offset calibration	1,0000default loss term (dB/km)	0,3820temperature slope calibration	1,0000multiplexer offset coefficient	1,0000multiplexer slope coefficient	1,0000fibre end	0,00T internal ref (°C)	8,62T ext. ref 1 (°C)	-7,57T ext. ref 2 (°C)	-7,59length (m)	temperature (°C)	Stokes	anti-Stokes-744,400	38,406	0,075	0,049
-743,385	-52,167	-0,304	-0,103
-742,371	20,982	0,145	0,087
-741,356	-125,985	-0,338	-0,037
-740,342	-200,000	0,025	0,105
-739,327	-85,366	-0,516	-0,118
-738,312	-70,249	0,111	-0,031
-737,298	-96,519	-0,443	-0,086
-736,283	23,588	0,111	0,067
-735,269	-177,563	-0,331	-0,006
-734,254	-200,000	-0,003	0,033
-733,239	-15,844	-0,415	-0,194
-732,225	314,240	0,110	0,154
-731,210	-3,041	-0,039	0,020
-730,196	133,044	0,068	0,065
-729,181	-60,522	-0,126	-0,039
-728,167	258,395	-0,049	0,063
-727,152	800,000	0,013	0,038
-726,137	653,881	-0,064	-0,121
-725,123	-9,793	-0,040	-0,020
-724,108	156,040	-0,076	-0,077
-723,094	141,619	-0,094	-0,092
-722,079	-200,000	0,004	-0,051
-721,064	136,714	0,037	-0,035
-720,050	-200,000	-0,031	0,141
-719,035	-40,570	0,132	0,050
-718,021	-199,296	-0,068	-0,000
-717,006	245,576	0,039	-0,048
-715,991	-55,998	-0,132	0,043
-714,977	29,308	-0,078	-0,049
-713,962	125,358	-0,035	0,032
-712,948	800,000	-0,035	-0,105
-711,933	-150,950	0,074	0,004
-710,918	-200,000	0,016	0,069
-709,904	800,000	0,061	-0,142
-708,889	162,392	0,067	-0,070
-707,875	-127,380	0,025	-0,003
-706,860	800,000	-0,038	-0,091
-705,845	800,000	-0,025	-0,067
-704,831	397,270	-0,045	0,070
-703,816	-200,000	0,026	-0,100
-702,802	-200,000	-0,020	0,104
-701,787	-200,000	0,031	-0,158
-700,772	-106,257	-0,044	0,007
-699,758	-195,260	0,113	0,001
-698,743	-2,302	0,111	0,057
-697,729	36,741	-0,146	-0,095
-696,714	121,651	0,035	-0,032
-695,699	-200,000	-0,006	-0,027
-694,685	56,258	-0,101	-0,072
-693,670	212,055	0,066	-0,077
-692,656	-200,000	-0,026	0,110
-691,641	-169,394	-0,083	-0,002
-690,627	145,688	-0,039	0,039
-689,612	287,314	0,049	0,065
-688,597	-40,987	-0,029	0,011
-687,583	-163,473	-0,153	0,005
-686,568	762,619	0,056	-0,112
-685,554	-57,283	-0,066	-0,021
-684,539	169,220	-0,079	-0,083
-683,524	249,863	0,048	0,060
-682,510	-200,000	-0,016	-0,068
-681,495	-128,270	-0,273	-0,028
-680,481	-200,000	-0,004	0,071
-679,466	366,126	-0,074	-0,110
-678,451	477,854	0,058	-0,097
-677,437	-104,657	-0,051	0,009
-676,422	99,262	0,060	0,051
-675,408	-200,000	-0,009	-0,113
-674,393	800,000	0,078	-0,187
-673,378	-200,000	-0,006	-0,106
-672,364	243,266	0,043	0,053
-671,349	800,000	0,025	-0,053
-670,335	-9,873	-0,051	0,025
-669,320	57,691	0,128	-0,092
-668,305	-50,553	-0,039	0,014
-667,291	-200,000	-0,026	-0,145
-666,276	231,533	-0,061	0,074
-665,262	-62,016	-0,137	-0,042
-664,247	48,852	-0,049	0,034
-663,232	-102,432	-0,102	-0,018
-662,218	330,751	0,088	0,126
-661,203	178,644	-0,109	-0,117
-660,189	-83,890	-0,089	-0,021
-659,174	-65,968	-0,058	0,017
-658,159	-200,000	-0,017	0,062
-657,145	-200,000	0,020	-0,111
-656,130	390,198	-0,007	-0,010
-655,116	-200,000	-0,029	0,141
-654,101	-198,636	-0,031	0,000
-653,086	-146,466	-0,117	0,007
-652,072	325,244	-0,025	-0,035
-651,057	-59,231	-0,062	-0,019
-650,043	800,000	0,022	-0,055
-649,028	-200,000	0,018	0,085
-648,014	-200,000	0,003	0,069
-646,999	71,311	-0,099	-0,075
-645,984	195,123	-0,076	-0,085
-644,970	373,951	0,007	0,011
-643,955	-60,218	-0,115	-0,036
-642,941	128,397	-0,059	-0,055
-641,926	-149,731	-0,059	0,003
-640,911	-146,358	0,057	0,004
-639,897	800,000	0,010	0,031
-638,882	-200,000	0,036	-0,169
-637,868	331,565	-0,062	-0,087
-636,853	-97,861	0,095	-0,018
-635,838	-40,674	-0,050	0,019
-634,824	-115,430	0,044	0,006
-633,809	-34,594	-0,084	0,033
-632,795	-142,417	0,129	-0,009
-631,780	-200,000	-0,009	0,040
-630,765	-45,813	-0,096	-0,035
-629,751	-45,412	-0,042	-0,015
-628,736	800,000	-0,019	-0,052
-627,722	-139,839	-0,059	-0,005
-626,707	-20,536	-0,101	0,045
-625,692	-61,382	0,092	-0,028
-624,678	361,421	-0,017	-0,025
-623,663	-177,945	-0,064	0,001
-622,649	-200,000	0,005	-0,050
-621,634	-200,000	0,022	0,081
-620,619	-152,760	0,068	-0,003
-619,605	-135,947	0,042	-0,004
-618,590	800,000	-0,023	0,063
-617,576	-200,000	-0,011	0,053
-616,561	-42,270	0,045	-0,017
-615,546	-200,000	0,001	0,096
-614,532	800,000	-0,021	-0,068
-613,517	23,634	-0,127	-0,077
-612,503	178,249	-0,072	0,077
-611,488	186,975	0,082	0,090
-610,474	-44,246	0,052	0,019
-609,459	289,076	-0,038	-0,051
-608,444	-200,000	-0,032	-0,152
-607,430	327,744	0,051	0,072
-606,415	-2,838	-0,066	-0,034
-605,401	-108,330	0,161	-0,025
-604,386	-200,000	-0,006	0,171
-603,371	-59,762	0,029	0,009
-602,357	46,032	0,093	-0,063
-601,342	240,033	-0,013	-0,016
-600,328	147,423	-0,074	-0,073
-599,313	-29,508	0,092	0,038
-598,298	-61,630	-0,071	0,022
-597,284	-200,000	0,006	0,035
-596,269	-122,665	-0,086	0,010
-595,255	-200,000	-0,022	-0,082
-594,240	716,115	-0,043	-0,084
-593,225	94,568	-0,051	-0,043
-592,211	-65,347	0,056	0,016
-591,196	176,251	0,045	-0,048
-590,182	-62,604	0,067	-0,020
-589,167	-82,800	-0,051	0,012
-588,152	-151,684	-0,105	0,006
-587,138	800,000	0,010	0,022
-586,123	-28,675	-0,111	-0,047
-585,109	-93,108	0,075	0,015
-584,094	-109,967	0,022	0,003
-583,079	-200,000	0,003	0,073
-582,065	-27,272	-0,130	-0,055
-581,050	-38,298	-0,126	0,049
-580,036	43,293	0,032	0,022
-579,021	-200,000	-0,010	0,042
-578,006	339,011	0,040	-0,057
-576,992	-200,000	-0,025	0,169
-575,977	93,080	-0,163	0,135
-574,963	292,952	0,087	0,116
-573,948	-200,000	0,040	0,163
-572,934	-114,977	0,138	0,019
-571,919	-63,012	0,047	0,014
-570,904	121,320	-0,081	-0,074
-569,890	800,000	-0,026	-0,076
-568,875	211,225	0,028	-0,032
-567,861	274,028	-0,021	0,028
-566,846	95,628	0,017	-0,015
-565,831	238,811	0,037	0,046
-564,817	2,146	0,052	0,028
-563,802	-200,000	0,004	-0,144
-562,788	18,608	-0,019	0,011
-561,773	721,877	0,063	-0,123
-560,758	52,747	-0,103	0,072
-559,744	-200,000	-0,009	0,137
-558,729	-80,268	-0,017	-0,004
-557,715	100,416	-0,051	0,043
-556,700	-69,450	-0,049	0,014
-555,685	45,553	-0,021	-0,014
-554,671	33,388	0,067	0,042
-553,656	-200,000	0,007	0,061
-552,642	-85,966	-0,045	-0,010
-551,627	16,315	0,105	0,061
-550,612	-122,553	-0,066	0,008
-549,598	-200,000	-0,185	0,001
-548,583	55,593	0,041	0,029
-547,569	66,830	-0,055	0,041
-546,554	135,440	0,040	0,038
-545,539	-27,270	-0,130	-0,055
-544,525	-200,000	0,026	0,086
-543,510	366,847	-0,045	0,066
-542,496	-200,000	-0,006	-0,058
-541,481	-200,000	-0,028	-0,132
-540,466	-73,551	0,057	0,015
-539,452	-2,220	0,059	0,030
-538,437	-66,623	0,073	-0,021
-537,423	594,321	-0,051	0,093
-536,408	386,277	-0,058	-0,089
-535,393	-59,993	0,064	-0,020
-534,379	-23,544	0,022	0,010
-533,364	-47,957	-0,080	0,028
-532,350	-200,000	-0,019	0,096
-531,335	-200,000	0,008	0,076
-530,321	800,000	0,004	0,012
-529,306	-200,000	-0,007	0,029
-528,291	-114,918	-0,155	0,021
-527,277	446,979	-0,079	0,128
-526,262	23,705	0,096	0,058
-525,248	-99,918	0,003	0,001
-524,233	-200,000	0,036	0,133
-523,218	-5,801	0,069	0,034
-522,204	-162,657	-0,175	0,006
-521,189	-0,718	0,066	-0,034
-520,175	-200,000	0,005	-0,105
-519,160	-200,000	-0,013	0,111
-518,145	565,701	-0,045	0,080
-517,131	-49,718	0,143	0,049
-516,116	-200,000	-0,023	0,195
-515,102	-137,806	-0,090	-0,007
-514,087	-128,488	-0,087	0,009
-513,072	49,904	0,025	-0,017
-512,058	800,000	0,006	0,016
-511,043	-200,000	0,001	-0,134
-510,029	157,455	0,021	-0,021
-509,014	-200,000	0,010	-0,177
-507,999	68,121	-0,071	-0,053
-506,985	800,000	-0,020	0,061
-505,970	-51,974	-0,123	0,041
-504,956	510,863	-0,077	-0,131
-503,941	-136,925	0,014	-0,001
-502,926	-139,297	0,226	-0,018
-501,912	-157,184	-0,081	-0,004
-500,897	-62,317	0,104	-0,031
-499,883	60,227	-0,040	-0,029
-498,868	800,000	-0,051	-0,145
-497,853	-200,000	-0,008	-0,133
-496,839	800,000	-0,043	-0,095
-495,824	-28,944	0,097	-0,041
-494,810	176,404	0,014	-0,015
-493,795	2,449	0,090	0,048
-492,781	800,000	-0,053	-0,122
-491,766	-42,808	0,064	-0,024
-490,751	3,171	0,064	-0,034
-489,737	-200,000	0,010	-0,034
-488,722	-200,000	-0,005	-0,043
-487,708	-10,225	0,063	-0,031
-486,693	200,951	-0,078	0,088
-485,678	490,479	-0,022	0,037
-484,664	510,545	-0,040	-0,069
-483,649	261,411	0,039	0,049
-482,635	800,000	0,067	0,163
-481,620	800,000	-0,022	-0,049
-480,605	800,000	0,027	0,088
-479,591	11,747	0,036	-0,020
-478,576	414,885	-0,113	0,177
-477,562	-200,000	-0,005	-0,068
-476,547	446,598	0,045	-0,072
-475,532	-200,000	0,036	-0,129
-474,518	-33,068	0,135	-0,054
-473,503	800,000	0,033	0,091
-472,489	-22,439	-0,085	0,037
-471,474	-146,816	0,143	-0,009
-470,459	436,181	-0,062	-0,099
-469,445	-200,000	0,038	-0,181
-468,430	-200,000	0,025	0,085
-467,416	-59,029	0,176	0,055
-466,401	-111,667	-0,044	0,006
-465,386	-200,000	0,034	-0,134
-464,372	-129,380	-0,096	-0,010
-463,357	-200,000	0,002	-0,040
-462,343	-85,457	-0,027	-0,006
-461,328	224,178	0,071	-0,084
-460,313	144,769	0,039	-0,038
-459,299	-200,000	-0,007	-0,022
-458,284	358,224	0,111	0,163
-457,270	-126,874	-0,036	-0,004
-456,255	-41,713	-0,054	-0,020
-455,241	-62,683	0,101	0,030
-454,226	-61,174	-0,039	-0,012
-453,211	-4,750	-0,034	-0,017
-452,197	259,761	0,071	0,089
-451,182	-200,000	0,006	-0,021
-450,168	-66,915	0,162	-0,046
-449,153	-200,000	0,020	-0,088
-448,138	383,317	-0,044	-0,066
-447,124	-144,435	0,063	0,004
-446,109	-31,733	0,046	-0,019
-445,095	800,000	0,035	-0,108
-444,080	-14,211	0,123	0,058
-443,065	-172,140	-0,095	0,002
-442,051	-55,911	-0,066	-0,021
-441,036	800,000	-0,030	-0,072
-440,022	125,922	0,066	-0,061
-439,007	-200,000	0,008	-0,293
-437,992	-200,000	-0,007	0,094
-436,978	-139,803	0,136	0,010
-435,963	224,217	-0,066	0,078
-434,949	-90,991	-0,036	0,007
-433,934	-167,809	-0,051	-0,001
-432,919	-200,000	-0,016	0,075
-431,905	262,945	-0,034	0,043
-430,890	-200,000	0,001	0,051
-429,876	800,000	-0,009	0,022
-428,861	800,000	-0,034	0,091
-427,846	-200,000	-0,009	-0,086
-426,832	-174,582	-0,105	-0,002
-425,817	306,723	-0,019	-0,025
-424,803	63,195	0,021	-0,015
-423,788	800,000	-0,013	0,034
-422,773	-200,000	-0,013	-0,075
-421,759	-200,000	0,000	0,038
-420,744	800,000	0,019	0,061
-419,730	-100,390	-0,092	0,016
-418,715	245,513	-0,018	-0,022
-417,701	-200,000	-0,022	-0,113
-416,686	-200,000	0,024	0,077
-415,671	-169,347	0,174	-0,005
-414,657	-200,000	0,007	0,049
-413,642	-200,000	-0,001	0,113
-412,628	373,365	-0,120	-0,179
-411,613	50,398	-0,057	-0,039
-410,598	-14,400	-0,100	0,047
-409,584	410,321	-0,040	-0,062
-408,569	-200,000	0,016	0,166
-407,555	800,000	0,046	0,116
-406,540	-95,612	-0,033	-0,006
-405,525	248,997	-0,044	-0,054
-404,511	147,532	-0,117	-0,115
-403,496	800,000	0,024	-0,050
-402,482	212,108	-0,057	0,065
-401,467	-200,000	-0,024	-0,108
-400,452	-73,159	0,044	0,012
-399,438	45,394	0,120	-0,080
-398,423	-81,009	-0,212	-0,051
-397,409	-23,452	-0,136	-0,059
-396,394	-146,281	-0,096	-0,006
-395,379	-173,573	0,063	-0,001
-394,365	421,757	-0,063	0,098
-393,350	304,745	-0,015	-0,021
-392,336	-34,498	0,174	0,069
-391,321	-43,626	-0,074	0,027
-390,306	279,095	-0,099	0,129
-389,292	169,525	-0,097	-0,101
-388,277	800,000	0,066	-0,154
-387,263	-115,641	0,079	0,011
-386,248	679,015	0,024	-0,046
-385,233	345,921	0,007	0,011
-384,219	-174,690	0,031	-0,001
-383,204	-200,000	0,035	-0,192
-382,190	-92,176	-0,033	-0,007
-381,175	634,334	0,039	-0,072
-380,160	-160,361	0,130	0,005
-379,146	13,780	0,055	-0,031
-378,131	235,845	0,039	0,047
-377,117	-200,000	0,019	-0,060
-376,102	-94,548	-0,185	-0,036
-375,088	-35,823	-0,071	-0,028
-374,073	-200,000	-0,005	-0,101
-373,058	285,425	-0,023	0,030
-372,044	-117,056	0,133	0,017
-371,029	-144,831	-0,068	0,004
-370,015	90,620	-0,107	-0,087
-369,000	462,488	0,061	-0,099
-367,985	101,656	-0,089	0,075
-366,971	800,000	-0,061	-0,128
-365,956	-200,000	0,013	0,048
-364,942	-200,000	0,018	0,107
-363,927	-39,663	0,114	-0,043
-362,912	-200,000	0,002	-0,049
-361,898	695,369	-0,036	-0,069
-360,883	-200,000	0,001	0,035
-359,869	-199,811	-0,209	-0,001
-358,854	-200,000	0,007	0,065
-357,839	280,577	0,062	0,081
-356,825	-126,382	0,092	-0,010
-355,810	420,479	0,035	0,055
-354,796	-130,023	0,062	0,006
-353,781	-6,483	0,185	-0,092
-352,766	-200,000	-0,011	-0,137
-351,752	-200,000	0,030	0,099
-350,737	-67,142	-0,082	0,023
-349,723	99,984	0,095	-0,080
-348,708	-200,000	-0,010	0,120
-347,693	272,243	0,087	0,111
-346,679	321,882	-0,069	0,096
-345,664	-56,417	0,073	-0,023
-344,650	53,448	-0,076	0,053
-343,635	113,137	0,050	0,044
-342,620	-17,247	0,198	-0,091
-341,606	-74,981	-0,109	0,028
-340,591	-13,011	-0,164	0,077
-339,577	800,000	-0,006	-0,018
-338,562	-200,000	-0,001	-0,003
-337,548	-72,841	0,114	-0,030
-336,533	-200,000	-0,004	-0,107
-335,518	47,431	0,074	-0,050
-334,504	188,205	-0,054	0,059
-333,489	800,000	-0,089	0,203
-332,475	-0,712	0,099	0,051
-331,460	-103,835	-0,026	0,004
-330,445	-94,988	0,129	0,025
-329,431	-200,000	-0,000	0,016
-328,416	770,261	0,038	0,075
-327,402	800,000	0,025	0,055
-326,387	-110,056	-0,210	0,032
-325,372	157,914	-0,053	0,053
-324,358	99,386	-0,014	0,012
-323,343	-87,270	0,115	-0,025
-322,329	-105,347	-0,031	0,005
-321,314	21,771	-0,024	0,014
-320,299	800,000	-0,009	-0,022
-319,285	208,517	-0,123	0,140
-318,270	800,000	0,047	-0,118
-317,256	800,000	-0,065	-0,153
-316,241	108,252	0,038	-0,033
-315,226	-200,000	0,001	0,018
-314,212	-88,986	0,120	0,026
-313,197	-22,988	0,079	-0,034
-312,183	-62,248	-0,090	-0,027
-311,168	476,751	-0,016	0,027
-310,153	10,995	0,050	0,028
-309,139	63,730	0,126	-0,092
-308,124	800,000	0,036	0,083
-307,110	62,430	-0,145	0,105
-306,095	-119,539	0,072	-0,009
-305,080	-113,578	0,044	-0,006
-304,066	351,614	0,096	-0,138
-303,051	128,711	-0,083	0,077
-302,037	800,000	-0,016	0,051
-301,022	142,834	0,032	-0,031
-300,008	-117,329	0,019	-0,002
-298,993	-182,832	0,111	0,001
-297,978	-63,533	0,032	0,009
-296,964	-200,000	-0,023	-0,094
-295,949	-200,000	0,023	-0,081
-294,935	14,887	-0,059	0,033
-293,920	146,215	-0,084	0,082
-292,905	688,094	-0,021	-0,040
-291,891	192,813	0,113	0,124
-290,876	513,319	0,069	0,118
-289,862	-93,708	-0,097	0,019
-288,847	-200,000	-0,035	-0,164
-287,832	-200,000	-0,032	-0,137
-286,818	800,000	0,019	-0,040
-285,803	800,000	0,023	-0,071
-284,789	-200,000	-0,004	0,018
-283,774	21,313	-0,019	0,011
-282,759	-50,916	-0,101	-0,034
-281,745	-86,544	0,089	-0,020
-280,730	-76,884	-0,031	-0,008
-279,716	463,266	0,039	0,063
-278,701	-14,722	0,050	-0,023
-277,686	87,533	0,093	0,074
-276,672	-200,000	-0,025	0,087
-275,657	800,000	0,016	0,048
-274,643	216,827	-0,050	-0,057
-273,628	295,856	-0,093	-0,123
-272,613	60,027	0,116	0,083
-271,599	204,728	0,036	-0,041
-270,584	216,585	0,107	-0,124
-269,570	417,118	0,079	0,122
-268,555	800,000	-0,033	-0,104
-267,540	-200,000	-0,002	0,082
-266,526	392,661	-0,082	0,124
-265,511	-59,152	0,089	-0,028
-264,497	-200,000	0,039	0,124
-263,482	-200,000	-0,005	0,033
-262,467	800,000	0,030	-0,075
-261,453	800,000	0,041	-0,083
-260,438	99,878	-0,022	-0,018
-259,424	-200,000	0,001	0,094
-258,409	800,000	0,020	-0,058
-257,395	-142,624	-0,054	0,004
-256,380	800,000	0,055	0,153
-255,365	-152,602	-0,079	-0,004
-254,351	800,000	-0,059	0,183
-253,336	-200,000	-0,015	0,085
-252,322	-140,093	-0,118	-0,009
-251,307	-200,000	-0,015	0,066
-250,292	793,644	0,079	0,158
-249,278	-200,000	0,009	0,098
-248,263	-200,000	-0,007	-0,088
-247,249	-200,000	0,006	-0,033
-246,234	800,000	-0,048	-0,111
-245,219	-200,000	0,007	0,146
-244,205	-200,000	0,019	0,077
-243,190	110,990	-0,081	-0,071
-242,176	800,000	0,057	-0,124
-241,161	15,020	-0,088	-0,049
-240,146	-112,438	0,124	-0,018
-239,132	-142,516	-0,078	-0,005
-238,117	323,706	0,021	-0,029
-237,103	177,165	0,044	-0,047
-236,088	-175,148	0,083	0,002
-235,073	800,000	-0,048	0,132
-234,059	613,884	-0,049	0,089
-233,044	800,000	0,069	0,138
-232,030	48,465	-0,023	-0,015
-231,015	105,588	-0,094	-0,080
-230,000	-35,142	0,081	-0,032
-228,986	79,411	0,073	0,057
-227,971	-200,000	-0,005	-0,054
-226,957	713,402	0,027	-0,052
-225,942	182,770	0,165	-0,176
-224,927	167,333	-0,045	0,046
-223,913	39,341	-0,011	0,007
-222,898	107,400	-0,115	-0,099
-221,884	-74,928	0,093	0,024
-220,869	691,888	0,042	0,080
-219,855	53,223	0,070	0,049
-218,840	-172,586	0,031	-0,001
-217,825	-200,000	-0,002	-0,021
-216,811	-6,682	-0,136	-0,067
-215,796	-25,586	0,013	-0,005
-214,782	-200,000	0,013	0,067
-213,767	-200,000	0,006	-0,053
-212,752	207,567	0,018	0,020
-211,738	-200,000	0,009	0,093
-210,723	-134,849	0,152	-0,013
-209,709	-46,308	-0,109	0,038
-208,694	-28,626	0,081	0,034
-207,679	448,218	0,062	-0,100
-206,665	-129,249	-0,104	0,010
-205,650	-200,000	0,016	-0,165
-204,636	-200,000	-0,018	-0,082
-203,621	-55,745	0,082	0,026
-202,606	627,715	0,084	-0,154
-201,592	32,018	0,158	-0,098
-200,577	-178,197	-0,069	0,001
-199,563	700,733	-0,040	0,077
-198,548	-169,972	-0,121	-0,003
-197,533	-200,000	-0,020	0,125
-196,519	-200,000	-0,016	0,145
-195,504	-102,161	-0,127	-0,022
-194,490	-200,000	0,003	0,015
-193,475	48,285	0,061	-0,041
-192,460	-32,138	-0,033	-0,013
-191,446	-191,049	0,087	-0,001
-190,431	-200,000	0,046	0,173
-189,417	-4,116	-0,141	0,070
-188,402	-200,000	-0,006	-0,041
-187,387	800,000	0,031	-0,068
-186,373	-21,207	0,075	-0,033
-185,358	156,517	-0,026	0,026
-184,344	-200,000	0,012	0,091
-183,329	800,000	-0,043	-0,124
-182,315	800,000	0,042	0,098
-181,300	90,047	-0,112	0,091
-180,285	-10,130	-0,205	-0,098
-179,271	24,299	-0,106	-0,063
-178,256	115,589	0,086	-0,076
-177,242	213,935	-0,056	-0,064
-176,227	-13,423	0,072	0,034
-175,212	800,000	0,006	0,017
-174,198	-200,000	-0,030	0,097
-173,183	-71,155	-0,088	0,024
-172,169	-82,443	-0,005	0,001
-171,154	12,231	-0,069	-0,038
-170,139	-113,655	0,050	-0,007
-169,125	-200,000	-0,017	0,091
-168,110	112,935	-0,023	0,020
-167,096	-39,225	0,076	0,029
-166,081	343,360	0,047	-0,066
-165,066	800,000	-0,084	-0,199
-164,052	800,000	0,013	-0,038
-163,037	800,000	0,017	0,041
-162,023	245,506	0,094	0,114
-161,008	93,235	-0,051	0,042
-159,993	421,799	0,078	0,122
-158,979	-45,363	-0,068	0,024
-157,964	-110,939	0,208	-0,030
-156,950	47,777	-0,077	0,052
-155,935	-200,000	0,000	-0,053
-154,920	253,437	0,017	-0,021
-153,906	112,212	0,019	0,016
-152,891	21,603	0,192	-0,112
-151,877	108,316	-0,137	-0,118
-150,862	204,426	0,140	-0,156
-149,847	307,418	-0,051	-0,069
-148,833	137,086	0,061	-0,058
-147,818	-14,547	0,070	-0,032
-146,804	-90,676	-0,130	0,027
-145,789	10,586	0,101	-0,055
-144,775	64,080	-0,018	-0,013
-143,760	-94,188	-0,089	0,017
-142,745	378,607	-0,036	-0,053
-141,731	550,343	-0,008	0,014
-140,716	-60,717	0,100	0,030
-139,702	-200,000	-0,019	-0,064
-138,687	-200,000	0,004	0,015
-137,672	-200,000	0,042	-0,162
-136,658	800,000	-0,049	-0,112
-135,643	-25,395	-0,179	-0,076
-134,629	479,860	-0,100	0,163
-133,614	173,371	0,018	0,018
-132,599	-118,897	0,111	0,014
-131,585	-200,000	0,010	0,112
-130,570	8,392	0,018	-0,010
-129,556	800,000	-0,116	-0,251
-128,541	208,575	0,062	-0,070
-127,526	-36,625	0,110	-0,043
-126,512	115,269	0,084	-0,074
-125,497	105,655	0,042	0,036
-124,483	114,147	-0,063	0,055
-123,468	-180,880	-0,155	-0,002
-122,453	453,213	-0,014	-0,022
-121,439	66,500	-0,084	0,061
