DTS Sentinel unit serial number:	SN410029Multiplexer serial number:	ORYXHardware model number:	OX2-SRSoftware version number:	ORYX F/W v4,00 Oryx Data Collector v3.7.2.0data status	okinstallation	B5 Nyhavnadifferential loss correction	single-endedforward channel	channel 2reverse channel	N/Adate	2023/12/13time	18:52:13forward acquisition time	300,00reverse acquisition time	0,00gamma	499,1914k internal	0,3160k external	0,3160temperature offset calibration	1,0000default loss term (dB/km)	0,3820temperature slope calibration	1,0000multiplexer offset coefficient	1,0000multiplexer slope coefficient	1,0000fibre end	0,00T internal ref (°C)	12,32T ext. ref 1 (°C)	-4,85T ext. ref 2 (°C)	-4,90length (m)	temperature (°C)	Stokes	anti-Stokes-744,400	-153,131	0,214	-0,011
-743,385	-186,080	-0,330	0,003
-742,371	115,458	0,123	0,111
-741,356	8,205	-0,217	0,119
-740,342	-8,332	0,122	0,060
-739,327	43,114	-0,328	-0,220
-738,312	-165,631	0,147	0,005
-737,298	-114,161	-0,354	-0,050
-736,283	-200,000	0,037	0,136
-735,269	-48,575	-0,312	0,110
-734,254	-120,478	0,098	-0,012
-733,239	30,494	-0,411	-0,258
-732,225	-54,320	0,171	-0,057
-731,210	-93,757	-0,089	0,018
-730,196	42,281	-0,131	-0,087
-729,181	-140,450	-0,187	-0,014
-728,167	160,470	-0,044	0,046
-727,152	-17,309	-0,089	0,041
-726,137	18,356	0,082	0,048
-725,123	355,011	0,006	-0,009
-724,108	-130,409	-0,206	0,020
-723,094	800,000	0,021	-0,058
-722,079	143,452	-0,014	0,013
-721,064	-200,000	-0,010	-0,078
-720,050	347,117	-0,052	-0,075
-719,035	717,615	0,035	-0,068
-718,021	-177,667	-0,139	0,002
-717,006	183,810	0,054	-0,059
-715,991	105,339	-0,158	-0,137
-714,977	-200,000	-0,048	-0,226
-713,962	-140,594	-0,055	0,004
-712,948	29,201	0,083	0,052
-711,933	-36,793	-0,061	0,024
-710,918	-200,000	-0,112	0,000
-709,904	-200,000	0,002	0,021
-708,889	433,660	-0,053	-0,085
-707,875	139,569	-0,071	-0,069
-706,860	297,804	0,079	0,107
-705,845	-141,088	-0,117	0,009
-704,831	-184,385	0,155	-0,002
-703,816	-200,000	-0,022	-0,077
-702,802	457,415	-0,080	0,131
-701,787	-39,628	0,054	0,021
-700,772	-200,000	-0,013	0,041
-699,758	800,000	0,049	0,125
-698,743	134,199	-0,054	-0,052
-697,729	-200,000	0,042	-0,148
-696,714	-102,632	-0,186	0,032
-695,699	-167,036	-0,013	-0,000
-694,685	137,670	-0,038	0,037
-693,670	-64,392	-0,074	0,022
-692,656	408,146	0,065	-0,101
-691,641	158,300	-0,060	0,061
-690,627	-181,836	-0,009	0,000
-689,612	127,862	-0,103	-0,097
-688,597	-200,000	0,018	-0,094
-687,583	49,064	-0,143	-0,099
-686,568	-200,000	0,022	-0,177
-685,554	68,646	-0,025	-0,019
-684,539	-200,000	0,005	-0,084
-683,524	568,563	0,052	0,092
-682,510	395,648	0,039	0,061
-681,495	-33,919	-0,021	-0,008
-680,481	61,581	-0,081	-0,059
-679,466	800,000	0,027	-0,086
-678,451	800,000	-0,052	0,152
-677,437	-13,144	-0,093	-0,044
-676,422	-46,726	0,204	-0,073
-675,408	-161,035	-0,061	0,002
-674,393	-73,016	-0,159	0,042
-673,378	-117,919	-0,058	-0,008
-672,364	-75,622	-0,031	0,008
-671,349	-178,983	-0,077	-0,001
-670,335	-200,000	-0,045	0,155
-669,320	291,150	0,027	-0,036
-668,305	-200,000	0,007	0,062
-667,291	-147,368	-0,089	-0,005
-666,276	153,179	-0,070	-0,070
-665,262	-25,360	-0,170	-0,074
-664,247	800,000	-0,041	-0,112
-663,232	6,490	-0,098	0,053
-662,218	800,000	0,036	0,099
-661,203	-200,000	-0,007	-0,054
-660,189	105,398	-0,120	0,104
-659,174	270,729	-0,066	-0,085
-658,159	-89,909	-0,111	-0,024
-657,145	-134,107	-0,050	0,004
-656,130	800,000	0,024	0,069
-655,116	-4,910	-0,092	0,046
-654,101	157,357	0,087	0,089
-653,086	-54,138	-0,171	0,057
-652,072	-200,000	0,003	-0,093
-651,057	-200,000	0,036	-0,124
-650,043	-3,738	-0,207	0,105
-649,028	393,327	0,107	-0,163
-648,014	800,000	0,036	0,100
-646,999	-114,526	0,145	-0,020
-645,984	-68,957	-0,073	-0,020
-644,970	-200,000	0,033	-0,141
-643,955	101,990	-0,109	-0,094
-642,941	17,505	-0,036	0,021
-641,926	800,000	0,084	0,184
-640,911	-200,000	0,007	-0,070
-639,897	800,000	-0,012	0,038
-638,882	139,684	-0,060	0,058
-637,868	800,000	-0,024	-0,052
-636,853	-200,000	0,016	-0,075
-635,838	-200,000	0,030	-0,143
-634,824	-200,000	0,024	0,186
-633,809	64,107	0,096	0,071
-632,795	406,225	0,048	-0,075
-631,780	222,511	0,076	0,090
-630,765	146,817	0,012	0,012
-629,751	63,024	-0,096	-0,070
-628,736	-70,551	0,074	-0,020
-627,722	-90,471	0,057	-0,012
-626,707	-100,929	0,083	-0,015
-625,692	-200,000	-0,008	0,069
-624,678	800,000	-0,048	0,112
-623,663	259,199	-0,049	0,062
-622,649	800,000	-0,069	0,167
-621,634	204,038	-0,067	0,076
-620,619	800,000	0,026	-0,057
-619,605	-200,000	0,014	0,127
-618,590	188,127	-0,050	0,054
-617,576	-31,949	0,039	0,016
-616,561	349,506	0,062	0,090
-615,546	-200,000	0,015	0,148
-614,532	47,452	-0,132	-0,090
-613,517	-200,000	0,000	-0,091
-612,503	394,077	-0,091	-0,140
-611,488	-44,741	0,041	-0,015
-610,474	-200,000	0,012	-0,082
-609,459	37,110	-0,084	-0,055
-608,444	337,525	-0,087	-0,124
-607,430	-200,000	-0,002	-0,033
-606,415	-70,209	-0,096	-0,027
-605,401	-200,000	-0,003	-0,086
-604,386	-200,000	0,030	0,166
-603,371	-14,889	-0,059	0,028
-602,357	-78,813	-0,051	-0,013
-601,342	-200,000	-0,032	-0,164
-600,328	68,996	-0,113	0,085
-599,313	58,202	0,015	-0,011
-598,298	-8,016	0,117	-0,058
-597,284	800,000	-0,021	0,064
-596,269	139,525	0,060	-0,058
-595,255	-200,000	-0,014	0,068
-594,240	316,609	-0,017	0,024
-593,225	-116,444	-0,084	-0,011
-592,211	-99,886	-0,028	-0,005
-591,196	33,644	0,046	-0,029
-590,182	258,909	-0,112	0,141
-589,167	178,504	-0,025	-0,027
-588,152	627,615	0,041	-0,077
-587,138	-200,000	0,013	-0,080
-586,123	11,099	-0,077	0,043
-585,109	-200,000	-0,002	-0,039
-584,094	-100,410	0,017	-0,003
-583,079	240,255	0,138	-0,169
-582,065	-200,000	-0,008	-0,064
-581,050	800,000	-0,049	-0,122
-580,036	-111,267	-0,038	-0,006
-579,021	-200,000	-0,020	0,073
-578,006	199,988	-0,023	0,026
-576,992	-47,712	0,077	0,027
-575,977	800,000	0,045	0,096
-574,963	-116,718	0,075	-0,010
-573,948	-90,178	0,119	-0,025
-572,934	-136,481	-0,107	0,009
-571,919	713,556	0,045	-0,088
-570,904	-200,000	0,006	-0,031
-569,890	-166,634	0,111	-0,003
-568,875	202,139	-0,051	-0,058
-567,861	-200,000	0,018	0,077
-566,846	303,399	-0,057	0,078
-565,831	800,000	-0,037	0,111
-564,817	800,000	0,030	0,082
-563,802	-129,043	-0,029	-0,003
-562,788	31,998	-0,114	0,072
-561,773	-44,847	-0,068	-0,025
-560,758	-68,817	0,064	-0,018
-559,744	578,083	0,068	0,123
-558,729	35,814	-0,042	-0,027
-557,715	212,613	-0,058	-0,067
-556,700	544,531	-0,073	-0,127
-555,685	-94,378	-0,136	-0,027
-554,671	151,877	0,073	0,073
-553,656	246,696	-0,065	0,080
-552,642	-32,961	0,083	-0,033
-551,627	49,493	0,106	-0,073
-550,612	42,015	0,077	-0,051
-549,598	-25,729	0,053	0,023
-548,583	189,749	0,112	0,123
-547,569	-16,959	-0,074	-0,034
-546,554	-200,000	0,001	0,031
-545,539	-200,000	-0,009	0,081
-544,525	-171,422	-0,096	0,002
-543,510	-200,000	-0,010	0,044
-542,496	-86,800	-0,144	-0,032
-541,481	72,247	0,028	-0,021
-540,466	17,951	0,066	0,038
-539,452	589,107	0,035	-0,064
-538,437	222,576	-0,050	0,059
-537,423	-200,000	0,046	-0,155
-536,408	-120,758	-0,135	-0,016
-535,393	-71,149	0,097	0,026
-534,379	-23,167	-0,133	-0,058
-533,364	-200,000	0,015	-0,091
-532,350	198,735	0,057	-0,063
-531,335	-165,761	0,170	0,005
-530,321	77,467	0,095	0,074
-529,306	156,575	-0,108	-0,109
-528,291	-67,948	-0,105	0,030
-527,277	-200,000	0,004	-0,162
-526,262	-153,252	0,142	-0,007
-525,248	50,243	0,046	0,032
-524,233	-200,000	-0,025	0,149
-523,218	310,849	0,052	0,071
-522,204	-23,857	0,110	-0,048
-521,189	102,608	-0,027	-0,023
-520,175	128,289	0,139	-0,129
-519,160	-147,446	-0,157	-0,010
-518,145	-200,000	0,020	0,069
-517,131	-66,718	-0,150	-0,043
-516,116	58,344	-0,079	0,056
-515,102	468,312	0,022	-0,036
-514,087	45,983	-0,114	-0,077
-513,072	145,681	-0,094	-0,092
-512,058	-200,000	-0,010	-0,061
-511,043	524,756	-0,015	0,027
-510,029	800,000	0,021	0,044
-509,014	321,413	0,016	-0,022
-507,999	-106,076	-0,034	0,006
-506,985	-66,017	0,080	-0,023
-505,970	95,389	-0,020	0,017
-504,956	262,082	0,070	-0,089
-503,941	280,742	-0,021	-0,027
-502,926	77,078	-0,080	-0,062
-501,912	252,632	0,110	-0,137
-500,897	800,000	0,026	-0,080
-499,883	800,000	0,040	0,121
-498,868	800,000	-0,021	0,056
-497,853	397,446	-0,071	-0,109
-496,839	544,971	-0,055	-0,096
-495,824	800,000	-0,031	0,066
-494,810	87,978	0,140	0,113
-493,795	34,292	-0,051	-0,033
-492,781	619,498	0,076	-0,140
-491,766	-156,017	-0,154	-0,007
-490,751	184,506	-0,060	-0,065
-489,737	235,836	-0,071	0,086
-488,722	13,889	-0,017	0,010
-487,708	102,055	0,131	0,112
-486,693	9,460	-0,089	0,049
-485,678	283,431	0,003	0,004
-484,664	-200,000	0,033	-0,108
-483,649	25,733	-0,177	-0,108
-482,635	-170,819	0,170	-0,004
-481,620	800,000	-0,021	0,066
-480,605	-200,000	-0,005	-0,053
-479,591	398,086	0,013	-0,020
-478,576	502,566	0,044	0,074
-477,562	216,370	-0,081	0,094
-476,547	-200,000	0,004	-0,123
-475,532	147,930	0,037	0,036
-474,518	-79,593	-0,115	-0,028
-473,503	297,039	-0,064	0,086
-472,489	131,416	-0,133	0,125
-471,474	38,452	-0,047	-0,031
-470,459	-30,374	-0,078	-0,032
-469,445	-88,296	-0,087	0,019
-468,430	117,910	-0,108	-0,097
-467,416	-9,741	0,077	-0,037
-466,401	70,934	0,057	-0,043
-465,386	-200,000	-0,035	0,140
-464,372	800,000	0,025	-0,052
-463,357	273,322	0,064	0,083
-462,343	44,266	-0,066	0,044
-461,328	159,111	-0,118	0,120
-460,313	-9,232	0,092	0,045
-459,299	72,439	0,060	0,045
-458,284	262,844	-0,030	0,038
-457,270	-200,000	-0,027	-0,093
-456,255	115,096	-0,036	-0,032
-455,241	312,251	-0,042	0,057
-454,226	-79,816	-0,107	-0,026
-453,211	-100,010	0,129	0,023
-452,197	800,000	-0,034	0,080
-451,182	231,804	0,087	-0,105
-450,168	800,000	0,039	-0,094
-449,153	73,619	-0,071	0,054
-448,138	-33,524	0,074	-0,030
-447,124	-195,778	-0,124	-0,001
-446,109	232,689	-0,018	-0,021
-445,095	498,560	-0,037	0,063
-444,080	-200,000	-0,002	0,117
-443,065	-200,000	-0,004	0,021
-442,051	50,707	0,054	-0,037
-441,036	-0,329	-0,053	-0,027
-440,022	-10,379	-0,028	-0,014
-439,007	-110,077	0,108	-0,016
-437,992	270,534	-0,094	0,121
-436,978	-184,246	0,094	0,001
-435,963	68,137	0,068	-0,050
-434,949	-200,000	-0,014	-0,074
-433,934	246,246	0,051	-0,062
-432,919	800,000	-0,064	-0,186
-431,905	59,102	-0,060	0,043
-430,890	-70,381	0,013	0,004
-429,876	-200,000	0,039	0,150
-428,861	-200,000	-0,015	0,088
-427,846	-11,325	0,117	0,056
-426,832	-112,905	-0,029	-0,004
-425,817	-116,054	-0,118	-0,016
-424,803	800,000	-0,031	0,082
-423,788	-58,753	0,083	0,026
-422,773	-200,000	0,002	0,093
-421,759	74,486	0,042	0,032
-420,744	83,718	0,105	-0,084
-419,730	58,165	0,030	0,021
-418,715	286,536	0,080	-0,106
-417,701	196,977	-0,079	0,087
-416,686	-200,000	-0,013	-0,051
-415,671	-200,000	0,040	0,172
-414,657	194,855	0,092	-0,102
-413,642	260,303	-0,051	0,064
-412,628	97,544	0,047	-0,039
-411,613	24,836	-0,078	-0,047
-410,598	95,419	0,050	0,041
-409,584	188,052	-0,040	-0,044
-408,569	-62,621	-0,125	0,037
-407,555	-200,000	0,010	-0,092
-406,540	-177,202	-0,032	0,001
-405,525	40,629	0,081	-0,053
-404,511	-102,842	-0,075	0,013
-403,496	-200,000	-0,023	-0,227
-402,482	12,969	0,034	0,019
-401,467	-148,493	-0,134	0,008
-400,452	-200,000	-0,027	0,135
-399,438	15,609	-0,029	-0,017
-398,423	-200,000	-0,007	-0,096
-397,409	-71,151	-0,099	-0,027
-396,394	518,488	-0,022	0,038
-395,379	-200,000	-0,012	0,046
-394,365	800,000	0,019	0,060
-393,350	54,046	-0,096	0,067
-392,336	-121,463	0,129	0,015
-391,321	-200,000	0,008	-0,066
-390,306	-200,000	0,005	-0,035
-389,292	14,899	0,044	-0,025
-388,277	-58,010	0,089	0,028
-387,263	19,633	0,008	0,005
-386,248	284,708	0,049	-0,065
-385,233	-192,356	0,122	0,001
-384,219	-78,877	0,028	-0,007
-383,204	800,000	0,064	-0,150
-382,190	-186,436	-0,041	-0,000
-381,175	62,159	-0,085	-0,061
-380,160	275,526	-0,083	-0,107
-379,146	-200,000	-0,021	0,147
-378,131	-200,000	-0,018	0,146
-377,117	68,377	-0,061	-0,046
-376,102	60,764	-0,155	-0,111
-375,088	-138,636	0,160	-0,013
-374,073	-200,000	0,028	0,206
-373,058	-47,681	0,071	0,025
-372,044	-183,450	0,165	-0,002
-371,029	-200,000	0,003	-0,011
-370,015	-200,000	0,024	-0,291
-369,000	-200,000	0,016	0,085
-367,985	344,678	-0,094	0,135
-366,971	-200,000	-0,019	0,155
-365,956	100,840	0,037	0,031
-364,942	95,095	0,066	-0,055
-363,927	29,574	-0,045	-0,028
-362,912	112,802	0,058	0,051
-361,898	687,456	-0,019	-0,036
-360,883	-24,274	-0,093	-0,040
-359,869	800,000	0,057	0,132
-358,854	-77,284	0,050	0,012
-357,839	-200,000	-0,001	-0,075
-356,825	84,764	0,025	0,020
-355,810	-200,000	-0,021	0,110
-354,796	800,000	0,023	-0,057
-353,781	-200,000	-0,004	-0,151
-352,766	134,060	-0,051	-0,048
-351,752	199,843	0,037	0,041
-350,737	476,266	-0,050	0,082
-349,723	-59,015	0,070	0,022
-348,708	-106,002	-0,028	0,005
-347,693	-94,797	-0,083	0,016
-346,679	18,589	-0,070	0,041
-345,664	-200,000	-0,017	-0,134
-344,650	800,000	-0,024	0,057
-343,635	-200,000	0,034	0,223
-342,620	-38,991	0,123	0,047
-341,606	386,284	0,033	-0,050
-340,591	-100,534	0,069	-0,012
-339,577	-200,000	0,002	-0,044
-338,562	188,875	0,035	0,038
-337,548	-34,707	0,082	-0,032
-336,533	147,235	0,094	0,092
-335,518	473,467	0,090	0,147
-334,504	800,000	-0,066	-0,141
-333,489	-47,779	-0,178	0,062
-332,475	662,466	-0,026	0,049
-331,460	-108,393	-0,082	-0,013
-330,445	800,000	-0,011	-0,026
-329,431	-50,754	0,061	0,021
-328,416	368,958	0,091	0,134
-327,402	-128,823	-0,103	0,010
-326,387	453,823	0,054	0,087
-325,372	-200,000	-0,004	0,073
-324,358	-200,000	0,012	0,056
-323,343	-200,000	0,007	0,049
-322,329	-7,786	0,096	-0,047
-321,314	-34,154	0,084	-0,033
-320,299	120,733	0,084	-0,076
-319,285	-200,000	0,000	0,002
-318,270	-3,603	0,079	0,040
-317,256	607,157	-0,093	0,169
-316,241	-200,000	-0,004	-0,077
-315,226	-82,609	0,156	-0,036
-314,212	-86,794	0,285	0,063
-313,197	-57,034	-0,099	0,032
-312,183	357,064	0,050	0,073
-311,168	-200,000	0,000	0,105
-310,153	-200,000	0,013	0,051
-309,139	-166,235	0,057	-0,002
-308,124	56,332	0,113	0,079
-307,110	137,213	-0,025	0,023
-306,095	137,207	0,046	-0,044
-305,080	94,048	-0,071	-0,058
-304,066	-200,000	-0,007	-0,060
-303,051	496,730	-0,088	-0,147
-302,037	102,934	-0,055	-0,047
-301,022	-200,000	-0,020	-0,114
-300,008	-200,000	-0,021	-0,087
-298,993	626,930	0,067	0,124
-297,978	329,479	-0,046	-0,065
-296,964	29,844	0,079	-0,049
-295,949	12,260	0,038	-0,021
-294,935	-3,323	0,098	0,049
-293,920	707,988	-0,057	-0,110
-292,905	800,000	-0,030	-0,062
-291,891	185,774	-0,005	-0,005
-290,876	-200,000	0,025	-0,124
-289,862	-22,825	0,047	-0,020
-288,847	800,000	-0,015	-0,048
-287,832	-200,000	0,001	-0,072
-286,818	461,431	0,036	-0,059
-285,803	-113,158	-0,185	0,026
-284,789	-200,000	-0,025	0,103
-283,774	309,184	-0,038	-0,052
-282,759	343,723	-0,099	-0,140
-281,745	800,000	-0,012	0,026
-280,730	-200,000	0,001	-0,068
-279,716	-200,000	-0,006	0,127
-278,701	-107,566	0,084	0,013
-277,686	31,246	0,083	0,051
-276,672	4,491	0,121	-0,064
-275,657	-200,000	-0,026	0,082
-274,643	547,044	-0,033	-0,058
-273,628	-200,000	-0,001	-0,097
-272,613	-13,760	0,080	-0,037
-271,599	393,081	-0,029	0,044
-270,584	306,578	-0,050	-0,067
-269,570	183,724	0,028	-0,030
-268,555	68,083	0,041	-0,030
-267,540	-85,196	0,044	-0,010
-266,526	87,937	-0,075	-0,060
-265,511	7,150	0,083	-0,044
-264,497	-200,000	0,001	-0,050
-263,482	-72,411	0,092	0,024
-262,467	624,681	0,024	0,045
-261,453	460,755	0,045	0,073
-260,438	800,000	-0,032	-0,097
-259,424	-180,177	-0,098	-0,001
-258,409	-79,787	0,097	-0,023
-257,395	38,921	-0,214	0,138
-256,380	183,921	0,146	0,156
-255,365	393,664	0,051	0,076
-254,351	-24,211	0,045	0,019
-253,336	139,892	-0,063	0,060
-252,322	-200,000	-0,007	0,055
-251,307	145,944	-0,012	-0,012
-250,292	212,143	0,101	-0,116
-249,278	106,107	0,035	0,030
-248,263	262,875	0,058	-0,072
-247,249	-163,171	-0,014	-0,000
-246,234	-200,000	-0,028	0,092
-245,219	100,543	-0,093	-0,078
-244,205	-107,559	-0,082	0,013
-243,190	-200,000	0,019	0,098
-242,176	-91,912	-0,099	-0,020
-241,161	-3,771	0,035	-0,017
-240,146	-12,619	-0,049	-0,023
-239,132	-77,842	-0,110	-0,027
-238,117	53,222	-0,054	0,037
-237,103	-200,000	0,001	-0,134
-236,088	-108,480	0,116	0,018
-235,073	-200,000	-0,014	0,090
-234,059	751,228	0,010	-0,019
-233,044	127,422	-0,070	0,064
-232,030	-115,487	0,061	0,008
-231,015	800,000	0,037	0,109
-230,000	-68,080	-0,111	0,031
-228,986	-73,038	0,074	0,019
-227,971	-165,557	0,064	0,002
-226,957	65,288	-0,062	-0,046
-225,942	-45,903	0,056	0,020
-224,927	-200,000	-0,011	0,095
-223,913	-200,000	0,011	-0,057
-222,898	70,753	-0,030	0,022
-221,884	219,395	0,082	0,095
-220,869	-200,000	-0,002	0,026
-219,855	164,344	-0,089	0,091
-218,840	-138,475	-0,028	0,002
-217,825	406,875	-0,074	-0,112
-216,811	195,047	0,062	-0,068
-215,796	-200,000	-0,018	-0,112
-214,782	-200,000	0,009	-0,065
-213,767	-58,093	-0,184	0,058
-212,752	315,800	0,080	-0,109
-211,738	134,429	0,060	0,056
-210,723	-200,000	0,014	0,048
-209,709	800,000	-0,030	0,063
-208,694	-200,000	-0,033	-0,117
-207,679	-52,364	0,096	-0,032
-206,665	800,000	-0,031	0,065
-205,650	800,000	-0,043	0,107
-204,636	720,584	-0,017	0,033
-203,621	800,000	0,045	0,143
-202,606	-200,000	0,002	-0,111
-201,592	52,313	-0,066	-0,045
-200,577	800,000	0,058	-0,144
-199,563	-70,705	0,055	-0,015
-198,548	24,148	-0,026	0,016
-197,533	-113,794	0,128	0,018
-196,519	63,561	-0,039	0,028
-195,504	179,231	-0,018	-0,020
-194,490	264,515	-0,071	0,089
-193,475	-200,000	0,011	-0,049
-192,460	-200,000	-0,026	0,261
-191,446	99,448	-0,039	-0,032
-190,431	-200,000	0,003	0,016
-189,417	-87,974	0,041	-0,009
-188,402	-200,000	0,025	0,114
-187,387	800,000	-0,027	0,077
-186,373	55,630	0,103	0,072
-185,358	-27,941	-0,022	0,009
-184,344	-12,549	0,081	-0,038
-183,329	270,415	0,056	0,071
-182,315	-200,000	0,021	0,107
-181,300	62,847	-0,105	0,076
-180,285	91,043	-0,053	-0,043
-179,271	-200,000	-0,016	-0,117
-178,256	57,469	-0,214	-0,150
-177,242	800,000	0,048	0,098
-176,227	-200,000	0,030	0,131
-175,212	316,118	0,038	-0,052
-174,198	-47,728	-0,024	0,008
-173,183	-200,000	-0,049	-0,201
-172,169	-200,000	0,011	0,057
-171,154	-84,650	0,044	-0,010
-170,139	-106,813	-0,053	0,008
-169,125	-113,237	0,141	-0,020
-168,110	322,870	-0,024	0,033
-167,096	41,031	0,017	-0,011
-166,081	-4,873	-0,071	-0,035
-165,066	800,000	-0,063	-0,140
-164,052	-200,000	0,017	-0,107
-163,037	-135,351	0,156	-0,013
-162,023	682,670	-0,054	-0,103
-161,008	-200,000	-0,028	-0,103
-159,993	-200,000	0,005	-0,018
-158,979	11,551	-0,072	-0,040
-157,964	-46,578	0,037	-0,013
-156,950	683,906	0,005	0,010
-155,935	329,011	-0,044	0,061
-154,920	-38,868	0,066	-0,025
-153,906	674,865	0,077	0,145
-152,891	-32,038	-0,037	0,015
-151,877	222,031	0,056	0,065
-150,862	-161,115	-0,169	-0,006
-149,847	-200,000	-0,009	0,121
-148,833	-200,000	-0,008	-0,082
-147,818	-200,000	0,004	0,042
-146,804	800,000	0,082	0,238
-145,789	-47,447	-0,146	0,051
-144,775	31,882	0,043	-0,026
-143,760	348,225	0,027	-0,038
-142,745	-200,000	0,010	-0,055
-141,731	-200,000	-0,005	-0,032
-140,716	800,000	-0,039	0,093
-139,702	129,167	-0,021	-0,019
-138,687	-200,000	0,012	0,071
-137,672	800,000	0,032	0,073
-136,658	-200,000	0,033	-0,181
-135,643	-157,440	-0,131	-0,006
-134,629	270,169	0,010	-0,012
-133,614	215,091	-0,133	0,152
-132,599	272,277	-0,064	0,082
-131,585	44,704	-0,054	0,036
-130,570	800,000	0,015	-0,037
-129,556	800,000	0,012	-0,025
-128,541	-28,804	-0,116	-0,048
-127,526	-78,340	0,126	-0,031
-126,512	800,000	-0,047	0,133
-125,497	344,039	0,059	0,083
-124,483	-200,000	-0,007	0,030
-123,468	-1,983	-0,072	-0,036
-122,453	1,773	-0,079	0,041
-121,439	240,460	0,045	-0,054
-120,424	800,000	-0,035	-0,081
