DTS Sentinel unit serial number:	SN410029Multiplexer serial number:	ORYXHardware model number:	OX2-SRSoftware version number:	ORYX F/W v4,00 Oryx Data Collector v3.7.2.0data status	okinstallation	B5 Nyhavnadifferential loss correction	single-endedforward channel	channel 2reverse channel	N/Adate	2023/12/12time	15:52:13forward acquisition time	300,00reverse acquisition time	0,00gamma	499,1914k internal	0,3156k external	0,3156temperature offset calibration	1,0000default loss term (dB/km)	0,3820temperature slope calibration	1,0000multiplexer offset coefficient	1,0000multiplexer slope coefficient	1,0000fibre end	0,00T internal ref (°C)	15,92T ext. ref 1 (°C)	-0,52T ext. ref 2 (°C)	-0,79length (m)	temperature (°C)	Stokes	anti-Stokes-744,400	-200,000	0,044	-0,160
-743,385	-183,559	-0,188	0,002
-742,371	174,944	-0,053	0,057
-741,356	-87,544	-0,282	0,062
-740,342	-174,605	-0,017	-0,000
-739,327	-79,545	-0,234	0,058
-738,312	41,619	0,152	-0,101
-737,298	-178,858	-0,321	0,005
-736,283	-39,773	0,112	0,043
-735,269	24,282	-0,273	0,166
-734,254	-41,703	0,075	0,028
-733,239	-103,524	-0,537	-0,092
-732,225	94,263	0,105	-0,088
-731,210	-200,000	-0,006	0,061
-730,196	-47,458	-0,042	-0,015
-729,181	-81,706	-0,079	-0,019
-728,167	-54,124	-0,131	0,044
-727,152	-134,597	-0,113	0,010
-726,137	-87,055	-0,137	0,030
-725,123	-106,722	-0,149	0,024
-724,108	-74,223	-0,095	-0,025
-723,094	-110,522	-0,073	0,011
-722,079	-200,000	-0,002	-0,222
-721,064	-200,000	0,003	-0,047
-720,050	-200,000	0,001	-0,014
-719,035	-102,603	-0,076	-0,013
-718,021	-18,820	-0,154	0,070
-717,006	392,462	-0,090	-0,138
-715,991	-108,381	-0,226	0,035
-714,977	-76,058	0,083	-0,021
-713,962	-2,984	-0,085	-0,043
-712,948	-31,120	0,141	-0,058
-711,933	-109,557	0,064	-0,010
-710,918	751,799	-0,073	-0,147
-709,904	34,388	-0,081	0,052
-708,889	-200,000	0,010	-0,165
-707,875	447,518	-0,057	-0,092
-706,860	48,525	0,041	0,028
-705,845	17,039	0,030	-0,017
-704,831	5,077	0,064	-0,034
-703,816	-200,000	-0,005	0,062
-702,802	-30,106	-0,122	-0,051
-701,787	-200,000	-0,001	-0,137
-700,772	79,736	-0,074	-0,058
-699,758	-50,522	-0,047	0,016
-698,743	-200,000	0,014	0,088
-697,729	-200,000	-0,011	-0,041
-696,714	-200,000	0,000	0,093
-695,699	-200,000	-0,005	0,042
-694,685	800,000	-0,045	-0,130
-693,670	800,000	-0,073	-0,189
-692,656	-200,000	-0,045	-0,221
-691,641	-200,000	-0,029	0,104
-690,627	-200,000	0,009	0,036
-689,612	26,540	0,091	0,056
-688,597	-154,167	0,072	0,004
-687,583	-83,559	-0,127	-0,030
-686,568	289,520	-0,159	-0,213
-685,554	-200,000	0,007	-0,024
-684,539	-140,649	0,175	-0,013
-683,524	230,331	0,038	-0,046
-682,510	776,589	-0,028	-0,056
-681,495	-159,464	-0,117	0,005
-680,481	226,777	-0,071	-0,085
-679,466	-200,000	0,034	-0,129
-678,451	71,928	-0,087	-0,067
-677,437	800,000	-0,037	-0,119
-676,422	-150,475	-0,123	-0,007
-675,408	-24,239	-0,136	-0,059
-674,393	-200,000	-0,014	0,066
-673,378	-200,000	0,011	-0,112
-672,364	-200,000	0,019	-0,151
-671,349	-200,000	-0,012	-0,062
-670,335	-84,452	-0,055	0,013
-669,320	231,026	0,073	0,089
-668,305	-138,970	0,090	0,007
-667,291	-1,942	-0,129	0,067
-666,276	353,952	-0,044	0,064
-665,262	-97,664	-0,029	0,005
-664,247	-92,828	-0,124	0,025
-663,232	-58,599	0,092	0,029
-662,218	800,000	0,024	0,073
-661,203	-86,815	-0,082	-0,018
-660,189	25,614	-0,201	-0,123
-659,174	94,834	-0,061	-0,051
-658,159	-200,000	-0,021	-0,106
-657,145	87,656	-0,038	0,031
-656,130	252,551	0,032	-0,040
-655,116	-96,650	0,020	0,004
-654,101	-6,726	0,150	0,075
-653,086	-200,000	-0,009	0,050
-652,072	-160,881	-0,163	0,006
-651,057	800,000	-0,073	-0,193
-650,043	-156,859	-0,081	-0,004
-649,028	-56,456	-0,061	0,020
-648,014	-200,000	-0,002	0,057
-646,999	-12,339	-0,111	0,053
-645,984	-200,000	0,016	-0,057
-644,970	40,163	0,103	-0,068
-643,955	195,270	-0,063	-0,070
-642,941	423,227	-0,119	-0,189
-641,926	9,525	0,095	-0,053
-640,911	287,321	-0,116	-0,155
-639,897	73,834	-0,154	-0,118
-638,882	453,244	-0,078	-0,128
-637,868	-14,561	0,034	0,016
-636,853	800,000	-0,097	-0,215
-635,838	333,930	0,018	-0,025
-634,824	263,638	-0,108	0,138
-633,809	322,708	-0,032	-0,045
-632,795	-16,725	0,107	0,050
-631,780	-200,000	0,019	0,078
-630,765	62,118	-0,040	-0,029
-629,751	-57,190	-0,061	0,020
-628,736	34,379	-0,028	0,018
-627,722	-200,000	-0,038	-0,163
-626,707	204,808	-0,019	0,022
-625,692	-200,000	-0,010	0,136
-624,678	78,009	0,115	0,090
-623,663	-166,556	0,106	-0,003
-622,649	800,000	-0,021	0,058
-621,634	-200,000	-0,000	0,015
-620,619	-103,355	0,031	0,005
-619,605	800,000	0,044	-0,104
-618,590	-29,007	0,061	-0,026
-617,576	-59,794	0,095	-0,030
-616,561	-200,000	0,006	0,105
-615,546	-200,000	-0,035	-0,164
-614,532	800,000	-0,016	-0,044
-613,517	-200,000	-0,011	-0,095
-612,503	-74,544	-0,042	-0,011
-611,488	574,212	-0,008	0,015
-610,474	-23,307	-0,086	-0,038
-609,459	-175,014	0,111	0,002
-608,444	67,852	0,037	-0,027
-607,430	203,374	-0,099	-0,113
-606,415	-200,000	-0,016	-0,071
-605,401	-27,620	0,012	-0,005
-604,386	-12,877	0,062	0,030
-603,371	-200,000	0,000	-0,031
-602,357	16,813	-0,065	-0,037
-601,342	-200,000	0,047	0,169
-600,328	500,900	-0,027	0,046
-599,313	82,177	-0,040	-0,032
-598,298	183,274	-0,057	-0,062
-597,284	268,940	-0,140	-0,181
-596,269	-63,030	0,187	0,056
-595,255	-200,000	-0,032	0,105
-594,240	206,180	-0,082	0,093
-593,225	-200,000	0,009	-0,059
-592,211	800,000	0,012	-0,027
-591,196	-4,693	-0,102	0,051
-590,182	-200,000	-0,050	0,291
-589,167	649,655	-0,037	0,070
-588,152	-200,000	0,007	-0,074
-587,138	92,002	-0,078	-0,065
-586,123	145,082	-0,063	0,062
-585,109	-200,000	-0,051	-0,181
-584,094	-145,672	-0,048	0,003
-583,079	605,118	0,014	0,025
-582,065	800,000	0,043	-0,127
-581,050	-200,000	0,017	0,128
-580,036	169,811	-0,085	0,089
-579,021	37,430	-0,037	0,024
-578,006	800,000	-0,080	0,172
-576,992	447,927	0,035	-0,056
-575,977	-200,000	0,009	-0,111
-574,963	-24,898	-0,082	-0,035
-573,948	-58,912	0,102	-0,032
-572,934	-127,210	-0,155	0,016
-571,919	800,000	-0,023	-0,053
-570,904	206,511	0,007	0,008
-569,890	800,000	-0,040	0,098
-568,875	101,082	0,089	-0,076
-567,861	44,339	0,056	-0,037
-566,846	45,266	0,036	-0,024
-565,831	464,252	0,050	0,082
-564,817	-25,734	0,111	-0,048
-563,802	125,967	-0,126	-0,117
-562,788	27,314	0,046	0,028
-561,773	-31,381	-0,051	-0,021
-560,758	-200,000	0,016	0,066
-559,744	-93,057	0,197	0,040
-558,729	800,000	0,026	0,062
-557,715	-200,000	-0,001	0,059
-556,700	-127,240	-0,138	0,015
-555,685	-91,746	0,069	-0,014
-554,671	-200,000	0,031	-0,160
-553,656	152,664	-0,115	0,115
-552,642	-173,608	0,038	0,001
-551,627	-200,000	0,067	0,000
-550,612	119,713	-0,132	-0,120
-549,598	188,200	-0,108	-0,118
-548,583	747,768	-0,041	0,081
-547,569	87,600	0,018	0,015
-546,554	411,154	-0,079	0,124
-545,539	180,861	0,065	-0,070
-544,525	-200,000	0,025	0,188
-543,510	-200,000	0,015	0,102
-542,496	30,238	-0,088	0,055
-541,481	7,977	-0,031	-0,017
-540,466	-101,546	0,077	-0,014
-539,452	92,320	-0,112	0,093
-538,437	-200,000	0,010	0,078
-537,423	-57,041	0,070	-0,022
-536,408	800,000	-0,039	-0,086
-535,393	-48,568	-0,118	-0,041
-534,379	-61,375	-0,010	0,003
-533,364	-200,000	-0,003	0,079
-532,350	-108,052	0,075	0,012
-531,335	11,803	0,070	0,039
-530,321	217,400	-0,025	-0,029
-529,306	-200,000	-0,004	-0,102
-528,291	-89,698	0,147	0,031
-527,277	-81,283	-0,112	-0,027
-526,262	34,543	-0,026	0,016
-525,248	-200,000	-0,002	0,029
-524,233	82,877	0,064	-0,051
-523,218	38,780	-0,016	-0,010
-522,204	-79,466	0,064	-0,016
-521,189	-59,069	-0,176	-0,055
-520,175	-121,159	0,020	0,002
-519,160	800,000	0,014	0,036
-518,145	-62,786	0,044	0,013
-517,131	110,831	-0,087	-0,076
-516,116	-11,855	0,012	-0,006
-515,102	800,000	0,026	0,066
-514,087	-80,314	-0,213	-0,052
-513,072	251,580	-0,043	-0,054
-512,058	-147,992	0,061	0,004
-511,043	-200,000	-0,002	0,017
-510,029	165,570	0,062	-0,064
-509,014	-53,960	0,046	0,015
-507,999	-151,985	-0,067	-0,003
-506,985	-200,000	-0,019	-0,162
-505,970	-84,196	-0,035	0,008
-504,956	800,000	-0,010	-0,027
-503,941	-100,120	0,037	0,007
-502,926	-26,953	0,071	0,030
-501,912	666,973	-0,029	0,055
-500,897	-200,000	0,017	-0,057
-499,883	41,439	-0,041	0,027
-498,868	-41,553	0,112	-0,042
-497,853	-200,000	0,001	0,017
-496,839	-29,364	0,120	-0,050
-495,824	-200,000	-0,017	-0,103
-494,810	116,063	0,120	-0,107
-493,795	39,961	-0,116	-0,076
-492,781	-127,880	0,041	-0,004
-491,766	270,109	-0,095	0,122
-490,751	-200,000	0,059	0,220
-489,737	-200,000	-0,035	-0,132
-488,722	203,436	-0,049	-0,055
-487,708	182,166	0,089	0,096
-486,693	-200,000	0,036	0,152
-485,678	412,811	-0,097	0,151
-484,664	18,639	0,065	0,038
-483,649	-39,802	-0,083	0,031
-482,635	58,798	0,039	0,028
-481,620	-44,103	-0,037	0,014
-480,605	191,333	0,083	0,092
-479,591	4,681	0,033	0,018
-478,576	-105,401	0,070	0,012
-477,562	-42,778	-0,133	0,049
-476,547	47,795	-0,049	0,034
-475,532	118,517	-0,068	0,061
-474,518	-200,000	0,028	0,174
-473,503	171,466	0,040	0,042
-472,489	-59,686	-0,117	-0,036
-471,474	-200,000	-0,013	-0,100
-470,459	41,336	-0,086	-0,056
-469,445	54,691	0,018	-0,012
-468,430	-200,000	0,019	-0,150
-467,416	-200,000	0,025	0,128
-466,401	-200,000	-0,032	0,109
-465,386	-200,000	0,015	0,057
-464,372	490,915	-0,110	0,184
-463,357	-166,608	-0,067	-0,002
-462,343	-124,561	0,030	-0,003
-461,328	800,000	0,005	-0,015
-460,313	-97,300	0,044	0,008
-459,299	-200,000	0,004	0,029
-458,284	29,851	-0,062	0,038
-457,270	-59,496	0,134	0,042
-456,255	167,070	0,031	0,032
-455,241	70,716	-0,098	0,074
-454,226	800,000	-0,050	-0,160
-453,211	-0,705	-0,049	0,025
-452,197	-43,455	0,102	0,037
-451,182	5,792	0,112	-0,060
-450,168	77,190	0,126	0,098
-449,153	800,000	-0,023	-0,061
-448,138	-200,000	-0,030	-0,141
-447,124	-34,847	-0,043	0,017
-446,109	24,853	0,041	-0,025
-445,095	-138,066	0,111	-0,009
-444,080	152,606	0,110	0,109
-443,065	-56,646	-0,037	-0,012
-442,051	-200,000	-0,010	0,093
-441,036	-200,000	-0,000	-0,030
-440,022	-200,000	0,006	0,029
-439,007	-200,000	0,013	-0,112
-437,992	-200,000	-0,006	0,123
-436,978	-200,000	0,006	0,123
-435,963	-73,830	0,012	-0,003
-434,949	800,000	0,024	0,073
-433,934	800,000	-0,017	0,055
-432,919	44,398	0,044	-0,030
-431,905	-200,000	-0,016	-0,076
-430,890	-107,425	0,107	-0,017
-429,876	-200,000	-0,022	0,086
-428,861	-200,000	-0,006	0,054
-427,846	-200,000	-0,039	0,162
-426,832	488,739	-0,096	-0,160
-425,817	-132,892	-0,067	0,006
-424,803	800,000	-0,027	-0,060
-423,788	-88,324	0,041	-0,009
-422,773	-42,239	0,074	-0,027
-421,759	13,014	-0,097	0,055
-420,744	-44,149	0,092	0,033
-419,730	800,000	-0,013	-0,038
-418,715	-23,865	-0,073	-0,032
-417,701	417,468	0,088	0,137
-416,686	800,000	0,036	0,097
-415,671	-80,330	-0,059	0,014
-414,657	62,811	0,069	0,050
-413,642	-85,046	0,119	0,027
-412,628	800,000	-0,019	-0,056
-411,613	-192,862	-0,072	-0,000
-410,598	-132,151	0,066	-0,006
-409,584	-200,000	0,001	0,093
-408,569	52,272	0,086	0,059
-407,555	332,740	0,031	0,044
-406,540	-29,046	-0,021	0,009
-405,525	89,411	0,110	0,089
-404,511	-200,000	-0,024	0,089
-403,496	-98,722	0,066	0,012
-402,482	76,660	-0,037	-0,028
-401,467	-85,590	0,091	-0,020
-400,452	-200,000	0,004	0,107
-399,438	-38,852	0,064	-0,024
-398,423	-129,560	-0,067	-0,007
-397,409	-81,491	-0,075	-0,018
-396,394	-200,000	-0,021	0,101
-395,379	800,000	0,024	-0,056
-394,365	189,529	0,032	-0,035
-393,350	-9,224	0,097	-0,047
-392,336	-200,000	0,025	0,131
-391,321	125,063	-0,081	0,074
-390,306	-36,763	-0,070	0,027
-389,292	-82,318	0,123	0,029
-388,277	-143,730	-0,066	-0,004
-387,263	800,000	0,057	-0,121
-386,248	104,404	0,110	-0,094
-385,233	-27,363	0,093	0,039
-384,219	-200,000	-0,004	0,016
-383,204	180,063	-0,136	0,146
-382,190	20,461	-0,110	-0,064
-381,175	-6,460	-0,074	0,036
-380,160	-113,658	0,147	0,021
-379,146	800,000	-0,028	0,082
-378,131	172,105	-0,052	-0,054
-377,117	-105,323	0,012	0,002
-376,102	-200,000	-0,010	0,045
-375,088	-106,602	-0,062	-0,010
-374,073	103,836	-0,068	0,058
-373,058	273,947	0,057	0,073
-372,044	-29,663	-0,105	-0,043
-371,029	-200,000	-0,002	-0,073
-370,015	800,000	-0,037	0,077
-369,000	-112,455	0,050	-0,007
-367,985	156,645	-0,028	-0,028
-366,971	-47,344	-0,170	-0,060
-365,956	37,064	0,148	-0,095
-364,942	-185,254	-0,081	-0,001
-363,927	-159,766	0,134	0,005
-362,912	411,601	-0,024	-0,037
-361,898	-200,000	0,016	-0,130
-360,883	800,000	0,012	0,025
-359,869	524,250	0,045	-0,078
-358,854	626,778	-0,119	-0,220
-357,839	245,667	-0,032	0,039
-356,825	31,678	0,133	0,083
-355,810	111,799	-0,062	0,054
-354,796	-200,000	-0,042	-0,151
-353,781	293,379	-0,069	-0,092
-352,766	380,270	0,030	0,045
-351,752	-147,597	0,038	-0,002
-350,737	800,000	-0,043	-0,113
-349,723	-119,659	0,116	0,014
-348,708	-177,719	-0,080	0,001
-347,693	-13,414	0,053	-0,025
-346,679	-200,000	-0,032	-0,126
-345,664	323,009	0,006	0,009
-344,650	-40,157	0,116	0,044
-343,635	800,000	0,009	0,022
-342,620	39,987	-0,075	-0,049
-341,606	187,275	-0,026	0,028
-340,591	60,569	0,036	-0,026
-339,577	-200,000	0,013	-0,107
-338,562	456,099	-0,036	-0,058
-337,548	-200,000	-0,007	0,028
-336,533	391,217	0,053	-0,080
-335,518	-74,783	0,055	-0,014
-334,504	172,735	-0,055	-0,058
-333,489	-200,000	-0,028	0,120
-332,475	-160,671	-0,226	-0,009
-331,460	-133,012	-0,090	-0,008
-330,445	-192,877	0,089	-0,001
-329,431	8,659	0,030	-0,016
-328,416	112,031	-0,070	-0,061
-327,402	454,224	-0,060	0,097
-326,387	-99,978	-0,110	0,020
-325,372	-6,944	-0,074	0,036
-324,358	-200,000	-0,006	-0,165
-323,343	-200,000	-0,013	0,083
-322,329	-11,473	0,046	-0,022
-321,314	101,832	0,093	0,079
-320,299	392,317	0,061	0,093
-319,285	-200,000	-0,009	0,035
-318,270	-200,000	0,013	-0,068
-317,256	800,000	-0,061	-0,150
-316,241	800,000	-0,077	-0,206
-315,226	-109,492	0,121	-0,018
-314,212	356,093	0,067	0,096
-313,197	611,486	-0,013	0,024
-312,183	537,732	-0,058	-0,101
-311,168	-200,000	0,042	-0,137
-310,153	-66,687	-0,107	-0,031
-309,139	64,807	0,048	0,035
-308,124	800,000	0,020	0,048
-307,110	57,923	0,064	0,046
-306,095	-200,000	-0,014	0,074
-305,080	76,566	-0,042	-0,032
-304,066	-114,040	-0,090	-0,012
-303,051	-65,241	-0,051	-0,015
-302,037	632,258	0,024	-0,044
-301,022	800,000	0,022	-0,051
-300,008	-77,007	0,133	0,033
-298,993	464,117	0,040	0,065
-297,978	-125,875	0,124	-0,013
-296,964	106,747	-0,083	-0,072
-295,949	79,170	0,168	-0,130
-294,935	25,757	0,088	0,053
-293,920	300,021	-0,014	0,019
-292,905	-83,156	0,167	0,039
-291,891	-59,938	0,233	0,072
-290,876	421,807	0,036	0,056
-289,862	-147,820	-0,120	-0,007
-288,847	114,733	-0,076	-0,067
-287,832	-200,000	-0,001	0,011
-286,818	-200,000	0,031	0,171
-285,803	37,134	0,129	-0,082
-284,789	800,000	-0,031	0,072
-283,774	-200,000	0,007	0,078
-282,759	278,359	-0,045	0,058
-281,745	800,000	0,016	-0,037
-280,730	242,286	0,017	0,021
-279,716	181,518	-0,030	-0,032
-278,701	-200,000	-0,012	0,048
-277,686	-200,000	-0,023	-0,086
-276,672	583,550	0,026	0,046
-275,657	800,000	-0,008	0,022
-274,643	64,448	-0,055	-0,040
-273,628	59,633	-0,076	0,054
-272,613	422,685	-0,027	-0,042
-271,599	-200,000	0,001	0,059
-270,584	800,000	0,030	-0,064
-269,570	-160,188	0,144	-0,006
-268,555	-200,000	0,019	0,131
-267,540	-200,000	-0,010	-0,131
-266,526	-57,393	0,035	-0,011
-265,511	377,128	-0,031	0,047
-264,497	-33,065	0,034	0,014
-263,482	-200,000	0,000	0,057
-262,467	-137,422	-0,046	0,004
-261,453	-8,713	-0,084	-0,041
-260,438	800,000	0,022	-0,070
-259,424	-52,098	-0,076	0,025
-258,409	-148,248	-0,133	0,008
-257,395	2,944	-0,060	0,032
-256,380	-74,819	0,099	-0,026
-255,365	-200,000	0,003	-0,072
-254,351	-74,850	0,083	-0,021
-253,336	-96,600	-0,072	-0,014
-252,322	-200,000	-0,015	-0,142
-251,307	-200,000	-0,001	0,104
-250,292	-34,393	-0,064	-0,025
-249,278	-200,000	-0,007	0,093
-248,263	54,183	0,085	0,059
-247,249	-98,993	-0,105	-0,019
-246,234	-84,391	0,049	-0,011
-245,219	800,000	-0,047	-0,114
-244,205	85,211	0,110	-0,087
-243,190	-200,000	-0,005	0,087
-242,176	109,760	0,144	-0,125
-241,161	302,480	-0,019	0,025
-240,146	110,568	0,072	0,063
-239,132	-200,000	0,023	0,104
-238,117	-138,647	-0,026	0,002
-237,103	418,401	0,046	-0,071
-236,088	-86,414	-0,096	-0,021
-235,073	-44,962	-0,044	0,016
-234,059	0,853	0,078	0,040
-233,044	355,479	0,071	-0,103
-232,030	-200,000	0,030	0,148
-231,015	-200,000	-0,004	0,028
-230,000	-200,000	0,015	-0,112
-228,986	-200,000	-0,001	-0,135
-227,971	371,414	-0,061	0,089
-226,957	-200,000	0,010	0,135
-225,942	672,165	-0,021	-0,040
-224,927	-200,000	0,014	-0,053
-223,913	-92,439	-0,070	-0,014
-222,898	-200,000	0,014	-0,117
-221,884	-200,000	-0,004	-0,037
-220,869	-200,000	-0,011	0,054
-219,855	-107,288	0,041	0,006
-218,840	-44,938	0,117	0,042
-217,825	250,924	-0,026	-0,032
-216,811	800,000	-0,105	-0,210
-215,796	-200,000	0,015	-0,083
-214,782	-29,459	0,168	0,069
-213,767	23,608	-0,085	0,050
-212,752	77,743	-0,085	0,065
-211,738	800,000	0,033	0,077
-210,723	626,910	0,073	0,134
-209,709	-200,000	0,008	0,117
-208,694	-101,712	0,107	-0,019
-207,679	243,637	-0,057	0,069
-206,665	396,527	0,064	-0,096
-205,650	3,114	0,049	0,026
-204,636	-200,000	0,014	0,053
-203,621	57,740	-0,080	-0,056
-202,606	-43,941	-0,040	-0,014
-201,592	295,801	-0,047	-0,062
-200,577	324,840	0,028	0,039
-199,563	-200,000	-0,047	-0,210
-198,548	-200,000	-0,011	0,090
-197,533	-200,000	-0,000	0,025
-196,519	800,000	-0,052	0,131
-195,504	-38,158	0,072	-0,027
-194,490	800,000	0,060	-0,133
-193,475	-53,536	0,047	-0,015
-192,460	-149,091	-0,056	0,003
-191,446	-34,291	0,111	-0,044
-190,431	-97,974	0,028	-0,005
-189,417	-19,315	-0,052	0,023
-188,402	-200,000	-0,018	-0,197
-187,387	395,964	-0,059	-0,089
-186,373	800,000	0,092	-0,185
-185,358	-200,000	0,010	-0,147
-184,344	800,000	-0,032	-0,100
-183,329	800,000	0,032	0,073
-182,315	800,000	0,045	0,093
-181,300	-200,000	-0,038	0,197
-180,285	-148,947	-0,150	-0,009
-179,271	-200,000	0,006	-0,023
-178,256	-75,729	0,024	0,006
-177,242	-200,000	0,011	-0,043
-176,227	185,586	-0,016	-0,017
-175,212	-200,000	-0,044	0,195
-174,198	-200,000	-0,010	0,107
-173,183	-200,000	-0,003	-0,118
-172,169	161,214	-0,018	-0,018
-171,154	-200,000	0,005	-0,141
-170,139	185,003	-0,035	0,037
-169,125	-20,754	0,102	-0,045
-168,110	-22,377	0,048	-0,021
-167,096	613,656	-0,037	0,067
-166,081	-47,023	0,077	0,027
-165,066	-200,000	-0,040	-0,159
-164,052	-82,108	-0,039	-0,009
-163,037	800,000	0,072	0,154
-162,023	-71,038	0,049	-0,013
-161,008	757,921	-0,033	0,065
-159,993	366,748	0,032	0,047
-158,979	-200,000	0,004	0,078
-157,964	127,731	0,022	-0,020
-156,950	66,061	0,036	-0,026
-155,935	-65,005	0,080	-0,023
-154,920	-200,000	-0,016	0,066
-153,906	277,530	0,091	0,117
-152,891	99,803	0,039	0,033
-151,877	-12,099	-0,062	0,029
-150,862	378,267	-0,042	0,062
-149,847	-200,000	-0,051	-0,201
-148,833	-44,733	-0,035	-0,013
-147,818	-106,447	0,177	-0,028
-146,804	800,000	-0,001	-0,003
-145,789	-153,463	0,052	0,003
-144,775	-169,047	0,092	-0,002
-143,760	86,053	0,042	0,033
-142,745	-24,915	-0,049	-0,021
-141,731	-200,000	0,011	-0,114
-140,716	-200,000	-0,012	0,076
-139,702	520,915	0,062	0,105
-138,687	-200,000	-0,017	0,080
-137,672	203,646	-0,105	0,117
-136,658	193,550	-0,108	-0,118
-135,643	679,119	0,026	-0,049
-134,629	800,000	0,053	-0,167
-133,614	-140,482	-0,109	-0,008
-132,599	-200,000	0,008	-0,052
-131,585	-200,000	0,025	-0,079
-130,570	59,524	-0,107	-0,076
-129,556	97,539	0,093	-0,077
-128,541	-143,811	-0,119	0,008
-127,526	-31,741	0,061	-0,025
-126,512	-200,000	0,035	0,125
-125,497	-55,424	0,085	0,027
-124,483	745,899	-0,008	0,015
-123,468	-200,000	-0,020	0,071
-122,453	-200,000	0,005	-0,136
-121,439	267,823	-0,075	-0,095
