DTS Sentinel unit serial number:	SN410029Multiplexer serial number:	ORYXHardware model number:	OX2-SRSoftware version number:	ORYX F/W v4,00 Oryx Data Collector v3.7.2.0data status	okinstallation	B5 Nyhavnadifferential loss correction	single-endedforward channel	channel 2reverse channel	N/Adate	2023/12/12time	00:02:13forward acquisition time	300,00reverse acquisition time	0,00gamma	499,1914k internal	0,3156k external	0,3156temperature offset calibration	1,0000default loss term (dB/km)	0,3820temperature slope calibration	1,0000multiplexer offset coefficient	1,0000multiplexer slope coefficient	1,0000fibre end	0,00T internal ref (°C)	16,17T ext. ref 1 (°C)	-0,19T ext. ref 2 (°C)	-0,47length (m)	temperature (°C)	Stokes	anti-Stokes-744,400	-154,071	0,165	-0,008
-743,385	37,861	-0,267	0,175
-742,371	772,843	0,086	0,175
-741,356	35,573	-0,234	0,151
-740,342	-200,000	0,013	0,053
-739,327	-171,893	-0,347	-0,008
-738,312	424,561	0,050	0,080
-737,298	-97,049	-0,337	0,064
-736,283	252,351	0,067	-0,084
-735,269	-39,879	-0,243	0,093
-734,254	-50,447	0,072	0,025
-733,239	-108,967	-0,430	-0,067
-732,225	-59,226	0,193	0,061
-731,210	-156,612	0,081	-0,004
-730,196	800,000	-0,035	-0,076
-729,181	140,141	0,042	-0,041
-728,167	-154,447	-0,089	0,004
-727,152	30,564	0,029	-0,018
-726,137	-108,453	-0,063	-0,010
-725,123	299,269	0,034	-0,047
-724,108	166,438	-0,121	-0,127
-723,094	800,000	-0,049	-0,141
-722,079	-200,000	-0,019	-0,105
-721,064	800,000	0,039	0,085
-720,050	800,000	-0,025	-0,057
-719,035	172,814	-0,041	-0,044
-718,021	637,898	0,041	-0,077
-717,006	-42,682	-0,163	-0,061
-715,991	-58,599	-0,121	-0,038
-714,977	459,546	-0,018	0,029
-713,962	-104,148	-0,131	-0,022
-712,948	-200,000	0,041	-0,141
-711,933	-45,519	-0,089	0,032
-710,918	171,450	0,080	0,084
-709,904	-159,599	-0,169	0,007
-708,889	-200,000	-0,017	-0,093
-707,875	-75,814	0,045	0,012
-706,860	-79,638	-0,026	0,006
-705,845	55,546	0,031	-0,022
-704,831	-200,000	-0,022	0,099
-703,816	166,636	-0,109	0,114
-702,802	471,662	-0,057	-0,095
-701,787	-14,712	-0,073	-0,034
-700,772	-58,958	0,023	0,007
-699,758	-134,191	-0,096	0,009
-698,743	800,000	0,074	0,185
-697,729	-200,000	0,000	0,011
-696,714	31,818	-0,047	0,030
-695,699	425,638	-0,034	-0,055
-694,685	-200,000	-0,047	-0,214
-693,670	800,000	-0,032	-0,082
-692,656	-200,000	0,025	0,098
-691,641	-200,000	-0,017	0,121
-690,627	395,866	0,051	0,079
-689,612	800,000	-0,038	0,081
-688,597	277,201	0,039	-0,051
-687,583	-200,000	-0,008	-0,073
-686,568	-17,252	-0,103	-0,048
-685,554	-200,000	-0,001	-0,080
-684,539	-200,000	0,003	0,068
-683,524	-56,713	0,159	0,051
-682,510	-10,362	-0,043	0,021
-681,495	423,340	-0,049	-0,077
-680,481	-81,212	0,075	-0,018
-679,466	-123,853	0,047	-0,005
-678,451	22,480	-0,079	-0,048
-677,437	-200,000	0,004	-0,023
-676,422	268,925	-0,049	0,064
-675,408	-200,000	0,005	0,024
-674,393	-200,000	0,013	0,090
-673,378	-141,603	-0,124	0,009
-672,364	245,077	0,084	0,105
-671,349	-200,000	-0,001	-0,004
-670,335	157,533	0,166	-0,169
-669,320	-35,200	0,116	0,046
-668,305	-8,126	0,125	0,062
-667,291	-200,000	0,024	-0,077
-666,276	-116,817	0,048	-0,006
-665,262	53,158	0,035	0,025
-664,247	800,000	0,061	0,153
-663,232	-56,832	-0,047	0,015
-662,218	-30,113	0,084	0,035
-661,203	-72,941	0,172	0,046
-660,189	421,658	0,017	0,026
-659,174	17,146	-0,180	-0,105
-658,159	86,422	-0,083	-0,067
-657,145	67,570	-0,113	0,085
-656,130	274,908	0,029	0,038
-655,116	-200,000	-0,030	0,133
-654,101	800,000	0,057	0,130
-653,086	176,901	0,015	0,016
-652,072	-117,491	-0,225	0,030
-651,057	-29,453	0,067	-0,028
-650,043	112,367	-0,050	0,045
-649,028	157,365	-0,047	0,048
-648,014	27,377	0,111	-0,069
-646,999	414,315	-0,073	0,115
-645,984	-58,169	0,055	0,017
-644,970	-34,833	-0,099	-0,040
-643,955	-200,000	0,011	-0,101
-642,941	61,536	-0,025	-0,018
-641,926	52,502	-0,104	-0,073
-640,911	800,000	0,052	-0,145
-639,897	-200,000	-0,004	0,131
-638,882	45,383	0,076	-0,051
-637,868	243,180	0,103	0,127
-636,853	-23,599	0,080	0,035
-635,838	-108,870	-0,117	0,018
-634,824	121,479	-0,045	0,041
-633,809	800,000	-0,054	0,170
-632,795	-200,000	0,001	-0,049
-631,780	-19,012	0,136	-0,062
-630,765	121,221	-0,138	-0,126
-629,751	526,240	0,022	-0,038
-628,736	187,763	-0,061	-0,067
-627,722	-200,000	0,002	-0,144
-626,707	-31,767	0,057	0,023
-625,692	-200,000	0,015	0,100
-624,678	547,855	0,010	-0,018
-623,663	122,089	0,064	-0,059
-622,649	107,977	-0,083	0,073
-621,634	351,688	-0,112	0,164
-620,619	242,230	-0,069	0,085
-619,605	-97,440	0,028	-0,005
-618,590	-148,519	-0,008	-0,000
-617,576	52,243	0,129	0,090
-616,561	-146,257	0,104	-0,007
-615,546	311,007	-0,078	-0,108
-614,532	-200,000	0,021	0,088
-613,517	58,483	-0,036	-0,026
-612,503	-29,513	0,159	0,067
-611,488	207,349	-0,032	0,037
-610,474	3,503	-0,037	0,020
-609,459	398,742	-0,071	-0,110
-608,444	-200,000	0,007	-0,118
-607,430	-108,597	0,112	0,018
-606,415	134,286	-0,035	-0,034
-605,401	800,000	-0,037	-0,099
-604,386	-14,570	0,061	-0,029
-603,371	104,948	-0,035	-0,030
-602,357	172,851	0,090	0,095
-601,342	-200,000	-0,003	-0,016
-600,328	-24,081	-0,104	-0,046
-599,313	-81,402	0,110	0,026
-598,298	75,680	-0,108	0,084
-597,284	581,755	-0,049	0,088
-596,269	464,814	0,087	0,143
-595,255	528,775	0,067	0,117
-594,240	-200,000	0,008	0,071
-593,225	-8,701	-0,101	0,050
-592,211	-76,325	-0,163	0,042
-591,196	-200,000	-0,040	-0,205
-590,182	371,364	-0,027	-0,040
-589,167	122,808	0,134	0,123
-588,152	92,822	0,078	0,065
-587,138	-33,348	-0,104	-0,042
-586,123	-200,000	0,006	-0,107
-585,109	86,708	-0,057	0,046
-584,094	-73,262	-0,093	0,025
-583,079	-200,000	-0,009	0,087
-582,065	-200,000	-0,000	0,011
-581,050	19,227	0,069	0,040
-580,036	266,359	0,028	0,036
-579,021	57,157	0,167	-0,120
-578,006	-200,000	0,009	-0,091
-576,992	507,374	-0,035	-0,060
-575,977	-200,000	-0,017	0,116
-574,963	-200,000	-0,024	0,083
-573,948	57,730	-0,091	-0,065
-572,934	-30,503	0,223	-0,092
-571,919	-98,155	-0,138	-0,026
-570,904	314,624	0,027	0,037
-569,890	-118,657	-0,100	0,013
-568,875	33,405	0,044	0,028
-567,861	800,000	0,044	0,126
-566,846	48,714	0,066	-0,045
-565,831	-200,000	0,009	0,088
-564,817	-200,000	0,007	0,085
-563,802	-126,038	-0,169	0,018
-562,788	7,592	-0,119	-0,065
-561,773	-200,000	0,005	0,126
-560,758	476,294	0,010	0,017
-559,744	800,000	0,020	0,063
-558,729	800,000	0,018	-0,049
-557,715	257,798	-0,092	-0,117
-556,700	430,298	-0,018	-0,028
-555,685	-20,941	-0,078	-0,035
-554,671	5,557	0,044	0,023
-553,656	24,290	0,064	-0,038
-552,642	-58,321	0,071	0,022
-551,627	497,374	0,046	-0,077
-550,612	800,000	0,016	0,037
-549,598	49,518	-0,118	0,081
-548,583	-200,000	-0,013	-0,075
-547,569	-110,115	0,090	0,014
-546,554	30,442	0,072	0,045
-545,539	-82,584	-0,056	-0,013
-544,525	117,227	0,015	0,013
-543,510	-36,694	-0,087	0,034
-542,496	-200,000	-0,001	0,053
-541,481	26,728	-0,062	0,038
-540,466	-84,600	-0,189	-0,043
-539,452	-44,597	0,104	0,038
-538,437	127,992	-0,040	0,037
-537,423	204,214	-0,009	0,010
-536,408	-200,000	-0,010	0,102
-535,393	-66,166	0,132	0,038
-534,379	-159,107	-0,068	-0,003
-533,364	798,889	0,012	-0,025
-532,350	-155,841	-0,076	0,003
-531,335	-200,000	0,028	-0,100
-530,321	800,000	0,016	-0,043
-529,306	112,820	0,108	0,096
-528,291	125,171	0,065	-0,060
-527,277	-200,000	0,009	-0,088
-526,262	627,516	0,020	0,037
-525,248	97,391	0,081	0,068
-524,233	38,984	0,127	0,083
-523,218	-152,784	-0,027	0,001
-522,204	-166,838	0,086	0,003
-521,189	-10,171	0,099	-0,048
-520,175	-154,060	-0,041	0,002
-519,160	-200,000	-0,052	-0,210
-518,145	150,834	0,093	-0,093
-517,131	-92,098	0,085	0,017
-516,116	723,192	-0,053	0,103
-515,102	-66,047	-0,108	0,031
-514,087	345,981	-0,044	-0,063
-513,072	196,763	-0,081	-0,091
-512,058	800,000	0,047	-0,105
-511,043	34,090	0,023	0,014
-510,029	-200,000	-0,025	-0,110
-509,014	323,959	0,097	0,135
-507,999	800,000	0,067	0,164
-506,985	-156,545	0,131	-0,006
-505,970	267,657	-0,042	-0,054
-504,956	-200,000	-0,024	-0,089
-503,941	-23,492	0,103	-0,045
-502,926	-5,597	0,123	0,062
-501,912	-200,000	-0,019	0,066
-500,897	-36,190	-0,070	-0,028
-499,883	406,163	0,015	0,024
-498,868	10,809	0,071	0,039
-497,853	-54,371	0,077	-0,025
-496,839	-140,173	-0,078	0,006
-495,824	29,177	0,127	-0,078
-494,810	485,538	0,060	0,100
-493,795	-200,000	-0,005	0,029
-492,781	800,000	0,045	0,130
-491,766	-200,000	0,009	-0,033
-490,751	194,539	-0,077	-0,086
-489,737	153,659	-0,041	0,041
-488,722	-200,000	-0,003	0,048
-487,708	252,562	0,075	0,093
-486,693	-70,121	0,117	0,032
-485,678	-160,347	-0,142	-0,005
-484,664	800,000	-0,031	-0,078
-483,649	-7,561	0,153	-0,075
-482,635	800,000	0,032	-0,088
-481,620	209,801	0,098	0,112
-480,605	688,886	-0,052	0,100
-479,591	261,646	0,038	-0,048
-478,576	299,010	-0,014	0,019
-477,562	-200,000	-0,004	0,054
-476,547	16,940	0,084	-0,048
-475,532	98,916	-0,031	0,026
-474,518	-40,673	0,072	0,027
-473,503	-200,000	0,000	-0,020
-472,489	-58,935	0,068	0,021
-471,474	-34,248	-0,032	0,013
-470,459	41,151	-0,058	0,038
-469,445	113,223	0,145	-0,128
-468,430	307,702	0,092	-0,125
-467,416	519,141	-0,038	0,065
-466,401	-200,000	0,007	0,038
-465,386	100,354	0,109	0,092
-464,372	446,312	0,065	-0,105
-463,357	436,558	-0,031	-0,050
-462,343	174,511	-0,031	-0,033
-461,328	-37,915	-0,104	0,040
-460,313	-200,000	0,012	0,099
-459,299	800,000	0,062	0,137
-458,284	441,055	0,024	0,038
-457,270	-79,531	-0,160	-0,039
-456,255	800,000	-0,091	-0,222
-455,241	83,812	-0,036	0,028
-454,226	-91,684	-0,088	0,018
-453,211	-23,956	-0,070	-0,030
-452,197	-14,467	0,120	0,056
-451,182	-40,301	-0,103	0,039
-450,168	800,000	0,022	0,068
-449,153	-84,430	-0,011	-0,002
-448,138	-122,679	-0,106	-0,012
-447,124	253,809	-0,111	0,138
-446,109	-29,548	0,124	0,052
-445,095	-200,000	0,004	0,025
-444,080	-135,116	-0,035	0,003
-443,065	-200,000	-0,010	0,061
-442,051	242,521	0,032	-0,039
-441,036	-44,287	-0,058	0,021
-440,022	-144,766	-0,146	-0,010
-439,007	800,000	0,082	0,189
-437,992	161,590	-0,056	0,057
-436,978	-125,536	0,033	-0,004
-435,963	-136,768	-0,061	0,005
-434,949	55,408	0,099	0,070
-433,934	-200,000	0,012	-0,042
-432,919	-130,610	-0,085	0,008
-431,905	-200,000	0,016	-0,114
-430,890	30,035	0,008	-0,005
-429,876	800,000	0,074	0,165
-428,861	-200,000	0,014	0,127
-427,846	153,950	-0,078	0,078
-426,832	595,577	-0,086	-0,156
-425,817	800,000	-0,051	-0,133
-424,803	-57,490	-0,141	0,045
-423,788	75,961	-0,049	0,038
-422,773	-200,000	-0,001	0,047
-421,759	-200,000	0,009	-0,091
-420,744	-200,000	0,007	0,038
-419,730	61,635	-0,052	-0,037
-418,715	-200,000	-0,011	-0,056
-417,701	71,045	-0,126	-0,095
-416,686	494,661	-0,039	0,065
-415,671	-37,863	0,139	-0,054
-414,657	26,686	-0,106	-0,064
-413,642	194,688	-0,100	0,111
-412,628	-200,000	0,014	-0,122
-411,613	300,544	0,039	0,052
-410,598	-57,120	0,028	-0,009
-409,584	800,000	0,040	0,108
-408,569	152,360	0,096	0,096
-407,555	800,000	-0,036	0,101
-406,540	-200,000	-0,033	0,135
-405,525	-200,000	0,005	-0,201
-404,511	-200,000	-0,004	0,041
-403,496	187,616	-0,038	0,041
-402,482	156,186	-0,038	-0,039
-401,467	465,217	0,007	-0,012
-400,452	0,160	0,131	-0,068
-399,438	-200,000	-0,017	-0,064
-398,423	435,305	0,062	0,099
-397,409	216,397	0,035	0,041
-396,394	800,000	0,048	-0,134
-395,379	493,905	-0,017	0,029
-394,365	246,945	0,042	0,051
-393,350	-124,425	0,132	0,015
-392,336	92,430	-0,013	0,011
-391,321	78,361	-0,133	0,103
-390,306	-108,225	0,070	0,011
-389,292	-200,000	-0,031	-0,147
-388,277	-200,000	-0,022	-0,148
-387,263	754,266	0,064	0,126
-386,248	-41,070	0,140	0,052
-385,233	-200,000	-0,014	0,163
-384,219	-29,514	0,045	-0,018
-383,204	-127,609	-0,109	0,011
-382,190	800,000	-0,022	-0,067
-381,175	-200,000	0,009	-0,105
-380,160	9,001	0,029	-0,016
-379,146	-200,000	-0,010	0,075
-378,131	-93,616	-0,095	-0,019
-377,117	800,000	-0,035	-0,090
-376,102	-27,302	-0,108	-0,045
-375,088	-67,754	-0,019	0,005
-374,073	-200,000	0,003	0,038
-373,058	295,118	0,040	-0,054
-372,044	-115,433	0,082	-0,011
-371,029	309,119	-0,037	0,050
-370,015	137,817	-0,055	-0,053
-369,000	-200,000	-0,003	-0,099
-367,985	-11,198	-0,111	-0,053
-366,971	171,621	0,082	-0,086
-365,956	800,000	-0,056	0,114
-364,942	800,000	0,047	0,134
-363,927	107,230	-0,077	0,066
-362,912	-15,698	-0,112	-0,052
-361,898	-200,000	0,012	0,076
-360,883	489,301	0,035	0,059
-359,869	35,648	-0,028	0,018
-358,854	119,978	-0,054	0,048
-357,839	409,890	0,057	-0,089
-356,825	-94,529	-0,052	-0,010
-355,810	-43,761	-0,140	-0,051
-354,796	-123,593	-0,039	-0,004
-353,781	154,877	0,102	-0,102
-352,766	-200,000	0,024	-0,128
-351,752	308,424	-0,058	0,079
-350,737	-162,146	-0,033	0,001
-349,723	-119,755	0,069	0,009
-348,708	-200,000	-0,007	-0,035
-347,693	800,000	-0,038	-0,108
-346,679	56,989	-0,088	-0,062
-345,664	340,095	0,022	0,031
-344,650	109,155	0,013	-0,011
-343,635	-63,140	0,166	0,049
-342,620	-2,240	-0,100	0,051
-341,606	7,940	0,093	0,050
-340,591	-22,524	0,059	-0,026
-339,577	-19,354	-0,062	-0,028
-338,562	230,601	0,056	-0,066
-337,548	-200,000	0,002	-0,065
-336,533	-95,987	0,024	-0,005
-335,518	-200,000	-0,010	-0,063
-334,504	-70,863	0,168	0,046
-333,489	-200,000	-0,021	-0,081
-332,475	-200,000	0,052	-0,183
-331,460	119,386	-0,076	-0,068
-330,445	-66,231	0,043	-0,012
-329,431	-123,249	0,055	0,006
-328,416	-12,340	-0,044	0,021
-327,402	-98,043	-0,042	0,008
-326,387	284,619	0,028	-0,037
-325,372	183,829	0,086	-0,092
-324,358	17,271	0,086	-0,050
-323,343	6,914	0,108	-0,058
-322,329	-200,000	0,002	0,096
-321,314	-28,614	-0,030	-0,012
-320,299	262,945	0,035	0,045
-319,285	594,666	0,079	0,143
-318,270	-200,000	-0,050	-0,179
-317,256	-200,000	0,010	-0,163
-316,241	667,992	-0,047	-0,088
-315,226	800,000	0,045	-0,121
-314,212	594,850	0,056	-0,101
-313,197	231,625	-0,033	-0,039
-312,183	92,120	-0,105	-0,086
-311,168	-180,378	-0,054	0,001
-310,153	68,804	-0,082	0,061
-309,139	-200,000	0,024	0,078
-308,124	47,207	-0,040	-0,027
-307,110	23,959	0,036	-0,021
-306,095	25,898	0,063	0,038
-305,080	48,847	0,055	-0,037
-304,066	800,000	-0,009	0,022
-303,051	9,772	-0,111	-0,061
-302,037	-73,383	0,038	-0,010
-301,022	-183,099	-0,055	0,001
-300,008	-94,710	0,131	-0,025
-298,993	22,999	-0,040	0,024
-297,978	266,648	0,042	0,053
-296,964	28,796	0,074	-0,045
-295,949	32,097	-0,078	-0,048
-294,935	-19,487	0,130	-0,058
-293,920	47,810	-0,090	0,061
-292,905	449,658	0,025	0,039
-291,891	800,000	0,043	0,131
-290,876	453,246	0,085	0,137
-289,862	0,211	-0,041	0,021
-288,847	3,192	-0,105	0,055
-287,832	-111,163	0,070	-0,010
-286,818	-200,000	0,034	-0,139
-285,803	-200,000	-0,014	0,114
-284,789	778,152	0,018	-0,036
-283,774	170,799	0,046	0,048
-282,759	-26,352	0,176	0,075
-281,745	-137,992	-0,098	-0,008
-280,730	-62,301	-0,077	-0,023
-279,716	107,537	0,086	-0,074
-278,701	634,313	-0,077	-0,142
-277,686	97,709	0,045	-0,037
-276,672	800,000	-0,087	0,182
-275,657	-44,258	0,067	0,024
-274,643	630,482	0,068	-0,126
-273,628	800,000	-0,048	-0,098
-272,613	106,729	-0,046	0,040
-271,599	800,000	-0,067	-0,142
-270,584	206,254	-0,009	0,010
-269,570	677,509	0,074	0,139
-268,555	-200,000	-0,002	0,060
-267,540	-83,486	-0,111	-0,026
-266,526	800,000	-0,085	-0,176
-265,511	-88,688	0,082	-0,018
-264,497	-200,000	-0,012	0,038
-263,482	33,947	0,120	-0,076
-262,467	-99,275	-0,067	-0,012
-261,453	296,650	-0,023	0,031
-260,438	106,022	-0,101	-0,086
-259,424	-200,000	0,015	-0,118
-258,409	169,127	0,033	-0,035
-257,395	-74,561	0,088	0,023
-256,380	17,909	0,102	0,059
-255,365	-200,000	0,020	0,122
-254,351	-8,205	-0,079	0,038
-253,336	-171,764	0,116	0,003
-252,322	-200,000	-0,006	-0,027
-251,307	800,000	-0,075	-0,180
-250,292	35,629	0,129	-0,082
-249,278	51,801	-0,080	0,055
-248,263	54,197	-0,087	0,061
-247,249	348,613	0,006	-0,009
-246,234	-200,000	0,003	-0,104
-245,219	-20,975	-0,082	-0,036
-244,205	535,541	-0,047	0,080
-243,190	800,000	-0,038	-0,080
-242,176	317,184	-0,033	0,045
-241,161	-73,669	0,078	-0,021
-240,146	75,068	0,081	-0,062
-239,132	-200,000	0,011	0,153
-238,117	-200,000	0,023	0,099
-237,103	-200,000	-0,018	-0,066
-236,088	800,000	0,070	-0,140
-235,073	-55,206	-0,090	0,029
-234,059	-110,477	0,090	0,013
-233,044	257,110	0,087	0,108
-232,030	-200,000	-0,009	0,082
-231,015	-112,559	0,067	-0,010
-230,000	290,926	-0,049	0,064
-228,986	36,717	-0,055	0,035
-227,971	575,255	-0,068	0,121
-226,957	-68,512	-0,032	-0,009
-225,942	2,545	-0,088	0,046
-224,927	-200,000	0,001	-0,061
-223,913	800,000	-0,013	-0,032
-222,898	800,000	0,006	0,016
-221,884	390,393	-0,034	-0,052
-220,869	-44,281	-0,086	-0,031
-219,855	-200,000	0,012	0,082
-218,840	-200,000	0,007	-0,164
-217,825	-31,568	-0,043	-0,017
-216,811	-200,000	-0,016	-0,065
-215,796	800,000	-0,054	-0,161
-214,782	-200,000	0,007	-0,032
-213,767	-75,530	-0,119	0,030
-212,752	135,076	0,070	0,065
-211,738	-200,000	0,019	-0,069
-210,723	368,673	0,055	0,081
-209,709	800,000	-0,038	-0,100
-208,694	255,376	0,089	0,111
-207,679	-154,614	-0,100	-0,005
-206,665	-45,351	0,060	-0,021
-205,650	-200,000	0,015	-0,104
-204,636	125,660	-0,007	-0,007
-203,621	315,146	-0,100	0,137
-202,606	-200,000	0,004	0,042
-201,592	-200,000	-0,002	-0,078
-200,577	-200,000	0,006	-0,042
-199,563	118,104	-0,031	-0,027
-198,548	-200,000	0,005	-0,019
-197,533	-132,873	0,069	0,006
-196,519	24,231	0,046	0,028
-195,504	239,600	-0,084	-0,101
-194,490	382,293	-0,077	0,115
-193,475	-200,000	-0,026	0,131
-192,460	757,207	0,059	-0,116
-191,446	-116,746	0,169	-0,022
-190,431	-14,478	0,050	0,023
-189,417	198,969	0,021	0,024
-188,402	117,605	-0,088	0,078
-187,387	-61,400	-0,091	-0,027
-186,373	97,798	0,046	-0,038
-185,358	-200,000	-0,001	-0,019
-184,344	184,813	0,080	0,086
-183,329	-44,708	0,043	0,015
-182,315	198,556	-0,075	0,083
-181,300	-106,060	-0,099	-0,016
-180,285	207,770	-0,018	0,021
-179,271	507,184	0,060	-0,100
-178,256	-106,845	-0,078	-0,012
-177,242	-50,404	-0,114	0,039
-176,227	-73,798	0,043	-0,011
-175,212	-98,317	-0,136	0,025
-174,198	626,653	0,046	0,085
-173,183	111,601	-0,070	0,061
-172,169	800,000	-0,068	-0,155
-171,154	-84,799	0,197	-0,044
-170,139	800,000	0,050	0,139
-169,125	83,465	0,103	0,081
-168,110	800,000	0,026	0,076
-167,096	-200,000	-0,009	0,081
-166,081	-156,183	0,053	0,002
-165,066	-127,972	-0,139	-0,014
-164,052	-45,439	-0,101	-0,036
-163,037	-200,000	0,016	-0,054
-162,023	136,358	-0,019	0,017
-161,008	14,336	-0,134	0,075
-159,993	-59,145	-0,027	0,008
-158,979	-200,000	-0,021	-0,082
-157,964	-4,874	0,042	-0,021
-156,950	190,302	-0,061	-0,066
-155,935	800,000	-0,044	-0,139
-154,920	-200,000	-0,026	0,164
-153,906	-165,301	0,122	-0,004
-152,891	-126,588	0,023	0,002
-151,877	800,000	0,031	0,087
-150,862	523,074	-0,055	-0,094
-149,847	-200,000	0,018	0,177
-148,833	-200,000	0,010	0,102
-147,818	-200,000	-0,003	-0,139
-146,804	-93,315	0,113	-0,022
-145,789	-200,000	0,006	0,155
-144,775	-200,000	-0,037	-0,132
-143,760	-200,000	-0,012	0,072
-142,745	-200,000	0,005	0,020
-141,731	-131,408	0,059	-0,006
-140,716	-77,332	0,087	0,022
-139,702	-200,000	0,008	0,055
-138,687	-11,614	-0,074	0,035
-137,672	0,704	-0,024	-0,012
-136,658	-76,552	0,036	0,009
-135,643	158,038	0,023	0,023
-134,629	236,759	-0,061	-0,073
-133,614	363,916	0,046	0,067
-132,599	-200,000	0,004	0,040
-131,585	447,548	-0,047	0,075
-130,570	800,000	0,007	-0,017
-129,556	-200,000	-0,015	-0,081
-128,541	-200,000	0,002	0,019
-127,526	-200,000	-0,006	-0,049
-126,512	153,484	0,045	-0,045
-125,497	153,889	0,143	0,142
-124,483	111,552	-0,052	0,045
-123,468	656,303	-0,088	0,164
-122,453	199,683	0,041	-0,046
-121,439	-152,306	0,108	-0,006
-120,424	800,000	-0,029	-0,066
-119,410	294,986	-0,054	-0,072
-118,395	-200,000	-0,002	-0,030
