DTS Sentinel unit serial number:	SN410029Multiplexer serial number:	ORYXHardware model number:	OX2-SRSoftware version number:	ORYX F/W v4,00 Oryx Data Collector v3.7.2.0data status	okinstallation	B5 Nyhavnadifferential loss correction	single-endedforward channel	channel 2reverse channel	N/Adate	2023/12/12time	22:57:13forward acquisition time	300,00reverse acquisition time	0,00gamma	499,1914k internal	0,3158k external	0,3158temperature offset calibration	1,0000default loss term (dB/km)	0,3820temperature slope calibration	1,0000multiplexer offset coefficient	1,0000multiplexer slope coefficient	1,0000fibre end	0,00T internal ref (°C)	14,55T ext. ref 1 (°C)	-2,02T ext. ref 2 (°C)	-2,34length (m)	temperature (°C)	Stokes	anti-Stokes-744,400	-45,627	0,034	-0,012
-743,385	-138,294	-0,260	0,021
-742,371	-140,814	0,249	-0,019
-741,356	-89,820	-0,342	0,073
-740,342	-131,538	0,211	0,020
-739,327	-145,630	-0,269	0,017
-738,312	-200,000	0,017	-0,062
-737,298	-48,311	-0,426	-0,151
-736,283	-42,393	0,172	-0,064
-735,269	-124,772	-0,339	-0,038
-734,254	-87,896	0,082	0,018
-733,239	-37,524	-0,502	-0,196
-732,225	-15,629	0,209	0,098
-731,210	240,704	-0,045	0,055
-730,196	92,465	-0,063	-0,052
-729,181	-200,000	-0,015	0,073
-728,167	19,629	0,052	0,031
-727,152	-200,000	0,005	-0,111
-726,137	61,277	-0,054	0,039
-725,123	-200,000	0,026	-0,134
-724,108	36,063	-0,027	-0,018
-723,094	800,000	-0,043	-0,088
-722,079	25,418	-0,047	0,029
-721,064	800,000	-0,022	-0,055
-720,050	-67,772	0,095	0,027
-719,035	400,968	0,056	-0,086
-718,021	-61,209	-0,105	0,032
-717,006	130,613	-0,037	-0,035
-715,991	523,590	-0,152	-0,264
-714,977	-200,000	0,011	-0,122
-713,962	-73,533	-0,072	-0,019
-712,948	-97,034	0,169	-0,032
-711,933	-76,589	0,101	-0,026
-710,918	95,717	-0,132	0,111
-709,904	800,000	0,014	0,043
-708,889	-62,949	0,155	-0,047
-707,875	117,601	-0,029	-0,026
-706,860	-17,541	0,046	-0,021
-705,845	-161,855	-0,137	-0,005
-704,831	-28,816	-0,025	-0,011
-703,816	459,036	-0,043	-0,071
-702,802	-23,814	-0,066	0,029
-701,787	341,852	0,060	-0,086
-700,772	800,000	0,041	-0,115
-699,758	15,961	-0,088	-0,051
-698,743	-200,000	0,015	0,102
-697,729	-132,628	0,027	0,003
-696,714	757,994	-0,048	-0,097
-695,699	549,734	-0,100	-0,176
-694,685	145,640	-0,047	-0,046
-693,670	-200,000	0,027	-0,109
-692,656	-88,182	0,142	-0,031
-691,641	-43,610	-0,092	0,034
-690,627	319,185	0,060	0,085
-689,612	-52,803	-0,040	0,014
-688,597	15,074	0,035	0,020
-687,583	-200,000	0,013	-0,163
-686,568	47,830	-0,071	-0,049
-685,554	-31,892	0,073	0,030
-684,539	440,428	0,060	0,096
-683,524	-200,000	-0,032	0,145
-682,510	185,924	-0,048	0,052
-681,495	-200,000	-0,009	-0,060
-680,481	581,223	-0,044	-0,080
-679,466	428,677	-0,051	-0,081
-678,451	-63,462	0,011	0,003
-677,437	-132,996	0,087	0,008
-676,422	-35,372	0,100	-0,040
-675,408	800,000	-0,033	-0,069
-674,393	-200,000	0,006	-0,047
-673,378	34,214	-0,064	0,041
-672,364	159,877	-0,161	-0,165
-671,349	-200,000	0,011	-0,104
-670,335	-132,245	-0,018	-0,002
-669,320	-93,851	0,094	0,019
-668,305	-200,000	-0,023	-0,123
-667,291	800,000	-0,043	-0,093
-666,276	-200,000	0,007	-0,026
-665,262	-28,570	-0,054	0,023
-664,247	-73,251	-0,232	0,062
-663,232	-200,000	0,005	0,016
-662,218	-200,000	-0,020	0,107
-661,203	198,764	-0,041	-0,046
-660,189	-200,000	-0,007	0,109
-659,174	34,276	-0,163	0,104
-658,159	60,244	-0,069	0,050
-657,145	68,806	0,062	-0,047
-656,130	-55,690	-0,094	-0,031
-655,116	85,156	-0,111	0,089
-654,101	-97,928	0,087	0,016
-653,086	168,944	-0,044	0,046
-652,072	-65,284	-0,035	-0,010
-651,057	233,049	-0,065	-0,078
-650,043	104,627	-0,083	-0,072
-649,028	800,000	-0,058	-0,136
-648,014	800,000	-0,049	-0,106
-646,999	800,000	0,015	-0,038
-645,984	-116,260	0,109	0,015
-644,970	63,268	-0,035	-0,026
-643,955	-156,249	-0,152	0,007
-642,941	-30,536	0,087	0,036
-641,926	-88,234	0,097	0,021
-640,911	729,116	0,075	-0,148
-639,897	-108,643	-0,131	0,020
-638,882	-200,000	0,024	0,165
-637,868	252,964	-0,098	-0,123
-636,853	147,692	-0,086	0,085
-635,838	366,035	-0,065	-0,097
-634,824	-92,737	0,120	-0,024
-633,809	-24,913	-0,076	0,033
-632,795	147,837	0,124	0,123
-631,780	442,050	0,058	0,094
-630,765	109,554	-0,032	-0,028
-629,751	150,264	-0,045	0,045
-628,736	800,000	-0,026	0,067
-627,722	609,526	0,024	-0,044
-626,707	233,012	0,006	0,007
-625,692	766,386	-0,048	-0,096
-624,678	-200,000	0,006	-0,037
-623,663	63,054	-0,048	0,035
-622,649	-67,954	-0,082	0,023
-621,634	68,670	-0,035	0,027
-620,619	1,605	-0,101	0,053
-619,605	27,684	0,164	0,101
-618,590	-95,450	-0,051	0,010
-617,576	446,415	-0,094	-0,152
-616,561	-200,000	-0,022	-0,111
-615,546	800,000	-0,038	-0,094
-614,532	-44,923	-0,150	-0,054
-613,517	210,580	0,092	-0,106
-612,503	800,000	-0,032	-0,073
-611,488	316,337	-0,024	-0,034
-610,474	-200,000	-0,015	-0,084
-609,459	-113,974	-0,032	-0,005
-608,444	-200,000	0,000	0,003
-607,430	-11,527	-0,134	-0,064
-606,415	800,000	-0,054	-0,138
-605,401	70,154	-0,089	0,067
-604,386	163,284	0,053	0,055
-603,371	-127,477	0,074	-0,008
-602,357	220,774	-0,045	-0,053
-601,342	-19,163	0,022	-0,010
-600,328	273,633	-0,042	-0,055
-599,313	800,000	-0,017	0,039
-598,298	800,000	0,060	-0,179
-597,284	117,089	0,071	-0,064
-596,269	-200,000	-0,017	-0,150
-595,255	534,027	0,051	0,089
-594,240	19,031	-0,154	0,090
-593,225	-200,000	0,007	-0,059
-592,211	-51,466	-0,067	0,023
-591,196	-200,000	0,000	-0,172
-590,182	-200,000	0,015	0,105
-589,167	-96,892	-0,025	-0,005
-588,152	158,681	-0,116	-0,118
-587,138	161,662	-0,013	-0,013
-586,123	165,531	-0,079	0,082
-585,109	-87,043	-0,030	0,007
-584,094	78,821	-0,047	0,037
-583,079	132,498	-0,034	0,032
-582,065	-200,000	0,053	0,184
-581,050	800,000	0,003	-0,007
-580,036	-65,458	-0,083	-0,024
-579,021	347,761	0,032	0,046
-578,006	-59,781	-0,096	0,030
-576,992	-200,000	-0,017	-0,097
-575,977	-152,271	0,090	-0,005
-574,963	203,389	0,039	0,045
-573,948	311,227	-0,042	0,058
-572,934	-200,000	0,016	-0,066
-571,919	734,077	-0,065	-0,127
-570,904	699,581	-0,043	-0,084
-569,890	800,000	-0,037	-0,118
-568,875	-200,000	0,002	0,051
-567,861	-200,000	0,013	0,090
-566,846	800,000	-0,014	0,038
-565,831	122,426	0,106	-0,097
-564,817	122,620	-0,065	-0,060
-563,802	-83,234	0,089	-0,021
-562,788	138,298	-0,035	-0,034
-561,773	-116,104	0,120	0,016
-560,758	714,439	0,038	0,074
-559,744	-118,957	-0,061	0,008
-558,729	-200,000	-0,014	0,085
-557,715	-200,000	0,003	-0,065
-556,700	-200,000	0,013	-0,153
-555,685	611,859	-0,023	0,042
-554,671	-183,040	0,104	-0,001
-553,656	800,000	-0,065	0,172
-552,642	-200,000	-0,017	0,076
-551,627	-126,623	0,054	-0,006
-550,612	159,457	-0,035	-0,035
-549,598	-200,000	0,018	-0,078
-548,583	-95,563	-0,058	0,011
-547,569	566,435	-0,029	0,052
-546,554	-41,240	0,040	0,015
-545,539	800,000	0,020	-0,058
-544,525	3,088	0,050	0,026
-543,510	3,471	0,044	-0,023
-542,496	-200,000	-0,004	-0,136
-541,481	77,312	-0,030	-0,023
-540,466	800,000	-0,012	0,035
-539,452	-61,048	0,194	-0,060
-538,437	-122,672	0,087	0,010
-537,423	800,000	-0,028	0,064
-536,408	-200,000	0,004	0,069
-535,393	-200,000	-0,018	0,071
-534,379	-113,939	0,094	-0,013
-533,364	213,842	-0,035	0,041
-532,350	268,876	-0,049	-0,063
-531,335	-200,000	0,006	0,109
-530,321	-91,468	0,124	0,026
-529,306	88,021	0,040	-0,033
-528,291	-52,129	0,023	0,008
-527,277	192,426	0,096	0,106
-526,262	279,796	-0,050	0,065
-525,248	-8,633	0,091	0,045
-524,233	800,000	-0,018	0,039
-523,218	-200,000	0,011	0,057
-522,204	-200,000	-0,005	0,096
-521,189	196,065	-0,091	-0,101
-520,175	800,000	-0,023	-0,051
-519,160	-117,506	-0,012	-0,002
-518,145	800,000	0,033	0,067
-517,131	554,740	0,063	0,112
-516,116	476,825	0,028	0,046
-515,102	-200,000	-0,022	-0,080
-514,087	-66,941	0,124	-0,036
-513,072	-200,000	-0,008	-0,127
-512,058	-200,000	0,000	-0,019
-511,043	307,556	-0,079	0,107
-510,029	800,000	0,019	-0,054
-509,014	-200,000	-0,036	0,121
-507,999	143,936	-0,056	0,055
-506,985	800,000	-0,031	0,086
-505,970	-61,171	0,139	0,043
-504,956	108,616	-0,047	-0,041
-503,941	158,313	-0,063	-0,064
-502,926	201,497	0,082	0,092
-501,912	800,000	-0,011	0,033
-500,897	-7,146	0,055	-0,027
-499,883	-200,000	-0,019	-0,132
-498,868	123,209	-0,121	-0,111
-497,853	-75,513	-0,123	-0,032
-496,839	-33,786	0,044	0,018
-495,824	800,000	0,032	0,089
-494,810	84,205	0,121	0,096
-493,795	429,888	-0,063	0,100
-492,781	149,564	-0,036	-0,035
-491,766	-110,213	-0,049	0,007
-490,751	372,876	0,059	0,088
-489,737	-200,000	-0,005	0,057
-488,722	98,907	0,087	0,073
-487,708	23,218	-0,059	0,035
-486,693	-200,000	0,021	0,112
-485,678	650,748	0,082	0,155
-484,664	179,672	-0,038	-0,041
-483,649	103,765	0,023	0,020
-482,635	369,243	0,018	0,026
-481,620	233,814	-0,088	0,106
-480,605	6,209	-0,055	0,030
-479,591	-200,000	0,001	0,199
-478,576	379,264	0,046	0,069
-477,562	-200,000	0,036	-0,118
-476,547	14,879	-0,095	0,054
-475,532	435,353	-0,012	-0,019
-474,518	-200,000	-0,002	-0,167
-473,503	-35,217	0,135	-0,053
-472,489	800,000	-0,028	0,076
-471,474	800,000	0,017	-0,045
-470,459	-200,000	0,002	-0,025
-469,445	-200,000	-0,008	0,032
-468,430	-200,000	0,013	-0,087
-467,416	-58,402	0,187	0,059
-466,401	453,745	-0,023	0,038
-465,386	-30,886	-0,070	-0,029
-464,372	421,880	-0,007	-0,011
-463,357	74,920	-0,111	-0,085
-462,343	-44,544	-0,123	-0,045
-461,328	120,189	0,083	0,075
-460,313	-113,337	0,081	0,012
-459,299	28,770	0,174	0,107
-458,284	204,194	0,031	0,035
-457,270	800,000	0,028	0,068
-456,255	3,924	-0,098	0,052
-455,241	-200,000	-0,016	-0,051
-454,226	-135,517	-0,008	0,001
-453,211	67,384	-0,028	0,021
-452,197	800,000	-0,078	0,160
-451,182	316,656	0,020	-0,028
-450,168	-86,818	0,121	-0,027
-449,153	76,472	-0,084	-0,065
-448,138	-200,000	-0,015	-0,162
-447,124	267,092	-0,091	0,117
-446,109	113,498	-0,027	-0,024
-445,095	-7,512	0,082	0,040
-444,080	22,844	-0,075	0,045
-443,065	-200,000	-0,017	0,123
-442,051	26,705	0,050	-0,031
-441,036	-200,000	0,003	0,088
-440,022	-140,063	-0,138	-0,010
-439,007	-95,803	0,053	0,010
-437,992	-54,601	-0,049	-0,016
-436,978	285,835	-0,116	-0,153
-435,963	387,081	-0,023	-0,035
-434,949	9,312	0,044	0,024
-433,934	-53,498	-0,050	-0,017
-432,919	202,565	-0,103	0,116
-431,905	637,387	0,075	-0,139
-430,890	-17,965	0,122	-0,055
-429,876	-200,000	0,025	-0,085
-428,861	800,000	-0,051	-0,138
-427,846	29,532	-0,067	-0,041
-426,832	648,571	-0,085	-0,159
-425,817	-19,558	0,121	-0,054
-424,803	-200,000	-0,013	0,062
-423,788	-200,000	0,013	-0,048
-422,773	234,026	-0,079	-0,095
-421,759	682,270	-0,043	-0,082
-420,744	384,970	-0,063	0,094
-419,730	-194,008	-0,080	-0,000
-418,715	571,809	-0,057	-0,102
-417,701	670,307	0,012	-0,023
-416,686	800,000	0,021	0,044
-415,671	29,569	0,160	-0,099
-414,657	23,412	0,100	0,060
-413,642	-144,649	0,058	-0,004
-412,628	-40,622	-0,051	0,019
-411,613	800,000	0,022	-0,055
-410,598	29,160	0,110	-0,068
-409,584	736,991	0,027	-0,053
-408,569	-9,189	0,058	-0,028
-407,555	-200,000	-0,025	0,090
-406,540	-54,423	0,049	0,016
-405,525	-36,158	-0,073	-0,028
-404,511	57,908	-0,142	-0,101
-403,496	-200,000	0,015	-0,106
-402,482	69,389	0,031	-0,023
-401,467	200,611	0,126	0,141
-400,452	239,231	0,100	0,121
-399,438	-1,440	-0,111	0,057
-398,423	800,000	-0,015	0,046
-397,409	-200,000	-0,034	-0,203
-396,394	336,343	-0,061	-0,087
-395,379	-30,116	0,080	-0,033
-394,365	-200,000	-0,015	0,120
-393,350	36,647	0,046	0,030
-392,336	248,299	0,049	-0,061
-391,321	-103,058	-0,102	-0,017
-390,306	-200,000	-0,020	-0,065
-389,292	593,976	-0,041	-0,073
-388,277	261,449	-0,077	-0,097
-387,263	139,073	0,112	0,107
-386,248	20,212	-0,132	-0,077
-385,233	243,852	0,045	0,056
-384,219	26,019	-0,042	-0,025
-383,204	254,587	-0,027	-0,033
-382,190	597,256	0,025	0,045
-381,175	-200,000	-0,018	0,102
-380,160	-191,575	0,126	-0,001
-379,146	800,000	-0,049	-0,126
-378,131	-200,000	0,010	0,051
-377,117	652,881	0,018	-0,033
-376,102	537,542	0,056	-0,096
-375,088	146,942	0,028	-0,027
-374,073	-44,369	-0,098	-0,035
-373,058	260,959	0,043	-0,054
-372,044	-125,980	-0,094	-0,010
-371,029	401,286	0,057	0,087
-370,015	-200,000	-0,011	0,058
-369,000	234,914	-0,023	-0,028
-367,985	-87,629	-0,060	0,013
-366,971	800,000	0,046	-0,136
-365,956	201,777	-0,016	-0,018
-364,942	302,897	0,013	-0,018
-363,927	-200,000	0,002	0,016
-362,912	-121,326	-0,127	-0,015
-361,898	-200,000	0,012	-0,063
-360,883	-42,853	-0,125	-0,046
-359,869	47,935	0,078	-0,053
-358,854	800,000	0,039	0,098
-357,839	430,168	0,069	0,108
-356,825	23,486	0,050	-0,030
-355,810	-127,442	-0,067	-0,007
-354,796	213,578	-0,026	0,030
-353,781	-200,000	-0,022	-0,124
-352,766	150,721	0,057	-0,057
-351,752	-200,000	0,008	0,045
-350,737	800,000	0,017	0,037
-349,723	247,121	0,055	0,067
-348,708	-86,224	0,125	-0,028
-347,693	800,000	0,036	-0,085
-346,679	-107,621	-0,093	0,015
-345,664	-200,000	-0,006	-0,049
-344,650	-85,322	0,053	0,012
-343,635	232,291	-0,033	0,040
-342,620	-200,000	-0,021	0,117
-341,606	52,377	0,061	0,042
-340,591	-81,263	-0,135	0,032
-339,577	18,243	0,066	-0,038
-338,562	66,706	0,013	0,009
-337,548	514,165	-0,043	0,072
-336,533	-200,000	-0,016	0,084
-335,518	800,000	-0,038	-0,090
-334,504	40,155	0,102	-0,066
-333,489	-33,226	-0,084	0,034
-332,475	-200,000	-0,019	-0,115
-331,460	126,535	-0,038	-0,035
-330,445	11,525	0,045	0,025
-329,431	-200,000	-0,026	0,155
-328,416	505,640	0,056	0,094
-327,402	800,000	-0,021	0,066
-326,387	-52,310	0,102	0,034
-325,372	-122,102	-0,061	0,007
-324,358	800,000	-0,009	-0,020
-323,343	384,773	0,060	-0,090
-322,329	-36,032	0,054	0,021
-321,314	-200,000	-0,007	-0,092
-320,299	-200,000	-0,008	0,129
-319,285	-200,000	-0,001	-0,052
-318,270	-188,392	-0,081	0,001
-317,256	56,962	0,082	0,058
-316,241	-200,000	-0,020	0,124
-315,226	-110,827	-0,054	0,008
-314,212	-200,000	-0,031	0,110
-313,197	343,050	-0,035	0,049
-312,183	-200,000	-0,001	0,067
-311,168	-125,277	-0,184	-0,020
-310,153	541,107	0,056	-0,098
-309,139	745,507	-0,027	-0,054
-308,124	-200,000	-0,015	0,059
-307,110	-102,267	0,037	0,006
-306,095	310,612	-0,022	0,030
-305,080	265,128	0,033	-0,041
-304,066	-89,599	-0,123	0,026
-303,051	91,815	-0,054	-0,044
-302,037	-104,345	0,048	0,008
-301,022	800,000	-0,012	-0,029
-300,008	-200,000	-0,032	0,121
-298,993	800,000	0,048	0,114
-297,978	213,720	0,157	-0,180
-296,964	10,546	0,162	0,089
-295,949	-200,000	-0,029	-0,210
-294,935	-5,601	-0,221	-0,110
-293,920	-101,032	0,159	0,028
-292,905	-132,015	0,044	-0,004
-291,891	-200,000	-0,031	-0,194
-290,876	-52,248	0,081	-0,027
-289,862	278,763	-0,048	0,062
-288,847	385,269	-0,107	-0,160
-287,832	-117,427	-0,070	-0,009
-286,818	-200,000	0,010	0,077
-285,803	70,647	0,036	-0,027
-284,789	-140,785	-0,068	-0,005
-283,774	-159,062	0,165	-0,007
-282,759	93,576	-0,153	0,125
-281,745	-200,000	0,022	-0,080
-280,730	-200,000	-0,015	-0,170
-279,716	-48,440	0,040	-0,014
-278,701	221,920	0,134	-0,156
-277,686	268,309	-0,093	0,118
-276,672	444,521	-0,041	0,066
-275,657	-18,900	-0,028	0,012
-274,643	-200,000	-0,017	-0,087
-273,628	-200,000	-0,017	-0,172
-272,613	3,432	0,092	-0,048
-271,599	-59,632	0,152	0,047
-270,584	242,967	0,068	0,083
-269,570	800,000	-0,059	0,132
-268,555	800,000	0,043	0,085
-267,540	123,061	-0,022	-0,020
-266,526	582,440	-0,079	-0,141
-265,511	46,643	-0,151	0,101
-264,497	550,631	-0,037	-0,065
-263,482	332,343	0,093	0,131
-262,467	-150,413	-0,077	-0,004
-261,453	-16,187	-0,062	0,028
-260,438	382,672	0,026	0,038
-259,424	800,000	-0,035	-0,079
-258,409	273,911	-0,035	-0,045
-257,395	173,864	-0,019	0,020
-256,380	400,169	0,046	0,070
-255,365	177,079	0,018	-0,019
-254,351	-121,335	0,055	-0,007
-253,336	-200,000	0,007	0,028
-252,322	62,915	-0,093	0,067
-251,307	166,187	0,079	-0,081
-250,292	-85,523	0,043	-0,010
-249,278	440,272	0,030	0,048
-248,263	-200,000	0,022	0,221
-247,249	-200,000	-0,001	0,115
-246,234	-200,000	-0,017	0,106
-245,219	-181,645	-0,153	-0,002
-244,205	-122,410	-0,041	0,005
-243,190	-144,368	0,015	-0,001
-242,176	76,785	0,055	0,043
-241,161	800,000	0,058	0,173
-240,146	800,000	0,009	0,025
-239,132	90,264	-0,090	0,073
-238,117	-200,000	0,020	-0,152
-237,103	72,860	0,070	0,053
-236,088	60,961	0,055	-0,039
-235,073	58,822	0,041	-0,029
-234,059	-59,968	-0,026	0,008
-233,044	-97,389	0,147	0,027
-232,030	-15,773	-0,052	-0,024
-231,015	145,383	-0,028	-0,028
-230,000	-116,990	0,173	-0,023
-228,986	11,504	0,032	0,018
-227,971	-200,000	-0,001	0,033
-226,957	-108,948	0,177	0,027
-225,942	-200,000	0,006	0,050
-224,927	-200,000	-0,001	-0,034
-223,913	800,000	0,049	-0,134
-222,898	-200,000	0,009	-0,071
-221,884	-125,852	0,085	-0,009
-220,869	800,000	0,029	-0,090
-219,855	-200,000	0,005	0,034
-218,840	95,299	0,053	0,044
-217,825	800,000	-0,045	-0,096
-216,811	-200,000	-0,008	-0,133
-215,796	-84,208	-0,124	-0,028
-214,782	-132,165	-0,100	0,009
-213,767	9,140	0,133	0,072
-212,752	-108,927	-0,044	0,007
-211,738	-184,434	0,059	-0,001
-210,723	-200,000	0,044	0,161
-209,709	119,546	0,020	-0,018
-208,694	97,913	-0,080	0,066
-207,679	3,547	0,094	0,049
-206,665	-200,000	0,001	-0,004
-205,650	-42,235	0,095	-0,035
-204,636	-200,000	-0,007	-0,048
-203,621	23,525	0,078	0,046
-202,606	509,685	-0,008	-0,013
-201,592	157,859	-0,007	-0,007
-200,577	419,459	0,089	0,138
-199,563	-200,000	0,004	-0,114
-198,548	37,056	0,095	0,060
-197,533	-200,000	-0,001	0,084
-196,519	800,000	-0,033	0,090
-195,504	-200,000	0,003	0,029
-194,490	-87,387	-0,110	-0,024
-193,475	57,851	-0,042	0,030
-192,460	-200,000	-0,009	-0,038
-191,446	759,344	-0,077	0,151
-190,431	-200,000	-0,000	0,038
-189,417	800,000	0,038	0,089
-188,402	-108,683	-0,120	-0,018
-187,387	238,133	-0,058	0,069
-186,373	681,077	0,006	-0,011
-185,358	-152,265	0,099	0,005
-184,344	140,421	0,035	0,033
-183,329	135,935	-0,071	0,066
-182,315	-118,657	0,026	-0,003
-181,300	-200,000	0,027	0,143
-180,285	-158,864	-0,020	-0,001
-179,271	-200,000	0,017	-0,057
-178,256	120,983	-0,047	0,043
-177,242	800,000	0,027	0,071
-176,227	382,144	0,088	-0,130
-175,212	-81,040	0,149	-0,035
-174,198	-200,000	-0,007	0,131
-173,183	800,000	-0,018	-0,048
-172,169	161,269	0,044	0,044
-171,154	442,890	0,028	0,044
-170,139	421,102	0,017	-0,027
-169,125	800,000	0,077	0,237
-168,110	-200,000	-0,001	-0,109
-167,096	-200,000	0,016	-0,108
-166,081	322,403	0,084	-0,116
-165,066	-200,000	-0,025	-0,152
-164,052	37,295	-0,089	-0,057
-163,037	-200,000	-0,024	0,078
-162,023	-200,000	-0,001	-0,035
-161,008	173,534	-0,039	0,040
-159,993	1,041	-0,023	0,012
-158,979	-118,700	-0,039	-0,005
-157,964	40,704	0,056	-0,036
-156,950	-61,001	-0,088	-0,027
-155,935	-101,086	-0,082	-0,014
-154,920	-124,412	0,104	0,012
-153,906	-200,000	-0,003	-0,029
-152,891	142,446	0,026	-0,025
-151,877	39,082	-0,049	0,032
-150,862	90,345	-0,073	0,059
-149,847	93,799	-0,007	-0,006
-148,833	800,000	-0,030	0,072
-147,818	-59,106	-0,028	0,008
-146,804	-200,000	-0,004	-0,017
-145,789	-200,000	0,027	-0,098
-144,775	1,080	0,126	0,065
-143,760	32,701	-0,087	-0,054
-142,745	16,009	0,111	-0,063
-141,731	683,564	0,094	-0,178
-140,716	-76,693	0,066	-0,017
-139,702	800,000	-0,012	-0,032
-138,687	141,873	-0,009	-0,009
-137,672	15,576	0,082	-0,046
-136,658	-200,000	-0,046	-0,221
-135,643	-83,048	0,053	0,012
-134,629	126,283	-0,077	0,070
-133,614	650,311	0,055	0,101
-132,599	-200,000	0,026	0,114
-131,585	225,016	0,020	-0,023
-130,570	800,000	-0,051	0,154
-129,556	-61,782	-0,123	0,037
-128,541	-200,000	0,011	-0,157
-127,526	-143,644	-0,060	-0,004
-126,512	413,833	-0,045	0,069
-125,497	800,000	0,054	0,165
-124,483	-200,000	0,012	-0,087
-123,468	800,000	0,024	-0,055
-122,453	6,427	0,093	-0,050
-121,439	-90,844	-0,101	0,021
-120,424	-200,000	0,005	0,064
