DTS Sentinel unit serial number:	SN410029Multiplexer serial number:	ORYXHardware model number:	OX2-SRSoftware version number:	ORYX F/W v4,00 Oryx Data Collector v3.7.2.0data status	okinstallation	B5 Nyhavnadifferential loss correction	single-endedforward channel	channel 2reverse channel	N/Adate	2023/12/13time	17:37:13forward acquisition time	300,00reverse acquisition time	0,00gamma	499,1914k internal	0,3158k external	0,3158temperature offset calibration	1,0000default loss term (dB/km)	0,3820temperature slope calibration	1,0000multiplexer offset coefficient	1,0000multiplexer slope coefficient	1,0000fibre end	0,00T internal ref (°C)	13,63T ext. ref 1 (°C)	-3,74T ext. ref 2 (°C)	-3,86length (m)	temperature (°C)	Stokes	anti-Stokes-744,400	-174,723	0,132	0,003
-743,385	-89,498	-0,344	-0,074
-742,371	99,496	0,179	0,152
-741,356	-133,927	-0,358	-0,032
-740,342	-17,572	0,221	0,102
-739,327	-152,093	-0,321	-0,017
-738,312	800,000	0,041	0,108
-737,298	-64,376	-0,411	-0,123
-736,283	37,245	0,121	0,079
-735,269	-120,742	-0,240	-0,029
-734,254	230,476	0,086	-0,103
-733,239	51,479	-0,483	-0,338
-732,225	386,171	0,111	0,170
-731,210	-60,575	-0,036	-0,011
-730,196	408,812	0,053	-0,084
-729,181	-200,000	-0,029	-0,095
-728,167	221,764	-0,043	0,051
-727,152	-200,000	-0,001	-0,008
-726,137	-143,077	-0,176	0,012
-725,123	-106,936	-0,060	0,010
-724,108	-21,397	-0,147	-0,066
-723,094	800,000	0,004	-0,012
-722,079	-200,000	-0,006	-0,101
-721,064	43,675	-0,081	-0,055
-720,050	-106,258	0,149	0,024
-719,035	-24,380	-0,033	-0,014
-718,021	-70,742	-0,124	-0,034
-717,006	-200,000	-0,040	0,180
-715,991	770,825	-0,011	-0,022
-714,977	91,259	-0,121	-0,100
-713,962	42,754	-0,064	0,043
-712,948	74,289	-0,159	-0,123
-711,933	169,780	0,140	0,148
-710,918	800,000	0,040	0,113
-709,904	800,000	-0,025	0,057
-708,889	-200,000	-0,010	-0,073
-707,875	-200,000	0,003	-0,068
-706,860	-200,000	0,007	0,026
-705,845	11,371	0,134	0,076
-704,831	0,341	0,102	0,054
-703,816	-200,000	-0,004	0,043
-702,802	-77,307	0,077	0,020
-701,787	-200,000	-0,003	-0,051
-700,772	-42,043	-0,045	0,017
-699,758	55,079	0,132	-0,094
-698,743	-19,575	0,053	-0,024
-697,729	105,552	-0,114	0,099
-696,714	762,456	-0,061	0,123
-695,699	97,806	-0,105	-0,089
-694,685	800,000	0,022	0,065
-693,670	97,807	0,068	-0,057
-692,656	-33,628	-0,023	0,009
-691,641	-200,000	-0,013	0,078
-690,627	-157,342	0,116	-0,005
-689,612	-107,771	-0,056	-0,009
-688,597	28,005	-0,222	0,137
-687,583	63,094	-0,120	0,088
-686,568	800,000	-0,041	-0,113
-685,554	55,853	-0,031	0,022
-684,539	3,465	0,139	0,074
-683,524	-11,099	0,068	0,033
-682,510	38,671	-0,083	0,055
-681,495	34,514	-0,140	0,090
-680,481	727,404	-0,090	-0,178
-679,466	120,608	-0,104	-0,095
-678,451	434,581	-0,040	-0,064
-677,437	-120,764	-0,100	-0,012
-676,422	800,000	0,007	0,020
-675,408	-106,968	0,065	0,010
-674,393	722,369	0,024	-0,048
-673,378	-123,911	-0,053	-0,006
-672,364	-200,000	-0,004	-0,062
-671,349	800,000	-0,018	-0,043
-670,335	-30,246	-0,128	0,053
-669,320	-200,000	0,002	-0,019
-668,305	800,000	-0,012	0,037
-667,291	-200,000	-0,003	-0,105
-666,276	339,570	0,032	0,046
-665,262	800,000	-0,065	-0,137
-664,247	-31,586	0,043	-0,018
-663,232	-116,345	-0,078	-0,010
-662,218	30,872	0,206	-0,129
-661,203	800,000	-0,042	0,090
-660,189	800,000	0,058	-0,133
-659,174	-73,261	-0,127	0,034
-658,159	800,000	-0,016	0,045
-657,145	15,352	-0,126	-0,072
-656,130	-24,533	0,062	-0,027
-655,116	161,907	0,073	0,075
-654,101	780,370	-0,109	0,219
-653,086	177,300	-0,060	0,065
-652,072	357,923	-0,016	0,024
-651,057	20,172	-0,051	0,030
-650,043	-200,000	-0,012	-0,073
-649,028	800,000	-0,028	-0,073
-648,014	-200,000	-0,007	0,042
-646,999	83,580	-0,071	-0,057
-645,984	631,415	0,038	0,072
-644,970	-200,000	-0,035	-0,132
-643,955	800,000	-0,031	-0,084
-642,941	43,276	-0,080	0,053
-641,926	-95,742	0,196	0,038
-640,911	-200,000	-0,018	0,115
-639,897	-200,000	-0,010	0,066
-638,882	3,795	0,105	0,056
-637,868	319,521	-0,089	-0,124
-636,853	-126,335	-0,127	-0,014
-635,838	6,569	-0,063	-0,035
-634,824	-2,018	-0,068	-0,035
-633,809	800,000	0,037	-0,083
-632,795	800,000	0,014	0,036
-631,780	-81,428	-0,090	0,022
-630,765	421,915	-0,045	-0,072
-629,751	-71,841	-0,126	-0,034
-628,736	-200,000	-0,007	-0,076
-627,722	22,374	-0,140	0,084
-626,707	-200,000	0,008	0,136
-625,692	-1,796	0,114	0,059
-624,678	-200,000	-0,016	-0,071
-623,663	-73,825	-0,076	-0,020
-622,649	85,630	-0,154	-0,124
-621,634	-200,000	0,018	-0,102
-620,619	158,193	-0,052	-0,053
-619,605	-17,439	-0,105	-0,048
-618,590	351,410	0,057	-0,083
-617,576	267,269	-0,065	0,084
-616,561	-8,908	-0,060	0,030
-615,546	-200,000	-0,025	-0,086
-614,532	335,269	0,057	-0,082
-613,517	-128,360	-0,083	-0,009
-612,503	-200,000	-0,005	0,142
-611,488	-200,000	-0,007	-0,042
-610,474	-71,946	-0,088	-0,024
-609,459	-123,720	0,091	-0,010
-608,444	-50,864	0,026	0,009
-607,430	75,189	-0,061	-0,047
-606,415	458,992	0,066	-0,109
-605,401	184,995	-0,021	0,023
-604,386	-200,000	-0,019	-0,105
-603,371	-9,863	0,139	-0,067
-602,357	291,857	-0,059	0,079
-601,342	800,000	0,034	0,089
-600,328	-126,992	0,030	-0,003
-599,313	800,000	-0,077	-0,160
-598,298	465,061	-0,062	-0,103
-597,284	-6,948	0,080	-0,040
-596,269	-55,529	0,039	-0,013
-595,255	531,572	-0,017	-0,030
-594,240	-200,000	0,028	-0,094
-593,225	-200,000	-0,037	0,142
-592,211	-61,769	-0,030	0,009
-591,196	800,000	0,048	-0,105
-590,182	169,051	0,073	-0,076
-589,167	243,589	-0,057	0,070
-588,152	375,032	-0,024	0,037
-587,138	36,852	0,046	0,030
-586,123	397,182	-0,040	0,062
-585,109	204,716	-0,034	-0,039
-584,094	407,758	0,049	-0,076
-583,079	-200,000	-0,005	0,060
-582,065	-200,000	-0,054	0,234
-581,050	389,800	-0,047	0,071
-580,036	-27,632	-0,088	0,037
-579,021	-51,738	0,092	0,031
-578,006	631,554	-0,005	0,010
-576,992	-200,000	0,013	-0,129
-575,977	-126,569	-0,054	-0,006
-574,963	-47,119	-0,161	0,057
-573,948	-37,456	-0,086	-0,033
-572,934	-12,361	-0,142	-0,068
-571,919	-89,284	0,089	-0,019
-570,904	42,101	0,048	-0,032
-569,890	56,933	-0,090	0,064
-568,875	15,696	0,116	0,067
-567,861	76,906	-0,086	-0,067
-566,846	-111,590	0,080	0,012
-565,831	-200,000	0,010	-0,079
-564,817	-200,000	-0,008	-0,151
-563,802	-104,715	0,086	-0,014
-562,788	613,937	-0,024	-0,044
-561,773	-200,000	-0,009	0,130
-560,758	800,000	0,037	0,084
-559,744	116,426	0,070	-0,063
-558,729	800,000	0,061	0,124
-557,715	367,675	-0,091	0,135
-556,700	-33,148	-0,096	-0,039
-555,685	800,000	0,037	-0,078
-554,671	1,390	-0,097	-0,051
-553,656	352,838	0,051	0,075
-552,642	165,276	0,093	0,096
-551,627	-200,000	0,009	-0,076
-550,612	416,723	-0,037	-0,057
-549,598	-84,401	-0,046	0,010
-548,583	800,000	-0,007	-0,018
-547,569	148,904	0,028	-0,028
-546,554	800,000	-0,045	0,120
-545,539	232,913	-0,053	0,063
-544,525	-182,269	0,023	-0,000
-543,510	-63,896	-0,081	-0,024
-542,496	61,597	0,054	-0,040
-541,481	-14,775	-0,122	-0,057
-540,466	234,546	-0,079	0,095
-539,452	33,345	0,075	-0,048
-538,437	-113,801	0,146	-0,020
-537,423	-200,000	-0,020	-0,122
-536,408	800,000	0,086	-0,176
-535,393	-200,000	-0,004	-0,098
-534,379	-38,497	-0,080	-0,031
-533,364	-129,579	-0,093	-0,009
-532,350	98,609	0,026	-0,022
-531,335	24,275	-0,080	0,048
-530,321	169,765	0,037	-0,038
-529,306	-69,711	-0,110	-0,031
-528,291	237,755	0,069	0,084
-527,277	-200,000	-0,018	-0,081
-526,262	26,774	0,044	0,027
-525,248	118,944	0,063	-0,057
-524,233	67,643	-0,188	0,140
-523,218	-118,190	0,084	0,011
-522,204	173,276	-0,019	0,020
-521,189	256,769	-0,041	-0,052
-520,175	800,000	-0,018	-0,055
-519,160	-50,888	0,088	0,030
-518,145	159,199	0,093	-0,095
-517,131	-128,477	-0,125	0,013
-516,116	-113,607	0,157	0,022
-515,102	-28,051	0,053	-0,022
-514,087	-48,953	-0,026	-0,009
-513,072	8,415	0,074	0,041
-512,058	-200,000	0,003	0,040
-511,043	51,397	0,047	0,033
-510,029	700,288	0,031	-0,060
-509,014	102,858	0,071	-0,061
-507,999	19,260	0,028	-0,017
-506,985	-33,752	-0,024	0,009
-505,970	-100,129	0,099	0,018
-504,956	-62,284	-0,155	-0,047
-503,941	256,164	-0,032	0,041
-502,926	285,061	-0,031	-0,041
-501,912	800,000	0,021	0,045
-500,897	354,823	0,055	0,080
-499,883	-200,000	0,017	-0,079
-498,868	319,201	-0,102	-0,141
-497,853	800,000	-0,048	0,151
-496,839	174,827	-0,030	-0,031
-495,824	333,694	0,054	0,077
-494,810	545,096	-0,053	-0,093
-493,795	800,000	-0,016	-0,042
-492,781	-200,000	-0,009	0,047
-491,766	-200,000	-0,020	-0,086
-490,751	45,005	0,023	-0,015
-489,737	-200,000	0,007	-0,112
-488,722	800,000	-0,027	-0,080
-487,708	588,187	-0,025	-0,046
-486,693	-200,000	0,002	-0,087
-485,678	-200,000	-0,008	0,106
-484,664	-151,659	-0,057	-0,003
-483,649	-200,000	0,027	0,000
-482,635	-200,000	-0,015	-0,099
-481,620	107,694	-0,047	-0,041
-480,605	-69,001	0,139	0,039
-479,591	-134,205	-0,016	0,001
-478,576	-76,729	-0,068	0,017
-477,562	800,000	-0,035	-0,074
-476,547	800,000	-0,035	-0,105
-475,532	800,000	-0,047	-0,106
-474,518	800,000	0,029	-0,067
-473,503	-104,616	0,070	-0,012
-472,489	-200,000	0,020	0,180
-471,474	-94,486	-0,165	0,033
-470,459	203,740	0,068	-0,077
-469,445	-40,583	0,045	0,017
-468,430	428,375	-0,079	0,125
-467,416	610,074	0,052	0,095
-466,401	-200,000	-0,018	0,135
-465,386	-200,000	-0,004	-0,074
-464,372	-40,745	0,078	-0,029
-463,357	185,224	-0,010	0,010
-462,343	32,750	-0,128	-0,081
-461,328	-197,992	-0,031	0,000
-460,313	-45,357	-0,025	-0,009
-459,299	-9,310	0,043	-0,021
-458,284	156,172	0,058	-0,058
-457,270	150,259	-0,043	-0,043
-456,255	-107,860	0,088	-0,014
-455,241	693,803	0,024	-0,046
-454,226	12,607	-0,092	-0,052
-453,211	-125,707	0,097	0,011
-452,197	-30,229	0,051	0,021
-451,182	-200,000	0,013	0,094
-450,168	68,294	0,088	0,066
-449,153	-200,000	0,022	0,071
-448,138	-16,457	-0,050	-0,023
-447,124	800,000	0,037	-0,076
-446,109	99,512	-0,066	0,056
-445,095	800,000	0,092	0,200
-444,080	-97,094	-0,052	-0,010
-443,065	-131,672	0,066	-0,006
-442,051	104,449	-0,110	-0,094
-441,036	800,000	-0,005	-0,017
-440,022	800,000	0,031	-0,091
-439,007	-89,928	0,049	-0,010
-437,992	-94,734	0,088	0,017
-436,978	-23,324	-0,069	-0,030
-435,963	-200,000	-0,010	-0,044
-434,949	15,098	0,061	-0,035
-433,934	-200,000	0,031	-0,175
-432,919	800,000	-0,023	0,070
-431,905	-55,754	-0,047	0,015
-430,890	800,000	-0,020	0,041
-429,876	800,000	0,039	0,094
-428,861	144,900	-0,037	-0,036
-427,846	107,291	-0,036	0,031
-426,832	49,366	0,053	0,036
-425,817	203,535	0,066	-0,075
-424,803	15,982	-0,083	-0,048
-423,788	-200,000	-0,003	0,096
-422,773	-130,111	0,102	0,010
-421,759	-200,000	-0,006	0,037
-420,744	87,722	-0,123	-0,099
-419,730	-200,000	-0,008	-0,064
-418,715	-200,000	0,044	-0,177
-417,701	-185,221	-0,097	0,001
-416,686	-117,651	0,007	-0,001
-415,671	800,000	-0,053	0,149
-414,657	800,000	-0,018	-0,054
-413,642	259,218	-0,054	-0,068
-412,628	1,645	-0,089	-0,046
-411,613	46,657	-0,083	0,056
-410,598	-111,988	-0,134	0,019
-409,584	-76,748	0,117	0,030
-408,569	191,124	0,062	0,068
-407,555	-200,000	0,007	-0,057
-406,540	32,409	-0,134	-0,084
-405,525	121,519	0,062	0,057
-404,511	-200,000	-0,035	-0,157
-403,496	-141,228	-0,078	0,006
-402,482	335,985	-0,046	0,065
-401,467	-200,000	-0,016	-0,166
-400,452	757,605	0,024	-0,047
-399,438	-105,000	-0,069	-0,011
-398,423	-49,389	0,097	0,033
-397,409	1,890	-0,054	-0,028
-396,394	206,273	0,092	0,104
-395,379	-17,656	-0,108	-0,049
-394,365	800,000	0,005	-0,012
-393,350	369,431	0,049	0,073
-392,336	209,375	-0,041	0,047
-391,321	162,151	0,077	0,079
-390,306	-64,004	-0,025	-0,007
-389,292	-200,000	-0,008	-0,074
-388,277	543,755	-0,054	-0,093
-387,263	-200,000	0,022	0,102
-386,248	-200,000	-0,004	0,092
-385,233	800,000	0,014	-0,031
-384,219	-142,334	0,180	-0,013
-383,204	115,169	0,106	-0,094
-382,190	-36,139	0,253	-0,099
-381,175	35,119	-0,098	-0,063
-380,160	800,000	-0,020	-0,052
-379,146	-57,610	-0,036	0,011
-378,131	-144,990	-0,062	0,004
-377,117	-31,881	0,086	0,035
-376,102	-92,462	-0,096	-0,020
-375,088	800,000	-0,041	0,083
-374,073	101,174	0,049	0,041
-373,058	38,977	0,120	0,078
-372,044	800,000	0,019	0,049
-371,029	190,488	-0,036	0,039
-370,015	-34,231	0,097	0,039
-369,000	-95,734	0,049	0,009
-367,985	-52,066	0,024	0,008
-366,971	540,613	-0,095	-0,164
-365,956	116,278	-0,035	0,031
-364,942	-87,849	-0,048	-0,010
-363,927	62,489	0,197	-0,143
-362,912	800,000	-0,048	-0,106
-361,898	-200,000	-0,001	0,027
-360,883	-200,000	0,024	-0,100
-359,869	84,865	0,062	-0,050
-358,854	-12,142	-0,097	0,046
-357,839	-1,796	0,117	-0,060
-356,825	-79,072	0,075	-0,018
-355,810	800,000	-0,044	0,099
-354,796	-41,537	0,016	0,006
-353,781	382,721	-0,126	-0,189
-352,766	-200,000	-0,031	0,114
-351,752	696,526	0,048	-0,092
-350,737	1,719	-0,049	0,026
-349,723	57,381	0,021	0,015
-348,708	-200,000	0,022	-0,110
-347,693	-200,000	0,013	-0,137
-346,679	-17,881	-0,053	-0,024
-345,664	-200,000	0,009	-0,078
-344,650	227,555	0,075	0,089
-343,635	-3,161	0,112	0,057
-342,620	-8,967	0,165	0,080
-341,606	313,597	-0,011	-0,014
-340,591	800,000	0,093	-0,189
-339,577	-187,400	-0,066	-0,001
-338,562	-63,109	0,083	-0,025
-337,548	-200,000	0,002	-0,038
-336,533	-130,785	0,117	0,011
-335,518	159,941	-0,074	-0,075
-334,504	-200,000	-0,001	-0,074
-333,489	-200,000	0,007	0,032
-332,475	-43,898	0,065	0,024
-331,460	800,000	-0,011	0,027
-330,445	270,163	-0,049	-0,062
-329,431	-200,000	0,008	0,123
-328,416	800,000	-0,046	-0,110
-327,402	5,596	0,043	-0,023
-326,387	70,580	-0,012	0,009
-325,372	39,308	-0,110	-0,072
-324,358	11,407	0,077	-0,043
-323,343	-200,000	-0,001	0,023
-322,329	137,393	-0,026	0,025
-321,314	-40,413	0,116	-0,044
-320,299	800,000	0,010	-0,028
-319,285	333,275	-0,095	0,134
-318,270	-200,000	-0,014	0,111
-317,256	200,986	-0,026	0,029
-316,241	-10,842	0,014	0,007
-315,226	-200,000	0,000	-0,024
-314,212	298,361	-0,040	-0,053
-313,197	-200,000	-0,002	0,125
-312,183	82,121	-0,055	0,043
-311,168	127,870	0,013	-0,012
-310,153	-19,002	-0,137	0,061
-309,139	-200,000	-0,006	0,034
-308,124	-200,000	-0,000	0,102
-307,110	-105,641	0,062	-0,010
-306,095	800,000	0,020	0,044
-305,080	162,811	0,089	0,091
-304,066	790,834	0,031	0,063
-303,051	800,000	-0,061	-0,142
-302,037	800,000	-0,020	0,052
-301,022	6,337	-0,151	0,081
-300,008	-200,000	0,000	0,079
-298,993	327,073	-0,036	0,050
-297,978	-40,237	0,077	-0,029
-296,964	481,151	-0,067	0,110
-295,949	149,319	-0,064	-0,063
-294,935	17,557	-0,038	0,022
-293,920	393,629	0,023	0,035
-292,905	-78,540	0,168	-0,041
-291,891	-200,000	-0,011	0,057
-290,876	-59,879	0,088	0,027
-289,862	-68,634	0,072	-0,020
-288,847	4,780	-0,067	-0,035
-287,832	800,000	0,079	-0,175
-286,818	-200,000	-0,024	-0,090
-285,803	-111,342	-0,067	-0,010
-284,789	282,424	-0,018	-0,023
-283,774	-200,000	0,002	0,031
-282,759	675,574	-0,023	-0,044
-281,745	800,000	0,005	-0,012
-280,730	800,000	0,028	-0,081
-279,716	351,614	-0,077	0,111
-278,701	-200,000	-0,003	0,086
-277,686	80,519	0,083	0,064
-276,672	109,450	0,064	-0,055
-275,657	-137,325	0,055	0,004
-274,643	-67,216	-0,070	0,020
-273,628	198,267	0,024	0,027
-272,613	71,062	0,065	-0,049
-271,599	15,276	-0,141	0,080
-270,584	-166,637	-0,054	-0,002
-269,570	800,000	-0,023	0,048
-268,555	800,000	-0,018	-0,050
-267,540	97,809	0,017	0,014
-266,526	-122,862	-0,281	-0,032
-265,511	-200,000	-0,025	-0,084
-264,497	800,000	0,053	0,140
-263,482	-200,000	0,049	0,195
-262,467	800,000	0,047	0,103
-261,453	-69,435	0,079	0,022
-260,438	12,619	-0,081	-0,045
-259,424	72,967	-0,036	0,027
-258,409	-200,000	0,010	0,118
-257,395	800,000	0,031	0,063
-256,380	-51,104	0,113	-0,038
-255,365	-45,588	0,128	0,046
-254,351	800,000	-0,060	0,164
-253,336	-200,000	-0,024	-0,093
-252,322	-60,825	0,034	0,010
-251,307	462,619	0,026	0,043
-250,292	208,583	0,008	-0,009
-249,278	100,310	0,104	0,088
-248,263	-67,900	-0,012	0,003
-247,249	105,285	0,092	0,079
-246,234	800,000	-0,058	0,137
-245,219	59,486	-0,100	-0,072
-244,205	-50,232	0,194	-0,066
-243,190	280,912	0,018	0,023
-242,176	172,242	0,133	0,138
-241,161	365,882	-0,067	0,098
-240,146	-14,452	0,107	-0,050
-239,132	-59,768	-0,042	-0,013
-238,117	-200,000	0,007	0,080
-237,103	-200,000	0,005	-0,065
-236,088	147,813	-0,064	-0,063
-235,073	-37,977	0,146	0,056
-234,059	800,000	0,024	0,072
-233,044	-200,000	-0,024	0,146
-232,030	800,000	0,020	0,051
-231,015	-200,000	-0,004	-0,107
-230,000	-200,000	-0,012	0,081
-228,986	-200,000	-0,031	0,138
-227,971	-32,390	-0,046	-0,018
-226,957	800,000	0,009	0,028
-225,942	-200,000	0,005	0,027
-224,927	-118,776	0,063	0,008
-223,913	5,784	-0,036	-0,019
-222,898	108,446	0,051	-0,044
-221,884	266,597	-0,031	0,039
-220,869	-35,306	0,074	-0,029
-219,855	684,387	-0,015	0,028
-218,840	800,000	-0,026	0,061
-217,825	544,931	0,073	0,126
-216,811	357,283	0,064	0,092
-215,796	-136,732	-0,150	0,012
-214,782	402,246	-0,081	0,124
-213,767	454,149	-0,056	-0,089
-212,752	0,932	0,129	0,067
-211,738	-143,386	0,057	-0,004
-210,723	800,000	0,012	-0,024
-209,709	-148,651	0,175	-0,010
-208,694	-200,000	-0,018	0,060
-207,679	18,072	-0,055	-0,031
-206,665	-160,268	0,102	-0,004
-205,650	-143,464	0,089	-0,006
-204,636	-200,000	-0,006	0,021
-203,621	33,114	0,066	-0,041
-202,606	-20,427	0,072	0,032
-201,592	-123,241	-0,124	-0,014
-200,577	-106,687	-0,045	-0,007
-199,563	36,412	-0,086	0,055
-198,548	553,373	0,038	0,067
-197,533	144,084	-0,076	-0,073
-196,519	-159,964	0,036	0,001
-195,504	-96,527	-0,143	-0,027
-194,490	-94,905	0,099	0,019
-193,475	800,000	-0,052	-0,111
-192,460	-118,114	0,096	0,012
-191,446	-141,618	-0,068	-0,005
-190,431	-167,881	-0,035	-0,001
-189,417	-200,000	-0,050	0,176
-188,402	800,000	0,028	-0,080
-187,387	800,000	-0,053	0,125
-186,373	81,950	0,023	-0,018
-185,358	142,301	0,062	-0,060
-184,344	-105,300	-0,025	-0,004
-183,329	800,000	0,039	0,083
-182,315	800,000	-0,050	0,140
-181,300	-120,291	-0,052	0,006
-180,285	756,252	0,028	-0,056
-179,271	-130,310	0,020	0,002
-178,256	659,532	0,008	0,014
-177,242	47,769	0,021	0,014
-176,227	38,694	0,039	-0,025
-175,212	239,495	0,045	-0,054
-174,198	-200,000	0,006	0,138
-173,183	-76,142	-0,042	0,010
-172,169	-200,000	0,030	-0,149
-171,154	-3,760	-0,008	-0,004
-170,139	66,839	0,055	0,041
-169,125	-113,477	0,075	-0,010
-168,110	800,000	0,032	0,091
-167,096	-29,504	0,061	0,025
-166,081	442,177	-0,067	-0,106
-165,066	-200,000	-0,005	-0,076
-164,052	152,946	0,115	0,114
-163,037	-36,199	-0,074	0,029
-162,023	49,912	0,063	-0,043
-161,008	41,996	-0,023	0,015
-159,993	-58,793	0,099	0,031
-158,979	800,000	-0,069	0,188
-157,964	800,000	-0,018	0,048
-156,950	-200,000	-0,003	-0,020
-155,935	-56,108	0,093	0,030
-154,920	-86,579	-0,052	0,011
-153,906	315,326	-0,078	0,106
-152,891	-129,792	0,088	-0,009
-151,877	800,000	0,019	0,044
-150,862	-63,079	0,063	0,019
-149,847	800,000	-0,015	0,034
-148,833	30,748	0,087	-0,053
-147,818	-52,117	0,040	0,013
-146,804	-105,153	-0,017	0,003
-145,789	-50,644	0,170	0,057
-144,775	-68,649	-0,140	0,039
-143,760	56,045	-0,046	0,032
-142,745	-3,329	-0,071	-0,035
-141,731	800,000	-0,080	0,168
-140,716	800,000	-0,027	0,076
-139,702	167,998	-0,080	-0,083
-138,687	423,020	0,060	0,093
-137,672	120,956	0,042	0,038
-136,658	118,418	0,032	-0,029
-135,643	-200,000	-0,003	0,071
-134,629	-5,438	-0,080	-0,040
-133,614	-9,713	0,049	0,023
-132,599	487,683	0,013	0,022
-131,585	120,602	0,039	0,035
-130,570	713,181	0,036	0,069
-129,556	307,806	0,037	0,050
-128,541	-115,973	-0,212	-0,028
-127,526	427,693	0,041	-0,065
-126,512	-131,975	0,081	-0,008
-125,497	800,000	-0,051	0,105
-124,483	34,456	0,140	-0,088
-123,468	17,017	-0,055	0,032
-122,453	-200,000	0,018	0,073
-121,439	208,737	-0,131	-0,148
-120,424	444,976	-0,022	0,035
-119,410	-47,524	-0,099	0,035
