DTS Sentinel unit serial number:	SN410029Multiplexer serial number:	ORYXHardware model number:	OX2-SRSoftware version number:	ORYX F/W v4,00 Oryx Data Collector v3.7.2.0data status	okinstallation	B5 Nyhavnadifferential loss correction	single-endedforward channel	channel 2reverse channel	N/Adate	2023/12/13time	02:57:13forward acquisition time	300,00reverse acquisition time	0,00gamma	499,1914k internal	0,3160k external	0,3160temperature offset calibration	1,0000default loss term (dB/km)	0,3820temperature slope calibration	1,0000multiplexer offset coefficient	1,0000multiplexer slope coefficient	1,0000fibre end	0,00T internal ref (°C)	13,98T ext. ref 1 (°C)	-2,48T ext. ref 2 (°C)	-2,79length (m)	temperature (°C)	Stokes	anti-Stokes-744,400	300,420	0,121	-0,165
-743,385	-160,708	-0,282	0,011
-742,371	82,962	0,059	0,047
-741,356	-102,312	-0,289	0,051
-740,342	-75,546	0,044	-0,011
-739,327	-37,211	-0,267	0,105
-738,312	-1,824	0,070	0,036
-737,298	-123,929	-0,437	-0,050
-736,283	447,976	0,045	0,073
-735,269	-63,533	-0,274	0,082
-734,254	-200,000	0,017	0,134
-733,239	-58,007	-0,571	-0,182
-732,225	36,223	0,142	0,092
-731,210	-200,000	0,017	0,085
-730,196	800,000	-0,016	0,039
-729,181	800,000	-0,032	0,071
-728,167	-20,335	0,113	-0,051
-727,152	-200,000	-0,018	0,170
-726,137	202,074	-0,052	-0,059
-725,123	55,988	0,064	-0,045
-724,108	49,935	-0,152	-0,106
-723,094	-128,176	-0,093	0,010
-722,079	-200,000	0,026	-0,135
-721,064	39,816	-0,042	-0,027
-720,050	800,000	0,021	0,064
-719,035	37,705	-0,109	-0,071
-718,021	82,862	-0,073	-0,058
-717,006	-19,704	-0,091	-0,041
-715,991	-200,000	0,005	-0,109
-714,977	-76,433	-0,196	-0,050
-713,962	45,081	0,074	0,050
-712,948	369,773	0,087	0,130
-711,933	-200,000	0,007	0,132
-710,918	70,028	-0,038	0,029
-709,904	-57,651	-0,141	-0,045
-708,889	9,576	-0,094	-0,052
-707,875	-97,847	-0,246	0,046
-706,860	411,714	0,043	-0,067
-705,845	24,584	-0,088	-0,054
-704,831	-200,000	-0,000	0,056
-703,816	602,513	-0,029	0,053
-702,802	-200,000	-0,001	0,060
-701,787	-200,000	0,018	-0,106
-700,772	-92,631	0,045	0,009
-699,758	688,774	0,035	-0,068
-698,743	92,964	0,045	0,037
-697,729	-200,000	0,015	-0,067
-696,714	-101,079	-0,118	0,021
-695,699	111,004	-0,104	-0,092
-694,685	800,000	0,018	0,040
-693,670	-200,000	0,018	-0,077
-692,656	172,242	0,078	-0,083
-691,641	-4,192	-0,033	-0,017
-690,627	-200,000	0,020	-0,075
-689,612	-8,990	0,083	0,041
-688,597	-200,000	0,010	0,046
-687,583	58,056	0,030	-0,022
-686,568	-200,000	0,016	0,199
-685,554	333,646	-0,083	-0,118
-684,539	-4,299	-0,062	0,031
-683,524	793,376	-0,077	0,156
-682,510	-179,826	0,107	0,002
-681,495	-69,020	-0,095	-0,027
-680,481	437,439	-0,058	-0,093
-679,466	-123,882	0,076	0,009
-678,451	54,870	-0,009	-0,007
-677,437	610,377	0,039	-0,072
-676,422	-200,000	0,005	0,054
-675,408	126,206	-0,087	-0,081
-674,393	166,749	0,083	0,086
-673,378	-142,869	0,023	0,002
-672,364	188,153	-0,025	-0,028
-671,349	-48,493	-0,088	-0,031
-670,335	-200,000	-0,005	0,180
-669,320	-87,438	-0,120	0,026
-668,305	192,480	-0,087	0,096
-667,291	-146,990	-0,162	0,010
-666,276	26,795	-0,065	0,040
-665,262	383,640	-0,082	-0,125
-664,247	729,768	-0,025	-0,050
-663,232	319,336	0,052	-0,073
-662,218	-89,430	0,105	0,022
-661,203	-200,000	0,018	0,102
-660,189	60,936	-0,042	0,031
-659,174	-151,342	-0,072	-0,004
-658,159	-50,045	-0,122	0,042
-657,145	-200,000	-0,056	-0,224
-656,130	-89,241	0,129	0,028
-655,116	265,853	0,080	-0,103
-654,101	181,000	0,047	0,051
-653,086	-0,558	-0,138	-0,072
-652,072	-148,967	0,032	0,002
-651,057	83,223	-0,101	0,080
-650,043	37,577	-0,112	-0,073
-649,028	-117,699	0,188	-0,025
-648,014	-35,682	-0,064	0,026
-646,999	-76,383	-0,045	0,011
-645,984	443,848	0,060	0,097
-644,970	800,000	0,016	-0,047
-643,955	104,386	-0,077	-0,066
-642,941	-200,000	-0,005	-0,185
-641,926	72,261	-0,055	0,042
-640,911	7,999	-0,081	0,045
-639,897	319,808	0,049	-0,069
-638,882	303,202	-0,045	-0,062
-637,868	-200,000	-0,020	-0,203
-636,853	-139,681	-0,126	-0,010
-635,838	800,000	-0,059	-0,155
-634,824	213,318	-0,036	0,042
-633,809	-200,000	0,021	0,136
-632,795	-109,678	0,042	-0,006
-631,780	-200,000	-0,008	-0,046
-630,765	47,265	-0,089	-0,061
-629,751	7,947	0,078	-0,043
-628,736	379,146	0,094	-0,141
-627,722	219,323	0,115	-0,136
-626,707	52,868	0,100	0,070
-625,692	450,957	0,024	-0,039
-624,678	-114,681	0,148	0,021
-623,663	-80,415	-0,066	0,016
-622,649	66,814	-0,134	0,100
-621,634	91,669	-0,026	-0,021
-620,619	-28,571	-0,059	-0,025
-619,605	0,954	0,043	-0,023
-618,590	-50,972	-0,130	-0,045
-617,576	-200,000	0,015	-0,059
-616,561	-119,864	-0,061	0,008
-615,546	800,000	-0,052	-0,158
-614,532	-200,000	-0,014	-0,068
-613,517	-120,360	-0,142	0,018
-612,503	800,000	-0,048	-0,118
-611,488	130,887	0,070	-0,066
-610,474	-5,462	0,058	-0,029
-609,459	-83,910	-0,088	0,020
-608,444	-82,497	-0,090	-0,021
-607,430	-200,000	0,015	-0,182
-606,415	-59,014	0,150	-0,047
-605,401	-118,414	-0,034	0,004
-604,386	-200,000	0,001	0,111
-603,371	406,278	0,015	0,024
-602,357	9,307	-0,145	0,080
-601,342	800,000	-0,012	0,026
-600,328	314,333	-0,017	-0,024
-599,313	125,534	0,103	-0,095
-598,298	800,000	0,038	-0,084
-597,284	-200,000	-0,007	0,049
-596,269	-200,000	-0,007	0,125
-595,255	-200,000	-0,021	-0,089
-594,240	-200,000	-0,017	-0,126
-593,225	-170,378	-0,102	-0,003
-592,211	800,000	-0,095	-0,202
-591,196	125,361	0,135	0,125
-590,182	182,075	-0,034	0,037
-589,167	127,426	0,077	0,072
-588,152	700,906	-0,050	-0,096
-587,138	47,370	-0,084	-0,057
-586,123	-200,000	-0,006	-0,047
-585,109	94,263	0,055	-0,046
-584,094	-200,000	0,008	-0,097
-583,079	724,039	-0,030	0,058
-582,065	-107,372	-0,080	0,013
-581,050	160,905	0,052	-0,054
-580,036	-119,781	0,120	0,015
-579,021	67,969	0,146	-0,109
-578,006	-200,000	0,005	-0,053
-576,992	77,952	-0,082	0,064
-575,977	-117,494	-0,101	-0,013
-574,963	669,834	-0,041	0,079
-573,948	-39,652	-0,122	-0,046
-572,934	-107,629	0,052	-0,008
-571,919	37,841	-0,084	-0,054
-570,904	107,138	-0,117	-0,101
-569,890	-16,989	-0,046	0,021
-568,875	-200,000	0,029	-0,118
-567,861	-82,064	-0,049	0,012
-566,846	157,139	0,068	0,069
-565,831	-200,000	0,008	-0,036
-564,817	101,762	-0,139	-0,119
-563,802	-129,856	0,021	-0,002
-562,788	327,699	-0,060	-0,085
-561,773	-69,081	0,091	0,025
-560,758	471,011	-0,146	0,240
-559,744	-200,000	-0,002	0,065
-558,729	244,434	-0,050	-0,061
-557,715	800,000	0,022	-0,045
-556,700	159,330	0,044	-0,044
-555,685	27,668	-0,064	0,039
-554,671	12,030	0,075	-0,042
-553,656	-200,000	-0,034	0,159
-552,642	73,324	0,033	-0,025
-551,627	800,000	-0,006	0,018
-550,612	590,201	0,011	0,020
-549,598	21,959	0,127	-0,076
-548,583	6,773	-0,100	0,054
-547,569	-141,804	-0,058	0,004
-546,554	722,624	0,032	0,063
-545,539	-200,000	0,017	0,061
-544,525	-200,000	-0,005	0,050
-543,510	-200,000	-0,017	0,133
-542,496	239,001	0,085	-0,104
-541,481	-88,891	-0,080	0,017
-540,466	453,327	-0,020	0,033
-539,452	800,000	0,011	0,031
-538,437	-200,000	-0,018	-0,138
-537,423	800,000	-0,059	0,157
-536,408	-172,568	-0,107	0,002
-535,393	16,358	-0,134	-0,077
-534,379	-200,000	0,006	-0,023
-533,364	-200,000	0,007	-0,051
-532,350	399,128	0,098	-0,151
-531,335	-200,000	-0,012	0,081
-530,321	167,825	-0,088	0,091
-529,306	800,000	0,020	-0,058
-528,291	-200,000	-0,006	-0,070
-527,277	800,000	-0,020	-0,056
-526,262	800,000	-0,025	-0,076
-525,248	-200,000	0,022	-0,080
-524,233	49,202	0,037	0,025
-523,218	-69,510	0,119	-0,033
-522,204	-160,579	-0,194	-0,007
-521,189	292,032	-0,101	0,135
-520,175	129,701	0,095	0,089
-519,160	469,501	0,058	0,096
-518,145	-200,000	-0,021	-0,129
-517,131	-156,798	0,237	-0,010
-516,116	28,748	0,051	0,032
-515,102	132,234	-0,065	0,061
-514,087	-90,370	0,119	-0,025
-513,072	30,391	0,102	-0,063
-512,058	244,457	0,037	-0,045
-511,043	0,743	0,107	-0,056
-510,029	231,587	0,096	-0,115
-509,014	395,154	0,037	-0,056
-507,999	143,883	-0,137	0,134
-506,985	750,565	0,036	0,072
-505,970	563,579	0,074	-0,132
-504,956	9,660	-0,161	0,089
-503,941	-200,000	0,018	-0,063
-502,926	-200,000	0,021	-0,083
-501,912	-67,668	0,072	0,020
-500,897	43,532	0,078	-0,052
-499,883	83,226	-0,055	-0,044
-498,868	-200,000	0,028	-0,122
-497,853	-44,294	-0,120	0,044
-496,839	800,000	-0,038	-0,079
-495,824	800,000	-0,035	0,079
-494,810	468,173	-0,036	0,059
-493,795	473,998	0,018	-0,030
-492,781	-200,000	0,004	-0,083
-491,766	230,521	-0,038	-0,045
-490,751	-175,817	0,125	0,002
-489,737	51,618	-0,065	-0,045
-488,722	273,610	-0,073	-0,094
-487,708	159,574	0,069	-0,070
-486,693	406,669	0,055	0,086
-485,678	-170,623	0,032	0,001
-484,664	-103,509	-0,031	-0,005
-483,649	10,735	-0,048	0,027
-482,635	261,083	-0,055	0,070
-481,620	153,897	0,090	-0,090
-480,605	245,613	-0,097	-0,119
-479,591	-158,380	0,099	0,004
-478,576	800,000	-0,034	-0,071
-477,562	307,859	-0,034	-0,046
-476,547	480,770	-0,020	-0,034
-475,532	-161,818	-0,060	0,002
-474,518	-127,185	-0,028	0,003
-473,503	34,282	0,017	0,011
-472,489	-19,959	-0,042	0,019
-471,474	-47,457	0,101	0,036
-470,459	-200,000	-0,009	-0,059
-469,445	800,000	0,015	-0,049
-468,430	20,641	0,115	-0,068
-467,416	609,839	0,062	0,113
-466,401	-200,000	-0,002	-0,068
-465,386	-200,000	0,003	0,032
-464,372	-63,362	-0,145	0,043
-463,357	-200,000	0,003	0,052
-462,343	9,506	-0,068	0,038
-461,328	800,000	-0,031	-0,082
-460,313	-200,000	-0,017	-0,127
-459,299	-200,000	0,013	0,079
-458,284	800,000	0,011	0,035
-457,270	-29,951	-0,052	0,021
-456,255	-3,180	0,073	-0,037
-455,241	265,211	-0,118	-0,151
-454,226	68,104	-0,051	-0,038
-453,211	136,396	0,059	0,056
-452,197	-200,000	0,024	0,134
-451,182	-114,482	-0,063	0,009
-450,168	116,102	-0,104	0,093
-449,153	43,853	-0,013	-0,009
-448,138	399,565	-0,103	0,158
-447,124	95,283	-0,145	0,121
-446,109	-200,000	0,031	-0,145
-445,095	-200,000	0,008	0,077
-444,080	-121,373	-0,126	-0,015
-443,065	297,453	0,099	0,133
-442,051	83,732	0,108	-0,086
-441,036	508,507	-0,050	0,084
-440,022	767,706	-0,022	-0,044
-439,007	-181,470	0,057	0,001
-437,992	110,067	-0,059	0,051
-436,978	43,411	0,024	0,016
-435,963	46,690	-0,070	0,047
-434,949	332,754	0,037	0,052
-433,934	-148,477	0,076	0,004
-432,919	800,000	-0,023	-0,046
-431,905	-200,000	-0,016	0,064
-430,890	-200,000	-0,002	-0,132
-429,876	72,814	-0,099	0,075
-428,861	-200,000	0,016	0,141
-427,846	-200,000	0,003	0,019
-426,832	-200,000	0,003	0,051
-425,817	-135,101	0,122	0,011
-424,803	28,055	-0,106	0,065
-423,788	-200,000	0,000	-0,094
-422,773	476,492	-0,089	0,146
-421,759	-200,000	0,010	0,139
-420,744	314,620	0,040	0,056
-419,730	233,617	-0,090	-0,108
-418,715	368,205	-0,077	-0,113
-417,701	308,063	0,072	-0,098
-416,686	-80,070	0,085	0,021
-415,671	165,053	0,118	0,121
-414,657	-23,442	0,091	0,040
-413,642	800,000	0,065	0,184
-412,628	-22,333	0,068	0,030
-411,613	-45,194	0,075	-0,027
-410,598	-200,000	-0,013	0,113
-409,584	-23,131	0,150	-0,065
-408,569	69,920	-0,052	-0,039
-407,555	800,000	-0,044	0,100
-406,540	-112,569	-0,122	-0,017
-405,525	-128,629	-0,082	-0,008
-404,511	270,881	-0,047	0,061
-403,496	224,196	0,048	-0,056
-402,482	108,738	0,046	-0,040
-401,467	-200,000	0,002	0,021
-400,452	800,000	0,055	-0,157
-399,438	116,874	-0,024	0,021
-398,423	-200,000	-0,010	0,037
-397,409	-103,278	0,114	-0,019
-396,394	217,089	-0,043	-0,050
-395,379	-200,000	0,010	-0,035
-394,365	800,000	0,044	0,111
-393,350	412,251	0,060	0,093
-392,336	-116,243	-0,062	0,008
-391,321	338,425	-0,031	-0,044
-390,306	800,000	0,025	0,069
-389,292	54,945	0,006	-0,004
-388,277	-26,489	-0,080	0,034
-387,263	-200,000	-0,015	0,072
-386,248	-30,812	0,060	0,025
-385,233	-173,910	-0,098	0,002
-384,219	45,399	0,072	0,048
-383,204	45,217	0,126	0,084
-382,190	-200,000	-0,028	-0,139
-381,175	-85,174	0,104	0,024
-380,160	-200,000	0,158	0,000
-379,146	76,713	-0,073	0,056
-378,131	-200,000	0,011	-0,138
-377,117	509,847	0,054	0,091
-376,102	700,226	-0,051	-0,098
-375,088	-151,336	-0,067	-0,004
-374,073	-200,000	0,026	0,109
-373,058	-24,308	-0,126	-0,054
-372,044	-180,812	0,163	-0,002
-371,029	-69,206	0,162	-0,045
-370,015	771,665	0,021	0,043
-369,000	394,992	-0,019	0,029
-367,985	755,786	0,042	0,083
-366,971	-25,304	0,067	-0,029
-365,956	-200,000	-0,002	0,109
-364,942	-200,000	0,026	0,136
-363,927	274,128	0,045	-0,058
-362,912	41,059	0,044	-0,029
-361,898	28,608	0,115	0,070
-360,883	-50,140	-0,139	-0,048
-359,869	-25,481	0,137	0,058
-358,854	273,603	0,077	0,099
-357,839	800,000	0,034	0,078
-356,825	-200,000	0,002	0,025
-355,810	800,000	0,050	-0,117
-354,796	-25,269	-0,078	-0,033
-353,781	185,513	-0,075	0,081
-352,766	-23,659	-0,072	0,031
-351,752	800,000	-0,063	0,167
-350,737	-200,000	0,012	-0,091
-349,723	-125,604	0,055	-0,006
-348,708	-200,000	-0,042	0,221
-347,693	100,507	-0,088	-0,074
-346,679	-127,312	-0,117	-0,012
-345,664	29,295	0,050	-0,031
-344,650	800,000	0,036	0,093
-343,635	52,415	0,119	0,082
-342,620	58,863	0,170	-0,121
-341,606	605,081	0,032	-0,058
-340,591	198,839	-0,088	0,098
-339,577	-0,064	-0,072	-0,037
-338,562	86,696	-0,180	-0,144
-337,548	226,369	0,165	-0,194
-336,533	-200,000	0,011	0,143
-335,518	623,671	0,068	0,125
-334,504	800,000	0,040	-0,127
-333,489	22,042	-0,045	-0,026
-332,475	285,421	-0,125	-0,164
-331,460	193,016	-0,039	0,042
-330,445	7,211	-0,068	0,036
-329,431	-135,056	-0,032	0,003
-328,416	674,469	0,027	0,052
-327,402	800,000	0,018	-0,048
-326,387	-200,000	0,008	-0,040
-325,372	89,029	-0,032	-0,026
-324,358	142,790	-0,085	-0,082
-323,343	286,670	0,111	-0,146
-322,329	101,101	0,101	0,085
-321,314	-117,576	0,041	0,005
-320,299	172,214	0,034	0,035
-319,285	-26,973	-0,096	-0,040
-318,270	753,780	0,027	0,053
-317,256	133,628	-0,089	0,084
-316,241	-135,414	-0,071	0,006
-315,226	89,803	0,086	0,070
-314,212	-25,623	-0,046	0,020
-313,197	-200,000	-0,002	0,035
-312,183	-200,000	-0,024	0,138
-311,168	167,216	0,096	-0,099
-310,153	37,202	0,120	-0,077
-309,139	310,142	-0,025	0,035
-308,124	-35,284	0,063	0,025
-307,110	304,419	0,057	0,077
-306,095	300,127	0,087	0,116
-305,080	-109,734	0,156	0,024
-304,066	173,331	-0,077	0,081
-303,051	-200,000	-0,012	-0,047
-302,037	-200,000	0,007	-0,082
-301,022	-39,809	-0,165	-0,062
-300,008	-82,336	-0,031	0,007
-298,993	-23,676	0,030	0,013
-297,978	800,000	0,021	-0,058
-296,964	-200,000	0,001	-0,005
-295,949	800,000	0,017	0,036
-294,935	-200,000	0,023	-0,084
-293,920	800,000	-0,024	-0,072
-292,905	800,000	-0,036	0,089
-291,891	-22,916	0,081	-0,035
-290,876	666,078	0,027	-0,050
-289,862	-200,000	0,012	-0,142
-288,847	-200,000	0,015	-0,140
-287,832	-98,160	0,097	0,018
-286,818	-76,421	-0,066	0,017
-285,803	-200,000	0,003	0,140
-284,789	232,514	-0,022	-0,026
-283,774	162,486	0,058	0,059
-282,759	-200,000	0,012	-0,055
-281,745	115,280	0,091	0,080
-280,730	-200,000	0,002	-0,009
-279,716	15,608	-0,124	0,070
-278,701	72,707	0,064	0,048
-277,686	-136,838	-0,037	0,003
-276,672	-34,893	-0,043	0,017
-275,657	625,898	0,065	0,120
-274,643	134,012	0,067	0,063
-273,628	800,000	-0,056	-0,166
-272,613	-72,638	-0,021	0,006
-271,599	-200,000	0,000	-0,027
-270,584	-34,444	-0,019	0,007
-269,570	800,000	-0,053	0,137
-268,555	433,748	-0,060	0,095
-267,540	-200,000	0,005	0,128
-266,526	-200,000	-0,007	-0,106
-265,511	-200,000	0,026	0,088
-264,497	23,105	-0,059	0,035
-263,482	373,961	0,017	0,025
-262,467	-92,229	-0,027	-0,005
-261,453	-104,725	-0,063	-0,010
-260,438	415,993	0,042	0,065
-259,424	-200,000	-0,001	0,046
-258,409	800,000	0,050	-0,113
-257,395	-57,425	0,153	-0,048
-256,380	-30,749	-0,071	0,029
-255,365	-5,769	-0,102	-0,051
-254,351	-200,000	-0,014	-0,078
-253,336	241,457	0,027	-0,032
-252,322	41,944	-0,114	0,075
-251,307	800,000	-0,043	0,128
-250,292	800,000	-0,015	0,035
-249,278	-145,882	0,079	0,005
-248,263	-200,000	0,002	0,093
-247,249	3,724	-0,124	-0,065
-246,234	43,290	0,136	0,089
-245,219	-200,000	-0,018	0,079
-244,205	800,000	-0,061	-0,152
-243,190	10,514	-0,174	-0,095
-242,176	54,650	0,098	0,068
-241,161	261,928	-0,042	0,052
-240,146	-200,000	-0,008	-0,036
-239,132	-27,407	0,127	0,053
-238,117	-200,000	0,003	0,030
-237,103	-200,000	0,025	0,093
-236,088	-68,769	0,150	-0,042
-235,073	-200,000	-0,010	-0,114
-234,059	450,256	-0,142	0,227
-233,044	218,776	0,039	0,045
-232,030	-200,000	-0,041	0,166
-231,015	148,687	-0,044	-0,043
-230,000	800,000	0,015	-0,037
-228,986	800,000	-0,032	0,068
-227,971	11,369	-0,033	-0,018
-226,957	-45,677	-0,030	-0,011
-225,942	44,109	0,206	0,136
-224,927	800,000	-0,012	-0,026
-223,913	-44,543	0,070	-0,025
-222,898	24,505	0,049	-0,029
-221,884	117,133	0,042	-0,037
-220,869	207,453	0,139	-0,156
-219,855	-200,000	-0,007	0,028
-218,840	24,104	0,071	-0,042
-217,825	737,981	-0,054	-0,106
-216,811	-50,798	0,064	0,022
-215,796	243,202	0,030	0,036
-214,782	-200,000	-0,025	0,102
-213,767	800,000	-0,020	0,049
-212,752	-200,000	0,026	0,141
-211,738	621,554	-0,040	0,074
-210,723	42,967	0,055	-0,036
-209,709	221,399	0,085	0,099
-208,694	467,131	-0,048	-0,079
-207,679	246,990	-0,029	-0,036
-206,665	6,853	0,028	0,015
-205,650	-200,000	-0,014	-0,062
-204,636	185,433	0,068	-0,073
-203,621	737,897	0,011	-0,022
-202,606	-89,172	-0,051	0,011
-201,592	-76,976	-0,125	-0,031
-200,577	124,174	-0,016	0,014
-199,563	-200,000	-0,006	0,074
-198,548	138,850	0,063	-0,060
-197,533	192,512	0,018	0,020
-196,519	215,108	0,058	-0,067
-195,504	-200,000	0,015	0,129
-194,490	-87,969	0,017	-0,004
-193,475	650,598	0,021	-0,039
-192,460	435,002	-0,056	0,088
-191,446	129,400	-0,113	0,104
-190,431	20,049	0,076	-0,044
-189,417	800,000	-0,063	0,173
-188,402	-200,000	0,016	0,092
-187,387	103,376	0,041	0,034
-186,373	249,298	0,044	-0,053
-185,358	179,817	-0,063	0,067
-184,344	151,825	0,068	-0,067
-183,329	-94,135	-0,082	0,016
-182,315	39,009	0,012	-0,008
-181,300	-37,422	0,075	-0,029
-180,285	-36,009	-0,169	-0,066
-179,271	-200,000	-0,002	0,024
-178,256	62,570	0,057	0,041
-177,242	25,129	-0,024	-0,015
-176,227	-200,000	0,002	-0,067
-175,212	-200,000	-0,007	-0,043
-174,198	-200,000	-0,001	-0,058
-173,183	-200,000	-0,022	-0,076
-172,169	168,455	0,065	0,067
-171,154	192,605	-0,031	-0,034
-170,139	-35,296	0,151	0,059
-169,125	3,016	0,062	-0,032
-168,110	57,331	0,055	0,038
-167,096	13,346	-0,021	0,012
-166,081	-163,104	-0,111	0,004
-165,066	-142,749	-0,152	0,011
-164,052	-200,000	0,063	-0,222
-163,037	171,370	0,086	-0,089
-162,023	-200,000	-0,018	-0,067
-161,008	585,894	-0,054	0,095
-159,993	16,583	0,063	-0,036
-158,979	32,420	-0,154	-0,095
-157,964	305,042	-0,071	0,096
-156,950	-30,895	-0,044	-0,018
-155,935	-112,233	0,117	-0,017
-154,920	-147,852	-0,040	-0,002
-153,906	394,660	0,055	0,083
-152,891	583,549	-0,079	0,141
-151,877	39,282	0,074	-0,047
-150,862	228,943	0,065	-0,076
-149,847	444,509	-0,059	-0,094
-148,833	-126,724	0,052	-0,005
-147,818	800,000	0,029	0,081
-146,804	-59,811	0,154	-0,047
-145,789	29,587	-0,105	0,064
-144,775	5,979	0,110	-0,058
-143,760	391,188	0,073	0,110
-142,745	784,581	-0,046	-0,092
-141,731	201,940	0,069	-0,077
-140,716	-200,000	0,033	0,124
-139,702	-112,538	-0,148	0,021
-138,687	287,440	-0,070	0,091
-137,672	800,000	0,014	-0,031
-136,658	800,000	0,040	-0,081
-135,643	800,000	-0,055	0,145
-134,629	-157,550	0,062	0,003
-133,614	800,000	0,020	-0,051
-132,599	99,167	0,054	0,045
-131,585	42,272	-0,137	0,090
-130,570	-200,000	0,040	-0,126
-129,556	64,047	0,078	0,057
-128,541	-131,111	-0,043	0,004
-127,526	302,804	0,122	0,163
-126,512	-89,477	0,213	-0,045
-125,497	-102,359	0,111	-0,019
-124,483	800,000	-0,039	0,096
-123,468	-58,354	0,121	-0,037
-122,453	-5,550	-0,071	0,035
-121,439	87,343	0,064	0,051
-120,424	-200,000	0,001	0,051
-119,410	458,695	0,057	0,091
-118,395	372,390	-0,041	0,060
-117,380	163,115	0,045	0,045
