DTS Sentinel unit serial number:	SN410029Multiplexer serial number:	ORYXHardware model number:	OX2-SRSoftware version number:	ORYX F/W v4,00 Oryx Data Collector v3.7.2.0data status	okinstallation	B5 Nyhavnadifferential loss correction	single-endedforward channel	channel 2reverse channel	N/Adate	2023/12/13time	06:02:13forward acquisition time	300,00reverse acquisition time	0,00gamma	499,1914k internal	0,3160k external	0,3160temperature offset calibration	1,0000default loss term (dB/km)	0,3820temperature slope calibration	1,0000multiplexer offset coefficient	1,0000multiplexer slope coefficient	1,0000fibre end	0,00T internal ref (°C)	13,80T ext. ref 1 (°C)	-2,66T ext. ref 2 (°C)	-2,94length (m)	temperature (°C)	Stokes	anti-Stokes-744,400	47,910	0,091	0,062
-743,385	-24,441	-0,163	0,071
-742,371	-11,193	0,123	0,060
-741,356	-87,495	-0,304	-0,067
-740,342	127,819	0,079	0,074
-739,327	22,651	-0,250	0,151
-738,312	124,586	0,106	0,098
-737,298	-72,856	-0,348	-0,094
-736,283	-104,780	0,256	0,043
-735,269	-84,449	-0,219	-0,051
-734,254	-200,000	0,006	0,085
-733,239	-34,856	-0,408	-0,163
-732,225	-123,735	0,142	-0,016
-731,210	-200,000	-0,036	0,130
-730,196	-200,000	-0,019	-0,064
-729,181	-0,374	-0,078	-0,041
-728,167	-85,906	-0,081	0,018
-727,152	-200,000	-0,007	-0,095
-726,137	-0,542	-0,015	0,008
-725,123	-200,000	0,015	0,113
-724,108	-200,000	-0,001	-0,080
-723,094	800,000	0,027	0,063
-722,079	277,022	-0,092	-0,121
-721,064	-169,336	-0,048	-0,001
-720,050	-200,000	-0,007	0,109
-719,035	-200,000	0,001	0,046
-718,021	-129,482	-0,059	0,006
-717,006	8,910	-0,087	-0,048
-715,991	128,403	-0,139	-0,131
-714,977	-200,000	-0,003	-0,076
-713,962	800,000	-0,048	-0,114
-712,948	352,771	-0,033	-0,048
-711,933	-200,000	0,004	0,042
-710,918	-200,000	0,039	-0,139
-709,904	-32,562	-0,097	0,040
-708,889	652,115	-0,107	-0,202
-707,875	-49,318	-0,104	-0,036
-706,860	18,651	0,045	0,026
-705,845	-34,252	-0,077	0,031
-704,831	-168,783	-0,069	0,002
-703,816	85,170	0,030	-0,025
-702,802	-200,000	0,009	-0,036
-701,787	6,089	0,016	0,009
-700,772	-6,337	-0,126	-0,063
-699,758	800,000	0,055	0,125
-698,743	507,534	-0,056	0,096
-697,729	800,000	-0,016	-0,052
-696,714	-200,000	0,164	0,000
-695,699	-93,160	-0,088	-0,018
-694,685	292,148	-0,070	-0,095
-693,670	116,238	-0,053	-0,048
-692,656	-200,000	-0,011	-0,104
-691,641	-100,303	-0,129	-0,023
-690,627	161,614	-0,045	-0,047
-689,612	76,536	0,059	0,046
-688,597	160,216	-0,031	-0,032
-687,583	400,002	0,048	-0,074
-686,568	-13,758	-0,115	-0,054
-685,554	135,590	-0,032	-0,031
-684,539	800,000	0,034	0,081
-683,524	-66,370	-0,048	0,014
-682,510	-200,000	0,015	-0,107
-681,495	-136,536	-0,077	-0,006
-680,481	800,000	-0,026	0,079
-679,466	-200,000	0,039	-0,136
-678,451	-200,000	-0,016	-0,140
-677,437	-200,000	-0,021	0,140
-676,422	46,483	0,034	0,023
-675,408	101,931	0,066	-0,057
-674,393	-200,000	-0,014	-0,170
-673,378	800,000	-0,044	-0,092
-672,364	33,594	0,188	0,120
-671,349	-200,000	0,037	-0,230
-670,335	123,372	0,123	0,113
-669,320	-87,161	0,117	0,026
-668,305	104,786	0,031	0,027
-667,291	2,732	-0,042	-0,022
-666,276	-200,000	-0,005	-0,046
-665,262	-200,000	-0,030	-0,134
-664,247	-23,945	0,125	-0,055
-663,232	-94,489	-0,139	0,028
-662,218	33,962	0,098	-0,063
-661,203	232,502	0,020	0,024
-660,189	-200,000	-0,004	0,029
-659,174	-200,000	0,026	-0,116
-658,159	-154,752	-0,048	0,002
-657,145	27,843	-0,019	-0,012
-656,130	-69,600	-0,148	0,041
-655,116	-24,004	0,052	-0,023
-654,101	-68,415	-0,107	-0,030
-653,086	478,144	0,065	0,108
-652,072	800,000	0,014	-0,038
-651,057	800,000	0,042	-0,097
-650,043	141,289	0,085	-0,082
-649,028	152,991	-0,053	-0,053
-648,014	115,994	0,095	0,086
-646,999	-200,000	0,001	0,158
-645,984	800,000	0,025	0,052
-644,970	794,345	0,083	0,169
-643,955	-200,000	-0,018	-0,062
-642,941	384,884	-0,095	-0,144
-641,926	-200,000	-0,002	-0,063
-640,911	76,635	0,081	0,063
-639,897	-193,633	0,030	-0,000
-638,882	224,820	0,056	-0,067
-637,868	-96,325	0,015	0,003
-636,853	-67,959	-0,197	-0,056
-635,838	-159,741	-0,127	-0,005
-634,824	800,000	0,018	-0,049
-633,809	-200,000	-0,009	0,157
-632,795	106,879	-0,006	-0,005
-631,780	112,327	0,021	-0,019
-630,765	81,167	-0,062	0,049
-629,751	800,000	-0,037	-0,090
-628,736	784,558	-0,043	0,087
-627,722	129,492	0,035	-0,032
-626,707	152,867	0,058	0,059
-625,692	104,496	-0,112	0,097
-624,678	78,376	0,022	-0,017
-623,663	-132,907	0,004	0,000
-622,649	-200,000	-0,022	-0,084
-621,634	326,686	-0,023	-0,032
-620,619	399,347	-0,064	-0,099
-619,605	-30,490	0,058	0,024
-618,590	800,000	-0,010	0,022
-617,576	-200,000	0,017	-0,078
-616,561	-200,000	-0,010	0,125
-615,546	-96,777	-0,147	-0,028
-614,532	717,819	-0,065	-0,126
-613,517	472,585	0,076	-0,126
-612,503	-200,000	0,032	-0,111
-611,488	-40,214	0,138	-0,052
-610,474	-200,000	0,025	-0,163
-609,459	177,761	-0,061	-0,066
-608,444	800,000	0,049	-0,113
-607,430	-200,000	-0,000	0,019
-606,415	53,830	0,075	-0,053
-605,401	800,000	0,031	-0,066
-604,386	800,000	-0,021	0,049
-603,371	360,813	-0,031	-0,046
-602,357	54,539	-0,133	0,094
-601,342	-200,000	-0,024	-0,099
-600,328	32,712	-0,121	-0,077
-599,313	-158,918	0,040	0,002
-598,298	596,203	0,019	0,035
-597,284	454,484	0,026	-0,042
-596,269	-200,000	0,006	0,035
-595,255	-200,000	-0,023	0,137
-594,240	-200,000	0,025	0,091
-593,225	435,853	-0,048	0,076
-592,211	532,675	0,012	0,021
-591,196	487,245	-0,054	-0,091
-590,182	-112,411	-0,107	0,016
-589,167	-39,140	0,094	-0,036
-588,152	158,065	-0,105	0,107
-587,138	-91,089	-0,075	-0,016
-586,123	-200,000	-0,007	-0,033
-585,109	-200,000	0,008	-0,043
-584,094	-25,285	-0,073	-0,032
-583,079	244,701	0,048	-0,059
-582,065	800,000	-0,049	0,101
-581,050	-59,465	-0,082	-0,026
-580,036	800,000	-0,014	-0,037
-579,021	-120,636	0,088	0,011
-578,006	-200,000	-0,014	-0,056
-576,992	134,184	-0,113	-0,107
-575,977	499,434	0,002	0,003
-574,963	-5,221	0,099	0,050
-573,948	-154,822	-0,087	0,004
-572,934	-138,073	-0,072	-0,006
-571,919	-200,000	0,006	-0,099
-570,904	183,095	0,038	-0,041
-569,890	245,312	-0,036	0,045
-568,875	440,467	0,050	0,080
-567,861	-200,000	-0,002	-0,073
-566,846	-200,000	-0,011	-0,174
-565,831	-185,960	0,043	0,000
-564,817	-16,999	-0,069	0,032
-563,802	-131,996	-0,115	0,011
-562,788	-119,704	-0,052	-0,007
-561,773	-9,112	0,193	0,094
-560,758	17,475	-0,017	0,010
-559,744	672,952	0,030	-0,057
-558,729	66,209	-0,052	-0,039
-557,715	-200,000	0,017	0,084
-556,700	-81,313	-0,097	-0,023
-555,685	800,000	-0,032	-0,085
-554,671	800,000	-0,041	-0,086
-553,656	-120,778	-0,216	-0,026
-552,642	314,317	0,085	0,118
-551,627	94,181	-0,049	-0,040
-550,612	-28,617	0,135	-0,056
-549,598	-200,000	-0,038	-0,136
-548,583	-118,405	-0,055	0,007
-547,569	52,523	0,072	-0,050
-546,554	72,474	0,126	0,096
-545,539	-43,601	-0,114	-0,042
-544,525	138,614	-0,099	-0,095
-543,510	313,926	-0,039	-0,053
-542,496	-200,000	-0,036	-0,130
-541,481	122,206	0,067	-0,061
-540,466	-109,540	0,110	-0,017
-539,452	18,144	0,042	0,025
-538,437	-200,000	0,000	-0,006
-537,423	800,000	0,040	0,087
-536,408	-25,268	-0,082	0,035
-535,393	142,397	0,072	-0,070
-534,379	-200,000	-0,020	-0,133
-533,364	80,271	0,097	-0,076
-532,350	800,000	0,048	-0,116
-531,335	800,000	-0,037	-0,118
-530,321	-200,000	0,039	-0,156
-529,306	52,873	0,054	-0,038
-528,291	195,536	-0,122	0,135
-527,277	-161,178	0,129	-0,005
-526,262	-130,716	0,017	0,002
-525,248	434,248	-0,066	0,106
-524,233	-107,924	-0,041	0,006
-523,218	-126,184	-0,118	-0,013
-522,204	-63,027	0,019	0,006
-521,189	407,544	-0,160	-0,247
-520,175	413,597	0,027	0,042
-519,160	-88,675	0,072	-0,016
-518,145	-200,000	-0,010	0,094
-517,131	595,245	0,055	0,099
-516,116	62,099	0,071	0,051
-515,102	800,000	0,014	-0,039
-514,087	-200,000	0,026	-0,138
-513,072	-5,810	-0,124	-0,062
-512,058	800,000	-0,059	-0,130
-511,043	264,266	-0,056	-0,071
-510,029	-56,983	0,046	-0,015
-509,014	130,416	-0,089	-0,083
-507,999	-200,000	0,012	0,090
-506,985	28,301	-0,071	-0,043
-505,970	236,658	0,058	0,070
-504,956	-200,000	0,015	-0,090
-503,941	-3,744	0,049	0,025
-502,926	8,807	0,088	0,048
-501,912	113,902	0,059	0,052
-500,897	-91,922	0,109	0,022
-499,883	-55,058	0,042	-0,014
-498,868	689,426	-0,012	-0,024
-497,853	189,594	0,024	-0,026
-496,839	-200,000	0,003	0,130
-495,824	-200,000	0,001	0,004
-494,810	30,974	0,092	0,058
-493,795	800,000	0,076	-0,154
-492,781	514,684	-0,017	-0,029
-491,766	249,344	-0,095	-0,117
-490,751	518,338	0,050	-0,086
-489,737	-92,359	-0,091	-0,019
-488,722	800,000	-0,063	0,198
-487,708	-200,000	0,010	0,141
-486,693	325,503	-0,064	-0,089
-485,678	-200,000	-0,015	-0,066
-484,664	137,574	-0,097	0,093
-483,649	-77,273	-0,133	0,034
-482,635	660,002	0,027	-0,050
-481,620	-200,000	-0,011	-0,054
-480,605	-200,000	0,003	0,095
-479,591	272,751	0,077	0,100
-478,576	72,580	0,122	0,093
-477,562	-200,000	-0,003	-0,096
-476,547	73,582	-0,063	-0,048
-475,532	-52,284	-0,024	0,008
-474,518	219,483	-0,041	0,048
-473,503	-38,499	0,146	-0,056
-472,489	-94,896	0,082	-0,016
-471,474	-54,825	0,068	-0,022
-470,459	-200,000	0,017	-0,077
-469,445	1,479	-0,032	0,017
-468,430	32,279	0,104	0,065
-467,416	-56,843	0,062	-0,020
-466,401	413,538	-0,102	0,158
-465,386	-130,992	0,101	-0,010
-464,372	-177,103	0,068	0,001
-463,357	-117,219	-0,030	-0,004
-462,343	-200,000	-0,001	-0,150
-461,328	-40,032	-0,058	-0,022
-460,313	130,964	-0,079	0,074
-459,299	-29,439	-0,052	0,022
-458,284	135,912	0,016	-0,016
-457,270	-200,000	0,000	-0,008
-456,255	-200,000	-0,003	-0,060
-455,241	-162,777	-0,076	-0,003
-454,226	393,903	0,023	-0,035
-453,211	-73,468	-0,075	0,020
-452,197	67,909	0,048	-0,035
-451,182	800,000	0,014	-0,028
-450,168	475,732	-0,069	-0,114
-449,153	0,886	0,082	0,043
-448,138	-200,000	-0,017	-0,084
-447,124	-200,000	0,007	0,024
-446,109	-144,933	-0,065	0,004
-445,095	-200,000	0,032	-0,199
-444,080	-200,000	0,028	-0,093
-443,065	-200,000	-0,027	-0,182
-442,051	-14,892	0,067	0,031
-441,036	-161,487	-0,193	-0,007
-440,022	-112,105	-0,115	0,017
-439,007	577,619	-0,034	0,061
-437,992	676,537	-0,043	0,082
-436,978	-200,000	0,013	0,080
-435,963	-84,381	0,045	-0,010
-434,949	180,932	0,029	-0,031
-433,934	65,019	0,084	-0,061
-432,919	78,701	-0,109	0,085
-431,905	-33,845	-0,172	-0,069
-430,890	-200,000	0,014	-0,074
-429,876	398,166	-0,081	0,124
-428,861	-32,297	0,078	0,031
-427,846	-200,000	-0,005	0,032
-426,832	250,560	-0,072	-0,089
-425,817	36,878	-0,110	-0,070
-424,803	-200,000	-0,007	0,022
-423,788	596,429	0,095	-0,172
-422,773	-60,014	0,171	-0,053
-421,759	335,122	0,101	0,143
-420,744	740,402	-0,079	0,155
-419,730	800,000	-0,054	-0,154
-418,715	-200,000	-0,006	-0,041
-417,701	39,730	-0,034	0,022
-416,686	71,163	-0,020	0,015
-415,671	316,683	0,075	-0,103
-414,657	800,000	-0,034	-0,099
-413,642	127,645	0,083	0,077
-412,628	-138,198	-0,204	0,016
-411,613	152,355	0,061	-0,060
-410,598	-90,219	-0,016	-0,003
-409,584	-108,235	0,038	0,006
-408,569	135,305	-0,075	-0,071
-407,555	-200,000	-0,003	0,023
-406,540	-200,000	0,001	-0,041
-405,525	-86,460	0,124	-0,028
-404,511	566,834	0,054	0,095
-403,496	-200,000	-0,001	-0,195
-402,482	-32,939	-0,159	0,064
-401,467	305,517	-0,056	0,076
-400,452	-200,000	-0,009	-0,053
-399,438	800,000	-0,044	-0,095
-398,423	800,000	0,018	0,040
-397,409	79,572	-0,036	0,028
-396,394	800,000	-0,054	-0,150
-395,379	81,510	0,103	0,081
-394,365	-60,794	0,062	-0,019
-393,350	-200,000	-0,021	0,163
-392,336	91,406	0,059	-0,048
-391,321	-200,000	0,019	-0,114
-390,306	332,910	-0,016	0,023
-389,292	-91,786	-0,203	-0,042
-388,277	-87,854	0,163	-0,035
-387,263	-9,919	0,061	0,030
-386,248	-200,000	-0,023	0,076
-385,233	84,704	-0,089	-0,071
-384,219	800,000	0,041	0,083
-383,204	91,884	-0,078	-0,064
-382,190	800,000	-0,059	-0,121
-381,175	23,377	0,046	0,028
-380,160	-80,367	-0,042	-0,010
-379,146	112,860	0,098	-0,086
-378,131	-200,000	-0,000	-0,069
-377,117	676,553	0,029	0,054
-376,102	-200,000	0,009	0,041
-375,088	178,148	-0,030	0,031
-374,073	-77,088	-0,132	-0,033
-373,058	-140,003	0,043	0,003
-372,044	393,677	0,027	0,040
-371,029	132,553	0,094	0,088
-370,015	6,530	0,147	0,079
-369,000	453,327	-0,039	0,062
-367,985	-99,638	-0,079	-0,014
-366,971	469,729	-0,016	0,026
-365,956	-131,052	0,053	-0,005
-364,942	800,000	0,007	0,021
-363,927	800,000	0,032	-0,101
-362,912	-39,404	-0,077	-0,029
-361,898	-200,000	-0,012	0,063
-360,883	-200,000	0,000	0,043
-359,869	691,880	0,051	-0,097
-358,854	-125,454	-0,106	0,012
-357,839	-200,000	-0,002	-0,007
-356,825	203,362	-0,046	0,052
-355,810	-75,737	-0,066	-0,017
-354,796	-41,490	-0,036	-0,013
-353,781	-152,953	-0,074	-0,004
-352,766	-200,000	0,019	0,072
-351,752	168,890	0,132	0,137
-350,737	618,989	0,042	-0,077
-349,723	-44,879	-0,128	-0,046
-348,708	-200,000	-0,011	0,184
-347,693	538,297	0,058	-0,100
-346,679	-200,000	-0,060	0,198
-345,664	8,571	-0,218	0,118
-344,650	-142,133	-0,069	0,005
-343,635	1,443	-0,096	0,050
-342,620	-148,623	0,110	0,006
-341,606	151,527	-0,074	0,073
-340,591	693,393	-0,017	0,032
-339,577	-8,231	-0,031	-0,015
-338,562	-42,691	-0,139	0,051
-337,548	9,456	-0,083	0,045
-336,533	40,794	0,050	0,033
-335,518	324,885	0,043	0,060
-334,504	38,089	-0,052	-0,033
-333,489	-126,772	0,036	0,004
-332,475	-20,487	-0,093	0,041
-331,460	-2,662	-0,042	0,021
-330,445	-12,417	0,067	0,032
-329,431	646,889	0,058	0,108
-328,416	-200,000	0,029	0,114
-327,402	326,597	-0,051	-0,071
-326,387	728,154	-0,012	-0,024
-325,372	118,287	-0,096	0,086
-324,358	466,021	0,027	-0,043
-323,343	85,998	-0,145	0,116
-322,329	-48,513	0,105	0,036
-321,314	800,000	0,074	0,198
-320,299	119,000	0,066	0,059
-319,285	800,000	-0,033	0,071
-318,270	800,000	-0,034	-0,081
-317,256	39,360	-0,052	0,034
-316,241	-200,000	-0,001	-0,136
-315,226	165,689	0,054	-0,056
-314,212	-2,486	0,149	-0,075
-313,197	117,448	-0,104	-0,092
-312,183	-90,478	0,135	-0,028
-311,168	212,472	-0,016	0,018
-310,153	329,733	-0,103	-0,144
-309,139	23,570	-0,017	-0,010
-308,124	800,000	0,024	0,071
-307,110	-200,000	0,014	0,114
-306,095	43,426	-0,119	0,079
-305,080	-54,125	0,126	0,041
-304,066	-120,958	-0,118	0,014
-303,051	-200,000	0,005	-0,030
-302,037	81,328	-0,048	0,038
-301,022	189,882	-0,041	-0,045
-300,008	91,474	0,095	-0,077
-298,993	-79,751	-0,057	0,014
-297,978	-139,854	-0,053	0,004
-296,964	-46,323	-0,106	0,038
-295,949	-200,000	-0,007	-0,047
-294,935	76,329	0,087	-0,067
-293,920	-200,000	-0,001	0,111
-292,905	-60,380	0,104	-0,032
-291,891	-200,000	-0,017	0,088
-290,876	-117,819	0,069	-0,009
-289,862	800,000	-0,010	0,025
-288,847	113,723	-0,076	0,067
-287,832	128,744	0,037	-0,034
-286,818	800,000	-0,039	0,104
-285,803	-27,664	0,073	0,030
-284,789	356,455	0,015	-0,022
-283,774	-200,000	-0,001	0,121
-282,759	-73,217	-0,041	0,011
-281,745	-37,802	0,153	0,059
-280,730	800,000	0,009	0,019
-279,716	499,994	0,053	-0,088
-278,701	-200,000	0,013	-0,047
-277,686	-84,357	0,103	0,023
-276,672	-200,000	0,026	0,156
-275,657	-154,189	-0,113	0,005
-274,643	-200,000	-0,009	-0,036
-273,628	-200,000	-0,002	-0,071
-272,613	-200,000	-0,060	-0,000
-271,599	139,008	0,045	0,043
-270,584	-200,000	0,017	0,079
-269,570	69,610	0,116	0,086
-268,555	112,818	-0,027	-0,024
-267,540	165,955	-0,153	0,157
-266,526	111,766	0,077	-0,068
-265,511	352,248	0,013	-0,018
-264,497	-92,099	0,128	-0,026
-263,482	-33,672	0,057	0,023
-262,467	-200,000	0,045	0,148
-261,453	-84,535	0,056	-0,013
-260,438	97,536	-0,073	0,061
-259,424	-134,668	-0,038	-0,003
-258,409	-30,533	0,085	-0,035
-257,395	-14,660	0,072	-0,033
-256,380	10,117	0,002	0,001
-255,365	143,606	0,113	0,109
-254,351	201,361	-0,099	0,110
-253,336	382,751	-0,066	-0,098
-252,322	-120,953	0,141	0,017
-251,307	-108,969	-0,119	0,018
-250,292	-11,626	0,047	-0,022
-249,278	-164,668	0,068	0,002
-248,263	131,309	0,169	0,157
-247,249	-143,075	-0,044	0,003
-246,234	-141,712	0,195	0,014
-245,219	198,123	-0,053	0,058
-244,205	-9,762	0,098	0,047
-243,190	544,158	-0,033	-0,057
-242,176	800,000	0,040	0,095
-241,161	4,248	0,118	0,062
-240,146	800,000	-0,012	0,031
-239,132	800,000	-0,032	0,081
-238,117	23,031	0,083	0,049
-237,103	372,990	-0,012	0,018
-236,088	705,222	-0,078	-0,150
-235,073	-200,000	0,018	0,072
-234,059	800,000	0,036	0,085
-233,044	-153,676	0,182	0,009
-232,030	84,886	0,063	-0,050
-231,015	-200,000	-0,019	-0,173
-230,000	-200,000	0,006	-0,074
-228,986	-2,429	0,074	0,037
-227,971	107,520	0,057	-0,049
-226,957	609,409	0,074	0,134
-225,942	-200,000	0,018	0,098
-224,927	-94,800	0,038	-0,007
-223,913	52,115	-0,047	0,032
-222,898	104,716	0,057	-0,048
-221,884	-84,412	0,024	0,005
-220,869	-163,411	0,039	0,001
-219,855	235,348	0,042	-0,050
-218,840	-15,878	0,078	0,036
-217,825	60,648	-0,031	0,022
-216,811	424,373	0,030	0,047
-215,796	-200,000	0,020	0,074
-214,782	96,945	-0,092	-0,076
-213,767	-77,401	0,131	-0,032
-212,752	474,998	0,051	-0,083
-211,738	260,393	0,074	0,092
-210,723	-200,000	-0,027	0,116
-209,709	-80,741	-0,046	-0,011
-208,694	-200,000	-0,005	0,095
-207,679	-42,554	-0,022	0,008
-206,665	332,274	0,058	0,081
-205,650	-21,903	-0,123	0,054
-204,636	-160,356	-0,046	0,002
-203,621	-127,461	-0,189	0,020
-202,606	-24,712	-0,155	-0,066
-201,592	353,390	-0,090	-0,129
-200,577	-11,482	-0,075	-0,036
-199,563	52,914	0,099	0,068
-198,548	800,000	0,027	-0,054
-197,533	-200,000	0,045	0,173
-196,519	55,481	0,114	-0,079
-195,504	83,270	0,096	-0,075
-194,490	800,000	0,028	-0,089
-193,475	800,000	-0,044	-0,106
-192,460	-200,000	0,002	0,086
-191,446	-121,799	0,197	0,023
-190,431	-1,203	0,084	-0,043
-189,417	512,123	-0,041	-0,070
-188,402	-45,125	-0,051	-0,018
-187,387	-200,000	-0,018	-0,082
-186,373	-200,000	-0,004	-0,120
-185,358	-200,000	-0,013	-0,048
-184,344	-200,000	0,008	0,121
-183,329	-200,000	-0,034	0,125
-182,315	-200,000	-0,024	0,123
-181,300	-48,597	-0,021	0,007
-180,285	701,605	-0,029	0,055
-179,271	-200,000	-0,001	-0,107
-178,256	-200,000	-0,028	0,091
-177,242	-169,672	0,155	-0,004
-176,227	40,029	0,160	-0,103
-175,212	114,194	-0,092	0,081
-174,198	-13,987	-0,110	-0,051
-173,183	800,000	0,009	0,022
-172,169	-200,000	0,017	-0,110
-171,154	86,844	0,098	0,078
-170,139	314,849	0,038	0,051
-169,125	137,492	-0,116	0,109
-168,110	262,720	0,113	0,142
-167,096	-59,285	-0,069	0,021
-166,081	415,542	-0,025	0,038
-165,066	246,712	-0,094	0,115
-164,052	-200,000	-0,019	-0,097
-163,037	-27,182	0,057	0,024
-162,023	30,453	0,144	0,088
-161,008	21,847	0,046	-0,027
-159,993	26,900	0,079	-0,047
-158,979	800,000	0,049	-0,113
-157,964	391,100	-0,036	0,054
-156,950	202,276	0,030	0,034
-155,935	-200,000	0,001	-0,023
-154,920	-148,217	0,108	-0,006
-153,906	476,484	0,041	0,066
-152,891	-200,000	-0,014	0,053
-151,877	-19,427	-0,132	0,059
-150,862	-142,094	0,037	0,003
-149,847	-200,000	0,027	-0,086
-148,833	70,817	0,023	-0,017
-147,818	800,000	0,077	-0,181
-146,804	-200,000	0,032	-0,114
-145,789	-200,000	-0,047	0,202
-144,775	-200,000	0,002	-0,133
-143,760	363,808	-0,068	-0,098
-142,745	-147,192	0,021	-0,001
-141,731	-200,000	-0,007	0,126
-140,716	-200,000	0,008	-0,071
-139,702	4,824	0,095	0,050
-138,687	259,641	0,062	0,077
-137,672	5,304	0,032	0,017
-136,658	800,000	-0,041	-0,105
-135,643	137,726	0,050	-0,047
-134,629	119,075	-0,057	-0,051
-133,614	-15,911	0,121	-0,055
-132,599	546,836	0,016	0,028
-131,585	-200,000	0,011	-0,049
-130,570	-200,000	-0,006	-0,151
-129,556	-200,000	-0,016	0,106
-128,541	-153,305	-0,079	0,004
-127,526	14,464	-0,093	0,052
-126,512	152,617	-0,025	0,025
-125,497	497,272	0,025	-0,041
-124,483	-200,000	0,011	0,060
-123,468	774,485	0,025	0,050
-122,453	71,508	0,091	-0,068
-121,439	110,249	-0,029	-0,025
-120,424	-2,268	-0,062	-0,031
-119,410	225,484	0,088	-0,103
