DTS Sentinel unit serial number:	SN410029Multiplexer serial number:	ORYXHardware model number:	OX2-SRSoftware version number:	ORYX F/W v4,00 Oryx Data Collector v3.7.2.0data status	okinstallation	B5 Nyhavnadifferential loss correction	single-endedforward channel	channel 2reverse channel	N/Adate	2023/12/12time	05:47:13forward acquisition time	300,00reverse acquisition time	0,00gamma	499,1914k internal	0,3157k external	0,3157temperature offset calibration	1,0000default loss term (dB/km)	0,3820temperature slope calibration	1,0000multiplexer offset coefficient	1,0000multiplexer slope coefficient	1,0000fibre end	0,00T internal ref (°C)	15,31T ext. ref 1 (°C)	-1,10T ext. ref 2 (°C)	-1,41length (m)	temperature (°C)	Stokes	anti-Stokes-744,400	-154,400	0,055	-0,003
-743,385	-77,673	-0,251	-0,064
-742,371	128,829	0,046	0,043
-741,356	-3,189	-0,296	0,152
-740,342	202,702	0,123	0,140
-739,327	-102,768	-0,226	-0,039
-738,312	10,516	-0,056	-0,031
-737,298	14,322	-0,304	-0,175
-736,283	-114,119	0,089	-0,013
-735,269	-125,807	-0,290	-0,032
-734,254	-200,000	0,008	0,044
-733,239	-103,755	-0,599	-0,102
-732,225	-97,751	0,124	0,023
-731,210	-104,682	-0,082	-0,014
-730,196	320,206	-0,062	-0,087
-729,181	-2,238	0,032	0,016
-728,167	-200,000	-0,043	-0,159
-727,152	-57,356	-0,069	-0,022
-726,137	-79,371	-0,131	-0,032
-725,123	42,554	-0,035	0,023
-724,108	800,000	-0,058	-0,126
-723,094	-200,000	-0,005	-0,180
-722,079	7,262	-0,090	0,050
-721,064	-62,523	-0,101	-0,031
-720,050	-39,198	-0,054	-0,021
-719,035	800,000	-0,068	-0,163
-718,021	109,974	0,035	0,031
-717,006	-140,929	-0,120	0,009
-715,991	602,224	0,030	-0,056
-714,977	-200,000	0,019	-0,118
-713,962	-200,000	-0,010	-0,074
-712,948	424,544	0,074	0,117
-711,933	-97,731	0,075	-0,014
-710,918	-15,867	0,111	-0,052
-709,904	-200,000	0,004	-0,054
-708,889	-94,749	-0,169	-0,034
-707,875	-200,000	-0,034	-0,131
-706,860	-39,490	-0,102	-0,039
-705,845	240,993	-0,058	-0,072
-704,831	-40,884	-0,049	0,018
-703,816	-79,334	-0,126	-0,031
-702,802	-200,000	0,015	-0,089
-701,787	253,543	0,072	-0,091
-700,772	-158,434	-0,208	0,009
-699,758	31,608	0,045	-0,028
-698,743	176,843	0,040	0,043
-697,729	490,379	0,021	-0,036
-696,714	-29,845	0,110	0,046
-695,699	800,000	0,029	-0,069
-694,685	-27,601	-0,036	-0,015
-693,670	188,215	-0,073	-0,080
-692,656	-200,000	-0,018	-0,076
-691,641	-200,000	-0,066	-0,000
-690,627	8,557	0,061	-0,034
-689,612	70,295	0,038	0,029
-688,597	-200,000	0,036	-0,121
-687,583	19,621	-0,075	-0,044
-686,568	0,016	-0,079	-0,041
-685,554	55,946	0,148	-0,105
-684,539	800,000	0,049	-0,121
-683,524	-200,000	0,018	0,096
-682,510	-200,000	0,002	0,108
-681,495	-52,936	-0,047	0,016
-680,481	-104,875	-0,149	-0,025
-679,466	215,777	-0,085	-0,100
-678,451	-76,958	-0,125	0,032
-677,437	-75,913	-0,055	0,014
-676,422	648,395	0,092	0,174
-675,408	-29,298	-0,077	0,032
-674,393	800,000	-0,037	-0,119
-673,378	-14,107	-0,160	-0,076
-672,364	10,842	-0,146	-0,082
-671,349	-200,000	-0,014	-0,105
-670,335	69,458	-0,014	0,011
-669,320	192,237	0,055	0,062
-668,305	27,850	-0,105	-0,065
-667,291	159,374	-0,042	0,043
-666,276	800,000	-0,042	-0,098
-665,262	-200,000	-0,012	-0,126
-664,247	-200,000	0,019	-0,088
-663,232	-200,000	-0,009	-0,066
-662,218	-4,879	-0,032	-0,016
-661,203	164,755	0,076	0,079
-660,189	17,926	0,096	-0,056
-659,174	-87,263	-0,110	0,024
-658,159	20,781	0,056	-0,033
-657,145	800,000	0,071	-0,160
-656,130	-200,000	0,005	-0,125
-655,116	-200,000	0,010	-0,060
-654,101	800,000	-0,056	-0,153
-653,086	275,834	0,108	0,141
-652,072	-81,374	0,145	-0,035
-651,057	144,114	-0,044	0,043
-650,043	126,630	-0,071	-0,066
-649,028	355,902	-0,012	0,018
-648,014	392,133	0,063	0,096
-646,999	-200,000	-0,011	-0,070
-645,984	487,375	0,043	-0,073
-644,970	-200,000	0,017	-0,062
-643,955	800,000	-0,022	0,045
-642,941	150,743	-0,084	0,084
-641,926	-75,276	-0,065	-0,017
-640,911	-200,000	0,005	0,023
-639,897	42,513	-0,064	0,043
-638,882	-109,034	0,131	0,020
-637,868	800,000	-0,042	0,103
-636,853	252,487	0,019	0,024
-635,838	-200,000	-0,009	0,029
-634,824	-200,000	0,012	0,068
-633,809	-33,179	0,114	-0,046
-632,795	-200,000	-0,016	0,109
-631,780	342,874	0,054	-0,078
-630,765	-43,472	0,089	0,033
-629,751	243,774	-0,125	-0,154
-628,736	-200,000	-0,010	-0,084
-627,722	-200,000	0,009	-0,060
-626,707	800,000	0,026	-0,076
-625,692	-200,000	0,003	0,066
-624,678	75,083	-0,089	-0,069
-623,663	800,000	-0,063	0,133
-622,649	-93,198	-0,099	0,020
-621,634	-51,237	-0,093	0,032
-620,619	-56,676	0,122	0,039
-619,605	800,000	0,020	-0,053
-618,590	110,917	0,089	0,079
-617,576	-121,218	-0,171	0,021
-616,561	410,542	-0,056	-0,087
-615,546	54,087	-0,065	-0,046
-614,532	493,130	-0,061	-0,104
-613,517	-111,480	0,110	0,016
-612,503	-200,000	0,009	0,047
-611,488	2,529	0,086	0,045
-610,474	-200,000	-0,010	-0,064
-609,459	545,840	-0,055	0,097
-608,444	78,070	-0,122	-0,096
-607,430	-46,218	-0,123	-0,044
-606,415	191,243	0,060	-0,067
-605,401	-200,000	0,002	0,090
-604,386	-200,000	0,004	-0,051
-603,371	-106,280	0,166	-0,027
-602,357	406,405	0,040	-0,062
-601,342	-200,000	-0,039	-0,238
-600,328	-67,005	-0,193	-0,056
-599,313	21,837	0,124	0,074
-598,298	36,939	-0,096	0,062
-597,284	-200,000	-0,013	0,097
-596,269	-200,000	0,019	0,067
-595,255	-58,299	0,034	0,011
-594,240	-116,340	-0,103	-0,014
-593,225	49,982	0,058	0,040
-592,211	-200,000	-0,019	0,080
-591,196	36,222	0,099	0,064
-590,182	800,000	-0,026	0,079
-589,167	99,406	-0,034	-0,029
-588,152	-46,719	-0,108	-0,039
-587,138	38,837	-0,004	0,002
-586,123	-200,000	0,026	-0,156
-585,109	800,000	-0,044	0,092
-584,094	222,353	-0,146	-0,172
-583,079	62,691	0,012	-0,009
-582,065	-168,810	0,072	-0,002
-581,050	-5,489	-0,041	-0,020
-580,036	-200,000	-0,008	-0,069
-579,021	-51,366	-0,115	0,039
-578,006	55,760	-0,086	-0,061
-576,992	230,974	0,073	-0,088
-575,977	-16,590	-0,117	-0,054
-574,963	800,000	0,047	-0,125
-573,948	800,000	0,027	-0,071
-572,934	800,000	0,034	-0,089
-571,919	-200,000	-0,008	-0,089
-570,904	296,419	-0,084	-0,113
-569,890	-171,707	0,087	-0,002
-568,875	-200,000	-0,009	-0,100
-567,861	-200,000	0,014	0,076
-566,846	-200,000	-0,041	0,167
-565,831	-143,336	0,036	0,002
-564,817	22,304	-0,036	0,022
-563,802	-20,273	0,111	-0,050
-562,788	357,436	-0,076	-0,111
-561,773	10,619	0,100	-0,056
-560,758	800,000	0,019	-0,049
-559,744	-200,000	-0,012	-0,166
-558,729	-200,000	0,015	-0,089
-557,715	25,326	0,157	-0,095
-556,700	97,759	-0,012	0,010
-555,685	27,505	0,092	-0,056
-554,671	442,970	-0,023	-0,036
-553,656	-114,837	0,061	0,008
-552,642	36,245	-0,191	0,123
-551,627	105,030	-0,109	-0,094
-550,612	-200,000	0,034	-0,127
-549,598	-200,000	-0,033	-0,157
-548,583	583,549	-0,048	0,086
-547,569	-112,274	-0,098	0,014
-546,554	-23,195	0,165	0,072
-545,539	-200,000	-0,012	0,047
-544,525	30,456	-0,084	0,052
-543,510	-200,000	0,008	0,039
-542,496	505,803	0,043	-0,073
-541,481	336,716	0,031	-0,044
-540,466	-200,000	-0,012	-0,040
-539,452	1,529	0,072	0,038
-538,437	-200,000	-0,033	0,182
-537,423	226,542	-0,025	-0,029
-536,408	-200,000	-0,017	-0,182
-535,393	-141,737	-0,115	-0,008
-534,379	199,458	-0,055	0,062
-533,364	-126,178	0,081	0,009
-532,350	-200,000	-0,025	0,130
-531,335	-89,216	0,117	-0,025
-530,321	521,038	0,046	-0,079
-529,306	-125,493	-0,116	-0,013
-528,291	53,605	-0,104	-0,073
-527,277	-85,446	-0,071	-0,016
-526,262	349,484	-0,124	-0,180
-525,248	-26,310	0,070	-0,030
-524,233	-50,639	0,103	-0,035
-523,218	183,306	0,069	0,074
-522,204	273,818	-0,047	0,060
-521,189	-22,676	-0,127	-0,056
-520,175	100,226	0,100	-0,085
-519,160	-47,872	0,038	0,014
-518,145	307,938	-0,028	-0,038
-517,131	-134,187	0,041	-0,004
-516,116	-58,028	0,045	0,014
-515,102	-159,059	0,085	-0,003
-514,087	105,446	-0,055	-0,047
-513,072	2,543	-0,061	-0,032
-512,058	-66,940	0,107	0,031
-511,043	59,684	0,048	0,035
-510,029	130,864	-0,057	-0,053
-509,014	-200,000	0,020	-0,090
-507,999	144,962	0,084	0,083
-506,985	561,946	0,059	0,105
-505,970	-99,993	-0,056	-0,010
-504,956	44,111	-0,054	-0,036
-503,941	-200,000	0,019	-0,088
-502,926	-158,326	-0,122	0,005
-501,912	97,588	0,072	0,061
-500,897	800,000	-0,028	0,067
-499,883	-200,000	0,036	-0,165
-498,868	601,152	-0,040	0,073
-497,853	-77,283	-0,103	0,026
-496,839	-200,000	0,008	0,095
-495,824	-119,434	-0,056	0,007
-494,810	576,677	-0,036	0,065
-493,795	-200,000	0,023	0,177
-492,781	800,000	-0,069	0,167
-491,766	-80,197	0,068	0,017
-490,751	800,000	-0,046	-0,094
-489,737	-111,526	-0,084	-0,012
-488,722	754,075	0,022	-0,043
-487,708	58,062	0,156	-0,112
-486,693	-163,605	-0,045	0,002
-485,678	-200,000	-0,037	-0,120
-484,664	73,721	-0,097	0,074
-483,649	800,000	-0,039	-0,088
-482,635	56,230	-0,072	0,051
-481,620	43,341	0,025	-0,017
-480,605	-200,000	-0,017	0,146
-479,591	-35,702	0,041	-0,016
-478,576	-27,626	-0,152	-0,064
-477,562	358,502	-0,071	-0,104
-476,547	-200,000	-0,004	-0,048
-475,532	90,047	-0,033	-0,027
-474,518	150,963	0,034	0,033
-473,503	-200,000	0,020	0,096
-472,489	800,000	0,013	-0,031
-471,474	18,657	0,108	0,063
-470,459	269,767	-0,081	0,104
-469,445	106,965	-0,035	-0,031
-468,430	-58,492	-0,062	-0,020
-467,416	35,392	0,040	0,026
-466,401	-200,000	0,022	-0,098
-465,386	-200,000	0,009	0,038
-464,372	800,000	0,086	0,180
-463,357	385,278	-0,059	-0,089
-462,343	141,311	-0,110	0,106
-461,328	88,047	-0,056	-0,045
-460,313	367,265	0,074	0,109
-459,299	-200,000	0,013	-0,119
-458,284	-157,804	0,076	-0,003
-457,270	-77,303	0,083	0,021
-456,255	-152,660	-0,072	0,004
-455,241	185,531	0,047	-0,051
-454,226	240,716	-0,073	-0,089
-453,211	-200,000	0,021	0,174
-452,197	800,000	0,030	-0,070
-451,182	800,000	0,058	0,119
-450,168	-60,459	0,104	-0,032
-449,153	-200,000	0,005	-0,034
-448,138	125,528	-0,062	-0,057
-447,124	-161,812	0,034	0,001
-446,109	800,000	-0,049	0,100
-445,095	169,665	-0,037	0,039
-444,080	656,570	0,010	-0,020
-443,065	-153,480	0,045	0,002
-442,051	800,000	0,067	-0,146
-441,036	-44,096	-0,107	-0,039
-440,022	362,056	-0,035	-0,051
-439,007	-200,000	-0,055	0,000
-437,992	-16,975	0,004	-0,002
-436,978	-200,000	-0,031	0,112
-435,963	2,459	-0,086	-0,045
-434,949	123,673	-0,017	0,016
-433,934	201,247	-0,087	-0,098
-432,919	50,952	0,085	0,058
-431,905	-41,345	-0,069	0,026
-430,890	506,749	-0,004	-0,007
-429,876	800,000	-0,030	0,095
-428,861	-187,360	-0,085	0,001
-427,846	113,289	0,087	0,077
-426,832	245,980	-0,046	-0,057
-425,817	800,000	-0,001	-0,004
-424,803	-40,023	-0,077	0,029
-423,788	-200,000	-0,027	-0,181
-422,773	707,513	-0,022	0,042
-421,759	-200,000	-0,010	0,057
-420,744	-200,000	-0,032	0,204
-419,730	447,725	0,030	-0,049
-418,715	-200,000	0,002	-0,048
-417,701	-96,707	-0,077	-0,015
-416,686	179,058	0,048	0,052
-415,671	40,142	0,047	0,031
-414,657	-107,034	0,130	0,021
-413,642	190,885	-0,117	0,128
-412,628	112,430	-0,110	0,097
-411,613	800,000	-0,013	-0,028
-410,598	-2,017	0,099	0,050
-409,584	367,303	0,074	-0,110
-408,569	-185,650	0,065	-0,001
-407,555	-200,000	0,026	0,110
-406,540	-114,525	0,023	0,003
-405,525	800,000	0,026	0,060
-404,511	-200,000	-0,008	-0,061
-403,496	63,294	-0,033	0,024
-402,482	34,023	0,100	-0,063
-401,467	800,000	0,017	0,044
-400,452	-143,208	-0,118	0,008
-399,438	-51,508	0,039	0,013
-398,423	-75,633	-0,065	-0,017
-397,409	85,728	0,054	0,044
-396,394	577,722	0,027	-0,048
-395,379	493,789	-0,057	-0,096
-394,365	-200,000	0,002	-0,051
-393,350	-200,000	0,007	0,027
-392,336	-103,441	0,129	-0,022
-391,321	193,916	-0,045	0,050
-390,306	-65,967	0,069	0,020
-389,292	-19,563	-0,100	0,045
-388,277	187,935	-0,027	0,029
-387,263	-74,858	0,078	0,020
-386,248	188,330	-0,075	0,082
-385,233	313,781	0,044	0,061
-384,219	-200,000	-0,015	0,055
-383,204	56,087	0,100	-0,071
-382,190	49,198	-0,109	0,075
-381,175	800,000	-0,013	0,027
-380,160	64,924	0,065	-0,048
-379,146	263,320	-0,056	0,071
-378,131	-12,930	0,122	0,058
-377,117	122,243	0,073	0,066
-376,102	55,908	-0,073	0,051
-375,088	6,723	0,111	-0,060
-374,073	-25,968	-0,058	-0,025
-373,058	-47,786	-0,049	-0,017
-372,044	480,963	0,078	0,129
-371,029	-64,411	-0,019	0,006
-370,015	-200,000	-0,001	0,112
-369,000	-27,668	0,026	0,011
-367,985	-126,017	-0,174	-0,019
-366,971	-26,821	0,047	0,020
-365,956	-74,586	0,088	-0,023
-364,942	107,215	-0,080	0,069
-363,927	-14,158	0,050	0,023
-362,912	-48,207	0,046	-0,016
-361,898	101,981	-0,152	-0,129
-360,883	38,690	0,023	-0,015
-359,869	8,176	0,087	-0,047
-358,854	-121,619	0,101	0,012
-357,839	-200,000	-0,019	0,085
-356,825	120,563	0,048	0,043
-355,810	205,940	0,109	-0,123
-354,796	-57,369	-0,042	0,013
-353,781	800,000	-0,021	0,059
-352,766	-46,132	-0,040	-0,014
-351,752	-200,000	0,036	-0,166
-350,737	-39,420	0,077	-0,029
-349,723	108,020	0,057	-0,050
-348,708	30,235	0,108	-0,067
-347,693	-102,219	-0,136	-0,023
-346,679	654,429	0,042	-0,079
-345,664	121,013	0,026	0,024
-344,650	280,530	-0,076	-0,098
-343,635	-200,000	0,114	-0,000
-342,620	800,000	0,055	0,123
-341,606	60,456	-0,122	-0,088
-340,591	-200,000	0,034	-0,149
-339,577	-29,415	-0,103	0,043
-338,562	-81,259	0,049	-0,012
-337,548	587,100	-0,028	-0,049
-336,533	-200,000	0,012	0,070
-335,518	-200,000	-0,011	0,071
-334,504	-130,319	-0,091	-0,009
-333,489	-140,046	-0,019	0,001
-332,475	-62,901	-0,079	-0,024
-331,460	800,000	-0,060	-0,132
-330,445	477,048	0,068	0,112
-329,431	138,052	0,117	-0,112
-328,416	-36,504	0,113	0,044
-327,402	-200,000	0,023	0,173
-326,387	-200,000	-0,019	-0,107
-325,372	72,159	-0,042	0,031
-324,358	800,000	-0,023	0,047
-323,343	666,792	0,022	-0,041
-322,329	123,505	0,065	0,059
-321,314	13,012	0,096	0,054
-320,299	122,458	-0,089	0,081
-319,285	670,481	0,056	0,105
-318,270	57,233	-0,089	-0,063
-317,256	159,494	-0,122	-0,123
-316,241	-126,578	0,080	-0,009
-315,226	-66,816	0,060	0,017
-314,212	-200,000	0,024	-0,079
-313,197	800,000	0,026	-0,073
-312,183	-102,129	0,025	-0,004
-311,168	800,000	0,028	0,063
-310,153	-200,000	-0,025	-0,080
-309,139	-115,730	-0,150	-0,020
-308,124	800,000	0,005	-0,014
-307,110	-200,000	0,012	0,060
-306,095	-200,000	-0,018	0,096
-305,080	194,405	-0,077	-0,085
-304,066	186,459	-0,111	0,119
-303,051	-92,222	-0,061	0,012
-302,037	-200,000	-0,002	-0,036
-301,022	-200,000	-0,003	0,068
-300,008	-200,000	0,010	0,078
-298,993	49,559	0,048	0,033
-297,978	-8,687	-0,052	-0,025
-296,964	-18,633	0,006	0,003
-295,949	800,000	-0,059	-0,149
-294,935	143,616	-0,061	0,059
-293,920	-107,011	0,180	-0,029
-292,905	-65,065	-0,006	0,002
-291,891	-37,744	0,147	0,056
-290,876	114,008	0,152	-0,134
-289,862	-200,000	0,010	0,112
-288,847	11,157	0,033	0,018
-287,832	800,000	0,049	-0,106
-286,818	20,407	0,093	-0,054
-285,803	111,109	0,067	-0,059
-284,789	249,982	0,087	-0,108
-283,774	14,018	-0,054	0,030
-282,759	-200,000	-0,005	0,060
-281,745	-101,011	-0,089	-0,016
-280,730	-200,000	0,007	-0,048
-279,716	-200,000	-0,001	-0,021
-278,701	165,834	-0,032	0,033
-277,686	-35,772	0,144	0,056
-276,672	-200,000	-0,024	0,078
-275,657	-103,429	-0,185	-0,031
-274,643	247,281	-0,066	-0,081
-273,628	-126,024	-0,057	0,006
-272,613	698,374	-0,052	0,100
-271,599	-98,946	0,093	-0,017
-270,584	-30,346	0,067	-0,027
-269,570	34,325	-0,046	0,029
-268,555	-76,464	0,050	-0,013
-267,540	369,787	0,014	-0,021
-266,526	-200,000	0,015	-0,063
-265,511	-14,809	-0,154	0,071
-264,497	-200,000	-0,012	0,049
-263,482	581,496	-0,036	0,064
-262,467	-152,244	0,066	-0,003
-261,453	5,498	-0,174	0,093
-260,438	-84,949	-0,032	0,007
-259,424	697,794	-0,038	0,073
-258,409	-14,322	-0,064	-0,030
-257,395	24,983	0,121	-0,072
-256,380	800,000	-0,009	0,022
-255,365	507,382	0,099	-0,166
-254,351	230,456	0,045	0,054
-253,336	-200,000	-0,034	0,112
-252,322	83,408	-0,036	-0,029
-251,307	701,880	0,045	-0,085
-250,292	-200,000	-0,031	0,159
-249,278	29,059	0,142	0,087
-248,263	-7,061	-0,131	-0,064
-247,249	110,125	0,059	-0,051
-246,234	-200,000	-0,007	0,049
-245,219	474,572	-0,038	-0,062
-244,205	-31,408	0,105	-0,043
-243,190	124,239	0,060	-0,054
-242,176	2,712	0,031	0,016
-241,161	-38,491	0,009	0,003
-240,146	-200,000	0,015	0,146
-239,132	58,834	0,030	0,021
-238,117	-110,629	-0,175	0,026
-237,103	-38,873	-0,046	0,017
-236,088	534,086	0,073	-0,126
-235,073	-152,134	-0,138	0,007
-234,059	52,722	0,051	0,035
-233,044	-14,334	0,023	-0,011
-232,030	116,745	-0,089	-0,079
-231,015	96,095	0,064	0,053
-230,000	-200,000	-0,027	-0,100
-228,986	-61,723	-0,142	-0,043
-227,971	-38,378	0,123	0,047
-226,957	-11,185	-0,108	-0,051
-225,942	205,129	0,015	-0,017
-224,927	800,000	0,022	-0,055
-223,913	-8,578	-0,086	-0,042
-222,898	800,000	0,040	0,100
-221,884	-200,000	-0,026	0,119
-220,869	-103,240	0,167	-0,028
-219,855	-200,000	0,004	0,062
-218,840	-58,867	0,188	0,058
-217,825	-200,000	0,023	0,125
-216,811	270,254	0,030	0,038
-215,796	107,298	-0,084	-0,072
-214,782	487,346	-0,024	-0,040
-213,767	82,637	0,076	-0,059
-212,752	-176,406	-0,030	0,001
-211,738	-67,620	0,067	-0,019
-210,723	-120,443	0,062	0,008
-209,709	800,000	-0,019	-0,048
-208,694	-200,000	-0,022	-0,093
-207,679	-106,895	0,055	-0,009
-206,665	18,703	0,072	0,041
-205,650	60,932	0,059	0,043
-204,636	48,967	0,147	0,099
-203,621	530,802	-0,016	-0,028
-202,606	-200,000	0,003	-0,091
-201,592	-200,000	0,017	-0,058
-200,577	146,941	0,031	-0,030
-199,563	-120,046	-0,073	0,009
-198,548	800,000	0,082	0,170
-197,533	-142,746	-0,063	0,004
-196,519	-200,000	0,002	-0,087
-195,504	-61,026	0,152	0,046
-194,490	314,295	-0,015	0,020
-193,475	636,226	0,033	0,060
-192,460	-200,000	0,006	0,130
-191,446	97,941	-0,003	0,003
-190,431	-109,312	0,098	0,015
-189,417	164,236	-0,033	-0,034
-188,402	-179,994	0,036	-0,001
-187,387	-114,268	-0,101	0,014
-186,373	450,080	0,050	0,080
-185,358	351,502	0,041	-0,059
-184,344	-146,899	0,090	-0,006
-183,329	-29,473	0,097	-0,040
-182,315	243,741	-0,084	0,102
-181,300	330,414	0,043	-0,060
-180,285	204,473	0,063	-0,070
-179,271	-10,267	-0,038	-0,018
-178,256	-68,479	-0,087	0,024
-177,242	-161,667	0,055	0,002
-176,227	-72,851	-0,087	0,023
-175,212	335,258	0,042	0,059
-174,198	-200,000	-0,019	0,153
-173,183	33,268	-0,036	-0,023
-172,169	461,371	-0,049	-0,079
-171,154	-73,605	-0,081	-0,021
-170,139	-10,242	0,164	-0,078
-169,125	800,000	0,048	0,118
-168,110	515,656	-0,073	-0,123
-167,096	34,216	0,129	0,081
-166,081	-200,000	-0,034	0,159
-165,066	-118,543	-0,144	-0,018
-164,052	-25,663	-0,046	0,020
-163,037	110,030	0,068	0,058
-162,023	-200,000	0,012	0,099
-161,008	-52,019	0,171	-0,057
-159,993	122,325	-0,144	0,130
-158,979	323,183	-0,034	0,047
-157,964	605,033	-0,047	-0,084
-156,950	800,000	-0,007	-0,018
-155,935	-128,213	0,155	0,016
-154,920	-200,000	-0,020	0,119
-153,906	-200,000	0,010	0,065
-152,891	375,455	0,019	-0,028
-151,877	-200,000	0,021	-0,089
-150,862	75,952	0,009	-0,007
-149,847	-200,000	0,014	-0,084
-148,833	-200,000	0,010	0,076
-147,818	-200,000	0,002	-0,077
-146,804	94,481	0,044	0,036
-145,789	113,647	0,103	0,090
-144,775	-146,361	-0,088	0,005
-143,760	-200,000	-0,022	-0,076
-142,745	448,374	-0,109	-0,174
-141,731	-200,000	-0,008	-0,049
-140,716	800,000	-0,024	-0,068
-139,702	-91,725	0,151	0,031
-138,687	376,088	-0,023	-0,034
-137,672	569,149	0,079	-0,138
-136,658	58,253	0,112	0,079
-135,643	213,934	-0,019	0,021
-134,629	-132,320	-0,063	-0,006
-133,614	-200,000	0,008	0,054
-132,599	193,994	0,024	-0,026
-131,585	800,000	0,015	0,034
-130,570	5,006	-0,107	0,057
-129,556	159,820	-0,035	-0,035
-128,541	800,000	-0,013	-0,041
-127,526	-49,008	0,106	-0,036
-126,512	-9,512	0,068	0,032
-125,497	96,697	-0,115	-0,095
-124,483	800,000	0,018	-0,054
-123,468	800,000	0,018	-0,045
-122,453	-95,999	-0,090	0,017
-121,439	281,646	0,082	-0,105
-120,424	264,256	0,030	-0,037
-119,410	-141,559	0,149	-0,011
