DTS Sentinel unit serial number:	SN410029Multiplexer serial number:	ORYXHardware model number:	OX2-SRSoftware version number:	ORYX F/W v4,00 Oryx Data Collector v3.7.2.0data status	okinstallation	B5 Nyhavnadifferential loss correction	single-endedforward channel	channel 2reverse channel	N/Adate	2023/12/12time	19:02:13forward acquisition time	300,00reverse acquisition time	0,00gamma	499,1914k internal	0,3156k external	0,3156temperature offset calibration	1,0000default loss term (dB/km)	0,3820temperature slope calibration	1,0000multiplexer offset coefficient	1,0000multiplexer slope coefficient	1,0000fibre end	0,00T internal ref (°C)	15,52T ext. ref 1 (°C)	-1,10T ext. ref 2 (°C)	-1,41length (m)	temperature (°C)	Stokes	anti-Stokes-744,400	-77,082	0,091	0,023
-743,385	-46,185	-0,314	0,113
-742,371	23,158	0,136	-0,082
-741,356	-92,255	-0,355	0,073
-740,342	131,759	0,024	-0,023
-739,327	-88,232	-0,310	-0,068
-738,312	-33,842	0,203	-0,082
-737,298	-92,532	-0,444	0,091
-736,283	-57,580	0,101	0,032
-735,269	-105,220	-0,396	0,066
-734,254	40,713	0,074	-0,049
-733,239	-50,452	-0,584	-0,202
-732,225	-132,811	0,217	-0,020
-731,210	10,302	-0,170	0,095
-730,196	-52,218	-0,091	0,031
-729,181	223,647	-0,014	0,017
-728,167	132,083	0,106	0,101
-727,152	-45,984	-0,051	0,018
-726,137	436,933	-0,080	0,128
-725,123	800,000	-0,015	0,039
-724,108	40,981	-0,052	0,034
-723,094	219,826	0,025	-0,029
-722,079	155,362	-0,047	0,047
-721,064	-165,644	0,047	-0,001
-720,050	-92,040	-0,086	-0,018
-719,035	-200,000	-0,004	0,040
-718,021	32,210	-0,155	-0,099
-717,006	-56,605	-0,192	0,062
-715,991	69,321	-0,163	-0,124
-714,977	-100,003	0,096	-0,017
-713,962	-35,833	-0,068	0,027
-712,948	800,000	0,039	-0,104
-711,933	-53,316	0,110	0,037
-710,918	115,263	-0,071	0,064
-709,904	-65,040	0,093	0,027
-708,889	133,686	-0,091	-0,087
-707,875	-200,000	-0,019	-0,108
-706,860	400,858	-0,056	-0,087
-705,845	-183,047	-0,148	-0,002
-704,831	-129,344	-0,073	0,007
-703,816	276,310	-0,072	-0,095
-702,802	-200,000	-0,027	0,096
-701,787	-200,000	-0,004	-0,057
-700,772	-64,352	-0,081	-0,024
-699,758	-45,589	-0,115	-0,042
-698,743	-179,435	-0,167	-0,003
-697,729	800,000	0,022	0,053
-696,714	-200,000	0,022	0,103
-695,699	-90,209	-0,117	-0,025
-694,685	561,885	0,047	-0,084
-693,670	-200,000	-0,026	-0,164
-692,656	-65,149	-0,062	0,018
-691,641	-78,425	0,088	-0,022
-690,627	800,000	0,023	-0,057
-689,612	171,808	-0,077	-0,081
-688,597	800,000	-0,010	0,026
-687,583	-200,000	-0,003	0,106
-686,568	38,609	-0,023	-0,015
-685,554	-200,000	0,036	-0,120
-684,539	-114,479	-0,047	-0,007
-683,524	-13,602	0,092	0,044
-682,510	206,499	-0,056	-0,064
-681,495	6,736	-0,060	-0,033
-680,481	800,000	-0,064	-0,202
-679,466	-85,553	-0,168	-0,038
-678,451	-200,000	-0,027	-0,130
-677,437	789,717	-0,054	-0,111
-676,422	-29,635	-0,077	-0,032
-675,408	-31,748	-0,144	-0,059
-674,393	3,221	-0,066	0,035
-673,378	32,741	-0,117	-0,074
-672,364	-200,000	-0,001	-0,176
-671,349	-172,195	0,026	-0,001
-670,335	-98,665	-0,042	-0,008
-669,320	274,839	-0,032	-0,042
-668,305	-67,222	-0,007	0,002
-667,291	476,500	-0,121	0,202
-666,276	366,501	-0,042	0,062
-665,262	32,430	-0,071	-0,045
-664,247	-18,806	-0,162	-0,074
-663,232	-129,760	-0,111	0,011
-662,218	-200,000	-0,019	0,085
-661,203	-139,093	0,030	0,002
-660,189	182,208	0,091	-0,099
-659,174	-133,315	-0,155	-0,014
-658,159	-109,996	-0,078	-0,012
-657,145	-73,410	-0,149	0,040
-656,130	55,455	0,061	-0,043
-655,116	20,202	-0,068	0,040
-654,101	319,712	-0,041	0,057
-653,086	-127,313	-0,088	0,009
-652,072	392,961	-0,018	-0,028
-651,057	547,142	-0,069	0,122
-650,043	-117,565	-0,073	-0,010
-649,028	-200,000	-0,039	-0,147
-648,014	96,012	0,025	0,021
-646,999	-109,942	-0,119	0,018
-645,984	800,000	0,004	-0,009
-644,970	-164,977	-0,156	-0,005
-643,955	800,000	-0,024	-0,062
-642,941	49,698	-0,125	-0,086
-641,926	376,285	-0,048	-0,072
-640,911	131,708	0,021	-0,019
-639,897	257,200	0,046	0,058
-638,882	800,000	0,059	0,125
-637,868	61,883	0,084	0,061
-636,853	-200,000	0,019	0,077
-635,838	-105,041	-0,161	-0,027
-634,824	28,586	0,037	-0,023
-633,809	-200,000	0,017	0,136
-632,795	-61,658	0,097	-0,030
-631,780	412,476	-0,091	0,142
-630,765	-200,000	0,012	0,129
-629,751	-97,184	-0,100	0,019
-628,736	-38,851	-0,093	-0,036
-627,722	50,899	-0,052	0,036
-626,707	187,409	-0,052	0,057
-625,692	259,484	0,039	0,049
-624,678	-200,000	0,011	0,047
-623,663	-13,337	-0,051	0,024
-622,649	-200,000	-0,015	0,095
-621,634	583,895	-0,023	0,041
-620,619	-200,000	-0,002	0,131
-619,605	-86,230	-0,033	0,008
-618,590	532,787	0,029	0,050
-617,576	655,875	-0,024	0,045
-616,561	225,885	-0,062	0,073
-615,546	-200,000	-0,029	0,101
-614,532	800,000	-0,044	-0,094
-613,517	116,913	0,068	0,062
-612,503	800,000	0,074	0,178
-611,488	95,616	0,100	-0,084
-610,474	-5,437	-0,053	0,027
-609,459	-200,000	0,003	0,015
-608,444	-200,000	-0,016	-0,180
-607,430	-24,895	-0,072	0,031
-606,415	-177,781	-0,109	0,002
-605,401	-200,000	-0,039	0,146
-604,386	217,389	0,050	-0,059
-603,371	370,486	-0,047	-0,069
-602,357	-106,918	0,024	-0,004
-601,342	63,426	-0,080	-0,058
-600,328	209,648	-0,029	0,033
-599,313	564,659	0,046	-0,082
-598,298	-200,000	0,006	0,043
-597,284	-165,006	0,086	-0,003
-596,269	800,000	-0,035	0,098
-595,255	-73,889	-0,075	-0,020
-594,240	-63,898	-0,076	0,023
-593,225	-116,075	0,125	0,017
-592,211	800,000	0,029	-0,073
-591,196	76,662	0,070	0,054
-590,182	-200,000	-0,007	-0,038
-589,167	24,976	0,081	-0,049
-588,152	-126,968	0,015	0,002
-587,138	-200,000	-0,007	-0,051
-586,123	181,701	-0,040	0,043
-585,109	-33,150	0,095	0,039
-584,094	-72,434	-0,082	-0,022
-583,079	197,037	0,041	0,046
-582,065	-200,000	0,023	-0,084
-581,050	38,994	0,067	-0,044
-580,036	-200,000	-0,002	0,123
-579,021	-200,000	-0,009	-0,067
-578,006	-108,954	0,083	-0,013
-576,992	166,298	0,026	0,027
-575,977	615,306	0,026	-0,048
-574,963	102,489	0,140	0,120
-573,948	-200,000	0,026	0,084
-572,934	26,511	-0,073	0,045
-571,919	119,083	-0,080	-0,072
-570,904	-200,000	-0,012	-0,121
-569,890	722,522	0,028	-0,054
-568,875	33,659	0,032	0,020
-567,861	327,019	-0,053	0,075
-566,846	-42,868	-0,090	0,033
-565,831	157,148	0,067	-0,068
-564,817	472,014	-0,055	-0,090
-563,802	103,197	-0,048	-0,041
-562,788	-200,000	0,000	-0,101
-561,773	-142,685	0,106	0,008
-560,758	-200,000	0,022	-0,086
-559,744	-149,294	-0,087	0,005
-558,729	-102,174	-0,100	0,017
-557,715	-115,948	-0,092	-0,012
-556,700	1,622	-0,064	0,034
-555,685	235,468	0,036	0,044
-554,671	-93,864	0,176	-0,035
-553,656	800,000	0,048	-0,134
-552,642	221,671	-0,042	0,050
-551,627	-200,000	0,010	0,043
-550,612	-74,508	0,116	-0,030
-549,598	532,310	-0,049	-0,085
-548,583	-200,000	-0,018	-0,092
-547,569	-104,010	0,159	0,027
-546,554	-200,000	0,001	-0,086
-545,539	64,947	-0,105	-0,077
-544,525	738,346	-0,080	-0,157
-543,510	157,179	0,063	0,063
-542,496	206,635	-0,026	-0,030
-541,481	1,489	-0,061	-0,032
-540,466	-200,000	-0,006	-0,132
-539,452	-200,000	0,009	-0,135
-538,437	-200,000	0,002	-0,032
-537,423	800,000	-0,077	-0,169
-536,408	124,429	0,028	-0,026
-535,393	800,000	-0,041	0,088
-534,379	800,000	0,013	0,027
-533,364	162,900	-0,106	0,109
-532,350	28,451	0,070	0,043
-531,335	-152,811	-0,115	0,006
-530,321	202,914	0,031	0,036
-529,306	187,858	-0,069	-0,075
-528,291	-82,523	-0,120	-0,028
-527,277	400,063	-0,085	-0,130
-526,262	-200,000	-0,001	-0,015
-525,248	366,527	0,074	-0,109
-524,233	766,534	0,036	-0,071
-523,218	-33,671	-0,065	-0,026
-522,204	-200,000	0,000	-0,007
-521,189	147,680	-0,088	-0,086
-520,175	76,274	-0,047	-0,037
-519,160	199,170	0,063	-0,071
-518,145	-112,021	0,034	0,005
-517,131	25,572	0,057	0,035
-516,116	297,242	0,048	0,065
-515,102	63,019	-0,136	-0,099
-514,087	69,505	-0,049	-0,037
-513,072	294,105	-0,038	-0,051
-512,058	-200,000	-0,030	-0,127
-511,043	-200,000	-0,006	0,034
-510,029	-200,000	0,020	0,100
-509,014	200,468	-0,053	0,060
-507,999	-15,451	-0,046	0,021
-506,985	746,571	-0,084	-0,167
-505,970	-200,000	0,000	-0,088
-504,956	102,392	-0,094	0,080
-503,941	746,715	-0,020	0,040
-502,926	87,719	0,076	0,061
-501,912	191,843	0,101	0,112
-500,897	91,675	0,062	0,051
-499,883	-29,217	-0,216	-0,090
-498,868	777,222	-0,030	-0,061
-497,853	16,968	0,045	-0,026
-496,839	-73,138	-0,099	-0,026
-495,824	-200,000	-0,018	0,061
-494,810	297,248	0,078	0,105
-493,795	-200,000	0,002	0,026
-492,781	-29,834	-0,040	-0,016
-491,766	460,182	-0,045	-0,073
-490,751	93,559	0,084	-0,070
-489,737	-200,000	0,004	-0,091
-488,722	-200,000	-0,013	-0,072
-487,708	800,000	-0,013	-0,037
-486,693	-200,000	-0,094	0,000
-485,678	-63,515	0,083	-0,025
-484,664	-93,081	-0,092	-0,019
-483,649	800,000	0,017	-0,038
-482,635	-200,000	0,022	-0,127
-481,620	-200,000	-0,034	-0,143
-480,605	154,731	-0,158	0,159
-479,591	513,089	-0,030	0,051
-478,576	-128,866	0,068	-0,007
-477,562	800,000	0,016	-0,034
-476,547	-171,312	0,034	0,001
-475,532	94,081	0,056	-0,046
-474,518	129,295	-0,087	-0,081
-473,503	-111,877	0,198	0,029
-472,489	266,099	-0,034	0,044
-471,474	-200,000	-0,016	0,091
-470,459	733,433	-0,021	-0,042
-469,445	477,483	0,030	-0,050
-468,430	59,165	-0,037	0,027
-467,416	220,248	-0,039	0,046
-466,401	369,968	0,043	0,064
-465,386	800,000	0,066	0,179
-464,372	288,991	-0,016	0,022
-463,357	408,029	0,004	0,006
-462,343	118,179	0,004	0,003
-461,328	30,946	0,120	-0,075
-460,313	-26,085	0,047	0,020
-459,299	800,000	-0,043	0,120
-458,284	800,000	-0,013	0,036
-457,270	-200,000	-0,032	0,155
-456,255	-70,843	0,007	0,002
-455,241	800,000	-0,026	-0,065
-454,226	-200,000	0,008	0,050
-453,211	-70,579	0,051	-0,014
-452,197	290,745	-0,048	-0,063
-451,182	200,844	0,072	0,081
-450,168	800,000	-0,028	0,075
-449,153	-87,637	-0,121	-0,026
-448,138	43,956	-0,060	0,040
-447,124	404,763	0,061	-0,094
-446,109	107,718	0,074	-0,064
-445,095	-59,912	-0,057	0,018
-444,080	-200,000	-0,021	-0,086
-443,065	73,340	-0,041	0,032
-442,051	158,465	-0,083	-0,084
-441,036	-200,000	0,005	-0,135
-440,022	800,000	-0,036	-0,076
-439,007	-200,000	0,010	0,057
-437,992	-200,000	-0,019	0,077
-436,978	92,850	0,075	0,062
-435,963	-200,000	-0,001	-0,031
-434,949	-59,267	-0,101	0,031
-433,934	164,235	0,049	0,050
-432,919	197,204	-0,070	-0,078
-431,905	110,402	-0,035	-0,031
-430,890	800,000	0,041	-0,089
-429,876	-200,000	0,004	-0,074
-428,861	83,029	0,027	0,022
-427,846	-172,590	-0,027	-0,001
-426,832	432,965	0,017	-0,026
-425,817	-200,000	-0,015	-0,104
-424,803	660,459	-0,038	0,072
-423,788	800,000	0,028	-0,059
-422,773	25,048	-0,022	-0,013
-421,759	-200,000	0,013	0,062
-420,744	-200,000	-0,022	0,086
-419,730	23,179	-0,023	0,014
-418,715	-71,659	-0,099	-0,027
-417,701	-53,080	-0,086	-0,028
-416,686	35,152	0,143	0,091
-415,671	-200,000	-0,008	0,097
-414,657	350,458	-0,012	0,017
-413,642	-166,456	0,070	0,002
-412,628	-159,675	-0,168	0,007
-411,613	-128,908	-0,037	-0,004
-410,598	0,536	0,057	0,030
-409,584	-200,000	0,024	-0,092
-408,569	80,035	-0,049	0,038
-407,555	-107,379	0,090	0,014
-406,540	173,969	-0,012	0,012
-405,525	800,000	0,016	-0,051
-404,511	-200,000	-0,018	0,063
-403,496	65,313	-0,036	-0,027
-402,482	-200,000	0,006	0,075
-401,467	-65,228	0,111	-0,032
-400,452	274,918	-0,039	0,051
-399,438	31,381	0,019	-0,012
-398,423	644,864	-0,067	0,126
-397,409	800,000	-0,012	0,032
-396,394	-9,198	-0,007	0,003
-395,379	16,588	0,053	0,030
-394,365	-118,157	0,103	-0,013
-393,350	25,554	0,035	0,021
-392,336	71,570	-0,041	-0,031
-391,321	699,392	-0,070	-0,135
-390,306	7,616	0,092	0,050
-389,292	-166,651	-0,148	0,004
-388,277	-105,503	0,075	-0,012
-387,263	-155,501	0,114	-0,005
-386,248	35,126	0,087	0,055
-385,233	-200,000	-0,013	-0,094
-384,219	163,142	-0,032	0,032
-383,204	284,328	0,009	-0,012
-382,190	-200,000	-0,019	-0,125
-381,175	-151,300	0,046	-0,002
-380,160	-200,000	0,031	0,173
-379,146	800,000	0,069	0,145
-378,131	-90,004	0,072	-0,015
-377,117	-200,000	0,031	-0,122
-376,102	391,752	-0,066	-0,100
-375,088	-76,473	-0,045	-0,012
-374,073	650,444	0,043	-0,080
-373,058	-36,959	0,045	0,018
-372,044	-200,000	-0,007	-0,111
-371,029	-66,362	0,160	0,046
-370,015	-200,000	0,019	0,098
-369,000	-127,855	0,130	-0,013
-367,985	113,701	-0,125	-0,110
-366,971	441,226	0,031	0,050
-365,956	800,000	-0,045	0,123
-364,942	-26,044	0,136	-0,058
-363,927	-125,613	0,174	0,019
-362,912	222,934	-0,115	-0,135
-361,898	-125,133	-0,140	-0,015
-360,883	57,520	-0,053	-0,038
-359,869	188,567	0,058	-0,063
-358,854	-200,000	-0,002	0,047
-357,839	19,204	0,095	-0,055
-356,825	800,000	-0,038	0,085
-355,810	284,170	-0,079	-0,103
-354,796	-134,588	-0,085	-0,007
-353,781	-116,475	-0,066	-0,009
-352,766	-24,725	0,096	-0,041
-351,752	-12,691	0,050	-0,024
-350,737	-44,156	0,055	-0,020
-349,723	636,134	0,061	0,113
-348,708	-200,000	0,001	0,088
-347,693	-200,000	0,011	-0,145
-346,679	-151,026	-0,146	-0,008
-345,664	-200,000	0,022	-0,071
-344,650	800,000	0,031	0,077
-343,635	-50,112	0,014	-0,005
-342,620	181,476	-0,033	0,036
-341,606	-142,598	0,067	-0,005
-340,591	-16,425	-0,009	-0,004
-339,577	-200,000	0,005	-0,104
-338,562	-112,035	-0,171	-0,025
-337,548	-153,025	0,063	-0,003
-336,533	-35,670	0,027	-0,011
-335,518	-200,000	0,011	0,115
-334,504	209,455	0,082	0,093
-333,489	348,144	0,017	-0,024
-332,475	-96,433	-0,040	-0,008
-331,460	800,000	-0,025	0,055
-330,445	82,564	-0,015	0,012
-329,431	-59,801	0,162	-0,050
-328,416	34,646	0,000	-0,000
-327,402	633,917	0,052	0,097
-326,387	746,094	-0,057	0,113
-325,372	282,463	-0,095	0,124
-324,358	1,245	0,100	-0,052
-323,343	-200,000	-0,012	0,043
-322,329	-200,000	0,020	0,191
-321,314	-127,689	0,109	-0,011
-320,299	-66,241	0,224	-0,064
-319,285	62,023	-0,060	-0,043
-318,270	114,903	0,018	-0,016
-317,256	99,759	-0,041	0,035
-316,241	490,954	-0,072	0,121
-315,226	519,717	-0,065	-0,111
-314,212	-200,000	0,010	-0,035
-313,197	-100,439	-0,071	-0,013
-312,183	-190,860	0,036	0,000
-311,168	209,721	-0,095	-0,109
-310,153	-118,826	-0,099	0,012
-309,139	-26,044	0,043	0,018
-308,124	-94,488	-0,009	0,002
-307,110	-200,000	-0,014	0,135
-306,095	-16,131	-0,075	0,034
-305,080	-76,046	-0,051	0,013
-304,066	800,000	0,014	-0,034
-303,051	419,369	-0,057	-0,088
-302,037	800,000	-0,050	-0,131
-301,022	-23,669	0,056	-0,024
-300,008	-200,000	0,013	0,054
-298,993	-55,224	-0,024	-0,008
-297,978	12,771	0,073	0,041
-296,964	530,913	0,021	-0,036
-295,949	452,735	-0,093	-0,149
-294,935	-200,000	0,018	-0,117
-293,920	130,025	0,062	0,057
-292,905	72,510	0,025	0,019
-291,891	705,565	0,013	-0,025
-290,876	-200,000	-0,003	0,017
-289,862	-53,058	-0,040	-0,013
-288,847	35,877	-0,105	-0,067
-287,832	-84,277	0,040	-0,009
-286,818	-80,925	0,151	0,036
-285,803	800,000	0,060	0,150
-284,789	-97,323	-0,097	-0,018
-283,774	800,000	0,030	0,069
-282,759	-200,000	-0,021	0,087
-281,745	118,350	-0,107	0,096
-280,730	399,868	0,020	0,030
-279,716	323,850	-0,017	-0,024
-278,701	-32,144	-0,027	0,011
-277,686	-200,000	-0,009	0,036
-276,672	800,000	0,048	0,110
-275,657	182,682	0,026	0,027
-274,643	272,090	-0,032	0,041
-273,628	-69,415	0,218	0,060
-272,613	-95,009	-0,084	-0,016
-271,599	-50,002	0,146	-0,050
-270,584	-147,610	-0,021	-0,001
-269,570	784,129	0,026	0,051
-268,555	-200,000	-0,047	0,210
-267,540	-77,665	0,146	0,036
-266,526	-76,689	-0,134	-0,034
-265,511	-111,392	-0,067	-0,010
-264,497	-200,000	-0,019	-0,098
-263,482	-15,753	0,116	0,053
-262,467	-200,000	0,009	-0,097
-261,453	-22,269	-0,030	0,013
-260,438	152,371	-0,042	-0,041
-259,424	-135,790	-0,054	-0,005
-258,409	-200,000	-0,017	-0,060
-257,395	-200,000	0,011	-0,150
-256,380	6,853	0,090	0,048
-255,365	787,514	-0,013	0,026
-254,351	-200,000	-0,038	0,155
-253,336	-31,065	0,165	0,067
-252,322	-200,000	0,001	-0,049
-251,307	800,000	0,019	-0,049
-250,292	129,150	-0,053	-0,049
-249,278	127,325	0,104	-0,095
-248,263	-200,000	-0,053	0,195
-247,249	-200,000	0,019	0,077
-246,234	-123,669	0,053	-0,006
-245,219	-23,559	0,054	-0,023
-244,205	-78,569	0,104	0,025
-243,190	800,000	0,014	-0,034
-242,176	-200,000	-0,011	-0,054
-241,161	800,000	0,033	0,082
-240,146	530,405	-0,052	0,089
-239,132	800,000	0,073	0,203
-238,117	12,685	-0,137	0,076
-237,103	-105,822	-0,068	0,011
-236,088	90,925	0,115	0,093
-235,073	-145,507	0,068	-0,004
-234,059	214,141	0,079	-0,091
-233,044	105,891	0,019	-0,016
-232,030	800,000	0,017	-0,049
-231,015	-59,436	-0,115	-0,035
-230,000	66,158	-0,099	-0,073
-228,986	800,000	0,043	-0,113
-227,971	439,978	0,031	0,049
-226,957	62,038	0,120	-0,087
-225,942	142,439	0,064	0,061
-224,927	217,970	-0,041	-0,047
-223,913	-65,346	-0,024	-0,007
-222,898	353,115	-0,052	-0,075
-221,884	-200,000	0,009	0,179
-220,869	-49,721	0,120	-0,041
-219,855	-182,775	-0,097	0,001
-218,840	141,280	0,091	0,087
-217,825	-200,000	0,009	-0,036
-216,811	484,875	-0,055	-0,090
-215,796	-12,075	-0,177	0,084
-214,782	-200,000	0,006	0,050
-213,767	256,349	0,035	0,044
-212,752	-200,000	-0,004	-0,035
-211,738	18,214	0,039	0,022
-210,723	198,701	-0,040	0,044
-209,709	-200,000	0,006	-0,026
-208,694	-200,000	0,013	-0,096
-207,679	-93,268	-0,188	-0,037
-206,665	-28,786	0,100	-0,042
-205,650	73,855	0,121	0,092
-204,636	-116,882	0,038	-0,005
-203,621	-200,000	0,008	0,051
-202,606	-200,000	-0,034	0,125
-201,592	-200,000	-0,016	-0,118
-200,577	800,000	0,023	0,060
-199,563	381,275	-0,043	-0,064
-198,548	-200,000	0,052	0,230
-197,533	200,440	-0,089	-0,099
-196,519	800,000	0,046	0,093
-195,504	208,256	0,079	-0,089
-194,490	-147,664	-0,128	0,008
-193,475	138,760	0,022	-0,021
-192,460	-200,000	0,001	0,100
-191,446	192,063	-0,070	0,077
-190,431	281,812	0,079	0,103
-189,417	-127,114	0,073	-0,008
-188,402	216,190	-0,048	-0,055
-187,387	-200,000	-0,001	0,124
-186,373	-200,000	-0,003	-0,137
-185,358	-200,000	-0,025	-0,167
-184,344	-28,810	0,101	-0,042
-183,329	-132,045	0,053	-0,005
-182,315	-107,041	0,105	-0,017
-181,300	97,833	-0,095	0,079
-180,285	-200,000	0,023	-0,079
-179,271	-200,000	-0,001	-0,154
-178,256	327,125	-0,110	-0,152
-177,242	-200,000	0,033	-0,116
-176,227	-200,000	0,001	0,131
-175,212	-200,000	0,020	-0,072
-174,198	800,000	0,008	0,024
-173,183	5,841	0,126	-0,067
-172,169	800,000	-0,017	-0,049
-171,154	-56,666	0,098	-0,031
-170,139	307,016	0,054	0,073
-169,125	-135,375	0,134	-0,011
-168,110	-200,000	0,019	0,108
-167,096	-200,000	-0,003	0,044
-166,081	-67,671	-0,086	-0,024
-165,066	46,913	-0,039	0,026
-164,052	800,000	0,059	-0,147
-163,037	108,082	0,118	0,101
-162,023	210,792	-0,020	0,023
-161,008	-200,000	-0,008	0,030
-159,993	-200,000	0,004	0,048
-158,979	5,638	-0,134	0,071
-157,964	-41,548	0,121	0,045
-156,950	452,323	0,093	-0,149
-155,935	800,000	-0,022	0,054
-154,920	-27,176	0,067	-0,028
-153,906	-200,000	-0,023	0,120
-152,891	-129,733	-0,052	0,005
-151,877	-200,000	-0,001	0,042
-150,862	-155,722	-0,163	-0,007
-149,847	282,161	0,053	-0,069
-148,833	248,590	0,015	-0,019
-147,818	-66,841	0,146	0,041
-146,804	156,351	-0,073	-0,073
-145,789	-73,340	-0,093	0,024
-144,775	341,312	-0,003	0,004
-143,760	-139,010	0,025	0,002
-142,745	-92,369	-0,135	0,027
-141,731	-12,168	0,050	0,023
-140,716	486,260	-0,092	0,151
-139,702	143,092	-0,033	0,031
-138,687	-165,092	-0,219	-0,007
-137,672	120,476	-0,140	0,125
-136,658	36,123	0,094	-0,060
-135,643	800,000	-0,054	-0,118
-134,629	800,000	-0,031	0,087
-133,614	-200,000	-0,009	0,095
-132,599	-42,694	0,035	-0,013
-131,585	169,535	-0,181	0,186
-130,570	-119,036	0,115	0,014
-129,556	64,165	-0,078	0,057
-128,541	225,830	-0,099	-0,116
-127,526	-200,000	-0,002	0,084
-126,512	-200,000	-0,008	0,053
-125,497	98,605	0,053	-0,044
-124,483	171,850	-0,127	0,132
-123,468	-200,000	0,046	0,171
-122,453	-200,000	-0,016	-0,131
-121,439	800,000	-0,057	0,150
