DTS Sentinel unit serial number:	SN410029Multiplexer serial number:	ORYXHardware model number:	OX2-SRSoftware version number:	ORYX F/W v4,00 Oryx Data Collector v3.7.2.0data status	okinstallation	B5 Nyhavnadifferential loss correction	single-endedforward channel	channel 2reverse channel	N/Adate	2023/12/13time	23:02:13forward acquisition time	300,00reverse acquisition time	0,00gamma	499,1914k internal	0,3154k external	0,3154temperature offset calibration	1,0000default loss term (dB/km)	0,3820temperature slope calibration	1,0000multiplexer offset coefficient	1,0000multiplexer slope coefficient	1,0000fibre end	0,00T internal ref (°C)	9,06T ext. ref 1 (°C)	-7,53T ext. ref 2 (°C)	-7,53length (m)	temperature (°C)	Stokes	anti-Stokes-744,400	185,497	0,121	0,133
-743,385	-131,224	-0,377	0,036
-742,371	-186,129	0,105	-0,001
-741,356	-178,855	-0,383	-0,006
-740,342	15,044	0,210	0,121
-739,327	-113,308	-0,391	0,056
-738,312	-40,596	0,076	-0,029
-737,298	-135,345	-0,360	0,031
-736,283	-70,218	0,193	0,054
-735,269	-120,286	-0,494	0,061
-734,254	16,898	0,179	0,105
-733,239	-12,339	-0,550	-0,264
-732,225	-98,045	0,232	0,044
-731,210	800,000	0,014	0,041
-730,196	259,118	0,034	-0,044
-729,181	-21,520	0,059	-0,026
-728,167	800,000	0,003	0,007
-727,152	-200,000	-0,018	-0,158
-726,137	14,376	-0,108	0,062
-725,123	158,087	-0,012	0,012
-724,108	-123,856	-0,192	-0,022
-723,094	-200,000	-0,030	-0,102
-722,079	-200,000	-0,009	-0,049
-721,064	-124,804	-0,074	0,008
-720,050	-200,000	-0,020	0,091
-719,035	98,516	0,045	-0,038
-718,021	800,000	-0,008	-0,023
-717,006	606,355	-0,026	-0,048
-715,991	-23,136	-0,080	-0,035
-714,977	-60,564	-0,187	-0,058
-713,962	106,438	-0,027	0,024
-712,948	-200,000	-0,023	0,125
-711,933	800,000	0,030	0,065
-710,918	-200,000	0,008	-0,045
-709,904	150,876	-0,102	-0,102
-708,889	-200,000	0,004	-0,040
-707,875	-200,000	0,008	-0,053
-706,860	-200,000	0,018	0,062
-705,845	-30,957	0,095	0,039
-704,831	171,722	-0,068	0,072
-703,816	-132,770	-0,193	-0,018
-702,802	-128,717	0,042	-0,004
-701,787	700,338	-0,017	-0,032
-700,772	-69,552	0,109	-0,030
-699,758	727,277	0,020	-0,039
-698,743	-9,516	0,089	0,044
-697,729	185,073	-0,050	-0,055
-696,714	-200,000	0,016	-0,156
-695,699	-74,156	0,054	0,014
-694,685	-29,612	0,093	0,039
-693,670	-200,000	-0,018	-0,111
-692,656	-200,000	0,009	-0,152
-691,641	-200,000	-0,032	0,257
-690,627	800,000	-0,043	0,116
-689,612	-200,000	0,006	0,026
-688,597	39,524	0,064	-0,042
-687,583	800,000	-0,033	-0,101
-686,568	8,137	-0,064	-0,035
-685,554	15,754	0,099	-0,057
-684,539	-17,383	0,080	-0,037
-683,524	-117,002	-0,131	0,017
-682,510	413,511	-0,120	0,188
-681,495	-7,737	0,123	-0,061
-680,481	-15,965	-0,023	-0,011
-679,466	681,478	-0,062	-0,120
-678,451	153,113	0,034	-0,034
-677,437	-71,756	-0,178	-0,048
-676,422	-200,000	-0,002	-0,024
-675,408	-200,000	-0,022	-0,091
-674,393	-200,000	0,011	-0,092
-673,378	58,196	-0,138	-0,099
-672,364	137,005	-0,161	-0,155
-671,349	-200,000	0,027	-0,101
-670,335	195,047	0,035	0,039
-669,320	637,430	0,038	0,072
-668,305	-49,503	0,088	-0,031
-667,291	26,989	-0,087	-0,053
-666,276	-51,464	-0,017	-0,006
-665,262	-151,615	-0,072	0,004
-664,247	413,411	0,024	0,038
-663,232	-91,879	0,032	0,007
-662,218	-88,991	-0,056	-0,012
-661,203	-200,000	0,014	-0,054
-660,189	800,000	0,038	-0,103
-659,174	-200,000	-0,002	-0,038
-658,159	252,246	0,028	0,036
-657,145	-163,451	0,043	0,001
-656,130	-200,000	-0,009	0,109
-655,116	-134,829	-0,042	-0,004
-654,101	-67,544	-0,031	0,009
-653,086	-7,219	0,034	0,017
-652,072	-200,000	-0,004	0,033
-651,057	-200,000	0,010	-0,075
-650,043	800,000	0,015	-0,034
-649,028	14,721	0,035	-0,020
-648,014	188,679	-0,042	0,046
-646,999	-20,573	-0,095	-0,043
-645,984	800,000	0,029	0,078
-644,970	98,607	-0,102	-0,087
-643,955	-176,233	0,047	-0,001
-642,941	-200,000	0,005	-0,065
-641,926	41,693	0,054	0,036
-640,911	-18,563	-0,055	-0,025
-639,897	11,626	0,030	0,017
-638,882	5,684	-0,054	0,029
-637,868	26,165	0,145	0,089
-636,853	-40,015	0,091	-0,035
-635,838	249,786	-0,051	-0,064
-634,824	425,911	0,099	-0,158
-633,809	800,000	0,016	0,045
-632,795	-75,913	0,071	0,018
-631,780	581,220	0,054	0,099
-630,765	-82,621	-0,042	0,010
-629,751	-123,489	-0,125	0,014
-628,736	800,000	0,041	-0,117
-627,722	87,279	0,037	0,030
-626,707	800,000	0,021	-0,057
-625,692	-106,079	-0,056	0,009
-624,678	-200,000	-0,006	-0,073
-623,663	391,704	0,080	0,122
-622,649	-69,136	-0,107	-0,030
-621,634	-155,860	-0,096	0,004
-620,619	-23,878	0,137	0,060
-619,605	-200,000	-0,030	0,108
-618,590	800,000	-0,033	0,073
-617,576	-6,610	0,062	0,031
-616,561	-27,019	-0,081	-0,035
-615,546	100,220	-0,057	-0,048
-614,532	574,987	-0,081	-0,147
-613,517	326,161	0,015	-0,022
-612,503	-28,407	-0,085	0,036
-611,488	70,302	-0,053	0,040
-610,474	46,540	0,101	-0,068
-609,459	-200,000	0,010	0,078
-608,444	70,948	-0,088	-0,067
-607,430	642,259	-0,100	-0,187
-606,415	800,000	-0,021	0,053
-605,401	-5,635	-0,050	0,025
-604,386	-28,788	-0,135	0,057
-603,371	-200,000	-0,019	-0,094
-602,357	604,067	-0,058	-0,106
-601,342	98,844	-0,119	-0,101
-600,328	-4,265	-0,069	-0,035
-599,313	321,930	-0,040	0,056
-598,298	100,482	-0,028	0,024
-597,284	-200,000	-0,010	0,062
-596,269	-12,606	0,016	0,008
-595,255	-200,000	0,050	0,182
-594,240	-100,831	-0,112	-0,020
-593,225	115,521	-0,059	0,053
-592,211	-4,835	0,081	-0,041
-591,196	-200,000	0,050	-0,163
-590,182	-200,000	-0,016	0,175
-589,167	49,761	0,090	0,062
-588,152	-13,204	0,151	0,072
-587,138	119,049	0,047	0,043
-586,123	793,274	-0,058	-0,117
-585,109	106,683	-0,086	-0,075
-584,094	123,070	-0,117	0,107
-583,079	-200,000	0,018	-0,085
-582,065	699,480	-0,052	-0,102
-581,050	-16,761	-0,019	-0,009
-580,036	800,000	-0,024	-0,058
-579,021	-129,307	0,035	-0,004
-578,006	800,000	0,057	-0,157
-576,992	56,650	0,019	0,014
-575,977	-200,000	0,017	0,213
-574,963	-19,658	-0,050	0,023
-573,948	-92,706	0,066	-0,013
-572,934	-200,000	-0,032	-0,143
-571,919	800,000	0,007	-0,020
-570,904	-19,062	-0,093	-0,042
-569,890	800,000	-0,047	-0,125
-568,875	-200,000	0,000	-0,126
-567,861	-13,859	0,071	0,034
-566,846	-104,535	-0,039	0,006
-565,831	20,349	-0,197	-0,116
-564,817	-35,874	-0,129	-0,051
-563,802	-116,479	-0,032	-0,004
-562,788	-111,795	-0,088	0,013
-561,773	800,000	0,021	-0,043
-560,758	-88,826	0,076	0,016
-559,744	-71,932	0,084	0,023
-558,729	-200,000	0,022	0,120
-557,715	-200,000	0,072	0,000
-556,700	800,000	-0,015	-0,041
-555,685	399,411	-0,039	-0,060
-554,671	426,740	-0,080	0,126
-553,656	-200,000	0,006	0,077
-552,642	311,146	0,087	0,119
-551,627	-49,212	-0,138	0,048
-550,612	62,947	-0,134	-0,098
-549,598	336,872	0,074	-0,106
-548,583	-190,816	-0,116	-0,001
-547,569	710,926	-0,036	0,070
-546,554	63,594	0,070	0,051
-545,539	-200,000	-0,011	-0,124
-544,525	-113,407	0,059	-0,008
-543,510	-200,000	-0,029	-0,097
-542,496	-75,942	-0,079	0,020
-541,481	698,077	0,034	-0,065
-540,466	495,855	0,033	-0,056
-539,452	246,293	0,038	-0,047
-538,437	-63,298	-0,100	-0,030
-537,423	800,000	0,055	0,120
-536,408	226,008	0,037	0,044
-535,393	61,652	0,052	-0,038
-534,379	21,913	-0,105	-0,062
-533,364	113,999	-0,101	-0,090
-532,350	-56,499	0,042	-0,014
-531,335	800,000	0,036	-0,099
-530,321	55,685	0,061	0,043
-529,306	487,534	-0,064	-0,108
-528,291	83,248	-0,142	-0,113
-527,277	-200,000	0,010	-0,151
-526,262	-200,000	0,005	-0,061
-525,248	-108,743	0,095	0,015
-524,233	-200,000	-0,007	0,029
-523,218	800,000	-0,062	-0,152
-522,204	151,854	-0,014	-0,014
-521,189	13,721	-0,067	0,038
-520,175	363,839	-0,061	-0,090
-519,160	259,443	0,019	-0,025
-518,145	-93,229	0,098	-0,020
-517,131	219,473	0,094	-0,110
-516,116	557,723	0,078	-0,139
-515,102	23,549	-0,129	0,078
-514,087	-103,827	-0,061	0,010
-513,072	-200,000	0,017	-0,128
-512,058	669,981	-0,045	0,086
-511,043	224,773	-0,099	0,118
-510,029	240,368	0,080	0,097
-509,014	494,306	-0,055	0,093
-507,999	-200,000	0,001	-0,005
-506,985	638,376	-0,047	-0,088
-505,970	48,016	-0,139	-0,095
-504,956	-112,915	-0,052	-0,007
-503,941	604,527	-0,069	-0,126
-502,926	81,526	0,056	-0,044
-501,912	34,513	0,102	0,065
-500,897	-59,111	0,048	-0,015
-499,883	86,748	-0,027	-0,022
-498,868	-24,924	0,096	-0,041
-497,853	800,000	-0,032	-0,093
-496,839	-23,032	0,139	-0,061
-495,824	-50,443	-0,031	0,011
-494,810	62,203	0,084	-0,061
-493,795	640,605	-0,033	0,061
-492,781	250,639	-0,047	0,059
-491,766	173,619	0,137	-0,144
-490,751	-148,364	0,127	-0,007
-489,737	789,752	-0,009	-0,018
-488,722	-200,000	0,007	0,219
-487,708	80,460	0,062	0,049
-486,693	-200,000	-0,035	-0,152
-485,678	-200,000	0,011	-0,122
-484,664	-167,102	-0,120	-0,003
-483,649	281,997	-0,069	0,090
-482,635	-172,689	-0,042	0,001
-481,620	113,448	0,072	-0,064
-480,605	-156,808	-0,118	-0,005
-479,591	184,578	-0,063	0,068
-478,576	96,787	-0,079	0,066
-477,562	355,622	0,036	-0,052
-476,547	-200,000	0,006	-0,032
-475,532	426,288	-0,038	0,061
-474,518	-200,000	-0,002	-0,020
-473,503	25,912	0,050	0,031
-472,489	264,351	-0,022	-0,027
-471,474	-200,000	0,027	0,097
-470,459	-106,591	0,057	-0,009
-469,445	-19,284	0,085	0,038
-468,430	2,284	-0,110	-0,058
-467,416	139,914	0,066	0,064
-466,401	-55,349	-0,160	0,052
-465,386	800,000	0,029	-0,079
-464,372	245,581	0,068	-0,084
-463,357	-200,000	-0,019	-0,111
-462,343	698,354	-0,045	-0,087
-461,328	-179,733	-0,104	0,002
-460,313	105,511	-0,013	0,011
-459,299	-58,302	0,035	-0,011
-458,284	122,991	0,094	0,086
-457,270	800,000	0,032	0,074
-456,255	329,710	-0,049	-0,070
-455,241	-29,489	-0,135	-0,056
-454,226	800,000	0,026	0,077
-453,211	25,332	-0,062	-0,037
-452,197	225,624	0,086	0,102
-451,182	-200,000	0,011	0,058
-450,168	800,000	-0,059	0,127
-449,153	-21,213	-0,109	-0,049
-448,138	97,272	-0,188	0,157
-447,124	-10,085	0,084	-0,041
-446,109	800,000	0,052	0,112
-445,095	-200,000	0,008	0,295
-444,080	-55,314	0,097	-0,031
-443,065	726,215	-0,044	-0,086
-442,051	-1,653	0,115	0,059
-441,036	800,000	0,036	-0,084
-440,022	-76,825	0,038	-0,010
-439,007	-200,000	0,017	0,068
-437,992	-117,402	0,057	-0,007
-436,978	157,423	0,056	0,057
-435,963	-55,918	0,030	0,010
-434,949	448,176	0,019	-0,031
-433,934	-105,463	-0,063	0,010
-432,919	-62,093	0,143	0,043
-431,905	501,716	-0,029	0,049
-430,890	-23,798	0,099	0,043
-429,876	182,844	0,054	0,058
-428,861	42,314	-0,117	0,078
-427,846	-200,000	-0,009	0,085
-426,832	-28,356	-0,072	-0,030
-425,817	149,572	-0,049	-0,048
-424,803	-200,000	0,003	0,012
-423,788	-117,196	-0,023	0,003
-422,773	72,520	0,195	-0,148
-421,759	117,873	0,108	0,097
-420,744	800,000	0,021	-0,062
-419,730	225,612	-0,073	-0,086
-418,715	-66,529	-0,079	-0,023
-417,701	-73,548	0,136	-0,036
-416,686	800,000	-0,026	-0,058
-415,671	115,605	0,061	-0,054
-414,657	-200,000	-0,019	0,066
-413,642	-200,000	-0,008	-0,088
-412,628	60,338	0,060	-0,043
-411,613	-35,037	-0,087	-0,034
-410,598	-12,294	0,070	0,033
-409,584	273,107	0,065	-0,084
-408,569	-200,000	0,038	0,125
-407,555	-15,725	-0,087	0,040
-406,540	800,000	-0,033	-0,099
-405,525	-200,000	-0,020	-0,066
-404,511	753,005	0,058	-0,114
-403,496	-200,000	-0,007	0,108
-402,482	650,676	0,069	0,128
-401,467	800,000	-0,053	0,144
-400,452	-200,000	0,009	-0,039
-399,438	-200,000	0,011	0,209
-398,423	327,785	-0,044	0,062
-397,409	-110,670	0,017	0,003
-396,394	800,000	0,067	-0,157
-395,379	435,059	0,024	0,038
-394,365	-163,912	0,078	-0,003
-393,350	110,079	-0,023	-0,020
-392,336	800,000	-0,034	0,068
-391,321	-123,548	0,065	-0,007
-390,306	560,324	0,036	0,063
-389,292	-101,876	-0,059	-0,010
-388,277	-193,951	-0,108	0,001
-387,263	-179,210	0,022	-0,000
-386,248	508,087	0,067	0,114
-385,233	800,000	-0,040	0,085
-384,219	-36,050	0,087	-0,034
-383,204	60,402	-0,198	-0,142
-382,190	-200,000	0,004	-0,088
-381,175	-24,738	0,043	0,018
-380,160	156,899	0,088	0,089
-379,146	-31,606	-0,104	0,042
-378,131	-25,941	-0,046	-0,020
-377,117	103,034	-0,118	-0,100
-376,102	800,000	0,047	-0,109
-375,088	287,580	-0,038	0,050
-374,073	-200,000	-0,019	0,075
-373,058	-200,000	0,003	0,072
-372,044	336,272	0,049	0,069
-371,029	-200,000	-0,007	-0,129
-370,015	406,466	0,096	-0,148
-369,000	221,215	-0,117	-0,137
-367,985	129,295	-0,040	-0,037
-366,971	215,186	-0,100	-0,115
-365,956	-8,146	0,080	-0,039
-364,942	-28,405	0,088	0,037
-363,927	-64,390	0,084	-0,025
-362,912	-200,000	0,010	-0,044
-361,898	800,000	0,044	0,099
-360,883	-117,264	-0,188	-0,025
-359,869	12,751	-0,080	-0,045
-358,854	-101,410	0,092	-0,016
-357,839	800,000	0,041	0,095
-356,825	2,217	0,147	0,077
-355,810	-110,287	-0,042	0,006
-354,796	9,032	0,091	0,050
-353,781	569,945	-0,059	0,104
-352,766	-200,000	-0,001	0,089
-351,752	-77,560	-0,060	-0,015
-350,737	-26,051	0,105	0,045
-349,723	-200,000	-0,006	0,078
-348,708	-14,415	-0,075	0,035
-347,693	565,999	0,051	-0,090
-346,679	358,067	-0,047	-0,069
-345,664	-125,468	-0,078	0,009
-344,650	800,000	0,013	0,035
-343,635	800,000	0,066	0,139
-342,620	8,790	0,049	-0,027
-341,606	-200,000	0,001	0,046
-340,591	463,349	-0,015	-0,025
-339,577	36,202	-0,136	0,087
-338,562	-178,498	0,035	-0,001
-337,548	400,335	0,067	-0,102
-336,533	-175,726	0,259	0,005
-335,518	5,693	0,064	0,034
-334,504	-158,774	0,108	0,004
-333,489	-54,949	-0,150	0,049
-332,475	-100,298	-0,092	-0,016
-331,460	86,675	-0,151	-0,121
-330,445	22,329	0,039	0,023
-329,431	800,000	-0,027	-0,055
-328,416	32,930	-0,067	-0,042
-327,402	197,533	-0,110	0,122
-326,387	-33,423	0,082	-0,033
-325,372	-200,000	-0,003	0,045
-324,358	-141,919	-0,091	-0,007
-323,343	187,500	-0,025	-0,027
-322,329	800,000	-0,009	-0,018
-321,314	-145,054	0,114	0,007
-320,299	-200,000	0,038	0,130
-319,285	800,000	-0,059	-0,160
-318,270	-123,111	-0,173	0,020
-317,256	0,890	0,101	-0,052
-316,241	-200,000	-0,024	-0,094
-315,226	128,101	-0,054	0,050
-314,212	-76,127	-0,077	0,020
-313,197	-200,000	-0,015	0,078
-312,183	314,431	-0,043	-0,059
-311,168	-83,418	0,048	0,011
-310,153	-159,221	-0,065	-0,003
-309,139	67,314	0,047	0,035
-308,124	-98,712	0,059	-0,011
-307,110	621,324	0,039	-0,072
-306,095	119,141	-0,076	0,068
-305,080	-67,258	0,098	-0,028
-304,066	80,806	0,056	0,044
-303,051	-200,000	-0,021	-0,085
-302,037	-200,000	0,009	-0,038
-301,022	222,201	0,105	0,123
-300,008	134,049	0,102	0,096
-298,993	800,000	-0,021	0,043
-297,978	167,684	-0,039	-0,041
-296,964	50,728	-0,202	-0,139
-295,949	-200,000	-0,011	0,125
-294,935	83,324	-0,229	-0,181
-293,920	239,974	0,011	0,013
-292,905	106,698	0,055	0,047
-291,891	-109,941	0,034	-0,005
-290,876	-193,265	-0,051	0,000
-289,862	-14,693	0,043	-0,020
-288,847	-200,000	0,006	-0,164
-287,832	474,797	-0,114	-0,188
-286,818	-200,000	-0,017	-0,129
-285,803	41,430	0,110	-0,072
-284,789	-200,000	-0,008	0,071
-283,774	-152,869	-0,129	-0,007
-282,759	128,350	0,080	0,074
-281,745	-77,537	-0,165	-0,041
-280,730	-129,311	-0,054	-0,005
-279,716	557,445	-0,046	-0,081
-278,701	-200,000	-0,012	-0,062
-277,686	188,255	-0,068	0,074
-276,672	285,891	-0,055	-0,071
-275,657	-200,000	-0,002	0,163
-274,643	-81,778	0,057	-0,013
-273,628	800,000	0,041	-0,102
-272,613	269,113	0,029	0,037
-271,599	800,000	0,033	0,092
-270,584	115,140	0,091	-0,081
-269,570	-143,453	0,144	0,010
-268,555	49,963	0,083	0,057
-267,540	411,427	-0,051	0,079
-266,526	-78,308	0,136	-0,033
-265,511	450,643	-0,034	-0,054
-264,497	123,458	-0,024	0,022
-263,482	73,159	0,109	0,082
-262,467	461,457	-0,024	0,040
-261,453	-112,507	-0,169	0,024
-260,438	800,000	-0,043	-0,132
-259,424	-200,000	0,007	0,052
-258,409	-97,109	-0,115	0,022
-257,395	-89,139	-0,062	-0,013
-256,380	-200,000	-0,011	0,133
-255,365	-82,347	-0,103	0,024
-254,351	136,494	0,070	0,067
-253,336	-164,848	-0,148	0,005
-252,322	-200,000	0,012	-0,049
-251,307	471,403	-0,073	0,119
-250,292	-173,356	-0,016	-0,000
-249,278	800,000	0,049	0,122
-248,263	-144,458	-0,119	-0,008
-247,249	-41,203	0,067	0,025
-246,234	-200,000	0,001	-0,144
-245,219	-200,000	0,008	0,060
-244,205	-77,403	0,066	-0,017
-243,190	327,670	0,072	-0,100
-242,176	29,497	0,061	0,037
-241,161	42,653	0,051	0,033
-240,146	-139,215	0,075	-0,006
-239,132	-130,371	0,140	-0,014
-238,117	-200,000	0,012	0,085
-237,103	800,000	0,030	0,069
-236,088	-47,096	-0,098	0,034
-235,073	-155,111	0,190	0,009
-234,059	-200,000	0,048	0,224
-233,044	0,715	-0,153	0,079
-232,030	-39,522	-0,025	-0,009
-231,015	-112,760	-0,010	0,001
-230,000	7,238	-0,045	-0,024
-228,986	45,852	-0,058	0,039
-227,971	800,000	0,022	-0,047
-226,957	-44,389	0,054	-0,019
-225,942	-45,722	-0,146	0,052
-224,927	-166,033	0,108	-0,003
-223,913	224,967	-0,033	-0,039
-222,898	587,823	0,021	-0,037
-221,884	165,119	-0,067	-0,068
-220,869	422,084	0,099	0,155
-219,855	-113,566	0,069	0,010
-218,840	-167,955	0,100	0,003
-217,825	333,915	0,022	0,031
-216,811	-200,000	-0,027	-0,151
-215,796	58,821	-0,108	0,077
-214,782	497,664	0,011	0,019
-213,767	-164,429	0,177	0,006
-212,752	-22,936	-0,056	-0,024
-211,738	800,000	0,001	0,002
-210,723	800,000	0,005	0,014
-209,709	697,393	0,032	0,062
-208,694	-52,667	0,091	0,030
-207,679	800,000	0,039	-0,100
-206,665	-35,027	-0,025	-0,010
-205,650	55,542	0,032	-0,023
-204,636	-200,000	0,007	0,026
-203,621	188,855	0,041	-0,044
-202,606	-200,000	-0,012	0,082
-201,592	-105,305	0,046	0,007
-200,577	-53,921	0,111	-0,036
-199,563	-25,051	0,044	0,019
-198,548	135,726	0,135	0,127
-197,533	-70,608	-0,069	0,019
-196,519	800,000	-0,032	0,102
-195,504	326,521	-0,055	-0,076
-194,490	152,610	0,110	0,108
-193,475	800,000	0,042	0,105
-192,460	21,975	0,092	0,054
-191,446	800,000	0,021	-0,048
-190,431	-147,845	0,142	-0,008
-189,417	-137,788	0,062	-0,005
-188,402	-46,674	-0,036	0,013
-187,387	-115,471	0,107	-0,014
-186,373	-162,551	-0,121	-0,004
-185,358	65,338	0,029	-0,021
-184,344	174,204	0,035	0,036
-183,329	-149,127	0,061	-0,003
-182,315	-191,651	0,089	0,001
-181,300	228,154	0,035	0,042
-180,285	-200,000	0,004	-0,047
-179,271	-58,432	-0,021	0,007
-178,256	-200,000	-0,003	0,038
-177,242	132,585	0,083	0,077
-176,227	621,545	-0,051	0,093
-175,212	1,012	-0,018	0,009
-174,198	38,885	0,115	-0,074
-173,183	-200,000	0,025	-0,145
-172,169	-80,322	-0,075	-0,018
-171,154	800,000	-0,057	-0,167
-170,139	130,095	0,167	0,155
-169,125	54,181	0,088	0,061
-168,110	576,015	0,084	0,148
-167,096	108,672	0,075	0,065
-166,081	-200,000	-0,007	-0,032
-165,066	-94,488	-0,075	-0,015
-164,052	30,027	-0,078	-0,048
-163,037	-24,279	-0,060	0,026
-162,023	-158,520	0,133	-0,005
-161,008	800,000	-0,031	0,085
-159,993	800,000	0,011	-0,031
-158,979	-41,930	0,118	0,044
-157,964	133,281	-0,055	-0,051
-156,950	86,582	-0,066	-0,052
-155,935	46,925	0,144	0,097
-154,920	-172,720	-0,113	-0,002
-153,906	-14,976	0,131	0,061
-152,891	-200,000	-0,012	0,139
-151,877	-200,000	-0,027	-0,209
-150,862	800,000	0,063	-0,130
-149,847	1,368	-0,051	-0,027
-148,833	-88,098	0,125	-0,027
-147,818	173,409	0,096	0,100
-146,804	97,741	0,100	-0,083
-145,789	-200,000	0,012	0,053
-144,775	-100,039	-0,095	-0,017
-143,760	-49,973	-0,176	0,060
-142,745	95,432	0,055	-0,045
-141,731	139,163	0,119	0,113
-140,716	-40,428	-0,141	0,052
-139,702	126,371	0,045	0,041
-138,687	-200,000	-0,009	0,046
-137,672	81,954	0,041	-0,032
-136,658	96,798	0,051	0,042
-135,643	288,551	-0,094	-0,123
-134,629	-156,418	-0,105	0,005
-133,614	-40,317	0,129	-0,048
-132,599	-200,000	0,035	0,118
-131,585	800,000	0,009	0,026
-130,570	11,099	-0,039	-0,021
-129,556	107,100	-0,095	-0,081
-128,541	-200,000	0,016	-0,115
-127,526	258,357	-0,073	-0,090
-126,512	66,096	0,082	0,060
-125,497	488,688	-0,041	0,068
-124,483	800,000	0,031	0,067
-123,468	26,065	-0,044	-0,027
-122,453	-70,878	-0,113	0,031
-121,439	67,890	-0,032	0,024
-120,424	-200,000	-0,010	-0,035
-119,410	9,201	0,049	0,027
-118,395	44,140	0,152	0,101
