DTS Sentinel unit serial number:	SN410029Multiplexer serial number:	ORYXHardware model number:	OX2-SRSoftware version number:	ORYX F/W v4,00 Oryx Data Collector v3.7.2.0data status	okinstallation	B5 Nyhavnadifferential loss correction	single-endedforward channel	channel 2reverse channel	N/Adate	2023/12/11time	15:47:13forward acquisition time	300,00reverse acquisition time	0,00gamma	499,1914k internal	0,3166k external	0,3166temperature offset calibration	1,0000default loss term (dB/km)	0,3820temperature slope calibration	1,0000multiplexer offset coefficient	1,0000multiplexer slope coefficient	1,0000fibre end	0,00T internal ref (°C)	13,54T ext. ref 1 (°C)	-1,59T ext. ref 2 (°C)	-1,69length (m)	temperature (°C)	Stokes	anti-Stokes-744,400	-103,142	0,207	0,036
-743,385	-175,041	-0,341	0,007
-742,371	18,396	0,206	0,121
-741,356	-136,502	-0,271	-0,023
-740,342	-4,233	0,175	0,089
-739,327	-129,900	-0,303	0,030
-738,312	-17,183	0,084	-0,039
-737,298	-91,256	-0,274	0,057
-736,283	132,787	0,012	-0,011
-735,269	46,749	-0,262	0,179
-734,254	-179,331	0,157	0,002
-733,239	-13,773	-0,466	-0,221
-732,225	10,273	0,125	0,070
-731,210	155,620	-0,045	0,045
-730,196	800,000	0,018	-0,045
-729,181	225,604	-0,050	0,059
-728,167	-127,825	-0,081	-0,009
-727,152	87,400	0,044	-0,036
-726,137	148,506	-0,057	-0,057
-725,123	800,000	-0,078	-0,184
-724,108	800,000	-0,030	-0,068
-723,094	800,000	-0,033	-0,086
-722,079	37,783	-0,110	-0,071
-721,064	571,045	-0,041	0,074
-720,050	72,042	-0,082	-0,062
-719,035	-78,534	-0,088	-0,022
-718,021	447,235	-0,084	-0,136
-717,006	184,399	-0,042	-0,046
-715,991	-63,494	-0,161	0,048
-714,977	-110,245	0,065	0,010
-713,962	-200,000	0,021	-0,137
-712,948	-142,658	-0,121	0,009
-711,933	-200,000	0,032	-0,125
-710,918	800,000	0,025	-0,054
-709,904	5,614	-0,046	-0,025
-708,889	-178,858	-0,158	-0,003
-707,875	-200,000	-0,002	-0,042
-706,860	-37,088	-0,051	-0,020
-705,845	195,439	0,058	0,065
-704,831	800,000	0,020	0,045
-703,816	559,739	-0,096	-0,171
-702,802	-81,841	0,088	0,021
-701,787	123,497	-0,106	0,097
-700,772	-200,000	-0,001	-0,067
-699,758	226,589	0,069	-0,082
-698,743	-200,000	-0,028	-0,170
-697,729	296,556	0,072	-0,098
-696,714	-200,000	-0,014	0,066
-695,699	-89,001	-0,084	0,018
-694,685	800,000	0,067	-0,168
-693,670	513,191	-0,119	-0,205
-692,656	-93,372	0,072	0,015
-691,641	-63,441	-0,129	-0,039
-690,627	10,252	0,040	-0,022
-689,612	28,541	0,113	0,070
-688,597	-157,385	0,096	-0,004
-687,583	19,135	-0,046	0,027
-686,568	-200,000	-0,004	-0,063
-685,554	800,000	-0,035	-0,075
-684,539	-200,000	-0,012	-0,133
-683,524	203,820	0,118	-0,134
-682,510	-200,000	-0,004	0,045
-681,495	63,466	-0,136	-0,100
-680,481	43,002	0,115	-0,077
-679,466	-61,688	0,030	-0,009
-678,451	-72,715	-0,234	-0,063
-677,437	-27,850	0,020	0,008
-676,422	800,000	-0,052	0,112
-675,408	188,754	-0,023	-0,026
-674,393	82,616	-0,126	-0,100
-673,378	800,000	-0,038	-0,090
-672,364	800,000	-0,021	-0,061
-671,349	800,000	-0,035	-0,096
-670,335	-200,000	0,003	0,013
-669,320	-200,000	-0,010	0,063
-668,305	33,081	-0,077	-0,049
-667,291	-17,538	-0,141	0,065
-666,276	21,734	0,079	-0,047
-665,262	627,130	-0,084	-0,157
-664,247	57,551	-0,114	0,081
-663,232	-16,823	-0,178	0,082
-662,218	-136,902	0,121	0,010
-661,203	-200,000	0,023	-0,102
-660,189	-110,494	-0,065	-0,010
-659,174	-107,343	-0,062	-0,010
-658,159	75,384	-0,088	-0,068
-657,145	800,000	-0,023	-0,059
-656,130	-116,640	0,116	-0,015
-655,116	800,000	0,031	-0,064
-654,101	-200,000	0,008	-0,136
-653,086	-19,022	-0,112	-0,051
-652,072	326,616	-0,054	-0,075
-651,057	-200,000	-0,006	-0,068
-650,043	129,354	0,057	-0,053
-649,028	657,883	-0,033	-0,063
-648,014	-69,076	0,020	0,006
-646,999	79,006	0,052	0,041
-645,984	-200,000	0,029	0,132
-644,970	3,959	0,077	-0,041
-643,955	800,000	-0,015	-0,041
-642,941	83,192	-0,051	-0,041
-641,926	-154,573	-0,128	-0,006
-640,911	-200,000	-0,005	0,016
-639,897	-45,777	-0,075	-0,027
-638,882	800,000	0,020	-0,046
-637,868	800,000	-0,024	-0,057
-636,853	-1,928	-0,123	-0,063
-635,838	236,769	0,024	-0,029
-634,824	-43,342	-0,046	0,017
-633,809	91,361	0,056	0,046
-632,795	716,599	-0,039	-0,076
-631,780	-45,534	-0,046	0,017
-630,765	-43,418	0,087	0,032
-629,751	-200,000	0,005	-0,038
-628,736	-200,000	-0,010	0,084
-627,722	-200,000	-0,015	-0,068
-626,707	296,875	0,099	0,134
-625,692	103,204	-0,154	0,132
-624,678	40,393	0,108	0,071
-623,663	-175,596	0,094	-0,002
-622,649	-151,217	-0,044	-0,002
-621,634	28,100	-0,172	-0,106
-620,619	800,000	0,060	0,131
-619,605	800,000	-0,078	-0,188
-618,590	48,752	0,032	-0,022
-617,576	142,693	0,081	-0,079
-616,561	146,767	-0,031	-0,031
-615,546	136,917	-0,032	-0,031
-614,532	-200,000	0,023	-0,080
-613,517	-200,000	-0,006	-0,034
-612,503	60,533	-0,099	0,071
-611,488	-56,336	0,090	0,029
-610,474	151,692	-0,061	0,061
-609,459	126,024	0,082	0,076
-608,444	-146,896	0,061	0,004
-607,430	23,153	0,069	-0,042
-606,415	-21,929	0,029	-0,013
-605,401	-151,377	0,083	0,004
-604,386	99,202	-0,039	0,033
-603,371	261,457	-0,074	0,094
-602,357	800,000	0,023	-0,054
-601,342	240,995	0,051	-0,063
-600,328	0,608	-0,200	-0,105
-599,313	75,780	0,094	-0,073
-598,298	800,000	0,017	0,046
-597,284	-200,000	0,018	0,077
-596,269	-162,400	-0,128	0,005
-595,255	40,116	0,082	-0,054
-594,240	-58,480	-0,069	0,022
-593,225	109,507	-0,056	-0,049
-592,211	291,998	-0,055	-0,074
-591,196	-86,339	0,183	-0,041
-590,182	-37,337	0,011	-0,004
-589,167	-200,000	-0,002	-0,105
-588,152	-200,000	-0,012	-0,067
-587,138	657,209	0,052	-0,099
-586,123	-19,747	0,083	0,037
-585,109	-200,000	-0,007	-0,152
-584,094	137,991	0,138	0,133
-583,079	205,756	0,026	-0,030
-582,065	-11,225	0,079	-0,038
-581,050	-56,603	-0,041	0,013
-580,036	-200,000	0,003	-0,098
-579,021	-94,109	-0,158	-0,031
-578,006	21,935	-0,068	-0,040
-576,992	-200,000	-0,011	0,044
-575,977	800,000	0,022	0,054
-574,963	-200,000	-0,023	-0,132
-573,948	800,000	-0,028	0,065
-572,934	-74,229	0,067	0,018
-571,919	800,000	-0,047	-0,107
-570,904	138,483	-0,061	-0,058
-569,890	450,621	-0,069	-0,111
-568,875	-79,674	-0,050	-0,012
-567,861	89,834	-0,056	0,046
-566,846	-153,171	0,140	0,007
-565,831	-200,000	-0,006	-0,126
-564,817	-21,557	-0,069	0,031
-563,802	435,652	-0,032	-0,051
-562,788	346,603	-0,038	-0,055
-561,773	-21,431	0,105	-0,047
-560,758	-125,979	-0,030	-0,003
-559,744	-200,000	0,004	-0,021
-558,729	-166,973	0,025	-0,001
-557,715	-200,000	0,012	-0,174
-556,700	463,533	0,033	-0,053
-555,685	800,000	0,008	-0,024
-554,671	-42,433	0,045	-0,017
-553,656	-51,062	0,071	-0,024
-552,642	6,500	0,077	-0,042
-551,627	-11,902	-0,094	0,045
-550,612	92,606	-0,012	-0,010
-549,598	295,689	-0,064	-0,086
-548,583	218,797	0,040	0,047
-547,569	-62,938	0,148	-0,044
-546,554	-90,761	0,156	0,033
-545,539	800,000	0,035	0,087
-544,525	800,000	-0,042	0,101
-543,510	106,232	-0,144	0,125
-542,496	193,283	0,023	0,025
-541,481	64,180	-0,067	-0,049
-540,466	-200,000	0,012	0,128
-539,452	143,469	0,052	0,050
-538,437	-200,000	0,102	0,000
-537,423	-81,937	0,165	0,039
-536,408	132,100	0,022	0,020
-535,393	24,489	-0,045	-0,027
-534,379	142,886	0,089	-0,086
-533,364	800,000	-0,035	-0,073
-532,350	800,000	0,038	0,089
-531,335	800,000	0,037	-0,089
-530,321	-200,000	0,021	0,124
-529,306	-142,214	0,132	-0,009
-528,291	-84,680	-0,027	-0,006
-527,277	365,080	-0,059	-0,087
-526,262	-105,425	0,239	-0,039
-525,248	800,000	0,007	-0,017
-524,233	183,699	0,073	0,079
-523,218	-200,000	0,017	0,066
-522,204	-200,000	0,008	-0,069
-521,189	546,617	0,027	-0,048
-520,175	-28,601	0,049	-0,020
-519,160	146,441	-0,087	-0,086
-518,145	262,352	0,060	-0,076
-517,131	-166,614	-0,077	0,002
-516,116	85,273	-0,035	0,028
-515,102	-200,000	-0,006	-0,151
-514,087	-63,755	-0,072	0,021
-513,072	303,723	-0,117	-0,159
-512,058	43,819	-0,143	0,095
-511,043	-102,821	0,133	0,023
-510,029	696,995	0,026	0,050
-509,014	800,000	0,050	0,109
-507,999	-189,901	-0,057	0,000
-506,985	370,926	0,014	-0,021
-505,970	-124,679	-0,014	-0,002
-504,956	95,431	-0,071	0,059
-503,941	-200,000	-0,012	0,104
-502,926	-200,000	-0,010	0,144
-501,912	-200,000	-0,001	0,068
-500,897	-193,221	0,158	0,001
-499,883	53,780	-0,063	0,044
-498,868	-153,243	-0,067	0,003
-497,853	34,832	-0,118	-0,075
-496,839	38,013	0,052	-0,034
-495,824	-92,194	-0,103	0,021
-494,810	240,532	0,089	0,108
-493,795	800,000	-0,086	0,181
-492,781	58,302	0,044	-0,031
-491,766	-25,181	-0,106	0,045
-490,751	119,682	0,035	-0,032
-489,737	-17,861	-0,051	-0,023
-488,722	-70,080	-0,132	0,036
-487,708	175,609	-0,066	-0,070
-486,693	550,375	-0,056	0,098
-485,678	293,851	-0,036	-0,048
-484,664	-79,072	-0,101	-0,025
-483,649	800,000	0,030	0,063
-482,635	91,478	-0,182	0,149
-481,620	484,169	-0,099	-0,165
-480,605	489,020	0,046	0,077
-479,591	-106,292	0,035	-0,006
-478,576	88,480	-0,092	-0,074
-477,562	-29,516	0,099	-0,041
-476,547	-10,600	-0,064	-0,031
-475,532	58,376	-0,058	0,041
-474,518	-87,554	0,202	-0,044
-473,503	-200,000	-0,009	0,108
-472,489	105,694	0,050	-0,043
-471,474	64,018	-0,043	-0,031
-470,459	-53,650	-0,073	-0,024
-469,445	240,877	0,077	0,093
-468,430	-200,000	0,006	-0,084
-467,416	800,000	0,034	0,093
-466,401	27,900	-0,044	0,027
-465,386	341,586	0,108	0,154
-464,372	-127,194	-0,129	-0,014
-463,357	113,150	0,072	0,063
-462,343	20,697	-0,087	-0,051
-461,328	208,094	0,072	0,082
-460,313	-200,000	0,004	0,094
-459,299	800,000	0,036	0,079
-458,284	800,000	-0,012	0,025
-457,270	61,267	-0,048	-0,034
-456,255	131,050	0,061	0,057
-455,241	9,305	0,033	0,018
-454,226	-200,000	-0,018	0,152
-453,211	-41,963	0,046	0,017
-452,197	800,000	-0,032	-0,072
-451,182	800,000	-0,069	0,148
-450,168	479,658	-0,087	-0,144
-449,153	-90,312	0,055	-0,012
-448,138	268,373	-0,142	0,181
-447,124	26,893	0,044	-0,027
-446,109	-169,122	0,237	0,006
-445,095	-4,411	0,084	-0,042
-444,080	-150,725	0,159	0,009
-443,065	-200,000	-0,028	0,098
-442,051	800,000	-0,026	-0,059
-441,036	300,186	-0,037	-0,050
-440,022	-116,682	-0,201	0,027
-439,007	645,858	0,027	0,051
-437,992	139,619	-0,026	0,025
-436,978	-200,000	0,021	0,087
-435,963	-111,528	0,152	-0,022
-434,949	-68,324	-0,221	-0,062
-433,934	-200,000	0,004	-0,148
-432,919	70,637	-0,045	0,034
-431,905	-127,897	0,056	0,006
-430,890	-75,446	-0,081	-0,021
-429,876	-57,281	0,091	-0,029
-428,861	800,000	-0,004	0,010
-427,846	-200,000	0,015	-0,078
-426,832	0,181	0,097	-0,050
-425,817	-200,000	-0,009	0,045
-424,803	78,144	-0,042	-0,033
-423,788	800,000	-0,025	-0,073
-422,773	-54,625	-0,160	0,052
-421,759	774,596	-0,037	-0,074
-420,744	169,127	-0,074	0,077
-419,730	-200,000	0,007	0,115
-418,715	121,527	-0,031	-0,028
-417,701	-79,765	-0,026	0,006
-416,686	-1,062	-0,067	0,034
-415,671	-119,022	0,149	-0,019
-414,657	592,418	-0,042	-0,075
-413,642	-200,000	-0,007	-0,102
-412,628	800,000	0,040	-0,092
-411,613	31,475	-0,045	-0,028
-410,598	28,856	0,110	-0,068
-409,584	243,515	0,101	0,123
-408,569	-129,081	0,034	-0,003
-407,555	87,567	-0,101	0,081
-406,540	-82,216	-0,096	0,023
-405,525	-1,821	-0,086	-0,044
-404,511	166,412	-0,081	-0,084
-403,496	-97,931	-0,079	-0,015
-402,482	370,715	0,056	-0,083
-401,467	-68,239	0,073	0,020
-400,452	109,288	0,129	-0,112
-399,438	20,958	0,058	0,034
-398,423	-60,925	0,016	0,005
-397,409	-5,309	-0,113	-0,056
-396,394	121,292	0,041	-0,037
-395,379	800,000	-0,029	0,066
-394,365	14,142	0,099	0,056
-393,350	-39,742	-0,176	0,066
-392,336	-133,937	0,020	-0,002
-391,321	-190,145	-0,057	0,000
-390,306	-158,469	-0,029	0,001
-389,292	800,000	0,062	-0,183
-388,277	-97,354	-0,090	-0,017
-387,263	528,302	0,015	0,026
-386,248	-77,491	-0,047	-0,012
-385,233	0,943	-0,130	0,067
-384,219	-57,653	0,200	0,063
-383,204	-200,000	-0,001	-0,035
-382,190	-156,345	-0,071	0,003
-381,175	194,934	0,055	0,060
-380,160	-200,000	-0,011	-0,097
-379,146	-149,325	0,072	0,004
-378,131	800,000	0,052	0,115
-377,117	81,615	0,075	-0,059
-376,102	-200,000	-0,012	0,065
-375,088	-200,000	-0,031	-0,135
-374,073	-200,000	0,004	-0,114
-373,058	-10,456	-0,123	-0,059
-372,044	143,542	0,082	0,080
-371,029	800,000	0,034	0,086
-370,015	208,933	-0,080	0,091
-369,000	-200,000	0,021	0,089
-367,985	3,211	-0,115	0,061
-366,971	347,923	-0,040	-0,057
-365,956	142,524	0,035	0,034
-364,942	220,153	-0,048	0,056
-363,927	190,889	-0,079	0,086
-362,912	-144,944	0,101	-0,007
-361,898	-200,000	0,005	0,110
-360,883	6,704	0,076	0,041
-359,869	800,000	0,040	0,120
-358,854	-200,000	-0,016	-0,173
-357,839	216,023	0,059	0,068
-356,825	-200,000	0,004	-0,066
-355,810	-200,000	-0,007	-0,061
-354,796	-87,508	-0,092	-0,020
-353,781	-200,000	0,013	-0,111
-352,766	56,076	-0,105	-0,073
-351,752	800,000	0,007	0,019
-350,737	-200,000	0,009	0,125
-349,723	-108,923	0,070	-0,011
-348,708	800,000	0,059	0,158
-347,693	800,000	-0,024	0,070
-346,679	800,000	0,023	-0,047
-345,664	-200,000	0,020	0,112
-344,650	-200,000	-0,021	0,093
-343,635	220,123	0,033	0,039
-342,620	-155,015	0,026	0,001
-341,606	800,000	0,005	-0,013
-340,591	-200,000	0,022	-0,099
-339,577	429,006	-0,108	-0,169
-338,562	204,099	0,108	-0,122
-337,548	-200,000	0,014	-0,151
-336,533	-200,000	0,037	0,129
-335,518	-135,377	0,052	-0,004
-334,504	367,679	-0,073	0,106
-333,489	19,742	-0,084	0,049
-332,475	-200,000	0,001	-0,072
-331,460	504,982	0,067	-0,113
-330,445	-200,000	0,001	-0,098
-329,431	-200,000	0,011	0,145
-328,416	800,000	0,043	0,120
-327,402	-200,000	0,016	0,122
-326,387	800,000	-0,009	-0,026
-325,372	76,149	0,014	0,011
-324,358	-200,000	-0,028	0,147
-323,343	494,990	-0,025	-0,041
-322,329	-80,060	0,163	-0,039
-321,314	-173,928	0,165	-0,003
-320,299	718,278	-0,037	0,071
-319,285	723,427	0,023	-0,044
-318,270	-11,408	-0,089	0,042
-317,256	-112,272	0,035	-0,005
-316,241	800,000	0,042	-0,116
-315,226	41,978	-0,099	-0,065
-314,212	-98,737	0,073	-0,013
-313,197	-112,673	-0,066	0,009
-312,183	-178,702	-0,140	-0,002
-311,168	652,602	-0,016	-0,030
-310,153	-55,465	0,071	-0,023
-309,139	-38,558	-0,090	0,034
-308,124	440,500	-0,039	-0,062
-307,110	-200,000	-0,000	0,012
-306,095	55,461	0,155	0,108
-305,080	800,000	-0,043	0,089
-304,066	329,965	-0,090	-0,125
-303,051	217,776	-0,067	0,077
-302,037	370,572	-0,082	0,121
-301,022	-200,000	0,004	-0,046
-300,008	-132,807	0,109	-0,010
-298,993	374,224	-0,011	0,016
-297,978	-45,296	0,105	0,038
-296,964	-200,000	-0,004	0,065
-295,949	-104,402	0,142	-0,024
-294,935	11,452	0,145	-0,080
-293,920	-200,000	0,012	0,089
-292,905	-200,000	0,044	-0,166
-291,891	800,000	0,049	0,109
-290,876	800,000	0,012	0,026
-289,862	274,515	0,104	0,133
-288,847	-138,763	0,084	-0,007
-287,832	26,420	-0,033	-0,020
-286,818	-136,543	0,102	0,008
-285,803	-88,921	-0,221	0,047
-284,789	-74,102	0,096	0,025
-283,774	-200,000	0,019	0,078
-282,759	-200,000	0,004	0,052
-281,745	800,000	0,028	0,067
-280,730	123,095	-0,122	-0,111
-279,716	-93,891	0,146	-0,029
-278,701	228,890	0,034	0,040
-277,686	276,124	-0,081	-0,103
-276,672	62,781	-0,109	0,079
-275,657	800,000	-0,036	-0,073
-274,643	-119,461	-0,075	-0,009
-273,628	800,000	0,023	0,055
-272,613	239,290	-0,066	0,079
-271,599	144,950	0,087	0,084
-270,584	277,436	0,028	0,036
-269,570	117,664	-0,075	-0,067
-268,555	800,000	-0,015	-0,030
-267,540	2,697	-0,137	-0,072
-266,526	27,251	0,032	-0,019
-265,511	-200,000	-0,026	-0,158
-264,497	-200,000	0,024	0,110
-263,482	38,907	-0,088	-0,056
-262,467	-71,313	-0,083	-0,022
-261,453	72,707	0,056	-0,042
-260,438	800,000	0,016	0,038
-259,424	-98,308	-0,101	-0,019
-258,409	63,216	-0,107	-0,078
-257,395	521,885	0,027	0,047
-256,380	157,767	-0,026	-0,026
-255,365	800,000	-0,037	0,089
-254,351	800,000	-0,059	-0,131
-253,336	-56,741	0,003	0,001
-252,322	-114,016	-0,105	-0,015
-251,307	410,464	0,035	0,054
-250,292	479,439	0,056	-0,091
-249,278	62,345	0,225	0,162
-248,263	-143,552	-0,046	-0,003
-247,249	667,603	-0,015	-0,029
-246,234	111,489	-0,077	-0,067
-245,219	-200,000	-0,010	-0,066
-244,205	-84,881	-0,140	0,032
-243,190	-200,000	-0,010	-0,176
-242,176	-175,289	-0,088	-0,002
-241,161	-200,000	0,016	0,116
-240,146	152,253	-0,053	0,053
-239,132	800,000	-0,011	0,027
-238,117	-200,000	-0,005	-0,119
-237,103	320,601	-0,048	-0,065
-236,088	-62,154	0,061	-0,018
-235,073	-109,399	0,052	0,008
-234,059	35,566	0,086	0,054
-233,044	-134,759	-0,025	-0,002
-232,030	644,316	0,034	0,063
-231,015	-16,409	-0,032	0,014
-230,000	269,251	0,089	-0,113
-228,986	-85,190	-0,128	0,029
-227,971	398,580	-0,021	0,031
-226,957	-77,545	-0,091	-0,023
-225,942	396,740	0,050	0,076
-224,927	233,547	-0,058	0,069
-223,913	389,729	0,040	-0,059
-222,898	13,901	-0,026	0,015
-221,884	40,714	-0,041	0,027
-220,869	-200,000	0,002	-0,006
-219,855	108,784	-0,081	0,070
-218,840	14,938	0,094	-0,053
-217,825	-15,990	-0,094	0,043
-216,811	45,531	0,019	-0,013
-215,796	800,000	-0,065	-0,152
-214,782	217,017	-0,051	-0,059
-213,767	49,197	-0,074	0,050
-212,752	-56,906	0,114	0,036
-211,738	-200,000	-0,018	-0,078
-210,723	407,535	0,058	-0,088
-209,709	800,000	-0,024	-0,051
-208,694	-200,000	0,011	-0,085
-207,679	-200,000	-0,019	-0,090
-206,665	192,118	0,078	-0,085
-205,650	123,955	-0,046	-0,042
-204,636	554,341	0,043	-0,074
-203,621	-91,613	-0,035	0,007
-202,606	800,000	-0,022	0,068
-201,592	145,401	0,078	-0,075
-200,577	715,801	0,007	-0,013
-199,563	-200,000	-0,034	-0,120
-198,548	-89,630	0,074	-0,015
-197,533	645,092	0,094	-0,174
-196,519	800,000	-0,008	-0,017
-195,504	104,625	-0,126	0,107
-194,490	138,457	-0,016	0,016
-193,475	800,000	-0,031	0,063
-192,460	39,966	0,069	0,044
-191,446	16,173	0,112	-0,063
-190,431	22,466	0,101	0,059
-189,417	9,841	0,070	-0,038
-188,402	63,555	-0,127	-0,092
-187,387	278,804	-0,041	-0,052
-186,373	-200,000	0,028	-0,117
-185,358	-200,000	-0,008	-0,028
-184,344	-67,244	0,037	-0,010
-183,329	-183,211	0,115	0,001
-182,315	-200,000	-0,006	0,076
-181,300	-200,000	-0,007	0,147
-180,285	157,887	-0,071	-0,071
-179,271	77,895	-0,060	-0,046
-178,256	72,365	0,155	0,116
-177,242	316,693	0,049	0,067
-176,227	-200,000	-0,012	0,108
-175,212	57,843	-0,049	0,034
-174,198	258,933	-0,104	0,129
-173,183	323,365	0,030	-0,042
-172,169	6,262	-0,108	0,057
-171,154	365,943	-0,009	0,013
-170,139	275,485	0,037	0,047
-169,125	-3,693	0,180	0,089
-168,110	45,498	0,081	0,054
-167,096	-200,000	-0,000	0,128
-166,081	230,161	0,065	0,076
-165,066	-76,787	0,153	-0,038
-164,052	800,000	0,022	0,056
-163,037	652,034	-0,054	-0,100
-162,023	36,172	0,047	-0,030
-161,008	-96,722	0,194	0,036
-159,993	23,111	0,080	0,047
-158,979	255,152	-0,102	-0,125
-157,964	165,511	-0,093	0,094
-156,950	114,335	-0,060	-0,053
-155,935	-156,065	-0,039	0,002
-154,920	36,481	0,112	0,071
-153,906	456,886	0,034	0,054
-152,891	800,000	-0,043	0,103
-151,877	800,000	0,025	0,053
-150,862	-19,551	0,030	0,013
-149,847	800,000	0,037	0,098
-148,833	-53,642	-0,167	0,054
-147,818	293,903	-0,024	-0,032
-146,804	800,000	0,040	0,088
-145,789	800,000	-0,044	0,114
-144,775	-0,442	-0,074	0,037
-143,760	143,507	-0,032	-0,030
-142,745	171,009	0,035	0,036
-141,731	13,364	0,134	0,075
-140,716	219,314	-0,074	-0,086
-139,702	769,925	0,053	0,103
-138,687	-200,000	0,004	0,074
-137,672	-50,345	0,095	0,032
-136,658	-200,000	0,020	0,102
-135,643	-129,952	-0,039	0,004
-134,629	-200,000	-0,033	-0,156
-133,614	147,266	0,057	0,055
-132,599	800,000	-0,040	-0,095
-131,585	-4,415	0,131	-0,065
-130,570	-85,191	0,034	0,008
-129,556	190,973	0,066	0,071
-128,541	-200,000	-0,008	0,129
-127,526	-103,174	0,051	0,009
-126,512	667,480	0,030	0,055
-125,497	800,000	-0,066	-0,152
-124,483	-0,697	-0,064	0,033
-123,468	-88,014	0,078	0,017
-122,453	49,538	-0,067	-0,045
-121,439	-200,000	0,014	-0,078
-120,424	-200,000	0,023	-0,134
-119,410	44,812	0,060	-0,040
-118,395	-200,000	0,004	0,043
