DTS Sentinel unit serial number:	SN410029Multiplexer serial number:	ORYXHardware model number:	OX2-SRSoftware version number:	ORYX F/W v4,00 Oryx Data Collector v3.7.2.0data status	okinstallation	B5 Nyhavnadifferential loss correction	single-endedforward channel	channel 2reverse channel	N/Adate	2023/12/14time	04:47:13forward acquisition time	300,00reverse acquisition time	0,00gamma	499,1914k internal	0,3156k external	0,3156temperature offset calibration	1,0000default loss term (dB/km)	0,3820temperature slope calibration	1,0000multiplexer offset coefficient	1,0000multiplexer slope coefficient	1,0000fibre end	0,00T internal ref (°C)	7,81T ext. ref 1 (°C)	-8,66T ext. ref 2 (°C)	-8,70length (m)	temperature (°C)	Stokes	anti-Stokes-744,400	-134,654	0,275	-0,024
-743,385	-97,443	-0,356	-0,068
-742,371	-126,795	0,188	0,020
-741,356	-142,363	-0,344	0,025
-740,342	-200,000	0,015	0,207
-739,327	-76,455	-0,376	-0,097
-738,312	800,000	0,041	-0,100
-737,298	15,007	-0,442	-0,254
-736,283	503,871	0,038	0,065
-735,269	-97,200	-0,277	-0,053
-734,254	19,713	0,070	-0,042
-733,239	-106,379	-0,523	-0,085
-732,225	-102,829	0,133	0,023
-731,210	-94,819	-0,132	-0,026
-730,196	67,604	-0,141	-0,106
-729,181	-200,000	-0,007	-0,034
-728,167	315,724	-0,047	0,065
-727,152	138,188	-0,142	-0,138
-726,137	-40,076	-0,213	-0,081
-725,123	-200,000	-0,033	0,111
-724,108	-139,071	-0,079	-0,006
-723,094	776,331	-0,020	0,041
-722,079	34,322	-0,138	-0,089
-721,064	-200,000	0,004	0,106
-720,050	199,567	0,029	-0,033
-719,035	800,000	0,042	-0,090
-718,021	800,000	-0,050	-0,113
-717,006	-6,681	-0,104	-0,052
-715,991	-16,281	-0,130	-0,061
-714,977	202,972	-0,027	-0,030
-713,962	177,448	0,072	-0,077
-712,948	-99,062	-0,060	-0,011
-711,933	-200,000	-0,025	0,119
-710,918	-102,187	-0,028	0,005
-709,904	82,237	-0,158	-0,126
-708,889	676,115	0,079	-0,153
-707,875	-200,000	-0,034	-0,174
-706,860	-200,000	0,017	-0,085
-705,845	730,180	0,044	0,087
-704,831	-200,000	-0,008	0,068
-703,816	-126,461	-0,191	0,021
-702,802	237,295	0,045	-0,055
-701,787	800,000	-0,030	-0,078
-700,772	-200,000	-0,028	0,176
-699,758	-104,075	-0,072	-0,012
-698,743	-80,266	0,016	0,004
-697,729	114,803	-0,051	0,046
-696,714	-200,000	0,014	0,071
-695,699	-61,726	0,105	0,032
-694,685	426,526	-0,069	-0,109
-693,670	-97,312	0,035	-0,007
-692,656	-200,000	0,006	0,124
-691,641	19,166	-0,102	-0,060
-690,627	-47,712	0,137	0,049
-689,612	249,523	-0,064	0,080
-688,597	-75,445	0,099	-0,026
-687,583	-0,668	-0,098	-0,051
-686,568	-200,000	-0,005	0,062
-685,554	186,277	-0,097	-0,106
-684,539	588,107	0,056	-0,102
-683,524	786,408	-0,028	-0,056
-682,510	640,525	-0,039	-0,073
-681,495	-11,824	-0,111	-0,054
-680,481	121,128	-0,121	-0,111
-679,466	-200,000	0,051	-0,179
-678,451	386,448	0,032	0,049
-677,437	17,300	0,054	0,031
-676,422	58,984	-0,027	-0,020
-675,408	41,229	-0,041	0,027
-674,393	713,559	-0,020	-0,040
-673,378	800,000	0,030	-0,092
-672,364	63,961	-0,101	-0,075
-671,349	737,990	-0,095	-0,189
-670,335	-12,461	-0,077	-0,037
-669,320	-103,406	0,206	0,035
-668,305	-115,115	-0,087	-0,012
-667,291	373,750	-0,063	0,094
-666,276	-74,826	-0,071	0,019
-665,262	227,768	-0,049	-0,059
-664,247	-200,000	0,013	-0,063
-663,232	-200,000	-0,040	-0,168
-662,218	-81,125	0,027	-0,006
-661,203	800,000	-0,069	-0,155
-660,189	-28,188	0,073	0,031
-659,174	-200,000	0,009	0,042
-658,159	800,000	0,142	-0,300
-657,145	155,274	-0,049	0,050
-656,130	359,302	-0,046	0,068
-655,116	-23,894	0,089	0,039
-654,101	471,982	0,054	0,089
-653,086	800,000	0,042	-0,111
-652,072	-72,201	0,155	-0,042
-651,057	-182,656	-0,104	0,001
-650,043	-200,000	0,008	-0,052
-649,028	-131,096	-0,147	-0,014
-648,014	378,853	-0,065	-0,098
-646,999	-200,000	-0,003	-0,036
-645,984	-200,000	-0,027	-0,128
-644,970	-200,000	0,007	-0,029
-643,955	-200,000	-0,069	-0,226
-642,941	-55,714	-0,092	0,030
-641,926	121,315	-0,058	0,053
-640,911	-168,359	0,069	0,002
-639,897	493,429	-0,046	-0,079
-638,882	183,179	0,031	0,034
-637,868	-54,503	-0,059	0,020
-636,853	800,000	-0,038	-0,087
-635,838	-200,000	-0,063	-0,215
-634,824	-86,909	-0,093	0,021
-633,809	-94,029	-0,129	0,026
-632,795	-148,202	0,088	-0,005
-631,780	-41,646	0,024	0,009
-630,765	-139,833	-0,075	0,006
-629,751	-200,000	0,019	-0,184
-628,736	-81,352	-0,188	0,045
-627,722	-18,652	-0,030	-0,014
-626,707	69,790	-0,085	-0,064
-625,692	800,000	-0,052	0,150
-624,678	575,862	-0,022	0,039
-623,663	38,811	0,027	-0,018
-622,649	-200,000	0,021	-0,125
-621,634	38,028	0,140	-0,091
-620,619	800,000	0,083	-0,184
-619,605	350,886	-0,031	-0,046
-618,590	-200,000	-0,018	0,058
-617,576	-2,756	0,162	0,083
-616,561	-200,000	0,010	0,097
-615,546	-172,160	-0,173	0,004
-614,532	-145,766	-0,056	0,004
-613,517	68,255	0,066	-0,050
-612,503	170,148	0,065	0,069
-611,488	-43,644	-0,082	0,030
-610,474	592,974	-0,003	0,005
-609,459	214,220	-0,033	-0,038
-608,444	-23,054	-0,151	-0,066
-607,430	-48,657	-0,080	-0,028
-606,415	237,088	0,045	-0,055
-605,401	800,000	0,013	0,040
-604,386	800,000	-0,005	-0,012
-603,371	688,708	-0,076	-0,146
-602,357	114,297	-0,033	-0,029
-601,342	-200,000	-0,007	0,023
-600,328	-200,000	-0,005	-0,183
-599,313	800,000	0,042	-0,122
-598,298	86,253	-0,119	-0,096
-597,284	239,721	-0,009	-0,012
-596,269	-27,230	0,121	0,052
-595,255	318,971	-0,051	-0,071
-594,240	171,060	0,045	0,047
-593,225	438,495	-0,049	-0,079
-592,211	-1,846	0,092	0,047
-591,196	-168,791	-0,052	0,001
-590,182	800,000	0,036	0,113
-589,167	-68,991	-0,158	-0,044
-588,152	-118,985	0,148	-0,019
-587,138	371,783	-0,040	-0,059
-586,123	-200,000	0,009	-0,162
-585,109	-32,046	0,047	0,019
-584,094	-135,940	-0,031	0,003
-583,079	-200,000	-0,015	-0,070
-582,065	800,000	0,051	0,160
-581,050	-20,228	0,073	-0,033
-580,036	-120,364	-0,096	-0,012
-579,021	-72,604	-0,074	0,020
-578,006	800,000	0,079	0,173
-576,992	101,517	0,113	0,097
-575,977	569,380	-0,040	-0,072
-574,963	90,543	0,087	0,072
-573,948	-55,557	-0,083	0,027
-572,934	-200,000	-0,023	0,098
-571,919	-33,282	-0,046	-0,019
-570,904	25,476	-0,038	0,023
-569,890	-61,103	0,068	0,021
-568,875	-200,000	-0,211	0,000
-567,861	-200,000	0,024	0,124
-566,846	-200,000	0,004	0,227
-565,831	-69,728	-0,084	-0,023
-564,817	-200,000	0,008	-0,083
-563,802	-176,742	0,009	0,000
-562,788	667,013	-0,023	0,043
-561,773	774,313	0,035	-0,069
-560,758	-200,000	-0,022	0,101
-559,744	800,000	-0,047	0,097
-558,729	426,970	-0,074	0,118
-557,715	155,409	-0,091	-0,092
-556,700	23,524	-0,190	-0,114
-555,685	190,621	0,119	-0,131
-554,671	-200,000	0,021	0,122
-553,656	-97,464	-0,209	-0,039
-552,642	800,000	-0,040	0,128
-551,627	-200,000	-0,017	0,089
-550,612	737,382	-0,027	-0,053
-549,598	-200,000	-0,009	-0,079
-548,583	800,000	0,029	-0,094
-547,569	501,468	0,010	-0,017
-546,554	-200,000	-0,011	-0,099
-545,539	31,416	0,033	0,021
-544,525	-200,000	0,008	0,110
-543,510	-200,000	-0,006	0,037
-542,496	389,038	0,070	0,106
-541,481	-200,000	-0,011	-0,105
-540,466	800,000	0,004	-0,012
-539,452	-33,350	-0,065	-0,026
-538,437	107,215	0,135	0,117
-537,423	-90,365	-0,084	0,018
-536,408	-200,000	-0,008	-0,055
-535,393	800,000	-0,028	-0,078
-534,379	52,594	-0,073	-0,051
-533,364	800,000	0,034	-0,105
-532,350	-93,625	-0,066	0,013
-531,335	-200,000	-0,002	0,170
-530,321	800,000	0,055	0,116
-529,306	187,721	0,041	-0,045
-528,291	69,761	-0,075	0,057
-527,277	199,032	0,099	-0,111
-526,262	508,531	-0,039	-0,067
-525,248	-200,000	0,007	-0,031
-524,233	-200,000	-0,006	0,113
-523,218	-17,206	-0,100	-0,046
-522,204	-200,000	-0,036	0,187
-521,189	-200,000	-0,013	0,108
-520,175	270,428	-0,075	0,096
-519,160	800,000	-0,058	-0,179
-518,145	121,021	-0,100	0,091
-517,131	800,000	-0,044	-0,133
-516,116	20,221	-0,160	-0,094
-515,102	342,067	-0,101	0,145
-514,087	-150,029	-0,089	0,005
-513,072	100,225	0,123	0,104
-512,058	58,907	-0,041	0,029
-511,043	-200,000	-0,003	-0,056
-510,029	-160,054	0,063	-0,002
-509,014	-42,160	0,095	0,035
-507,999	-6,734	0,137	0,068
-506,985	115,994	-0,080	-0,071
-505,970	-72,229	0,016	0,004
-504,956	85,345	-0,115	-0,092
-503,941	-77,609	0,051	-0,013
-502,926	-92,873	0,083	0,017
-501,912	800,000	0,017	0,052
-500,897	-85,747	0,105	0,023
-499,883	-200,000	0,002	0,071
-498,868	-200,000	-0,039	0,201
-497,853	800,000	0,006	-0,012
-496,839	-200,000	0,010	-0,060
-495,824	452,603	-0,032	-0,052
-494,810	65,396	0,042	0,031
-493,795	-129,857	0,076	0,008
-492,781	-62,587	-0,129	0,039
-491,766	86,005	-0,102	0,082
-490,751	-1,661	-0,039	0,020
-489,737	306,183	-0,013	-0,017
-488,722	800,000	0,058	0,121
-487,708	107,018	0,090	-0,078
-486,693	-90,321	-0,063	-0,013
-485,678	0,979	0,092	-0,048
-484,664	570,632	-0,070	-0,126
-483,649	67,746	-0,044	-0,033
-482,635	258,739	-0,054	-0,069
-481,620	52,851	0,044	0,030
-480,605	-200,000	0,038	0,187
-479,591	286,097	0,067	-0,088
-478,576	206,111	0,088	-0,100
-477,562	-200,000	-0,021	-0,151
-476,547	-200,000	0,070	-0,243
-475,532	800,000	-0,011	0,032
-474,518	154,589	0,091	0,091
-473,503	447,529	0,033	0,054
-472,489	800,000	0,029	0,080
-471,474	142,718	-0,012	0,012
-470,459	50,556	0,037	-0,026
-469,445	524,357	-0,088	-0,152
-468,430	-200,000	-0,016	-0,080
-467,416	-200,000	0,004	-0,119
-466,401	58,518	0,069	-0,049
-465,386	-121,265	0,065	0,008
-464,372	572,179	0,057	0,102
-463,357	592,449	-0,103	0,186
-462,343	-91,729	-0,131	-0,027
-461,328	41,820	-0,106	-0,070
-460,313	-155,373	-0,075	-0,003
-459,299	111,652	0,072	0,063
-458,284	-56,253	-0,113	0,036
-457,270	114,134	-0,082	0,073
-456,255	176,294	0,079	-0,084
-455,241	800,000	0,021	-0,052
-454,226	-200,000	0,027	-0,172
-453,211	-200,000	-0,003	0,041
-452,197	26,681	0,097	0,059
-451,182	-200,000	-0,010	-0,119
-450,168	-78,846	0,028	0,007
-449,153	701,072	0,006	0,012
-448,138	-31,743	0,076	-0,031
-447,124	458,419	-0,027	-0,045
-446,109	-80,006	-0,216	0,053
-445,095	161,748	0,093	0,095
-444,080	123,111	0,022	0,020
-443,065	-200,000	-0,009	0,099
-442,051	-112,295	0,077	0,011
-441,036	89,501	-0,079	0,064
-440,022	-200,000	-0,092	0,000
-439,007	201,173	0,055	-0,062
-437,992	799,389	-0,024	0,048
-436,978	306,862	-0,068	-0,093
-435,963	-200,000	0,010	0,073
-434,949	-125,899	-0,175	-0,019
-433,934	-200,000	-0,046	0,160
-432,919	-200,000	-0,003	0,045
-431,905	-153,892	0,177	-0,009
-430,890	-125,774	0,096	-0,010
-429,876	800,000	-0,076	0,161
-428,861	-135,304	0,189	-0,016
-427,846	-149,199	0,071	0,004
-426,832	-200,000	-0,011	-0,097
-425,817	-200,000	-0,007	-0,036
-424,803	-200,000	-0,012	-0,062
-423,788	363,879	0,062	0,091
-422,773	-70,292	-0,060	0,017
-421,759	-72,001	-0,134	-0,036
-420,744	-200,000	0,008	0,026
-419,730	-78,634	-0,096	0,024
-418,715	-200,000	-0,010	0,096
-417,701	76,069	-0,029	0,022
-416,686	167,410	0,099	0,102
-415,671	-200,000	0,009	0,083
-414,657	276,414	0,105	0,136
-413,642	-90,642	0,151	-0,031
-412,628	-200,000	0,042	-0,167
-411,613	-30,926	-0,145	-0,059
-410,598	28,171	-0,077	-0,048
-409,584	-200,000	-0,013	-0,130
-408,569	450,470	-0,015	0,025
-407,555	479,092	-0,042	0,070
-406,540	80,800	-0,079	-0,062
-405,525	-33,009	-0,149	0,060
-404,511	655,814	0,097	-0,183
-403,496	-200,000	0,006	-0,099
-402,482	-126,145	0,042	-0,005
-401,467	69,514	-0,032	-0,024
-400,452	-174,933	0,152	0,003
-399,438	-200,000	-0,001	0,016
-398,423	214,687	-0,079	0,091
-397,409	-144,083	0,071	-0,005
-396,394	312,544	-0,042	0,057
-395,379	-130,938	0,090	0,009
-394,365	166,856	0,044	-0,045
-393,350	-150,079	0,166	0,009
-392,336	-35,954	0,100	0,039
-391,321	1,555	0,013	0,007
-390,306	-70,363	0,110	-0,030
-389,292	270,282	-0,088	0,112
-388,277	65,061	-0,088	0,065
-387,263	-46,932	0,070	-0,025
-386,248	81,522	0,167	0,132
-385,233	-200,000	-0,026	0,158
-384,219	18,748	0,046	0,027
-383,204	118,177	-0,120	-0,107
-382,190	800,000	-0,060	-0,171
-381,175	-14,840	-0,113	0,053
-380,160	383,095	0,036	0,054
-379,146	-200,000	0,010	-0,059
-378,131	800,000	-0,072	0,162
-377,117	-120,834	0,105	0,013
-376,102	-200,000	0,001	-0,068
-375,088	-200,000	0,018	-0,089
-374,073	70,998	0,033	-0,025
-373,058	-43,041	0,041	0,015
-372,044	90,213	0,112	0,091
-371,029	114,440	-0,067	0,060
-370,015	-200,000	-0,020	0,109
-369,000	-137,989	0,071	-0,006
-367,985	543,223	-0,077	-0,134
-366,971	-200,000	0,027	0,106
-365,956	-47,194	0,040	-0,014
-364,942	800,000	-0,037	-0,098
-363,927	-106,067	0,169	0,027
-362,912	800,000	0,047	0,112
-361,898	404,667	0,011	0,017
-360,883	-200,000	-0,015	-0,094
-359,869	-36,074	0,045	-0,017
-358,854	774,112	0,033	-0,065
-357,839	61,947	-0,063	0,045
-356,825	-52,732	0,149	-0,050
-355,810	79,585	0,040	0,031
-354,796	-119,986	-0,063	0,008
-353,781	-17,233	-0,041	0,019
-352,766	139,092	0,094	-0,089
-351,752	72,103	0,082	0,062
-350,737	-3,685	-0,075	0,038
-349,723	360,926	0,037	-0,054
-348,708	57,378	0,024	0,017
-347,693	476,755	0,038	0,063
-346,679	-151,530	0,117	-0,006
-345,664	93,514	0,097	-0,079
-344,650	800,000	0,053	-0,119
-343,635	-3,826	0,054	-0,027
-342,620	8,127	0,103	-0,056
-341,606	-45,123	0,081	-0,029
-340,591	-23,783	0,072	-0,031
-339,577	739,942	-0,031	0,060
-338,562	-187,770	-0,065	0,001
-337,548	70,299	-0,042	0,031
-336,533	529,588	0,013	0,023
-335,518	134,128	0,065	-0,061
-334,504	-200,000	0,043	0,161
-333,489	800,000	-0,021	-0,046
-332,475	800,000	0,048	0,110
-331,460	279,472	-0,045	-0,059
-330,445	30,717	-0,179	-0,111
-329,431	-72,796	-0,077	0,021
-328,416	-133,206	0,083	-0,007
-327,402	800,000	-0,038	0,084
-326,387	230,995	0,068	0,081
-325,372	-94,692	0,073	-0,014
-324,358	800,000	-0,065	-0,133
-323,343	396,479	0,036	0,054
-322,329	-8,415	-0,009	-0,004
-321,314	91,416	-0,056	0,045
-320,299	86,823	0,108	0,087
-319,285	542,339	-0,029	-0,050
-318,270	129,859	-0,073	0,068
-317,256	-200,000	0,010	0,061
-316,241	202,270	-0,091	0,102
-315,226	800,000	0,083	-0,175
-314,212	800,000	0,045	-0,100
-313,197	232,102	-0,021	0,025
-312,183	156,850	-0,050	-0,050
-311,168	112,163	0,144	-0,126
-310,153	213,055	-0,063	-0,072
-309,139	11,905	-0,037	-0,021
-308,124	147,543	0,087	0,085
-307,110	800,000	0,046	-0,094
-306,095	-124,646	0,085	0,009
-305,080	-59,445	0,048	0,015
-304,066	-200,000	-0,017	-0,172
-303,051	25,034	0,085	0,051
-302,037	-134,429	-0,141	-0,012
-301,022	800,000	-0,033	0,101
-300,008	111,848	0,082	-0,072
-298,993	187,009	0,038	0,041
-297,978	800,000	-0,039	0,092
-296,964	205,294	0,035	0,040
-295,949	51,407	0,045	0,031
-294,935	310,992	-0,073	0,100
-293,920	-66,111	-0,136	0,039
-292,905	800,000	0,022	-0,056
-291,891	-150,339	0,068	0,004
-290,876	142,328	0,027	0,026
-289,862	800,000	-0,048	-0,152
-288,847	-41,649	-0,100	-0,037
-287,832	235,340	0,058	-0,070
-286,818	178,689	0,060	-0,064
-285,803	-48,814	0,097	-0,034
-284,789	235,250	-0,054	0,065
-283,774	184,793	0,040	0,043
-282,759	800,000	0,052	-0,142
-281,745	-68,830	0,020	-0,006
-280,730	-94,953	0,076	0,015
-279,716	-89,307	-0,096	0,020
-278,701	800,000	0,031	0,073
-277,686	635,336	-0,016	0,029
-276,672	-200,000	-0,013	0,051
-275,657	-200,000	0,041	0,135
-274,643	64,839	-0,087	-0,064
-273,628	294,994	0,020	0,027
-272,613	236,992	0,035	0,041
-271,599	800,000	-0,059	-0,119
-270,584	-138,585	0,073	0,006
-269,570	-200,000	0,016	0,234
-268,555	421,937	0,063	0,098
-267,540	-128,301	-0,058	-0,006
-266,526	-200,000	-0,013	-0,058
-265,511	410,349	0,060	0,093
-264,497	-200,000	0,018	-0,096
-263,482	800,000	-0,015	0,046
-262,467	67,692	-0,051	0,038
-261,453	-200,000	0,001	-0,031
-260,438	-120,123	-0,041	-0,005
-259,424	-17,985	-0,108	0,049
-258,409	100,346	-0,068	-0,057
-257,395	258,859	0,060	0,075
-256,380	116,617	-0,042	0,037
-255,365	-106,858	0,062	0,010
-254,351	365,505	0,044	-0,064
-253,336	238,922	-0,073	0,088
-252,322	291,124	-0,037	-0,049
-251,307	75,483	0,053	-0,041
-250,292	726,062	0,039	0,075
-249,278	39,562	-0,155	0,100
-248,263	221,283	0,138	0,161
-247,249	49,290	0,037	0,025
-246,234	-200,000	-0,008	0,083
-245,219	-62,535	0,108	0,032
-244,205	229,999	0,105	-0,124
-243,190	174,142	0,053	0,055
-242,176	-39,413	0,188	0,071
-241,161	-125,398	0,147	-0,016
-240,146	-200,000	0,016	-0,125
-239,132	-200,000	-0,020	0,103
-238,117	-200,000	0,037	-0,209
-237,103	-25,729	-0,113	-0,048
-236,088	-45,036	-0,136	0,049
-235,073	27,416	0,156	0,095
-234,059	168,693	0,087	-0,090
-233,044	800,000	0,028	0,082
-232,030	-200,000	-0,022	-0,094
-231,015	242,555	-0,044	-0,054
-230,000	462,042	-0,114	0,185
-228,986	26,397	-0,079	-0,048
-227,971	-167,489	0,065	0,002
-226,957	-68,721	-0,198	-0,055
-225,942	800,000	0,037	0,119
-224,927	-5,094	-0,035	0,018
-223,913	-39,649	-0,133	-0,050
-222,898	66,082	0,090	-0,066
-221,884	20,046	0,040	0,023
-220,869	206,615	0,076	-0,086
-219,855	-200,000	0,002	0,045
-218,840	-200,000	0,013	-0,072
-217,825	-200,000	0,007	0,065
-216,811	-125,341	0,111	-0,012
-215,796	800,000	-0,018	0,050
-214,782	800,000	-0,010	0,030
-213,767	572,516	0,054	0,095
-212,752	70,488	0,089	0,066
-211,738	-195,683	-0,063	-0,000
-210,723	-200,000	-0,037	-0,133
-209,709	287,030	-0,033	-0,043
-208,694	800,000	0,029	-0,076
-207,679	-200,000	0,002	-0,059
-206,665	61,617	0,090	-0,065
-205,650	-80,870	0,088	-0,021
-204,636	617,773	-0,052	-0,095
-203,621	40,213	-0,078	0,050
-202,606	-54,725	0,173	0,056
-201,592	-99,204	-0,061	-0,011
-200,577	-200,000	-0,006	-0,128
-199,563	71,315	0,080	0,060
-198,548	259,672	0,148	0,184
-197,533	-200,000	-0,012	0,119
-196,519	-41,456	-0,182	0,067
-195,504	800,000	0,035	-0,096
-194,490	208,935	0,077	-0,088
-193,475	422,232	-0,035	-0,055
-192,460	-73,483	-0,090	-0,023
-191,446	-194,846	0,119	-0,001
-190,431	-200,000	0,008	0,105
-189,417	160,799	-0,045	0,045
-188,402	-200,000	0,006	0,073
-187,387	-46,573	0,033	-0,012
-186,373	351,127	0,024	0,034
-185,358	800,000	-0,038	-0,103
-184,344	800,000	-0,028	0,081
-183,329	-200,000	-0,015	-0,078
-182,315	656,690	-0,066	0,122
-181,300	20,671	0,179	-0,104
-180,285	-200,000	0,003	-0,085
-179,271	-60,714	-0,113	-0,034
-178,256	391,858	-0,030	0,045
-177,242	778,493	-0,011	-0,022
-176,227	93,138	-0,142	-0,116
-175,212	800,000	0,031	0,081
-174,198	290,387	-0,042	0,055
-173,183	252,617	0,038	0,047
-172,169	-200,000	0,011	-0,159
-171,154	-15,890	-0,100	-0,046
-170,139	5,713	-0,022	0,012
-169,125	91,008	-0,062	0,050
-168,110	227,886	0,066	0,077
-167,096	-161,695	-0,051	-0,002
-166,081	657,384	-0,013	-0,024
-165,066	50,939	-0,044	-0,030
-164,052	266,936	-0,011	-0,014
-163,037	21,399	0,114	-0,067
-162,023	800,000	-0,020	-0,045
-161,008	113,236	0,084	0,073
-159,993	9,399	0,088	-0,048
-158,979	-121,488	-0,088	-0,010
-157,964	434,373	-0,062	0,097
-156,950	384,151	-0,067	0,099
-155,935	-127,547	0,130	0,013
-154,920	800,000	-0,033	-0,079
-153,906	-0,258	0,084	-0,043
-152,891	800,000	0,027	0,073
-151,877	-94,692	0,148	0,029
-150,862	-138,809	0,079	-0,006
-149,847	-200,000	0,038	0,153
-148,833	800,000	0,025	0,057
-147,818	342,908	-0,043	-0,061
-146,804	800,000	0,023	0,047
-145,789	-118,019	0,028	0,004
-144,775	-200,000	0,047	-0,255
-143,760	98,871	-0,027	-0,023
-142,745	198,757	0,058	-0,064
-141,731	377,135	-0,011	0,017
-140,716	-26,370	-0,109	0,046
-139,702	-95,489	0,061	-0,012
-138,687	-37,225	0,113	0,043
-137,672	-8,486	-0,019	-0,009
-136,658	-122,427	-0,022	0,003
-135,643	119,039	0,092	0,082
-134,629	-200,000	-0,013	0,146
-133,614	-200,000	-0,022	0,207
-132,599	800,000	-0,038	-0,090
-131,585	257,317	0,071	0,088
-130,570	-200,000	0,026	0,101
-129,556	800,000	0,027	-0,086
-128,541	523,681	0,048	0,081
-127,526	800,000	-0,020	-0,050
-126,512	-127,684	0,039	-0,004
-125,497	-200,000	-0,027	0,090
-124,483	52,385	0,130	-0,089
-123,468	-74,498	-0,119	0,031
-122,453	800,000	0,076	-0,175
-121,439	-200,000	0,001	0,031
-120,424	115,411	0,104	-0,091
-119,410	-108,720	0,179	-0,027
