DTS Sentinel unit serial number:	SN410029Multiplexer serial number:	ORYXHardware model number:	OX2-SRSoftware version number:	ORYX F/W v4,00 Oryx Data Collector v3.7.2.0data status	okinstallation	B5 Nyhavnadifferential loss correction	single-endedforward channel	channel 2reverse channel	N/Adate	2023/12/12time	13:32:13forward acquisition time	300,00reverse acquisition time	0,00gamma	499,1914k internal	0,3157k external	0,3157temperature offset calibration	1,0000default loss term (dB/km)	0,3820temperature slope calibration	1,0000multiplexer offset coefficient	1,0000multiplexer slope coefficient	1,0000fibre end	0,00T internal ref (°C)	15,63T ext. ref 1 (°C)	-0,33T ext. ref 2 (°C)	-0,56length (m)	temperature (°C)	Stokes	anti-Stokes-744,400	68,558	0,062	0,047
-743,385	-32,992	-0,223	0,091
-742,371	-40,491	0,272	0,104
-741,356	-44,192	-0,218	0,080
-740,342	-153,968	0,090	-0,004
-739,327	-82,921	-0,246	0,058
-738,312	151,778	0,118	-0,119
-737,298	-128,560	-0,212	0,022
-736,283	31,065	0,080	0,050
-735,269	-104,767	-0,164	0,027
-734,254	351,596	0,068	0,100
-733,239	-102,448	-0,582	-0,102
-732,225	-11,814	0,167	0,080
-731,210	358,498	-0,157	0,232
-730,196	-16,552	-0,031	0,015
-729,181	800,000	-0,061	-0,161
-728,167	-92,779	0,105	-0,022
-727,152	-25,871	-0,075	-0,033
-726,137	21,114	-0,045	-0,027
-725,123	-70,073	0,084	-0,023
-724,108	-4,584	-0,084	-0,043
-723,094	-200,000	0,003	-0,032
-722,079	96,340	-0,112	-0,094
-721,064	307,422	-0,123	-0,170
-720,050	-200,000	0,028	-0,108
-719,035	205,371	0,065	0,075
-718,021	-152,640	-0,150	0,008
-717,006	-200,000	0,011	-0,044
-715,991	-181,592	0,026	-0,000
-714,977	689,516	-0,065	-0,126
-713,962	160,178	0,094	-0,096
-712,948	32,632	0,168	-0,107
-711,933	-200,000	-0,019	0,065
-710,918	255,022	-0,026	0,033
-709,904	5,838	0,031	0,017
-708,889	65,437	-0,041	0,031
-707,875	31,250	-0,055	-0,035
-706,860	-12,932	-0,113	0,054
-705,845	-109,463	0,036	0,006
-704,831	-200,000	-0,009	-0,134
-703,816	-125,456	0,091	-0,010
-702,802	-200,000	0,048	-0,165
-701,787	156,430	0,027	0,028
-700,772	231,065	0,013	0,016
-699,758	-200,000	0,010	-0,080
-698,743	88,832	0,046	-0,038
-697,729	70,792	0,102	0,077
-696,714	255,154	-0,021	0,027
-695,699	-165,282	-0,127	-0,004
-694,685	-119,524	-0,166	-0,021
-693,670	614,377	-0,033	0,062
-692,656	127,258	-0,040	-0,037
-691,641	-47,363	-0,130	0,046
-690,627	-40,882	0,035	0,013
-689,612	-200,000	-0,012	-0,046
-688,597	-39,702	0,093	-0,036
-687,583	-14,689	-0,060	0,028
-686,568	39,350	0,099	-0,065
-685,554	-82,626	-0,056	0,013
-684,539	-63,058	-0,069	-0,021
-683,524	508,007	0,052	0,089
-682,510	-112,635	-0,163	0,024
-681,495	-200,000	-0,025	-0,090
-680,481	-37,690	-0,025	-0,010
-679,466	-200,000	0,015	-0,247
-678,451	-200,000	0,047	-0,176
-677,437	-128,452	0,063	-0,007
-676,422	-56,882	0,017	0,006
-675,408	-200,000	-0,019	-0,071
-674,393	-7,244	-0,096	-0,048
-673,378	-37,790	-0,014	0,006
-672,364	-96,203	-0,107	0,021
-671,349	50,582	0,076	-0,053
-670,335	-200,000	-0,001	0,038
-669,320	325,079	0,058	0,081
-668,305	107,591	-0,058	0,051
-667,291	800,000	-0,028	-0,061
-666,276	-96,541	-0,101	0,019
-665,262	-200,000	0,004	-0,059
-664,247	-72,750	-0,052	-0,014
-663,232	-200,000	-0,018	-0,085
-662,218	-44,767	-0,024	0,009
-661,203	17,133	-0,118	-0,069
-660,189	800,000	0,050	0,119
-659,174	700,491	-0,055	-0,107
-658,159	412,128	-0,105	-0,164
-657,145	-200,000	-0,001	-0,062
-656,130	-130,366	0,108	-0,011
-655,116	-149,586	-0,043	0,002
-654,101	-200,000	0,001	-0,072
-653,086	289,715	-0,085	-0,114
-652,072	200,799	0,042	-0,047
-651,057	800,000	-0,048	0,128
-650,043	-79,411	-0,180	-0,044
-649,028	-22,072	-0,076	-0,034
-648,014	-132,743	0,057	-0,005
-646,999	-25,266	-0,066	0,028
-645,984	-200,000	0,007	0,104
-644,970	-109,817	-0,074	-0,011
-643,955	143,102	-0,103	-0,100
-642,941	179,979	-0,076	-0,082
-641,926	800,000	-0,079	-0,164
-640,911	-110,021	-0,122	-0,019
-639,897	768,094	-0,019	0,038
-638,882	11,618	0,053	-0,030
-637,868	800,000	-0,058	-0,179
-636,853	-200,000	0,041	-0,160
-635,838	800,000	-0,029	-0,063
-634,824	118,479	-0,036	0,032
-633,809	-200,000	-0,021	0,076
-632,795	784,262	-0,051	0,103
-631,780	800,000	0,027	0,065
-630,765	187,234	-0,087	-0,096
-629,751	248,888	0,130	-0,162
-628,736	-66,761	-0,124	0,036
-627,722	251,194	-0,098	0,122
-626,707	-161,464	0,109	-0,004
-625,692	163,144	-0,029	-0,030
-624,678	651,253	0,064	0,121
-623,663	-132,250	-0,165	0,015
-622,649	-47,005	-0,046	-0,016
-621,634	-89,124	-0,100	0,022
-620,619	651,082	0,015	0,027
-619,605	229,451	0,082	-0,098
-618,590	-93,858	-0,085	0,017
-617,576	-51,630	0,098	0,034
-616,561	-200,000	0,006	0,066
-615,546	-71,077	-0,092	-0,025
-614,532	135,757	-0,096	-0,091
-613,517	165,419	0,039	-0,040
-612,503	306,950	0,024	-0,033
-611,488	-200,000	-0,021	0,154
-610,474	800,000	0,059	0,143
-609,459	-11,477	-0,076	0,037
-608,444	83,934	0,146	0,117
-607,430	-9,996	-0,228	-0,111
-606,415	173,882	0,032	-0,034
-605,401	-200,000	0,001	0,063
-604,386	415,062	0,040	-0,062
-603,371	-7,931	0,118	0,058
-602,357	800,000	-0,066	-0,149
-601,342	800,000	0,025	-0,061
-600,328	348,958	-0,061	0,088
-599,313	318,467	-0,065	-0,090
-598,298	800,000	-0,012	-0,028
-597,284	149,730	-0,031	0,031
-596,269	-24,440	0,078	0,034
-595,255	256,659	-0,029	0,036
-594,240	-98,911	0,132	0,024
-593,225	12,131	0,053	0,030
-592,211	132,880	0,028	0,026
-591,196	114,021	-0,055	0,049
-590,182	-2,240	0,068	0,035
-589,167	800,000	0,021	-0,057
-588,152	-200,000	0,006	-0,191
-587,138	-200,000	-0,004	0,021
-586,123	404,547	-0,026	-0,040
-585,109	800,000	-0,021	0,059
-584,094	-37,302	0,191	-0,074
-583,079	582,151	-0,041	-0,073
-582,065	-57,016	0,091	0,029
-581,050	272,331	-0,040	-0,052
-580,036	800,000	-0,018	-0,050
-579,021	-109,867	-0,107	0,016
-578,006	90,988	-0,112	0,092
-576,992	-108,250	-0,080	-0,012
-575,977	-200,000	-0,009	-0,097
-574,963	-65,462	-0,198	0,058
-573,948	-200,000	-0,011	-0,060
-572,934	-200,000	-0,001	-0,062
-571,919	-115,579	-0,032	0,004
-570,904	164,465	0,102	-0,105
-569,890	19,762	-0,105	-0,062
-568,875	112,701	0,023	0,020
-567,861	457,055	-0,057	-0,092
-566,846	469,323	0,047	-0,078
-565,831	-72,116	0,021	0,006
-564,817	-200,000	0,009	0,041
-563,802	-41,541	-0,127	0,047
-562,788	305,085	-0,020	0,028
-561,773	378,459	-0,055	-0,083
-560,758	323,269	0,127	0,177
-559,744	777,084	0,022	0,044
-558,729	516,037	-0,062	-0,106
-557,715	-200,000	0,001	0,049
-556,700	143,680	0,078	-0,076
-555,685	-43,704	0,022	-0,008
-554,671	-200,000	-0,037	-0,128
-553,656	-200,000	0,003	0,024
-552,642	90,930	0,041	0,034
-551,627	-20,883	0,095	-0,042
-550,612	746,054	-0,009	0,018
-549,598	-200,000	-0,024	-0,138
-548,583	-200,000	0,005	0,056
-547,569	-73,575	-0,060	0,016
-546,554	56,748	0,063	0,045
-545,539	19,674	-0,119	-0,070
-544,525	-77,031	-0,052	-0,013
-543,510	-24,296	-0,111	-0,048
-542,496	95,656	0,032	0,027
-541,481	-11,379	-0,117	-0,056
-540,466	-146,471	0,155	0,010
-539,452	348,573	-0,052	0,075
-538,437	22,779	0,073	0,043
-537,423	-200,000	-0,003	-0,028
-536,408	286,605	-0,057	0,075
-535,393	-200,000	0,007	-0,027
-534,379	44,053	-0,027	-0,018
-533,364	800,000	-0,049	0,102
-532,350	-163,725	0,068	0,002
-531,335	649,114	-0,020	0,038
-530,321	237,762	0,070	0,085
-529,306	-200,000	-0,010	-0,089
-528,291	-200,000	-0,002	-0,054
-527,277	350,382	0,047	-0,068
-526,262	-200,000	-0,010	-0,035
-525,248	108,240	-0,042	0,037
-524,233	-133,359	0,069	-0,006
-523,218	63,213	-0,056	-0,041
-522,204	-31,898	-0,154	-0,063
-521,189	25,788	0,091	0,055
-520,175	216,549	0,077	-0,089
-519,160	-38,738	0,058	0,022
-518,145	-200,000	0,041	-0,229
-517,131	-200,000	0,010	0,043
-516,116	139,933	0,100	0,097
-515,102	560,061	0,040	-0,070
-514,087	-67,990	-0,016	0,004
-513,072	47,257	0,097	0,066
-512,058	-87,763	0,136	0,030
-511,043	305,815	-0,083	0,112
-510,029	-200,000	-0,016	0,098
-509,014	-200,000	-0,010	0,140
-507,999	39,680	0,080	0,052
-506,985	290,011	-0,043	-0,057
-505,970	158,181	0,080	0,081
-504,956	290,627	0,019	0,026
-503,941	800,000	0,023	-0,050
-502,926	-124,413	-0,064	0,007
-501,912	800,000	-0,036	0,106
-500,897	-200,000	0,001	0,062
-499,883	276,227	-0,036	-0,046
-498,868	-200,000	0,050	-0,168
-497,853	21,046	-0,095	-0,056
-496,839	-200,000	0,003	-0,112
-495,824	441,781	-0,057	0,092
-494,810	-92,059	0,135	0,028
-493,795	-97,314	0,016	0,003
-492,781	290,979	-0,022	-0,029
-491,766	67,717	-0,114	0,085
-490,751	-127,283	-0,134	0,014
-489,737	137,856	-0,047	0,045
-488,722	54,146	-0,015	-0,011
-487,708	800,000	-0,011	0,035
-486,693	800,000	0,038	0,078
-485,678	-126,312	0,086	-0,009
-484,664	-200,000	-0,016	-0,070
-483,649	-45,932	-0,156	-0,056
-482,635	184,006	0,018	0,019
-481,620	800,000	-0,008	0,021
-480,605	800,000	-0,024	-0,054
-479,591	73,802	0,078	-0,060
-478,576	-200,000	0,015	0,076
-477,562	-200,000	0,009	-0,034
-476,547	55,439	0,093	0,065
-475,532	124,395	0,039	0,036
-474,518	-83,167	-0,040	-0,009
-473,503	108,716	0,047	-0,041
-472,489	-200,000	-0,007	0,104
-471,474	800,000	0,052	-0,110
-470,459	-46,384	0,018	0,006
-469,445	-78,622	-0,100	-0,025
-468,430	277,497	-0,076	-0,099
-467,416	-200,000	-0,022	-0,127
-466,401	295,672	-0,028	-0,037
-465,386	-110,897	-0,160	-0,024
-464,372	-68,431	0,088	-0,025
-463,357	-91,137	-0,157	0,033
-462,343	-92,191	0,042	0,008
-461,328	-135,150	0,106	-0,009
-460,313	51,211	0,029	-0,020
-459,299	6,554	0,044	-0,024
-458,284	-49,138	0,087	0,030
-457,270	166,335	-0,071	0,073
-456,255	-175,245	0,073	-0,001
-455,241	-200,000	-0,012	0,131
-454,226	-200,000	0,017	0,092
-453,211	-200,000	0,010	0,118
-452,197	-200,000	-0,002	-0,064
-451,182	577,017	0,057	0,102
-450,168	51,073	-0,062	-0,043
-449,153	86,115	0,018	0,014
-448,138	-94,247	0,087	-0,017
-447,124	-200,000	-0,001	-0,041
-446,109	388,266	-0,014	0,021
-445,095	800,000	-0,062	0,153
-444,080	78,277	0,058	0,045
-443,065	-20,157	-0,083	-0,037
-442,051	-200,000	-0,002	-0,162
-441,036	740,585	0,102	0,200
-440,022	110,672	0,038	0,033
-439,007	800,000	-0,059	-0,142
-437,992	-59,866	-0,085	-0,026
-436,978	-102,896	0,083	0,014
-435,963	800,000	-0,022	0,051
-434,949	-117,763	0,020	0,003
-433,934	123,180	-0,107	0,097
-432,919	-37,291	0,034	-0,013
-431,905	-2,029	0,177	-0,090
-430,890	-101,654	0,195	0,034
-429,876	-200,000	-0,006	0,087
-428,861	255,661	0,057	-0,071
-427,846	-107,210	0,040	0,006
-426,832	-3,302	-0,212	-0,107
-425,817	-200,000	0,017	-0,069
-424,803	-16,818	-0,117	0,053
-423,788	141,022	-0,047	0,045
-422,773	425,645	0,072	0,114
-421,759	-102,685	0,037	-0,006
-420,744	-200,000	-0,004	0,087
-419,730	19,012	-0,028	-0,016
-418,715	206,182	-0,027	-0,031
-417,701	23,184	-0,193	-0,115
-416,686	-78,512	0,105	-0,026
-415,671	246,614	0,063	0,077
-414,657	-200,000	-0,001	-0,269
-413,642	-200,000	-0,010	-0,088
-412,628	-53,634	-0,027	0,009
-411,613	800,000	-0,050	-0,151
-410,598	108,968	-0,046	0,040
-409,584	-200,000	-0,009	-0,168
-408,569	-179,918	0,054	-0,001
-407,555	89,868	0,054	0,044
-406,540	-91,398	-0,048	0,010
-405,525	-200,000	0,010	-0,051
-404,511	187,323	0,089	-0,097
-403,496	-166,950	-0,197	-0,006
-402,482	-200,000	0,004	0,019
-401,467	193,461	0,039	-0,043
-400,452	157,015	0,060	-0,060
-399,438	-200,000	0,015	0,055
-398,423	-54,650	-0,108	0,035
-397,409	-200,000	-0,003	-0,058
-396,394	-120,667	-0,087	-0,011
-395,379	-154,945	0,138	-0,007
-394,365	340,992	-0,041	-0,059
-393,350	24,070	0,133	-0,080
-392,336	-55,827	0,121	-0,039
-391,321	-36,055	-0,163	0,064
-390,306	-200,000	0,013	0,081
-389,292	-200,000	0,001	-0,061
-388,277	42,667	0,019	0,012
-387,263	-200,000	0,016	0,099
-386,248	-141,752	-0,064	0,005
-385,233	250,079	0,047	-0,058
-384,219	800,000	-0,017	-0,036
-383,204	27,792	-0,080	0,049
-382,190	299,134	-0,030	0,040
-381,175	-164,579	0,068	-0,002
-380,160	-200,000	0,008	0,070
-379,146	239,641	0,012	0,015
-378,131	-200,000	-0,001	0,097
-377,117	656,194	0,032	-0,061
-376,102	-156,732	-0,127	-0,006
-375,088	664,498	0,024	-0,045
-374,073	-133,770	-0,119	0,011
-373,058	-140,850	0,109	0,008
-372,044	45,004	0,115	0,077
-371,029	-79,642	-0,080	0,019
-370,015	-200,000	0,019	-0,146
-369,000	-200,000	0,007	-0,081
-367,985	-171,648	0,094	0,002
-366,971	-200,000	-0,010	0,065
-365,956	-41,729	-0,025	0,009
-364,942	800,000	-0,056	0,113
-363,927	-200,000	0,034	0,129
-362,912	131,251	0,099	0,092
-361,898	-37,450	0,031	0,012
-360,883	-19,128	-0,070	-0,032
-359,869	-200,000	-0,008	-0,137
-358,854	-96,231	0,172	-0,033
-357,839	586,670	0,105	0,188
-356,825	800,000	-0,003	0,006
-355,810	-200,000	-0,022	0,163
-354,796	-200,000	-0,005	-0,015
-353,781	54,032	-0,134	-0,093
-352,766	384,435	0,016	0,025
-351,752	163,612	0,066	-0,067
-350,737	237,778	-0,023	0,028
-349,723	-117,656	0,197	-0,025
-348,708	-98,466	-0,075	0,014
-347,693	-200,000	0,025	-0,091
-346,679	-7,963	-0,024	0,012
-345,664	800,000	-0,080	-0,175
-344,650	376,860	0,083	0,123
-343,635	702,255	0,041	0,078
-342,620	800,000	-0,008	-0,019
-341,606	-61,757	0,076	0,023
-340,591	-62,870	-0,010	-0,003
-339,577	260,128	-0,078	-0,098
-338,562	-11,101	0,081	-0,039
-337,548	332,097	0,036	0,050
-336,533	-15,833	0,148	0,068
-335,518	-200,000	0,028	0,143
-334,504	-200,000	0,001	0,030
-333,489	468,358	-0,048	0,078
-332,475	38,903	-0,078	0,050
-331,460	54,981	-0,021	-0,014
-330,445	800,000	-0,036	-0,078
-329,431	305,525	0,067	-0,091
-328,416	-200,000	0,018	0,139
-327,402	-73,697	0,092	-0,024
-326,387	173,887	-0,068	-0,072
-325,372	-72,812	-0,019	-0,005
-324,358	192,900	-0,015	-0,017
-323,343	797,911	0,030	-0,060
-322,329	800,000	-0,034	-0,091
-321,314	-200,000	0,020	-0,070
-320,299	38,954	-0,092	-0,059
-319,285	800,000	0,029	0,088
-318,270	-120,323	0,135	-0,016
-317,256	220,792	-0,062	-0,072
-316,241	-200,000	-0,002	-0,097
-315,226	800,000	-0,018	0,057
-314,212	-38,737	0,040	-0,015
-313,197	-25,763	0,096	-0,041
-312,183	800,000	-0,062	0,127
-311,168	195,930	-0,038	-0,042
-310,153	-116,070	0,128	0,017
-309,139	151,752	0,073	0,072
-308,124	-147,951	-0,107	0,006
-307,110	117,860	-0,066	-0,059
-306,095	800,000	-0,046	0,096
-305,080	299,301	-0,090	0,121
-304,066	-200,000	0,000	-0,178
-303,051	-200,000	-0,016	-0,096
-302,037	-200,000	0,006	0,038
-301,022	48,645	0,161	-0,109
-300,008	766,486	0,032	0,064
-298,993	-45,157	0,196	0,070
-297,978	-200,000	-0,020	0,099
-296,964	32,031	0,037	-0,023
-295,949	94,214	-0,040	-0,033
-294,935	-200,000	0,003	-0,070
-293,920	-200,000	-0,004	-0,137
-292,905	235,810	0,131	0,157
-291,891	800,000	0,040	0,109
-290,876	380,015	-0,079	0,118
-289,862	-200,000	-0,008	0,039
-288,847	-169,987	-0,057	0,001
-287,832	21,258	-0,114	-0,067
-286,818	-53,118	0,087	-0,029
-285,803	800,000	-0,060	-0,130
-284,789	514,477	-0,018	-0,030
-283,774	-200,000	0,008	0,076
-282,759	-200,000	0,029	-0,196
-281,745	231,524	-0,128	-0,152
-280,730	-200,000	-0,048	-0,214
-279,716	-200,000	0,006	-0,133
-278,701	16,253	-0,086	0,049
-277,686	-200,000	-0,005	0,047
-276,672	434,857	-0,036	-0,056
-275,657	48,782	0,139	0,095
-274,643	-47,050	-0,083	-0,029
-273,628	-200,000	0,005	-0,104
-272,613	-200,000	0,002	-0,108
-271,599	471,541	0,066	0,107
-270,584	591,882	-0,034	0,061
-269,570	-10,619	-0,036	-0,017
-268,555	793,161	-0,033	0,066
-267,540	-75,133	-0,121	0,031
-266,526	-31,126	-0,054	0,022
-265,511	-200,000	-0,012	-0,096
-264,497	-189,051	0,047	-0,000
-263,482	-133,401	-0,068	-0,006
-262,467	-4,421	0,140	-0,070
-261,453	-43,074	-0,040	-0,015
-260,438	-122,434	-0,032	0,004
-259,424	397,998	-0,037	-0,057
-258,409	81,948	-0,136	-0,107
-257,395	-200,000	-0,002	-0,072
-256,380	585,568	0,103	0,185
-255,365	-200,000	0,019	-0,078
-254,351	336,004	0,051	0,072
-253,336	-15,504	0,075	0,034
-252,322	-48,857	0,071	-0,025
-251,307	-96,079	-0,080	-0,015
-250,292	44,297	0,036	0,024
-249,278	99,556	0,065	0,054
-248,263	-66,625	-0,043	0,012
-247,249	159,392	0,051	0,052
-246,234	648,080	-0,070	-0,130
-245,219	-200,000	0,004	-0,027
-244,205	800,000	0,020	-0,041
-243,190	-200,000	0,016	-0,076
-242,176	800,000	0,024	-0,071
-241,161	114,155	0,045	0,039
-240,146	26,023	-0,021	0,012
-239,132	114,486	0,023	0,020
-238,117	49,513	-0,045	0,031
-237,103	231,706	-0,055	0,065
-236,088	-200,000	-0,004	0,028
-235,073	-200,000	0,024	0,134
-234,059	309,715	-0,092	0,124
-233,044	-200,000	0,008	0,073
-232,030	288,628	-0,026	-0,034
-231,015	794,096	0,005	0,010
-230,000	55,477	-0,057	-0,040
-228,986	-200,000	0,020	0,098
-227,971	623,730	-0,068	0,124
-226,957	-200,000	0,014	0,052
-225,942	800,000	0,025	0,067
-224,927	365,404	0,074	0,108
-223,913	126,428	-0,094	0,086
-222,898	110,763	0,097	-0,084
-221,884	74,771	0,026	0,020
-220,869	-87,098	0,039	-0,008
-219,855	-200,000	-0,014	0,095
-218,840	-131,990	-0,115	-0,011
-217,825	357,737	0,075	0,108
-216,811	444,911	0,061	-0,096
-215,796	-3,469	0,096	0,048
-214,782	131,777	-0,121	0,113
-213,767	95,559	0,068	0,056
-212,752	178,437	-0,068	0,072
-211,738	-200,000	0,008	0,110
-210,723	-116,982	-0,046	0,006
-209,709	-200,000	-0,008	0,027
-208,694	800,000	-0,045	-0,137
-207,679	139,207	-0,094	-0,089
-206,665	607,189	-0,069	0,124
-205,650	800,000	0,067	-0,186
-204,636	-39,345	-0,090	-0,034
-203,621	-26,882	0,097	0,041
-202,606	800,000	0,036	-0,111
-201,592	-151,407	-0,179	-0,009
-200,577	-200,000	0,039	-0,132
-199,563	130,507	0,080	-0,074
-198,548	242,751	0,045	0,055
-197,533	40,342	0,073	-0,047
-196,519	97,041	-0,068	0,056
-195,504	-200,000	0,012	0,125
-194,490	-182,391	-0,055	0,001
-193,475	-200,000	-0,017	-0,063
-192,460	-64,757	0,112	0,032
-191,446	80,764	0,051	-0,039
-190,431	-32,340	0,065	0,026
-189,417	800,000	0,020	0,062
-188,402	-200,000	-0,021	0,119
-187,387	30,412	0,129	-0,080
-186,373	-200,000	0,004	-0,058
-185,358	-43,776	0,227	0,082
-184,344	-176,061	0,083	-0,002
-183,329	800,000	-0,054	-0,136
-182,315	110,501	-0,024	0,021
-181,300	-200,000	-0,011	0,043
-180,285	-105,255	0,154	0,025
-179,271	-200,000	-0,033	-0,128
-178,256	-200,000	-0,010	-0,144
-177,242	286,684	0,071	0,093
-176,227	-200,000	-0,012	0,099
-175,212	-14,083	-0,113	0,053
-174,198	-200,000	0,010	0,035
-173,183	-200,000	-0,005	-0,072
-172,169	-61,231	-0,125	0,038
-171,154	-116,060	-0,114	-0,015
-170,139	800,000	-0,039	0,110
-169,125	-200,000	-0,009	0,094
-168,110	-200,000	0,052	0,195
-167,096	-111,248	0,060	-0,009
-166,081	-18,532	0,123	-0,055
-165,066	501,354	0,044	-0,073
-164,052	-200,000	-0,003	0,104
-163,037	177,149	0,026	0,028
-162,023	-200,000	-0,014	0,063
-161,008	12,716	0,078	0,043
-159,993	459,915	-0,057	0,091
-158,979	-144,051	-0,083	0,006
-157,964	43,652	0,183	0,120
-156,950	-131,797	-0,099	-0,009
-155,935	351,223	0,026	0,037
-154,920	343,490	0,013	0,018
-153,906	-54,356	0,211	0,069
-152,891	11,474	-0,126	0,070
-151,877	-175,316	-0,063	-0,001
-150,862	50,064	-0,026	0,018
-149,847	800,000	-0,017	0,040
-148,833	-159,005	-0,096	-0,004
-147,818	-126,262	-0,027	0,003
-146,804	518,260	0,032	-0,054
-145,789	-54,921	-0,061	0,020
-144,775	800,000	-0,054	0,153
-143,760	45,311	-0,120	-0,080
-142,745	800,000	-0,065	-0,137
-141,731	-200,000	-0,017	0,055
-140,716	800,000	0,006	0,015
-139,702	-24,049	-0,146	0,063
-138,687	24,449	0,042	0,025
-137,672	-75,833	-0,055	-0,014
-136,658	-121,181	-0,127	-0,015
-135,643	731,873	-0,009	0,018
-134,629	-166,759	-0,016	0,000
-133,614	-35,291	0,048	0,019
-132,599	800,000	0,026	0,055
-131,585	800,000	0,043	-0,099
-130,570	762,766	0,013	-0,025
-129,556	33,362	0,019	-0,012
-128,541	640,126	-0,073	0,134
-127,526	347,266	0,064	-0,090
-126,512	-83,900	0,181	-0,041
-125,497	292,250	-0,079	-0,104
-124,483	-53,488	0,074	0,024
-123,468	180,484	-0,097	-0,103
-122,453	528,849	0,021	0,037
-121,439	800,000	0,006	-0,015
-120,424	-200,000	0,039	0,155
