DTS Sentinel unit serial number:	SN410029Multiplexer serial number:	ORYXHardware model number:	OX2-SRSoftware version number:	ORYX F/W v4,00 Oryx Data Collector v3.7.2.0data status	okinstallation	B5 Nyhavnadifferential loss correction	single-endedforward channel	channel 2reverse channel	N/Adate	2023/12/14time	09:32:13forward acquisition time	300,00reverse acquisition time	0,00gamma	499,1914k internal	0,3161k external	0,3161temperature offset calibration	1,0000default loss term (dB/km)	0,3820temperature slope calibration	1,0000multiplexer offset coefficient	1,0000multiplexer slope coefficient	1,0000fibre end	0,00T internal ref (°C)	6,94T ext. ref 1 (°C)	-9,31T ext. ref 2 (°C)	-9,38length (m)	temperature (°C)	Stokes	anti-Stokes-744,400	-78,617	0,034	-0,008
-743,385	-60,363	-0,473	-0,147
-742,371	-7,451	0,195	0,097
-741,356	-163,320	-0,399	-0,014
-740,342	8,473	0,267	0,148
-739,327	-90,621	-0,443	-0,093
-738,312	-32,678	0,133	0,054
-737,298	-82,062	-0,495	-0,118
-736,283	-125,534	0,266	0,029
-735,269	-50,952	-0,401	-0,138
-734,254	96,526	0,141	0,119
-733,239	27,851	-0,516	-0,320
-732,225	-34,416	0,291	0,117
-731,210	60,595	0,015	0,011
-730,196	800,000	-0,003	-0,008
-729,181	-146,218	-0,061	-0,004
-728,167	-200,000	-0,003	-0,059
-727,152	-200,000	-0,002	-0,028
-726,137	-112,307	-0,135	0,020
-725,123	212,729	-0,042	-0,049
-724,108	-70,143	-0,170	0,047
-723,094	46,734	-0,055	0,037
-722,079	251,952	0,029	-0,037
-721,064	-200,000	-0,025	0,000
-720,050	-186,663	-0,133	0,001
-719,035	201,631	-0,108	-0,123
-718,021	-80,073	-0,188	0,046
-717,006	-200,000	0,002	-0,061
-715,991	-200,000	0,027	-0,244
-714,977	-200,000	-0,019	0,105
-713,962	-200,000	-0,013	-0,073
-712,948	-200,000	0,001	0,072
-711,933	-7,719	0,060	-0,030
-710,918	-82,142	0,112	0,027
-709,904	-99,913	-0,120	0,022
-708,889	68,869	-0,088	-0,066
-707,875	800,000	0,038	-0,119
-706,860	-131,016	0,132	-0,013
-705,845	188,573	0,096	-0,106
-704,831	-36,144	-0,149	0,059
-703,816	-12,568	0,099	-0,047
-702,802	-200,000	-0,014	-0,053
-701,787	168,988	0,039	0,041
-700,772	399,590	0,051	-0,079
-699,758	-58,621	-0,048	-0,015
-698,743	-200,000	0,026	0,141
-697,729	-143,121	-0,043	-0,003
-696,714	-200,000	-0,010	-0,189
-695,699	-107,691	-0,056	-0,009
-694,685	-38,881	0,047	-0,018
-693,670	275,013	-0,045	-0,059
-692,656	-200,000	0,082	-0,000
-691,641	800,000	0,043	-0,090
-690,627	32,389	0,035	-0,022
-689,612	-17,660	-0,007	-0,003
-688,597	800,000	-0,042	0,102
-687,583	-200,000	-0,003	0,020
-686,568	22,514	0,091	-0,055
-685,554	-200,000	-0,009	-0,099
-684,539	-154,790	0,054	-0,003
-683,524	-134,287	-0,048	0,004
-682,510	-200,000	-0,014	-0,084
-681,495	800,000	-0,012	-0,026
-680,481	356,920	-0,095	-0,139
-679,466	-200,000	0,002	0,028
-678,451	-200,000	0,024	-0,088
-677,437	146,136	0,085	-0,084
-676,422	-131,306	0,074	0,007
-675,408	-135,276	0,020	0,002
-674,393	-10,920	-0,029	0,014
-673,378	707,438	-0,023	-0,044
-672,364	-12,091	0,065	0,031
-671,349	-61,876	0,049	0,015
-670,335	-200,000	-0,024	0,157
-669,320	306,316	0,044	0,060
-668,305	-12,600	0,105	-0,050
-667,291	2,889	-0,098	0,052
-666,276	-33,941	-0,071	0,029
-665,262	-97,966	-0,114	0,021
-664,247	790,111	0,026	-0,052
-663,232	-65,046	-0,081	0,024
-662,218	40,215	0,048	-0,032
-661,203	800,000	-0,032	-0,076
-660,189	4,013	-0,054	-0,029
-659,174	45,758	0,010	-0,007
-658,159	800,000	-0,091	-0,211
-657,145	599,910	-0,042	-0,076
-656,130	228,193	-0,071	-0,085
-655,116	800,000	-0,011	-0,033
-654,101	800,000	-0,056	0,122
-653,086	222,849	-0,087	0,103
-652,072	-103,080	-0,149	-0,026
-651,057	232,045	0,039	-0,047
-650,043	3,684	0,052	-0,028
-649,028	800,000	-0,031	0,082
-648,014	-125,498	0,152	0,017
-646,999	211,215	0,012	0,014
-645,984	-67,849	-0,065	0,018
-644,970	22,224	-0,064	0,038
-643,955	-98,590	-0,127	-0,024
-642,941	35,291	0,042	0,027
-641,926	100,120	-0,048	-0,041
-640,911	-200,000	0,029	-0,128
-639,897	800,000	0,004	-0,010
-638,882	-200,000	-0,011	0,116
-637,868	12,509	-0,003	0,002
-636,853	-59,034	-0,090	-0,028
-635,838	-200,000	-0,021	-0,126
-634,824	-126,393	0,013	-0,001
-633,809	-200,000	-0,033	0,130
-632,795	-81,035	0,052	0,013
-631,780	800,000	0,036	0,097
-630,765	-19,522	-0,148	0,067
-629,751	800,000	-0,015	-0,035
-628,736	800,000	0,053	-0,121
-627,722	326,620	0,054	-0,077
-626,707	-24,508	-0,090	-0,039
-625,692	-200,000	-0,006	0,050
-624,678	-72,414	-0,079	0,021
-623,663	-28,491	-0,036	0,015
-622,649	800,000	-0,051	0,148
-621,634	-64,080	-0,121	-0,036
-620,619	25,971	-0,062	0,038
-619,605	107,214	0,177	-0,154
-618,590	-200,000	-0,028	0,145
-617,576	-141,044	-0,025	0,002
-616,561	-55,094	0,034	0,011
-615,546	198,302	-0,012	-0,013
-614,532	115,036	0,091	-0,081
-613,517	300,762	0,057	-0,077
-612,503	-200,000	-0,009	-0,062
-611,488	45,322	0,079	-0,054
-610,474	11,574	-0,074	0,042
-609,459	-200,000	-0,029	-0,126
-608,444	22,184	-0,014	-0,008
-607,430	-200,000	0,011	0,051
-606,415	374,557	0,020	0,031
-605,401	800,000	0,020	-0,045
-604,386	-29,457	0,069	-0,029
-603,371	-36,707	0,031	0,012
-602,357	88,489	0,031	-0,025
-601,342	-200,000	-0,009	0,092
-600,328	-27,454	-0,208	0,088
-599,313	29,345	-0,019	-0,012
-598,298	800,000	0,051	-0,145
-597,284	-125,011	-0,034	-0,004
-596,269	-117,941	-0,037	-0,005
-595,255	350,850	-0,017	0,024
-594,240	-13,352	-0,090	-0,043
-593,225	-119,647	-0,087	0,011
-592,211	-99,146	-0,167	-0,031
-591,196	-115,900	-0,193	-0,026
-590,182	-200,000	-0,005	-0,020
-589,167	-200,000	-0,003	0,010
-588,152	48,355	0,081	0,055
-587,138	164,282	0,062	0,064
-586,123	-200,000	-0,026	0,093
-585,109	-200,000	-0,018	-0,070
-584,094	800,000	-0,025	-0,069
-583,079	235,874	-0,065	-0,079
-582,065	-93,609	-0,009	-0,002
-581,050	-200,000	0,000	-0,008
-580,036	-200,000	0,007	-0,142
-579,021	-200,000	0,027	-0,101
-578,006	423,561	0,074	-0,116
-576,992	559,897	0,047	-0,083
-575,977	-200,000	0,007	0,058
-574,963	-200,000	-0,007	0,030
-573,948	-0,276	0,098	-0,051
-572,934	-141,190	-0,141	0,010
-571,919	231,218	0,051	-0,062
-570,904	-200,000	0,025	-0,209
-569,890	77,144	0,095	-0,074
-568,875	800,000	0,031	0,075
-567,861	-48,663	0,062	0,022
-566,846	800,000	0,050	0,125
-565,831	-200,000	0,027	-0,092
-564,817	404,405	0,025	0,039
-563,802	-200,000	-0,018	-0,078
-562,788	800,000	-0,029	0,090
-561,773	-191,485	0,084	-0,001
-560,758	-120,488	0,129	-0,016
-559,744	800,000	0,077	0,201
-558,729	-141,869	-0,102	0,007
-557,715	49,139	-0,049	0,033
-556,700	800,000	0,038	0,102
-555,685	-72,643	-0,053	-0,014
-554,671	341,793	0,076	0,109
-553,656	-200,000	-0,002	-0,026
-552,642	-200,000	0,012	-0,054
-551,627	-138,033	0,076	0,006
-550,612	800,000	-0,046	0,126
-549,598	-200,000	0,011	-0,252
-548,583	122,094	-0,050	-0,046
-547,569	-71,239	-0,068	-0,019
-546,554	-19,501	0,229	0,103
-545,539	-200,000	0,016	0,068
-544,525	-79,022	0,029	-0,007
-543,510	-200,000	-0,011	0,080
-542,496	738,683	-0,043	-0,085
-541,481	207,957	-0,049	-0,056
-540,466	-14,871	-0,070	0,033
-539,452	-94,564	0,042	-0,008
-538,437	-200,000	0,104	-0,000
-537,423	162,949	0,049	-0,050
-536,408	-61,053	-0,063	-0,019
-535,393	-71,915	-0,070	-0,019
-534,379	-200,000	0,004	-0,131
-533,364	-200,000	0,006	0,060
-532,350	-200,000	-0,008	0,118
-531,335	-32,915	0,144	-0,058
-530,321	31,437	-0,075	-0,047
-529,306	37,339	-0,092	-0,059
-528,291	800,000	0,023	-0,047
-527,277	-109,264	0,024	-0,004
-526,262	17,024	-0,013	-0,007
-525,248	-200,000	-0,003	-0,038
-524,233	-88,837	0,200	-0,043
-523,218	-200,000	0,009	-0,036
-522,204	-200,000	-0,025	0,117
-521,189	-78,899	-0,096	-0,024
-520,175	242,003	-0,154	-0,189
-519,160	-126,262	0,162	-0,017
-518,145	-200,000	-0,005	0,093
-517,131	299,129	-0,030	0,041
-516,116	-200,000	-0,000	-0,047
-515,102	-157,380	0,116	-0,005
-514,087	-12,305	-0,094	-0,045
-513,072	800,000	0,040	-0,101
-512,058	142,222	0,078	0,075
-511,043	154,317	-0,087	-0,087
-510,029	800,000	0,035	0,092
-509,014	-18,310	-0,076	-0,035
-507,999	30,319	-0,061	0,038
-506,985	-200,000	0,016	-0,071
-505,970	-52,687	-0,060	0,020
-504,956	-200,000	0,007	-0,074
-503,941	-143,543	0,049	0,003
-502,926	-62,940	-0,093	-0,028
-501,912	-95,172	0,077	-0,015
-500,897	-200,000	0,022	0,149
-499,883	283,306	-0,066	0,087
-498,868	-200,000	-0,024	-0,099
-497,853	800,000	0,030	-0,088
-496,839	-41,161	0,101	-0,038
-495,824	36,963	0,067	-0,043
-494,810	139,827	-0,025	-0,024
-493,795	633,494	0,010	-0,019
-492,781	800,000	0,027	-0,065
-491,766	800,000	-0,016	-0,049
-490,751	-200,000	-0,003	0,057
-489,737	96,969	0,082	-0,069
-488,722	188,625	0,100	0,109
-487,708	149,430	-0,091	0,090
-486,693	800,000	-0,059	-0,131
-485,678	735,346	-0,009	-0,017
-484,664	-133,900	-0,125	-0,011
-483,649	-65,011	0,115	0,034
-482,635	-200,000	-0,005	0,167
-481,620	312,851	0,054	0,075
-480,605	314,180	-0,059	0,081
-479,591	800,000	-0,043	0,105
-478,576	38,192	0,069	0,045
-477,562	53,895	0,039	-0,028
-476,547	800,000	-0,031	0,099
-475,532	334,276	0,034	-0,048
-474,518	31,292	0,150	0,094
-473,503	564,430	0,046	0,082
-472,489	800,000	0,016	-0,046
-471,474	800,000	-0,045	-0,105
-470,459	-56,650	-0,147	0,047
-469,445	-13,884	0,039	0,018
-468,430	800,000	0,054	0,117
-467,416	-11,255	0,020	-0,010
-466,401	80,834	0,023	-0,018
-465,386	-56,086	0,089	-0,029
-464,372	800,000	-0,063	-0,128
-463,357	-200,000	-0,027	0,160
-462,343	204,328	-0,021	0,024
-461,328	107,660	-0,042	-0,036
-460,313	200,859	-0,072	-0,080
-459,299	800,000	0,029	-0,067
-458,284	-87,108	0,053	0,012
-457,270	12,056	-0,119	-0,066
-456,255	800,000	-0,072	-0,159
-455,241	-200,000	0,011	0,038
-454,226	-200,000	0,005	0,024
-453,211	-200,000	0,004	0,019
-452,197	-68,177	0,077	-0,022
-451,182	176,545	-0,068	-0,072
-450,168	-0,637	-0,064	-0,033
-449,153	98,836	-0,123	-0,104
-448,138	-96,151	0,096	-0,018
-447,124	5,376	0,067	-0,036
-446,109	-146,287	-0,130	0,008
-445,095	-200,000	0,024	0,117
-444,080	-200,000	0,026	0,110
-443,065	29,948	-0,053	-0,033
-442,051	-200,000	-0,018	0,061
-441,036	-49,100	-0,083	-0,029
-440,022	-200,000	-0,014	-0,084
-439,007	-200,000	-0,005	0,076
-437,992	109,368	-0,059	0,051
-436,978	173,491	-0,020	-0,021
-435,963	-200,000	0,013	0,061
-434,949	-101,231	-0,029	-0,005
-433,934	83,922	-0,100	0,079
-432,919	-16,241	0,120	-0,055
-431,905	219,778	-0,065	-0,076
-430,890	800,000	-0,025	0,051
-429,876	800,000	-0,025	0,053
-428,861	48,407	-0,041	-0,028
-427,846	41,913	-0,113	0,074
-426,832	5,984	0,052	0,028
-425,817	45,850	-0,058	0,039
-424,803	221,957	0,080	0,094
-423,788	-200,000	0,016	-0,094
-422,773	-111,290	0,124	0,018
-421,759	800,000	0,022	0,051
-420,744	800,000	-0,043	-0,106
-419,730	-17,747	-0,030	0,013
-418,715	-101,281	0,189	-0,033
-417,701	-129,124	-0,102	-0,010
-416,686	629,538	0,026	-0,048
-415,671	-88,172	0,109	0,023
-414,657	-81,404	-0,117	-0,028
-413,642	800,000	0,022	-0,061
-412,628	630,014	0,079	-0,146
-411,613	526,081	-0,064	-0,111
-410,598	-136,244	0,224	-0,019
-409,584	111,237	0,082	-0,072
-408,569	-200,000	0,007	0,095
-407,555	424,881	-0,079	-0,124
-406,540	43,034	-0,067	0,044
-405,525	88,810	-0,046	-0,037
-404,511	-200,000	0,002	-0,084
-403,496	-200,000	0,039	-0,223
-402,482	74,016	-0,057	-0,043
-401,467	-132,508	0,122	0,011
-400,452	11,200	0,177	-0,098
-399,438	-200,000	0,041	-0,143
-398,423	-59,460	-0,115	0,036
-397,409	-157,898	-0,086	0,004
-396,394	-200,000	0,006	0,035
-395,379	151,062	0,019	0,019
-394,365	-107,971	0,105	0,016
-393,350	95,153	0,102	0,085
-392,336	33,444	-0,050	-0,032
-391,321	-109,455	0,109	-0,017
-390,306	-200,000	0,016	0,058
-389,292	800,000	-0,014	0,034
-388,277	800,000	-0,038	0,081
-387,263	-200,000	0,008	-0,098
-386,248	-20,632	-0,095	0,042
-385,233	-16,730	0,093	0,042
-384,219	800,000	-0,058	-0,146
-383,204	-200,000	0,006	-0,192
-382,190	701,244	-0,083	0,159
-381,175	-6,212	-0,044	0,022
-380,160	-139,299	0,189	-0,015
-379,146	-148,194	-0,094	-0,006
-378,131	-119,092	0,086	-0,011
-377,117	-200,000	0,036	-0,141
-376,102	-156,390	-0,156	0,007
-375,088	75,712	0,114	-0,087
-374,073	-200,000	-0,009	0,104
-373,058	542,181	-0,021	0,036
-372,044	-129,526	-0,036	0,004
-371,029	-200,000	-0,014	-0,081
-370,015	115,862	-0,091	-0,081
-369,000	-200,000	0,002	-0,073
-367,985	-200,000	-0,002	-0,088
-366,971	-41,203	-0,103	0,038
-365,956	-7,140	0,122	-0,060
-364,942	10,233	-0,089	0,049
-363,927	800,000	0,028	-0,073
-362,912	182,826	-0,075	-0,080
-361,898	-174,604	-0,057	-0,001
-360,883	633,649	0,084	0,156
-359,869	29,738	0,106	0,065
-358,854	-26,046	-0,070	0,030
-357,839	-83,221	0,060	-0,014
-356,825	101,340	-0,008	-0,007
-355,810	5,467	-0,067	-0,036
-354,796	163,893	0,069	0,070
-353,781	76,742	-0,121	0,093
-352,766	-200,000	-0,007	-0,083
-351,752	-144,308	-0,156	0,010
-350,737	-200,000	0,006	-0,038
-349,723	-200,000	0,002	0,011
-348,708	342,109	-0,021	0,030
-347,693	-200,000	-0,136	0,000
-346,679	-154,031	0,124	-0,006
-345,664	83,866	-0,113	0,089
-344,650	-120,469	0,141	-0,017
-343,635	-179,718	-0,160	-0,002
-342,620	-52,048	-0,113	0,038
-341,606	-50,417	0,105	-0,036
-340,591	800,000	-0,062	0,147
-339,577	-200,000	0,006	-0,059
-338,562	-200,000	0,005	-0,030
-337,548	82,348	-0,097	0,077
-336,533	-45,416	-0,103	-0,037
-335,518	727,303	0,034	0,067
-334,504	-131,497	-0,058	0,005
-333,489	91,023	0,047	0,039
-332,475	-75,422	0,087	0,022
-331,460	-26,452	-0,053	-0,022
-330,445	-200,000	0,019	0,097
-329,431	800,000	0,022	0,052
-328,416	800,000	-0,059	0,121
-327,402	-22,125	0,095	0,042
-326,387	62,833	-0,041	0,030
-325,372	52,523	-0,042	-0,029
-324,358	-8,950	-0,058	-0,028
-323,343	-200,000	-0,004	-0,113
-322,329	800,000	0,066	0,179
-321,314	-59,765	0,116	0,036
-320,299	800,000	0,029	0,086
-319,285	46,433	-0,035	0,024
-318,270	314,717	0,087	-0,119
-317,256	-200,000	-0,007	0,047
-316,241	-200,000	-0,011	-0,098
-315,226	-49,477	0,124	0,042
-314,212	37,968	-0,092	0,059
-313,197	84,301	-0,045	0,036
-312,183	-98,662	-0,094	-0,017
-311,168	130,739	-0,123	-0,114
-310,153	-66,873	-0,068	0,019
-309,139	129,771	-0,054	-0,050
-308,124	-200,000	0,022	0,099
-307,110	-200,000	-0,005	0,021
-306,095	103,845	-0,094	0,080
-305,080	-200,000	-0,002	-0,044
-304,066	146,040	0,060	-0,059
-303,051	35,404	-0,052	0,033
-302,037	-200,000	0,030	0,127
-301,022	800,000	0,010	0,030
-300,008	-200,000	0,015	0,067
-298,993	-151,151	-0,077	0,004
-297,978	384,105	0,047	-0,070
-296,964	-108,193	-0,043	-0,007
-295,949	-1,105	0,095	-0,048
-294,935	800,000	-0,011	0,031
-293,920	-146,321	0,087	0,005
-292,905	800,000	0,099	0,211
-291,891	800,000	-0,016	0,041
-290,876	-9,258	0,057	0,027
-289,862	800,000	-0,041	-0,094
-288,847	78,260	0,140	-0,108
-287,832	-106,397	-0,031	-0,005
-286,818	107,930	0,025	0,022
-285,803	-200,000	0,020	0,138
-284,789	-200,000	-0,002	0,083
-283,774	-200,000	-0,015	0,092
-282,759	248,442	0,082	-0,101
-281,745	224,422	-0,030	0,035
-280,730	405,426	0,019	-0,029
-279,716	-0,712	0,051	0,026
-278,701	-97,120	0,086	0,016
-277,686	144,875	0,010	0,009
-276,672	556,174	-0,045	0,078
-275,657	403,094	0,053	0,081
-274,643	-24,891	0,039	-0,017
-273,628	-200,000	0,011	-0,068
-272,613	-200,000	0,004	-0,072
-271,599	-67,823	0,073	0,021
-270,584	-121,850	0,219	0,026
-269,570	800,000	0,046	-0,105
-268,555	732,147	-0,056	0,108
-267,540	-51,058	0,064	0,022
-266,526	83,903	0,091	-0,072
-265,511	152,648	-0,103	0,102
-264,497	-80,078	0,073	-0,018
-263,482	-10,511	0,100	0,048
-262,467	800,000	0,067	0,178
-261,453	-200,000	0,000	-0,036
-260,438	-200,000	-0,002	0,018
-259,424	-40,533	-0,048	-0,018
-258,409	800,000	-0,017	0,034
-257,395	-200,000	0,002	0,054
-256,380	-200,000	0,010	0,050
-255,365	-200,000	0,059	0,232
-254,351	470,127	-0,042	-0,068
-253,336	98,189	-0,063	0,052
-252,322	-62,641	0,042	-0,012
-251,307	-173,375	-0,164	-0,004
-250,292	-103,572	-0,056	0,009
-249,278	-200,000	0,000	0,172
-248,263	-200,000	0,013	0,113
-247,249	-59,707	0,097	0,030
-246,234	-38,611	-0,029	0,011
-245,219	800,000	0,027	0,056
-244,205	-31,253	-0,069	-0,028
-243,190	383,675	0,038	-0,056
-242,176	312,245	0,031	0,042
-241,161	767,086	-0,068	-0,134
-240,146	22,360	0,144	0,085
-239,132	-200,000	0,007	-0,024
-238,117	-18,569	0,114	0,051
-237,103	-126,614	-0,106	0,011
-236,088	-25,319	-0,100	-0,043
-235,073	149,946	-0,107	-0,105
-234,059	342,697	-0,053	0,076
-233,044	502,915	0,028	-0,046
-232,030	-119,406	-0,085	-0,011
-231,015	37,418	-0,070	0,045
-230,000	99,185	-0,126	0,105
-228,986	455,122	0,051	0,082
-227,971	3,783	-0,072	0,038
-226,957	404,681	-0,073	0,111
-225,942	-22,726	-0,065	0,028
-224,927	86,840	-0,031	0,025
-223,913	-200,000	-0,054	-0,190
-222,898	83,313	0,063	0,049
-221,884	-200,000	-0,014	-0,076
-220,869	208,183	0,043	0,048
-219,855	-28,228	0,118	-0,049
-218,840	-200,000	-0,005	-0,063
-217,825	800,000	-0,029	-0,091
-216,811	-102,723	0,026	0,004
-215,796	183,965	0,015	0,016
-214,782	7,435	0,057	-0,031
-213,767	-87,465	0,035	-0,008
-212,752	48,737	0,137	0,092
-211,738	13,604	-0,007	-0,004
-210,723	98,592	0,037	-0,031
-209,709	17,187	0,048	-0,027
-208,694	-62,385	0,015	-0,004
-207,679	466,331	0,068	-0,111
-206,665	176,898	-0,021	-0,022
-205,650	800,000	0,028	0,059
-204,636	29,511	0,043	-0,026
-203,621	-152,049	-0,085	-0,004
-202,606	-200,000	0,003	-0,119
-201,592	800,000	0,048	0,105
-200,577	-60,532	0,064	-0,019
-199,563	-131,968	-0,088	0,008
-198,548	594,313	0,036	-0,064
-197,533	-164,819	0,038	0,001
-196,519	-200,000	-0,015	0,072
-195,504	317,245	-0,058	0,079
-194,490	-200,000	-0,011	-0,117
-193,475	800,000	-0,069	-0,139
-192,460	-15,138	0,026	0,012
-191,446	-78,318	0,070	0,017
-190,431	-72,896	-0,069	-0,018
-189,417	-200,000	-0,012	-0,068
-188,402	-200,000	0,004	-0,044
-187,387	-118,350	0,065	0,008
-186,373	-142,835	-0,109	-0,008
-185,358	-200,000	0,013	-0,156
-184,344	58,347	-0,054	0,038
-183,329	800,000	-0,019	-0,045
-182,315	800,000	0,067	0,151
-181,300	-88,714	0,059	-0,013
-180,285	-200,000	-0,009	-0,035
-179,271	41,926	-0,087	-0,057
-178,256	750,739	-0,018	0,035
-177,242	-151,434	0,091	0,005
-176,227	0,397	0,074	0,038
-175,212	-200,000	-0,033	0,270
-174,198	22,583	-0,054	0,031
-173,183	-177,650	-0,128	0,002
-172,169	179,499	-0,043	-0,045
-171,154	800,000	-0,024	-0,075
-170,139	162,806	-0,017	0,017
-169,125	-200,000	0,011	0,042
-168,110	-112,154	0,081	-0,012
-167,096	800,000	-0,029	-0,091
-166,081	800,000	0,053	0,113
-165,066	454,200	-0,034	-0,054
-164,052	262,106	-0,055	-0,068
-163,037	166,721	0,126	0,129
-162,023	-200,000	-0,004	0,132
-161,008	-156,632	-0,077	0,003
-159,993	-45,051	0,145	-0,052
-158,979	665,015	-0,024	-0,045
-157,964	-200,000	0,034	-0,116
-156,950	-141,741	-0,127	-0,009
-155,935	-32,627	0,105	0,042
-154,920	232,368	-0,031	-0,037
-153,906	-65,920	0,157	0,045
-152,891	-200,000	-0,015	0,047
-151,877	106,011	0,052	0,045
-150,862	458,330	0,041	0,066
-149,847	800,000	-0,015	0,037
-148,833	-30,525	-0,031	0,013
-147,818	-131,856	-0,018	-0,002
-146,804	-200,000	-0,006	0,021
-145,789	-200,000	0,020	0,091
-144,775	-200,000	-0,013	-0,126
-143,760	179,840	-0,016	-0,016
-142,745	800,000	0,045	0,134
-141,731	800,000	0,043	0,093
-140,716	-200,000	0,030	0,115
-139,702	5,012	0,065	0,034
-138,687	-100,490	-0,131	-0,023
-137,672	76,529	0,053	-0,040
-136,658	-57,882	-0,154	0,048
-135,643	-200,000	-0,013	0,045
-134,629	-141,035	0,020	0,001
-133,614	-94,039	0,219	-0,043
-132,599	-18,070	0,092	0,041
-131,585	-133,137	-0,115	0,010
-130,570	800,000	0,017	0,053
-129,556	-200,000	-0,002	-0,010
-128,541	-97,571	-0,040	-0,007
-127,526	-88,611	0,084	0,018
-126,512	-169,029	-0,108	0,003
-125,497	-54,933	0,072	0,023
-124,483	-12,940	0,059	0,028
-123,468	345,159	-0,113	0,161
-122,453	38,716	-0,053	-0,034
-121,439	800,000	0,012	-0,036
-120,424	-200,000	0,041	-0,140
