DTS Sentinel unit serial number:	SN410029Multiplexer serial number:	ORYXHardware model number:	OX2-SRSoftware version number:	ORYX F/W v4,00 Oryx Data Collector v3.7.2.0data status	okinstallation	B5 Nyhavnadifferential loss correction	single-endedforward channel	channel 2reverse channel	N/Adate	2023/12/14time	04:12:13forward acquisition time	300,00reverse acquisition time	0,00gamma	499,1914k internal	0,3156k external	0,3156temperature offset calibration	1,0000default loss term (dB/km)	0,3820temperature slope calibration	1,0000multiplexer offset coefficient	1,0000multiplexer slope coefficient	1,0000fibre end	0,00T internal ref (°C)	7,96T ext. ref 1 (°C)	-8,47T ext. ref 2 (°C)	-8,56length (m)	temperature (°C)	Stokes	anti-Stokes-744,400	85,622	0,133	0,108
-743,385	-93,798	-0,273	-0,055
-742,371	-23,474	0,292	0,129
-741,356	-97,539	-0,328	-0,062
-740,342	-200,000	0,029	0,115
-739,327	12,884	-0,345	-0,196
-738,312	-20,109	0,308	-0,139
-737,298	-20,222	-0,380	-0,172
-736,283	737,161	0,044	0,087
-735,269	-137,007	-0,361	-0,030
-734,254	78,366	0,156	0,122
-733,239	-15,389	-0,616	-0,289
-732,225	1,294	0,247	0,131
-731,210	-200,000	0,031	0,147
-730,196	-34,584	-0,181	-0,073
-729,181	-120,753	-0,120	-0,015
-728,167	37,363	-0,070	0,045
-727,152	338,632	-0,080	0,115
-726,137	800,000	-0,067	0,145
-725,123	-200,000	0,020	-0,100
-724,108	431,212	-0,056	-0,090
-723,094	-67,143	-0,122	-0,035
-722,079	704,427	-0,065	-0,127
-721,064	-169,386	-0,073	0,002
-720,050	-2,855	-0,106	-0,054
-719,035	-200,000	0,022	0,115
-718,021	-48,054	-0,130	0,046
-717,006	342,381	-0,089	-0,128
-715,991	197,872	-0,128	-0,145
-714,977	269,512	-0,065	-0,085
-713,962	-50,610	-0,116	0,040
-712,948	-77,449	0,048	0,012
-711,933	-200,000	-0,011	-0,082
-710,918	43,488	-0,030	-0,020
-709,904	800,000	-0,014	-0,039
-708,889	26,216	-0,064	-0,039
-707,875	-200,000	0,003	-0,085
-706,860	-200,000	-0,012	-0,042
-705,845	799,871	0,041	-0,083
-704,831	-8,984	-0,124	-0,061
-703,816	201,337	-0,061	0,069
-702,802	-200,000	-0,001	-0,101
-701,787	-200,000	0,022	0,094
-700,772	143,379	0,097	0,095
-699,758	41,630	0,107	-0,072
-698,743	800,000	0,059	0,126
-697,729	-14,489	0,107	0,051
-696,714	-200,000	0,021	-0,089
-695,699	423,512	-0,026	-0,042
-694,685	-67,696	-0,135	-0,039
-693,670	-6,393	-0,014	0,007
-692,656	-191,156	-0,161	-0,001
-691,641	-100,582	-0,045	0,008
-690,627	18,690	-0,128	0,075
-689,612	-200,000	-0,007	-0,033
-688,597	112,184	-0,087	-0,077
-687,583	-200,000	-0,012	-0,079
-686,568	161,729	-0,109	0,112
-685,554	-200,000	-0,008	-0,112
-684,539	-200,000	-0,026	-0,092
-683,524	-200,000	-0,016	-0,159
-682,510	-200,000	-0,014	0,111
-681,495	-200,000	-0,016	0,093
-680,481	-117,277	-0,100	0,013
-679,466	-160,929	-0,058	0,002
-678,451	-49,886	0,043	-0,015
-677,437	-40,553	0,104	-0,040
-676,422	-200,000	-0,003	0,109
-675,408	-47,235	-0,036	0,013
-674,393	580,024	-0,013	-0,024
-673,378	800,000	-0,030	-0,085
-672,364	-29,454	-0,089	0,037
-671,349	-200,000	-0,004	-0,026
-670,335	-200,000	0,040	-0,161
-669,320	16,421	0,052	-0,030
-668,305	-25,596	-0,033	0,014
-667,291	-200,000	-0,026	-0,098
-666,276	800,000	-0,045	-0,101
-665,262	52,326	-0,138	-0,096
-664,247	-123,192	-0,079	0,009
-663,232	800,000	-0,031	0,098
-662,218	114,399	-0,100	0,089
-661,203	411,338	0,053	0,083
-660,189	99,526	-0,058	0,049
-659,174	145,023	-0,088	0,087
-658,159	206,670	-0,076	-0,087
-657,145	-200,000	-0,043	-0,154
-656,130	-130,507	-0,115	-0,011
-655,116	314,854	0,041	0,056
-654,101	113,858	-0,017	0,015
-653,086	380,248	0,039	0,059
-652,072	145,415	-0,026	-0,026
-651,057	-200,000	-0,171	-0,001
-650,043	-74,301	-0,086	-0,023
-649,028	747,468	0,023	-0,045
-648,014	-37,611	0,037	-0,014
-646,999	77,099	-0,142	-0,111
-645,984	3,308	0,027	-0,014
-644,970	-15,768	-0,018	-0,008
-643,955	-6,320	-0,085	-0,043
-642,941	800,000	-0,037	0,076
-641,926	800,000	-0,013	-0,033
-640,911	230,687	0,065	-0,078
-639,897	5,932	-0,104	0,056
-638,882	-46,745	0,100	0,036
-637,868	-27,793	-0,024	0,010
-636,853	-200,000	0,041	-0,136
-635,838	-200,000	0,033	-0,136
-634,824	78,342	-0,107	-0,084
-633,809	-200,000	-0,006	-0,050
-632,795	314,810	0,019	0,027
-631,780	178,703	-0,072	-0,077
-630,765	23,556	-0,014	-0,008
-629,751	-200,000	0,028	-0,125
-628,736	-126,621	-0,157	0,017
-627,722	-46,042	-0,013	0,005
-626,707	800,000	-0,014	0,031
-625,692	446,541	0,132	0,214
-624,678	16,045	0,074	-0,043
-623,663	171,499	0,064	0,068
-622,649	-133,480	-0,047	0,004
-621,634	579,299	0,030	-0,054
-620,619	-32,385	0,036	0,015
-619,605	-57,087	-0,045	-0,014
-618,590	-200,000	-0,011	0,071
-617,576	755,151	-0,027	0,053
-616,561	447,201	-0,020	0,033
-615,546	-200,000	-0,004	-0,034
-614,532	-200,000	0,005	-0,109
-613,517	-200,000	-0,001	-0,141
-612,503	-96,716	0,072	0,014
-611,488	52,156	0,145	0,101
-610,474	71,004	-0,075	0,057
-609,459	258,829	-0,064	-0,081
-608,444	-200,000	-0,001	-0,095
-607,430	229,636	-0,082	0,099
-606,415	800,000	-0,032	-0,089
-605,401	-200,000	0,054	-0,243
-604,386	335,786	-0,033	-0,048
-603,371	-200,000	0,016	0,120
-602,357	-200,000	0,011	0,082
-601,342	800,000	0,005	-0,013
-600,328	-200,000	0,005	0,083
-599,313	253,086	0,122	-0,153
-598,298	54,412	0,035	-0,025
-597,284	-14,133	0,108	0,051
-596,269	-124,153	-0,031	0,003
-595,255	-200,000	-0,013	0,157
-594,240	800,000	-0,005	-0,017
-593,225	-93,899	-0,122	-0,024
-592,211	-90,139	-0,071	0,015
-591,196	-61,051	0,016	0,005
-590,182	-200,000	-0,015	-0,118
-589,167	188,454	-0,073	0,080
-588,152	-200,000	0,007	0,046
-587,138	61,401	0,041	0,030
-586,123	-90,765	-0,175	-0,037
-585,109	102,187	0,077	-0,066
-584,094	-67,650	0,129	0,037
-583,079	800,000	-0,012	-0,030
-582,065	568,623	0,027	0,048
-581,050	-55,305	0,054	0,018
-580,036	-51,874	0,035	0,012
-579,021	800,000	0,059	-0,182
-578,006	-200,000	0,006	0,034
-576,992	199,579	-0,049	-0,056
-575,977	-138,752	-0,114	0,009
-574,963	-200,000	-0,055	0,188
-573,948	-198,173	0,096	-0,000
-572,934	-200,000	0,013	-0,074
-571,919	-104,073	-0,116	0,020
-570,904	197,731	-0,034	-0,038
-569,890	-31,114	0,053	-0,022
-568,875	121,958	-0,049	-0,045
-567,861	-51,779	0,059	-0,020
-566,846	188,765	-0,042	0,047
-565,831	199,054	0,034	-0,039
-564,817	40,467	-0,093	-0,061
-563,802	800,000	0,014	-0,042
-562,788	670,579	-0,046	0,088
-561,773	-41,050	-0,077	-0,029
-560,758	-187,536	0,057	-0,001
-559,744	-200,000	-0,023	0,080
-558,729	510,141	0,030	0,051
-557,715	-200,000	-0,007	-0,159
-556,700	47,472	0,030	-0,021
-555,685	800,000	-0,046	-0,094
-554,671	-63,961	0,059	0,018
-553,656	208,872	0,021	-0,024
-552,642	275,796	-0,004	-0,006
-551,627	-72,208	0,058	0,016
-550,612	258,355	0,013	-0,016
-549,598	-200,000	0,019	0,168
-548,583	27,793	-0,045	-0,028
-547,569	-105,614	-0,040	-0,007
-546,554	-124,780	-0,062	-0,007
-545,539	17,639	-0,098	0,057
-544,525	-200,000	0,002	-0,065
-543,510	33,372	0,039	-0,025
-542,496	106,392	0,016	0,014
-541,481	737,998	-0,071	-0,140
-540,466	121,339	-0,074	0,067
-539,452	-200,000	0,009	0,057
-538,437	-118,149	0,154	-0,020
-537,423	800,000	-0,015	-0,031
-536,408	42,760	0,040	-0,027
-535,393	418,343	-0,046	-0,072
-534,379	50,532	0,045	0,031
-533,364	-200,000	-0,007	0,102
-532,350	61,647	0,113	-0,082
-531,335	800,000	-0,037	0,110
-530,321	-200,000	-0,018	0,075
-529,306	791,958	-0,032	0,064
-528,291	159,500	-0,019	-0,019
-527,277	800,000	-0,020	-0,047
-526,262	-200,000	-0,010	-0,075
-525,248	557,071	0,060	0,107
-524,233	-134,241	0,158	0,014
-523,218	207,337	-0,022	-0,025
-522,204	-200,000	-0,001	-0,010
-521,189	299,784	-0,018	-0,025
-520,175	800,000	-0,070	0,164
-519,160	29,784	0,108	0,067
-518,145	-20,799	-0,112	-0,050
-517,131	39,094	-0,079	0,052
-516,116	-200,000	-0,001	-0,058
-515,102	265,850	-0,066	-0,084
-514,087	-200,000	-0,005	0,078
-513,072	150,717	-0,105	-0,104
-512,058	-200,000	0,040	-0,177
-511,043	-200,000	-0,014	0,177
-510,029	-200,000	-0,058	0,208
-509,014	300,419	-0,023	0,031
-507,999	-200,000	-0,014	-0,117
-506,985	284,471	0,056	0,074
-505,970	65,914	-0,077	-0,057
-504,956	800,000	-0,040	-0,103
-503,941	21,378	0,071	0,042
-502,926	-200,000	0,009	-0,176
-501,912	800,000	-0,022	-0,055
-500,897	-200,000	0,008	0,040
-499,883	800,000	-0,091	-0,198
-498,868	800,000	-0,024	-0,065
-497,853	208,004	-0,119	-0,136
-496,839	-32,563	-0,101	-0,041
-495,824	800,000	0,055	0,176
-494,810	-174,502	0,141	-0,003
-493,795	68,190	0,027	-0,020
-492,781	-200,000	-0,001	0,009
-491,766	25,461	0,033	0,020
-490,751	-200,000	0,011	-0,071
-489,737	406,443	-0,066	0,102
-488,722	120,950	0,115	0,104
-487,708	-3,093	0,075	0,038
-486,693	762,313	0,065	0,130
-485,678	293,465	0,069	0,092
-484,664	-200,000	0,003	0,075
-483,649	6,305	-0,043	0,023
-482,635	-101,916	-0,037	0,006
-481,620	800,000	-0,018	-0,048
-480,605	147,778	0,029	0,028
-479,591	-70,927	-0,062	0,017
-478,576	-200,000	-0,038	0,192
-477,562	-200,000	0,010	0,135
-476,547	-90,412	-0,114	0,024
-475,532	800,000	0,014	-0,042
-474,518	527,193	0,084	-0,145
-473,503	-58,076	0,136	0,043
-472,489	80,632	-0,021	-0,017
-471,474	-138,295	-0,039	0,003
-470,459	157,557	-0,070	-0,070
-469,445	-200,000	-0,016	0,074
-468,430	61,734	0,113	0,082
-467,416	800,000	0,026	0,080
-466,401	158,540	-0,033	-0,033
-465,386	-33,293	-0,073	0,029
-464,372	-105,291	0,093	0,015
-463,357	-48,881	-0,100	-0,035
-462,343	800,000	0,006	-0,013
-461,328	124,746	0,065	-0,060
-460,313	328,156	0,087	0,122
-459,299	40,487	-0,034	0,022
-458,284	-39,978	0,050	-0,019
-457,270	-137,404	0,101	0,008
-456,255	-200,000	-0,059	-0,213
-455,241	-123,991	-0,023	-0,003
-454,226	-178,396	0,030	-0,001
-453,211	172,377	-0,098	0,103
-452,197	800,000	0,022	-0,046
-451,182	-100,051	0,152	-0,027
-450,168	301,665	0,009	0,012
-449,153	22,140	0,061	-0,036
-448,138	800,000	-0,049	-0,144
-447,124	251,156	-0,023	0,028
-446,109	-200,000	-0,001	0,037
-445,095	-131,458	0,110	0,010
-444,080	33,971	-0,050	0,032
-443,065	-133,417	0,081	0,007
-442,051	151,995	-0,038	-0,038
-441,036	-12,926	0,131	-0,062
-440,022	4,270	-0,021	-0,011
-439,007	238,083	-0,127	0,154
-437,992	800,000	-0,017	0,035
-436,978	152,664	0,127	0,127
-435,963	-181,557	0,115	-0,002
-434,949	-200,000	0,006	-0,091
-433,934	239,276	-0,054	0,065
-432,919	-63,985	0,131	0,039
-431,905	-113,801	0,141	-0,020
-430,890	108,698	0,073	-0,063
-429,876	-71,269	-0,059	0,016
-428,861	119,703	-0,006	-0,006
-427,846	-36,643	0,053	-0,021
-426,832	64,707	-0,090	0,066
-425,817	123,805	-0,070	0,064
-424,803	-81,915	-0,137	-0,032
-423,788	800,000	0,030	-0,067
-422,773	689,619	0,018	-0,035
-421,759	-66,688	0,070	-0,020
-420,744	238,545	0,064	0,078
-419,730	-86,042	0,038	0,009
-418,715	800,000	-0,036	-0,075
-417,701	6,539	0,078	-0,042
-416,686	800,000	0,039	0,090
-415,671	452,053	-0,041	0,067
-414,657	140,261	0,095	-0,091
-413,642	242,459	0,025	-0,030
-412,628	-0,262	-0,085	0,044
-411,613	-48,029	0,044	0,015
-410,598	-111,818	-0,046	0,007
-409,584	-200,000	-0,017	0,079
-408,569	93,392	-0,035	0,029
-407,555	-200,000	0,022	-0,164
-406,540	507,339	0,053	0,090
-405,525	-200,000	-0,009	0,031
-404,511	-200,000	-0,005	-0,112
-403,496	-158,652	0,082	0,003
-402,482	26,159	0,080	0,049
-401,467	-70,302	-0,088	-0,024
-400,452	-26,848	0,023	-0,010
-399,438	-30,489	-0,062	0,025
-398,423	137,494	-0,113	-0,108
-397,409	7,409	0,025	0,013
-396,394	-41,824	-0,076	-0,028
-395,379	-200,000	0,008	-0,152
-394,365	-56,432	-0,046	-0,015
-393,350	-177,749	0,109	0,002
-392,336	434,998	-0,070	0,112
-391,321	-200,000	-0,008	-0,074
-390,306	-124,164	0,125	-0,014
-389,292	-200,000	-0,004	0,045
-388,277	-200,000	-0,000	0,111
-387,263	-172,786	0,074	0,002
-386,248	800,000	0,048	0,109
-385,233	-200,000	-0,001	0,086
-384,219	16,887	0,078	-0,045
-383,204	201,729	-0,112	-0,126
-382,190	-81,107	0,081	-0,019
-381,175	-200,000	-0,021	-0,095
-380,160	800,000	-0,099	-0,263
-379,146	-134,691	-0,081	0,007
-378,131	-200,000	-0,011	-0,082
-377,117	0,465	0,109	-0,056
-376,102	213,354	0,056	0,064
-375,088	800,000	-0,024	-0,065
-374,073	570,229	-0,053	0,094
-373,058	-146,799	0,139	-0,009
-372,044	-200,000	0,031	0,127
-371,029	343,114	0,057	0,081
-370,015	800,000	-0,033	-0,091
-369,000	96,933	0,013	0,011
-367,985	800,000	-0,044	-0,121
-366,971	800,000	0,020	-0,043
-365,956	-62,649	0,156	0,047
-364,942	-143,860	0,057	-0,004
-363,927	-200,000	-0,003	0,100
-362,912	-56,078	0,101	-0,032
-361,898	800,000	-0,042	0,100
-360,883	18,742	-0,057	0,033
-359,869	83,672	0,088	-0,070
-358,854	800,000	0,029	-0,062
-357,839	-200,000	0,022	-0,100
-356,825	-113,662	-0,187	-0,026
-355,810	-200,000	-0,022	-0,113
-354,796	-59,981	0,015	0,005
-353,781	320,563	0,025	-0,035
-352,766	-200,000	-0,009	-0,073
-351,752	800,000	0,012	-0,027
-350,737	-79,669	0,018	-0,004
-349,723	-56,573	0,135	0,043
-348,708	-53,261	0,042	0,014
-347,693	-200,000	-0,019	-0,086
-346,679	800,000	0,049	-0,119
-345,664	-200,000	-0,001	0,053
-344,650	-200,000	-0,011	0,156
-343,635	-200,000	0,008	0,139
-342,620	-200,000	0,000	0,069
-341,606	800,000	-0,031	0,091
-340,591	391,753	0,101	0,152
-339,577	658,093	-0,049	-0,092
-338,562	-51,802	-0,059	-0,020
-337,548	-200,000	0,000	-0,060
-336,533	175,854	0,030	0,031
-335,518	-200,000	-0,010	0,062
-334,504	113,923	-0,055	-0,049
-333,489	-76,171	0,037	-0,009
-332,475	-74,534	0,139	-0,036
-331,460	-127,505	-0,044	0,005
-330,445	220,254	-0,023	0,026
-329,431	400,351	-0,068	0,104
-328,416	354,395	-0,044	0,064
-327,402	90,337	0,068	0,055
-326,387	-200,000	0,010	0,036
-325,372	-200,000	-0,005	-0,024
-324,358	800,000	0,015	0,035
-323,343	-200,000	-0,132	0,000
-322,329	8,629	0,190	0,103
-321,314	76,702	-0,034	-0,026
-320,299	-200,000	-0,005	0,036
-319,285	-200,000	-0,039	0,143
-318,270	-200,000	-0,012	0,086
-317,256	-200,000	-0,017	-0,060
-316,241	-133,635	-0,081	0,007
-315,226	-200,000	-0,021	0,129
-314,212	800,000	0,061	0,149
-313,197	-11,887	-0,024	0,011
-312,183	800,000	-0,022	-0,055
-311,168	-146,153	-0,043	-0,003
-310,153	99,457	0,071	-0,060
-309,139	-161,777	0,030	0,001
-308,124	-200,000	0,007	0,025
-307,110	-200,000	-0,005	0,146
-306,095	323,297	-0,045	-0,062
-305,080	598,101	0,062	0,113
-304,066	101,043	-0,101	-0,085
-303,051	406,390	0,008	0,012
-302,037	-19,221	-0,072	0,032
-301,022	47,495	-0,038	-0,026
-300,008	800,000	-0,009	0,019
-298,993	800,000	-0,038	0,083
-297,978	-21,117	-0,035	0,015
-296,964	-200,000	-0,009	0,071
-295,949	-121,679	-0,117	-0,014
-294,935	-21,481	-0,020	-0,009
-293,920	116,728	-0,038	0,034
-292,905	800,000	-0,042	-0,106
-291,891	131,291	0,140	0,130
-290,876	-200,000	-0,003	0,082
-289,862	-131,121	0,060	-0,006
-288,847	-200,000	-0,018	-0,060
-287,832	249,501	-0,082	-0,101
-286,818	262,591	-0,078	0,098
-285,803	169,502	-0,058	-0,060
-284,789	227,827	0,083	0,098
-283,774	-200,000	0,040	-0,140
-282,759	46,973	0,064	-0,043
-281,745	176,631	0,090	-0,095
-280,730	-200,000	-0,010	-0,151
-279,716	-200,000	-0,009	0,039
-278,701	-200,000	-0,006	0,047
-277,686	448,655	0,017	0,027
-276,672	-200,000	0,010	0,042
-275,657	371,669	0,130	0,191
-274,643	74,414	-0,065	0,049
-273,628	150,765	0,051	0,050
-272,613	128,655	0,057	-0,052
-271,599	-200,000	-0,015	0,094
-270,584	-200,000	0,004	0,014
-269,570	64,168	0,038	0,027
-268,555	187,491	-0,041	-0,045
-267,540	73,019	-0,126	-0,096
-266,526	103,915	-0,150	-0,128
-265,511	800,000	0,045	-0,116
-264,497	-82,102	0,075	-0,017
-263,482	444,852	0,065	-0,103
-262,467	91,608	0,083	0,067
-261,453	3,297	0,090	0,047
-260,438	-138,170	-0,083	-0,007
-259,424	138,877	-0,020	-0,019
-258,409	-200,000	0,001	-0,057
-257,395	-132,268	-0,079	0,007
-256,380	118,426	0,064	-0,057
-255,365	800,000	0,038	-0,080
-254,351	772,018	0,080	0,158
-253,336	-200,000	-0,006	-0,038
-252,322	257,460	-0,048	-0,060
-251,307	-200,000	-0,014	-0,068
-250,292	-110,265	0,121	0,018
-249,278	-200,000	-0,005	0,164
-248,263	32,466	-0,056	0,035
-247,249	100,311	-0,116	0,097
-246,234	-200,000	-0,003	0,043
-245,219	241,595	-0,160	-0,194
-244,205	372,068	0,028	-0,041
-243,190	-56,868	0,143	-0,045
-242,176	-200,000	0,022	-0,114
-241,161	800,000	0,007	-0,018
-240,146	800,000	0,014	0,030
-239,132	-169,387	0,101	0,003
-238,117	-106,538	-0,070	-0,011
-237,103	-110,714	-0,037	0,005
-236,088	241,639	0,015	-0,018
-235,073	800,000	-0,036	0,096
-234,059	740,018	-0,064	0,125
-233,044	-200,000	-0,008	-0,116
-232,030	90,230	0,064	0,052
-231,015	294,987	-0,010	-0,014
-230,000	539,232	-0,042	0,073
-228,986	133,736	0,051	0,047
-227,971	229,883	0,056	0,066
-226,957	5,957	-0,072	-0,038
-225,942	232,662	0,053	-0,063
-224,927	177,663	0,068	-0,072
-223,913	-39,520	-0,159	-0,060
-222,898	-100,267	0,145	0,026
-221,884	800,000	0,066	-0,137
-220,869	227,949	-0,038	-0,044
-219,855	800,000	-0,024	-0,057
-218,840	99,840	0,047	-0,039
-217,825	800,000	0,095	0,206
-216,811	-28,513	-0,030	0,013
-215,796	-119,447	-0,087	0,011
-214,782	-100,785	-0,031	0,005
-213,767	-200,000	-0,003	-0,035
-212,752	253,202	0,030	0,037
-211,738	-65,009	0,032	0,009
-210,723	800,000	0,022	0,067
-209,709	-143,594	0,064	0,004
-208,694	394,215	-0,063	0,095
-207,679	11,986	-0,124	0,069
-206,665	-200,000	-0,023	-0,089
-205,650	800,000	0,021	0,050
-204,636	800,000	-0,107	0,271
-203,621	800,000	0,033	0,077
-202,606	250,385	-0,086	-0,106
-201,592	-200,000	0,010	-0,165
-200,577	-5,172	-0,105	0,052
-199,563	-200,000	0,060	0,000
-198,548	-200,000	-0,019	0,178
-197,533	-51,827	0,121	0,040
-196,519	-94,051	0,159	-0,031
-195,504	2,343	-0,187	0,097
-194,490	-17,235	-0,016	-0,007
-193,475	800,000	-0,012	-0,031
-192,460	-140,600	0,043	0,003
-191,446	-108,970	-0,059	-0,009
-190,431	-200,000	0,019	0,192
-189,417	-110,703	0,112	-0,017
-188,402	-200,000	-0,018	-0,066
-187,387	-135,836	-0,107	0,009
-186,373	-200,000	0,011	-0,041
-185,358	705,733	-0,042	-0,080
-184,344	-77,767	-0,080	0,020
-183,329	800,000	-0,020	-0,045
-182,315	-131,168	-0,044	-0,004
-181,300	564,985	-0,054	-0,094
-180,285	-74,209	-0,032	0,008
-179,271	-161,154	-0,146	-0,005
-178,256	26,438	0,024	-0,015
-177,242	615,364	-0,071	-0,128
-176,227	32,611	-0,054	-0,033
-175,212	28,958	-0,120	-0,073
-174,198	521,558	0,104	0,177
-173,183	365,820	-0,077	-0,113
-172,169	-49,394	-0,105	-0,036
-171,154	-200,000	0,036	-0,132
-170,139	-91,971	0,010	0,002
-169,125	27,368	0,078	0,047
-168,110	-60,654	0,120	-0,037
-167,096	-200,000	-0,004	0,044
-166,081	-177,468	-0,098	-0,002
-165,066	-200,000	-0,014	-0,107
-164,052	-147,000	0,035	-0,002
-163,037	27,818	0,050	-0,030
-162,023	132,580	0,113	0,105
-161,008	-10,176	-0,070	0,033
-159,993	121,278	-0,119	0,107
-158,979	800,000	-0,009	-0,028
-157,964	-12,884	-0,007	0,003
-156,950	228,847	-0,047	-0,055
-155,935	26,737	-0,017	0,011
-154,920	-123,275	0,101	0,011
-153,906	379,817	-0,059	-0,088
-152,891	682,047	-0,019	-0,035
-151,877	168,708	0,057	0,059
-150,862	-200,000	0,026	0,120
-149,847	-200,000	0,018	-0,083
-148,833	-76,192	-0,086	0,022
-147,818	478,407	0,050	0,081
-146,804	-2,015	0,077	0,039
-145,789	-200,000	-0,015	0,125
-144,775	38,278	0,049	0,031
-143,760	-4,971	-0,080	-0,040
-142,745	800,000	-0,062	-0,146
-141,731	82,788	0,097	0,076
-140,716	97,356	0,116	0,096
-139,702	800,000	0,049	-0,111
-138,687	800,000	0,029	0,082
-137,672	116,821	-0,070	0,062
-136,658	98,443	0,055	-0,045
-135,643	-134,116	-0,096	-0,008
-134,629	-200,000	0,032	0,168
-133,614	-200,000	0,016	0,053
-132,599	800,000	0,015	0,031
-131,585	-36,256	-0,009	-0,004
-130,570	435,200	0,065	0,102
-129,556	800,000	-0,059	-0,120
-128,541	-200,000	-0,010	-0,090
-127,526	-200,000	0,019	0,076
-126,512	-151,858	0,083	0,004
-125,497	800,000	0,032	0,085
-124,483	523,518	0,040	0,068
-123,468	800,000	-0,017	-0,047
-122,453	800,000	0,050	-0,137
-121,439	-20,981	-0,172	-0,075
-120,424	94,432	-0,036	0,030
