DTS Sentinel unit serial number:	SN410029Multiplexer serial number:	ORYXHardware model number:	OX2-SRSoftware version number:	ORYX F/W v4,00 Oryx Data Collector v3.7.2.0data status	okinstallation	B5 Nyhavnadifferential loss correction	single-endedforward channel	channel 2reverse channel	N/Adate	2023/12/11time	15:12:13forward acquisition time	300,00reverse acquisition time	0,00gamma	499,1914k internal	0,3166k external	0,3166temperature offset calibration	1,0000default loss term (dB/km)	0,3820temperature slope calibration	1,0000multiplexer offset coefficient	1,0000multiplexer slope coefficient	1,0000fibre end	0,00T internal ref (°C)	13,17T ext. ref 1 (°C)	-1,99T ext. ref 2 (°C)	-2,01length (m)	temperature (°C)	Stokes	anti-Stokes-744,400	-53,909	0,170	0,057
-743,385	-108,288	-0,195	-0,031
-742,371	-200,000	-0,010	0,114
-741,356	-151,813	-0,248	0,013
-740,342	-21,963	0,131	-0,058
-739,327	-117,481	-0,291	0,038
-738,312	-99,927	0,086	0,016
-737,298	-39,061	-0,154	0,059
-736,283	-23,360	0,041	0,018
-735,269	-107,654	-0,372	-0,059
-734,254	-21,574	0,127	0,057
-733,239	11,817	-0,461	-0,259
-732,225	-52,372	0,174	-0,059
-731,210	-200,000	-0,016	0,053
-730,196	39,396	0,072	0,048
-729,181	8,890	-0,130	-0,072
-728,167	800,000	-0,031	-0,062
-727,152	-200,000	0,015	0,050
-726,137	-50,866	-0,071	0,024
-725,123	800,000	-0,067	-0,138
-724,108	-1,018	-0,195	-0,101
-723,094	-25,245	0,041	-0,018
-722,079	2,174	-0,187	-0,099
-721,064	-23,104	-0,065	0,029
-720,050	800,000	0,012	0,038
-719,035	-77,524	0,047	-0,012
-718,021	207,706	-0,094	-0,108
-717,006	-101,113	-0,130	0,023
-715,991	-7,177	-0,069	0,034
-714,977	-119,734	-0,181	0,023
-713,962	365,630	0,043	-0,064
-712,948	-154,031	0,053	0,003
-711,933	-32,493	-0,100	0,041
-710,918	-200,000	0,024	0,096
-709,904	338,890	0,058	-0,083
-708,889	-165,375	-0,092	0,003
-707,875	-200,000	0,002	-0,026
-706,860	80,394	-0,115	-0,091
-705,845	-157,937	-0,113	0,005
-704,831	553,102	0,026	-0,045
-703,816	-83,759	-0,117	-0,027
-702,802	-99,166	0,047	-0,009
-701,787	-200,000	-0,020	-0,130
-700,772	123,212	0,059	-0,054
-699,758	-200,000	0,011	-0,170
-698,743	800,000	-0,044	-0,112
-697,729	694,062	0,029	-0,055
-696,714	716,525	0,035	-0,069
-695,699	661,548	-0,061	-0,116
-694,685	-200,000	0,014	-0,149
-693,670	32,819	-0,091	-0,058
-692,656	-113,380	-0,011	0,001
-691,641	206,099	-0,085	-0,097
-690,627	800,000	-0,025	-0,063
-689,612	67,784	-0,136	0,102
-688,597	338,777	0,111	0,159
-687,583	-200,000	0,014	-0,102
-686,568	142,628	-0,045	-0,044
-685,554	123,343	-0,151	0,139
-684,539	800,000	-0,030	0,061
-683,524	-16,663	0,119	0,055
-682,510	-41,796	0,104	0,039
-681,495	800,000	-0,020	-0,050
-680,481	197,623	-0,078	-0,087
-679,466	335,144	-0,065	-0,093
-678,451	163,018	-0,068	-0,070
-677,437	-143,152	0,083	-0,006
-676,422	455,440	0,047	0,077
-675,408	200,291	0,063	0,071
-674,393	-200,000	0,002	-0,094
-673,378	347,052	-0,095	-0,137
-672,364	-200,000	-0,004	-0,191
-671,349	-87,317	-0,027	-0,006
-670,335	564,145	0,073	0,130
-669,320	-200,000	-0,024	-0,079
-668,305	739,080	0,057	0,113
-667,291	-119,169	-0,082	-0,010
-666,276	-200,000	0,015	0,061
-665,262	333,273	0,029	0,041
-664,247	-200,000	0,005	-0,087
-663,232	474,893	-0,037	-0,062
-662,218	57,493	-0,029	-0,020
-661,203	251,793	-0,076	-0,095
-660,189	800,000	0,015	0,039
-659,174	351,730	-0,031	-0,046
-658,159	248,681	-0,051	-0,063
-657,145	18,172	0,081	-0,047
-656,130	231,556	0,045	0,054
-655,116	-183,655	-0,128	-0,002
-654,101	125,255	-0,081	0,074
-653,086	145,260	-0,058	0,057
-652,072	433,902	0,062	-0,098
-651,057	-47,217	-0,179	-0,063
-650,043	-200,000	-0,038	-0,189
-649,028	466,185	-0,008	0,012
-648,014	-45,408	-0,128	0,046
-646,999	276,642	0,023	-0,030
-645,984	800,000	-0,015	-0,034
-644,970	-72,934	-0,073	-0,019
-643,955	390,871	0,042	-0,064
-642,941	-200,000	0,020	0,105
-641,926	-74,056	-0,086	0,023
-640,911	-200,000	-0,021	-0,071
-639,897	-61,652	0,060	0,018
-638,882	67,442	-0,022	-0,016
-637,868	-200,000	-0,011	-0,059
-636,853	119,352	0,076	-0,069
-635,838	-60,310	-0,127	-0,039
-634,824	142,825	0,033	0,032
-633,809	-112,633	0,064	0,009
-632,795	210,662	0,077	-0,088
-631,780	71,336	-0,027	-0,021
-630,765	128,850	-0,018	0,017
-629,751	347,408	0,030	-0,044
-628,736	800,000	-0,033	-0,093
-627,722	-66,971	-0,079	-0,023
-626,707	314,329	0,067	-0,093
-625,692	800,000	-0,027	-0,069
-624,678	-200,000	-0,028	-0,124
-623,663	800,000	0,054	-0,125
-622,649	-32,909	-0,125	-0,050
-621,634	800,000	-0,049	-0,128
-620,619	55,172	-0,047	-0,034
-619,605	457,720	-0,072	-0,117
-618,590	-200,000	0,021	0,123
-617,576	243,726	0,042	-0,052
-616,561	-98,034	0,075	0,014
-615,546	-25,795	-0,107	-0,046
-614,532	210,799	-0,023	0,027
-613,517	-200,000	-0,018	-0,066
-612,503	-52,503	-0,147	0,050
-611,488	-200,000	-0,005	0,148
-610,474	-109,919	0,169	0,026
-609,459	111,958	0,068	-0,060
-608,444	-200,000	0,000	-0,079
-607,430	-18,167	-0,184	-0,084
-606,415	-8,185	-0,097	-0,048
-605,401	-105,710	-0,108	0,018
-604,386	42,149	0,151	-0,100
-603,371	327,403	-0,039	-0,055
-602,357	-200,000	0,000	-0,026
-601,342	43,357	-0,066	-0,044
-600,328	800,000	0,034	0,096
-599,313	-200,000	-0,003	0,037
-598,298	27,178	0,073	0,045
-597,284	14,479	0,116	0,066
-596,269	800,000	0,020	0,042
-595,255	-40,272	-0,117	0,044
-594,240	27,179	-0,132	-0,081
-593,225	13,982	-0,139	0,079
-592,211	-200,000	-0,020	-0,101
-591,196	-64,624	0,045	-0,013
-590,182	253,745	-0,064	-0,080
-589,167	100,868	0,084	-0,072
-588,152	-113,550	0,127	-0,018
-587,138	99,546	0,044	0,037
-586,123	-50,871	-0,083	-0,028
-585,109	712,585	-0,017	-0,033
-584,094	545,426	0,052	-0,092
-583,079	-200,000	-0,009	-0,056
-582,065	381,644	0,027	-0,040
-581,050	-107,890	-0,099	0,016
-580,036	-200,000	-0,044	0,173
-579,021	-200,000	-0,014	0,065
-578,006	-46,644	-0,060	0,021
-576,992	-200,000	-0,020	-0,084
-575,977	-200,000	0,028	-0,118
-574,963	-58,700	0,182	0,057
-573,948	800,000	-0,096	0,292
-572,934	39,824	-0,010	-0,007
-571,919	-200,000	0,008	-0,037
-570,904	-200,000	-0,012	-0,125
-569,890	-124,004	0,091	-0,010
-568,875	18,733	0,048	0,028
-567,861	-200,000	-0,008	0,027
-566,846	374,892	0,104	-0,155
-565,831	-153,686	-0,051	-0,003
-564,817	-115,854	-0,100	0,013
-563,802	251,244	0,069	0,086
-562,788	306,582	-0,028	-0,038
-561,773	281,875	-0,095	-0,125
-560,758	-12,538	-0,014	0,007
-559,744	-200,000	0,016	-0,075
-558,729	67,162	0,149	0,111
-557,715	-57,843	-0,083	-0,026
-556,700	52,901	-0,106	0,074
-555,685	-200,000	0,015	-0,139
-554,671	-113,772	0,167	0,023
-553,656	136,265	-0,065	0,062
-552,642	293,525	-0,065	0,087
-551,627	258,552	0,068	-0,085
-550,612	-200,000	-0,041	-0,157
-549,598	-60,313	0,077	-0,024
-548,583	-200,000	0,032	-0,127
-547,569	37,451	-0,082	-0,053
-546,554	800,000	-0,035	0,110
-545,539	22,100	0,079	0,047
-544,525	57,336	0,110	-0,078
-543,510	800,000	0,013	-0,029
-542,496	-0,896	-0,077	0,040
-541,481	-200,000	0,007	-0,085
-540,466	800,000	-0,022	0,047
-539,452	49,315	0,072	0,049
-538,437	593,886	0,036	0,065
-537,423	15,758	0,051	-0,029
-536,408	479,689	-0,098	0,162
-535,393	78,097	0,077	-0,060
-534,379	-200,000	0,002	-0,157
-533,364	-111,512	-0,122	-0,018
-532,350	-133,599	-0,063	0,006
-531,335	-200,000	0,007	-0,055
-530,321	64,067	0,091	0,066
-529,306	-200,000	-0,034	-0,115
-528,291	0,862	-0,091	-0,047
-527,277	128,720	0,023	0,021
-526,262	-92,806	-0,164	-0,033
-525,248	-29,217	0,073	0,030
-524,233	-44,811	0,068	-0,025
-523,218	747,377	0,034	0,068
-522,204	800,000	0,025	0,077
-521,189	-200,000	-0,013	0,153
-520,175	331,792	-0,117	-0,165
-519,160	800,000	0,009	0,022
-518,145	225,199	0,044	0,052
-517,131	-200,000	0,023	0,092
-516,116	16,819	0,027	0,016
-515,102	-200,000	0,001	0,060
-514,087	800,000	-0,024	0,064
-513,072	-34,371	-0,111	-0,044
-512,058	178,409	-0,102	-0,109
-511,043	408,497	0,033	0,051
-510,029	37,090	0,049	0,032
-509,014	-200,000	0,012	0,050
-507,999	390,200	-0,036	0,054
-506,985	-76,579	-0,243	0,062
-505,970	-200,000	0,010	0,047
-504,956	176,296	-0,069	-0,073
-503,941	274,928	-0,027	-0,035
-502,926	-46,383	0,038	0,014
-501,912	15,942	0,041	-0,023
-500,897	-29,362	-0,084	0,035
-499,883	-137,704	-0,007	-0,001
-498,868	800,000	-0,073	-0,181
-497,853	127,118	0,065	0,060
-496,839	105,018	-0,069	-0,059
-495,824	43,545	-0,082	0,054
-494,810	277,762	0,044	0,057
-493,795	-200,000	-0,003	0,038
-492,781	-44,390	-0,045	0,016
-491,766	-102,487	-0,076	0,013
-490,751	125,846	-0,115	-0,106
-489,737	-200,000	0,009	-0,067
-488,722	75,110	0,050	-0,038
-487,708	-43,448	0,024	0,009
-486,693	142,627	0,083	0,080
-485,678	-200,000	0,020	-0,128
-484,664	-200,000	-0,019	-0,063
-483,649	341,599	0,048	0,068
-482,635	71,120	-0,157	0,118
-481,620	-200,000	-0,000	0,075
-480,605	670,829	-0,035	-0,067
-479,591	743,751	0,053	0,104
-478,576	85,774	0,022	0,018
-477,562	-50,170	0,074	-0,025
-476,547	58,409	-0,049	-0,035
-475,532	-5,087	0,045	0,022
-474,518	-56,554	0,011	-0,004
-473,503	695,377	0,054	-0,105
-472,489	422,978	0,061	-0,096
-471,474	115,849	-0,100	0,089
-470,459	-47,493	-0,140	-0,049
-469,445	-26,234	-0,040	0,017
-468,430	335,623	-0,095	0,135
-467,416	-45,244	0,059	-0,021
-466,401	-200,000	-0,012	0,147
-465,386	70,719	0,011	-0,008
-464,372	164,435	0,045	-0,046
-463,357	-200,000	-0,007	-0,125
-462,343	64,090	-0,064	0,047
-461,328	173,418	-0,045	-0,047
-460,313	800,000	0,030	0,072
-459,299	233,888	0,113	0,135
-458,284	159,944	-0,015	-0,015
-457,270	199,703	0,067	-0,075
-456,255	-100,494	-0,099	0,018
-455,241	-200,000	-0,005	-0,023
-454,226	800,000	0,012	0,036
-453,211	-117,711	-0,135	0,017
-452,197	-31,437	-0,094	-0,038
-451,182	-200,000	-0,038	0,178
-450,168	-41,951	0,043	0,016
-449,153	800,000	0,031	-0,071
-448,138	271,351	0,040	-0,052
-447,124	30,331	-0,084	-0,052
-446,109	-200,000	-0,002	0,074
-445,095	800,000	0,046	0,127
-444,080	-69,764	-0,079	0,022
-443,065	111,898	0,073	0,064
-442,051	800,000	0,006	0,013
-441,036	534,446	0,050	0,086
-440,022	354,433	0,095	-0,138
-439,007	549,962	0,015	0,027
-437,992	-200,000	-0,034	0,116
-436,978	12,318	0,060	-0,033
-435,963	-112,142	0,098	0,014
-434,949	800,000	-0,042	-0,122
-433,934	800,000	0,016	0,046
-432,919	-200,000	-0,020	-0,114
-431,905	800,000	-0,010	-0,023
-430,890	800,000	0,019	-0,045
-429,876	800,000	-0,022	-0,051
-428,861	591,564	-0,068	-0,123
-427,846	-200,000	-0,001	-0,048
-426,832	10,102	0,021	0,011
-425,817	800,000	-0,034	-0,075
-424,803	-57,076	0,169	0,054
-423,788	256,326	0,062	0,077
-422,773	17,939	0,107	0,062
-421,759	401,447	-0,013	0,021
-420,744	800,000	0,049	-0,121
-419,730	-174,645	-0,045	-0,001
-418,715	800,000	-0,042	-0,118
-417,701	-200,000	0,010	-0,106
-416,686	-200,000	-0,002	0,027
-415,671	-138,117	0,032	-0,003
-414,657	-200,000	0,039	-0,136
-413,642	30,394	0,027	-0,017
-412,628	163,804	0,070	-0,071
-411,613	229,238	-0,080	-0,095
-410,598	83,471	0,061	0,048
-409,584	148,344	0,033	-0,032
-408,569	33,203	0,027	0,017
-407,555	-200,000	0,001	0,111
-406,540	15,094	-0,170	0,097
-405,525	-87,695	0,107	-0,023
-404,511	383,095	0,029	-0,044
-403,496	-73,316	0,049	-0,013
-402,482	-200,000	0,019	-0,131
-401,467	-82,571	0,147	0,034
-400,452	800,000	-0,036	0,108
-399,438	-200,000	-0,056	0,181
-398,423	281,234	0,084	0,109
-397,409	-200,000	-0,012	-0,173
-396,394	197,003	-0,094	-0,104
-395,379	30,497	0,106	-0,065
-394,365	-93,347	0,148	-0,030
-393,350	800,000	0,033	-0,083
-392,336	-132,059	-0,078	0,007
-391,321	623,384	-0,052	-0,096
-390,306	-29,363	-0,057	-0,023
-389,292	-200,000	0,004	0,052
-388,277	106,508	0,064	0,055
-387,263	-65,818	-0,089	0,026
-386,248	-200,000	0,017	0,059
-385,233	35,349	0,121	0,077
-384,219	-53,703	-0,105	-0,034
-383,204	-108,855	-0,223	0,034
-382,190	-105,624	0,044	-0,007
-381,175	-41,196	0,104	-0,039
-380,160	-200,000	0,000	0,057
-379,146	-200,000	-0,044	-0,140
-378,131	156,946	0,062	-0,062
-377,117	-200,000	-0,002	0,034
-376,102	800,000	-0,015	-0,035
-375,088	-90,905	0,082	-0,017
-374,073	-20,002	-0,065	-0,029
-373,058	800,000	0,024	-0,058
-372,044	529,113	0,044	-0,075
-371,029	423,009	0,022	0,035
-370,015	44,297	0,064	-0,043
-369,000	800,000	0,036	0,079
-367,985	292,153	-0,113	-0,150
-366,971	-57,580	0,107	-0,034
-365,956	268,432	0,092	0,118
-364,942	372,969	0,015	0,022
-363,927	-200,000	-0,003	-0,028
-362,912	694,322	-0,064	-0,122
-361,898	687,854	-0,049	0,093
-360,883	-34,789	-0,073	0,029
-359,869	21,077	0,060	-0,035
-358,854	-80,091	0,022	0,005
-357,839	-69,486	0,040	0,011
-356,825	-200,000	0,046	0,154
-355,810	-200,000	-0,021	0,071
-354,796	-183,226	-0,022	-0,000
-353,781	1,446	-0,042	-0,022
-352,766	94,867	-0,066	-0,054
-351,752	-200,000	0,005	-0,114
-350,737	-200,000	0,000	-0,079
-349,723	623,601	-0,012	0,021
-348,708	79,124	0,139	0,107
-347,693	800,000	0,058	-0,117
-346,679	800,000	-0,064	-0,195
-345,664	-8,880	-0,040	-0,019
-344,650	-154,847	0,210	-0,010
-343,635	-115,115	0,134	-0,018
-342,620	62,215	0,044	0,032
-341,606	725,353	0,058	0,113
-340,591	800,000	-0,017	0,040
-339,577	0,844	-0,092	-0,048
-338,562	9,427	-0,031	0,017
-337,548	-200,000	-0,007	-0,062
-336,533	-145,342	0,046	-0,003
-335,518	-156,647	0,140	-0,006
-334,504	184,990	-0,045	0,048
-333,489	104,516	-0,065	0,055
-332,475	-49,818	0,081	0,028
-331,460	-87,454	-0,034	0,007
-330,445	-78,310	-0,050	-0,012
-329,431	-200,000	0,000	0,030
-328,416	-200,000	0,019	0,079
-327,402	131,219	0,071	-0,066
-326,387	35,062	-0,118	0,075
-325,372	-39,206	0,040	-0,015
-324,358	-200,000	-0,034	-0,125
-323,343	-200,000	0,001	-0,010
-322,329	-200,000	0,003	0,181
-321,314	-33,829	0,114	0,045
-320,299	-92,577	-0,052	-0,010
-319,285	-200,000	-0,092	0,000
-318,270	269,566	0,021	0,027
-317,256	647,952	-0,010	-0,018
-316,241	-6,294	0,121	0,060
-315,226	-87,932	0,093	-0,020
-314,212	-72,354	-0,169	0,045
-313,197	298,998	-0,035	0,047
-312,183	-48,659	0,068	-0,024
-311,168	8,905	0,043	-0,023
-310,153	-200,000	0,015	-0,119
-309,139	-74,148	0,104	-0,027
-308,124	33,684	-0,072	0,045
-307,110	-95,586	-0,074	-0,014
-306,095	-141,474	-0,029	-0,002
-305,080	182,107	0,058	0,062
-304,066	-139,948	-0,078	0,006
-303,051	139,371	-0,027	-0,026
-302,037	527,753	-0,048	-0,082
-301,022	800,000	0,007	0,016
-300,008	800,000	0,009	0,022
-298,993	-13,314	0,105	0,049
-297,978	-4,720	-0,078	0,039
-296,964	800,000	0,061	0,190
-295,949	-200,000	0,012	-0,105
-294,935	800,000	-0,016	0,037
-293,920	-200,000	-0,023	-0,087
-292,905	-200,000	-0,040	0,143
-291,891	-200,000	-0,006	0,112
-290,876	19,158	-0,071	0,041
-289,862	-67,849	-0,045	0,013
-288,847	-139,595	-0,159	-0,012
-287,832	-69,537	-0,029	0,008
-286,818	800,000	0,030	0,074
-285,803	-200,000	0,006	-0,054
-284,789	800,000	-0,080	0,165
-283,774	-200,000	-0,008	0,138
-282,759	-200,000	-0,005	-0,117
-281,745	-200,000	-0,001	-0,158
-280,730	-152,920	-0,038	0,002
-279,716	48,131	0,137	0,092
-278,701	-166,639	0,063	-0,002
-277,686	17,175	-0,053	-0,030
-276,672	-200,000	-0,001	-0,024
-275,657	-200,000	0,018	-0,127
-274,643	-200,000	-0,003	0,032
-273,628	-200,000	0,023	-0,163
-272,613	386,330	0,021	0,032
-271,599	292,554	0,085	0,113
-270,584	-152,540	0,119	-0,006
-269,570	-104,040	0,043	0,007
-268,555	-200,000	-0,001	-0,116
-267,540	-109,503	0,043	0,006
-266,526	-95,657	-0,077	-0,015
-265,511	800,000	0,010	-0,027
-264,497	-47,601	-0,016	-0,006
-263,482	20,684	0,062	0,036
-262,467	-74,163	0,055	-0,014
-261,453	800,000	-0,045	0,091
-260,438	-76,678	0,100	0,025
-259,424	-200,000	-0,019	-0,081
-258,409	763,956	0,031	-0,061
-257,395	338,974	-0,038	-0,054
-256,380	58,299	0,180	0,128
-255,365	-200,000	0,013	0,183
-254,351	165,351	-0,055	0,057
-253,336	-200,000	0,003	0,026
-252,322	222,496	-0,021	0,024
-251,307	-200,000	0,017	0,083
-250,292	711,056	0,057	0,109
-249,278	134,140	0,116	0,108
-248,263	711,185	0,058	0,111
-247,249	-200,000	0,011	0,073
-246,234	-125,171	-0,087	-0,010
-245,219	-200,000	-0,037	-0,122
-244,205	162,772	-0,088	-0,089
-243,190	107,805	-0,089	-0,076
-242,176	60,147	0,058	0,041
-241,161	800,000	-0,008	0,020
-240,146	-200,000	0,008	-0,156
-239,132	-200,000	-0,004	-0,129
-238,117	-200,000	0,000	0,031
-237,103	-26,793	-0,059	-0,025
-236,088	-200,000	0,018	0,126
-235,073	-200,000	0,008	0,077
-234,059	-200,000	-0,057	-0,219
-233,044	-200,000	-0,019	-0,069
-232,030	-52,915	0,030	0,010
-231,015	94,097	-0,041	-0,034
-230,000	-200,000	0,017	0,078
-228,986	-102,550	-0,149	-0,025
-227,971	-61,867	0,114	0,034
-226,957	137,536	0,061	0,058
-225,942	800,000	0,069	0,150
-224,927	-13,731	-0,063	-0,029
-223,913	-200,000	0,020	-0,068
-222,898	321,781	0,041	0,056
-221,884	-200,000	-0,001	0,034
-220,869	800,000	0,047	0,097
-219,855	382,430	0,033	0,049
-218,840	324,190	-0,089	0,123
-217,825	224,845	-0,062	0,072
-216,811	-144,406	0,034	0,002
-215,796	91,898	0,053	0,043
-214,782	304,195	-0,037	0,049
-213,767	-200,000	0,013	0,086
-212,752	68,096	0,190	-0,140
-211,738	800,000	0,024	0,061
-210,723	800,000	0,035	0,091
-209,709	-200,000	-0,014	-0,065
-208,694	113,631	-0,120	-0,105
-207,679	634,870	0,020	-0,037
-206,665	-200,000	0,001	-0,095
-205,650	-152,263	-0,074	-0,004
-204,636	-200,000	0,026	0,085
-203,621	42,574	-0,066	0,043
-202,606	164,273	-0,063	0,064
-201,592	800,000	0,022	-0,056
-200,577	-11,251	-0,209	0,099
-199,563	-200,000	0,002	-0,021
-198,548	-34,385	0,103	0,041
-197,533	175,747	-0,070	0,073
-196,519	-76,443	0,103	0,026
-195,504	92,967	0,021	0,017
-194,490	-39,919	0,027	-0,010
-193,475	-61,934	-0,148	0,044
-192,460	-200,000	0,025	0,090
-191,446	-80,162	0,095	0,023
-190,431	800,000	0,046	0,115
-189,417	686,204	0,042	-0,078
-188,402	744,587	0,027	0,052
-187,387	-131,278	-0,117	-0,011
-186,373	-56,980	0,152	0,048
-185,358	-17,133	-0,127	0,057
-184,344	-200,000	-0,020	0,099
-183,329	126,278	0,091	-0,083
-182,315	-81,298	0,157	0,037
-181,300	635,677	-0,030	-0,055
-180,285	142,108	0,028	-0,027
-179,271	187,195	-0,031	0,034
-178,256	-200,000	-0,001	-0,093
-177,242	45,789	0,032	0,021
-176,227	-200,000	-0,005	-0,065
-175,212	157,231	-0,014	0,014
-174,198	-200,000	-0,010	0,071
-173,183	-103,362	-0,120	0,020
-172,169	-104,325	0,072	-0,012
-171,154	-126,774	0,005	0,001
-170,139	-170,688	0,149	-0,004
-169,125	-41,144	-0,101	0,037
-168,110	46,354	-0,047	0,031
-167,096	-86,753	-0,092	0,020
-166,081	122,725	0,065	0,059
-165,066	-200,000	0,005	0,132
-164,052	-98,399	-0,074	-0,013
-163,037	410,054	0,065	0,099
-162,023	-200,000	-0,006	-0,031
-161,008	7,762	0,041	0,022
-159,993	800,000	-0,043	0,101
-158,979	-200,000	0,058	0,000
-157,964	-200,000	-0,036	0,120
-156,950	-200,000	-0,008	-0,098
-155,935	-124,316	0,105	-0,012
-154,920	-200,000	0,006	0,099
-153,906	-200,000	-0,010	-0,068
-152,891	596,103	-0,023	-0,041
-151,877	253,294	0,083	0,102
-150,862	800,000	-0,044	-0,120
-149,847	16,361	0,102	0,057
-148,833	-200,000	0,010	-0,056
-147,818	800,000	0,030	-0,080
-146,804	78,320	0,101	-0,078
-145,789	800,000	-0,010	0,022
-144,775	-168,579	0,053	-0,001
-143,760	-200,000	0,006	0,057
-142,745	-200,000	0,027	-0,205
-141,731	-109,536	0,077	-0,012
-140,716	-35,411	0,165	0,064
-139,702	121,323	0,016	-0,015
-138,687	65,014	0,035	0,025
-137,672	-200,000	0,017	-0,125
-136,658	800,000	-0,052	-0,158
-135,643	354,185	-0,052	-0,074
-134,629	-162,474	0,170	0,006
-133,614	-200,000	-0,005	0,070
-132,599	-200,000	0,006	-0,039
-131,585	194,958	-0,034	0,037
-130,570	58,283	0,038	-0,027
-129,556	310,811	0,062	0,084
-128,541	800,000	-0,038	0,104
-127,526	95,632	-0,055	0,045
-126,512	241,584	-0,022	0,027
-125,497	-200,000	0,006	0,123
-124,483	-48,264	-0,108	-0,037
-123,468	800,000	0,047	0,099
-122,453	-9,626	-0,043	0,021
-121,439	-93,174	-0,030	0,006
-120,424	186,129	-0,026	0,028
-119,410	-45,656	-0,067	0,024
