DTS Sentinel unit serial number:	SN410029Multiplexer serial number:	ORYXHardware model number:	OX2-SRSoftware version number:	ORYX F/W v4,00 Oryx Data Collector v3.7.2.0data status	okinstallation	B5 Nyhavnadifferential loss correction	single-endedforward channel	channel 2reverse channel	N/Adate	2023/12/11time	18:22:13forward acquisition time	300,00reverse acquisition time	0,00gamma	499,1914k internal	0,3161k external	0,3161temperature offset calibration	1,0000default loss term (dB/km)	0,3820temperature slope calibration	1,0000multiplexer offset coefficient	1,0000multiplexer slope coefficient	1,0000fibre end	0,00T internal ref (°C)	15,15T ext. ref 1 (°C)	-0,38T ext. ref 2 (°C)	-0,63length (m)	temperature (°C)	Stokes	anti-Stokes-744,400	22,564	0,092	-0,055
-743,385	-103,441	-0,310	0,053
-742,371	800,000	0,041	-0,108
-741,356	-60,018	-0,149	-0,047
-740,342	-200,000	-0,001	0,035
-739,327	-74,303	-0,251	0,066
-738,312	96,781	-0,101	-0,085
-737,298	-79,753	-0,340	-0,084
-736,283	85,182	0,044	0,035
-735,269	-21,792	-0,161	0,072
-734,254	800,000	0,019	0,062
-733,239	47,772	-0,486	-0,333
-732,225	-52,310	0,156	0,053
-731,210	-200,000	0,002	0,090
-730,196	800,000	-0,047	-0,117
-729,181	26,662	-0,031	-0,019
-728,167	800,000	0,022	0,062
-727,152	-66,586	0,148	-0,043
-726,137	299,357	-0,118	-0,161
-725,123	-200,000	0,027	-0,197
-724,108	429,752	0,011	-0,017
-723,094	103,590	0,077	-0,066
-722,079	800,000	0,016	-0,046
-721,064	-131,159	0,023	0,002
-720,050	-155,163	-0,044	0,002
-719,035	-48,180	0,038	0,014
-718,021	662,503	-0,047	0,090
-717,006	-168,619	-0,147	-0,004
-715,991	-200,000	-0,004	-0,063
-714,977	-200,000	0,011	-0,077
-713,962	11,387	-0,010	-0,006
-712,948	-120,674	0,151	0,019
-711,933	-200,000	0,002	-0,095
-710,918	605,322	-0,061	-0,112
-709,904	-200,000	-0,006	-0,070
-708,889	-108,458	-0,053	0,008
-707,875	327,816	-0,015	-0,021
-706,860	-200,000	0,026	0,139
-705,845	55,400	-0,019	0,014
-704,831	66,657	0,089	0,066
-703,816	-6,632	0,072	-0,036
-702,802	800,000	-0,037	-0,076
-701,787	182,389	-0,075	0,081
-700,772	142,085	0,026	-0,025
-699,758	234,649	0,052	0,063
-698,743	-168,689	0,025	-0,001
-697,729	368,988	0,045	-0,067
-696,714	-100,984	0,115	0,020
-695,699	-200,000	0,018	0,098
-694,685	372,217	-0,087	-0,130
-693,670	62,431	0,081	-0,060
-692,656	-200,000	-0,003	-0,105
-691,641	800,000	-0,019	-0,050
-690,627	373,691	-0,027	0,041
-689,612	-59,847	-0,103	-0,032
-688,597	41,442	0,111	0,074
-687,583	144,395	-0,104	-0,102
-686,568	-61,125	0,127	-0,039
-685,554	-200,000	0,006	0,048
-684,539	620,839	0,015	0,027
-683,524	-200,000	0,008	-0,060
-682,510	-165,431	0,066	-0,002
-681,495	56,791	-0,032	-0,023
-680,481	-89,584	-0,075	0,016
-679,466	-200,000	0,032	-0,112
-678,451	529,982	-0,074	0,130
-677,437	-200,000	-0,019	-0,150
-676,422	-142,915	0,037	-0,003
-675,408	88,473	-0,116	-0,095
-674,393	-49,862	-0,146	0,051
-673,378	1,052	-0,096	0,050
-672,364	-39,025	-0,037	-0,014
-671,349	138,841	-0,031	0,030
-670,335	-38,807	0,060	0,023
-669,320	800,000	0,004	-0,011
-668,305	254,156	0,097	0,121
-667,291	129,935	0,048	-0,046
-666,276	144,077	0,069	-0,068
-665,262	-76,488	0,087	-0,022
-664,247	-200,000	-0,012	-0,150
-663,232	484,027	0,071	-0,119
-662,218	190,541	0,042	0,046
-661,203	109,157	-0,083	0,073
-660,189	-200,000	-0,001	-0,010
-659,174	-200,000	-0,021	-0,107
-658,159	-200,000	-0,002	-0,041
-657,145	-51,727	-0,195	-0,066
-656,130	-42,021	-0,072	0,027
-655,116	332,270	0,091	-0,129
-654,101	235,322	-0,021	-0,026
-653,086	-20,105	-0,021	-0,009
-652,072	-200,000	-0,004	-0,018
-651,057	-200,000	-0,001	-0,162
-650,043	-76,992	-0,090	0,023
-649,028	267,887	0,009	-0,011
-648,014	-200,000	-0,032	-0,121
-646,999	-200,000	0,022	-0,117
-645,984	247,532	-0,087	0,108
-644,970	-108,815	-0,068	0,011
-643,955	-42,040	-0,128	-0,048
-642,941	-31,325	-0,097	0,040
-641,926	-200,000	0,049	-0,176
-640,911	-85,586	0,059	0,013
-639,897	-200,000	0,016	0,087
-638,882	37,824	0,114	-0,074
-637,868	337,224	-0,016	-0,023
-636,853	160,838	-0,113	-0,116
-635,838	310,326	0,134	-0,185
-634,824	-143,790	-0,121	-0,008
-633,809	20,509	0,037	0,022
-632,795	-135,993	0,045	0,004
-631,780	-68,024	0,043	0,012
-630,765	-200,000	0,002	-0,023
-629,751	-55,663	-0,145	-0,047
-628,736	-126,080	-0,074	-0,008
-627,722	-16,612	-0,064	0,029
-626,707	63,852	-0,067	0,050
-625,692	-200,000	-0,016	0,065
-624,678	119,223	0,079	0,072
-623,663	54,271	0,046	-0,032
-622,649	503,576	-0,035	-0,059
-621,634	800,000	-0,046	-0,101
-620,619	69,508	0,058	-0,043
-619,605	-60,594	0,016	0,005
-618,590	88,364	0,123	-0,100
-617,576	800,000	0,044	0,125
-616,561	800,000	0,028	-0,085
-615,546	-74,399	-0,207	-0,054
-614,532	-64,497	-0,042	0,012
-613,517	-200,000	0,005	-0,036
-612,503	338,684	-0,027	-0,039
-611,488	-93,399	0,017	-0,003
-610,474	-33,703	-0,084	0,034
-609,459	236,522	-0,045	-0,055
-608,444	76,548	-0,035	-0,027
-607,430	284,929	-0,074	-0,098
-606,415	-115,662	-0,025	-0,003
-605,401	-200,000	-0,022	0,161
-604,386	509,001	0,079	0,135
-603,371	534,025	-0,021	0,037
-602,357	-200,000	-0,002	0,026
-601,342	-200,000	-0,029	0,100
-600,328	-176,243	0,049	-0,001
-599,313	-200,000	0,013	-0,074
-598,298	-200,000	0,035	-0,126
-597,284	-52,571	0,103	-0,035
-596,269	800,000	-0,069	0,165
-595,255	270,461	-0,028	-0,036
-594,240	102,919	0,012	0,011
-593,225	152,729	-0,087	0,087
-592,211	-24,344	-0,025	0,011
-591,196	177,019	-0,039	0,041
-590,182	-103,363	-0,112	-0,019
-589,167	37,272	0,083	-0,053
-588,152	-121,056	-0,106	-0,013
-587,138	-45,150	-0,067	0,024
-586,123	246,825	0,001	0,002
-585,109	641,904	-0,033	-0,061
-584,094	57,170	-0,031	-0,022
-583,079	800,000	0,009	-0,024
-582,065	-23,847	-0,062	0,027
-581,050	-200,000	-0,004	-0,035
-580,036	-27,776	-0,164	0,069
-579,021	41,614	-0,029	-0,019
-578,006	112,689	-0,067	-0,059
-576,992	800,000	-0,031	-0,081
-575,977	-56,551	-0,079	0,025
-574,963	56,742	0,108	-0,077
-573,948	32,020	0,075	-0,047
-572,934	508,075	-0,040	0,067
-571,919	800,000	-0,025	0,066
-570,904	52,647	-0,129	0,090
-569,890	-200,000	-0,022	0,153
-568,875	224,348	-0,018	0,021
-567,861	33,119	0,068	0,043
-566,846	47,137	0,087	0,059
-565,831	-154,648	-0,017	-0,001
-564,817	-19,895	-0,091	-0,041
-563,802	-200,000	0,002	-0,012
-562,788	-200,000	0,013	-0,052
-561,773	-129,640	0,123	0,012
-560,758	48,515	-0,035	0,024
-559,744	40,435	-0,039	0,026
-558,729	-200,000	0,011	-0,075
-557,715	-200,000	-0,009	-0,046
-556,700	-200,000	0,002	0,031
-555,685	-21,954	-0,085	-0,037
-554,671	-155,801	0,169	0,008
-553,656	160,469	-0,016	0,016
-552,642	99,412	0,119	0,100
-551,627	197,940	0,059	0,066
-550,612	159,041	0,033	-0,034
-549,598	-94,081	-0,019	0,004
-548,583	-200,000	-0,001	-0,026
-547,569	169,392	-0,015	-0,016
-546,554	48,237	0,021	0,014
-545,539	-2,345	0,127	0,065
-544,525	-200,000	0,018	0,116
-543,510	-66,216	-0,011	0,003
-542,496	-200,000	-0,005	-0,097
-541,481	-200,000	-0,034	-0,111
-540,466	3,018	0,160	-0,084
-539,452	8,558	0,097	-0,053
-538,437	110,203	-0,085	-0,075
-537,423	-200,000	0,012	0,114
-536,408	-200,000	-0,009	0,117
-535,393	74,433	0,061	0,047
-534,379	-51,193	-0,171	-0,058
-533,364	208,111	0,081	0,093
-532,350	661,820	-0,065	0,123
-531,335	-200,000	0,009	0,108
-530,321	-200,000	-0,004	0,014
-529,306	-40,115	0,074	0,028
-528,291	385,600	0,044	0,067
-527,277	157,357	0,067	-0,067
-526,262	-25,046	0,104	0,045
-525,248	800,000	0,045	0,102
-524,233	-44,933	0,172	-0,062
-523,218	-129,680	-0,114	-0,011
-522,204	-200,000	-0,001	-0,047
-521,189	-59,002	-0,098	-0,031
-520,175	110,472	-0,061	-0,054
-519,160	-0,542	0,130	-0,067
-518,145	-54,212	0,037	0,012
-517,131	220,617	-0,015	-0,018
-516,116	-200,000	0,011	0,052
-515,102	79,011	0,055	0,043
-514,087	-159,245	-0,074	0,003
-513,072	428,691	-0,013	-0,021
-512,058	-3,407	-0,150	-0,076
-511,043	-200,000	-0,002	-0,065
-510,029	83,042	-0,031	-0,024
-509,014	-200,000	-0,018	0,142
-507,999	145,182	-0,019	0,019
-506,985	476,125	0,044	-0,073
-505,970	-200,000	-0,007	-0,100
-504,956	-170,959	-0,136	-0,003
-503,941	-28,541	0,136	-0,057
-502,926	-200,000	0,000	-0,012
-501,912	100,063	0,016	-0,014
-500,897	7,099	-0,077	0,042
-499,883	61,525	-0,083	-0,060
-498,868	303,142	-0,038	0,051
-497,853	0,059	0,097	-0,050
-496,839	-200,000	-0,022	-0,081
-495,824	-200,000	-0,005	0,092
-494,810	660,700	0,013	0,025
-493,795	-200,000	0,016	-0,064
-492,781	83,409	0,074	-0,059
-491,766	632,130	-0,036	0,066
-490,751	800,000	0,038	0,122
-489,737	334,155	-0,040	0,056
-488,722	-54,403	0,121	-0,040
-487,708	262,457	-0,044	-0,055
-486,693	800,000	-0,067	0,200
-485,678	221,168	0,017	-0,020
-484,664	800,000	0,059	0,143
-483,649	-200,000	0,022	-0,081
-482,635	800,000	-0,018	-0,057
-481,620	-200,000	-0,019	-0,091
-480,605	146,649	0,028	0,028
-479,591	-69,334	0,148	-0,041
-478,576	-75,455	-0,111	0,029
-477,562	-200,000	0,013	-0,075
-476,547	26,141	-0,047	0,028
-475,532	-106,381	-0,074	0,012
-474,518	-168,301	-0,084	0,002
-473,503	-200,000	0,014	0,104
-472,489	539,332	-0,090	-0,157
-471,474	800,000	0,011	-0,024
-470,459	800,000	0,058	-0,126
-469,445	52,702	0,052	0,036
-468,430	-116,821	0,163	0,022
-467,416	-200,000	-0,002	-0,091
-466,401	303,858	0,060	0,081
-465,386	126,363	-0,124	-0,114
-464,372	66,762	-0,065	-0,048
-463,357	-200,000	-0,003	0,111
-462,343	-200,000	-0,008	-0,057
-461,328	-200,000	-0,018	-0,072
-460,313	38,581	0,112	0,073
-459,299	800,000	0,022	0,067
-458,284	-200,000	-0,007	-0,117
-457,270	254,312	0,073	0,091
-456,255	-107,711	-0,169	-0,027
-455,241	753,569	0,049	0,098
-454,226	10,633	-0,047	-0,026
-453,211	-200,000	0,025	0,097
-452,197	800,000	0,049	-0,104
-451,182	-45,093	0,201	-0,072
-450,168	72,033	-0,071	-0,054
-449,153	-69,806	0,087	-0,024
-448,138	135,159	-0,090	-0,085
-447,124	800,000	-0,025	-0,055
-446,109	-82,948	0,075	-0,017
-445,095	532,099	-0,027	0,047
-444,080	-80,118	-0,090	0,022
-443,065	-200,000	-0,018	-0,079
-442,051	-28,893	-0,090	-0,038
-441,036	-18,620	-0,035	-0,016
-440,022	800,000	0,046	-0,097
-439,007	800,000	-0,082	-0,201
-437,992	-200,000	-0,002	-0,048
-436,978	-200,000	0,051	0,231
-435,963	-200,000	0,014	0,075
-434,949	449,724	0,037	0,060
-433,934	800,000	0,015	-0,042
-432,919	-200,000	0,011	-0,051
-431,905	105,414	0,059	-0,051
-430,890	800,000	0,017	-0,051
-429,876	800,000	0,046	0,123
-428,861	94,598	0,060	0,050
-427,846	800,000	-0,054	-0,111
-426,832	-200,000	0,008	0,080
-425,817	134,658	0,054	-0,051
-424,803	-200,000	-0,008	0,083
-423,788	72,126	0,049	0,037
-422,773	-78,883	-0,019	-0,005
-421,759	13,182	0,070	-0,040
-420,744	-135,606	0,078	0,007
-419,730	41,810	0,078	-0,051
-418,715	119,975	-0,050	-0,045
-417,701	-200,000	0,029	0,093
-416,686	573,084	0,014	-0,024
-415,671	-200,000	-0,011	0,044
-414,657	800,000	-0,031	-0,089
-413,642	800,000	-0,026	-0,077
-412,628	-200,000	0,008	-0,067
-411,613	392,578	-0,047	-0,071
-410,598	-200,000	-0,012	-0,047
-409,584	-200,000	-0,009	-0,057
-408,569	-3,607	0,050	-0,025
-407,555	-20,189	-0,113	-0,050
-406,540	-200,000	0,024	0,097
-405,525	800,000	-0,030	0,079
-404,511	17,810	0,044	0,025
-403,496	800,000	-0,036	-0,095
-402,482	-52,621	0,076	-0,026
-401,467	69,170	-0,040	0,030
-400,452	-52,543	0,087	0,029
-399,438	-200,000	-0,005	0,017
-398,423	1,543	-0,055	-0,029
-397,409	-19,056	-0,087	-0,039
-396,394	-200,000	0,012	-0,047
-395,379	-28,579	0,083	-0,034
-394,365	-20,905	-0,047	-0,021
-393,350	492,426	0,063	-0,105
-392,336	-200,000	-0,013	-0,116
-391,321	-146,158	0,130	-0,008
-390,306	29,069	-0,132	-0,081
-389,292	136,715	0,070	0,066
-388,277	-55,578	0,109	-0,035
-387,263	300,716	0,035	-0,048
-386,248	-200,000	0,010	0,036
-385,233	-200,000	0,007	0,086
-384,219	-200,000	0,000	0,070
-383,204	-164,743	-0,038	0,001
-382,190	226,628	-0,056	-0,067
-381,175	64,087	0,019	0,014
-380,160	-70,687	-0,055	0,015
-379,146	-0,243	0,071	0,036
-378,131	391,193	-0,027	0,040
-377,117	214,006	0,034	0,039
-376,102	666,004	-0,046	-0,087
-375,088	-88,506	-0,155	0,033
-374,073	-162,995	0,156	0,005
-373,058	246,508	0,090	0,110
-372,044	46,949	-0,125	0,084
-371,029	-200,000	-0,005	-0,068
-370,015	-200,000	-0,001	-0,016
-369,000	-200,000	-0,028	-0,146
-367,985	62,570	-0,072	-0,052
-366,971	-128,626	0,022	0,002
-365,956	-200,000	0,024	0,087
-364,942	-200,000	0,015	0,080
-363,927	-28,789	0,141	0,059
-362,912	327,068	-0,009	0,012
-361,898	-52,889	-0,108	0,036
-360,883	-33,067	0,082	0,033
-359,869	-31,883	-0,186	-0,075
-358,854	276,401	0,060	-0,077
-357,839	175,253	0,068	0,071
-356,825	-76,871	-0,091	-0,023
-355,810	226,542	0,020	0,023
-354,796	-200,000	0,021	-0,166
-353,781	289,140	-0,061	0,081
-352,766	800,000	-0,006	-0,013
-351,752	800,000	0,052	-0,146
-350,737	214,296	-0,064	-0,074
-349,723	14,322	0,085	0,048
-348,708	-200,000	0,005	-0,030
-347,693	228,856	0,034	-0,040
-346,679	800,000	0,026	-0,070
-345,664	-121,276	-0,062	0,007
-344,650	-200,000	-0,012	0,043
-343,635	-200,000	-0,006	-0,037
-342,620	21,194	0,158	0,092
-341,606	-200,000	-0,018	0,102
-340,591	61,577	-0,019	0,013
-339,577	201,579	-0,094	0,105
-338,562	-13,972	-0,071	0,033
-337,548	199,816	0,061	0,068
-336,533	-6,138	0,136	-0,067
-335,518	-14,324	0,071	-0,033
-334,504	625,697	0,038	0,070
-333,489	82,965	0,023	-0,018
-332,475	-200,000	-0,009	0,040
-331,460	143,747	-0,026	0,025
-330,445	-109,769	-0,103	0,016
-329,431	333,969	0,055	0,077
-328,416	644,459	0,029	0,054
-327,402	800,000	-0,038	0,083
-326,387	-8,354	0,130	0,063
-325,372	800,000	0,022	-0,071
-324,358	28,215	-0,131	-0,080
-323,343	-116,550	-0,028	0,004
-322,329	-66,012	0,036	0,010
-321,314	-44,687	0,043	0,015
-320,299	-73,484	-0,064	0,017
-319,285	1,147	-0,085	0,044
-318,270	79,844	-0,052	-0,041
-317,256	-200,000	-0,001	-0,037
-316,241	323,606	0,046	0,064
-315,226	257,932	-0,016	-0,020
-314,212	151,751	0,053	-0,052
-313,197	127,054	-0,095	-0,087
-312,183	110,533	0,056	-0,049
-311,168	-46,922	0,059	0,021
-310,153	394,828	0,045	0,069
-309,139	-200,000	0,001	0,005
-308,124	-200,000	-0,010	-0,107
-307,110	88,851	-0,110	0,088
-306,095	11,488	-0,108	0,060
-305,080	38,701	0,066	0,042
-304,066	51,478	-0,087	0,060
-303,051	-200,000	0,008	-0,171
-302,037	-200,000	-0,031	-0,143
-301,022	800,000	-0,030	-0,076
-300,008	-38,717	-0,025	0,010
-298,993	126,649	0,074	0,068
-297,978	105,020	0,017	0,015
-296,964	-200,000	0,011	0,179
-295,949	-200,000	0,005	-0,027
-294,935	800,000	0,050	-0,101
-293,920	-200,000	0,013	-0,065
-292,905	800,000	0,045	-0,124
-291,891	562,401	-0,012	0,021
-290,876	800,000	0,022	-0,069
-289,862	-200,000	-0,017	-0,095
-288,847	-28,642	-0,012	-0,005
-287,832	-200,000	-0,011	-0,098
-286,818	189,545	-0,010	0,011
-285,803	353,192	0,060	-0,087
-284,789	-70,672	0,079	-0,022
-283,774	62,294	0,052	0,037
-282,759	-200,000	-0,026	0,113
-281,745	21,320	-0,091	-0,053
-280,730	24,681	0,104	-0,062
-279,716	267,149	0,085	-0,107
-278,701	322,495	-0,040	-0,055
-277,686	100,976	0,015	0,013
-276,672	-200,000	0,003	0,077
-275,657	624,868	0,055	0,101
-274,643	-200,000	-0,000	-0,074
-273,628	-37,301	0,127	-0,049
-272,613	-200,000	-0,048	-0,164
-271,599	-47,242	0,096	-0,034
-270,584	-86,901	0,029	-0,006
-269,570	-200,000	0,003	0,182
-268,555	94,364	0,051	-0,042
-267,540	-10,747	0,077	0,037
-266,526	-89,266	-0,091	0,019
-265,511	-200,000	-0,006	-0,171
-264,497	-200,000	0,015	0,097
-263,482	-200,000	0,015	0,097
-262,467	654,387	0,011	-0,021
-261,453	-50,411	-0,135	-0,046
-260,438	-93,238	0,114	0,023
-259,424	44,294	0,055	0,037
-258,409	187,971	0,080	-0,087
-257,395	228,477	0,061	-0,072
-256,380	490,344	0,011	0,018
-255,365	800,000	-0,064	-0,142
-254,351	-171,413	0,090	0,002
-253,336	-64,826	0,093	-0,027
-252,322	61,868	-0,065	0,046
-251,307	57,535	-0,205	0,144
-250,292	800,000	0,015	-0,039
-249,278	-19,936	0,058	-0,026
-248,263	-32,422	0,106	0,043
-247,249	-181,115	0,088	0,001
-246,234	562,961	0,027	0,048
-245,219	42,481	-0,081	0,053
-244,205	187,348	0,045	0,048
-243,190	-101,016	-0,085	0,015
-242,176	285,263	-0,036	-0,046
-241,161	174,670	-0,043	-0,045
-240,146	-44,897	-0,039	-0,014
-239,132	13,150	0,027	0,015
-238,117	-200,000	0,029	-0,193
-237,103	-200,000	-0,014	0,071
-236,088	85,326	-0,009	-0,007
-235,073	-51,304	-0,033	-0,011
-234,059	123,310	0,041	0,037
-233,044	169,139	-0,046	-0,048
-232,030	276,246	0,053	0,068
-231,015	-200,000	0,007	0,037
-230,000	150,105	-0,070	0,069
-228,986	287,460	-0,063	0,082
-227,971	800,000	-0,021	0,060
-226,957	-33,335	0,053	0,021
-225,942	800,000	-0,012	0,033
-224,927	-200,000	-0,018	0,132
-223,913	3,144	-0,093	0,048
-222,898	362,852	0,015	0,022
-221,884	-103,195	-0,222	-0,037
-220,869	-150,579	0,065	0,004
-219,855	-200,000	-0,019	-0,079
-218,840	-60,777	0,025	0,007
-217,825	800,000	0,042	0,090
-216,811	-56,048	-0,165	0,053
-215,796	164,270	-0,064	-0,065
-214,782	-200,000	0,009	0,065
-213,767	377,888	0,099	0,147
-212,752	-200,000	-0,030	0,150
-211,738	-200,000	0,008	0,078
-210,723	775,288	-0,036	0,071
-209,709	-200,000	-0,003	0,023
-208,694	-81,261	-0,235	0,056
-207,679	19,267	-0,032	0,019
-206,665	339,876	-0,032	-0,046
-205,650	214,811	0,022	0,025
-204,636	-24,090	0,140	-0,060
-203,621	234,302	0,089	0,106
-202,606	34,806	-0,132	-0,083
-201,592	-67,806	0,026	-0,007
-200,577	629,545	-0,048	0,088
-199,563	-10,049	0,111	0,053
-198,548	-200,000	0,009	-0,038
-197,533	-200,000	-0,015	0,049
-196,519	98,057	0,086	0,071
-195,504	800,000	-0,018	-0,040
-194,490	93,416	-0,032	0,026
-193,475	-74,859	-0,077	-0,020
-192,460	-66,586	0,183	-0,052
-191,446	-100,010	0,171	0,031
-190,431	-118,719	0,091	0,011
-189,417	-200,000	-0,029	0,110
-188,402	386,113	-0,029	0,043
-187,387	159,450	-0,091	0,091
-186,373	-162,807	-0,039	-0,001
-185,358	10,221	-0,102	0,056
-184,344	177,937	0,120	-0,127
-183,329	-121,896	0,078	-0,009
-182,315	95,085	0,097	0,079
-181,300	215,387	-0,025	0,029
-180,285	-200,000	-0,015	-0,071
-179,271	563,490	-0,038	0,067
-178,256	-200,000	0,002	0,055
-177,242	174,021	-0,063	-0,066
-176,227	580,935	0,050	-0,088
-175,212	10,033	-0,090	-0,049
-174,198	-200,000	-0,022	0,185
-173,183	-119,281	-0,090	0,011
-172,169	519,558	-0,062	-0,105
-171,154	181,504	-0,060	0,064
-170,139	-200,000	-0,002	-0,021
-169,125	-200,000	0,023	0,090
-168,110	24,177	-0,073	-0,043
-167,096	-124,807	0,106	-0,012
-166,081	-200,000	0,009	0,142
-165,066	-200,000	-0,007	-0,119
-164,052	146,703	0,085	0,082
-163,037	145,685	0,040	-0,039
-162,023	800,000	0,035	0,110
-161,008	-93,534	-0,162	0,032
-159,993	350,072	-0,003	0,004
-158,979	102,205	0,067	0,057
-157,964	-48,520	0,041	0,014
-156,950	-200,000	-0,009	-0,032
-155,935	-200,000	0,017	0,120
-154,920	286,495	0,106	0,138
-153,906	800,000	-0,012	-0,034
-152,891	-158,538	-0,120	-0,005
-151,877	217,254	-0,034	0,039
-150,862	271,144	-0,039	-0,049
-149,847	-143,125	-0,013	0,001
-148,833	58,591	0,018	0,013
-147,818	-75,519	0,033	0,008
-146,804	-200,000	-0,003	0,123
-145,789	722,050	-0,064	0,123
-144,775	329,692	-0,036	0,049
-143,760	-51,055	-0,185	-0,062
-142,745	675,851	0,059	-0,110
-141,731	125,313	0,011	0,010
-140,716	-200,000	0,012	0,064
-139,702	-61,885	-0,071	0,021
-138,687	163,992	0,064	-0,065
-137,672	-34,660	0,085	0,033
-136,658	315,063	-0,040	-0,054
-135,643	-32,306	0,128	-0,051
-134,629	-200,000	0,010	0,136
-133,614	391,496	0,089	0,133
-132,599	800,000	-0,045	0,111
-131,585	589,727	-0,034	0,060
-130,570	-200,000	0,008	-0,054
-129,556	66,291	-0,072	-0,052
-128,541	317,144	0,049	0,067
-127,526	-200,000	-0,021	-0,148
-126,512	693,840	0,044	-0,083
-125,497	-200,000	0,004	0,127
-124,483	374,217	-0,081	0,119
-123,468	-200,000	0,005	0,047
-122,453	800,000	0,048	-0,099
-121,439	-200,000	-0,016	-0,086
-120,424	-200,000	-0,034	-0,200
-119,410	301,102	0,011	-0,015
