DTS Sentinel unit serial number:	SN410029Multiplexer serial number:	ORYXHardware model number:	OX2-SRSoftware version number:	ORYX F/W v4,00 Oryx Data Collector v3.7.2.0data status	okinstallation	B5 Nyhavnadifferential loss correction	single-endedforward channel	channel 2reverse channel	N/Adate	2023/12/13time	08:52:13forward acquisition time	300,00reverse acquisition time	0,00gamma	499,1914k internal	0,3160k external	0,3160temperature offset calibration	1,0000default loss term (dB/km)	0,3820temperature slope calibration	1,0000multiplexer offset coefficient	1,0000multiplexer slope coefficient	1,0000fibre end	0,00T internal ref (°C)	13,64T ext. ref 1 (°C)	-2,70T ext. ref 2 (°C)	-3,00length (m)	temperature (°C)	Stokes	anti-Stokes-744,400	46,725	-0,006	-0,004
-743,385	-70,626	-0,308	-0,085
-742,371	115,157	0,088	0,079
-741,356	-67,352	-0,341	0,098
-740,342	372,638	0,062	0,094
-739,327	129,587	-0,163	-0,154
-738,312	-200,000	0,025	-0,105
-737,298	-187,132	-0,236	0,002
-736,283	-200,000	-0,038	0,126
-735,269	-102,100	-0,334	0,059
-734,254	-42,106	0,228	-0,085
-733,239	-31,223	-0,526	-0,217
-732,225	-160,017	0,314	0,012
-731,210	390,254	-0,127	0,195
-730,196	-200,000	0,006	-0,146
-729,181	-66,444	-0,037	0,011
-728,167	-147,899	-0,062	-0,004
-727,152	-200,000	-0,031	-0,125
-726,137	800,000	-0,032	-0,090
-725,123	364,884	-0,098	-0,146
-724,108	-200,000	0,003	-0,101
-723,094	-37,240	-0,125	-0,049
-722,079	328,616	-0,050	0,071
-721,064	800,000	-0,069	0,160
-720,050	-1,438	-0,185	0,096
-719,035	-200,000	0,007	-0,089
-718,021	-200,000	-0,013	-0,094
-717,006	-92,560	-0,133	0,027
-715,991	-200,000	-0,027	-0,109
-714,977	334,065	-0,043	-0,062
-713,962	142,712	-0,076	-0,074
-712,948	-99,155	0,091	-0,017
-711,933	-141,628	-0,081	0,006
-710,918	-200,000	0,003	0,094
-709,904	-12,935	-0,122	0,058
-708,889	-180,983	-0,064	-0,001
-707,875	-200,000	0,017	0,150
-706,860	-117,685	-0,108	0,014
-705,845	-33,849	-0,156	-0,063
-704,831	172,967	0,109	0,116
-703,816	540,190	-0,032	0,057
-702,802	0,181	-0,073	0,038
-701,787	-200,000	-0,018	-0,069
-700,772	-124,696	-0,033	-0,004
-699,758	168,614	0,058	-0,061
-698,743	-35,850	0,014	-0,006
-697,729	102,367	0,023	-0,019
-696,714	62,848	-0,096	0,071
-695,699	149,616	0,091	0,091
-694,685	58,439	-0,043	-0,031
-693,670	-200,000	-0,039	-0,134
-692,656	-77,739	-0,072	-0,018
-691,641	28,612	-0,095	0,059
-690,627	-97,538	-0,190	-0,036
-689,612	1,650	0,107	0,056
-688,597	272,570	-0,042	-0,054
-687,583	64,863	-0,047	-0,035
-686,568	252,333	-0,080	-0,101
-685,554	-129,388	0,064	0,006
-684,539	-133,343	-0,141	-0,013
-683,524	-200,000	0,003	-0,017
-682,510	-88,425	-0,041	-0,009
-681,495	-102,276	-0,117	-0,020
-680,481	81,447	-0,164	-0,130
-679,466	120,673	-0,100	-0,092
-678,451	170,803	-0,067	0,071
-677,437	27,812	0,015	-0,009
-676,422	235,235	-0,038	0,046
-675,408	800,000	0,042	0,087
-674,393	224,115	-0,106	-0,126
-673,378	-63,746	0,113	-0,034
-672,364	-32,369	-0,072	0,029
-671,349	730,440	-0,052	-0,102
-670,335	800,000	-0,029	0,065
-669,320	800,000	0,050	0,126
-668,305	-32,504	0,135	-0,055
-667,291	68,428	0,058	0,044
-666,276	128,253	0,046	-0,043
-665,262	527,599	0,037	0,065
-664,247	-134,983	-0,171	-0,015
-663,232	-200,000	0,014	0,059
-662,218	800,000	-0,036	0,111
-661,203	106,797	0,021	-0,018
-660,189	305,822	0,070	-0,096
-659,174	-200,000	-0,003	0,048
-658,159	99,280	-0,058	0,049
-657,145	-156,250	-0,208	0,009
-656,130	-200,000	0,001	0,061
-655,116	113,903	0,073	0,065
-654,101	216,410	0,045	0,053
-653,086	267,080	-0,036	-0,046
-652,072	-200,000	-0,028	0,197
-651,057	72,176	-0,124	-0,095
-650,043	-200,000	0,052	-0,247
-649,028	-200,000	-0,013	-0,110
-648,014	800,000	-0,021	-0,047
-646,999	-120,725	-0,080	-0,010
-645,984	54,159	-0,087	-0,061
-644,970	800,000	-0,031	0,087
-643,955	90,014	-0,055	0,045
-642,941	-80,674	-0,063	0,015
-641,926	800,000	-0,042	-0,093
-640,911	-13,972	0,084	0,039
-639,897	-200,000	0,025	-0,118
-638,882	24,042	0,123	-0,074
-637,868	-139,350	-0,127	0,010
-636,853	187,339	-0,047	-0,052
-635,838	88,979	-0,092	-0,075
-634,824	-18,443	0,025	0,011
-633,809	-46,869	-0,122	0,044
-632,795	333,643	0,060	-0,086
-631,780	-5,954	-0,120	0,060
-630,765	-43,906	0,063	0,023
-629,751	63,563	-0,058	-0,043
-628,736	-200,000	-0,003	0,051
-627,722	-42,167	-0,121	0,045
-626,707	-61,264	-0,065	0,020
-625,692	-200,000	0,043	0,156
-624,678	800,000	0,008	-0,020
-623,663	111,798	-0,088	0,078
-622,649	562,227	-0,069	-0,122
-621,634	121,796	0,073	-0,067
-620,619	-96,796	-0,035	0,007
-619,605	193,293	0,029	0,032
-618,590	-112,695	-0,060	0,009
-617,576	68,334	0,058	0,043
-616,561	-200,000	-0,017	-0,086
-615,546	-90,416	-0,141	-0,030
-614,532	224,150	-0,013	0,015
-613,517	-11,295	-0,150	0,072
-612,503	539,951	0,027	-0,047
-611,488	-166,841	0,042	-0,001
-610,474	142,975	0,037	0,036
-609,459	-139,577	-0,064	0,005
-608,444	476,350	-0,017	0,028
-607,430	800,000	0,053	0,127
-606,415	-86,695	-0,133	0,030
-605,401	800,000	0,056	-0,141
-604,386	-72,115	0,079	0,021
-603,371	-200,000	-0,017	0,093
-602,357	800,000	-0,040	-0,086
-601,342	-71,708	0,010	-0,003
-600,328	258,419	-0,103	-0,130
-599,313	-200,000	0,001	-0,078
-598,298	428,509	0,057	-0,091
-597,284	-200,000	-0,005	0,019
-596,269	37,999	-0,070	-0,045
-595,255	555,354	0,047	-0,084
-594,240	45,078	-0,112	-0,076
-593,225	-21,813	0,076	-0,034
-592,211	-200,000	0,015	-0,112
-591,196	-174,940	0,137	0,003
-590,182	317,611	-0,048	0,067
-589,167	129,039	-0,098	0,092
-588,152	71,773	0,079	0,060
-587,138	133,829	0,074	0,070
-586,123	133,643	-0,032	-0,030
-585,109	-200,000	0,043	-0,158
-584,094	-81,510	-0,093	0,022
-583,079	-200,000	0,005	-0,189
-582,065	800,000	-0,043	0,091
-581,050	-109,158	0,101	-0,016
-580,036	-21,094	-0,133	0,059
-579,021	239,522	0,011	0,014
-578,006	47,403	-0,075	-0,051
-576,992	282,131	0,103	-0,135
-575,977	74,509	-0,058	0,044
-574,963	-200,000	0,007	0,037
-573,948	-200,000	0,016	0,247
-572,934	-66,129	-0,048	-0,014
-571,919	800,000	-0,034	-0,090
-570,904	306,254	0,055	-0,075
-569,890	12,825	-0,136	0,077
-568,875	281,199	0,047	0,062
-567,861	-41,264	-0,138	-0,052
-566,846	132,986	-0,028	-0,027
-565,831	-200,000	0,004	-0,042
-564,817	-200,000	0,010	-0,073
-563,802	-19,167	0,189	0,085
-562,788	84,782	0,032	0,025
-561,773	800,000	0,037	0,084
-560,758	-31,706	0,117	0,048
-559,744	51,088	-0,057	-0,039
-558,729	728,743	-0,032	-0,063
-557,715	-24,945	-0,083	-0,036
-556,700	-200,000	-0,036	-0,137
-555,685	-200,000	0,018	-0,094
-554,671	-170,636	0,067	0,002
-553,656	187,211	0,085	0,093
-552,642	800,000	0,018	0,052
-551,627	443,131	0,086	0,139
-550,612	-52,088	-0,117	0,039
-549,598	-83,223	0,032	-0,007
-548,583	321,358	-0,068	-0,095
-547,569	387,769	-0,095	-0,144
-546,554	487,289	0,059	-0,098
-545,539	185,556	0,034	-0,037
-544,525	800,000	-0,033	-0,092
-543,510	-200,000	-0,066	-0,260
-542,496	800,000	-0,051	-0,114
-541,481	-58,778	0,062	0,020
-540,466	95,986	-0,072	0,060
-539,452	-152,554	-0,012	-0,001
-538,437	715,291	0,046	0,090
-537,423	-38,464	-0,096	0,037
-536,408	326,407	-0,012	0,017
-535,393	-69,783	-0,086	0,024
-534,379	800,000	-0,049	-0,111
-533,364	800,000	-0,051	0,143
-532,350	776,622	-0,034	0,068
-531,335	637,191	0,021	0,040
-530,321	-107,177	0,069	-0,011
-529,306	-200,000	-0,002	0,099
-528,291	-129,972	0,049	-0,005
-527,277	50,528	-0,079	-0,054
-526,262	351,084	0,034	-0,050
-525,248	-200,000	0,002	0,043
-524,233	-200,000	0,006	0,105
-523,218	-200,000	0,008	-0,031
-522,204	28,725	0,072	-0,044
-521,189	-200,000	-0,025	-0,093
-520,175	800,000	0,025	0,074
-519,160	-19,052	-0,018	-0,008
-518,145	-200,000	0,002	0,023
-517,131	130,692	0,134	0,126
-516,116	-200,000	-0,023	0,093
-515,102	133,252	-0,062	0,059
-514,087	114,198	-0,051	-0,045
-513,072	-86,780	0,057	0,013
-512,058	-61,299	0,024	-0,007
-511,043	150,096	0,067	-0,066
-510,029	-7,464	-0,071	0,035
-509,014	-63,532	0,080	0,024
-507,999	-200,000	-0,014	-0,132
-506,985	-200,000	-0,013	-0,074
-505,970	-200,000	-0,001	-0,072
-504,956	32,416	0,033	0,021
-503,941	-1,399	0,048	0,025
-502,926	-114,969	-0,077	0,011
-501,912	800,000	0,079	0,187
-500,897	-29,514	0,070	0,029
-499,883	-200,000	-0,017	0,097
-498,868	795,066	0,047	-0,096
-497,853	-165,895	-0,040	0,001
-496,839	-200,000	0,022	-0,075
-495,824	800,000	-0,035	-0,086
-494,810	-29,006	-0,076	0,032
-493,795	-125,428	0,043	0,005
-492,781	388,814	0,095	-0,144
-491,766	-200,000	-0,019	0,070
-490,751	-200,000	0,006	-0,143
-489,737	-35,910	-0,146	-0,058
-488,722	163,733	0,081	0,083
-487,708	-70,855	0,159	0,043
-486,693	-200,000	0,000	-0,146
-485,678	-15,768	-0,147	-0,068
-484,664	-136,293	0,021	0,002
-483,649	136,956	-0,070	-0,067
-482,635	800,000	-0,049	0,156
-481,620	800,000	-0,017	-0,042
-480,605	800,000	0,023	0,068
-479,591	492,899	0,055	0,092
-478,576	92,726	0,079	-0,065
-477,562	-160,255	-0,124	0,005
-476,547	800,000	-0,096	-0,207
-475,532	-33,174	0,023	0,009
-474,518	-110,015	-0,008	0,001
-473,503	-101,051	0,108	0,019
-472,489	-87,485	-0,086	-0,019
-471,474	-38,805	-0,073	0,028
-470,459	26,581	-0,066	-0,040
-469,445	557,676	-0,058	-0,103
-468,430	-46,112	0,070	0,025
-467,416	800,000	0,052	0,112
-466,401	-118,145	-0,187	-0,024
-465,386	91,984	0,189	0,155
-464,372	-200,000	-0,006	-0,159
-463,357	43,274	-0,067	0,044
-462,343	-8,782	0,025	-0,012
-461,328	329,297	0,027	0,038
-460,313	158,670	0,029	0,029
-459,299	-200,000	-0,014	0,062
-458,284	800,000	-0,029	0,070
-457,270	-37,793	-0,103	0,040
-456,255	-19,849	-0,097	-0,043
-455,241	800,000	-0,008	-0,023
-454,226	-200,000	0,016	-0,134
-453,211	61,724	0,051	0,037
-452,197	431,559	0,010	0,016
-451,182	213,464	0,088	0,101
-450,168	150,495	-0,014	-0,014
-449,153	-200,000	0,010	0,129
-448,138	43,240	-0,125	-0,083
-447,124	534,301	0,085	-0,147
-446,109	-167,535	0,074	0,002
-445,095	43,582	0,088	-0,059
-444,080	-122,305	0,071	-0,008
-443,065	-50,899	0,070	0,024
-442,051	-200,000	-0,004	-0,088
-441,036	-11,039	0,058	-0,028
-440,022	800,000	-0,066	-0,142
-439,007	179,788	-0,060	0,064
-437,992	39,150	0,099	0,064
-436,978	-200,000	-0,027	0,100
-435,963	-200,000	0,032	0,110
-434,949	402,414	0,011	-0,016
-433,934	800,000	0,007	-0,022
-432,919	7,272	0,122	0,066
-431,905	-143,911	-0,033	0,002
-430,890	-200,000	0,024	-0,091
-429,876	160,382	0,138	0,140
-428,861	-200,000	-0,007	-0,051
-427,846	305,798	-0,077	0,105
-426,832	75,402	0,034	0,026
-425,817	-200,000	0,021	0,081
-424,803	105,025	-0,088	0,075
-423,788	800,000	0,034	-0,095
-422,773	-84,713	0,063	-0,014
-421,759	-21,035	0,141	0,062
-420,744	-44,438	-0,136	-0,049
-419,730	436,615	-0,012	0,019
-418,715	64,879	0,072	-0,053
-417,701	481,301	-0,056	-0,093
-416,686	42,634	0,067	0,045
-415,671	-77,395	0,101	0,025
-414,657	-200,000	-0,003	-0,011
-413,642	218,238	0,036	0,042
-412,628	800,000	0,026	0,078
-411,613	404,519	0,026	0,039
-410,598	800,000	-0,019	-0,060
-409,584	-200,000	0,026	-0,200
-408,569	-99,958	0,034	0,006
-407,555	-200,000	0,005	0,064
-406,540	-60,421	0,023	-0,007
-405,525	-109,811	-0,041	-0,006
-404,511	365,789	-0,062	-0,090
-403,496	-72,473	0,090	0,024
-402,482	254,955	0,053	0,066
-401,467	-200,000	0,035	-0,140
-400,452	-200,000	-0,003	0,027
-399,438	-161,419	0,016	0,001
-398,423	89,142	0,056	-0,045
-397,409	-200,000	-0,018	-0,092
-396,394	-112,585	-0,105	-0,015
-395,379	83,244	0,073	0,057
-394,365	-15,362	0,052	-0,024
-393,350	800,000	-0,033	0,085
-392,336	-200,000	0,136	0,000
-391,321	-35,782	-0,043	0,017
-390,306	-76,108	0,057	0,014
-389,292	-200,000	0,016	0,069
-388,277	-153,137	0,076	0,004
-387,263	-157,889	0,094	-0,004
-386,248	-200,000	0,008	-0,040
-385,233	-200,000	-0,036	0,125
-384,219	-68,889	0,054	-0,015
-383,204	-200,000	-0,009	-0,047
-382,190	800,000	0,039	-0,117
-381,175	-86,883	0,047	0,010
-380,160	800,000	-0,036	-0,092
-379,146	800,000	-0,029	0,093
-378,131	230,941	-0,020	0,024
-377,117	537,095	0,011	-0,019
-376,102	319,277	-0,055	0,075
-375,088	-152,722	-0,171	-0,009
-374,073	226,887	-0,024	0,028
-373,058	800,000	-0,026	-0,076
-372,044	-99,823	0,044	-0,008
-371,029	99,711	0,080	0,067
-370,015	103,171	0,096	-0,082
-369,000	-24,434	-0,032	0,014
-367,985	35,250	-0,055	-0,035
-366,971	-200,000	-0,005	0,019
-365,956	-92,813	0,028	-0,006
-364,942	-105,264	0,044	-0,007
-363,927	-66,985	0,026	0,007
-362,912	-166,142	0,087	0,003
-361,898	-68,059	-0,121	-0,034
-360,883	132,314	0,061	-0,057
-359,869	603,429	-0,045	0,081
-358,854	393,545	0,059	-0,089
-357,839	800,000	0,018	-0,052
-356,825	-20,057	0,060	-0,027
-355,810	800,000	-0,074	0,159
-354,796	464,214	0,028	-0,045
-353,781	116,615	0,098	-0,087
-352,766	18,539	0,074	-0,043
-351,752	800,000	0,052	-0,116
-350,737	-80,149	-0,113	0,027
-349,723	219,733	-0,036	0,042
-348,708	130,880	0,104	0,097
-347,693	710,334	0,050	-0,097
-346,679	800,000	-0,029	-0,061
-345,664	-95,318	0,037	-0,007
-344,650	-133,530	0,049	-0,004
-343,635	462,241	-0,110	0,179
-342,620	-98,118	0,190	-0,035
-341,606	-200,000	0,033	0,115
-340,591	192,629	0,055	0,061
-339,577	-49,877	-0,079	-0,027
-338,562	152,752	-0,069	-0,068
-337,548	443,414	-0,040	0,064
-336,533	28,212	0,009	-0,005
-335,518	-200,000	0,004	0,030
-334,504	-171,611	0,094	0,002
-333,489	-200,000	-0,007	-0,068
-332,475	126,061	-0,081	-0,074
-331,460	-100,345	-0,012	0,002
-330,445	176,146	-0,059	0,063
-329,431	708,759	-0,070	-0,134
-328,416	213,740	-0,049	0,056
-327,402	520,904	-0,032	0,055
-326,387	-53,373	0,096	-0,032
-325,372	26,033	0,049	-0,030
-324,358	65,187	0,113	-0,082
-323,343	378,717	-0,043	-0,064
-322,329	12,448	0,063	0,035
-321,314	208,362	-0,065	0,074
-320,299	-200,000	0,026	0,101
-319,285	-71,132	0,143	0,039
-318,270	-200,000	0,013	-0,138
-317,256	800,000	0,032	0,078
-316,241	434,143	0,051	0,080
-315,226	198,536	-0,063	-0,070
-314,212	65,097	0,061	0,045
-313,197	-144,128	0,124	-0,008
-312,183	-114,006	-0,092	0,013
-311,168	800,000	0,022	0,061
-310,153	175,723	-0,014	0,014
-309,139	508,519	0,036	0,061
-308,124	-200,000	0,009	-0,034
-307,110	-38,845	0,073	-0,028
-306,095	800,000	0,009	0,020
-305,080	618,226	0,074	0,136
-304,066	89,558	-0,181	0,146
-303,051	800,000	-0,042	-0,132
-302,037	159,731	0,100	-0,101
-301,022	10,461	-0,074	0,040
-300,008	-149,363	0,178	0,010
-298,993	75,989	-0,013	0,010
-297,978	-84,690	-0,044	0,010
-296,964	800,000	-0,043	-0,108
-295,949	-154,911	-0,137	-0,006
-294,935	173,232	-0,069	0,072
-293,920	-200,000	0,037	0,204
-292,905	-171,335	0,043	0,001
-291,891	-200,000	0,002	0,009
-290,876	234,616	0,015	0,018
-289,862	341,125	0,079	-0,112
-288,847	-48,725	-0,093	-0,032
-287,832	-131,076	0,069	-0,007
-286,818	347,185	0,048	-0,069
-285,803	73,829	0,083	0,063
-284,789	-124,739	0,131	0,015
-283,774	-89,821	0,083	-0,017
-282,759	74,819	-0,072	-0,055
-281,745	-56,063	-0,045	-0,015
-280,730	110,730	0,077	-0,067
-279,716	106,899	0,095	0,081
-278,701	-200,000	0,005	0,086
-277,686	636,122	0,052	0,096
-276,672	64,240	0,078	0,057
-275,657	-112,719	0,095	0,014
-274,643	8,408	0,099	0,054
-273,628	248,162	-0,076	0,094
-272,613	-150,393	0,127	0,007
-271,599	800,000	-0,024	-0,055
-270,584	50,653	0,076	-0,052
-269,570	-130,366	-0,059	-0,006
-268,555	-2,630	-0,088	-0,044
-267,540	-200,000	-0,005	0,078
-266,526	-2,914	-0,050	-0,025
-265,511	12,200	-0,170	-0,094
-264,497	800,000	0,025	0,051
-263,482	784,993	-0,016	-0,032
-262,467	173,073	0,074	0,077
-261,453	32,894	-0,082	0,051
-260,438	752,810	0,005	0,009
-259,424	280,606	-0,071	0,092
-258,409	273,225	0,062	-0,079
-257,395	143,914	0,032	-0,031
-256,380	-91,594	0,024	-0,005
-255,365	28,191	0,117	0,071
-254,351	-30,154	-0,055	-0,022
-253,336	728,124	-0,051	-0,099
-252,322	316,280	-0,058	-0,079
-251,307	49,406	0,054	0,036
-250,292	-200,000	-0,002	-0,039
-249,278	77,160	-0,038	-0,029
-248,263	-54,388	-0,111	0,036
-247,249	-200,000	-0,013	0,157
-246,234	-46,823	0,032	0,011
-245,219	280,805	0,033	-0,043
-244,205	-15,877	0,140	-0,064
-243,190	21,223	-0,075	0,044
-242,176	30,204	-0,093	0,057
-241,161	6,840	0,073	0,039
-240,146	178,667	-0,051	0,054
-239,132	800,000	0,040	-0,088
-238,117	9,579	0,033	-0,018
-237,103	368,813	-0,031	0,045
-236,088	-200,000	0,004	0,105
-235,073	-200,000	0,027	0,104
-234,059	-37,940	-0,080	-0,031
-233,044	215,270	0,076	0,088
-232,030	800,000	-0,003	-0,007
-231,015	149,492	0,049	0,048
-230,000	-124,605	-0,268	0,030
-228,986	-64,568	0,172	-0,050
-227,971	800,000	0,068	0,145
-226,957	-200,000	-0,005	0,089
-225,942	219,084	-0,051	0,059
-224,927	-137,554	0,069	-0,006
-223,913	205,846	-0,101	0,113
-222,898	-200,000	0,001	-0,028
-221,884	-12,164	-0,055	0,026
-220,869	41,752	0,073	0,048
-219,855	-200,000	-0,014	-0,064
-218,840	-59,436	0,084	-0,026
-217,825	155,641	-0,071	0,071
-216,811	-131,551	-0,109	-0,010
-215,796	800,000	0,019	-0,051
-214,782	-200,000	0,012	0,088
-213,767	311,838	0,016	-0,021
-212,752	-166,339	0,143	0,004
-211,738	56,187	-0,032	0,023
-210,723	305,415	-0,050	-0,067
-209,709	116,483	0,050	-0,044
-208,694	72,434	-0,085	0,064
-207,679	424,141	-0,086	-0,134
-206,665	20,165	-0,031	0,018
-205,650	800,000	0,082	0,171
-204,636	201,389	0,020	0,022
-203,621	759,933	-0,049	-0,097
-202,606	96,901	0,050	-0,041
-201,592	566,004	-0,030	0,053
-200,577	-200,000	-0,012	0,125
-199,563	239,759	0,041	0,049
-198,548	48,594	0,049	0,033
-197,533	-200,000	0,006	0,044
-196,519	-200,000	0,011	-0,051
-195,504	-184,859	0,169	0,002
-194,490	-72,893	-0,098	0,026
-193,475	260,602	-0,077	-0,096
-192,460	320,667	-0,103	-0,142
-191,446	-200,000	-0,021	-0,092
-190,431	800,000	-0,085	0,187
-189,417	123,387	0,106	0,096
-188,402	-61,543	-0,118	-0,035
-187,387	61,661	-0,167	-0,120
-186,373	-67,467	-0,097	0,027
-185,358	26,459	0,079	0,048
-184,344	800,000	0,026	-0,057
-183,329	-200,000	0,035	0,124
-182,315	-4,596	-0,077	-0,038
-181,300	-200,000	-0,026	-0,084
-180,285	-200,000	0,008	-0,103
-179,271	800,000	0,016	-0,049
-178,256	-200,000	0,025	-0,118
-177,242	-32,607	-0,072	-0,029
-176,227	-80,815	0,050	0,012
-175,212	-95,026	0,053	-0,010
-174,198	21,922	0,051	0,030
-173,183	474,157	-0,045	-0,074
-172,169	336,909	0,103	-0,144
-171,154	-200,000	0,011	0,064
-170,139	800,000	-0,040	0,112
-169,125	762,360	-0,055	-0,108
-168,110	107,796	-0,095	0,082
-167,096	782,061	-0,055	0,109
-166,081	-121,816	-0,101	0,012
-165,066	800,000	0,034	-0,075
-164,052	19,856	0,024	-0,014
-163,037	-22,951	0,042	-0,018
-162,023	-44,372	-0,049	0,018
-161,008	800,000	-0,043	0,116
-159,993	2,155	-0,067	0,035
-158,979	-76,927	-0,080	-0,020
-157,964	-200,000	0,013	0,063
-156,950	-200,000	0,001	-0,023
-155,935	1,918	-0,095	-0,049
-154,920	-54,164	0,119	0,039
-153,906	-31,050	-0,152	0,061
-152,891	-82,842	-0,070	0,016
-151,877	684,474	0,012	0,023
-150,862	-84,999	-0,014	-0,003
-149,847	-200,000	-0,001	0,081
-148,833	800,000	-0,022	0,066
-147,818	86,815	0,030	0,024
-146,804	800,000	-0,003	0,007
-145,789	-103,589	-0,095	-0,016
-144,775	800,000	-0,068	0,146
-143,760	-200,000	-0,003	0,024
-142,745	273,237	-0,044	-0,056
-141,731	-200,000	-0,009	0,146
-140,716	-200,000	-0,000	0,097
-139,702	-200,000	-0,002	0,079
-138,687	759,004	-0,027	-0,053
-137,672	-9,312	0,075	0,036
-136,658	608,657	-0,060	-0,108
-135,643	800,000	0,027	-0,077
-134,629	-200,000	-0,010	-0,096
-133,614	800,000	0,012	0,028
-132,599	139,506	0,145	0,137
-131,585	800,000	-0,017	0,040
-130,570	-30,317	0,044	0,018
-129,556	-37,896	-0,065	0,025
-128,541	800,000	-0,023	-0,051
-127,526	-37,072	0,087	0,034
-126,512	649,686	-0,068	0,126
-125,497	464,046	-0,028	0,046
-124,483	-200,000	-0,004	-0,039
-123,468	-31,701	0,041	0,016
-122,453	-200,000	0,022	-0,096
-121,439	800,000	-0,034	-0,078
-120,424	-200,000	-0,023	-0,154
-119,410	61,276	-0,062	0,044
-118,395	-200,000	0,003	0,052
