DTS Sentinel unit serial number:	SN410029Multiplexer serial number:	ORYXHardware model number:	OX2-SRSoftware version number:	ORYX F/W v4,00 Oryx Data Collector v3.7.2.0data status	okinstallation	B5 Nyhavnadifferential loss correction	single-endedforward channel	channel 2reverse channel	N/Adate	2023/12/11time	22:57:13forward acquisition time	300,00reverse acquisition time	0,00gamma	499,1914k internal	0,3155k external	0,3155temperature offset calibration	1,0000default loss term (dB/km)	0,3820temperature slope calibration	1,0000multiplexer offset coefficient	1,0000multiplexer slope coefficient	1,0000fibre end	0,00T internal ref (°C)	16,30T ext. ref 1 (°C)	-0,01T ext. ref 2 (°C)	-0,26length (m)	temperature (°C)	Stokes	anti-Stokes-744,400	-37,299	-0,125	0,049
-743,385	-151,016	-0,232	-0,013
-742,371	800,000	0,041	-0,105
-741,356	-64,443	-0,318	0,095
-740,342	266,453	0,072	0,093
-739,327	-71,569	-0,311	0,085
-738,312	451,817	0,127	-0,208
-737,298	-96,699	-0,321	-0,062
-736,283	-46,900	0,127	0,046
-735,269	-131,227	-0,251	-0,024
-734,254	137,350	0,156	0,150
-733,239	-90,360	-0,333	-0,071
-732,225	243,831	0,129	0,160
-731,210	-200,000	-0,037	0,170
-730,196	-135,166	-0,127	0,011
-729,181	17,957	-0,055	-0,032
-728,167	-200,000	-0,006	-0,074
-727,152	-200,000	0,008	-0,082
-726,137	-200,000	0,000	0,067
-725,123	-123,569	-0,070	0,008
-724,108	340,847	-0,116	-0,167
-723,094	-32,932	-0,160	-0,065
-722,079	188,461	-0,132	-0,146
-721,064	-200,000	0,018	0,063
-720,050	-145,475	0,058	0,004
-719,035	-200,000	0,032	-0,145
-718,021	800,000	0,009	0,029
-717,006	-57,845	-0,196	0,063
-715,991	-124,611	-0,112	0,013
-714,977	-200,000	-0,013	0,068
-713,962	-141,353	-0,145	0,011
-712,948	-200,000	-0,024	0,139
-711,933	-200,000	-0,006	-0,062
-710,918	-200,000	-0,004	0,102
-709,904	98,712	-0,163	-0,139
-708,889	-41,459	-0,126	0,048
-707,875	800,000	0,008	-0,022
-706,860	-99,565	0,026	0,005
-705,845	-200,000	0,016	0,202
-704,831	-43,947	-0,079	0,029
-703,816	111,649	-0,045	-0,040
-702,802	34,335	0,007	-0,005
-701,787	800,000	-0,012	-0,035
-700,772	-134,686	-0,087	-0,008
-699,758	21,782	-0,027	-0,016
-698,743	-200,000	-0,012	0,076
-697,729	224,181	0,084	0,100
-696,714	800,000	-0,020	0,041
-695,699	800,000	-0,012	-0,025
-694,685	-200,000	-0,011	-0,043
-693,670	36,340	-0,081	-0,052
-692,656	259,423	0,060	0,076
-691,641	-173,028	0,106	-0,002
-690,627	800,000	0,018	0,046
-689,612	-22,926	0,131	0,058
-688,597	-200,000	-0,003	0,017
-687,583	-54,246	0,033	0,011
-686,568	-200,000	0,001	-0,172
-685,554	-200,000	0,045	-0,149
-684,539	-75,931	-0,067	-0,017
-683,524	-200,000	-0,011	0,057
-682,510	73,056	-0,035	0,027
-681,495	362,790	-0,020	-0,030
-680,481	-200,000	0,009	-0,068
-679,466	-195,253	-0,139	-0,001
-678,451	-200,000	-0,014	-0,073
-677,437	800,000	0,045	-0,120
-676,422	-200,000	-0,023	0,079
-675,408	-118,645	-0,048	0,006
-674,393	-60,237	-0,101	0,031
-673,378	-200,000	0,000	-0,137
-672,364	-148,404	-0,139	-0,008
-671,349	-123,680	-0,072	-0,008
-670,335	-200,000	0,002	0,044
-669,320	5,832	0,073	-0,040
-668,305	-200,000	0,007	0,033
-667,291	72,561	0,051	-0,039
-666,276	-63,505	0,014	0,004
-665,262	435,612	-0,057	-0,091
-664,247	-200,000	-0,029	-0,102
-663,232	-136,435	-0,159	-0,013
-662,218	292,268	-0,054	0,072
-661,203	-159,335	-0,045	-0,002
-660,189	-104,660	-0,051	-0,009
-659,174	16,445	0,028	-0,016
-658,159	264,476	-0,090	-0,116
-657,145	-160,986	0,111	-0,004
-656,130	-91,134	-0,101	-0,021
-655,116	193,853	-0,014	-0,016
-654,101	108,574	0,080	-0,070
-653,086	-200,000	-0,005	0,056
-652,072	28,319	-0,210	-0,130
-651,057	-98,881	-0,151	0,028
-650,043	-119,678	0,175	-0,022
-649,028	388,307	-0,007	-0,011
-648,014	-200,000	-0,018	-0,166
-646,999	41,102	0,076	0,050
-645,984	-200,000	-0,009	0,078
-644,970	800,000	-0,018	0,053
-643,955	337,031	0,019	0,027
-642,941	800,000	-0,046	-0,144
-641,926	800,000	-0,050	0,112
-640,911	-200,000	0,028	0,205
-639,897	-96,966	-0,024	0,005
-638,882	355,006	-0,023	-0,033
-637,868	382,094	0,038	0,058
-636,853	-200,000	-0,009	-0,112
-635,838	800,000	0,012	-0,038
-634,824	129,288	-0,043	0,041
-633,809	-23,055	0,050	-0,022
-632,795	-200,000	0,020	0,078
-631,780	800,000	-0,030	0,086
-630,765	800,000	0,033	-0,101
-629,751	-200,000	0,019	-0,115
-628,736	800,000	0,031	-0,092
-627,722	597,878	0,006	-0,011
-626,707	-54,386	-0,097	-0,032
-625,692	-200,000	-0,016	-0,093
-624,678	166,102	-0,054	0,056
-623,663	75,197	0,112	-0,087
-622,649	50,776	-0,064	-0,044
-621,634	800,000	0,006	0,020
-620,619	90,048	0,040	0,033
-619,605	-41,008	0,061	0,023
-618,590	-140,418	0,026	-0,002
-617,576	177,488	0,094	0,100
-616,561	800,000	-0,044	0,109
-615,546	555,709	-0,105	0,186
-614,532	450,818	-0,055	-0,089
-613,517	-52,044	-0,036	-0,012
-612,503	-200,000	0,009	0,101
-611,488	-65,988	0,136	-0,039
-610,474	105,922	-0,151	0,131
-609,459	-200,000	0,017	-0,062
-608,444	800,000	0,020	-0,043
-607,430	800,000	-0,094	-0,200
-606,415	167,236	0,049	-0,051
-605,401	-74,283	-0,096	0,025
-604,386	776,134	-0,051	-0,103
-603,371	-150,772	-0,048	-0,003
-602,357	148,738	0,117	-0,116
-601,342	-116,415	-0,141	0,019
-600,328	-200,000	-0,021	-0,095
-599,313	90,255	0,002	0,001
-598,298	56,483	-0,113	-0,081
-597,284	-61,419	0,104	0,032
-596,269	113,913	-0,028	0,025
-595,255	-200,000	-0,009	0,081
-594,240	-200,000	0,003	-0,134
-593,225	155,072	0,094	-0,095
-592,211	-200,000	0,022	-0,257
-591,196	187,936	-0,024	0,027
-590,182	545,144	-0,063	0,112
-589,167	561,898	0,017	-0,030
-588,152	-200,000	-0,006	-0,034
-587,138	5,186	-0,083	0,045
-586,123	800,000	-0,019	0,048
-585,109	31,355	-0,143	-0,090
-584,094	136,156	-0,056	-0,054
-583,079	768,971	0,063	0,127
-582,065	594,179	-0,070	0,128
-581,050	52,533	-0,068	-0,047
-580,036	46,819	0,062	-0,042
-579,021	-145,791	0,088	0,006
-578,006	97,439	-0,067	-0,056
-576,992	238,231	0,076	0,093
-575,977	60,263	-0,031	0,023
-574,963	640,240	-0,051	0,096
-573,948	607,964	-0,042	0,077
-572,934	109,998	0,019	0,017
-571,919	7,941	0,063	0,035
-570,904	-200,000	0,010	-0,070
-569,890	-87,837	-0,069	0,015
-568,875	260,191	-0,114	0,145
-567,861	-121,515	0,078	0,009
-566,846	585,636	0,065	0,118
-565,831	177,989	-0,059	0,063
-564,817	-200,000	-0,016	-0,065
-563,802	451,232	0,110	-0,178
-562,788	87,888	-0,074	0,060
-561,773	-72,665	0,027	0,007
-560,758	149,082	0,023	-0,022
-559,744	800,000	0,019	0,057
-558,729	-200,000	0,026	0,122
-557,715	-17,934	-0,010	-0,005
-556,700	-121,344	-0,071	-0,009
-555,685	-50,337	0,164	0,056
-554,671	108,963	-0,097	-0,085
-553,656	132,581	0,086	0,082
-552,642	-51,222	0,067	-0,023
-551,627	800,000	-0,051	0,104
-550,612	-124,543	0,077	0,009
-549,598	12,330	0,051	0,029
-548,583	-200,000	-0,012	-0,147
-547,569	800,000	-0,032	-0,069
-546,554	-200,000	0,003	-0,113
-545,539	-200,000	-0,003	0,112
-544,525	28,678	-0,136	0,084
-543,510	310,525	-0,029	0,040
-542,496	800,000	-0,055	0,169
-541,481	51,672	-0,031	0,022
-540,466	163,769	-0,048	0,049
-539,452	-200,000	-0,044	-0,191
-538,437	795,539	0,063	0,128
-537,423	-48,427	-0,064	0,022
-536,408	-200,000	-0,012	0,070
-535,393	400,175	-0,103	-0,159
-534,379	-166,740	0,075	-0,002
-533,364	194,729	-0,006	0,007
-532,350	-78,194	0,020	-0,005
-531,335	34,000	-0,044	-0,028
-530,321	-110,101	0,155	0,023
-529,306	-188,706	-0,134	-0,001
-528,291	598,031	-0,060	-0,110
-527,277	-137,187	-0,101	-0,008
-526,262	-92,976	-0,092	-0,019
-525,248	-200,000	0,019	-0,069
-524,233	76,166	0,117	0,090
-523,218	-49,533	0,118	0,041
-522,204	22,864	0,014	0,008
-521,189	-169,717	-0,066	-0,002
-520,175	-200,000	-0,004	0,053
-519,160	112,071	-0,116	-0,102
-518,145	-95,152	0,109	0,021
-517,131	120,606	0,084	-0,077
-516,116	594,741	-0,039	-0,071
-515,102	795,724	-0,020	-0,040
-514,087	-200,000	0,010	0,053
-513,072	800,000	0,050	-0,115
-512,058	61,154	-0,012	-0,009
-511,043	195,708	0,057	-0,063
-510,029	-200,000	0,011	0,039
-509,014	-200,000	-0,009	0,043
-507,999	800,000	-0,024	0,048
-506,985	163,642	-0,111	-0,114
-505,970	323,163	0,067	-0,094
-504,956	-63,497	-0,076	-0,023
-503,941	-72,760	0,054	0,015
-502,926	190,286	0,083	0,091
-501,912	93,246	0,092	-0,076
-500,897	366,201	-0,107	-0,158
-499,883	-200,000	0,005	-0,040
-498,868	319,805	-0,040	0,056
-497,853	100,190	-0,103	-0,088
-496,839	511,961	-0,014	0,024
-495,824	-66,824	0,151	-0,043
-494,810	131,043	0,040	0,038
-493,795	-24,388	0,290	0,126
-492,781	-47,418	0,052	0,018
-491,766	-72,642	-0,143	-0,038
-490,751	800,000	0,040	-0,094
-489,737	-151,645	0,154	-0,008
-488,722	-25,686	0,018	-0,008
-487,708	-116,653	0,124	0,016
-486,693	800,000	-0,032	-0,103
-485,678	314,366	-0,069	-0,095
-484,664	91,270	-0,079	0,065
-483,649	30,137	0,060	0,037
-482,635	559,711	0,029	-0,051
-481,620	800,000	0,057	0,134
-480,605	224,053	-0,078	-0,092
-479,591	0,648	-0,089	0,046
-478,576	-200,000	-0,018	-0,078
-477,562	-44,203	0,098	0,036
-476,547	-51,680	0,060	-0,020
-475,532	800,000	0,021	-0,047
-474,518	18,220	0,103	0,060
-473,503	800,000	-0,046	-0,108
-472,489	-157,782	-0,079	0,003
-471,474	116,342	-0,105	0,094
-470,459	-200,000	-0,016	-0,098
-469,445	-182,234	0,085	0,001
-468,430	-200,000	-0,007	-0,031
-467,416	374,540	0,029	-0,043
-466,401	788,741	-0,049	-0,100
-465,386	-200,000	-0,012	-0,042
-464,372	800,000	-0,011	-0,034
-463,357	-200,000	0,023	0,111
-462,343	-38,278	-0,117	-0,045
-461,328	-41,125	-0,064	0,024
-460,313	176,650	0,057	-0,060
-459,299	-75,395	0,073	0,019
-458,284	295,296	-0,137	0,183
-457,270	26,087	0,129	-0,078
-456,255	800,000	0,031	-0,071
-455,241	199,161	0,046	0,052
-454,226	800,000	-0,049	0,113
-453,211	-200,000	-0,008	0,105
-452,197	-200,000	-0,021	-0,172
-451,182	-200,000	-0,010	-0,075
-450,168	280,332	-0,084	0,110
-449,153	-200,000	-0,000	0,023
-448,138	800,000	-0,051	0,110
-447,124	-200,000	0,012	-0,143
-446,109	67,749	0,105	-0,078
-445,095	800,000	0,056	-0,114
-444,080	365,043	0,019	0,028
-443,065	442,927	0,016	-0,025
-442,051	-131,348	0,053	-0,005
-441,036	296,905	-0,044	0,059
-440,022	-200,000	-0,003	-0,136
-439,007	429,771	-0,039	0,061
-437,992	138,870	0,016	-0,016
-436,978	-200,000	0,008	-0,039
-435,963	31,051	-0,096	0,060
-434,949	800,000	-0,066	-0,172
-433,934	40,818	0,025	0,016
-432,919	800,000	-0,038	-0,103
-431,905	572,272	-0,029	-0,051
-430,890	248,266	0,078	-0,096
-429,876	-167,760	0,122	-0,003
-428,861	560,776	-0,007	0,012
-427,846	-113,468	0,196	-0,028
-426,832	-200,000	-0,029	-0,125
-425,817	800,000	0,044	-0,112
-424,803	800,000	0,040	0,102
-423,788	-106,641	-0,071	-0,011
-422,773	-200,000	-0,003	-0,103
-421,759	-200,000	0,033	0,163
-420,744	122,106	-0,059	-0,054
-419,730	128,065	-0,055	-0,051
-418,715	800,000	-0,051	-0,115
-417,701	350,778	0,019	0,028
-416,686	566,614	-0,066	-0,117
-415,671	552,664	-0,023	0,040
-414,657	541,201	-0,046	0,080
-413,642	-200,000	0,008	0,128
-412,628	-200,000	0,001	-0,109
-411,613	-200,000	0,001	-0,027
-410,598	465,850	0,075	-0,122
-409,584	-157,954	0,149	0,006
-408,569	-131,536	-0,093	0,009
-407,555	800,000	-0,041	0,105
-406,540	800,000	0,018	0,037
-405,525	91,175	-0,091	-0,074
-404,511	800,000	0,052	-0,158
-403,496	-200,000	0,001	-0,066
-402,482	-52,614	-0,109	0,037
-401,467	-132,289	0,084	0,008
-400,452	12,877	0,073	0,041
-399,438	404,930	-0,038	0,059
-398,423	177,655	0,070	0,074
-397,409	-72,160	0,075	-0,020
-396,394	6,857	0,037	0,020
-395,379	-89,193	-0,067	-0,014
-394,365	353,868	0,034	-0,049
-393,350	54,000	0,061	0,042
-392,336	118,500	0,147	0,132
-391,321	-63,301	0,045	0,014
-390,306	318,416	-0,017	-0,024
-389,292	-124,570	-0,029	-0,003
-388,277	-99,339	0,018	-0,003
-387,263	259,300	0,066	-0,082
-386,248	-200,000	0,029	0,120
-385,233	-200,000	0,004	0,041
-384,219	7,162	0,104	0,057
-383,204	89,249	-0,031	-0,025
-382,190	689,057	-0,053	-0,101
-381,175	297,063	0,049	-0,066
-380,160	156,951	0,074	-0,075
-379,146	471,263	-0,036	0,060
-378,131	145,743	0,060	-0,059
-377,117	-167,372	0,075	-0,002
-376,102	140,143	-0,030	-0,029
-375,088	-200,000	-0,011	0,052
-374,073	44,794	-0,056	0,037
-373,058	-55,320	0,119	0,039
-372,044	296,433	0,097	0,130
-371,029	-200,000	0,023	0,100
-370,015	74,118	-0,060	-0,046
-369,000	-200,000	-0,005	-0,211
-367,985	425,605	0,032	-0,050
-366,971	-200,000	-0,014	-0,105
-365,956	-200,000	0,005	-0,070
-364,942	73,744	0,105	0,080
-363,927	456,233	0,027	0,044
-362,912	800,000	-0,057	0,115
-361,898	-200,000	-0,016	-0,107
-360,883	0,298	-0,098	-0,051
-359,869	-200,000	0,004	0,013
-358,854	151,401	0,133	0,132
-357,839	112,762	-0,070	-0,061
-356,825	224,042	0,067	-0,079
-355,810	13,363	-0,149	-0,084
-354,796	41,030	0,053	0,035
-353,781	-148,434	-0,123	0,007
-352,766	-196,137	-0,042	-0,000
-351,752	477,388	-0,043	-0,071
-350,737	-37,797	0,086	-0,033
-349,723	800,000	-0,047	0,108
-348,708	-200,000	0,011	0,042
-347,693	-4,716	-0,081	0,040
-346,679	-158,917	-0,093	-0,004
-345,664	-120,150	-0,146	-0,018
-344,650	-105,007	-0,050	-0,008
-343,635	-200,000	0,003	-0,035
-342,620	-143,311	0,158	0,011
-341,606	271,939	0,031	0,039
-340,591	-200,000	0,010	0,180
-339,577	-200,000	0,000	0,048
-338,562	-28,453	-0,031	-0,013
-337,548	70,744	0,128	0,096
-336,533	800,000	0,036	0,091
-335,518	-108,069	0,112	-0,017
-334,504	321,503	0,027	-0,038
-333,489	-94,605	-0,123	-0,024
-332,475	408,933	-0,029	-0,045
-331,460	800,000	0,031	-0,099
-330,445	-200,000	0,006	0,039
-329,431	-69,024	0,086	0,024
-328,416	714,703	0,043	0,083
-327,402	800,000	0,006	-0,012
-326,387	395,279	-0,029	0,043
-325,372	-200,000	-0,018	0,100
-324,358	-45,347	0,040	-0,014
-323,343	-200,000	0,015	-0,084
-322,329	1,331	0,026	-0,013
-321,314	121,766	0,099	0,089
-320,299	800,000	-0,083	0,194
-319,285	127,445	-0,109	0,100
-318,270	-23,253	-0,039	0,017
-317,256	312,204	0,073	0,100
-316,241	183,112	-0,042	0,045
-315,226	722,937	-0,018	0,035
-314,212	-200,000	-0,016	-0,074
-313,197	-200,000	0,003	0,039
-312,183	193,931	0,097	0,107
-311,168	-97,543	-0,080	0,015
-310,153	-25,127	-0,082	-0,035
-309,139	8,753	-0,081	0,044
-308,124	-200,000	0,008	-0,050
-307,110	102,559	0,067	-0,057
-306,095	800,000	-0,040	0,121
-305,080	152,460	-0,063	-0,062
-304,066	366,101	-0,085	-0,124
-303,051	-51,999	-0,099	-0,033
-302,037	247,436	0,046	0,056
-301,022	-156,807	0,144	0,006
-300,008	549,856	0,074	0,130
-298,993	112,590	0,083	-0,073
-297,978	-59,474	0,074	0,023
-296,964	800,000	0,040	0,103
-295,949	489,221	-0,113	-0,189
-294,935	-74,048	-0,073	-0,019
-293,920	-150,396	-0,108	-0,006
-292,905	800,000	0,052	0,108
-291,891	-200,000	0,002	0,045
-290,876	-51,848	0,039	0,013
-289,862	-96,263	0,069	0,013
-288,847	384,519	-0,063	-0,094
-287,832	307,991	0,051	0,069
-286,818	128,356	-0,030	0,027
-285,803	-57,414	0,123	0,039
-284,789	-64,764	-0,066	-0,019
-283,774	288,674	-0,074	0,097
-282,759	148,603	0,062	-0,061
-281,745	28,054	-0,202	-0,123
-280,730	800,000	-0,038	0,080
-279,716	68,912	-0,040	-0,030
-278,701	19,858	-0,019	-0,011
-277,686	-200,000	0,013	-0,086
-276,672	-138,924	0,104	0,008
-275,657	-59,413	0,100	-0,031
-274,643	800,000	-0,036	-0,086
-273,628	-42,383	-0,017	0,006
-272,613	19,509	-0,061	-0,035
-271,599	-156,191	-0,091	-0,004
-270,584	-120,145	0,134	-0,016
-269,570	447,358	0,079	0,126
-268,555	-90,867	-0,005	-0,001
-267,540	-52,373	-0,126	-0,042
-266,526	-200,000	0,004	-0,072
-265,511	450,146	-0,053	0,085
-264,497	372,545	0,055	0,081
-263,482	66,034	-0,081	0,060
-262,467	206,895	0,063	0,072
-261,453	208,295	-0,074	-0,084
-260,438	-200,000	-0,015	0,060
-259,424	-128,937	-0,073	-0,007
-258,409	-89,482	-0,172	-0,036
-257,395	-89,763	0,150	0,032
-256,380	800,000	0,021	-0,046
-255,365	228,478	-0,022	0,026
-254,351	102,573	-0,044	0,038
-253,336	-200,000	0,014	0,190
-252,322	-142,862	-0,038	0,003
-251,307	174,315	-0,047	0,049
-250,292	800,000	-0,018	-0,048
-249,278	-200,000	0,010	-0,051
-248,263	-200,000	0,000	-0,016
-247,249	623,574	0,057	-0,104
-246,234	-200,000	-0,006	0,078
-245,219	146,608	-0,050	0,049
-244,205	80,345	-0,058	0,045
-243,190	-200,000	0,000	0,059
-242,176	-200,000	0,010	0,123
-241,161	-41,561	0,132	-0,049
-240,146	198,553	0,065	-0,072
-239,132	-130,468	-0,085	-0,008
-238,117	-64,249	0,074	-0,022
-237,103	800,000	0,040	-0,096
-236,088	184,579	-0,050	0,054
-235,073	-200,000	-0,034	0,133
-234,059	-200,000	-0,004	0,061
-233,044	41,812	0,073	-0,048
-232,030	-133,068	-0,100	-0,009
-231,015	252,854	-0,033	-0,041
-230,000	434,563	-0,083	-0,131
-228,986	-200,000	-0,005	0,053
-227,971	-200,000	-0,004	0,218
-226,957	125,235	-0,055	0,050
-225,942	223,303	0,033	0,038
-224,927	4,027	0,054	0,028
-223,913	800,000	0,045	-0,104
-222,898	28,319	0,144	0,088
-221,884	-200,000	0,022	0,092
-220,869	46,932	0,091	0,061
-219,855	427,834	0,058	0,090
-218,840	-200,000	-0,005	0,069
-217,825	-68,275	-0,047	0,013
-216,811	-200,000	-0,014	-0,064
-215,796	-72,935	-0,103	0,027
-214,782	47,102	-0,037	0,025
-213,767	54,303	0,059	0,041
-212,752	800,000	-0,025	0,058
-211,738	682,169	-0,049	0,093
-210,723	462,022	-0,047	-0,077
-209,709	-145,283	-0,075	-0,005
-208,694	5,991	0,094	-0,050
-207,679	75,748	-0,042	-0,032
-206,665	-200,000	-0,004	0,070
-205,650	-102,931	-0,097	0,016
-204,636	-200,000	-0,032	0,127
-203,621	-60,627	-0,038	0,012
-202,606	-200,000	-0,024	0,078
-201,592	-115,025	-0,102	-0,014
-200,577	-46,299	-0,147	-0,052
-199,563	-200,000	0,018	-0,148
-198,548	-142,316	0,051	-0,004
-197,533	586,181	0,071	0,127
-196,519	800,000	0,042	-0,131
-195,504	473,582	-0,012	0,020
-194,490	205,613	-0,052	0,058
-193,475	-200,000	0,037	-0,148
-192,460	-200,000	-0,013	0,096
-191,446	-200,000	0,014	-0,049
-190,431	-200,000	0,017	0,107
-189,417	-44,427	-0,078	0,028
-188,402	-88,508	-0,110	0,024
-187,387	-200,000	-0,020	0,090
-186,373	-92,015	-0,066	0,013
-185,358	51,096	0,045	-0,031
-184,344	329,234	-0,035	0,049
-183,329	-200,000	0,002	-0,035
-182,315	-101,148	0,079	0,014
-181,300	-19,253	-0,089	0,040
-180,285	444,504	-0,018	-0,028
-179,271	-82,288	-0,148	0,034
-178,256	222,306	0,084	-0,097
-177,242	562,375	0,099	0,173
-176,227	102,399	0,131	0,110
-175,212	146,902	-0,023	0,022
-174,198	-141,663	0,189	-0,013
-173,183	335,686	0,005	-0,007
-172,169	-78,702	-0,030	-0,007
-171,154	-200,000	-0,001	-0,093
-170,139	-120,536	0,214	0,026
-169,125	677,320	0,045	-0,084
-168,110	-130,740	0,105	0,010
-167,096	281,755	0,038	-0,050
-166,081	396,772	0,065	-0,098
-165,066	-200,000	0,010	-0,086
-164,052	-76,731	-0,091	0,023
-163,037	-66,981	-0,143	-0,041
-162,023	402,071	0,032	-0,049
-161,008	-119,646	-0,172	0,021
-159,993	166,404	-0,035	0,036
-158,979	3,659	0,085	0,045
-157,964	154,623	0,065	-0,065
-156,950	-200,000	-0,005	-0,097
-155,935	-165,553	0,067	0,002
-154,920	202,821	0,056	-0,063
-153,906	204,652	0,070	-0,078
-152,891	-99,627	-0,030	0,005
-151,877	35,130	0,022	0,014
-150,862	-74,077	-0,044	0,012
-149,847	-98,600	-0,014	0,002
-148,833	-200,000	-0,004	0,086
-147,818	734,185	0,061	0,118
-146,804	194,466	-0,097	0,106
-145,789	635,044	0,066	0,121
-144,775	-49,290	-0,121	-0,041
-143,760	196,216	0,084	0,093
-142,745	-23,382	-0,089	-0,038
-141,731	-200,000	-0,005	0,071
-140,716	-200,000	-0,003	0,011
-139,702	-200,000	0,006	0,121
-138,687	406,923	-0,089	-0,137
-137,672	-200,000	0,011	-0,047
-136,658	-24,739	-0,143	-0,061
-135,643	-148,324	0,089	-0,005
-134,629	800,000	-0,009	0,025
-133,614	-132,415	0,040	0,004
-132,599	-98,428	0,101	-0,018
-131,585	-58,612	-0,131	0,041
-130,570	800,000	0,033	0,069
-129,556	800,000	-0,015	0,040
-128,541	-200,000	-0,013	0,064
-127,526	-200,000	0,010	-0,042
-126,512	137,323	0,018	0,017
-125,497	-127,359	0,135	0,014
-124,483	-200,000	0,020	0,140
-123,468	-200,000	0,005	-0,139
-122,453	-200,000	0,004	0,027
-121,439	-200,000	0,016	-0,094
-120,424	160,191	0,075	-0,076
