DTS Sentinel unit serial number:	SN410029Multiplexer serial number:	ORYXHardware model number:	OX2-SRSoftware version number:	ORYX F/W v4,00 Oryx Data Collector v3.7.2.0data status	okinstallation	B5 Nyhavnadifferential loss correction	single-endedforward channel	channel 2reverse channel	N/Adate	2023/12/12time	17:57:13forward acquisition time	300,00reverse acquisition time	0,00gamma	499,1914k internal	0,3156k external	0,3156temperature offset calibration	1,0000default loss term (dB/km)	0,3820temperature slope calibration	1,0000multiplexer offset coefficient	1,0000multiplexer slope coefficient	1,0000fibre end	0,00T internal ref (°C)	15,64T ext. ref 1 (°C)	-0,79T ext. ref 2 (°C)	-1,10length (m)	temperature (°C)	Stokes	anti-Stokes-744,400	120,354	0,071	-0,065
-743,385	-144,342	-0,322	-0,022
-742,371	-200,000	0,013	-0,067
-741,356	-18,400	-0,257	0,118
-740,342	-88,368	0,089	-0,019
-739,327	-148,439	-0,218	0,013
-738,312	596,385	0,080	0,146
-737,298	-53,131	-0,232	-0,078
-736,283	-82,130	0,090	0,021
-735,269	42,270	-0,176	0,118
-734,254	800,000	-0,075	0,160
-733,239	-17,102	-0,307	-0,142
-732,225	-69,111	0,199	-0,056
-731,210	540,463	-0,022	0,039
-730,196	-2,361	-0,070	-0,036
-729,181	727,649	0,069	-0,137
-728,167	800,000	-0,036	-0,073
-727,152	-164,651	-0,055	-0,002
-726,137	-200,000	0,005	-0,121
-725,123	51,603	-0,073	0,051
-724,108	85,890	-0,200	0,162
-723,094	121,407	-0,105	-0,096
-722,079	73,007	-0,053	-0,041
-721,064	-200,000	0,010	0,063
-720,050	391,068	-0,020	-0,031
-719,035	800,000	-0,036	-0,075
-718,021	-200,000	-0,005	0,023
-717,006	800,000	-0,037	-0,119
-715,991	-108,384	0,100	-0,016
-714,977	432,250	-0,061	-0,098
-713,962	-64,449	-0,119	-0,035
-712,948	420,577	-0,023	-0,037
-711,933	-105,443	-0,144	-0,024
-710,918	800,000	-0,025	-0,061
-709,904	139,273	-0,059	-0,058
-708,889	-37,379	-0,064	-0,025
-707,875	20,068	-0,021	-0,013
-706,860	-167,352	-0,079	0,002
-705,845	-159,779	0,045	-0,002
-704,831	800,000	-0,028	0,066
-703,816	-200,000	0,007	-0,063
-702,802	800,000	-0,032	0,092
-701,787	189,300	-0,072	0,080
-700,772	-74,941	-0,056	-0,015
-699,758	-87,971	-0,124	-0,027
-698,743	-180,326	0,178	-0,003
-697,729	-99,339	-0,029	-0,005
-696,714	62,789	0,121	0,089
-695,699	-52,520	0,072	-0,024
-694,685	-57,548	0,067	0,022
-693,670	-55,237	-0,111	-0,037
-692,656	243,850	0,005	-0,007
-691,641	77,814	0,197	0,155
-690,627	-200,000	0,003	-0,037
-689,612	-61,420	-0,082	-0,025
-688,597	-57,074	0,067	0,022
-687,583	235,582	-0,089	0,108
-686,568	192,762	-0,039	0,044
-685,554	193,192	-0,067	-0,075
-684,539	800,000	0,017	0,047
-683,524	720,454	0,019	0,037
-682,510	123,316	0,013	-0,012
-681,495	118,335	0,069	-0,063
-680,481	-29,315	-0,122	0,051
-679,466	431,782	0,070	-0,111
-678,451	-200,000	-0,012	0,075
-677,437	800,000	-0,033	-0,079
-676,422	188,768	0,117	0,128
-675,408	485,434	0,054	0,091
-674,393	-163,501	0,064	0,002
-673,378	40,512	-0,121	-0,080
-672,364	-200,000	-0,014	-0,101
-671,349	80,335	-0,101	-0,080
-670,335	128,082	0,087	0,081
-669,320	44,612	-0,009	-0,006
-668,305	-133,292	0,101	0,009
-667,291	513,175	-0,053	0,092
-666,276	-200,000	0,007	0,030
-665,262	-200,000	-0,006	0,048
-664,247	800,000	0,020	0,050
-663,232	800,000	0,058	-0,156
-662,218	26,293	0,066	0,041
-661,203	-200,000	0,027	0,097
-660,189	471,338	-0,035	-0,059
-659,174	800,000	0,047	-0,104
-658,159	-36,127	-0,212	-0,084
-657,145	-17,310	-0,108	-0,050
-656,130	-200,000	0,049	-0,167
-655,116	134,004	0,057	-0,054
-654,101	-11,621	-0,111	0,053
-653,086	-200,000	-0,019	0,143
-652,072	29,627	-0,131	0,082
-651,057	-200,000	-0,003	0,097
-650,043	-200,000	-0,004	-0,016
-649,028	780,814	-0,020	0,040
-648,014	800,000	-0,008	0,019
-646,999	-200,000	0,024	-0,138
-645,984	697,633	0,025	-0,049
-644,970	434,503	0,027	0,044
-643,955	-98,697	-0,066	-0,012
-642,941	800,000	0,047	-0,113
-641,926	-47,598	0,187	-0,066
-640,911	11,619	0,085	-0,048
-639,897	108,879	0,070	0,061
-638,882	-200,000	0,004	-0,117
-637,868	-170,452	-0,169	0,004
-636,853	-48,340	-0,106	-0,037
-635,838	291,498	0,009	-0,013
-634,824	48,677	0,076	-0,053
-633,809	229,415	0,044	0,053
-632,795	-200,000	0,019	-0,069
-631,780	-21,234	0,015	-0,007
-630,765	24,515	-0,129	0,078
-629,751	800,000	0,068	-0,151
-628,736	800,000	-0,036	-0,088
-627,722	61,404	0,068	0,050
-626,707	-113,978	0,130	-0,018
-625,692	-95,180	0,138	0,027
-624,678	294,067	-0,007	0,009
-623,663	122,462	-0,111	0,102
-622,649	119,175	-0,062	0,056
-621,634	-200,000	-0,023	0,097
-620,619	34,757	0,105	-0,067
-619,605	82,118	0,112	0,089
-618,590	-200,000	-0,002	0,139
-617,576	115,661	0,032	0,029
-616,561	-200,000	-0,001	-0,023
-615,546	394,573	0,039	0,060
-614,532	-75,700	-0,088	-0,023
-613,517	488,827	0,023	0,039
-612,503	225,549	-0,019	-0,023
-611,488	-119,060	-0,056	0,007
-610,474	86,365	-0,098	0,079
-609,459	-200,000	-0,006	-0,086
-608,444	500,372	0,058	-0,099
-607,430	-137,538	0,090	-0,007
-606,415	166,677	-0,071	-0,074
-605,401	-32,332	0,197	-0,080
-604,386	-200,000	-0,013	0,112
-603,371	17,053	0,073	0,043
-602,357	-200,000	-0,004	-0,022
-601,342	-200,000	0,005	-0,106
-600,328	-200,000	0,004	-0,099
-599,313	95,125	-0,077	-0,065
-598,298	-123,703	-0,012	-0,001
-597,284	216,270	0,057	-0,066
-596,269	271,951	0,082	-0,106
-595,255	3,641	-0,067	-0,036
-594,240	21,945	-0,120	0,072
-593,225	-200,000	0,007	0,068
-592,211	-200,000	0,011	0,086
-591,196	181,532	0,145	0,157
-590,182	-25,202	-0,061	-0,026
-589,167	170,599	0,030	0,032
-588,152	113,656	0,099	0,088
-587,138	123,061	-0,107	-0,099
-586,123	32,672	-0,047	-0,030
-585,109	-70,563	-0,099	-0,027
-584,094	-200,000	-0,003	-0,020
-583,079	497,604	-0,065	-0,111
-582,065	-110,710	0,049	-0,007
-581,050	800,000	0,032	0,068
-580,036	800,000	-0,032	-0,069
-579,021	186,211	0,104	-0,113
-578,006	276,118	-0,030	-0,039
-576,992	-200,000	0,010	-0,032
-575,977	311,184	0,131	-0,181
-574,963	-82,839	-0,039	-0,009
-573,948	-43,178	-0,114	0,042
-572,934	56,146	-0,091	0,065
-571,919	326,765	0,023	-0,032
-570,904	-181,700	-0,108	-0,001
-569,890	-200,000	0,021	-0,147
-568,875	-146,534	-0,140	0,009
-567,861	-200,000	0,023	0,190
-566,846	-138,376	-0,084	-0,007
-565,831	398,545	-0,018	0,028
-564,817	-200,000	-0,008	-0,123
-563,802	800,000	-0,060	-0,142
-562,788	123,309	-0,029	-0,027
-561,773	800,000	0,030	0,086
-560,758	-200,000	0,041	0,137
-559,744	250,742	0,072	-0,089
-558,729	7,552	0,051	0,028
-557,715	14,479	0,075	-0,043
-556,700	-117,881	-0,232	-0,030
-555,685	92,831	-0,029	0,024
-554,671	-200,000	-0,005	-0,054
-553,656	525,193	-0,073	0,126
-552,642	313,969	0,044	0,060
-551,627	90,280	0,185	0,151
-550,612	35,892	-0,016	0,010
-549,598	55,912	0,024	0,017
-548,583	-200,000	-0,017	-0,129
-547,569	-200,000	-0,022	-0,133
-546,554	-200,000	0,024	0,120
-545,539	-200,000	-0,030	0,121
-544,525	7,177	0,026	0,014
-543,510	340,017	-0,069	-0,099
-542,496	143,138	0,096	-0,094
-541,481	-200,000	-0,010	-0,068
-540,466	800,000	0,020	0,052
-539,452	-200,000	0,004	0,020
-538,437	54,224	-0,108	0,076
-537,423	244,098	0,059	-0,073
-536,408	-89,053	-0,080	0,017
-535,393	800,000	-0,068	-0,170
-534,379	-200,000	0,003	0,043
-533,364	223,660	-0,021	-0,025
-532,350	-27,422	0,079	-0,033
-531,335	192,604	0,050	-0,055
-530,321	129,496	-0,065	-0,061
-529,306	800,000	-0,018	0,050
-528,291	-200,000	-0,002	-0,029
-527,277	-19,060	0,101	0,046
-526,262	63,335	-0,070	0,051
-525,248	136,431	-0,052	0,050
-524,233	800,000	0,032	-0,070
-523,218	463,014	0,004	0,006
-522,204	-97,976	-0,124	-0,023
-521,189	800,000	-0,047	-0,114
-520,175	211,513	0,018	-0,020
-519,160	-135,749	-0,082	-0,007
-518,145	-200,000	-0,001	0,077
-517,131	76,251	0,108	0,083
-516,116	113,780	-0,014	0,013
-515,102	398,616	0,047	0,073
-514,087	-200,000	-0,045	-0,189
-513,072	301,277	0,093	-0,126
-512,058	-187,740	-0,107	0,001
-511,043	444,576	0,119	0,192
-510,029	-119,329	0,023	0,003
-509,014	-67,958	-0,163	0,046
-507,999	-200,000	0,002	-0,074
-506,985	800,000	-0,065	0,144
-505,970	-200,000	0,014	0,122
-504,956	70,642	-0,037	-0,028
-503,941	800,000	0,038	-0,080
-502,926	800,000	0,062	0,162
-501,912	106,951	0,082	0,071
-500,897	262,123	-0,103	0,130
-499,883	800,000	-0,036	0,082
-498,868	-86,899	-0,117	-0,026
-497,853	464,384	-0,014	-0,022
-496,839	0,868	0,147	0,077
-495,824	20,742	-0,071	-0,042
-494,810	800,000	-0,031	-0,080
-493,795	-2,583	-0,131	0,067
-492,781	24,221	0,044	-0,026
-491,766	-89,743	-0,009	0,002
-490,751	-200,000	0,006	-0,032
-489,737	454,374	-0,032	0,053
-488,722	-120,554	0,120	-0,015
-487,708	182,854	-0,044	0,047
-486,693	-190,530	-0,050	-0,000
-485,678	61,826	0,061	0,045
-484,664	-22,276	-0,082	0,036
-483,649	-200,000	0,005	0,048
-482,635	-200,000	-0,022	-0,149
-481,620	-200,000	0,002	-0,071
-480,605	-164,418	-0,127	0,004
-479,591	-200,000	0,008	-0,039
-478,576	-200,000	0,013	0,049
-477,562	-200,000	-0,033	-0,132
-476,547	-4,009	-0,144	0,073
-475,532	-200,000	-0,024	0,187
-474,518	389,943	0,027	-0,041
-473,503	-39,544	-0,174	0,066
-472,489	-11,870	-0,111	0,053
-471,474	-132,183	0,073	-0,007
-470,459	-200,000	-0,030	-0,152
-469,445	126,044	-0,112	-0,104
-468,430	800,000	-0,027	0,062
-467,416	-200,000	0,007	-0,038
-466,401	53,413	-0,028	0,019
-465,386	800,000	0,028	0,069
-464,372	-39,453	0,079	-0,030
-463,357	21,482	-0,078	-0,046
-462,343	432,491	-0,085	0,135
-461,328	-200,000	0,003	-0,032
-460,313	13,042	-0,092	-0,052
-459,299	132,604	-0,044	0,041
-458,284	-58,238	0,092	-0,029
-457,270	800,000	0,025	0,058
-456,255	800,000	-0,019	0,040
-455,241	-43,314	0,055	-0,020
-454,226	-45,883	-0,025	-0,009
-453,211	406,677	0,005	0,007
-452,197	465,597	0,064	-0,105
-451,182	-51,323	-0,151	0,051
-450,168	430,686	0,034	0,054
-449,153	-200,000	-0,010	-0,075
-448,138	-200,000	-0,013	-0,048
-447,124	453,444	0,042	0,069
-446,109	-135,439	0,040	-0,003
-445,095	-145,209	-0,059	0,004
-444,080	800,000	0,039	0,097
-443,065	244,685	0,090	0,111
-442,051	41,853	0,046	-0,030
-441,036	58,045	0,041	0,029
-440,022	-200,000	-0,008	-0,258
-439,007	-200,000	0,014	-0,151
-437,992	39,011	0,149	-0,097
-436,978	560,014	-0,020	0,036
-435,963	-5,130	0,120	0,060
-434,949	-200,000	-0,013	-0,059
-433,934	50,881	-0,147	-0,102
-432,919	183,542	0,029	-0,031
-431,905	549,489	-0,095	-0,166
-430,890	102,548	0,103	0,087
-429,876	-159,621	0,058	0,002
-428,861	239,798	-0,050	-0,061
-427,846	-200,000	0,005	-0,057
-426,832	800,000	-0,052	-0,146
-425,817	-116,262	0,112	-0,015
-424,803	-200,000	-0,025	-0,117
-423,788	104,102	0,099	0,085
-422,773	-200,000	0,007	0,073
-421,759	270,209	0,058	-0,075
-420,744	229,909	0,068	-0,081
-419,730	-200,000	0,005	-0,138
-418,715	199,931	0,077	0,086
-417,701	635,966	0,045	-0,084
-416,686	-200,000	-0,023	0,122
-415,671	77,144	0,102	-0,079
-414,657	70,592	-0,115	-0,087
-413,642	661,009	-0,062	-0,116
-412,628	800,000	-0,004	-0,012
-411,613	-200,000	0,002	0,033
-410,598	678,384	-0,057	-0,108
-409,584	129,798	0,124	0,116
-408,569	-5,689	0,103	0,051
-407,555	334,830	0,021	0,029
-406,540	134,039	-0,008	-0,008
-405,525	800,000	0,028	0,068
-404,511	-98,624	-0,012	0,002
-403,496	-112,638	0,069	-0,010
-402,482	-48,761	0,077	0,027
-401,467	-25,028	0,141	-0,061
-400,452	-200,000	0,006	-0,080
-399,438	84,720	-0,151	0,120
-398,423	-42,357	0,065	-0,024
-397,409	-46,159	0,025	-0,009
-396,394	242,067	-0,035	-0,042
-395,379	720,981	0,031	0,060
-394,365	129,590	-0,055	0,052
-393,350	-200,000	0,007	0,066
-392,336	101,350	0,097	0,082
-391,321	118,675	0,031	0,028
-390,306	800,000	-0,066	-0,169
-389,292	-49,698	-0,109	-0,038
-388,277	-200,000	0,018	-0,219
-387,263	800,000	0,062	0,147
-386,248	144,387	0,078	0,076
-385,233	70,513	0,095	0,072
-384,219	453,326	0,019	0,030
-383,204	-15,297	-0,196	-0,091
-382,190	-142,635	-0,175	-0,012
-381,175	141,823	0,121	0,117
-380,160	183,899	0,050	-0,054
-379,146	-200,000	-0,010	0,187
-378,131	800,000	0,065	0,145
-377,117	778,749	-0,086	-0,172
-376,102	800,000	0,052	0,126
-375,088	-153,843	-0,125	0,006
-374,073	582,711	-0,071	-0,128
-373,058	92,439	0,050	0,041
-372,044	-200,000	0,020	0,132
-371,029	247,525	0,136	0,168
-370,015	-200,000	0,010	0,081
-369,000	800,000	-0,043	0,100
-367,985	133,740	-0,110	-0,104
-366,971	800,000	-0,011	0,027
-365,956	-200,000	0,044	0,000
-364,942	-75,894	0,127	-0,032
-363,927	800,000	0,027	0,066
-362,912	21,468	-0,008	0,004
-361,898	91,027	-0,109	-0,089
-360,883	119,482	-0,063	-0,057
-359,869	-200,000	0,009	-0,084
-358,854	-200,000	0,001	0,007
-357,839	800,000	-0,034	-0,107
-356,825	275,311	-0,008	-0,011
-355,810	-200,000	0,016	0,076
-354,796	19,529	-0,139	-0,081
-353,781	-200,000	0,006	-0,235
-352,766	-200,000	0,024	-0,090
-351,752	-200,000	0,006	-0,081
-350,737	150,349	0,067	0,066
-349,723	-200,000	-0,020	0,090
-348,708	-5,867	0,032	0,016
-347,693	-140,720	-0,010	-0,001
-346,679	800,000	-0,019	0,042
-345,664	-200,000	0,011	0,058
-344,650	-200,000	-0,010	0,093
-343,635	-17,706	0,175	0,080
-342,620	266,269	0,076	0,097
-341,606	436,078	-0,053	0,084
-340,591	-200,000	-0,007	-0,144
-339,577	-76,013	-0,055	-0,014
-338,562	39,701	-0,134	-0,087
-337,548	-200,000	-0,013	-0,043
-336,533	1,363	0,060	-0,031
-335,518	140,736	0,082	0,078
-334,504	560,706	0,079	0,139
-333,489	370,300	0,046	-0,068
-332,475	-93,806	-0,105	0,021
-331,460	-200,000	-0,003	0,039
-330,445	219,634	0,074	-0,086
-329,431	800,000	-0,015	-0,037
-328,416	122,058	-0,056	0,051
-327,402	-54,294	0,132	-0,043
-326,387	143,426	0,101	0,098
-325,372	-200,000	-0,024	-0,078
-324,358	-12,820	-0,125	0,059
-323,343	-200,000	-0,009	-0,037
-322,329	-200,000	0,012	-0,052
-321,314	-124,365	0,116	-0,013
-320,299	41,718	0,076	0,050
-319,285	298,871	0,059	0,079
-318,270	-200,000	-0,020	0,143
-317,256	-117,698	0,073	-0,009
-316,241	53,679	-0,096	0,067
-315,226	442,419	0,046	-0,073
-314,212	93,727	0,042	-0,035
-313,197	32,788	0,055	0,035
-312,183	5,902	0,059	0,031
-311,168	5,556	0,133	0,071
-310,153	-19,028	-0,166	-0,074
-309,139	-135,056	0,085	-0,007
-308,124	14,771	-0,171	0,097
-307,110	-121,780	0,125	0,015
-306,095	310,753	0,098	0,133
-305,080	-148,625	0,139	-0,008
-304,066	-66,131	-0,099	-0,029
-303,051	800,000	0,005	-0,013
-302,037	-200,000	0,014	-0,064
-301,022	704,819	-0,028	-0,054
-300,008	35,974	0,106	0,067
-298,993	73,303	-0,084	0,063
-297,978	-200,000	0,003	0,018
-296,964	-200,000	0,017	0,056
-295,949	397,036	-0,039	-0,059
-294,935	117,535	0,093	0,083
-293,920	376,263	0,007	0,010
-292,905	-200,000	0,002	0,097
-291,891	-200,000	0,023	0,076
-290,876	21,544	-0,021	-0,012
-289,862	-80,056	-0,098	-0,024
-288,847	387,645	0,104	-0,156
-287,832	28,662	-0,111	0,068
-286,818	-153,211	0,083	0,004
-285,803	194,302	0,019	0,021
-284,789	152,409	0,112	0,111
-283,774	-105,111	0,040	0,007
-282,759	94,280	-0,128	0,105
-281,745	-138,557	-0,061	-0,005
-280,730	43,508	-0,078	-0,051
-279,716	-200,000	-0,012	0,156
-278,701	-200,000	-0,009	-0,048
-277,686	72,130	-0,080	0,060
-276,672	-137,031	0,027	-0,002
-275,657	508,024	-0,053	-0,089
-274,643	-200,000	-0,010	-0,039
-273,628	787,823	-0,046	-0,091
-272,613	800,000	0,028	0,086
-271,599	800,000	0,015	0,040
-270,584	-76,651	0,081	-0,020
-269,570	247,903	0,090	0,110
-268,555	14,444	0,077	0,043
-267,540	-14,451	-0,124	-0,058
-266,526	310,778	0,046	-0,063
-265,511	-159,078	0,085	0,003
-264,497	-4,729	-0,108	0,054
-263,482	324,785	0,065	0,090
-262,467	213,880	-0,016	0,018
-261,453	60,995	0,063	0,045
-260,438	1,206	-0,184	-0,095
-259,424	166,010	0,033	0,034
-258,409	92,197	0,070	0,057
-257,395	800,000	-0,024	-0,053
-256,380	193,050	-0,118	-0,129
-255,365	-1,479	0,045	0,023
-254,351	-34,700	0,068	0,027
-253,336	-22,723	-0,191	-0,083
-252,322	-117,275	-0,090	-0,012
-251,307	227,209	-0,013	0,016
-250,292	494,089	0,105	-0,175
-249,278	-200,000	-0,015	0,060
-248,263	83,828	0,135	0,107
-247,249	228,270	-0,027	0,032
-246,234	-200,000	0,006	-0,056
-245,219	800,000	-0,041	-0,087
-244,205	198,489	0,051	-0,056
-243,190	-200,000	0,007	-0,045
-242,176	25,001	-0,046	0,028
-241,161	27,446	-0,025	-0,015
-240,146	309,604	0,042	0,057
-239,132	-78,854	0,097	-0,024
-238,117	-129,950	-0,106	-0,010
-237,103	141,442	-0,099	-0,095
-236,088	88,761	-0,013	-0,010
-235,073	663,143	-0,050	-0,094
-234,059	20,362	0,064	0,037
-233,044	-200,000	0,006	0,027
-232,030	800,000	-0,022	-0,050
-231,015	193,462	0,028	0,031
-230,000	-168,024	0,155	-0,004
-228,986	616,679	0,054	-0,099
-227,971	345,294	-0,040	0,057
-226,957	536,378	0,029	-0,050
-225,942	-150,131	0,173	0,010
-224,927	119,670	-0,119	0,106
-223,913	800,000	-0,058	-0,175
-222,898	-105,132	0,057	0,009
-221,884	705,502	-0,032	0,061
-220,869	-41,880	0,129	-0,047
-219,855	-109,012	-0,086	-0,013
-218,840	800,000	-0,047	-0,111
-217,825	245,939	0,038	0,046
-216,811	-112,384	-0,055	-0,008
-215,796	-200,000	-0,009	0,069
-214,782	50,836	0,138	0,094
-213,767	157,028	0,036	-0,036
-212,752	270,374	0,037	0,047
-211,738	-57,213	0,142	0,045
-210,723	-119,701	-0,118	-0,015
-209,709	-200,000	0,016	0,151
-208,694	166,452	-0,102	-0,105
-207,679	800,000	-0,028	-0,087
-206,665	-200,000	0,007	0,108
-205,650	-200,000	-0,027	0,183
-204,636	187,527	0,063	0,068
-203,621	66,562	-0,160	0,117
-202,606	127,119	-0,019	-0,017
-201,592	486,601	-0,036	0,059
-200,577	-17,029	-0,013	-0,006
-199,563	-42,203	-0,108	0,040
-198,548	-200,000	0,019	0,163
-197,533	200,512	-0,024	0,027
-196,519	-21,910	0,050	-0,022
-195,504	135,828	0,026	-0,024
-194,490	-200,000	0,005	-0,086
-193,475	182,064	-0,058	-0,062
-192,460	-200,000	-0,028	-0,096
-191,446	220,331	-0,029	-0,034
-190,431	67,210	-0,078	-0,058
-189,417	77,196	-0,071	0,055
-188,402	-200,000	-0,002	-0,058
-187,387	800,000	0,031	-0,068
-186,373	-50,058	-0,082	-0,028
-185,358	-200,000	-0,029	-0,094
-184,344	-8,664	0,086	-0,041
-183,329	-200,000	0,004	0,103
-182,315	70,650	0,012	-0,009
-181,300	355,266	-0,017	-0,024
-180,285	18,415	-0,121	0,070
-179,271	-3,977	-0,103	-0,052
-178,256	52,346	0,105	-0,072
-177,242	-86,589	-0,103	0,023
-176,227	178,132	0,078	0,082
-175,212	9,867	0,081	0,044
-174,198	4,789	-0,020	-0,011
-173,183	-78,381	0,029	-0,007
-172,169	20,015	0,055	-0,032
-171,154	-200,000	-0,016	-0,183
-170,139	-200,000	0,000	0,054
-169,125	-200,000	-0,002	0,081
-168,110	800,000	0,014	0,030
-167,096	302,336	-0,060	-0,080
-166,081	218,098	0,037	-0,043
-165,066	-200,000	-0,033	-0,110
-164,052	737,913	-0,090	0,174
-163,037	84,294	-0,066	0,052
-162,023	-85,449	0,054	-0,012
-161,008	-200,000	-0,010	0,165
-159,993	367,198	0,038	0,055
-158,979	33,591	-0,074	0,046
-157,964	-133,203	0,074	-0,007
-156,950	-200,000	-0,008	-0,044
-155,935	-81,024	-0,025	-0,006
-154,920	800,000	-0,025	0,060
-153,906	12,676	0,030	-0,017
-152,891	-200,000	-0,037	0,164
-151,877	-200,000	-0,025	0,081
-150,862	-86,844	-0,121	-0,026
-149,847	373,499	0,075	-0,110
-148,833	568,283	-0,068	0,120
-147,818	15,820	-0,094	0,053
-146,804	-200,000	0,013	0,042
-145,789	-80,615	-0,141	0,034
-144,775	-200,000	-0,014	-0,075
-143,760	-200,000	-0,024	-0,100
-142,745	201,043	0,027	-0,030
-141,731	800,000	-0,067	0,152
-140,716	-200,000	-0,039	0,127
-139,702	44,304	0,022	0,014
-138,687	-95,495	-0,035	0,007
-137,672	-13,568	-0,148	0,069
-136,658	-50,710	-0,100	0,034
-135,643	-25,842	-0,054	-0,023
-134,629	16,043	-0,068	-0,039
-133,614	800,000	0,019	0,052
-132,599	305,308	0,064	-0,086
-131,585	501,017	-0,057	-0,095
-130,570	800,000	-0,088	-0,193
-129,556	-54,484	0,100	0,033
-128,541	170,932	0,048	-0,050
-127,526	278,027	-0,036	-0,047
-126,512	11,124	0,058	0,032
-125,497	-53,093	-0,055	-0,018
-124,483	6,443	0,174	0,093
-123,468	296,885	0,075	0,100
-122,453	73,818	0,049	-0,037
-121,439	418,003	-0,072	-0,111
-120,424	151,967	0,104	-0,102
-119,410	-200,000	0,002	-0,041
-118,395	703,907	-0,041	-0,078
