DTS Sentinel unit serial number:	SN410029Multiplexer serial number:	ORYXHardware model number:	OX2-SRSoftware version number:	ORYX F/W v4,00 Oryx Data Collector v3.7.2.0data status	okinstallation	B5 Nyhavnadifferential loss correction	single-endedforward channel	channel 2reverse channel	N/Adate	2023/12/13time	17:12:13forward acquisition time	300,00reverse acquisition time	0,00gamma	499,1914k internal	0,3159k external	0,3159temperature offset calibration	1,0000default loss term (dB/km)	0,3820temperature slope calibration	1,0000multiplexer offset coefficient	1,0000multiplexer slope coefficient	1,0000fibre end	0,00T internal ref (°C)	14,09T ext. ref 1 (°C)	-3,27T ext. ref 2 (°C)	-3,36length (m)	temperature (°C)	Stokes	anti-Stokes-744,400	83,321	0,029	0,023
-743,385	-146,662	-0,364	0,023
-742,371	567,804	0,060	0,107
-741,356	-117,860	-0,376	0,049
-740,342	203,461	0,147	0,168
-739,327	28,662	-0,256	-0,159
-738,312	-109,585	0,064	-0,010
-737,298	-154,056	-0,410	0,020
-736,283	-40,290	0,104	0,040
-735,269	29,770	-0,130	0,082
-734,254	746,565	0,013	0,026
-733,239	14,145	-0,542	-0,310
-732,225	-116,954	0,221	-0,029
-731,210	702,588	0,057	-0,110
-730,196	-200,000	0,027	-0,089
-729,181	224,800	-0,037	-0,045
-728,167	-200,000	0,036	-0,126
-727,152	-200,000	-0,005	-0,036
-726,137	-200,000	-0,002	-0,037
-725,123	800,000	-0,031	0,080
-724,108	-200,000	-0,009	-0,176
-723,094	136,154	-0,136	-0,131
-722,079	4,056	0,128	0,069
-721,064	-30,663	-0,028	-0,012
-720,050	69,793	-0,099	-0,075
-719,035	800,000	-0,051	-0,133
-718,021	319,877	0,041	-0,057
-717,006	144,749	0,059	-0,058
-715,991	608,819	-0,061	-0,113
-714,977	-52,196	-0,085	-0,029
-713,962	28,896	-0,137	-0,085
-712,948	-32,939	0,100	0,041
-711,933	800,000	-0,020	-0,054
-710,918	-18,308	-0,032	-0,015
-709,904	274,570	-0,046	-0,061
-708,889	-200,000	0,006	-0,139
-707,875	295,269	-0,070	-0,095
-706,860	150,381	-0,015	-0,015
-705,845	-200,000	0,026	-0,125
-704,831	324,215	-0,106	0,149
-703,816	-50,783	0,024	0,008
-702,802	182,941	-0,085	-0,093
-701,787	-107,476	-0,043	-0,007
-700,772	378,232	0,125	-0,189
-699,758	800,000	-0,020	-0,044
-698,743	-118,371	0,106	-0,014
-697,729	134,394	-0,091	-0,086
-696,714	94,451	0,108	0,090
-695,699	233,111	-0,071	-0,086
-694,685	-173,470	0,133	0,003
-693,670	250,620	-0,022	-0,027
-692,656	-95,006	-0,040	0,008
-691,641	296,947	0,018	-0,025
-690,627	663,989	0,048	0,092
-689,612	4,602	-0,081	-0,043
-688,597	-126,466	0,089	0,010
-687,583	-200,000	-0,009	-0,173
-686,568	-200,000	-0,009	-0,175
-685,554	-64,885	-0,084	-0,025
-684,539	-200,000	-0,014	0,094
-683,524	90,266	0,108	-0,089
-682,510	205,452	-0,061	0,070
-681,495	162,616	-0,029	0,030
-680,481	-102,754	-0,078	-0,014
-679,466	-107,004	-0,068	0,011
-678,451	284,942	-0,030	-0,040
-677,437	312,314	-0,069	-0,095
-676,422	800,000	-0,008	0,018
-675,408	-200,000	-0,004	-0,015
-674,393	800,000	-0,018	0,046
-673,378	-30,882	0,117	-0,048
-672,364	-12,575	-0,201	-0,096
-671,349	-152,973	-0,084	0,004
-670,335	-200,000	0,022	-0,095
-669,320	62,926	0,066	0,048
-668,305	182,379	0,051	-0,055
-667,291	-23,687	-0,047	0,021
-666,276	135,653	-0,092	-0,088
-665,262	70,930	0,030	-0,023
-664,247	-83,919	0,068	0,016
-663,232	258,925	-0,026	0,033
-662,218	800,000	-0,029	0,067
-661,203	-155,871	0,043	0,002
-660,189	374,871	-0,032	0,049
-659,174	-200,000	-0,007	0,064
-658,159	77,434	-0,044	-0,034
-657,145	-200,000	0,002	-0,009
-656,130	-200,000	-0,002	-0,032
-655,116	800,000	-0,043	0,135
-654,101	-200,000	-0,033	0,171
-653,086	-200,000	0,001	-0,112
-652,072	800,000	-0,025	-0,060
-651,057	800,000	-0,033	-0,074
-650,043	158,136	0,054	-0,055
-649,028	-49,817	-0,141	0,049
-648,014	-200,000	-0,018	0,087
-646,999	-22,031	0,069	0,031
-645,984	-68,993	-0,060	-0,017
-644,970	558,683	-0,031	0,055
-643,955	-23,948	-0,124	-0,054
-642,941	-78,558	0,146	0,036
-641,926	-200,000	-0,009	0,049
-640,911	800,000	0,013	0,027
-639,897	471,265	0,029	0,047
-638,882	-108,413	0,045	-0,007
-637,868	-200,000	-0,013	-0,101
-636,853	800,000	-0,021	-0,043
-635,838	289,982	-0,075	0,100
-634,824	469,105	0,028	-0,047
-633,809	239,061	-0,037	-0,045
-632,795	800,000	-0,037	0,089
-631,780	228,656	0,025	-0,030
-630,765	800,000	-0,038	0,108
-629,751	67,555	-0,030	0,023
-628,736	111,593	-0,086	-0,076
-627,722	-71,456	0,059	-0,016
-626,707	-98,507	-0,145	-0,027
-625,692	96,881	0,032	-0,027
-624,678	-23,282	-0,033	0,014
-623,663	-129,125	-0,056	-0,006
-622,649	-85,462	-0,074	-0,017
-621,634	50,206	-0,141	-0,098
-620,619	-112,513	-0,134	-0,019
-619,605	800,000	0,016	0,044
-618,590	-48,255	0,190	-0,067
-617,576	93,544	0,092	-0,076
-616,561	-200,000	0,032	-0,113
-615,546	-104,091	0,045	0,008
-614,532	123,869	-0,138	0,127
-613,517	25,529	0,117	0,071
-612,503	-200,000	-0,019	0,091
-611,488	498,251	-0,050	0,084
-610,474	55,750	0,155	0,110
-609,459	-200,000	0,021	0,077
-608,444	-82,028	-0,141	-0,033
-607,430	8,076	-0,028	0,015
-606,415	-40,499	-0,109	-0,041
-605,401	-200,000	0,005	-0,063
-604,386	-58,755	0,085	-0,027
-603,371	23,673	-0,126	0,076
-602,357	-200,000	0,028	0,146
-601,342	220,521	-0,078	-0,092
-600,328	4,750	-0,069	-0,037
-599,313	409,229	0,026	-0,040
-598,298	800,000	-0,025	0,078
-597,284	800,000	0,036	-0,089
-596,269	284,612	0,064	0,084
-595,255	-154,944	0,139	-0,007
-594,240	-32,492	0,044	0,018
-593,225	118,066	0,032	0,029
-592,211	63,083	-0,032	-0,024
-591,196	-120,181	-0,143	0,018
-590,182	84,940	0,028	-0,022
-589,167	-128,268	-0,056	0,006
-588,152	-118,862	-0,090	0,011
-587,138	-97,412	-0,092	0,017
-586,123	31,678	-0,133	-0,084
-585,109	188,127	-0,037	0,040
-584,094	532,525	0,061	-0,105
-583,079	466,144	0,016	-0,026
-582,065	-200,000	-0,013	-0,047
-581,050	-71,838	-0,023	0,006
-580,036	-200,000	0,001	0,028
-579,021	-135,999	-0,044	-0,004
-578,006	0,891	-0,092	-0,048
-576,992	800,000	0,048	-0,105
-575,977	-200,000	0,016	0,073
-574,963	93,985	0,037	0,031
-573,948	-200,000	0,046	0,220
-572,934	-53,350	-0,069	-0,023
-571,919	-47,994	0,026	0,009
-570,904	-124,683	-0,105	-0,012
-569,890	660,427	-0,090	-0,171
-568,875	-0,566	-0,068	-0,035
-567,861	-8,290	-0,052	-0,025
-566,846	137,716	-0,080	0,077
-565,831	168,186	-0,067	-0,070
-564,817	-200,000	-0,022	-0,150
-563,802	-200,000	0,004	0,025
-562,788	-200,000	0,017	0,064
-561,773	342,751	-0,102	0,146
-560,758	-61,532	0,111	0,034
-559,744	-179,124	0,024	0,000
-558,729	-88,900	0,039	-0,008
-557,715	-51,933	-0,115	-0,039
-556,700	130,187	0,068	-0,063
-555,685	-140,336	0,095	-0,007
-554,671	108,937	0,073	-0,064
-553,656	-200,000	0,001	0,036
-552,642	800,000	-0,010	0,020
-551,627	283,582	0,107	-0,140
-550,612	-53,694	-0,074	-0,025
-549,598	134,006	-0,042	-0,040
-548,583	-200,000	0,015	-0,115
-547,569	431,651	-0,050	-0,079
-546,554	-52,048	-0,144	-0,049
-545,539	800,000	0,010	0,021
-544,525	546,387	-0,033	0,058
-543,510	154,372	-0,114	-0,114
-542,496	-200,000	0,019	0,079
-541,481	-117,860	-0,104	0,013
-540,466	-200,000	0,011	-0,059
-539,452	-200,000	0,102	0,000
-538,437	376,349	0,045	-0,067
-537,423	-200,000	0,016	-0,054
-536,408	-200,000	0,002	0,012
-535,393	-200,000	-0,033	-0,151
-534,379	23,417	-0,030	-0,018
-533,364	800,000	0,031	-0,093
-532,350	631,021	-0,022	-0,040
-531,335	138,437	0,039	0,038
-530,321	-42,842	0,074	0,028
-529,306	-200,000	-0,001	0,083
-528,291	273,883	-0,069	0,090
-527,277	306,621	0,052	-0,071
-526,262	-200,000	0,011	0,037
-525,248	800,000	0,071	-0,167
-524,233	-200,000	-0,007	0,047
-523,218	-200,000	0,021	-0,131
-522,204	48,560	0,059	0,041
-521,189	-200,000	0,002	-0,060
-520,175	-25,242	-0,141	-0,061
-519,160	-200,000	-0,010	-0,129
-518,145	-166,400	-0,105	-0,003
-517,131	-200,000	0,025	0,102
-516,116	57,986	0,103	0,073
-515,102	800,000	0,029	0,083
-514,087	308,918	-0,112	-0,153
-513,072	-200,000	-0,023	-0,222
-512,058	-200,000	0,015	0,067
-511,043	459,195	0,019	-0,031
-510,029	20,044	-0,102	0,060
-509,014	261,184	-0,016	-0,020
-507,999	-200,000	-0,006	-0,024
-506,985	-2,251	0,080	0,041
-505,970	227,914	-0,058	0,069
-504,956	262,699	-0,023	-0,029
-503,941	-47,848	-0,163	0,057
-502,926	-135,057	-0,152	-0,013
-501,912	57,046	0,057	-0,041
-500,897	-200,000	0,018	-0,121
-499,883	-193,608	0,049	0,000
-498,868	74,403	-0,131	-0,100
-497,853	232,040	-0,038	-0,045
-496,839	89,532	0,071	-0,058
-495,824	800,000	-0,064	-0,160
-494,810	420,240	0,094	0,148
-493,795	-99,914	0,049	0,009
-492,781	107,741	-0,053	-0,046
-491,766	106,420	0,054	0,046
-490,751	-159,834	-0,097	0,004
-489,737	-200,000	-0,006	0,084
-488,722	-112,561	-0,081	0,012
-487,708	-132,098	0,063	-0,006
-486,693	154,463	-0,073	-0,073
-485,678	800,000	-0,018	-0,055
-484,664	800,000	-0,030	-0,084
-483,649	-121,224	-0,037	0,004
-482,635	76,037	-0,034	0,026
-481,620	219,641	0,058	-0,067
-480,605	572,546	-0,025	0,044
-479,591	101,831	0,022	0,018
-478,576	800,000	0,019	-0,040
-477,562	-200,000	0,004	-0,031
-476,547	354,294	0,019	-0,027
-475,532	-200,000	0,007	0,072
-474,518	463,758	-0,044	-0,071
-473,503	28,347	-0,108	0,066
-472,489	135,774	0,023	0,022
-471,474	-116,275	0,106	0,014
-470,459	-9,688	0,021	0,010
-469,445	63,091	0,016	0,012
-468,430	313,801	-0,033	-0,045
-467,416	800,000	-0,029	0,070
-466,401	800,000	0,034	-0,078
-465,386	405,279	-0,092	-0,142
-464,372	41,873	0,142	0,094
-463,357	-200,000	-0,035	-0,119
-462,343	-200,000	0,026	-0,090
-461,328	-171,134	0,050	-0,001
-460,313	-16,035	-0,135	-0,062
-459,299	115,916	0,078	-0,070
-458,284	-200,000	0,047	0,161
-457,270	346,494	0,073	0,104
-456,255	800,000	-0,062	-0,166
-455,241	-68,476	-0,090	0,025
-454,226	-70,163	-0,096	-0,026
-453,211	800,000	-0,041	-0,094
-452,197	28,046	0,119	0,073
-451,182	743,133	0,040	0,079
-450,168	105,890	0,099	0,085
-449,153	-77,081	-0,096	-0,024
-448,138	-200,000	0,006	-0,043
-447,124	54,239	0,020	-0,014
-446,109	-25,157	0,069	0,030
-445,095	354,232	-0,049	0,071
-444,080	42,707	-0,034	0,023
-443,065	-200,000	-0,017	-0,065
-442,051	350,298	0,025	-0,037
-441,036	800,000	0,061	-0,125
-440,022	-200,000	-0,003	-0,021
-439,007	20,783	-0,057	-0,033
-437,992	-153,218	0,092	-0,005
-436,978	800,000	0,014	0,028
-435,963	613,399	-0,039	-0,072
-434,949	-200,000	-0,003	0,022
-433,934	227,982	0,043	0,051
-432,919	260,474	-0,058	0,074
-431,905	26,944	0,117	-0,071
-430,890	0,036	-0,083	0,043
-429,876	-90,110	0,014	-0,003
-428,861	9,183	-0,022	-0,012
-427,846	-22,459	0,136	0,060
-426,832	-21,912	0,032	0,014
-425,817	-200,000	0,004	0,099
-424,803	800,000	-0,023	-0,071
-423,788	297,527	0,033	-0,044
-422,773	111,678	0,109	0,096
-421,759	-29,533	0,176	-0,073
-420,744	81,459	-0,069	0,055
-419,730	-200,000	0,020	-0,129
-418,715	-157,640	0,116	0,005
-417,701	-200,000	0,034	-0,151
-416,686	-124,452	0,080	-0,009
-415,671	-36,086	0,114	0,045
-414,657	311,940	0,066	0,090
-413,642	-200,000	0,026	0,140
-412,628	800,000	-0,049	-0,106
-411,613	800,000	0,023	-0,053
-410,598	88,957	-0,038	-0,031
-409,584	99,764	0,035	0,030
-408,569	298,850	0,071	-0,095
-407,555	114,995	0,023	0,020
-406,540	51,409	-0,025	0,017
-405,525	158,914	0,041	0,042
-404,511	-142,765	-0,024	-0,002
-403,496	-200,000	-0,001	0,059
-402,482	16,210	0,075	-0,043
-401,467	-84,615	0,041	-0,009
-400,452	49,954	-0,089	0,061
-399,438	-57,427	0,096	-0,031
-398,423	111,775	-0,081	-0,071
-397,409	389,471	0,027	0,040
-396,394	-4,239	-0,042	-0,021
-395,379	545,108	0,076	0,133
-394,365	800,000	0,062	0,165
-393,350	-50,852	0,036	-0,012
-392,336	184,587	0,019	0,021
-391,321	-200,000	0,012	-0,138
-390,306	-43,923	-0,180	-0,065
-389,292	298,394	-0,033	-0,045
-388,277	135,964	-0,053	-0,050
-387,263	-200,000	-0,007	0,060
-386,248	-200,000	-0,001	-0,017
-385,233	750,279	0,021	0,041
-384,219	-39,510	-0,064	-0,024
-383,204	224,867	-0,066	0,078
-382,190	36,116	0,070	0,044
-381,175	-200,000	-0,010	-0,083
-380,160	177,135	-0,037	-0,039
-379,146	800,000	0,010	0,030
-378,131	800,000	0,041	0,099
-377,117	-71,684	-0,084	0,023
-376,102	531,415	-0,032	-0,055
-375,088	-200,000	0,012	-0,174
-374,073	176,877	0,025	-0,027
-373,058	-200,000	0,037	0,135
-372,044	211,099	-0,108	-0,124
-371,029	-23,963	-0,042	0,018
-370,015	90,780	0,036	-0,029
-369,000	800,000	0,018	-0,050
-367,985	800,000	-0,011	-0,030
-366,971	264,665	-0,018	0,023
-365,956	-26,156	-0,042	-0,018
-364,942	-76,968	0,123	0,031
-363,927	342,102	0,063	-0,090
-362,912	32,858	0,089	0,056
-361,898	-78,244	0,062	0,015
-360,883	-200,000	0,014	-0,134
-359,869	-37,553	-0,053	-0,020
-358,854	23,925	-0,047	0,028
-357,839	-21,444	0,051	0,022
-356,825	-200,000	0,007	0,094
-355,810	369,592	0,085	-0,125
-354,796	-24,429	-0,093	0,040
-353,781	800,000	-0,008	-0,020
-352,766	67,393	0,116	0,086
-351,752	605,165	0,073	0,132
-350,737	-179,132	-0,071	0,001
-349,723	532,507	-0,016	0,027
-348,708	-58,023	0,011	-0,003
-347,693	-200,000	0,013	-0,121
-346,679	25,545	-0,154	0,093
-345,664	-200,000	-0,018	-0,066
-344,650	-200,000	0,011	-0,063
-343,635	-200,000	0,017	0,087
-342,620	310,291	0,048	0,066
-341,606	800,000	0,027	0,080
-340,591	107,172	0,050	-0,043
-339,577	800,000	-0,046	-0,094
-338,562	-102,218	-0,084	0,015
-337,548	261,069	0,031	-0,039
-336,533	230,819	0,037	0,044
-335,518	50,341	-0,035	-0,024
-334,504	236,389	-0,031	0,038
-333,489	-200,000	0,009	-0,137
-332,475	-200,000	0,002	0,020
-331,460	302,949	-0,030	-0,040
-330,445	800,000	0,036	0,079
-329,431	48,624	0,153	0,104
-328,416	-54,064	0,045	0,015
-327,402	479,613	0,038	0,063
-326,387	284,118	-0,056	0,073
-325,372	212,349	0,120	-0,138
-324,358	12,968	0,025	0,014
-323,343	800,000	-0,014	-0,039
-322,329	-88,822	-0,169	-0,036
-321,314	-128,065	-0,103	0,011
-320,299	334,549	0,076	-0,107
-319,285	-200,000	0,017	0,209
-318,270	59,204	-0,056	0,040
-317,256	-200,000	-0,022	-0,161
-316,241	-200,000	-0,036	0,126
-315,226	-200,000	0,017	-0,099
-314,212	-64,209	0,130	-0,038
-313,197	-32,531	0,130	0,052
-312,183	169,544	-0,101	0,104
-311,168	-44,673	-0,104	0,038
-310,153	-22,650	-0,125	-0,054
-309,139	-200,000	-0,000	0,177
-308,124	800,000	0,046	-0,125
-307,110	133,367	0,087	0,082
-306,095	-96,211	0,126	0,024
-305,080	-200,000	-0,007	0,092
-304,066	-200,000	0,007	-0,103
-303,051	777,312	-0,050	-0,099
-302,037	-141,846	-0,054	0,004
-301,022	-38,631	0,041	0,016
-300,008	800,000	0,111	0,263
-298,993	800,000	0,027	0,062
-297,978	-15,281	-0,077	0,035
-296,964	-149,142	0,047	0,003
-295,949	102,811	0,044	-0,037
-294,935	-59,652	0,057	0,018
-293,920	-200,000	0,000	-0,034
-292,905	782,663	0,032	-0,065
-291,891	-92,270	0,104	-0,021
-290,876	215,394	-0,092	-0,106
-289,862	-107,626	0,166	0,026
-288,847	-200,000	0,023	-0,138
-287,832	-33,216	0,069	0,028
-286,818	-200,000	0,003	-0,032
-285,803	-29,774	0,093	-0,038
-284,789	800,000	0,028	0,071
-283,774	-116,500	0,121	0,016
-282,759	281,024	0,006	0,008
-281,745	-96,759	0,043	-0,008
-280,730	-200,000	-0,009	0,127
-279,716	126,068	-0,068	0,062
-278,701	800,000	0,057	0,155
-277,686	360,932	-0,068	-0,098
-276,672	335,242	0,066	0,092
-275,657	-13,981	0,033	-0,015
-274,643	-200,000	0,016	-0,112
-273,628	800,000	-0,053	-0,120
-272,613	303,985	-0,022	0,030
-271,599	-130,295	0,116	0,011
-270,584	758,051	-0,044	0,086
-269,570	539,124	0,076	0,131
-268,555	-200,000	-0,014	-0,050
-267,540	-73,241	-0,192	-0,051
-266,526	-82,784	0,054	-0,012
-265,511	-115,437	-0,197	-0,027
-264,497	664,158	-0,009	-0,017
-263,482	-90,244	-0,060	0,013
-262,467	414,518	0,100	0,154
-261,453	349,370	-0,047	0,068
-260,438	-200,000	0,026	-0,124
-259,424	324,103	-0,076	-0,105
-258,409	16,411	-0,027	-0,015
-257,395	-200,000	-0,025	0,115
-256,380	484,340	0,032	0,053
-255,365	-120,694	0,133	0,016
-254,351	264,345	0,025	0,032
-253,336	-1,460	-0,092	0,047
-252,322	-200,000	0,013	-0,115
-251,307	-11,977	-0,048	-0,023
-250,292	150,326	0,089	0,088
-249,278	-160,660	-0,139	0,005
-248,263	158,277	0,032	0,033
-247,249	225,276	0,149	0,174
-246,234	-88,319	0,081	-0,017
-245,219	330,909	-0,022	-0,030
-244,205	800,000	0,042	-0,085
-243,190	-200,000	0,008	0,075
-242,176	207,305	-0,054	-0,060
-241,161	166,976	0,129	0,132
-240,146	5,888	-0,046	0,024
-239,132	9,983	-0,074	0,041
-238,117	392,861	0,037	-0,056
-237,103	6,686	-0,099	0,053
-236,088	-90,889	0,068	-0,014
-235,073	-122,363	0,064	-0,008
-234,059	-128,744	-0,040	-0,004
-233,044	-200,000	0,011	-0,125
-232,030	189,435	0,107	0,116
-231,015	-200,000	0,004	0,063
-230,000	668,747	-0,019	0,036
-228,986	-87,490	-0,165	-0,036
-227,971	-113,581	-0,084	-0,012
-226,957	-27,428	0,031	0,013
-225,942	449,159	-0,057	0,091
-224,927	800,000	-0,007	0,019
-223,913	221,952	-0,060	0,070
-222,898	-33,202	-0,050	0,020
-221,884	-200,000	0,016	-0,057
-220,869	59,470	0,010	0,007
-219,855	-5,332	0,107	0,053
-218,840	-200,000	0,032	0,110
-217,825	141,250	-0,052	0,050
-216,811	528,395	0,065	0,111
-215,796	189,449	-0,086	0,093
-214,782	215,472	0,068	0,078
-213,767	-7,560	0,097	0,047
-212,752	-200,000	-0,006	-0,055
-211,738	195,118	-0,053	0,058
-210,723	68,626	0,077	-0,057
-209,709	28,029	-0,114	-0,069
-208,694	-67,482	-0,071	-0,020
-207,679	47,542	0,061	0,041
-206,665	136,962	-0,149	0,141
-205,650	-51,883	0,077	-0,026
-204,636	108,513	0,014	-0,012
-203,621	-116,226	0,079	-0,010
-202,606	689,361	-0,021	0,040
-201,592	437,840	-0,042	-0,067
-200,577	634,626	-0,024	0,044
-199,563	-74,073	0,083	-0,022
-198,548	-76,319	0,049	-0,012
-197,533	800,000	-0,006	0,016
-196,519	-71,174	0,078	-0,021
-195,504	800,000	-0,010	0,023
-194,490	636,189	0,035	-0,064
-193,475	40,050	0,112	0,072
-192,460	-110,512	0,084	-0,012
-191,446	-55,830	-0,161	-0,051
-190,431	426,679	0,049	0,076
-189,417	124,487	-0,051	-0,047
-188,402	-102,684	-0,036	-0,006
-187,387	-114,124	0,108	0,015
-186,373	-165,036	-0,077	0,002
-185,358	800,000	0,042	-0,102
-184,344	800,000	0,051	-0,123
-183,329	-132,678	0,033	0,003
-182,315	469,798	-0,044	0,071
-181,300	-11,157	-0,122	-0,058
-180,285	-78,462	-0,071	0,017
-179,271	-18,367	0,052	-0,023
-178,256	-121,572	0,042	-0,005
-177,242	341,124	-0,141	0,200
-176,227	-34,222	0,077	0,031
-175,212	-110,443	0,048	-0,007
-174,198	-90,944	-0,116	-0,024
-173,183	800,000	-0,051	0,128
-172,169	48,960	-0,036	-0,024
-171,154	249,189	0,086	0,106
-170,139	-200,000	0,024	-0,089
-169,125	248,430	0,088	0,107
-168,110	129,561	-0,052	-0,048
-167,096	-33,686	-0,100	-0,040
-166,081	-32,861	-0,086	-0,034
-165,066	12,778	0,046	0,025
-164,052	-200,000	-0,016	0,053
-163,037	108,107	0,085	-0,073
-162,023	104,050	-0,062	0,053
-161,008	-53,306	0,090	0,030
-159,993	353,735	0,024	0,035
-158,979	556,551	-0,014	0,024
-157,964	92,593	0,192	-0,156
-156,950	-200,000	0,007	0,023
-155,935	-45,850	-0,051	0,018
-154,920	800,000	0,041	0,087
-153,906	374,324	-0,046	0,067
-152,891	84,743	0,136	-0,107
-151,877	26,778	-0,077	0,047
-150,862	800,000	-0,019	0,059
-149,847	1,988	-0,168	0,087
-148,833	93,279	0,083	-0,068
-147,818	-200,000	-0,016	-0,073
-146,804	473,463	-0,002	-0,003
-145,789	-142,117	-0,054	0,004
-144,775	-142,980	-0,105	0,007
-143,760	-119,348	-0,165	0,020
-142,745	-124,235	0,109	-0,012
-141,731	-74,390	0,040	0,010
-140,716	800,000	0,053	0,108
-139,702	800,000	-0,020	0,043
-138,687	-127,953	0,158	-0,016
-137,672	170,779	-0,076	0,078
-136,658	202,333	0,046	-0,051
-135,643	44,031	-0,063	-0,041
-134,629	-88,857	-0,193	0,041
-133,614	-54,419	0,114	0,037
-132,599	-122,250	0,029	-0,003
-131,585	77,676	-0,068	-0,052
-130,570	-200,000	0,014	-0,081
-129,556	-109,602	-0,140	-0,021
-128,541	-200,000	0,016	0,110
-127,526	123,223	-0,063	0,057
-126,512	-104,276	-0,047	0,008
-125,497	303,329	0,078	0,104
-124,483	800,000	-0,026	0,058
-123,468	84,691	-0,065	-0,051
-122,453	-200,000	0,020	-0,066
-121,439	-74,944	-0,056	-0,014
-120,424	-8,519	0,170	0,082
-119,410	297,582	-0,032	0,042
