DTS Sentinel unit serial number:	SN410029Multiplexer serial number:	ORYXHardware model number:	OX2-SRSoftware version number:	ORYX F/W v4,00 Oryx Data Collector v3.7.2.0data status	okinstallation	B5 Nyhavnadifferential loss correction	single-endedforward channel	channel 2reverse channel	N/Adate	2023/12/13time	08:22:13forward acquisition time	300,00reverse acquisition time	0,00gamma	499,1914k internal	0,3160k external	0,3160temperature offset calibration	1,0000default loss term (dB/km)	0,3820temperature slope calibration	1,0000multiplexer offset coefficient	1,0000multiplexer slope coefficient	1,0000fibre end	0,00T internal ref (°C)	13,63T ext. ref 1 (°C)	-2,74T ext. ref 2 (°C)	-3,07length (m)	temperature (°C)	Stokes	anti-Stokes-744,400	-131,387	0,265	-0,025
-743,385	-120,951	-0,280	0,034
-742,371	-59,254	0,202	0,064
-741,356	-79,620	-0,296	0,073
-740,342	-80,752	0,174	0,042
-739,327	-124,580	-0,193	-0,022
-738,312	-105,551	0,204	-0,034
-737,298	-47,313	-0,150	-0,054
-736,283	382,423	0,082	-0,124
-735,269	-149,248	-0,391	-0,023
-734,254	-200,000	-0,002	-0,062
-733,239	-50,241	-0,517	-0,179
-732,225	-85,906	0,222	0,050
-731,210	124,770	0,028	-0,026
-730,196	-125,138	-0,101	-0,011
-729,181	301,007	-0,092	-0,126
-728,167	-7,315	0,085	0,042
-727,152	-61,387	-0,083	-0,025
-726,137	158,746	-0,036	-0,037
-725,123	22,557	0,058	0,035
-724,108	-56,393	-0,192	-0,062
-723,094	76,226	-0,177	-0,138
-722,079	-200,000	0,018	-0,179
-721,064	167,659	0,020	0,021
-720,050	-1,192	0,065	-0,034
-719,035	-12,961	-0,112	-0,053
-718,021	-11,673	0,052	-0,025
-717,006	92,467	-0,092	-0,076
-715,991	-11,254	-0,177	-0,086
-714,977	800,000	0,046	-0,111
-713,962	32,926	-0,095	0,061
-712,948	-200,000	0,006	0,076
-711,933	-200,000	0,018	-0,148
-710,918	227,171	-0,114	-0,137
-709,904	-200,000	0,001	-0,201
-708,889	271,795	-0,039	-0,051
-707,875	542,377	-0,060	-0,106
-706,860	290,837	0,070	-0,094
-705,845	800,000	-0,003	0,007
-704,831	-200,000	0,017	0,121
-703,816	-200,000	-0,022	0,076
-702,802	-118,708	0,066	0,008
-701,787	112,658	-0,087	-0,077
-700,772	-76,129	0,028	-0,007
-699,758	-69,899	0,218	0,061
-698,743	33,230	0,126	0,080
-697,729	-85,494	0,052	-0,012
-696,714	-27,199	0,111	-0,047
-695,699	575,960	0,041	-0,074
-694,685	-164,673	-0,124	0,004
-693,670	74,900	-0,088	-0,068
-692,656	-200,000	0,023	-0,100
-691,641	163,398	0,105	-0,108
-690,627	-200,000	-0,029	-0,100
-689,612	420,830	-0,092	-0,145
-688,597	-155,387	-0,119	0,006
-687,583	102,912	-0,037	0,032
-686,568	-167,241	0,073	-0,002
-685,554	154,203	0,042	-0,043
-684,539	106,049	0,045	-0,039
-683,524	-30,506	-0,156	0,065
-682,510	800,000	0,038	0,114
-681,495	7,417	-0,102	-0,056
-680,481	-57,709	-0,100	-0,032
-679,466	-11,964	-0,109	-0,052
-678,451	-7,158	0,236	-0,117
-677,437	-50,497	-0,099	-0,034
-676,422	-53,435	-0,040	-0,013
-675,408	-200,000	-0,020	0,137
-674,393	-19,964	-0,063	0,029
-673,378	-200,000	0,014	-0,104
-672,364	-92,744	-0,102	0,021
-671,349	-68,234	0,043	-0,012
-670,335	800,000	0,019	-0,041
-669,320	-30,281	0,019	0,008
-668,305	-200,000	0,008	0,093
-667,291	-151,375	0,189	0,010
-666,276	-200,000	0,012	0,050
-665,262	-200,000	-0,019	-0,116
-664,247	-200,000	0,009	-0,114
-663,232	225,594	-0,035	-0,041
-662,218	206,079	0,100	0,115
-661,203	457,664	0,029	0,048
-660,189	-134,099	0,050	0,004
-659,174	-200,000	-0,003	-0,111
-658,159	-37,099	0,093	-0,036
-657,145	517,069	-0,027	-0,047
-656,130	48,709	0,109	-0,075
-655,116	-200,000	0,029	0,150
-654,101	73,948	0,058	-0,045
-653,086	64,213	-0,082	-0,060
-652,072	91,414	-0,044	-0,036
-651,057	274,997	-0,068	0,089
-650,043	79,906	-0,163	-0,129
-649,028	-147,296	0,111	0,007
-648,014	-192,340	-0,058	-0,000
-646,999	8,619	-0,039	-0,021
-645,984	-139,165	-0,132	0,010
-644,970	556,033	-0,033	0,059
-643,955	54,632	-0,120	-0,085
-642,941	-77,633	-0,077	0,019
-641,926	-200,000	0,015	-0,063
-640,911	40,155	-0,035	0,023
-639,897	15,792	0,135	-0,077
-638,882	-200,000	0,008	-0,080
-637,868	238,907	-0,037	-0,045
-636,853	-14,885	-0,046	0,021
-635,838	385,217	-0,042	-0,063
-634,824	-200,000	0,000	-0,139
-633,809	-67,519	-0,029	-0,008
-632,795	448,492	-0,031	-0,050
-631,780	-132,469	-0,068	0,006
-630,765	361,010	0,008	-0,012
-629,751	283,827	0,022	-0,028
-628,736	195,674	-0,123	0,137
-627,722	22,995	-0,069	-0,041
-626,707	33,780	-0,071	0,045
-625,692	-200,000	-0,009	-0,069
-624,678	-22,886	-0,056	0,025
-623,663	-73,420	-0,074	0,020
-622,649	-126,547	-0,095	-0,010
-621,634	-200,000	0,017	0,101
-620,619	153,360	0,115	-0,115
-619,605	46,562	-0,173	-0,117
-618,590	-200,000	0,002	-0,065
-617,576	334,166	0,066	-0,094
-616,561	-192,729	0,104	0,001
-615,546	62,736	0,076	0,056
-614,532	313,310	0,032	-0,044
-613,517	357,913	-0,120	-0,176
-612,503	58,507	-0,031	0,022
-611,488	9,964	0,082	0,045
-610,474	-32,384	-0,107	0,044
-609,459	-146,457	-0,057	0,004
-608,444	-200,000	0,050	0,000
-607,430	31,154	-0,030	-0,019
-606,415	800,000	0,028	-0,064
-605,401	558,889	0,117	0,207
-604,386	-200,000	-0,002	0,093
-603,371	98,766	-0,092	0,077
-602,357	-121,941	-0,105	0,013
-601,342	800,000	-0,024	-0,060
-600,328	111,546	0,095	-0,084
-599,313	380,201	0,072	-0,108
-598,298	54,916	0,049	0,034
-597,284	100,607	0,064	0,055
-596,269	-200,000	0,004	-0,076
-595,255	365,092	0,027	-0,039
-594,240	268,550	-0,088	-0,113
-593,225	-129,566	-0,201	0,020
-592,211	188,287	-0,105	-0,115
-591,196	-55,851	-0,067	0,022
-590,182	-39,206	0,113	0,043
-589,167	793,501	0,089	0,179
-588,152	49,343	-0,002	-0,001
-587,138	800,000	-0,006	0,018
-586,123	149,688	0,127	-0,126
-585,109	-107,708	-0,116	-0,018
-584,094	218,090	-0,060	-0,070
-583,079	-91,006	-0,137	-0,029
-582,065	-200,000	0,015	0,078
-581,050	800,000	0,058	0,139
-580,036	381,126	-0,036	0,055
-579,021	10,663	0,045	-0,025
-578,006	-83,130	-0,118	0,028
-576,992	-200,000	0,009	0,059
-575,977	-200,000	-0,053	-0,188
-574,963	-200,000	0,006	-0,065
-573,948	800,000	-0,008	0,021
-572,934	-73,703	-0,056	-0,015
-571,919	297,594	0,079	-0,106
-570,904	568,180	0,025	-0,044
-569,890	230,973	0,004	0,005
-568,875	407,040	0,067	0,104
-567,861	-89,323	0,092	0,020
-566,846	-88,959	-0,083	0,018
-565,831	163,075	0,102	0,105
-564,817	238,928	0,063	0,076
-563,802	193,523	-0,059	0,066
-562,788	211,302	-0,057	0,066
-561,773	800,000	0,058	0,168
-560,758	-121,226	0,167	-0,020
-559,744	79,985	-0,023	0,018
-558,729	7,678	-0,050	-0,027
-557,715	772,662	-0,025	-0,050
-556,700	-200,000	-0,010	-0,054
-555,685	800,000	0,009	-0,029
-554,671	178,114	0,020	0,022
-553,656	38,769	0,007	-0,005
-552,642	-8,666	0,033	0,016
-551,627	-45,105	-0,063	0,023
-550,612	-200,000	0,005	-0,079
-549,598	-28,999	-0,105	0,044
-548,583	143,346	-0,065	-0,064
-547,569	71,099	0,079	0,060
-546,554	-124,114	0,185	0,021
-545,539	200,089	-0,087	-0,098
-544,525	800,000	-0,040	0,118
-543,510	481,654	0,062	-0,104
-542,496	-72,384	-0,060	0,016
-541,481	-200,000	-0,024	-0,093
-540,466	479,831	-0,046	0,076
-539,452	-200,000	-0,001	-0,131
-538,437	9,152	-0,092	-0,051
-537,423	414,311	0,043	0,067
-536,408	800,000	-0,050	-0,118
-535,393	800,000	-0,002	-0,004
-534,379	123,361	-0,094	0,086
-533,364	122,786	0,058	0,053
-532,350	800,000	0,048	0,099
-531,335	-200,000	-0,032	0,191
-530,321	487,056	-0,012	-0,021
-529,306	487,596	-0,037	0,062
-528,291	800,000	0,045	0,130
-527,277	31,674	-0,147	0,092
-526,262	-171,116	0,114	-0,003
-525,248	413,634	0,035	0,055
-524,233	383,383	0,058	0,088
-523,218	-15,776	0,029	0,013
-522,204	-165,746	-0,086	-0,003
-521,189	-200,000	0,001	0,133
-520,175	74,889	-0,063	-0,048
-519,160	800,000	0,045	-0,113
-518,145	-102,159	-0,098	-0,017
-517,131	32,007	0,013	0,008
-516,116	-147,922	-0,030	-0,002
-515,102	-60,059	-0,131	-0,041
-514,087	-63,928	-0,056	-0,016
-513,072	-2,266	-0,084	-0,043
-512,058	-23,817	-0,088	-0,038
-511,043	202,852	0,089	0,101
-510,029	800,000	0,013	-0,034
-509,014	372,921	-0,085	0,127
-507,999	-200,000	0,006	-0,117
-506,985	-200,000	0,011	-0,066
-505,970	-200,000	-0,011	0,127
-504,956	800,000	0,036	-0,082
-503,941	800,000	-0,044	-0,121
-502,926	681,894	-0,028	0,054
-501,912	-98,768	0,067	0,012
-500,897	-90,150	0,153	0,032
-499,883	-38,927	0,047	0,018
-498,868	64,200	0,067	-0,049
-497,853	-45,689	0,074	0,027
-496,839	800,000	0,014	0,045
-495,824	-114,829	0,201	-0,028
-494,810	-21,719	-0,094	0,042
-493,795	149,973	0,085	-0,085
-492,781	-200,000	0,013	0,089
-491,766	29,244	-0,078	-0,048
-490,751	-29,484	0,091	-0,038
-489,737	-200,000	0,011	0,050
-488,722	-200,000	-0,001	0,020
-487,708	-74,953	-0,085	0,022
-486,693	-200,000	0,027	-0,137
-485,678	800,000	0,024	-0,056
-484,664	324,588	-0,028	-0,040
-483,649	-61,712	0,090	0,027
-482,635	-33,015	-0,076	-0,031
-481,620	643,017	-0,059	0,110
-480,605	-124,665	0,153	0,017
-479,591	-48,473	0,093	0,033
-478,576	410,262	0,018	0,029
-477,562	800,000	0,066	-0,151
-476,547	800,000	-0,074	-0,163
-475,532	497,723	-0,075	0,127
-474,518	-127,947	-0,070	-0,007
-473,503	-126,022	-0,061	-0,007
-472,489	1,587	-0,039	-0,020
-471,474	-60,372	-0,104	-0,032
-470,459	-87,657	-0,058	0,013
-469,445	-135,558	0,041	-0,004
-468,430	800,000	-0,019	-0,039
-467,416	208,015	-0,109	-0,125
-466,401	258,323	0,071	0,089
-465,386	-200,000	0,006	-0,045
-464,372	800,000	0,027	-0,082
-463,357	-200,000	-0,018	-0,140
-462,343	-47,266	-0,097	-0,034
-461,328	-1,889	-0,098	-0,050
-460,313	800,000	0,032	-0,068
-459,299	-124,081	-0,120	-0,014
-458,284	95,697	0,029	0,024
-457,270	-200,000	0,004	0,044
-456,255	237,848	0,071	-0,086
-455,241	-200,000	-0,003	-0,136
-454,226	800,000	-0,026	0,081
-453,211	-200,000	-0,020	-0,064
-452,197	2,851	0,141	0,074
-451,182	-200,000	0,029	0,122
-450,168	-132,668	0,036	0,003
-449,153	-5,662	-0,103	0,051
-448,138	-200,000	-0,028	-0,091
-447,124	566,156	-0,022	-0,039
-446,109	800,000	0,041	-0,088
-445,095	221,034	0,134	-0,157
-444,080	-19,238	-0,024	-0,011
-443,065	86,461	0,127	-0,102
-442,051	182,459	0,078	0,084
-441,036	-53,482	-0,042	0,014
-440,022	153,632	-0,122	-0,122
-439,007	-200,000	-0,004	0,056
-437,992	800,000	0,020	-0,061
-436,978	-200,000	-0,009	-0,058
-435,963	-200,000	0,012	-0,084
-434,949	800,000	-0,050	0,129
-433,934	-200,000	0,020	0,127
-432,919	180,598	0,051	-0,055
-431,905	-34,978	-0,082	0,032
-430,890	-200,000	0,018	-0,096
-429,876	-122,230	0,025	-0,003
-428,861	79,277	0,074	-0,058
-427,846	800,000	0,039	0,098
-426,832	272,563	0,055	-0,071
-425,817	-135,421	-0,129	-0,011
-424,803	32,559	0,055	0,035
-423,788	-73,331	-0,038	-0,010
-422,773	93,041	0,050	-0,041
-421,759	58,055	-0,033	-0,024
-420,744	45,254	0,197	-0,132
-419,730	79,639	-0,094	-0,074
-418,715	-200,000	0,005	-0,030
-417,701	-200,000	0,005	0,062
-416,686	-15,839	-0,076	-0,035
-415,671	-200,000	0,024	0,087
-414,657	-200,000	-0,022	0,076
-413,642	800,000	-0,022	0,051
-412,628	800,000	0,010	0,029
-411,613	-87,844	-0,025	-0,005
-410,598	-93,144	0,134	0,027
-409,584	273,150	-0,072	-0,093
-408,569	-147,257	0,102	0,006
-407,555	-200,000	0,003	-0,086
-406,540	15,906	-0,052	-0,029
-405,525	112,385	0,121	0,106
-404,511	800,000	0,062	-0,135
-403,496	-200,000	-0,006	0,038
-402,482	-174,616	-0,077	0,002
-401,467	-200,000	0,017	-0,166
-400,452	-200,000	0,015	-0,142
-399,438	-200,000	0,013	-0,043
-398,423	121,270	0,047	0,042
-397,409	-73,636	-0,151	0,040
-396,394	55,467	0,068	-0,048
-395,379	23,751	0,061	-0,036
-394,365	-200,000	0,018	-0,060
-393,350	-105,386	0,099	0,016
-392,336	-200,000	0,015	0,103
-391,321	800,000	0,026	-0,069
-390,306	-40,748	-0,092	0,035
-389,292	118,667	0,132	-0,118
-388,277	-101,671	-0,040	0,007
-387,263	-106,332	0,089	0,014
-386,248	-140,124	-0,077	-0,006
-385,233	-200,000	-0,000	0,058
-384,219	-66,255	-0,094	0,027
-383,204	-25,366	-0,151	0,064
-382,190	9,741	-0,090	0,049
-381,175	-78,644	0,053	-0,013
-380,160	800,000	0,027	-0,072
-379,146	308,322	-0,072	-0,098
-378,131	-167,939	0,114	0,003
-377,117	-48,641	-0,118	-0,041
-376,102	-126,016	0,065	-0,007
-375,088	-200,000	0,030	-0,147
-374,073	22,264	-0,056	-0,033
-373,058	-200,000	0,022	0,074
-372,044	-200,000	0,004	0,037
-371,029	17,777	-0,038	0,022
-370,015	-200,000	-0,021	-0,105
-369,000	-200,000	0,006	-0,022
-367,985	-200,000	-0,030	-0,156
-366,971	-7,302	0,097	0,047
-365,956	350,336	0,111	0,160
-364,942	-78,487	0,081	0,020
-363,927	-200,000	0,021	0,068
-362,912	101,059	0,017	0,015
-361,898	532,524	0,048	0,082
-360,883	307,770	-0,035	0,048
-359,869	-200,000	0,012	0,084
-358,854	-200,000	0,008	0,082
-357,839	-65,620	0,070	-0,020
-356,825	-93,617	0,141	0,028
-355,810	7,922	-0,102	0,055
-354,796	-200,000	-0,025	-0,103
-353,781	-80,485	-0,126	-0,030
-352,766	-66,992	0,114	-0,032
-351,752	800,000	-0,077	0,202
-350,737	156,445	0,060	0,060
-349,723	800,000	-0,043	0,113
-348,708	-200,000	-0,019	0,105
-347,693	800,000	0,041	-0,126
-346,679	-77,543	0,146	-0,036
-345,664	-200,000	-0,008	-0,121
-344,650	15,162	0,056	0,032
-343,635	-200,000	0,032	0,145
-342,620	800,000	-0,051	0,122
-341,606	-93,501	-0,052	0,010
-340,591	297,461	0,013	0,017
-339,577	800,000	0,028	-0,062
-338,562	800,000	-0,034	-0,073
-337,548	-26,481	-0,128	0,054
-336,533	-162,798	0,123	-0,004
-335,518	800,000	0,057	0,132
-334,504	193,258	-0,040	0,044
-333,489	800,000	0,069	0,154
-332,475	181,754	0,010	-0,011
-331,460	-121,294	-0,094	-0,011
-330,445	50,803	-0,078	0,054
-329,431	-79,050	0,084	-0,020
-328,416	-200,000	0,035	0,161
-327,402	293,605	0,082	0,109
-326,387	89,196	-0,085	0,069
-325,372	-200,000	0,005	-0,045
-324,358	-111,365	-0,122	-0,018
-323,343	-175,336	0,113	0,002
-322,329	38,145	0,131	0,084
-321,314	-72,868	0,054	0,014
-320,299	-63,903	-0,044	0,013
-319,285	-6,076	-0,107	0,053
-318,270	-48,880	-0,134	0,046
-317,256	-200,000	0,011	-0,106
-316,241	-154,712	0,047	-0,002
-315,226	-117,417	-0,085	-0,011
-314,212	300,422	-0,030	-0,041
-313,197	285,619	0,053	0,069
-312,183	227,074	0,050	0,058
-311,168	-159,008	0,068	0,003
-310,153	687,483	0,044	0,084
-309,139	-58,552	-0,090	-0,028
-308,124	-152,214	0,045	0,002
-307,110	-35,549	0,079	0,031
-306,095	800,000	-0,051	0,132
-305,080	124,995	-0,057	0,052
-304,066	160,700	-0,067	0,068
-303,051	726,781	-0,077	-0,150
-302,037	182,232	0,062	0,066
-301,022	-172,890	0,116	-0,003
-300,008	118,861	0,080	0,071
-298,993	28,485	0,039	0,024
-297,978	213,020	0,114	-0,130
-296,964	-200,000	0,013	0,116
-295,949	21,296	-0,102	-0,060
-294,935	-125,987	0,050	-0,005
-293,920	-200,000	0,074	0,000
-292,905	-79,559	-0,163	-0,039
-291,891	-87,917	0,047	-0,010
-290,876	405,271	-0,041	-0,063
-289,862	-136,512	-0,088	0,007
-288,847	216,687	-0,088	-0,102
-287,832	-200,000	0,016	-0,164
-286,818	656,985	-0,052	0,098
-285,803	800,000	-0,034	-0,081
-284,789	-200,000	-0,012	-0,066
-283,774	-167,411	-0,060	-0,002
-282,759	-200,000	-0,020	0,095
-281,745	-127,945	-0,082	-0,008
-280,730	150,488	0,031	-0,031
-279,716	327,708	-0,061	0,085
-278,701	-94,190	0,079	0,016
-277,686	-56,519	0,050	0,016
-276,672	-50,397	0,093	-0,031
-275,657	800,000	0,004	-0,010
-274,643	-150,537	-0,075	-0,004
-273,628	231,842	-0,053	-0,062
-272,613	-115,697	0,103	0,014
-271,599	-200,000	0,048	0,169
-270,584	156,839	0,130	-0,130
-269,570	234,914	-0,085	-0,102
-268,555	-200,000	-0,004	0,030
-267,540	800,000	-0,032	0,070
-266,526	-82,130	-0,068	0,016
-265,511	-111,139	-0,029	-0,004
-264,497	-81,949	0,091	0,021
-263,482	-200,000	-0,021	0,068
-262,467	433,627	0,062	0,098
-261,453	-128,565	-0,142	-0,014
-260,438	237,701	0,082	-0,098
-259,424	-27,505	0,056	0,023
-258,409	-200,000	-0,014	0,065
-257,395	800,000	-0,037	-0,075
-256,380	-19,752	0,032	-0,014
-255,365	800,000	-0,028	0,056
-254,351	780,481	0,036	-0,071
-253,336	20,225	0,043	-0,025
-252,322	800,000	-0,029	-0,082
-251,307	800,000	-0,060	-0,137
-250,292	104,727	0,036	0,030
-249,278	-200,000	-0,021	-0,074
-248,263	800,000	0,033	0,072
-247,249	800,000	-0,066	-0,139
-246,234	-200,000	0,009	0,085
-245,219	800,000	0,023	0,060
-244,205	800,000	0,031	-0,076
-243,190	7,666	0,126	0,068
-242,176	186,860	-0,062	0,067
-241,161	-91,121	-0,081	0,017
-240,146	-200,000	0,016	-0,089
-239,132	-200,000	-0,008	0,045
-238,117	541,468	0,080	0,138
-237,103	-131,152	-0,125	-0,012
-236,088	237,227	-0,061	0,073
-235,073	-200,000	-0,000	-0,019
-234,059	800,000	-0,049	0,145
-233,044	-200,000	-0,025	0,165
-232,030	214,137	-0,045	0,052
-231,015	-200,000	0,004	-0,018
-230,000	126,284	-0,128	0,117
-228,986	-145,717	-0,061	-0,004
-227,971	522,346	-0,044	0,075
-226,957	187,371	0,047	0,051
-225,942	-44,478	-0,080	-0,029
-224,927	800,000	0,028	0,087
-223,913	-200,000	0,023	-0,140
-222,898	60,573	0,041	0,030
-221,884	800,000	0,007	-0,015
-220,869	-111,617	0,072	-0,010
-219,855	334,342	0,082	0,115
-218,840	-200,000	-0,040	0,137
-217,825	-113,316	0,132	-0,019
-216,811	56,291	-0,023	-0,016
-215,796	-200,000	-0,005	-0,085
-214,782	55,728	0,110	-0,077
-213,767	55,856	0,036	-0,025
-212,752	-85,981	0,148	0,033
-211,738	33,660	0,022	0,014
-210,723	579,351	0,042	-0,075
-209,709	44,323	-0,034	-0,023
-208,694	-51,810	-0,108	0,036
-207,679	82,539	0,098	0,077
-206,665	738,561	-0,037	-0,073
-205,650	-200,000	0,009	0,110
-204,636	-61,436	0,100	-0,030
-203,621	-188,402	-0,118	-0,001
-202,606	800,000	0,022	0,058
-201,592	-200,000	0,025	-0,115
-200,577	-55,754	-0,126	-0,040
-199,563	800,000	0,064	-0,139
-198,548	65,797	0,129	0,094
-197,533	-37,780	0,052	0,020
-196,519	317,664	-0,048	-0,066
-195,504	-30,822	-0,119	-0,048
-194,490	179,476	0,007	-0,007
-193,475	800,000	0,010	-0,024
-192,460	-56,315	-0,080	-0,025
-191,446	119,242	0,063	0,056
-190,431	13,166	0,110	0,061
-189,417	-34,333	-0,007	-0,003
-188,402	294,164	0,070	-0,092
-187,387	103,861	0,037	-0,031
-186,373	-200,000	-0,010	-0,098
-185,358	52,087	0,066	-0,045
-184,344	-200,000	0,001	-0,035
-183,329	1,278	-0,064	0,033
-182,315	83,464	0,101	0,080
-181,300	800,000	0,043	0,087
-180,285	-200,000	0,003	-0,021
-179,271	-65,939	0,111	-0,032
-178,256	551,516	-0,048	0,084
-177,242	-200,000	-0,011	0,108
-176,227	111,614	-0,163	0,141
-175,212	800,000	0,057	0,124
-174,198	800,000	-0,027	-0,071
-173,183	-61,619	-0,169	0,051
-172,169	-200,000	-0,010	-0,214
-171,154	-129,047	0,032	-0,003
-170,139	-68,266	0,066	0,018
-169,125	-200,000	0,012	-0,115
-168,110	124,560	-0,029	-0,026
-167,096	-91,924	-0,075	0,015
-166,081	-200,000	0,021	-0,096
-165,066	-16,146	0,056	0,026
-164,052	115,332	0,096	-0,085
-163,037	-17,561	-0,214	-0,097
-162,023	-18,202	-0,025	0,011
-161,008	79,902	0,137	0,106
-159,993	216,517	0,041	0,047
-158,979	244,281	0,058	-0,071
-157,964	-200,000	0,000	0,014
-156,950	-106,750	0,077	-0,012
-155,935	27,109	0,098	0,059
-154,920	127,260	-0,060	0,055
-153,906	-200,000	0,023	0,103
-152,891	62,212	0,060	0,043
-151,877	595,448	0,060	-0,107
-150,862	785,872	0,044	0,086
-149,847	-24,310	0,061	0,026
-148,833	350,973	-0,038	0,054
-147,818	105,832	-0,076	0,065
-146,804	67,190	0,089	0,065
-145,789	800,000	-0,009	0,024
-144,775	53,892	0,049	0,034
-143,760	800,000	0,021	0,061
-142,745	-200,000	-0,022	0,088
-141,731	99,199	-0,018	0,015
-140,716	800,000	-0,060	0,131
-139,702	800,000	-0,012	0,028
-138,687	-200,000	0,027	-0,087
-137,672	-200,000	0,004	-0,042
-136,658	2,792	0,054	0,028
-135,643	97,440	-0,111	-0,091
-134,629	-78,365	-0,169	-0,041
-133,614	471,632	0,086	0,139
-132,599	-17,744	0,055	0,025
-131,585	152,266	0,084	0,083
-130,570	159,274	0,084	0,084
-129,556	143,318	-0,084	0,080
-128,541	-200,000	-0,031	-0,196
-127,526	800,000	-0,009	-0,023
-126,512	27,501	0,151	-0,091
-125,497	-200,000	0,029	-0,172
-124,483	271,509	0,085	-0,108
-123,468	297,602	0,036	0,048
-122,453	201,257	-0,078	0,087
-121,439	17,880	0,146	0,083
-120,424	621,307	0,061	-0,112
-119,410	79,575	0,039	0,030
-118,395	-200,000	0,040	0,151
