DTS Sentinel unit serial number:	SN410029Multiplexer serial number:	ORYXHardware model number:	OX2-SRSoftware version number:	ORYX F/W v4,00 Oryx Data Collector v3.7.2.0data status	okinstallation	B5 Nyhavnadifferential loss correction	single-endedforward channel	channel 2reverse channel	N/Adate	2023/12/12time	06:12:13forward acquisition time	300,00reverse acquisition time	0,00gamma	499,1914k internal	0,3157k external	0,3157temperature offset calibration	1,0000default loss term (dB/km)	0,3820temperature slope calibration	1,0000multiplexer offset coefficient	1,0000multiplexer slope coefficient	1,0000fibre end	0,00T internal ref (°C)	15,27T ext. ref 1 (°C)	-1,13T ext. ref 2 (°C)	-1,42length (m)	temperature (°C)	Stokes	anti-Stokes-744,400	-22,656	0,033	0,014
-743,385	-87,076	-0,241	-0,054
-742,371	-200,000	0,017	-0,061
-741,356	-157,203	-0,250	0,011
-740,342	-88,844	0,107	-0,023
-739,327	-159,525	-0,244	0,010
-738,312	-56,390	0,199	-0,065
-737,298	-64,384	-0,371	-0,111
-736,283	274,355	0,020	0,027
-735,269	-118,226	-0,238	0,031
-734,254	194,231	0,041	0,046
-733,239	-115,552	-0,500	-0,069
-732,225	-82,314	0,195	0,046
-731,210	201,387	-0,061	0,069
-730,196	409,924	0,036	-0,057
-729,181	-57,338	0,008	0,003
-728,167	-43,386	-0,049	0,018
-727,152	800,000	-0,042	0,115
-726,137	-200,000	-0,005	-0,065
-725,123	393,286	-0,048	0,074
-724,108	-83,889	-0,088	0,020
-723,094	-200,000	0,010	0,079
-722,079	-47,707	-0,123	-0,044
-721,064	16,942	-0,035	-0,020
-720,050	58,167	0,075	0,054
-719,035	-8,428	0,062	0,031
-718,021	107,666	0,044	0,039
-717,006	114,864	-0,049	0,044
-715,991	72,242	-0,177	-0,136
-714,977	-200,000	0,004	-0,197
-713,962	-78,486	-0,119	-0,030
-712,948	-200,000	-0,030	0,117
-711,933	-129,447	-0,088	-0,009
-710,918	-31,977	-0,126	0,052
-709,904	-125,391	-0,034	-0,004
-708,889	-200,000	0,007	-0,052
-707,875	18,295	0,024	-0,014
-706,860	-124,456	0,193	0,022
-705,845	-55,657	-0,118	0,039
-704,831	40,575	-0,057	0,038
-703,816	800,000	-0,023	-0,065
-702,802	-164,777	-0,053	0,002
-701,787	44,642	-0,070	-0,047
-700,772	-200,000	0,038	-0,201
-699,758	530,909	0,039	-0,068
-698,743	-200,000	0,018	0,069
-697,729	110,920	0,040	-0,035
-696,714	800,000	0,054	0,157
-695,699	434,988	-0,066	-0,106
-694,685	-200,000	0,021	-0,070
-693,670	208,686	-0,064	0,073
-692,656	-200,000	0,010	0,039
-691,641	596,447	-0,072	0,132
-690,627	-82,090	0,082	-0,019
-689,612	448,170	0,014	0,023
-688,597	-72,729	0,054	-0,015
-687,583	227,096	-0,111	-0,133
-686,568	93,030	-0,065	0,054
-685,554	-200,000	-0,009	-0,083
-684,539	800,000	0,055	0,138
-683,524	800,000	0,009	-0,022
-682,510	-4,078	0,088	-0,045
-681,495	293,453	-0,036	-0,049
-680,481	392,546	-0,028	-0,043
-679,466	131,121	-0,083	-0,078
-678,451	800,000	0,022	-0,064
-677,437	487,271	0,050	-0,083
-676,422	-200,000	-0,002	0,008
-675,408	-107,500	0,034	0,005
-674,393	208,472	0,075	0,086
-673,378	151,756	-0,063	-0,064
-672,364	-148,609	0,106	-0,006
-671,349	800,000	0,029	0,086
-670,335	58,727	-0,071	0,051
-669,320	377,864	-0,075	0,113
-668,305	-200,000	0,062	0,226
-667,291	5,820	-0,139	-0,075
-666,276	-200,000	0,002	0,026
-665,262	-200,000	0,004	0,019
-664,247	0,216	-0,096	-0,050
-663,232	392,039	0,035	-0,054
-662,218	800,000	0,031	-0,066
-661,203	238,559	-0,039	-0,048
-660,189	-200,000	0,016	0,113
-659,174	-13,027	0,079	0,038
-658,159	800,000	-0,072	-0,150
-657,145	-200,000	-0,018	-0,124
-656,130	401,536	0,026	-0,040
-655,116	-200,000	-0,028	0,188
-654,101	-200,000	0,004	0,068
-653,086	800,000	-0,019	0,056
-652,072	583,690	-0,051	0,092
-651,057	-200,000	-0,024	-0,113
-650,043	454,172	-0,066	-0,108
-649,028	800,000	0,049	0,124
-648,014	-200,000	0,027	-0,094
-646,999	-200,000	0,006	0,088
-645,984	-28,403	-0,110	0,046
-644,970	-131,813	-0,115	0,011
-643,955	-130,756	-0,113	0,011
-642,941	-173,880	-0,126	0,003
-641,926	-200,000	0,016	0,090
-640,911	-6,913	0,101	-0,050
-639,897	-40,510	-0,032	0,012
-638,882	800,000	-0,037	0,102
-637,868	36,836	-0,050	-0,033
-636,853	586,692	-0,049	-0,088
-635,838	36,878	-0,074	-0,048
-634,824	-200,000	-0,007	-0,089
-633,809	-200,000	0,043	-0,157
-632,795	-142,238	-0,076	-0,005
-631,780	275,938	0,074	0,096
-630,765	800,000	-0,006	-0,020
-629,751	152,517	-0,110	-0,110
-628,736	117,498	-0,095	-0,086
-627,722	586,774	0,062	-0,113
-626,707	169,581	-0,081	0,085
-625,692	-128,073	0,210	-0,022
-624,678	190,657	0,007	-0,008
-623,663	800,000	-0,052	-0,123
-622,649	-200,000	0,005	-0,113
-621,634	89,181	-0,042	-0,035
-620,619	267,366	0,020	-0,026
-619,605	718,676	0,017	0,033
-618,590	-200,000	0,011	0,047
-617,576	-31,241	0,137	0,057
-616,561	-200,000	0,008	-0,099
-615,546	-71,505	-0,153	-0,042
-614,532	85,811	0,055	-0,045
-613,517	126,040	0,021	-0,019
-612,503	-53,264	-0,149	-0,050
-611,488	800,000	-0,028	0,060
-610,474	-96,312	-0,059	-0,011
-609,459	1,058	-0,111	-0,058
-608,444	255,282	0,072	-0,091
-607,430	800,000	0,011	0,027
-606,415	433,642	-0,058	-0,092
-605,401	-12,714	-0,097	-0,046
-604,386	5,702	0,060	0,032
-603,371	-200,000	-0,021	-0,090
-602,357	-200,000	-0,030	-0,146
-601,342	800,000	0,022	-0,069
-600,328	800,000	-0,008	-0,019
-599,313	-97,839	0,142	-0,027
-598,298	-64,971	0,042	-0,012
-597,284	800,000	0,091	0,256
-596,269	366,758	-0,076	0,113
-595,255	-178,499	-0,177	-0,003
-594,240	16,906	0,076	-0,044
-593,225	198,524	-0,094	-0,106
-592,211	-192,769	-0,129	0,001
-591,196	-33,806	0,115	0,046
-590,182	-200,000	0,019	0,199
-589,167	-37,734	0,094	0,036
-588,152	-200,000	0,002	0,014
-587,138	800,000	-0,089	0,182
-586,123	337,692	0,024	-0,034
-585,109	-200,000	-0,002	-0,095
-584,094	-200,000	-0,012	-0,051
-583,079	-200,000	0,019	-0,143
-582,065	-48,682	-0,043	0,015
-581,050	-87,932	0,111	0,024
-580,036	-1,617	0,081	-0,042
-579,021	-198,136	-0,100	0,000
-578,006	450,061	0,025	-0,040
-576,992	468,756	0,058	0,096
-575,977	-200,000	-0,009	-0,110
-574,963	-31,986	-0,138	-0,056
-573,948	-200,000	-0,014	0,083
-572,934	401,650	0,049	0,075
-571,919	66,410	-0,036	-0,027
-570,904	141,106	0,105	-0,102
-569,890	-121,544	-0,108	-0,013
-568,875	13,457	0,091	0,052
-567,861	-24,982	0,162	0,070
-566,846	173,580	0,041	0,043
-565,831	-136,700	-0,090	-0,007
-564,817	800,000	-0,052	-0,112
-563,802	-50,415	0,055	0,019
-562,788	37,306	-0,106	0,068
-561,773	800,000	-0,010	0,021
-560,758	152,338	0,027	-0,027
-559,744	55,378	-0,136	-0,096
-558,729	-20,668	-0,023	-0,010
-557,715	264,299	-0,009	-0,012
-556,700	90,896	-0,104	-0,085
-555,685	-200,000	0,009	0,031
-554,671	213,843	0,070	0,081
-553,656	-10,386	0,055	0,027
-552,642	-15,997	0,117	0,054
-551,627	-17,049	-0,061	-0,028
-550,612	514,525	-0,048	0,082
-549,598	36,132	-0,059	-0,038
-548,583	217,800	0,024	-0,028
-547,569	143,797	-0,043	0,042
-546,554	218,835	0,074	-0,087
-545,539	-200,000	0,016	-0,114
-544,525	-62,030	-0,059	0,018
-543,510	-48,230	0,085	0,030
-542,496	-66,909	-0,137	-0,039
-541,481	767,641	0,029	0,058
-540,466	97,340	0,085	-0,071
-539,452	423,073	0,044	-0,069
-538,437	568,399	-0,061	0,109
-537,423	-27,932	0,043	-0,018
-536,408	-76,726	-0,154	-0,039
-535,393	800,000	-0,032	0,075
-534,379	603,110	-0,067	-0,122
-533,364	5,866	-0,120	0,065
-532,350	-200,000	0,007	-0,043
-531,335	49,782	0,133	0,091
-530,321	800,000	-0,016	0,044
-529,306	24,357	0,048	-0,029
-528,291	-30,301	-0,022	0,009
-527,277	-200,000	-0,021	-0,097
-526,262	-200,000	0,010	0,040
-525,248	-200,000	-0,001	0,024
-524,233	0,846	-0,103	0,054
-523,218	800,000	-0,035	0,096
-522,204	800,000	0,046	0,099
-521,189	23,034	-0,096	0,058
-520,175	-6,952	-0,016	-0,008
-519,160	116,165	0,021	0,019
-518,145	-200,000	-0,009	0,075
-517,131	-70,376	0,061	0,017
-516,116	-200,000	-0,003	0,035
-515,102	-142,582	-0,167	0,012
-514,087	800,000	-0,019	-0,045
-513,072	-200,000	0,008	0,080
-512,058	-153,270	0,074	-0,004
-511,043	-200,000	-0,001	-0,045
-510,029	800,000	-0,059	0,131
-509,014	593,611	0,060	-0,109
-507,999	-45,926	-0,165	-0,059
-506,985	-99,904	-0,106	-0,019
-505,970	800,000	0,015	0,031
-504,956	-200,000	-0,009	-0,157
-503,941	-122,560	-0,100	-0,012
-502,926	515,206	0,053	0,091
-501,912	800,000	-0,005	-0,015
-500,897	-200,000	0,005	-0,100
-499,883	7,410	0,089	-0,049
-498,868	800,000	0,025	-0,051
-497,853	407,404	0,023	-0,036
-496,839	365,045	0,090	-0,133
-495,824	-200,000	0,006	0,061
-494,810	46,090	0,068	-0,046
-493,795	-130,786	0,118	0,011
-492,781	71,500	-0,060	0,045
-491,766	7,632	-0,192	-0,105
-490,751	38,488	0,062	-0,040
-489,737	-103,213	0,012	-0,002
-488,722	169,693	0,077	0,080
-487,708	800,000	-0,039	-0,114
-486,693	-130,900	-0,104	-0,010
-485,678	615,054	-0,057	-0,104
-484,664	49,596	-0,221	-0,152
-483,649	-32,705	-0,100	0,041
-482,635	22,702	0,112	-0,067
-481,620	62,730	0,028	0,021
-480,605	-200,000	-0,008	0,127
-479,591	-200,000	0,016	0,146
-478,576	800,000	-0,022	0,048
-477,562	-200,000	0,009	0,158
-476,547	-200,000	-0,002	0,042
-475,532	-72,829	0,096	0,026
-474,518	-200,000	-0,001	0,024
-473,503	800,000	-0,028	0,073
-472,489	-33,766	0,076	-0,031
-471,474	350,772	-0,065	0,095
-470,459	685,912	0,042	-0,081
-469,445	-200,000	-0,016	-0,156
-468,430	-200,000	0,000	-0,008
-467,416	-97,600	0,107	0,020
-466,401	-158,785	0,079	0,003
-465,386	-86,672	0,190	0,042
-464,372	721,135	-0,028	0,055
-463,357	-7,931	0,088	-0,043
-462,343	188,570	-0,024	0,026
-461,328	800,000	0,022	0,047
-460,313	274,513	0,079	0,103
-459,299	191,669	-0,052	-0,057
-458,284	-12,744	0,075	0,036
-457,270	-200,000	0,007	0,051
-456,255	33,088	0,017	-0,011
-455,241	-200,000	-0,003	0,045
-454,226	800,000	0,010	-0,026
-453,211	-71,689	0,149	0,040
-452,197	-200,000	0,019	0,093
-451,182	4,563	0,075	0,040
-450,168	201,951	0,013	-0,014
-449,153	161,099	-0,068	-0,069
-448,138	-48,491	0,044	0,015
-447,124	12,449	-0,111	-0,062
-446,109	-200,000	-0,007	0,045
-445,095	340,389	0,039	0,055
-444,080	133,561	-0,056	-0,052
-443,065	800,000	-0,055	0,116
-442,051	500,005	-0,030	-0,051
-441,036	-200,000	-0,000	-0,082
-440,022	800,000	0,008	0,018
-439,007	-200,000	0,005	-0,081
-437,992	-200,000	0,015	-0,066
-436,978	-200,000	0,001	0,095
-435,963	800,000	-0,060	0,169
-434,949	-6,822	0,055	0,027
-433,934	144,074	0,036	-0,035
-432,919	250,443	0,066	-0,082
-431,905	144,689	-0,094	0,092
-430,890	800,000	0,053	0,143
-429,876	600,134	0,117	0,213
-428,861	-50,532	-0,047	0,016
-427,846	-166,143	0,081	0,002
-426,832	-107,840	-0,040	0,006
-425,817	-200,000	0,018	0,063
-424,803	374,343	0,047	-0,071
-423,788	-155,673	-0,078	-0,004
-422,773	-200,000	0,022	0,084
-421,759	341,628	0,027	0,039
-420,744	-200,000	0,024	-0,080
-419,730	173,556	-0,045	-0,048
-418,715	126,734	-0,064	-0,059
-417,701	-39,787	-0,004	-0,002
-416,686	490,814	-0,046	-0,077
-415,671	126,396	0,004	-0,004
-414,657	337,975	0,046	0,066
-413,642	163,227	-0,053	-0,054
-412,628	-50,942	-0,097	0,033
-411,613	144,358	0,055	-0,054
-410,598	132,366	-0,084	-0,078
-409,584	-81,779	0,171	-0,041
-408,569	623,720	0,035	0,065
-407,555	105,671	-0,070	0,060
-406,540	326,223	0,036	0,050
-405,525	202,298	0,034	-0,039
-404,511	-200,000	0,015	-0,152
-403,496	-57,239	-0,117	0,037
-402,482	-27,579	-0,034	-0,014
-401,467	-66,265	-0,065	-0,019
-400,452	312,145	0,048	-0,066
-399,438	-200,000	-0,006	-0,063
-398,423	-200,000	0,027	-0,122
-397,409	800,000	0,004	-0,012
-396,394	-78,254	-0,056	-0,014
-395,379	-120,970	-0,077	-0,009
-394,365	-147,163	-0,106	-0,006
-393,350	242,273	-0,064	-0,078
-392,336	-145,637	0,106	-0,007
-391,321	25,814	-0,058	-0,035
-390,306	254,858	-0,032	0,040
-389,292	-200,000	0,035	-0,120
-388,277	-70,278	0,196	-0,054
-387,263	2,257	-0,098	-0,052
-386,248	355,009	-0,009	-0,013
-385,233	-128,725	0,175	0,018
-384,219	-101,816	-0,057	-0,010
-383,204	-16,442	-0,084	-0,038
-382,190	800,000	-0,028	0,082
-381,175	-200,000	-0,000	-0,030
-380,160	-89,291	-0,025	0,005
-379,146	800,000	-0,037	0,086
-378,131	100,749	-0,069	0,058
-377,117	720,497	-0,023	0,044
-376,102	-62,291	0,055	0,017
-375,088	-200,000	0,016	-0,101
-374,073	147,188	-0,051	0,049
-373,058	-200,000	0,030	0,120
-372,044	-42,800	0,041	0,015
-371,029	-200,000	0,001	-0,017
-370,015	580,493	-0,028	-0,051
-369,000	-200,000	-0,021	-0,127
-367,985	26,282	0,134	-0,081
-366,971	-33,967	-0,097	0,039
-365,956	122,407	0,096	0,087
-364,942	-200,000	-0,051	0,212
-363,927	800,000	0,029	0,067
-362,912	-98,539	-0,163	0,030
-361,898	-23,924	-0,090	-0,039
-360,883	135,253	0,081	-0,076
-359,869	60,354	-0,059	-0,042
-358,854	-157,771	0,035	0,001
-357,839	-200,000	0,028	-0,103
-356,825	-9,672	-0,088	0,042
-355,810	2,288	0,067	-0,035
-354,796	313,771	0,048	-0,066
-353,781	-79,641	-0,169	0,041
-352,766	-22,374	-0,075	0,033
-351,752	-13,486	0,060	0,028
-350,737	266,660	0,016	0,020
-349,723	-200,000	-0,009	-0,056
-348,708	53,644	-0,115	0,080
-347,693	-8,049	-0,075	0,037
-346,679	-35,681	-0,110	0,043
-345,664	-200,000	-0,032	-0,111
-344,650	82,013	0,062	-0,049
-343,635	-200,000	0,035	0,151
-342,620	228,003	0,160	0,189
-341,606	8,500	0,181	0,099
-340,591	-200,000	0,018	-0,096
-339,577	-116,723	-0,079	0,010
-338,562	800,000	0,015	-0,045
-337,548	143,286	0,045	-0,043
-336,533	-82,957	0,081	0,019
-335,518	-40,525	0,041	0,015
-334,504	-62,489	-0,048	0,014
-333,489	800,000	0,010	-0,029
-332,475	554,933	0,005	-0,008
-331,460	-17,162	0,092	0,042
-330,445	800,000	-0,042	-0,127
-329,431	-5,187	0,107	0,053
-328,416	307,495	0,060	0,081
-327,402	321,186	0,088	0,122
-326,387	-200,000	-0,023	-0,109
-325,372	-200,000	-0,008	-0,044
-324,358	-200,000	0,005	0,029
-323,343	-30,703	-0,134	0,055
-322,329	-36,039	0,035	0,014
-321,314	49,166	0,068	0,046
-320,299	422,942	-0,019	-0,030
-319,285	-103,909	0,086	-0,014
-318,270	800,000	-0,024	-0,074
-317,256	-29,792	-0,019	-0,008
-316,241	-200,000	-0,008	0,039
-315,226	387,610	0,038	-0,057
-314,212	-26,817	0,039	-0,017
-313,197	-69,492	-0,069	0,019
-312,183	569,879	0,038	-0,068
-311,168	-17,697	-0,084	-0,038
-310,153	-57,390	-0,056	-0,018
-309,139	-200,000	-0,006	-0,152
-308,124	-200,000	-0,010	0,037
-307,110	169,445	0,122	0,126
-306,095	-1,757	0,101	0,051
-305,080	-17,190	-0,089	0,041
-304,066	800,000	-0,028	0,075
-303,051	-200,000	-0,075	0,000
-302,037	300,198	0,032	-0,043
-301,022	-115,947	-0,057	-0,008
-300,008	350,884	-0,052	0,075
-298,993	-200,000	0,018	-0,078
-297,978	800,000	0,010	0,029
-296,964	-84,661	0,052	-0,012
-295,949	325,201	0,022	0,031
-294,935	-200,000	0,000	0,006
-293,920	412,652	0,027	-0,041
-292,905	82,663	0,151	0,119
-291,891	-121,798	-0,146	-0,017
-290,876	14,957	0,062	0,035
-289,862	-122,252	-0,056	0,007
-288,847	384,898	0,044	0,066
-287,832	256,131	-0,017	-0,021
-286,818	628,354	-0,020	-0,037
-285,803	301,124	-0,007	-0,010
-284,789	61,412	0,123	0,088
-283,774	-200,000	0,020	0,218
-282,759	-38,256	-0,099	0,038
-281,745	-56,869	0,122	-0,039
-280,730	-200,000	0,005	-0,094
-279,716	199,210	0,049	0,054
-278,701	63,348	-0,053	-0,039
-277,686	-36,430	-0,080	-0,031
-276,672	-117,251	0,070	-0,009
-275,657	-65,969	-0,073	-0,021
-274,643	86,503	-0,041	0,033
-273,628	40,742	-0,061	-0,040
-272,613	-200,000	-0,013	0,144
-271,599	-200,000	-0,008	-0,057
-270,584	341,378	0,018	0,025
-269,570	-200,000	0,008	-0,036
-268,555	-125,774	-0,083	0,009
-267,540	75,794	-0,070	-0,054
-266,526	800,000	-0,061	-0,135
-265,511	-200,000	-0,009	0,061
-264,497	499,583	-0,104	0,173
-263,482	-79,263	0,080	-0,020
-262,467	29,192	0,109	-0,067
-261,453	-121,137	-0,077	-0,009
-260,438	-137,432	-0,079	0,006
-259,424	-112,750	0,159	-0,023
-258,409	-200,000	-0,005	0,067
-257,395	-176,200	-0,054	-0,001
-256,380	166,007	0,025	0,025
-255,365	-14,704	-0,079	0,036
-254,351	-200,000	-0,004	-0,024
-253,336	304,756	0,037	0,050
-252,322	186,322	-0,062	-0,066
-251,307	26,518	-0,072	0,043
-250,292	800,000	-0,032	0,071
-249,278	800,000	0,016	-0,041
-248,263	800,000	-0,053	-0,155
-247,249	-200,000	0,045	0,149
-246,234	482,388	0,079	-0,129
-245,219	140,462	0,016	0,015
-244,205	-200,000	0,009	-0,131
-243,190	155,715	0,043	-0,043
-242,176	-200,000	-0,014	0,207
-241,161	-127,377	0,127	-0,013
-240,146	-200,000	-0,013	0,068
-239,132	-147,319	0,135	0,008
-238,117	-200,000	0,010	-0,079
-237,103	227,063	-0,037	-0,044
-236,088	-186,843	0,108	0,001
-235,073	-200,000	-0,001	0,042
-234,059	302,061	-0,066	-0,088
-233,044	-45,126	-0,006	-0,002
-232,030	800,000	-0,030	-0,089
-231,015	77,044	-0,107	0,082
-230,000	-103,592	-0,149	-0,025
-228,986	171,166	-0,025	-0,026
-227,971	34,936	0,116	-0,073
-226,957	-200,000	-0,011	0,138
-225,942	-200,000	-0,016	0,132
-224,927	14,325	0,084	-0,047
-223,913	-60,327	0,118	0,036
-222,898	-59,256	-0,025	-0,008
-221,884	-200,000	0,018	-0,061
-220,869	-22,453	0,203	-0,088
-219,855	-109,160	0,116	0,018
-218,840	206,922	-0,050	0,057
-217,825	729,419	-0,026	0,051
-216,811	-200,000	-0,033	-0,137
-215,796	-200,000	-0,027	-0,100
-214,782	196,554	0,018	-0,020
-213,767	800,000	-0,035	0,086
-212,752	-200,000	0,007	0,158
-211,738	-147,807	-0,141	0,008
-210,723	-53,349	0,102	0,033
-209,709	94,230	0,072	-0,059
-208,694	-181,295	0,037	0,001
-207,679	-66,424	-0,140	-0,040
-206,665	-63,684	0,130	0,038
-205,650	800,000	-0,063	-0,130
-204,636	35,914	0,086	0,055
-203,621	-200,000	-0,010	0,112
-202,606	-62,273	0,058	0,017
-201,592	800,000	0,017	0,040
-200,577	189,253	0,049	-0,053
-199,563	-91,996	0,092	0,019
-198,548	-200,000	0,010	-0,060
-197,533	-41,080	0,139	0,051
-196,519	210,610	-0,077	0,088
-195,504	455,552	0,028	0,044
-194,490	800,000	0,018	-0,046
-193,475	-200,000	0,005	-0,093
-192,460	511,300	0,074	0,124
-191,446	-200,000	0,002	0,031
-190,431	12,651	0,056	0,031
-189,417	-104,149	0,135	0,022
-188,402	6,025	-0,092	0,049
-187,387	-69,563	-0,122	-0,033
-186,373	228,772	0,029	0,034
-185,358	55,418	0,078	-0,054
-184,344	44,438	0,038	0,025
-183,329	452,660	0,038	0,061
-182,315	-200,000	0,011	-0,121
-181,300	-28,809	0,132	0,055
-180,285	-50,869	0,037	0,013
-179,271	-200,000	0,006	0,091
-178,256	-200,000	-0,022	-0,080
-177,242	187,337	0,080	-0,086
-176,227	182,325	0,045	-0,048
-175,212	800,000	-0,020	0,059
-174,198	800,000	-0,026	-0,061
-173,183	416,080	-0,080	-0,123
-172,169	-115,918	0,030	0,004
-171,154	258,988	-0,087	0,108
-170,139	-150,285	-0,151	0,008
-169,125	-149,313	-0,130	-0,007
-168,110	201,676	0,101	0,112
-167,096	8,858	0,139	-0,075
-166,081	-56,699	0,111	-0,035
-165,066	67,598	-0,144	0,106
-164,052	119,445	0,072	0,064
-163,037	485,855	0,039	0,064
-162,023	341,649	-0,050	0,071
-161,008	-42,676	0,059	-0,021
-159,993	-200,000	0,033	-0,127
-158,979	-200,000	0,003	0,040
-157,964	800,000	0,044	-0,094
-156,950	394,108	-0,035	-0,052
-155,935	48,585	-0,041	-0,027
-154,920	-148,031	0,018	0,001
-153,906	135,817	0,015	0,014
-152,891	-200,000	-0,026	-0,122
-151,877	800,000	-0,058	0,147
-150,862	-200,000	-0,001	-0,108
-149,847	100,177	-0,078	-0,065
-148,833	106,232	0,140	0,120
-147,818	-200,000	-0,017	-0,067
-146,804	389,651	0,064	0,096
-145,789	-95,400	-0,080	0,015
-144,775	800,000	-0,056	-0,145
-143,760	-200,000	0,039	-0,159
-142,745	-152,750	0,077	0,004
-141,731	-200,000	-0,011	-0,094
-140,716	-200,000	-0,013	0,122
-139,702	-49,273	0,050	0,017
-138,687	-18,219	0,067	-0,030
-137,672	18,979	-0,062	-0,036
-136,658	-27,105	-0,156	-0,065
-135,643	-131,911	0,047	-0,004
-134,629	800,000	0,002	0,006
-133,614	-200,000	0,010	0,042
-132,599	413,715	0,088	0,136
-131,585	-200,000	-0,012	0,075
-130,570	800,000	0,018	-0,043
-129,556	-54,832	-0,121	-0,039
-128,541	-6,378	0,039	-0,019
-127,526	-200,000	-0,003	0,023
-126,512	-21,882	0,118	-0,051
-125,497	50,661	0,052	-0,036
-124,483	649,016	0,024	0,044
-123,468	452,871	-0,031	0,050
-122,453	102,980	0,083	0,070
-121,439	800,000	-0,041	0,093
-120,424	-56,415	-0,026	-0,008
-119,410	800,000	0,077	-0,213
