DTS Sentinel unit serial number:	SN410029Multiplexer serial number:	ORYXHardware model number:	OX2-SRSoftware version number:	ORYX F/W v4,00 Oryx Data Collector v3.7.2.0data status	okinstallation	B5 Nyhavnadifferential loss correction	single-endedforward channel	channel 2reverse channel	N/Adate	2023/12/12time	12:02:13forward acquisition time	300,00reverse acquisition time	0,00gamma	499,1914k internal	0,3158k external	0,3158temperature offset calibration	1,0000default loss term (dB/km)	0,3820temperature slope calibration	1,0000multiplexer offset coefficient	1,0000multiplexer slope coefficient	1,0000fibre end	0,00T internal ref (°C)	15,17T ext. ref 1 (°C)	-0,84T ext. ref 2 (°C)	-1,08length (m)	temperature (°C)	Stokes	anti-Stokes-744,400	315,003	-0,033	0,046
-743,385	-164,748	-0,240	-0,008
-742,371	-200,000	0,025	0,096
-741,356	-54,290	-0,210	0,070
-740,342	-114,713	0,066	-0,009
-739,327	-127,714	-0,456	-0,048
-738,312	-180,625	-0,076	0,001
-737,298	-90,772	-0,184	-0,039
-736,283	-140,025	0,194	-0,015
-735,269	-101,562	-0,170	0,030
-734,254	-144,583	0,134	0,009
-733,239	-117,382	-0,497	-0,066
-732,225	39,834	0,095	0,063
-731,210	-200,000	-0,017	0,144
-730,196	424,189	0,021	0,033
-729,181	96,392	-0,079	-0,067
-728,167	-138,402	0,051	-0,004
-727,152	-96,829	-0,035	-0,007
-726,137	414,949	-0,043	0,067
-725,123	126,005	-0,074	-0,069
-724,108	11,144	-0,062	-0,035
-723,094	-60,611	-0,195	-0,061
-722,079	102,250	-0,137	-0,118
-721,064	270,633	0,079	-0,102
-720,050	-62,274	-0,094	-0,029
-719,035	-200,000	-0,008	0,030
-718,021	55,593	-0,106	-0,075
-717,006	23,370	-0,052	0,031
-715,991	350,310	-0,065	0,094
-714,977	-200,000	0,014	-0,105
-713,962	-114,237	0,055	0,008
-712,948	-200,000	0,015	0,093
-711,933	-50,621	0,054	-0,019
-710,918	800,000	-0,089	0,229
-709,904	-200,000	0,006	0,080
-708,889	8,447	0,090	-0,049
-707,875	-120,103	0,122	0,015
-706,860	-98,849	-0,048	-0,009
-705,845	-25,714	-0,233	0,101
-704,831	486,051	-0,062	-0,104
-703,816	137,587	0,159	0,154
-702,802	800,000	-0,040	0,097
-701,787	-87,984	-0,057	0,013
-700,772	-53,755	0,021	0,007
-699,758	178,871	0,062	-0,067
-698,743	233,669	0,038	-0,046
-697,729	-200,000	0,007	0,041
-696,714	-200,000	0,005	0,024
-695,699	87,836	0,095	-0,077
-694,685	800,000	-0,023	-0,069
-693,670	800,000	0,010	-0,026
-692,656	184,588	-0,082	0,090
-691,641	-140,226	-0,054	0,004
-690,627	428,531	-0,051	0,081
-689,612	-200,000	-0,017	0,067
-688,597	2,061	-0,125	-0,066
-687,583	-65,353	-0,085	-0,025
-686,568	800,000	-0,055	-0,136
-685,554	-139,396	-0,052	-0,004
-684,539	-10,812	-0,106	0,051
-683,524	289,999	0,035	0,047
-682,510	199,122	0,047	0,053
-681,495	73,853	-0,072	0,056
-680,481	221,061	-0,070	0,083
-679,466	321,883	-0,089	0,125
-678,451	293,492	0,123	-0,166
-677,437	131,286	-0,114	0,108
-676,422	125,554	-0,127	0,118
-675,408	647,843	0,028	0,052
-674,393	328,397	0,008	-0,011
-673,378	-99,388	-0,078	0,014
-672,364	191,757	-0,062	0,069
-671,349	154,201	-0,103	0,103
-670,335	-200,000	0,030	-0,111
-669,320	-164,544	0,077	0,003
-668,305	12,532	-0,090	-0,051
-667,291	-46,351	-0,090	0,032
-666,276	-200,000	0,056	-0,198
-665,262	4,498	-0,107	0,057
-664,247	47,472	0,085	-0,058
-663,232	-200,000	0,012	-0,108
-662,218	-200,000	-0,020	0,069
-661,203	71,743	-0,124	0,094
-660,189	-200,000	0,031	0,123
-659,174	35,055	0,069	-0,045
-658,159	268,426	-0,053	0,069
-657,145	800,000	-0,024	-0,063
-656,130	32,872	-0,058	-0,037
-655,116	800,000	-0,045	0,101
-654,101	-39,600	0,131	-0,050
-653,086	-53,186	-0,083	0,028
-652,072	-77,219	-0,123	0,031
-651,057	268,655	-0,120	-0,155
-650,043	-200,000	-0,019	-0,130
-649,028	69,958	-0,084	0,064
-648,014	800,000	-0,058	0,124
-646,999	-19,427	0,152	0,069
-645,984	273,002	0,045	0,058
-644,970	-200,000	0,004	-0,016
-643,955	271,449	-0,122	-0,158
-642,941	-200,000	0,010	-0,095
-641,926	51,620	0,098	0,069
-640,911	-156,158	0,061	-0,003
-639,897	126,672	0,049	0,046
-638,882	-200,000	0,010	-0,064
-637,868	800,000	-0,036	0,085
-636,853	-200,000	-0,003	-0,012
-635,838	800,000	0,032	-0,078
-634,824	-200,000	-0,010	0,103
-633,809	110,957	-0,044	0,039
-632,795	-111,124	-0,073	-0,011
-631,780	-149,602	-0,097	-0,006
-630,765	42,549	-0,056	0,037
-629,751	-200,000	0,035	-0,175
-628,736	162,605	-0,052	0,054
-627,722	-200,000	0,009	-0,079
-626,707	-125,743	0,156	0,017
-625,692	-200,000	0,057	-0,228
-624,678	-14,240	0,015	0,007
-623,663	651,886	0,026	0,049
-622,649	244,192	-0,122	-0,151
-621,634	-200,000	0,021	0,089
-620,619	361,221	0,026	-0,039
-619,605	166,652	-0,041	0,043
-618,590	285,144	-0,008	0,011
-617,576	524,876	-0,047	0,082
-616,561	-131,918	0,123	-0,012
-615,546	104,680	-0,065	-0,057
-614,532	408,494	0,012	0,019
-613,517	-147,091	-0,116	0,007
-612,503	-50,261	-0,058	0,020
-611,488	389,211	0,079	0,121
-610,474	-74,646	0,106	0,028
-609,459	82,470	-0,122	0,097
-608,444	13,071	-0,049	-0,028
-607,430	34,733	-0,050	-0,032
-606,415	800,000	-0,036	0,106
-605,401	-200,000	0,004	-0,073
-604,386	732,353	0,038	-0,075
-603,371	-155,690	0,013	-0,001
-602,357	-200,000	-0,007	-0,139
-601,342	-126,902	-0,052	-0,006
-600,328	136,319	-0,089	-0,085
-599,313	135,715	0,076	0,072
-598,298	-146,775	-0,117	0,007
-597,284	-125,638	0,012	0,001
-596,269	800,000	-0,007	-0,015
-595,255	-102,635	0,010	-0,002
-594,240	-23,616	0,100	0,044
-593,225	-85,865	-0,118	-0,027
-592,211	363,720	-0,070	-0,104
-591,196	447,517	0,035	-0,057
-590,182	23,791	0,126	-0,076
-589,167	-200,000	-0,013	-0,077
-588,152	-39,401	0,018	-0,007
-587,138	-200,000	-0,018	-0,156
-586,123	422,203	-0,081	-0,128
-585,109	736,834	-0,065	-0,128
-584,094	-200,000	0,028	-0,158
-583,079	-200,000	-0,028	0,094
-582,065	153,732	0,091	0,091
-581,050	-0,054	-0,017	0,009
-580,036	-37,539	0,059	-0,023
-579,021	-50,986	-0,158	-0,054
-578,006	-200,000	-0,004	-0,150
-576,992	-92,499	-0,057	-0,012
-575,977	-200,000	0,036	-0,116
-574,963	208,065	0,169	-0,193
-573,948	126,559	0,010	-0,009
-572,934	28,471	-0,074	-0,046
-571,919	-200,000	-0,006	-0,058
-570,904	800,000	-0,019	-0,045
-569,890	800,000	0,022	-0,056
-568,875	336,580	0,099	-0,141
-567,861	187,784	-0,148	-0,161
-566,846	308,635	0,080	-0,110
-565,831	165,022	0,094	-0,097
-564,817	37,172	0,073	0,047
-563,802	800,000	-0,081	-0,175
-562,788	-200,000	-0,001	-0,162
-561,773	-200,000	-0,026	-0,096
-560,758	-200,000	-0,032	-0,123
-559,744	800,000	0,035	-0,076
-558,729	-200,000	0,005	0,090
-557,715	88,776	0,034	0,028
-556,700	-200,000	0,011	0,056
-555,685	-200,000	-0,008	-0,057
-554,671	-200,000	-0,024	0,085
-553,656	-200,000	-0,026	-0,104
-552,642	25,995	0,052	-0,032
-551,627	-200,000	0,006	-0,045
-550,612	800,000	-0,045	-0,092
-549,598	41,060	-0,046	0,030
-548,583	96,825	0,068	0,057
-547,569	206,601	-0,064	-0,073
-546,554	-139,283	0,226	-0,018
-545,539	-56,917	-0,180	0,058
-544,525	-200,000	-0,000	0,210
-543,510	335,101	-0,054	-0,077
-542,496	-200,000	-0,009	-0,093
-541,481	-82,510	-0,092	-0,022
-540,466	8,642	0,149	0,082
-539,452	-67,827	0,064	-0,018
-538,437	-52,974	-0,026	0,009
-537,423	800,000	0,033	-0,101
-536,408	-200,000	0,007	-0,043
-535,393	-200,000	-0,031	0,106
-534,379	555,544	-0,043	0,076
-533,364	245,511	0,039	0,048
-532,350	-200,000	0,002	-0,009
-531,335	13,376	-0,115	-0,065
-530,321	-200,000	-0,028	-0,226
-529,306	76,414	0,072	0,056
-528,291	800,000	-0,077	-0,166
-527,277	350,036	0,039	-0,057
-526,262	-11,286	-0,036	0,017
-525,248	-200,000	0,007	-0,028
-524,233	41,997	-0,009	-0,006
-523,218	-30,692	-0,074	-0,031
-522,204	-54,066	0,034	0,011
-521,189	445,793	0,010	0,016
-520,175	-45,450	-0,085	0,031
-519,160	-200,000	0,011	0,057
-518,145	-200,000	0,001	-0,048
-517,131	-86,215	0,095	0,021
-516,116	-16,440	-0,125	-0,057
-515,102	800,000	-0,044	0,128
-514,087	160,258	-0,037	0,038
-513,072	800,000	0,031	-0,083
-512,058	-93,223	-0,132	-0,027
-511,043	-200,000	-0,004	-0,051
-510,029	800,000	0,044	0,101
-509,014	-176,169	0,163	0,003
-507,999	289,698	0,027	-0,036
-506,985	-200,000	-0,006	-0,040
-505,970	-200,000	0,011	-0,068
-504,956	-102,578	-0,072	0,012
-503,941	260,589	0,046	0,059
-502,926	-75,155	-0,098	-0,025
-501,912	330,141	0,038	0,054
-500,897	-200,000	0,021	-0,091
-499,883	31,961	-0,094	-0,059
-498,868	409,102	-0,058	-0,090
-497,853	-200,000	-0,012	-0,109
-496,839	-200,000	0,026	-0,085
-495,824	-200,000	0,010	0,075
-494,810	-200,000	0,020	0,067
-493,795	-103,618	0,033	-0,006
-492,781	-163,503	0,037	-0,001
-491,766	41,451	-0,044	0,029
-490,751	-200,000	0,004	-0,046
-489,737	-200,000	-0,015	0,087
-488,722	-155,832	-0,056	-0,003
-487,708	357,134	0,052	0,076
-486,693	800,000	-0,065	0,158
-485,678	800,000	0,063	-0,181
-484,664	-200,000	0,020	-0,091
-483,649	565,496	0,060	-0,106
-482,635	-114,069	0,093	-0,013
-481,620	-80,015	-0,045	0,011
-480,605	16,604	-0,098	0,056
-479,591	-200,000	-0,013	-0,172
-478,576	-119,074	-0,067	-0,008
-477,562	150,635	0,090	0,089
-476,547	284,110	-0,075	-0,099
-475,532	41,270	-0,166	-0,109
-474,518	144,414	-0,050	-0,049
-473,503	738,046	0,060	0,118
-472,489	-13,553	0,130	-0,061
-471,474	-79,331	-0,053	0,013
-470,459	-200,000	0,021	0,162
-469,445	800,000	-0,023	-0,069
-468,430	-161,861	0,035	-0,001
-467,416	199,836	0,037	-0,041
-466,401	181,717	0,142	0,152
-465,386	205,549	0,130	0,147
-464,372	21,617	-0,018	0,011
-463,357	174,202	-0,053	0,056
-462,343	47,895	0,065	-0,044
-461,328	107,926	-0,065	-0,057
-460,313	-20,230	0,072	0,032
-459,299	190,167	-0,072	-0,079
-458,284	220,115	-0,020	0,023
-457,270	171,089	0,098	0,103
-456,255	-76,801	-0,093	-0,024
-455,241	-187,557	-0,166	0,002
-454,226	-40,185	-0,087	-0,033
-453,211	800,000	-0,023	0,050
-452,197	404,939	0,044	-0,068
-451,182	-17,457	0,008	-0,004
-450,168	-200,000	0,014	0,176
-449,153	-200,000	0,013	0,045
-448,138	33,490	-0,074	-0,047
-447,124	13,518	0,166	0,094
-446,109	800,000	0,026	0,066
-445,095	800,000	-0,019	0,055
-444,080	-89,410	-0,086	0,018
-443,065	108,946	0,050	0,044
-442,051	9,046	0,008	0,004
-441,036	-200,000	0,007	-0,072
-440,022	-10,160	-0,114	-0,055
-439,007	-200,000	-0,014	-0,078
-437,992	230,225	-0,123	0,147
-436,978	581,541	0,105	0,187
-435,963	465,793	-0,072	-0,118
-434,949	445,552	-0,013	-0,020
-433,934	582,259	-0,046	0,083
-432,919	-24,865	-0,071	0,031
-431,905	-200,000	-0,009	0,102
-430,890	-200,000	0,017	-0,089
-429,876	-153,117	0,046	0,002
-428,861	-78,177	-0,104	-0,026
-427,846	-33,125	0,081	0,032
-426,832	377,060	-0,061	0,092
-425,817	-54,831	-0,078	0,026
-424,803	10,605	0,072	0,040
-423,788	69,162	0,048	-0,036
-422,773	61,353	0,078	-0,057
-421,759	-57,334	0,077	0,024
-420,744	-200,000	-0,015	0,056
-419,730	-200,000	0,016	-0,122
-418,715	-200,000	0,006	-0,059
-417,701	-49,517	-0,114	0,039
-416,686	-200,000	0,007	0,094
-415,671	47,825	0,152	-0,103
-414,657	382,485	-0,061	0,092
-413,642	-6,117	-0,107	0,053
-412,628	7,371	-0,043	-0,023
-411,613	125,367	0,068	-0,063
-410,598	800,000	-0,047	-0,147
-409,584	800,000	-0,050	-0,120
-408,569	347,161	-0,024	-0,035
-407,555	-100,807	-0,140	0,025
-406,540	-148,145	0,140	0,008
-405,525	-141,988	0,094	0,007
-404,511	426,674	-0,057	0,089
-403,496	-58,965	0,049	0,015
-402,482	-148,662	0,166	0,010
-401,467	-200,000	0,004	0,045
-400,452	-122,627	0,055	-0,006
-399,438	-21,820	0,067	0,030
-398,423	-29,905	-0,117	-0,048
-397,409	20,208	0,082	-0,048
-396,394	160,361	-0,048	-0,048
-395,379	282,589	-0,055	-0,072
-394,365	-200,000	0,004	0,077
-393,350	603,811	-0,076	0,138
-392,336	-200,000	-0,002	-0,101
-391,321	-200,000	0,015	-0,158
-390,306	-83,921	0,026	-0,006
-389,292	-200,000	-0,010	-0,090
-388,277	36,655	-0,092	0,059
-387,263	-23,376	-0,069	0,030
-386,248	524,179	0,021	0,037
-385,233	33,714	0,040	-0,025
-384,219	-87,018	-0,067	-0,015
-383,204	-13,365	0,086	0,040
-382,190	241,046	-0,056	-0,069
-381,175	45,332	-0,014	0,009
-380,160	-200,000	0,008	0,184
-379,146	-65,557	0,138	0,040
-378,131	61,614	-0,104	0,075
-377,117	-9,575	0,091	0,044
-376,102	800,000	0,020	-0,056
-375,088	122,756	-0,044	0,040
-374,073	-1,114	0,057	-0,029
-373,058	-73,997	-0,110	-0,029
-372,044	-175,120	0,211	-0,004
-371,029	-200,000	-0,009	0,102
-370,015	65,875	-0,120	-0,088
-369,000	57,242	0,061	-0,043
-367,985	112,660	0,065	-0,057
-366,971	-200,000	0,011	0,067
-365,956	-200,000	-0,024	0,085
-364,942	370,315	0,039	0,057
-363,927	-161,123	0,170	-0,006
-362,912	575,489	-0,029	0,051
-361,898	800,000	0,069	-0,161
-360,883	-200,000	0,038	-0,152
-359,869	197,714	-0,078	-0,086
-358,854	-51,452	0,084	0,028
-357,839	-78,588	0,062	0,015
-356,825	-200,000	0,013	0,098
-355,810	-64,260	0,034	-0,010
-354,796	800,000	-0,026	-0,056
-353,781	-72,036	-0,112	0,030
-352,766	15,577	0,048	0,027
-351,752	687,269	-0,026	0,050
-350,737	-108,532	-0,132	0,020
-349,723	118,045	-0,070	0,063
-348,708	800,000	-0,146	0,308
-347,693	24,702	-0,047	0,028
-346,679	-95,559	-0,224	0,043
-345,664	756,467	-0,024	0,048
-344,650	-200,000	-0,007	0,122
-343,635	235,576	0,058	0,070
-342,620	800,000	0,057	0,178
-341,606	148,786	-0,066	0,064
-340,591	27,161	-0,124	0,076
-339,577	149,264	-0,083	0,081
-338,562	-200,000	0,007	-0,034
-337,548	800,000	-0,036	-0,104
-336,533	-104,166	0,081	-0,014
-335,518	800,000	-0,012	0,036
-334,504	-97,033	0,188	0,035
-333,489	101,217	0,119	-0,101
-332,475	9,502	-0,047	0,026
-331,460	715,549	0,028	-0,053
-330,445	-200,000	-0,007	0,044
-329,431	187,384	0,090	-0,097
-328,416	368,208	-0,031	0,045
-327,402	628,901	0,107	-0,197
-326,387	27,102	-0,015	-0,009
-325,372	115,157	-0,120	-0,106
-324,358	704,241	0,038	-0,072
-323,343	-108,218	0,051	-0,008
-322,329	80,964	0,170	0,133
-321,314	254,201	-0,068	-0,084
-320,299	-77,487	0,150	-0,037
-319,285	-200,000	-0,011	0,152
-318,270	-94,230	0,046	-0,009
-317,256	-77,529	0,076	-0,019
-316,241	-200,000	-0,007	0,043
-315,226	393,706	0,047	0,071
-314,212	137,795	0,095	-0,090
-313,197	-33,105	-0,121	0,049
-312,183	-50,442	0,023	-0,008
-311,168	12,259	0,038	0,021
-310,153	618,742	-0,012	-0,022
-309,139	-200,000	-0,030	0,109
-308,124	-91,135	-0,043	0,009
-307,110	-200,000	-0,011	0,085
-306,095	-200,000	0,013	0,052
-305,080	114,395	-0,053	0,046
-304,066	-200,000	0,002	0,056
-303,051	-200,000	0,030	-0,129
-302,037	-200,000	-0,003	0,013
-301,022	209,088	0,022	0,025
-300,008	408,519	0,051	0,079
-298,993	-6,567	0,100	0,049
-297,978	-110,457	0,027	-0,004
-296,964	240,815	-0,100	0,121
-295,949	800,000	0,011	-0,030
-294,935	-86,127	0,053	-0,012
-293,920	736,271	-0,056	0,109
-292,905	-200,000	0,019	-0,109
-291,891	800,000	-0,033	0,083
-290,876	-151,481	0,093	-0,005
-289,862	656,216	0,060	0,112
-288,847	-200,000	-0,001	0,147
-287,832	800,000	0,006	0,020
-286,818	114,844	-0,069	-0,061
-285,803	145,727	0,031	0,030
-284,789	20,645	-0,074	0,043
-283,774	800,000	0,035	-0,091
-282,759	800,000	-0,014	0,030
-281,745	800,000	-0,046	-0,095
-280,730	611,895	0,046	-0,084
-279,716	616,938	0,018	0,032
-278,701	-200,000	-0,001	0,096
-277,686	-58,861	0,174	0,054
-276,672	-200,000	-0,002	0,035
-275,657	-200,000	0,021	0,092
-274,643	-2,842	-0,015	-0,008
-273,628	-200,000	0,007	-0,048
-272,613	-151,398	-0,079	0,004
-271,599	-200,000	0,024	-0,087
-270,584	-200,000	0,006	0,045
-269,570	114,010	0,140	0,123
-268,555	-50,971	-0,047	0,016
-267,540	-54,571	-0,039	0,013
-266,526	-84,693	-0,087	0,020
-265,511	-83,572	-0,028	0,006
-264,497	-66,509	0,098	0,028
-263,482	-200,000	-0,006	0,068
-262,467	93,529	0,101	0,083
-261,453	243,894	-0,072	0,088
-260,438	11,119	-0,059	0,032
-259,424	609,725	-0,052	-0,094
-258,409	-200,000	0,025	-0,094
-257,395	180,358	0,009	-0,009
-256,380	39,476	0,182	0,117
-255,365	-55,564	0,142	-0,046
-254,351	-200,000	0,004	-0,043
-253,336	-58,560	-0,080	-0,025
-252,322	800,000	0,029	-0,075
-251,307	112,918	-0,074	-0,065
-250,292	-200,000	-0,014	0,067
-249,278	-124,128	0,097	-0,011
-248,263	33,152	0,099	0,062
-247,249	82,316	-0,023	0,018
-246,234	44,758	-0,028	-0,019
-245,219	-23,881	0,054	-0,023
-244,205	294,099	0,099	-0,131
-243,190	-200,000	-0,032	0,118
-242,176	60,721	0,040	0,028
-241,161	-200,000	0,009	-0,054
-240,146	800,000	-0,066	0,140
-239,132	-200,000	-0,012	-0,055
-238,117	190,029	-0,131	0,143
-237,103	165,040	-0,014	0,015
-236,088	-200,000	-0,004	0,022
-235,073	-200,000	0,004	-0,029
-234,059	74,801	0,076	0,058
-233,044	800,000	-0,017	-0,039
-232,030	74,391	0,054	0,041
-231,015	-10,721	-0,070	-0,034
-230,000	16,819	-0,033	0,019
-228,986	-200,000	0,006	0,048
-227,971	3,633	0,087	0,046
-226,957	16,808	0,092	0,053
-225,942	-200,000	-0,008	0,074
-224,927	-61,119	-0,102	-0,031
-223,913	-200,000	-0,022	0,153
-222,898	22,107	0,086	-0,050
-221,884	-26,671	0,076	0,032
-220,869	800,000	-0,063	0,133
-219,855	312,373	0,041	0,055
-218,840	-200,000	0,014	0,059
-217,825	281,442	-0,044	-0,057
-216,811	35,025	-0,077	-0,049
-215,796	-200,000	0,009	-0,113
-214,782	190,426	-0,115	-0,125
-213,767	42,860	0,037	-0,025
-212,752	-200,000	0,021	0,076
-211,738	-200,000	0,001	0,014
-210,723	-200,000	-0,012	-0,165
-209,709	203,252	0,089	-0,099
-208,694	132,297	-0,154	0,144
-207,679	-200,000	-0,021	-0,178
-206,665	-77,609	-0,046	0,011
-205,650	800,000	-0,028	0,079
-204,636	175,482	-0,019	-0,020
-203,621	-17,492	-0,012	0,005
-202,606	-115,933	-0,043	0,006
-201,592	241,279	-0,088	-0,106
-200,577	-200,000	0,029	0,125
-199,563	-47,501	0,106	0,037
-198,548	-21,694	0,087	-0,038
-197,533	98,898	-0,094	0,079
-196,519	-62,861	0,115	0,034
-195,504	-200,000	-0,001	-0,061
-194,490	259,095	-0,072	-0,089
-193,475	-94,609	-0,108	-0,021
-192,460	-117,269	-0,074	-0,010
-191,446	-200,000	0,002	-0,044
-190,431	-200,000	-0,010	0,124
-189,417	800,000	-0,055	0,172
-188,402	-43,557	0,198	0,072
-187,387	800,000	-0,007	-0,024
-186,373	211,912	-0,145	0,165
-185,358	358,823	-0,027	-0,039
-184,344	-200,000	0,001	-0,085
-183,329	800,000	0,105	0,276
-182,315	423,851	0,093	0,144
-181,300	-200,000	0,004	-0,077
-180,285	16,152	-0,088	-0,050
-179,271	-200,000	0,013	-0,099
-178,256	-44,671	-0,047	0,017
-177,242	800,000	0,069	0,172
-176,227	-47,400	-0,134	0,047
-175,212	208,844	0,056	0,063
-174,198	68,974	0,099	-0,073
-173,183	-96,761	-0,201	-0,038
-172,169	-1,546	0,072	-0,037
-171,154	433,022	0,046	0,072
-170,139	4,287	-0,032	-0,017
-169,125	-1,640	-0,063	-0,032
-168,110	-149,754	-0,061	0,003
-167,096	485,237	0,078	-0,128
-166,081	315,054	0,031	0,043
-165,066	46,614	-0,081	-0,054
-164,052	632,938	0,046	0,084
-163,037	1,055	0,056	0,029
-162,023	800,000	0,046	-0,113
-161,008	756,583	0,042	0,083
-159,993	301,071	-0,083	0,111
-158,979	-32,547	-0,105	-0,042
-157,964	-49,762	0,063	-0,021
-156,950	12,171	0,029	-0,016
-155,935	262,662	-0,030	-0,037
-154,920	32,572	0,098	-0,061
-153,906	286,958	0,053	0,069
-152,891	124,988	0,043	0,039
-151,877	-200,000	0,023	0,119
-150,862	52,916	-0,093	-0,064
-149,847	-200,000	-0,016	-0,054
-148,833	-108,635	-0,053	0,008
-147,818	479,419	0,055	0,090
-146,804	-200,000	0,050	0,193
-145,789	31,297	0,109	-0,067
-144,775	-200,000	-0,017	-0,078
-143,760	-126,229	-0,074	0,008
-142,745	157,305	0,062	0,062
-141,731	21,265	-0,086	0,050
-140,716	347,956	-0,047	-0,066
-139,702	800,000	0,027	0,074
-138,687	300,726	-0,037	0,049
-137,672	119,187	0,103	-0,092
-136,658	254,742	0,023	0,029
-135,643	-200,000	-0,014	0,091
-134,629	-23,234	0,075	0,032
-133,614	-200,000	-0,004	0,029
-132,599	78,934	0,070	0,054
-131,585	800,000	-0,026	-0,062
-130,570	-123,073	0,109	-0,012
-129,556	-55,889	-0,017	0,005
-128,541	-52,576	-0,173	-0,057
-127,526	419,885	-0,043	-0,067
-126,512	-82,170	-0,100	0,023
-125,497	800,000	0,035	0,081
-124,483	417,766	0,070	-0,108
-123,468	-200,000	-0,033	0,145
-122,453	800,000	0,026	-0,059
-121,439	-67,833	0,080	-0,022
-120,424	-101,836	-0,142	-0,024
-119,410	-22,728	-0,044	0,019
