DTS Sentinel unit serial number:	SN410029Multiplexer serial number:	ORYXHardware model number:	OX2-SRSoftware version number:	ORYX F/W v4,00 Oryx Data Collector v3.7.2.0data status	okinstallation	B5 Nyhavnadifferential loss correction	single-endedforward channel	channel 2reverse channel	N/Adate	2023/12/12time	05:27:13forward acquisition time	300,00reverse acquisition time	0,00gamma	499,1914k internal	0,3157k external	0,3157temperature offset calibration	1,0000default loss term (dB/km)	0,3820temperature slope calibration	1,0000multiplexer offset coefficient	1,0000multiplexer slope coefficient	1,0000fibre end	0,00T internal ref (°C)	15,37T ext. ref 1 (°C)	-1,04T ext. ref 2 (°C)	-1,35length (m)	temperature (°C)	Stokes	anti-Stokes-744,400	-145,250	0,131	0,009
-743,385	-77,869	-0,227	0,057
-742,371	-45,919	0,014	0,005
-741,356	-195,379	-0,285	0,002
-740,342	-200,000	-0,001	-0,136
-739,327	-108,109	-0,257	0,041
-738,312	589,591	0,026	-0,048
-737,298	-22,645	-0,278	-0,123
-736,283	-79,408	0,211	-0,052
-735,269	122,064	-0,203	0,187
-734,254	-200,000	0,033	0,109
-733,239	-61,300	-0,560	-0,173
-732,225	-108,345	0,096	0,015
-731,210	-75,636	-0,054	-0,014
-730,196	243,704	-0,026	-0,033
-729,181	250,854	0,065	0,081
-728,167	67,077	-0,105	-0,079
-727,152	800,000	-0,010	0,029
-726,137	384,110	-0,085	0,129
-725,123	193,970	-0,068	-0,076
-724,108	-200,000	0,051	-0,203
-723,094	800,000	0,011	-0,031
-722,079	476,037	-0,085	-0,142
-721,064	-85,081	0,073	-0,017
-720,050	-200,000	-0,003	-0,125
-719,035	72,253	-0,019	0,015
-718,021	399,275	0,038	-0,059
-717,006	-48,936	-0,065	-0,023
-715,991	-200,000	-0,002	-0,008
-714,977	-200,000	-0,003	0,058
-713,962	-59,614	-0,178	-0,056
-712,948	-38,061	0,141	0,055
-711,933	-200,000	0,013	-0,157
-710,918	-96,685	-0,167	-0,032
-709,904	-129,786	0,034	-0,003
-708,889	-21,093	0,020	-0,009
-707,875	800,000	-0,011	0,025
-706,860	-92,220	-0,080	0,016
-705,845	189,301	-0,018	-0,019
-704,831	-145,872	0,134	0,009
-703,816	-200,000	-0,011	-0,103
-702,802	761,549	-0,033	0,066
-701,787	190,255	0,111	-0,123
-700,772	-177,964	-0,183	0,003
-699,758	800,000	0,052	0,108
-698,743	240,873	0,118	0,145
-697,729	-200,000	-0,006	0,132
-696,714	-200,000	-0,016	0,113
-695,699	-59,952	-0,088	0,027
-694,685	145,821	-0,042	0,041
-693,670	800,000	-0,074	-0,206
-692,656	-26,407	0,098	-0,042
-691,641	-113,451	0,032	-0,005
-690,627	-53,104	-0,077	-0,026
-689,612	-30,000	0,071	0,029
-688,597	97,587	-0,192	0,162
-687,583	-36,331	0,120	0,047
-686,568	-103,481	0,077	0,013
-685,554	-61,848	-0,093	-0,029
-684,539	32,048	0,019	-0,012
-683,524	144,086	-0,106	0,104
-682,510	-55,477	0,091	-0,030
-681,495	-200,000	-0,009	-0,033
-680,481	528,651	0,025	-0,043
-679,466	238,394	-0,072	-0,089
-678,451	34,575	-0,159	-0,102
-677,437	-58,737	0,051	0,016
-676,422	231,740	-0,074	-0,090
-675,408	13,786	-0,173	-0,099
-674,393	265,955	0,035	-0,045
-673,378	-200,000	-0,011	0,077
-672,364	-101,736	0,039	-0,007
-671,349	-200,000	0,017	-0,090
-670,335	44,900	0,060	-0,040
-669,320	-86,220	0,061	0,014
-668,305	-48,496	0,080	-0,028
-667,291	32,089	-0,066	-0,042
-666,276	-101,019	0,082	0,015
-665,262	117,977	-0,058	-0,053
-664,247	-18,329	-0,105	-0,048
-663,232	69,505	0,062	-0,047
-662,218	-90,692	0,085	0,018
-661,203	-20,068	-0,091	0,041
-660,189	-94,930	0,045	0,009
-659,174	-132,017	-0,122	-0,011
-658,159	85,671	0,057	0,046
-657,145	-200,000	-0,019	-0,102
-656,130	-200,000	0,010	-0,158
-655,116	800,000	-0,092	-0,211
-654,101	-139,384	0,225	-0,017
-653,086	-200,000	0,016	-0,053
-652,072	546,317	-0,028	0,050
-651,057	-53,551	-0,147	-0,049
-650,043	-165,715	-0,024	0,001
-649,028	800,000	-0,056	-0,127
-648,014	102,745	-0,044	-0,038
-646,999	-200,000	-0,033	-0,121
-645,984	-198,240	0,131	0,001
-644,970	800,000	-0,070	0,145
-643,955	-77,877	-0,184	-0,046
-642,941	244,844	0,066	-0,081
-641,926	219,084	-0,194	-0,228
-640,911	37,927	0,087	0,057
-639,897	-200,000	0,010	0,036
-638,882	476,115	0,023	-0,038
-637,868	-100,536	-0,228	0,041
-636,853	-75,440	0,082	-0,021
-635,838	-128,152	-0,274	0,028
-634,824	502,489	0,012	0,021
-633,809	-72,494	0,096	-0,026
-632,795	-200,000	0,001	-0,042
-631,780	-200,000	0,003	-0,036
-630,765	109,310	-0,100	0,088
-629,751	-161,681	-0,164	0,006
-628,736	800,000	-0,010	-0,023
-627,722	-169,769	-0,121	0,003
-626,707	800,000	0,054	0,159
-625,692	-82,881	0,029	-0,007
-624,678	-156,841	-0,123	0,005
-623,663	-200,000	-0,003	0,033
-622,649	374,723	-0,022	-0,034
-621,634	-78,525	-0,255	0,063
-620,619	600,465	-0,084	0,153
-619,605	-119,682	0,096	-0,012
-618,590	800,000	0,017	-0,036
-617,576	-122,732	-0,068	0,008
-616,561	-200,000	0,036	-0,161
-615,546	-29,145	-0,167	0,070
-614,532	-200,000	-0,007	-0,027
-613,517	-200,000	0,042	0,159
-612,503	258,274	-0,050	-0,064
-611,488	-106,655	0,102	0,016
-610,474	-77,736	0,071	0,018
-609,459	45,198	0,120	-0,081
-608,444	-200,000	0,009	-0,051
-607,430	-107,003	0,122	0,020
-606,415	-36,260	-0,130	0,051
-605,401	129,353	-0,034	0,032
-604,386	7,531	-0,131	0,072
-603,371	-129,245	0,075	-0,008
-602,357	189,344	0,027	-0,029
-601,342	-92,009	-0,172	0,035
-600,328	-67,413	-0,049	0,014
-599,313	247,353	-0,038	0,047
-598,298	-11,460	0,082	0,039
-597,284	-12,822	-0,027	-0,013
-596,269	41,548	-0,109	-0,072
-595,255	800,000	0,027	0,066
-594,240	377,704	0,038	0,056
-593,225	-196,584	0,068	-0,000
-592,211	800,000	-0,031	-0,073
-591,196	109,970	-0,039	-0,035
-590,182	-31,363	0,110	-0,045
-589,167	-94,232	-0,035	-0,007
-588,152	-200,000	-0,003	-0,023
-587,138	800,000	-0,034	0,104
-586,123	800,000	0,011	0,034
-585,109	175,107	-0,050	-0,053
-584,094	-1,565	-0,126	-0,065
-583,079	-50,048	-0,111	-0,038
-582,065	-79,420	0,052	-0,013
-581,050	-154,698	-0,052	0,002
-580,036	197,471	-0,085	-0,095
-579,021	-64,363	-0,031	-0,009
-578,006	65,694	0,038	-0,028
-576,992	-200,000	-0,004	0,023
-575,977	-19,685	0,151	0,068
-574,963	800,000	-0,022	0,047
-573,948	22,513	-0,074	-0,044
-572,934	185,293	0,040	-0,044
-571,919	195,097	-0,108	-0,121
-570,904	698,719	0,013	-0,025
-569,890	800,000	0,007	-0,019
-568,875	154,373	-0,036	-0,036
-567,861	-200,000	-0,004	0,031
-566,846	-30,949	0,097	0,040
-565,831	800,000	-0,061	0,126
-564,817	8,765	0,063	0,035
-563,802	476,986	0,035	-0,059
-562,788	367,429	-0,054	-0,080
-561,773	-200,000	-0,023	-0,075
-560,758	800,000	-0,061	0,139
-559,744	35,804	0,068	0,043
-558,729	524,777	-0,026	0,045
-557,715	123,264	-0,061	-0,056
-556,700	-78,539	-0,172	-0,043
-555,685	77,899	-0,043	-0,033
-554,671	374,268	-0,062	0,093
-553,656	-86,713	0,147	0,033
-552,642	-162,309	0,085	0,003
-551,627	-15,849	0,025	0,012
-550,612	-60,880	-0,154	0,047
-549,598	192,230	-0,056	0,061
-548,583	800,000	0,062	-0,144
-547,569	152,905	0,083	-0,084
-546,554	-111,061	-0,033	0,005
-545,539	80,427	0,098	0,077
-544,525	-200,000	-0,001	0,048
-543,510	87,057	-0,080	0,064
-542,496	-200,000	0,040	-0,225
-541,481	-97,191	-0,108	0,020
-540,466	0,875	-0,031	-0,016
-539,452	-200,000	0,017	-0,180
-538,437	-124,938	-0,140	-0,016
-537,423	102,958	0,069	0,059
-536,408	-200,000	0,020	0,072
-535,393	-126,663	-0,101	-0,011
-534,379	-138,296	-0,171	0,014
-533,364	-118,279	0,123	0,016
-532,350	-182,909	0,135	0,002
-531,335	-84,017	-0,162	-0,037
-530,321	267,160	-0,035	0,045
-529,306	-27,829	0,077	0,033
-528,291	-200,000	-0,016	-0,107
-527,277	-122,040	0,079	-0,009
-526,262	800,000	0,012	-0,033
-525,248	-200,000	0,047	-0,153
-524,233	383,353	-0,030	0,045
-523,218	-12,166	0,013	0,006
-522,204	262,590	-0,047	-0,060
-521,189	-200,000	0,003	0,100
-520,175	452,883	0,033	-0,054
-519,160	800,000	-0,036	-0,114
-518,145	-18,716	0,132	0,060
-517,131	587,050	0,081	0,146
-516,116	-9,894	0,104	0,050
-515,102	-200,000	-0,009	0,042
-514,087	800,000	-0,032	-0,086
-513,072	-66,601	-0,118	0,034
-512,058	545,240	0,045	-0,080
-511,043	-169,787	-0,006	-0,000
-510,029	85,935	0,058	0,047
-509,014	39,106	0,092	-0,060
-507,999	27,163	-0,110	0,067
-506,985	154,081	-0,087	0,087
-505,970	-50,085	0,124	0,043
-504,956	-200,000	0,030	-0,110
-503,941	800,000	-0,048	0,127
-502,926	102,883	0,195	0,167
-501,912	-200,000	-0,004	0,126
-500,897	96,505	0,082	-0,068
-499,883	-68,344	-0,115	0,032
-498,868	152,814	-0,090	-0,090
-497,853	650,498	-0,032	-0,060
-496,839	4,974	0,038	-0,020
-495,824	402,898	0,037	-0,057
-494,810	189,991	0,053	0,058
-493,795	800,000	0,023	-0,061
-492,781	800,000	-0,050	-0,158
-491,766	48,456	0,072	0,049
-490,751	-43,134	-0,103	0,038
-489,737	60,414	0,058	0,042
-488,722	27,414	-0,116	-0,071
-487,708	253,182	0,016	-0,020
-486,693	800,000	-0,024	0,068
-485,678	-101,362	0,037	-0,007
-484,664	-41,501	-0,004	-0,002
-483,649	67,674	0,026	0,020
-482,635	114,064	-0,133	0,118
-481,620	-48,640	0,096	0,033
-480,605	-112,139	0,131	0,019
-479,591	510,239	0,001	-0,002
-478,576	57,100	0,133	-0,094
-477,562	-78,698	-0,170	-0,042
-476,547	-200,000	-0,003	-0,059
-475,532	-200,000	0,029	-0,104
-474,518	118,580	0,037	0,033
-473,503	-83,229	0,181	0,042
-472,489	224,662	0,040	0,048
-471,474	525,499	0,048	0,082
-470,459	-120,698	-0,091	0,011
-469,445	-96,949	-0,220	-0,042
-468,430	-160,031	0,062	0,002
-467,416	-55,866	-0,071	-0,023
-466,401	800,000	-0,062	0,196
-465,386	-62,631	-0,095	-0,029
-464,372	222,297	0,047	0,056
-463,357	204,166	0,099	0,112
-462,343	-128,217	-0,116	-0,012
-461,328	69,752	0,118	0,089
-460,313	-200,000	0,013	-0,056
-459,299	241,282	0,098	-0,120
-458,284	91,765	0,014	0,012
-457,270	604,158	0,054	0,099
-456,255	800,000	0,010	-0,029
-455,241	-96,450	-0,024	0,005
-454,226	115,536	0,064	-0,057
-453,211	-129,723	0,135	-0,013
-452,197	10,054	-0,084	0,047
-451,182	157,431	0,034	-0,034
-450,168	127,913	0,020	-0,018
-449,153	278,963	0,078	-0,102
-448,138	-200,000	0,011	-0,188
-447,124	800,000	0,035	-0,098
-446,109	-200,000	0,006	0,102
-445,095	-16,999	0,034	-0,015
-444,080	198,606	0,014	0,015
-443,065	800,000	-0,038	-0,089
-442,051	614,552	-0,059	-0,107
-441,036	68,639	-0,059	0,044
-440,022	-83,477	0,039	0,009
-439,007	146,460	0,036	-0,035
-437,992	-124,384	0,088	0,010
-436,978	-67,177	-0,113	-0,032
-435,963	795,214	-0,046	0,093
-434,949	5,778	0,045	0,024
-433,934	-200,000	-0,029	-0,140
-432,919	-122,438	0,067	0,008
-431,905	-169,965	-0,036	0,001
-430,890	-193,247	0,121	-0,001
-429,876	217,183	0,117	0,136
-428,861	-1,511	0,059	-0,030
-427,846	-127,791	-0,158	-0,016
-426,832	-200,000	-0,006	0,165
-425,817	-4,103	-0,048	-0,024
-424,803	57,709	-0,020	0,014
-423,788	800,000	0,075	-0,197
-422,773	-200,000	0,009	-0,067
-421,759	225,054	0,055	0,065
-420,744	-200,000	0,000	0,028
-419,730	46,678	-0,059	-0,040
-418,715	-200,000	0,008	-0,112
-417,701	-200,000	0,027	-0,092
-416,686	-52,215	0,080	0,027
-415,671	800,000	0,043	0,090
-414,657	-200,000	0,011	0,174
-413,642	269,408	0,083	0,106
-412,628	-107,982	-0,072	-0,011
-411,613	128,248	-0,110	0,102
-410,598	119,302	-0,095	0,085
-409,584	-200,000	0,005	-0,060
-408,569	-118,007	0,161	0,021
-407,555	-34,757	0,101	0,040
-406,540	-127,985	0,075	-0,008
-405,525	243,138	-0,049	-0,060
-404,511	434,460	0,060	-0,095
-403,496	228,637	-0,018	-0,021
-402,482	1,514	-0,138	-0,072
-401,467	629,203	0,064	-0,117
-400,452	159,624	0,135	-0,137
-399,438	-20,918	0,140	-0,062
-398,423	-200,000	0,028	0,159
-397,409	-65,699	-0,077	0,022
-396,394	286,234	-0,084	0,111
-395,379	0,064	-0,109	0,056
-394,365	285,385	0,037	-0,048
-393,350	-200,000	-0,012	0,041
-392,336	710,548	-0,037	0,072
-391,321	-170,020	-0,032	0,001
-390,306	-200,000	-0,059	0,000
-389,292	23,594	-0,139	-0,083
-388,277	-106,361	0,158	-0,025
-387,263	-50,484	0,086	-0,029
-386,248	13,212	0,081	0,045
-385,233	17,978	0,146	-0,085
-384,219	800,000	-0,031	-0,075
-383,204	319,567	0,015	0,020
-382,190	-14,325	-0,058	0,027
-381,175	179,916	0,045	0,048
-380,160	145,004	0,051	0,050
-379,146	800,000	0,034	0,104
-378,131	39,162	0,130	0,085
-377,117	-73,825	-0,138	0,036
-376,102	20,826	-0,070	-0,041
-375,088	151,144	0,105	-0,104
-374,073	-56,997	-0,226	0,072
-373,058	783,445	0,035	-0,070
-372,044	52,911	-0,165	0,115
-371,029	-155,279	0,080	-0,004
-370,015	567,199	0,053	0,094
-369,000	497,791	-0,017	0,028
-367,985	-150,693	-0,145	-0,008
-366,971	-200,000	-0,015	0,103
-365,956	-200,000	-0,040	0,199
-364,942	-70,391	0,114	0,031
-363,927	-200,000	0,024	0,139
-362,912	139,786	-0,030	0,029
-361,898	-200,000	0,002	0,100
-360,883	-120,783	0,064	0,008
-359,869	470,808	0,074	0,121
-358,854	-9,322	0,116	0,056
-357,839	452,625	-0,021	-0,034
-356,825	-200,000	-0,024	0,123
-355,810	-66,020	-0,040	0,012
-354,796	800,000	0,055	0,135
-353,781	-67,236	-0,077	-0,022
-352,766	-117,343	-0,050	-0,007
-351,752	-2,260	0,118	-0,060
-350,737	-200,000	-0,004	0,019
-349,723	-90,496	0,079	0,017
-348,708	-108,214	-0,038	-0,006
-347,693	17,204	-0,076	-0,044
-346,679	121,998	-0,106	-0,096
-345,664	55,522	0,133	-0,093
-344,650	800,000	-0,045	0,115
-343,635	-200,000	0,004	0,098
-342,620	-89,419	0,069	-0,015
-341,606	-35,878	0,136	0,053
-340,591	784,927	-0,032	0,064
-339,577	16,112	0,034	-0,019
-338,562	800,000	0,009	-0,029
-337,548	800,000	0,054	-0,136
-336,533	-200,000	0,031	0,121
-335,518	800,000	0,036	0,099
-334,504	706,027	0,015	0,029
-333,489	70,744	0,086	-0,065
-332,475	136,116	-0,102	-0,096
-331,460	49,266	0,040	-0,027
-330,445	-200,000	-0,002	0,058
-329,431	435,948	0,021	-0,033
-328,416	29,382	0,033	0,020
-327,402	-200,000	0,019	0,121
-326,387	-200,000	-0,015	0,140
-325,372	-200,000	-0,003	-0,070
-324,358	224,935	-0,007	0,009
-323,343	286,626	0,052	-0,069
-322,329	195,708	-0,066	0,073
-321,314	-90,531	0,104	-0,022
-320,299	-2,250	-0,051	0,026
-319,285	-76,891	0,132	-0,033
-318,270	-200,000	0,011	-0,130
-317,256	450,908	0,038	-0,062
-316,241	-109,964	-0,201	0,030
-315,226	-200,000	-0,011	-0,090
-314,212	-37,138	0,135	0,052
-313,197	-200,000	0,011	-0,084
-312,183	321,834	-0,077	-0,106
-311,168	800,000	-0,031	0,081
-310,153	-200,000	-0,011	-0,184
-309,139	45,443	-0,107	-0,071
-308,124	602,359	-0,039	0,070
-307,110	142,060	0,056	-0,054
-306,095	574,030	0,061	-0,108
-305,080	-72,004	-0,066	0,018
-304,066	29,332	0,016	0,010
-303,051	201,897	-0,044	0,050
-302,037	-11,373	0,045	0,021
-301,022	-200,000	0,007	-0,071
-300,008	-65,442	0,060	-0,017
-298,993	317,318	0,097	0,133
-297,978	325,806	0,027	-0,038
-296,964	228,938	0,083	0,099
-295,949	-200,000	0,012	0,131
-294,935	146,927	-0,107	-0,105
-293,920	-165,631	-0,037	0,001
-292,905	-103,105	0,068	-0,012
-291,891	24,040	0,130	0,077
-290,876	-67,920	-0,196	0,055
-289,862	-47,062	0,077	0,027
-288,847	800,000	-0,080	-0,220
-287,832	-94,291	0,037	-0,007
-286,818	250,666	-0,056	0,069
-285,803	-39,525	0,041	0,015
-284,789	800,000	-0,004	-0,011
-283,774	-47,727	-0,107	-0,037
-282,759	-200,000	-0,020	0,119
-281,745	-97,486	-0,078	-0,015
-280,730	800,000	-0,011	-0,033
-279,716	-200,000	0,019	-0,105
-278,701	317,600	-0,040	0,056
-277,686	-200,000	0,018	0,071
-276,672	480,260	0,011	-0,019
-275,657	-66,770	-0,067	0,019
-274,643	147,800	0,041	0,040
-273,628	-128,164	-0,015	0,002
-272,613	-200,000	0,010	0,104
-271,599	-75,103	-0,033	-0,008
-270,584	-70,844	0,153	0,041
-269,570	311,050	-0,004	-0,005
-268,555	-41,591	0,069	0,025
-267,540	-61,832	-0,036	-0,011
-266,526	-27,648	-0,072	-0,030
-265,511	615,043	0,031	-0,056
-264,497	-200,000	0,021	-0,084
-263,482	619,639	0,018	0,033
-262,467	222,411	0,036	0,042
-261,453	-148,165	-0,050	-0,003
-260,438	751,914	-0,029	-0,058
-259,424	800,000	0,042	-0,105
-258,409	22,064	0,072	-0,042
-257,395	-124,423	0,065	0,007
-256,380	83,735	0,087	0,069
-255,365	-139,428	0,091	-0,007
-254,351	-200,000	0,005	-0,059
-253,336	-89,053	0,041	0,009
-252,322	800,000	-0,016	-0,046
-251,307	-200,000	-0,003	-0,079
-250,292	9,675	0,050	-0,027
-249,278	43,833	0,050	0,033
-248,263	-200,000	0,006	0,051
-247,249	636,344	-0,079	0,146
-246,234	477,332	0,024	-0,040
-245,219	-79,320	0,021	0,005
-244,205	57,211	0,126	0,089
-243,190	262,886	0,061	0,076
-242,176	10,802	0,023	0,012
-241,161	800,000	0,027	0,075
-240,146	114,883	-0,121	0,106
-239,132	-200,000	-0,001	0,097
-238,117	83,277	0,091	0,071
-237,103	114,002	-0,091	0,080
-236,088	-113,663	0,060	-0,008
-235,073	499,270	0,060	0,101
-234,059	-200,000	0,055	0,187
-233,044	800,000	-0,026	0,078
-232,030	124,863	0,067	-0,061
-231,015	43,201	-0,069	-0,045
-230,000	421,857	0,049	-0,077
-228,986	-185,156	-0,064	-0,001
-227,971	800,000	0,029	0,059
-226,957	231,307	-0,029	0,034
-225,942	-200,000	0,015	0,089
-224,927	-107,691	-0,081	0,013
-223,913	800,000	-0,053	-0,133
-222,898	358,588	-0,076	-0,110
-221,884	-200,000	0,020	-0,081
-220,869	-39,772	-0,051	-0,019
-219,855	94,434	0,058	-0,047
-218,840	134,806	-0,045	-0,042
-217,825	637,742	-0,046	0,085
-216,811	-36,416	0,110	0,043
-215,796	6,128	0,034	0,018
-214,782	-193,092	0,027	0,000
-213,767	-200,000	-0,036	-0,139
-212,752	-200,000	0,010	0,063
-211,738	295,294	0,116	0,154
-210,723	46,380	-0,111	-0,074
-209,709	-184,388	0,028	0,000
-208,694	7,615	-0,185	-0,099
-207,679	225,250	-0,041	-0,048
-206,665	700,195	0,104	0,198
-205,650	126,599	-0,078	0,072
-204,636	-94,718	0,098	0,019
-203,621	199,332	-0,030	-0,033
-202,606	460,271	0,049	-0,079
-201,592	-200,000	0,025	-0,125
-200,577	695,875	0,028	-0,053
-199,563	-111,964	0,094	-0,013
-198,548	-200,000	0,004	-0,043
-197,533	-156,422	-0,071	-0,003
-196,519	268,364	-0,021	-0,027
-195,504	800,000	-0,023	0,057
-194,490	800,000	-0,042	-0,107
-193,475	-97,124	-0,094	0,018
-192,460	-200,000	-0,014	0,168
-191,446	70,645	0,065	0,048
-190,431	-200,000	0,039	-0,209
-189,417	507,942	-0,022	-0,036
-188,402	82,028	-0,025	0,020
-187,387	800,000	0,061	-0,191
-186,373	15,837	0,110	-0,062
-185,358	694,682	0,034	-0,065
-184,344	-200,000	-0,006	0,078
-183,329	800,000	-0,025	-0,077
-182,315	328,568	0,033	-0,045
-181,300	-89,053	-0,119	0,025
-180,285	175,037	-0,081	0,085
-179,271	384,823	-0,062	0,093
-178,256	800,000	0,024	-0,069
-177,242	116,687	0,186	-0,164
-176,227	150,214	0,027	0,026
-175,212	-200,000	0,028	0,099
-174,198	305,617	0,081	-0,109
-173,183	279,973	-0,075	-0,097
-172,169	800,000	0,014	0,035
-171,154	-42,649	-0,151	-0,055
-170,139	-200,000	-0,017	-0,147
-169,125	800,000	0,035	-0,100
-168,110	672,287	0,028	0,052
-167,096	800,000	-0,067	-0,156
-166,081	-91,837	-0,133	0,027
-165,066	-200,000	-0,015	-0,098
-164,052	-200,000	-0,010	-0,125
-163,037	713,971	0,049	-0,095
-162,023	-52,390	0,130	0,043
-161,008	91,508	-0,095	-0,077
-159,993	-102,257	0,097	0,017
-158,979	212,546	0,017	-0,020
-157,964	-147,114	-0,127	0,008
-156,950	-66,498	-0,150	0,043
-155,935	800,000	-0,040	0,107
-154,920	351,630	0,066	0,094
-153,906	800,000	0,010	-0,031
-152,891	464,392	0,062	-0,100
-151,877	-21,928	-0,181	0,079
-150,862	-200,000	0,029	-0,102
-149,847	76,541	0,027	0,021
-148,833	-130,104	-0,062	-0,006
-147,818	800,000	0,047	0,100
-146,804	-200,000	-0,011	0,048
-145,789	-38,592	0,017	0,006
-144,775	-200,000	-0,006	0,082
-143,760	800,000	-0,031	-0,064
-142,745	-200,000	0,007	-0,026
-141,731	-40,508	0,104	-0,039
-140,716	15,919	0,041	-0,023
-139,702	196,343	0,024	-0,026
-138,687	167,773	-0,065	-0,067
-137,672	-121,085	0,159	-0,019
-136,658	-79,323	-0,010	-0,002
-135,643	-31,456	0,079	-0,032
-134,629	-74,494	0,029	0,007
-133,614	-118,071	-0,069	0,009
-132,599	51,053	0,092	0,062
-131,585	205,052	-0,057	0,064
-130,570	-200,000	0,023	-0,073
-129,556	-200,000	0,003	-0,124
-128,541	-129,575	-0,055	-0,005
-127,526	-189,921	-0,047	-0,000
-126,512	800,000	0,038	0,116
-125,497	-200,000	0,010	0,175
-124,483	800,000	0,024	-0,072
-123,468	-53,807	0,053	-0,017
-122,453	178,650	-0,029	-0,030
-121,439	7,789	-0,056	0,030
-120,424	800,000	-0,024	-0,061
-119,410	-200,000	-0,019	-0,076
-118,395	800,000	-0,032	-0,101
