DTS Sentinel unit serial number:	SN410029Multiplexer serial number:	ORYXHardware model number:	OX2-SRSoftware version number:	ORYX F/W v4,00 Oryx Data Collector v3.7.2.0data status	okinstallation	B5 Nyhavnadifferential loss correction	single-endedforward channel	channel 2reverse channel	N/Adate	2023/12/14time	18:27:13forward acquisition time	300,00reverse acquisition time	0,00gamma	499,1914k internal	0,3156k external	0,3156temperature offset calibration	1,0000default loss term (dB/km)	0,3820temperature slope calibration	1,0000multiplexer offset coefficient	1,0000multiplexer slope coefficient	1,0000fibre end	0,00T internal ref (°C)	8,49T ext. ref 1 (°C)	-6,78T ext. ref 2 (°C)	-6,83length (m)	temperature (°C)	Stokes	anti-Stokes-744,400	86,875	0,158	0,129
-743,385	-70,873	-0,430	-0,119
-742,371	251,666	0,139	0,175
-741,356	-138,343	-0,255	-0,020
-740,342	-72,448	0,214	0,058
-739,327	-64,525	-0,422	-0,126
-738,312	-99,130	0,085	-0,016
-737,298	-93,530	-0,396	-0,080
-736,283	-57,650	0,190	-0,061
-735,269	-175,905	-0,280	0,005
-734,254	150,838	0,199	0,199
-733,239	92,766	-0,535	-0,445
-732,225	-43,824	0,224	0,083
-731,210	-60,751	0,163	0,051
-730,196	371,749	-0,046	0,069
-729,181	-200,000	-0,006	-0,095
-728,167	800,000	0,016	-0,051
-727,152	-200,000	0,006	-0,128
-726,137	1,050	-0,088	0,046
-725,123	-100,197	-0,118	-0,022
-724,108	800,000	0,055	-0,126
-723,094	413,041	-0,043	-0,067
-722,079	-3,817	0,104	0,053
-721,064	388,556	0,092	0,141
-720,050	169,533	-0,096	-0,101
-719,035	17,163	0,062	0,036
-718,021	-138,517	-0,110	-0,009
-717,006	86,295	-0,046	0,037
-715,991	800,000	-0,052	-0,144
-714,977	800,000	0,044	-0,139
-713,962	-21,999	-0,041	0,018
-712,948	76,934	-0,053	-0,042
-711,933	-28,723	-0,081	0,034
-710,918	-183,013	-0,125	0,002
-709,904	-200,000	0,012	-0,099
-708,889	-149,885	-0,152	0,009
-707,875	252,017	0,065	-0,082
-706,860	-87,665	0,146	0,032
-705,845	315,502	-0,106	0,147
-704,831	-200,000	0,004	-0,057
-703,816	154,138	-0,103	-0,104
-702,802	27,122	0,014	0,009
-701,787	70,942	-0,069	0,052
-700,772	-200,000	0,000	-0,019
-699,758	424,067	-0,031	-0,049
-698,743	83,222	0,128	0,103
-697,729	-200,000	0,003	-0,060
-696,714	28,356	-0,113	-0,070
-695,699	800,000	-0,025	0,062
-694,685	-149,688	-0,068	0,004
-693,670	-16,943	-0,097	0,045
-692,656	-200,000	-0,012	-0,041
-691,641	-168,195	0,041	0,001
-690,627	58,202	0,067	-0,048
-689,612	-186,023	-0,107	0,001
-688,597	-200,000	-0,009	0,057
-687,583	-94,609	-0,076	-0,015
-686,568	-134,694	-0,109	-0,010
-685,554	-200,000	-0,037	-0,145
-684,539	42,160	0,113	-0,076
-683,524	-200,000	-0,010	0,059
-682,510	-200,000	0,002	-0,048
-681,495	206,094	0,003	-0,004
-680,481	138,050	-0,185	-0,179
-679,466	-70,902	-0,163	0,045
-678,451	3,354	0,036	0,019
-677,437	-200,000	0,002	-0,113
-676,422	-112,359	-0,088	0,013
-675,408	469,920	0,044	0,073
-674,393	-52,702	0,130	0,044
-673,378	-200,000	0,002	-0,114
-672,364	42,902	-0,121	-0,081
-671,349	800,000	-0,026	-0,080
-670,335	71,350	0,111	0,085
-669,320	-200,000	-0,012	-0,050
-668,305	557,666	-0,035	0,063
-667,291	95,446	0,109	0,091
-666,276	39,214	-0,092	-0,060
-665,262	-106,675	-0,030	-0,005
-664,247	-46,986	-0,061	-0,022
-663,232	-158,681	0,064	-0,003
-662,218	-200,000	0,014	0,064
-661,203	-115,975	-0,113	0,015
-660,189	443,527	0,006	0,010
-659,174	750,733	-0,043	-0,086
-658,159	-200,000	-0,032	-0,107
-657,145	123,425	-0,100	-0,092
-656,130	101,442	0,049	0,042
-655,116	262,947	0,088	-0,113
-654,101	249,875	-0,074	-0,092
-653,086	-89,105	-0,013	0,003
-652,072	208,491	-0,025	-0,029
-651,057	39,160	-0,006	-0,004
-650,043	714,967	-0,021	0,040
-649,028	-95,672	-0,098	-0,019
-648,014	-102,444	0,188	0,033
-646,999	133,054	0,046	-0,043
-645,984	155,628	-0,066	-0,067
-644,970	-90,436	0,115	-0,024
-643,955	94,667	-0,101	-0,084
-642,941	241,989	-0,098	-0,121
-641,926	344,331	0,047	-0,068
-640,911	-62,461	-0,081	-0,025
-639,897	125,730	-0,055	0,051
-638,882	-200,000	0,031	0,141
-637,868	-200,000	-0,050	0,227
-636,853	800,000	-0,019	0,056
-635,838	-200,000	-0,010	-0,153
-634,824	800,000	0,020	-0,055
-633,809	143,660	-0,037	-0,036
-632,795	800,000	-0,030	-0,089
-631,780	-200,000	0,015	-0,071
-630,765	61,035	-0,146	-0,107
-629,751	-41,656	-0,128	-0,048
-628,736	75,449	-0,065	0,051
-627,722	-200,000	0,032	-0,205
-626,707	145,527	0,070	0,069
-625,692	800,000	-0,094	0,212
-624,678	22,685	0,174	0,105
-623,663	262,669	-0,030	0,039
-622,649	321,888	0,019	-0,027
-621,634	800,000	-0,007	0,019
-620,619	624,860	0,058	-0,107
-619,605	149,143	-0,056	-0,055
-618,590	-200,000	-0,002	0,026
-617,576	-140,003	-0,031	-0,002
-616,561	347,054	0,037	0,053
-615,546	69,735	0,049	0,037
-614,532	-98,348	-0,102	-0,019
-613,517	-108,605	-0,028	0,004
-612,503	-8,248	0,111	0,054
-611,488	-125,324	0,070	0,008
-610,474	496,648	-0,044	0,074
-609,459	-116,589	-0,190	0,025
-608,444	800,000	-0,017	-0,053
-607,430	-200,000	0,023	-0,133
-606,415	209,620	0,029	-0,033
-605,401	-57,450	0,072	0,023
-604,386	-200,000	0,003	-0,016
-603,371	-200,000	0,004	0,163
-602,357	163,410	0,075	0,078
-601,342	-144,353	-0,087	-0,006
-600,328	-72,875	-0,095	0,026
-599,313	-200,000	0,032	-0,141
-598,298	132,997	0,067	0,063
-597,284	-134,217	0,120	0,011
-596,269	41,716	0,048	0,032
-595,255	291,279	-0,067	-0,089
-594,240	-200,000	-0,045	-0,157
-593,225	800,000	0,045	-0,143
-592,211	153,933	-0,044	-0,044
-591,196	-200,000	-0,004	0,152
-590,182	42,686	0,064	0,043
-589,167	-52,306	0,059	-0,020
-588,152	-73,614	-0,241	0,064
-587,138	151,552	0,050	-0,050
-586,123	-125,232	-0,090	0,010
-585,109	295,711	-0,058	-0,078
-584,094	-29,425	-0,069	-0,029
-583,079	146,597	0,032	-0,032
-582,065	800,000	-0,038	-0,085
-581,050	-12,597	-0,052	0,025
-580,036	-122,570	-0,111	0,013
-579,021	-200,000	0,010	-0,069
-578,006	-200,000	-0,002	-0,072
-576,992	-200,000	-0,022	-0,081
-575,977	-200,000	-0,017	-0,103
-574,963	-200,000	0,053	0,187
-573,948	800,000	-0,018	0,059
-572,934	-200,000	0,041	0,141
-571,919	-69,618	-0,044	-0,012
-570,904	-200,000	0,047	-0,164
-569,890	338,449	0,039	-0,056
-568,875	-200,000	0,015	-0,082
-567,861	800,000	0,106	0,217
-566,846	-200,000	-0,008	0,059
-565,831	204,916	-0,034	-0,039
-564,817	133,463	-0,057	0,054
-563,802	551,593	0,053	-0,093
-562,788	131,543	-0,022	0,020
-561,773	10,076	-0,149	0,083
-560,758	-128,261	0,037	-0,004
-559,744	208,221	0,040	-0,045
-558,729	800,000	0,036	0,089
-557,715	586,872	-0,014	-0,025
-556,700	-200,000	0,013	-0,124
-555,685	-135,798	0,098	-0,008
-554,671	-94,937	-0,091	-0,018
-553,656	-4,040	0,085	0,043
-552,642	-53,071	0,110	0,037
-551,627	800,000	0,075	0,171
-550,612	-63,477	-0,138	-0,041
-549,598	-80,670	-0,116	-0,028
-548,583	-89,805	0,202	0,043
-547,569	-121,866	-0,082	0,010
-546,554	-10,120	0,007	0,003
-545,539	128,454	-0,084	0,078
-544,525	157,456	0,017	0,017
-543,510	351,945	-0,022	-0,033
-542,496	-200,000	0,023	-0,126
-541,481	201,210	-0,060	-0,068
-540,466	452,715	0,054	-0,087
-539,452	275,277	-0,078	0,101
-538,437	-134,409	-0,088	0,008
-537,423	-200,000	0,010	-0,122
-536,408	-200,000	-0,020	0,073
-535,393	95,031	-0,076	-0,064
-534,379	800,000	-0,028	-0,063
-533,364	-111,649	-0,149	-0,022
-532,350	-117,894	0,141	0,018
-531,335	-36,101	0,125	-0,049
-530,321	-200,000	0,018	0,103
-529,306	-119,807	-0,063	-0,008
-528,291	800,000	0,027	-0,087
-527,277	-31,789	0,044	-0,018
-526,262	682,229	-0,064	-0,123
-525,248	-98,692	-0,074	0,014
-524,233	82,756	0,017	0,013
-523,218	800,000	-0,057	0,132
-522,204	-123,385	-0,052	-0,006
-521,189	334,628	0,007	0,010
-520,175	-60,545	-0,094	0,029
-519,160	148,148	-0,080	-0,079
-518,145	268,051	0,053	0,069
-517,131	6,794	0,022	0,012
-516,116	-40,089	-0,058	-0,022
-515,102	-157,753	0,097	-0,004
-514,087	-39,258	0,055	0,021
-513,072	-44,099	0,026	0,009
-512,058	-112,209	0,046	0,007
-511,043	-87,657	0,157	-0,034
-510,029	-94,746	0,188	-0,037
-509,014	388,770	-0,027	-0,040
-507,999	-200,000	0,011	-0,047
-506,985	-8,889	0,045	0,022
-505,970	438,877	-0,070	-0,113
-504,956	800,000	0,049	-0,124
-503,941	-200,000	0,001	0,048
-502,926	522,458	0,040	-0,069
-501,912	-182,520	0,076	-0,001
-500,897	-102,720	0,122	-0,021
-499,883	24,781	-0,143	-0,086
-498,868	77,569	0,059	-0,046
-497,853	143,587	-0,089	0,086
-496,839	-200,000	0,017	-0,112
-495,824	-200,000	0,012	-0,060
-494,810	-200,000	0,059	0,000
-493,795	-200,000	0,004	0,035
-492,781	-200,000	-0,012	0,066
-491,766	144,645	-0,058	0,056
-490,751	-200,000	0,001	-0,065
-489,737	-200,000	-0,000	0,116
-488,722	91,042	0,031	0,025
-487,708	-166,217	0,108	-0,003
-486,693	-77,930	-0,080	-0,020
-485,678	198,989	-0,032	-0,036
-484,664	-85,156	0,109	-0,025
-483,649	210,448	-0,082	0,094
-482,635	577,842	0,022	0,040
-481,620	19,225	0,055	-0,032
-480,605	-200,000	0,012	0,045
-479,591	-79,659	0,115	0,028
-478,576	121,999	0,081	-0,074
-477,562	191,630	-0,087	-0,096
-476,547	-73,518	0,189	-0,050
-475,532	65,144	0,053	-0,039
-474,518	-200,000	-0,004	-0,070
-473,503	-200,000	0,053	0,202
-472,489	211,331	-0,128	0,147
-471,474	-200,000	0,011	-0,073
-470,459	800,000	-0,018	0,038
-469,445	800,000	-0,013	-0,027
-468,430	246,085	-0,108	0,133
-467,416	800,000	0,037	-0,097
-466,401	-4,416	0,080	0,040
-465,386	800,000	0,057	-0,159
-464,372	-75,915	0,127	0,033
-463,357	618,347	0,026	-0,048
-462,343	-200,000	-0,055	-0,207
-461,328	-200,000	0,008	0,031
-460,313	800,000	0,009	-0,028
-459,299	116,148	0,111	0,099
-458,284	99,847	-0,046	0,038
-457,270	800,000	0,023	-0,063
-456,255	479,248	0,069	-0,115
-455,241	700,880	-0,015	0,029
-454,226	-200,000	0,011	-0,076
-453,211	-200,000	0,022	-0,081
-452,197	-200,000	-0,013	0,126
-451,182	-57,897	-0,076	0,024
-450,168	10,482	0,061	-0,034
-449,153	-155,936	-0,116	0,005
-448,138	-133,339	-0,083	-0,008
-447,124	-200,000	-0,054	0,000
-446,109	-56,691	-0,087	0,028
-445,095	-63,280	0,078	0,023
-444,080	108,013	-0,125	0,108
-443,065	51,244	0,142	0,098
-442,051	-105,285	-0,217	-0,036
-441,036	564,637	-0,025	0,045
-440,022	800,000	0,012	0,033
-439,007	-200,000	0,027	-0,152
-437,992	-74,854	0,070	0,018
-436,978	-76,720	0,073	-0,018
-435,963	89,701	0,006	-0,005
-434,949	256,880	0,042	0,052
-433,934	-200,000	-0,010	-0,151
-432,919	-108,720	-0,158	0,024
-431,905	2,524	0,106	0,056
-430,890	18,456	-0,089	-0,052
-429,876	800,000	0,053	0,161
-428,861	7,012	-0,027	-0,015
-427,846	279,685	0,056	-0,072
-426,832	143,618	0,022	0,021
-425,817	-200,000	-0,005	-0,114
-424,803	521,570	0,050	0,086
-423,788	15,185	0,190	0,108
-422,773	800,000	-0,029	-0,076
-421,759	-39,597	-0,052	-0,020
-420,744	-50,901	0,050	0,017
-419,730	-200,000	0,003	0,139
-418,715	-32,722	0,087	-0,035
-417,701	-200,000	0,016	-0,081
-416,686	800,000	-0,025	0,057
-415,671	-200,000	0,023	0,088
-414,657	800,000	-0,030	0,089
-413,642	800,000	-0,012	-0,028
-412,628	-200,000	0,001	-0,007
-411,613	-200,000	-0,023	-0,099
-410,598	-200,000	0,009	0,136
-409,584	-200,000	-0,006	-0,038
-408,569	53,427	0,107	0,074
-407,555	800,000	0,010	0,026
-406,540	247,104	0,079	0,097
-405,525	-124,675	-0,063	0,007
-404,511	363,507	-0,054	-0,079
-403,496	265,310	0,056	0,072
-402,482	18,444	-0,073	-0,042
-401,467	-194,409	-0,067	-0,000
-400,452	118,275	0,050	-0,045
-399,438	-200,000	-0,009	-0,040
-398,423	-78,126	-0,183	0,045
-397,409	-49,884	-0,126	-0,043
-396,394	-165,603	0,140	-0,004
-395,379	-47,172	-0,064	0,023
-394,365	761,360	-0,070	0,138
-393,350	71,953	0,118	0,090
-392,336	703,090	-0,079	0,153
-391,321	39,574	0,093	-0,060
-390,306	198,313	-0,051	-0,057
-389,292	800,000	-0,033	0,083
-388,277	439,328	0,035	0,056
-387,263	22,181	0,058	-0,035
-386,248	-90,508	0,094	0,020
-385,233	-200,000	-0,017	0,100
-384,219	141,662	-0,113	0,109
-383,204	90,196	0,013	0,011
-382,190	226,886	-0,048	-0,057
-381,175	-200,000	-0,002	-0,043
-380,160	-138,380	0,145	-0,011
-379,146	141,584	-0,055	0,053
-378,131	153,107	0,055	-0,054
-377,117	800,000	-0,065	0,144
-376,102	146,448	-0,020	-0,019
-375,088	-98,222	-0,174	-0,032
-374,073	800,000	0,010	0,025
-373,058	-200,000	0,007	-0,026
-372,044	692,507	0,078	0,150
-371,029	646,800	0,057	0,107
-370,015	15,097	0,052	-0,030
-369,000	27,526	-0,014	0,008
-367,985	-200,000	-0,024	-0,122
-366,971	152,069	0,047	-0,047
-365,956	800,000	-0,091	0,249
-364,942	-97,444	0,055	0,010
-363,927	550,664	-0,059	0,103
-362,912	-200,000	-0,007	0,135
-361,898	60,633	0,134	-0,096
-360,883	45,493	0,077	-0,051
-359,869	-200,000	-0,002	-0,094
-358,854	37,906	0,033	0,021
-357,839	-200,000	-0,010	-0,092
-356,825	252,524	0,114	-0,142
-355,810	-200,000	-0,003	-0,037
-354,796	-56,502	-0,158	0,051
-353,781	-100,851	0,080	0,014
-352,766	800,000	0,053	0,108
-351,752	2,029	-0,055	0,029
-350,737	158,004	-0,021	0,021
-349,723	-123,424	0,050	-0,006
-348,708	349,619	0,040	-0,057
-347,693	-38,211	-0,043	0,017
-346,679	-135,976	-0,067	-0,006
-345,664	-101,494	-0,101	-0,018
-344,650	133,543	0,083	0,078
-343,635	-114,748	0,142	0,020
-342,620	-200,000	0,003	0,055
-341,606	-200,000	-0,007	0,111
-340,591	2,360	-0,096	0,050
-339,577	-200,000	-0,012	0,104
-338,562	-30,091	-0,028	-0,011
-337,548	-200,000	-0,010	-0,049
-336,533	200,331	0,054	-0,060
-335,518	82,789	-0,091	0,072
-334,504	26,088	0,057	0,034
-333,489	-82,240	-0,132	0,031
-332,475	-200,000	-0,012	-0,096
-331,460	25,301	-0,151	-0,091
-330,445	-152,456	0,062	0,003
-329,431	-90,668	-0,076	-0,016
-328,416	170,777	0,068	0,070
-327,402	17,396	-0,022	-0,013
-326,387	-67,622	0,048	0,014
-325,372	-79,896	-0,130	0,031
-324,358	-179,380	0,100	-0,002
-323,343	225,372	-0,071	-0,083
-322,329	-194,490	-0,086	-0,000
-321,314	82,451	0,021	0,016
-320,299	268,681	0,073	0,093
-319,285	-140,632	0,132	0,010
-318,270	-116,163	-0,110	-0,015
-317,256	65,821	0,019	-0,014
-316,241	267,962	0,027	0,034
-315,226	211,526	0,052	-0,059
-314,212	800,000	0,030	0,079
-313,197	128,957	0,029	0,027
-312,183	461,437	0,037	0,061
-311,168	426,566	-0,074	-0,116
-310,153	-98,338	-0,055	-0,010
-309,139	-8,495	0,079	0,038
-308,124	-171,731	0,164	-0,004
-307,110	99,199	0,147	-0,123
-306,095	327,902	-0,086	0,119
-305,080	-1,679	0,149	0,076
-304,066	38,906	-0,155	-0,100
-303,051	100,194	-0,114	-0,096
-302,037	-200,000	-0,008	-0,117
-301,022	34,492	0,065	-0,041
-300,008	106,362	0,080	-0,069
-298,993	299,246	-0,020	0,027
-297,978	-200,000	-0,029	0,163
-296,964	20,399	-0,075	0,044
-295,949	-59,507	-0,143	-0,044
-294,935	45,138	0,027	0,018
-293,920	800,000	0,049	-0,116
-292,905	477,551	0,078	0,129
-291,891	800,000	0,025	-0,076
-290,876	85,176	0,122	-0,097
-289,862	-200,000	0,013	-0,092
-288,847	58,418	0,101	0,072
-287,832	-200,000	0,026	-0,125
-286,818	800,000	-0,055	0,115
-285,803	-168,811	0,079	-0,002
-284,789	-200,000	-0,024	0,110
-283,774	-75,358	0,038	-0,010
-282,759	-200,000	0,015	0,068
-281,745	154,986	-0,018	-0,018
-280,730	169,828	0,020	-0,020
-279,716	800,000	-0,032	-0,083
-278,701	-200,000	-0,015	0,059
-277,686	-92,628	0,073	-0,015
-276,672	-26,215	0,093	0,039
-275,657	-67,852	0,115	-0,032
-274,643	-109,367	-0,103	-0,016
-273,628	-156,054	0,020	0,001
-272,613	92,900	-0,100	0,082
-271,599	198,453	-0,026	0,029
-270,584	364,449	0,037	-0,054
-269,570	-50,820	0,052	0,018
-268,555	-200,000	-0,016	0,101
-267,540	800,000	-0,029	-0,071
-266,526	149,665	0,020	-0,019
-265,511	-200,000	-0,001	-0,066
-264,497	-90,256	0,117	-0,024
-263,482	-72,196	0,016	0,004
-262,467	225,452	0,071	0,084
-261,453	800,000	0,027	-0,063
-260,438	201,021	-0,055	-0,061
-259,424	-52,755	-0,131	-0,044
-258,409	238,069	0,065	-0,078
-257,395	800,000	-0,017	-0,034
-256,380	-92,068	-0,035	-0,007
-255,365	-75,842	0,042	0,011
-254,351	-85,938	0,078	-0,017
-253,336	317,063	-0,046	-0,063
-252,322	-200,000	0,014	-0,130
-251,307	-111,591	0,156	-0,023
-250,292	612,631	-0,041	-0,074
-249,278	-100,943	-0,087	-0,015
-248,263	40,660	0,130	0,085
-247,249	-200,000	-0,007	0,044
-246,234	-27,616	-0,016	-0,007
-245,219	18,083	-0,053	0,031
-244,205	274,617	0,056	-0,072
-243,190	-57,641	0,154	-0,049
-242,176	33,591	-0,144	-0,090
-241,161	800,000	-0,029	0,081
-240,146	800,000	0,015	-0,038
-239,132	66,923	-0,123	-0,091
-238,117	-179,293	-0,088	0,001
-237,103	245,012	-0,097	0,118
-236,088	-200,000	0,001	-0,064
-235,073	-200,000	-0,008	-0,085
-234,059	-200,000	0,007	0,044
-233,044	-36,004	0,097	0,038
-232,030	-30,948	0,019	0,008
-231,015	53,800	-0,092	0,064
-230,000	-200,000	0,000	0,020
-228,986	-21,465	0,044	-0,019
-227,971	-200,000	0,002	0,058
-226,957	-200,000	0,030	0,127
-225,942	-120,372	-0,073	0,009
-224,927	-186,911	-0,050	0,000
-223,913	-71,789	-0,033	-0,009
-222,898	-200,000	0,023	-0,120
-221,884	372,353	-0,110	-0,161
-220,869	344,693	0,072	0,103
-219,855	-11,656	-0,042	-0,020
-218,840	187,600	0,116	-0,125
-217,825	-200,000	0,016	0,051
-216,811	-200,000	0,019	0,106
-215,796	-116,136	-0,104	0,014
-214,782	-54,694	0,039	0,013
-213,767	800,000	0,066	0,184
-212,752	67,295	-0,018	-0,013
-211,738	168,607	-0,142	-0,146
-210,723	48,656	0,063	-0,042
-209,709	800,000	-0,041	0,088
-208,694	19,373	-0,067	-0,039
-207,679	800,000	-0,022	0,044
-206,665	-200,000	-0,006	0,156
-205,650	-200,000	0,015	-0,059
-204,636	82,635	-0,010	0,008
-203,621	800,000	-0,023	-0,049
-202,606	-130,183	-0,137	0,013
-201,592	-76,926	-0,098	0,025
-200,577	-124,182	-0,029	0,003
-199,563	452,016	-0,011	-0,017
-198,548	537,459	-0,043	-0,074
-197,533	129,239	-0,038	0,035
-196,519	-144,369	0,202	-0,013
-195,504	-200,000	-0,014	-0,061
-194,490	-117,073	0,084	0,011
-193,475	661,872	-0,020	0,037
-192,460	-200,000	0,000	-0,034
-191,446	800,000	0,033	0,093
-190,431	281,834	0,050	-0,065
-189,417	800,000	-0,022	-0,060
-188,402	-126,859	-0,120	0,013
-187,387	800,000	-0,041	0,082
-186,373	327,431	0,075	-0,104
-185,358	-200,000	-0,025	0,120
-184,344	-109,375	0,042	0,006
-183,329	-40,755	-0,110	-0,041
-182,315	120,152	-0,156	0,140
-181,300	-200,000	0,021	-0,091
-180,285	488,812	-0,106	-0,176
-179,271	67,730	-0,069	-0,051
-178,256	-115,250	0,024	-0,003
-177,242	88,617	0,099	-0,079
-176,227	596,203	-0,031	0,055
-175,212	255,050	0,065	-0,080
-174,198	324,475	0,084	0,116
-173,183	120,169	-0,009	0,008
-172,169	114,599	-0,095	0,084
-171,154	60,855	-0,119	0,085
-170,139	696,869	0,074	0,141
-169,125	-200,000	-0,002	-0,069
-168,110	-101,568	-0,109	-0,019
-167,096	11,004	0,090	-0,050
-166,081	-200,000	0,010	0,101
-165,066	-22,211	0,091	-0,039
-164,052	-15,964	-0,102	-0,047
-163,037	-104,634	0,113	0,019
-162,023	-200,000	0,012	0,182
-161,008	-56,564	-0,096	0,031
-159,993	48,075	0,044	0,029
-158,979	114,444	0,125	0,109
-157,964	800,000	-0,052	-0,136
-156,950	579,970	-0,044	-0,077
-155,935	-152,206	-0,127	0,007
-154,920	48,427	0,030	0,020
-153,906	-128,126	0,083	0,008
-152,891	800,000	-0,034	0,074
-151,877	-98,206	-0,082	0,015
-150,862	113,988	-0,103	-0,091
-149,847	146,571	0,036	-0,035
-148,833	-103,980	0,132	0,022
-147,818	-200,000	-0,007	0,057
-146,804	77,428	0,093	0,071
-145,789	-200,000	-0,006	-0,022
-144,775	-200,000	0,028	-0,103
-143,760	-200,000	0,012	0,095
-142,745	-200,000	-0,016	-0,063
-141,731	-24,283	-0,094	0,040
-140,716	-200,000	-0,007	0,035
-139,702	-74,674	0,075	-0,019
-138,687	800,000	0,022	-0,052
-137,672	-47,407	-0,018	0,006
-136,658	130,097	-0,020	-0,018
-135,643	23,298	-0,121	-0,071
-134,629	-125,399	-0,109	0,012
-133,614	158,942	-0,032	0,032
-132,599	88,253	0,130	-0,104
-131,585	-64,522	-0,014	-0,004
-130,570	194,296	-0,092	-0,100
-129,556	-82,968	0,067	0,015
-128,541	626,008	-0,049	-0,090
-127,526	117,207	-0,113	0,100
-126,512	614,276	0,033	0,061
-125,497	-200,000	0,010	0,057
-124,483	363,763	-0,049	0,071
-123,468	-5,139	0,067	0,033
-122,453	668,594	0,019	-0,036
-121,439	16,188	0,056	0,032
-120,424	178,250	0,056	-0,058
-119,410	800,000	0,049	-0,111
