DTS Sentinel unit serial number:	SN410029Multiplexer serial number:	ORYXHardware model number:	OX2-SRSoftware version number:	ORYX F/W v4,00 Oryx Data Collector v3.7.2.0data status	okinstallation	B5 Nyhavnadifferential loss correction	single-endedforward channel	channel 2reverse channel	N/Adate	2023/12/12time	12:32:13forward acquisition time	300,00reverse acquisition time	0,00gamma	499,1914k internal	0,3158k external	0,3158temperature offset calibration	1,0000default loss term (dB/km)	0,3820temperature slope calibration	1,0000multiplexer offset coefficient	1,0000multiplexer slope coefficient	1,0000fibre end	0,00T internal ref (°C)	15,32T ext. ref 1 (°C)	-0,61T ext. ref 2 (°C)	-0,86length (m)	temperature (°C)	Stokes	anti-Stokes-744,400	-200,000	0,015	-0,090
-743,385	-109,699	-0,273	-0,042
-742,371	-200,000	0,005	-0,028
-741,356	-62,885	-0,289	0,088
-740,342	-133,032	0,072	0,007
-739,327	-116,212	-0,357	0,048
-738,312	117,309	0,191	-0,173
-737,298	-135,304	-0,254	-0,022
-736,283	-139,828	0,104	-0,008
-735,269	-165,432	-0,306	-0,010
-734,254	-51,921	0,159	0,054
-733,239	-43,392	-0,387	-0,143
-732,225	-121,232	0,118	0,014
-731,210	-3,733	-0,083	-0,042
-730,196	-116,496	-0,036	-0,005
-729,181	-200,000	0,034	-0,183
-728,167	319,425	-0,047	-0,066
-727,152	509,138	0,038	0,066
-726,137	-69,232	-0,021	-0,006
-725,123	-95,981	0,060	-0,012
-724,108	-200,000	0,006	-0,128
-723,094	539,101	-0,086	-0,151
-722,079	237,281	0,038	-0,046
-721,064	-21,424	-0,204	0,091
-720,050	388,070	0,091	0,140
-719,035	-35,033	-0,014	-0,005
-718,021	-200,000	0,105	-0,000
-717,006	-200,000	-0,000	0,021
-715,991	-97,215	-0,143	-0,027
-714,977	-200,000	-0,004	-0,106
-713,962	178,695	-0,017	0,018
-712,948	-200,000	0,004	-0,023
-711,933	-200,000	-0,012	-0,039
-710,918	800,000	0,032	0,087
-709,904	-136,850	-0,226	0,019
-708,889	195,009	-0,051	-0,057
-707,875	216,219	-0,059	-0,069
-706,860	-200,000	0,005	0,023
-705,845	369,165	-0,041	0,061
-704,831	239,862	0,058	0,071
-703,816	-144,190	-0,114	0,008
-702,802	800,000	0,021	0,056
-701,787	800,000	0,019	0,041
-700,772	-200,000	-0,019	-0,088
-699,758	-200,000	-0,021	-0,141
-698,743	-90,614	-0,051	0,011
-697,729	-96,051	-0,103	0,020
-696,714	178,263	-0,052	0,056
-695,699	-200,000	-0,019	-0,070
-694,685	800,000	-0,039	-0,088
-693,670	-200,000	-0,009	-0,042
-692,656	-45,537	0,136	-0,049
-691,641	-141,702	0,125	-0,009
-690,627	62,301	-0,075	-0,055
-689,612	-73,968	0,089	0,024
-688,597	276,088	-0,018	0,024
-687,583	800,000	-0,006	0,015
-686,568	291,205	-0,013	-0,017
-685,554	-97,886	-0,072	0,013
-684,539	-20,959	0,085	-0,038
-683,524	96,566	0,054	-0,045
-682,510	800,000	0,033	0,082
-681,495	473,089	-0,035	-0,058
-680,481	-101,792	-0,118	-0,021
-679,466	130,716	-0,054	-0,051
-678,451	-80,811	-0,098	-0,024
-677,437	9,736	-0,075	-0,042
-676,422	121,263	0,063	0,057
-675,408	-135,562	-0,080	0,007
-674,393	49,576	0,048	0,033
-673,378	-200,000	-0,000	0,037
-672,364	-200,000	0,024	0,100
-671,349	-80,557	-0,077	0,019
-670,335	-108,141	-0,092	-0,015
-669,320	800,000	0,045	-0,114
-668,305	128,285	-0,045	0,042
-667,291	129,463	0,094	-0,089
-666,276	800,000	0,035	-0,073
-665,262	276,775	-0,105	-0,137
-664,247	164,701	0,047	-0,049
-663,232	-200,000	0,029	-0,175
-662,218	-108,597	-0,029	0,005
-661,203	-200,000	0,032	0,200
-660,189	31,431	0,029	0,018
-659,174	-200,000	-0,026	-0,091
-658,159	800,000	-0,017	-0,046
-657,145	800,000	-0,024	0,062
-656,130	-8,200	-0,164	-0,081
-655,116	-61,151	0,135	-0,042
-654,101	-126,635	-0,182	0,020
-653,086	-200,000	0,018	0,064
-652,072	-16,787	0,029	-0,013
-651,057	-200,000	-0,017	-0,128
-650,043	158,808	-0,089	0,091
-649,028	166,150	0,035	0,037
-648,014	-142,693	-0,085	0,006
-646,999	-39,980	0,108	0,041
-645,984	271,533	-0,030	0,039
-644,970	40,300	0,064	0,042
-643,955	734,614	0,029	-0,058
-642,941	-130,189	-0,039	-0,004
-641,926	149,683	-0,102	-0,102
-640,911	225,616	-0,057	-0,068
-639,897	-200,000	0,021	-0,142
-638,882	1,276	0,049	-0,026
-637,868	261,128	0,032	0,040
-636,853	800,000	-0,029	-0,060
-635,838	86,520	0,098	-0,079
-634,824	-200,000	-0,001	0,017
-633,809	-200,000	-0,018	-0,091
-632,795	148,542	0,050	0,050
-631,780	232,043	-0,072	-0,086
-630,765	10,977	-0,070	-0,039
-629,751	-98,350	-0,151	-0,028
-628,736	-102,854	-0,040	0,007
-627,722	717,894	-0,108	-0,212
-626,707	215,391	0,063	0,073
-625,692	42,342	0,017	0,011
-624,678	-200,000	-0,006	0,147
-623,663	489,047	0,018	0,030
-622,649	-91,132	0,133	-0,028
-621,634	-154,169	-0,164	0,008
-620,619	-92,681	-0,062	-0,013
-619,605	44,667	0,131	0,088
-618,590	800,000	0,027	0,076
-617,576	-49,722	-0,040	0,014
-616,561	455,469	0,050	0,082
-615,546	124,238	-0,113	-0,104
-614,532	103,228	-0,056	-0,049
-613,517	-200,000	0,003	-0,078
-612,503	26,523	-0,083	0,051
-611,488	241,478	0,032	0,039
-610,474	-200,000	-0,043	0,155
-609,459	-34,776	0,052	-0,021
-608,444	-99,903	-0,153	-0,028
-607,430	122,588	-0,089	-0,081
-606,415	-97,611	-0,081	0,015
-605,401	-76,276	-0,102	0,026
-604,386	-110,505	0,108	-0,016
-603,371	-73,281	-0,165	-0,044
-602,357	45,571	0,159	-0,107
-601,342	-58,889	-0,092	-0,029
-600,328	800,000	-0,069	-0,179
-599,313	-95,956	-0,064	-0,012
-598,298	-5,594	0,070	-0,035
-597,284	-77,910	0,139	0,035
-596,269	361,715	-0,068	-0,100
-595,255	603,872	-0,033	-0,060
-594,240	167,260	-0,059	-0,061
-593,225	346,922	0,034	-0,050
-592,211	170,705	0,021	-0,022
-591,196	-0,021	0,115	-0,060
-590,182	-200,000	0,007	-0,046
-589,167	800,000	0,024	0,057
-588,152	-47,404	-0,055	0,020
-587,138	64,788	-0,042	-0,031
-586,123	800,000	0,031	-0,087
-585,109	800,000	-0,064	-0,134
-584,094	719,048	-0,071	-0,138
-583,079	-200,000	-0,013	-0,106
-582,065	-66,194	-0,116	0,034
-581,050	67,936	0,039	0,030
-580,036	-189,871	-0,076	0,001
-579,021	-74,610	0,046	0,012
-578,006	-171,668	0,038	-0,001
-576,992	-200,000	-0,019	-0,075
-575,977	-200,000	-0,035	-0,124
-574,963	-89,885	0,043	-0,009
-573,948	800,000	-0,023	-0,047
-572,934	-200,000	-0,025	-0,113
-571,919	-200,000	-0,017	-0,092
-570,904	563,206	0,056	-0,099
-569,890	800,000	0,028	-0,084
-568,875	-200,000	-0,013	-0,104
-567,861	187,885	-0,041	0,045
-566,846	-200,000	0,012	0,074
-565,831	-200,000	0,030	-0,111
-564,817	340,447	-0,045	-0,065
-563,802	800,000	0,024	-0,067
-562,788	142,567	-0,073	0,071
-561,773	164,466	-0,051	-0,053
-560,758	-81,118	0,022	0,005
-559,744	-55,201	0,078	-0,026
-558,729	597,565	-0,067	0,123
-557,715	800,000	-0,031	-0,098
-556,700	-3,635	-0,043	-0,022
-555,685	-82,118	-0,165	-0,039
-554,671	-15,108	0,133	-0,062
-553,656	-186,076	0,069	0,001
-552,642	412,853	0,047	0,074
-551,627	247,787	0,035	0,043
-550,612	-7,176	0,113	0,056
-549,598	-128,941	-0,121	0,012
-548,583	341,312	-0,049	0,070
-547,569	-200,000	0,005	-0,071
-546,554	49,531	0,149	0,102
-545,539	334,820	-0,056	0,079
-544,525	-200,000	0,013	0,055
-543,510	-29,449	-0,134	-0,056
-542,496	-200,000	0,006	0,077
-541,481	233,105	0,011	-0,013
-540,466	456,336	-0,095	-0,154
-539,452	-122,345	0,114	-0,013
-538,437	-178,806	0,091	-0,001
-537,423	-129,280	0,144	0,014
-536,408	-16,338	-0,061	-0,028
-535,393	563,190	0,039	-0,069
-534,379	299,633	0,074	-0,100
-533,364	-200,000	0,006	0,031
-532,350	15,329	0,104	-0,060
-531,335	232,730	-0,083	-0,099
-530,321	94,183	0,099	0,082
-529,306	-99,395	0,119	0,022
-528,291	26,942	-0,104	0,064
-527,277	-200,000	-0,005	-0,136
-526,262	110,069	-0,063	-0,056
-525,248	800,000	0,024	0,066
-524,233	318,601	-0,041	0,057
-523,218	165,728	-0,015	-0,015
-522,204	800,000	0,045	-0,123
-521,189	-88,295	-0,039	-0,008
-520,175	-200,000	0,009	-0,081
-519,160	-187,608	0,049	-0,000
-518,145	-29,831	-0,170	0,071
-517,131	34,031	0,060	0,038
-516,116	-200,000	0,023	0,098
-515,102	800,000	0,045	0,111
-514,087	-200,000	0,012	-0,096
-513,072	-200,000	0,035	-0,240
-512,058	463,795	-0,091	0,149
-511,043	-200,000	-0,010	0,073
-510,029	-200,000	-0,013	-0,042
-509,014	800,000	-0,053	0,112
-507,999	-24,073	-0,052	0,023
-506,985	127,276	-0,051	-0,047
-505,970	142,757	0,037	0,036
-504,956	800,000	0,072	-0,167
-503,941	287,556	-0,016	-0,022
-502,926	151,641	0,115	0,115
-501,912	86,473	-0,099	0,079
-500,897	-68,261	0,057	-0,016
-499,883	151,081	-0,010	0,010
-498,868	301,569	-0,059	-0,079
-497,853	-29,904	0,065	-0,027
-496,839	-200,000	-0,017	-0,111
-495,824	467,611	0,087	0,143
-494,810	442,717	0,033	-0,052
-493,795	-200,000	0,008	-0,088
-492,781	-200,000	0,005	0,036
-491,766	229,578	0,089	-0,106
-490,751	-200,000	-0,004	-0,068
-489,737	-151,598	-0,068	0,004
-488,722	-87,089	0,084	0,019
-487,708	157,665	0,071	-0,072
-486,693	314,659	-0,019	0,026
-485,678	-133,939	-0,137	0,012
-484,664	-127,176	0,134	-0,014
-483,649	-86,169	-0,056	-0,013
-482,635	-200,000	0,013	0,082
-481,620	82,416	-0,050	-0,039
-480,605	-200,000	0,003	0,113
-479,591	800,000	-0,044	0,101
-478,576	-109,475	-0,009	-0,001
-477,562	-200,000	-0,005	-0,025
-476,547	-200,000	-0,004	-0,098
-475,532	607,355	0,026	0,047
-474,518	800,000	-0,029	-0,080
-473,503	800,000	-0,012	-0,031
-472,489	-200,000	0,015	0,104
-471,474	-58,134	-0,196	-0,062
-470,459	-104,591	-0,175	0,029
-469,445	588,365	0,017	0,031
-468,430	-200,000	-0,018	0,076
-467,416	-9,207	-0,055	-0,027
-466,401	-200,000	0,015	0,105
-465,386	68,912	-0,020	0,015
-464,372	-19,054	-0,028	-0,013
-463,357	800,000	-0,037	-0,116
-462,343	-23,720	-0,038	-0,017
-461,328	800,000	-0,056	-0,117
-460,313	53,501	-0,078	-0,055
-459,299	470,415	0,049	-0,081
-458,284	-200,000	-0,001	0,038
-457,270	695,139	-0,089	0,172
-456,255	330,431	0,023	-0,032
-455,241	520,977	0,042	-0,072
-454,226	162,447	-0,031	-0,032
-453,211	-106,005	0,139	-0,023
-452,197	55,559	0,071	-0,050
-451,182	28,609	0,089	0,055
-450,168	-77,602	-0,057	0,014
-449,153	172,352	0,040	0,042
-448,138	800,000	-0,048	0,136
-447,124	399,136	0,033	0,051
-446,109	166,796	-0,121	-0,125
-445,095	-155,156	0,035	0,002
-444,080	433,245	0,039	0,061
-443,065	-200,000	0,019	0,087
-442,051	-52,630	-0,114	0,038
-441,036	-200,000	-0,001	-0,137
-440,022	-132,027	0,125	-0,012
-439,007	-65,160	-0,113	0,033
-437,992	584,098	0,044	0,078
-436,978	-200,000	0,000	0,097
-435,963	330,536	0,084	0,118
-434,949	62,769	0,065	-0,047
-433,934	-176,868	-0,178	0,003
-432,919	-20,666	-0,071	-0,032
-431,905	-62,162	0,114	-0,034
-430,890	-200,000	-0,003	0,106
-429,876	5,496	-0,039	-0,021
-428,861	249,137	0,040	0,050
-427,846	24,599	0,041	-0,025
-426,832	-90,206	-0,140	-0,029
-425,817	-85,880	0,126	0,028
-424,803	-200,000	0,023	-0,143
-423,788	-200,000	-0,007	-0,040
-422,773	-200,000	0,019	0,103
-421,759	-12,539	0,154	-0,073
-420,744	-142,601	0,044	0,003
-419,730	489,615	0,049	-0,082
-418,715	-103,558	-0,075	0,013
-417,701	-200,000	-0,011	-0,096
-416,686	-121,837	0,035	-0,004
-415,671	-54,201	0,134	0,044
-414,657	658,295	-0,064	0,121
-413,642	-200,000	-0,022	0,075
-412,628	-200,000	0,004	-0,038
-411,613	-84,231	-0,139	-0,032
-410,598	260,759	0,067	-0,084
-409,584	43,911	0,024	-0,016
-408,569	75,867	0,096	0,073
-407,555	216,001	-0,164	0,190
-406,540	47,296	0,094	0,063
-405,525	305,678	-0,091	-0,124
-404,511	-200,000	-0,019	-0,121
-403,496	-200,000	0,009	-0,174
-402,482	-106,417	-0,090	0,015
-401,467	-152,768	0,045	-0,002
-400,452	538,952	0,043	0,074
-399,438	436,422	0,041	0,065
-398,423	800,000	0,055	0,144
-397,409	232,385	-0,059	0,070
-396,394	-195,230	-0,075	-0,000
-395,379	-200,000	0,008	-0,069
-394,365	-85,830	0,113	-0,025
-393,350	-37,545	0,068	-0,026
-392,336	25,282	-0,102	-0,062
-391,321	-200,000	0,032	-0,146
-390,306	-36,605	0,047	-0,018
-389,292	339,905	-0,045	0,064
-388,277	800,000	-0,039	0,091
-387,263	-73,983	0,120	0,031
-386,248	273,793	-0,069	0,088
-385,233	-200,000	0,009	0,031
-384,219	-0,565	-0,101	-0,052
-383,204	-1,378	-0,075	0,038
-382,190	800,000	0,045	-0,107
-381,175	-73,032	-0,113	0,030
-380,160	246,742	0,066	-0,082
-379,146	-200,000	0,011	-0,129
-378,131	-39,506	0,099	0,037
-377,117	-200,000	-0,015	0,086
-376,102	120,851	0,151	-0,136
-375,088	601,558	-0,052	0,095
-374,073	94,997	-0,083	0,069
-373,058	800,000	-0,031	0,066
-372,044	-124,914	0,067	-0,007
-371,029	76,215	-0,087	0,067
-370,015	-35,375	0,043	0,017
-369,000	-200,000	-0,005	0,040
-367,985	646,103	0,053	-0,100
-366,971	550,904	0,067	0,116
-365,956	-55,383	0,094	0,030
-364,942	-200,000	-0,012	-0,046
-363,927	-200,000	-0,024	0,089
-362,912	-37,556	-0,042	-0,016
-361,898	89,431	0,032	0,026
-360,883	-107,897	-0,036	0,006
-359,869	-65,533	-0,108	-0,031
-358,854	-200,000	0,013	0,206
-357,839	32,394	0,061	0,038
-356,825	800,000	0,008	0,017
-355,810	-172,405	-0,044	0,001
-354,796	800,000	-0,017	-0,039
-353,781	800,000	-0,033	0,069
-352,766	-200,000	-0,018	-0,180
-351,752	-200,000	-0,004	0,073
-350,737	-2,338	-0,073	-0,037
-349,723	536,557	0,098	0,170
-348,708	727,151	0,042	0,082
-347,693	800,000	-0,031	-0,085
-346,679	347,609	-0,048	-0,068
-345,664	-88,271	-0,037	-0,008
-344,650	800,000	0,039	0,100
-343,635	-72,846	-0,064	-0,017
-342,620	-200,000	-0,015	0,094
-341,606	-200,000	-0,001	0,226
-340,591	23,748	-0,055	0,033
-339,577	-100,388	-0,089	0,016
-338,562	630,633	-0,045	-0,083
-337,548	376,453	-0,105	0,156
-336,533	-41,538	-0,022	0,008
-335,518	-11,643	0,212	0,101
-334,504	-200,000	-0,016	0,119
-333,489	-122,186	-0,149	-0,017
-332,475	-200,000	-0,002	0,070
-331,460	800,000	0,064	-0,138
-330,445	52,957	-0,091	0,063
-329,431	-200,000	-0,043	0,157
-328,416	800,000	0,028	0,060
-327,402	-63,124	-0,095	0,028
-326,387	299,689	-0,082	-0,110
-325,372	-113,049	0,043	-0,006
-324,358	-200,000	0,038	-0,132
-323,343	800,000	0,052	-0,134
-322,329	800,000	0,046	0,139
-321,314	175,716	0,086	0,091
-320,299	-106,689	0,082	0,013
-319,285	371,719	-0,059	0,087
-318,270	373,049	0,127	-0,187
-317,256	577,268	0,032	0,057
-316,241	116,000	0,055	-0,049
-315,226	-200,000	0,007	0,130
-314,212	800,000	0,047	0,145
-313,197	-15,582	0,079	0,037
-312,183	166,427	0,036	0,037
-311,168	124,652	-0,117	-0,107
-310,153	-200,000	-0,018	-0,099
-309,139	800,000	-0,053	0,140
-308,124	800,000	-0,028	-0,066
-307,110	29,341	0,066	-0,041
-306,095	105,493	0,048	-0,041
-305,080	-101,906	-0,144	0,025
-304,066	-200,000	0,060	0,208
-303,051	-122,906	-0,148	-0,017
-302,037	710,057	-0,032	-0,061
-301,022	-28,916	0,056	-0,023
-300,008	112,332	0,099	-0,087
-298,993	162,046	0,096	0,098
-297,978	221,337	0,046	-0,054
-296,964	-173,283	-0,012	0,000
-295,949	-41,665	-0,104	0,039
-294,935	211,521	0,083	-0,094
-293,920	17,858	-0,038	-0,022
-292,905	232,663	0,036	0,043
-291,891	-200,000	0,024	0,236
-290,876	52,598	0,034	0,023
-289,862	-18,623	-0,023	-0,010
-288,847	269,997	0,059	-0,076
-287,832	-152,819	-0,049	0,002
-286,818	-97,058	-0,188	-0,035
-285,803	-74,476	0,088	-0,023
-284,789	-6,649	0,101	0,050
-283,774	416,624	-0,088	-0,136
-282,759	-42,819	-0,088	-0,032
-281,745	-200,000	-0,004	-0,066
-280,730	332,890	0,028	-0,039
-279,716	-60,487	-0,197	0,060
-278,701	221,162	0,070	0,081
-277,686	-74,617	0,108	0,028
-276,672	800,000	0,040	0,121
-275,657	800,000	-0,026	-0,053
-274,643	-200,000	0,023	-0,111
-273,628	-154,928	-0,130	-0,006
-272,613	291,494	0,042	-0,055
-271,599	186,881	0,068	0,074
-270,584	227,145	0,041	0,048
-269,570	-52,962	0,149	-0,049
-268,555	800,000	0,021	-0,051
-267,540	6,225	-0,167	0,089
-266,526	281,853	-0,113	-0,147
-265,511	81,341	-0,117	0,091
-264,497	800,000	0,075	0,182
-263,482	293,609	0,128	0,169
-262,467	56,443	-0,107	-0,075
-261,453	-200,000	-0,005	-0,064
-260,438	-48,872	-0,085	-0,029
-259,424	-200,000	-0,006	0,028
-258,409	120,563	0,047	0,042
-257,395	-31,840	0,041	0,017
-256,380	-200,000	0,007	0,146
-255,365	172,309	-0,126	0,131
-254,351	-26,228	0,176	-0,074
-253,336	-31,092	-0,090	-0,037
-252,322	-87,487	-0,144	-0,031
-251,307	-86,840	-0,150	-0,033
-250,292	-61,945	0,100	0,030
-249,278	-200,000	-0,018	0,088
-248,263	-200,000	-0,031	0,162
-247,249	547,126	0,085	0,148
-246,234	-200,000	0,022	0,081
-245,219	800,000	-0,050	-0,142
-244,205	-200,000	0,000	0,114
-243,190	-112,625	-0,025	0,004
-242,176	289,810	0,032	-0,043
-241,161	-28,864	0,178	0,074
-240,146	-200,000	-0,015	0,095
-239,132	-200,000	-0,008	-0,066
-238,117	-200,000	-0,011	0,108
-237,103	123,818	0,043	-0,039
-236,088	-200,000	-0,015	-0,099
-235,073	800,000	0,027	-0,066
-234,059	381,066	0,060	0,090
-233,044	48,490	-0,102	0,069
-232,030	142,726	0,062	-0,059
-231,015	-200,000	0,001	-0,039
-230,000	-44,459	-0,036	-0,013
-228,986	40,755	-0,027	0,017
-227,971	315,718	0,038	-0,053
-226,957	-200,000	0,020	0,127
-225,942	457,903	0,027	-0,044
-224,927	800,000	0,032	0,080
-223,913	-37,954	0,106	-0,040
-222,898	-200,000	0,002	-0,062
-221,884	-200,000	-0,035	0,170
-220,869	-200,000	-0,008	0,074
-219,855	98,704	0,078	-0,065
-218,840	-176,760	0,080	-0,001
-217,825	447,988	0,014	-0,022
-216,811	469,731	-0,057	0,093
-215,796	-181,362	0,146	-0,002
-214,782	800,000	0,052	-0,114
-213,767	-110,390	-0,116	-0,017
-212,752	-130,372	0,059	0,006
-211,738	390,230	0,081	0,122
-210,723	-200,000	0,004	-0,185
-209,709	447,256	0,029	-0,046
-208,694	192,524	0,031	-0,034
-207,679	-76,532	0,010	-0,003
-206,665	800,000	-0,032	-0,078
-205,650	-101,713	0,052	-0,009
-204,636	255,122	0,042	-0,053
-203,621	-12,344	-0,051	0,024
-202,606	-129,990	-0,076	0,007
-201,592	588,380	0,084	0,151
-200,577	8,500	0,153	-0,083
-199,563	-179,103	0,101	-0,002
-198,548	36,347	0,061	-0,039
-197,533	72,839	0,081	-0,061
-196,519	-200,000	-0,014	0,060
-195,504	117,047	-0,055	-0,049
-194,490	-200,000	0,003	-0,077
-193,475	-73,091	0,035	-0,009
-192,460	-104,982	0,130	-0,021
-191,446	800,000	-0,010	-0,030
-190,431	-69,424	0,113	0,031
-189,417	34,449	-0,135	0,085
-188,402	800,000	0,019	-0,039
-187,387	450,135	-0,048	-0,077
-186,373	-77,533	-0,202	-0,050
-185,358	80,296	0,101	-0,079
-184,344	800,000	-0,036	0,097
-183,329	-67,667	0,104	0,029
-182,315	-74,426	0,130	-0,034
-181,300	-28,577	-0,162	0,067
-180,285	-48,528	0,070	-0,024
-179,271	-200,000	0,027	-0,099
-178,256	-18,324	-0,078	-0,035
-177,242	-93,154	0,251	-0,050
-176,227	-200,000	0,021	0,122
-175,212	-200,000	-0,021	-0,081
-174,198	-200,000	-0,001	0,105
-173,183	273,367	-0,090	0,115
-172,169	-46,222	-0,136	0,048
-171,154	-200,000	-0,001	0,062
-170,139	155,969	0,091	0,090
-169,125	-102,571	0,091	0,016
-168,110	-200,000	0,012	0,063
-167,096	259,257	0,093	0,116
-166,081	132,753	0,049	0,046
-165,066	203,476	-0,133	-0,149
-164,052	-200,000	-0,001	-0,085
-163,037	-26,830	-0,116	-0,049
-162,023	800,000	-0,061	0,183
-161,008	-200,000	0,012	-0,127
-159,993	13,896	0,108	0,060
-158,979	-200,000	-0,003	-0,074
-157,964	712,841	-0,014	-0,027
-156,950	-180,033	0,038	0,001
-155,935	137,439	0,047	0,044
-154,920	274,594	-0,036	0,046
-153,906	41,628	0,074	0,048
-152,891	179,946	-0,060	-0,064
-151,877	-200,000	-0,025	-0,118
-150,862	86,214	-0,154	-0,122
-149,847	-69,965	0,046	-0,013
-148,833	217,999	-0,047	0,054
-147,818	-200,000	-0,010	0,084
-146,804	-200,000	0,011	0,175
-145,789	800,000	0,046	-0,122
-144,775	800,000	0,037	-0,090
-143,760	-51,682	-0,189	-0,063
-142,745	-200,000	-0,015	-0,092
-141,731	-200,000	0,013	-0,085
-140,716	136,120	0,153	-0,143
-139,702	-110,397	0,107	-0,016
-138,687	77,104	0,057	-0,044
-137,672	-200,000	-0,001	-0,029
-136,658	773,022	0,035	0,069
-135,643	-200,000	0,010	-0,109
-134,629	200,992	-0,036	-0,040
-133,614	19,637	-0,040	0,023
-132,599	800,000	0,010	0,024
-131,585	207,719	0,044	0,050
-130,570	110,411	0,139	-0,120
-129,556	-200,000	0,008	0,063
-128,541	80,396	-0,064	-0,049
-127,526	381,079	0,014	0,020
-126,512	800,000	-0,011	0,029
-125,497	-40,494	0,158	0,059
-124,483	137,208	0,059	0,055
-123,468	301,153	0,092	0,123
-122,453	-200,000	-0,014	-0,117
-121,439	679,736	0,071	0,134
-120,424	210,383	-0,072	-0,082
