DTS Sentinel unit serial number:	SN410029Multiplexer serial number:	ORYXHardware model number:	OX2-SRSoftware version number:	ORYX F/W v4,00 Oryx Data Collector v3.7.2.0data status	okinstallation	B5 Nyhavnadifferential loss correction	single-endedforward channel	channel 2reverse channel	N/Adate	2023/12/11time	23:02:13forward acquisition time	300,00reverse acquisition time	0,00gamma	499,1914k internal	0,3155k external	0,3155temperature offset calibration	1,0000default loss term (dB/km)	0,3820temperature slope calibration	1,0000multiplexer offset coefficient	1,0000multiplexer slope coefficient	1,0000fibre end	0,00T internal ref (°C)	16,29T ext. ref 1 (°C)	-0,05T ext. ref 2 (°C)	-0,32length (m)	temperature (°C)	Stokes	anti-Stokes-744,400	-200,000	0,016	-0,184
-743,385	-188,512	-0,365	-0,003
-742,371	214,587	0,171	0,200
-741,356	-172,431	-0,335	-0,008
-740,342	425,984	-0,033	0,053
-739,327	36,449	-0,112	0,073
-738,312	95,158	0,081	-0,068
-737,298	-122,057	-0,300	-0,036
-736,283	244,406	0,138	-0,171
-735,269	-169,239	-0,333	-0,009
-734,254	429,358	0,088	0,141
-733,239	47,224	-0,310	-0,213
-732,225	26,850	0,158	-0,097
-731,210	-200,000	0,022	-0,126
-730,196	-77,258	-0,036	0,009
-729,181	-82,412	0,072	0,017
-728,167	800,000	0,012	-0,025
-727,152	-200,000	0,020	-0,110
-726,137	-83,297	-0,204	0,048
-725,123	493,160	-0,068	0,116
-724,108	-200,000	-0,010	-0,155
-723,094	-63,663	-0,038	-0,011
-722,079	431,351	-0,061	0,098
-721,064	800,000	0,054	-0,134
-720,050	-47,936	0,105	-0,037
-719,035	-200,000	-0,037	-0,123
-718,021	-40,747	-0,070	-0,027
-717,006	113,401	-0,075	-0,067
-715,991	800,000	-0,013	-0,036
-714,977	-9,290	-0,069	-0,034
-713,962	197,059	0,107	-0,120
-712,948	-155,176	0,076	-0,004
-711,933	317,126	0,095	-0,133
-710,918	-47,202	-0,079	0,028
-709,904	800,000	0,048	-0,117
-708,889	582,864	0,039	0,071
-707,875	95,531	-0,048	-0,040
-706,860	491,844	0,064	-0,108
-705,845	-139,649	-0,029	0,002
-704,831	-200,000	0,010	-0,065
-703,816	800,000	0,003	-0,006
-702,802	-10,331	-0,028	-0,014
-701,787	-200,000	-0,014	-0,111
-700,772	-154,655	0,059	-0,003
-699,758	95,243	0,095	0,080
-698,743	290,353	-0,066	0,089
-697,729	-47,055	0,175	-0,063
-696,714	227,200	0,030	0,036
-695,699	-74,887	-0,106	-0,028
-694,685	337,970	0,020	0,029
-693,670	800,000	-0,071	-0,153
-692,656	148,547	-0,048	-0,048
-691,641	-81,365	0,119	0,029
-690,627	241,436	0,080	0,099
-689,612	-19,817	0,185	-0,084
-688,597	-200,000	-0,011	0,036
-687,583	-56,456	-0,120	0,039
-686,568	9,340	-0,064	-0,035
-685,554	-4,397	0,042	0,021
-684,539	126,595	0,038	0,036
-683,524	-200,000	-0,010	0,043
-682,510	-81,981	-0,058	0,014
-681,495	46,227	0,088	0,060
-680,481	-200,000	0,001	-0,016
-679,466	-146,347	-0,201	-0,013
-678,451	-200,000	0,012	0,050
-677,437	-200,000	-0,008	0,047
-676,422	187,256	0,086	0,095
-675,408	-113,999	0,047	0,007
-674,393	44,024	-0,096	0,064
-673,378	586,355	0,073	-0,133
-672,364	735,442	-0,057	-0,114
-671,349	800,000	-0,018	-0,051
-670,335	-69,024	0,231	-0,065
-669,320	800,000	-0,044	-0,109
-668,305	-200,000	-0,001	0,006
-667,291	-60,800	-0,191	0,059
-666,276	-200,000	0,017	-0,133
-665,262	161,445	0,095	-0,098
-664,247	-106,206	-0,030	0,005
-663,232	800,000	0,049	-0,112
-662,218	-35,274	0,081	0,032
-661,203	-200,000	0,007	0,103
-660,189	-22,131	0,072	0,032
-659,174	-0,425	0,082	-0,043
-658,159	123,831	-0,043	0,040
-657,145	-200,000	0,012	0,000
-656,130	-200,000	-0,009	-0,052
-655,116	-55,769	0,105	-0,034
-654,101	71,477	-0,043	0,033
-653,086	-1,722	0,053	0,027
-652,072	-200,000	-0,013	-0,071
-651,057	800,000	-0,042	-0,097
-650,043	580,599	0,009	0,016
-649,028	204,080	0,025	-0,028
-648,014	268,422	0,029	0,037
-646,999	-118,772	0,081	0,010
-645,984	-200,000	0,028	-0,102
-644,970	-168,148	-0,063	-0,002
-643,955	800,000	-0,013	-0,028
-642,941	-81,708	-0,151	-0,036
-641,926	-200,000	0,021	0,073
-640,911	-200,000	0,002	0,016
-639,897	-200,000	0,012	0,205
-638,882	2,651	0,020	-0,011
-637,868	-105,207	0,060	0,010
-636,853	79,030	0,057	-0,045
-635,838	233,890	-0,083	-0,101
-634,824	-140,042	-0,148	-0,011
-633,809	-20,041	-0,145	0,066
-632,795	-200,000	0,009	-0,154
-631,780	-200,000	0,024	-0,085
-630,765	-46,736	-0,144	0,051
-629,751	222,764	-0,038	0,045
-628,736	71,904	-0,078	-0,060
-627,722	276,578	-0,026	-0,034
-626,707	80,176	-0,044	0,035
-625,692	-200,000	0,033	0,121
-624,678	-24,410	-0,039	0,017
-623,663	72,275	0,081	-0,062
-622,649	-200,000	-0,016	-0,077
-621,634	-200,000	0,019	0,069
-620,619	410,274	-0,027	0,043
-619,605	-86,843	-0,081	0,018
-618,590	800,000	0,024	-0,076
-617,576	-10,794	-0,180	0,087
-616,561	342,619	0,026	-0,037
-615,546	-200,000	-0,036	-0,163
-614,532	-200,000	0,023	-0,114
-613,517	-114,913	0,031	0,004
-612,503	19,171	-0,072	-0,042
-611,488	75,450	0,119	-0,092
-610,474	-200,000	0,006	-0,127
-609,459	-200,000	-0,015	-0,049
-608,444	-200,000	0,002	-0,108
-607,430	800,000	-0,028	-0,059
-606,415	71,102	-0,089	0,067
-605,401	301,140	0,044	-0,060
-604,386	140,493	0,060	0,058
-603,371	197,460	0,075	-0,084
-602,357	-78,918	0,009	0,002
-601,342	-100,040	-0,018	0,003
-600,328	800,000	-0,025	-0,054
-599,313	-1,328	-0,044	-0,022
-598,298	671,427	-0,005	0,010
-597,284	-115,088	0,063	0,009
-596,269	-127,530	0,154	-0,016
-595,255	-200,000	-0,090	0,000
-594,240	-200,000	-0,005	-0,045
-593,225	213,902	-0,042	0,048
-592,211	261,792	0,070	-0,089
-591,196	339,775	0,051	-0,073
-590,182	54,089	0,102	-0,072
-589,167	69,841	0,030	0,022
-588,152	800,000	-0,033	0,094
-587,138	492,489	0,005	0,009
-586,123	-62,941	0,038	0,011
-585,109	174,634	-0,061	-0,065
-584,094	-200,000	-0,008	0,126
-583,079	272,987	-0,029	-0,038
-582,065	-200,000	-0,000	-0,008
-581,050	-200,000	0,023	0,107
-580,036	122,212	-0,022	0,020
-579,021	-200,000	-0,014	-0,077
-578,006	-200,000	0,008	-0,126
-576,992	800,000	-0,057	-0,137
-575,977	-200,000	0,008	-0,069
-574,963	677,849	0,062	0,118
-573,948	0,802	-0,084	-0,044
-572,934	-74,726	-0,143	-0,037
-571,919	53,774	0,115	-0,081
-570,904	216,671	-0,053	0,062
-569,890	800,000	0,030	-0,068
-568,875	354,675	0,046	0,068
-567,861	28,291	-0,099	-0,061
-566,846	134,230	0,038	-0,036
-565,831	53,413	0,098	0,069
-564,817	-98,320	-0,061	-0,011
-563,802	-200,000	-0,033	-0,118
-562,788	50,033	-0,065	0,045
-561,773	90,027	-0,025	0,020
-560,758	-200,000	-0,005	0,096
-559,744	-39,964	0,153	0,058
-558,729	0,671	-0,104	-0,054
-557,715	23,547	-0,081	-0,049
-556,700	-200,000	0,019	-0,115
-555,685	-62,998	-0,058	-0,017
-554,671	-50,770	0,099	0,034
-553,656	277,220	0,031	0,041
-552,642	226,934	-0,049	0,059
-551,627	800,000	-0,074	0,161
-550,612	568,567	-0,039	-0,069
-549,598	137,162	0,076	-0,073
-548,583	-81,215	-0,130	-0,031
-547,569	43,144	0,053	0,035
-546,554	121,046	0,097	-0,088
-545,539	102,487	0,097	0,083
-544,525	521,043	0,008	-0,014
-543,510	-9,684	-0,118	0,057
-542,496	63,011	0,103	-0,075
-541,481	444,541	-0,057	0,093
-540,466	-200,000	0,006	0,131
-539,452	654,614	0,022	0,042
-538,437	-200,000	0,011	-0,057
-537,423	-200,000	-0,017	-0,070
-536,408	86,858	0,029	0,023
-535,393	62,068	-0,058	-0,042
-534,379	207,633	-0,077	0,088
-533,364	287,333	0,015	-0,020
-532,350	-200,000	0,015	0,103
-531,335	-78,065	-0,085	0,021
-530,321	-185,347	-0,126	0,001
-529,306	3,714	-0,052	-0,028
-528,291	-200,000	-0,029	-0,099
-527,277	-200,000	-0,002	0,012
-526,262	-200,000	-0,027	0,093
-525,248	4,403	0,035	0,019
-524,233	213,862	0,052	-0,060
-523,218	-200,000	0,006	0,078
-522,204	-46,168	0,159	0,057
-521,189	782,714	-0,017	-0,034
-520,175	-98,690	0,038	0,007
-519,160	-131,119	0,097	-0,009
-518,145	-200,000	0,038	-0,173
-517,131	53,787	0,058	-0,041
-516,116	-70,088	0,113	-0,031
-515,102	516,490	0,015	0,026
-514,087	149,607	-0,088	-0,087
-513,072	237,830	0,087	-0,106
-512,058	-8,327	0,072	0,035
-511,043	-167,432	-0,165	0,005
-510,029	65,062	0,093	0,069
-509,014	-1,583	0,082	0,042
-507,999	-200,000	0,005	0,019
-506,985	-140,037	-0,045	0,003
-505,970	800,000	-0,024	-0,065
-504,956	419,970	-0,051	-0,081
-503,941	-200,000	-0,032	0,128
-502,926	163,142	0,128	0,131
-501,912	789,127	0,066	0,132
-500,897	16,950	0,061	-0,035
-499,883	67,306	-0,066	0,049
-498,868	800,000	-0,054	-0,135
-497,853	-200,000	-0,013	-0,115
-496,839	800,000	0,039	-0,117
-495,824	-195,529	0,120	0,001
-494,810	21,470	0,133	0,079
-493,795	-95,445	-0,164	0,032
-492,781	800,000	0,022	0,045
-491,766	-200,000	-0,003	-0,144
-490,751	-62,407	-0,093	-0,028
-489,737	-12,837	-0,016	0,008
-488,722	-29,346	0,052	-0,022
-487,708	-88,193	-0,114	0,025
-486,693	47,053	0,023	0,016
-485,678	-200,000	0,000	0,021
-484,664	121,747	-0,042	-0,039
-483,649	-200,000	0,003	-0,104
-482,635	-8,550	0,113	0,055
-481,620	164,314	-0,080	0,083
-480,605	-104,226	0,076	-0,013
-479,591	-64,912	0,043	0,013
-478,576	-159,872	-0,097	-0,004
-477,562	61,895	-0,065	0,047
-476,547	431,272	0,063	-0,100
-475,532	583,016	0,060	0,107
-474,518	800,000	-0,084	0,184
-473,503	75,245	0,076	0,058
-472,489	-200,000	-0,025	0,101
-471,474	117,932	-0,090	0,081
-470,459	-200,000	0,005	-0,157
-469,445	-23,580	0,099	0,043
-468,430	-30,169	-0,048	-0,020
-467,416	-200,000	-0,008	-0,068
-466,401	312,309	0,062	0,085
-465,386	-63,489	-0,062	-0,018
-464,372	-124,945	0,078	0,009
-463,357	-154,222	-0,190	-0,009
-462,343	-200,000	0,040	-0,143
-461,328	734,419	-0,036	-0,071
-460,313	430,728	0,036	-0,057
-459,299	-200,000	-0,010	0,087
-458,284	103,820	0,085	0,073
-457,270	800,000	0,030	-0,062
-456,255	-73,331	-0,063	-0,017
-455,241	-118,439	0,076	-0,010
-454,226	54,881	-0,075	0,053
-453,211	267,597	-0,099	0,127
-452,197	51,962	0,082	0,057
-451,182	-200,000	0,005	-0,081
-450,168	432,176	-0,044	-0,070
-449,153	800,000	-0,008	0,017
-448,138	-200,000	-0,005	0,034
-447,124	20,049	0,117	-0,069
-446,109	180,061	0,011	0,011
-445,095	-134,938	0,112	-0,010
-444,080	-200,000	-0,046	0,248
-443,065	-109,070	0,146	-0,022
-442,051	-16,278	0,060	0,028
-441,036	800,000	0,018	0,055
-440,022	780,492	-0,097	-0,194
-439,007	69,167	0,054	-0,040
-437,992	-96,859	-0,071	0,013
-436,978	-200,000	0,030	0,109
-435,963	-200,000	0,021	0,067
-434,949	225,907	-0,033	-0,039
-433,934	-200,000	0,002	0,092
-432,919	-200,000	0,011	-0,078
-431,905	-85,364	-0,130	-0,029
-430,890	-17,668	0,167	-0,076
-429,876	42,464	0,040	0,026
-428,861	800,000	-0,025	0,065
-427,846	28,860	-0,050	-0,031
-426,832	-200,000	-0,017	-0,073
-425,817	-200,000	0,005	-0,100
-424,803	-200,000	0,014	-0,145
-423,788	800,000	0,023	-0,051
-422,773	800,000	0,064	0,164
-421,759	-200,000	0,004	0,083
-420,744	410,830	0,032	-0,050
-419,730	150,044	-0,090	0,089
-418,715	-81,094	-0,078	-0,019
-417,701	-59,423	-0,162	0,050
-416,686	412,921	0,025	0,038
-415,671	-6,739	0,064	0,032
-414,657	-52,216	-0,050	-0,017
-413,642	-37,521	0,088	0,034
-412,628	-76,764	-0,143	-0,036
-411,613	-200,000	0,026	-0,084
-410,598	800,000	0,037	-0,081
-409,584	-137,791	0,189	0,015
-408,569	-200,000	0,009	0,067
-407,555	-200,000	0,002	0,036
-406,540	-200,000	0,006	-0,043
-405,525	-200,000	0,012	-0,108
-404,511	-59,342	-0,050	-0,016
-403,496	311,775	-0,086	-0,118
-402,482	-172,797	0,077	0,002
-401,467	-19,719	-0,168	-0,075
-400,452	647,970	0,010	0,020
-399,438	-200,000	0,024	-0,148
-398,423	-164,320	-0,123	-0,004
-397,409	12,658	-0,086	0,048
-396,394	800,000	-0,025	-0,054
-395,379	-200,000	0,017	-0,079
-394,365	-61,241	0,089	-0,027
-393,350	-200,000	0,011	0,137
-392,336	800,000	0,019	-0,045
-391,321	193,301	0,054	-0,060
-390,306	46,340	-0,119	0,080
-389,292	98,474	0,063	0,053
-388,277	269,948	0,021	0,027
-387,263	-91,865	0,089	0,018
-386,248	-200,000	0,030	0,119
-385,233	800,000	0,025	0,052
-384,219	-200,000	0,004	0,125
-383,204	580,857	0,021	-0,037
-382,190	136,374	0,051	0,048
-381,175	87,390	-0,033	0,027
-380,160	-200,000	-0,001	-0,042
-379,146	-8,624	0,095	-0,046
-378,131	-183,309	0,063	-0,001
-377,117	-56,778	0,059	0,019
-376,102	-110,884	0,099	-0,015
-375,088	346,254	-0,075	0,107
-374,073	189,208	-0,020	0,021
-373,058	-200,000	-0,014	0,221
-372,044	-10,004	0,039	0,019
-371,029	217,529	0,053	-0,062
-370,015	-200,000	0,027	-0,091
-369,000	64,110	-0,096	-0,070
-367,985	138,592	-0,017	-0,016
-366,971	89,503	0,059	-0,047
-365,956	149,218	0,101	-0,099
-364,942	260,011	-0,074	-0,093
-363,927	30,259	0,030	-0,019
-362,912	39,452	-0,030	0,019
-361,898	-48,614	-0,074	0,026
-360,883	-200,000	0,060	0,195
-359,869	9,072	-0,078	0,043
-358,854	-200,000	0,018	-0,091
-357,839	-200,000	-0,031	0,106
-356,825	469,589	0,086	0,141
-355,810	129,391	-0,084	0,078
-354,796	-200,000	0,021	-0,152
-353,781	258,429	0,135	-0,170
-352,766	646,077	-0,117	0,218
-351,752	128,508	-0,053	0,049
-350,737	236,903	0,037	0,044
-349,723	-33,414	0,041	-0,016
-348,708	64,498	-0,004	-0,003
-347,693	367,917	0,042	0,062
-346,679	-4,296	-0,030	0,015
-345,664	75,946	-0,046	0,036
-344,650	99,236	-0,097	-0,082
-343,635	-200,000	-0,003	0,086
-342,620	800,000	0,129	0,326
-341,606	34,393	-0,152	-0,096
-340,591	15,653	0,048	-0,027
-339,577	-188,739	-0,090	-0,001
-338,562	210,019	-0,045	0,051
-337,548	-200,000	-0,008	-0,132
-336,533	621,913	-0,054	0,099
-335,518	277,603	-0,040	-0,052
-334,504	-68,855	0,016	-0,004
-333,489	-105,679	0,033	-0,005
-332,475	-148,540	-0,101	0,006
-331,460	369,253	-0,034	-0,050
-330,445	800,000	0,014	0,043
-329,431	-8,899	-0,091	-0,044
-328,416	418,995	0,055	0,085
-327,402	-200,000	0,002	-0,048
-326,387	170,586	-0,038	-0,039
-325,372	-140,469	-0,142	0,011
-324,358	800,000	0,014	-0,032
-323,343	800,000	0,040	-0,105
-322,329	-8,151	-0,090	0,044
-321,314	-200,000	0,009	-0,078
-320,299	-189,384	-0,016	-0,000
-319,285	-155,448	0,077	0,004
-318,270	-114,361	-0,034	0,005
-317,256	-200,000	-0,097	-0,000
-316,241	800,000	-0,031	0,066
-315,226	-150,739	0,054	-0,003
-314,212	50,345	0,153	0,105
-313,197	-200,000	0,017	0,093
-312,183	291,915	0,043	-0,057
-311,168	-29,258	-0,082	0,034
-310,153	800,000	0,056	-0,177
-309,139	800,000	0,019	-0,053
-308,124	205,921	0,046	-0,052
-307,110	116,962	0,078	0,070
-306,095	-200,000	-0,011	0,077
-305,080	-120,983	-0,054	0,006
-304,066	-55,359	-0,146	-0,047
-303,051	324,245	0,049	0,068
-302,037	800,000	-0,011	0,024
-301,022	218,606	-0,075	-0,087
-300,008	3,688	-0,140	0,074
-298,993	800,000	-0,026	0,061
-297,978	168,915	0,043	0,044
-296,964	-200,000	-0,032	-0,110
-295,949	206,864	0,104	-0,117
-294,935	214,704	-0,062	-0,072
-293,920	800,000	-0,026	0,082
-292,905	20,445	-0,116	0,068
-291,891	-109,221	0,154	-0,023
-290,876	-145,027	-0,044	-0,003
-289,862	-200,000	-0,000	-0,040
-288,847	-200,000	0,015	0,156
-287,832	-16,215	-0,089	0,041
-286,818	-22,406	0,097	-0,042
-285,803	-200,000	0,011	-0,056
-284,789	-93,286	0,108	0,021
-283,774	-29,082	0,030	-0,012
-282,759	2,746	-0,048	-0,025
-281,745	368,402	0,048	-0,071
-280,730	56,948	0,084	-0,060
-279,716	-200,000	0,007	0,040
-278,701	168,159	0,084	0,087
-277,686	23,708	0,172	-0,102
-276,672	79,380	-0,049	0,038
-275,657	800,000	0,072	0,177
-274,643	800,000	0,035	-0,071
-273,628	800,000	0,054	-0,114
-272,613	214,084	-0,127	0,146
-271,599	19,948	0,086	0,050
-270,584	118,617	0,021	-0,019
-269,570	46,424	0,116	-0,078
-268,555	800,000	-0,015	-0,040
-267,540	112,105	-0,069	0,060
-266,526	-200,000	0,008	-0,082
-265,511	-200,000	-0,002	-0,040
-264,497	31,613	0,047	0,029
-263,482	-200,000	-0,002	0,090
-262,467	334,842	-0,019	0,026
-261,453	-200,000	-0,009	0,030
-260,438	-3,767	-0,110	0,055
-259,424	-178,434	-0,051	0,001
-258,409	800,000	-0,015	0,040
-257,395	-200,000	-0,017	0,118
-256,380	-200,000	0,030	-0,106
-255,365	800,000	-0,038	0,087
-254,351	-122,333	0,016	0,002
-253,336	-97,327	0,150	0,028
-252,322	44,774	-0,055	-0,037
-251,307	49,723	-0,180	-0,123
-250,292	-117,788	0,043	0,006
-249,278	-200,000	-0,027	0,096
-248,263	800,000	0,035	0,095
-247,249	157,222	0,056	0,056
-246,234	373,541	-0,056	-0,083
-245,219	142,339	-0,069	-0,066
-244,205	-156,479	-0,043	0,002
-243,190	-200,000	-0,006	-0,158
-242,176	-200,000	0,001	0,031
-241,161	-132,104	-0,112	-0,010
-240,146	135,237	-0,032	0,030
-239,132	-21,412	0,005	-0,002
-238,117	603,475	0,026	0,046
-237,103	132,482	-0,075	-0,070
-236,088	263,776	0,071	0,090
-235,073	-200,000	0,003	-0,022
-234,059	-200,000	-0,023	-0,134
-233,044	-200,000	0,006	0,067
-232,030	230,504	0,136	0,161
-231,015	-200,000	0,003	-0,131
-230,000	10,087	-0,115	-0,063
-228,986	-200,000	-0,007	-0,075
-227,971	-200,000	-0,004	-0,134
-226,957	693,663	-0,035	-0,067
-225,942	-200,000	-0,004	0,040
-224,927	28,727	-0,008	0,005
-223,913	800,000	-0,069	-0,151
-222,898	-200,000	-0,033	-0,178
-221,884	85,321	-0,063	0,050
-220,869	101,551	0,096	-0,081
-219,855	207,582	0,096	0,108
-218,840	230,639	-0,048	0,057
-217,825	-200,000	-0,008	0,138
-216,811	-41,228	-0,054	-0,020
-215,796	96,934	0,110	-0,091
-214,782	-86,926	-0,089	-0,019
-213,767	-200,000	-0,016	0,136
-212,752	276,718	0,100	0,129
-211,738	800,000	-0,042	0,088
-210,723	365,216	-0,053	-0,078
-209,709	156,271	-0,097	-0,097
-208,694	-200,000	-0,009	-0,036
-207,679	-17,924	-0,065	0,029
-206,665	-200,000	-0,025	0,127
-205,650	121,452	0,041	-0,037
-204,636	-200,000	-0,009	0,094
-203,621	-151,601	0,086	0,005
-202,606	530,555	-0,050	0,085
-201,592	-200,000	-0,013	0,070
-200,577	-200,000	-0,005	-0,107
-199,563	50,189	0,132	0,090
-198,548	-200,000	-0,022	0,081
-197,533	-72,701	0,104	-0,028
-196,519	6,946	0,044	-0,023
-195,504	68,115	-0,021	-0,016
-194,490	-76,441	-0,081	0,020
-193,475	-200,000	-0,022	0,112
-192,460	285,019	-0,024	0,031
-191,446	280,288	0,098	-0,127
-190,431	800,000	-0,067	0,148
-189,417	-200,000	0,011	-0,048
-188,402	14,168	-0,148	0,083
-187,387	-200,000	-0,027	0,093
-186,373	-200,000	-0,009	-0,111
-185,358	800,000	-0,035	0,083
-184,344	43,766	0,049	0,032
-183,329	800,000	-0,061	0,135
-182,315	-157,616	0,102	-0,004
-181,300	504,476	-0,025	-0,041
-180,285	-200,000	-0,007	0,033
-179,271	139,478	0,087	0,083
-178,256	2,352	-0,125	-0,065
-177,242	-28,032	0,027	-0,011
-176,227	24,655	0,043	-0,026
-175,212	536,059	0,019	-0,033
-174,198	61,685	0,054	0,039
-173,183	-200,000	0,022	-0,086
-172,169	-9,027	0,114	-0,055
-171,154	546,554	0,037	0,064
-170,139	624,039	0,058	0,107
-169,125	386,952	0,099	-0,148
-168,110	539,982	0,052	0,090
-167,096	-200,000	-0,007	-0,114
-166,081	-104,976	-0,086	0,014
-165,066	-50,649	0,069	0,023
-164,052	50,036	0,044	-0,030
-163,037	-200,000	-0,049	0,161
-162,023	800,000	0,035	0,109
-161,008	-31,138	0,153	-0,062
-159,993	-23,237	-0,067	-0,029
-158,979	297,885	-0,033	-0,044
-157,964	-200,000	0,000	-0,119
-156,950	800,000	0,024	0,074
-155,935	-74,042	0,044	0,011
-154,920	159,913	-0,100	-0,100
-153,906	-111,414	0,066	0,010
-152,891	-162,138	0,153	-0,005
-151,877	167,292	-0,035	-0,036
-150,862	68,933	-0,026	0,019
-149,847	800,000	0,053	0,112
-148,833	-200,000	-0,029	-0,159
-147,818	-72,555	-0,051	0,014
-146,804	-7,073	-0,051	0,025
-145,789	-20,037	0,097	-0,043
-144,775	241,306	0,083	-0,100
-143,760	385,614	-0,101	-0,151
-142,745	-23,637	0,125	-0,054
-141,731	515,272	-0,029	0,048
-140,716	-200,000	0,005	0,060
-139,702	-200,000	0,028	0,090
-138,687	56,749	-0,114	0,080
-137,672	169,501	-0,064	0,066
-136,658	-125,725	-0,116	-0,012
-135,643	340,120	0,044	0,062
-134,629	-133,706	0,160	-0,014
-133,614	-73,284	-0,055	-0,014
-132,599	-200,000	-0,010	0,039
-131,585	364,647	-0,082	0,119
-130,570	150,432	0,086	0,084
-129,556	136,234	-0,019	-0,018
-128,541	-200,000	-0,005	-0,076
-127,526	45,285	0,066	0,044
-126,512	86,614	0,108	0,086
-125,497	-200,000	-0,017	-0,117
-124,483	-200,000	0,030	-0,194
-123,468	-200,000	-0,016	0,080
-122,453	-165,977	0,051	-0,002
-121,439	800,000	0,045	-0,131
-120,424	104,010	-0,160	-0,135
-119,410	800,000	0,017	0,037
