DTS Sentinel unit serial number:	SN410029Multiplexer serial number:	ORYXHardware model number:	OX2-SRSoftware version number:	ORYX F/W v4,00 Oryx Data Collector v3.7.2.0data status	okinstallation	B5 Nyhavnadifferential loss correction	single-endedforward channel	channel 2reverse channel	N/Adate	2023/12/11time	18:07:13forward acquisition time	300,00reverse acquisition time	0,00gamma	499,1914k internal	0,3162k external	0,3162temperature offset calibration	1,0000default loss term (dB/km)	0,3820temperature slope calibration	1,0000multiplexer offset coefficient	1,0000multiplexer slope coefficient	1,0000fibre end	0,00T internal ref (°C)	15,03T ext. ref 1 (°C)	-0,46T ext. ref 2 (°C)	-0,75length (m)	temperature (°C)	Stokes	anti-Stokes-744,400	148,348	0,010	-0,010
-743,385	-156,520	-0,284	-0,013
-742,371	11,703	0,115	0,065
-741,356	-27,596	-0,251	-0,107
-740,342	0,515	0,121	0,063
-739,327	-6,169	-0,269	0,135
-738,312	-132,618	-0,079	0,007
-737,298	-164,695	-0,326	-0,011
-736,283	-200,000	-0,006	0,027
-735,269	250,621	-0,056	-0,070
-734,254	81,675	0,088	0,070
-733,239	-96,308	-0,513	-0,099
-732,225	-28,030	0,188	0,080
-731,210	800,000	-0,051	0,131
-730,196	159,871	-0,090	-0,092
-729,181	-200,000	0,024	-0,127
-728,167	-115,859	-0,044	0,006
-727,152	-122,504	-0,138	0,016
-726,137	-57,051	0,091	-0,029
-725,123	-18,791	-0,116	-0,053
-724,108	-200,000	0,013	-0,129
-723,094	131,432	-0,097	-0,092
-722,079	336,064	0,066	-0,095
-721,064	193,825	-0,101	-0,112
-720,050	31,626	0,033	0,021
-719,035	-146,112	-0,098	0,006
-718,021	-155,303	0,105	-0,005
-717,006	343,441	0,063	-0,091
-715,991	-200,000	0,029	-0,199
-714,977	-200,000	-0,023	-0,085
-713,962	705,334	-0,012	-0,023
-712,948	-91,504	0,037	-0,008
-711,933	212,718	-0,032	0,038
-710,918	261,942	0,008	0,010
-709,904	800,000	0,009	-0,024
-708,889	100,930	-0,039	-0,034
-707,875	215,738	0,020	-0,023
-706,860	31,005	-0,033	0,021
-705,845	-200,000	0,000	-0,044
-704,831	349,483	0,084	0,123
-703,816	798,910	-0,045	-0,091
-702,802	-121,024	-0,038	-0,005
-701,787	-31,543	-0,133	-0,055
-700,772	-200,000	-0,013	-0,086
-699,758	800,000	0,026	-0,079
-698,743	72,071	0,064	-0,049
-697,729	-128,687	-0,010	-0,001
-696,714	800,000	-0,063	0,141
-695,699	109,262	-0,080	-0,071
-694,685	-183,227	-0,063	-0,001
-693,670	800,000	0,040	-0,107
-692,656	65,918	-0,056	-0,042
-691,641	539,403	0,046	0,080
-690,627	-37,343	0,174	0,068
-689,612	186,860	-0,010	-0,011
-688,597	800,000	0,051	0,105
-687,583	800,000	-0,014	0,039
-686,568	-25,979	0,089	0,038
-685,554	-200,000	0,010	-0,129
-684,539	800,000	0,035	0,108
-683,524	229,012	0,048	-0,057
-682,510	-200,000	-0,001	-0,184
-681,495	600,115	0,034	0,063
-680,481	17,371	-0,047	-0,027
-679,466	-42,824	-0,109	0,040
-678,451	-23,637	0,029	-0,013
-677,437	800,000	0,017	-0,049
-676,422	4,266	0,079	0,043
-675,408	-200,000	-0,010	-0,143
-674,393	14,938	-0,079	-0,045
-673,378	83,026	-0,082	0,065
-672,364	800,000	-0,045	-0,103
-671,349	-200,000	-0,006	-0,089
-670,335	173,741	-0,039	0,041
-669,320	-200,000	0,010	-0,038
-668,305	154,438	0,041	-0,042
-667,291	107,717	-0,128	-0,112
-666,276	536,970	-0,033	-0,057
-665,262	-181,290	-0,141	0,002
-664,247	262,427	0,053	-0,068
-663,232	-91,683	-0,106	0,022
-662,218	140,850	0,162	0,157
-661,203	-200,000	0,006	0,111
-660,189	-14,139	-0,025	-0,012
-659,174	342,951	0,041	-0,059
-658,159	-200,000	-0,012	-0,106
-657,145	407,477	-0,097	-0,152
-656,130	75,860	0,011	-0,008
-655,116	800,000	-0,029	0,083
-654,101	149,070	0,059	-0,058
-653,086	36,239	0,065	0,042
-652,072	306,652	-0,055	-0,075
-651,057	199,615	-0,039	-0,044
-650,043	123,608	-0,018	0,017
-649,028	23,495	0,094	-0,056
-648,014	248,242	0,082	0,102
-646,999	301,255	-0,046	0,062
-645,984	-200,000	-0,006	0,120
-644,970	800,000	-0,023	0,061
-643,955	800,000	-0,054	-0,144
-642,941	99,591	-0,105	0,089
-641,926	99,322	-0,056	0,047
-640,911	310,051	0,048	0,066
-639,897	-76,855	-0,025	-0,006
-638,882	89,037	0,118	0,096
-637,868	331,890	0,036	-0,051
-636,853	-106,839	-0,112	-0,018
-635,838	800,000	-0,049	-0,147
-634,824	-49,199	-0,101	0,035
-633,809	-200,000	0,009	-0,103
-632,795	268,596	0,085	0,109
-631,780	199,897	-0,037	0,042
-630,765	33,047	-0,093	0,059
-629,751	66,074	-0,080	-0,060
-628,736	-200,000	0,023	-0,146
-627,722	-200,000	-0,017	0,077
-626,707	-110,707	0,060	-0,009
-625,692	12,521	0,006	0,004
-624,678	-200,000	-0,040	0,147
-623,663	-112,710	-0,085	0,012
-622,649	-200,000	0,003	-0,087
-621,634	499,049	0,027	0,045
-620,619	172,111	-0,088	0,093
-619,605	-87,993	0,106	0,023
-618,590	-200,000	-0,001	-0,062
-617,576	-35,784	0,152	-0,060
-616,561	-200,000	0,030	-0,167
-615,546	327,813	-0,028	-0,040
-614,532	252,969	-0,046	-0,058
-613,517	-169,166	0,131	-0,003
-612,503	-200,000	0,000	-0,109
-611,488	-68,707	-0,010	-0,003
-610,474	-86,770	0,133	-0,029
-609,459	800,000	0,016	0,037
-608,444	-200,000	-0,016	-0,053
-607,430	206,693	-0,051	-0,058
-606,415	385,142	0,040	-0,061
-605,401	265,782	-0,029	-0,038
-604,386	-15,204	-0,047	0,022
-603,371	-134,701	0,198	-0,017
-602,357	8,468	0,020	-0,011
-601,342	-8,092	-0,093	-0,046
-600,328	-9,155	-0,188	0,092
-599,313	238,799	-0,014	0,017
-598,298	56,789	-0,028	-0,020
-597,284	36,226	-0,167	-0,108
-596,269	672,577	-0,050	0,096
-595,255	11,896	-0,099	0,055
-594,240	-200,000	0,014	0,131
-593,225	-102,209	0,089	-0,016
-592,211	22,333	0,074	-0,044
-591,196	193,414	0,054	-0,060
-590,182	-200,000	-0,149	0,000
-589,167	-200,000	-0,049	0,170
-588,152	-200,000	-0,019	-0,080
-587,138	263,462	0,042	0,053
-586,123	503,934	0,057	-0,097
-585,109	481,109	-0,039	0,064
-584,094	-99,861	-0,029	0,005
-583,079	-200,000	-0,014	-0,068
-582,065	-200,000	0,004	0,034
-581,050	-5,973	-0,064	0,032
-580,036	408,443	-0,042	-0,065
-579,021	122,863	-0,110	-0,101
-578,006	748,890	-0,074	-0,147
-576,992	-71,857	0,076	0,021
-575,977	-75,069	-0,080	-0,021
-574,963	-200,000	-0,003	0,090
-573,948	-200,000	-0,005	0,052
-572,934	-200,000	-0,022	0,093
-571,919	2,231	0,070	-0,037
-570,904	800,000	0,013	0,037
-569,890	-5,484	-0,023	-0,012
-568,875	67,367	0,153	0,114
-567,861	564,962	-0,018	-0,033
-566,846	-39,177	0,101	0,039
-565,831	-83,244	0,073	-0,017
-564,817	-67,599	-0,070	-0,020
-563,802	-128,268	0,149	0,015
-562,788	-52,712	-0,147	0,049
-561,773	-145,967	0,052	-0,003
-560,758	28,052	-0,057	-0,035
-559,744	-57,735	-0,010	-0,003
-558,729	-200,000	-0,029	-0,129
-557,715	209,625	-0,061	-0,070
-556,700	-58,465	-0,146	-0,046
-555,685	-200,000	0,009	0,049
-554,671	131,425	0,037	-0,035
-553,656	-200,000	-0,011	0,054
-552,642	-93,043	-0,075	-0,015
-551,627	67,332	0,130	0,097
-550,612	800,000	-0,028	-0,068
-549,598	238,784	-0,029	-0,035
-548,583	-74,684	-0,113	-0,029
-547,569	800,000	-0,033	0,070
-546,554	388,007	0,051	0,078
-545,539	800,000	0,018	-0,049
-544,525	41,670	-0,079	-0,052
-543,510	800,000	-0,033	-0,093
-542,496	-22,161	-0,060	-0,027
-541,481	-200,000	-0,008	-0,073
-540,466	-39,975	-0,009	0,003
-539,452	779,740	0,021	0,042
-538,437	-200,000	-0,001	0,146
-537,423	-133,864	0,056	0,005
-536,408	237,628	-0,038	-0,046
-535,393	800,000	0,045	-0,106
-534,379	800,000	-0,003	-0,008
-533,364	800,000	-0,029	0,072
-532,350	75,431	0,062	-0,048
-531,335	76,665	0,122	0,094
-530,321	800,000	0,053	0,117
-529,306	39,124	0,093	-0,061
-528,291	141,859	-0,093	0,090
-527,277	800,000	0,022	-0,046
-526,262	-200,000	0,011	-0,139
-525,248	-9,146	-0,044	0,022
-524,233	-37,849	0,097	-0,038
-523,218	-200,000	0,038	0,194
-522,204	-74,500	0,019	0,005
-521,189	123,249	-0,068	0,062
-520,175	326,920	-0,079	-0,111
-519,160	-142,079	0,097	0,007
-518,145	800,000	-0,055	0,137
-517,131	-88,356	-0,037	-0,008
-516,116	159,204	0,026	0,026
-515,102	-27,439	0,083	0,035
-514,087	800,000	0,037	-0,093
-513,072	260,795	0,098	-0,123
-512,058	800,000	-0,017	-0,038
-511,043	348,063	-0,023	-0,034
-510,029	-200,000	-0,013	0,099
-509,014	-135,564	0,115	0,010
-507,999	591,644	-0,057	-0,104
-506,985	-68,157	-0,035	-0,010
-505,970	-200,000	0,028	0,135
-504,956	-167,445	0,024	0,001
-503,941	-19,597	-0,086	-0,039
-502,926	-46,272	-0,182	0,065
-501,912	112,829	-0,070	-0,062
-500,897	31,831	-0,112	0,070
-499,883	96,023	-0,057	-0,047
-498,868	-56,679	0,117	-0,038
-497,853	388,914	-0,060	-0,091
-496,839	-94,971	0,084	0,016
-495,824	119,296	-0,056	0,050
-494,810	370,737	-0,028	0,042
-493,795	-200,000	-0,007	-0,027
-492,781	-200,000	-0,202	-0,000
-491,766	-45,928	0,097	-0,035
-490,751	-25,004	-0,149	0,064
-489,737	420,964	-0,046	0,071
-488,722	-9,913	0,058	0,028
-487,708	168,660	0,052	-0,054
-486,693	63,897	-0,121	0,088
-485,678	-200,000	0,007	0,036
-484,664	345,982	-0,093	0,133
-483,649	624,419	0,033	-0,060
-482,635	78,180	-0,080	-0,062
-481,620	34,115	0,040	0,026
-480,605	800,000	-0,020	-0,048
-479,591	526,955	0,033	0,056
-478,576	-200,000	-0,008	-0,050
-477,562	119,448	-0,080	-0,072
-476,547	-68,186	-0,113	0,032
-475,532	-200,000	0,006	0,193
-474,518	-53,990	0,004	-0,001
-473,503	730,832	0,066	-0,130
-472,489	800,000	0,040	0,120
-471,474	800,000	0,064	0,144
-470,459	-37,332	-0,099	-0,038
-469,445	-20,389	-0,054	0,024
-468,430	-200,000	-0,005	-0,122
-467,416	-200,000	0,029	-0,116
-466,401	-89,984	0,178	0,038
-465,386	800,000	-0,052	0,145
-464,372	-136,921	0,079	0,007
-463,357	44,130	-0,072	0,048
-462,343	-34,185	-0,087	0,035
-461,328	800,000	0,016	0,037
-460,313	76,567	-0,015	-0,012
-459,299	-68,926	0,076	0,021
-458,284	-200,000	0,010	-0,106
-457,270	325,652	0,056	0,078
-456,255	71,955	0,056	0,042
-455,241	440,922	-0,004	0,006
-454,226	564,017	-0,077	-0,137
-453,211	-200,000	-0,016	-0,073
-452,197	633,863	0,071	0,132
-451,182	-200,000	-0,025	0,149
-450,168	7,529	-0,056	-0,030
-449,153	-72,407	0,039	0,010
-448,138	-64,385	-0,073	-0,021
-447,124	18,881	-0,038	0,022
-446,109	-57,702	-0,066	0,021
-445,095	-28,128	0,058	-0,024
-444,080	800,000	0,021	0,047
-443,065	-21,842	-0,106	-0,047
-442,051	-98,671	0,078	-0,014
-441,036	-200,000	0,007	-0,150
-440,022	113,639	0,056	0,050
-439,007	589,419	-0,036	-0,065
-437,992	-200,000	0,003	-0,164
-436,978	274,217	0,049	0,063
-435,963	-107,748	-0,238	-0,037
-434,949	203,639	0,104	-0,117
-433,934	-182,180	0,053	-0,001
-432,919	-159,272	0,068	-0,003
-431,905	-94,013	0,087	-0,017
-430,890	800,000	-0,017	-0,044
-429,876	-200,000	0,024	0,077
-428,861	221,727	-0,028	-0,033
-427,846	800,000	-0,019	0,058
-426,832	-142,029	-0,080	0,006
-425,817	73,820	-0,046	0,035
-424,803	-150,274	0,128	-0,007
-423,788	-200,000	-0,053	0,194
-422,773	269,824	0,062	0,080
-421,759	8,736	0,158	0,087
-420,744	48,592	0,058	-0,039
-419,730	184,404	0,096	-0,104
-418,715	800,000	-0,040	-0,086
-417,701	306,310	0,049	0,067
-416,686	30,251	0,053	0,033
-415,671	-185,220	0,084	-0,001
-414,657	7,066	0,129	-0,070
-413,642	-200,000	-0,007	-0,064
-412,628	179,452	-0,038	0,040
-411,613	-63,075	-0,038	-0,011
-410,598	-74,837	-0,104	-0,027
-409,584	388,555	0,017	0,026
-408,569	800,000	-0,022	0,069
-407,555	800,000	0,057	-0,145
-406,540	-94,271	0,109	0,021
-405,525	243,148	0,073	-0,089
-404,511	337,362	-0,053	0,074
-403,496	89,607	0,132	-0,107
-402,482	-66,428	-0,075	0,021
-401,467	460,483	0,053	0,087
-400,452	-139,615	-0,030	-0,002
-399,438	43,367	0,049	0,033
-398,423	800,000	-0,020	-0,052
-397,409	50,776	-0,104	0,072
-396,394	136,185	0,047	-0,044
-395,379	-200,000	-0,018	-0,074
-394,365	-200,000	-0,001	-0,015
-393,350	800,000	0,058	-0,122
-392,336	-200,000	0,054	0,183
-391,321	-200,000	0,005	-0,058
-390,306	800,000	-0,011	0,027
-389,292	194,248	-0,069	-0,077
-388,277	-63,015	0,138	0,041
-387,263	45,764	-0,098	0,066
-386,248	306,959	-0,061	0,083
-385,233	-91,633	-0,056	-0,011
-384,219	-200,000	-0,021	0,088
-383,204	-200,000	-0,015	0,068
-382,190	-104,104	0,097	0,016
-381,175	193,914	-0,021	-0,023
-380,160	-105,133	0,076	-0,013
-379,146	423,410	-0,089	0,139
-378,131	-200,000	-0,010	0,062
-377,117	-200,000	-0,010	0,093
-376,102	-83,393	-0,194	0,045
-375,088	-200,000	0,000	-0,004
-374,073	230,480	0,039	0,047
-373,058	51,782	0,059	-0,041
-372,044	-52,945	0,087	-0,029
-371,029	129,714	-0,032	-0,030
-370,015	-200,000	-0,007	0,042
-369,000	-200,000	0,007	-0,071
-367,985	-117,277	0,097	0,013
-366,971	278,928	-0,048	-0,062
-365,956	-109,854	0,073	-0,011
-364,942	-182,120	0,174	0,002
-363,927	-200,000	0,021	0,102
-362,912	239,462	0,083	-0,100
-361,898	-3,818	-0,104	-0,052
-360,883	800,000	-0,037	-0,119
-359,869	-200,000	0,001	-0,084
-358,854	110,776	0,171	-0,149
-357,839	241,067	0,037	0,045
-356,825	88,683	0,057	-0,046
-355,810	-137,744	0,062	-0,005
-354,796	-58,170	-0,051	-0,016
-353,781	79,280	-0,017	0,013
-352,766	517,518	0,066	0,112
-351,752	-41,421	-0,117	-0,044
-350,737	800,000	0,039	-0,084
-349,723	121,658	0,090	-0,081
-348,708	127,970	-0,076	-0,070
-347,693	258,491	-0,083	-0,104
-346,679	87,953	-0,022	0,018
-345,664	-125,464	-0,082	0,009
-344,650	800,000	-0,002	0,005
-343,635	432,303	-0,011	0,017
-342,620	-200,000	-0,003	-0,069
-341,606	-200,000	-0,006	0,085
-340,591	-200,000	0,004	0,017
-339,577	-37,703	-0,124	0,047
-338,562	-98,295	0,016	-0,003
-337,548	-11,451	0,101	0,048
-336,533	-105,863	0,093	-0,015
-335,518	48,564	0,141	0,095
-334,504	519,438	-0,029	-0,050
-333,489	184,641	-0,071	-0,076
-332,475	-149,227	-0,058	0,003
-331,460	-55,785	-0,013	-0,004
-330,445	-200,000	0,020	-0,103
-329,431	3,558	-0,052	-0,027
-328,416	-200,000	-0,006	0,141
-327,402	114,390	0,031	0,028
-326,387	-12,967	-0,073	-0,034
-325,372	-200,000	-0,027	-0,173
-324,358	477,679	0,022	-0,037
-323,343	-200,000	0,006	-0,162
-322,329	-200,000	0,013	0,044
-321,314	285,830	-0,019	0,025
-320,299	800,000	-0,034	-0,083
-319,285	222,298	0,028	0,032
-318,270	-82,158	-0,060	0,014
-317,256	82,944	0,085	0,067
-316,241	288,395	-0,069	0,091
-315,226	56,201	0,039	0,027
-314,212	-55,116	0,159	0,051
-313,197	-117,423	0,051	-0,007
-312,183	800,000	0,037	0,095
-311,168	-200,000	-0,039	-0,251
-310,153	-200,000	0,015	-0,164
-309,139	8,821	0,106	0,057
-308,124	-5,397	0,047	0,023
-307,110	364,676	0,009	-0,013
-306,095	-47,136	-0,117	-0,041
-305,080	284,847	-0,088	-0,115
-304,066	38,624	0,046	0,030
-303,051	-200,000	-0,016	0,061
-302,037	-156,371	-0,077	-0,003
-301,022	203,186	0,039	0,044
-300,008	-112,216	0,063	0,009
-298,993	-126,837	0,123	0,013
-297,978	90,423	-0,089	-0,072
-296,964	130,995	-0,006	-0,005
-295,949	-200,000	-0,047	-0,189
-294,935	-108,606	-0,072	0,011
-293,920	66,326	0,075	0,055
-292,905	191,861	0,130	0,142
-291,891	-200,000	-0,022	-0,073
-290,876	224,444	-0,105	0,122
-289,862	-200,000	-0,030	0,127
-288,847	-200,000	-0,006	-0,112
-287,832	-142,540	-0,072	0,005
-286,818	118,502	-0,023	0,021
-285,803	220,971	0,070	0,081
-284,789	5,820	-0,046	0,024
-283,774	482,621	0,052	0,085
-282,759	-200,000	0,023	-0,088
-281,745	-117,800	-0,098	0,013
-280,730	800,000	0,032	0,074
-279,716	344,235	-0,054	-0,077
-278,701	-200,000	-0,004	0,057
-277,686	800,000	-0,020	0,054
-276,672	18,747	0,146	-0,084
-275,657	-200,000	0,006	0,072
-274,643	498,488	0,053	0,089
-273,628	-142,906	0,074	0,005
-272,613	-200,000	-0,008	0,030
-271,599	45,683	0,111	-0,074
-270,584	33,757	-0,112	-0,070
-269,570	-93,363	-0,090	0,018
-268,555	800,000	-0,012	0,025
-267,540	-122,118	0,101	0,012
-266,526	318,335	-0,076	-0,104
-265,511	-200,000	0,041	0,256
-264,497	-151,389	0,075	0,004
-263,482	800,000	0,045	0,093
-262,467	512,992	-0,018	0,031
-261,453	142,043	0,046	-0,044
-260,438	2,922	-0,147	-0,077
-259,424	800,000	-0,027	0,082
-258,409	-16,461	-0,066	-0,030
-257,395	-200,000	0,002	0,043
-256,380	-200,000	0,046	0,158
-255,365	475,917	0,031	0,051
-254,351	-200,000	-0,018	0,069
-253,336	45,695	-0,075	0,050
-252,322	179,849	-0,052	0,055
-251,307	44,544	0,083	-0,055
-250,292	-108,598	0,129	-0,020
-249,278	800,000	0,040	-0,107
-248,263	31,626	0,080	-0,050
-247,249	312,601	0,048	0,065
-246,234	-200,000	-0,010	0,106
-245,219	34,693	-0,044	-0,028
-244,205	800,000	0,033	-0,081
-243,190	-11,343	0,107	0,050
-242,176	216,168	-0,022	-0,025
-241,161	164,526	0,088	0,090
-240,146	261,069	-0,067	-0,084
-239,132	800,000	0,021	-0,042
-238,117	-38,466	-0,115	0,044
-237,103	-130,567	0,090	0,009
-236,088	-54,940	-0,077	-0,025
-235,073	-200,000	0,014	-0,053
-234,059	-200,000	0,018	-0,104
-233,044	661,030	-0,022	0,040
-232,030	45,919	-0,040	-0,027
-231,015	800,000	-0,012	-0,026
-230,000	394,991	-0,044	-0,066
-228,986	800,000	0,041	-0,129
-227,971	-200,000	0,013	0,052
-226,957	-32,837	0,058	-0,023
-225,942	-123,527	0,091	-0,010
-224,927	32,817	-0,126	-0,079
-223,913	15,740	0,070	0,040
-222,898	800,000	-0,033	-0,106
-221,884	-68,487	-0,132	-0,037
-220,869	800,000	-0,056	-0,124
-219,855	59,651	0,116	-0,082
-218,840	-200,000	0,011	-0,087
-217,825	-188,565	-0,053	-0,000
-216,811	-6,360	0,033	-0,016
-215,796	336,788	-0,089	-0,125
-214,782	344,075	-0,062	-0,088
-213,767	202,022	0,072	-0,081
-212,752	77,039	0,129	0,099
-211,738	800,000	-0,029	0,080
-210,723	-200,000	-0,007	-0,036
-209,709	557,615	0,052	0,091
-208,694	183,763	-0,081	0,086
-207,679	70,211	-0,054	0,040
-206,665	800,000	-0,092	0,204
-205,650	86,209	0,066	-0,052
-204,636	108,727	-0,065	0,056
-203,621	83,454	0,048	0,038
-202,606	330,570	-0,116	0,161
-201,592	301,903	0,052	-0,070
-200,577	-200,000	-0,022	0,147
-199,563	81,521	-0,056	0,043
-198,548	-200,000	0,027	0,164
-197,533	86,672	0,060	-0,048
-196,519	263,996	0,094	-0,118
-195,504	-131,465	-0,064	-0,006
-194,490	123,932	-0,134	-0,121
-193,475	-124,128	0,036	-0,004
-192,460	-24,946	-0,070	0,030
-191,446	84,719	0,116	0,092
-190,431	-12,697	0,037	-0,017
-189,417	364,739	0,041	-0,060
-188,402	-170,093	0,235	0,006
-187,387	266,309	-0,074	0,093
-186,373	800,000	0,024	-0,051
-185,358	800,000	-0,018	0,046
-184,344	-91,728	-0,048	-0,010
-183,329	321,791	-0,051	-0,070
-182,315	3,586	0,046	-0,024
-181,300	-28,969	-0,141	-0,058
-180,285	800,000	-0,025	-0,069
-179,271	800,000	-0,030	-0,078
-178,256	793,583	-0,069	-0,137
-177,242	-121,568	0,088	0,010
-176,227	-157,593	-0,103	0,004
-175,212	100,023	-0,062	-0,052
-174,198	392,695	0,022	0,032
-173,183	-105,557	-0,166	0,027
-172,169	-123,796	0,068	0,008
-171,154	57,564	0,077	0,054
-170,139	730,637	-0,038	0,073
-169,125	-55,909	0,051	0,016
-168,110	800,000	-0,054	0,118
-167,096	297,646	0,010	-0,013
-166,081	-38,789	-0,044	0,017
-165,066	-144,953	0,131	0,008
-164,052	800,000	-0,040	-0,102
-163,037	-56,143	0,051	-0,016
-162,023	-200,000	-0,012	0,052
-161,008	20,850	0,126	0,073
-159,993	-20,079	-0,112	0,049
-158,979	-200,000	0,020	-0,079
-157,964	21,481	-0,113	-0,066
-156,950	44,474	-0,058	0,038
-155,935	-112,240	0,174	0,025
-154,920	-200,000	-0,005	-0,077
-153,906	172,527	0,025	0,026
-152,891	6,497	0,161	0,086
-151,877	62,492	0,066	0,047
-150,862	23,958	0,100	-0,059
-149,847	29,975	-0,048	0,029
-148,833	18,494	0,066	0,038
-147,818	800,000	0,063	-0,131
-146,804	48,722	0,064	0,043
-145,789	-200,000	0,147	0,000
-144,775	-200,000	-0,049	-0,166
-143,760	-200,000	-0,004	0,045
-142,745	-82,831	-0,087	0,020
-141,731	72,628	0,057	-0,043
-140,716	323,145	0,098	0,135
-139,702	-109,905	-0,055	-0,008
-138,687	800,000	0,007	0,023
-137,672	274,487	-0,083	0,106
-136,658	800,000	0,030	-0,062
-135,643	-200,000	-0,006	-0,061
-134,629	272,121	-0,056	0,071
-133,614	136,054	-0,033	-0,031
-132,599	-22,260	-0,113	-0,049
-131,585	-139,891	0,054	0,004
-130,570	714,553	0,022	0,042
-129,556	-30,685	-0,093	0,038
-128,541	800,000	0,059	-0,168
-127,526	-33,047	-0,071	-0,028
-126,512	-200,000	-0,000	-0,031
-125,497	-200,000	0,010	0,070
-124,483	-28,441	-0,074	-0,031
-123,468	125,739	-0,131	0,119
-122,453	145,286	-0,039	-0,038
-121,439	79,615	-0,154	-0,119
-120,424	-200,000	0,013	-0,054
-119,410	-95,894	0,095	0,018
