DTS Sentinel unit serial number:	SN410029Multiplexer serial number:	ORYXHardware model number:	OX2-SRSoftware version number:	ORYX F/W v4,00 Oryx Data Collector v3.7.2.0data status	okinstallation	B5 Nyhavnadifferential loss correction	single-endedforward channel	channel 2reverse channel	N/Adate	2023/12/14time	17:17:13forward acquisition time	300,00reverse acquisition time	0,00gamma	499,1914k internal	0,3157k external	0,3157temperature offset calibration	1,0000default loss term (dB/km)	0,3820temperature slope calibration	1,0000multiplexer offset coefficient	1,0000multiplexer slope coefficient	1,0000fibre end	0,00T internal ref (°C)	8,19T ext. ref 1 (°C)	-7,22T ext. ref 2 (°C)	-7,26length (m)	temperature (°C)	Stokes	anti-Stokes-744,400	-103,895	0,230	0,039
-743,385	-142,381	-0,280	-0,020
-742,371	-200,000	0,024	0,340
-741,356	-55,121	-0,337	0,111
-740,342	52,950	0,162	0,114
-739,327	-87,804	-0,411	-0,091
-738,312	29,641	0,071	0,044
-737,298	-154,727	-0,423	0,020
-736,283	-124,764	0,249	0,028
-735,269	-68,643	-0,316	-0,089
-734,254	38,647	0,147	0,096
-733,239	36,492	-0,470	-0,305
-732,225	-173,115	0,132	0,003
-731,210	-95,950	-0,093	-0,018
-730,196	-200,000	-0,047	-0,156
-729,181	-94,559	0,035	-0,007
-728,167	730,395	-0,039	0,077
-727,152	-55,025	0,056	-0,019
-726,137	-200,000	0,009	0,029
-725,123	206,707	-0,076	-0,088
-724,108	47,107	0,073	-0,050
-723,094	-153,383	0,048	0,002
-722,079	302,542	-0,032	0,044
-721,064	-153,555	-0,063	0,003
-720,050	-85,670	-0,083	-0,019
-719,035	-156,851	-0,088	0,004
-718,021	-80,191	-0,113	-0,028
-717,006	124,679	-0,103	-0,095
-715,991	588,859	-0,079	-0,143
-714,977	-150,381	-0,189	-0,011
-713,962	800,000	0,032	-0,083
-712,948	-159,520	0,063	0,003
-711,933	-2,200	0,095	0,049
-710,918	190,520	-0,084	-0,093
-709,904	-200,000	0,011	-0,114
-708,889	234,902	0,093	-0,113
-707,875	-200,000	-0,038	-0,161
-706,860	92,115	0,062	-0,052
-705,845	-200,000	-0,004	-0,072
-704,831	-174,430	-0,108	-0,002
-703,816	-200,000	0,010	0,096
-702,802	-116,139	-0,090	0,012
-701,787	308,693	-0,061	-0,084
-700,772	-176,125	-0,181	-0,003
-699,758	241,201	0,076	0,094
-698,743	-74,953	0,085	-0,022
-697,729	8,267	0,128	0,070
-696,714	-146,494	-0,016	0,001
-695,699	-100,528	-0,190	-0,034
-694,685	-200,000	-0,002	0,137
-693,670	17,175	0,025	0,015
-692,656	34,455	-0,063	0,040
-691,641	51,543	0,079	-0,055
-690,627	-200,000	-0,012	0,164
-689,612	248,912	-0,084	-0,104
-688,597	-200,000	0,018	0,061
-687,583	35,351	-0,036	-0,023
-686,568	800,000	0,049	-0,157
-685,554	3,862	-0,052	-0,028
-684,539	800,000	0,049	0,101
-683,524	-200,000	-0,002	0,014
-682,510	-100,128	-0,092	0,017
-681,495	-200,000	-0,001	0,077
-680,481	-6,751	-0,137	-0,068
-679,466	-83,912	-0,083	0,019
-678,451	66,681	-0,119	0,089
-677,437	-72,487	0,108	-0,029
-676,422	-129,856	0,200	0,020
-675,408	-200,000	-0,009	0,118
-674,393	386,244	-0,029	0,044
-673,378	800,000	-0,028	-0,083
-672,364	632,404	-0,049	0,091
-671,349	214,115	-0,046	-0,054
-670,335	476,571	-0,028	0,046
-669,320	408,465	0,001	-0,001
-668,305	187,139	0,120	-0,132
-667,291	800,000	0,036	-0,108
-666,276	-78,155	-0,016	0,004
-665,262	367,272	-0,080	-0,119
-664,247	30,710	-0,055	-0,035
-663,232	-140,481	0,093	0,007
-662,218	-78,220	0,082	0,020
-661,203	23,550	0,118	-0,071
-660,189	205,518	0,071	0,082
-659,174	-32,257	-0,185	-0,075
-658,159	-110,000	0,026	0,004
-657,145	398,352	-0,037	0,056
-656,130	152,591	0,081	-0,082
-655,116	-200,000	-0,005	-0,178
-654,101	-160,517	-0,097	-0,004
-653,086	-200,000	0,012	-0,045
-652,072	202,360	-0,115	0,131
-651,057	-67,926	0,141	-0,040
-650,043	579,927	-0,045	-0,082
-649,028	184,694	0,087	0,095
-648,014	110,002	0,101	-0,089
-646,999	12,565	0,069	-0,039
-645,984	345,907	-0,062	0,090
-644,970	-200,000	-0,022	-0,096
-643,955	-28,405	-0,075	-0,032
-642,941	-200,000	0,028	-0,153
-641,926	-200,000	0,035	-0,184
-640,911	-200,000	-0,014	0,064
-639,897	26,259	0,043	0,026
-638,882	-87,924	-0,091	-0,020
-637,868	-200,000	-0,005	0,105
-636,853	-200,000	-0,001	0,073
-635,838	800,000	-0,023	0,048
-634,824	-200,000	-0,012	-0,156
-633,809	394,229	-0,029	0,044
-632,795	97,560	-0,063	-0,053
-631,780	800,000	0,031	0,065
-630,765	-200,000	0,005	0,064
-629,751	-200,000	-0,022	-0,091
-628,736	10,498	-0,153	-0,085
-627,722	-132,480	-0,295	-0,027
-626,707	-139,519	0,149	-0,012
-625,692	-200,000	0,029	-0,127
-624,678	375,993	-0,090	-0,136
-623,663	5,601	-0,098	-0,053
-622,649	81,491	-0,135	-0,107
-621,634	-77,597	-0,057	-0,014
-620,619	126,503	-0,022	0,020
-619,605	637,645	-0,011	0,021
-618,590	800,000	0,028	-0,066
-617,576	-200,000	0,003	0,056
-616,561	-123,947	-0,032	-0,004
-615,546	-122,452	-0,107	-0,013
-614,532	341,432	-0,064	-0,092
-613,517	258,081	-0,051	-0,065
-612,503	330,622	-0,049	-0,069
-611,488	-200,000	0,009	-0,067
-610,474	-12,494	0,055	0,026
-609,459	-200,000	0,022	0,075
-608,444	-200,000	-0,004	0,027
-607,430	-200,000	0,009	-0,173
-606,415	-18,214	0,047	0,021
-605,401	-74,980	0,177	0,046
-604,386	-56,267	0,102	0,033
-603,371	-200,000	0,013	-0,063
-602,357	120,607	0,101	-0,092
-601,342	334,472	0,012	-0,018
-600,328	-200,000	-0,043	-0,167
-599,313	-200,000	0,008	-0,045
-598,298	-200,000	-0,016	-0,088
-597,284	-164,485	0,055	-0,002
-596,269	78,831	0,107	-0,084
-595,255	-200,000	0,007	-0,030
-594,240	-200,000	0,004	0,087
-593,225	-65,484	-0,124	0,036
-592,211	205,253	0,047	0,054
-591,196	800,000	-0,017	-0,053
-590,182	-21,273	0,147	-0,066
-589,167	51,906	-0,093	-0,065
-588,152	276,132	0,041	-0,053
-587,138	-17,527	-0,064	-0,029
-586,123	0,205	-0,070	-0,036
-585,109	800,000	0,031	-0,069
-584,094	-154,033	0,057	-0,003
-583,079	-200,000	0,000	0,011
-582,065	-30,564	0,074	0,031
-581,050	-25,445	-0,096	-0,041
-580,036	-114,813	-0,052	-0,007
-579,021	153,037	0,042	0,042
-578,006	8,279	-0,050	-0,027
-576,992	800,000	0,036	0,077
-575,977	-200,000	-0,010	0,079
-574,963	-200,000	-0,001	0,115
-573,948	-2,356	-0,042	-0,021
-572,934	-200,000	-0,024	-0,155
-571,919	42,732	-0,066	-0,044
-570,904	-51,484	0,025	0,008
-569,890	799,517	-0,035	-0,072
-568,875	800,000	-0,010	0,024
-567,861	96,657	0,036	-0,030
-566,846	800,000	0,020	0,054
-565,831	-101,035	-0,078	-0,014
-564,817	104,096	0,066	-0,057
-563,802	116,849	-0,075	-0,068
-562,788	-38,173	-0,060	0,023
-561,773	-200,000	0,008	-0,030
-560,758	169,883	0,041	0,043
-559,744	184,395	-0,095	0,104
-558,729	80,133	0,027	0,021
-557,715	-200,000	-0,014	-0,151
-556,700	534,886	-0,090	-0,156
-555,685	335,099	0,025	0,035
-554,671	-130,472	0,137	0,013
-553,656	-123,357	0,154	-0,018
-552,642	-8,763	0,064	-0,031
-551,627	19,954	-0,070	-0,041
-550,612	27,944	-0,086	0,053
-549,598	6,681	0,097	-0,053
-548,583	286,928	-0,071	-0,094
-547,569	-140,038	0,085	-0,006
-546,554	310,050	0,013	0,018
-545,539	-2,792	-0,043	0,022
-544,525	44,515	0,068	0,046
-543,510	-200,000	0,003	-0,015
-542,496	-70,059	0,046	0,013
-541,481	2,962	-0,104	-0,055
-540,466	-21,577	0,031	-0,014
-539,452	291,215	0,014	0,019
-538,437	-99,774	-0,109	-0,020
-537,423	-62,007	0,106	0,032
-536,408	800,000	-0,038	0,105
-535,393	-22,481	-0,044	-0,019
-534,379	359,687	-0,034	0,050
-533,364	-93,612	0,105	0,021
-532,350	14,872	-0,014	0,008
-531,335	263,086	0,050	0,064
-530,321	-116,155	0,026	-0,004
-529,306	135,593	0,071	0,067
-528,291	800,000	0,056	0,161
-527,277	16,126	0,146	-0,084
-526,262	-53,583	-0,028	0,009
-525,248	149,951	0,074	0,074
-524,233	101,505	0,026	0,022
-523,218	37,635	-0,069	-0,045
-522,204	800,000	-0,027	-0,076
-521,189	301,273	0,095	0,128
-520,175	-97,636	-0,069	0,013
-519,160	800,000	-0,030	-0,096
-518,145	-200,000	0,019	-0,127
-517,131	-200,000	-0,004	0,084
-516,116	367,734	-0,095	0,141
-515,102	648,785	-0,039	0,074
-514,087	637,553	-0,019	-0,036
-513,072	10,952	0,025	0,014
-512,058	401,781	-0,038	0,059
-511,043	-150,949	0,049	-0,003
-510,029	800,000	0,055	0,116
-509,014	500,869	-0,067	-0,113
-507,999	138,268	-0,114	0,109
-506,985	-115,461	-0,122	-0,017
-505,970	-200,000	0,020	0,119
-504,956	-200,000	-0,004	-0,144
-503,941	5,856	0,056	0,030
-502,926	483,113	-0,055	0,092
-501,912	110,578	0,092	0,081
-500,897	-200,000	-0,021	0,084
-499,883	-109,971	0,027	0,004
-498,868	53,722	-0,094	-0,066
-497,853	-19,721	-0,136	-0,061
-496,839	-200,000	0,031	0,111
-495,824	-200,000	0,006	-0,038
-494,810	-122,099	-0,093	-0,011
-493,795	45,516	0,042	-0,028
-492,781	-84,073	-0,073	-0,017
-491,766	-24,509	0,021	-0,009
-490,751	800,000	0,011	-0,031
-489,737	-103,974	-0,012	-0,002
-488,722	-36,820	0,198	0,077
-487,708	-200,000	-0,016	0,087
-486,693	-200,000	0,025	-0,083
-485,678	53,422	-0,066	-0,046
-484,664	-15,851	0,060	-0,028
-483,649	800,000	-0,008	-0,020
-482,635	-73,744	0,059	0,016
-481,620	145,615	-0,050	-0,049
-480,605	-200,000	-0,043	0,153
-479,591	-33,314	-0,140	0,056
-478,576	-200,000	0,091	0,000
-477,562	-200,000	-0,016	0,133
-476,547	194,436	-0,013	-0,015
-475,532	-167,145	-0,118	-0,003
-474,518	4,609	0,098	0,052
-473,503	800,000	-0,037	0,094
-472,489	800,000	-0,033	0,088
-471,474	-200,000	0,011	0,110
-470,459	800,000	-0,027	0,069
-469,445	800,000	0,015	-0,035
-468,430	68,644	-0,019	0,014
-467,416	-57,489	0,165	-0,052
-466,401	-200,000	-0,011	-0,154
-465,386	-74,901	-0,046	0,012
-464,372	-71,469	-0,031	0,008
-463,357	-111,793	-0,029	-0,004
-462,343	-11,478	-0,091	0,043
-461,328	306,368	-0,064	-0,088
-460,313	329,663	-0,020	-0,028
-459,299	-6,690	0,128	-0,063
-458,284	-110,548	0,071	-0,011
-457,270	-103,569	0,054	0,009
-456,255	-157,067	-0,154	0,007
-455,241	84,693	0,044	0,035
-454,226	62,655	0,071	-0,051
-453,211	269,395	0,018	-0,024
-452,197	-200,000	-0,004	0,041
-451,182	-119,437	0,016	-0,002
-450,168	499,316	0,068	0,114
-449,153	37,318	-0,081	0,052
-448,138	800,000	-0,029	0,070
-447,124	-41,756	-0,037	-0,014
-446,109	345,008	0,023	-0,034
-445,095	-32,840	0,047	-0,019
-444,080	128,927	0,038	-0,035
-443,065	104,470	-0,035	0,030
-442,051	800,000	-0,044	-0,103
-441,036	245,396	-0,118	-0,145
-440,022	473,382	-0,017	0,028
-439,007	-200,000	-0,021	0,142
-437,992	-84,431	-0,075	-0,017
-436,978	800,000	0,042	0,112
-435,963	-164,977	-0,109	0,003
-434,949	444,506	0,021	-0,034
-433,934	-200,000	-0,004	-0,074
-432,919	85,874	-0,086	-0,069
-431,905	184,408	-0,107	0,116
-430,890	-189,277	-0,120	0,001
-429,876	22,401	-0,105	-0,063
-428,861	-200,000	0,018	-0,067
-427,846	-159,977	-0,149	-0,006
-426,832	800,000	0,026	-0,063
-425,817	572,736	-0,050	0,089
-424,803	-200,000	0,021	0,085
-423,788	114,257	0,083	0,074
-422,773	800,000	-0,011	-0,035
-421,759	-200,000	0,019	0,085
-420,744	800,000	0,015	0,047
-419,730	-15,251	0,015	0,007
-418,715	-47,039	-0,049	0,017
-417,701	-48,319	-0,122	0,042
-416,686	800,000	0,019	0,057
-415,671	353,509	0,012	0,018
-414,657	496,641	0,059	0,099
-413,642	657,341	-0,006	0,011
-412,628	4,716	0,101	-0,054
-411,613	-200,000	-0,032	-0,105
-410,598	-200,000	0,032	-0,107
-409,584	-111,396	0,115	-0,017
-408,569	-107,282	0,163	0,026
-407,555	175,889	-0,120	-0,127
-406,540	121,471	-0,059	-0,054
-405,525	-43,992	-0,064	0,023
-404,511	-86,820	-0,199	0,044
-403,496	5,382	0,098	0,052
-402,482	-140,218	-0,061	-0,005
-401,467	50,499	0,062	0,043
-400,452	-19,425	0,151	-0,068
-399,438	800,000	-0,037	0,101
-398,423	-200,000	0,005	0,106
-397,409	-200,000	-0,004	0,071
-396,394	-154,863	0,042	0,002
-395,379	-18,183	0,108	-0,049
-394,365	444,087	0,044	0,070
-393,350	-200,000	-0,016	0,070
-392,336	14,810	-0,073	-0,041
-391,321	-157,041	-0,013	0,001
-390,306	392,346	0,060	-0,091
-389,292	-26,163	0,080	-0,034
-388,277	-126,538	0,030	-0,003
-387,263	-22,060	-0,062	-0,027
-386,248	178,591	0,145	0,154
-385,233	-119,001	-0,184	0,023
-384,219	33,797	0,104	-0,066
-383,204	117,593	-0,092	-0,082
-382,190	800,000	-0,047	-0,101
-381,175	-200,000	-0,018	0,104
-380,160	-160,483	0,202	0,008
-379,146	320,202	0,031	-0,043
-378,131	-200,000	-0,000	0,041
-377,117	-171,368	0,067	-0,002
-376,102	140,901	0,038	-0,036
-375,088	-200,000	0,028	-0,105
-374,073	800,000	0,024	-0,057
-373,058	494,570	0,068	0,114
-372,044	-125,794	0,131	0,014
-371,029	219,323	0,025	0,029
-370,015	108,617	-0,062	-0,054
-369,000	534,661	-0,061	-0,106
-367,985	-156,462	-0,091	0,004
-366,971	-130,288	0,069	-0,007
-365,956	79,868	-0,041	-0,032
-364,942	-200,000	0,005	-0,055
-363,927	-35,700	0,040	0,016
-362,912	251,172	-0,091	0,113
-361,898	70,556	-0,062	-0,046
-360,883	-162,028	-0,060	-0,002
-359,869	-200,000	0,006	0,020
-358,854	-200,000	-0,010	0,095
-357,839	800,000	0,044	0,114
-356,825	255,590	-0,065	-0,081
-355,810	-162,639	-0,053	0,002
-354,796	-95,693	0,044	-0,009
-353,781	800,000	0,016	0,033
-352,766	-121,918	-0,090	-0,011
-351,752	111,951	0,125	-0,110
-350,737	39,892	0,051	0,033
-349,723	-132,984	0,094	0,009
-348,708	800,000	-0,058	0,131
-347,693	113,096	0,045	0,040
-346,679	30,778	0,053	-0,033
-345,664	116,901	-0,131	-0,117
-344,650	73,949	0,121	-0,092
-343,635	-200,000	-0,018	-0,075
-342,620	108,194	0,052	0,045
-341,606	800,000	0,051	0,115
-340,591	181,449	0,062	0,066
-339,577	800,000	-0,024	-0,060
-338,562	-59,113	0,104	-0,032
-337,548	155,868	-0,061	0,061
-336,533	152,481	0,071	0,070
-335,518	-50,945	-0,150	-0,051
-334,504	-200,000	0,003	-0,027
-333,489	-200,000	-0,037	0,142
-332,475	-4,151	-0,135	-0,068
-331,460	-69,566	-0,103	0,028
-330,445	78,953	-0,047	-0,036
-329,431	240,529	0,074	0,090
-328,416	-13,352	0,039	0,018
-327,402	-31,302	-0,117	-0,048
-326,387	-77,308	0,077	0,019
-325,372	-1,413	0,171	0,087
-324,358	150,724	-0,069	-0,068
-323,343	-200,000	0,027	-0,120
-322,329	27,520	0,050	-0,031
-321,314	-25,505	-0,100	-0,043
-320,299	554,093	0,082	0,144
-319,285	800,000	-0,031	0,071
-318,270	203,161	-0,097	-0,109
-317,256	-127,944	-0,147	0,015
-316,241	309,331	0,094	-0,128
-315,226	-200,000	0,043	-0,139
-314,212	-76,397	-0,083	-0,021
-313,197	800,000	-0,009	-0,020
-312,183	-43,681	0,064	0,023
-311,168	-138,295	-0,050	0,004
-310,153	800,000	-0,044	0,096
-309,139	64,977	-0,023	0,017
-308,124	610,209	-0,042	-0,077
-307,110	-200,000	-0,023	0,163
-306,095	800,000	-0,041	0,119
-305,080	51,961	-0,090	-0,062
-304,066	242,839	0,104	0,126
-303,051	430,978	0,019	0,030
-302,037	800,000	-0,011	-0,030
-301,022	170,750	0,083	0,086
-300,008	13,514	-0,100	0,056
-298,993	-56,299	-0,057	0,018
-297,978	-200,000	0,006	-0,122
-296,964	-200,000	-0,002	0,038
-295,949	-119,378	-0,131	-0,016
-294,935	126,448	-0,054	-0,049
-293,920	-67,070	-0,111	0,032
-292,905	655,117	0,021	0,039
-291,891	-43,561	0,101	0,037
-290,876	-167,278	0,077	0,002
-289,862	136,207	-0,044	-0,042
-288,847	800,000	0,050	-0,157
-287,832	-158,400	0,062	-0,003
-286,818	11,934	-0,095	0,053
-285,803	-200,000	-0,011	0,066
-284,789	-200,000	-0,002	0,061
-283,774	212,897	0,037	-0,042
-282,759	-167,877	0,145	0,004
-281,745	26,726	-0,011	0,006
-280,730	256,757	0,058	-0,072
-279,716	-90,948	0,197	0,041
-278,701	800,000	-0,030	-0,088
-277,686	-200,000	-0,015	-0,056
-276,672	95,398	0,094	-0,078
-275,657	60,526	-0,083	0,060
-274,643	223,691	0,025	0,029
-273,628	84,234	-0,020	-0,016
-272,613	-78,662	-0,083	-0,020
-271,599	-200,000	0,049	0,172
-270,584	5,409	-0,036	-0,019
-269,570	-157,158	0,153	0,007
-268,555	27,964	-0,060	-0,037
-267,540	-200,000	-0,016	-0,072
-266,526	204,102	-0,083	-0,093
-265,511	800,000	-0,031	-0,064
-264,497	-120,998	-0,061	0,007
-263,482	-75,417	0,037	0,009
-262,467	-99,913	-0,010	0,002
-261,453	800,000	-0,041	0,122
-260,438	-200,000	-0,009	-0,187
-259,424	-26,229	0,048	-0,020
-258,409	-58,506	0,063	0,020
-257,395	-73,419	-0,151	0,040
-256,380	-44,639	0,147	0,053
-255,365	-143,043	-0,091	0,006
-254,351	-127,783	0,119	-0,012
-253,336	800,000	0,019	-0,042
-252,322	800,000	0,022	-0,063
-251,307	800,000	0,030	-0,081
-250,292	800,000	-0,036	-0,096
-249,278	-84,439	0,234	0,053
-248,263	13,721	-0,160	-0,090
-247,249	800,000	0,028	-0,057
-246,234	-61,051	-0,045	-0,014
-245,219	79,189	-0,115	-0,089
-244,205	-115,076	0,067	0,009
-243,190	-64,321	0,059	-0,017
-242,176	-45,615	-0,058	0,021
-241,161	228,214	-0,042	0,049
-240,146	195,843	-0,009	0,010
-239,132	-67,703	-0,103	0,029
-238,117	665,880	-0,050	0,093
-237,103	-200,000	-0,012	-0,049
-236,088	69,163	0,098	-0,073
-235,073	394,926	-0,118	0,179
-234,059	-103,215	0,057	-0,010
-233,044	306,354	-0,002	-0,003
-232,030	-9,327	0,170	0,082
-231,015	-111,219	-0,043	-0,006
-230,000	347,690	-0,055	-0,078
-228,986	392,299	0,035	0,052
-227,971	-134,339	0,092	0,008
-226,957	461,908	0,157	0,254
-225,942	-200,000	0,010	0,095
-224,927	800,000	-0,056	0,118
-223,913	140,313	-0,057	0,055
-222,898	-44,323	-0,115	-0,041
-221,884	-25,175	0,155	0,066
-220,869	393,384	0,112	0,169
-219,855	-3,729	0,146	0,073
-218,840	36,895	0,113	0,072
-217,825	501,540	-0,047	-0,079
-216,811	-200,000	0,029	-0,107
-215,796	194,091	0,094	-0,103
-214,782	10,392	0,063	-0,034
-213,767	94,369	0,018	-0,015
-212,752	-125,317	0,055	-0,006
-211,738	171,997	-0,040	0,042
-210,723	223,798	0,079	-0,093
-209,709	388,463	-0,084	-0,126
-208,694	28,273	0,138	0,084
-207,679	-200,000	0,009	0,044
-206,665	800,000	-0,013	-0,032
-205,650	704,762	0,042	-0,081
-204,636	52,436	0,127	0,087
-203,621	-200,000	0,005	0,138
-202,606	201,679	0,039	0,044
-201,592	-16,172	0,164	0,075
-200,577	800,000	-0,020	-0,054
-199,563	800,000	-0,001	-0,003
-198,548	-48,495	-0,140	0,048
-197,533	51,286	0,077	-0,053
-196,519	-200,000	-0,018	-0,074
-195,504	-25,132	-0,175	0,074
-194,490	225,003	0,061	-0,072
-193,475	28,087	-0,119	-0,072
-192,460	7,735	0,064	0,034
-191,446	800,000	0,020	-0,041
-190,431	48,344	0,029	0,020
-189,417	-64,383	-0,104	0,030
-188,402	-200,000	-0,002	0,013
-187,387	-119,702	-0,213	-0,026
-186,373	161,070	0,110	-0,111
-185,358	-200,000	-0,014	0,099
-184,344	800,000	-0,044	-0,090
-183,329	297,001	0,041	0,054
-182,315	-200,000	-0,012	-0,075
-181,300	-57,705	0,056	0,018
-180,285	-65,344	-0,109	0,032
-179,271	-51,416	-0,062	-0,021
-178,256	305,943	-0,021	0,029
-177,242	106,332	0,122	0,104
-176,227	-200,000	0,011	0,051
-175,212	286,906	0,066	0,086
-174,198	-200,000	0,022	0,120
-173,183	38,700	0,029	-0,019
-172,169	-7,205	-0,173	-0,084
-171,154	10,317	0,085	0,047
-170,139	800,000	0,006	-0,015
-169,125	54,249	0,054	-0,037
-168,110	-21,365	-0,028	0,012
-167,096	83,304	0,111	-0,087
-166,081	149,278	0,062	0,060
-165,066	16,860	-0,069	0,039
-164,052	-23,566	0,060	0,026
-163,037	800,000	0,035	0,084
-162,023	272,329	-0,033	0,041
-161,008	602,882	0,080	0,143
-159,993	-89,790	-0,136	0,028
-158,979	1,536	-0,088	-0,045
-157,964	16,371	-0,038	-0,021
-156,950	31,729	0,104	-0,064
-155,935	21,113	-0,011	0,006
-154,920	406,606	0,062	-0,095
-153,906	405,229	-0,023	-0,035
-152,891	576,572	0,025	0,044
-151,877	580,089	0,026	-0,046
-150,862	62,020	0,051	-0,037
-149,847	-200,000	-0,013	0,099
-148,833	800,000	-0,014	-0,034
-147,818	-182,834	0,138	0,002
-146,804	-44,001	0,074	0,026
-145,789	-172,554	0,059	0,001
-144,775	-43,486	-0,201	-0,073
-143,760	-141,562	0,118	0,008
-142,745	395,171	-0,027	0,040
-141,731	800,000	-0,063	-0,152
-140,716	81,271	0,046	0,035
-139,702	240,589	-0,091	0,109
-138,687	-200,000	0,010	-0,064
-137,672	-169,107	-0,067	0,002
-136,658	-200,000	-0,006	0,129
-135,643	-200,000	0,025	-0,139
-134,629	61,263	-0,088	0,063
-133,614	-117,493	0,114	-0,015
-132,599	-69,707	-0,053	-0,015
-131,585	-79,777	0,163	-0,039
-130,570	-142,172	-0,022	0,002
-129,556	142,282	-0,030	0,029
-128,541	10,003	-0,038	0,021
-127,526	-30,153	0,034	0,014
-126,512	800,000	0,071	0,160
-125,497	-200,000	-0,029	0,147
-124,483	79,727	-0,079	-0,061
-123,468	258,003	0,014	0,017
-122,453	131,257	-0,116	-0,108
-121,439	800,000	-0,035	-0,084
-120,424	128,742	0,023	-0,021
-119,410	800,000	0,022	0,057
-118,395	587,306	0,137	-0,243
