DTS Sentinel unit serial number:	SN410029Multiplexer serial number:	ORYXHardware model number:	OX2-SRSoftware version number:	ORYX F/W v4,00 Oryx Data Collector v3.7.2.0data status	okinstallation	B5 Nyhavnadifferential loss correction	single-endedforward channel	channel 2reverse channel	N/Adate	2023/12/14time	00:22:13forward acquisition time	300,00reverse acquisition time	0,00gamma	499,1914k internal	0,3155k external	0,3155temperature offset calibration	1,0000default loss term (dB/km)	0,3820temperature slope calibration	1,0000multiplexer offset coefficient	1,0000multiplexer slope coefficient	1,0000fibre end	0,00T internal ref (°C)	8,68T ext. ref 1 (°C)	-7,40T ext. ref 2 (°C)	-7,46length (m)	temperature (°C)	Stokes	anti-Stokes-744,400	-75,375	0,123	0,032
-743,385	-24,995	-0,279	-0,122
-742,371	-80,758	0,170	0,041
-741,356	-34,954	-0,320	-0,128
-740,342	122,218	0,217	0,200
-739,327	-195,500	-0,406	-0,002
-738,312	-109,535	0,164	-0,025
-737,298	50,037	-0,252	-0,175
-736,283	-99,176	0,198	-0,037
-735,269	-163,282	-0,218	-0,008
-734,254	110,594	0,118	-0,104
-733,239	-54,303	-0,688	-0,229
-732,225	-165,726	0,233	0,007
-731,210	468,759	0,091	0,151
-730,196	800,000	-0,041	-0,102
-729,181	-200,000	0,012	-0,063
-728,167	251,666	-0,059	0,074
-727,152	-200,000	0,016	0,059
-726,137	-200,000	0,003	-0,074
-725,123	107,954	-0,101	-0,089
-724,108	624,978	-0,063	-0,118
-723,094	-197,062	-0,122	0,001
-722,079	23,349	-0,031	-0,019
-721,064	-200,000	0,003	-0,063
-720,050	-7,117	-0,117	0,058
-719,035	467,407	-0,039	0,065
-718,021	113,921	-0,101	-0,090
-717,006	23,359	-0,119	-0,072
-715,991	-200,000	-0,001	0,030
-714,977	-50,465	-0,071	-0,025
-713,962	-200,000	0,009	-0,117
-712,948	136,447	0,090	-0,087
-711,933	97,638	0,048	0,041
-710,918	-90,584	-0,089	0,019
-709,904	34,083	-0,086	-0,055
-708,889	74,716	-0,068	0,053
-707,875	-200,000	-0,002	-0,063
-706,860	-117,210	0,100	0,013
-705,845	519,749	-0,011	0,019
-704,831	-137,664	-0,061	-0,005
-703,816	343,029	0,052	-0,075
-702,802	-65,646	-0,239	0,070
-701,787	-9,507	0,073	-0,036
-700,772	-141,899	-0,096	0,007
-699,758	201,307	-0,026	-0,029
-698,743	-172,156	0,097	-0,002
-697,729	-29,810	-0,126	-0,053
-696,714	223,377	0,016	0,019
-695,699	475,622	0,083	-0,139
-694,685	571,686	0,030	-0,053
-693,670	-17,035	-0,095	-0,044
-692,656	-80,065	-0,030	0,007
-691,641	-102,407	-0,032	0,006
-690,627	-200,000	-0,006	0,025
-689,612	-141,597	0,055	0,004
-688,597	-114,342	-0,076	0,011
-687,583	-200,000	-0,015	-0,088
-686,568	214,923	0,061	0,071
-685,554	-200,000	0,023	-0,132
-684,539	31,947	0,020	0,013
-683,524	398,582	0,072	-0,111
-682,510	800,000	0,058	0,152
-681,495	-200,000	-0,031	0,116
-680,481	-44,465	0,072	0,026
-679,466	3,713	-0,047	0,025
-678,451	751,094	-0,047	0,093
-677,437	129,706	0,043	0,041
-676,422	431,678	-0,065	-0,104
-675,408	-8,009	0,047	-0,023
-674,393	-200,000	-0,002	0,062
-673,378	800,000	-0,056	-0,144
-672,364	104,439	-0,138	-0,119
-671,349	-200,000	0,011	0,039
-670,335	88,010	0,061	0,049
-669,320	47,733	-0,022	-0,015
-668,305	-146,264	0,057	-0,004
-667,291	-200,000	-0,002	-0,052
-666,276	175,029	0,009	0,010
-665,262	181,289	0,026	-0,028
-664,247	387,663	0,024	0,037
-663,232	747,960	0,047	0,093
-662,218	800,000	0,043	0,092
-661,203	144,284	-0,059	0,058
-660,189	-200,000	0,006	-0,044
-659,174	-124,514	-0,128	0,014
-658,159	800,000	-0,007	0,018
-657,145	157,133	0,131	-0,133
-656,130	-36,528	0,070	0,028
-655,116	-133,249	-0,016	-0,001
-654,101	20,051	0,116	-0,069
-653,086	81,427	-0,097	0,077
-652,072	-71,188	0,102	-0,028
-651,057	9,170	-0,189	-0,105
-650,043	604,176	-0,053	-0,098
-649,028	464,885	0,014	0,023
-648,014	-200,000	0,004	-0,020
-646,999	97,765	-0,034	-0,029
-645,984	139,023	-0,035	-0,033
-644,970	17,717	-0,018	-0,010
-643,955	-200,000	0,011	-0,124
-642,941	790,601	-0,019	-0,039
-641,926	134,836	-0,138	-0,131
-640,911	550,236	-0,021	0,036
-639,897	800,000	-0,045	0,120
-638,882	191,342	0,041	-0,045
-637,868	800,000	-0,031	-0,088
-636,853	73,912	-0,059	0,045
-635,838	341,558	-0,117	-0,168
-634,824	800,000	0,026	-0,061
-633,809	-110,248	-0,068	-0,010
-632,795	-200,000	0,013	-0,148
-631,780	-200,000	0,001	0,034
-630,765	-200,000	-0,019	-0,108
-629,751	86,382	-0,127	-0,103
-628,736	152,781	-0,056	-0,057
-627,722	-147,833	0,113	0,007
-626,707	-1,891	0,037	-0,019
-625,692	-133,038	0,053	0,005
-624,678	88,296	-0,117	-0,095
-623,663	-111,270	-0,121	-0,018
-622,649	-200,000	-0,003	-0,096
-621,634	163,773	-0,121	0,126
-620,619	49,907	-0,023	0,016
-619,605	800,000	0,027	0,071
-618,590	233,129	-0,075	0,091
-617,576	800,000	0,042	0,097
-616,561	800,000	-0,062	-0,161
-615,546	283,995	-0,033	0,043
-614,532	-15,411	-0,040	-0,019
-613,517	528,139	-0,060	0,104
-612,503	49,385	0,057	0,039
-611,488	-39,980	0,156	0,060
-610,474	523,042	0,021	0,037
-609,459	-200,000	0,016	0,055
-608,444	800,000	0,036	-0,097
-607,430	-200,000	-0,004	-0,128
-606,415	800,000	-0,038	-0,083
-605,401	662,170	-0,025	-0,047
-604,386	-200,000	0,007	0,082
-603,371	-16,715	-0,146	0,067
-602,357	-200,000	0,038	0,132
-601,342	303,190	0,048	-0,065
-600,328	154,557	-0,095	-0,096
-599,313	91,102	-0,043	0,035
-598,298	-165,682	-0,089	-0,003
-597,284	-133,618	0,127	-0,012
-596,269	235,483	0,065	0,079
-595,255	14,088	0,149	0,085
-594,240	-200,000	-0,005	-0,017
-593,225	-200,000	-0,017	-0,113
-592,211	-69,334	-0,153	-0,043
-591,196	-200,000	0,018	0,065
-590,182	-30,367	0,089	0,037
-589,167	12,407	0,096	-0,054
-588,152	-200,000	0,009	0,068
-587,138	13,295	0,094	-0,054
-586,123	97,971	0,021	0,018
-585,109	-85,219	-0,071	-0,016
-584,094	276,235	-0,042	0,055
-583,079	-167,834	-0,066	0,002
-582,065	-200,000	0,021	0,138
-581,050	-118,929	0,087	0,011
-580,036	393,206	-0,017	-0,027
-579,021	14,758	-0,093	-0,053
-578,006	-200,000	-0,005	-0,057
-576,992	319,744	0,080	-0,111
-575,977	-140,335	-0,114	-0,009
-574,963	-91,259	0,103	0,021
-573,948	433,484	0,052	0,083
-572,934	268,760	0,059	-0,076
-571,919	-70,866	-0,182	0,050
-570,904	-14,197	-0,011	0,005
-569,890	220,222	0,014	-0,017
-568,875	196,522	-0,017	0,019
-567,861	-105,238	0,116	0,019
-566,846	228,576	-0,070	-0,084
-565,831	47,330	-0,032	0,022
-564,817	-154,642	-0,018	-0,001
-563,802	160,988	-0,067	0,069
-562,788	78,839	0,053	0,041
-561,773	800,000	-0,016	-0,050
-560,758	-181,407	0,079	0,001
-559,744	-200,000	0,004	0,207
-558,729	-200,000	0,001	0,085
-557,715	800,000	-0,024	0,050
-556,700	26,472	0,050	-0,031
-555,685	60,841	0,136	-0,098
-554,671	24,271	0,088	0,053
-553,656	-200,000	0,014	0,210
-552,642	47,635	-0,057	0,039
-551,627	34,316	0,028	-0,018
-550,612	324,235	0,029	0,041
-549,598	-114,508	-0,202	-0,028
-548,583	62,361	-0,029	0,021
-547,569	151,782	0,121	-0,121
-546,554	585,407	0,049	-0,089
-545,539	128,230	-0,061	-0,057
-544,525	80,497	0,128	0,101
-543,510	112,863	0,049	0,044
-542,496	-200,000	-0,031	-0,150
-541,481	-153,439	-0,096	-0,005
-540,466	-46,726	0,023	0,008
-539,452	-200,000	-0,030	0,152
-538,437	800,000	0,021	-0,045
-537,423	-200,000	0,004	-0,065
-536,408	365,096	-0,032	-0,047
-535,393	-112,566	-0,072	0,010
-534,379	-27,524	-0,020	-0,009
-533,364	660,147	-0,097	0,183
-532,350	-59,871	-0,037	0,011
-531,335	-200,000	-0,014	-0,058
-530,321	800,000	-0,015	0,047
-529,306	-172,946	0,061	0,001
-528,291	69,526	-0,105	-0,079
-527,277	-200,000	0,008	-0,036
-526,262	-200,000	-0,007	0,064
-525,248	-110,529	-0,136	0,020
-524,233	794,532	-0,029	0,058
-523,218	-79,684	0,126	-0,031
-522,204	241,049	0,051	-0,062
-521,189	-105,205	-0,127	0,021
-520,175	-200,000	-0,010	-0,112
-519,160	800,000	0,053	-0,143
-518,145	-192,320	-0,077	-0,001
-517,131	-116,111	0,138	0,019
-516,116	110,300	-0,071	-0,062
-515,102	-36,431	-0,146	0,057
-514,087	226,070	0,068	-0,081
-513,072	800,000	-0,033	-0,071
-512,058	253,175	-0,031	0,039
-511,043	163,650	0,075	-0,077
-510,029	267,455	-0,069	-0,089
-509,014	-200,000	-0,010	0,055
-507,999	168,758	-0,018	-0,019
-506,985	11,621	-0,094	0,052
-505,970	161,067	-0,061	0,063
-504,956	312,293	0,032	0,044
-503,941	-41,886	0,006	0,002
-502,926	-200,000	-0,001	0,071
-501,912	217,534	0,066	0,077
-500,897	-155,563	0,059	0,003
-499,883	40,177	0,043	0,028
-498,868	42,759	-0,114	-0,076
-497,853	-200,000	-0,008	-0,092
-496,839	142,268	-0,093	0,091
-495,824	-85,619	0,070	0,016
-494,810	-102,702	0,060	-0,010
-493,795	-0,734	-0,120	-0,062
-492,781	-123,119	0,105	0,012
-491,766	-200,000	0,003	0,084
-490,751	200,500	-0,039	-0,044
-489,737	-200,000	-0,033	0,155
-488,722	800,000	0,065	0,161
-487,708	145,301	-0,006	0,006
-486,693	382,573	-0,046	0,069
-485,678	424,668	0,047	-0,074
-484,664	-127,470	-0,172	-0,018
-483,649	204,713	0,059	-0,067
-482,635	-200,000	0,004	-0,030
-481,620	-44,227	0,096	0,035
-480,605	800,000	0,044	0,108
-479,591	-30,038	-0,024	-0,010
-478,576	115,371	-0,019	0,017
-477,562	-50,958	-0,009	-0,003
-476,547	-200,000	0,004	-0,064
-475,532	-200,000	-0,011	-0,131
-474,518	-133,968	0,140	0,012
-473,503	398,359	0,073	-0,112
-472,489	132,092	0,068	-0,064
-471,474	285,273	-0,052	-0,069
-470,459	283,871	-0,022	-0,029
-469,445	222,392	-0,046	-0,054
-468,430	-65,695	0,080	0,023
-467,416	-200,000	-0,011	-0,094
-466,401	-200,000	-0,010	-0,076
-465,386	-106,102	-0,070	-0,011
-464,372	10,145	0,127	-0,070
-463,357	800,000	-0,020	-0,055
-462,343	35,497	-0,129	-0,082
-461,328	800,000	-0,015	-0,045
-460,313	-200,000	0,002	0,022
-459,299	-62,045	0,084	-0,025
-458,284	-190,886	-0,225	-0,002
-457,270	428,049	0,030	0,048
-456,255	800,000	-0,028	-0,056
-455,241	800,000	0,024	-0,067
-454,226	166,399	-0,045	-0,046
-453,211	-147,060	0,158	0,010
-452,197	26,227	0,188	0,114
-451,182	28,053	-0,082	0,051
-450,168	-200,000	0,017	-0,116
-449,153	800,000	-0,046	-0,126
-448,138	119,503	-0,041	0,037
-447,124	800,000	0,033	-0,073
-446,109	26,233	-0,018	-0,011
-445,095	-158,347	0,065	0,003
-444,080	494,938	-0,105	0,177
-443,065	196,178	0,024	0,026
-442,051	-200,000	0,023	0,113
-441,036	-39,002	-0,076	-0,029
-440,022	334,927	0,080	-0,114
-439,007	717,889	-0,023	0,045
-437,992	-194,087	0,119	0,001
-436,978	-87,084	0,035	-0,008
-435,963	70,607	0,080	-0,061
-434,949	54,944	-0,065	0,046
-433,934	-113,111	0,129	-0,018
-432,919	-43,464	-0,088	-0,032
-431,905	171,966	-0,021	0,022
-430,890	-155,800	-0,084	-0,004
-429,876	-148,742	0,099	0,006
-428,861	-200,000	0,016	-0,079
-427,846	172,656	-0,072	-0,075
-426,832	-200,000	-0,001	0,033
-425,817	800,000	0,029	0,069
-424,803	-200,000	-0,014	0,101
-423,788	3,772	0,159	0,084
-422,773	27,499	0,070	0,043
-421,759	640,058	0,029	0,053
-420,744	-200,000	0,002	0,140
-419,730	193,189	-0,024	-0,026
-418,715	-200,000	-0,004	-0,020
-417,701	-31,579	-0,041	0,017
-416,686	-200,000	0,018	-0,070
-415,671	-13,143	-0,048	-0,022
-414,657	-65,859	-0,053	-0,015
-413,642	2,392	-0,030	-0,016
-412,628	12,784	-0,088	-0,050
-411,613	94,529	0,013	-0,011
-410,598	-40,149	0,030	-0,011
-409,584	-75,870	-0,112	-0,029
-408,569	-72,829	0,098	-0,026
-407,555	-200,000	0,002	0,040
-406,540	-93,736	-0,052	0,010
-405,525	-200,000	-0,013	-0,116
-404,511	492,856	0,011	0,018
-403,496	142,289	0,063	0,061
-402,482	-200,000	0,083	0,000
-401,467	800,000	-0,035	-0,090
-400,452	219,638	-0,082	0,096
-399,438	-1,967	0,106	0,054
-398,423	-73,838	0,059	-0,015
-397,409	652,928	-0,069	-0,129
-396,394	20,384	-0,104	-0,061
-395,379	26,623	-0,116	0,071
-394,365	563,368	0,029	-0,051
-393,350	81,458	-0,106	0,083
-392,336	12,888	0,147	0,083
-391,321	181,717	-0,077	-0,082
-390,306	213,363	-0,049	-0,056
-389,292	-32,174	-0,044	0,018
-388,277	112,225	0,016	0,014
-387,263	180,302	0,032	0,034
-386,248	41,477	0,058	-0,038
-385,233	-200,000	0,001	0,013
-384,219	208,168	-0,042	-0,047
-383,204	-200,000	0,008	-0,126
-382,190	550,841	0,082	0,144
-381,175	-161,772	0,061	-0,002
-380,160	800,000	0,035	-0,104
-379,146	-56,099	-0,117	-0,038
-378,131	386,739	-0,030	0,046
-377,117	-200,000	0,035	-0,114
-376,102	498,655	-0,052	-0,087
-375,088	577,574	0,001	-0,001
-374,073	-187,927	0,139	-0,001
-373,058	-46,777	0,227	0,080
-372,044	-200,000	0,016	0,105
-371,029	-200,000	-0,010	0,069
-370,015	-101,341	0,051	0,009
-369,000	54,779	-0,158	-0,111
-367,985	141,567	0,035	-0,034
-366,971	13,727	-0,022	-0,012
-365,956	-200,000	-0,020	0,071
-364,942	43,977	0,061	0,040
-363,927	-200,000	0,031	0,271
-362,912	-49,419	0,089	0,031
-361,898	615,116	-0,010	-0,017
-360,883	303,738	-0,088	-0,119
-359,869	-200,000	0,012	0,080
-358,854	-200,000	0,009	0,053
-357,839	-200,000	-0,007	0,090
-356,825	309,043	-0,020	-0,027
-355,810	-200,000	0,032	0,114
-354,796	323,492	-0,062	-0,087
-353,781	-200,000	-0,002	0,016
-352,766	-200,000	-0,013	0,185
-351,752	-143,448	0,037	0,003
-350,737	245,002	-0,056	0,068
-349,723	189,472	0,060	0,066
-348,708	-122,205	0,143	0,017
-347,693	800,000	-0,012	-0,032
-346,679	-200,000	0,007	-0,084
-345,664	-35,380	-0,092	0,036
-344,650	-138,707	-0,124	-0,010
-343,635	77,561	0,048	-0,037
-342,620	26,564	0,126	-0,077
-341,606	223,710	-0,009	-0,010
-340,591	154,915	0,072	0,072
-339,577	692,798	0,033	0,064
-338,562	650,467	-0,011	0,021
-337,548	-161,673	-0,107	0,004
-336,533	126,376	-0,101	0,093
-335,518	-137,102	0,143	0,012
-334,504	-200,000	0,043	-0,199
-333,489	-140,148	0,131	0,010
-332,475	-14,462	-0,045	-0,021
-331,460	-54,221	0,026	0,009
-330,445	166,938	0,029	0,030
-329,431	-200,000	-0,002	-0,021
-328,416	-104,023	0,140	0,023
-327,402	13,684	-0,047	0,026
-326,387	-27,198	-0,107	-0,045
-325,372	-200,000	-0,018	0,133
-324,358	-63,351	-0,070	-0,021
-323,343	-200,000	0,012	-0,055
-322,329	-19,976	-0,079	0,035
-321,314	-200,000	0,019	0,151
-320,299	79,502	0,055	0,043
-319,285	-37,990	-0,031	-0,012
-318,270	800,000	0,065	0,165
-317,256	-200,000	-0,014	0,201
-316,241	-65,233	-0,094	-0,027
-315,226	-58,157	0,066	0,021
-314,212	-53,905	0,182	-0,060
-313,197	238,748	0,077	0,093
-312,183	137,779	-0,028	0,026
-311,168	-200,000	-0,004	-0,080
-310,153	90,123	0,033	-0,027
-309,139	-200,000	0,035	-0,121
-308,124	800,000	-0,061	-0,182
-307,110	197,302	0,065	0,072
-306,095	499,799	0,051	0,086
-305,080	-200,000	-0,031	0,123
-304,066	-200,000	-0,016	0,056
-303,051	213,597	-0,034	-0,039
-302,037	93,649	-0,083	-0,068
-301,022	82,555	0,109	0,086
-300,008	800,000	-0,053	0,107
-298,993	248,691	-0,086	-0,106
-297,978	473,771	0,129	-0,211
-296,964	-84,090	-0,229	0,052
-295,949	-200,000	-0,034	0,112
-294,935	108,041	-0,052	-0,045
-293,920	143,421	0,052	0,050
-292,905	757,187	0,066	0,129
-291,891	-200,000	0,006	-0,057
-290,876	19,926	0,167	0,098
-289,862	-200,000	-0,009	-0,069
-288,847	-46,207	0,151	0,054
-287,832	286,786	0,092	0,120
-286,818	800,000	-0,064	-0,162
-285,803	77,442	0,084	-0,065
-284,789	15,546	-0,053	0,030
-283,774	-34,903	-0,077	-0,030
-282,759	-114,381	-0,056	-0,008
-281,745	37,898	-0,124	-0,079
-280,730	216,569	-0,095	0,110
-279,716	-73,990	0,032	0,008
-278,701	-10,533	0,069	-0,033
-277,686	211,025	-0,067	-0,076
-276,672	228,593	-0,035	0,041
-275,657	269,757	-0,027	-0,035
-274,643	115,085	-0,072	-0,063
-273,628	145,620	0,129	-0,125
-272,613	-42,809	0,090	0,033
-271,599	449,914	0,066	-0,105
-270,584	348,740	0,060	0,086
-269,570	-72,942	0,034	0,009
-268,555	7,114	0,139	0,075
-267,540	-39,215	0,116	0,044
-266,526	-200,000	0,005	-0,095
-265,511	-122,578	-0,067	-0,008
-264,497	357,210	-0,002	0,003
-263,482	23,545	0,096	0,057
-262,467	-200,000	-0,001	-0,048
-261,453	113,482	0,068	0,060
-260,438	-56,269	-0,076	-0,024
-259,424	200,717	-0,081	0,090
-258,409	-96,889	0,086	-0,016
-257,395	308,195	0,071	0,096
-256,380	86,974	-0,048	0,038
-255,365	491,985	0,005	0,008
-254,351	73,755	0,024	-0,019
-253,336	51,098	0,056	0,038
-252,322	25,575	-0,159	-0,095
-251,307	508,487	0,024	-0,041
-250,292	-116,912	0,098	0,013
-249,278	-73,721	0,018	0,005
-248,263	-9,327	0,136	-0,066
-247,249	-200,000	-0,000	0,041
-246,234	-140,855	-0,126	-0,009
-245,219	-200,000	0,018	0,078
-244,205	83,222	0,026	0,021
-243,190	128,473	0,090	-0,083
-242,176	-41,013	0,036	0,014
-241,161	-200,000	0,013	0,050
-240,146	-107,065	-0,120	-0,019
-239,132	319,064	-0,056	0,077
-238,117	-200,000	-0,003	-0,044
-237,103	460,872	-0,110	-0,179
-236,088	-200,000	0,002	0,072
-235,073	-47,667	0,111	0,039
-234,059	-183,039	-0,088	0,001
-233,044	-113,819	0,131	-0,018
-232,030	345,184	-0,045	-0,064
-231,015	-152,356	0,096	0,005
-230,000	-132,902	0,067	0,006
-228,986	185,191	0,073	-0,079
-227,971	-200,000	0,028	0,091
-226,957	-200,000	0,025	0,126
-225,942	739,493	-0,056	0,109
-224,927	42,672	0,036	0,024
-223,913	-200,000	-0,006	-0,072
-222,898	800,000	-0,056	0,123
-221,884	-18,201	0,068	-0,031
-220,869	-60,795	0,212	-0,064
-219,855	-81,155	0,085	-0,020
-218,840	-200,000	-0,016	0,069
-217,825	87,762	-0,179	-0,143
-216,811	-200,000	-0,038	-0,157
-215,796	-200,000	0,027	-0,108
-214,782	-147,097	-0,021	-0,001
-213,767	800,000	0,057	0,114
-212,752	447,698	0,101	-0,162
-211,738	-6,469	-0,107	0,053
-210,723	-180,306	-0,143	-0,002
-209,709	11,949	0,068	-0,038
-208,694	262,154	-0,044	0,055
-207,679	-57,682	-0,106	-0,033
-206,665	445,719	-0,024	0,038
-205,650	46,123	-0,073	0,049
-204,636	-200,000	-0,002	-0,016
-203,621	247,056	0,081	0,099
-202,606	-58,682	-0,130	-0,041
-201,592	-200,000	0,005	-0,101
-200,577	-101,214	-0,114	0,020
-199,563	-53,234	0,155	-0,051
-198,548	103,359	0,014	0,012
-197,533	-200,000	0,010	0,140
-196,519	45,841	0,071	0,048
-195,504	-200,000	0,009	-0,137
-194,490	-181,617	-0,091	-0,001
-193,475	-200,000	0,026	0,096
-192,460	325,703	-0,066	0,092
-191,446	28,217	0,067	0,041
-190,431	800,000	-0,027	0,071
-189,417	-200,000	0,032	0,108
-188,402	393,723	0,016	-0,024
-187,387	-128,085	-0,171	-0,017
-186,373	-43,614	0,061	-0,022
-185,358	533,800	-0,034	0,058
-184,344	231,474	0,043	0,051
-183,329	-8,324	-0,135	0,065
-182,315	-200,000	0,002	0,062
-181,300	-139,847	-0,070	-0,005
-180,285	86,013	-0,048	-0,039
-179,271	-200,000	0,003	-0,146
-178,256	-136,291	0,036	-0,003
-177,242	49,848	-0,044	-0,030
-176,227	445,124	0,040	-0,063
-175,212	327,052	-0,053	0,074
-174,198	-75,139	0,087	0,022
-173,183	-143,227	-0,148	-0,010
-172,169	-62,441	0,116	-0,035
-171,154	553,043	0,080	-0,140
-170,139	33,497	-0,051	-0,032
-169,125	-21,814	-0,155	0,068
-168,110	-189,170	0,135	0,001
-167,096	98,375	-0,047	0,039
-166,081	-133,203	0,125	0,011
-165,066	-200,000	0,043	-0,156
-164,052	800,000	-0,038	-0,108
-163,037	-85,205	-0,100	0,022
-162,023	-78,315	0,026	0,006
-161,008	131,420	0,047	-0,044
-159,993	800,000	-0,034	0,091
-158,979	204,878	0,015	0,017
-157,964	-118,219	-0,085	0,011
-156,950	-99,056	-0,068	0,012
-155,935	-200,000	-0,014	0,178
-154,920	-17,823	0,139	-0,063
-153,906	93,706	-0,079	-0,064
-152,891	-200,000	-0,005	0,024
-151,877	-200,000	0,036	-0,125
-150,862	20,399	0,099	0,057
-149,847	19,184	-0,139	0,080
-148,833	71,361	0,096	0,071
-147,818	-44,807	-0,089	0,032
-146,804	-200,000	0,031	0,114
-145,789	152,604	0,048	0,047
-144,775	185,856	0,065	0,069
-143,760	-84,592	-0,059	0,013
-142,745	156,337	-0,109	-0,108
-141,731	303,498	-0,046	-0,062
-140,716	800,000	-0,052	0,131
-139,702	-200,000	0,013	0,077
-138,687	10,641	0,062	-0,034
-137,672	-43,068	0,129	-0,047
-136,658	167,782	-0,016	0,016
-135,643	243,339	0,024	0,030
-134,629	-123,509	0,071	0,008
-133,614	-175,594	0,060	-0,001
-132,599	20,011	0,059	-0,034
-131,585	56,481	0,069	0,048
-130,570	116,529	-0,070	-0,062
-129,556	124,540	-0,127	0,115
-128,541	1,254	-0,055	-0,028
-127,526	87,795	0,038	-0,030
-126,512	252,791	0,079	0,097
-125,497	650,585	-0,062	0,115
-124,483	-29,696	-0,003	0,001
-123,468	-72,330	-0,203	-0,054
-122,453	16,164	0,112	-0,064
-121,439	-167,146	-0,149	0,004
-120,424	-106,467	0,148	-0,024
-119,410	105,586	-0,027	0,023
