DTS Sentinel unit serial number:	SN410029Multiplexer serial number:	ORYXHardware model number:	OX2-SRSoftware version number:	ORYX F/W v4,00 Oryx Data Collector v3.7.2.0data status	okinstallation	B5 Nyhavnadifferential loss correction	single-endedforward channel	channel 2reverse channel	N/Adate	2023/12/13time	10:22:13forward acquisition time	300,00reverse acquisition time	0,00gamma	499,1914k internal	0,3160k external	0,3160temperature offset calibration	1,0000default loss term (dB/km)	0,3820temperature slope calibration	1,0000multiplexer offset coefficient	1,0000multiplexer slope coefficient	1,0000fibre end	0,00T internal ref (°C)	13,64T ext. ref 1 (°C)	-2,71T ext. ref 2 (°C)	-3,03length (m)	temperature (°C)	Stokes	anti-Stokes-744,400	-107,670	0,111	0,018
-743,385	-140,437	-0,376	-0,028
-742,371	67,994	0,137	0,103
-741,356	-91,620	-0,341	0,071
-740,342	-114,935	0,052	0,007
-739,327	-66,802	-0,224	0,065
-738,312	-75,677	0,079	-0,021
-737,298	-84,986	-0,207	0,047
-736,283	-95,116	0,136	-0,027
-735,269	-88,093	-0,321	-0,070
-734,254	46,287	0,100	0,068
-733,239	-69,404	-0,508	-0,142
-732,225	78,100	0,146	-0,115
-731,210	106,041	-0,072	0,062
-730,196	159,464	-0,100	0,102
-729,181	-200,000	-0,018	0,068
-728,167	-65,616	0,074	-0,022
-727,152	-200,000	-0,011	0,073
-726,137	800,000	-0,011	0,026
-725,123	-154,263	-0,141	0,007
-724,108	-79,365	-0,082	-0,020
-723,094	21,980	-0,005	-0,003
-722,079	611,467	-0,041	-0,076
-721,064	-200,000	0,010	-0,199
-720,050	-151,377	-0,050	0,003
-719,035	-33,090	0,058	0,023
-718,021	-71,140	-0,142	-0,039
-717,006	800,000	-0,015	-0,046
-715,991	800,000	-0,031	-0,100
-714,977	-34,466	-0,060	0,024
-713,962	99,196	-0,107	-0,091
-712,948	-101,996	-0,103	-0,018
-711,933	-46,095	0,118	-0,043
-710,918	-140,151	0,077	0,006
-709,904	266,785	0,073	-0,094
-708,889	-200,000	-0,016	-0,096
-707,875	-200,000	-0,008	-0,143
-706,860	271,253	-0,017	-0,022
-705,845	-200,000	-0,004	-0,147
-704,831	-200,000	-0,002	0,037
-703,816	-200,000	0,001	-0,045
-702,802	213,844	-0,081	-0,094
-701,787	-26,562	0,048	-0,021
-700,772	656,811	-0,083	-0,158
-699,758	800,000	-0,018	-0,048
-698,743	315,055	-0,075	0,105
-697,729	-2,082	-0,042	0,022
-696,714	-200,000	0,017	0,080
-695,699	461,696	0,057	-0,094
-694,685	174,199	-0,111	-0,119
-693,670	50,930	-0,084	-0,059
-692,656	438,468	-0,041	0,066
-691,641	-44,288	0,135	0,049
-690,627	-200,000	0,057	0,255
-689,612	86,062	-0,106	0,086
-688,597	800,000	0,040	-0,111
-687,583	357,194	-0,102	-0,150
-686,568	-106,719	-0,074	-0,012
-685,554	-9,835	0,054	-0,026
-684,539	258,935	-0,071	-0,091
-683,524	-200,000	-0,003	-0,158
-682,510	590,659	-0,040	0,073
-681,495	-73,825	-0,046	0,012
-680,481	217,634	0,095	-0,111
-679,466	-200,000	0,027	-0,183
-678,451	144,585	0,034	0,034
-677,437	800,000	0,035	-0,096
-676,422	-39,703	0,067	0,025
-675,408	-200,000	0,012	0,066
-674,393	561,647	0,039	0,070
-673,378	235,222	-0,079	-0,096
-672,364	800,000	-0,059	-0,157
-671,349	-34,223	-0,027	-0,011
-670,335	-88,659	0,081	-0,018
-669,320	800,000	0,063	0,154
-668,305	-200,000	-0,034	0,211
-667,291	800,000	-0,034	0,091
-666,276	800,000	0,035	-0,108
-665,262	-79,120	0,073	0,018
-664,247	-200,000	-0,006	-0,080
-663,232	36,976	-0,043	0,028
-662,218	-200,000	0,024	0,112
-661,203	-84,552	-0,078	0,018
-660,189	12,660	-0,145	-0,082
-659,174	800,000	-0,043	0,093
-658,159	243,629	-0,104	-0,129
-657,145	800,000	0,039	0,081
-656,130	73,720	0,089	0,068
-655,116	-200,000	-0,002	0,066
-654,101	-200,000	-0,012	0,089
-653,086	137,927	0,102	-0,098
-652,072	800,000	-0,041	-0,084
-651,057	111,013	-0,050	0,044
-650,043	-200,000	0,002	-0,054
-649,028	-200,000	0,005	0,040
-648,014	364,414	0,025	0,036
-646,999	133,220	-0,082	-0,078
-645,984	-84,731	-0,138	0,032
-644,970	-46,990	0,116	-0,041
-643,955	85,664	0,100	-0,080
-642,941	-200,000	-0,016	-0,163
-641,926	161,843	-0,060	-0,061
-640,911	-24,434	0,102	-0,045
-639,897	-159,092	0,123	-0,005
-638,882	-200,000	0,003	-0,062
-637,868	800,000	-0,012	-0,030
-636,853	221,858	-0,075	-0,089
-635,838	310,952	-0,081	-0,111
-634,824	-200,000	-0,005	0,055
-633,809	-160,617	0,094	-0,004
-632,795	60,533	0,182	-0,132
-631,780	800,000	-0,051	0,117
-630,765	66,687	0,084	0,063
-629,751	800,000	-0,045	-0,124
-628,736	-200,000	-0,015	-0,158
-627,722	-172,091	0,087	0,002
-626,707	174,060	-0,126	0,134
-625,692	40,348	0,026	0,017
-624,678	800,000	0,044	0,129
-623,663	-9,388	-0,064	0,031
-622,649	800,000	-0,032	-0,100
-621,634	36,910	-0,093	-0,060
-620,619	-146,950	-0,106	-0,007
-619,605	-115,065	0,106	0,015
-618,590	-62,709	0,075	-0,023
-617,576	3,016	-0,060	0,032
-616,561	-98,349	-0,077	-0,014
-615,546	-200,000	0,001	0,166
-614,532	-35,838	-0,107	-0,042
-613,517	800,000	0,030	0,095
-612,503	57,431	-0,013	-0,009
-611,488	-156,737	0,057	-0,003
-610,474	77,889	0,080	-0,062
-609,459	-37,309	-0,045	0,017
-608,444	-146,905	0,099	-0,006
-607,430	77,347	-0,104	-0,081
-606,415	-30,783	0,141	-0,058
-605,401	75,522	-0,088	-0,068
-604,386	132,723	-0,069	0,065
-603,371	-111,676	0,056	0,008
-602,357	20,682	-0,116	0,069
-601,342	522,273	0,029	-0,049
-600,328	228,048	-0,032	-0,039
-599,313	-200,000	-0,004	-0,236
-598,298	200,657	0,083	-0,094
-597,284	741,625	-0,038	0,074
-596,269	-39,513	-0,090	0,034
-595,255	-45,878	0,164	0,059
-594,240	-154,780	-0,127	-0,006
-593,225	267,975	-0,013	0,016
-592,211	-200,000	-0,045	-0,147
-591,196	423,772	-0,025	-0,040
-590,182	33,096	0,151	0,096
-589,167	81,508	0,005	0,004
-588,152	-164,769	0,027	0,001
-587,138	170,357	-0,151	-0,159
-586,123	-200,000	-0,012	-0,160
-585,109	197,577	-0,105	-0,118
-584,094	50,755	0,051	0,035
-583,079	-70,127	-0,054	0,015
-582,065	193,149	-0,005	-0,006
-581,050	800,000	0,035	0,104
-580,036	-85,773	-0,050	-0,011
-579,021	800,000	0,036	-0,105
-578,006	157,776	0,087	0,088
-576,992	-200,000	0,033	0,127
-575,977	-200,000	-0,016	0,060
-574,963	-200,000	0,002	0,101
-573,948	42,148	-0,141	-0,094
-572,934	-200,000	0,013	-0,102
-571,919	-78,730	-0,131	-0,032
-570,904	232,701	0,016	-0,020
-569,890	-200,000	-0,026	-0,090
-568,875	-200,000	0,001	0,011
-567,861	54,012	0,135	0,095
-566,846	800,000	-0,063	-0,135
-565,831	12,798	-0,102	-0,057
-564,817	-44,401	0,158	0,057
-563,802	-200,000	-0,012	-0,128
-562,788	606,828	-0,033	0,060
-561,773	227,635	0,036	-0,043
-560,758	23,876	0,046	0,028
-559,744	-151,744	0,055	0,003
-558,729	161,166	0,109	0,111
-557,715	-31,184	-0,041	0,017
-556,700	140,659	0,096	-0,093
-555,685	-200,000	-0,027	-0,103
-554,671	800,000	0,052	0,128
-553,656	-30,497	0,082	0,034
-552,642	-200,000	0,011	-0,070
-551,627	17,286	-0,072	0,041
-550,612	-8,283	0,036	-0,018
-549,598	-113,601	-0,066	0,009
-548,583	179,544	-0,067	-0,072
-547,569	97,374	-0,021	-0,017
-546,554	-36,112	0,127	-0,050
-545,539	232,767	-0,063	0,076
-544,525	-200,000	-0,004	-0,040
-543,510	-200,000	-0,008	-0,077
-542,496	-47,909	0,097	-0,034
-541,481	-200,000	-0,028	0,112
-540,466	-150,382	0,112	-0,006
-539,452	-200,000	-0,020	0,104
-538,437	425,565	0,074	0,118
-537,423	-200,000	0,033	0,117
-536,408	800,000	0,012	-0,031
-535,393	17,308	0,095	-0,055
-534,379	349,788	0,059	0,086
-533,364	800,000	0,055	0,155
-532,350	-9,459	-0,051	0,025
-531,335	51,297	-0,029	-0,020
-530,321	-200,000	0,008	-0,051
-529,306	558,781	-0,063	0,111
-528,291	733,133	0,049	-0,095
-527,277	800,000	0,007	0,017
-526,262	-200,000	-0,047	-0,167
-525,248	-200,000	-0,011	0,055
-524,233	800,000	-0,017	0,036
-523,218	19,358	0,092	0,054
-522,204	20,429	-0,150	-0,088
-521,189	299,463	0,067	-0,090
-520,175	28,350	-0,147	-0,090
-519,160	501,778	-0,030	0,051
-518,145	-3,619	0,137	0,069
-517,131	800,000	0,017	-0,036
-516,116	800,000	0,073	0,176
-515,102	-171,015	-0,174	0,004
-514,087	800,000	-0,012	-0,026
-513,072	-56,366	-0,072	-0,023
-512,058	-168,342	-0,084	-0,002
-511,043	-200,000	0,002	-0,133
-510,029	312,817	0,078	0,107
-509,014	117,839	0,138	-0,125
-507,999	-200,000	0,002	-0,053
-506,985	546,136	-0,055	0,097
-505,970	-200,000	-0,001	0,003
-504,956	68,128	0,085	-0,064
-503,941	-28,912	0,079	-0,033
-502,926	2,150	0,099	0,052
-501,912	64,555	-0,021	0,015
-500,897	-18,367	0,057	-0,026
-499,883	407,746	-0,027	0,042
-498,868	800,000	-0,022	-0,053
-497,853	159,205	-0,076	0,078
-496,839	31,699	0,076	-0,048
-495,824	233,405	0,020	-0,024
-494,810	370,200	0,019	-0,029
-493,795	800,000	0,028	-0,072
-492,781	-200,000	-0,014	0,079
-491,766	800,000	0,034	-0,077
-490,751	-25,631	0,042	0,018
-489,737	-200,000	-0,006	0,045
-488,722	800,000	0,051	0,107
-487,708	800,000	-0,020	0,044
-486,693	-90,870	-0,122	-0,025
-485,678	129,163	-0,086	0,080
-484,664	647,117	0,050	-0,094
-483,649	-26,422	-0,125	0,053
-482,635	74,405	0,070	0,054
-481,620	40,198	0,069	-0,045
-480,605	-200,000	0,008	0,086
-479,591	-53,107	-0,075	-0,025
-478,576	800,000	0,064	-0,193
-477,562	-75,848	-0,104	0,027
-476,547	-129,915	0,071	-0,007
-475,532	-22,286	-0,061	-0,027
-474,518	51,962	0,041	0,028
-473,503	-67,702	0,142	0,040
-472,489	-133,517	-0,136	-0,012
-471,474	21,817	0,145	0,086
-470,459	31,568	0,081	-0,051
-469,445	-200,000	-0,002	0,035
-468,430	508,396	-0,033	0,057
-467,416	-141,744	0,110	-0,008
-466,401	-60,404	-0,131	-0,040
-465,386	-200,000	-0,004	0,065
-464,372	-118,024	-0,112	0,014
-463,357	-144,778	-0,167	0,011
-462,343	87,833	-0,035	-0,028
-461,328	-200,000	-0,012	0,082
-460,313	-182,715	-0,043	0,001
-459,299	-33,071	0,064	-0,026
-458,284	-130,849	-0,057	-0,005
-457,270	18,181	0,046	-0,027
-456,255	800,000	-0,023	-0,063
-455,241	-200,000	0,003	-0,228
-454,226	-124,286	0,128	-0,014
-453,211	211,719	0,031	-0,035
-452,197	-200,000	0,017	0,076
-451,182	15,151	-0,124	0,071
-450,168	103,621	0,057	0,049
-449,153	800,000	-0,030	-0,074
-448,138	-200,000	0,002	0,023
-447,124	681,559	-0,024	0,046
-446,109	800,000	0,088	0,193
-445,095	66,239	-0,127	0,094
-444,080	219,094	0,196	0,228
-443,065	-200,000	-0,006	0,032
-442,051	800,000	-0,033	0,068
-441,036	318,109	-0,094	-0,130
-440,022	45,158	-0,135	0,090
-439,007	220,876	-0,029	0,034
-437,992	323,352	-0,058	-0,080
-436,978	-90,102	0,154	0,032
-435,963	-200,000	-0,009	-0,046
-434,949	-117,202	0,055	-0,007
-433,934	-111,913	-0,114	0,017
-432,919	8,560	0,063	0,034
-431,905	223,146	-0,017	0,020
-430,890	-50,946	0,158	0,054
-429,876	61,827	0,133	0,096
-428,861	-200,000	0,005	-0,044
-427,846	800,000	-0,014	0,036
-426,832	273,111	-0,050	-0,065
-425,817	3,582	0,089	0,047
-424,803	-200,000	0,017	0,107
-423,788	-200,000	-0,011	0,154
-422,773	-89,469	0,117	-0,025
-421,759	-200,000	-0,007	0,035
-420,744	113,650	0,027	-0,024
-419,730	52,190	0,088	-0,061
-418,715	-7,408	-0,091	0,045
-417,701	-60,173	0,050	-0,015
-416,686	403,974	0,060	0,092
-415,671	771,056	0,065	0,130
-414,657	800,000	-0,029	0,081
-413,642	-200,000	-0,001	0,071
-412,628	19,670	0,094	-0,055
-411,613	2,203	-0,009	-0,005
-410,598	-200,000	0,030	-0,158
-409,584	-200,000	0,029	0,095
-408,569	-200,000	-0,000	0,146
-407,555	440,919	0,073	0,116
-406,540	70,008	0,068	0,051
-405,525	-200,000	0,005	0,090
-404,511	-200,000	-0,014	-0,088
-403,496	-179,810	0,065	0,001
-402,482	-130,772	-0,120	-0,012
-401,467	-118,936	0,100	0,013
-400,452	6,489	-0,048	0,026
-399,438	193,767	0,032	0,035
-398,423	-200,000	0,013	-0,065
-397,409	66,083	-0,147	0,108
-396,394	-200,000	0,026	0,098
-395,379	152,897	0,027	-0,027
-394,365	390,588	-0,052	0,079
-393,350	-12,729	-0,085	0,040
-392,336	-113,759	0,173	0,024
-391,321	190,595	-0,056	-0,061
-390,306	3,181	-0,127	-0,067
-389,292	141,358	0,058	-0,056
-388,277	-49,009	0,133	0,046
-387,263	32,471	-0,072	-0,045
-386,248	66,128	0,037	0,027
-385,233	-107,039	0,082	0,013
-384,219	0,169	-0,036	-0,019
-383,204	-64,739	-0,104	-0,030
-382,190	497,742	-0,103	-0,174
-381,175	-177,795	0,094	-0,002
-380,160	545,823	-0,010	0,018
-379,146	-200,000	-0,001	-0,013
-378,131	-46,615	-0,060	-0,021
-377,117	-25,214	-0,082	-0,035
-376,102	-19,262	0,036	-0,016
-375,088	-69,203	-0,181	0,050
-374,073	63,405	0,057	-0,041
-373,058	349,253	0,036	0,052
-372,044	359,009	0,072	0,105
-371,029	-34,876	0,121	0,048
-370,015	138,107	0,053	0,051
-369,000	276,995	0,082	-0,106
-367,985	485,455	-0,045	-0,075
-366,971	-200,000	0,006	-0,027
-365,956	-200,000	-0,025	0,142
-364,942	182,334	-0,060	0,064
-363,927	290,039	-0,110	0,145
-362,912	-79,029	-0,149	-0,037
-361,898	-200,000	-0,016	0,051
-360,883	1,051	-0,063	-0,033
-359,869	-200,000	-0,003	0,022
-358,854	-200,000	0,000	-0,005
-357,839	702,801	-0,018	0,034
-356,825	739,705	0,077	0,150
-355,810	-16,071	-0,065	0,030
-354,796	585,117	-0,063	-0,113
-353,781	44,047	-0,061	0,041
-352,766	-200,000	-0,024	-0,085
-351,752	-132,669	-0,156	-0,014
-350,737	-3,716	0,143	0,072
-349,723	-62,466	0,053	-0,016
-348,708	657,116	-0,071	-0,133
-347,693	-4,375	0,033	0,016
-346,679	277,078	0,018	0,024
-345,664	-200,000	-0,007	0,096
-344,650	377,656	0,045	0,066
-343,635	-200,000	-0,001	-0,034
-342,620	121,238	-0,130	-0,118
-341,606	-200,000	-0,009	0,063
-340,591	125,330	-0,063	0,057
-339,577	34,032	-0,133	-0,084
-338,562	-148,387	0,019	0,001
-337,548	263,245	-0,111	-0,141
-336,533	19,428	0,089	-0,052
-335,518	-86,423	-0,019	-0,004
-334,504	-200,000	0,040	0,144
-333,489	-68,961	0,084	-0,023
-332,475	208,322	-0,112	0,128
-331,460	-200,000	0,013	-0,080
-330,445	179,367	0,038	-0,040
-329,431	800,000	0,042	-0,090
-328,416	-35,411	0,127	0,050
-327,402	-158,166	0,048	-0,002
-326,387	-34,919	-0,024	-0,010
-325,372	-180,525	0,099	-0,001
-324,358	130,061	-0,019	0,017
-323,343	26,064	0,020	-0,012
-322,329	-72,187	0,141	0,038
-321,314	60,748	0,090	-0,064
-320,299	800,000	0,008	0,026
-319,285	277,884	-0,014	0,019
-318,270	262,938	-0,017	-0,022
-317,256	800,000	0,046	0,098
-316,241	800,000	0,056	-0,144
-315,226	-200,000	0,015	-0,183
-314,212	606,160	0,061	0,111
-313,197	-55,960	-0,135	-0,043
-312,183	-54,361	0,079	-0,026
-311,168	-113,026	0,043	-0,006
-310,153	-200,000	0,007	-0,105
-309,139	-72,054	-0,055	-0,015
-308,124	-90,901	-0,092	-0,019
-307,110	47,572	0,063	0,042
-306,095	-96,031	-0,086	-0,017
-305,080	36,993	-0,096	0,061
-304,066	237,792	-0,019	-0,022
-303,051	-124,321	-0,115	-0,013
-302,037	-166,027	-0,061	0,002
-301,022	-47,679	0,175	0,061
-300,008	800,000	-0,044	0,097
-298,993	-200,000	0,028	0,096
-297,978	-200,000	-0,001	-0,046
-296,964	173,046	-0,075	-0,078
-295,949	-124,688	-0,112	0,012
-294,935	79,926	-0,070	-0,054
-293,920	-200,000	-0,004	0,045
-292,905	41,335	0,135	0,089
-291,891	390,448	-0,072	0,108
-290,876	3,971	-0,030	0,016
-289,862	800,000	-0,027	-0,080
-288,847	-145,632	-0,079	-0,005
-287,832	-77,384	-0,125	-0,031
-286,818	186,444	-0,062	0,067
-285,803	-200,000	0,020	0,098
-284,789	8,942	-0,057	-0,031
-283,774	-67,753	-0,103	-0,029
-282,759	760,372	0,059	0,116
-281,745	188,470	-0,122	0,133
-280,730	105,730	-0,248	-0,212
-279,716	-200,000	0,008	-0,039
-278,701	-47,669	0,031	0,011
-277,686	13,466	0,053	-0,030
-276,672	44,019	0,065	0,043
-275,657	163,251	-0,057	-0,058
-274,643	164,451	0,107	0,109
-273,628	-200,000	0,028	-0,103
-272,613	130,636	-0,006	0,006
-271,599	-200,000	-0,003	0,157
-270,584	502,444	0,100	0,169
-269,570	800,000	-0,033	0,082
-268,555	-184,871	-0,103	0,001
-267,540	800,000	-0,001	-0,003
-266,526	-55,240	-0,096	-0,031
-265,511	3,149	0,067	0,035
-264,497	-32,658	-0,100	-0,040
-263,482	203,330	0,077	0,087
-262,467	-132,263	0,080	0,007
-261,453	800,000	0,053	0,114
-260,438	155,029	0,080	-0,080
-259,424	0,183	-0,089	-0,046
-258,409	-88,236	0,068	-0,015
-257,395	800,000	-0,016	0,045
-256,380	-200,000	-0,001	0,096
-255,365	-200,000	0,010	0,142
-254,351	-133,728	-0,135	-0,012
-253,336	-25,878	0,032	0,014
-252,322	179,766	0,074	-0,079
-251,307	-57,322	-0,123	-0,039
-250,292	800,000	0,025	0,054
-249,278	800,000	0,047	-0,128
-248,263	800,000	0,006	-0,019
-247,249	-91,400	0,070	-0,014
-246,234	-200,000	-0,031	-0,147
-245,219	800,000	0,068	-0,140
-244,205	-109,492	-0,128	-0,019
-243,190	376,599	-0,020	0,030
-242,176	-145,271	0,213	0,014
-241,161	-200,000	-0,006	0,055
-240,146	154,544	-0,034	-0,034
-239,132	-168,566	-0,093	0,003
-238,117	-84,854	-0,098	0,022
-237,103	-47,910	0,023	-0,008
-236,088	-200,000	0,018	0,105
-235,073	-19,045	0,122	0,054
-234,059	-4,200	0,112	-0,056
-233,044	-200,000	-0,009	-0,044
-232,030	-152,940	0,059	-0,003
-231,015	-43,273	-0,109	0,039
-230,000	-113,702	0,067	-0,009
-228,986	309,969	-0,054	0,074
-227,971	134,283	0,038	0,036
-226,957	800,000	0,018	-0,042
-225,942	481,994	0,024	-0,040
-224,927	-105,160	-0,061	-0,010
-223,913	-111,832	-0,057	0,008
-222,898	321,713	0,049	-0,067
-221,884	157,059	-0,009	0,009
-220,869	800,000	0,021	0,054
-219,855	-57,591	-0,097	-0,030
-218,840	-200,000	-0,005	-0,060
-217,825	406,267	0,063	-0,096
-216,811	-200,000	0,018	-0,122
-215,796	149,699	-0,076	0,074
-214,782	-46,034	0,154	-0,054
-213,767	-91,559	-0,130	0,027
-212,752	-36,302	-0,057	-0,022
-211,738	-45,715	0,109	-0,039
-210,723	733,492	0,039	0,075
-209,709	78,231	-0,025	-0,020
-208,694	47,434	-0,064	-0,043
-207,679	-200,000	-0,026	0,095
-206,665	-57,369	0,142	-0,045
-205,650	-69,682	0,033	0,009
-204,636	-200,000	0,034	0,000
-203,621	-200,000	-0,005	-0,042
-202,606	-200,000	-0,001	-0,111
-201,592	324,503	-0,013	0,018
-200,577	800,000	-0,017	-0,051
-199,563	170,156	-0,016	0,017
-198,548	203,883	-0,028	0,031
-197,533	370,257	-0,066	0,097
-196,519	-92,620	0,066	0,013
-195,504	800,000	-0,028	-0,079
-194,490	473,365	-0,034	-0,056
-193,475	-25,135	-0,096	0,041
-192,460	132,775	0,102	-0,095
-191,446	166,788	0,052	0,053
-190,431	62,298	-0,082	-0,059
-189,417	-118,928	0,170	0,021
-188,402	239,774	0,052	-0,063
-187,387	287,195	-0,119	0,156
-186,373	-72,576	0,053	-0,014
-185,358	-200,000	-0,005	0,042
-184,344	-91,992	-0,136	-0,028
-183,329	-31,570	0,082	-0,033
-182,315	-33,998	0,048	0,019
-181,300	-200,000	-0,010	-0,105
-180,285	-200,000	0,023	0,103
-179,271	-200,000	-0,003	-0,071
-178,256	169,809	0,093	-0,096
-177,242	800,000	-0,057	-0,133
-176,227	400,040	0,069	-0,104
-175,212	121,335	0,033	-0,029
-174,198	394,160	0,047	-0,070
-173,183	603,324	-0,034	0,061
-172,169	34,218	-0,066	-0,041
-171,154	-200,000	-0,026	-0,082
-170,139	176,628	-0,063	-0,066
-169,125	-62,493	-0,064	-0,019
-168,110	-200,000	0,017	0,063
-167,096	-51,244	-0,062	-0,021
-166,081	364,851	-0,051	-0,074
-165,066	-200,000	-0,007	0,028
-164,052	-200,000	0,022	-0,104
-163,037	719,871	0,004	-0,009
-162,023	-200,000	-0,006	0,055
-161,008	214,223	-0,026	-0,030
-159,993	-45,394	-0,123	0,044
-158,979	199,886	-0,021	-0,023
-157,964	800,000	-0,064	0,148
-156,950	471,230	0,028	0,045
-155,935	-200,000	-0,013	-0,047
-154,920	375,283	0,017	0,024
-153,906	562,527	0,049	-0,086
-152,891	-51,069	0,098	0,033
-151,877	800,000	-0,052	0,164
-150,862	296,613	0,054	-0,071
-149,847	721,840	-0,088	-0,169
-148,833	545,953	0,025	-0,043
-147,818	189,365	0,024	0,026
-146,804	-119,020	0,079	0,010
-145,789	-61,186	0,047	-0,014
-144,775	-134,115	-0,193	0,017
-143,760	-200,000	-0,011	-0,047
-142,745	800,000	0,051	-0,123
-141,731	111,483	0,123	-0,107
-140,716	221,205	-0,108	-0,124
-139,702	23,790	0,053	0,031
-138,687	800,000	-0,006	0,014
-137,672	173,143	-0,055	-0,057
-136,658	800,000	-0,035	-0,102
-135,643	800,000	-0,065	-0,161
-134,629	800,000	0,019	0,040
-133,614	800,000	0,057	0,119
-132,599	-33,362	-0,029	0,012
-131,585	800,000	0,046	0,096
-130,570	-106,258	-0,119	-0,019
-129,556	-200,000	-0,011	0,153
-128,541	85,541	-0,093	-0,073
-127,526	179,544	-0,036	-0,038
-126,512	332,577	-0,012	-0,017
-125,497	-136,810	0,032	-0,003
-124,483	-200,000	0,078	0,279
-123,468	-51,046	0,073	-0,024
-122,453	285,271	0,055	0,072
-121,439	574,215	-0,088	-0,154
-120,424	800,000	-0,041	-0,084
-119,410	65,985	-0,153	-0,112
