DTS Sentinel unit serial number:	SN410029Multiplexer serial number:	ORYXHardware model number:	OX2-SRSoftware version number:	ORYX F/W v4,00 Oryx Data Collector v3.7.2.0data status	okinstallation	B5 Nyhavnadifferential loss correction	single-endedforward channel	channel 2reverse channel	N/Adate	2023/12/11time	17:02:13forward acquisition time	300,00reverse acquisition time	0,00gamma	499,1914k internal	0,3164k external	0,3164temperature offset calibration	1,0000default loss term (dB/km)	0,3820temperature slope calibration	1,0000multiplexer offset coefficient	1,0000multiplexer slope coefficient	1,0000fibre end	0,00T internal ref (°C)	14,43T ext. ref 1 (°C)	-0,70T ext. ref 2 (°C)	-0,91length (m)	temperature (°C)	Stokes	anti-Stokes-744,400	342,572	0,029	-0,042
-743,385	-111,495	-0,265	0,039
-742,371	-9,158	0,211	0,103
-741,356	-72,668	-0,336	0,091
-740,342	800,000	0,033	0,069
-739,327	-123,067	-0,400	-0,047
-738,312	8,653	0,040	0,022
-737,298	-132,871	-0,403	-0,037
-736,283	104,837	0,066	0,058
-735,269	73,909	-0,206	-0,159
-734,254	50,431	-0,041	0,029
-733,239	-69,795	-0,551	-0,154
-732,225	25,814	0,137	-0,084
-731,210	19,546	-0,034	-0,020
-730,196	791,108	-0,008	-0,016
-729,181	146,872	-0,052	-0,051
-728,167	-157,858	-0,119	-0,005
-727,152	-200,000	0,004	-0,090
-726,137	-200,000	0,000	-0,060
-725,123	175,182	0,117	-0,125
-724,108	-200,000	-0,018	-0,073
-723,094	399,624	0,058	-0,089
-722,079	-159,080	-0,022	-0,001
-721,064	-200,000	0,002	0,054
-720,050	-35,788	-0,091	-0,036
-719,035	496,067	0,036	-0,061
-718,021	-200,000	0,033	-0,165
-717,006	579,002	-0,069	-0,126
-715,991	616,850	-0,108	-0,199
-714,977	423,057	-0,027	-0,043
-713,962	-120,609	-0,204	-0,025
-712,948	85,628	0,100	-0,081
-711,933	736,150	0,025	-0,049
-710,918	-117,272	0,020	-0,003
-709,904	76,708	-0,098	-0,076
-708,889	-200,000	-0,025	-0,171
-707,875	67,997	0,017	0,013
-706,860	272,279	-0,112	0,146
-705,845	40,145	0,061	-0,040
-704,831	-200,000	0,023	0,078
-703,816	-60,508	-0,115	0,036
-702,802	-148,062	-0,148	-0,009
-701,787	168,932	-0,101	0,106
-700,772	184,029	-0,106	-0,116
-699,758	-200,000	0,009	0,089
-698,743	-200,000	0,033	0,182
-697,729	336,306	-0,073	0,105
-696,714	441,875	-0,015	0,023
-695,699	330,848	-0,086	-0,122
-694,685	36,696	0,076	-0,049
-693,670	-200,000	-0,011	0,052
-692,656	-130,394	0,029	0,003
-691,641	120,784	-0,108	0,098
-690,627	-200,000	-0,025	-0,201
-689,612	31,617	-0,104	-0,065
-688,597	7,730	0,086	-0,047
-687,583	57,055	-0,093	-0,067
-686,568	-143,414	0,143	-0,010
-685,554	16,762	-0,127	0,074
-684,539	-70,434	-0,060	-0,017
-683,524	638,814	-0,052	-0,098
-682,510	-200,000	-0,004	-0,039
-681,495	746,133	-0,066	-0,131
-680,481	93,130	-0,061	-0,050
-679,466	272,645	-0,011	-0,015
-678,451	-200,000	0,002	0,066
-677,437	800,000	0,042	-0,112
-676,422	-37,003	0,097	-0,038
-675,408	-200,000	-0,000	0,095
-674,393	-45,416	-0,105	-0,038
-673,378	253,006	-0,082	-0,103
-672,364	-200,000	0,011	-0,045
-671,349	65,252	-0,057	0,042
-670,335	-200,000	0,018	0,080
-669,320	-73,454	0,166	-0,044
-668,305	77,575	0,088	-0,069
-667,291	-120,183	0,014	-0,002
-666,276	-81,142	-0,128	-0,031
-665,262	800,000	-0,090	-0,238
-664,247	93,090	-0,083	-0,069
-663,232	72,160	-0,034	-0,026
-662,218	800,000	-0,063	0,146
-661,203	132,280	-0,076	0,072
-660,189	-200,000	-0,013	-0,058
-659,174	490,574	-0,040	-0,067
-658,159	800,000	0,023	0,066
-657,145	-64,453	-0,197	-0,058
-656,130	-43,445	0,114	-0,042
-655,116	-200,000	0,002	-0,044
-654,101	-67,069	0,054	0,016
-653,086	-2,646	-0,034	0,018
-652,072	5,705	0,051	-0,027
-651,057	800,000	-0,058	-0,180
-650,043	-34,735	-0,121	-0,048
-649,028	800,000	0,073	-0,185
-648,014	-200,000	0,022	-0,116
-646,999	800,000	0,004	0,012
-645,984	161,393	-0,016	-0,016
-644,970	800,000	0,027	0,054
-643,955	0,186	-0,024	0,012
-642,941	-146,739	-0,182	-0,011
-641,926	-137,855	-0,125	-0,010
-640,911	751,610	0,044	-0,088
-639,897	-130,988	0,131	-0,013
-638,882	800,000	-0,044	0,117
-637,868	-200,000	0,002	-0,077
-636,853	326,371	-0,019	-0,026
-635,838	75,953	0,021	-0,016
-634,824	-113,753	-0,070	0,010
-633,809	-161,955	-0,181	0,007
-632,795	-200,000	-0,004	0,130
-631,780	87,355	0,045	-0,037
-630,765	10,915	0,059	-0,033
-629,751	324,892	-0,068	0,095
-628,736	-34,490	-0,163	-0,065
-627,722	-88,791	0,035	-0,008
-626,707	-200,000	-0,020	-0,069
-625,692	193,129	-0,045	-0,049
-624,678	122,966	-0,069	-0,064
-623,663	-39,464	0,052	0,020
-622,649	800,000	-0,011	0,023
-621,634	-155,149	0,104	-0,005
-620,619	-90,818	-0,177	0,037
-619,605	126,243	0,053	0,049
-618,590	-200,000	-0,002	0,053
-617,576	800,000	0,019	0,052
-616,561	521,706	0,016	-0,028
-615,546	-200,000	0,011	-0,048
-614,532	168,740	-0,019	-0,020
-613,517	-200,000	-0,007	0,055
-612,503	572,580	0,015	0,026
-611,488	60,461	0,124	0,090
-610,474	4,240	-0,040	0,021
-609,459	107,367	-0,094	-0,082
-608,444	800,000	-0,029	-0,078
-607,430	-200,000	0,023	-0,078
-606,415	-12,309	0,092	0,044
-605,401	800,000	0,020	-0,046
-604,386	-200,000	0,002	0,027
-603,371	-168,638	0,090	0,002
-602,357	800,000	0,023	0,054
-601,342	346,591	-0,071	-0,102
-600,328	295,027	-0,038	-0,050
-599,313	-194,083	0,115	-0,001
-598,298	531,351	-0,036	0,063
-597,284	-47,797	0,155	0,055
-596,269	27,414	0,104	-0,064
-595,255	179,649	-0,110	-0,118
-594,240	800,000	-0,040	-0,114
-593,225	25,112	-0,075	0,045
-592,211	-200,000	0,007	-0,089
-591,196	-3,178	0,091	0,046
-590,182	273,402	-0,065	0,084
-589,167	-200,000	0,037	-0,184
-588,152	432,534	0,007	-0,011
-587,138	-200,000	0,012	-0,091
-586,123	104,444	0,032	0,027
-585,109	800,000	-0,087	-0,177
-584,094	3,029	0,047	0,025
-583,079	-200,000	0,010	0,036
-582,065	631,794	-0,032	-0,060
-581,050	261,625	0,048	0,061
-580,036	-77,185	-0,058	0,015
-579,021	-200,000	-0,020	0,091
-578,006	-200,000	-0,015	-0,061
-576,992	-200,000	-0,014	-0,068
-575,977	111,311	0,069	-0,061
-574,963	-192,987	-0,064	0,000
-573,948	229,524	0,021	-0,026
-572,934	663,365	-0,037	-0,070
-571,919	800,000	-0,050	-0,115
-570,904	-121,007	-0,274	-0,033
-569,890	-200,000	-0,001	-0,092
-568,875	-94,833	-0,026	0,005
-567,861	-200,000	0,014	-0,085
-566,846	141,837	0,097	0,094
-565,831	110,852	0,033	-0,029
-564,817	800,000	-0,056	-0,136
-563,802	-200,000	0,001	-0,150
-562,788	-200,000	-0,002	0,038
-561,773	565,245	0,049	0,087
-560,758	487,348	0,069	0,115
-559,744	-200,000	-0,008	0,050
-558,729	41,039	0,101	0,066
-557,715	583,849	-0,023	0,041
-556,700	40,841	0,059	-0,039
-555,685	-200,000	-0,007	-0,057
-554,671	800,000	-0,001	0,002
-553,656	-200,000	0,003	-0,057
-552,642	5,285	0,078	-0,042
-551,627	-66,780	-0,076	-0,022
-550,612	27,281	-0,050	0,030
-549,598	800,000	0,017	0,038
-548,583	206,694	-0,022	-0,026
-547,569	-200,000	-0,004	-0,059
-546,554	-153,098	-0,108	-0,005
-545,539	-200,000	0,005	0,097
-544,525	124,162	-0,070	0,064
-543,510	-200,000	-0,002	0,016
-542,496	92,609	0,046	-0,038
-541,481	576,946	-0,096	0,173
-540,466	-61,978	-0,066	-0,020
-539,452	37,316	0,064	0,041
-538,437	800,000	-0,056	0,124
-537,423	267,274	-0,080	-0,103
-536,408	365,231	0,083	-0,122
-535,393	26,290	-0,167	-0,102
-534,379	-200,000	-0,018	-0,193
-533,364	-200,000	0,047	-0,180
-532,350	148,368	-0,054	-0,053
-531,335	-48,242	-0,034	0,012
-530,321	131,689	0,061	-0,057
-529,306	164,082	0,014	-0,014
-528,291	-26,250	-0,034	-0,015
-527,277	-200,000	-0,043	-0,144
-526,262	800,000	0,038	0,119
-525,248	346,120	0,050	0,072
-524,233	800,000	0,035	0,094
-523,218	-68,847	0,101	-0,028
-522,204	-200,000	0,033	0,109
-521,189	800,000	0,023	-0,071
-520,175	55,373	-0,071	-0,050
-519,160	-120,189	0,045	0,005
-518,145	-127,268	-0,045	0,005
-517,131	800,000	0,028	-0,074
-516,116	3,733	0,058	0,031
-515,102	70,768	-0,062	-0,047
-514,087	800,000	-0,025	-0,071
-513,072	496,352	-0,041	0,069
-512,058	-200,000	0,028	-0,163
-511,043	585,570	0,082	0,148
-510,029	-200,000	0,056	0,236
-509,014	58,817	-0,143	0,102
-507,999	120,002	0,097	-0,088
-506,985	-200,000	-0,040	0,163
-505,970	-96,673	0,050	-0,009
-504,956	15,137	-0,065	-0,037
-503,941	149,089	0,023	0,023
-502,926	800,000	0,010	0,023
-501,912	-200,000	-0,036	-0,130
-500,897	800,000	-0,031	0,079
-499,883	-110,880	-0,105	0,016
-498,868	800,000	-0,009	-0,022
-497,853	168,205	-0,060	0,063
-496,839	9,382	0,036	-0,020
-495,824	-115,622	0,112	0,015
-494,810	-200,000	0,008	-0,044
-493,795	21,850	0,081	0,048
-492,781	800,000	0,023	-0,055
-491,766	-200,000	0,001	0,063
-490,751	-200,000	0,009	-0,107
-489,737	-23,352	-0,077	0,034
-488,722	64,248	-0,063	0,046
-487,708	118,551	0,039	0,036
-486,693	-200,000	-0,019	-0,072
-485,678	195,239	-0,035	-0,039
-484,664	-56,087	0,043	-0,014
-483,649	-149,032	-0,130	-0,007
-482,635	800,000	-0,052	-0,106
-481,620	-93,724	0,125	-0,025
-480,605	44,302	-0,098	0,066
-479,591	800,000	-0,044	0,099
-478,576	136,464	0,075	-0,071
-477,562	87,399	-0,049	-0,039
-476,547	-103,232	0,021	0,004
-475,532	-200,000	-0,028	-0,112
-474,518	119,538	0,139	0,125
-473,503	488,523	0,049	0,081
-472,489	-42,937	0,064	0,024
-471,474	-5,889	-0,119	0,059
-470,459	-91,046	0,087	-0,018
-469,445	-200,000	0,014	-0,119
-468,430	-100,933	0,056	-0,010
-467,416	677,576	0,070	0,134
-466,401	441,608	0,006	0,010
-465,386	800,000	0,029	0,077
-464,372	-200,000	0,011	-0,081
-463,357	-23,051	-0,128	-0,056
-462,343	-31,379	0,117	0,048
-461,328	800,000	-0,043	-0,131
-460,313	-200,000	0,020	-0,157
-459,299	-200,000	0,021	-0,092
-458,284	-200,000	-0,031	0,101
-457,270	800,000	-0,023	0,048
-456,255	800,000	0,050	0,116
-455,241	325,813	0,084	-0,118
-454,226	9,449	0,067	-0,037
-453,211	-180,948	-0,081	0,001
-452,197	800,000	0,008	-0,026
-451,182	0,062	-0,091	0,047
-450,168	-45,564	-0,025	0,009
-449,153	-200,000	-0,003	0,119
-448,138	-134,866	-0,118	0,010
-447,124	-59,127	0,191	-0,060
-446,109	9,523	-0,057	-0,031
-445,095	-200,000	0,017	0,056
-444,080	66,686	0,153	0,113
-443,065	-200,000	0,015	0,058
-442,051	85,017	-0,101	0,080
-441,036	-200,000	0,013	-0,095
-440,022	417,205	0,064	-0,100
-439,007	254,229	0,052	-0,065
-437,992	-200,000	-0,023	0,117
-436,978	-26,966	0,098	-0,041
-435,963	800,000	0,022	0,050
-434,949	-200,000	0,001	0,157
-433,934	800,000	-0,057	0,131
-432,919	-105,297	0,128	0,021
-431,905	-200,000	-0,015	-0,208
-430,890	39,863	-0,160	0,104
-429,876	-200,000	0,003	0,109
-428,861	434,960	0,057	-0,090
-427,846	232,127	0,047	-0,056
-426,832	-26,589	-0,033	-0,014
-425,817	-200,000	-0,036	-0,166
-424,803	506,668	0,103	0,175
-423,788	84,056	-0,112	0,088
-422,773	-200,000	0,009	0,091
-421,759	210,026	0,023	0,026
-420,744	-200,000	-0,018	0,137
-419,730	94,682	-0,138	-0,114
-418,715	65,063	-0,053	-0,039
-417,701	-91,661	0,050	-0,010
-416,686	-200,000	-0,012	0,076
-415,671	-114,595	0,100	0,014
-414,657	-200,000	-0,021	-0,131
-413,642	800,000	0,032	-0,095
-412,628	-6,792	0,063	-0,031
-411,613	39,795	-0,059	-0,038
-410,598	-33,777	-0,053	0,021
-409,584	182,842	0,082	0,088
-408,569	-200,000	0,004	0,045
-407,555	-12,807	0,111	0,052
-406,540	-200,000	-0,013	0,044
-405,525	326,101	-0,095	0,133
-404,511	-128,552	-0,069	-0,007
-403,496	-200,000	0,003	-0,095
-402,482	281,484	0,036	0,047
-401,467	161,670	0,091	0,093
-400,452	-63,419	-0,052	0,015
-399,438	-98,976	0,124	0,023
-398,423	-200,000	-0,008	-0,032
-397,409	586,271	0,037	-0,066
-396,394	-200,000	-0,015	-0,120
-395,379	-200,000	-0,001	0,006
-394,365	-35,502	0,139	0,055
-393,350	257,816	-0,093	0,116
-392,336	-111,396	-0,066	0,010
-391,321	-25,523	-0,035	-0,015
-390,306	-200,000	-0,003	0,016
-389,292	17,837	0,046	0,027
-388,277	800,000	0,088	-0,234
-387,263	-200,000	0,000	0,033
-386,248	-53,078	-0,034	-0,011
-385,233	-200,000	-0,021	-0,075
-384,219	533,759	0,023	0,040
-383,204	800,000	-0,021	-0,043
-382,190	-6,927	0,177	0,087
-381,175	424,168	0,058	0,090
-380,160	46,270	-0,021	0,014
-379,146	-200,000	0,002	-0,043
-378,131	387,361	0,075	-0,113
-377,117	-63,065	-0,048	0,014
-376,102	-200,000	-0,015	-0,078
-375,088	-200,000	0,016	-0,084
-374,073	800,000	-0,026	-0,071
-373,058	-143,620	-0,017	0,001
-372,044	-200,000	0,024	0,105
-371,029	40,893	-0,060	0,039
-370,015	-200,000	0,026	0,163
-369,000	-36,738	-0,078	-0,030
-367,985	800,000	-0,015	-0,043
-366,971	-79,228	0,026	-0,006
-365,956	-170,489	0,145	-0,004
-364,942	-200,000	0,049	0,197
-363,927	-200,000	0,007	0,077
-362,912	-4,299	-0,024	-0,012
-361,898	172,586	0,069	0,072
-360,883	800,000	-0,083	-0,167
-359,869	-78,648	0,024	-0,006
-358,854	-200,000	0,034	-0,132
-357,839	-145,180	0,082	-0,005
-356,825	-47,759	0,126	-0,044
-355,810	-200,000	-0,009	-0,033
-354,796	-200,000	0,003	0,078
-353,781	-200,000	0,000	0,020
-352,766	-200,000	0,019	-0,077
-351,752	-200,000	-0,037	-0,169
-350,737	800,000	-0,011	0,025
-349,723	-65,482	0,115	0,033
-348,708	800,000	-0,029	-0,073
-347,693	-200,000	0,032	-0,135
-346,679	-21,004	-0,171	-0,076
-345,664	-62,555	-0,056	-0,017
-344,650	800,000	0,025	0,054
-343,635	159,847	0,018	-0,018
-342,620	-36,933	-0,110	-0,042
-341,606	-114,157	-0,122	-0,017
-340,591	800,000	0,024	-0,050
-339,577	-53,785	-0,102	-0,034
-338,562	202,479	0,011	0,012
-337,548	-200,000	-0,015	-0,104
-336,533	-200,000	-0,007	0,062
-335,518	800,000	0,033	0,105
-334,504	-200,000	-0,020	0,093
-333,489	388,571	-0,052	-0,078
-332,475	800,000	-0,022	0,053
-331,460	-200,000	0,012	-0,139
-330,445	-200,000	0,037	-0,141
-329,431	-53,202	0,040	0,013
-328,416	14,534	0,203	-0,115
-327,402	800,000	-0,028	0,088
-326,387	-21,096	0,034	-0,015
-325,372	557,482	0,007	-0,011
-324,358	-117,548	-0,077	-0,010
-323,343	-131,348	-0,079	0,007
-322,329	103,154	0,126	0,107
-321,314	-200,000	0,003	0,061
-320,299	-184,765	0,113	0,001
-319,285	296,403	-0,097	0,129
-318,270	-200,000	-0,008	-0,071
-317,256	800,000	-0,056	-0,116
-316,241	-200,000	0,025	0,151
-315,226	-200,000	-0,002	-0,101
-314,212	-200,000	0,001	-0,085
-313,197	436,235	0,020	0,032
-312,183	88,111	0,069	0,055
-311,168	255,136	-0,070	-0,087
-310,153	134,281	0,043	-0,040
-309,139	800,000	-0,089	-0,221
-308,124	800,000	-0,016	-0,051
-307,110	-169,246	0,174	-0,005
-306,095	800,000	-0,074	0,193
-305,080	97,975	-0,028	0,023
-304,066	-200,000	0,023	0,087
-303,051	-200,000	0,001	-0,048
-302,037	78,149	-0,024	-0,018
-301,022	403,351	0,066	-0,101
-300,008	240,676	0,035	-0,042
-298,993	-148,738	0,100	-0,006
-297,978	-200,000	0,012	-0,099
-296,964	59,737	0,142	0,101
-295,949	-200,000	-0,030	-0,125
-294,935	-27,189	-0,072	-0,030
-293,920	57,502	-0,124	0,088
-292,905	-200,000	0,016	0,055
-291,891	26,607	0,025	-0,015
-290,876	-200,000	0,009	0,059
-289,862	91,610	0,046	-0,037
-288,847	-153,390	-0,160	-0,008
-287,832	405,732	0,027	0,042
-286,818	-51,831	-0,009	-0,003
-285,803	232,459	0,032	0,038
-284,789	-200,000	-0,012	0,155
-283,774	-200,000	-0,000	-0,062
-282,759	800,000	-0,029	0,083
-281,745	362,527	-0,054	-0,078
-280,730	293,911	0,061	-0,081
-279,716	-181,738	0,038	0,001
-278,701	107,642	-0,074	-0,064
-277,686	-174,039	0,082	0,002
-276,672	353,590	0,115	0,165
-275,657	-150,182	-0,066	0,004
-274,643	746,068	-0,031	0,060
-273,628	800,000	0,035	-0,087
-272,613	32,511	-0,045	-0,028
-271,599	414,114	-0,067	0,103
-270,584	107,118	0,079	-0,068
-269,570	800,000	-0,053	0,112
-268,555	800,000	-0,037	0,093
-267,540	-8,382	-0,063	0,031
-266,526	102,246	-0,062	0,052
-265,511	-96,308	-0,042	-0,008
-264,497	520,354	-0,084	0,142
-263,482	638,234	0,022	0,041
-262,467	-200,000	-0,006	0,145
-261,453	148,896	-0,045	0,044
-260,438	-200,000	0,027	-0,117
-259,424	-102,457	0,030	0,005
-258,409	-106,965	0,145	0,023
-257,395	43,197	0,019	-0,012
-256,380	-43,631	-0,103	0,037
-255,365	15,570	0,044	0,025
-254,351	-200,000	-0,006	0,091
-253,336	-63,306	0,034	-0,010
-252,322	24,757	-0,068	-0,040
-251,307	132,741	0,003	0,003
-250,292	800,000	0,065	0,182
-249,278	-13,586	0,047	0,022
-248,263	326,782	-0,043	0,059
-247,249	-200,000	-0,001	0,161
-246,234	800,000	-0,019	-0,056
-245,219	355,153	-0,019	0,028
-244,205	-102,195	-0,101	-0,017
-243,190	163,412	0,132	-0,134
-242,176	238,581	0,074	0,089
-241,161	-9,236	0,122	0,058
-240,146	248,363	0,033	0,040
-239,132	-200,000	0,026	-0,111
-238,117	-94,691	-0,099	0,019
-237,103	140,380	-0,050	-0,048
-236,088	-200,000	0,007	-0,091
-235,073	-24,914	0,037	-0,016
-234,059	268,815	0,039	-0,050
-233,044	-200,000	0,022	0,087
-232,030	800,000	0,011	0,027
-231,015	111,095	0,063	0,055
-230,000	40,080	-0,047	-0,031
-228,986	420,673	-0,025	-0,038
-227,971	315,321	-0,036	0,049
-226,957	-200,000	0,025	0,101
-225,942	-112,786	-0,034	-0,005
-224,927	-99,616	-0,159	-0,029
-223,913	-133,636	0,113	-0,010
-222,898	46,247	-0,099	-0,066
-221,884	-200,000	0,028	0,109
-220,869	494,478	-0,049	0,082
-219,855	800,000	0,049	-0,119
-218,840	-200,000	0,005	0,117
-217,825	800,000	-0,052	0,124
-216,811	-112,720	0,085	-0,012
-215,796	49,289	-0,074	0,050
-214,782	158,584	-0,034	0,034
-213,767	293,564	-0,023	0,030
-212,752	386,861	0,083	0,124
-211,738	399,361	0,010	-0,014
-210,723	153,645	0,057	-0,056
-209,709	800,000	-0,014	-0,041
-208,694	469,958	-0,023	0,037
-207,679	-172,790	0,019	0,000
-206,665	800,000	0,015	-0,041
-205,650	-152,003	0,042	-0,002
-204,636	800,000	-0,007	0,015
-203,621	556,852	0,029	-0,051
-202,606	-54,673	-0,019	0,006
-201,592	800,000	0,016	0,037
-200,577	171,533	-0,080	-0,082
-199,563	-32,622	-0,089	-0,036
-198,548	800,000	-0,011	0,025
-197,533	-200,000	-0,035	0,131
-196,519	-15,283	0,039	0,018
-195,504	800,000	-0,016	-0,036
-194,490	181,802	-0,128	0,135
-193,475	-200,000	0,040	0,159
-192,460	153,113	-0,070	-0,069
-191,446	455,277	-0,062	0,099
-190,431	-81,430	-0,073	0,017
-189,417	28,079	0,047	-0,028
-188,402	752,693	0,047	-0,091
-187,387	28,395	-0,030	-0,018
-186,373	-200,000	-0,015	-0,074
-185,358	800,000	-0,005	-0,013
-184,344	752,684	0,063	-0,123
-183,329	-109,303	-0,034	0,005
-182,315	-200,000	-0,006	0,108
-181,300	-68,583	-0,041	-0,011
-180,285	-96,421	0,060	-0,011
-179,271	734,012	0,071	0,138
-178,256	-200,000	0,008	0,121
-177,242	800,000	0,030	-0,087
-176,227	-200,000	0,018	0,076
-175,212	-37,481	0,058	0,022
-174,198	-76,854	0,109	-0,027
-173,183	800,000	-0,004	-0,012
-172,169	85,526	-0,080	0,063
-171,154	704,677	0,037	-0,071
-170,139	236,514	0,064	0,076
-169,125	-2,343	0,077	0,039
-168,110	800,000	0,078	0,197
-167,096	-127,146	0,031	-0,003
-166,081	-107,825	-0,084	-0,013
-165,066	92,391	-0,135	-0,109
-164,052	161,640	-0,020	0,020
-163,037	389,041	0,060	-0,090
-162,023	-200,000	0,028	0,135
-161,008	800,000	-0,037	0,099
-159,993	-200,000	0,016	0,055
-158,979	-152,367	-0,143	-0,007
-157,964	147,715	-0,038	0,037
-156,950	-146,574	-0,053	-0,003
-155,935	316,030	0,064	-0,087
-154,920	-200,000	-0,036	-0,123
-153,906	800,000	-0,019	-0,046
-152,891	-4,445	-0,067	-0,033
-151,877	147,458	0,123	0,120
-150,862	168,047	-0,047	0,048
-149,847	-200,000	-0,028	-0,091
-148,833	-118,603	-0,095	0,012
-147,818	155,660	0,009	0,009
-146,804	-113,526	-0,148	-0,021
-145,789	-107,319	0,110	0,017
-144,775	158,145	-0,128	-0,128
-143,760	800,000	-0,064	-0,157
-142,745	684,027	-0,041	-0,078
-141,731	-200,000	-0,019	-0,124
-140,716	-138,458	0,036	0,003
-139,702	278,627	0,070	0,090
-138,687	158,149	-0,097	0,097
-137,672	226,133	0,032	-0,037
-136,658	-53,987	0,049	-0,016
-135,643	151,923	-0,063	0,062
-134,629	800,000	0,021	-0,053
-133,614	336,534	-0,049	0,068
-132,599	-17,106	0,106	0,048
-131,585	-200,000	-0,002	0,148
-130,570	-161,500	-0,132	-0,005
-129,556	454,782	-0,004	-0,007
-128,541	133,344	-0,042	0,039
-127,526	800,000	0,010	0,028
-126,512	629,845	0,011	-0,020
-125,497	-21,337	0,062	0,027
-124,483	-200,000	0,005	0,046
-123,468	-200,000	0,027	0,090
-122,453	49,417	0,057	-0,038
-121,439	800,000	0,028	-0,070
-120,424	-130,022	-0,195	0,019
