DTS Sentinel unit serial number:	SN410029Multiplexer serial number:	ORYXHardware model number:	OX2-SRSoftware version number:	ORYX F/W v4,00 Oryx Data Collector v3.7.2.0data status	okinstallation	B5 Nyhavnadifferential loss correction	single-endedforward channel	channel 2reverse channel	N/Adate	2023/12/12time	06:57:13forward acquisition time	300,00reverse acquisition time	0,00gamma	499,1914k internal	0,3157k external	0,3157temperature offset calibration	1,0000default loss term (dB/km)	0,3820temperature slope calibration	1,0000multiplexer offset coefficient	1,0000multiplexer slope coefficient	1,0000fibre end	0,00T internal ref (°C)	15,19T ext. ref 1 (°C)	-1,13T ext. ref 2 (°C)	-1,42length (m)	temperature (°C)	Stokes	anti-Stokes-744,400	-200,000	0,023	-0,108
-743,385	-114,499	-0,291	0,041
-742,371	74,285	0,106	0,082
-741,356	-168,506	-0,350	0,010
-740,342	286,389	0,145	0,193
-739,327	18,477	-0,379	0,223
-738,312	4,665	0,127	-0,069
-737,298	-70,108	-0,344	-0,096
-736,283	-75,508	0,116	0,030
-735,269	-137,938	-0,268	0,022
-734,254	25,648	0,128	0,078
-733,239	-93,642	-0,663	-0,134
-732,225	-95,883	0,150	-0,029
-731,210	-57,794	-0,096	-0,031
-730,196	62,668	-0,042	-0,031
-729,181	507,871	0,041	-0,071
-728,167	-200,000	0,010	-0,061
-727,152	250,686	-0,039	0,049
-726,137	679,890	-0,034	-0,065
-725,123	800,000	0,038	-0,094
-724,108	-200,000	-0,005	-0,118
-723,094	-200,000	-0,019	-0,239
-722,079	655,640	-0,094	-0,179
-721,064	-200,000	0,019	-0,149
-720,050	239,122	-0,041	-0,050
-719,035	-5,107	-0,125	-0,063
-718,021	9,361	-0,107	-0,059
-717,006	49,113	0,072	-0,050
-715,991	-147,796	-0,009	0,001
-714,977	-200,000	0,006	-0,092
-713,962	26,991	-0,097	-0,060
-712,948	800,000	-0,036	-0,098
-711,933	17,677	-0,086	-0,050
-710,918	510,853	-0,043	0,073
-709,904	-93,597	-0,121	-0,024
-708,889	-200,000	-0,044	0,158
-707,875	140,742	-0,106	-0,104
-706,860	-30,157	0,049	0,020
-705,845	-27,590	-0,105	-0,045
-704,831	118,550	-0,130	0,118
-703,816	-110,161	-0,105	0,016
-702,802	215,428	-0,027	-0,032
-701,787	-200,000	-0,001	0,031
-700,772	-54,205	-0,093	0,031
-699,758	800,000	-0,033	-0,077
-698,743	-36,444	-0,096	-0,038
-697,729	800,000	-0,020	0,051
-696,714	323,642	0,028	0,040
-695,699	-183,187	-0,084	0,001
-694,685	108,900	0,039	-0,034
-693,670	-64,976	-0,053	-0,016
-692,656	188,037	0,088	-0,097
-691,641	-200,000	0,004	0,084
-690,627	800,000	0,021	0,049
-689,612	198,979	-0,034	0,038
-688,597	293,467	0,054	-0,073
-687,583	205,472	0,057	-0,065
-686,568	798,173	-0,078	-0,159
-685,554	302,526	-0,021	0,029
-684,539	243,829	-0,048	-0,059
-683,524	-200,000	-0,023	0,104
-682,510	-200,000	0,006	0,072
-681,495	-200,000	-0,007	-0,033
-680,481	38,066	-0,047	-0,031
-679,466	210,561	-0,082	-0,094
-678,451	-200,000	-0,013	0,141
-677,437	265,968	-0,036	-0,047
-676,422	-200,000	0,009	0,107
-675,408	121,270	-0,019	0,017
-674,393	-92,019	-0,070	0,014
-673,378	100,097	-0,051	-0,043
-672,364	-200,000	0,043	-0,215
-671,349	182,413	-0,087	-0,094
-670,335	-200,000	0,016	-0,097
-669,320	10,298	0,058	-0,032
-668,305	685,650	-0,028	0,054
-667,291	574,532	0,010	0,018
-666,276	-91,559	0,116	-0,024
-665,262	800,000	0,023	-0,067
-664,247	-200,000	0,013	-0,075
-663,232	107,687	0,041	0,036
-662,218	384,830	0,038	0,057
-661,203	-170,076	0,212	-0,005
-660,189	800,000	0,040	0,112
-659,174	60,090	-0,067	-0,049
-658,159	-200,000	-0,009	-0,049
-657,145	-53,778	-0,040	-0,013
-656,130	-200,000	-0,006	0,058
-655,116	-27,069	0,015	0,006
-654,101	291,494	-0,013	-0,017
-653,086	-23,825	-0,093	-0,041
-652,072	-70,363	-0,131	-0,036
-651,057	414,411	-0,074	-0,117
-650,043	-12,315	-0,121	-0,058
-649,028	800,000	0,020	-0,047
-648,014	-85,603	0,167	-0,038
-646,999	710,663	-0,053	0,103
-645,984	242,276	-0,065	-0,081
-644,970	800,000	0,052	-0,116
-643,955	52,606	-0,075	-0,052
-642,941	-200,000	-0,027	-0,127
-641,926	-145,093	-0,134	0,009
-640,911	-46,893	0,076	0,027
-639,897	101,097	-0,009	-0,008
-638,882	375,104	-0,038	-0,058
-637,868	271,078	-0,068	-0,089
-636,853	-200,000	-0,010	-0,044
-635,838	-8,328	-0,140	-0,069
-634,824	87,067	0,036	-0,029
-633,809	159,859	-0,041	0,042
-632,795	8,719	0,054	-0,030
-631,780	-138,888	0,082	-0,006
-630,765	-200,000	-0,011	0,070
-629,751	-200,000	0,011	0,116
-628,736	-19,199	-0,074	-0,034
-627,722	319,943	0,031	0,044
-626,707	-68,398	0,137	-0,039
-625,692	-36,415	0,136	0,054
-624,678	-172,902	0,098	-0,002
-623,663	-97,847	-0,013	0,003
-622,649	102,166	-0,141	-0,121
-621,634	7,038	-0,095	-0,052
-620,619	-28,647	0,031	0,013
-619,605	-200,000	0,005	0,093
-618,590	-55,447	-0,058	0,019
-617,576	-92,109	-0,100	-0,020
-616,561	800,000	-0,054	0,132
-615,546	308,019	-0,035	0,048
-614,532	-12,008	-0,046	-0,022
-613,517	-53,926	-0,112	0,037
-612,503	56,144	0,050	0,036
-611,488	800,000	-0,025	0,068
-610,474	39,834	-0,086	0,056
-609,459	800,000	0,034	0,075
-608,444	-95,447	-0,064	0,013
-607,430	-200,000	-0,005	0,016
-606,415	800,000	-0,025	-0,052
-605,401	-92,502	0,114	-0,023
-604,386	-200,000	-0,018	0,085
-603,371	-200,000	-0,014	0,051
-602,357	-45,962	-0,083	0,030
-601,342	800,000	-0,041	0,104
-600,328	166,953	-0,051	-0,053
-599,313	206,995	0,072	-0,082
-598,298	-7,361	0,041	0,020
-597,284	-70,980	0,053	-0,014
-596,269	-47,361	0,216	-0,077
-595,255	604,420	-0,060	-0,110
-594,240	-161,199	0,100	0,004
-593,225	-200,000	-0,002	-0,038
-592,211	153,153	-0,051	-0,052
-591,196	-200,000	0,009	-0,194
-590,182	-12,388	0,102	-0,049
-589,167	98,373	0,085	0,072
-588,152	-200,000	0,038	-0,154
-587,138	-25,237	-0,051	0,022
-586,123	-0,361	-0,070	-0,037
-585,109	-82,968	0,028	-0,007
-584,094	327,083	-0,029	-0,041
-583,079	-185,453	0,122	0,001
-582,065	381,002	-0,085	0,129
-581,050	-25,946	-0,098	0,042
-580,036	-89,249	0,057	0,012
-579,021	-130,910	-0,110	-0,011
-578,006	76,797	-0,162	-0,126
-576,992	-200,000	-0,022	0,101
-575,977	-14,499	0,086	0,041
-574,963	-200,000	0,006	0,222
-573,948	324,450	0,044	0,061
-572,934	-33,013	-0,083	-0,034
-571,919	122,785	0,073	0,067
-570,904	800,000	0,052	-0,108
-569,890	-200,000	-0,021	-0,084
-568,875	-40,606	-0,125	-0,047
-567,861	330,014	-0,020	0,029
-566,846	141,279	-0,085	0,082
-565,831	-200,000	-0,001	-0,057
-564,817	-43,255	-0,068	-0,025
-563,802	198,909	-0,122	-0,137
-562,788	124,282	0,174	-0,160
-561,773	-48,416	0,150	-0,052
-560,758	324,437	-0,028	-0,039
-559,744	336,289	0,007	-0,010
-558,729	-54,227	-0,068	0,022
-557,715	-200,000	0,002	-0,172
-556,700	-26,146	-0,093	0,040
-555,685	225,798	-0,052	0,062
-554,671	761,586	0,056	-0,111
-553,656	87,810	-0,063	-0,051
-552,642	-200,000	0,033	0,160
-551,627	10,963	0,048	-0,027
-550,612	16,598	-0,011	0,007
-549,598	193,253	-0,124	0,138
-548,583	800,000	-0,021	-0,045
-547,569	478,493	0,049	0,082
-546,554	-200,000	0,009	-0,073
-545,539	241,554	0,073	0,090
-544,525	-200,000	0,016	0,161
-543,510	-144,252	0,071	-0,005
-542,496	540,927	0,053	-0,092
-541,481	32,765	-0,052	-0,033
-540,466	110,807	0,033	0,029
-539,452	758,180	-0,025	0,050
-538,437	11,916	-0,030	0,017
-537,423	-200,000	-0,013	0,065
-536,408	-137,246	-0,054	0,004
-535,393	263,475	0,054	0,069
-534,379	215,299	0,050	-0,058
-533,364	67,918	0,056	-0,042
-532,350	800,000	0,035	0,076
-531,335	47,468	0,071	-0,049
-530,321	81,205	0,094	0,074
-529,306	-200,000	-0,014	0,072
-528,291	-46,319	-0,147	-0,053
-527,277	-74,698	-0,059	0,015
-526,262	-62,593	-0,132	0,040
-525,248	195,425	0,041	0,045
-524,233	-89,347	0,077	0,016
-523,218	249,440	-0,024	0,030
-522,204	-200,000	0,001	-0,010
-521,189	79,494	-0,015	-0,011
-520,175	126,279	-0,062	0,057
-519,160	-56,532	0,093	-0,030
-518,145	304,218	0,077	-0,104
-517,131	48,094	0,017	-0,012
-516,116	-26,004	0,088	-0,038
-515,102	270,209	-0,031	-0,040
-514,087	29,905	0,042	0,026
-513,072	156,266	0,057	-0,057
-512,058	800,000	-0,014	0,042
-511,043	-114,872	0,031	-0,004
-510,029	-52,862	0,098	0,033
-509,014	-74,192	0,015	0,004
-507,999	-68,730	0,005	0,001
-506,985	-120,266	-0,179	0,022
-505,970	800,000	0,019	0,050
-504,956	-200,000	-0,014	-0,119
-503,941	-160,492	-0,109	-0,004
-502,926	65,201	0,081	0,060
-501,912	-153,807	0,155	-0,008
-500,897	-200,000	-0,009	-0,082
-499,883	368,663	-0,029	-0,043
-498,868	176,434	-0,133	-0,141
-497,853	67,705	-0,081	-0,060
-496,839	75,971	0,012	0,009
-495,824	-200,000	-0,039	0,148
-494,810	800,000	0,042	0,134
-493,795	800,000	-0,005	-0,017
-492,781	800,000	-0,012	-0,034
-491,766	-114,060	-0,122	-0,017
-490,751	67,268	-0,083	-0,062
-489,737	13,789	-0,088	-0,050
-488,722	-200,000	0,022	-0,102
-487,708	106,307	0,097	0,084
-486,693	286,783	0,035	0,047
-485,678	-172,740	-0,042	-0,001
-484,664	3,137	-0,060	0,032
-483,649	-73,934	-0,114	0,030
-482,635	-104,687	-0,036	-0,006
-481,620	217,633	0,059	0,068
-480,605	184,544	0,165	0,179
-479,591	208,956	0,066	0,076
-478,576	-99,062	-0,074	0,013
-477,562	331,180	-0,117	0,165
-476,547	-92,875	0,108	-0,022
-475,532	236,065	0,044	0,054
-474,518	-200,000	0,003	0,071
-473,503	-200,000	-0,007	0,050
-472,489	30,007	0,060	0,037
-471,474	-163,803	0,044	-0,001
-470,459	-11,595	-0,075	-0,036
-469,445	20,473	-0,059	-0,035
-468,430	-183,245	-0,019	-0,000
-467,416	75,823	0,135	-0,104
-466,401	-200,000	-0,042	0,154
-465,386	127,215	-0,051	0,047
-464,372	571,269	-0,049	-0,088
-463,357	225,963	-0,075	-0,089
-462,343	-50,344	-0,139	-0,048
-461,328	-77,976	-0,156	0,039
-460,313	136,121	-0,031	-0,030
-459,299	189,099	0,108	0,118
-458,284	-25,687	-0,117	-0,050
-457,270	-200,000	-0,004	0,047
-456,255	158,109	0,145	-0,146
-455,241	800,000	-0,037	-0,079
-454,226	-23,962	-0,084	-0,036
-453,211	60,486	0,033	-0,024
-452,197	47,171	-0,082	-0,055
-451,182	22,837	0,065	0,039
-450,168	11,596	-0,191	0,106
-449,153	164,358	0,076	-0,078
-448,138	263,325	0,057	0,073
-447,124	-73,791	-0,107	0,028
-446,109	390,768	0,032	0,048
-445,095	-120,650	-0,079	-0,010
-444,080	583,624	0,066	-0,119
-443,065	-25,407	0,091	-0,039
-442,051	51,767	0,064	-0,044
-441,036	201,655	-0,025	-0,029
-440,022	193,504	-0,065	-0,072
-439,007	-1,557	-0,140	-0,071
-437,992	800,000	0,043	-0,127
-436,978	44,269	-0,017	0,011
-435,963	83,303	0,100	0,079
-434,949	-200,000	0,027	-0,132
-433,934	388,889	-0,070	0,105
-432,919	59,832	0,063	0,045
-431,905	-48,963	0,055	-0,019
-430,890	350,182	-0,085	-0,123
-429,876	123,704	-0,010	0,009
-428,861	-200,000	0,010	-0,054
-427,846	-143,537	0,087	-0,006
-426,832	-200,000	0,020	0,067
-425,817	800,000	-0,038	0,088
-424,803	635,225	0,075	-0,140
-423,788	-4,514	-0,148	-0,074
-422,773	87,862	0,069	0,056
-421,759	-200,000	0,016	-0,061
-420,744	128,932	-0,032	0,030
-419,730	-10,756	-0,104	-0,050
-418,715	-200,000	-0,034	-0,137
-417,701	157,241	-0,046	0,046
-416,686	26,491	0,107	-0,065
-415,671	303,832	-0,057	-0,078
-414,657	371,852	0,031	0,046
-413,642	-200,000	0,001	-0,044
-412,628	135,968	-0,037	-0,035
-411,613	-200,000	0,002	-0,034
-410,598	-103,666	-0,019	-0,003
-409,584	162,199	-0,022	0,023
-408,569	113,416	0,072	-0,064
-407,555	-22,753	0,119	0,052
-406,540	-200,000	-0,017	-0,150
-405,525	-137,151	-0,027	0,002
-404,511	120,952	0,086	0,078
-403,496	-69,576	0,049	-0,014
-402,482	29,315	0,051	-0,031
-401,467	800,000	-0,021	0,059
-400,452	800,000	-0,045	0,108
-399,438	-163,927	0,150	-0,005
-398,423	-49,806	0,037	0,013
-397,409	-200,000	-0,001	-0,081
-396,394	800,000	0,013	-0,029
-395,379	453,676	0,139	-0,224
-394,365	-200,000	0,000	-0,210
-393,350	-76,296	-0,064	-0,016
-392,336	-200,000	0,002	-0,063
-391,321	-5,883	0,066	0,033
-390,306	-164,502	-0,054	0,002
-389,292	141,466	-0,070	0,067
-388,277	-131,669	0,104	-0,010
-387,263	34,229	0,035	0,022
-386,248	141,233	-0,155	-0,149
-385,233	451,399	-0,065	-0,105
-384,219	90,037	0,037	-0,030
-383,204	-33,873	-0,076	-0,030
-382,190	800,000	-0,025	-0,054
-381,175	-22,059	0,078	-0,034
-380,160	-200,000	-0,007	-0,110
-379,146	125,872	-0,094	0,086
-378,131	-200,000	-0,006	0,092
-377,117	336,510	-0,016	0,023
-376,102	-3,584	-0,137	0,069
-375,088	-200,000	-0,006	0,026
-374,073	297,803	0,099	0,133
-373,058	-200,000	0,010	0,048
-372,044	-68,398	-0,031	0,009
-371,029	-200,000	-0,128	0,000
-370,015	0,264	0,048	0,025
-369,000	-69,875	-0,056	-0,015
-367,985	-1,027	0,055	-0,028
-366,971	-200,000	0,008	-0,046
-365,956	0,815	0,077	-0,040
-364,942	-200,000	-0,001	0,160
-363,927	10,325	0,055	-0,031
-362,912	-25,967	-0,044	-0,019
-361,898	800,000	-0,023	-0,058
-360,883	-78,370	-0,105	-0,026
-359,869	800,000	-0,038	-0,088
-358,854	-1,334	0,107	0,055
-357,839	-144,179	-0,044	0,003
-356,825	529,235	-0,080	0,137
-355,810	-138,488	0,051	0,004
-354,796	-181,986	-0,047	0,001
-353,781	-19,752	0,093	-0,042
-352,766	800,000	0,034	0,087
-351,752	75,643	-0,016	-0,012
-350,737	-200,000	-0,011	-0,036
-349,723	20,078	0,096	0,056
-348,708	-15,052	0,181	0,084
-347,693	800,000	-0,040	0,110
-346,679	367,930	-0,051	0,075
-345,664	-138,345	-0,143	-0,011
-344,650	215,284	-0,027	-0,031
-343,635	-200,000	-0,034	0,128
-342,620	229,467	-0,062	0,074
-341,606	22,328	0,072	-0,043
-340,591	199,242	0,075	-0,083
-339,577	448,314	-0,045	0,072
-338,562	-200,000	0,015	0,138
-337,548	-79,601	-0,088	-0,021
-336,533	-121,297	-0,028	-0,003
-335,518	204,903	0,138	0,156
-334,504	-33,392	0,114	0,046
-333,489	-200,000	0,010	-0,044
-332,475	283,150	0,085	-0,111
-331,460	-200,000	-0,003	-0,095
-330,445	800,000	-0,074	0,151
-329,431	110,401	-0,035	0,031
-328,416	-200,000	0,024	0,183
-327,402	224,985	-0,074	0,087
-326,387	753,265	0,039	0,078
-325,372	694,583	-0,053	0,102
-324,358	-95,137	-0,076	0,015
-323,343	-146,062	-0,168	0,011
-322,329	371,686	0,062	0,092
-321,314	340,057	-0,068	0,097
-320,299	-16,138	0,068	-0,031
-319,285	-40,821	-0,037	0,014
-318,270	-58,551	0,068	-0,021
-317,256	-29,842	-0,160	-0,066
-316,241	-125,272	0,096	0,011
-315,226	800,000	0,006	-0,015
-314,212	675,058	0,081	0,154
-313,197	137,682	0,092	-0,088
-312,183	-133,146	-0,171	-0,015
-311,168	-56,721	0,126	-0,040
-310,153	-23,097	0,079	-0,034
-309,139	-62,068	0,108	-0,032
-308,124	87,043	-0,039	-0,031
-307,110	65,473	0,120	0,088
-306,095	-14,686	-0,136	0,063
-305,080	-109,627	-0,134	-0,020
-304,066	54,988	-0,218	-0,152
-303,051	126,086	-0,022	-0,020
-302,037	-23,842	-0,123	-0,053
-301,022	96,398	0,110	-0,091
-300,008	75,140	0,079	0,060
-298,993	19,332	0,212	0,123
-297,978	43,672	-0,056	-0,037
-296,964	-67,860	-0,062	-0,018
-295,949	261,019	0,087	-0,110
-294,935	-16,122	-0,130	-0,059
-293,920	-66,383	0,093	-0,027
-292,905	-200,000	-0,025	0,117
-291,891	800,000	-0,009	-0,022
-290,876	310,238	-0,022	0,029
-289,862	134,377	-0,061	-0,058
-288,847	427,198	0,016	0,025
-287,832	39,106	0,108	-0,070
-286,818	800,000	-0,010	-0,023
-285,803	240,635	0,057	0,069
-284,789	-48,453	0,089	-0,031
-283,774	793,880	0,031	0,062
-282,759	-55,909	0,071	-0,023
-281,745	-122,963	-0,112	0,013
-280,730	800,000	0,038	-0,085
-279,716	-200,000	0,003	-0,054
-278,701	800,000	0,037	0,102
-277,686	7,457	0,042	0,023
-276,672	-105,311	0,042	-0,007
-275,657	95,173	0,065	0,054
-274,643	-94,303	-0,051	-0,010
-273,628	-47,482	0,063	-0,022
-272,613	-55,172	-0,072	-0,023
-271,599	-123,437	-0,051	0,006
-270,584	0,328	-0,044	0,023
-269,570	-200,000	-0,009	-0,060
-268,555	-28,242	0,078	-0,033
-267,540	-200,000	-0,007	-0,096
-266,526	-200,000	-0,025	0,088
-265,511	253,937	0,043	-0,053
-264,497	165,403	-0,056	-0,057
-263,482	77,311	-0,064	0,049
-262,467	240,378	0,005	0,006
-261,453	-200,000	0,009	0,150
-260,438	-8,274	-0,169	-0,082
-259,424	800,000	0,009	-0,026
-258,409	131,994	-0,079	0,074
-257,395	119,009	-0,042	-0,038
-256,380	490,387	-0,018	0,030
-255,365	-138,580	0,159	-0,012
-254,351	-88,225	-0,080	0,017
-253,336	-200,000	-0,009	0,067
-252,322	-200,000	-0,016	-0,085
-251,307	-1,428	-0,099	-0,050
-250,292	6,971	0,099	-0,053
-249,278	666,657	-0,072	0,136
-248,263	-2,978	-0,148	-0,074
-247,249	311,964	0,032	0,044
-246,234	-74,672	-0,050	0,013
-245,219	-200,000	-0,040	-0,141
-244,205	-176,894	-0,052	-0,001
-243,190	-200,000	0,007	0,057
-242,176	-20,108	0,110	0,049
-241,161	-200,000	-0,015	0,052
-240,146	800,000	-0,045	0,136
-239,132	107,129	0,049	0,042
-238,117	23,345	0,077	0,046
-237,103	-21,668	0,098	-0,043
-236,088	-200,000	-0,007	-0,039
-235,073	800,000	0,033	0,081
-234,059	86,039	-0,104	0,083
-233,044	293,772	-0,033	-0,044
-232,030	120,793	0,054	-0,049
-231,015	11,825	-0,115	-0,064
-230,000	419,633	-0,050	-0,077
-228,986	594,489	-0,040	-0,073
-227,971	-75,066	0,100	-0,026
-226,957	142,623	-0,100	0,096
-225,942	-38,920	0,092	0,035
-224,927	-200,000	0,014	0,186
-223,913	-76,303	0,020	-0,005
-222,898	800,000	0,011	-0,024
-221,884	-179,419	0,081	-0,001
-220,869	21,140	0,141	-0,083
-219,855	-200,000	0,025	0,234
-218,840	-55,568	-0,031	-0,010
-217,825	-144,271	0,082	-0,005
-216,811	-119,054	-0,030	-0,004
-215,796	169,681	0,065	-0,068
-214,782	800,000	-0,056	-0,129
-213,767	-52,970	0,119	-0,039
-212,752	-125,760	0,048	0,005
-211,738	447,362	-0,076	0,120
-210,723	196,636	0,061	-0,067
-209,709	-25,718	-0,033	-0,014
-208,694	-32,547	-0,111	0,044
-207,679	-40,920	-0,094	0,035
-206,665	304,404	0,027	0,036
-205,650	-73,807	0,137	-0,036
-204,636	-21,769	-0,106	-0,046
-203,621	-115,118	0,102	-0,014
-202,606	82,328	-0,061	0,048
-201,592	800,000	0,031	-0,068
-200,577	585,763	0,063	0,112
-199,563	-25,307	0,058	0,025
-198,548	560,201	0,027	0,048
-197,533	800,000	0,044	0,117
-196,519	84,834	0,009	0,007
-195,504	-53,067	-0,105	0,035
-194,490	0,673	0,065	-0,034
-193,475	17,757	0,052	-0,030
-192,460	297,999	-0,072	0,095
-191,446	169,699	0,054	-0,056
-190,431	106,507	0,109	-0,094
-189,417	-83,143	0,111	-0,026
-188,402	800,000	0,033	-0,092
-187,387	-200,000	0,008	0,029
-186,373	800,000	-0,042	-0,095
-185,358	117,911	-0,018	-0,016
-184,344	70,611	0,032	0,024
-183,329	-200,000	-0,006	0,152
-182,315	172,100	0,116	-0,120
-181,300	800,000	0,033	0,077
-180,285	-47,047	-0,043	-0,015
-179,271	800,000	0,032	-0,073
-178,256	-200,000	0,012	0,100
-177,242	800,000	-0,028	0,085
-176,227	36,973	0,100	-0,064
-175,212	-180,975	-0,140	0,002
-174,198	81,373	0,069	-0,053
-173,183	511,970	0,013	-0,021
-172,169	-200,000	0,001	-0,107
-171,154	-200,000	-0,004	-0,071
-170,139	-200,000	0,032	0,218
-169,125	331,717	0,021	-0,030
-168,110	53,620	0,128	0,089
-167,096	-200,000	-0,009	-0,028
-166,081	-68,879	-0,023	-0,006
-165,066	-200,000	0,000	-0,070
-164,052	800,000	0,021	0,066
-163,037	14,800	0,187	-0,105
-162,023	-200,000	-0,005	0,061
-161,008	-53,210	0,103	-0,034
-159,993	272,344	-0,053	-0,068
-158,979	300,491	-0,041	-0,055
-157,964	785,619	0,054	0,108
-156,950	-200,000	0,020	0,099
-155,935	-200,000	0,001	-0,027
-154,920	40,752	0,078	0,051
-153,906	-200,000	-0,022	0,091
-152,891	266,855	-0,083	-0,105
-151,877	800,000	-0,019	0,054
-150,862	-200,000	0,002	-0,119
-149,847	360,169	-0,054	-0,079
-148,833	528,765	0,089	-0,153
-147,818	-35,818	-0,072	-0,028
-146,804	30,300	0,078	0,048
-145,789	-200,000	-0,003	0,106
-144,775	-200,000	-0,015	-0,066
-143,760	755,880	0,023	0,046
-142,745	46,702	0,091	0,061
-141,731	-31,536	0,153	0,062
-140,716	-24,042	-0,061	-0,026
-139,702	-200,000	0,005	0,059
-138,687	115,736	-0,038	0,034
-137,672	29,479	-0,051	0,031
-136,658	69,002	0,066	0,048
-135,643	5,109	-0,109	-0,058
-134,629	-200,000	0,034	-0,171
-133,614	-137,781	-0,076	0,006
-132,599	-67,080	-0,084	-0,024
-131,585	-168,202	-0,118	0,003
-130,570	178,595	-0,094	0,099
-129,556	211,965	0,031	0,036
-128,541	-32,366	0,042	0,017
-127,526	-200,000	0,007	-0,095
-126,512	-200,000	0,021	0,096
-125,497	-57,755	0,112	-0,035
-124,483	111,711	-0,018	-0,016
-123,468	-200,000	0,009	0,044
-122,453	210,296	-0,049	-0,056
-121,439	434,739	0,046	-0,073
-120,424	800,000	0,009	-0,022
-119,410	-38,084	-0,054	-0,021
