DTS Sentinel unit serial number:	SN410029Multiplexer serial number:	ORYXHardware model number:	OX2-SRSoftware version number:	ORYX F/W v4,00 Oryx Data Collector v3.7.2.0data status	okinstallation	B5 Nyhavnadifferential loss correction	single-endedforward channel	channel 2reverse channel	N/Adate	2023/12/11time	14:27:13forward acquisition time	300,00reverse acquisition time	0,00gamma	499,1914k internal	0,3167k external	0,3167temperature offset calibration	1,0000default loss term (dB/km)	0,3820temperature slope calibration	1,0000multiplexer offset coefficient	1,0000multiplexer slope coefficient	1,0000fibre end	0,00T internal ref (°C)	12,42T ext. ref 1 (°C)	-1,84T ext. ref 2 (°C)	-1,82length (m)	temperature (°C)	Stokes	anti-Stokes-744,400	104,545	-0,023	-0,020
-743,385	-115,609	-0,215	0,029
-742,371	109,384	0,054	0,047
-741,356	-100,935	-0,296	-0,053
-740,342	6,223	0,104	0,056
-739,327	18,615	-0,220	-0,129
-738,312	800,000	0,037	0,097
-737,298	-54,396	-0,299	-0,099
-736,283	218,638	0,097	0,114
-735,269	-65,627	-0,347	0,102
-734,254	-18,358	0,132	0,061
-733,239	-43,984	-0,604	-0,222
-732,225	203,407	0,149	0,169
-731,210	-131,023	-0,234	-0,023
-730,196	175,791	0,081	-0,086
-729,181	-200,000	0,003	-0,081
-728,167	-152,509	-0,176	-0,009
-727,152	-98,961	0,018	0,003
-726,137	-188,924	0,032	-0,000
-725,123	-200,000	0,008	-0,063
-724,108	81,896	-0,035	-0,028
-723,094	204,985	-0,052	-0,059
-722,079	574,575	-0,097	-0,174
-721,064	800,000	0,046	-0,135
-720,050	7,918	-0,143	0,079
-719,035	800,000	-0,098	-0,236
-718,021	-49,827	-0,037	-0,013
-717,006	500,104	-0,050	-0,085
-715,991	800,000	0,046	-0,127
-714,977	-134,266	-0,062	0,006
-713,962	-83,393	0,078	0,018
-712,948	10,022	0,104	-0,058
-711,933	2,954	0,048	-0,025
-710,918	51,377	-0,056	-0,039
-709,904	800,000	-0,050	-0,155
-708,889	192,027	-0,081	0,090
-707,875	-200,000	0,026	-0,095
-706,860	-200,000	0,015	-0,071
-705,845	-200,000	-0,002	0,023
-704,831	-124,515	-0,073	-0,008
-703,816	-96,634	-0,134	-0,026
-702,802	-177,328	-0,043	-0,001
-701,787	-200,000	0,006	-0,076
-700,772	452,429	0,088	-0,143
-699,758	99,875	0,096	0,081
-698,743	800,000	0,034	-0,109
-697,729	-200,000	0,006	0,095
-696,714	437,175	-0,059	-0,095
-695,699	219,945	-0,089	0,105
-694,685	157,089	-0,020	-0,020
-693,670	209,738	-0,099	-0,114
-692,656	-200,000	0,018	-0,185
-691,641	1,532	0,098	0,052
-690,627	-108,010	0,147	-0,023
-689,612	-6,917	-0,076	-0,038
-688,597	-74,664	-0,158	-0,041
-687,583	201,553	-0,082	-0,093
-686,568	256,516	-0,103	-0,130
-685,554	-43,108	0,132	-0,049
-684,539	-200,000	0,006	0,269
-683,524	12,399	-0,098	0,055
-682,510	800,000	-0,005	0,011
-681,495	800,000	-0,023	0,052
-680,481	140,052	-0,024	0,023
-679,466	-24,566	0,069	-0,030
-678,451	598,555	0,068	0,124
-677,437	-200,000	-0,019	-0,091
-676,422	226,700	-0,062	0,074
-675,408	800,000	0,002	-0,006
-674,393	38,925	0,055	0,036
-673,378	800,000	-0,024	-0,069
-672,364	800,000	0,016	-0,036
-671,349	232,587	-0,054	0,065
-670,335	800,000	-0,030	0,060
-669,320	-200,000	0,004	-0,109
-668,305	-200,000	-0,007	-0,117
-667,291	236,122	-0,055	-0,067
-666,276	-0,535	-0,090	-0,047
-665,262	517,136	-0,061	-0,106
-664,247	-200,000	-0,006	-0,058
-663,232	-200,000	-0,014	-0,093
-662,218	248,294	-0,018	-0,022
-661,203	-37,102	-0,030	0,012
-660,189	800,000	-0,054	0,130
-659,174	396,739	-0,030	0,046
-658,159	-5,577	-0,124	-0,062
-657,145	122,017	-0,112	-0,102
-656,130	111,005	-0,041	0,036
-655,116	-28,375	0,145	-0,061
-654,101	39,592	-0,092	0,060
-653,086	-67,463	0,077	-0,022
-652,072	-89,295	-0,200	0,043
-651,057	205,312	0,030	-0,035
-650,043	-200,000	0,030	-0,116
-649,028	800,000	0,042	-0,123
-648,014	-33,295	0,070	0,028
-646,999	297,826	-0,050	-0,068
-645,984	-77,102	-0,046	-0,012
-644,970	-135,624	-0,135	0,012
-643,955	-200,000	0,023	-0,088
-642,941	-62,995	-0,193	0,058
-641,926	-109,655	0,083	-0,013
-640,911	-200,000	-0,019	-0,115
-639,897	10,603	-0,066	0,036
-638,882	-58,680	-0,120	-0,038
-637,868	169,249	0,048	0,050
-636,853	800,000	0,016	0,044
-635,838	92,730	0,041	-0,034
-634,824	-175,953	-0,071	0,001
-633,809	47,525	0,067	0,046
-632,795	-3,632	-0,108	0,055
-631,780	150,492	0,056	-0,055
-630,765	-121,233	-0,158	-0,019
-629,751	-30,452	0,056	0,023
-628,736	-200,000	-0,003	-0,061
-627,722	-12,589	0,115	-0,055
-626,707	-81,492	-0,113	-0,027
-625,692	-101,156	0,086	-0,015
-624,678	150,251	0,100	0,100
-623,663	-200,000	-0,004	0,072
-622,649	-137,072	-0,116	0,010
-621,634	-200,000	0,004	0,051
-620,619	318,240	-0,053	-0,074
-619,605	721,369	-0,006	-0,012
-618,590	-200,000	-0,003	0,103
-617,576	-92,446	-0,142	-0,029
-616,561	12,449	0,043	0,024
-615,546	800,000	-0,017	-0,047
-614,532	-200,000	0,003	-0,087
-613,517	301,755	-0,046	-0,063
-612,503	5,064	0,099	0,053
-611,488	-16,588	-0,040	0,018
-610,474	-52,150	0,129	-0,044
-609,459	800,000	-0,029	-0,074
-608,444	398,120	-0,091	0,139
-607,430	800,000	0,048	-0,103
-606,415	-200,000	0,012	-0,071
-605,401	800,000	-0,027	-0,059
-604,386	800,000	-0,020	-0,053
-603,371	101,110	0,029	0,025
-602,357	-19,817	-0,114	-0,051
-601,342	293,661	-0,072	-0,096
-600,328	340,277	-0,110	-0,158
-599,313	800,000	-0,072	-0,149
-598,298	-200,000	-0,008	-0,036
-597,284	-200,000	-0,003	-0,033
-596,269	150,511	-0,054	0,054
-595,255	40,496	0,032	0,021
-594,240	162,047	-0,033	0,034
-593,225	-44,582	0,056	-0,020
-592,211	800,000	0,044	-0,112
-591,196	-98,364	-0,160	0,030
-590,182	-141,924	0,097	-0,007
-589,167	443,291	-0,036	-0,058
-588,152	-44,805	0,090	-0,032
-587,138	19,661	-0,092	-0,054
-586,123	800,000	0,039	-0,093
-585,109	-109,955	-0,198	0,030
-584,094	-200,000	0,005	0,050
-583,079	7,750	0,041	0,022
-582,065	-97,902	0,114	0,021
-581,050	-140,873	-0,018	-0,001
-580,036	60,841	-0,178	0,129
-579,021	-200,000	-0,012	-0,150
-578,006	-123,199	-0,096	-0,011
-576,992	-200,000	0,005	0,064
-575,977	-194,908	0,107	0,001
-574,963	129,260	0,030	0,028
-573,948	800,000	-0,025	0,068
-572,934	-200,000	0,037	-0,126
-571,919	85,579	-0,074	0,059
-570,904	-154,826	-0,084	-0,004
-569,890	364,025	-0,050	-0,073
-568,875	-69,332	0,056	0,016
-567,861	-200,000	0,003	0,013
-566,846	37,511	0,059	0,038
-565,831	800,000	0,059	0,156
-564,817	57,180	-0,030	-0,022
-563,802	-200,000	0,041	-0,182
-562,788	-200,000	0,014	-0,094
-561,773	176,940	0,151	-0,161
-560,758	800,000	0,035	0,112
-559,744	-182,271	0,110	-0,001
-558,729	-31,303	0,047	-0,019
-557,715	-130,474	-0,086	0,008
-556,700	-59,906	-0,129	-0,040
-555,685	-152,511	-0,068	0,004
-554,671	800,000	0,016	-0,047
-553,656	259,743	0,054	-0,068
-552,642	157,375	0,044	0,044
-551,627	107,765	0,068	0,059
-550,612	-36,222	-0,067	0,026
-549,598	800,000	-0,085	-0,172
-548,583	-200,000	-0,006	-0,032
-547,569	54,340	-0,133	0,093
-546,554	443,358	0,109	0,174
-545,539	800,000	-0,036	-0,105
-544,525	272,225	0,081	0,105
-543,510	10,461	0,055	-0,030
-542,496	280,897	-0,079	-0,104
-541,481	800,000	0,034	-0,108
-540,466	167,838	0,066	0,068
-539,452	-65,887	0,194	0,056
-538,437	-200,000	0,012	-0,118
-537,423	800,000	0,039	-0,090
-536,408	-170,126	0,055	0,001
-535,393	25,103	-0,122	-0,074
-534,379	1,191	-0,145	0,076
-533,364	800,000	0,022	0,068
-532,350	-2,204	-0,085	0,043
-531,335	-36,679	0,152	0,059
-530,321	-51,314	-0,097	-0,033
-529,306	-200,000	0,006	0,098
-528,291	382,159	0,058	-0,087
-527,277	-200,000	-0,046	-0,171
-526,262	800,000	0,018	-0,055
-525,248	800,000	-0,081	-0,175
-524,233	-123,553	0,011	0,001
-523,218	-151,516	0,151	0,008
-522,204	605,184	-0,079	-0,145
-521,189	800,000	-0,066	0,137
-520,175	800,000	0,047	-0,140
-519,160	-18,692	0,041	-0,019
-518,145	41,421	0,078	-0,051
-517,131	-200,000	0,020	-0,081
-516,116	-200,000	-0,005	0,100
-515,102	800,000	-0,039	0,096
-514,087	66,317	-0,062	0,046
-513,072	482,536	-0,036	-0,059
-512,058	-200,000	0,005	0,047
-511,043	-200,000	0,005	-0,023
-510,029	-11,879	0,164	0,078
-509,014	-200,000	0,019	0,090
-507,999	-200,000	0,025	0,091
-506,985	-188,011	0,113	-0,001
-505,970	-200,000	0,029	-0,121
-504,956	-200,000	0,020	-0,078
-503,941	427,347	0,043	-0,067
-502,926	-103,017	0,017	-0,003
-501,912	653,365	0,075	0,141
-500,897	-200,000	-0,036	0,142
-499,883	11,908	0,020	0,011
-498,868	173,221	0,062	-0,066
-497,853	-33,156	-0,113	0,045
-496,839	800,000	-0,036	-0,098
-495,824	329,029	-0,017	-0,023
-494,810	800,000	0,071	0,165
-493,795	-200,000	0,018	0,081
-492,781	-123,922	-0,073	-0,008
-491,766	394,159	0,102	-0,155
-490,751	153,368	-0,081	-0,081
-489,737	-102,804	0,064	-0,011
-488,722	-200,000	-0,015	-0,114
-487,708	800,000	0,024	0,075
-486,693	-200,000	0,007	0,029
-485,678	66,607	0,031	-0,023
-484,664	45,778	-0,042	0,028
-483,649	33,799	0,053	0,034
-482,635	-73,369	0,084	-0,022
-481,620	-82,663	-0,212	0,049
-480,605	81,732	-0,035	-0,028
-479,591	240,376	0,090	-0,109
-478,576	156,500	0,028	-0,028
-477,562	526,537	0,048	-0,083
-476,547	17,588	-0,098	0,057
-475,532	-91,671	-0,061	0,013
-474,518	-200,000	0,018	0,111
-473,503	-71,322	0,047	0,013
-472,489	800,000	-0,027	-0,075
-471,474	-92,999	-0,076	0,015
-470,459	-200,000	-0,045	0,165
-469,445	405,193	-0,090	-0,139
-468,430	-122,408	0,080	0,009
-467,416	800,000	-0,035	0,086
-466,401	800,000	0,029	0,062
-465,386	85,852	0,128	0,102
-464,372	800,000	0,036	0,105
-463,357	67,153	-0,059	0,044
-462,343	87,699	-0,049	0,039
-461,328	-73,777	0,083	-0,022
-460,313	800,000	0,036	0,078
-459,299	800,000	0,053	0,112
-458,284	800,000	0,032	-0,071
-457,270	224,069	0,084	-0,098
-456,255	123,072	-0,012	-0,011
-455,241	-200,000	-0,024	0,121
-454,226	-44,605	-0,098	-0,035
-453,211	-104,554	0,030	0,005
-452,197	-200,000	0,012	0,087
-451,182	-64,044	0,105	0,031
-450,168	-97,260	0,049	-0,009
-449,153	67,387	-0,067	0,049
-448,138	107,081	-0,112	0,097
-447,124	-200,000	0,021	0,094
-446,109	73,253	0,060	-0,045
-445,095	-185,047	-0,165	-0,002
-444,080	-200,000	-0,006	0,033
-443,065	-131,825	-0,121	0,011
-442,051	-145,986	-0,086	0,005
-441,036	797,017	-0,005	0,009
-440,022	23,739	0,061	0,036
-439,007	800,000	-0,037	-0,104
-437,992	-110,342	0,142	0,021
-436,978	28,679	-0,044	-0,027
-435,963	-200,000	-0,008	-0,048
-434,949	-146,283	-0,052	0,003
-433,934	-51,480	-0,086	0,029
-432,919	-130,315	-0,030	0,003
-431,905	-77,963	0,099	0,025
-430,890	800,000	0,050	0,108
-429,876	67,023	0,101	0,075
-428,861	800,000	0,059	0,138
-427,846	800,000	-0,028	-0,075
-426,832	143,607	-0,188	-0,182
-425,817	-200,000	-0,025	-0,154
-424,803	475,594	-0,031	-0,051
-423,788	261,737	-0,083	-0,104
-422,773	-76,558	-0,024	0,006
-421,759	110,556	0,083	0,072
-420,744	-200,000	0,015	0,094
-419,730	-11,890	-0,070	-0,033
-418,715	-200,000	-0,009	-0,126
-417,701	-6,670	-0,069	0,034
-416,686	800,000	0,061	0,124
-415,671	212,270	0,046	0,053
-414,657	800,000	-0,047	0,137
-413,642	-200,000	0,012	0,120
-412,628	145,056	-0,076	0,074
-411,613	-200,000	0,003	-0,237
-410,598	800,000	-0,024	0,074
-409,584	800,000	-0,021	-0,045
-408,569	-19,513	-0,041	0,019
-407,555	706,276	0,044	0,085
-406,540	129,653	-0,111	0,103
-405,525	13,579	-0,032	0,018
-404,511	112,818	0,053	-0,047
-403,496	47,963	0,049	0,033
-402,482	800,000	-0,045	0,121
-401,467	800,000	-0,068	0,176
-400,452	248,128	0,086	-0,106
-399,438	-200,000	0,005	-0,031
-398,423	800,000	0,033	-0,070
-397,409	-22,397	-0,007	-0,003
-396,394	307,474	0,041	0,055
-395,379	-200,000	-0,008	0,061
-394,365	-141,481	-0,108	0,008
-393,350	-200,000	0,004	0,143
-392,336	-1,089	0,016	0,008
-391,321	-200,000	0,013	0,042
-390,306	800,000	-0,033	0,079
-389,292	-200,000	0,006	-0,045
-388,277	231,711	0,030	-0,035
-387,263	679,012	0,085	0,162
-386,248	-200,000	-0,001	0,044
-385,233	-49,236	0,082	0,028
-384,219	330,424	-0,042	-0,059
-383,204	-88,824	-0,219	0,047
-382,190	-200,000	-0,042	-0,137
-381,175	318,611	0,031	0,043
-380,160	274,917	0,072	0,092
-379,146	420,728	0,080	0,125
-378,131	124,266	-0,054	0,049
-377,117	-200,000	0,020	0,065
-376,102	800,000	0,049	0,145
-375,088	-200,000	0,018	0,095
-374,073	353,624	0,071	-0,102
-373,058	-131,878	0,106	-0,010
-372,044	0,083	0,100	0,051
-371,029	86,116	0,083	0,066
-370,015	739,920	0,048	0,095
-369,000	800,000	0,021	-0,059
-367,985	185,368	0,078	-0,084
-366,971	221,776	0,020	0,023
-365,956	12,982	-0,062	0,035
-364,942	-200,000	-0,025	0,101
-363,927	-200,000	0,008	-0,037
-362,912	-200,000	0,026	0,143
-361,898	-174,829	-0,098	-0,002
-360,883	-200,000	0,003	-0,129
-359,869	-60,404	0,039	-0,012
-358,854	2,064	0,050	0,026
-357,839	-17,177	-0,062	0,028
-356,825	800,000	-0,013	0,033
-355,810	153,853	0,075	-0,074
-354,796	115,544	0,109	-0,096
-353,781	-199,913	0,155	-0,001
-352,766	-200,000	0,003	-0,032
-351,752	-200,000	-0,001	-0,083
-350,737	800,000	0,028	0,057
-349,723	-157,575	0,061	0,003
-348,708	800,000	0,008	-0,021
-347,693	-197,024	-0,047	0,000
-346,679	-87,356	0,051	0,011
-345,664	-93,430	0,116	0,023
-344,650	-200,000	0,025	0,198
-343,635	124,697	0,104	0,095
-342,620	351,485	-0,088	0,126
-341,606	-43,566	0,121	-0,044
-340,591	92,452	0,079	0,064
-339,577	-200,000	-0,009	-0,211
-338,562	-200,000	-0,004	-0,253
-337,548	800,000	-0,080	-0,174
-336,533	-30,447	0,185	-0,075
-335,518	204,473	0,039	0,044
-334,504	533,821	-0,031	0,053
-333,489	-18,578	0,017	-0,008
-332,475	127,226	0,073	-0,067
-331,460	617,045	-0,037	-0,068
-330,445	160,925	-0,035	0,036
-329,431	800,000	0,036	0,078
-328,416	800,000	0,041	-0,089
-327,402	-72,333	-0,080	-0,021
-326,387	-200,000	0,003	0,028
-325,372	-178,767	-0,161	0,003
-324,358	634,461	0,026	0,048
-323,343	-93,216	-0,114	-0,023
-322,329	-28,976	0,155	-0,064
-321,314	-63,265	0,054	-0,016
-320,299	-79,263	0,109	0,027
-319,285	86,041	-0,042	0,033
-318,270	-72,912	-0,024	-0,006
-317,256	-167,224	-0,106	-0,003
-316,241	42,267	-0,100	0,065
-315,226	504,923	0,050	0,084
-314,212	170,714	0,107	0,111
-313,197	44,035	0,066	0,044
-312,183	-51,351	0,031	-0,011
-311,168	-200,000	-0,013	0,062
-310,153	386,566	0,039	0,059
-309,139	-169,985	0,098	0,002
-308,124	-176,977	-0,039	0,001
-307,110	400,292	-0,056	0,085
-306,095	-19,957	-0,076	0,034
-305,080	253,975	-0,044	-0,054
-304,066	-200,000	0,029	-0,106
-303,051	-200,000	-0,010	-0,048
-302,037	-200,000	-0,006	0,088
-301,022	290,989	-0,089	-0,117
-300,008	54,778	-0,063	-0,044
-298,993	800,000	-0,033	-0,083
-297,978	71,641	0,086	-0,065
-296,964	-200,000	-0,010	-0,036
-295,949	-59,829	-0,112	-0,034
-294,935	-200,000	-0,020	0,099
-293,920	400,056	-0,033	-0,050
-292,905	44,620	0,195	0,129
-291,891	800,000	0,040	0,095
-290,876	704,264	0,044	0,085
-289,862	106,544	0,085	-0,073
-288,847	-200,000	-0,029	-0,121
-287,832	181,235	-0,029	-0,031
-286,818	-78,016	0,050	-0,012
-285,803	800,000	-0,009	-0,022
-284,789	672,120	-0,004	-0,008
-283,774	800,000	-0,032	0,074
-282,759	251,316	-0,039	-0,048
-281,745	-11,609	-0,039	-0,018
-280,730	103,750	-0,014	-0,012
-279,716	-59,772	-0,112	-0,034
-278,701	273,723	-0,042	0,054
-277,686	346,050	-0,031	0,043
-276,672	-27,551	-0,139	-0,058
-275,657	66,475	0,146	-0,107
-274,643	-200,000	0,001	-0,048
-273,628	800,000	0,060	-0,136
-272,613	-200,000	0,032	0,130
-271,599	-33,109	0,045	-0,018
-270,584	346,999	0,050	0,071
-269,570	15,648	-0,013	-0,008
-268,555	-200,000	-0,002	-0,235
-267,540	336,237	-0,033	-0,046
-266,526	800,000	-0,044	-0,107
-265,511	-200,000	-0,009	-0,129
-264,497	31,780	0,099	-0,062
-263,482	246,564	0,056	0,069
-262,467	-11,365	-0,059	0,028
-261,453	800,000	-0,034	-0,099
-260,438	800,000	0,032	-0,100
-259,424	-7,878	-0,116	0,056
-258,409	800,000	-0,064	-0,132
-257,395	-10,134	0,155	-0,074
-256,380	800,000	0,037	0,081
-255,365	800,000	0,052	0,125
-254,351	197,525	-0,026	0,029
-253,336	-121,854	0,056	0,007
-252,322	-200,000	0,001	-0,093
-251,307	-200,000	0,023	-0,081
-250,292	575,583	0,053	-0,094
-249,278	-100,338	0,131	0,023
-248,263	-112,510	-0,011	0,002
-247,249	99,446	-0,072	-0,060
-246,234	-200,000	-0,054	0,185
-245,219	-74,314	0,085	-0,022
-244,205	800,000	-0,073	-0,148
-243,190	549,754	0,049	-0,084
-242,176	-99,829	0,045	0,008
-241,161	2,738	-0,026	0,013
-240,146	643,945	0,036	-0,067
-239,132	800,000	-0,049	-0,111
-238,117	-200,000	-0,001	-0,073
-237,103	116,408	0,054	0,047
-236,088	742,651	-0,064	-0,124
-235,073	118,858	0,028	0,025
-234,059	-200,000	-0,036	0,180
-233,044	-39,627	-0,147	-0,055
-232,030	38,562	-0,039	0,025
-231,015	-200,000	0,021	-0,152
-230,000	225,417	0,072	-0,085
-228,986	67,650	0,062	0,046
-227,971	-78,907	0,086	-0,021
-226,957	151,462	-0,031	-0,030
-225,942	59,200	0,064	-0,045
-224,927	557,388	-0,004	-0,007
-223,913	-58,704	0,089	-0,028
-222,898	-57,514	0,107	0,034
-221,884	-200,000	-0,010	0,056
-220,869	292,348	0,050	0,065
-219,855	-103,606	0,054	0,009
-218,840	450,204	0,070	0,111
-217,825	-200,000	-0,005	-0,109
-216,811	800,000	0,034	0,092
-215,796	-200,000	0,002	-0,059
-214,782	630,080	-0,054	0,099
-213,767	-99,098	0,054	0,010
-212,752	-101,533	0,020	0,003
-211,738	11,247	-0,056	0,031
-210,723	-15,060	-0,153	0,070
-209,709	-125,697	0,079	0,009
-208,694	130,258	-0,128	-0,118
-207,679	-200,000	0,022	0,085
-206,665	-191,151	-0,128	-0,001
-205,650	99,466	-0,023	-0,019
-204,636	202,597	0,075	0,083
-203,621	111,855	0,024	0,021
-202,606	-200,000	0,002	0,010
-201,592	-57,626	0,072	-0,023
-200,577	-66,403	-0,053	0,015
-199,563	-200,000	0,014	0,061
-198,548	-101,807	-0,079	-0,014
-197,533	127,144	-0,040	-0,036
-196,519	-200,000	-0,002	-0,135
-195,504	-200,000	0,004	0,066
-194,490	-200,000	-0,028	-0,241
-193,475	-41,899	-0,058	0,021
-192,460	104,141	0,096	-0,081
-191,446	-140,565	0,172	0,013
-190,431	-43,560	0,071	0,026
-189,417	800,000	-0,077	0,234
-188,402	-200,000	0,016	-0,067
-187,387	38,223	-0,064	0,041
-186,373	-29,642	0,033	-0,013
-185,358	-200,000	-0,016	-0,052
-184,344	-86,620	-0,086	-0,019
-183,329	-200,000	-0,018	0,083
-182,315	20,869	-0,109	0,063
-181,300	-200,000	-0,014	0,086
-180,285	-52,627	-0,083	0,027
-179,271	331,058	-0,056	0,078
-178,256	800,000	0,033	0,079
-177,242	209,672	-0,050	0,056
-176,227	589,015	0,016	0,028
-175,212	800,000	-0,031	-0,074
-174,198	-47,539	-0,001	0,000
-173,183	173,960	-0,043	-0,045
-172,169	-95,276	-0,083	0,016
-171,154	-174,287	0,127	-0,003
-170,139	-200,000	0,018	-0,063
-169,125	-200,000	0,013	0,218
-168,110	281,341	-0,067	0,086
-167,096	-58,318	-0,080	-0,025
-166,081	-111,672	-0,049	-0,007
-165,066	595,819	0,085	0,151
-164,052	521,617	-0,099	0,167
-163,037	31,371	-0,019	-0,012
-162,023	-200,000	0,012	-0,094
-161,008	-92,888	-0,045	-0,009
-159,993	227,157	-0,061	0,071
-158,979	764,459	-0,023	0,046
-157,964	371,976	-0,093	-0,136
-156,950	-169,982	-0,056	-0,001
-155,935	-114,035	-0,216	-0,030
-154,920	596,744	0,038	0,067
-153,906	49,006	0,172	0,116
-152,891	-200,000	0,014	0,067
-151,877	-183,602	-0,013	0,000
-150,862	249,510	-0,067	0,081
-149,847	-45,325	-0,088	0,031
-148,833	529,174	0,041	-0,069
-147,818	-124,985	0,110	-0,012
-146,804	-149,243	0,096	0,005
-145,789	53,962	0,132	0,091
-144,775	238,116	-0,054	-0,065
-143,760	-79,644	0,053	-0,013
-142,745	800,000	0,009	0,023
-141,731	-200,000	-0,009	0,110
-140,716	654,967	-0,021	-0,040
-139,702	36,825	-0,048	0,030
-138,687	-20,957	-0,223	0,098
-137,672	157,582	0,096	-0,095
-136,658	800,000	-0,050	-0,118
-135,643	123,208	-0,072	-0,065
-134,629	10,122	0,062	0,033
-133,614	-162,659	0,195	0,007
-132,599	-119,871	-0,037	-0,005
-131,585	96,589	0,116	0,095
-130,570	800,000	0,016	0,045
-129,556	706,000	0,058	-0,110
-128,541	-29,318	-0,138	-0,056
-127,526	-85,575	0,064	0,014
-126,512	-200,000	-0,003	-0,093
-125,497	-169,797	-0,074	0,002
-124,483	9,731	-0,102	0,056
-123,468	154,516	-0,033	0,033
-122,453	97,557	-0,023	-0,019
-121,439	-168,131	-0,014	-0,000
-120,424	-200,000	-0,014	0,067
-119,410	800,000	0,023	0,072
