DTS Sentinel unit serial number:	SN410029Multiplexer serial number:	ORYXHardware model number:	OX2-SRSoftware version number:	ORYX F/W v4,00 Oryx Data Collector v3.7.2.0data status	okinstallation	B5 Nyhavnadifferential loss correction	single-endedforward channel	channel 2reverse channel	N/Adate	2023/12/13time	23:32:13forward acquisition time	300,00reverse acquisition time	0,00gamma	499,1914k internal	0,3154k external	0,3154temperature offset calibration	1,0000default loss term (dB/km)	0,3820temperature slope calibration	1,0000multiplexer offset coefficient	1,0000multiplexer slope coefficient	1,0000fibre end	0,00T internal ref (°C)	8,87T ext. ref 1 (°C)	-7,51T ext. ref 2 (°C)	-7,53length (m)	temperature (°C)	Stokes	anti-Stokes-744,400	-141,529	-0,098	0,007
-743,385	1,913	-0,345	-0,183
-742,371	5,435	0,257	0,140
-741,356	-137,039	-0,347	-0,029
-740,342	33,148	0,150	0,096
-739,327	-113,123	-0,415	-0,060
-738,312	-15,945	0,090	0,042
-737,298	-11,627	-0,402	-0,194
-736,283	74,891	0,101	0,078
-735,269	-4,185	-0,273	-0,139
-734,254	-200,000	0,028	0,091
-733,239	-49,744	-0,561	-0,196
-732,225	20,193	0,241	-0,143
-731,210	34,535	-0,126	0,081
-730,196	-200,000	-0,018	-0,072
-729,181	-39,623	-0,053	-0,020
-728,167	-200,000	0,018	-0,127
-727,152	4,536	-0,043	-0,023
-726,137	-28,791	0,145	-0,061
-725,123	-16,161	-0,033	0,016
-724,108	189,599	0,086	-0,095
-723,094	-200,000	-0,014	-0,199
-722,079	451,725	-0,060	0,098
-721,064	-119,259	-0,088	0,011
-720,050	450,648	-0,042	-0,068
-719,035	268,848	0,046	-0,059
-718,021	-200,000	0,012	-0,173
-717,006	-200,000	-0,027	0,151
-715,991	-16,252	-0,148	-0,069
-714,977	-34,564	-0,011	0,005
-713,962	-200,000	0,019	-0,106
-712,948	13,859	-0,024	0,014
-711,933	-90,914	-0,121	0,025
-710,918	-200,000	-0,027	-0,119
-709,904	465,402	-0,033	-0,055
-708,889	23,934	-0,082	-0,050
-707,875	800,000	-0,047	-0,102
-706,860	353,436	-0,053	0,078
-705,845	-200,000	0,034	0,122
-704,831	57,863	0,093	-0,067
-703,816	-200,000	-0,012	-0,187
-702,802	43,145	0,067	-0,045
-701,787	91,114	-0,101	-0,084
-700,772	113,360	0,046	0,041
-699,758	34,981	-0,062	0,040
-698,743	-128,677	0,233	0,024
-697,729	114,309	-0,098	-0,088
-696,714	-200,000	0,001	0,015
-695,699	-200,000	0,019	0,082
-694,685	108,457	0,095	-0,084
-693,670	-200,000	0,007	-0,123
-692,656	195,949	-0,064	0,072
-691,641	-41,659	0,149	-0,056
-690,627	775,482	0,084	0,171
-689,612	10,028	-0,040	-0,022
-688,597	39,809	-0,059	-0,039
-687,583	800,000	0,028	-0,090
-686,568	517,522	-0,033	-0,057
-685,554	-200,000	0,000	-0,142
-684,539	-46,609	0,068	0,024
-683,524	-19,226	-0,077	0,035
-682,510	-141,529	0,055	-0,004
-681,495	-31,821	-0,102	-0,042
-680,481	-200,000	-0,007	-0,295
-679,466	53,670	-0,079	-0,056
-678,451	-69,221	-0,085	0,024
-677,437	308,998	0,060	-0,082
-676,422	-77,976	-0,086	-0,022
-675,408	122,556	0,019	-0,017
-674,393	-134,071	-0,106	0,009
-673,378	-129,761	-0,123	0,012
-672,364	136,666	-0,158	-0,152
-671,349	-200,000	0,020	-0,101
-670,335	-200,000	0,016	0,052
-669,320	153,178	0,073	-0,073
-668,305	67,587	0,112	0,084
-667,291	-86,287	-0,028	0,006
-666,276	-27,597	-0,057	-0,024
-665,262	-200,000	-0,003	-0,058
-664,247	800,000	0,028	0,057
-663,232	-128,768	-0,040	0,004
-662,218	8,140	0,154	0,085
-661,203	259,387	-0,038	0,049
-660,189	266,698	-0,013	0,017
-659,174	-200,000	-0,025	0,097
-658,159	800,000	0,013	-0,034
-657,145	800,000	-0,034	0,087
-656,130	-200,000	0,003	0,012
-655,116	190,295	0,094	-0,104
-654,101	121,169	0,028	-0,026
-653,086	-182,105	0,072	-0,001
-652,072	-200,000	0,005	-0,019
-651,057	363,912	-0,061	-0,091
-650,043	125,913	0,070	-0,065
-649,028	446,736	-0,070	0,114
-648,014	185,451	0,082	0,090
-646,999	3,622	0,084	-0,045
-645,984	80,752	-0,053	0,042
-644,970	204,070	0,106	0,121
-643,955	124,345	-0,136	-0,126
-642,941	746,235	0,078	-0,155
-641,926	-200,000	-0,020	0,113
-640,911	154,271	0,035	0,035
-639,897	-40,460	-0,058	-0,022
-638,882	239,082	-0,020	0,024
-637,868	-200,000	0,021	-0,087
-636,853	-200,000	-0,017	0,069
-635,838	-200,000	-0,003	0,052
-634,824	112,422	0,034	0,030
-633,809	800,000	-0,032	0,101
-632,795	493,702	0,013	-0,022
-631,780	111,761	-0,101	0,089
-630,765	195,954	-0,108	0,120
-629,751	295,906	0,053	-0,072
-628,736	-200,000	0,004	0,103
-627,722	-200,000	0,032	-0,150
-626,707	-48,605	0,071	-0,025
-625,692	0,127	0,033	0,017
-624,678	-58,662	-0,162	-0,051
-623,663	103,493	0,078	0,067
-622,649	-200,000	-0,041	-0,141
-621,634	244,519	0,028	-0,035
-620,619	148,272	0,026	-0,026
-619,605	800,000	-0,010	-0,025
-618,590	-80,886	-0,118	-0,028
-617,576	25,635	0,056	0,034
-616,561	800,000	-0,061	-0,129
-615,546	165,235	-0,036	0,037
-614,532	-125,970	0,041	-0,004
-613,517	-53,921	0,115	-0,038
-612,503	-200,000	0,007	-0,078
-611,488	22,746	-0,077	0,046
-610,474	128,493	-0,094	-0,088
-609,459	380,496	0,055	0,083
-608,444	-71,719	0,156	-0,043
-607,430	-4,353	0,058	-0,029
-606,415	-200,000	-0,004	0,016
-605,401	-74,195	0,163	0,043
-604,386	118,589	-0,065	-0,059
-603,371	449,165	-0,022	0,035
-602,357	-106,326	-0,035	-0,006
-601,342	-83,024	-0,091	0,021
-600,328	-200,000	-0,023	-0,119
-599,313	22,840	0,067	0,040
-598,298	515,618	-0,070	-0,120
-597,284	-80,731	-0,061	0,015
-596,269	-200,000	0,010	0,130
-595,255	-75,033	-0,135	-0,035
-594,240	346,696	0,069	-0,100
-593,225	266,160	-0,062	0,080
-592,211	-5,264	0,085	0,043
-591,196	-200,000	0,002	-0,026
-590,182	-200,000	0,003	0,020
-589,167	318,425	0,052	0,073
-588,152	-132,639	-0,161	0,015
-587,138	-62,689	0,045	-0,014
-586,123	-123,549	-0,179	-0,021
-585,109	-200,000	-0,002	0,012
-584,094	-200,000	-0,008	0,107
-583,079	494,461	0,062	0,105
-582,065	800,000	-0,033	0,091
-581,050	-26,409	0,060	0,026
-580,036	36,902	-0,109	-0,071
-579,021	-145,122	-0,049	0,003
-578,006	-200,000	-0,033	-0,165
-576,992	275,343	0,108	-0,141
-575,977	-106,948	0,104	-0,017
-574,963	-158,757	0,116	-0,005
-573,948	-19,049	0,028	0,013
-572,934	-200,000	-0,025	0,185
-571,919	-200,000	-0,021	-0,193
-570,904	800,000	0,041	-0,107
-569,890	-107,494	-0,080	0,013
-568,875	-7,431	0,035	-0,017
-567,861	62,246	0,071	-0,052
-566,846	-96,073	-0,028	0,005
-565,831	182,212	0,075	0,081
-564,817	-200,000	-0,141	0,000
-563,802	-200,000	-0,007	-0,062
-562,788	-200,000	0,015	-0,147
-561,773	-142,520	-0,137	0,010
-560,758	193,292	0,098	0,109
-559,744	-89,114	-0,051	-0,011
-558,729	-85,317	-0,099	0,022
-557,715	-200,000	-0,028	-0,241
-556,700	-70,547	-0,146	-0,040
-555,685	-95,017	0,086	0,017
-554,671	555,538	-0,048	-0,086
-553,656	-132,463	-0,099	0,009
-552,642	391,972	0,059	0,090
-551,627	113,991	0,011	-0,010
-550,612	647,162	0,015	0,027
-549,598	39,471	0,059	0,038
-548,583	13,209	-0,097	0,055
-547,569	-138,758	0,167	0,013
-546,554	-69,270	-0,095	0,027
-545,539	51,018	-0,044	0,031
-544,525	-31,458	-0,022	-0,009
-543,510	159,585	0,016	0,017
-542,496	11,229	0,045	0,025
-541,481	231,784	-0,070	-0,084
-540,466	-30,332	0,075	-0,031
-539,452	-153,005	-0,017	-0,001
-538,437	144,750	0,140	0,137
-537,423	-148,684	0,083	0,005
-536,408	64,236	-0,197	-0,145
-535,393	123,986	-0,026	-0,024
-534,379	138,670	-0,040	0,039
-533,364	46,367	-0,065	0,044
-532,350	-200,000	0,006	0,030
-531,335	-65,233	0,123	-0,036
-530,321	-81,759	0,045	-0,011
-529,306	-200,000	0,006	-0,067
-528,291	-50,394	-0,013	-0,004
-527,277	674,949	0,041	-0,079
-526,262	-97,437	-0,045	-0,009
-525,248	800,000	0,015	-0,032
-524,233	-200,000	0,008	0,051
-523,218	357,065	-0,022	0,033
-522,204	29,266	0,074	-0,046
-521,189	-200,000	0,001	-0,025
-520,175	-200,000	-0,038	-0,182
-519,160	800,000	-0,056	-0,173
-518,145	-86,842	0,154	-0,034
-517,131	640,842	-0,044	0,083
-516,116	552,985	-0,032	0,057
-515,102	97,917	-0,099	0,084
-514,087	23,901	-0,161	-0,097
-513,072	-200,000	-0,003	-0,129
-512,058	11,543	-0,091	-0,051
-511,043	416,877	0,043	-0,068
-510,029	290,108	0,009	0,012
-509,014	58,537	0,037	0,027
-507,999	800,000	0,034	0,098
-506,985	-60,862	0,104	0,032
-505,970	136,115	-0,055	-0,053
-504,956	418,702	0,021	0,033
-503,941	-200,000	0,002	-0,055
-502,926	669,500	0,049	0,093
-501,912	800,000	0,044	0,090
-500,897	102,773	-0,040	-0,035
-499,883	447,321	-0,029	-0,046
-498,868	-153,794	-0,105	0,005
-497,853	-200,000	-0,004	-0,051
-496,839	-129,441	0,154	0,015
-495,824	800,000	-0,043	0,102
-494,810	800,000	0,078	0,171
-493,795	92,698	-0,059	-0,049
-492,781	31,708	0,081	0,051
-491,766	141,704	0,068	-0,066
-490,751	-25,513	0,103	-0,044
-489,737	-76,084	0,061	0,016
-488,722	-200,000	-0,020	0,188
-487,708	60,777	0,043	0,031
-486,693	6,876	-0,047	0,025
-485,678	800,000	0,040	0,096
-484,664	-200,000	-0,024	-0,144
-483,649	-200,000	0,006	-0,058
-482,635	-107,833	-0,067	-0,010
-481,620	-200,000	-0,005	0,126
-480,605	43,985	0,047	0,031
-479,591	82,417	0,038	-0,030
-478,576	119,973	-0,041	-0,037
-477,562	-72,236	-0,049	0,013
-476,547	-200,000	0,013	-0,111
-475,532	523,245	-0,045	-0,078
-474,518	-74,298	0,151	0,040
-473,503	-19,646	-0,137	-0,062
-472,489	-18,531	0,139	0,063
-471,474	-200,000	-0,005	-0,057
-470,459	-87,237	0,157	0,035
-469,445	395,025	-0,031	0,047
-468,430	248,887	-0,030	-0,037
-467,416	-80,214	0,114	0,028
-466,401	240,330	-0,050	0,061
-465,386	683,759	0,031	0,060
-464,372	181,073	-0,035	0,037
-463,357	800,000	-0,054	-0,156
-462,343	-200,000	-0,002	0,061
-461,328	-65,311	-0,094	0,028
-460,313	-200,000	0,007	0,027
-459,299	-41,060	-0,140	-0,053
-458,284	18,276	0,077	0,044
-457,270	-200,000	-0,010	0,118
-456,255	-114,289	-0,108	-0,015
-455,241	242,085	0,025	0,030
-454,226	-200,000	0,032	-0,159
-453,211	184,088	-0,013	0,014
-452,197	41,911	-0,073	-0,048
-451,182	-200,000	0,011	0,048
-450,168	-66,311	0,019	-0,006
-449,153	501,868	0,072	-0,121
-448,138	-13,442	-0,049	0,023
-447,124	800,000	0,047	-0,140
-446,109	253,889	-0,050	0,062
-445,095	111,573	0,083	0,073
-444,080	176,551	-0,039	0,041
-443,065	701,507	0,029	0,057
-442,051	-55,659	-0,073	0,024
-441,036	16,290	-0,051	-0,030
-440,022	-126,919	-0,070	-0,007
-439,007	-200,000	-0,009	0,098
-437,992	-34,626	0,081	-0,032
-436,978	21,775	-0,105	-0,062
-435,963	238,167	0,027	0,033
-434,949	-200,000	-0,023	0,075
-433,934	21,643	0,070	-0,041
-432,919	-200,000	-0,017	0,086
-431,905	67,401	-0,057	0,043
-430,890	-200,000	0,030	0,105
-429,876	-200,000	0,001	0,096
-428,861	-37,987	-0,057	-0,022
-427,846	-35,608	-0,151	-0,060
-426,832	-161,546	-0,158	0,006
-425,817	-60,913	-0,139	-0,042
-424,803	387,790	0,056	0,084
-423,788	-49,877	0,094	0,032
-422,773	385,363	-0,058	0,088
-421,759	601,533	-0,051	-0,092
-420,744	-19,707	0,057	-0,025
-419,730	-68,741	-0,090	0,025
-418,715	-200,000	0,008	-0,025
-417,701	-200,000	0,020	-0,218
-416,686	-48,575	0,101	0,035
-415,671	52,899	-0,022	-0,015
-414,657	-200,000	0,019	0,232
-413,642	525,469	-0,033	0,057
-412,628	-200,000	-0,032	0,131
-411,613	800,000	-0,049	-0,143
-410,598	597,606	-0,048	-0,087
-409,584	173,217	0,070	0,073
-408,569	-12,490	-0,034	-0,016
-407,555	-29,327	0,052	0,021
-406,540	170,267	-0,032	0,033
-405,525	48,466	-0,072	0,049
-404,511	215,706	0,025	-0,029
-403,496	105,534	-0,081	-0,069
-402,482	125,116	0,030	-0,028
-401,467	-15,732	0,016	-0,007
-400,452	800,000	0,025	-0,056
-399,438	351,829	-0,059	0,085
-398,423	125,114	-0,008	0,008
-397,409	-112,602	-0,026	-0,004
-396,394	800,000	-0,008	0,021
-395,379	160,230	0,048	0,048
-394,365	113,385	0,072	0,063
-393,350	-14,107	0,104	0,049
-392,336	-41,274	-0,039	0,015
-391,321	-105,967	0,041	0,007
-390,306	527,165	0,018	0,032
-389,292	800,000	0,088	-0,242
-388,277	388,626	0,120	-0,181
-387,263	151,738	-0,117	0,116
-386,248	-13,246	0,088	-0,041
-385,233	355,881	0,062	0,090
-384,219	190,309	-0,052	-0,057
-383,204	42,916	0,040	0,026
-382,190	46,408	-0,090	-0,061
-381,175	47,097	-0,112	-0,076
-380,160	164,029	0,071	0,073
-379,146	527,114	0,025	-0,043
-378,131	313,156	0,031	-0,043
-377,117	-62,313	-0,116	0,035
-376,102	-117,192	0,072	0,009
-375,088	-154,717	-0,196	0,009
-374,073	-11,152	-0,060	-0,029
-373,058	-77,754	0,187	-0,047
-372,044	-200,000	-0,002	0,034
-371,029	4,319	-0,079	0,042
-370,015	-33,280	0,032	-0,013
-369,000	-200,000	0,021	-0,082
-367,985	7,826	-0,134	-0,073
-366,971	-104,303	-0,059	-0,010
-365,956	126,806	0,127	0,117
-364,942	43,555	0,139	0,093
-363,927	-200,000	-0,003	0,071
-362,912	82,569	-0,131	0,103
-361,898	57,240	-0,058	-0,041
-360,883	-200,000	-0,006	-0,069
-359,869	-200,000	0,001	-0,084
-358,854	-200,000	0,012	0,116
-357,839	-61,056	-0,041	-0,013
-356,825	-200,000	0,031	0,143
-355,810	33,950	-0,044	-0,028
-354,796	800,000	-0,059	0,124
-353,781	-200,000	0,027	-0,148
-352,766	-73,607	-0,069	-0,018
-351,752	465,699	0,045	0,074
-350,737	63,570	-0,102	0,074
-349,723	-200,000	0,004	0,079
-348,708	45,916	-0,031	-0,021
-347,693	173,494	0,050	0,052
-346,679	-28,538	0,108	-0,045
-345,664	800,000	0,013	-0,037
-344,650	161,251	0,078	0,079
-343,635	800,000	0,024	-0,073
-342,620	800,000	-0,051	0,112
-341,606	-0,101	0,061	-0,031
-340,591	200,589	0,091	-0,102
-339,577	-200,000	-0,006	0,029
-338,562	-130,803	0,080	0,008
-337,548	183,061	-0,070	0,075
-336,533	265,405	0,037	-0,047
-335,518	-118,648	0,114	-0,014
-334,504	-117,114	0,106	0,014
-333,489	729,932	0,064	-0,124
-332,475	-200,000	-0,001	-0,085
-331,460	-23,334	0,064	0,028
-330,445	-83,049	0,048	-0,011
-329,431	204,105	-0,057	-0,065
-328,416	-181,777	0,223	-0,003
-327,402	21,992	0,054	0,032
-326,387	470,903	-0,080	0,131
-325,372	-200,000	-0,000	-0,125
-324,358	-200,000	0,003	-0,060
-323,343	711,286	0,034	-0,065
-322,329	-200,000	0,034	0,134
-321,314	117,470	-0,058	0,052
-320,299	-128,035	-0,054	0,006
-319,285	19,350	0,045	0,026
-318,270	-200,000	-0,005	-0,058
-317,256	-145,013	-0,136	-0,009
-316,241	-200,000	0,005	0,023
-315,226	201,720	-0,005	0,006
-314,212	-39,422	0,056	0,021
-313,197	-44,206	0,071	0,026
-312,183	311,709	-0,120	0,164
-311,168	-113,021	0,159	-0,023
-310,153	652,673	-0,040	0,075
-309,139	-200,000	-0,039	-0,138
-308,124	154,561	-0,041	0,041
-307,110	-127,674	0,153	-0,016
-306,095	800,000	-0,038	-0,095
-305,080	-109,037	-0,102	0,016
-304,066	319,975	0,043	0,059
-303,051	-39,240	-0,092	-0,035
-302,037	-70,249	0,181	-0,050
-301,022	175,624	0,037	-0,039
-300,008	-200,000	-0,022	0,096
-298,993	-200,000	0,015	-0,103
-297,978	288,652	0,059	-0,077
-296,964	326,317	0,060	-0,084
-295,949	120,880	-0,055	-0,050
-294,935	587,147	-0,023	-0,041
-293,920	-200,000	0,039	-0,129
-292,905	28,599	-0,047	0,029
-291,891	-200,000	0,046	0,179
-290,876	-64,889	0,073	-0,021
-289,862	-106,738	-0,067	-0,011
-288,847	-200,000	-0,020	-0,098
-287,832	-106,798	-0,068	-0,011
-286,818	800,000	-0,032	-0,100
-285,803	-13,821	0,108	0,050
-284,789	-46,440	0,121	-0,043
-283,774	175,538	0,033	-0,035
-282,759	760,692	0,029	-0,057
-281,745	192,979	-0,059	0,065
-280,730	279,944	0,017	-0,023
-279,716	-200,000	-0,018	-0,151
-278,701	-64,778	0,231	0,067
-277,686	345,907	-0,098	-0,140
-276,672	-200,000	-0,004	0,074
-275,657	-200,000	0,024	0,117
-274,643	192,680	-0,050	-0,055
-273,628	5,373	0,040	-0,021
-272,613	-147,090	-0,061	-0,004
-271,599	89,690	0,114	0,092
-270,584	483,285	0,078	0,129
-269,570	330,873	0,044	-0,061
-268,555	800,000	0,040	0,096
-267,540	-68,561	0,136	0,038
-266,526	797,236	0,031	0,063
-265,511	-166,872	-0,074	-0,002
-264,497	26,220	0,097	0,058
-263,482	112,974	0,026	0,022
-262,467	153,081	0,022	-0,022
-261,453	-5,998	0,158	-0,078
-260,438	57,585	0,032	-0,023
-259,424	594,270	-0,050	0,090
-258,409	113,118	-0,077	-0,068
-257,395	-135,126	0,118	0,010
-256,380	159,287	0,058	-0,058
-255,365	219,697	-0,066	0,077
-254,351	-200,000	0,003	0,053
-253,336	-89,318	-0,028	-0,006
-252,322	-1,043	0,069	-0,035
-251,307	73,117	-0,039	0,029
-250,292	800,000	-0,045	0,101
-249,278	-133,857	0,028	0,002
-248,263	-200,000	0,018	0,141
-247,249	-157,719	0,054	0,002
-246,234	-111,656	-0,074	-0,011
-245,219	-200,000	0,039	-0,131
-244,205	-200,000	-0,042	-0,134
-243,190	-200,000	0,017	0,072
-242,176	-150,732	0,064	-0,003
-241,161	78,459	0,088	-0,068
-240,146	-41,026	0,066	0,024
-239,132	-109,109	-0,047	0,007
-238,117	128,616	-0,060	0,055
-237,103	-144,942	0,182	0,012
-236,088	131,005	-0,074	-0,069
-235,073	-200,000	-0,001	-0,012
-234,059	-57,588	-0,192	0,061
-233,044	38,772	-0,007	-0,004
-232,030	-52,965	0,039	0,013
-231,015	-40,318	-0,139	0,052
-230,000	-90,210	-0,078	-0,016
-228,986	303,514	-0,088	0,118
-227,971	296,346	0,151	-0,201
-226,957	52,075	-0,060	-0,041
-225,942	800,000	-0,084	-0,212
-224,927	25,361	-0,112	0,067
-223,913	-37,561	-0,089	0,034
-222,898	178,505	0,049	0,052
-221,884	-11,525	-0,104	0,049
-220,869	-91,134	-0,061	-0,013
-219,855	-200,000	0,014	0,061
-218,840	116,703	-0,091	0,081
-217,825	800,000	0,037	-0,076
-216,811	-60,806	-0,140	-0,042
-215,796	-20,607	-0,102	-0,045
-214,782	-50,590	-0,026	-0,009
-213,767	-55,144	0,067	0,022
-212,752	286,849	0,095	0,125
-211,738	160,660	-0,129	0,130
-210,723	-29,200	0,065	0,027
-209,709	597,128	-0,014	-0,025
-208,694	190,841	0,065	-0,071
-207,679	800,000	-0,053	-0,122
-206,665	355,341	-0,019	-0,027
-205,650	81,051	0,069	-0,054
-204,636	148,663	-0,123	0,120
-203,621	73,077	-0,005	-0,004
-202,606	49,547	0,058	0,039
-201,592	-94,878	-0,046	-0,009
-200,577	98,490	-0,092	0,076
-199,563	-200,000	-0,013	0,055
-198,548	-84,647	-0,141	0,032
-197,533	800,000	-0,029	-0,090
-196,519	18,359	-0,036	0,021
-195,504	-138,937	0,056	-0,004
-194,490	398,859	0,016	-0,025
-193,475	-34,520	-0,021	0,008
-192,460	800,000	-0,031	-0,078
-191,446	119,027	0,091	-0,081
-190,431	-200,000	0,008	0,174
-189,417	-64,379	0,021	0,006
-188,402	800,000	0,037	-0,108
-187,387	-81,351	-0,172	0,041
-186,373	-106,236	0,111	-0,018
-185,358	196,339	0,012	0,013
-184,344	-200,000	0,004	-0,051
-183,329	35,269	0,103	-0,065
-182,315	-200,000	0,019	-0,072
-181,300	80,172	-0,064	-0,050
-180,285	-200,000	-0,001	-0,013
-179,271	202,783	-0,047	0,052
-178,256	-110,556	0,137	-0,020
-177,242	-200,000	-0,026	0,167
-176,227	-138,168	0,051	-0,004
-175,212	129,483	0,085	0,079
-174,198	185,964	-0,109	0,117
-173,183	-169,966	-0,125	-0,003
-172,169	-42,872	-0,086	-0,031
-171,154	-58,303	-0,071	0,022
-170,139	-158,172	-0,034	0,001
-169,125	80,055	-0,040	0,031
-168,110	70,641	-0,014	-0,010
-167,096	-42,242	0,084	-0,031
-166,081	-200,000	0,020	-0,085
-165,066	-142,055	-0,107	-0,008
-164,052	274,464	0,094	-0,120
-163,037	-200,000	-0,005	0,073
-162,023	-148,272	-0,054	-0,003
-161,008	-141,733	0,108	-0,008
-159,993	800,000	-0,022	-0,051
-158,979	800,000	-0,063	0,167
-157,964	-20,001	0,071	0,032
-156,950	10,685	0,121	0,066
-155,935	-200,000	0,003	-0,018
-154,920	-200,000	-0,040	-0,158
-153,906	-59,378	0,116	-0,036
-152,891	275,363	0,054	0,069
-151,877	-200,000	0,030	-0,111
-150,862	-200,000	0,012	-0,127
-149,847	-200,000	-0,002	0,020
-148,833	188,522	-0,086	0,093
-147,818	2,709	0,104	0,054
-146,804	176,880	0,153	0,161
-145,789	164,612	0,092	0,093
-144,775	800,000	-0,023	-0,053
-143,760	28,589	-0,114	0,070
-142,745	-100,744	0,091	0,016
-141,731	-200,000	-0,019	0,102
-140,716	-14,466	-0,062	0,029
-139,702	55,080	0,063	-0,044
-138,687	-114,099	0,118	-0,016
-137,672	30,217	0,055	0,033
-136,658	-33,719	0,118	0,047
-135,643	-200,000	-0,009	0,065
-134,629	655,648	-0,019	0,035
-133,614	163,588	-0,066	0,067
-132,599	-200,000	0,036	0,176
-131,585	-21,927	0,027	-0,012
-130,570	487,376	0,018	-0,030
-129,556	691,833	-0,022	-0,042
-128,541	-34,406	-0,085	0,033
-127,526	-200,000	-0,008	-0,135
-126,512	-11,174	0,249	-0,118
-125,497	9,761	0,055	0,030
-124,483	9,673	0,063	0,034
-123,468	16,012	-0,102	-0,057
-122,453	-200,000	0,005	0,084
-121,439	-19,803	0,148	-0,065
-120,424	-200,000	-0,007	0,095
-119,410	-200,000	-0,001	0,028
