DTS Sentinel unit serial number:	SN410029Multiplexer serial number:	ORYXHardware model number:	OX2-SRSoftware version number:	ORYX F/W v4,00 Oryx Data Collector v3.7.2.0data status	okinstallation	B5 Nyhavnadifferential loss correction	single-endedforward channel	channel 2reverse channel	N/Adate	2023/12/13time	16:27:14forward acquisition time	300,00reverse acquisition time	0,00gamma	499,1914k internal	0,3159k external	0,3159temperature offset calibration	1,0000default loss term (dB/km)	0,3820temperature slope calibration	1,0000multiplexer offset coefficient	1,0000multiplexer slope coefficient	1,0000fibre end	0,00T internal ref (°C)	14,74T ext. ref 1 (°C)	-2,15T ext. ref 2 (°C)	-2,25length (m)	temperature (°C)	Stokes	anti-Stokes-744,400	107,362	0,124	0,108
-743,385	-116,723	-0,388	0,052
-742,371	29,125	0,073	0,045
-741,356	12,979	-0,273	0,155
-740,342	184,075	0,144	0,157
-739,327	-109,744	-0,304	0,047
-738,312	-200,000	0,045	0,190
-737,298	-99,096	-0,377	-0,070
-736,283	39,625	0,054	-0,036
-735,269	-97,270	-0,204	0,039
-734,254	-122,792	0,131	0,015
-733,239	-64,264	-0,459	-0,137
-732,225	23,150	0,212	0,128
-731,210	97,857	-0,086	0,073
-730,196	43,665	-0,126	0,085
-729,181	17,857	-0,068	-0,040
-728,167	800,000	-0,042	-0,093
-727,152	-200,000	-0,010	-0,102
-726,137	18,347	-0,115	-0,068
-725,123	-65,784	0,067	0,020
-724,108	800,000	-0,018	-0,043
-723,094	721,225	0,015	0,029
-722,079	-49,534	-0,175	-0,061
-721,064	-200,000	-0,009	0,079
-720,050	-200,000	0,010	-0,044
-719,035	362,670	-0,041	0,061
-718,021	-200,000	0,003	-0,116
-717,006	-135,375	-0,174	-0,015
-715,991	688,222	0,014	0,028
-714,977	-200,000	0,017	0,101
-713,962	439,561	0,045	-0,072
-712,948	-67,529	0,091	-0,026
-711,933	9,207	-0,151	0,084
-710,918	91,300	0,016	0,013
-709,904	302,398	-0,077	-0,105
-708,889	800,000	-0,021	-0,059
-707,875	34,673	0,090	-0,058
-706,860	490,550	-0,072	0,122
-705,845	147,851	-0,104	-0,103
-704,831	695,972	0,041	0,079
-703,816	-108,155	-0,089	0,014
-702,802	-42,663	0,104	-0,039
-701,787	-200,000	0,003	-0,047
-700,772	179,797	-0,067	0,072
-699,758	-38,661	-0,090	-0,035
-698,743	-200,000	-0,019	-0,080
-697,729	515,829	-0,067	-0,115
-696,714	800,000	0,026	0,061
-695,699	-125,928	-0,228	-0,025
-694,685	-61,268	-0,038	0,012
-693,670	726,821	-0,056	0,111
-692,656	-42,982	-0,061	0,023
-691,641	-27,780	-0,083	0,035
-690,627	258,956	-0,066	-0,084
-689,612	-200,000	-0,006	-0,023
-688,597	-200,000	-0,020	0,081
-687,583	33,661	-0,064	0,041
-686,568	-72,171	-0,105	0,028
-685,554	-35,781	0,060	-0,024
-684,539	653,091	-0,027	-0,051
-683,524	-116,544	0,228	-0,031
-682,510	-140,894	-0,044	-0,003
-681,495	-26,530	0,063	0,027
-680,481	32,422	-0,063	0,040
-679,466	-200,000	-0,024	0,089
-678,451	-108,906	-0,117	0,018
-677,437	785,788	-0,038	0,077
-676,422	34,615	0,050	-0,032
-675,408	-200,000	-0,013	0,112
-674,393	-40,915	-0,024	0,009
-673,378	-123,845	-0,099	0,011
-672,364	-113,302	-0,025	-0,004
-671,349	800,000	-0,023	0,055
-670,335	167,189	-0,071	-0,074
-669,320	-200,000	-0,022	0,085
-668,305	800,000	0,031	0,074
-667,291	800,000	0,008	0,021
-666,276	120,115	-0,128	-0,117
-665,262	-69,703	-0,094	-0,026
-664,247	263,904	-0,025	0,032
-663,232	107,694	0,075	-0,065
-662,218	422,798	-0,015	0,023
-661,203	785,220	-0,013	-0,026
-660,189	-53,332	-0,138	-0,046
-659,174	83,131	0,074	0,060
-658,159	84,556	0,108	-0,087
-657,145	-88,329	0,023	-0,005
-656,130	116,939	-0,069	0,062
-655,116	-102,693	0,031	-0,005
-654,101	-90,077	0,127	0,027
-653,086	-24,058	-0,090	-0,039
-652,072	155,327	-0,077	-0,078
-651,057	-104,562	-0,179	0,030
-650,043	618,784	0,016	0,029
-649,028	679,518	-0,007	0,013
-648,014	258,586	0,019	0,025
-646,999	-200,000	0,035	0,180
-645,984	800,000	-0,035	0,110
-644,970	433,013	0,038	0,061
-643,955	300,170	0,013	0,018
-642,941	5,211	-0,015	0,008
-641,926	573,887	-0,058	-0,105
-640,911	57,510	0,111	-0,079
-639,897	-200,000	0,022	0,229
-638,882	121,971	-0,077	-0,071
-637,868	-143,177	0,108	0,007
-636,853	-200,000	0,002	-0,142
-635,838	201,692	-0,051	-0,057
-634,824	-200,000	0,008	-0,042
-633,809	640,429	-0,005	-0,009
-632,795	28,747	0,056	0,035
-631,780	-38,699	-0,107	-0,041
-630,765	403,530	-0,055	-0,085
-629,751	-116,747	-0,013	-0,002
-628,736	252,411	0,067	-0,085
-627,722	-200,000	0,030	-0,157
-626,707	42,195	-0,077	-0,051
-625,692	38,556	0,038	0,025
-624,678	-200,000	0,030	0,120
-623,663	41,948	0,082	-0,054
-622,649	-200,000	-0,010	-0,079
-621,634	428,528	-0,023	-0,037
-620,619	-200,000	-0,013	-0,049
-619,605	-10,056	-0,045	0,022
-618,590	-166,794	0,145	-0,004
-617,576	-200,000	-0,010	-0,089
-616,561	-131,276	0,113	0,011
-615,546	151,828	0,005	0,005
-614,532	-200,000	-0,011	-0,121
-613,517	-96,928	0,139	-0,026
-612,503	196,054	-0,084	-0,094
-611,488	229,267	0,116	-0,139
-610,474	800,000	0,052	0,110
-609,459	-66,865	0,056	0,016
-608,444	800,000	0,014	0,031
-607,430	-6,550	-0,118	-0,059
-606,415	428,151	0,067	-0,106
-605,401	-72,423	0,113	-0,031
-604,386	7,705	-0,021	-0,012
-603,371	-113,593	-0,039	-0,005
-602,357	320,674	-0,033	0,046
-601,342	-83,620	-0,185	0,043
-600,328	-47,126	-0,100	0,035
-599,313	-200,000	0,001	-0,077
-598,298	253,798	0,079	-0,099
-597,284	162,034	0,057	-0,058
-596,269	605,491	0,019	0,035
-595,255	-59,865	0,122	0,038
-594,240	44,059	0,047	-0,031
-593,225	698,613	-0,056	-0,108
-592,211	59,087	-0,072	-0,052
-591,196	-60,406	-0,075	0,023
-590,182	-66,928	0,116	-0,033
-589,167	-178,377	0,099	0,002
-588,152	-87,493	-0,076	0,017
-587,138	-200,000	0,003	0,044
-586,123	-200,000	0,007	-0,026
-585,109	-9,514	-0,106	0,052
-584,094	586,030	-0,038	-0,069
-583,079	-77,544	-0,107	0,027
-582,065	117,640	0,078	-0,070
-581,050	796,135	-0,017	-0,035
-580,036	36,565	-0,061	-0,039
-579,021	713,462	0,036	-0,070
-578,006	216,672	-0,030	-0,035
-576,992	199,215	-0,038	0,043
-575,977	3,606	-0,152	-0,081
-574,963	800,000	-0,019	-0,041
-573,948	-47,783	0,043	0,015
-572,934	-105,277	-0,156	-0,026
-571,919	-11,908	0,042	-0,020
-570,904	800,000	0,033	0,082
-569,890	-200,000	-0,011	0,086
-568,875	-200,000	0,116	0,000
-567,861	-200,000	0,009	0,104
-566,846	-179,070	0,117	0,002
-565,831	-200,000	0,019	-0,110
-564,817	-200,000	-0,017	0,077
-563,802	431,303	-0,087	-0,138
-562,788	675,453	0,006	0,012
-561,773	-34,473	0,009	0,004
-560,758	-200,000	-0,008	-0,071
-559,744	-200,000	-0,002	-0,124
-558,729	261,124	-0,062	-0,078
-557,715	-31,979	-0,035	-0,014
-556,700	-200,000	-0,024	0,203
-555,685	-200,000	0,008	0,067
-554,671	112,874	0,078	-0,070
-553,656	27,214	-0,054	-0,033
-552,642	-200,000	0,036	0,144
-551,627	91,409	-0,057	0,047
-550,612	800,000	-0,049	-0,120
-549,598	146,552	-0,044	0,043
-548,583	-200,000	0,013	0,173
-547,569	-73,465	-0,121	0,032
-546,554	-187,295	-0,060	0,001
-545,539	183,618	0,079	0,085
-544,525	-94,656	0,040	0,008
-543,510	-177,162	-0,054	-0,001
-542,496	-20,418	-0,072	-0,032
-541,481	110,136	-0,030	-0,026
-540,466	800,000	0,030	-0,071
-539,452	800,000	0,012	0,036
-538,437	124,639	-0,064	-0,058
-537,423	-75,819	-0,024	0,006
-536,408	-200,000	0,001	-0,014
-535,393	-200,000	-0,003	-0,122
-534,379	-200,000	-0,037	-0,128
-533,364	351,630	0,012	0,017
-532,350	147,526	0,050	0,049
-531,335	-27,647	-0,113	0,048
-530,321	-14,265	0,115	-0,054
-529,306	-200,000	0,005	0,033
-528,291	-75,772	0,067	0,017
-527,277	204,259	0,029	-0,033
-526,262	221,126	-0,035	-0,041
-525,248	26,046	-0,038	-0,023
-524,233	-200,000	0,033	0,137
-523,218	117,359	-0,025	0,023
-522,204	64,715	0,067	-0,049
-521,189	317,840	0,029	0,040
-520,175	89,509	-0,062	-0,050
-519,160	800,000	-0,069	-0,166
-518,145	-200,000	0,004	-0,045
-517,131	-8,670	0,112	-0,055
-516,116	-200,000	-0,011	0,140
-515,102	-200,000	-0,002	0,091
-514,087	800,000	-0,021	0,045
-513,072	60,715	0,093	0,067
-512,058	-200,000	-0,028	-0,123
-511,043	-13,146	0,021	0,010
-510,029	62,916	-0,123	0,090
-509,014	-114,393	0,041	-0,006
-507,999	800,000	-0,079	0,196
-506,985	-31,581	0,034	-0,014
-505,970	404,816	0,076	-0,117
-504,956	88,072	0,023	0,018
-503,941	183,513	0,069	0,074
-502,926	16,868	0,086	0,050
-501,912	573,288	0,058	0,104
-500,897	-18,826	-0,060	0,027
-499,883	-144,388	-0,104	0,007
-498,868	111,951	-0,134	-0,118
-497,853	30,311	-0,061	0,038
-496,839	99,176	-0,041	-0,034
-495,824	111,622	0,070	0,062
-494,810	-200,000	-0,006	0,025
-493,795	11,592	-0,083	0,046
-492,781	-43,358	-0,075	0,028
-491,766	-104,756	-0,065	-0,011
-490,751	800,000	0,053	0,123
-489,737	800,000	-0,033	-0,082
-488,722	800,000	0,020	-0,055
-487,708	-43,717	0,099	0,036
-486,693	83,871	-0,100	0,079
-485,678	800,000	-0,028	0,079
-484,664	-200,000	0,002	-0,044
-483,649	247,067	-0,084	-0,103
-482,635	-171,731	0,069	0,002
-481,620	-51,751	0,174	-0,059
-480,605	-87,918	-0,139	0,030
-479,591	73,390	0,022	0,017
-478,576	276,407	-0,056	0,073
-477,562	364,329	0,033	0,048
-476,547	209,266	-0,068	0,078
-475,532	-39,751	-0,104	0,039
-474,518	737,343	-0,058	0,114
-473,503	8,352	0,070	0,038
-472,489	-90,889	0,124	0,026
-471,474	-200,000	0,021	0,086
-470,459	266,563	-0,086	-0,110
-469,445	-200,000	0,009	0,092
-468,430	-200,000	0,036	0,115
-467,416	-98,859	0,090	0,017
-466,401	58,239	0,043	0,031
-465,386	800,000	0,041	0,127
-464,372	642,526	0,034	0,063
-463,357	800,000	-0,025	-0,062
-462,343	252,324	0,050	0,063
-461,328	-101,849	0,036	-0,006
-460,313	-200,000	0,022	-0,107
-459,299	800,000	-0,018	-0,052
-458,284	448,312	-0,052	0,084
-457,270	176,287	0,152	0,161
-456,255	-67,100	-0,136	0,039
-455,241	77,272	0,088	-0,068
-454,226	-200,000	-0,032	-0,108
-453,211	90,887	0,012	0,010
-452,197	-200,000	-0,000	-0,038
-451,182	-200,000	0,001	-0,173
-450,168	330,018	-0,033	0,046
-449,153	-92,375	-0,053	0,011
-448,138	-200,000	-0,010	-0,044
-447,124	236,368	-0,090	-0,108
-446,109	800,000	-0,048	-0,098
-445,095	-106,009	0,120	-0,019
-444,080	298,544	0,083	-0,112
-443,065	-154,265	-0,106	0,005
-442,051	-200,000	-0,015	0,152
-441,036	215,410	0,068	-0,079
-440,022	-40,306	-0,071	0,027
-439,007	73,999	0,083	-0,063
-437,992	139,498	-0,079	0,076
-436,978	1,431	0,039	-0,021
-435,963	30,560	0,080	0,050
-434,949	-42,767	0,126	0,046
-433,934	46,311	0,007	0,005
-432,919	-200,000	0,023	-0,075
-431,905	-89,525	-0,162	-0,034
-430,890	-200,000	-0,003	-0,038
-429,876	277,744	0,079	0,103
-428,861	-57,728	-0,151	-0,048
-427,846	-95,234	-0,052	0,010
-426,832	-134,264	-0,060	0,005
-425,817	-200,000	-0,012	-0,082
-424,803	-87,036	-0,142	0,031
-423,788	65,615	0,043	-0,032
-422,773	237,713	-0,017	-0,021
-421,759	-200,000	-0,005	0,034
-420,744	-66,555	-0,075	0,022
-419,730	214,354	-0,053	0,062
-418,715	800,000	0,034	0,087
-417,701	800,000	-0,016	-0,044
-416,686	251,405	0,042	0,052
-415,671	-200,000	-0,012	-0,073
-414,657	800,000	0,025	-0,050
-413,642	-142,973	-0,107	-0,007
-412,628	-73,908	0,137	0,036
-411,613	7,434	-0,137	-0,074
-410,598	126,741	-0,067	0,061
-409,584	107,051	0,085	0,073
-408,569	-200,000	0,008	0,044
-407,555	-35,529	0,162	-0,064
-406,540	32,615	-0,073	0,046
-405,525	-200,000	0,017	-0,127
-404,511	190,897	-0,008	-0,009
-403,496	139,960	0,147	-0,141
-402,482	-200,000	-0,008	-0,053
-401,467	28,462	0,127	-0,078
-400,452	18,215	-0,038	-0,022
-399,438	51,847	-0,070	0,048
-398,423	120,792	-0,018	-0,016
-397,409	24,535	-0,063	0,038
-396,394	-200,000	-0,011	-0,052
-395,379	800,000	-0,044	0,119
-394,365	-167,602	0,121	-0,003
-393,350	-61,388	0,122	0,037
-392,336	-200,000	0,000	0,008
-391,321	-27,337	0,094	-0,040
-390,306	-200,000	-0,024	-0,081
-389,292	-200,000	-0,034	-0,123
-388,277	-200,000	-0,030	0,125
-387,263	-13,281	0,076	-0,036
-386,248	-200,000	-0,022	0,097
-385,233	-104,802	0,131	-0,022
-384,219	17,565	0,126	-0,073
-383,204	320,642	-0,080	0,110
-382,190	-200,000	0,016	-0,132
-381,175	171,072	0,089	-0,092
-380,160	-200,000	-0,003	0,091
-379,146	-170,855	-0,053	-0,001
-378,131	-91,618	0,104	0,021
-377,117	299,220	-0,053	0,071
-376,102	800,000	0,015	-0,034
-375,088	-200,000	-0,013	0,077
-374,073	148,152	-0,028	-0,027
-373,058	97,856	0,094	-0,079
-372,044	172,777	0,058	-0,061
-371,029	-122,437	-0,115	0,013
-370,015	-25,030	0,025	0,011
-369,000	-200,000	-0,002	-0,204
-367,985	277,816	0,034	-0,044
-366,971	228,329	-0,037	-0,044
-365,956	-97,328	-0,089	0,017
-364,942	800,000	-0,038	0,076
-363,927	46,062	0,110	0,074
-362,912	800,000	-0,060	-0,165
-361,898	207,838	0,034	0,038
-360,883	305,734	-0,053	0,071
-359,869	146,427	-0,105	-0,102
-358,854	-86,388	-0,045	0,010
-357,839	800,000	0,045	0,091
-356,825	73,807	0,057	0,043
-355,810	182,788	0,035	-0,037
-354,796	-23,299	-0,155	-0,067
-353,781	566,582	0,034	-0,061
-352,766	800,000	-0,021	-0,054
-351,752	-147,569	0,049	0,003
-350,737	-36,701	0,103	-0,040
-349,723	13,717	-0,060	-0,034
-348,708	467,705	0,049	-0,080
-347,693	-117,867	-0,116	-0,015
-346,679	-127,717	0,139	0,014
-345,664	3,730	0,032	0,017
-344,650	-157,575	0,167	0,007
-343,635	334,793	0,029	0,041
-342,620	56,685	0,134	0,095
-341,606	-200,000	0,023	-0,142
-340,591	126,100	-0,063	-0,058
-339,577	800,000	-0,026	-0,054
-338,562	-152,399	0,078	0,004
-337,548	-115,352	-0,027	-0,004
-336,533	221,267	-0,082	-0,096
-335,518	107,389	0,070	-0,060
-334,504	-200,000	0,013	0,076
-333,489	47,577	0,077	0,052
-332,475	-77,488	-0,060	0,015
-331,460	-200,000	0,040	0,132
-330,445	557,575	0,042	-0,074
-329,431	-200,000	-0,010	0,152
-328,416	-200,000	-0,009	0,102
-327,402	29,895	0,077	0,048
-326,387	-200,000	0,000	0,017
-325,372	-2,995	-0,099	0,050
-324,358	-200,000	0,012	-0,089
-323,343	454,935	0,022	-0,036
-322,329	27,586	0,060	-0,037
-321,314	-107,767	0,110	-0,017
-320,299	800,000	-0,041	0,121
-319,285	433,993	0,061	0,097
-318,270	266,499	0,047	0,060
-317,256	-200,000	0,037	-0,142
-316,241	36,254	0,014	0,009
-315,226	245,486	0,028	0,034
-314,212	-105,724	0,087	0,014
-313,197	-200,000	0,038	0,157
-312,183	-79,610	-0,065	0,016
-311,168	-200,000	0,000	0,021
-310,153	420,995	0,038	0,060
-309,139	-13,654	-0,123	0,058
-308,124	-1,933	0,037	0,019
-307,110	111,177	-0,040	0,035
-306,095	273,272	-0,075	0,096
-305,080	514,887	0,064	0,108
-304,066	-82,566	-0,021	-0,005
-303,051	273,636	-0,072	0,092
-302,037	89,324	0,028	-0,023
-301,022	20,771	0,075	-0,044
-300,008	-72,084	0,107	0,029
-298,993	330,290	0,055	-0,077
-297,978	179,979	0,067	-0,072
-296,964	-98,257	0,072	0,013
-295,949	-158,517	0,045	0,002
-294,935	43,836	-0,116	-0,077
-293,920	63,478	0,055	0,040
-292,905	212,434	-0,084	-0,096
-291,891	730,709	-0,021	0,042
-290,876	-134,233	0,094	0,008
-289,862	179,452	0,073	0,078
-288,847	-143,092	0,049	0,003
-287,832	-50,273	0,084	0,029
-286,818	33,034	-0,077	0,048
-285,803	-200,000	-0,004	0,055
-284,789	-106,585	0,090	-0,014
-283,774	-97,077	-0,029	-0,005
-282,759	5,888	-0,118	-0,063
-281,745	480,855	0,030	0,049
-280,730	-33,128	-0,087	-0,035
-279,716	202,687	-0,098	0,110
-278,701	9,858	-0,096	-0,053
-277,686	-18,412	-0,052	-0,024
-276,672	-25,340	0,047	-0,020
-275,657	-200,000	-0,029	-0,174
-274,643	278,605	-0,055	-0,072
-273,628	-200,000	-0,008	0,094
-272,613	721,644	-0,024	0,047
-271,599	128,123	0,053	0,049
-270,584	-113,278	-0,066	0,009
-269,570	-182,536	0,126	0,002
-268,555	-200,000	0,015	-0,101
-267,540	101,065	-0,032	-0,027
-266,526	-99,640	-0,184	-0,033
-265,511	162,338	-0,022	0,022
-264,497	-159,870	0,081	0,003
-263,482	-111,806	-0,087	0,013
-262,467	-40,029	0,031	-0,012
-261,453	-200,000	-0,001	0,016
-260,438	13,764	-0,093	-0,052
-259,424	129,876	-0,061	-0,056
-258,409	800,000	0,041	-0,100
-257,395	-55,857	0,051	0,016
-256,380	800,000	0,018	0,056
-255,365	-74,918	-0,032	-0,008
-254,351	-108,784	0,139	-0,021
-253,336	-142,329	-0,080	0,006
-252,322	113,577	-0,080	-0,070
-251,307	536,754	0,015	-0,025
-250,292	-200,000	-0,011	0,054
-249,278	84,263	0,054	-0,043
-248,263	-20,183	0,056	0,025
-247,249	-100,530	0,090	0,016
-246,234	184,381	-0,055	0,059
-245,219	317,744	0,037	0,051
-244,205	-122,359	-0,048	-0,006
-243,190	308,594	-0,050	0,068
-242,176	89,834	-0,050	0,041
-241,161	597,426	-0,057	0,102
-240,146	-67,518	0,055	-0,016
-239,132	294,537	-0,093	0,123
-238,117	-200,000	-0,009	0,033
-237,103	563,525	-0,085	-0,149
-236,088	157,234	-0,048	-0,048
-235,073	290,357	0,076	0,100
-234,059	-74,799	0,087	0,022
-233,044	370,312	0,084	-0,124
-232,030	700,531	-0,030	-0,056
-231,015	501,654	-0,044	-0,074
-230,000	800,000	0,060	-0,138
-228,986	-6,880	0,093	0,045
-227,971	800,000	-0,047	0,101
-226,957	-200,000	-0,016	0,147
-225,942	-5,497	-0,081	-0,040
-224,927	518,054	-0,056	0,094
-223,913	85,549	-0,104	0,082
-222,898	-200,000	0,002	-0,023
-221,884	800,000	0,019	0,047
-220,869	117,641	0,044	-0,039
-219,855	-92,752	-0,191	-0,038
-218,840	190,666	-0,046	-0,050
-217,825	-200,000	-0,013	0,098
-216,811	-94,860	-0,198	-0,038
-215,796	-200,000	-0,029	-0,138
-214,782	-200,000	0,010	-0,047
-213,767	-71,191	0,109	-0,029
-212,752	-117,684	-0,024	-0,003
-211,738	-95,717	0,120	-0,023
-210,723	-200,000	0,021	0,143
-209,709	219,503	0,065	0,076
-208,694	-200,000	0,011	-0,048
-207,679	-200,000	0,002	0,053
-206,665	379,807	-0,074	0,110
-205,650	800,000	0,047	0,111
-204,636	-61,880	0,099	-0,030
-203,621	-200,000	-0,017	0,078
-202,606	-200,000	0,010	0,075
-201,592	800,000	0,023	-0,065
-200,577	257,797	0,058	-0,072
-199,563	123,287	0,028	-0,025
-198,548	195,622	-0,033	0,036
-197,533	198,956	-0,076	0,084
-196,519	-36,645	0,072	0,028
-195,504	800,000	-0,023	-0,045
-194,490	240,385	0,060	0,073
-193,475	800,000	-0,030	-0,092
-192,460	71,616	-0,051	0,038
-191,446	269,152	-0,039	0,049
-190,431	-39,495	-0,108	0,041
-189,417	-59,614	-0,104	-0,032
-188,402	-2,436	-0,026	-0,013
-187,387	18,529	0,098	-0,056
-186,373	-64,162	0,070	0,020
-185,358	-147,075	-0,019	-0,001
-184,344	618,365	0,044	0,080
-183,329	-88,447	0,160	-0,034
-182,315	0,379	-0,116	0,059
-181,300	-108,908	-0,110	0,017
-180,285	-7,199	-0,209	0,102
-179,271	50,706	-0,107	-0,073
-178,256	-200,000	0,008	-0,078
-177,242	261,168	0,094	0,117
-176,227	34,944	-0,066	0,041
-175,212	263,809	0,046	-0,058
-174,198	-200,000	-0,019	-0,082
-173,183	206,097	-0,142	-0,160
-172,169	651,243	-0,067	-0,124
-171,154	-200,000	0,004	0,063
-170,139	-200,000	0,031	-0,104
-169,125	800,000	0,044	0,139
-168,110	69,029	0,105	0,078
-167,096	-200,000	0,023	0,080
-166,081	214,392	-0,048	0,055
-165,066	-110,215	-0,162	-0,024
-164,052	-200,000	0,005	-0,079
-163,037	-200,000	-0,005	0,152
-162,023	300,927	-0,008	0,011
-161,008	-200,000	0,007	0,064
-159,993	-59,359	0,103	-0,032
-158,979	3,378	-0,075	0,039
-157,964	-59,871	0,067	0,021
-156,950	68,001	-0,082	-0,060
-155,935	-26,129	0,080	0,034
-154,920	465,774	0,019	-0,031
-153,906	-192,695	0,133	-0,001
-152,891	-200,000	0,017	-0,146
-151,877	-200,000	-0,046	0,166
-150,862	-15,740	0,033	-0,015
-149,847	148,646	0,045	-0,043
-148,833	513,651	0,039	-0,066
-147,818	273,801	0,100	-0,127
-146,804	137,399	0,108	0,102
-145,789	800,000	-0,046	-0,117
-144,775	-18,472	-0,077	-0,034
-143,760	270,746	-0,043	0,055
-142,745	-126,507	-0,085	-0,009
-141,731	-200,000	-0,005	0,030
-140,716	38,096	0,112	-0,071
-139,702	-191,352	0,181	-0,001
-138,687	-4,629	0,132	-0,066
-137,672	-66,765	-0,053	-0,015
-136,658	136,901	-0,029	-0,027
-135,643	37,150	-0,178	-0,113
-134,629	800,000	0,007	-0,020
-133,614	800,000	-0,017	0,040
-132,599	-84,358	0,110	-0,025
-131,585	-45,056	0,093	0,033
-130,570	134,565	0,050	-0,047
-129,556	189,235	-0,038	-0,041
-128,541	170,402	0,007	0,007
-127,526	-45,835	-0,137	0,048
-126,512	-200,000	0,010	0,111
-125,497	-200,000	-0,011	0,089
-124,483	-200,000	-0,001	0,083
-123,468	203,072	0,073	0,081
-122,453	-124,960	-0,162	-0,018
-121,439	-173,081	-0,044	-0,001
-120,424	-200,000	-0,025	0,105
-119,410	-200,000	0,021	0,150
-118,395	259,651	0,046	0,058
