DTS Sentinel unit serial number:	SN410029Multiplexer serial number:	ORYXHardware model number:	OX2-SRSoftware version number:	ORYX F/W v4,00 Oryx Data Collector v3.7.2.0data status	okinstallation	B5 Nyhavnadifferential loss correction	single-endedforward channel	channel 2reverse channel	N/Adate	2023/12/13time	04:47:13forward acquisition time	300,00reverse acquisition time	0,00gamma	499,1914k internal	0,3160k external	0,3160temperature offset calibration	1,0000default loss term (dB/km)	0,3820temperature slope calibration	1,0000multiplexer offset coefficient	1,0000multiplexer slope coefficient	1,0000fibre end	0,00T internal ref (°C)	13,91T ext. ref 1 (°C)	-2,49T ext. ref 2 (°C)	-2,80length (m)	temperature (°C)	Stokes	anti-Stokes-744,400	-138,400	0,034	-0,003
-743,385	-61,238	-0,288	0,089
-742,371	-200,000	0,006	0,125
-741,356	-2,295	-0,285	0,147
-740,342	19,612	0,068	0,040
-739,327	-97,300	-0,328	-0,062
-738,312	292,129	0,083	-0,112
-737,298	62,820	-0,246	-0,181
-736,283	-65,149	0,053	0,016
-735,269	-139,146	-0,285	0,022
-734,254	508,782	0,009	0,016
-733,239	12,058	-0,377	-0,213
-732,225	-62,500	0,109	0,033
-731,210	-148,328	-0,123	0,007
-730,196	443,525	0,108	-0,176
-729,181	-75,162	0,062	-0,016
-728,167	167,571	-0,072	-0,076
-727,152	557,479	-0,013	-0,024
-726,137	398,837	-0,036	-0,056
-725,123	800,000	-0,069	-0,155
-724,108	-45,408	-0,080	0,029
-723,094	-200,000	-0,011	-0,051
-722,079	-113,418	-0,101	-0,014
-721,064	140,081	-0,064	-0,063
-720,050	346,193	0,056	-0,081
-719,035	-98,237	-0,125	-0,023
-718,021	-64,487	-0,055	-0,016
-717,006	377,025	-0,028	-0,042
-715,991	403,434	0,031	-0,049
-714,977	-188,054	-0,225	-0,002
-713,962	-200,000	0,008	-0,057
-712,948	41,630	0,099	0,066
-711,933	11,193	0,022	-0,012
-710,918	800,000	0,078	-0,214
-709,904	-108,295	-0,107	-0,017
-708,889	317,043	-0,087	-0,122
-707,875	-62,433	-0,104	-0,032
-706,860	5,269	0,076	0,041
-705,845	23,737	0,073	0,044
-704,831	155,853	-0,100	0,101
-703,816	-106,974	-0,015	-0,002
-702,802	-186,284	-0,082	0,001
-701,787	55,782	0,029	0,021
-700,772	578,733	0,055	0,099
-699,758	-103,502	0,054	0,009
-698,743	-52,843	-0,134	0,045
-697,729	388,106	0,062	-0,094
-696,714	-200,000	0,001	0,074
-695,699	45,123	-0,072	-0,049
-694,685	-200,000	-0,021	-0,096
-693,670	154,009	-0,093	-0,094
-692,656	800,000	-0,043	-0,129
-691,641	-39,060	0,077	0,030
-690,627	-104,259	0,090	-0,015
-689,612	48,055	-0,048	-0,033
-688,597	655,913	-0,019	-0,037
-687,583	144,808	-0,097	-0,096
-686,568	-120,994	0,011	-0,001
-685,554	-51,337	-0,067	-0,023
-684,539	-200,000	0,006	-0,087
-683,524	61,172	-0,010	-0,007
-682,510	-200,000	-0,024	0,088
-681,495	800,000	-0,028	-0,064
-680,481	-200,000	-0,015	-0,071
-679,466	800,000	-0,013	-0,040
-678,451	-49,107	0,053	0,019
-677,437	-200,000	0,021	-0,116
-676,422	800,000	0,054	0,134
-675,408	-109,103	-0,093	-0,014
-674,393	79,684	-0,088	-0,069
-673,378	-12,821	-0,109	-0,052
-672,364	-110,585	-0,019	0,003
-671,349	80,305	0,024	-0,019
-670,335	138,611	0,089	0,086
-669,320	277,242	-0,113	0,148
-668,305	-166,584	0,073	-0,002
-667,291	475,558	-0,019	0,032
-666,276	-200,000	0,004	-0,061
-665,262	52,923	-0,041	-0,029
-664,247	-91,196	-0,154	0,032
-663,232	-78,866	0,116	0,029
-662,218	11,689	0,075	0,042
-661,203	-114,027	-0,091	-0,013
-660,189	113,083	0,137	-0,122
-659,174	800,000	0,067	-0,180
-658,159	19,804	-0,078	-0,046
-657,145	39,495	-0,030	-0,020
-656,130	-148,813	-0,040	0,002
-655,116	317,112	-0,063	-0,087
-654,101	-60,691	0,045	-0,014
-653,086	800,000	0,032	-0,081
-652,072	318,696	-0,098	-0,137
-651,057	125,283	-0,092	-0,085
-650,043	-65,527	-0,138	0,040
-649,028	135,985	0,056	-0,054
-648,014	694,496	0,022	0,043
-646,999	-200,000	0,007	-0,031
-645,984	800,000	0,024	-0,058
-644,970	101,690	-0,096	-0,082
-643,955	48,899	-0,068	0,047
-642,941	447,918	-0,061	-0,100
-641,926	10,089	0,239	-0,133
-640,911	227,885	0,044	-0,053
-639,897	-116,971	-0,103	0,014
-638,882	328,924	0,066	-0,094
-637,868	20,005	-0,062	-0,037
-636,853	261,561	0,036	0,045
-635,838	-192,093	-0,065	-0,000
-634,824	-200,000	0,017	-0,105
-633,809	103,120	-0,076	0,065
-632,795	-61,511	0,069	0,021
-631,780	800,000	-0,026	-0,065
-630,765	103,650	-0,041	0,036
-629,751	573,548	-0,042	-0,075
-628,736	800,000	-0,061	-0,133
-627,722	-106,082	0,055	-0,009
-626,707	398,233	0,052	-0,080
-625,692	40,878	-0,096	0,063
-624,678	58,656	-0,145	0,104
-623,663	17,004	-0,037	0,021
-622,649	539,293	-0,045	-0,079
-621,634	-7,110	-0,061	0,030
-620,619	-123,430	-0,055	0,006
-619,605	459,203	-0,035	-0,057
-618,590	800,000	-0,055	-0,120
-617,576	800,000	0,016	-0,041
-616,561	242,341	-0,054	0,066
-615,546	-200,000	-0,015	-0,149
-614,532	-200,000	0,046	-0,166
-613,517	-200,000	0,007	-0,052
-612,503	800,000	0,032	-0,071
-611,488	-200,000	0,035	-0,118
-610,474	800,000	-0,034	-0,081
-609,459	-200,000	-0,015	0,167
-608,444	-80,141	-0,211	-0,052
-607,430	-139,028	-0,084	-0,007
-606,415	47,916	-0,069	0,047
-605,401	-74,035	-0,071	-0,019
-604,386	-93,623	0,063	0,013
-603,371	-21,186	0,072	0,032
-602,357	-200,000	0,004	-0,089
-601,342	-49,547	0,018	-0,006
-600,328	-200,000	0,011	-0,133
-599,313	-152,001	0,080	0,004
-598,298	800,000	-0,054	-0,160
-597,284	-120,912	0,152	0,019
-596,269	-200,000	0,009	0,085
-595,255	800,000	0,063	0,154
-594,240	-100,262	-0,020	-0,004
-593,225	-200,000	-0,003	-0,068
-592,211	182,382	-0,050	-0,055
-591,196	-200,000	-0,017	0,084
-590,182	-61,344	0,072	0,022
-589,167	19,842	0,045	-0,026
-588,152	-200,000	-0,001	-0,033
-587,138	93,817	-0,095	0,079
-586,123	-200,000	-0,031	-0,115
-585,109	800,000	-0,056	-0,122
-584,094	-159,103	-0,053	-0,002
-583,079	114,949	-0,079	0,071
-582,065	59,024	0,032	-0,023
-581,050	-28,217	0,012	-0,005
-580,036	490,073	-0,076	0,127
-579,021	473,116	-0,041	0,067
-578,006	12,644	0,054	0,030
-576,992	-33,982	-0,137	0,055
-575,977	478,654	0,081	0,135
-574,963	653,149	-0,030	0,057
-573,948	-200,000	-0,002	0,121
-572,934	114,028	0,008	0,007
-571,919	269,185	-0,078	-0,100
-570,904	18,154	0,045	-0,026
-569,890	275,084	0,010	0,013
-568,875	239,785	0,043	0,053
-567,861	-200,000	0,037	-0,150
-566,846	-91,742	-0,121	-0,025
-565,831	11,910	0,101	0,057
-564,817	800,000	-0,019	0,048
-563,802	-91,139	-0,055	-0,011
-562,788	-200,000	0,012	-0,074
-561,773	609,480	0,014	-0,025
-560,758	-2,410	0,082	-0,042
-559,744	25,413	-0,056	0,034
-558,729	236,388	0,048	0,058
-557,715	-200,000	0,001	-0,056
-556,700	148,326	-0,056	-0,055
-555,685	-50,888	-0,130	0,044
-554,671	-44,167	0,035	0,013
-553,656	-200,000	0,019	-0,085
-552,642	-133,214	0,067	0,006
-551,627	14,494	0,076	0,043
-550,612	-142,689	-0,232	0,016
-549,598	-87,561	-0,042	-0,009
-548,583	800,000	0,060	-0,171
-547,569	246,947	0,055	-0,068
-546,554	800,000	0,053	0,115
-545,539	-97,340	0,082	-0,016
-544,525	-200,000	0,005	0,093
-543,510	-150,998	-0,144	-0,008
-542,496	49,401	0,096	-0,066
-541,481	151,299	-0,078	-0,078
-540,466	46,430	-0,088	0,060
-539,452	40,779	-0,087	0,057
-538,437	29,175	-0,055	0,034
-537,423	80,543	-0,053	0,042
-536,408	800,000	-0,007	0,023
-535,393	585,545	-0,046	-0,083
-534,379	-57,275	0,211	-0,067
-533,364	15,819	0,104	0,060
-532,350	211,580	-0,101	0,117
-531,335	-200,000	-0,041	0,136
-530,321	-200,000	0,020	0,072
-529,306	-36,074	0,108	-0,042
-528,291	-132,988	-0,133	-0,012
-527,277	-68,382	-0,099	0,028
-526,262	-58,457	0,110	0,035
-525,248	98,690	0,089	-0,075
-524,233	536,281	0,028	0,050
-523,218	-182,780	0,177	-0,002
-522,204	53,208	-0,072	0,050
-521,189	692,347	-0,054	-0,104
-520,175	-200,000	-0,011	-0,117
-519,160	-200,000	-0,009	-0,056
-518,145	601,828	-0,012	0,022
-517,131	462,566	0,058	0,095
-516,116	394,799	-0,029	0,044
-515,102	524,493	-0,046	0,079
-514,087	18,937	-0,069	0,040
-513,072	-4,442	-0,099	0,050
-512,058	-200,000	0,010	-0,091
-511,043	67,884	0,074	0,055
-510,029	800,000	0,006	-0,014
-509,014	-200,000	-0,022	0,208
-507,999	-10,495	0,164	-0,079
-506,985	-114,015	-0,076	-0,011
-505,970	800,000	-0,044	-0,097
-504,956	76,127	0,040	-0,031
-503,941	469,847	-0,037	-0,062
-502,926	-200,000	0,036	-0,138
-501,912	-110,245	-0,060	-0,009
-500,897	87,732	-0,087	0,070
-499,883	127,882	-0,039	-0,037
-498,868	800,000	-0,054	-0,109
-497,853	-127,755	0,059	0,006
-496,839	172,413	0,028	0,029
-495,824	2,497	0,115	-0,060
-494,810	592,407	0,090	0,164
-493,795	-141,270	0,120	-0,009
-492,781	800,000	0,038	-0,090
-491,766	-76,304	0,027	-0,007
-490,751	730,195	0,006	-0,012
-489,737	-200,000	0,000	-0,061
-488,722	279,761	-0,032	-0,042
-487,708	57,267	0,014	0,010
-486,693	-58,958	-0,058	0,018
-485,678	148,241	-0,066	-0,065
-484,664	644,429	0,035	-0,065
-483,649	557,497	-0,047	-0,083
-482,635	-67,847	0,113	-0,032
-481,620	49,154	-0,043	0,029
-480,605	-200,000	0,012	-0,072
-479,591	523,838	0,041	0,070
-478,576	368,062	0,034	-0,050
-477,562	-200,000	-0,007	-0,055
-476,547	24,163	-0,141	-0,084
-475,532	-200,000	-0,013	-0,051
-474,518	321,575	0,051	-0,071
-473,503	349,435	0,070	-0,100
-472,489	96,620	-0,064	0,054
-471,474	-200,000	-0,024	0,131
-470,459	-20,837	-0,096	-0,043
-469,445	-141,679	-0,073	0,005
-468,430	-200,000	-0,019	-0,143
-467,416	254,243	-0,038	0,047
-466,401	91,113	0,064	0,053
-465,386	170,302	0,052	0,055
-464,372	-28,671	-0,097	0,040
-463,357	379,517	-0,039	-0,059
-462,343	-200,000	-0,024	-0,118
-461,328	800,000	0,020	0,058
-460,313	800,000	0,028	-0,072
-459,299	-77,483	0,093	-0,023
-458,284	308,064	-0,038	-0,052
-457,270	-200,000	0,003	-0,134
-456,255	151,757	-0,120	-0,119
-455,241	-111,156	0,125	-0,018
-454,226	-200,000	0,014	-0,057
-453,211	4,270	0,037	0,020
-452,197	-39,717	-0,065	-0,025
-451,182	-65,532	-0,170	-0,049
-450,168	-136,452	-0,096	-0,008
-449,153	343,300	-0,027	0,039
-448,138	800,000	0,013	0,036
-447,124	-200,000	-0,002	0,085
-446,109	800,000	0,023	0,047
-445,095	-18,924	0,074	0,033
-444,080	-93,395	-0,130	-0,026
-443,065	186,803	0,018	0,019
-442,051	-125,915	0,020	-0,002
-441,036	8,854	-0,176	-0,096
-440,022	56,793	0,117	-0,083
-439,007	371,647	0,071	-0,105
-437,992	-200,000	-0,019	-0,073
-436,978	-200,000	0,011	-0,037
-435,963	-107,271	-0,065	-0,010
-434,949	-43,063	0,079	0,029
-433,934	-200,000	0,040	-0,144
-432,919	-200,000	0,000	0,076
-431,905	56,038	0,075	0,053
-430,890	-200,000	-0,039	0,194
-429,876	-8,191	0,053	-0,026
-428,861	311,879	-0,050	0,068
-427,846	-200,000	-0,019	-0,098
-426,832	800,000	-0,012	-0,027
-425,817	-136,951	-0,124	-0,010
-424,803	-26,072	0,035	-0,015
-423,788	-38,313	0,021	-0,008
-422,773	746,711	0,035	-0,069
-421,759	800,000	-0,017	-0,043
-420,744	80,455	0,066	-0,052
-419,730	-169,464	-0,108	-0,003
-418,715	716,440	-0,039	-0,075
-417,701	468,133	-0,076	-0,125
-416,686	800,000	0,030	0,079
-415,671	54,595	-0,088	0,062
-414,657	800,000	0,059	0,138
-413,642	99,885	0,145	0,122
-412,628	-109,986	-0,140	0,021
-411,613	125,133	0,032	-0,029
-410,598	800,000	0,042	0,085
-409,584	352,793	-0,065	0,095
-408,569	-200,000	-0,027	0,091
-407,555	666,679	0,024	-0,046
-406,540	210,415	0,078	0,090
-405,525	-97,697	-0,095	0,018
-404,511	561,529	-0,084	-0,147
-403,496	-200,000	-0,021	-0,073
-402,482	-200,000	0,006	-0,092
-401,467	-200,000	0,008	0,094
-400,452	105,668	-0,046	0,040
-399,438	97,155	-0,009	-0,008
-398,423	-108,723	0,078	0,012
-397,409	-84,476	0,047	-0,011
-396,394	-18,325	-0,135	-0,061
-395,379	88,177	-0,044	-0,036
-394,365	-124,439	0,187	0,021
-393,350	121,722	0,040	0,036
-392,336	-200,000	0,019	0,131
-391,321	557,181	0,036	-0,063
-390,306	-200,000	-0,004	-0,072
-389,292	-148,351	0,066	0,004
-388,277	-14,532	-0,032	0,015
-387,263	-119,597	-0,022	0,003
-386,248	-200,000	-0,001	0,030
-385,233	-6,687	-0,093	0,046
-384,219	459,253	0,082	-0,133
-383,204	10,841	0,055	0,030
-382,190	56,308	-0,095	0,067
-381,175	-200,000	-0,020	-0,065
-380,160	-9,157	0,044	0,021
-379,146	-31,627	-0,025	-0,010
-378,131	-200,000	0,035	-0,117
-377,117	-172,260	-0,047	0,001
-376,102	800,000	0,027	-0,068
-375,088	-18,731	-0,053	0,024
-374,073	800,000	-0,010	0,027
-373,058	95,255	0,103	0,085
-372,044	800,000	0,038	0,114
-371,029	-112,620	-0,078	0,011
-370,015	12,161	0,072	-0,040
-369,000	-200,000	-0,024	0,115
-367,985	5,714	-0,112	-0,060
-366,971	-46,560	-0,096	0,034
-365,956	493,681	-0,047	-0,078
-364,942	156,416	0,058	-0,058
-363,927	-87,361	-0,025	0,005
-362,912	800,000	-0,038	0,094
-361,898	1,975	-0,066	-0,034
-360,883	645,309	-0,024	-0,044
-359,869	0,168	-0,095	-0,049
-358,854	800,000	-0,068	0,143
-357,839	-200,000	0,008	0,170
-356,825	800,000	0,045	0,137
-355,810	800,000	-0,030	-0,061
-354,796	800,000	0,016	0,044
-353,781	210,653	0,049	-0,056
-352,766	359,581	-0,030	0,044
-351,752	-93,296	0,138	0,028
-350,737	301,942	0,081	-0,109
-349,723	-200,000	-0,015	0,082
-348,708	159,839	-0,063	0,064
-347,693	-200,000	-0,001	-0,049
-346,679	-72,936	-0,065	0,017
-345,664	-174,283	0,048	-0,001
-344,650	72,067	0,118	0,089
-343,635	800,000	-0,042	-0,086
-342,620	-82,041	0,060	-0,014
-341,606	26,279	-0,019	0,012
-340,591	-200,000	-0,021	0,145
-339,577	800,000	-0,011	-0,024
-338,562	-156,255	0,099	0,004
-337,548	-200,000	0,020	0,069
-336,533	-83,135	-0,083	-0,019
-335,518	-111,716	0,096	-0,014
-334,504	122,688	0,117	0,106
-333,489	-200,000	-0,008	-0,075
-332,475	-61,587	-0,095	0,029
-331,460	-200,000	-0,006	-0,035
-330,445	-38,740	-0,098	0,037
-329,431	-3,412	0,038	0,019
-328,416	800,000	-0,017	-0,044
-327,402	-103,889	0,157	0,026
-326,387	324,428	0,051	0,071
-325,372	261,394	-0,065	-0,082
-324,358	800,000	-0,051	-0,146
-323,343	-110,368	-0,126	0,019
-322,329	175,059	0,077	0,081
-321,314	-145,001	-0,032	-0,002
-320,299	-86,818	0,120	0,026
-319,285	-54,148	0,099	-0,032
-318,270	-32,838	-0,189	0,076
-317,256	648,361	0,035	0,066
-316,241	-200,000	0,028	-0,098
-315,226	800,000	0,036	0,095
-314,212	153,463	0,041	0,041
-313,197	-145,281	0,061	-0,004
-312,183	42,823	0,028	-0,018
-311,168	403,930	-0,054	-0,083
-310,153	288,960	0,079	-0,105
-309,139	493,957	-0,034	0,056
-308,124	247,154	0,034	0,041
-307,110	-3,777	-0,040	-0,020
-306,095	-198,115	0,102	0,000
-305,080	-200,000	-0,032	0,179
-304,066	299,159	-0,049	0,065
-303,051	-200,000	-0,002	0,037
-302,037	339,975	0,046	-0,065
-301,022	-79,791	0,034	0,008
-300,008	800,000	0,025	0,061
-298,993	-200,000	0,008	-0,037
-297,978	252,308	-0,055	0,068
-296,964	163,422	0,093	0,095
-295,949	264,060	-0,031	0,039
-294,935	26,067	-0,005	-0,003
-293,920	128,006	0,121	-0,111
-292,905	4,785	0,060	-0,032
-291,891	-125,772	0,151	-0,016
-290,876	8,798	0,199	-0,108
-289,862	-96,397	-0,165	0,031
-288,847	-200,000	-0,017	0,079
-287,832	670,388	0,044	0,082
-286,818	-67,864	0,060	-0,017
-285,803	-14,968	0,071	0,033
-284,789	-176,527	0,167	-0,003
-283,774	245,158	-0,011	0,013
-282,759	-122,182	-0,091	0,011
-281,745	247,950	-0,047	-0,057
-280,730	69,136	0,122	-0,090
-279,716	-15,024	-0,043	-0,020
-278,701	-85,612	-0,086	0,019
-277,686	791,442	-0,037	-0,075
-276,672	800,000	-0,011	0,025
-275,657	591,856	0,016	0,029
-274,643	-200,000	0,030	-0,129
-273,628	377,693	-0,023	0,034
-272,613	260,731	-0,054	0,067
-271,599	800,000	0,027	0,075
-270,584	800,000	-0,021	0,059
-269,570	216,140	0,025	-0,028
-268,555	53,838	0,050	0,034
-267,540	-32,913	0,076	0,030
-266,526	-87,093	-0,106	0,023
-265,511	67,449	0,031	-0,023
-264,497	81,424	-0,090	0,070
-263,482	223,829	0,020	-0,023
-262,467	441,216	-0,083	-0,132
-261,453	127,443	0,092	-0,084
-260,438	-200,000	-0,011	-0,124
-259,424	737,178	0,029	-0,057
-258,409	315,469	-0,023	0,031
-257,395	-200,000	0,025	0,115
-256,380	-149,303	0,146	0,008
-255,365	-200,000	-0,010	0,178
-254,351	105,312	0,125	0,107
-253,336	-75,153	-0,034	0,009
-252,322	445,740	-0,048	-0,076
-251,307	800,000	-0,064	-0,181
-250,292	-186,840	-0,101	-0,001
-249,278	-146,773	-0,060	-0,004
-248,263	-200,000	-0,013	0,089
-247,249	-25,895	-0,046	0,020
-246,234	347,162	-0,015	-0,022
-245,219	-200,000	-0,001	0,030
-244,205	800,000	0,011	-0,026
-243,190	166,646	0,078	0,080
-242,176	218,557	0,128	0,148
-241,161	-109,020	0,089	0,013
-240,146	430,197	0,094	0,147
-239,132	800,000	-0,036	0,083
-238,117	-200,000	-0,021	-0,070
-237,103	-200,000	-0,040	-0,161
-236,088	-56,705	-0,023	0,007
-235,073	112,912	0,101	-0,088
-234,059	518,334	-0,068	0,116
-233,044	-114,393	0,068	-0,009
-232,030	-200,000	-0,010	0,097
-231,015	-66,720	-0,062	-0,018
-230,000	800,000	-0,086	-0,236
-228,986	-200,000	0,011	0,047
-227,971	75,064	0,108	0,082
-226,957	-200,000	-0,031	0,157
-225,942	-38,040	0,075	-0,029
-224,927	-200,000	-0,021	0,164
-223,913	-81,259	-0,017	-0,004
-222,898	-200,000	0,024	0,110
-221,884	-84,464	0,029	0,006
-220,869	-200,000	-0,041	0,163
-219,855	800,000	-0,030	0,076
-218,840	449,779	0,037	0,060
-217,825	10,368	0,037	-0,020
-216,811	-79,978	-0,022	0,005
-215,796	40,487	0,052	0,033
-214,782	-157,065	0,080	0,003
-213,767	-200,000	-0,110	0,000
-212,752	459,757	-0,060	0,096
-211,738	-141,425	0,214	0,015
-210,723	165,686	0,062	0,063
-209,709	138,649	-0,079	-0,075
-208,694	302,755	-0,035	0,047
-207,679	226,830	0,086	-0,101
-206,665	-200,000	-0,033	-0,157
-205,650	800,000	-0,023	0,055
-204,636	186,552	0,106	0,114
-203,621	800,000	0,041	0,124
-202,606	-200,000	0,008	-0,051
-201,592	-162,262	-0,175	-0,006
-200,577	-43,432	0,069	0,025
-199,563	-200,000	0,003	-0,071
-198,548	187,234	-0,081	0,087
-197,533	800,000	0,089	-0,188
-196,519	-35,711	0,084	-0,033
-195,504	-111,223	-0,073	0,011
-194,490	-13,472	-0,050	0,023
-193,475	565,637	-0,032	-0,056
-192,460	575,337	0,035	-0,061
-191,446	-126,477	-0,103	-0,011
-190,431	-163,118	0,038	0,001
-189,417	54,436	0,024	-0,017
-188,402	-200,000	-0,004	-0,044
-187,387	639,508	-0,037	-0,068
-186,373	15,262	0,015	0,009
-185,358	-4,565	-0,276	0,137
-184,344	-69,649	0,134	0,037
-183,329	-0,066	0,097	-0,050
-182,315	535,175	-0,013	0,023
-181,300	238,832	-0,070	0,084
-180,285	182,928	-0,066	-0,070
-179,271	-200,000	0,007	-0,067
-178,256	-124,183	-0,021	-0,002
-177,242	-200,000	0,001	0,047
-176,227	800,000	0,059	0,121
-175,212	800,000	0,026	0,062
-174,198	800,000	0,037	0,105
-173,183	-84,692	-0,106	-0,024
-172,169	-169,593	-0,051	-0,001
-171,154	310,388	-0,030	0,041
-170,139	-98,836	-0,010	-0,002
-169,125	-36,938	0,148	-0,057
-168,110	342,961	0,094	0,133
-167,096	-200,000	0,035	0,168
-166,081	220,105	0,107	0,123
-165,066	-49,250	0,012	-0,004
-164,052	-127,820	0,083	0,009
-163,037	-53,736	-0,072	-0,023
-162,023	-157,104	0,235	0,010
-161,008	79,877	-0,089	0,069
-159,993	293,486	0,034	0,045
-158,979	24,524	-0,143	-0,085
-157,964	-200,000	-0,009	-0,116
-156,950	-200,000	0,021	-0,156
-155,935	-200,000	-0,034	0,181
-154,920	-200,000	0,009	0,045
-153,906	-98,581	0,093	-0,017
-152,891	-140,488	0,116	-0,009
-151,877	-22,527	0,062	-0,027
-150,862	-200,000	0,023	-0,166
-149,847	800,000	0,024	-0,064
-148,833	89,119	0,043	-0,035
-147,818	272,023	-0,034	0,044
-146,804	140,498	-0,027	0,026
-145,789	79,558	0,035	0,027
-144,775	14,006	-0,037	-0,021
-143,760	24,659	0,099	-0,059
-142,745	-200,000	-0,106	0,000
-141,731	27,120	0,085	0,051
-140,716	139,809	0,006	0,005
-139,702	800,000	0,007	0,016
-138,687	50,401	-0,086	0,058
-137,672	-118,659	0,059	-0,007
-136,658	219,090	-0,046	0,053
-135,643	90,437	-0,115	-0,092
-134,629	-1,931	0,130	0,066
-133,614	800,000	-0,028	0,074
-132,599	-57,174	0,088	0,028
-131,585	-200,000	0,011	-0,042
-130,570	-185,218	0,038	0,000
-129,556	-27,308	-0,086	-0,036
-128,541	-17,908	-0,085	-0,038
-127,526	-200,000	0,015	0,179
-126,512	-110,352	-0,074	0,011
-125,497	609,723	0,002	-0,003
-124,483	299,655	0,027	0,036
-123,468	-87,589	0,118	0,025
-122,453	-173,197	-0,100	0,002
-121,439	672,016	-0,054	-0,102
-120,424	10,044	0,140	-0,076
-119,410	7,235	0,081	-0,043
