DTS Sentinel unit serial number:	SN410029Multiplexer serial number:	ORYXHardware model number:	OX2-SRSoftware version number:	ORYX F/W v4,00 Oryx Data Collector v3.7.2.0data status	okinstallation	B5 Nyhavnadifferential loss correction	single-endedforward channel	channel 2reverse channel	N/Adate	2023/12/11time	14:22:13forward acquisition time	300,00reverse acquisition time	0,00gamma	499,1914k internal	0,3166k external	0,3166temperature offset calibration	1,0000default loss term (dB/km)	0,3820temperature slope calibration	1,0000multiplexer offset coefficient	1,0000multiplexer slope coefficient	1,0000fibre end	0,00T internal ref (°C)	12,31T ext. ref 1 (°C)	-1,80T ext. ref 2 (°C)	-1,83length (m)	temperature (°C)	Stokes	anti-Stokes-744,400	344,292	0,065	0,094
-743,385	-118,786	-0,389	0,050
-742,371	52,713	0,082	0,057
-741,356	-123,137	-0,329	-0,038
-740,342	138,081	0,166	0,160
-739,327	-53,265	-0,342	0,115
-738,312	140,013	0,046	0,045
-737,298	-152,236	-0,359	-0,019
-736,283	301,536	0,078	0,106
-735,269	-74,705	-0,206	-0,054
-734,254	-200,000	-0,026	0,220
-733,239	-12,758	-0,401	-0,191
-732,225	-70,409	0,163	-0,045
-731,210	150,458	0,082	0,081
-730,196	-59,455	-0,061	-0,019
-729,181	341,668	-0,035	0,050
-728,167	-121,319	-0,157	0,019
-727,152	253,201	0,031	0,039
-726,137	24,181	0,138	0,083
-725,123	153,279	-0,047	0,047
-724,108	766,373	-0,056	-0,111
-723,094	-169,861	0,065	-0,002
-722,079	800,000	-0,084	-0,192
-721,064	-200,000	-0,048	-0,164
-720,050	-200,000	-0,029	-0,120
-719,035	800,000	-0,054	-0,113
-718,021	-130,175	0,107	0,011
-717,006	22,985	-0,126	0,076
-715,991	-200,000	-0,034	-0,168
-714,977	-200,000	0,030	0,000
-713,962	-200,000	0,007	-0,114
-712,948	119,486	-0,041	-0,037
-711,933	154,999	-0,022	0,022
-710,918	125,241	-0,067	-0,062
-709,904	800,000	-0,004	-0,008
-708,889	50,172	-0,069	0,047
-707,875	131,498	-0,027	0,025
-706,860	800,000	-0,068	0,141
-705,845	-74,337	-0,034	0,009
-704,831	184,943	-0,064	0,070
-703,816	-200,000	0,013	-0,098
-702,802	-67,235	-0,154	-0,044
-701,787	800,000	-0,052	0,153
-700,772	-200,000	0,024	0,103
-699,758	-20,480	0,110	-0,049
-698,743	-146,335	-0,112	0,007
-697,729	318,746	-0,089	0,124
-696,714	-6,235	0,095	-0,047
-695,699	600,248	-0,076	-0,139
-694,685	-200,000	-0,001	0,082
-693,670	-200,000	-0,017	-0,161
-692,656	-136,479	-0,107	0,009
-691,641	316,001	0,052	0,072
-690,627	-200,000	0,018	-0,101
-689,612	-200,000	0,003	0,111
-688,597	-63,626	-0,048	0,014
-687,583	800,000	-0,043	-0,124
-686,568	-200,000	-0,018	-0,203
-685,554	-160,694	-0,078	0,003
-684,539	763,122	0,080	0,161
-683,524	-10,344	0,150	0,073
-682,510	-200,000	-0,001	0,050
-681,495	657,402	-0,041	-0,078
-680,481	86,299	-0,204	-0,165
-679,466	-69,653	-0,043	-0,012
-678,451	89,091	0,021	0,017
-677,437	-70,408	-0,073	0,020
-676,422	-200,000	-0,005	-0,118
-675,408	-200,000	-0,035	-0,127
-674,393	800,000	-0,045	0,096
-673,378	-200,000	-0,030	-0,228
-672,364	87,598	-0,029	-0,024
-671,349	150,969	-0,048	-0,047
-670,335	800,000	0,051	0,126
-669,320	-97,937	0,086	0,016
-668,305	-34,795	0,075	-0,030
-667,291	-200,000	0,036	0,130
-666,276	-200,000	0,000	-0,002
-665,262	-200,000	0,005	-0,118
-664,247	20,889	0,082	-0,049
-663,232	38,803	-0,071	-0,047
-662,218	196,326	0,030	-0,033
-661,203	-200,000	0,003	-0,061
-660,189	89,510	-0,034	-0,027
-659,174	26,277	0,039	-0,024
-658,159	581,553	-0,041	-0,073
-657,145	-200,000	0,005	-0,115
-656,130	348,730	-0,042	0,061
-655,116	-133,205	-0,075	-0,007
-654,101	49,309	-0,042	0,029
-653,086	-163,298	-0,165	0,006
-652,072	-200,000	-0,028	-0,094
-651,057	-200,000	-0,013	-0,110
-650,043	235,450	-0,046	-0,056
-649,028	800,000	-0,021	-0,047
-648,014	-167,716	0,139	-0,004
-646,999	1,411	-0,038	0,020
-645,984	-200,000	0,007	-0,029
-644,970	447,465	-0,030	0,048
-643,955	-200,000	-0,040	-0,137
-642,941	800,000	-0,042	-0,128
-641,926	48,472	0,024	-0,016
-640,911	71,803	-0,082	-0,062
-639,897	127,157	0,100	-0,093
-638,882	-200,000	-0,004	-0,085
-637,868	606,628	0,051	-0,094
-636,853	-200,000	0,042	-0,137
-635,838	800,000	-0,052	-0,120
-634,824	-178,604	0,088	-0,001
-633,809	124,000	-0,022	0,020
-632,795	78,072	0,107	-0,083
-631,780	-200,000	-0,004	-0,037
-630,765	-10,120	0,047	0,023
-629,751	-65,215	-0,153	0,045
-628,736	800,000	-0,042	0,088
-627,722	399,505	0,025	0,038
-626,707	-69,608	0,031	-0,009
-625,692	90,321	-0,064	0,052
-624,678	-68,076	0,199	-0,056
-623,663	172,512	-0,074	-0,078
-622,649	343,470	-0,025	0,037
-621,634	554,761	-0,057	-0,100
-620,619	-200,000	-0,012	-0,142
-619,605	-58,685	0,054	-0,017
-618,590	517,785	-0,062	0,106
-617,576	445,219	-0,083	-0,133
-616,561	800,000	-0,035	-0,073
-615,546	-162,367	-0,071	0,003
-614,532	-8,714	-0,122	-0,059
-613,517	765,997	-0,036	-0,072
-612,503	-51,481	0,054	-0,019
-611,488	208,003	0,111	0,127
-610,474	800,000	0,025	-0,052
-609,459	32,798	0,065	0,041
-608,444	800,000	-0,027	-0,054
-607,430	-1,420	-0,092	-0,047
-606,415	800,000	0,009	-0,023
-605,401	-200,000	-0,010	-0,109
-604,386	-200,000	0,020	0,110
-603,371	233,857	-0,035	-0,042
-602,357	-200,000	-0,007	-0,116
-601,342	471,521	-0,039	-0,064
-600,328	800,000	0,014	-0,035
-599,313	-31,088	-0,104	0,043
-598,298	-59,242	0,122	0,038
-597,284	75,575	-0,045	0,035
-596,269	-200,000	-0,011	-0,077
-595,255	-103,352	0,051	-0,009
-594,240	2,251	-0,055	-0,029
-593,225	-200,000	0,047	-0,203
-592,211	114,039	-0,043	-0,038
-591,196	409,880	-0,094	-0,147
-590,182	-200,000	0,000	0,007
-589,167	-69,148	0,075	0,021
-588,152	-124,008	-0,018	0,002
-587,138	-200,000	0,009	0,064
-586,123	800,000	-0,040	0,123
-585,109	-5,265	-0,109	0,055
-584,094	53,152	0,083	-0,058
-583,079	800,000	0,023	0,061
-582,065	255,289	0,036	-0,045
-581,050	-88,874	0,097	-0,021
-580,036	800,000	0,022	-0,054
-579,021	182,441	0,044	-0,048
-578,006	336,372	-0,096	0,137
-576,992	433,347	0,066	-0,106
-575,977	-90,514	0,039	-0,008
-574,963	31,955	-0,078	-0,049
-573,948	-200,000	-0,013	0,097
-572,934	128,749	0,075	-0,070
-571,919	124,457	-0,081	0,074
-570,904	101,895	-0,043	0,036
-569,890	-142,945	-0,108	0,008
-568,875	-130,449	0,161	0,016
-567,861	1,539	0,031	0,016
-566,846	20,370	0,086	0,050
-565,831	282,530	-0,094	0,123
-564,817	-200,000	0,004	-0,058
-563,802	-71,787	-0,057	-0,015
-562,788	-200,000	0,013	-0,071
-561,773	72,287	-0,141	-0,107
-560,758	-200,000	0,004	-0,041
-559,744	-105,133	0,125	0,021
-558,729	-200,000	-0,034	-0,112
-557,715	-200,000	0,001	0,008
-556,700	159,756	-0,068	-0,069
-555,685	-200,000	0,004	-0,020
-554,671	34,987	0,125	0,080
-553,656	-72,454	-0,068	0,018
-552,642	223,333	-0,039	0,046
-551,627	800,000	-0,020	-0,054
-550,612	800,000	-0,039	-0,106
-549,598	800,000	-0,068	-0,157
-548,583	227,942	-0,055	-0,065
-547,569	-51,179	0,098	0,033
-546,554	266,528	-0,019	0,024
-545,539	348,044	-0,031	0,045
-544,525	327,046	-0,060	0,085
-543,510	-37,529	0,135	-0,052
-542,496	-200,000	0,013	-0,119
-541,481	-33,577	-0,114	0,046
-540,466	440,377	0,014	0,023
-539,452	122,534	-0,060	-0,055
-538,437	-74,128	0,067	-0,017
-537,423	-27,457	-0,045	0,019
-536,408	-9,752	0,046	0,022
-535,393	-200,000	-0,015	-0,075
-534,379	60,395	-0,058	-0,042
-533,364	-7,915	-0,115	-0,056
-532,350	479,429	-0,018	0,030
-531,335	5,405	0,035	-0,019
-530,321	-80,604	-0,075	0,018
-529,306	-200,000	0,012	0,072
-528,291	332,585	0,104	-0,147
-527,277	370,961	-0,132	-0,196
-526,262	800,000	0,050	-0,133
-525,248	800,000	0,009	-0,021
-524,233	338,906	-0,034	-0,048
-523,218	126,649	-0,066	0,061
-522,204	-200,000	0,022	-0,115
-521,189	-100,337	-0,080	-0,014
-520,175	84,248	-0,055	0,044
-519,160	-200,000	0,009	-0,180
-518,145	-106,714	0,145	0,023
-517,131	-25,028	0,096	0,041
-516,116	-200,000	0,004	-0,044
-515,102	138,347	-0,015	-0,014
-514,087	-39,535	-0,141	-0,054
-513,072	-200,000	0,011	-0,050
-512,058	506,731	0,033	0,056
-511,043	-26,672	-0,074	0,031
-510,029	800,000	0,021	-0,044
-509,014	417,865	0,044	-0,068
-507,999	436,252	0,051	0,081
-506,985	-138,871	-0,135	0,011
-505,970	800,000	-0,061	-0,174
-504,956	-200,000	0,016	0,191
-503,941	-200,000	-0,008	0,037
-502,926	253,135	-0,021	-0,026
-501,912	127,598	-0,029	0,027
-500,897	153,063	-0,030	0,030
-499,883	629,369	-0,021	-0,038
-498,868	14,331	-0,070	0,040
-497,853	-14,786	-0,075	0,035
-496,839	-3,082	0,053	-0,027
-495,824	-200,000	-0,002	-0,106
-494,810	-200,000	0,005	0,029
-493,795	-82,981	-0,024	0,006
-492,781	-200,000	0,027	-0,200
-491,766	2,709	0,012	-0,006
-490,751	800,000	-0,020	-0,043
-489,737	-16,025	0,103	-0,048
-488,722	-200,000	-0,005	-0,074
-487,708	800,000	0,031	-0,074
-486,693	19,785	-0,099	0,058
-485,678	88,555	0,090	0,073
-484,664	800,000	0,037	-0,089
-483,649	288,476	0,098	-0,129
-482,635	113,797	0,063	-0,056
-481,620	99,955	0,115	-0,097
-480,605	50,197	-0,058	0,040
-479,591	-91,248	0,061	0,013
-478,576	11,346	-0,106	0,059
-477,562	-168,915	0,030	0,001
-476,547	-7,145	-0,022	0,011
-475,532	27,992	0,086	0,053
-474,518	10,919	0,080	0,044
-473,503	-33,867	0,053	0,021
-472,489	-200,000	0,014	0,060
-471,474	-200,000	0,028	-0,090
-470,459	344,166	-0,080	-0,114
-469,445	251,659	-0,051	0,064
-468,430	779,004	-0,093	0,187
-467,416	162,815	0,099	-0,101
-466,401	-200,000	-0,002	-0,034
-465,386	-200,000	-0,008	0,127
-464,372	-49,001	0,119	0,041
-463,357	339,997	-0,026	-0,037
-462,343	-200,000	-0,001	-0,053
-461,328	746,828	0,045	0,089
-460,313	-47,396	0,044	-0,016
-459,299	-200,000	-0,027	0,093
-458,284	123,290	-0,050	0,045
-457,270	-29,006	0,071	0,030
-456,255	65,487	-0,076	0,056
-455,241	-200,000	0,001	-0,044
-454,226	81,942	0,153	-0,121
-453,211	-200,000	-0,016	-0,117
-452,197	-200,000	0,006	-0,059
-451,182	800,000	0,058	0,165
-450,168	311,495	-0,090	0,123
-449,153	-200,000	0,005	0,051
-448,138	-200,000	-0,036	-0,137
-447,124	86,912	-0,073	-0,059
-446,109	327,489	0,086	-0,120
-445,095	456,651	0,099	0,160
-444,080	37,077	-0,139	0,089
-443,065	9,932	0,096	0,053
-442,051	-200,000	-0,000	0,153
-441,036	-93,418	0,168	0,034
-440,022	-33,826	-0,108	-0,043
-439,007	-200,000	-0,007	0,037
-437,992	225,765	0,037	-0,044
-436,978	800,000	0,027	0,061
-435,963	31,042	0,141	0,088
-434,949	-48,520	-0,099	-0,034
-433,934	376,907	-0,061	-0,091
-432,919	-28,479	-0,163	-0,068
-431,905	800,000	-0,017	-0,053
-430,890	-200,000	0,006	0,145
-429,876	460,438	-0,063	-0,102
-428,861	12,748	0,014	-0,008
-427,846	123,440	-0,068	-0,062
-426,832	-33,136	-0,150	0,060
-425,817	593,795	0,075	-0,135
-424,803	-15,769	-0,138	-0,063
-423,788	-200,000	-0,009	0,097
-422,773	800,000	0,073	0,195
-421,759	53,652	-0,033	0,023
-420,744	123,356	-0,097	0,088
-419,730	-160,130	-0,035	0,001
-418,715	800,000	-0,011	0,034
-417,701	-200,000	-0,003	-0,047
-416,686	-200,000	-0,024	0,099
-415,671	-14,993	-0,066	0,030
-414,657	21,519	-0,116	-0,068
-413,642	57,956	-0,041	0,029
-412,628	59,965	-0,079	0,057
-411,613	-51,637	0,034	0,012
-410,598	-200,000	-0,014	-0,055
-409,584	-189,909	-0,074	-0,001
-408,569	800,000	0,028	0,070
-407,555	52,366	0,215	0,149
-406,540	-200,000	0,005	-0,029
-405,525	-118,939	-0,096	0,012
-404,511	336,079	-0,035	-0,050
-403,496	20,467	0,011	-0,006
-402,482	-96,144	0,122	-0,023
-401,467	-89,557	0,114	0,024
-400,452	800,000	0,034	0,080
-399,438	191,336	0,082	0,090
-398,423	-69,703	-0,134	0,037
-397,409	-144,692	-0,095	0,006
-396,394	267,820	-0,057	-0,073
-395,379	-89,187	-0,050	0,011
-394,365	113,912	0,060	0,053
-393,350	-31,274	0,087	0,035
-392,336	800,000	0,026	0,067
-391,321	800,000	0,039	0,089
-390,306	-12,787	-0,070	0,033
-389,292	-200,000	0,000	0,005
-388,277	8,907	0,069	0,038
-387,263	122,101	0,083	0,076
-386,248	410,695	0,091	0,141
-385,233	800,000	0,046	0,103
-384,219	-200,000	0,002	0,054
-383,204	-200,000	-0,004	0,077
-382,190	151,279	-0,071	0,070
-381,175	-101,965	0,016	-0,003
-380,160	-200,000	0,029	0,112
-379,146	800,000	0,044	0,104
-378,131	800,000	-0,030	0,088
-377,117	-20,830	0,028	-0,012
-376,102	169,919	0,065	-0,067
-375,088	800,000	-0,010	-0,023
-374,073	800,000	0,017	-0,050
-373,058	-200,000	0,008	0,179
-372,044	-128,647	0,160	0,016
-371,029	344,473	0,057	0,082
-370,015	-4,337	-0,052	-0,026
-369,000	800,000	0,029	-0,071
-367,985	142,314	-0,034	-0,033
-366,971	-200,000	0,021	-0,127
-365,956	-200,000	0,010	-0,047
-364,942	-107,924	0,127	-0,020
-363,927	800,000	-0,043	0,104
-362,912	-0,586	0,042	0,021
-361,898	-79,470	0,065	-0,016
-360,883	800,000	0,028	-0,072
-359,869	618,041	0,034	0,062
-358,854	800,000	0,024	0,053
-357,839	-200,000	-0,008	-0,040
-356,825	385,952	0,064	0,096
-355,810	-200,000	-0,024	-0,124
-354,796	-95,073	0,106	-0,021
-353,781	-124,941	-0,091	0,010
-352,766	781,077	-0,055	-0,109
-351,752	139,656	0,035	-0,033
-350,737	-11,703	-0,079	0,037
-349,723	155,027	-0,097	0,096
-348,708	49,136	-0,037	0,025
-347,693	512,310	-0,049	0,083
-346,679	800,000	-0,036	-0,097
-345,664	-200,000	0,051	-0,205
-344,650	-200,000	0,012	0,073
-343,635	593,339	0,058	0,104
-342,620	41,125	-0,055	0,036
-341,606	1,288	-0,094	0,049
-340,591	-97,357	-0,107	0,020
-339,577	-200,000	0,017	-0,109
-338,562	697,670	-0,044	-0,084
-337,548	392,169	0,019	-0,029
-336,533	141,422	0,130	0,125
-335,518	120,468	0,074	0,066
-334,504	79,823	0,071	0,055
-333,489	321,886	0,038	0,052
-332,475	800,000	0,015	-0,034
-331,460	152,773	-0,186	-0,184
-330,445	91,863	-0,092	0,074
-329,431	800,000	0,048	0,105
-328,416	96,159	0,197	0,163
-327,402	-200,000	0,020	0,073
-326,387	247,077	0,061	0,074
-325,372	-3,559	-0,141	-0,071
-324,358	27,682	0,020	0,012
-323,343	800,000	0,041	-0,095
-322,329	-200,000	-0,022	-0,147
-321,314	800,000	-0,008	0,024
-320,299	391,343	-0,090	0,135
-319,285	-145,451	-0,181	0,012
-318,270	-70,846	0,034	-0,009
-317,256	44,693	-0,119	0,079
-316,241	-200,000	0,007	-0,056
-315,226	533,924	-0,024	0,042
-314,212	-82,758	0,209	0,048
-313,197	72,646	0,055	0,042
-312,183	-200,000	0,004	-0,072
-311,168	-113,001	-0,072	0,010
-310,153	-200,000	0,006	-0,074
-309,139	137,665	-0,122	-0,116
-308,124	-143,543	0,095	-0,006
-307,110	-107,432	0,084	0,013
-306,095	-22,661	-0,021	-0,009
-305,080	5,093	0,148	-0,078
-304,066	-186,030	-0,057	-0,001
-303,051	181,752	-0,031	-0,034
-302,037	800,000	0,040	0,084
-301,022	-147,699	0,084	0,005
-300,008	-23,165	0,175	0,076
-298,993	-111,065	-0,057	0,008
-297,978	-200,000	-0,030	-0,130
-296,964	-200,000	0,014	0,163
-295,949	-200,000	0,017	-0,095
-294,935	800,000	0,049	-0,126
-293,920	-200,000	0,009	0,043
-292,905	-23,791	0,131	0,056
-291,891	-32,422	0,055	0,022
-290,876	500,405	-0,103	0,172
-289,862	473,837	0,086	-0,140
-288,847	7,915	-0,047	-0,025
-287,832	-53,116	-0,106	-0,035
-286,818	-136,577	0,062	-0,005
-285,803	68,409	0,024	0,018
-284,789	140,038	0,068	0,065
-283,774	91,596	0,111	0,090
-282,759	-112,583	0,034	-0,005
-281,745	-200,000	0,035	0,150
-280,730	800,000	-0,019	-0,055
-279,716	800,000	-0,014	-0,031
-278,701	132,860	0,108	0,101
-277,686	-75,013	0,112	0,029
-276,672	19,025	-0,061	-0,035
-275,657	282,599	0,072	-0,093
-274,643	26,616	-0,068	-0,041
-273,628	-119,376	-0,071	0,009
-272,613	-200,000	-0,024	0,102
-271,599	350,952	0,038	-0,055
-270,584	38,147	0,085	0,055
-269,570	-200,000	0,009	0,050
-268,555	56,085	-0,018	0,013
-267,540	-200,000	-0,004	-0,040
-266,526	800,000	-0,045	-0,100
-265,511	87,758	0,101	-0,081
-264,497	-200,000	0,009	-0,040
-263,482	147,148	0,076	-0,074
-262,467	-200,000	-0,007	0,027
-261,453	800,000	0,035	-0,091
-260,438	800,000	-0,046	0,097
-259,424	-200,000	0,003	-0,043
-258,409	178,479	-0,039	-0,042
-257,395	176,860	-0,051	-0,054
-256,380	800,000	-0,012	0,024
-255,365	402,451	-0,080	0,122
-254,351	28,333	-0,124	0,076
-253,336	-200,000	0,009	-0,037
-252,322	-74,520	-0,064	0,016
-251,307	258,239	-0,087	0,108
-250,292	-170,768	0,007	-0,000
-249,278	-200,000	-0,030	0,151
-248,263	34,869	0,043	-0,027
-247,249	-157,895	-0,027	-0,001
-246,234	196,189	-0,025	-0,027
-245,219	129,024	-0,023	0,021
-244,205	-19,011	-0,101	-0,045
-243,190	-102,332	-0,048	-0,008
-242,176	-113,958	0,233	0,032
-241,161	339,233	0,092	0,129
-240,146	290,537	0,047	0,061
-239,132	-129,250	0,078	-0,008
-238,117	-96,263	0,146	-0,028
-237,103	265,892	0,008	0,010
-236,088	325,990	0,075	-0,104
-235,073	-67,553	0,041	-0,011
-234,059	438,841	0,039	-0,062
-233,044	-153,796	-0,032	-0,002
-232,030	13,985	-0,023	0,013
-231,015	678,326	-0,054	-0,102
-230,000	800,000	-0,021	-0,046
-228,986	-25,484	0,113	-0,048
-227,971	54,476	-0,121	-0,084
-226,957	-70,990	-0,026	0,007
-225,942	-94,987	0,095	0,018
-224,927	322,856	-0,036	0,050
-223,913	264,993	-0,031	0,039
-222,898	800,000	0,031	0,089
-221,884	760,767	0,047	-0,092
-220,869	-25,884	0,072	-0,030
-219,855	-200,000	-0,010	0,040
-218,840	148,467	0,058	-0,056
-217,825	-14,435	-0,153	0,071
-216,811	-150,868	-0,096	0,005
-215,796	-181,784	-0,163	0,002
-214,782	97,190	0,071	0,059
-213,767	48,881	-0,055	-0,037
-212,752	764,672	-0,048	0,095
-211,738	576,356	-0,085	0,150
-210,723	433,484	0,061	-0,096
-209,709	-60,991	-0,041	0,012
-208,694	-17,384	-0,119	-0,054
-207,679	36,555	-0,088	0,056
-206,665	-200,000	-0,007	0,059
-205,650	-27,116	0,111	0,046
-204,636	-200,000	0,005	0,066
-203,621	-129,774	-0,134	0,013
-202,606	149,764	-0,023	-0,022
-201,592	-8,827	0,079	-0,038
-200,577	2,862	-0,037	-0,019
-199,563	18,602	-0,091	-0,052
-198,548	796,534	-0,035	0,070
-197,533	77,426	0,068	0,052
-196,519	-46,759	-0,074	-0,026
-195,504	153,551	0,053	-0,053
-194,490	73,959	-0,101	0,076
-193,475	-53,224	0,131	0,043
-192,460	161,861	0,036	-0,036
-191,446	800,000	0,016	0,042
-190,431	308,255	0,028	-0,037
-189,417	800,000	-0,035	0,086
-188,402	-38,406	-0,061	-0,023
-187,387	800,000	0,013	0,038
-186,373	-200,000	-0,010	-0,095
-185,358	-200,000	0,005	-0,063
-184,344	800,000	-0,051	0,120
-183,329	195,413	0,081	0,089
-182,315	800,000	-0,016	0,047
-181,300	-47,911	0,038	-0,013
-180,285	800,000	-0,039	-0,111
-179,271	228,563	0,040	0,047
-178,256	115,288	-0,034	0,030
-177,242	-150,946	0,131	-0,007
-176,227	155,655	-0,060	0,060
-175,212	-200,000	0,017	0,232
-174,198	-200,000	0,015	0,128
-173,183	-200,000	-0,018	0,253
-172,169	-108,946	-0,130	-0,020
-171,154	800,000	-0,053	-0,115
-170,139	-200,000	0,014	0,075
-169,125	36,210	-0,068	-0,043
-168,110	-88,752	-0,017	0,004
-167,096	386,840	0,069	-0,102
-166,081	-77,969	-0,078	-0,019
-165,066	800,000	-0,027	-0,071
-164,052	-200,000	0,023	0,091
-163,037	139,017	-0,056	0,053
-162,023	206,527	0,079	0,089
-161,008	36,047	-0,097	0,061
-159,993	-130,386	0,042	0,004
-158,979	34,101	0,047	-0,030
-157,964	-29,967	0,041	-0,017
-156,950	-200,000	-0,024	0,078
-155,935	-200,000	-0,009	-0,037
-154,920	-160,105	0,083	-0,003
-153,906	800,000	0,039	-0,100
-152,891	-200,000	-0,014	0,055
-151,877	349,513	-0,095	0,135
-150,862	-200,000	-0,004	-0,105
-149,847	-200,000	0,004	-0,091
-148,833	-9,747	0,025	0,012
-147,818	-11,736	0,127	-0,060
-146,804	92,595	0,072	0,058
-145,789	-49,918	-0,096	-0,033
-144,775	51,492	0,086	0,059
-143,760	578,193	-0,054	-0,096
-142,745	34,930	-0,096	0,060
-141,731	342,843	-0,138	0,195
-140,716	197,556	0,044	0,048
-139,702	-54,722	-0,106	0,034
-138,687	547,105	0,041	0,071
-137,672	-9,436	-0,078	-0,037
-136,658	-200,000	-0,030	0,109
-135,643	90,260	-0,013	-0,010
-134,629	95,851	-0,113	0,093
-133,614	-41,436	0,131	0,048
-132,599	-52,859	-0,146	0,048
-131,585	-143,019	-0,025	0,002
-130,570	800,000	-0,023	0,065
-129,556	521,052	0,052	-0,088
-128,541	341,213	-0,100	-0,141
-127,526	-74,625	0,121	0,031
-126,512	-200,000	0,009	-0,071
-125,497	800,000	-0,015	-0,048
-124,483	-36,163	0,106	0,041
-123,468	413,256	-0,053	0,082
-122,453	-54,033	-0,077	0,025
-121,439	499,898	-0,055	0,092
-120,424	-200,000	-0,016	-0,132
-119,410	191,874	0,075	0,082
-118,395	800,000	-0,029	0,073
