DTS Sentinel unit serial number:	SN410029Multiplexer serial number:	ORYXHardware model number:	OX2-SRSoftware version number:	ORYX F/W v4,00 Oryx Data Collector v3.7.2.0data status	okinstallation	B5 Nyhavnadifferential loss correction	single-endedforward channel	channel 2reverse channel	N/Adate	2023/12/12time	14:17:13forward acquisition time	300,00reverse acquisition time	0,00gamma	499,1914k internal	0,3157k external	0,3157temperature offset calibration	1,0000default loss term (dB/km)	0,3820temperature slope calibration	1,0000multiplexer offset coefficient	1,0000multiplexer slope coefficient	1,0000fibre end	0,00T internal ref (°C)	15,82T ext. ref 1 (°C)	-0,31T ext. ref 2 (°C)	-0,53length (m)	temperature (°C)	Stokes	anti-Stokes-744,400	-10,506	0,066	0,032
-743,385	-169,778	-0,282	-0,007
-742,371	29,697	0,181	0,113
-741,356	-149,736	-0,210	-0,012
-740,342	-110,988	0,179	0,027
-739,327	-123,132	-0,157	-0,018
-738,312	286,440	0,039	-0,053
-737,298	-80,718	-0,373	-0,091
-736,283	-58,521	0,170	-0,054
-735,269	56,499	-0,201	0,144
-734,254	-200,000	0,038	-0,130
-733,239	5,941	-0,505	-0,275
-732,225	-125,075	0,188	0,021
-731,210	14,070	-0,103	0,059
-730,196	438,398	0,052	0,084
-729,181	800,000	-0,005	-0,012
-728,167	163,794	-0,027	-0,029
-727,152	800,000	0,036	-0,086
-726,137	6,610	-0,054	0,030
-725,123	-21,329	-0,147	0,066
-724,108	800,000	-0,019	-0,055
-723,094	-52,646	0,026	0,009
-722,079	-200,000	0,005	0,032
-721,064	28,642	0,030	0,019
-720,050	27,678	0,094	0,058
-719,035	156,209	0,054	0,055
-718,021	168,084	-0,128	-0,135
-717,006	-200,000	-0,024	-0,233
-715,991	-200,000	-0,025	-0,089
-714,977	-128,452	-0,108	0,011
-713,962	-89,600	0,134	-0,029
-712,948	0,598	-0,076	-0,040
-711,933	-80,415	0,043	-0,011
-710,918	800,000	0,051	-0,105
-709,904	-200,000	-0,019	0,064
-708,889	178,835	-0,052	-0,056
-707,875	2,364	0,014	0,007
-706,860	-113,023	0,116	0,017
-705,845	89,437	0,114	0,094
-704,831	-13,156	-0,034	-0,016
-703,816	327,191	-0,049	0,069
-702,802	12,202	-0,054	0,030
-701,787	60,038	0,085	-0,062
-700,772	126,657	0,050	-0,047
-699,758	-200,000	0,006	-0,115
-698,743	115,981	0,023	0,021
-697,729	13,188	-0,081	-0,046
-696,714	-200,000	-0,040	0,188
-695,699	-1,084	-0,129	-0,067
-694,685	800,000	0,046	-0,113
-693,670	-200,000	0,002	0,044
-692,656	164,176	-0,035	0,036
-691,641	182,215	-0,030	-0,032
-690,627	298,664	0,079	0,107
-689,612	196,715	-0,068	0,077
-688,597	800,000	0,059	-0,184
-687,583	-200,000	0,007	-0,024
-686,568	528,003	0,078	-0,136
-685,554	-200,000	0,008	-0,136
-684,539	267,919	0,057	-0,073
-683,524	800,000	-0,060	-0,157
-682,510	157,681	-0,023	0,024
-681,495	159,278	0,010	0,010
-680,481	-200,000	0,005	0,044
-679,466	-66,676	-0,149	-0,043
-678,451	800,000	0,026	-0,057
-677,437	-200,000	0,015	-0,088
-676,422	-200,000	0,003	0,169
-675,408	-119,201	-0,021	0,003
-674,393	-9,238	0,102	-0,050
-673,378	171,273	-0,134	-0,142
-672,364	-200,000	-0,004	-0,082
-671,349	-200,000	0,009	-0,130
-670,335	-53,569	-0,017	-0,006
-669,320	-200,000	-0,021	0,104
-668,305	800,000	0,021	0,063
-667,291	-200,000	0,007	0,031
-666,276	-200,000	-0,006	-0,064
-665,262	109,221	-0,115	0,101
-664,247	-200,000	0,009	0,060
-663,232	195,041	-0,046	-0,051
-662,218	-35,364	0,057	0,023
-661,203	-127,380	0,032	-0,003
-660,189	205,051	-0,056	-0,064
-659,174	-5,185	-0,102	-0,051
-658,159	-61,543	-0,113	-0,035
-657,145	-92,849	0,076	-0,015
-656,130	-200,000	0,002	-0,038
-655,116	27,857	-0,044	0,027
-654,101	23,935	0,049	-0,030
-653,086	-103,673	-0,068	-0,012
-652,072	-200,000	0,017	-0,070
-651,057	312,481	-0,027	-0,037
-650,043	-129,792	-0,044	-0,004
-649,028	61,489	-0,125	0,091
-648,014	-200,000	0,002	0,156
-646,999	-13,168	-0,039	-0,019
-645,984	-140,509	-0,055	-0,004
-644,970	-200,000	-0,023	-0,114
-643,955	162,641	-0,120	-0,124
-642,941	-200,000	0,031	0,120
-641,926	800,000	-0,014	-0,042
-640,911	-200,000	-0,007	0,035
-639,897	-200,000	0,027	-0,091
-638,882	271,390	0,104	-0,135
-637,868	308,439	-0,081	-0,111
-636,853	210,418	-0,058	-0,067
-635,838	204,706	-0,117	-0,133
-634,824	484,547	-0,028	-0,048
-633,809	-200,000	0,006	-0,043
-632,795	30,518	-0,108	0,068
-631,780	46,959	-0,042	0,028
-630,765	374,730	-0,016	0,023
-629,751	91,348	-0,050	-0,041
-628,736	-15,542	0,164	-0,076
-627,722	221,306	-0,031	0,036
-626,707	800,000	-0,030	-0,095
-625,692	42,070	0,070	0,047
-624,678	297,198	-0,064	0,086
-623,663	74,061	0,109	-0,084
-622,649	216,859	0,053	-0,062
-621,634	322,325	0,004	-0,006
-620,619	800,000	-0,038	-0,089
-619,605	-160,400	0,100	0,004
-618,590	63,864	0,138	0,102
-617,576	-200,000	0,001	0,093
-616,561	-73,781	-0,081	0,021
-615,546	207,475	0,020	0,023
-614,532	60,091	0,025	0,018
-613,517	-200,000	-0,010	-0,140
-612,503	-146,846	-0,065	0,004
-611,488	317,464	0,047	-0,065
-610,474	800,000	0,035	-0,072
-609,459	229,051	0,046	-0,055
-608,444	-200,000	-0,004	-0,137
-607,430	-103,121	-0,184	0,032
-606,415	-31,125	0,047	-0,019
-605,401	-200,000	-0,001	-0,012
-604,386	-200,000	0,004	-0,039
-603,371	-180,560	0,109	0,002
-602,357	-41,998	0,004	0,001
-601,342	800,000	-0,044	-0,136
-600,328	-86,365	-0,037	-0,008
-599,313	-200,000	0,022	-0,200
-598,298	52,839	-0,076	-0,053
-597,284	-200,000	0,023	0,131
-596,269	91,494	0,138	-0,114
-595,255	143,953	-0,068	-0,066
-594,240	-42,129	-0,059	0,022
-593,225	-200,000	-0,021	-0,099
-592,211	-200,000	-0,014	-0,104
-591,196	119,479	-0,086	-0,078
-590,182	376,306	0,060	-0,090
-589,167	55,651	-0,070	0,049
-588,152	-1,149	-0,047	0,024
-587,138	-105,391	0,114	-0,019
-586,123	102,709	-0,071	0,061
-585,109	11,878	0,103	-0,058
-584,094	800,000	0,025	-0,067
-583,079	-200,000	0,016	-0,071
-582,065	238,926	-0,054	-0,066
-581,050	28,424	-0,055	0,034
-580,036	498,614	-0,032	-0,054
-579,021	580,144	-0,037	0,067
-578,006	-200,000	0,001	-0,037
-576,992	690,956	-0,093	-0,180
-575,977	-200,000	0,001	0,032
-574,963	-200,000	-0,010	0,142
-573,948	92,795	-0,081	0,067
-572,934	-63,893	0,064	0,019
-571,919	-99,621	0,029	-0,005
-570,904	169,489	-0,124	-0,130
-569,890	613,119	0,040	-0,073
-568,875	66,381	0,040	-0,029
-567,861	800,000	0,034	-0,108
-566,846	-34,529	0,062	-0,025
-565,831	-200,000	0,008	0,054
-564,817	120,233	0,091	-0,082
-563,802	-116,662	0,118	-0,016
-562,788	-121,295	-0,100	0,012
-561,773	-31,388	0,031	-0,013
-560,758	-16,797	-0,209	0,096
-559,744	8,962	0,049	-0,027
-558,729	406,927	-0,030	0,047
-557,715	237,922	-0,069	0,083
-556,700	800,000	-0,051	-0,160
-555,685	-200,000	-0,047	-0,175
-554,671	-200,000	0,005	-0,133
-553,656	-72,503	0,039	0,011
-552,642	248,110	-0,024	-0,029
-551,627	-200,000	-0,012	-0,078
-550,612	37,493	0,059	0,038
-549,598	-34,490	0,065	0,026
-548,583	-118,361	-0,081	-0,010
-547,569	186,288	-0,054	-0,058
-546,554	-200,000	-0,012	0,097
-545,539	243,632	0,092	0,113
-544,525	308,821	0,040	-0,055
-543,510	800,000	-0,065	-0,208
-542,496	434,034	-0,026	0,041
-541,481	-109,575	-0,058	-0,009
-540,466	-200,000	-0,034	-0,129
-539,452	276,352	-0,063	0,082
-538,437	-200,000	0,054	0,219
-537,423	209,085	-0,082	0,094
-536,408	-29,290	-0,119	-0,050
-535,393	-27,357	0,026	-0,011
-534,379	-200,000	-0,035	0,118
-533,364	-97,677	-0,072	0,014
-532,350	708,577	0,046	0,090
-531,335	426,887	-0,039	0,061
-530,321	638,238	0,046	-0,086
-529,306	67,475	0,076	0,056
-528,291	800,000	-0,056	-0,147
-527,277	800,000	-0,045	-0,105
-526,262	300,430	-0,033	-0,044
-525,248	254,302	-0,097	-0,121
-524,233	87,802	0,063	0,051
-523,218	-200,000	-0,007	-0,033
-522,204	-96,970	0,072	0,014
-521,189	800,000	-0,025	-0,065
-520,175	-200,000	-0,029	-0,217
-519,160	-200,000	-0,017	-0,161
-518,145	-27,065	0,117	-0,050
-517,131	-39,990	-0,208	0,079
-516,116	169,740	0,146	0,153
-515,102	-18,369	0,078	-0,036
-514,087	4,984	-0,065	-0,035
-513,072	-200,000	-0,038	-0,220
-512,058	800,000	-0,045	-0,102
-511,043	52,015	-0,069	0,048
-510,029	398,210	-0,082	0,126
-509,014	559,296	-0,030	0,053
-507,999	800,000	-0,042	0,113
-506,985	340,575	-0,010	0,014
-505,970	119,326	-0,013	-0,012
-504,956	207,585	-0,074	0,084
-503,941	146,517	0,068	0,067
-502,926	-200,000	-0,007	-0,065
-501,912	-117,181	0,137	0,018
-500,897	-45,169	0,022	-0,008
-499,883	-200,000	0,002	-0,098
-498,868	76,403	0,047	-0,036
-497,853	335,047	0,075	-0,106
-496,839	41,198	-0,012	0,008
-495,824	753,105	0,029	0,058
-494,810	-130,407	-0,048	-0,005
-493,795	272,079	-0,031	0,039
-492,781	251,876	0,106	0,132
-491,766	800,000	0,023	-0,062
-490,751	11,128	-0,106	-0,059
-489,737	138,259	-0,118	-0,113
-488,722	231,421	0,122	-0,147
-487,708	316,954	0,049	0,068
-486,693	184,770	-0,062	0,067
-485,678	-200,000	-0,034	-0,118
-484,664	221,375	-0,053	-0,062
-483,649	-142,812	-0,148	-0,010
-482,635	724,248	-0,019	-0,036
-481,620	800,000	-0,077	0,159
-480,605	-92,216	0,085	0,017
-479,591	800,000	0,028	-0,059
-478,576	800,000	0,039	-0,088
-477,562	-25,703	-0,078	-0,034
-476,547	-36,762	-0,109	0,043
-475,532	-123,159	0,165	-0,019
-474,518	-39,994	-0,071	0,027
-473,503	-69,014	-0,043	0,012
-472,489	80,982	0,097	0,076
-471,474	2,141	-0,068	0,036
-470,459	-200,000	0,006	0,039
-469,445	-200,000	-0,016	-0,056
-468,430	119,786	-0,023	-0,021
-467,416	-9,526	0,048	0,023
-466,401	699,267	0,020	-0,038
-465,386	485,979	0,038	0,063
-464,372	434,168	0,015	0,024
-463,357	273,416	-0,081	-0,105
-462,343	-200,000	-0,011	0,097
-461,328	-75,918	-0,144	-0,037
-460,313	75,963	-0,089	0,068
-459,299	-200,000	0,000	0,018
-458,284	-124,808	0,107	-0,012
-457,270	-200,000	-0,003	0,133
-456,255	-13,995	0,004	0,002
-455,241	-73,659	-0,188	-0,050
-454,226	-200,000	0,010	0,041
-453,211	-157,300	0,072	0,003
-452,197	800,000	0,009	-0,020
-451,182	-200,000	0,030	0,166
-450,168	8,895	0,064	0,035
-449,153	689,791	0,044	-0,083
-448,138	235,511	0,040	0,048
-447,124	800,000	-0,027	-0,079
-446,109	-200,000	-0,013	-0,126
-445,095	800,000	0,028	0,065
-444,080	-200,000	-0,001	0,025
-443,065	97,416	-0,116	0,097
-442,051	62,061	0,042	-0,030
-441,036	-200,000	0,003	0,041
-440,022	182,207	0,015	0,016
-439,007	144,428	0,010	0,009
-437,992	0,557	0,099	-0,051
-436,978	62,532	0,065	0,048
-435,963	371,163	0,043	0,064
-434,949	-200,000	0,017	0,074
-433,934	-200,000	0,031	-0,142
-432,919	-143,882	0,056	0,004
-431,905	501,542	-0,032	-0,054
-430,890	-81,176	0,095	-0,023
-429,876	800,000	-0,028	0,083
-428,861	-200,000	0,017	-0,092
-427,846	268,659	0,044	0,056
-426,832	132,515	-0,053	-0,050
-425,817	680,735	-0,031	-0,059
-424,803	421,551	0,048	-0,075
-423,788	-0,851	0,151	0,078
-422,773	111,810	-0,024	-0,021
-421,759	-109,301	0,080	-0,012
-420,744	800,000	0,021	-0,061
-419,730	-84,294	-0,140	0,032
-418,715	73,612	-0,074	-0,056
-417,701	800,000	0,010	0,022
-416,686	-200,000	0,006	-0,113
-415,671	104,064	-0,065	0,055
-414,657	-200,000	-0,000	-0,017
-413,642	305,145	-0,006	-0,008
-412,628	800,000	0,035	0,098
-411,613	-76,565	-0,041	0,010
-410,598	-143,048	0,095	0,007
-409,584	-109,622	0,046	0,007
-408,569	800,000	0,038	0,081
-407,555	178,961	0,071	0,076
-406,540	143,324	-0,073	-0,070
-405,525	123,528	0,084	-0,077
-404,511	14,435	-0,139	0,079
-403,496	-56,868	0,102	-0,033
-402,482	62,823	0,007	0,005
-401,467	-30,159	0,039	0,016
-400,452	267,741	-0,094	0,120
-399,438	-96,477	0,068	-0,013
-398,423	-199,276	0,031	-0,000
-397,409	182,929	-0,159	-0,171
-396,394	187,921	-0,047	-0,051
-395,379	18,580	0,064	-0,037
-394,365	214,996	0,086	0,099
-393,350	-200,000	0,047	0,188
-392,336	800,000	0,029	-0,093
-391,321	155,378	-0,097	-0,097
-390,306	166,711	-0,044	-0,046
-389,292	-31,908	-0,115	0,046
-388,277	800,000	0,021	-0,062
-387,263	-98,762	0,125	0,023
-386,248	145,999	-0,071	0,069
-385,233	-200,000	-0,008	-0,059
-384,219	-200,000	0,003	0,023
-383,204	517,552	0,050	-0,085
-382,190	-71,893	-0,052	0,014
-381,175	138,337	0,071	-0,068
-380,160	76,253	0,035	0,027
-379,146	412,868	0,065	0,101
-378,131	-104,467	0,144	0,024
-377,117	438,898	0,098	-0,155
-376,102	566,625	-0,072	-0,128
-375,088	-200,000	-0,008	-0,033
-374,073	61,223	-0,088	-0,064
-373,058	-200,000	-0,005	0,135
-372,044	800,000	0,052	0,155
-371,029	-46,014	0,079	0,028
-370,015	-200,000	-0,121	0,000
-369,000	-200,000	-0,044	0,219
-367,985	800,000	0,038	0,099
-366,971	-126,573	0,058	-0,006
-365,956	-200,000	0,008	0,048
-364,942	28,593	0,116	0,071
-363,927	150,476	-0,049	-0,048
-362,912	-38,414	0,065	0,025
-361,898	-140,442	0,029	0,002
-360,883	764,723	-0,064	-0,126
-359,869	-4,434	0,058	0,029
-358,854	-200,000	-0,051	0,171
-357,839	191,881	0,041	-0,045
-356,825	-200,000	0,003	0,025
-355,810	-24,562	0,082	-0,035
-354,796	-17,991	0,111	-0,050
-353,781	-95,732	0,047	0,009
-352,766	-79,329	-0,198	0,048
-351,752	189,031	-0,039	-0,043
-350,737	-200,000	0,046	0,163
-349,723	-78,493	-0,071	-0,017
-348,708	-200,000	0,002	0,018
-347,693	-125,043	-0,095	-0,010
-346,679	59,170	0,061	-0,044
-345,664	113,807	-0,049	0,044
-344,650	800,000	-0,035	0,074
-343,635	-108,416	0,011	-0,002
-342,620	201,673	0,030	0,033
-341,606	45,105	-0,041	0,027
-340,591	-85,145	-0,037	-0,008
-339,577	773,750	0,016	-0,032
-338,562	-200,000	0,015	-0,090
-337,548	-36,790	0,150	0,058
-336,533	438,840	0,058	0,093
-335,518	-94,002	0,155	0,031
-334,504	79,786	-0,044	0,034
-333,489	-200,000	-0,003	0,114
-332,475	22,763	-0,062	-0,037
-331,460	-200,000	0,006	-0,099
-330,445	-200,000	-0,012	-0,104
-329,431	22,332	0,149	0,088
-328,416	-200,000	-0,005	0,183
-327,402	-8,078	-0,046	0,022
-326,387	-200,000	0,014	0,123
-325,372	-200,000	0,014	0,080
-324,358	-76,081	0,055	0,014
-323,343	-200,000	0,034	0,150
-322,329	-200,000	-0,020	0,110
-321,314	86,157	0,037	-0,030
-320,299	27,763	-0,065	-0,040
-319,285	800,000	0,029	0,089
-318,270	16,207	-0,029	0,017
-317,256	-40,792	-0,116	-0,044
-316,241	-200,000	0,029	-0,175
-315,226	800,000	-0,028	-0,074
-314,212	-200,000	-0,019	0,142
-313,197	-200,000	-0,021	0,110
-312,183	800,000	-0,009	-0,022
-311,168	-200,000	0,023	-0,073
-310,153	800,000	-0,036	-0,109
-309,139	-69,013	0,087	-0,024
-308,124	97,242	0,144	0,120
-307,110	194,319	0,056	0,061
-306,095	180,418	0,074	0,078
-305,080	229,150	0,043	0,051
-304,066	-137,419	-0,073	-0,006
-303,051	117,282	-0,055	0,049
-302,037	-72,358	-0,035	-0,009
-301,022	-200,000	0,008	0,085
-300,008	800,000	0,010	-0,029
-298,993	9,381	0,047	0,026
-297,978	-200,000	-0,006	-0,050
-296,964	800,000	0,028	0,064
-295,949	-200,000	0,020	-0,073
-294,935	-200,000	-0,020	-0,106
-293,920	-148,943	0,185	0,011
-292,905	32,083	0,088	0,055
-291,891	800,000	0,027	0,060
-290,876	-7,612	-0,027	0,013
-289,862	681,697	0,040	0,075
-288,847	107,690	-0,047	0,040
-287,832	-200,000	-0,004	-0,038
-286,818	-72,268	0,063	0,017
-285,803	-53,893	0,103	0,034
-284,789	312,632	0,062	0,084
-283,774	301,249	0,116	0,156
-282,759	356,585	0,060	0,086
-281,745	495,012	-0,050	0,083
-280,730	266,233	-0,031	0,040
-279,716	-200,000	-0,031	0,176
-278,701	281,600	0,058	0,076
-277,686	-200,000	-0,014	-0,097
-276,672	800,000	-0,017	-0,045
-275,657	-3,355	-0,051	0,026
-274,643	-62,248	0,027	0,008
-273,628	105,453	-0,077	-0,066
-272,613	-200,000	0,005	0,032
-271,599	-48,443	0,097	-0,034
-270,584	-200,000	-0,013	0,153
-269,570	-200,000	0,059	0,237
-268,555	377,105	0,002	-0,004
-267,540	-87,526	-0,041	0,009
-266,526	-150,549	-0,174	0,009
-265,511	-25,840	-0,109	-0,046
-264,497	44,634	0,083	-0,055
-263,482	-158,557	0,067	-0,003
-262,467	-200,000	0,024	-0,112
-261,453	-8,424	0,016	-0,008
-260,438	-200,000	0,013	-0,167
-259,424	800,000	0,058	0,116
-258,409	-16,585	-0,118	-0,054
-257,395	-0,164	-0,082	-0,042
-256,380	-101,014	0,113	0,020
-255,365	-55,927	0,115	0,037
-254,351	-12,285	-0,126	-0,059
-253,336	-61,832	0,043	0,013
-252,322	-179,731	0,063	0,001
-251,307	800,000	0,020	0,051
-250,292	800,000	-0,039	-0,111
-249,278	800,000	-0,055	0,160
-248,263	186,767	0,067	0,072
-247,249	120,932	-0,030	0,027
-246,234	-200,000	0,008	-0,042
-245,219	-120,659	-0,067	-0,008
-244,205	735,816	-0,070	0,137
-243,190	742,588	-0,025	-0,049
-242,176	332,696	-0,045	0,063
-241,161	69,504	0,065	0,048
-240,146	-2,034	-0,026	0,013
-239,132	-6,049	-0,116	-0,057
-238,117	-44,389	0,061	0,022
-237,103	566,447	0,019	0,033
-236,088	800,000	0,016	0,050
-235,073	162,460	-0,049	-0,050
-234,059	-53,935	0,015	0,005
-233,044	2,129	-0,046	0,024
-232,030	-100,879	-0,061	0,011
-231,015	-46,797	0,068	-0,024
-230,000	-200,000	-0,021	-0,125
-228,986	-116,466	0,041	0,005
-227,971	98,863	0,070	-0,058
-226,957	16,528	0,053	0,030
-225,942	408,883	0,043	0,067
-224,927	-70,514	-0,133	-0,036
-223,913	-89,591	-0,077	0,016
-222,898	115,959	-0,129	-0,114
-221,884	-166,700	-0,110	0,003
-220,869	800,000	0,056	-0,149
-219,855	675,953	0,030	0,056
-218,840	800,000	-0,024	-0,054
-217,825	800,000	0,036	0,074
-216,811	-200,000	-0,003	0,063
-215,796	-200,000	0,011	0,038
-214,782	229,511	-0,081	-0,095
-213,767	-11,555	-0,043	-0,021
-212,752	-22,793	0,114	0,049
-211,738	-200,000	0,006	-0,045
-210,723	800,000	0,044	0,089
-209,709	-118,494	0,171	0,022
-208,694	800,000	-0,031	0,075
-207,679	-108,223	-0,134	0,021
-206,665	760,393	-0,045	0,089
-205,650	413,790	0,078	0,120
-204,636	-29,033	0,059	0,024
-203,621	245,828	-0,036	-0,044
-202,606	37,234	0,137	0,088
-201,592	-17,249	0,036	-0,016
-200,577	225,902	-0,121	-0,141
-199,563	225,795	-0,015	0,018
-198,548	-90,482	0,093	0,019
-197,533	-200,000	0,017	0,127
-196,519	175,574	-0,192	0,201
-195,504	-200,000	0,024	0,115
-194,490	800,000	-0,037	-0,075
-193,475	226,194	0,049	0,057
-192,460	-85,400	-0,134	0,030
-191,446	-53,582	-0,164	0,054
-190,431	-6,381	0,094	-0,046
-189,417	-200,000	0,019	-0,068
-188,402	704,763	0,010	0,019
-187,387	-15,167	0,086	-0,039
-186,373	163,184	0,053	0,053
-185,358	800,000	-0,032	-0,093
-184,344	746,867	-0,046	-0,089
-183,329	800,000	0,053	0,149
-182,315	109,283	-0,071	-0,062
-181,300	57,494	0,068	-0,048
-180,285	-200,000	-0,008	-0,158
-179,271	-200,000	0,036	-0,154
-178,256	-96,764	-0,032	0,006
-177,242	800,000	-0,048	0,128
-176,227	-122,025	0,085	-0,010
-175,212	-37,582	0,143	0,055
-174,198	-22,557	0,074	-0,032
-173,183	-200,000	-0,014	-0,069
-172,169	-200,000	-0,016	-0,078
-171,154	-84,000	0,034	0,008
-170,139	-11,763	-0,154	-0,072
-169,125	60,982	0,106	0,076
-168,110	800,000	0,072	0,159
-167,096	-200,000	0,003	0,034
-166,081	24,391	-0,115	0,068
-165,066	-89,837	0,158	-0,033
-164,052	-165,897	-0,134	0,004
-163,037	-200,000	-0,017	0,099
-162,023	83,310	-0,060	0,047
-161,008	800,000	-0,058	-0,144
-159,993	-44,914	0,124	0,044
-158,979	-121,431	-0,111	-0,013
-157,964	800,000	0,007	-0,016
-156,950	800,000	0,029	-0,082
-155,935	-104,212	0,057	0,009
-154,920	-89,352	0,046	0,010
-153,906	-51,792	-0,063	-0,021
-152,891	-200,000	-0,013	0,049
-151,877	127,435	-0,066	-0,061
-150,862	-200,000	-0,000	-0,020
-149,847	-200,000	-0,013	-0,060
-148,833	232,116	0,020	0,023
-147,818	-16,729	0,063	-0,029
-146,804	149,688	0,062	-0,061
-145,789	333,193	0,076	0,106
-144,775	-200,000	0,022	-0,124
-143,760	-20,556	0,048	-0,021
-142,745	-200,000	0,014	-0,088
-141,731	324,243	-0,059	-0,081
-140,716	582,447	-0,015	0,027
-139,702	800,000	-0,031	0,083
-138,687	20,492	-0,033	0,019
-137,672	-200,000	0,038	0,149
-136,658	40,362	-0,112	-0,073
-135,643	268,512	-0,052	-0,066
-134,629	-31,946	0,042	-0,017
-133,614	514,081	0,024	0,040
-132,599	-165,922	-0,043	0,001
-131,585	282,244	-0,042	-0,054
-130,570	-200,000	0,007	-0,040
-129,556	471,957	0,031	-0,050
-128,541	-44,986	-0,111	-0,040
-127,526	183,401	0,085	-0,090
-126,512	120,123	0,044	0,039
-125,497	-200,000	0,020	0,075
-124,483	204,925	-0,132	0,148
-123,468	-164,647	0,080	0,003
-122,453	-71,099	0,053	-0,014
-121,439	316,383	-0,017	-0,023
-120,424	-125,151	-0,107	-0,012
-119,410	47,079	-0,075	-0,050
-118,395	86,560	0,079	0,062
