DTS Sentinel unit serial number:	SN410029Multiplexer serial number:	ORYXHardware model number:	OX2-SRSoftware version number:	ORYX F/W v4,00 Oryx Data Collector v3.7.2.0data status	okinstallation	B5 Nyhavnadifferential loss correction	single-endedforward channel	channel 2reverse channel	N/Adate	2023/12/14time	14:12:13forward acquisition time	300,00reverse acquisition time	0,00gamma	499,1914k internal	0,3157k external	0,3157temperature offset calibration	1,0000default loss term (dB/km)	0,3820temperature slope calibration	1,0000multiplexer offset coefficient	1,0000multiplexer slope coefficient	1,0000fibre end	0,00T internal ref (°C)	8,05T ext. ref 1 (°C)	-7,98T ext. ref 2 (°C)	-8,05length (m)	temperature (°C)	Stokes	anti-Stokes-744,400	98,548	0,146	0,124
-743,385	-56,246	-0,404	-0,132
-742,371	-21,426	0,206	0,093
-741,356	-183,236	-0,382	-0,005
-740,342	-22,847	0,179	0,079
-739,327	-105,032	-0,400	-0,067
-738,312	-75,707	0,214	0,056
-737,298	-62,595	-0,260	-0,079
-736,283	11,924	0,134	0,076
-735,269	-24,656	-0,356	-0,156
-734,254	627,118	0,033	0,062
-733,239	-61,024	-0,533	-0,165
-732,225	62,210	0,210	0,154
-731,210	71,082	-0,107	0,081
-730,196	-200,000	-0,012	0,111
-729,181	196,607	-0,026	-0,029
-728,167	-200,000	-0,001	0,051
-727,152	169,854	0,053	-0,056
-726,137	606,414	0,021	0,040
-725,123	-61,457	-0,092	0,028
-724,108	241,763	-0,100	-0,123
-723,094	-200,000	-0,001	-0,095
-722,079	26,558	-0,051	-0,031
-721,064	-147,302	-0,033	-0,002
-720,050	15,918	0,168	-0,097
-719,035	-22,418	-0,053	0,023
-718,021	800,000	-0,025	0,052
-717,006	800,000	0,037	-0,118
-715,991	551,607	-0,065	-0,116
-714,977	-125,898	-0,066	-0,007
-713,962	-83,888	-0,071	-0,017
-712,948	800,000	-0,059	-0,125
-711,933	-172,068	0,125	0,003
-710,918	-151,385	-0,091	-0,005
-709,904	-200,000	0,015	-0,078
-708,889	-200,000	-0,006	-0,050
-707,875	560,848	-0,079	-0,142
-706,860	141,278	0,020	0,019
-705,845	-66,305	-0,047	0,014
-704,831	-57,725	0,184	0,059
-703,816	-100,912	-0,083	0,015
-702,802	140,163	-0,112	-0,109
-701,787	85,278	0,045	-0,036
-700,772	-58,362	-0,088	-0,028
-699,758	324,102	0,072	-0,101
-698,743	-46,111	0,053	-0,019
-697,729	250,590	-0,052	0,065
-696,714	542,921	-0,093	0,164
-695,699	352,096	0,033	0,048
-694,685	177,432	-0,083	-0,089
-693,670	800,000	-0,038	0,083
-692,656	800,000	-0,051	0,153
-691,641	786,151	0,053	0,108
-690,627	260,944	0,107	0,136
-689,612	-8,899	0,031	0,015
-688,597	-59,171	-0,205	0,065
-687,583	328,486	-0,051	0,073
-686,568	21,130	-0,102	-0,061
-685,554	5,381	-0,166	-0,090
-684,539	-135,175	0,057	-0,005
-683,524	-68,048	-0,092	-0,026
-682,510	107,574	0,082	-0,072
-681,495	-100,087	-0,020	-0,004
-680,481	-79,210	-0,067	0,017
-679,466	112,608	-0,027	-0,024
-678,451	800,000	-0,030	-0,067
-677,437	186,391	-0,057	-0,063
-676,422	19,352	0,074	0,043
-675,408	219,275	0,041	-0,049
-674,393	85,922	-0,022	0,018
-673,378	-63,621	-0,045	-0,014
-672,364	-200,000	0,014	-0,177
-671,349	-200,000	-0,005	0,082
-670,335	-76,670	0,102	0,026
-669,320	119,446	0,052	0,047
-668,305	-200,000	-0,014	0,069
-667,291	98,080	-0,017	0,014
-666,276	226,841	0,046	-0,054
-665,262	420,404	-0,098	-0,154
-664,247	203,525	-0,073	-0,083
-663,232	-112,854	0,147	0,021
-662,218	-30,516	-0,037	-0,015
-661,203	-121,134	0,038	0,005
-660,189	722,863	0,046	0,091
-659,174	227,007	0,034	0,040
-658,159	-12,495	-0,085	0,041
-657,145	800,000	-0,014	0,040
-656,130	-10,432	-0,073	-0,035
-655,116	-189,229	0,154	-0,001
-654,101	395,313	0,016	0,024
-653,086	-200,000	-0,004	0,190
-652,072	638,978	0,040	0,075
-651,057	800,000	-0,070	0,161
-650,043	-200,000	-0,019	-0,096
-649,028	-107,315	-0,079	-0,013
-648,014	105,162	-0,127	-0,110
-646,999	-91,606	0,092	0,019
-645,984	-63,573	-0,006	0,002
-644,970	-200,000	-0,014	-0,060
-643,955	-108,310	0,061	-0,010
-642,941	-200,000	-0,012	-0,078
-641,926	-0,151	-0,098	-0,051
-640,911	800,000	0,026	0,064
-639,897	497,767	-0,018	-0,031
-638,882	-200,000	0,020	-0,065
-637,868	-200,000	-0,000	0,161
-636,853	336,775	-0,043	-0,061
-635,838	-200,000	-0,031	-0,133
-634,824	800,000	0,045	0,131
-633,809	51,452	0,156	0,109
-632,795	-104,747	-0,092	-0,015
-631,780	-200,000	0,010	0,125
-630,765	-200,000	0,019	-0,150
-629,751	800,000	-0,051	-0,132
-628,736	-56,152	-0,184	0,060
-627,722	-108,814	-0,050	-0,008
-626,707	-172,774	0,111	-0,002
-625,692	354,278	0,041	0,060
-624,678	-200,000	-0,013	-0,117
-623,663	314,126	-0,063	-0,087
-622,649	800,000	0,055	-0,169
-621,634	-42,101	0,115	-0,043
-620,619	-200,000	0,005	-0,061
-619,605	-118,868	-0,073	0,009
-618,590	170,223	-0,053	-0,055
-617,576	695,534	0,048	0,092
-616,561	-200,000	-0,039	-0,000
-615,546	15,072	-0,088	0,050
-614,532	29,123	-0,056	-0,035
-613,517	173,404	-0,025	-0,026
-612,503	-88,322	0,144	-0,031
-611,488	-133,507	0,103	0,009
-610,474	78,881	-0,030	-0,023
-609,459	231,235	-0,046	-0,055
-608,444	-134,156	0,099	0,009
-607,430	800,000	-0,013	-0,040
-606,415	-200,000	0,025	-0,118
-605,401	352,809	0,019	-0,027
-604,386	-200,000	0,014	-0,055
-603,371	-139,708	0,150	-0,012
-602,357	81,627	0,100	-0,079
-601,342	96,146	-0,051	-0,043
-600,328	101,728	0,036	0,031
-599,313	673,676	0,010	-0,019
-598,298	120,382	0,117	0,107
-597,284	142,637	0,022	-0,022
-596,269	-24,971	0,043	0,019
-595,255	800,000	0,072	0,209
-594,240	800,000	0,002	0,007
-593,225	-11,581	-0,108	-0,052
-592,211	382,105	-0,076	-0,115
-591,196	377,085	0,048	0,073
-590,182	-200,000	0,052	0,168
-589,167	613,956	0,043	0,080
-588,152	141,952	0,086	0,083
-587,138	-200,000	0,018	-0,061
-586,123	83,754	-0,133	-0,106
-585,109	-200,000	-0,002	0,060
-584,094	-77,879	-0,092	0,023
-583,079	276,830	0,041	-0,053
-582,065	800,000	0,037	0,110
-581,050	223,277	0,026	0,031
-580,036	4,584	-0,180	0,096
-579,021	-76,382	-0,060	0,015
-578,006	800,000	-0,025	0,058
-576,992	-112,370	-0,096	-0,014
-575,977	-46,852	-0,066	-0,023
-574,963	-200,000	0,019	0,142
-573,948	422,907	0,015	-0,024
-572,934	47,774	-0,077	-0,053
-571,919	4,620	-0,092	-0,050
-570,904	-104,055	0,025	-0,004
-569,890	202,962	0,056	0,063
-568,875	-126,285	-0,126	0,014
-567,861	-200,000	0,010	0,032
-566,846	194,763	0,072	0,080
-565,831	800,000	-0,028	-0,086
-564,817	500,784	-0,088	-0,150
-563,802	113,343	0,042	-0,037
-562,788	-200,000	0,019	0,087
-561,773	-200,000	-0,012	-0,140
-560,758	-86,033	0,035	-0,008
-559,744	-36,500	0,039	0,015
-558,729	-83,739	0,056	0,013
-557,715	-64,723	-0,076	0,022
-556,700	30,978	0,023	-0,014
-555,685	23,510	0,026	0,015
-554,671	3,042	0,056	0,030
-553,656	-200,000	0,018	0,237
-552,642	620,433	0,017	0,031
-551,627	117,760	0,067	0,060
-550,612	-171,815	-0,132	-0,003
-549,598	-200,000	0,023	-0,099
-548,583	505,923	-0,058	0,099
-547,569	-200,000	0,018	0,103
-546,554	-195,981	0,072	0,000
-545,539	-79,645	-0,079	-0,019
-544,525	-116,475	-0,064	-0,008
-543,510	-200,000	-0,024	0,137
-542,496	800,000	-0,031	-0,064
-541,481	-200,000	-0,008	-0,146
-540,466	-50,246	-0,040	-0,014
-539,452	267,810	-0,045	0,058
-538,437	154,524	-0,044	0,044
-537,423	-200,000	0,005	-0,036
-536,408	-98,762	-0,044	-0,008
-535,393	-127,722	-0,083	0,009
-534,379	-140,425	-0,055	0,004
-533,364	800,000	-0,022	-0,067
-532,350	800,000	0,025	0,081
-531,335	-58,322	-0,150	0,047
-530,321	-200,000	0,014	0,067
-529,306	-200,000	-0,007	-0,045
-528,291	25,642	0,101	0,062
-527,277	-146,482	-0,026	0,002
-526,262	2,628	0,056	-0,030
-525,248	129,041	-0,144	-0,134
-524,233	-178,170	0,139	-0,002
-523,218	-21,692	0,098	0,044
-522,204	-10,468	-0,065	-0,031
-521,189	-102,641	-0,013	-0,002
-520,175	-81,653	0,152	0,036
-519,160	411,841	0,115	-0,179
-518,145	93,209	-0,017	0,014
-517,131	-74,593	0,114	-0,030
-516,116	800,000	-0,019	0,043
-515,102	55,291	0,154	0,109
-514,087	800,000	0,031	0,075
-513,072	-159,580	0,095	-0,004
-512,058	48,997	0,163	-0,112
-511,043	800,000	0,026	0,068
-510,029	60,360	-0,118	0,085
-509,014	612,152	0,017	-0,031
-507,999	50,717	-0,104	0,072
-506,985	800,000	-0,075	0,158
-505,970	85,644	-0,119	0,096
-504,956	-1,835	0,075	-0,038
-503,941	800,000	0,059	-0,129
-502,926	-200,000	0,003	0,064
-501,912	-200,000	-0,007	-0,193
-500,897	-20,394	0,049	-0,022
-499,883	113,119	-0,087	0,077
-498,868	124,841	-0,056	-0,051
-497,853	-200,000	-0,019	-0,065
-496,839	149,122	-0,156	-0,154
-495,824	-120,738	0,124	0,015
-494,810	-43,802	0,050	-0,018
-493,795	-200,000	-0,009	-0,037
-492,781	-200,000	-0,001	-0,152
-491,766	-3,630	0,053	0,027
-490,751	-68,608	-0,047	-0,013
-489,737	294,502	0,041	0,054
-488,722	41,649	-0,070	0,046
-487,708	-95,272	0,060	-0,012
-486,693	450,227	-0,041	-0,067
-485,678	-130,147	0,112	-0,011
-484,664	298,870	-0,105	-0,142
-483,649	-200,000	0,002	-0,039
-482,635	192,589	0,052	0,058
-481,620	-89,421	0,106	0,023
-480,605	-20,599	-0,087	-0,039
-479,591	629,629	-0,020	-0,036
-478,576	-154,385	-0,177	-0,009
-477,562	72,057	-0,113	-0,085
-476,547	-200,000	-0,005	-0,112
-475,532	800,000	-0,048	-0,110
-474,518	-200,000	0,011	-0,130
-473,503	-27,748	-0,121	0,051
-472,489	187,788	-0,013	0,014
-471,474	159,159	-0,032	-0,032
-470,459	800,000	0,024	-0,066
-469,445	-200,000	-0,007	-0,148
-468,430	-200,000	0,005	-0,041
-467,416	-7,651	-0,119	-0,058
-466,401	188,578	-0,067	-0,074
-465,386	-85,657	-0,070	-0,016
-464,372	270,223	0,069	-0,088
-463,357	800,000	-0,037	-0,084
-462,343	-200,000	-0,004	-0,108
-461,328	595,725	-0,014	0,025
-460,313	-200,000	-0,008	-0,027
-459,299	-108,231	0,184	0,029
-458,284	800,000	-0,060	0,129
-457,270	-113,181	-0,039	0,006
-456,255	-46,569	0,050	-0,018
-455,241	-128,414	0,093	-0,009
-454,226	-160,882	-0,077	-0,003
-453,211	-152,686	0,120	-0,006
-452,197	107,909	-0,127	0,110
-451,182	-20,598	-0,010	0,005
-450,168	740,599	0,043	0,084
-449,153	396,413	-0,038	0,058
-448,138	37,107	-0,013	0,009
-447,124	298,705	0,059	-0,080
-446,109	214,653	-0,049	0,057
-445,095	800,000	0,028	0,078
-444,080	166,793	-0,006	-0,006
-443,065	4,558	0,034	0,018
-442,051	-32,514	-0,116	-0,047
-441,036	-35,143	0,032	0,012
-440,022	800,000	0,042	-0,101
-439,007	97,429	-0,083	0,069
-437,992	-200,000	0,008	0,097
-436,978	407,131	-0,037	-0,058
-435,963	800,000	-0,019	-0,043
-434,949	800,000	-0,035	-0,087
-433,934	28,527	0,145	-0,089
-432,919	-200,000	0,020	-0,091
-431,905	800,000	0,023	-0,058
-430,890	-2,318	0,057	0,029
-429,876	686,986	-0,031	0,060
-428,861	257,780	-0,042	0,053
-427,846	359,537	0,062	-0,091
-426,832	-102,684	-0,201	0,035
-425,817	-200,000	-0,031	-0,142
-424,803	-69,265	-0,077	-0,021
-423,788	174,284	-0,124	0,131
-422,773	76,220	0,094	-0,072
-421,759	800,000	0,022	0,051
-420,744	624,325	-0,008	-0,015
-419,730	37,338	-0,099	-0,064
-418,715	800,000	-0,034	-0,076
-417,701	22,875	-0,055	0,033
-416,686	-25,706	0,054	0,023
-415,671	143,611	0,099	0,096
-414,657	-28,553	0,068	0,029
-413,642	132,246	-0,098	-0,092
-412,628	800,000	0,021	-0,067
-411,613	-40,095	0,037	0,014
-410,598	-200,000	-0,013	0,054
-409,584	-106,615	0,051	-0,008
-408,569	-200,000	0,013	0,127
-407,555	-58,827	0,051	-0,016
-406,540	271,638	0,081	-0,104
-405,525	49,047	-0,101	0,069
-404,511	763,675	0,068	-0,135
-403,496	428,227	-0,061	0,096
-402,482	-200,000	-0,005	0,069
-401,467	-200,000	-0,009	0,065
-400,452	641,353	0,064	0,120
-399,438	-58,303	-0,074	0,023
-398,423	-121,464	-0,116	-0,014
-397,409	328,134	-0,035	0,049
-396,394	-200,000	-0,002	-0,011
-395,379	168,336	0,027	-0,028
-394,365	48,817	-0,077	-0,053
-393,350	-200,000	0,002	0,042
-392,336	51,495	0,086	0,059
-391,321	-200,000	-0,014	0,081
-390,306	265,425	0,080	0,102
-389,292	-117,443	0,020	-0,003
-388,277	-23,258	0,063	-0,028
-387,263	-109,225	0,064	-0,010
-386,248	120,284	0,057	0,052
-385,233	-200,000	0,001	-0,005
-384,219	108,605	0,088	-0,076
-383,204	546,979	0,022	0,039
-382,190	-110,598	-0,118	0,018
-381,175	772,928	-0,046	0,091
-380,160	-26,116	0,077	-0,033
-379,146	73,564	0,095	0,072
-378,131	25,469	-0,085	-0,051
-377,117	759,696	0,015	-0,029
-376,102	171,310	-0,042	0,044
-375,088	-30,258	-0,017	0,007
-374,073	687,987	0,089	-0,171
-373,058	800,000	0,028	0,065
-372,044	-200,000	0,013	0,048
-371,029	-25,971	0,129	0,055
-370,015	384,697	-0,047	0,070
-369,000	-200,000	-0,010	0,125
-367,985	-200,000	0,008	-0,090
-366,971	-80,381	-0,030	0,007
-365,956	9,197	0,055	-0,030
-364,942	135,865	0,055	0,052
-363,927	39,218	-0,062	0,040
-362,912	177,787	0,102	-0,108
-361,898	214,895	0,039	-0,044
-360,883	24,532	0,082	0,049
-359,869	-93,214	-0,065	0,013
-358,854	-12,233	0,055	-0,026
-357,839	196,901	-0,086	0,096
-356,825	16,411	0,066	-0,038
-355,810	26,409	0,032	-0,019
-354,796	-200,000	0,003	-0,135
-353,781	181,270	-0,012	-0,013
-352,766	-68,306	-0,086	0,024
-351,752	-200,000	0,011	0,102
-350,737	223,033	0,062	0,073
-349,723	33,181	-0,068	0,043
-348,708	-200,000	0,029	0,135
-347,693	255,361	-0,008	-0,010
-346,679	105,250	0,076	0,065
-345,664	112,522	-0,168	-0,147
-344,650	282,961	0,051	0,066
-343,635	-84,138	-0,068	0,015
-342,620	800,000	-0,067	-0,163
-341,606	53,482	0,106	0,074
-340,591	800,000	-0,020	-0,058
-339,577	-80,729	0,064	-0,015
-338,562	762,385	0,019	-0,038
-337,548	-200,000	-0,009	0,056
-336,533	-12,683	0,089	-0,042
-335,518	-91,733	-0,012	0,002
-334,504	-52,670	0,090	-0,030
-333,489	-24,528	0,068	0,029
-332,475	800,000	0,023	0,069
-331,460	-114,515	-0,189	-0,026
-330,445	81,954	-0,026	-0,020
-329,431	68,942	-0,146	-0,108
-328,416	-125,660	0,125	-0,014
-327,402	800,000	-0,035	0,071
-326,387	16,602	0,118	-0,067
-325,372	800,000	-0,042	-0,089
-324,358	197,739	0,083	-0,092
-323,343	-129,117	-0,072	-0,007
-322,329	800,000	0,014	-0,038
-321,314	670,254	0,012	0,022
-320,299	800,000	-0,056	0,115
-319,285	800,000	0,047	0,104
-318,270	-200,000	0,006	0,059
-317,256	-200,000	0,037	-0,146
-316,241	-200,000	0,012	0,088
-315,226	490,958	-0,061	0,102
-314,212	-200,000	0,010	0,148
-313,197	87,813	0,075	0,060
-312,183	477,104	-0,085	-0,139
-311,168	800,000	-0,041	-0,085
-310,153	-200,000	-0,011	-0,096
-309,139	-31,508	-0,054	-0,022
-308,124	55,326	0,059	0,041
-307,110	87,295	-0,123	0,098
-306,095	-200,000	-0,001	0,012
-305,080	-200,000	0,009	0,149
-304,066	-45,971	0,077	0,028
-303,051	-200,000	-0,030	0,114
-302,037	-9,059	0,074	-0,036
-301,022	514,568	0,075	-0,127
-300,008	206,713	-0,070	0,079
-298,993	-200,000	-0,010	0,057
-297,978	-12,679	0,050	0,024
-296,964	-200,000	0,003	-0,073
-295,949	-31,277	-0,098	0,040
-294,935	-200,000	0,043	-0,140
-293,920	-200,000	-0,004	0,085
-292,905	-64,827	-0,094	-0,027
-291,891	34,170	0,017	-0,011
-290,876	235,858	0,103	0,123
-289,862	-47,773	0,115	0,040
-288,847	-154,987	-0,116	0,005
-287,832	-76,817	0,196	0,049
-286,818	-110,516	0,110	-0,016
-285,803	354,523	0,033	0,047
-284,789	-102,804	-0,106	0,018
-283,774	660,052	0,065	0,121
-282,759	-178,971	-0,133	-0,002
-281,745	563,741	0,032	0,056
-280,730	-200,000	0,009	0,054
-279,716	-200,000	-0,014	-0,196
-278,701	192,020	-0,055	0,060
-277,686	224,015	0,011	-0,013
-276,672	218,076	0,066	0,077
-275,657	204,906	0,016	-0,018
-274,643	-200,000	-0,010	0,106
-273,628	-200,000	-0,007	-0,178
-272,613	58,890	0,081	-0,057
-271,599	-200,000	0,007	0,109
-270,584	-200,000	-0,001	0,050
-269,570	-200,000	0,007	-0,052
-268,555	800,000	-0,037	-0,075
-267,540	-5,548	-0,042	-0,021
-266,526	-200,000	0,005	-0,139
-265,511	233,199	-0,040	0,048
-264,497	38,315	0,020	-0,013
-263,482	64,094	0,023	0,016
-262,467	-200,000	0,016	-0,097
-261,453	800,000	-0,022	0,057
-260,438	-137,304	-0,074	-0,006
-259,424	158,238	-0,044	0,044
-258,409	800,000	-0,018	0,043
-257,395	263,342	0,037	-0,047
-256,380	-200,000	0,039	0,153
-255,365	68,202	-0,070	0,052
-254,351	-22,311	-0,098	-0,043
-253,336	383,873	0,036	0,054
-252,322	403,948	-0,034	-0,052
-251,307	-70,195	0,022	0,006
-250,292	-135,967	-0,073	-0,006
-249,278	-200,000	0,011	0,060
-248,263	43,359	-0,002	0,001
-247,249	-47,994	0,104	0,036
-246,234	58,314	-0,057	-0,040
-245,219	-65,469	-0,101	-0,029
-244,205	419,046	0,053	-0,082
-243,190	-18,632	-0,053	-0,024
-242,176	91,722	-0,054	0,044
-241,161	-61,005	-0,081	0,025
-240,146	-4,335	-0,066	-0,033
-239,132	-200,000	0,006	0,041
-238,117	800,000	-0,041	-0,125
-237,103	109,282	0,095	-0,082
-236,088	-154,894	0,188	-0,009
-235,073	-200,000	-0,007	-0,044
-234,059	-135,992	0,146	-0,012
-233,044	492,682	0,040	0,066
-232,030	-200,000	-0,013	0,083
-231,015	312,931	-0,049	-0,067
-230,000	-130,654	0,093	0,009
-228,986	-200,000	-0,003	0,109
-227,971	-32,425	-0,055	-0,022
-226,957	-200,000	0,028	0,180
-225,942	-80,253	0,058	0,014
-224,927	-115,922	-0,131	-0,017
-223,913	-42,394	-0,037	0,014
-222,898	433,910	0,063	-0,099
-221,884	-11,303	-0,070	0,033
-220,869	-200,000	0,009	0,037
-219,855	175,840	0,066	0,070
-218,840	159,079	-0,017	0,017
-217,825	-200,000	0,018	-0,085
-216,811	284,366	-0,084	-0,110
-215,796	-200,000	0,008	-0,147
-214,782	247,825	-0,048	-0,059
-213,767	19,892	0,047	-0,027
-212,752	-200,000	-0,015	0,085
-211,738	-179,203	0,156	-0,002
-210,723	-91,306	0,073	-0,015
-209,709	-167,382	0,075	-0,002
-208,694	-200,000	-0,010	-0,039
-207,679	-200,000	-0,048	-0,175
-206,665	-174,052	0,130	0,003
-205,650	-200,000	0,026	0,120
-204,636	-163,993	-0,046	-0,002
-203,621	800,000	-0,023	-0,064
-202,606	467,801	-0,037	-0,060
-201,592	4,164	-0,105	-0,055
-200,577	-102,937	0,119	-0,020
-199,563	-83,180	-0,169	-0,039
-198,548	216,949	-0,027	-0,031
-197,533	-200,000	-0,020	0,138
-196,519	-98,152	-0,038	0,007
-195,504	-67,809	-0,041	-0,012
-194,490	44,002	0,050	-0,033
-193,475	-200,000	0,001	-0,071
-192,460	-190,448	-0,070	0,001
-191,446	16,350	-0,075	-0,043
-190,431	-200,000	-0,042	-0,148
-189,417	-57,124	0,035	-0,011
-188,402	-200,000	-0,007	-0,108
-187,387	-196,120	-0,059	-0,000
-186,373	203,899	-0,023	0,026
-185,358	-200,000	0,031	-0,110
-184,344	367,991	-0,032	-0,047
-183,329	-200,000	0,030	-0,101
-182,315	414,599	0,090	0,138
-181,300	60,860	0,147	0,105
-180,285	-200,000	0,007	-0,081
-179,271	-87,693	0,048	-0,010
-178,256	-67,438	-0,098	0,028
-177,242	-76,028	0,108	0,027
-176,227	-200,000	-0,022	0,137
-175,212	800,000	0,087	0,272
-174,198	-49,287	-0,078	0,027
-173,183	-60,385	0,130	0,040
-172,169	-129,454	-0,139	0,014
-171,154	39,482	0,031	-0,020
-170,139	214,856	0,079	-0,091
-169,125	-94,407	0,101	0,020
-168,110	800,000	-0,039	0,101
-167,096	800,000	0,030	0,060
-166,081	273,567	-0,080	0,103
-165,066	29,095	0,151	-0,092
-164,052	800,000	0,032	0,102
-163,037	-200,000	0,010	0,047
-162,023	-200,000	-0,003	-0,056
-161,008	-22,097	0,072	0,031
-159,993	-184,648	-0,239	-0,003
-158,979	-93,760	-0,068	-0,013
-157,964	-200,000	-0,016	0,133
-156,950	-156,255	-0,157	-0,007
-155,935	258,894	0,085	0,106
-154,920	-200,000	0,008	0,110
-153,906	56,009	0,106	0,074
-152,891	500,446	0,040	0,067
-151,877	-40,116	-0,064	-0,024
-150,862	-200,000	0,017	-0,098
-149,847	181,598	0,062	0,065
-148,833	-32,557	-0,168	0,067
-147,818	-21,896	0,090	0,039
-146,804	61,757	-0,031	0,022
-145,789	40,885	-0,046	0,030
-144,775	350,912	-0,033	0,048
-143,760	800,000	0,033	0,078
-142,745	-200,000	0,001	-0,055
-141,731	689,767	0,062	0,117
-140,716	-200,000	0,011	-0,066
-139,702	608,037	-0,116	-0,209
-138,687	477,929	0,009	-0,014
-137,672	4,627	-0,043	0,023
-136,658	-200,000	0,018	0,134
-135,643	118,411	-0,074	-0,066
-134,629	-107,784	0,035	0,005
-133,614	63,614	0,049	0,036
-132,599	-49,878	0,023	-0,008
-131,585	248,921	0,025	0,030
-130,570	-200,000	0,004	-0,024
-129,556	-143,473	-0,099	0,007
-128,541	-200,000	-0,003	-0,113
-127,526	1,344	0,116	0,060
-126,512	-200,000	0,010	-0,037
-125,497	271,363	-0,064	0,081
-124,483	-200,000	-0,043	0,186
-123,468	-200,000	-0,011	0,068
-122,453	59,699	-0,009	-0,006
-121,439	111,534	0,126	-0,109
-120,424	177,609	0,044	0,046
-119,410	-124,070	0,077	0,009
