DTS Sentinel unit serial number:	SN410029Multiplexer serial number:	ORYXHardware model number:	OX2-SRSoftware version number:	ORYX F/W v4,00 Oryx Data Collector v3.7.2.0data status	okinstallation	B5 Nyhavnadifferential loss correction	single-endedforward channel	channel 2reverse channel	N/Adate	2023/12/14time	09:42:13forward acquisition time	300,00reverse acquisition time	0,00gamma	499,1914k internal	0,3161k external	0,3161temperature offset calibration	1,0000default loss term (dB/km)	0,3820temperature slope calibration	1,0000multiplexer offset coefficient	1,0000multiplexer slope coefficient	1,0000fibre end	0,00T internal ref (°C)	6,92T ext. ref 1 (°C)	-9,32T ext. ref 2 (°C)	-9,38length (m)	temperature (°C)	Stokes	anti-Stokes-744,400	-30,461	0,225	0,093
-743,385	-131,483	-0,499	-0,048
-742,371	-94,752	0,313	0,062
-741,356	-96,142	-0,375	-0,073
-740,342	-138,721	0,283	-0,022
-739,327	-75,358	-0,371	-0,097
-738,312	330,625	0,200	0,285
-737,298	-160,647	-0,342	0,013
-736,283	-87,317	0,220	0,049
-735,269	-65,823	-0,351	-0,103
-734,254	221,189	0,225	0,267
-733,239	-15,898	-0,598	-0,279
-732,225	18,194	0,184	0,108
-731,210	-200,000	-0,005	0,085
-730,196	50,122	-0,086	0,059
-729,181	114,757	-0,046	0,041
-728,167	174,696	0,057	-0,060
-727,152	800,000	-0,036	0,088
-726,137	-121,752	-0,086	0,010
-725,123	-200,000	0,011	-0,117
-724,108	118,425	0,044	0,040
-723,094	-200,000	-0,018	-0,177
-722,079	-83,917	-0,044	-0,010
-721,064	314,234	-0,032	0,044
-720,050	-200,000	-0,026	-0,091
-719,035	800,000	0,049	0,115
-718,021	262,501	-0,081	-0,104
-717,006	-24,973	-0,068	-0,030
-715,991	-200,000	-0,008	-0,074
-714,977	-64,569	-0,108	-0,032
-713,962	317,892	0,041	0,057
-712,948	-200,000	0,000	0,028
-711,933	-200,000	0,009	-0,058
-710,918	88,982	0,053	-0,044
-709,904	800,000	-0,038	-0,103
-708,889	800,000	-0,081	0,191
-707,875	65,446	-0,165	-0,123
-706,860	173,923	-0,008	0,009
-705,845	507,896	0,023	0,039
-704,831	800,000	0,054	0,112
-703,816	9,486	-0,062	-0,034
-702,802	-200,000	-0,010	0,045
-701,787	-66,973	0,030	0,009
-700,772	727,216	-0,081	-0,160
-699,758	480,480	0,059	0,099
-698,743	48,328	-0,010	-0,007
-697,729	74,365	-0,095	-0,074
-696,714	800,000	-0,053	0,108
-695,699	-131,264	0,036	0,003
-694,685	-200,000	-0,003	-0,115
-693,670	-200,000	-0,015	0,203
-692,656	351,590	-0,015	0,023
-691,641	-200,000	0,013	-0,049
-690,627	-200,000	0,018	-0,064
-689,612	10,917	-0,191	0,107
-688,597	-62,619	0,042	-0,013
-687,583	81,280	-0,054	-0,043
-686,568	-200,000	0,008	0,048
-685,554	-200,000	0,026	-0,088
-684,539	800,000	-0,080	0,202
-683,524	467,827	-0,040	-0,066
-682,510	-99,499	0,154	-0,028
-681,495	-146,004	-0,167	-0,011
-680,481	20,592	-0,019	0,012
-679,466	-200,000	-0,022	-0,118
-678,451	171,165	0,036	-0,038
-677,437	98,144	-0,107	0,091
-676,422	344,243	0,074	0,107
-675,408	800,000	-0,013	-0,037
-674,393	122,444	-0,128	-0,117
-673,378	234,293	-0,038	-0,046
-672,364	-200,000	-0,014	0,049
-671,349	422,529	0,004	-0,006
-670,335	489,807	-0,038	-0,064
-669,320	-130,637	0,084	-0,008
-668,305	-200,000	0,009	0,071
-667,291	-141,087	-0,055	-0,004
-666,276	34,521	-0,150	0,096
-665,262	-200,000	-0,014	0,066
-664,247	-92,435	0,098	-0,020
-663,232	-158,339	-0,216	-0,009
-662,218	-21,876	-0,041	0,018
-661,203	-65,553	0,049	-0,014
-660,189	290,983	-0,048	0,065
-659,174	-26,519	0,012	0,005
-658,159	397,384	-0,114	-0,176
-657,145	-0,241	0,020	0,010
-656,130	19,208	-0,072	0,043
-655,116	-111,161	0,092	-0,014
-654,101	34,119	0,058	0,037
-653,086	129,564	-0,111	-0,104
-652,072	-69,110	0,045	0,013
-651,057	-55,288	-0,112	-0,037
-650,043	144,902	0,063	-0,062
-649,028	-79,969	-0,067	0,016
-648,014	-200,000	-0,003	0,039
-646,999	800,000	-0,056	-0,118
-645,984	800,000	-0,054	0,135
-644,970	-200,000	-0,064	-0,000
-643,955	-55,251	0,089	0,029
-642,941	-89,267	0,065	-0,014
-641,926	-71,919	0,047	0,013
-640,911	800,000	-0,070	0,197
-639,897	-200,000	-0,008	-0,032
-638,882	-48,155	-0,060	0,021
-637,868	800,000	-0,068	0,154
-636,853	152,931	0,080	-0,080
-635,838	-200,000	-0,034	-0,117
-634,824	348,943	-0,057	-0,082
-633,809	-200,000	-0,040	-0,141
-632,795	-132,705	0,068	-0,006
-631,780	-21,974	-0,044	-0,019
-630,765	800,000	0,018	0,054
-629,751	46,143	-0,050	-0,034
-628,736	14,657	-0,170	-0,097
-627,722	267,586	-0,053	0,068
-626,707	527,295	0,063	0,109
-625,692	170,288	0,074	-0,077
-624,678	-200,000	-0,005	0,112
-623,663	-11,708	0,136	-0,065
-622,649	29,410	0,065	-0,040
-621,634	72,240	-0,110	-0,084
-620,619	223,924	-0,116	-0,138
-619,605	-58,497	-0,072	-0,023
-618,590	-32,357	-0,106	-0,043
-617,576	64,222	0,064	0,047
-616,561	-200,000	0,001	-0,048
-615,546	307,348	0,024	-0,033
-614,532	-200,000	0,025	-0,087
-613,517	-200,000	0,007	0,034
-612,503	124,050	-0,137	-0,126
-611,488	-52,938	-0,114	0,038
-610,474	323,301	-0,065	-0,091
-609,459	800,000	0,031	0,079
-608,444	-200,000	-0,001	-0,013
-607,430	-200,000	0,025	-0,085
-606,415	800,000	0,038	-0,109
-605,401	-111,951	-0,101	-0,015
-604,386	225,700	0,036	0,043
-603,371	800,000	0,033	0,095
-602,357	800,000	0,009	0,022
-601,342	-106,849	0,090	0,014
-600,328	536,674	-0,035	0,060
-599,313	-200,000	-0,033	-0,149
-598,298	-67,168	-0,070	0,020
-597,284	-200,000	0,005	-0,023
-596,269	-200,000	-0,001	-0,010
-595,255	192,956	0,040	-0,045
-594,240	117,489	-0,139	-0,125
-593,225	800,000	-0,053	-0,141
-592,211	-200,000	-0,023	-0,112
-591,196	208,894	-0,048	-0,055
-590,182	-142,947	0,215	0,015
-589,167	228,518	-0,054	0,064
-588,152	-200,000	-0,020	0,078
-587,138	762,471	-0,034	0,067
-586,123	-31,930	-0,040	-0,016
-585,109	-200,000	-0,025	-0,177
-584,094	95,570	-0,056	0,047
-583,079	16,361	0,061	-0,035
-582,065	800,000	-0,060	0,169
-581,050	-102,648	0,116	0,020
-580,036	800,000	-0,050	-0,103
-579,021	-200,000	0,006	-0,114
-578,006	-103,158	-0,036	-0,006
-576,992	800,000	-0,038	-0,111
-575,977	-83,611	0,154	-0,036
-574,963	186,468	0,044	0,048
-573,948	-200,000	0,010	0,042
-572,934	-176,080	-0,099	-0,002
-571,919	-96,915	-0,128	-0,024
-570,904	-116,320	-0,183	0,024
-569,890	190,541	-0,052	0,057
-568,875	24,267	0,069	-0,042
-567,861	-28,536	-0,039	-0,017
-566,846	90,683	-0,072	-0,059
-565,831	14,141	-0,108	0,061
-564,817	-71,023	0,077	0,021
-563,802	358,338	0,062	-0,090
-562,788	800,000	0,022	-0,052
-561,773	63,947	0,038	-0,028
-560,758	800,000	-0,038	-0,082
-559,744	-109,483	0,096	0,015
-558,729	83,211	-0,071	-0,056
-557,715	149,432	0,063	0,063
-556,700	161,458	-0,063	0,064
-555,685	483,169	-0,059	0,098
-554,671	-200,000	0,004	0,044
-553,656	-200,000	-0,017	-0,089
-552,642	-200,000	-0,019	0,105
-551,627	-39,002	0,041	-0,016
-550,612	242,443	0,036	0,044
-549,598	135,523	0,116	-0,111
-548,583	-200,000	0,000	0,014
-547,569	144,850	-0,037	-0,036
-546,554	53,318	-0,043	-0,030
-545,539	157,218	-0,059	0,060
-544,525	-200,000	0,002	0,030
-543,510	591,520	0,050	0,090
-542,496	-200,000	-0,031	-0,116
-541,481	169,584	0,023	-0,024
-540,466	-200,000	-0,015	0,096
-539,452	800,000	-0,035	-0,086
-538,437	-22,530	0,170	0,075
-537,423	800,000	0,060	0,122
-536,408	0,382	-0,193	-0,100
-535,393	-200,000	0,025	-0,217
-534,379	320,396	-0,127	-0,177
-533,364	190,126	0,057	-0,062
-532,350	199,892	0,072	0,081
-531,335	734,685	0,040	0,078
-530,321	93,487	-0,012	0,010
-529,306	0,006	-0,137	0,071
-528,291	-52,542	-0,110	-0,037
-527,277	20,885	-0,078	-0,046
-526,262	-200,000	-0,014	0,096
-525,248	800,000	0,037	0,105
-524,233	782,145	0,080	0,161
-523,218	-139,684	-0,087	0,007
-522,204	-200,000	-0,019	0,070
-521,189	281,145	-0,050	0,065
-520,175	324,436	-0,019	-0,027
-519,160	800,000	0,054	0,127
-518,145	14,866	-0,035	-0,020
-517,131	123,443	0,066	0,060
-516,116	-200,000	-0,008	0,027
-515,102	288,192	-0,051	-0,067
-514,087	287,469	-0,042	-0,056
-513,072	-30,772	0,036	-0,015
-512,058	-40,639	-0,025	0,009
-511,043	433,835	0,076	0,121
-510,029	-86,332	0,164	0,037
-509,014	-55,109	0,065	-0,021
-507,999	14,323	0,060	-0,034
-506,985	27,200	-0,108	0,066
-505,970	417,015	-0,037	-0,058
-504,956	-168,668	0,115	0,003
-503,941	-33,927	-0,034	0,014
-502,926	313,956	-0,063	-0,087
-501,912	586,740	0,052	0,094
-500,897	357,777	-0,123	0,180
-499,883	61,546	-0,157	-0,114
-498,868	451,335	-0,067	-0,108
-497,853	-39,503	0,095	-0,036
-496,839	-9,403	0,078	-0,038
-495,824	251,162	0,057	-0,071
-494,810	-200,000	-0,012	0,107
-493,795	800,000	0,028	-0,083
-492,781	193,631	0,018	-0,020
-491,766	0,514	-0,186	0,097
-490,751	328,627	0,006	-0,008
-489,737	-200,000	0,007	0,080
-488,722	800,000	0,038	-0,100
-487,708	179,227	0,102	-0,109
-486,693	-57,051	0,124	0,040
-485,678	-200,000	0,012	0,117
-484,664	65,531	-0,174	-0,128
-483,649	800,000	-0,032	-0,097
-482,635	-76,265	-0,045	0,011
-481,620	-200,000	-0,008	0,065
-480,605	248,817	0,037	0,046
-479,591	-200,000	0,037	0,120
-478,576	-114,753	-0,146	0,020
-477,562	149,788	-0,136	0,134
-476,547	800,000	-0,054	-0,166
-475,532	321,408	0,023	-0,032
-474,518	800,000	-0,062	0,146
-473,503	152,282	0,076	0,076
-472,489	66,856	-0,110	-0,081
-471,474	183,154	-0,037	0,040
-470,459	313,449	-0,030	-0,041
-469,445	679,256	0,056	-0,108
-468,430	-200,000	-0,005	-0,184
-467,416	443,983	-0,048	-0,076
-466,401	446,774	0,045	0,072
-465,386	-73,422	-0,038	-0,010
-464,372	800,000	-0,045	0,091
-463,357	800,000	-0,045	-0,136
-462,343	-200,000	-0,004	0,029
-461,328	-200,000	0,003	-0,156
-460,313	39,346	-0,086	0,056
-459,299	-172,695	-0,076	0,002
-458,284	196,935	0,089	0,099
-457,270	-200,000	0,009	-0,071
-456,255	-150,333	0,027	0,002
-455,241	-50,212	-0,057	-0,020
-454,226	-200,000	0,005	-0,085
-453,211	-168,428	-0,090	0,002
-452,197	36,523	0,104	0,067
-451,182	187,216	-0,082	-0,089
-450,168	800,000	0,038	-0,091
-449,153	15,312	-0,136	0,078
-448,138	-200,000	0,002	0,090
-447,124	800,000	0,032	-0,066
-446,109	-102,029	0,142	0,025
-445,095	-24,435	0,077	-0,033
-444,080	57,720	0,102	0,072
-443,065	-200,000	-0,007	-0,030
-442,051	63,772	-0,051	-0,037
-441,036	-65,150	-0,058	0,017
-440,022	-59,865	0,103	0,032
-439,007	32,636	0,052	0,033
-437,992	-91,113	0,171	-0,035
-436,978	-74,814	-0,086	0,022
-435,963	-37,566	-0,051	-0,020
-434,949	-200,000	-0,005	-0,032
-433,934	-200,000	-0,011	-0,112
-432,919	189,955	0,098	0,107
-431,905	-0,810	-0,103	-0,053
-430,890	-200,000	0,008	-0,108
-429,876	800,000	0,020	-0,060
-428,861	274,738	-0,051	0,065
-427,846	729,359	-0,025	-0,049
-426,832	800,000	0,033	0,070
-425,817	13,306	-0,091	-0,051
-424,803	-200,000	0,024	0,098
-423,788	8,250	-0,029	0,016
-422,773	76,122	0,045	0,035
-421,759	-113,739	-0,096	0,013
-420,744	-200,000	0,012	-0,103
-419,730	-30,750	0,093	0,038
-418,715	-40,127	0,029	-0,011
-417,701	-178,750	-0,113	0,002
-416,686	-187,894	0,097	-0,001
-415,671	800,000	-0,012	0,027
-414,657	-200,000	0,020	0,081
-413,642	-200,000	-0,003	0,160
-412,628	800,000	-0,043	-0,133
-411,613	274,471	-0,132	-0,170
-410,598	-8,749	-0,109	-0,053
-409,584	-48,915	-0,078	-0,027
-408,569	-115,833	0,142	0,019
-407,555	85,555	-0,130	-0,104
-406,540	-200,000	-0,005	0,147
-405,525	-112,261	-0,075	-0,011
-404,511	220,148	0,084	-0,098
-403,496	61,826	0,019	0,014
-402,482	416,075	0,068	0,105
-401,467	-200,000	-0,009	-0,056
-400,452	139,364	-0,026	0,024
-399,438	800,000	-0,044	0,139
-398,423	207,923	-0,020	0,022
-397,409	160,609	-0,032	-0,032
-396,394	22,503	-0,072	-0,043
-395,379	66,980	0,089	0,066
-394,365	561,931	0,046	0,082
-393,350	-200,000	-0,012	0,052
-392,336	128,417	-0,086	0,079
-391,321	800,000	-0,045	-0,099
-390,306	171,213	-0,033	-0,035
-389,292	-200,000	-0,021	0,148
-388,277	194,167	-0,055	0,060
-387,263	-200,000	-0,019	0,125
-386,248	-200,000	0,009	0,149
-385,233	800,000	-0,007	0,021
-384,219	328,756	-0,041	-0,057
-383,204	800,000	0,020	-0,057
-382,190	51,847	-0,098	-0,068
-381,175	-161,192	-0,079	-0,003
-380,160	87,156	0,085	0,068
-379,146	68,827	0,047	-0,035
-378,131	89,870	0,145	0,118
-377,117	800,000	0,035	0,077
-376,102	295,588	-0,063	-0,084
-375,088	-102,791	-0,090	0,015
-374,073	96,806	-0,095	0,079
-373,058	375,704	0,091	0,135
-372,044	800,000	-0,029	0,065
-371,029	183,385	0,053	0,057
-370,015	-54,634	-0,068	-0,022
-369,000	521,259	0,094	-0,161
-367,985	-200,000	0,010	-0,087
-366,971	-83,535	-0,100	0,023
-365,956	63,464	0,023	0,016
-364,942	-10,880	0,127	0,060
-363,927	800,000	0,032	0,097
-362,912	165,326	-0,043	0,044
-361,898	800,000	0,025	-0,056
-360,883	800,000	-0,017	-0,051
-359,869	-85,405	0,156	-0,035
-358,854	-89,445	0,003	-0,001
-357,839	-200,000	-0,021	-0,158
-356,825	-131,751	0,022	0,002
-355,810	800,000	-0,052	0,109
-354,796	-44,723	-0,119	-0,043
-353,781	35,180	-0,087	-0,055
-352,766	498,009	-0,011	-0,019
-351,752	-96,332	0,117	-0,022
-350,737	-73,425	0,128	-0,034
-349,723	103,104	-0,081	-0,069
-348,708	-66,565	0,074	-0,021
-347,693	-200,000	-0,036	0,218
-346,679	66,785	-0,044	-0,033
-345,664	-25,686	-0,057	0,024
-344,650	800,000	-0,023	-0,056
-343,635	-84,096	0,109	0,025
-342,620	-200,000	0,007	0,135
-341,606	-200,000	-0,055	0,254
-340,591	106,359	0,075	0,064
-339,577	-132,984	-0,051	-0,005
-338,562	-89,401	0,029	0,006
-337,548	-25,088	-0,040	0,017
-336,533	-106,226	0,113	-0,018
-335,518	-80,002	0,132	-0,032
-334,504	-45,356	0,075	-0,027
-333,489	253,948	0,034	-0,042
-332,475	201,748	-0,116	-0,130
-331,460	70,240	-0,086	-0,065
-330,445	-31,015	0,124	-0,051
-329,431	-174,221	-0,075	-0,002
-328,416	401,526	-0,035	-0,053
-327,402	-32,891	0,056	0,023
-326,387	-67,665	0,135	0,038
-325,372	-142,042	-0,142	-0,010
-324,358	8,620	0,112	-0,061
-323,343	-200,000	-0,018	-0,147
-322,329	-200,000	-0,027	-0,106
-321,314	800,000	-0,057	0,152
-320,299	-87,537	0,093	-0,020
-319,285	800,000	0,009	0,030
-318,270	63,456	-0,105	0,076
-317,256	-200,000	0,034	-0,162
-316,241	-200,000	0,048	-0,185
-315,226	-171,539	0,141	0,003
-314,212	-200,000	0,017	0,155
-313,197	-4,490	0,154	0,077
-312,183	-26,725	-0,081	0,034
-311,168	-121,167	-0,166	0,020
-310,153	-18,809	0,138	-0,062
-309,139	-129,885	0,093	0,009
-308,124	247,364	0,060	0,074
-307,110	800,000	0,033	-0,096
-306,095	-103,974	0,154	0,026
-305,080	-135,074	0,026	0,002
-304,066	-4,555	-0,150	-0,075
-303,051	335,934	0,045	0,064
-302,037	157,823	-0,069	0,070
-301,022	58,841	0,117	0,083
-300,008	-127,789	0,132	-0,014
-298,993	-12,397	-0,093	0,044
-297,978	800,000	0,069	0,161
-296,964	-200,000	0,016	-0,218
-295,949	159,910	-0,100	-0,101
-294,935	-200,000	0,023	-0,128
-293,920	800,000	0,063	-0,133
-292,905	-200,000	0,042	0,160
-291,891	-200,000	0,017	0,081
-290,876	-97,094	-0,093	-0,017
-289,862	36,052	0,080	0,051
-288,847	-77,420	-0,120	-0,030
-287,832	111,654	0,060	0,052
-286,818	99,017	-0,095	-0,079
-285,803	800,000	0,029	0,066
-284,789	-34,284	-0,090	0,036
-283,774	-200,000	0,042	-0,139
-282,759	60,807	0,021	-0,015
-281,745	131,880	-0,083	-0,077
-280,730	-200,000	-0,009	-0,046
-279,716	-200,000	-0,010	0,046
-278,701	106,147	0,104	0,089
-277,686	167,419	0,059	0,061
-276,672	-200,000	-0,023	0,245
-275,657	-171,929	0,145	0,003
-274,643	34,781	0,055	-0,035
-273,628	800,000	-0,056	-0,165
-272,613	132,994	-0,094	-0,088
-271,599	-84,821	0,027	0,006
-270,584	400,679	-0,016	-0,025
-269,570	-200,000	-0,024	-0,091
-268,555	-114,573	0,131	-0,018
-267,540	-200,000	-0,020	0,081
-266,526	800,000	0,022	-0,047
-265,511	-107,371	-0,043	-0,007
-264,497	176,622	-0,085	0,089
-263,482	-77,293	0,134	0,033
-262,467	-16,972	0,142	0,065
-261,453	-200,000	-0,010	0,037
-260,438	-115,501	-0,019	-0,003
-259,424	208,695	-0,034	0,038
-258,409	149,118	-0,039	-0,038
-257,395	206,132	-0,034	-0,038
-256,380	-106,667	0,028	0,004
-255,365	-59,812	0,163	-0,050
-254,351	-200,000	0,023	0,106
-253,336	-200,000	-0,017	0,129
-252,322	97,815	-0,042	-0,035
-251,307	199,661	0,094	-0,104
-250,292	563,093	0,014	-0,024
-249,278	800,000	-0,024	-0,065
-248,263	-8,227	0,100	0,049
-247,249	107,369	-0,037	-0,032
-246,234	120,370	-0,051	-0,046
-245,219	-43,993	-0,045	0,016
-244,205	478,831	0,101	-0,166
-243,190	800,000	-0,023	0,053
-242,176	246,605	0,085	0,104
-241,161	73,073	-0,047	0,035
-240,146	-151,899	0,060	0,003
-239,132	-200,000	0,009	-0,258
-238,117	-181,977	0,132	-0,002
-237,103	-200,000	-0,003	-0,078
-236,088	-200,000	0,019	-0,168
-235,073	800,000	0,050	0,106
-234,059	-200,000	0,049	-0,186
-233,044	-200,000	-0,013	0,067
-232,030	800,000	0,023	-0,067
-231,015	-31,469	-0,031	-0,013
-230,000	-103,617	-0,044	-0,007
-228,986	135,953	0,023	0,021
-227,971	3,137	-0,071	0,037
-226,957	800,000	-0,040	-0,083
-225,942	201,937	0,046	0,051
-224,927	30,755	0,169	-0,104
-223,913	-59,796	0,070	-0,022
-222,898	-200,000	-0,018	0,119
-221,884	800,000	-0,013	0,027
-220,869	-113,907	0,147	-0,020
-219,855	-200,000	-0,019	0,147
-218,840	-200,000	-0,007	0,237
-217,825	-200,000	0,021	0,067
-216,811	364,365	-0,023	0,034
-215,796	-47,357	-0,120	-0,042
-214,782	-200,000	-0,014	-0,141
-213,767	107,690	0,045	-0,039
-212,752	-97,423	-0,066	0,012
-211,738	-139,724	0,088	0,007
-210,723	-200,000	0,024	-0,147
-209,709	800,000	-0,046	-0,125
-208,694	-200,000	0,003	-0,122
-207,679	41,881	-0,055	0,036
-206,665	-200,000	-0,029	0,095
-205,650	-200,000	0,036	0,120
-204,636	82,402	0,101	0,079
-203,621	398,655	-0,069	0,104
-202,606	294,271	-0,103	0,136
-201,592	-200,000	0,046	0,186
-200,577	-200,000	-0,015	0,049
-199,563	-200,000	-0,011	0,081
-198,548	-200,000	-0,012	-0,042
-197,533	-23,837	0,074	0,032
-196,519	-172,931	-0,059	0,001
-195,504	-49,200	0,113	0,039
-194,490	-200,000	-0,019	0,099
-193,475	-200,000	0,050	-0,190
-192,460	599,581	0,032	-0,058
-191,446	138,290	0,114	0,108
-190,431	800,000	0,077	0,181
-189,417	-24,533	0,120	0,051
-188,402	800,000	-0,045	-0,093
-187,387	-113,966	-0,061	-0,008
-186,373	328,296	0,051	0,071
-185,358	800,000	0,086	0,196
-184,344	-85,399	0,066	-0,015
-183,329	291,291	0,048	0,063
-182,315	-200,000	-0,025	0,113
-181,300	539,641	0,072	-0,123
-180,285	131,208	-0,130	-0,120
-179,271	-52,966	-0,040	-0,013
-178,256	67,350	-0,056	0,041
-177,242	-200,000	0,022	0,109
-176,227	-6,357	-0,150	0,073
-175,212	800,000	-0,018	-0,044
-174,198	15,940	0,114	0,064
-173,183	366,095	0,059	0,086
-172,169	800,000	-0,031	0,082
-171,154	800,000	0,001	-0,002
-170,139	97,431	-0,038	-0,032
-169,125	108,998	0,066	0,056
-168,110	-120,293	0,069	0,008
-167,096	252,022	-0,072	-0,088
-166,081	106,487	0,064	0,054
-165,066	-200,000	-0,018	-0,100
-164,052	-163,162	0,153	0,005
-163,037	-121,000	-0,046	-0,006
-162,023	-200,000	-0,054	0,172
-161,008	231,258	0,042	-0,049
-159,993	-70,027	0,041	-0,011
-158,979	800,000	-0,026	-0,075
-157,964	199,528	-0,149	-0,165
-156,950	171,282	0,052	-0,054
-155,935	-21,117	0,094	0,041
-154,920	-71,754	0,044	0,012
-153,906	800,000	0,014	0,033
-152,891	428,981	-0,022	-0,034
-151,877	-24,051	-0,119	0,051
-150,862	-200,000	0,004	-0,112
-149,847	-180,408	-0,155	-0,002
-148,833	269,798	-0,030	0,038
-147,818	-200,000	0,035	-0,180
-146,804	85,404	-0,109	-0,086
-145,789	-200,000	-0,028	-0,114
-144,775	759,571	-0,030	0,058
-143,760	800,000	-0,035	0,072
-142,745	103,902	0,067	0,057
-141,731	800,000	-0,049	0,099
-140,716	-150,093	-0,143	0,008
-139,702	718,184	0,012	0,023
-138,687	-35,793	-0,071	-0,028
-137,672	84,339	-0,035	0,027
-136,658	800,000	0,047	-0,109
-135,643	695,096	0,028	-0,053
-134,629	141,536	0,112	-0,106
-133,614	243,717	-0,058	-0,070
-132,599	-37,495	0,136	-0,052
-131,585	800,000	0,010	0,022
-130,570	114,665	0,057	-0,050
-129,556	800,000	-0,045	-0,117
-128,541	-200,000	0,004	0,054
-127,526	-200,000	0,000	0,012
-126,512	-200,000	-0,031	-0,157
-125,497	11,655	0,097	-0,053
-124,483	-103,379	0,040	0,007
-123,468	800,000	-0,040	-0,085
-122,453	18,182	-0,120	-0,068
-121,439	-113,131	-0,109	0,015
-120,424	800,000	0,005	-0,013
