DTS Sentinel unit serial number:	SN410029Multiplexer serial number:	ORYXHardware model number:	OX2-SRSoftware version number:	ORYX F/W v4,00 Oryx Data Collector v3.7.2.0data status	okinstallation	B5 Nyhavnadifferential loss correction	single-endedforward channel	channel 2reverse channel	N/Adate	2023/12/14time	08:22:13forward acquisition time	300,00reverse acquisition time	0,00gamma	499,1914k internal	0,3160k external	0,3160temperature offset calibration	1,0000default loss term (dB/km)	0,3820temperature slope calibration	1,0000multiplexer offset coefficient	1,0000multiplexer slope coefficient	1,0000fibre end	0,00T internal ref (°C)	7,05T ext. ref 1 (°C)	-9,15T ext. ref 2 (°C)	-9,23length (m)	temperature (°C)	Stokes	anti-Stokes-744,400	-22,566	0,095	-0,042
-743,385	-2,613	-0,366	-0,188
-742,371	17,459	0,158	0,092
-741,356	-144,180	-0,369	-0,025
-740,342	800,000	0,049	0,155
-739,327	-66,765	-0,375	-0,108
-738,312	-33,679	0,133	-0,054
-737,298	-103,722	-0,440	-0,075
-736,283	104,838	0,137	0,119
-735,269	-81,263	-0,479	-0,116
-734,254	6,752	0,270	0,147
-733,239	58,677	-0,488	-0,352
-732,225	129,257	0,175	0,164
-731,210	202,236	-0,063	0,072
-730,196	-140,305	-0,092	-0,007
-729,181	356,648	-0,065	-0,096
-728,167	93,224	-0,019	-0,016
-727,152	515,578	-0,028	-0,049
-726,137	-65,002	-0,170	-0,050
-725,123	354,750	0,048	0,071
-724,108	-125,473	-0,101	0,011
-723,094	527,955	-0,096	-0,168
-722,079	-92,488	-0,037	0,008
-721,064	127,744	-0,090	-0,084
-720,050	287,701	0,038	0,051
-719,035	62,588	-0,200	-0,147
-718,021	143,527	0,030	-0,030
-717,006	-33,041	-0,121	0,049
-715,991	-200,000	0,021	-0,117
-714,977	-200,000	0,001	-0,087
-713,962	-200,000	-0,023	-0,080
-712,948	-200,000	-0,013	-0,074
-711,933	-81,815	-0,031	-0,007
-710,918	-43,735	0,085	-0,032
-709,904	-200,000	-0,002	-0,066
-708,889	113,621	-0,028	0,025
-707,875	-200,000	-0,022	-0,112
-706,860	-161,837	0,024	0,001
-705,845	524,332	0,020	0,035
-704,831	-18,541	0,065	0,030
-703,816	43,668	0,203	-0,137
-702,802	-66,573	-0,139	0,040
-701,787	142,949	-0,038	0,037
-700,772	164,837	-0,082	-0,085
-699,758	104,681	0,021	0,018
-698,743	800,000	0,006	0,014
-697,729	153,889	-0,066	0,067
-696,714	800,000	0,032	-0,074
-695,699	-54,599	-0,178	-0,059
-694,685	75,190	0,043	-0,033
-693,670	-200,000	0,032	-0,113
-692,656	-200,000	-0,033	-0,108
-691,641	89,068	-0,023	0,019
-690,627	15,796	0,176	0,101
-689,612	279,702	0,033	-0,044
-688,597	-146,911	-0,118	-0,007
-687,583	284,399	-0,092	-0,122
-686,568	-27,818	-0,113	-0,048
-685,554	-200,000	-0,018	-0,069
-684,539	-140,571	-0,148	0,011
-683,524	-98,688	0,134	0,025
-682,510	-5,238	0,100	0,050
-681,495	-200,000	0,016	0,134
-680,481	527,049	-0,025	0,043
-679,466	119,690	-0,039	0,036
-678,451	131,085	-0,057	-0,053
-677,437	762,397	-0,040	0,080
-676,422	-200,000	0,000	0,005
-675,408	391,413	-0,045	0,069
-674,393	-110,298	0,109	-0,017
-673,378	195,952	-0,070	-0,078
-672,364	800,000	-0,038	-0,084
-671,349	800,000	-0,033	-0,084
-670,335	-200,000	0,012	-0,066
-669,320	-152,373	-0,120	0,006
-668,305	-200,000	-0,003	0,019
-667,291	-117,158	-0,098	0,013
-666,276	800,000	-0,027	0,078
-665,262	22,956	-0,085	0,051
-664,247	800,000	-0,027	-0,074
-663,232	186,095	0,076	-0,083
-662,218	-200,000	-0,011	-0,040
-661,203	-4,495	-0,047	0,024
-660,189	291,433	0,035	0,046
-659,174	169,976	0,035	-0,037
-658,159	800,000	-0,047	0,100
-657,145	24,503	-0,165	-0,100
-656,130	459,792	0,050	0,081
-655,116	-33,293	-0,089	0,036
-654,101	-83,406	-0,134	0,031
-653,086	-200,000	0,009	-0,030
-652,072	272,926	-0,012	0,015
-651,057	93,532	-0,021	-0,018
-650,043	-92,871	-0,099	0,020
-649,028	-39,301	0,071	0,027
-648,014	800,000	-0,035	-0,091
-646,999	197,866	-0,025	-0,028
-645,984	19,658	0,050	-0,030
-644,970	435,062	0,015	0,024
-643,955	286,207	-0,022	-0,030
-642,941	-62,181	0,062	0,019
-641,926	-14,428	0,080	-0,038
-640,911	240,472	0,075	0,092
-639,897	193,612	0,087	0,097
-638,882	-200,000	0,005	-0,044
-637,868	176,373	-0,115	0,123
-636,853	144,203	0,013	-0,013
-635,838	-39,730	-0,025	-0,009
-634,824	-200,000	0,018	0,139
-633,809	195,069	-0,084	0,094
-632,795	396,902	0,092	-0,142
-631,780	-137,839	0,127	-0,010
-630,765	-45,468	-0,081	0,029
-629,751	-3,309	0,071	-0,036
-628,736	6,479	-0,055	-0,030
-627,722	153,340	-0,088	0,089
-626,707	-7,312	0,098	0,048
-625,692	-200,000	0,011	0,045
-624,678	133,187	0,083	0,079
-623,663	45,377	-0,061	-0,041
-622,649	87,647	-0,064	0,052
-621,634	800,000	-0,045	0,136
-620,619	-188,948	0,093	-0,001
-619,605	800,000	-0,021	-0,046
-618,590	-19,664	0,058	-0,026
-617,576	800,000	0,064	0,185
-616,561	-200,000	0,011	0,108
-615,546	371,090	-0,024	0,036
-614,532	137,689	0,042	0,040
-613,517	800,000	-0,022	0,049
-612,503	208,504	-0,066	-0,076
-611,488	1,498	0,096	0,050
-610,474	800,000	-0,054	0,131
-609,459	-200,000	-0,032	0,147
-608,444	-188,738	0,056	0,000
-607,430	-200,000	0,036	-0,172
-606,415	89,631	-0,130	-0,106
-605,401	-200,000	0,005	0,127
-604,386	-162,656	0,093	-0,003
-603,371	-107,138	0,153	-0,024
-602,357	-117,701	-0,051	-0,007
-601,342	-200,000	-0,008	0,078
-600,328	-138,433	-0,103	0,008
-599,313	223,052	0,037	-0,044
-598,298	-3,733	-0,202	-0,103
-597,284	12,140	-0,095	-0,053
-596,269	-39,648	-0,039	0,015
-595,255	-200,000	-0,001	-0,110
-594,240	-96,082	-0,030	-0,006
-593,225	-200,000	-0,013	0,119
-592,211	-200,000	-0,035	-0,185
-591,196	175,496	-0,070	0,074
-590,182	800,000	0,022	0,068
-589,167	-200,000	-0,000	0,078
-588,152	-66,522	-0,128	0,037
-587,138	167,237	0,075	0,079
-586,123	347,277	-0,040	-0,057
-585,109	-11,904	0,061	0,029
-584,094	-93,200	0,086	0,017
-583,079	-6,090	0,096	0,048
-582,065	16,257	0,086	0,050
-581,050	514,015	-0,039	-0,067
-580,036	-21,284	-0,119	-0,053
-579,021	114,259	0,018	-0,016
-578,006	-155,438	-0,024	-0,001
-576,992	-94,189	0,095	-0,019
-575,977	-97,077	-0,107	-0,020
-574,963	-175,592	0,218	0,004
-573,948	-129,639	-0,089	0,009
-572,934	62,583	-0,043	0,031
-571,919	527,233	-0,037	0,063
-570,904	-200,000	0,001	-0,038
-569,890	-57,588	-0,041	0,013
-568,875	-97,024	-0,151	0,029
-567,861	205,986	-0,020	-0,023
-566,846	-164,172	-0,094	-0,003
-565,831	172,247	0,139	0,147
-564,817	-200,000	0,001	-0,098
-563,802	-8,721	0,064	-0,031
-562,788	-200,000	0,028	-0,178
-561,773	-200,000	0,005	-0,045
-560,758	800,000	0,012	0,030
-559,744	-135,025	-0,049	-0,004
-558,729	800,000	-0,016	0,049
-557,715	800,000	-0,058	-0,146
-556,700	335,747	0,043	-0,062
-555,685	-74,155	-0,013	0,003
-554,671	75,612	0,018	-0,014
-553,656	800,000	0,049	-0,134
-552,642	-110,328	-0,089	-0,013
-551,627	-200,000	0,014	0,123
-550,612	-200,000	-0,001	0,031
-549,598	800,000	-0,021	-0,051
-548,583	-112,991	-0,114	-0,016
-547,569	-87,055	0,149	-0,033
-546,554	800,000	0,036	0,076
-545,539	800,000	0,010	0,031
-544,525	-98,172	0,074	0,014
-543,510	-129,401	-0,076	-0,008
-542,496	-88,827	0,123	0,026
-541,481	-24,825	-0,179	0,078
-540,466	-200,000	0,005	-0,178
-539,452	93,414	-0,080	-0,066
-538,437	-200,000	0,011	-0,057
-537,423	-147,664	0,194	-0,012
-536,408	-117,955	0,039	-0,005
-535,393	-200,000	-0,001	-0,121
-534,379	-200,000	0,004	0,015
-533,364	-64,207	0,032	-0,010
-532,350	401,414	0,126	0,193
-531,335	75,852	-0,090	-0,069
-530,321	-200,000	-0,014	-0,062
-529,306	-103,737	0,123	-0,021
-528,291	-78,442	-0,165	-0,041
-527,277	115,954	0,047	-0,042
-526,262	71,436	-0,123	-0,093
-525,248	-6,259	0,035	-0,017
-524,233	-62,095	-0,111	-0,034
-523,218	66,524	-0,056	0,042
-522,204	-200,000	-0,016	0,211
-521,189	228,968	-0,061	0,072
-520,175	-106,051	-0,110	-0,018
-519,160	-78,661	0,137	-0,034
-518,145	800,000	-0,045	0,145
-517,131	203,914	-0,065	0,073
-516,116	800,000	-0,009	-0,019
-515,102	-136,961	-0,131	-0,011
-514,087	-200,000	-0,014	0,046
-513,072	-92,472	-0,098	0,020
-512,058	397,053	-0,050	0,076
-511,043	568,612	0,017	0,031
-510,029	126,950	-0,067	0,062
-509,014	-200,000	-0,012	0,087
-507,999	-55,336	-0,146	-0,048
-506,985	-200,000	0,034	0,147
-505,970	-26,617	-0,062	0,026
-504,956	-200,000	0,020	-0,075
-503,941	89,699	0,024	0,020
-502,926	-200,000	0,032	0,121
-501,912	-200,000	-0,017	0,092
-500,897	-200,000	0,016	0,054
-499,883	-115,641	-0,010	-0,001
-498,868	309,601	-0,075	-0,103
-497,853	-200,000	0,010	-0,035
-496,839	33,923	0,075	-0,048
-495,824	800,000	-0,042	-0,114
-494,810	-111,179	-0,166	0,025
-493,795	-200,000	0,005	-0,048
-492,781	-32,725	0,096	-0,039
-491,766	-200,000	0,010	0,062
-490,751	-9,250	0,042	-0,020
-489,737	231,143	-0,102	0,123
-488,722	-200,000	0,015	0,065
-487,708	-80,219	0,123	0,030
-486,693	-59,223	0,119	-0,037
-485,678	10,433	-0,068	-0,037
-484,664	-98,597	0,063	-0,012
-483,649	50,828	-0,016	0,011
-482,635	-200,000	0,015	-0,078
-481,620	771,057	0,011	-0,021
-480,605	-118,965	0,035	-0,004
-479,591	322,446	-0,023	-0,032
-478,576	92,941	0,079	0,065
-477,562	800,000	-0,041	-0,087
-476,547	-200,000	-0,002	-0,023
-475,532	-168,365	-0,023	-0,001
-474,518	800,000	0,029	0,071
-473,503	202,768	0,198	0,223
-472,489	-113,451	0,137	0,019
-471,474	254,864	-0,055	-0,069
-470,459	209,165	0,043	-0,049
-469,445	332,918	0,055	0,077
-468,430	-200,000	0,032	-0,180
-467,416	800,000	0,026	-0,054
-466,401	439,791	0,016	-0,026
-465,386	-200,000	-0,002	0,178
-464,372	105,996	-0,012	0,011
-463,357	800,000	0,023	0,072
-462,343	269,364	0,090	-0,115
-461,328	800,000	-0,023	0,055
-460,313	-200,000	-0,014	0,089
-459,299	800,000	-0,062	-0,185
-458,284	-20,825	0,076	0,034
-457,270	800,000	-0,035	-0,091
-456,255	800,000	-0,022	-0,050
-455,241	23,972	-0,090	-0,054
-454,226	800,000	-0,021	-0,053
-453,211	-200,000	-0,010	0,041
-452,197	26,843	0,067	0,041
-451,182	187,847	0,050	0,055
-450,168	-72,207	-0,178	-0,048
-449,153	66,294	0,062	-0,045
-448,138	-122,522	-0,090	-0,011
-447,124	606,876	0,072	-0,131
-446,109	-200,000	-0,049	-0,247
-445,095	-130,881	0,198	0,019
-444,080	682,410	0,047	0,089
-443,065	199,484	0,109	0,122
-442,051	295,881	-0,069	0,092
-441,036	-200,000	-0,009	-0,104
-440,022	398,658	-0,034	-0,053
-439,007	0,494	0,117	-0,060
-437,992	8,142	-0,030	0,016
-436,978	-200,000	0,005	-0,017
-435,963	49,700	-0,098	-0,067
-434,949	800,000	-0,010	-0,026
-433,934	-136,260	-0,146	0,012
-432,919	-55,893	0,081	0,026
-431,905	-200,000	0,022	-0,113
-430,890	91,897	0,027	0,022
-429,876	742,519	0,016	0,032
-428,861	238,433	-0,122	0,148
-427,846	800,000	0,017	-0,043
-426,832	407,888	-0,033	-0,051
-425,817	270,133	-0,017	0,021
-424,803	15,625	0,030	-0,017
-423,788	-65,050	-0,055	-0,016
-422,773	-125,747	-0,098	-0,011
-421,759	604,397	-0,052	0,094
-420,744	473,395	-0,065	0,107
-419,730	39,453	0,068	-0,044
-418,715	-200,000	-0,031	-0,099
-417,701	332,444	0,135	-0,191
-416,686	-200,000	-0,015	0,079
-415,671	800,000	0,051	0,125
-414,657	800,000	0,052	0,110
-413,642	-43,491	0,086	0,032
-412,628	13,176	-0,160	-0,090
-411,613	-200,000	0,001	0,008
-410,598	255,423	0,033	-0,041
-409,584	15,275	0,101	0,058
-408,569	-23,768	0,121	0,052
-407,555	800,000	-0,062	0,165
-406,540	184,770	0,073	0,079
-405,525	-200,000	0,011	-0,142
-404,511	-0,129	0,053	0,027
-403,496	800,000	-0,036	-0,089
-402,482	124,930	-0,023	0,021
-401,467	80,166	-0,114	0,089
-400,452	-21,301	-0,014	0,006
-399,438	-200,000	-0,039	0,145
-398,423	2,804	0,011	-0,006
-397,409	800,000	-0,042	-0,098
-396,394	563,417	-0,074	-0,130
-395,379	-44,742	-0,067	-0,024
-394,365	171,139	0,064	0,066
-393,350	741,699	0,009	-0,018
-392,336	-200,000	0,002	-0,072
-391,321	-54,244	-0,044	0,014
-390,306	-84,604	-0,143	-0,032
-389,292	85,433	-0,036	-0,029
-388,277	800,000	0,050	-0,148
-387,263	800,000	0,043	0,126
-386,248	360,772	-0,113	0,165
-385,233	800,000	0,036	-0,077
-384,219	-45,519	0,128	-0,046
-383,204	88,112	0,078	-0,063
-382,190	77,149	-0,084	-0,065
-381,175	177,544	0,021	0,023
-380,160	164,111	0,074	0,076
-379,146	190,509	0,057	-0,062
-378,131	-200,000	0,024	0,106
-377,117	-200,000	0,019	-0,070
-376,102	800,000	0,011	-0,033
-375,088	-200,000	0,031	-0,221
-374,073	120,558	0,071	0,064
-373,058	-19,162	0,035	0,016
-372,044	-63,747	0,207	0,061
-371,029	-173,487	-0,063	0,001
-370,015	-111,739	-0,160	0,023
-369,000	10,069	-0,065	-0,036
-367,985	-200,000	-0,022	-0,190
-366,971	-129,440	0,038	0,004
-365,956	86,411	0,074	0,059
-364,942	199,639	0,083	-0,093
-363,927	223,472	0,060	-0,070
-362,912	-125,264	0,070	0,008
-361,898	-176,412	0,134	-0,002
-360,883	7,996	-0,041	-0,022
-359,869	437,168	0,027	-0,043
-358,854	-176,181	0,084	-0,002
-357,839	251,024	-0,077	-0,095
-356,825	-200,000	0,016	0,075
-355,810	800,000	-0,017	0,048
-354,796	199,526	0,132	-0,147
-353,781	-22,128	-0,131	0,057
-352,766	-22,012	0,114	-0,050
-351,752	800,000	-0,013	0,032
-350,737	-85,537	0,146	0,033
-349,723	-65,657	0,142	0,041
-348,708	-200,000	0,026	0,098
-347,693	-200,000	-0,007	-0,030
-346,679	462,934	0,004	-0,007
-345,664	234,851	-0,028	-0,034
-344,650	217,214	0,080	-0,093
-343,635	800,000	-0,029	0,076
-342,620	-200,000	-0,036	-0,143
-341,606	60,792	-0,074	0,053
-340,591	438,169	0,042	0,067
-339,577	800,000	0,047	0,119
-338,562	800,000	-0,040	-0,091
-337,548	-64,564	-0,110	-0,032
-336,533	190,628	-0,060	0,065
-335,518	800,000	0,034	-0,084
-334,504	800,000	-0,030	-0,073
-333,489	-11,083	-0,092	0,044
-332,475	29,738	-0,039	-0,024
-331,460	-17,031	0,113	-0,052
-330,445	-200,000	-0,014	-0,064
-329,431	-24,012	0,059	-0,025
-328,416	-150,872	0,035	-0,002
-327,402	116,223	-0,104	-0,092
-326,387	-26,189	-0,055	-0,023
-325,372	800,000	-0,012	-0,028
-324,358	800,000	0,048	-0,137
-323,343	0,647	-0,098	-0,051
-322,329	-200,000	0,017	0,101
-321,314	-104,969	-0,194	-0,032
-320,299	-36,225	0,116	-0,045
-319,285	800,000	-0,061	-0,159
-318,270	-200,000	-0,014	-0,046
-317,256	-142,067	-0,044	-0,003
-316,241	325,857	0,082	-0,113
-315,226	800,000	0,004	0,009
-314,212	147,475	-0,066	0,065
-313,197	800,000	-0,015	-0,031
-312,183	-20,834	-0,080	0,036
-311,168	85,771	0,114	0,090
-310,153	-200,000	-0,014	-0,090
-309,139	100,581	-0,074	-0,063
-308,124	138,334	0,027	-0,026
-307,110	600,610	0,035	-0,063
-306,095	104,960	-0,063	0,054
-305,080	73,865	-0,072	0,055
-304,066	-63,786	0,108	-0,032
-303,051	-58,672	-0,152	-0,047
-302,037	76,469	0,058	-0,045
-301,022	800,000	0,041	0,084
-300,008	-200,000	-0,003	0,095
-298,993	-200,000	0,034	0,154
-297,978	59,940	-0,173	0,123
-296,964	-200,000	0,033	0,145
-295,949	-133,524	-0,081	-0,007
-294,935	-86,467	-0,208	-0,046
-293,920	800,000	0,033	0,067
-292,905	-200,000	-0,010	0,175
-291,891	725,690	0,045	-0,087
-290,876	1,027	0,125	0,065
-289,862	262,661	-0,025	-0,031
-288,847	24,040	0,058	-0,034
-287,832	5,412	0,114	0,061
-286,818	-200,000	-0,028	-0,130
-285,803	-22,208	0,160	0,070
-284,789	-200,000	-0,009	-0,079
-283,774	-101,076	-0,176	0,031
-282,759	144,391	-0,108	-0,104
-281,745	-200,000	0,027	-0,088
-280,730	231,782	0,097	-0,116
-279,716	-200,000	0,021	-0,070
-278,701	-23,222	0,033	-0,014
-277,686	-100,645	-0,082	-0,015
-276,672	-200,000	0,005	-0,034
-275,657	800,000	0,054	0,124
-274,643	800,000	0,052	-0,105
-273,628	-200,000	-0,008	-0,028
-272,613	-200,000	0,004	0,108
-271,599	-76,371	0,025	0,006
-270,584	-116,128	0,095	-0,013
-269,570	-110,773	-0,094	-0,014
-268,555	-51,926	-0,119	-0,040
-267,540	-196,221	0,102	0,000
-266,526	154,337	-0,039	-0,038
-265,511	800,000	-0,019	-0,044
-264,497	800,000	-0,015	0,037
-263,482	-17,693	0,066	0,030
-262,467	800,000	0,005	-0,017
-261,453	-200,000	-0,024	-0,158
-260,438	248,559	-0,095	-0,116
-259,424	-123,649	0,102	-0,012
-258,409	193,815	0,068	-0,074
-257,395	-0,432	0,010	0,005
-256,380	-200,000	0,054	0,195
-255,365	601,692	0,025	-0,046
-254,351	-137,214	0,072	-0,006
-253,336	52,085	-0,085	0,058
-252,322	-200,000	0,020	-0,103
-251,307	333,786	0,047	-0,066
-250,292	-97,141	0,121	0,023
-249,278	-116,014	-0,059	-0,008
-248,263	-200,000	0,011	-0,065
-247,249	320,128	-0,079	0,109
-246,234	800,000	-0,066	-0,148
-245,219	-149,532	-0,189	-0,011
-244,205	27,881	0,135	0,082
-243,190	-21,583	-0,046	-0,020
-242,176	-200,000	-0,040	0,175
-241,161	-200,000	-0,001	0,122
-240,146	-200,000	0,010	0,113
-239,132	800,000	-0,033	0,092
-238,117	-200,000	0,033	-0,134
-237,103	-4,463	-0,092	-0,046
-236,088	90,926	0,062	0,050
-235,073	109,400	-0,067	-0,058
-234,059	599,572	0,016	-0,029
-233,044	-200,000	0,031	-0,114
-232,030	-200,000	-0,025	-0,088
-231,015	69,252	0,052	0,038
-230,000	-87,545	0,039	0,008
-228,986	561,634	-0,037	0,065
-227,971	-36,503	-0,064	-0,025
-226,957	-122,180	-0,023	-0,003
-225,942	42,717	0,136	0,089
-224,927	-69,334	-0,130	0,036
-223,913	800,000	-0,043	0,092
-222,898	599,907	-0,064	-0,115
-221,884	206,316	0,086	-0,097
-220,869	39,335	0,178	0,115
-219,855	88,379	-0,019	0,015
-218,840	-200,000	0,005	0,253
-217,825	512,725	0,032	-0,055
-216,811	-121,739	-0,142	0,017
-215,796	-200,000	-0,009	-0,081
-214,782	-200,000	0,002	-0,007
-213,767	335,604	0,013	0,018
-212,752	328,084	-0,051	0,070
-211,738	-200,000	0,006	0,078
-210,723	800,000	0,034	0,094
-209,709	24,670	-0,095	-0,056
-208,694	-176,096	-0,078	-0,001
-207,679	-200,000	-0,011	-0,117
-206,665	-200,000	-0,010	0,126
-205,650	800,000	-0,025	-0,052
-204,636	104,891	0,046	0,039
-203,621	-200,000	-0,029	-0,093
-202,606	800,000	0,007	0,016
-201,592	-148,153	0,162	-0,009
-200,577	185,471	-0,042	0,046
-199,563	-200,000	0,008	0,049
-198,548	223,763	0,078	0,092
-197,533	800,000	0,048	-0,097
-196,519	800,000	0,021	-0,054
-195,504	285,653	0,102	-0,133
-194,490	-22,759	0,120	-0,052
-193,475	590,178	-0,022	-0,039
-192,460	-35,591	0,087	0,034
-191,446	444,769	-0,013	-0,021
-190,431	21,285	0,102	0,060
-189,417	-106,579	-0,091	-0,014
-188,402	-200,000	-0,004	-0,020
-187,387	283,373	-0,056	-0,072
-186,373	-29,791	0,150	0,061
-185,358	96,821	0,091	-0,075
-184,344	800,000	0,020	0,046
-183,329	-15,341	0,065	0,030
-182,315	325,696	-0,067	0,093
-181,300	670,866	-0,070	0,131
-180,285	242,029	0,052	-0,063
-179,271	8,861	0,119	-0,064
-178,256	-200,000	0,000	-0,045
-177,242	800,000	-0,032	-0,097
-176,227	77,697	-0,163	0,125
-175,212	211,113	-0,045	0,051
-174,198	185,502	-0,064	-0,069
-173,183	-78,240	-0,080	0,020
-172,169	-128,841	-0,027	-0,003
-171,154	-53,329	-0,152	0,050
-170,139	800,000	-0,012	-0,024
-169,125	-200,000	-0,006	-0,059
-168,110	-200,000	0,006	0,084
-167,096	-69,918	0,071	0,019
-166,081	12,431	-0,103	0,057
-165,066	800,000	0,066	-0,157
-164,052	241,937	-0,030	0,036
-163,037	800,000	-0,032	0,065
-162,023	800,000	-0,042	0,122
-161,008	370,358	-0,046	0,067
-159,993	134,981	-0,050	0,046
-158,979	246,168	-0,024	-0,029
-157,964	197,862	0,054	0,059
-156,950	280,068	-0,050	-0,064
-155,935	-66,570	-0,078	0,022
-154,920	-200,000	-0,016	0,135
-153,906	-200,000	0,017	0,063
-152,891	21,205	0,053	-0,031
-151,877	185,270	-0,047	-0,050
-150,862	61,181	-0,106	-0,075
-149,847	1,736	0,090	0,046
-148,833	-166,879	0,100	-0,003
-147,818	662,277	-0,052	0,097
-146,804	187,920	0,090	0,097
-145,789	-2,945	0,175	-0,087
-144,775	-27,132	0,050	0,021
-143,760	-68,563	-0,104	0,029
-142,745	-200,000	0,012	0,056
-141,731	-142,804	0,114	0,008
-140,716	-40,082	-0,096	0,036
-139,702	-200,000	0,031	0,127
-138,687	20,557	0,044	0,025
-137,672	-71,363	-0,122	-0,033
-136,658	-200,000	0,005	0,063
-135,643	35,982	-0,029	-0,018
-134,629	-200,000	0,012	-0,155
-133,614	-91,618	0,241	-0,049
-132,599	-128,074	0,075	0,008
-131,585	413,312	0,022	-0,034
-130,570	78,981	0,062	0,047
-129,556	-128,581	-0,024	-0,002
-128,541	-15,429	0,165	0,076
-127,526	21,060	-0,129	0,075
-126,512	461,175	-0,078	0,126
-125,497	450,233	0,019	-0,031
-124,483	800,000	-0,057	0,116
-123,468	-106,431	-0,097	-0,015
-122,453	11,597	-0,069	0,038
-121,439	266,846	-0,024	0,031
-120,424	83,154	-0,076	-0,059
-119,410	-73,507	0,104	0,027
