DTS Sentinel unit serial number:	SN410029Multiplexer serial number:	ORYXHardware model number:	OX2-SRSoftware version number:	ORYX F/W v4,00 Oryx Data Collector v3.7.2.0data status	okinstallation	B5 Nyhavnadifferential loss correction	single-endedforward channel	channel 2reverse channel	N/Adate	2023/12/12time	00:47:13forward acquisition time	300,00reverse acquisition time	0,00gamma	499,1914k internal	0,3156k external	0,3156temperature offset calibration	1,0000default loss term (dB/km)	0,3820temperature slope calibration	1,0000multiplexer offset coefficient	1,0000multiplexer slope coefficient	1,0000fibre end	0,00T internal ref (°C)	16,04T ext. ref 1 (°C)	-0,39T ext. ref 2 (°C)	-0,68length (m)	temperature (°C)	Stokes	anti-Stokes-744,400	207,660	0,073	-0,084
-743,385	-106,050	-0,199	0,033
-742,371	99,369	0,053	0,046
-741,356	4,926	-0,312	0,169
-740,342	168,352	0,120	0,126
-739,327	-82,364	-0,380	0,090
-738,312	63,179	0,160	0,118
-737,298	-167,362	-0,215	-0,006
-736,283	317,232	0,074	0,104
-735,269	-75,410	-0,279	0,073
-734,254	341,804	0,052	-0,075
-733,239	-73,907	-0,582	-0,155
-732,225	313,605	0,060	-0,083
-731,210	800,000	-0,025	0,058
-730,196	-85,119	-0,073	-0,017
-729,181	-11,565	-0,050	0,024
-728,167	-200,000	0,002	0,057
-727,152	800,000	0,003	0,007
-726,137	800,000	-0,016	0,045
-725,123	-86,753	-0,142	0,032
-724,108	800,000	-0,045	-0,129
-723,094	646,967	-0,105	-0,198
-722,079	251,680	0,054	0,068
-721,064	-14,350	-0,100	-0,047
-720,050	153,576	0,073	-0,074
-719,035	621,140	-0,052	-0,097
-718,021	274,716	0,080	-0,105
-717,006	-119,479	-0,148	-0,019
-715,991	30,687	-0,093	-0,058
-714,977	-110,322	-0,191	0,029
-713,962	-200,000	-0,006	0,086
-712,948	-200,000	-0,006	0,085
-711,933	-18,229	-0,051	-0,024
-710,918	-144,525	0,043	-0,003
-709,904	-200,000	-0,041	-0,138
-708,889	66,517	0,049	0,037
-707,875	79,369	0,032	-0,026
-706,860	25,883	-0,106	0,065
-705,845	-42,386	0,159	0,060
-704,831	-133,322	0,104	0,010
-703,816	-119,408	-0,218	-0,028
-702,802	257,146	0,038	-0,048
-701,787	603,097	-0,075	-0,137
-700,772	74,591	0,121	-0,094
-699,758	306,077	-0,021	0,029
-698,743	372,540	0,042	0,063
-697,729	-200,000	0,005	0,073
-696,714	-22,719	0,068	0,030
-695,699	37,958	-0,082	0,054
-694,685	-200,000	0,026	0,096
-693,670	-42,441	-0,148	-0,055
-692,656	-157,254	0,099	-0,004
-691,641	-200,000	0,002	-0,055
-690,627	-57,382	-0,054	0,017
-689,612	-96,869	-0,074	0,014
-688,597	-29,515	-0,082	-0,035
-687,583	294,513	0,093	-0,125
-686,568	73,291	-0,062	-0,048
-685,554	103,099	-0,065	-0,056
-684,539	102,566	0,093	0,080
-683,524	195,779	0,156	0,175
-682,510	54,369	0,103	0,073
-681,495	-123,161	-0,056	0,007
-680,481	341,093	0,022	0,032
-679,466	800,000	-0,030	0,093
-678,451	124,363	0,039	-0,036
-677,437	36,157	0,051	0,033
-676,422	-35,541	-0,006	0,002
-675,408	638,063	-0,029	0,054
-674,393	-200,000	-0,002	0,035
-673,378	-49,831	-0,050	-0,017
-672,364	800,000	-0,041	0,085
-671,349	311,507	-0,075	0,104
-670,335	265,190	-0,022	0,028
-669,320	-200,000	-0,009	0,097
-668,305	800,000	-0,059	0,129
-667,291	546,624	-0,087	-0,153
-666,276	-54,842	0,065	0,021
-665,262	-200,000	0,005	-0,117
-664,247	800,000	-0,020	-0,045
-663,232	-200,000	0,057	0,207
-662,218	-23,889	0,053	-0,023
-661,203	800,000	-0,037	-0,085
-660,189	800,000	0,072	0,195
-659,174	-135,426	-0,129	0,011
-658,159	-200,000	-0,007	0,080
-657,145	-19,721	-0,079	0,036
-656,130	800,000	0,023	0,049
-655,116	-200,000	0,009	0,046
-654,101	800,000	-0,023	0,072
-653,086	-200,000	0,027	0,152
-652,072	-200,000	0,020	0,088
-651,057	102,703	0,050	0,043
-650,043	82,348	-0,026	-0,021
-649,028	-35,400	-0,194	0,077
-648,014	-200,000	-0,013	-0,059
-646,999	461,858	-0,029	0,047
-645,984	633,731	-0,024	-0,045
-644,970	60,945	-0,093	0,068
-643,955	-24,471	-0,127	0,055
-642,941	-200,000	-0,000	0,053
-641,926	-96,303	-0,136	-0,026
-640,911	16,217	-0,048	0,027
-639,897	9,620	-0,042	0,023
-638,882	38,629	0,055	0,036
-637,868	800,000	-0,033	0,079
-636,853	670,086	-0,064	-0,122
-635,838	-57,128	-0,046	0,015
-634,824	7,860	-0,064	0,035
-633,809	-102,744	-0,052	-0,009
-632,795	-200,000	0,004	0,059
-631,780	-200,000	-0,023	0,078
-630,765	-200,000	0,007	-0,047
-629,751	176,603	0,044	-0,047
-628,736	41,300	0,066	-0,044
-627,722	225,569	0,133	-0,159
-626,707	121,386	0,028	-0,026
-625,692	-181,236	-0,030	-0,000
-624,678	-68,501	-0,079	-0,022
-623,663	-96,478	0,064	-0,012
-622,649	1,599	-0,116	-0,061
-621,634	-113,552	-0,056	-0,008
-620,619	352,848	-0,078	-0,114
-619,605	89,790	-0,045	0,037
-618,590	-80,357	0,147	-0,036
-617,576	-200,000	-0,015	0,075
-616,561	-38,038	0,072	0,028
-615,546	-76,161	-0,102	-0,026
-614,532	-200,000	0,033	-0,203
-613,517	800,000	-0,013	0,027
-612,503	-39,182	-0,025	-0,009
-611,488	79,697	0,066	-0,052
-610,474	-79,917	-0,032	-0,008
-609,459	800,000	0,029	0,083
-608,444	-15,046	-0,086	0,040
-607,430	-23,144	0,067	0,030
-606,415	91,277	-0,011	0,009
-605,401	96,800	0,087	0,073
-604,386	237,902	0,157	0,191
-603,371	800,000	-0,029	0,091
-602,357	252,555	-0,077	0,097
-601,342	83,155	-0,103	0,082
-600,328	-90,507	0,079	0,017
-599,313	-200,000	-0,000	-0,133
-598,298	-200,000	-0,004	0,175
-597,284	235,829	-0,044	0,053
-596,269	418,434	0,065	0,103
-595,255	-23,783	-0,039	0,017
-594,240	800,000	0,046	0,099
-593,225	466,415	-0,029	0,048
-592,211	-96,881	-0,167	-0,032
-591,196	106,515	-0,138	-0,120
-590,182	-200,000	-0,001	-0,006
-589,167	-68,965	0,108	0,030
-588,152	-43,457	0,110	-0,041
-587,138	-154,989	0,139	0,007
-586,123	761,838	-0,042	0,083
-585,109	-56,863	-0,158	-0,051
-584,094	-80,101	-0,080	-0,020
-583,079	45,835	0,073	-0,050
-582,065	-125,734	0,124	0,014
-581,050	-200,000	0,015	-0,097
-580,036	-99,130	0,065	-0,012
-579,021	-200,000	-0,013	-0,087
-578,006	-175,424	0,068	-0,001
-576,992	25,846	0,147	0,090
-575,977	-200,000	0,018	0,080
-574,963	687,450	0,020	0,039
-573,948	-200,000	0,018	-0,140
-572,934	-89,299	-0,110	0,024
-571,919	-24,079	-0,055	-0,024
-570,904	98,233	-0,046	0,039
-569,890	267,275	-0,079	0,101
-568,875	218,780	0,090	0,105
-567,861	-200,000	0,017	-0,061
-566,846	-200,000	-0,001	-0,101
-565,831	-76,539	0,040	-0,010
-564,817	-24,336	-0,015	-0,006
-563,802	-200,000	-0,003	-0,099
-562,788	137,751	-0,067	-0,064
-561,773	-48,257	0,017	0,006
-560,758	53,992	0,083	0,058
-559,744	95,814	-0,035	-0,029
-558,729	369,908	-0,057	-0,085
-557,715	11,738	0,061	-0,034
-556,700	800,000	0,056	-0,120
-555,685	-57,926	-0,039	-0,012
-554,671	91,810	0,054	-0,044
-553,656	131,737	0,116	0,109
-552,642	-79,331	-0,048	-0,012
-551,627	136,677	-0,092	-0,088
-550,612	200,513	-0,034	-0,038
-549,598	212,607	-0,035	0,041
-548,583	-45,328	-0,032	0,012
-547,569	354,839	-0,050	-0,073
-546,554	800,000	0,054	0,161
-545,539	402,012	0,079	0,122
-544,525	-200,000	0,036	0,168
-543,510	-200,000	-0,007	-0,038
-542,496	3,396	-0,057	-0,030
-541,481	-69,434	0,011	0,003
-540,466	31,152	-0,038	-0,024
-539,452	-115,502	-0,075	-0,010
-538,437	519,435	-0,023	0,039
-537,423	-9,805	0,088	-0,043
-536,408	137,311	0,031	0,029
-535,393	341,836	0,074	-0,106
-534,379	108,090	-0,125	0,109
-533,364	800,000	0,012	0,032
-532,350	-200,000	-0,008	-0,053
-531,335	286,691	0,095	0,126
-530,321	-200,000	-0,002	0,020
-529,306	167,507	-0,050	-0,052
-528,291	-200,000	-0,008	-0,111
-527,277	0,325	-0,054	0,028
-526,262	23,033	0,107	-0,064
-525,248	-25,869	0,053	0,023
-524,233	-28,464	0,034	-0,014
-523,218	567,382	-0,030	0,053
-522,204	-200,000	-0,023	-0,080
-521,189	-200,000	-0,005	-0,026
-520,175	56,206	-0,076	-0,054
-519,160	-152,478	0,102	0,005
-518,145	-121,843	0,074	0,009
-517,131	-30,654	0,093	-0,038
-516,116	195,507	-0,051	0,057
-515,102	-46,799	0,062	0,022
-514,087	-98,382	0,033	-0,006
-513,072	712,891	-0,055	-0,108
-512,058	3,209	0,153	-0,081
-511,043	-112,554	0,083	0,012
-510,029	270,627	0,088	0,113
-509,014	421,758	0,022	0,035
-507,999	-200,000	0,001	-0,195
-506,985	164,214	-0,020	-0,021
-505,970	699,055	-0,042	-0,081
-504,956	-29,184	-0,073	-0,030
-503,941	800,000	-0,020	-0,052
-502,926	800,000	0,035	-0,110
-501,912	-120,380	-0,097	0,012
-500,897	224,346	-0,085	-0,100
-499,883	-200,000	-0,076	0,000
-498,868	-200,000	-0,004	-0,035
-497,853	-200,000	0,005	-0,074
-496,839	45,907	-0,070	-0,047
-495,824	-200,000	-0,012	0,049
-494,810	419,680	0,069	-0,108
-493,795	-200,000	0,013	0,103
-492,781	-83,514	0,101	0,024
-491,766	-200,000	-0,021	-0,100
-490,751	-27,647	0,072	0,030
-489,737	58,973	0,066	0,047
-488,722	575,738	0,048	0,085
-487,708	22,984	0,085	0,051
-486,693	-200,000	0,039	0,167
-485,678	134,086	0,105	0,100
-484,664	-83,247	-0,108	-0,025
-483,649	446,875	0,049	0,079
-482,635	-175,313	-0,053	0,001
-481,620	255,907	0,062	0,078
-480,605	800,000	-0,043	0,087
-479,591	212,307	0,114	0,131
-478,576	-200,000	-0,032	-0,140
-477,562	-114,485	-0,055	0,008
-476,547	-143,346	-0,164	-0,011
-475,532	161,283	-0,085	-0,087
-474,518	39,677	0,057	-0,037
-473,503	295,438	0,112	0,149
-472,489	-10,571	-0,086	0,041
-471,474	-200,000	-0,010	0,052
-470,459	-200,000	-0,002	0,079
-469,445	-55,945	-0,041	-0,013
-468,430	-17,501	-0,134	0,061
-467,416	-200,000	-0,012	0,084
-466,401	53,158	0,122	0,085
-465,386	800,000	-0,029	-0,074
-464,372	-24,590	0,080	-0,035
-463,357	71,217	-0,117	0,089
-462,343	-137,485	-0,228	-0,018
-461,328	-0,072	-0,013	0,006
-460,313	-19,681	0,027	0,012
-459,299	-111,780	0,139	0,020
-458,284	790,385	-0,018	0,037
-457,270	657,744	-0,041	0,077
-456,255	-200,000	0,002	0,047
-455,241	148,262	0,052	0,051
-454,226	800,000	-0,015	0,041
-453,211	-1,095	-0,046	0,024
-452,197	85,178	0,057	-0,046
-451,182	-200,000	0,025	0,122
-450,168	92,024	-0,092	0,075
-449,153	25,839	0,059	-0,036
-448,138	-189,046	0,106	-0,001
-447,124	800,000	0,023	-0,059
-446,109	-37,349	-0,081	-0,031
-445,095	-19,938	0,112	-0,050
-444,080	-200,000	0,022	0,106
-443,065	-200,000	0,006	0,040
-442,051	-61,912	-0,111	0,034
-441,036	-119,233	0,077	-0,010
-440,022	304,773	-0,004	0,005
-439,007	-129,058	0,146	-0,015
-437,992	800,000	-0,053	0,141
-436,978	800,000	-0,012	0,036
-435,963	8,353	-0,064	-0,035
-434,949	-200,000	0,007	0,081
-433,934	239,494	-0,110	-0,133
-432,919	-53,289	0,040	-0,013
-431,905	125,031	0,027	-0,024
-430,890	-95,667	0,064	-0,012
-429,876	-200,000	-0,014	0,136
-428,861	800,000	0,012	0,038
-427,846	-200,000	-0,002	0,102
-426,832	375,605	0,013	0,019
-425,817	-45,731	-0,145	-0,052
-424,803	478,531	0,052	-0,086
-423,788	132,422	0,086	-0,081
-422,773	248,163	0,005	-0,006
-421,759	-200,000	-0,007	0,101
-420,744	-125,317	0,012	-0,001
-419,730	800,000	0,040	-0,120
-418,715	-200,000	-0,064	-0,251
-417,701	373,519	-0,037	0,055
-416,686	339,682	0,014	-0,021
-415,671	-99,491	-0,047	-0,008
-414,657	33,126	0,124	-0,078
-413,642	-72,764	-0,147	0,039
-412,628	-125,554	0,116	0,013
-411,613	800,000	-0,066	-0,194
-410,598	120,811	-0,031	-0,028
-409,584	-200,000	0,005	0,030
-408,569	330,211	0,055	0,077
-407,555	-145,666	0,147	-0,009
-406,540	371,182	0,039	-0,057
-405,525	483,132	-0,075	-0,124
-404,511	342,960	0,055	-0,078
-403,496	800,000	-0,019	-0,040
-402,482	800,000	0,005	-0,011
-401,467	-21,344	0,100	0,044
-400,452	74,604	-0,060	-0,046
-399,438	138,829	0,007	0,007
-398,423	246,283	0,041	0,050
-397,409	-44,693	-0,130	0,047
-396,394	-94,039	0,076	-0,015
-395,379	273,907	-0,041	-0,053
-394,365	261,726	-0,052	-0,066
-393,350	200,113	0,147	0,165
-392,336	13,163	0,134	0,075
-391,321	34,699	-0,028	-0,018
-390,306	110,589	0,059	-0,051
-389,292	-200,000	-0,013	-0,074
-388,277	212,013	-0,038	0,044
-387,263	481,722	0,051	-0,084
-386,248	-200,000	-0,006	-0,038
-385,233	-200,000	-0,001	-0,092
-384,219	-45,577	0,046	-0,017
-383,204	248,678	-0,036	-0,045
-382,190	267,663	0,016	-0,020
-381,175	-31,247	0,096	-0,039
-380,160	-37,211	0,039	0,015
-379,146	-41,799	-0,138	-0,051
-378,131	45,675	-0,052	-0,035
-377,117	-200,000	-0,008	-0,028
-376,102	800,000	-0,068	-0,160
-375,088	214,099	-0,069	-0,080
-374,073	-119,673	-0,095	0,012
-373,058	602,649	-0,028	-0,051
-372,044	-189,614	0,053	0,000
-371,029	189,537	0,089	0,097
-370,015	800,000	-0,004	0,011
-369,000	800,000	0,029	0,073
-367,985	800,000	-0,065	-0,151
-366,971	-5,693	-0,096	0,048
-365,956	465,743	0,031	0,050
-364,942	-200,000	0,021	0,100
-363,927	80,966	0,110	-0,086
-362,912	800,000	-0,029	0,065
-361,898	198,150	0,097	0,108
-360,883	-200,000	0,006	-0,046
-359,869	-124,432	0,116	0,013
-358,854	-40,184	0,028	0,011
-357,839	-158,100	-0,095	0,004
-356,825	-57,883	-0,044	-0,014
-355,810	-62,793	0,026	-0,008
-354,796	-133,274	-0,152	0,014
-353,781	287,737	-0,085	-0,112
-352,766	179,794	0,030	-0,031
-351,752	-94,898	0,133	0,026
-350,737	63,523	0,078	-0,057
-349,723	602,874	0,065	0,118
-348,708	-200,000	-0,009	0,033
-347,693	-95,000	-0,084	-0,016
-346,679	-30,373	0,188	-0,077
-345,664	-121,851	-0,142	-0,017
-344,650	-66,013	-0,043	0,012
-343,635	-74,529	-0,163	-0,042
-342,620	363,386	0,089	0,131
-341,606	-37,025	-0,126	0,049
-340,591	-30,189	-0,118	-0,049
-339,577	-30,979	0,037	-0,015
-338,562	650,188	-0,032	-0,059
-337,548	57,944	-0,051	-0,036
-336,533	800,000	-0,004	-0,010
-335,518	-111,349	-0,059	0,009
-334,504	-107,604	0,129	-0,020
-333,489	19,190	0,121	-0,070
-332,475	651,929	-0,041	-0,077
-331,460	65,278	0,049	-0,036
-330,445	214,172	-0,066	-0,076
-329,431	-52,749	0,010	-0,003
-328,416	318,359	0,101	0,140
-327,402	301,227	-0,029	0,039
-326,387	-200,000	0,008	-0,040
-325,372	459,032	0,044	-0,072
-324,358	800,000	0,003	0,009
-323,343	-17,837	0,128	0,058
-322,329	223,101	-0,094	0,111
-321,314	-95,700	-0,044	0,009
-320,299	-200,000	-0,003	0,011
-319,285	389,712	0,011	0,016
-318,270	-200,000	-0,004	0,086
-317,256	100,973	-0,095	-0,080
-316,241	-200,000	0,013	-0,104
-315,226	60,438	0,028	-0,020
-314,212	-200,000	0,011	-0,092
-313,197	238,770	0,036	0,044
-312,183	15,204	0,098	-0,056
-311,168	-200,000	0,047	-0,152
-310,153	-109,814	-0,084	0,013
-309,139	737,677	-0,026	-0,050
-308,124	-89,743	0,082	-0,017
-307,110	41,402	-0,027	-0,018
-306,095	-200,000	-0,009	0,032
-305,080	161,645	0,081	0,083
-304,066	-31,961	0,034	0,014
-303,051	215,778	-0,101	-0,116
-302,037	-123,577	-0,089	-0,010
-301,022	-28,808	0,070	-0,029
-300,008	800,000	-0,040	0,096
-298,993	-100,669	-0,141	0,025
-297,978	248,531	-0,065	0,080
-296,964	800,000	0,032	0,098
-295,949	69,500	-0,032	0,024
-294,935	287,597	-0,025	-0,033
-293,920	-200,000	0,031	-0,151
-292,905	162,298	0,075	0,077
-291,891	295,783	0,038	-0,051
-290,876	204,641	-0,057	0,064
-289,862	-96,296	-0,056	0,011
-288,847	800,000	-0,027	0,079
-287,832	-200,000	0,014	0,071
-286,818	-200,000	0,027	-0,108
-285,803	-115,751	0,051	0,007
-284,789	71,497	0,060	0,045
-283,774	602,059	-0,061	-0,110
-282,759	-169,033	0,025	0,001
-281,745	486,755	-0,080	0,132
-280,730	-3,939	-0,133	-0,067
-279,716	-81,428	0,037	-0,009
-278,701	800,000	-0,047	0,095
-277,686	-64,741	0,102	-0,030
-276,672	4,981	0,094	0,050
-275,657	-200,000	0,008	-0,109
-274,643	800,000	0,007	-0,022
-273,628	680,768	0,075	-0,141
-272,613	-36,071	-0,067	0,026
-271,599	-19,674	0,069	0,031
-270,584	18,203	-0,082	0,047
-269,570	-200,000	0,014	0,180
-268,555	-200,000	-0,017	-0,067
-267,540	800,000	-0,037	0,090
-266,526	-25,175	-0,141	-0,060
-265,511	652,721	-0,059	0,111
-264,497	30,739	0,046	0,029
-263,482	36,329	0,143	0,091
-262,467	-200,000	0,014	0,135
-261,453	-200,000	-0,017	-0,080
-260,438	800,000	-0,041	-0,098
-259,424	598,526	0,032	-0,058
-258,409	800,000	0,014	0,039
-257,395	-200,000	-0,000	0,121
-256,380	-59,427	-0,046	-0,014
-255,365	-40,345	0,043	0,016
-254,351	-200,000	-0,008	0,053
-253,336	50,260	0,021	0,014
-252,322	150,426	-0,019	0,018
-251,307	-9,856	-0,107	-0,051
-250,292	-72,255	0,104	-0,028
-249,278	-40,270	0,048	-0,018
-248,263	188,536	-0,078	0,084
-247,249	98,523	-0,116	0,097
-246,234	-10,663	-0,019	-0,009
-245,219	-58,293	0,113	-0,035
-244,205	4,726	0,141	-0,075
-243,190	146,683	-0,076	-0,074
-242,176	-106,218	0,091	0,015
-241,161	-200,000	-0,010	-0,161
-240,146	393,192	0,031	-0,046
-239,132	-108,268	-0,101	-0,016
-238,117	430,294	-0,040	-0,063
-237,103	43,901	-0,049	-0,033
-236,088	3,514	-0,129	0,068
-235,073	141,322	-0,044	-0,042
-234,059	154,113	0,031	-0,031
-233,044	20,507	0,102	-0,059
-232,030	800,000	-0,012	0,026
-231,015	87,700	-0,139	-0,111
-230,000	745,264	-0,055	-0,108
-228,986	-12,298	-0,116	0,055
-227,971	237,483	0,009	0,011
-226,957	741,585	0,016	0,031
-225,942	-119,363	0,074	0,009
-224,927	-200,000	-0,027	0,100
-223,913	614,288	-0,043	-0,078
-222,898	664,622	-0,032	0,060
-221,884	545,425	0,048	0,083
-220,869	260,637	0,023	-0,029
-219,855	800,000	0,037	0,087
-218,840	186,700	0,112	-0,121
-217,825	183,036	0,061	-0,066
-216,811	-134,579	-0,127	-0,011
-215,796	10,607	-0,036	-0,020
-214,782	59,236	0,006	0,004
-213,767	86,502	-0,103	-0,082
-212,752	-200,000	0,008	0,098
-211,738	-200,000	-0,013	0,072
-210,723	110,006	0,069	-0,060
-209,709	800,000	-0,062	0,128
-208,694	195,802	0,091	-0,101
-207,679	363,968	-0,011	0,016
-206,665	-120,765	-0,031	0,004
-205,650	-200,000	0,041	0,219
-204,636	16,716	0,100	0,057
-203,621	-62,673	0,048	-0,014
-202,606	57,749	0,019	-0,013
-201,592	249,781	-0,044	-0,054
-200,577	-78,095	0,107	-0,026
-199,563	-200,000	-0,003	0,087
-198,548	-66,267	0,043	-0,012
-197,533	-200,000	0,010	-0,120
-196,519	404,968	0,055	-0,083
-195,504	-3,806	0,019	-0,010
-194,490	-129,336	0,033	0,003
-193,475	-200,000	0,032	0,127
-192,460	230,821	0,032	0,038
-191,446	609,635	-0,014	-0,025
-190,431	483,735	0,106	0,175
-189,417	654,106	0,021	0,039
-188,402	-39,368	-0,128	-0,048
-187,387	-200,000	-0,037	-0,147
-186,373	385,620	0,025	0,038
-185,358	-83,161	-0,185	0,043
-184,344	112,050	0,084	-0,073
-183,329	-200,000	0,012	0,056
-182,315	-112,912	0,060	0,008
-181,300	243,621	-0,065	-0,079
-180,285	-200,000	0,006	-0,036
-179,271	-200,000	-0,008	0,098
-178,256	21,617	0,130	0,076
-177,242	-141,725	0,062	-0,004
-176,227	40,867	0,047	0,030
-175,212	81,320	-0,097	0,075
-174,198	-19,010	0,087	0,039
-173,183	-67,226	-0,135	0,038
-172,169	107,468	0,135	-0,116
-171,154	106,192	-0,069	-0,059
-170,139	-26,766	0,098	0,041
-169,125	-200,000	0,001	-0,004
-168,110	56,649	-0,078	0,055
-167,096	-200,000	-0,002	0,032
-166,081	244,483	0,020	0,024
-165,066	551,416	-0,088	-0,153
-164,052	238,362	-0,117	-0,140
-163,037	-67,779	-0,032	0,009
-162,023	175,588	0,063	0,066
-161,008	315,342	0,038	0,052
-159,993	-136,407	-0,122	-0,010
-158,979	-200,000	-0,000	-0,091
-157,964	-51,727	0,131	-0,044
-156,950	-103,027	-0,077	-0,013
-155,935	-98,661	0,044	0,008
-154,920	800,000	0,043	0,092
-153,906	-152,657	-0,016	0,001
-152,891	-143,923	0,026	-0,002
-151,877	349,245	-0,015	0,022
-150,862	-81,077	-0,077	-0,018
-149,847	-34,037	-0,065	-0,026
-148,833	-200,000	-0,018	0,075
-147,818	278,378	-0,003	0,003
-146,804	44,841	0,034	-0,022
-145,789	236,929	0,053	0,063
-144,775	800,000	-0,028	0,064
-143,760	-55,790	-0,129	-0,041
-142,745	-54,511	-0,064	-0,021
-141,731	22,085	-0,060	0,035
-140,716	800,000	0,020	0,041
-139,702	332,431	-0,024	-0,034
-138,687	-200,000	0,013	0,051
-137,672	-123,108	-0,157	0,018
-136,658	56,615	-0,125	-0,088
-135,643	-134,106	-0,050	-0,004
-134,629	-200,000	0,007	0,031
-133,614	-102,925	0,103	-0,017
-132,599	-79,421	-0,013	-0,003
-131,585	-200,000	-0,036	0,152
-130,570	-82,747	-0,051	-0,012
-129,556	-200,000	0,026	-0,123
-128,541	-64,989	0,124	-0,036
-127,526	-18,152	0,052	-0,023
-126,512	86,613	-0,041	-0,033
-125,497	-167,880	-0,174	0,005
-124,483	-200,000	0,019	0,166
-123,468	520,609	-0,051	-0,086
-122,453	800,000	-0,007	-0,023
-121,439	16,541	-0,074	-0,042
-120,424	-200,000	-0,024	0,142
-119,410	-166,262	0,103	-0,003
-118,395	-200,000	-0,022	0,084
