DTS Sentinel unit serial number:	SN410029Multiplexer serial number:	ORYXHardware model number:	OX2-SRSoftware version number:	ORYX F/W v4,00 Oryx Data Collector v3.7.2.0data status	okinstallation	B5 Nyhavnadifferential loss correction	single-endedforward channel	channel 2reverse channel	N/Adate	2023/12/13time	02:42:13forward acquisition time	300,00reverse acquisition time	0,00gamma	499,1914k internal	0,3160k external	0,3160temperature offset calibration	1,0000default loss term (dB/km)	0,3820temperature slope calibration	1,0000multiplexer offset coefficient	1,0000multiplexer slope coefficient	1,0000fibre end	0,00T internal ref (°C)	14,00T ext. ref 1 (°C)	-2,48T ext. ref 2 (°C)	-2,78length (m)	temperature (°C)	Stokes	anti-Stokes-744,400	-95,582	-0,042	0,008
-743,385	-37,697	-0,229	-0,089
-742,371	-147,432	0,140	-0,009
-741,356	-106,961	-0,355	0,057
-740,342	136,593	0,135	0,129
-739,327	-146,908	-0,209	0,013
-738,312	-200,000	0,015	0,092
-737,298	-86,566	-0,363	-0,081
-736,283	-36,752	0,181	0,071
-735,269	-152,585	-0,160	0,008
-734,254	476,456	0,085	0,142
-733,239	15,702	-0,480	-0,277
-732,225	-126,693	0,145	-0,016
-731,210	-59,082	-0,279	-0,088
-730,196	32,492	-0,027	-0,017
-729,181	800,000	-0,024	-0,067
-728,167	-25,007	-0,060	-0,026
-727,152	-47,751	0,067	0,024
-726,137	-28,713	-0,081	-0,034
-725,123	-96,315	0,022	0,004
-724,108	-24,986	-0,057	-0,025
-723,094	407,169	0,042	-0,065
-722,079	-190,326	-0,034	0,000
-721,064	-20,692	0,007	-0,003
-720,050	125,162	-0,062	-0,058
-719,035	226,296	-0,129	0,154
-718,021	44,518	0,041	0,027
-717,006	273,081	-0,043	0,056
-715,991	135,921	-0,054	-0,052
-714,977	-185,517	0,038	0,000
-713,962	-200,000	-0,026	-0,105
-712,948	25,904	0,112	0,069
-711,933	269,519	-0,033	-0,043
-710,918	-75,475	-0,169	-0,044
-709,904	229,014	-0,040	-0,048
-708,889	-111,248	-0,149	0,022
-707,875	800,000	-0,054	-0,144
-706,860	5,108	0,030	0,016
-705,845	54,084	-0,181	-0,128
-704,831	800,000	-0,063	0,161
-703,816	-200,000	0,061	0,000
-702,802	26,050	-0,120	0,074
-701,787	102,747	0,056	-0,048
-700,772	-200,000	-0,008	-0,073
-699,758	7,547	-0,068	-0,037
-698,743	-127,112	0,257	-0,027
-697,729	-128,329	-0,270	-0,028
-696,714	-60,787	0,087	0,027
-695,699	800,000	-0,026	0,083
-694,685	68,025	-0,079	-0,059
-693,670	-12,060	-0,134	-0,064
-692,656	144,389	-0,063	-0,062
-691,641	-200,000	0,050	-0,183
-690,627	-200,000	-0,003	0,015
-689,612	44,633	0,016	-0,011
-688,597	-107,487	-0,160	-0,025
-687,583	-70,379	0,016	-0,004
-686,568	310,984	-0,016	-0,022
-685,554	30,947	0,053	-0,034
-684,539	613,871	-0,054	-0,099
-683,524	-200,000	0,011	0,215
-682,510	-200,000	0,010	0,142
-681,495	108,713	-0,065	0,057
-680,481	-177,087	-0,041	0,001
-679,466	46,766	-0,040	-0,027
-678,451	-11,286	0,090	0,044
-677,437	-200,000	0,021	0,070
-676,422	45,901	0,004	-0,003
-675,408	28,805	-0,025	-0,015
-674,393	743,702	0,068	0,136
-673,378	47,537	0,020	-0,014
-672,364	-74,783	-0,219	-0,057
-671,349	64,852	0,107	-0,079
-670,335	287,486	0,071	-0,095
-669,320	-118,361	-0,024	-0,003
-668,305	-200,000	0,015	-0,088
-667,291	89,039	-0,085	-0,069
-666,276	-51,422	-0,108	0,037
-665,262	575,872	-0,062	-0,111
-664,247	-200,000	-0,008	-0,213
-663,232	-73,782	-0,075	-0,020
-662,218	-200,000	-0,011	-0,082
-661,203	-200,000	0,014	-0,164
-660,189	800,000	0,020	0,042
-659,174	-142,075	-0,169	0,012
-658,159	21,473	-0,165	0,098
-657,145	-200,000	-0,066	-0,232
-656,130	-200,000	0,015	-0,129
-655,116	-149,188	-0,190	0,011
-654,101	-26,450	0,090	0,038
-653,086	800,000	-0,071	-0,150
-652,072	-200,000	-0,003	-0,073
-651,057	77,461	-0,088	-0,069
-650,043	-169,076	-0,153	0,004
-649,028	-200,000	-0,006	-0,091
-648,014	18,103	-0,034	0,020
-646,999	125,721	0,075	-0,069
-645,984	-162,384	-0,033	0,001
-644,970	-200,000	-0,009	-0,128
-643,955	289,061	-0,055	-0,074
-642,941	187,879	0,051	0,055
-641,926	-200,000	-0,006	-0,047
-640,911	238,458	-0,026	0,031
-639,897	-200,000	-0,054	0,189
-638,882	51,275	-0,082	0,057
-637,868	-200,000	-0,055	-0,189
-636,853	152,645	-0,051	-0,052
-635,838	-200,000	-0,017	-0,061
-634,824	800,000	-0,023	0,060
-633,809	-134,300	0,170	-0,015
-632,795	-34,564	-0,120	0,048
-631,780	-4,462	0,126	0,064
-630,765	-21,378	0,022	-0,010
-629,751	33,743	-0,132	-0,084
-628,736	559,063	-0,091	-0,161
-627,722	79,057	-0,101	-0,079
-626,707	148,089	-0,071	-0,070
-625,692	54,034	0,051	-0,036
-624,678	-33,883	0,150	-0,060
-623,663	-73,302	-0,040	0,011
-622,649	126,618	0,110	0,102
-621,634	151,067	-0,036	0,036
-620,619	800,000	0,067	-0,189
-619,605	-120,221	-0,026	0,003
-618,590	89,468	0,048	-0,039
-617,576	774,737	0,031	0,062
-616,561	800,000	0,044	0,108
-615,546	-74,836	-0,084	-0,022
-614,532	-64,559	-0,151	-0,045
-613,517	-89,194	-0,107	0,023
-612,503	-200,000	0,027	0,089
-611,488	-200,000	0,013	-0,062
-610,474	269,181	-0,050	0,065
-609,459	160,229	-0,150	-0,153
-608,444	-35,847	-0,190	-0,075
-607,430	-200,000	0,002	0,238
-606,415	-200,000	-0,040	0,150
-605,401	800,000	0,045	0,099
-604,386	-200,000	0,022	0,081
-603,371	7,346	-0,114	0,062
-602,357	-200,000	-0,008	0,038
-601,342	117,759	0,009	-0,008
-600,328	-87,085	-0,198	0,044
-599,313	-200,000	-0,013	0,073
-598,298	149,103	0,045	0,045
-597,284	-126,415	0,037	-0,004
-596,269	-200,000	-0,021	0,085
-595,255	12,870	0,014	-0,008
-594,240	602,514	0,082	-0,149
-593,225	800,000	-0,008	-0,022
-592,211	800,000	-0,042	-0,090
-591,196	-94,687	0,131	0,026
-590,182	-200,000	0,016	0,104
-589,167	149,004	-0,056	0,056
-588,152	26,035	-0,111	-0,068
-587,138	37,860	-0,058	-0,038
-586,123	39,849	0,254	-0,166
-585,109	255,265	-0,057	-0,072
-584,094	-200,000	0,014	0,051
-583,079	310,080	0,041	-0,056
-582,065	-200,000	-0,045	0,173
-581,050	34,207	-0,079	-0,050
-580,036	-200,000	0,006	0,097
-579,021	-44,878	-0,051	-0,018
-578,006	-130,143	-0,102	0,010
-576,992	-0,240	0,079	-0,041
-575,977	-200,000	0,017	-0,178
-574,963	-43,749	0,127	-0,047
-573,948	800,000	0,034	-0,098
-572,934	244,976	-0,059	-0,073
-571,919	305,854	-0,096	0,132
-570,904	-200,000	0,001	-0,124
-569,890	-195,360	-0,071	0,000
-568,875	-153,316	-0,065	-0,003
-567,861	-80,730	0,118	0,029
-566,846	70,718	0,017	0,013
-565,831	43,576	-0,037	0,025
-564,817	376,722	0,023	0,035
-563,802	-101,846	0,122	-0,021
-562,788	-84,170	0,054	-0,013
-561,773	-108,023	-0,134	0,021
-560,758	-61,874	0,061	0,019
-559,744	242,134	0,027	0,033
-558,729	-37,088	0,062	-0,024
-557,715	237,744	-0,054	-0,066
-556,700	122,312	-0,056	0,051
-555,685	224,230	0,065	0,077
-554,671	155,642	0,086	0,087
-553,656	86,411	-0,086	0,069
-552,642	139,580	0,052	0,050
-551,627	-29,270	-0,085	0,035
-550,612	133,096	-0,093	-0,088
-549,598	555,340	0,054	-0,095
-548,583	432,290	-0,104	-0,166
-547,569	-200,000	-0,005	-0,080
-546,554	13,481	0,062	-0,035
-545,539	-131,274	0,085	0,008
-544,525	-171,977	0,023	0,001
-543,510	-94,744	0,041	-0,008
-542,496	5,006	-0,077	-0,041
-541,481	800,000	0,035	-0,102
-540,466	93,292	0,071	0,058
-539,452	67,285	0,086	0,064
-538,437	-134,334	0,065	0,006
-537,423	734,437	-0,063	0,123
-536,408	800,000	0,030	0,080
-535,393	800,000	0,009	0,026
-534,379	457,915	-0,030	0,050
-533,364	-200,000	-0,004	0,064
-532,350	570,686	-0,050	0,089
-531,335	-200,000	-0,011	-0,072
-530,321	-162,749	0,147	0,005
-529,306	456,836	-0,010	0,016
-528,291	-200,000	-0,000	0,026
-527,277	-200,000	-0,023	0,084
-526,262	-119,839	0,207	-0,026
-525,248	800,000	0,065	0,198
-524,233	90,820	0,111	0,091
-523,218	-25,132	-0,112	0,048
-522,204	-200,000	-0,017	-0,077
-521,189	-200,000	-0,015	-0,126
-520,175	-77,569	0,047	0,012
-519,160	2,387	0,046	-0,024
-518,145	-127,991	0,122	-0,013
-517,131	116,138	0,102	0,091
-516,116	-69,018	-0,130	-0,036
-515,102	80,231	-0,043	-0,034
-514,087	-37,150	0,038	-0,015
-513,072	56,383	0,090	-0,063
-512,058	55,615	0,048	0,034
-511,043	-200,000	-0,009	-0,135
-510,029	650,896	0,049	0,092
-509,014	198,968	0,063	0,070
-507,999	-70,344	-0,031	0,009
-506,985	-104,219	-0,076	-0,013
-505,970	-55,294	-0,087	0,028
-504,956	-200,000	-0,002	-0,189
-503,941	-200,000	0,004	0,017
-502,926	93,647	-0,052	-0,043
-501,912	320,813	-0,039	-0,054
-500,897	-40,795	-0,082	0,031
-499,883	-23,700	-0,181	-0,079
-498,868	49,660	0,019	-0,013
-497,853	17,236	0,125	-0,072
-496,839	501,594	0,013	-0,022
-495,824	15,128	0,098	0,056
-494,810	187,210	0,018	0,019
-493,795	-130,965	0,038	-0,004
-492,781	-200,000	-0,045	0,153
-491,766	-140,958	-0,029	-0,002
-490,751	800,000	-0,091	-0,259
-489,737	374,272	0,067	0,099
-488,722	-200,000	0,043	0,210
-487,708	300,910	-0,016	0,022
-486,693	279,142	0,014	0,018
-485,678	-200,000	0,001	0,013
-484,664	238,006	-0,014	-0,017
-483,649	-110,911	0,092	-0,014
-482,635	83,044	0,019	-0,015
-481,620	-71,109	0,089	-0,024
-480,605	168,990	-0,072	-0,075
-479,591	-144,643	0,057	-0,004
-478,576	-20,316	0,153	-0,068
-477,562	800,000	-0,044	-0,105
-476,547	30,814	0,067	-0,042
-475,532	253,222	-0,028	0,035
-474,518	0,178	0,030	0,015
-473,503	800,000	-0,031	-0,080
-472,489	-121,592	0,093	0,011
-471,474	213,999	-0,049	0,057
-470,459	-118,501	-0,167	-0,021
-469,445	-2,510	0,026	0,013
-468,430	355,342	-0,065	-0,095
-467,416	-200,000	0,012	-0,115
-466,401	-64,933	0,023	0,007
-465,386	-54,190	-0,106	-0,035
-464,372	-200,000	-0,006	0,084
-463,357	716,790	0,043	-0,084
-462,343	-160,414	0,150	-0,006
-461,328	-188,054	-0,061	-0,001
-460,313	-9,655	0,070	-0,034
-459,299	-200,000	0,029	-0,095
-458,284	-66,099	-0,107	0,031
-457,270	-23,682	0,029	0,013
-456,255	-130,578	-0,152	0,015
-455,241	800,000	0,035	0,100
-454,226	136,932	0,060	0,057
-453,211	722,724	0,062	-0,121
-452,197	800,000	0,022	0,049
-451,182	800,000	-0,020	0,054
-450,168	-172,377	0,055	-0,001
-449,153	-200,000	0,003	0,051
-448,138	-179,828	0,046	0,001
-447,124	800,000	-0,044	0,099
-446,109	-157,722	-0,136	-0,006
-445,095	140,916	0,039	-0,038
-444,080	-200,000	0,033	-0,116
-443,065	-165,416	0,048	0,001
-442,051	-200,000	-0,005	-0,034
-441,036	-117,271	-0,065	-0,008
-440,022	800,000	-0,034	-0,073
-439,007	-200,000	-0,016	0,054
-437,992	800,000	-0,006	-0,013
-436,978	162,998	0,095	0,097
-435,963	522,428	-0,047	0,081
-434,949	800,000	-0,071	0,160
-433,934	-200,000	0,010	-0,103
-432,919	331,066	0,052	-0,073
-431,905	276,563	-0,097	0,126
-430,890	675,580	-0,052	0,100
-429,876	547,953	0,103	0,180
-428,861	-200,000	-0,015	-0,050
-427,846	-53,756	0,051	0,017
-426,832	506,632	-0,072	-0,122
-425,817	249,340	0,066	-0,082
-424,803	135,300	-0,090	0,085
-423,788	150,139	0,137	-0,135
-422,773	-200,000	-0,022	0,085
-421,759	-200,000	-0,006	0,044
-420,744	723,199	0,014	0,028
-419,730	-200,000	-0,010	-0,055
-418,715	-200,000	-0,035	0,159
-417,701	-6,987	-0,127	0,062
-416,686	-81,582	0,088	-0,021
-415,671	-200,000	-0,001	0,027
-414,657	-88,299	-0,172	0,037
-413,642	98,250	-0,077	0,065
-412,628	-200,000	0,027	0,096
-411,613	187,712	-0,025	-0,028
-410,598	-87,825	-0,112	-0,024
-409,584	282,135	-0,047	-0,061
-408,569	-200,000	0,002	0,091
-407,555	-86,610	0,102	0,023
-406,540	230,499	0,098	-0,117
-405,525	-200,000	-0,010	-0,081
-404,511	106,932	0,020	-0,017
-403,496	474,009	0,009	-0,015
-402,482	85,937	0,116	-0,093
-401,467	-200,000	-0,003	-0,146
-400,452	-18,834	0,053	-0,024
-399,438	-94,452	-0,082	-0,016
-398,423	97,308	0,047	0,039
-397,409	-192,339	-0,024	-0,000
-396,394	-200,000	0,023	-0,151
-395,379	172,971	0,008	-0,008
-394,365	57,194	0,061	-0,043
-393,350	-35,468	0,113	0,044
-392,336	800,000	-0,049	0,106
-391,321	25,745	-0,030	-0,018
-390,306	-200,000	-0,023	-0,089
-389,292	283,146	-0,090	-0,118
-388,277	720,799	0,044	-0,085
-387,263	48,340	0,141	0,096
-386,248	-127,484	0,048	-0,005
-385,233	-200,000	-0,034	-0,188
-384,219	141,486	-0,068	0,065
-383,204	292,938	-0,052	-0,069
-382,190	476,273	0,049	-0,081
-381,175	-200,000	-0,025	0,107
-380,160	800,000	-0,062	0,139
-379,146	-50,879	0,145	0,049
-378,131	800,000	-0,017	-0,038
-377,117	118,747	0,044	-0,039
-376,102	445,692	-0,039	0,063
-375,088	-200,000	0,037	-0,202
-374,073	-200,000	-0,004	-0,061
-373,058	4,986	0,139	-0,074
-372,044	496,965	0,114	-0,191
-371,029	150,118	0,064	0,063
-370,015	-200,000	-0,001	-0,113
-369,000	452,969	-0,060	-0,096
-367,985	-21,246	-0,116	-0,051
-366,971	532,875	-0,008	-0,014
-365,956	-96,222	0,047	0,009
-364,942	31,718	-0,060	-0,037
-363,927	34,519	0,078	-0,049
-362,912	469,272	0,018	-0,029
-361,898	-200,000	0,023	-0,091
-360,883	-13,025	-0,204	-0,096
-359,869	257,273	-0,055	-0,069
-358,854	527,088	-0,056	-0,097
-357,839	-139,920	0,113	-0,009
-356,825	35,135	0,034	0,022
-355,810	533,410	0,078	0,134
-354,796	39,268	-0,058	-0,038
-353,781	266,284	0,081	-0,103
-352,766	-200,000	-0,010	-0,049
-351,752	-200,000	0,021	-0,258
-350,737	-56,804	-0,058	0,019
-349,723	130,588	0,148	0,138
-348,708	726,485	0,034	0,065
-347,693	730,103	-0,035	-0,068
-346,679	-71,548	-0,059	0,016
-345,664	-179,913	-0,079	-0,001
-344,650	-22,495	-0,109	-0,048
-343,635	-94,897	0,080	-0,016
-342,620	-153,016	-0,076	-0,004
-341,606	786,510	0,008	0,017
-340,591	800,000	0,035	0,085
-339,577	351,924	0,027	-0,038
-338,562	-32,773	-0,023	-0,009
-337,548	146,467	0,045	0,044
-336,533	104,290	0,031	0,027
-335,518	130,067	0,049	0,046
-334,504	287,782	0,033	-0,044
-333,489	359,774	-0,036	-0,053
-332,475	-32,023	0,093	0,038
-331,460	-200,000	0,011	-0,061
-330,445	-102,818	-0,074	0,013
-329,431	36,534	-0,126	0,080
-328,416	348,243	0,074	0,107
-327,402	-2,121	-0,056	-0,029
-326,387	450,686	-0,026	-0,042
-325,372	800,000	0,030	-0,069
-324,358	-82,239	0,101	0,024
-323,343	-200,000	0,008	-0,073
-322,329	643,451	0,075	0,138
-321,314	28,915	0,132	0,081
-320,299	-200,000	-0,003	0,071
-319,285	800,000	0,023	-0,056
-318,270	-22,069	0,037	-0,016
-317,256	76,690	-0,071	0,054
-316,241	-200,000	-0,008	0,099
-315,226	183,137	0,096	-0,103
-314,212	-200,000	-0,013	-0,085
-313,197	-119,243	-0,055	-0,007
-312,183	-106,981	0,094	0,015
-311,168	459,443	-0,065	-0,105
-310,153	800,000	0,025	-0,062
-309,139	-200,000	0,008	-0,078
-308,124	93,714	-0,047	0,039
-307,110	-200,000	-0,006	0,081
-306,095	-200,000	0,004	0,074
-305,080	-200,000	-0,019	0,089
-304,066	-200,000	0,003	0,033
-303,051	-127,574	-0,085	-0,009
-302,037	34,867	0,085	-0,054
-301,022	-66,456	-0,179	-0,051
-300,008	406,260	-0,017	0,027
-298,993	-87,386	-0,081	0,018
-297,978	-21,656	-0,057	0,025
-296,964	-39,640	-0,058	-0,022
-295,949	-129,005	-0,071	-0,007
-294,935	7,962	-0,121	-0,066
-293,920	-200,000	-0,002	0,095
-292,905	42,244	0,118	0,078
-291,891	343,016	0,064	0,091
-290,876	-200,000	-0,030	0,116
-289,862	800,000	0,021	-0,062
-288,847	130,457	0,061	0,056
-287,832	-171,419	-0,011	-0,000
-286,818	494,993	0,027	0,046
-285,803	-9,693	0,085	-0,041
-284,789	-37,321	0,120	0,046
-283,774	112,349	0,024	0,021
-282,759	335,422	-0,031	-0,044
-281,745	-15,562	-0,138	-0,063
-280,730	49,444	-0,094	-0,064
-279,716	-98,383	0,113	-0,021
-278,701	108,479	0,067	-0,058
-277,686	55,135	0,046	0,032
-276,672	466,419	-0,112	0,182
-275,657	-98,868	-0,041	0,007
-274,643	79,562	-0,145	-0,113
-273,628	13,948	-0,097	0,054
-272,613	547,391	-0,053	-0,092
-271,599	20,837	0,031	0,018
-270,584	800,000	-0,006	0,014
-269,570	-200,000	0,033	0,126
-268,555	-70,992	0,067	0,018
-267,540	-175,286	-0,097	-0,002
-266,526	16,813	-0,076	0,043
-265,511	-132,144	-0,135	0,012
-264,497	0,250	-0,093	-0,048
-263,482	-96,157	0,087	0,017
-262,467	-164,360	0,104	-0,003
-261,453	-84,014	0,137	0,031
-260,438	31,880	-0,124	0,077
-259,424	-71,176	0,188	-0,051
-258,409	-200,000	-0,040	-0,177
-257,395	658,863	0,052	0,097
-256,380	133,188	0,090	0,084
-255,365	789,716	0,032	-0,064
-254,351	371,763	-0,099	0,145
-253,336	-200,000	-0,005	0,089
-252,322	581,657	-0,024	0,042
-251,307	800,000	-0,027	0,075
-250,292	669,814	0,063	0,118
-249,278	-200,000	0,004	-0,019
-248,263	-12,740	-0,043	-0,020
-247,249	-156,821	-0,038	-0,002
-246,234	11,586	-0,027	-0,015
-245,219	-200,000	0,037	-0,199
-244,205	800,000	0,036	-0,092
-243,190	-57,493	-0,015	-0,005
-242,176	367,570	0,102	0,149
-241,161	314,664	0,069	0,094
-240,146	-200,000	-0,000	0,052
-239,132	-44,170	-0,091	0,033
-238,117	800,000	-0,025	0,054
-237,103	419,183	-0,053	-0,082
-236,088	800,000	0,017	0,039
-235,073	-42,355	-0,081	-0,030
-234,059	-200,000	-0,002	0,101
-233,044	800,000	0,032	0,069
-232,030	-200,000	0,010	0,095
-231,015	138,501	-0,053	0,051
-230,000	188,386	0,097	-0,105
-228,986	102,955	0,104	0,088
-227,971	472,379	0,063	0,103
-226,957	-200,000	-0,005	0,139
-225,942	-200,000	0,021	-0,097
-224,927	-81,027	-0,059	-0,014
-223,913	-83,755	0,071	-0,016
-222,898	-18,902	0,090	0,040
-221,884	800,000	0,038	-0,093
-220,869	-200,000	-0,009	0,051
-219,855	262,345	-0,126	0,158
-218,840	22,289	0,050	-0,030
-217,825	251,351	0,003	-0,003
-216,811	-200,000	0,013	0,053
-215,796	31,864	-0,069	0,043
-214,782	57,859	-0,123	-0,086
-213,767	-200,000	-0,001	-0,075
-212,752	6,631	0,083	0,045
-211,738	332,406	0,105	0,146
-210,723	-200,000	0,010	0,058
-209,709	58,412	0,076	-0,054
-208,694	-200,000	-0,003	-0,112
-207,679	72,180	-0,047	0,035
-206,665	106,102	-0,030	0,026
-205,650	97,174	-0,132	0,109
-204,636	558,590	-0,028	-0,049
-203,621	800,000	-0,019	-0,059
-202,606	-200,000	-0,030	0,148
-201,592	75,978	-0,094	-0,072
-200,577	-80,959	-0,069	-0,016
-199,563	553,175	-0,035	-0,061
-198,548	-200,000	-0,018	-0,062
-197,533	-13,459	-0,093	0,043
-196,519	325,277	0,028	-0,038
-195,504	-200,000	0,006	0,095
-194,490	20,503	0,075	0,043
-193,475	292,681	0,046	0,061
-192,460	-133,796	0,114	-0,010
-191,446	-24,949	0,062	0,026
-190,431	238,718	0,039	-0,047
-189,417	-43,080	0,129	0,047
-188,402	800,000	0,048	0,101
-187,387	43,999	-0,059	-0,039
-186,373	15,172	0,037	-0,021
-185,358	382,785	0,019	0,028
-184,344	800,000	-0,047	-0,143
-183,329	153,088	-0,005	0,005
-182,315	384,187	0,059	0,088
-181,300	298,909	-0,058	-0,076
-180,285	-200,000	0,027	-0,170
-179,271	-71,157	0,096	0,026
-178,256	-200,000	0,000	-0,103
-177,242	-200,000	-0,000	0,224
-176,227	316,612	-0,032	0,044
-175,212	117,714	0,046	0,040
-174,198	-46,147	-0,121	0,043
-173,183	217,369	-0,108	-0,124
-172,169	-200,000	0,002	-0,097
-171,154	776,726	0,019	0,038
-170,139	-32,329	0,150	0,060
-169,125	-200,000	0,006	0,031
-168,110	-6,344	0,136	0,067
-167,096	464,684	0,072	-0,116
-166,081	-193,870	-0,175	0,001
-165,066	-114,902	-0,078	0,011
-164,052	-142,044	-0,122	-0,009
-163,037	-200,000	0,007	0,021
-162,023	-200,000	0,006	0,074
-161,008	-113,948	0,084	0,012
-159,993	599,468	-0,054	0,098
-158,979	-135,244	-0,107	-0,009
-157,964	234,098	-0,031	0,037
-156,950	202,187	-0,047	-0,052
-155,935	-200,000	-0,023	-0,105
-154,920	-200,000	-0,019	0,089
-153,906	318,026	0,071	0,096
-152,891	-107,731	0,008	0,001
-151,877	49,449	-0,068	0,046
-150,862	466,002	-0,037	0,059
-149,847	-200,000	0,018	-0,078
-148,833	47,397	-0,152	0,102
-147,818	800,000	0,021	0,045
-146,804	-200,000	0,016	0,180
-145,789	93,663	-0,099	0,081
-144,775	-62,169	-0,029	0,009
-143,760	0,120	-0,047	-0,024
-142,745	87,799	0,074	-0,059
-141,731	-200,000	-0,037	0,138
-140,716	800,000	-0,035	0,085
-139,702	61,025	0,099	0,071
-138,687	-200,000	0,003	0,029
-137,672	-200,000	0,006	-0,287
-136,658	-200,000	-0,011	-0,141
-135,643	800,000	-0,073	-0,157
-134,629	23,080	-0,188	-0,111
-133,614	-56,573	-0,043	-0,014
-132,599	-9,562	0,101	-0,048
-131,585	-200,000	0,001	-0,021
-130,570	-200,000	-0,004	0,120
-129,556	-111,598	-0,107	-0,015
-128,541	118,946	-0,062	0,055
-127,526	37,838	0,093	0,059
-126,512	-44,534	0,087	-0,031
-125,497	800,000	0,039	-0,090
-124,483	-163,230	0,147	-0,005
-123,468	-200,000	-0,032	0,183
-122,453	176,799	0,059	-0,062
-121,439	179,487	-0,115	-0,122
-120,424	14,367	-0,017	-0,010
-119,410	-200,000	0,015	0,115
