DTS Sentinel unit serial number:	SN410029Multiplexer serial number:	ORYXHardware model number:	OX2-SRSoftware version number:	ORYX F/W v4,00 Oryx Data Collector v3.7.2.0data status	okinstallation	B5 Nyhavnadifferential loss correction	single-endedforward channel	channel 2reverse channel	N/Adate	2023/12/13time	12:52:13forward acquisition time	300,00reverse acquisition time	0,00gamma	499,1914k internal	0,3161k external	0,3161temperature offset calibration	1,0000default loss term (dB/km)	0,3820temperature slope calibration	1,0000multiplexer offset coefficient	1,0000multiplexer slope coefficient	1,0000fibre end	0,00T internal ref (°C)	14,29T ext. ref 1 (°C)	-1,52T ext. ref 2 (°C)	-1,77length (m)	temperature (°C)	Stokes	anti-Stokes-744,400	-200,000	0,021	0,068
-743,385	-163,569	-0,289	0,010
-742,371	2,889	0,052	-0,028
-741,356	-73,797	-0,285	0,076
-740,342	-200,000	0,019	0,111
-739,327	-83,939	-0,253	-0,059
-738,312	377,038	0,066	0,100
-737,298	-91,157	-0,376	-0,079
-736,283	134,734	0,123	0,118
-735,269	-109,231	-0,164	-0,025
-734,254	793,440	-0,026	0,052
-733,239	20,628	-0,425	-0,253
-732,225	-74,392	0,152	0,040
-731,210	87,195	0,086	0,070
-730,196	-200,000	-0,012	-0,105
-729,181	-200,000	-0,002	-0,022
-728,167	-36,229	-0,058	-0,023
-727,152	183,504	-0,049	-0,053
-726,137	-57,813	-0,101	0,032
-725,123	587,617	-0,032	-0,058
-724,108	-54,401	0,030	-0,010
-723,094	108,857	-0,047	-0,042
-722,079	561,548	0,039	0,070
-721,064	800,000	-0,075	-0,178
-720,050	-92,750	0,080	-0,016
-719,035	-50,315	0,092	-0,032
-718,021	-107,207	-0,084	-0,013
-717,006	322,131	-0,087	-0,122
-715,991	-37,720	-0,048	-0,019
-714,977	-53,597	-0,036	-0,012
-713,962	254,911	0,083	-0,104
-712,948	570,009	-0,093	-0,167
-711,933	-200,000	-0,004	0,045
-710,918	328,313	0,086	0,122
-709,904	800,000	0,021	0,062
-708,889	15,988	-0,124	-0,072
-707,875	-11,057	-0,091	-0,044
-706,860	-10,351	-0,235	0,114
-705,845	-101,907	0,074	-0,013
-704,831	-200,000	0,018	-0,123
-703,816	-88,208	0,131	-0,029
-702,802	-135,254	-0,043	-0,004
-701,787	-68,008	-0,108	-0,031
-700,772	87,176	-0,100	-0,081
-699,758	-85,239	0,047	0,011
-698,743	63,035	0,070	-0,051
-697,729	583,824	-0,029	0,052
-696,714	93,957	0,148	0,123
-695,699	169,226	-0,078	-0,082
-694,685	-200,000	-0,003	-0,011
-693,670	-94,070	-0,020	-0,004
-692,656	391,515	0,021	0,032
-691,641	-200,000	-0,015	-0,183
-690,627	-200,000	0,026	0,125
-689,612	55,010	-0,064	-0,045
-688,597	-77,828	-0,120	-0,030
-687,583	502,655	-0,055	-0,094
-686,568	65,224	0,019	0,014
-685,554	-127,709	-0,085	0,009
-684,539	406,824	-0,069	0,108
-683,524	308,861	-0,094	0,129
-682,510	201,440	0,103	0,117
-681,495	283,277	0,039	0,051
-680,481	-68,750	-0,045	-0,013
-679,466	-9,336	-0,146	-0,071
-678,451	-200,000	-0,002	-0,059
-677,437	94,841	0,095	0,079
-676,422	-119,529	0,044	0,006
-675,408	257,187	0,023	-0,029
-674,393	331,188	-0,026	-0,037
-673,378	-23,143	0,085	-0,038
-672,364	-200,000	-0,024	-0,143
-671,349	372,758	0,050	-0,074
-670,335	-124,919	0,175	-0,020
-669,320	750,418	-0,042	0,084
-668,305	800,000	0,026	0,064
-667,291	800,000	0,013	-0,030
-666,276	-71,463	-0,089	-0,024
-665,262	514,056	-0,014	-0,024
-664,247	-200,000	-0,016	-0,069
-663,232	129,987	0,041	0,039
-662,218	314,721	-0,062	-0,086
-661,203	20,134	-0,062	0,037
-660,189	153,327	0,078	0,078
-659,174	571,407	-0,061	0,109
-658,159	269,542	-0,083	-0,108
-657,145	-46,205	0,052	-0,019
-656,130	-200,000	-0,010	-0,053
-655,116	800,000	-0,039	0,088
-654,101	106,220	0,060	-0,052
-653,086	78,341	-0,020	0,016
-652,072	127,716	-0,064	-0,060
-651,057	-200,000	0,032	-0,173
-650,043	-78,479	-0,156	-0,039
-649,028	-200,000	-0,024	-0,103
-648,014	800,000	0,072	0,215
-646,999	-5,593	0,064	-0,032
-645,984	-162,688	-0,041	-0,001
-644,970	-6,811	0,025	-0,012
-643,955	800,000	0,012	0,030
-642,941	317,435	-0,096	-0,133
-641,926	800,000	0,007	-0,016
-640,911	17,790	-0,085	0,049
-639,897	-200,000	0,009	-0,044
-638,882	189,351	0,144	0,158
-637,868	7,810	0,054	0,029
-636,853	32,674	-0,161	0,102
-635,838	-28,434	-0,095	-0,040
-634,824	72,692	-0,071	-0,054
-633,809	789,832	-0,065	0,132
-632,795	-8,158	0,016	-0,008
-631,780	-200,000	0,015	0,107
-630,765	221,122	0,099	0,117
-629,751	-24,665	-0,145	-0,063
-628,736	199,505	-0,048	-0,054
-627,722	-200,000	0,004	-0,023
-626,707	800,000	-0,010	-0,024
-625,692	436,138	-0,043	0,068
-624,678	-83,632	0,075	0,017
-623,663	263,023	-0,045	-0,058
-622,649	-43,223	-0,032	-0,012
-621,634	-49,909	0,034	-0,012
-620,619	54,809	-0,053	0,038
-619,605	463,774	-0,040	0,065
-618,590	-67,494	-0,032	0,009
-617,576	-200,000	-0,018	0,106
-616,561	55,450	0,034	0,024
-615,546	346,997	-0,028	-0,040
-614,532	-2,428	-0,119	-0,061
-613,517	-200,000	0,004	-0,049
-612,503	120,362	-0,067	-0,061
-611,488	-200,000	0,014	0,109
-610,474	611,679	-0,054	0,100
-609,459	-46,057	0,042	0,015
-608,444	1,980	-0,106	-0,056
-607,430	-148,710	0,213	-0,012
-606,415	-200,000	-0,010	-0,051
-605,401	800,000	0,018	-0,038
-604,386	11,436	-0,068	0,038
-603,371	-200,000	-0,033	0,120
-602,357	199,850	-0,099	0,112
-601,342	-200,000	0,006	-0,059
-600,328	-200,000	-0,004	0,096
-599,313	-166,646	-0,082	0,002
-598,298	488,976	-0,027	-0,046
-597,284	-38,991	0,023	0,009
-596,269	-27,426	-0,094	-0,040
-595,255	-200,000	0,027	0,123
-594,240	-200,000	-0,026	0,147
-593,225	-200,000	-0,019	-0,060
-592,211	779,919	0,033	0,066
-591,196	-16,708	-0,034	-0,016
-590,182	141,185	0,039	0,037
-589,167	218,659	-0,052	0,061
-588,152	-200,000	0,005	-0,151
-587,138	-7,421	-0,056	0,027
-586,123	36,850	-0,117	-0,076
-585,109	800,000	0,026	-0,056
-584,094	662,340	-0,011	0,021
-583,079	-200,000	-0,029	0,159
-582,065	47,988	0,151	-0,103
-581,050	-28,806	-0,132	-0,055
-580,036	-88,999	-0,023	-0,005
-579,021	-30,229	-0,034	0,014
-578,006	191,446	0,051	-0,056
-576,992	-75,450	-0,112	0,029
-575,977	-71,125	0,081	0,022
-574,963	25,683	-0,058	-0,035
-573,948	-200,000	0,005	-0,049
-572,934	628,352	-0,030	-0,056
-571,919	-124,605	-0,092	0,010
-570,904	192,162	-0,096	-0,106
-569,890	-200,000	0,014	-0,117
-568,875	-36,117	0,109	-0,043
-567,861	-200,000	0,007	-0,094
-566,846	147,736	0,056	-0,056
-565,831	109,400	0,112	0,098
-564,817	-33,423	-0,069	0,028
-563,802	236,769	-0,138	-0,167
-562,788	-200,000	0,008	-0,132
-561,773	-200,000	0,000	-0,095
-560,758	800,000	0,016	-0,048
-559,744	428,173	-0,061	0,097
-558,729	-200,000	0,022	0,169
-557,715	302,303	-0,100	-0,135
-556,700	800,000	-0,051	-0,111
-555,685	121,504	0,095	0,087
-554,671	-200,000	-0,042	0,165
-553,656	-200,000	-0,011	-0,066
-552,642	577,235	-0,054	0,097
-551,627	-74,840	0,104	0,027
-550,612	29,470	-0,124	-0,077
-549,598	800,000	0,030	-0,082
-548,583	144,658	-0,103	0,100
-547,569	272,318	-0,019	0,025
-546,554	245,936	0,094	0,116
-545,539	-200,000	0,006	0,047
-544,525	-78,424	0,119	0,030
-543,510	800,000	0,040	0,094
-542,496	-66,216	-0,020	-0,006
-541,481	-45,671	0,137	-0,049
-540,466	-50,263	-0,022	0,008
-539,452	608,403	0,030	0,054
-538,437	-0,283	0,187	0,097
-537,423	-123,632	-0,024	-0,003
-536,408	136,443	-0,030	0,028
-535,393	80,550	-0,023	-0,018
-534,379	800,000	-0,045	0,111
-533,364	-46,122	-0,072	-0,026
-532,350	-95,509	-0,084	0,016
-531,335	8,405	-0,077	-0,042
-530,321	-108,916	0,047	0,007
-529,306	159,426	-0,084	0,086
-528,291	265,258	0,122	-0,156
-527,277	182,027	-0,032	-0,035
-526,262	199,316	-0,065	-0,073
-525,248	62,177	0,055	-0,040
-524,233	641,930	-0,045	0,083
-523,218	70,318	0,031	-0,023
-522,204	369,863	0,032	-0,047
-521,189	-200,000	0,043	-0,139
-520,175	112,982	0,100	-0,088
-519,160	-200,000	0,022	-0,076
-518,145	-85,765	-0,057	0,013
-517,131	800,000	-0,028	-0,085
-516,116	-119,192	0,060	-0,008
-515,102	95,627	0,030	0,025
-514,087	634,936	-0,020	0,038
-513,072	-84,081	-0,157	-0,036
-512,058	-200,000	0,012	0,124
-511,043	800,000	-0,024	-0,067
-510,029	-200,000	-0,003	-0,098
-509,014	-32,259	0,069	0,028
-507,999	-8,161	-0,045	-0,022
-506,985	37,913	-0,090	0,058
-505,970	653,223	-0,077	-0,144
-504,956	114,838	0,029	0,025
-503,941	293,422	0,051	-0,068
-502,926	239,323	0,119	0,145
-501,912	717,023	-0,028	0,055
-500,897	-200,000	-0,015	0,119
-499,883	-0,533	-0,116	-0,060
-498,868	59,077	-0,039	0,028
-497,853	292,974	0,045	0,060
-496,839	217,042	-0,032	-0,037
-495,824	54,984	-0,071	0,050
-494,810	-139,890	0,115	0,009
-493,795	-58,066	0,080	-0,025
-492,781	80,744	0,017	0,014
-491,766	295,893	-0,029	-0,039
-490,751	43,764	-0,057	0,038
-489,737	800,000	-0,083	-0,227
-488,722	-200,000	0,013	-0,198
-487,708	307,956	-0,064	0,088
-486,693	730,978	-0,025	-0,049
-485,678	146,981	-0,091	0,089
-484,664	-119,215	-0,070	-0,009
-483,649	-200,000	-0,012	-0,255
-482,635	800,000	0,032	-0,095
-481,620	-49,516	0,062	-0,022
-480,605	-3,822	0,146	-0,074
-479,591	212,973	-0,057	-0,066
-478,576	-200,000	0,011	0,070
-477,562	800,000	0,019	-0,041
-476,547	-200,000	-0,004	0,073
-475,532	226,175	-0,052	-0,061
-474,518	-200,000	-0,003	-0,018
-473,503	-135,531	0,146	0,012
-472,489	174,474	0,118	0,124
-471,474	451,851	-0,054	0,088
-470,459	-44,072	-0,042	0,015
-469,445	-200,000	0,009	-0,044
-468,430	72,271	-0,070	-0,053
-467,416	-112,713	0,138	-0,020
-466,401	800,000	0,012	0,029
-465,386	-47,952	-0,105	0,037
-464,372	145,478	0,050	0,049
-463,357	-200,000	-0,017	-0,069
-462,343	45,373	-0,138	0,093
-461,328	332,648	0,034	-0,049
-460,313	198,031	-0,017	-0,019
-459,299	-200,000	-0,012	0,044
-458,284	12,543	-0,026	-0,015
-457,270	50,762	0,019	0,013
-456,255	214,669	-0,056	-0,064
-455,241	-200,000	0,001	-0,027
-454,226	-69,792	-0,061	0,017
-453,211	-43,331	0,046	0,017
-452,197	224,716	0,063	0,074
-451,182	29,780	0,098	0,061
-450,168	63,266	0,118	0,086
-449,153	-200,000	0,022	-0,071
-448,138	-200,000	0,022	-0,114
-447,124	800,000	-0,019	-0,038
-446,109	-200,000	0,008	0,072
-445,095	137,123	-0,079	-0,075
-444,080	-68,961	0,093	-0,026
-443,065	800,000	-0,076	0,155
-442,051	800,000	0,036	-0,075
-441,036	228,699	0,036	-0,043
-440,022	250,127	0,059	0,073
-439,007	424,235	-0,079	-0,123
-437,992	-26,205	0,125	-0,053
-436,978	-13,904	0,085	0,040
-435,963	195,347	0,062	-0,069
-434,949	-200,000	0,014	0,047
-433,934	800,000	0,022	0,051
-432,919	259,629	0,105	-0,132
-431,905	800,000	-0,047	-0,110
-430,890	-134,655	0,138	-0,012
-429,876	800,000	0,036	0,081
-428,861	25,570	-0,050	-0,030
-427,846	720,667	-0,037	0,073
-426,832	1,777	-0,176	0,092
-425,817	-106,806	-0,175	0,028
-424,803	13,564	-0,082	-0,046
-423,788	-110,345	0,033	0,005
-422,773	-200,000	0,004	0,158
-421,759	174,341	0,055	0,058
-420,744	16,682	0,182	-0,104
-419,730	92,966	-0,032	-0,026
-418,715	-200,000	0,008	0,030
-417,701	800,000	-0,054	0,114
-416,686	800,000	-0,051	0,120
-415,671	144,727	0,098	-0,095
-414,657	17,004	0,014	-0,008
-413,642	25,980	-0,129	0,078
-412,628	39,670	-0,108	-0,070
-411,613	-200,000	-0,015	-0,112
-410,598	800,000	0,025	-0,051
-409,584	-121,646	-0,039	-0,005
-408,569	149,660	-0,052	-0,051
-407,555	173,277	-0,031	0,033
-406,540	-200,000	0,025	-0,096
-405,525	229,397	-0,118	-0,140
-404,511	-109,722	-0,048	0,007
-403,496	109,960	0,055	0,048
-402,482	-103,324	-0,052	0,009
-401,467	-200,000	-0,033	0,124
-400,452	-89,584	0,080	-0,017
-399,438	-200,000	0,006	-0,079
-398,423	-200,000	0,015	-0,118
-397,409	214,139	-0,066	0,076
-396,394	240,042	0,033	-0,041
-395,379	-200,000	-0,006	-0,030
-394,365	-83,723	0,093	-0,021
-393,350	9,345	0,046	0,025
-392,336	44,330	-0,157	0,104
-391,321	-144,110	-0,134	-0,009
-390,306	119,867	-0,064	-0,058
-389,292	-68,999	-0,075	-0,021
-388,277	613,281	-0,035	0,064
-387,263	45,623	-0,177	0,119
-386,248	-200,000	-0,003	0,154
-385,233	-110,474	0,068	-0,010
-384,219	-200,000	-0,025	-0,125
-383,204	4,463	-0,077	0,041
-382,190	218,789	0,046	-0,053
-381,175	658,359	-0,017	-0,032
-380,160	2,271	0,038	0,020
-379,146	-66,276	0,117	0,033
-378,131	134,588	0,053	0,050
-377,117	276,792	0,086	-0,111
-376,102	29,735	0,045	-0,027
-375,088	-200,000	-0,012	-0,049
-374,073	-200,000	0,035	-0,117
-373,058	52,063	-0,087	0,060
-372,044	-149,967	-0,082	-0,005
-371,029	-115,973	0,161	-0,022
-370,015	652,629	-0,028	0,053
-369,000	800,000	-0,054	0,128
-367,985	355,745	-0,062	0,090
-366,971	-86,916	0,087	-0,019
-365,956	31,280	0,204	-0,127
-364,942	498,644	0,030	0,050
-363,927	800,000	0,028	0,062
-362,912	97,580	-0,069	0,058
-361,898	-6,296	-0,053	-0,026
-360,883	-131,826	-0,183	-0,017
-359,869	145,263	-0,053	-0,051
-358,854	-200,000	-0,001	-0,112
-357,839	-102,925	0,104	0,018
-356,825	80,985	-0,099	0,077
-355,810	-159,602	0,105	-0,004
-354,796	-64,299	-0,150	0,044
-353,781	800,000	0,055	0,164
-352,766	-143,688	0,059	0,004
-351,752	-200,000	0,026	0,112
-350,737	105,220	0,074	-0,064
-349,723	13,612	-0,052	-0,029
-348,708	-123,919	0,124	0,014
-347,693	-91,287	-0,105	-0,022
-346,679	608,600	0,025	-0,045
-345,664	697,292	-0,033	-0,063
-344,650	-59,953	0,047	-0,015
-343,635	-35,201	0,149	0,059
-342,620	-11,983	0,148	0,070
-341,606	228,198	-0,105	-0,124
-340,591	-182,509	-0,141	-0,002
-339,577	663,889	-0,048	-0,091
-338,562	-200,000	0,003	-0,047
-337,548	-13,290	0,058	-0,027
-336,533	300,145	-0,078	0,104
-335,518	179,391	-0,044	-0,046
-334,504	-70,793	-0,055	0,015
-333,489	662,275	-0,068	0,127
-332,475	211,454	0,075	-0,086
-331,460	80,052	-0,094	-0,073
-330,445	800,000	0,019	0,052
-329,431	-32,443	0,064	0,026
-328,416	88,496	0,012	0,010
-327,402	28,228	-0,070	-0,043
-326,387	328,294	-0,073	-0,102
-325,372	495,656	0,083	-0,139
-324,358	-106,232	0,020	-0,003
-323,343	82,009	-0,023	0,018
-322,329	-97,565	-0,060	-0,011
-321,314	88,775	-0,062	0,050
-320,299	581,871	0,045	0,080
-319,285	-200,000	-0,001	0,109
-318,270	8,343	-0,072	-0,039
-317,256	96,821	-0,089	-0,074
-316,241	-97,672	0,063	0,012
-315,226	175,740	-0,040	0,042
-314,212	-21,900	0,073	-0,032
-313,197	633,123	0,064	-0,118
-312,183	800,000	0,029	-0,089
-311,168	800,000	0,008	0,022
-310,153	800,000	0,006	0,014
-309,139	230,952	-0,061	-0,073
-308,124	5,651	0,029	0,015
-307,110	-87,231	0,016	0,003
-306,095	-77,123	0,032	-0,008
-305,080	484,761	0,027	0,045
-304,066	353,293	0,070	0,100
-303,051	365,503	0,052	0,076
-302,037	-107,874	-0,069	0,011
-301,022	-200,000	-0,037	0,135
-300,008	109,367	0,033	0,029
-298,993	-24,096	0,083	0,036
-297,978	-29,433	0,029	-0,012
-296,964	-200,000	0,027	-0,124
-295,949	-200,000	0,010	-0,116
-294,935	134,521	-0,092	-0,086
-293,920	-200,000	0,006	-0,082
-292,905	-200,000	0,001	0,047
-291,891	122,962	0,178	0,161
-290,876	800,000	-0,016	0,036
-289,862	-44,265	0,119	0,043
-288,847	-200,000	0,012	-0,100
-287,832	-200,000	-0,003	-0,136
-286,818	343,877	0,039	-0,055
-285,803	162,940	0,024	-0,025
-284,789	548,870	0,090	0,157
-283,774	-163,666	-0,010	0,000
-282,759	-0,755	0,066	-0,034
-281,745	12,617	-0,163	0,091
-280,730	-200,000	0,038	-0,133
-279,716	174,196	0,077	-0,080
-278,701	-200,000	0,001	-0,079
-277,686	137,567	0,122	0,116
-276,672	800,000	-0,065	0,166
-275,657	159,595	0,042	0,043
-274,643	219,450	0,073	-0,084
-273,628	-200,000	0,009	-0,038
-272,613	-147,325	0,194	0,012
-271,599	-200,000	-0,006	-0,102
-270,584	205,671	-0,057	0,064
-269,570	-75,059	0,080	0,020
-268,555	173,552	0,024	0,025
-267,540	-200,000	-0,021	0,136
-266,526	-200,000	-0,007	0,162
-265,511	-107,658	0,050	-0,008
-264,497	537,202	0,039	0,067
-263,482	338,140	0,041	-0,057
-262,467	-17,752	0,076	0,034
-261,453	145,034	-0,082	-0,079
-260,438	667,797	-0,020	0,038
-259,424	75,277	0,005	-0,004
-258,409	31,921	-0,068	-0,042
-257,395	-200,000	0,131	0,000
-256,380	443,072	0,030	0,047
-255,365	-200,000	-0,007	0,067
-254,351	117,069	-0,010	-0,008
-253,336	-125,680	-0,115	0,012
-252,322	177,809	0,059	-0,062
-251,307	-135,783	-0,080	0,007
-250,292	-200,000	0,007	-0,085
-249,278	331,785	0,050	0,070
-248,263	-200,000	-0,008	0,047
-247,249	62,334	0,069	0,050
-246,234	726,668	0,030	-0,058
-245,219	80,227	0,094	-0,073
-244,205	-28,395	0,026	-0,011
-243,190	-200,000	0,012	0,078
-242,176	800,000	0,024	-0,069
-241,161	175,790	0,080	0,083
-240,146	719,346	-0,051	0,099
-239,132	-200,000	-0,007	0,090
-238,117	-175,869	0,078	0,001
-237,103	122,542	0,021	-0,019
-236,088	-200,000	0,013	0,088
-235,073	87,021	-0,058	-0,046
-234,059	104,277	0,049	0,041
-233,044	7,365	0,050	-0,027
-232,030	-68,614	-0,244	-0,068
-231,015	306,924	-0,053	-0,072
-230,000	-145,929	0,081	0,005
-228,986	289,394	0,058	-0,076
-227,971	466,872	0,012	0,019
-226,957	196,487	0,117	0,128
-225,942	-22,085	0,107	0,047
-224,927	411,333	-0,075	0,115
-223,913	89,465	0,120	-0,097
-222,898	288,791	-0,075	-0,098
-221,884	153,555	0,060	-0,059
-220,869	32,181	-0,027	-0,017
-219,855	-22,361	-0,113	-0,049
-218,840	-0,817	0,171	0,087
-217,825	-200,000	0,021	-0,073
-216,811	-14,264	-0,037	-0,017
-215,796	-50,964	-0,041	-0,014
-214,782	-200,000	0,006	0,077
-213,767	67,258	0,129	-0,095
-212,752	53,001	0,072	-0,050
-211,738	-200,000	0,001	0,132
-210,723	-200,000	-0,094	-0,000
-209,709	-101,354	-0,108	-0,019
-208,694	-200,000	-0,008	-0,060
-207,679	-200,000	-0,007	0,064
-206,665	66,872	-0,094	0,069
-205,650	67,331	-0,057	0,042
-204,636	551,654	0,062	0,108
-203,621	44,047	0,072	0,048
-202,606	313,759	-0,007	0,009
-201,592	-77,229	0,111	-0,028
-200,577	21,662	-0,056	-0,033
-199,563	180,960	0,034	0,036
-198,548	-200,000	0,047	0,159
-197,533	-171,459	-0,081	0,002
-196,519	800,000	0,032	0,074
-195,504	-42,870	0,145	0,053
-194,490	2,189	-0,093	-0,048
-193,475	-113,802	-0,095	-0,013
-192,460	165,804	-0,064	0,066
-191,446	-200,000	-0,021	0,137
-190,431	261,315	0,044	-0,055
-189,417	-48,128	0,146	0,051
-188,402	252,442	-0,005	-0,006
-187,387	-200,000	0,023	0,077
-186,373	800,000	-0,044	-0,094
-185,358	-14,507	0,053	-0,025
-184,344	-18,596	0,086	0,038
-183,329	-200,000	-0,006	0,033
-182,315	-34,680	-0,072	-0,028
-181,300	109,678	-0,046	-0,040
-180,285	-200,000	0,004	-0,062
-179,271	800,000	-0,026	-0,052
-178,256	-200,000	0,007	-0,031
-177,242	-200,000	-0,010	0,086
-176,227	-200,000	-0,001	0,025
-175,212	-200,000	0,011	-0,087
-174,198	-164,255	-0,096	-0,003
-173,183	-43,093	-0,068	-0,025
-172,169	-200,000	-0,001	-0,006
-171,154	180,478	-0,017	-0,018
-170,139	196,693	0,041	0,045
-169,125	800,000	0,046	0,096
-168,110	800,000	0,036	0,078
-167,096	-91,727	0,082	0,017
-166,081	-107,000	-0,084	-0,013
-165,066	39,912	0,050	-0,032
-164,052	201,583	0,100	-0,111
-163,037	-200,000	-0,025	-0,131
-162,023	27,501	0,079	-0,048
-161,008	198,907	-0,084	0,093
-159,993	-128,907	-0,030	-0,003
-158,979	134,389	-0,026	-0,024
-157,964	94,815	0,137	-0,112
-156,950	54,391	-0,066	-0,045
-155,935	247,838	0,036	-0,044
-154,920	8,777	0,064	-0,035
-153,906	82,398	-0,057	-0,044
-152,891	-52,705	0,033	0,011
-151,877	558,796	-0,077	-0,134
-150,862	198,359	-0,071	-0,078
-149,847	56,880	-0,147	-0,103
-148,833	-28,734	-0,043	0,018
-147,818	138,576	0,012	0,011
-146,804	137,140	0,083	-0,078
-145,789	89,975	-0,115	0,093
-144,775	-42,213	-0,044	-0,016
-143,760	-130,977	-0,042	0,004
-142,745	228,731	-0,080	-0,094
-141,731	95,741	0,119	-0,098
-140,716	-200,000	0,023	-0,118
-139,702	-200,000	0,023	0,101
-138,687	196,870	0,100	-0,110
-137,672	-100,454	-0,020	0,003
-136,658	800,000	-0,059	-0,130
-135,643	-60,740	-0,046	-0,014
-134,629	-12,603	0,117	0,055
-133,614	343,376	0,076	-0,107
-132,599	124,675	-0,098	0,089
-131,585	128,117	0,023	0,021
-130,570	-33,085	0,102	-0,040
-129,556	800,000	-0,008	-0,026
-128,541	-45,392	-0,032	0,012
-127,526	800,000	0,015	0,037
-126,512	361,797	-0,034	0,049
-125,497	-77,949	-0,007	-0,002
-124,483	-137,632	0,147	0,012
-123,468	194,960	-0,083	0,091
-122,453	-0,464	-0,053	0,027
-121,439	-26,743	0,092	0,039
-120,424	158,986	0,019	0,019
-119,410	-78,160	0,137	0,034
-118,395	-200,000	0,003	-0,013
