DTS Sentinel unit serial number:	SN410029Multiplexer serial number:	ORYXHardware model number:	OX2-SRSoftware version number:	ORYX F/W v4,00 Oryx Data Collector v3.7.2.0data status	okinstallation	B5 Nyhavnadifferential loss correction	single-endedforward channel	channel 2reverse channel	N/Adate	2023/12/13time	16:57:13forward acquisition time	300,00reverse acquisition time	0,00gamma	499,1914k internal	0,3159k external	0,3159temperature offset calibration	1,0000default loss term (dB/km)	0,3820temperature slope calibration	1,0000multiplexer offset coefficient	1,0000multiplexer slope coefficient	1,0000fibre end	0,00T internal ref (°C)	14,35T ext. ref 1 (°C)	-2,91T ext. ref 2 (°C)	-2,99length (m)	temperature (°C)	Stokes	anti-Stokes-744,400	128,149	0,128	0,120
-743,385	-179,562	-0,354	0,006
-742,371	-200,000	0,014	0,071
-741,356	-67,758	-0,357	0,102
-740,342	-22,826	0,134	0,059
-739,327	-109,722	-0,224	0,034
-738,312	-200,000	-0,012	0,083
-737,298	-179,539	-0,217	-0,003
-736,283	-112,584	0,269	-0,039
-735,269	-164,214	-0,239	-0,008
-734,254	4,021	0,088	-0,047
-733,239	-13,312	-0,399	-0,190
-732,225	-67,590	0,163	0,047
-731,210	-90,472	0,059	0,012
-730,196	-200,000	-0,004	-0,059
-729,181	-3,230	0,108	-0,055
-728,167	-52,882	-0,079	0,027
-727,152	-108,082	-0,037	0,006
-726,137	0,996	0,048	-0,025
-725,123	800,000	-0,063	0,169
-724,108	289,970	0,066	-0,088
-723,094	30,168	-0,133	-0,084
-722,079	-200,000	-0,021	-0,137
-721,064	-200,000	-0,010	0,048
-720,050	-145,936	-0,138	-0,009
-719,035	147,045	0,051	0,050
-718,021	-9,195	0,043	0,021
-717,006	-142,859	-0,182	-0,013
-715,991	-200,000	0,014	-0,057
-714,977	-1,591	-0,094	-0,049
-713,962	-124,395	-0,096	-0,011
-712,948	-200,000	0,034	0,179
-711,933	-200,000	-0,022	0,157
-710,918	-200,000	-0,032	0,189
-709,904	-200,000	-0,024	-0,098
-708,889	-3,334	-0,137	0,070
-707,875	17,836	0,083	0,048
-706,860	-200,000	-0,009	-0,058
-705,845	17,083	0,068	-0,040
-704,831	-68,414	0,111	-0,031
-703,816	-34,317	-0,137	0,055
-702,802	195,002	-0,102	-0,115
-701,787	-168,496	-0,034	0,001
-700,772	21,119	-0,037	0,022
-699,758	-200,000	0,030	0,142
-698,743	-200,000	-0,001	-0,033
-697,729	800,000	0,008	-0,022
-696,714	-130,919	-0,112	0,011
-695,699	-200,000	-0,001	0,024
-694,685	-81,842	-0,096	0,023
-693,670	-52,703	-0,141	-0,048
-692,656	-200,000	-0,037	0,140
-691,641	-24,012	0,083	-0,036
-690,627	-200,000	0,020	0,193
-689,612	-200,000	-0,008	-0,039
-688,597	-200,000	0,002	-0,021
-687,583	-114,263	-0,127	-0,018
-686,568	200,123	-0,076	-0,086
-685,554	-7,359	-0,120	0,060
-684,539	12,566	-0,094	0,053
-683,524	96,043	0,140	0,117
-682,510	-200,000	0,001	-0,081
-681,495	298,846	0,034	0,046
-680,481	288,686	0,038	-0,051
-679,466	800,000	-0,038	-0,084
-678,451	193,375	-0,059	-0,066
-677,437	174,207	0,066	0,070
-676,422	-200,000	0,038	0,184
-675,408	200,024	-0,072	-0,081
-674,393	-84,977	0,012	-0,003
-673,378	211,797	-0,080	-0,093
-672,364	164,591	0,080	-0,083
-671,349	-59,364	-0,148	-0,047
-670,335	224,670	-0,049	0,059
-669,320	643,183	0,054	0,102
-668,305	-200,000	0,026	0,083
-667,291	-200,000	-0,001	0,022
-666,276	719,113	-0,067	-0,132
-665,262	800,000	0,007	-0,019
-664,247	242,479	0,049	0,061
-663,232	148,878	0,095	0,094
-662,218	116,684	-0,018	0,017
-661,203	-200,000	0,002	0,018
-660,189	-200,000	-0,010	0,036
-659,174	486,808	-0,062	-0,105
-658,159	-110,095	-0,187	-0,028
-657,145	282,841	-0,042	0,055
-656,130	-25,093	-0,081	0,035
-655,116	800,000	0,005	0,015
-654,101	444,819	-0,016	0,026
-653,086	-48,115	0,142	-0,050
-652,072	800,000	-0,061	-0,133
-651,057	71,696	-0,102	-0,077
-650,043	-50,573	0,043	-0,015
-649,028	-71,336	-0,074	-0,020
-648,014	26,649	0,062	0,038
-646,999	-200,000	0,045	0,155
-645,984	-123,191	-0,135	0,016
-644,970	-48,655	-0,092	0,032
-643,955	623,068	0,061	-0,113
-642,941	168,747	-0,046	0,048
-641,926	-140,456	-0,114	-0,009
-640,911	73,575	0,089	-0,068
-639,897	-178,865	0,143	-0,002
-638,882	3,573	-0,127	-0,068
-637,868	-82,738	0,104	0,025
-636,853	533,278	0,053	-0,093
-635,838	-200,000	-0,002	-0,062
-634,824	-59,030	0,116	0,037
-633,809	145,717	0,062	0,061
-632,795	-200,000	0,016	0,091
-631,780	-200,000	-0,005	0,135
-630,765	112,488	0,111	-0,098
-629,751	-155,166	-0,056	0,003
-628,736	-42,482	-0,137	0,051
-627,722	-198,710	-0,094	0,000
-626,707	90,701	-0,040	0,033
-625,692	143,441	0,091	-0,089
-624,678	800,000	-0,025	-0,070
-623,663	195,381	0,066	-0,074
-622,649	-200,000	0,095	0,000
-621,634	58,617	-0,114	-0,082
-620,619	127,537	0,043	-0,040
-619,605	-200,000	-0,014	0,197
-618,590	83,320	-0,075	0,060
-617,576	56,440	0,134	-0,095
-616,561	800,000	-0,053	0,112
-615,546	-59,075	-0,009	-0,003
-614,532	800,000	0,019	-0,041
-613,517	102,250	0,129	0,110
-612,503	-200,000	-0,024	0,107
-611,488	-200,000	0,004	-0,043
-610,474	800,000	0,036	-0,099
-609,459	-66,133	-0,093	0,027
-608,444	-200,000	0,003	-0,071
-607,430	799,037	-0,013	0,027
-606,415	81,745	-0,094	-0,075
-605,401	50,876	0,104	-0,072
-604,386	-200,000	0,009	0,146
-603,371	143,260	0,117	0,115
-602,357	61,215	-0,016	-0,012
-601,342	800,000	0,030	-0,085
-600,328	202,454	-0,079	-0,090
-599,313	-200,000	-0,009	-0,060
-598,298	800,000	-0,023	0,071
-597,284	35,339	-0,051	-0,033
-596,269	98,236	0,081	-0,069
-595,255	-200,000	0,002	-0,052
-594,240	-46,238	-0,064	-0,023
-593,225	-200,000	0,021	-0,111
-592,211	-200,000	-0,012	-0,101
-591,196	183,607	0,098	0,107
-590,182	494,785	0,107	0,181
-589,167	47,523	0,090	-0,062
-588,152	-200,000	0,020	0,107
-587,138	-200,000	-0,006	-0,074
-586,123	-156,411	-0,110	0,005
-585,109	18,727	0,088	-0,052
-584,094	-200,000	-0,009	0,058
-583,079	-13,721	0,025	0,012
-582,065	167,635	0,075	-0,078
-581,050	-3,264	0,065	-0,033
-580,036	800,000	0,022	0,052
-579,021	800,000	0,036	0,079
-578,006	110,563	0,018	0,016
-576,992	126,432	-0,141	0,131
-575,977	-106,918	-0,050	0,008
-574,963	-163,144	-0,036	0,001
-573,948	286,926	-0,084	0,111
-572,934	-80,555	-0,079	0,019
-571,919	43,567	0,051	-0,034
-570,904	-73,926	-0,076	0,020
-569,890	-200,000	-0,014	0,091
-568,875	-8,753	-0,156	0,076
-567,861	-24,565	0,018	-0,008
-566,846	56,857	-0,095	-0,067
-565,831	-200,000	0,005	-0,096
-564,817	235,452	0,095	0,115
-563,802	119,242	0,035	0,031
-562,788	-142,285	-0,114	0,008
-561,773	111,821	0,036	0,031
-560,758	53,951	0,120	-0,085
-559,744	609,498	0,072	0,133
-558,729	-60,290	-0,044	0,014
-557,715	255,911	-0,080	-0,100
-556,700	-138,591	-0,023	-0,002
-555,685	377,787	-0,025	0,038
-554,671	343,363	-0,027	-0,039
-553,656	-27,018	0,107	0,045
-552,642	300,238	-0,149	0,202
-551,627	800,000	0,013	0,028
-550,612	17,146	0,098	-0,057
-549,598	33,449	-0,060	-0,038
-548,583	-55,727	-0,029	-0,009
-547,569	800,000	-0,051	-0,122
-546,554	0,245	-0,086	-0,045
-545,539	-200,000	-0,020	0,099
-544,525	554,520	-0,062	-0,109
-543,510	631,982	0,054	0,100
-542,496	-12,368	-0,102	-0,048
-541,481	-200,000	-0,051	-0,212
-540,466	-71,232	0,073	-0,020
-539,452	152,866	0,081	-0,081
-538,437	800,000	-0,010	0,021
-537,423	-200,000	0,024	-0,162
-536,408	293,228	0,044	0,059
-535,393	-200,000	-0,005	0,071
-534,379	289,963	-0,068	-0,090
-533,364	-124,092	0,102	0,012
-532,350	63,015	-0,045	0,033
-531,335	-200,000	0,007	-0,085
-530,321	491,713	-0,086	0,145
-529,306	-200,000	0,005	0,038
-528,291	254,121	-0,100	-0,125
-527,277	460,436	-0,017	-0,028
-526,262	1,039	-0,053	-0,027
-525,248	85,364	-0,063	-0,051
-524,233	70,500	0,112	0,084
-523,218	326,310	0,052	0,073
-522,204	-133,274	0,113	0,010
-521,189	64,326	-0,008	0,006
-520,175	-200,000	-0,018	-0,068
-519,160	800,000	-0,049	-0,142
-518,145	24,959	0,116	-0,070
-517,131	-116,838	0,212	-0,028
-516,116	529,824	0,090	0,156
-515,102	-151,307	-0,082	0,004
-514,087	576,664	0,028	-0,049
-513,072	-122,289	-0,085	-0,010
-512,058	-45,956	0,040	-0,014
-511,043	218,345	0,094	0,109
-510,029	34,506	0,124	0,079
-509,014	-200,000	-0,020	0,079
-507,999	800,000	-0,058	-0,139
-506,985	-200,000	-0,001	-0,134
-505,970	-200,000	-0,018	0,058
-504,956	800,000	-0,023	-0,055
-503,941	-200,000	-0,004	-0,061
-502,926	-200,000	0,020	0,227
-501,912	800,000	0,042	0,133
-500,897	-51,770	0,034	-0,012
-499,883	641,694	-0,042	-0,079
-498,868	16,830	-0,139	-0,080
-497,853	575,164	0,051	0,091
-496,839	-93,129	0,063	-0,013
-495,824	25,986	-0,007	0,004
-494,810	287,214	-0,067	0,089
-493,795	800,000	0,022	-0,047
-492,781	65,590	-0,069	0,051
-491,766	800,000	0,034	-0,086
-490,751	-9,926	0,072	-0,035
-489,737	-153,956	-0,122	0,006
-488,722	486,839	-0,022	0,037
-487,708	82,327	0,054	0,043
-486,693	-5,639	-0,048	-0,024
-485,678	-200,000	0,017	-0,139
-484,664	-38,474	0,133	-0,051
-483,649	149,793	-0,058	-0,058
-482,635	800,000	-0,055	-0,113
-481,620	32,769	0,132	0,083
-480,605	55,853	0,037	0,026
-479,591	800,000	-0,081	0,165
-478,576	221,603	0,042	-0,049
-477,562	301,717	0,076	-0,102
-476,547	178,538	-0,098	-0,105
-475,532	415,897	-0,029	-0,045
-474,518	-200,000	0,014	-0,055
-473,503	24,427	-0,014	-0,008
-472,489	-14,244	0,106	0,050
-471,474	-48,134	-0,099	0,034
-470,459	544,262	-0,051	-0,089
-469,445	1,470	-0,045	-0,023
-468,430	129,614	-0,016	0,015
-467,416	129,302	0,087	0,081
-466,401	360,200	-0,041	0,060
-465,386	17,666	0,034	0,020
-464,372	239,561	-0,080	0,097
-463,357	-200,000	-0,020	-0,071
-462,343	512,062	-0,054	0,092
-461,328	-200,000	-0,001	0,068
-460,313	294,979	0,019	0,025
-459,299	-170,503	0,089	0,002
-458,284	316,440	0,137	0,190
-457,270	-97,399	0,096	0,018
-456,255	235,103	-0,141	-0,170
-455,241	-200,000	0,010	-0,048
-454,226	204,582	-0,049	0,056
-453,211	67,837	0,108	0,081
-452,197	-74,782	-0,170	0,044
-451,182	-200,000	0,030	0,161
-450,168	139,617	-0,046	0,044
-449,153	-200,000	-0,024	0,094
-448,138	74,434	0,075	0,057
-447,124	647,310	-0,022	0,040
-446,109	737,461	-0,044	-0,087
-445,095	45,577	0,117	-0,079
-444,080	-200,000	0,008	0,089
-443,065	85,192	0,091	-0,072
-442,051	758,159	-0,058	0,116
-441,036	-106,187	0,098	0,016
-440,022	559,904	-0,007	0,013
-439,007	141,992	-0,028	-0,027
-437,992	446,066	0,073	0,118
-436,978	100,436	0,126	0,107
-435,963	224,870	0,080	0,094
-434,949	800,000	-0,053	0,132
-433,934	308,083	-0,077	-0,105
-432,919	-200,000	-0,009	0,092
-431,905	-24,255	0,027	-0,012
-430,890	800,000	-0,027	0,064
-429,876	588,988	-0,024	0,043
-428,861	-200,000	0,020	-0,094
-427,846	466,710	-0,060	0,098
-426,832	-80,420	0,060	0,015
-425,817	412,567	-0,088	-0,136
-424,803	-154,861	-0,102	0,005
-423,788	57,395	-0,009	0,006
-422,773	-55,494	0,151	-0,049
-421,759	-80,807	0,030	-0,007
-420,744	14,593	-0,047	0,026
-419,730	261,267	-0,080	0,101
-418,715	69,235	0,072	0,054
-417,701	344,265	0,074	0,106
-416,686	-200,000	-0,001	0,014
-415,671	71,168	0,047	-0,035
-414,657	466,684	-0,035	0,057
-413,642	800,000	0,056	0,133
-412,628	101,024	0,065	0,055
-411,613	523,517	0,069	-0,119
-410,598	32,230	0,039	0,025
-409,584	-87,903	0,087	0,019
-408,569	-200,000	-0,010	0,131
-407,555	-200,000	-0,000	0,066
-406,540	-50,050	-0,155	-0,053
-405,525	-200,000	-0,018	-0,103
-404,511	93,088	-0,099	0,081
-403,496	-98,945	-0,103	0,019
-402,482	98,209	-0,097	0,081
-401,467	-81,937	0,100	-0,024
-400,452	-66,968	-0,046	-0,013
-399,438	121,090	0,086	-0,078
-398,423	-200,000	0,019	-0,076
-397,409	-200,000	-0,016	-0,053
-396,394	-200,000	0,013	-0,164
-395,379	800,000	-0,020	-0,043
-394,365	-94,611	0,139	-0,027
-393,350	58,787	0,123	-0,088
-392,336	16,267	0,037	0,021
-391,321	649,920	0,066	-0,123
-390,306	-200,000	0,005	-0,209
-389,292	143,708	-0,023	-0,022
-388,277	77,601	-0,020	0,015
-387,263	153,401	-0,050	0,050
-386,248	-50,172	0,058	-0,020
-385,233	335,285	0,029	0,041
-384,219	-174,282	-0,045	-0,001
-383,204	-200,000	0,003	-0,048
-382,190	-200,000	-0,002	-0,130
-381,175	-200,000	-0,002	-0,050
-380,160	-154,705	0,201	0,010
-379,146	-200,000	-0,020	0,125
-378,131	-200,000	-0,012	-0,211
-377,117	-200,000	-0,004	0,062
-376,102	-51,024	-0,129	0,044
-375,088	149,462	0,099	0,097
-374,073	-200,000	0,028	0,101
-373,058	181,062	0,052	-0,056
-372,044	150,309	0,123	0,121
-371,029	-200,000	-0,004	0,129
-370,015	-200,000	-0,009	0,080
-369,000	73,495	-0,133	0,101
-367,985	-90,630	-0,075	0,016
-366,971	-46,995	-0,109	0,038
-365,956	-49,292	0,085	-0,029
-364,942	-200,000	-0,030	0,137
-363,927	91,802	0,091	0,075
-362,912	-200,000	0,001	-0,113
-361,898	71,376	-0,083	-0,063
-360,883	-54,863	-0,072	0,024
-359,869	-110,768	0,042	0,006
-358,854	17,287	-0,058	0,034
-357,839	-59,876	0,138	-0,043
-356,825	104,478	0,091	0,078
-355,810	-200,000	0,026	-0,125
-354,796	-85,500	0,042	-0,009
-353,781	-200,000	-0,043	-0,140
-352,766	-200,000	0,002	-0,027
-351,752	607,249	-0,016	0,029
-350,737	-166,835	0,036	0,001
-349,723	520,218	-0,045	0,076
-348,708	3,745	-0,091	-0,048
-347,693	-200,000	-0,023	0,078
-346,679	191,964	0,068	-0,075
-345,664	800,000	0,033	-0,094
-344,650	355,155	-0,031	0,044
-343,635	212,887	0,041	-0,047
-342,620	-200,000	-0,015	0,135
-341,606	-200,000	0,005	-0,035
-340,591	102,757	-0,047	0,040
-339,577	-114,255	-0,145	0,020
-338,562	-200,000	0,015	-0,065
-337,548	-45,452	-0,037	0,013
-336,533	-1,675	0,119	-0,061
-335,518	-200,000	0,009	0,092
-334,504	168,440	0,050	0,051
-333,489	76,481	-0,029	-0,022
-332,475	-32,184	0,062	-0,025
-331,460	106,073	0,053	-0,045
-330,445	175,192	0,078	-0,082
-329,431	-111,349	-0,092	0,013
-328,416	-30,379	0,121	0,050
-327,402	155,990	-0,075	0,075
-326,387	-200,000	-0,001	-0,004
-325,372	-200,000	-0,036	-0,125
-324,358	-107,347	-0,014	0,002
-323,343	-128,139	0,085	-0,009
-322,329	74,952	0,037	0,028
-321,314	307,494	-0,080	0,108
-320,299	-104,655	-0,115	0,019
-319,285	-200,000	0,008	0,060
-318,270	-64,245	-0,103	-0,030
-317,256	800,000	0,018	0,056
-316,241	113,909	-0,005	0,005
-315,226	800,000	-0,045	-0,115
-314,212	800,000	-0,032	0,086
-313,197	-200,000	0,023	-0,119
-312,183	96,502	-0,119	0,098
-311,168	-200,000	-0,001	0,066
-310,153	134,025	-0,016	0,015
-309,139	14,900	0,044	-0,025
-308,124	-8,772	-0,079	0,038
-307,110	-2,854	0,085	0,043
-306,095	800,000	-0,010	0,032
-305,080	227,142	-0,062	0,073
-304,066	800,000	-0,016	-0,039
-303,051	-34,259	-0,042	0,016
-302,037	-200,000	-0,027	-0,145
-301,022	-200,000	0,001	0,042
-300,008	800,000	0,043	0,104
-298,993	-39,889	0,072	0,027
-297,978	800,000	-0,016	-0,045
-296,964	-200,000	-0,004	-0,066
-295,949	-115,773	0,143	-0,019
-294,935	-127,068	0,046	-0,005
-293,920	-111,199	0,084	-0,012
-292,905	-37,127	0,108	-0,042
-291,891	514,409	0,078	-0,133
-290,876	173,460	0,064	0,066
-289,862	79,777	0,046	0,036
-288,847	-66,152	-0,062	0,018
-287,832	-153,078	0,059	-0,003
-286,818	-200,000	0,010	0,090
-285,803	151,945	-0,023	-0,023
-284,789	43,266	0,125	-0,083
-283,774	-200,000	-0,011	0,152
-282,759	-40,952	-0,031	0,011
-281,745	-200,000	-0,000	-0,014
-280,730	28,058	-0,157	-0,096
-279,716	-72,188	-0,049	-0,013
-278,701	-200,000	-0,003	-0,127
-277,686	70,355	0,013	0,009
-276,672	800,000	-0,033	0,078
-275,657	123,070	-0,133	0,120
-274,643	-200,000	-0,027	-0,125
-273,628	-200,000	0,015	-0,065
-272,613	800,000	-0,030	0,067
-271,599	187,830	-0,132	-0,142
-270,584	-200,000	0,001	0,008
-269,570	800,000	0,053	-0,135
-268,555	-134,750	0,080	-0,007
-267,540	61,209	-0,085	0,061
-266,526	768,012	-0,038	-0,075
-265,511	91,849	-0,127	-0,103
-264,497	-4,371	0,130	-0,065
-263,482	-21,083	0,156	0,069
-262,467	-200,000	0,001	0,081
-261,453	142,919	0,127	-0,123
-260,438	-10,413	-0,056	0,027
-259,424	28,353	-0,068	-0,042
-258,409	-200,000	-0,017	-0,150
-257,395	40,618	-0,075	-0,049
-256,380	170,166	0,048	0,050
-255,365	389,914	-0,059	-0,089
-254,351	800,000	-0,047	-0,141
-253,336	392,968	0,024	-0,037
-252,322	-200,000	-0,018	0,067
-251,307	-94,781	-0,095	-0,018
-250,292	-200,000	-0,019	-0,119
-249,278	800,000	0,016	0,051
-248,263	233,037	0,047	0,057
-247,249	800,000	-0,031	0,070
-246,234	250,696	-0,064	0,079
-245,219	729,799	-0,017	-0,033
-244,205	-40,091	-0,139	0,052
-243,190	-200,000	0,028	0,128
-242,176	-18,508	0,092	-0,041
-241,161	173,513	0,055	-0,057
-240,146	-4,267	0,061	0,030
-239,132	-71,875	0,129	0,035
-238,117	-200,000	-0,115	0,000
-237,103	-200,000	0,040	-0,152
-236,088	-17,263	0,096	0,044
-235,073	-42,389	0,127	0,046
-234,059	-39,644	-0,107	-0,040
-233,044	-54,977	-0,049	-0,016
-232,030	-175,645	-0,059	0,001
-231,015	482,963	0,041	-0,067
-230,000	-126,761	-0,061	0,006
-228,986	-11,036	-0,037	0,018
-227,971	-89,739	0,030	0,006
-226,957	-57,753	0,048	0,015
-225,942	-34,059	-0,073	0,029
-224,927	-47,899	-0,131	-0,045
-223,913	-19,433	-0,102	-0,045
-222,898	800,000	-0,024	-0,051
-221,884	131,211	0,066	-0,061
-220,869	-120,437	0,053	-0,006
-219,855	-72,987	0,104	0,027
-218,840	94,316	-0,064	-0,053
-217,825	-200,000	0,011	0,067
-216,811	-110,601	0,200	-0,030
-215,796	-48,033	-0,063	0,022
-214,782	-200,000	-0,054	-0,201
-213,767	149,796	-0,076	-0,074
-212,752	261,141	0,054	-0,068
-211,738	181,037	0,048	0,051
-210,723	-35,767	0,056	0,022
-209,709	44,444	-0,052	0,035
-208,694	-200,000	0,036	0,196
-207,679	-200,000	-0,034	0,129
-206,665	800,000	-0,039	-0,110
-205,650	-200,000	-0,001	0,014
-204,636	177,048	0,056	0,059
-203,621	-127,668	-0,143	0,015
-202,606	95,305	-0,080	-0,066
-201,592	800,000	-0,063	-0,144
-200,577	-200,000	0,006	-0,059
-199,563	-200,000	0,009	0,118
-198,548	59,368	0,080	-0,057
-197,533	-90,252	-0,146	0,030
-196,519	312,161	-0,081	0,110
-195,504	-200,000	-0,006	-0,196
-194,490	-12,102	-0,158	-0,074
-193,475	-200,000	-0,031	0,146
-192,460	800,000	0,058	0,138
-191,446	-165,808	0,059	-0,002
-190,431	800,000	0,033	0,093
-189,417	24,105	-0,112	-0,066
-188,402	-58,748	-0,103	-0,032
-187,387	212,703	-0,073	0,083
-186,373	123,992	-0,029	0,026
-185,358	-107,140	-0,137	0,022
-184,344	-200,000	0,029	-0,185
-183,329	-22,593	-0,042	-0,018
-182,315	-200,000	-0,025	-0,084
-181,300	-89,530	-0,065	0,014
-180,285	61,796	0,104	-0,074
-179,271	-109,613	-0,153	-0,023
-178,256	95,667	0,052	0,043
-177,242	800,000	0,026	0,064
-176,227	208,087	0,053	-0,060
-175,212	44,272	0,146	-0,096
-174,198	-200,000	-0,001	0,042
-173,183	-200,000	-0,041	0,158
-172,169	800,000	0,053	0,165
-171,154	220,708	-0,027	0,031
-170,139	322,629	0,070	0,096
-169,125	107,403	0,043	-0,037
-168,110	-200,000	0,016	-0,117
-167,096	-22,525	-0,127	0,055
-166,081	-200,000	-0,038	-0,129
-165,066	112,987	0,147	-0,129
-164,052	15,645	-0,036	0,021
-163,037	-52,404	-0,055	0,018
-162,023	347,038	0,029	-0,041
-161,008	-15,943	0,085	0,039
-159,993	13,837	0,085	-0,048
-158,979	-200,000	-0,016	-0,124
-157,964	68,058	-0,091	0,067
-156,950	162,339	0,120	-0,121
-155,935	609,578	-0,036	0,064
-154,920	404,415	-0,047	-0,072
-153,906	107,337	-0,090	-0,077
-152,891	-200,000	-0,010	0,045
-151,877	-16,489	0,066	-0,030
-150,862	-200,000	-0,008	-0,150
-149,847	800,000	-0,039	0,084
-148,833	-200,000	0,017	-0,077
-147,818	-160,763	-0,095	0,004
-146,804	-200,000	0,013	0,087
-145,789	303,151	-0,054	0,072
-144,775	-200,000	-0,017	-0,145
-143,760	-113,548	-0,049	0,007
-142,745	530,846	-0,012	0,021
-141,731	-200,000	-0,014	0,051
-140,716	800,000	0,032	-0,071
-139,702	146,403	-0,049	0,047
-138,687	-200,000	-0,003	0,110
-137,672	-118,943	0,030	-0,004
-136,658	15,958	-0,102	-0,058
-135,643	215,878	0,033	0,037
-134,629	150,252	0,082	-0,080
-133,614	-200,000	0,010	-0,080
-132,599	662,311	0,047	-0,087
-131,585	-200,000	0,006	0,060
-130,570	-142,335	-0,041	0,003
-129,556	167,283	-0,019	0,019
-128,541	-200,000	-0,002	-0,079
-127,526	-67,032	-0,070	0,020
-126,512	-52,521	-0,077	0,025
-125,497	-61,643	0,022	-0,007
-124,483	-200,000	0,003	0,164
-123,468	-20,584	-0,106	0,047
-122,453	-200,000	-0,020	-0,154
-121,439	351,422	-0,064	-0,092
-120,424	-59,253	-0,104	-0,032
-119,410	800,000	-0,031	0,073
