DTS Sentinel unit serial number:	SN410029Multiplexer serial number:	ORYXHardware model number:	OX2-SRSoftware version number:	ORYX F/W v4,00 Oryx Data Collector v3.7.2.0data status	okinstallation	B5 Nyhavnadifferential loss correction	single-endedforward channel	channel 2reverse channel	N/Adate	2023/12/12time	02:37:13forward acquisition time	300,00reverse acquisition time	0,00gamma	499,1914k internal	0,3156k external	0,3156temperature offset calibration	1,0000default loss term (dB/km)	0,3820temperature slope calibration	1,0000multiplexer offset coefficient	1,0000multiplexer slope coefficient	1,0000fibre end	0,00T internal ref (°C)	15,75T ext. ref 1 (°C)	-0,60T ext. ref 2 (°C)	-0,84length (m)	temperature (°C)	Stokes	anti-Stokes-744,400	-17,237	0,138	0,064
-743,385	-89,729	-0,423	0,091
-742,371	800,000	0,088	0,206
-741,356	-125,638	-0,293	0,032
-740,342	-162,478	0,221	-0,008
-739,327	-35,629	-0,332	0,132
-738,312	-200,000	0,016	0,106
-737,298	-70,670	-0,325	0,090
-736,283	415,639	0,033	0,052
-735,269	-152,316	-0,167	0,009
-734,254	-200,000	-0,004	0,063
-733,239	-86,470	-0,292	0,066
-732,225	-115,400	0,299	-0,041
-731,210	145,694	-0,031	-0,031
-730,196	-200,000	-0,031	-0,190
-729,181	-17,252	-0,073	0,034
-728,167	800,000	-0,040	-0,108
-727,152	-200,000	-0,002	-0,009
-726,137	800,000	0,040	-0,083
-725,123	-200,000	-0,023	-0,094
-724,108	-33,480	-0,077	-0,031
-723,094	800,000	-0,006	0,014
-722,079	800,000	-0,070	-0,188
-721,064	800,000	0,047	-0,099
-720,050	-27,948	-0,078	-0,033
-719,035	65,370	-0,103	0,077
-718,021	-200,000	0,010	-0,122
-717,006	-200,000	0,028	-0,138
-715,991	780,960	-0,025	-0,050
-714,977	-97,167	-0,238	-0,045
-713,962	-137,255	-0,066	-0,005
-712,948	800,000	0,019	-0,044
-711,933	16,497	-0,039	0,022
-710,918	800,000	0,020	-0,041
-709,904	-200,000	-0,002	0,043
-708,889	800,000	-0,071	-0,164
-707,875	45,777	-0,140	-0,096
-706,860	5,837	-0,088	-0,048
-705,845	-200,000	0,012	-0,120
-704,831	242,165	0,046	-0,057
-703,816	-51,094	-0,097	0,033
-702,802	39,410	-0,071	0,047
-701,787	-101,349	-0,084	-0,015
-700,772	-200,000	0,004	-0,015
-699,758	-68,156	0,085	-0,024
-698,743	-78,318	0,046	0,012
-697,729	-156,087	-0,024	-0,001
-696,714	462,141	-0,027	0,044
-695,699	145,119	-0,047	-0,047
-694,685	368,377	-0,033	-0,050
-693,670	-142,682	-0,074	-0,005
-692,656	800,000	-0,029	0,087
-691,641	-43,896	-0,085	0,031
-690,627	-122,362	0,006	0,001
-689,612	50,460	-0,038	0,026
-688,597	-29,277	-0,134	0,056
-687,583	-200,000	0,034	-0,146
-686,568	40,174	0,069	0,046
-685,554	-81,925	-0,068	0,016
-684,539	-150,878	-0,158	-0,009
-683,524	202,449	-0,090	0,103
-682,510	-103,163	-0,137	-0,024
-681,495	-45,305	-0,051	-0,019
-680,481	358,502	-0,087	0,128
-679,466	106,361	-0,141	-0,123
-678,451	12,234	-0,145	-0,082
-677,437	-168,284	-0,029	-0,001
-676,422	800,000	-0,010	-0,033
-675,408	-200,000	-0,042	0,156
-674,393	-200,000	-0,028	0,120
-673,378	9,697	-0,084	-0,047
-672,364	-200,000	-0,001	-0,105
-671,349	133,989	-0,159	-0,152
-670,335	-200,000	0,006	0,049
-669,320	-200,000	-0,005	-0,125
-668,305	130,627	0,136	0,129
-667,291	-151,232	-0,105	0,006
-666,276	-200,000	0,001	-0,032
-665,262	469,866	0,047	-0,077
-664,247	-89,414	-0,124	-0,027
-663,232	697,148	0,040	0,078
-662,218	740,082	-0,033	-0,065
-661,203	-92,748	0,019	-0,004
-660,189	-34,389	0,185	0,074
-659,174	152,858	-0,037	0,037
-658,159	-172,162	-0,227	0,005
-657,145	-200,000	-0,010	0,122
-656,130	256,268	0,032	0,040
-655,116	53,812	-0,042	-0,030
-654,101	-143,200	-0,083	0,006
-653,086	120,360	0,074	0,067
-652,072	-200,000	-0,012	0,113
-651,057	275,268	-0,098	-0,128
-650,043	267,165	0,018	-0,023
-649,028	800,000	-0,017	-0,042
-648,014	68,082	0,023	-0,017
-646,999	-60,387	-0,058	0,018
-645,984	194,041	-0,026	0,029
-644,970	3,666	-0,031	0,016
-643,955	-99,287	-0,124	0,023
-642,941	-3,490	-0,091	-0,046
-641,926	-144,418	0,059	0,004
-640,911	800,000	-0,020	-0,054
-639,897	-81,726	-0,023	-0,006
-638,882	-168,956	0,123	0,003
-637,868	-93,613	-0,112	-0,022
-636,853	-200,000	0,009	-0,060
-635,838	800,000	-0,009	0,024
-634,824	800,000	0,051	-0,130
-633,809	-22,983	0,135	-0,060
-632,795	222,001	0,037	0,044
-631,780	88,239	-0,058	0,047
-630,765	-200,000	-0,014	0,098
-629,751	-28,318	0,055	0,023
-628,736	713,777	-0,031	-0,061
-627,722	-200,000	0,000	-0,105
-626,707	730,141	0,020	-0,039
-625,692	-86,689	-0,096	-0,021
-624,678	-89,302	0,081	-0,017
-623,663	161,336	-0,057	-0,059
-622,649	800,000	-0,051	-0,126
-621,634	129,163	-0,098	0,092
-620,619	-200,000	0,007	-0,117
-619,605	313,805	-0,099	-0,137
-618,590	-200,000	-0,004	-0,050
-617,576	-200,000	-0,016	-0,127
-616,561	65,585	-0,116	-0,086
-615,546	205,684	-0,059	-0,067
-614,532	-200,000	-0,018	-0,097
-613,517	22,926	0,032	-0,019
-612,503	334,715	-0,046	0,066
-611,488	7,622	0,135	-0,074
-610,474	800,000	-0,006	-0,016
-609,459	800,000	-0,073	-0,157
-608,444	198,147	-0,036	-0,040
-607,430	-105,616	-0,209	-0,034
-606,415	-200,000	0,016	-0,108
-605,401	745,030	-0,054	-0,107
-604,386	800,000	0,060	0,125
-603,371	10,619	0,140	-0,078
-602,357	-0,132	-0,102	0,053
-601,342	-33,189	-0,030	-0,012
-600,328	294,007	0,047	-0,063
-599,313	560,532	0,067	0,119
-598,298	-61,415	-0,064	-0,020
-597,284	-130,761	0,051	-0,005
-596,269	520,447	0,106	0,183
-595,255	-63,233	0,040	-0,012
-594,240	-200,000	-0,034	-0,118
-593,225	346,032	0,045	0,065
-592,211	193,529	-0,050	-0,056
-591,196	800,000	0,012	-0,037
-590,182	800,000	0,077	-0,163
-589,167	39,527	-0,015	-0,010
-588,152	200,750	-0,103	0,116
-587,138	800,000	0,019	0,051
-586,123	-200,000	-0,019	0,073
-585,109	-200,000	0,012	0,059
-584,094	800,000	0,010	-0,029
-583,079	-68,775	0,125	0,035
-582,065	330,399	0,071	0,101
-581,050	584,492	-0,004	0,008
-580,036	240,709	-0,060	0,074
-579,021	-200,000	0,010	0,037
-578,006	-101,255	-0,152	0,027
-576,992	-40,464	-0,086	0,033
-575,977	184,890	0,091	-0,099
-574,963	1,346	-0,019	-0,010
-573,948	73,966	0,049	0,037
-572,934	423,196	0,042	0,067
-571,919	-200,000	0,011	-0,092
-570,904	393,020	-0,038	-0,059
-569,890	342,614	-0,085	-0,122
-568,875	-132,531	0,103	0,010
-567,861	368,937	0,055	0,082
-566,846	-200,000	0,000	0,034
-565,831	-106,324	0,109	0,018
-564,817	-200,000	-0,012	-0,075
-563,802	131,843	-0,078	-0,074
-562,788	-200,000	-0,001	-0,021
-561,773	-126,292	-0,074	0,008
-560,758	-100,270	0,163	-0,029
-559,744	418,033	0,054	0,085
-558,729	340,503	0,095	-0,137
-557,715	-81,037	-0,126	0,030
-556,700	111,296	-0,120	-0,106
-555,685	90,622	-0,119	-0,098
-554,671	-200,000	0,009	0,054
-553,656	231,344	0,037	0,044
-552,642	124,204	-0,011	-0,010
-551,627	-43,827	-0,087	-0,032
-550,612	800,000	0,005	0,011
-549,598	-59,741	0,099	0,031
-548,583	-187,341	-0,048	-0,000
-547,569	800,000	0,020	-0,061
-546,554	-200,000	0,008	-0,153
-545,539	-74,685	0,165	-0,043
-544,525	170,759	0,024	-0,025
-543,510	-189,212	-0,174	0,001
-542,496	-200,000	0,006	-0,079
-541,481	-91,785	-0,089	-0,018
-540,466	451,351	0,052	-0,084
-539,452	795,988	-0,031	0,062
-538,437	67,904	0,106	0,079
-537,423	800,000	0,056	0,114
-536,408	122,372	-0,064	-0,058
-535,393	412,206	0,073	-0,114
-534,379	-23,991	0,043	0,019
-533,364	-64,891	-0,021	0,006
-532,350	176,193	0,062	0,066
-531,335	482,328	0,034	-0,056
-530,321	-194,706	-0,110	0,001
-529,306	-200,000	-0,012	-0,089
-528,291	-3,705	-0,089	0,045
-527,277	-103,173	-0,092	-0,016
-526,262	114,826	0,097	-0,087
-525,248	29,473	0,061	0,038
-524,233	800,000	0,065	0,159
-523,218	-89,560	0,175	0,037
-522,204	529,640	-0,048	0,083
-521,189	174,002	-0,056	-0,059
-520,175	-200,000	0,038	-0,136
-519,160	34,581	-0,035	-0,022
-518,145	209,000	0,120	0,137
-517,131	-200,000	0,017	0,086
-516,116	763,638	0,048	-0,097
-515,102	800,000	-0,054	0,112
-514,087	101,180	0,048	-0,041
-513,072	-124,730	-0,077	0,009
-512,058	-200,000	0,001	-0,065
-511,043	-200,000	-0,025	0,126
-510,029	-102,558	0,093	-0,016
-509,014	-69,272	-0,043	-0,012
-507,999	800,000	-0,038	0,118
-506,985	-0,967	0,041	0,021
-505,970	338,569	-0,039	-0,055
-504,956	-200,000	0,021	-0,072
-503,941	-151,941	0,184	0,010
-502,926	-16,390	0,100	0,046
-501,912	240,096	0,035	0,043
-500,897	161,488	-0,065	0,067
-499,883	50,934	-0,034	-0,024
-498,868	57,680	-0,054	0,039
-497,853	-159,062	-0,055	0,002
-496,839	-200,000	-0,009	0,117
-495,824	-26,878	0,060	0,026
-494,810	394,677	-0,104	-0,158
-493,795	616,424	0,026	0,049
-492,781	40,123	0,018	0,012
-491,766	133,588	0,049	-0,047
-490,751	-200,000	0,001	-0,028
-489,737	0,543	-0,052	0,027
-488,722	800,000	0,021	-0,058
-487,708	-200,000	0,003	-0,071
-486,693	-200,000	0,004	0,014
-485,678	800,000	0,026	0,083
-484,664	800,000	-0,066	-0,137
-483,649	-200,000	-0,012	-0,085
-482,635	800,000	-0,012	-0,032
-481,620	800,000	-0,061	0,133
-480,605	45,615	0,040	-0,027
-479,591	82,006	-0,098	-0,078
-478,576	-47,808	0,058	-0,020
-477,562	-5,412	0,119	0,059
-476,547	-200,000	0,016	-0,070
-475,532	-34,096	0,180	-0,072
-474,518	-200,000	0,001	0,005
-473,503	800,000	0,051	0,148
-472,489	800,000	0,049	0,144
-471,474	-200,000	0,013	0,095
-470,459	-122,493	-0,104	-0,012
-469,445	-200,000	0,004	0,021
-468,430	222,948	0,032	-0,037
-467,416	-200,000	0,007	0,078
-466,401	800,000	-0,060	-0,187
-465,386	-200,000	0,010	0,080
-464,372	-12,353	0,075	-0,036
-463,357	-90,366	-0,058	0,012
-462,343	7,160	0,096	0,052
-461,328	-120,559	-0,060	0,007
-460,313	159,709	0,060	0,061
-459,299	8,036	-0,089	0,049
-458,284	-144,612	0,108	-0,007
-457,270	800,000	0,032	0,101
-456,255	172,857	-0,119	-0,125
-455,241	-119,132	0,043	-0,005
-454,226	-200,000	0,003	-0,013
-453,211	30,860	0,071	-0,044
-452,197	-200,000	-0,024	0,084
-451,182	-200,000	0,027	0,158
-450,168	218,976	0,053	-0,062
-449,153	334,036	0,056	0,079
-448,138	623,647	-0,010	0,018
-447,124	183,590	-0,057	-0,061
-446,109	-200,000	-0,005	0,079
-445,095	-200,000	0,024	0,106
-444,080	-127,768	0,126	-0,013
-443,065	-200,000	0,009	0,041
-442,051	137,564	-0,029	0,027
-441,036	249,765	0,048	-0,060
-440,022	-200,000	-0,008	-0,037
-439,007	-148,333	-0,040	0,002
-437,992	-76,681	-0,081	0,021
-436,978	-200,000	0,002	0,057
-435,963	16,910	0,098	0,057
-434,949	140,933	-0,081	0,078
-433,934	-200,000	0,024	0,114
-432,919	-55,722	0,112	0,036
-431,905	800,000	-0,099	0,202
-430,890	-26,703	-0,021	-0,009
-429,876	-50,368	-0,086	-0,030
-428,861	578,140	0,012	0,022
-427,846	-200,000	-0,018	0,104
-426,832	800,000	-0,031	-0,091
-425,817	703,636	0,010	-0,019
-424,803	-200,000	0,000	-0,026
-423,788	-200,000	0,001	0,067
-422,773	-70,240	0,103	-0,028
-421,759	800,000	-0,010	-0,025
-420,744	-49,539	0,048	0,017
-419,730	-34,525	-0,127	-0,050
-418,715	77,257	-0,076	0,059
-417,701	74,267	0,065	-0,050
-416,686	-200,000	-0,020	-0,068
-415,671	279,555	0,021	0,027
-414,657	-54,315	0,152	0,050
-413,642	800,000	0,002	-0,005
-412,628	-87,265	-0,066	-0,015
-411,613	-5,442	0,105	-0,053
-410,598	800,000	-0,036	0,085
-409,584	-200,000	0,003	-0,034
-408,569	177,893	0,086	0,092
-407,555	-200,000	0,010	0,102
-406,540	184,946	-0,036	0,039
-405,525	-140,800	0,017	0,001
-404,511	69,669	-0,171	0,128
-403,496	-36,430	0,078	0,030
-402,482	-95,181	0,073	-0,014
-401,467	-87,631	-0,071	-0,015
-400,452	-200,000	-0,019	0,100
-399,438	679,273	0,050	0,095
-398,423	-65,340	-0,151	0,044
-397,409	-23,621	-0,144	-0,062
-396,394	104,273	-0,054	-0,046
-395,379	168,305	0,050	-0,051
-394,365	-14,200	0,106	0,050
-393,350	-30,774	0,097	-0,040
-392,336	-29,222	0,050	-0,021
-391,321	118,992	-0,037	0,033
-390,306	441,770	0,049	0,078
-389,292	84,401	0,041	0,033
-388,277	279,234	0,100	-0,130
-387,263	677,328	-0,055	0,104
-386,248	338,505	-0,050	-0,070
-385,233	-89,755	0,096	0,020
-384,219	635,302	0,007	-0,013
-383,204	-130,046	-0,082	0,008
-382,190	-200,000	-0,013	-0,102
-381,175	467,881	-0,020	0,033
-380,160	-200,000	-0,017	-0,068
-379,146	-200,000	-0,007	-0,032
-378,131	49,860	-0,066	0,045
-377,117	800,000	0,041	0,086
-376,102	-165,820	-0,224	0,007
-375,088	72,513	-0,038	0,029
-374,073	-200,000	0,008	0,117
-373,058	-80,895	0,130	0,031
-372,044	800,000	0,024	-0,069
-371,029	-200,000	0,025	0,113
-370,015	-58,533	0,090	-0,028
-369,000	800,000	0,028	0,079
-367,985	800,000	0,020	-0,051
-366,971	575,973	0,003	-0,005
-365,956	-200,000	-0,020	-0,133
-364,942	-200,000	-0,001	0,142
-363,927	800,000	-0,030	0,093
-362,912	800,000	0,017	0,049
-361,898	-200,000	0,034	-0,201
-360,883	-200,000	0,005	0,077
-359,869	-200,000	0,046	0,000
-358,854	-186,120	0,080	0,001
-357,839	-28,552	-0,063	0,026
-356,825	800,000	-0,018	0,039
-355,810	-154,936	0,146	0,007
-354,796	-43,244	-0,106	0,039
-353,781	1,546	-0,091	0,047
-352,766	35,199	0,036	-0,023
-351,752	800,000	-0,032	-0,065
-350,737	-101,319	0,141	-0,025
-349,723	-137,768	-0,165	0,013
-348,708	-200,000	0,018	0,124
-347,693	-200,000	0,025	0,099
-346,679	104,249	0,064	0,054
-345,664	604,232	0,059	-0,108
-344,650	421,257	-0,016	0,025
-343,635	-155,437	0,088	0,004
-342,620	-200,000	0,022	-0,140
-341,606	-180,125	0,077	0,001
-340,591	-136,677	-0,097	0,008
-339,577	217,894	0,083	-0,096
-338,562	800,000	-0,016	-0,040
-337,548	273,906	0,091	0,117
-336,533	-43,546	0,110	0,040
-335,518	-170,277	0,105	-0,003
-334,504	227,474	-0,093	-0,110
-333,489	-22,934	0,141	-0,061
-332,475	337,218	-0,105	-0,148
-331,460	25,240	-0,175	-0,106
-330,445	800,000	0,030	0,061
-329,431	-200,000	-0,007	0,025
-328,416	800,000	0,034	0,078
-327,402	-71,264	0,089	-0,024
-326,387	325,241	-0,064	0,089
-325,372	800,000	0,026	-0,058
-324,358	-97,743	0,038	0,007
-323,343	-200,000	0,015	-0,132
-322,329	-133,531	0,102	0,009
-321,314	-66,949	-0,086	-0,025
-320,299	-200,000	-0,021	0,102
-319,285	-107,908	-0,013	0,002
-318,270	-16,784	0,013	-0,006
-317,256	791,507	0,024	0,049
-316,241	-27,354	-0,161	-0,068
-315,226	-133,048	-0,018	-0,002
-314,212	658,885	0,077	0,144
-313,197	-200,000	-0,020	-0,066
-312,183	632,567	0,066	0,123
-311,168	576,623	-0,078	0,139
-310,153	-200,000	-0,015	-0,057
-309,139	171,065	-0,027	0,028
-308,124	-200,000	0,017	0,109
-307,110	5,765	-0,068	0,036
-306,095	232,401	0,107	0,128
-305,080	608,959	-0,024	0,043
-304,066	305,353	-0,044	-0,059
-303,051	-171,676	0,043	-0,001
-302,037	392,784	0,062	-0,094
-301,022	-87,060	-0,084	0,018
-300,008	-156,463	0,015	-0,001
-298,993	-22,295	-0,142	0,062
-297,978	800,000	-0,031	-0,092
-296,964	14,934	-0,041	0,023
-295,949	-105,457	-0,008	-0,001
-294,935	85,655	-0,034	-0,027
-293,920	800,000	0,026	-0,066
-292,905	43,650	-0,079	-0,053
-291,891	-70,464	0,161	0,044
-290,876	800,000	-0,013	0,031
-289,862	-31,031	-0,057	0,023
-288,847	-200,000	-0,001	-0,044
-287,832	63,583	-0,033	-0,024
-286,818	8,224	-0,073	0,040
-285,803	293,085	-0,058	-0,077
-284,789	13,608	-0,102	0,057
-283,774	-200,000	-0,008	0,084
-282,759	-200,000	0,000	-0,084
-281,745	-200,000	0,036	-0,249
-280,730	-53,317	-0,018	0,006
-279,716	246,748	0,110	-0,135
-278,701	800,000	0,011	-0,035
-277,686	80,544	0,078	-0,061
-276,672	800,000	-0,036	0,085
-275,657	800,000	-0,043	0,121
-274,643	47,576	0,066	-0,045
-273,628	-171,740	-0,161	0,004
-272,613	-200,000	0,023	0,081
-271,599	-200,000	0,010	0,090
-270,584	-200,000	-0,006	-0,099
-269,570	137,176	0,053	-0,050
-268,555	314,948	-0,030	-0,042
-267,540	46,825	-0,112	-0,075
-266,526	-200,000	-0,019	-0,066
-265,511	63,816	-0,119	-0,086
-264,497	235,234	-0,111	-0,133
-263,482	318,327	0,069	-0,095
-262,467	-40,077	-0,019	0,007
-261,453	-71,601	0,040	0,011
-260,438	113,575	-0,023	0,020
-259,424	800,000	-0,066	-0,149
-258,409	704,478	-0,032	0,062
-257,395	3,044	0,026	0,014
-256,380	-200,000	-0,009	-0,044
-255,365	173,357	-0,070	0,073
-254,351	-69,141	-0,070	0,019
-253,336	-51,790	0,079	-0,026
-252,322	-58,136	-0,027	-0,008
-251,307	-140,667	0,109	0,008
-250,292	-200,000	0,013	0,112
-249,278	-200,000	0,004	0,095
-248,263	-84,157	0,212	-0,048
-247,249	-22,051	0,123	-0,054
-246,234	800,000	-0,026	0,080
-245,219	-15,205	-0,131	-0,060
-244,205	-200,000	-0,040	-0,151
-243,190	-28,728	-0,023	-0,010
-242,176	185,289	0,078	-0,084
-241,161	-6,574	0,015	-0,008
-240,146	377,398	-0,064	0,095
-239,132	-55,994	0,111	-0,035
-238,117	-200,000	-0,059	0,198
-237,103	298,874	0,033	-0,044
-236,088	257,819	-0,060	0,075
-235,073	800,000	0,038	-0,098
-234,059	800,000	0,051	0,112
-233,044	-166,118	0,055	-0,002
-232,030	-200,000	-0,005	0,060
-231,015	489,955	-0,027	-0,045
-230,000	240,712	-0,071	-0,086
-228,986	-200,000	-0,013	0,067
-227,971	800,000	-0,044	-0,133
-226,957	-75,947	-0,027	0,007
-225,942	61,644	0,093	0,067
-224,927	-200,000	-0,011	-0,164
-223,913	-200,000	0,003	0,071
-222,898	-29,056	0,095	0,039
-221,884	20,772	-0,167	-0,098
-220,869	-200,000	0,007	0,071
-219,855	-101,516	0,045	-0,008
-218,840	-200,000	-0,039	0,136
-217,825	-124,390	-0,091	0,010
-216,811	-155,740	0,082	-0,004
-215,796	-46,660	-0,072	-0,025
-214,782	163,153	0,042	0,043
-213,767	651,442	-0,032	0,059
-212,752	-122,754	0,154	0,018
-211,738	-200,000	0,011	-0,076
-210,723	800,000	-0,028	-0,084
-209,709	393,468	-0,100	-0,151
-208,694	800,000	-0,028	-0,060
-207,679	-200,000	0,002	-0,060
-206,665	-136,578	0,093	-0,008
-205,650	800,000	0,025	0,058
-204,636	300,007	-0,053	0,071
-203,621	1,799	0,072	-0,037
-202,606	327,132	-0,064	-0,089
-201,592	139,041	-0,113	-0,107
-200,577	211,517	-0,065	-0,074
-199,563	-19,958	0,031	0,014
-198,548	-110,610	0,103	0,015
-197,533	71,854	-0,050	-0,038
-196,519	-17,158	0,047	0,021
-195,504	703,216	0,062	-0,118
-194,490	134,975	-0,111	-0,104
-193,475	-125,752	0,099	0,011
-192,460	800,000	0,005	0,013
-191,446	133,291	0,087	0,081
-190,431	49,884	-0,062	0,042
-189,417	-142,313	-0,026	0,002
-188,402	-31,418	0,074	-0,030
-187,387	182,198	0,091	0,096
-186,373	-111,827	-0,232	-0,034
-185,358	418,110	-0,028	0,043
-184,344	-135,376	-0,047	0,004
-183,329	-107,016	0,107	0,017
-182,315	-200,000	0,003	0,021
-181,300	800,000	-0,020	0,040
-180,285	-200,000	-0,001	-0,038
-179,271	757,653	-0,043	0,084
-178,256	-42,826	-0,012	0,004
-177,242	-120,325	0,100	0,012
-176,227	-39,679	0,079	-0,030
-175,212	-200,000	-0,036	0,140
-174,198	-71,321	-0,038	-0,010
-173,183	-46,392	0,060	-0,021
-172,169	161,888	0,062	0,062
-171,154	572,127	-0,061	-0,108
-170,139	-200,000	-0,066	0,217
-169,125	-200,000	0,008	0,056
-168,110	800,000	0,047	-0,098
-167,096	113,168	-0,083	-0,073
-166,081	14,842	-0,051	0,029
-165,066	800,000	0,028	-0,076
-164,052	-31,082	-0,072	-0,029
-163,037	116,004	-0,097	0,085
-162,023	-200,000	0,001	0,052
-161,008	-200,000	0,043	0,179
-159,993	800,000	-0,031	0,089
-158,979	-200,000	0,021	0,079
-157,964	-95,130	-0,044	-0,009
-156,950	-93,213	0,137	-0,027
-155,935	211,787	-0,064	0,073
-154,920	800,000	0,026	0,083
-153,906	800,000	-0,059	0,119
-152,891	234,705	-0,097	-0,115
-151,877	-77,919	-0,195	-0,048
-150,862	-200,000	-0,004	0,095
-149,847	-149,479	-0,017	0,001
-148,833	-106,818	-0,050	0,008
-147,818	-200,000	0,029	-0,093
-146,804	225,898	0,084	0,098
-145,789	800,000	-0,033	0,075
-144,775	407,509	-0,021	-0,031
-143,760	4,941	0,012	-0,006
-142,745	244,320	-0,065	-0,079
-141,731	206,876	-0,062	-0,070
-140,716	800,000	-0,025	-0,065
-139,702	-153,720	-0,087	-0,004
-138,687	157,907	-0,115	0,115
-137,672	-99,565	0,053	0,010
-136,658	-200,000	0,013	-0,053
-135,643	247,941	0,106	-0,130
-134,629	-14,007	0,087	0,040
-133,614	-113,579	0,059	-0,008
-132,599	521,897	0,076	-0,130
-131,585	297,994	-0,094	0,125
-130,570	-120,845	-0,062	0,007
-129,556	113,586	0,083	-0,072
-128,541	-111,887	-0,114	-0,016
-127,526	800,000	0,015	-0,037
-126,512	-86,217	0,110	0,024
-125,497	-200,000	0,028	0,118
-124,483	159,582	0,083	0,083
-123,468	327,898	0,073	0,101
-122,453	-23,642	-0,187	-0,080
-121,439	507,037	0,057	-0,096
-120,424	22,168	-0,076	-0,045
