DTS Sentinel unit serial number:	SN410029Multiplexer serial number:	ORYXHardware model number:	OX2-SRSoftware version number:	ORYX F/W v4,00 Oryx Data Collector v3.7.2.0data status	okinstallation	B5 Nyhavnadifferential loss correction	single-endedforward channel	channel 2reverse channel	N/Adate	2023/12/12time	21:52:14forward acquisition time	300,00reverse acquisition time	0,00gamma	499,1914k internal	0,3158k external	0,3158temperature offset calibration	1,0000default loss term (dB/km)	0,3820temperature slope calibration	1,0000multiplexer offset coefficient	1,0000multiplexer slope coefficient	1,0000fibre end	0,00T internal ref (°C)	14,79T ext. ref 1 (°C)	-1,82T ext. ref 2 (°C)	-2,14length (m)	temperature (°C)	Stokes	anti-Stokes-744,400	264,410	0,092	-0,119
-743,385	-61,980	-0,248	0,076
-742,371	54,273	0,117	0,083
-741,356	-47,508	-0,334	0,119
-740,342	697,286	0,061	0,119
-739,327	-77,299	-0,340	0,086
-738,312	-200,000	0,007	0,108
-737,298	-147,426	-0,297	0,018
-736,283	800,000	0,043	0,134
-735,269	2,851	-0,285	0,152
-734,254	796,398	0,092	0,187
-733,239	-30,052	-0,316	-0,132
-732,225	800,000	0,118	0,262
-731,210	222,910	-0,061	-0,072
-730,196	-200,000	-0,040	-0,220
-729,181	-143,104	-0,134	-0,009
-728,167	-200,000	-0,001	-0,055
-727,152	-86,074	-0,039	-0,009
-726,137	800,000	-0,040	0,099
-725,123	-68,521	0,061	-0,017
-724,108	-107,497	-0,083	0,013
-723,094	-200,000	0,001	-0,139
-722,079	-41,757	-0,042	-0,016
-721,064	375,872	0,012	0,018
-720,050	193,625	-0,034	-0,038
-719,035	73,166	0,028	0,022
-718,021	-200,000	0,007	-0,096
-717,006	556,829	0,028	-0,051
-715,991	-200,000	-0,053	-0,188
-714,977	240,591	0,065	0,080
-713,962	50,296	-0,035	0,024
-712,948	608,603	0,029	0,054
-711,933	-45,399	-0,062	0,023
-710,918	87,620	-0,086	-0,070
-709,904	-200,000	0,004	0,101
-708,889	-200,000	-0,009	0,061
-707,875	-177,475	0,097	0,002
-706,860	-31,761	-0,060	0,025
-705,845	-138,177	-0,071	0,006
-704,831	800,000	0,079	0,196
-703,816	-200,000	-0,011	-0,044
-702,802	771,716	-0,059	0,120
-701,787	-163,243	-0,265	0,009
-700,772	-107,734	-0,122	0,019
-699,758	-94,168	0,123	-0,025
-698,743	800,000	0,049	0,133
-697,729	-86,079	-0,014	-0,003
-696,714	12,064	-0,092	-0,052
-695,699	-200,000	-0,000	-0,013
-694,685	-200,000	0,003	0,017
-693,670	283,712	-0,057	-0,076
-692,656	21,534	-0,058	0,034
-691,641	756,709	0,041	0,081
-690,627	-74,881	-0,113	-0,030
-689,612	-137,027	-0,176	-0,015
-688,597	75,495	-0,108	-0,084
-687,583	300,804	-0,036	-0,049
-686,568	-34,905	-0,115	-0,046
-685,554	-69,627	0,084	-0,023
-684,539	-66,709	0,073	0,021
-683,524	-196,020	0,217	-0,001
-682,510	15,130	-0,076	-0,044
-681,495	-122,182	-0,128	0,015
-680,481	-200,000	0,012	-0,085
-679,466	-200,000	0,001	0,078
-678,451	-107,151	-0,093	-0,015
-677,437	-135,649	0,089	0,008
-676,422	50,636	0,056	-0,039
-675,408	-200,000	0,011	0,094
-674,393	110,852	-0,087	-0,077
-673,378	800,000	-0,048	-0,134
-672,364	110,107	-0,138	-0,122
-671,349	259,668	-0,007	0,009
-670,335	-200,000	0,012	-0,141
-669,320	46,034	-0,045	-0,031
-668,305	-145,826	0,084	-0,005
-667,291	485,360	-0,030	-0,050
-666,276	-200,000	-0,004	-0,037
-665,262	-200,000	-0,015	-0,088
-664,247	183,682	-0,133	-0,145
-663,232	-56,569	0,069	-0,022
-662,218	55,092	0,140	0,099
-661,203	-50,300	0,029	0,010
-660,189	800,000	-0,034	0,095
-659,174	211,974	0,060	-0,069
-658,159	-24,538	-0,105	-0,046
-657,145	497,182	-0,045	-0,076
-656,130	-200,000	0,001	0,013
-655,116	99,619	-0,068	-0,058
-654,101	-172,342	0,070	0,002
-653,086	-200,000	-0,095	0,000
-652,072	61,876	-0,031	0,023
-651,057	-18,501	-0,202	-0,092
-650,043	250,038	0,050	-0,063
-649,028	-122,917	-0,074	-0,009
-648,014	-108,850	-0,088	-0,014
-646,999	800,000	-0,027	-0,061
-645,984	-52,510	-0,051	-0,017
-644,970	1,672	-0,111	-0,059
-643,955	-84,984	-0,124	0,028
-642,941	169,241	-0,083	0,087
-641,926	-11,234	0,093	0,045
-640,911	-200,000	-0,008	0,055
-639,897	162,360	-0,060	-0,062
-638,882	152,998	-0,067	-0,068
-637,868	-29,219	0,109	-0,046
-636,853	283,579	0,033	-0,043
-635,838	141,042	-0,113	-0,110
-634,824	-34,969	0,093	0,037
-633,809	145,441	0,084	0,083
-632,795	800,000	-0,053	0,153
-631,780	251,031	-0,042	0,053
-630,765	-5,417	-0,050	-0,025
-629,751	-102,415	-0,191	-0,033
-628,736	183,976	-0,059	-0,064
-627,722	-59,662	0,074	-0,023
-626,707	249,272	-0,010	-0,013
-625,692	126,481	0,059	0,055
-624,678	107,756	0,071	0,062
-623,663	6,178	-0,016	0,009
-622,649	226,562	-0,070	-0,083
-621,634	-78,762	-0,145	0,036
-620,619	800,000	-0,023	-0,048
-619,605	-200,000	0,022	-0,142
-618,590	118,991	0,080	0,073
-617,576	-68,439	0,026	0,007
-616,561	87,850	0,110	-0,090
-615,546	-200,000	0,025	-0,096
-614,532	800,000	0,041	0,120
-613,517	-100,588	-0,113	-0,020
-612,503	415,838	0,047	0,074
-611,488	-116,806	0,134	0,018
-610,474	-107,884	-0,049	0,008
-609,459	423,585	-0,095	-0,150
-608,444	188,733	-0,059	0,065
-607,430	97,787	-0,059	0,050
-606,415	505,390	-0,059	0,100
-605,401	800,000	0,020	-0,042
-604,386	123,142	0,077	0,071
-603,371	-152,848	0,205	-0,010
-602,357	800,000	-0,003	-0,009
-601,342	-200,000	-0,004	-0,141
-600,328	31,412	-0,066	-0,041
-599,313	800,000	-0,066	-0,207
-598,298	203,780	-0,056	-0,064
-597,284	228,327	0,093	0,111
-596,269	-200,000	-0,072	0,000
-595,255	-200,000	-0,033	0,138
-594,240	28,233	-0,069	-0,043
-593,225	299,876	-0,069	0,094
-592,211	69,725	-0,036	0,027
-591,196	-115,148	0,057	0,008
-590,182	-148,290	0,083	0,005
-589,167	789,031	-0,037	0,074
-588,152	-2,560	-0,081	-0,041
-587,138	129,671	-0,040	-0,037
-586,123	800,000	0,044	-0,095
-585,109	-69,174	-0,039	0,011
-584,094	-171,075	0,013	0,000
-583,079	-152,182	-0,108	-0,006
-582,065	146,033	0,024	-0,023
-581,050	494,798	-0,050	-0,084
-580,036	-200,000	0,021	-0,101
-579,021	-200,000	0,008	-0,040
-578,006	800,000	-0,010	0,027
-576,992	127,221	-0,110	-0,103
-575,977	-200,000	0,002	0,051
-574,963	800,000	0,035	-0,110
-573,948	398,248	0,053	-0,082
-572,934	-99,788	-0,129	-0,023
-571,919	-65,909	0,016	-0,005
-570,904	-200,000	0,050	-0,167
-569,890	-200,000	-0,018	-0,131
-568,875	55,494	0,075	0,053
-567,861	-26,602	-0,121	-0,052
-566,846	-0,505	-0,033	-0,017
-565,831	-22,180	-0,148	0,066
-564,817	-56,649	-0,124	0,040
-563,802	-110,700	-0,162	0,024
-562,788	90,694	-0,010	0,008
-561,773	-200,000	0,026	-0,108
-560,758	-39,255	0,040	0,015
-559,744	-8,277	0,039	-0,019
-558,729	-200,000	-0,022	0,084
-557,715	163,029	-0,040	0,041
-556,700	800,000	-0,068	-0,184
-555,685	312,650	-0,018	0,025
-554,671	-200,000	-0,004	0,110
-553,656	22,852	-0,039	0,023
-552,642	800,000	0,007	0,015
-551,627	-120,151	-0,147	-0,018
-550,612	-103,706	-0,076	-0,013
-549,598	-123,069	-0,062	-0,007
-548,583	33,064	-0,063	0,040
-547,569	22,543	0,081	-0,049
-546,554	-36,336	-0,033	0,013
-545,539	95,671	-0,174	0,145
-544,525	791,298	0,028	0,057
-543,510	-79,043	-0,089	-0,022
-542,496	-200,000	0,008	-0,076
-541,481	792,541	0,042	-0,086
-540,466	800,000	0,027	-0,082
-539,452	-97,937	-0,016	0,003
-538,437	-2,980	0,020	-0,010
-537,423	-168,336	0,137	-0,004
-536,408	-97,704	-0,113	0,021
-535,393	-200,000	-0,006	-0,046
-534,379	11,791	0,064	-0,036
-533,364	-200,000	0,003	-0,050
-532,350	-200,000	0,002	-0,013
-531,335	100,478	0,096	-0,082
-530,321	800,000	-0,045	0,136
-529,306	-125,785	-0,025	0,003
-528,291	357,869	0,042	-0,061
-527,277	30,501	0,051	-0,032
-526,262	-46,405	-0,032	-0,011
-525,248	-16,841	0,159	0,073
-524,233	-63,787	-0,083	0,025
-523,218	-200,000	0,019	0,070
-522,204	-200,000	0,012	0,088
-521,189	44,178	-0,102	0,068
-520,175	-200,000	0,021	-0,125
-519,160	-200,000	0,014	0,083
-518,145	795,625	0,031	-0,063
-517,131	-200,000	-0,018	-0,075
-516,116	-200,000	0,035	0,138
-515,102	-29,145	-0,083	-0,034
-514,087	152,308	0,038	-0,038
-513,072	800,000	0,053	-0,145
-512,058	-200,000	-0,011	0,062
-511,043	172,524	0,033	0,035
-510,029	734,758	0,043	0,084
-509,014	-200,000	0,017	0,115
-507,999	-200,000	-0,016	-0,167
-506,985	-1,585	-0,111	-0,057
-505,970	-154,865	-0,137	-0,006
-504,956	-87,838	-0,128	0,028
-503,941	574,420	-0,018	-0,032
-502,926	245,151	0,071	-0,088
-501,912	269,816	-0,095	-0,122
-500,897	255,868	0,019	0,023
-499,883	174,792	-0,080	-0,085
-498,868	397,347	-0,008	-0,012
-497,853	482,737	0,093	-0,155
-496,839	800,000	-0,007	-0,021
-495,824	54,798	0,095	0,067
-494,810	196,660	-0,064	0,071
-493,795	188,548	0,037	-0,041
-492,781	-200,000	-0,020	0,120
-491,766	-32,421	-0,067	0,027
-490,751	-4,221	-0,075	-0,038
-489,737	-84,542	0,054	0,012
-488,722	-89,171	0,177	-0,038
-487,708	451,962	0,030	0,049
-486,693	384,042	0,104	-0,156
-485,678	10,914	-0,052	-0,029
-484,664	-15,026	0,137	-0,064
-483,649	126,568	0,091	-0,084
-482,635	-153,151	0,167	0,008
-481,620	-60,093	0,164	0,051
-480,605	-28,016	0,041	-0,017
-479,591	242,906	0,036	-0,044
-478,576	-111,744	-0,040	-0,006
-477,562	-3,735	0,076	0,038
-476,547	122,539	-0,103	-0,094
-475,532	-200,000	-0,012	-0,104
-474,518	800,000	-0,028	0,067
-473,503	-200,000	0,039	0,191
-472,489	227,080	0,031	-0,037
-471,474	387,381	0,081	-0,122
-470,459	-200,000	0,005	-0,150
-469,445	-200,000	0,000	-0,021
-468,430	800,000	0,094	-0,257
-467,416	-100,810	0,027	-0,005
-466,401	-200,000	0,021	-0,089
-465,386	800,000	-0,057	0,155
-464,372	-5,469	0,090	0,045
-463,357	353,013	-0,063	0,092
-462,343	13,067	-0,070	0,040
-461,328	-136,289	0,188	0,016
-460,313	-61,895	-0,115	0,035
-459,299	800,000	0,051	-0,149
-458,284	-59,064	0,077	-0,024
-457,270	79,380	0,075	-0,059
-456,255	-107,005	-0,107	-0,017
-455,241	800,000	-0,026	0,059
-454,226	538,590	-0,064	-0,112
-453,211	-33,905	0,032	0,013
-452,197	-200,000	0,041	-0,188
-451,182	4,880	0,120	0,064
-450,168	338,456	0,044	0,063
-449,153	-200,000	0,013	-0,094
-448,138	123,273	0,112	-0,102
-447,124	78,086	0,058	-0,045
-446,109	39,625	-0,089	-0,058
-445,095	48,690	0,063	0,043
-444,080	-200,000	-0,016	0,051
-443,065	800,000	-0,029	-0,065
-442,051	668,443	-0,051	-0,096
-441,036	800,000	0,074	-0,189
-440,022	-107,665	0,054	0,009
-439,007	-46,651	-0,120	-0,042
-437,992	-200,000	0,012	0,101
-436,978	800,000	-0,047	0,105
-435,963	139,568	0,069	-0,066
-434,949	661,200	-0,093	-0,176
-433,934	-200,000	0,036	-0,134
-432,919	-200,000	-0,018	0,080
-431,905	-141,657	-0,114	-0,008
-430,890	-200,000	-0,029	-0,189
-429,876	33,504	-0,088	-0,055
-428,861	800,000	-0,043	-0,115
-427,846	-200,000	-0,003	0,039
-426,832	90,093	-0,042	-0,034
-425,817	352,088	-0,120	-0,174
-424,803	353,307	0,069	-0,100
-423,788	-200,000	0,001	0,035
-422,773	-106,354	-0,154	-0,025
-421,759	93,479	0,140	0,115
-420,744	-200,000	0,013	-0,046
-419,730	-200,000	0,016	0,097
-418,715	-115,444	-0,112	0,015
-417,701	-200,000	0,009	-0,039
-416,686	87,575	0,095	0,076
-415,671	-200,000	0,022	0,086
-414,657	-47,430	-0,053	0,019
-413,642	-200,000	-0,008	-0,033
-412,628	179,698	0,076	-0,081
-411,613	-200,000	-0,014	-0,118
-410,598	11,495	0,063	-0,035
-409,584	77,602	0,081	-0,062
-408,569	800,000	0,023	-0,050
-407,555	-200,000	0,021	-0,137
-406,540	278,749	-0,036	0,047
-405,525	800,000	-0,019	0,042
-404,511	-200,000	-0,021	-0,109
-403,496	109,055	0,065	-0,057
-402,482	252,420	-0,090	0,112
-401,467	81,377	-0,058	0,045
-400,452	-165,733	-0,137	-0,004
-399,438	-200,000	-0,045	0,256
-398,423	10,727	-0,122	-0,068
-397,409	118,440	-0,025	0,022
-396,394	-44,414	0,089	0,032
-395,379	-65,962	-0,118	0,034
-394,365	652,944	0,040	0,076
-393,350	87,458	-0,009	-0,008
-392,336	139,348	-0,099	0,095
-391,321	176,684	0,052	-0,055
-390,306	-70,346	0,045	-0,012
-389,292	-200,000	-0,027	-0,193
-388,277	379,707	0,031	-0,046
-387,263	-177,766	-0,076	-0,001
-386,248	-69,993	0,082	0,023
-385,233	800,000	-0,037	0,075
-384,219	-102,289	-0,031	0,005
-383,204	92,692	-0,025	-0,020
-382,190	-200,000	-0,189	-0,001
-381,175	-89,961	0,110	0,023
-380,160	-200,000	0,008	0,109
-379,146	-93,647	0,064	-0,013
-378,131	-200,000	-0,003	0,024
-377,117	0,189	0,084	0,044
-376,102	104,318	-0,120	0,103
-375,088	-39,873	-0,083	0,032
-374,073	781,360	0,111	0,221
-373,058	2,845	0,136	0,072
-372,044	800,000	0,015	-0,036
-371,029	47,654	-0,058	0,039
-370,015	238,098	0,050	0,060
-369,000	800,000	0,026	-0,062
-367,985	800,000	-0,020	-0,041
-366,971	192,471	0,046	-0,050
-365,956	232,223	-0,022	0,026
-364,942	101,352	0,069	0,058
-363,927	39,098	-0,084	0,054
-362,912	-92,576	0,184	0,037
-361,898	98,560	-0,017	0,014
-360,883	-124,111	-0,163	0,018
-359,869	800,000	0,012	-0,038
-358,854	134,166	0,061	0,057
-357,839	214,493	0,073	-0,085
-356,825	295,262	-0,044	-0,058
-355,810	-109,448	-0,029	-0,004
-354,796	151,456	-0,062	-0,061
-353,781	108,280	-0,044	0,038
-352,766	148,280	-0,123	-0,120
-351,752	-60,157	0,070	-0,021
-350,737	186,461	0,082	0,089
-349,723	-35,470	0,018	-0,007
-348,708	90,144	0,020	-0,016
-347,693	-200,000	0,000	-0,042
-346,679	-6,859	-0,067	0,033
-345,664	-5,714	-0,090	0,045
-344,650	-74,618	-0,120	0,031
-343,635	800,000	0,032	-0,097
-342,620	291,439	0,026	-0,034
-341,606	448,586	0,060	0,096
-340,591	-10,397	0,011	0,005
-339,577	194,934	0,044	0,049
-338,562	304,759	0,033	-0,045
-337,548	-200,000	0,007	-0,057
-336,533	-200,000	-0,008	-0,072
-335,518	800,000	0,033	0,101
-334,504	-15,613	0,046	0,021
-333,489	800,000	-0,041	0,098
-332,475	619,821	0,026	0,048
-331,460	54,760	-0,126	-0,088
-330,445	-200,000	-0,005	0,025
-329,431	183,045	0,053	0,056
-328,416	-29,107	0,035	-0,014
-327,402	-200,000	0,026	0,125
-326,387	-5,581	0,038	0,019
-325,372	800,000	-0,074	-0,161
-324,358	-200,000	0,005	-0,125
-323,343	208,019	0,109	-0,123
-322,329	53,325	0,050	-0,034
-321,314	-200,000	0,004	0,148
-320,299	-27,992	0,090	-0,038
-319,285	-200,000	0,004	0,073
-318,270	-200,000	-0,003	-0,125
-317,256	28,069	0,069	-0,042
-316,241	-97,980	-0,027	0,005
-315,226	800,000	-0,015	0,036
-314,212	94,206	0,114	0,094
-313,197	-94,502	0,104	-0,020
-312,183	-146,258	-0,060	0,004
-311,168	-21,368	0,083	-0,036
-310,153	446,125	0,055	0,088
-309,139	-200,000	-0,027	-0,129
-308,124	288,985	-0,048	-0,064
-307,110	543,013	0,050	-0,087
-306,095	-200,000	-0,002	0,109
-305,080	-200,000	-0,023	0,147
-304,066	-128,737	-0,118	0,012
-303,051	800,000	-0,045	-0,095
-302,037	146,463	-0,079	0,077
-301,022	-59,104	-0,084	0,026
-300,008	-200,000	-0,007	0,160
-298,993	41,503	0,128	0,084
-297,978	-200,000	0,009	-0,060
-296,964	472,787	-0,126	-0,206
-295,949	-200,000	0,009	-0,105
-294,935	-56,907	-0,052	-0,016
-293,920	401,271	0,053	0,081
-292,905	188,342	0,101	0,110
-291,891	37,445	-0,029	-0,019
-290,876	-200,000	-0,023	-0,090
-289,862	632,522	0,018	-0,034
-288,847	-200,000	0,021	0,209
-287,832	640,380	-0,029	0,054
-286,818	-155,735	0,138	-0,006
-285,803	295,413	0,013	0,017
-284,789	7,525	0,214	-0,116
-283,774	59,249	0,041	0,029
-282,759	63,171	0,062	-0,045
-281,745	395,628	-0,043	0,065
-280,730	800,000	0,037	-0,102
-279,716	-200,000	0,008	0,048
-278,701	622,755	-0,020	0,037
-277,686	800,000	-0,005	0,010
-276,672	521,036	0,056	0,095
-275,657	-105,378	0,083	0,013
-274,643	-73,569	-0,055	0,014
-273,628	-200,000	0,012	-0,068
-272,613	-167,111	-0,090	0,003
-271,599	-40,568	-0,035	-0,013
-270,584	287,458	-0,043	-0,056
-269,570	-183,373	0,122	0,001
-268,555	176,422	0,072	0,076
-267,540	108,203	-0,013	-0,011
-266,526	-46,918	0,146	-0,051
-265,511	-153,819	-0,035	0,002
-264,497	-200,000	0,002	-0,024
-263,482	53,854	0,084	-0,058
-262,467	-200,000	0,007	0,034
-261,453	300,581	0,048	0,064
-260,438	287,613	-0,082	0,108
-259,424	-200,000	-0,011	-0,073
-258,409	-200,000	-0,008	0,119
-257,395	24,381	0,056	0,034
-256,380	-67,487	0,085	0,024
-255,365	-200,000	0,017	0,169
-254,351	257,425	-0,046	0,058
-253,336	-99,161	-0,123	0,022
-252,322	385,843	-0,104	0,156
-251,307	-200,000	-0,012	0,049
-250,292	607,630	-0,033	0,061
-249,278	-14,727	0,095	-0,044
-248,263	127,525	0,055	-0,051
-247,249	158,211	0,063	0,063
-246,234	-54,209	-0,123	0,040
-245,219	-158,762	-0,090	0,004
-244,205	707,481	-0,054	-0,103
-243,190	-88,566	-0,055	0,012
-242,176	-200,000	-0,008	0,032
-241,161	-200,000	0,027	0,137
-240,146	-41,952	0,063	-0,023
-239,132	0,945	-0,072	-0,037
-238,117	-81,093	-0,165	-0,039
-237,103	238,514	-0,062	0,075
-236,088	-129,601	0,106	-0,010
-235,073	150,443	0,156	0,153
-234,059	-9,303	0,188	0,090
-233,044	-50,775	-0,149	0,050
-232,030	295,933	-0,045	-0,059
-231,015	-135,257	-0,129	-0,011
-230,000	262,357	0,036	0,045
-228,986	-155,670	-0,078	0,004
-227,971	155,805	0,024	0,024
-226,957	-22,539	0,099	0,043
-225,942	-185,455	0,101	-0,001
-224,927	104,954	0,063	0,054
-223,913	800,000	0,037	-0,079
-222,898	3,126	-0,087	-0,046
-221,884	-59,974	0,157	0,048
-220,869	-200,000	-0,019	-0,080
-219,855	-27,460	0,150	0,063
-218,840	-200,000	0,012	0,133
-217,825	74,262	0,111	0,084
-216,811	25,688	0,049	0,029
-215,796	-200,000	-0,000	0,026
-214,782	-68,690	0,083	0,023
-213,767	344,963	-0,053	0,075
-212,752	800,000	0,023	-0,059
-211,738	800,000	0,042	0,096
-210,723	-166,207	0,065	-0,002
-209,709	716,061	-0,036	-0,070
-208,694	-115,078	0,172	-0,023
-207,679	44,548	0,061	-0,040
-206,665	74,081	0,027	-0,020
-205,650	146,101	0,037	-0,036
-204,636	800,000	0,017	0,044
-203,621	105,578	-0,114	0,097
-202,606	800,000	0,013	0,029
-201,592	800,000	-0,066	0,148
-200,577	51,337	-0,186	-0,128
-199,563	-66,135	-0,035	0,010
-198,548	-81,261	0,109	-0,026
-197,533	-18,530	0,056	-0,025
-196,519	-200,000	-0,029	0,120
-195,504	98,192	-0,019	-0,015
-194,490	99,053	0,120	0,100
-193,475	472,843	-0,066	0,107
-192,460	-143,343	0,091	-0,006
-191,446	-29,735	0,075	-0,031
-190,431	-116,499	0,021	-0,003
-189,417	191,032	0,087	0,095
-188,402	312,740	0,041	-0,056
-187,387	22,894	-0,112	-0,066
-186,373	-200,000	-0,010	-0,051
-185,358	668,233	-0,050	0,094
-184,344	-200,000	-0,001	0,097
-183,329	-64,534	0,068	0,020
-182,315	-200,000	-0,016	0,059
-181,300	-139,940	0,119	0,009
-180,285	26,227	-0,024	-0,014
-179,271	-200,000	-0,018	0,105
-178,256	118,319	-0,091	-0,081
-177,242	-200,000	0,013	0,074
-176,227	-200,000	-0,021	0,197
-175,212	-110,380	0,100	0,015
-174,198	483,781	-0,032	0,052
-173,183	800,000	0,010	0,021
-172,169	-177,500	-0,093	0,002
-171,154	-89,461	-0,047	-0,010
-170,139	258,522	0,114	0,142
-169,125	-140,279	0,154	-0,011
-168,110	-115,206	0,066	0,009
-167,096	87,159	0,049	0,039
-166,081	669,040	0,029	0,054
-165,066	136,435	-0,064	-0,060
-164,052	800,000	-0,034	0,075
-163,037	167,191	-0,120	0,123
-162,023	120,947	0,048	-0,043
-161,008	50,095	-0,189	0,128
-159,993	-57,794	0,116	-0,036
-158,979	1,812	-0,008	0,004
-157,964	423,786	-0,013	0,021
-156,950	-54,592	-0,055	-0,018
-155,935	123,749	-0,033	0,030
-154,920	-200,000	-0,003	-0,152
-153,906	-200,000	-0,008	0,083
-152,891	5,872	-0,126	0,067
-151,877	-76,935	0,055	-0,014
-150,862	21,822	-0,164	-0,096
-149,847	91,302	0,021	-0,017
-148,833	800,000	0,038	-0,083
-147,818	-94,958	0,067	-0,013
-146,804	-162,981	0,113	0,004
-145,789	800,000	0,098	0,237
-144,775	-200,000	-0,012	-0,118
-143,760	-148,417	0,179	-0,010
-142,745	561,978	-0,053	-0,093
-141,731	-87,392	0,055	0,012
-140,716	-154,076	-0,047	-0,002
-139,702	5,488	0,064	-0,034
-138,687	-189,362	-0,091	0,001
-137,672	800,000	-0,038	-0,091
-136,658	238,914	0,048	0,058
-135,643	-200,000	-0,000	0,033
-134,629	8,979	-0,039	-0,021
-133,614	111,723	0,047	0,041
-132,599	181,789	0,057	-0,061
-131,585	800,000	-0,081	0,237
-130,570	-135,703	-0,095	0,008
-129,556	-200,000	0,014	-0,068
-128,541	372,300	0,076	0,111
-127,526	45,318	-0,092	-0,061
-126,512	-113,320	0,110	-0,015
-125,497	-200,000	-0,011	-0,046
-124,483	-41,367	0,223	0,082
-123,468	-200,000	0,010	0,139
-122,453	31,871	-0,095	-0,059
-121,439	-9,639	0,049	0,023
-120,424	437,028	-0,045	0,071
-119,410	-11,418	0,032	0,015
