DTS Sentinel unit serial number:	SN410029Multiplexer serial number:	ORYXHardware model number:	OX2-SRSoftware version number:	ORYX F/W v4,00 Oryx Data Collector v3.7.2.0data status	okinstallation	B5 Nyhavnadifferential loss correction	single-endedforward channel	channel 2reverse channel	N/Adate	2023/12/12time	17:52:13forward acquisition time	300,00reverse acquisition time	0,00gamma	499,1914k internal	0,3157k external	0,3157temperature offset calibration	1,0000default loss term (dB/km)	0,3820temperature slope calibration	1,0000multiplexer offset coefficient	1,0000multiplexer slope coefficient	1,0000fibre end	0,00T internal ref (°C)	15,68T ext. ref 1 (°C)	-0,78T ext. ref 2 (°C)	-1,08length (m)	temperature (°C)	Stokes	anti-Stokes-744,400	-52,505	0,090	0,031
-743,385	35,993	-0,208	0,135
-742,371	-200,000	0,029	0,097
-741,356	-85,714	-0,279	-0,063
-740,342	414,168	0,087	0,137
-739,327	-67,764	-0,276	0,079
-738,312	-200,000	-0,001	-0,093
-737,298	-34,766	-0,255	-0,102
-736,283	800,000	0,014	0,035
-735,269	-142,297	-0,237	0,017
-734,254	-149,093	0,087	0,005
-733,239	-78,797	-0,511	-0,128
-732,225	-22,288	0,183	0,081
-731,210	-200,000	-0,004	0,125
-730,196	-151,024	0,017	0,001
-729,181	43,812	-0,075	0,050
-728,167	-7,827	0,107	-0,053
-727,152	-200,000	-0,021	0,077
-726,137	43,111	-0,107	-0,072
-725,123	-74,085	-0,162	-0,043
-724,108	237,454	-0,067	0,082
-723,094	-115,577	-0,217	-0,030
-722,079	-200,000	-0,029	-0,136
-721,064	113,384	-0,089	-0,080
-720,050	549,282	0,075	-0,134
-719,035	-111,228	-0,078	0,012
-718,021	342,973	-0,082	0,119
-717,006	84,670	-0,114	-0,092
-715,991	800,000	-0,050	-0,117
-714,977	282,074	0,037	0,049
-713,962	386,120	0,032	-0,049
-712,948	31,230	0,039	-0,024
-711,933	592,839	-0,069	0,126
-710,918	107,314	0,162	-0,142
-709,904	-77,183	-0,127	0,032
-708,889	239,185	-0,116	0,143
-707,875	501,137	0,050	-0,086
-706,860	-15,398	-0,040	0,019
-705,845	-103,487	-0,004	0,001
-704,831	-200,000	-0,013	0,102
-703,816	-64,000	-0,058	-0,017
-702,802	26,527	-0,053	0,032
-701,787	-89,914	0,067	-0,014
-700,772	156,833	-0,082	-0,083
-699,758	-200,000	0,004	-0,029
-698,743	-200,000	-0,005	-0,093
-697,729	800,000	0,073	0,181
-696,714	-104,271	-0,083	-0,014
-695,699	34,281	-0,149	-0,095
-694,685	-37,954	-0,032	-0,012
-693,670	-22,948	0,036	0,016
-692,656	-200,000	0,049	0,194
-691,641	79,466	-0,016	0,012
-690,627	-134,190	-0,080	0,007
-689,612	-31,267	0,129	-0,053
-688,597	-2,774	-0,127	0,065
-687,583	-24,523	-0,033	0,014
-686,568	197,565	-0,102	-0,115
-685,554	-26,822	-0,076	-0,033
-684,539	26,779	0,058	0,035
-683,524	-200,000	0,002	-0,102
-682,510	-90,108	-0,160	0,034
-681,495	-200,000	0,001	-0,027
-680,481	1,311	-0,040	-0,021
-679,466	-148,861	0,093	-0,005
-678,451	281,895	-0,039	-0,051
-677,437	800,000	-0,103	0,212
-676,422	-200,000	-0,006	0,106
-675,408	160,870	0,099	0,102
-674,393	-126,770	-0,069	-0,007
-673,378	-69,185	-0,080	-0,023
-672,364	-73,737	-0,111	-0,029
-671,349	89,787	-0,095	0,078
-670,335	-160,121	0,167	0,007
-669,320	508,567	0,003	0,006
-668,305	-129,432	0,020	-0,002
-667,291	-200,000	0,005	-0,102
-666,276	-29,411	-0,149	0,063
-665,262	-200,000	-0,011	-0,069
-664,247	800,000	-0,030	0,067
-663,232	800,000	0,003	-0,008
-662,218	-103,525	-0,034	-0,006
-661,203	-200,000	0,026	-0,157
-660,189	-41,331	-0,111	-0,042
-659,174	95,123	-0,019	0,016
-658,159	-143,595	-0,070	-0,005
-657,145	751,047	0,071	-0,142
-656,130	-200,000	-0,005	-0,028
-655,116	324,588	-0,073	-0,103
-654,101	800,000	-0,017	0,051
-653,086	-136,401	-0,075	0,006
-652,072	130,325	0,066	0,062
-651,057	24,019	-0,069	-0,042
-650,043	46,414	-0,134	-0,091
-649,028	-200,000	0,015	-0,077
-648,014	-38,632	0,056	0,021
-646,999	119,062	-0,102	0,093
-645,984	-134,255	-0,038	0,003
-644,970	36,992	-0,106	-0,069
-643,955	135,496	-0,035	-0,034
-642,941	-166,205	-0,051	-0,002
-641,926	-200,000	-0,014	-0,113
-640,911	234,769	-0,031	-0,038
-639,897	-136,368	0,122	0,010
-638,882	61,871	-0,035	-0,026
-637,868	-200,000	-0,009	0,047
-636,853	-70,208	0,020	0,005
-635,838	44,671	-0,159	-0,107
-634,824	546,967	0,021	-0,038
-633,809	158,013	0,066	-0,068
-632,795	-1,063	-0,142	0,073
-631,780	800,000	-0,064	-0,151
-630,765	-200,000	0,004	-0,148
-629,751	418,873	-0,039	-0,061
-628,736	-128,121	-0,067	-0,007
-627,722	-200,000	0,003	0,038
-626,707	-200,000	0,009	0,164
-625,692	800,000	0,030	0,082
-624,678	612,717	-0,039	-0,072
-623,663	-200,000	-0,002	0,144
-622,649	-200,000	-0,021	-0,084
-621,634	-99,160	0,088	-0,016
-620,619	-200,000	-0,011	-0,044
-619,605	38,750	0,036	0,024
-618,590	800,000	-0,016	0,037
-617,576	53,877	-0,141	0,099
-616,561	198,927	0,055	-0,061
-615,546	-154,034	-0,169	-0,008
-614,532	45,820	-0,167	-0,113
-613,517	800,000	-0,022	-0,070
-612,503	358,464	-0,051	-0,075
-611,488	571,329	0,039	0,070
-610,474	-141,656	0,069	-0,005
-609,459	-144,942	0,096	-0,006
-608,444	475,732	0,054	0,090
-607,430	-66,432	0,047	-0,014
-606,415	168,049	-0,055	0,057
-605,401	343,113	0,101	0,146
-604,386	-14,582	0,106	-0,050
-603,371	509,729	0,008	-0,014
-602,357	-138,181	-0,068	0,005
-601,342	800,000	0,029	-0,064
-600,328	115,316	-0,070	-0,063
-599,313	-200,000	0,014	-0,082
-598,298	44,094	-0,085	-0,057
-597,284	-200,000	0,039	-0,130
-596,269	800,000	0,030	-0,094
-595,255	156,542	0,110	0,112
-594,240	-90,080	-0,114	-0,024
-593,225	106,474	-0,123	-0,107
-592,211	27,931	-0,034	-0,021
-591,196	-92,354	-0,063	0,013
-590,182	280,414	0,045	0,059
-589,167	162,846	0,192	0,198
-588,152	800,000	-0,005	0,011
-587,138	-200,000	0,017	-0,131
-586,123	800,000	-0,043	-0,092
-585,109	-200,000	-0,015	0,072
-584,094	57,153	-0,049	-0,035
-583,079	-200,000	0,038	-0,136
-582,065	-99,114	-0,057	0,010
-581,050	-66,986	0,092	-0,026
-580,036	68,447	-0,030	0,023
-579,021	-200,000	0,017	-0,068
-578,006	543,680	0,094	-0,164
-576,992	-71,535	0,137	0,037
-575,977	-200,000	0,019	0,154
-574,963	-138,987	-0,048	-0,004
-573,948	-200,000	-0,029	-0,161
-572,934	-147,249	-0,138	0,008
-571,919	194,234	-0,078	-0,086
-570,904	-200,000	0,029	-0,123
-569,890	436,716	-0,068	0,108
-568,875	-136,987	0,110	-0,009
-567,861	95,971	-0,039	0,033
-566,846	81,838	0,045	-0,036
-565,831	183,040	0,076	-0,083
-564,817	-115,151	-0,039	-0,005
-563,802	800,000	0,045	-0,108
-562,788	-200,000	0,015	-0,101
-561,773	253,452	-0,095	0,119
-560,758	9,832	0,145	0,080
-559,744	-200,000	-0,009	0,072
-558,729	625,716	0,038	0,070
-557,715	-87,501	-0,099	0,022
-556,700	575,887	-0,069	-0,123
-555,685	3,161	-0,069	0,037
-554,671	-112,411	-0,047	-0,007
-553,656	455,426	0,047	0,077
-552,642	-30,397	-0,061	-0,025
-551,627	-125,021	0,087	0,010
-550,612	-200,000	-0,030	0,157
-549,598	-58,271	-0,133	-0,042
-548,583	-200,000	0,026	0,094
-547,569	27,762	-0,049	0,030
-546,554	141,495	0,052	0,050
-545,539	-200,000	0,013	0,061
-544,525	-200,000	-0,000	-0,054
-543,510	8,773	-0,052	-0,029
-542,496	407,035	0,047	-0,072
-541,481	-4,518	0,068	-0,034
-540,466	18,574	-0,159	-0,093
-539,452	-30,110	0,079	-0,033
-538,437	-83,334	-0,069	-0,016
-537,423	713,710	0,022	-0,042
-536,408	736,659	-0,023	0,045
-535,393	-89,304	0,047	-0,010
-534,379	-22,786	0,026	0,011
-533,364	-200,000	-0,006	-0,109
-532,350	68,978	0,024	0,018
-531,335	-200,000	0,016	0,115
-530,321	-200,000	-0,004	0,170
-529,306	-14,088	0,062	0,029
-528,291	-200,000	-0,035	0,143
-527,277	-137,060	-0,195	0,016
-526,262	22,599	0,143	0,085
-525,248	188,051	-0,066	0,073
-524,233	411,223	0,064	0,100
-523,218	247,783	0,063	0,078
-522,204	95,972	0,032	-0,027
-521,189	-200,000	0,014	0,061
-520,175	279,877	-0,041	-0,054
-519,160	-200,000	-0,007	0,133
-518,145	354,386	0,090	0,132
-517,131	800,000	-0,035	-0,090
-516,116	-133,606	0,083	0,008
-515,102	-21,052	-0,076	0,034
-514,087	-200,000	-0,023	-0,087
-513,072	800,000	-0,048	-0,106
-512,058	-200,000	-0,025	0,096
-511,043	245,774	-0,046	-0,057
-510,029	223,386	0,075	0,088
-509,014	-137,542	0,034	0,003
-507,999	355,336	0,097	0,141
-506,985	-192,868	0,062	0,000
-505,970	-200,000	-0,032	0,131
-504,956	85,276	0,081	0,065
-503,941	245,493	-0,111	0,136
-502,926	218,366	-0,025	-0,029
-501,912	573,792	-0,035	0,063
-500,897	-200,000	-0,006	-0,084
-499,883	-91,568	-0,090	0,019
-498,868	35,875	0,137	-0,088
-497,853	-200,000	0,005	-0,204
-496,839	152,109	0,021	-0,021
-495,824	-200,000	-0,018	0,087
-494,810	-200,000	-0,001	0,024
-493,795	139,341	0,071	-0,069
-492,781	800,000	-0,033	-0,076
-491,766	125,757	0,043	-0,039
-490,751	-55,992	-0,108	0,035
-489,737	177,118	-0,035	-0,037
-488,722	18,664	-0,065	0,038
-487,708	-200,000	-0,001	-0,022
-486,693	800,000	0,042	0,125
-485,678	680,414	0,031	-0,059
-484,664	778,437	0,075	-0,150
-483,649	444,791	0,015	0,024
-482,635	800,000	0,017	-0,051
-481,620	156,858	0,061	0,062
-480,605	-74,318	-0,090	-0,024
-479,591	-22,783	-0,032	-0,014
-478,576	94,352	0,035	0,029
-477,562	-15,391	-0,121	0,056
-476,547	-129,643	-0,043	0,004
-475,532	800,000	0,025	-0,070
-474,518	-105,173	0,128	0,021
-473,503	-200,000	-0,013	0,043
-472,489	0,287	0,073	-0,038
-471,474	800,000	0,048	-0,138
-470,459	164,497	-0,046	0,047
-469,445	-200,000	0,016	-0,067
-468,430	800,000	0,039	0,080
-467,416	-64,335	0,183	-0,054
-466,401	-5,305	0,149	-0,075
-465,386	-24,440	-0,059	-0,025
-464,372	231,250	0,052	0,063
-463,357	-200,000	0,009	-0,100
-462,343	-110,565	0,021	0,003
-461,328	20,721	0,068	-0,040
-460,313	-83,054	0,085	0,020
-459,299	-200,000	0,010	0,141
-458,284	-200,000	0,037	0,247
-457,270	78,610	-0,080	0,063
-456,255	-42,379	-0,066	0,025
-455,241	-200,000	0,014	-0,122
-454,226	-84,306	0,036	0,008
-453,211	-200,000	0,005	0,145
-452,197	286,526	0,079	0,104
-451,182	-36,991	-0,059	0,023
-450,168	-37,102	0,065	-0,025
-449,153	348,125	-0,073	0,106
-448,138	-200,000	-0,026	-0,192
-447,124	211,630	0,071	-0,082
-446,109	-52,119	0,228	0,077
-445,095	5,993	0,102	-0,055
-444,080	280,977	-0,079	0,104
-443,065	202,107	-0,012	0,013
-442,051	-200,000	0,031	0,126
-441,036	-129,903	-0,042	0,004
-440,022	-64,836	0,088	-0,026
-439,007	800,000	-0,031	-0,076
-437,992	-129,796	0,138	0,014
-436,978	48,073	-0,052	0,036
-435,963	217,533	0,063	0,073
-434,949	-52,468	0,028	0,009
-433,934	-147,244	-0,119	-0,007
-432,919	204,539	-0,079	0,089
-431,905	-200,000	-0,002	0,109
-430,890	310,766	0,041	0,057
-429,876	126,382	0,101	0,093
-428,861	800,000	0,029	0,062
-427,846	310,450	0,049	-0,067
-426,832	302,986	0,050	0,067
-425,817	747,434	-0,040	0,080
-424,803	-47,476	-0,190	-0,067
-423,788	431,157	0,036	0,057
-422,773	-200,000	-0,002	0,069
-421,759	-32,305	-0,098	0,040
-420,744	-200,000	-0,009	-0,081
-419,730	-19,198	-0,081	-0,036
-418,715	-165,825	0,062	-0,002
-417,701	-200,000	-0,050	0,168
-416,686	96,992	0,020	0,017
-415,671	-200,000	-0,023	-0,085
-414,657	-200,000	0,044	0,141
-413,642	52,934	-0,102	-0,071
-412,628	224,281	0,064	-0,076
-411,613	-48,010	0,028	-0,010
-410,598	215,693	-0,012	-0,014
-409,584	-44,063	-0,074	0,027
-408,569	703,377	-0,050	-0,096
-407,555	70,977	0,113	0,085
-406,540	431,520	-0,053	0,083
-405,525	-93,205	-0,012	0,002
-404,511	78,148	-0,020	0,015
-403,496	114,177	0,089	0,079
-402,482	-200,000	0,009	0,158
-401,467	800,000	0,032	0,087
-400,452	275,951	-0,063	0,081
-399,438	-59,998	0,062	-0,019
-398,423	-200,000	-0,026	-0,127
-397,409	800,000	-0,051	0,143
-396,394	800,000	0,066	-0,140
-395,379	800,000	0,047	-0,113
-394,365	-200,000	0,018	-0,158
-393,350	-24,864	-0,060	-0,026
-392,336	800,000	0,021	-0,058
-391,321	146,598	-0,055	0,054
-390,306	-200,000	-0,005	-0,092
-389,292	155,363	0,090	-0,090
-388,277	-113,504	-0,153	-0,022
-387,263	172,390	0,040	-0,042
-386,248	-200,000	-0,004	0,053
-385,233	-200,000	0,021	-0,148
-384,219	-200,000	0,012	0,055
-383,204	38,383	-0,135	-0,088
-382,190	56,248	-0,136	-0,096
-381,175	229,995	0,073	-0,087
-380,160	-200,000	0,003	-0,014
-379,146	-72,174	-0,121	0,032
-378,131	-200,000	0,046	-0,180
-377,117	-137,071	-0,165	-0,014
-376,102	214,847	0,103	-0,119
-375,088	-200,000	0,007	-0,112
-374,073	800,000	0,037	-0,100
-373,058	-66,695	0,121	0,035
-372,044	81,671	-0,022	0,017
-371,029	-123,505	0,074	-0,008
-370,015	-200,000	-0,001	0,014
-369,000	-7,497	0,041	0,020
-367,985	-124,909	0,146	0,016
-366,971	5,569	-0,064	-0,034
-365,956	62,954	0,101	0,073
-364,942	-200,000	-0,017	0,093
-363,927	49,926	-0,096	-0,066
-362,912	225,275	0,023	-0,027
-361,898	-200,000	0,004	-0,114
-360,883	-200,000	-0,003	0,045
-359,869	21,632	-0,075	0,044
-358,854	-200,000	0,020	0,083
-357,839	715,898	0,049	0,094
-356,825	-200,000	0,010	0,086
-355,810	-200,000	0,015	0,084
-354,796	-200,000	-0,028	-0,130
-353,781	571,956	0,021	0,037
-352,766	-46,692	0,055	0,019
-351,752	495,813	-0,041	0,069
-350,737	-200,000	-0,002	-0,047
-349,723	219,785	0,026	0,030
-348,708	-200,000	0,006	-0,052
-347,693	258,389	-0,060	-0,075
-346,679	-103,543	0,016	-0,003
-345,664	488,955	0,051	0,085
-344,650	-200,000	0,019	-0,069
-343,635	-0,775	0,122	0,062
-342,620	800,000	0,028	-0,060
-341,606	302,299	-0,078	0,104
-340,591	-200,000	-0,044	0,144
-339,577	115,551	-0,100	0,089
-338,562	181,690	-0,111	-0,118
-337,548	-0,880	-0,128	-0,065
-336,533	800,000	0,018	0,038
-335,518	-200,000	0,025	-0,141
-334,504	504,125	0,039	0,065
-333,489	-130,535	-0,110	0,011
-332,475	40,867	0,099	-0,065
-331,460	800,000	-0,034	-0,077
-330,445	-40,045	-0,032	-0,012
-329,431	-200,000	0,017	0,115
-328,416	671,387	0,062	0,117
-327,402	413,561	0,017	0,027
-326,387	255,417	-0,040	-0,050
-325,372	-27,681	-0,065	0,027
-324,358	103,778	0,037	0,032
-323,343	-158,846	-0,153	-0,006
-322,329	-200,000	0,032	-0,169
-321,314	800,000	0,027	-0,058
-320,299	800,000	-0,013	-0,029
-319,285	800,000	-0,037	0,116
-318,270	32,256	-0,170	-0,106
-317,256	800,000	0,041	-0,120
-316,241	361,482	-0,080	-0,116
-315,226	-0,583	-0,068	-0,035
-314,212	-200,000	0,000	0,100
-313,197	800,000	-0,033	0,082
-312,183	101,368	-0,109	0,092
-311,168	-15,223	0,006	0,003
-310,153	-129,734	-0,107	0,011
-309,139	-94,638	-0,029	-0,006
-308,124	503,059	0,046	0,078
-307,110	-200,000	-0,005	0,064
-306,095	93,673	0,176	0,145
-305,080	701,598	0,017	0,032
-304,066	261,830	0,022	0,028
-303,051	-0,806	-0,051	-0,026
-302,037	-12,668	0,119	-0,056
-301,022	654,038	-0,069	-0,129
-300,008	14,499	0,142	0,080
-298,993	-115,576	-0,081	-0,011
-297,978	38,408	-0,132	0,085
-296,964	27,330	-0,059	0,036
-295,949	-200,000	-0,003	-0,089
-294,935	-85,536	-0,094	-0,021
-293,920	-93,117	-0,131	-0,026
-292,905	538,901	0,043	0,075
-291,891	-103,016	-0,041	-0,007
-290,876	756,930	0,028	-0,055
-289,862	-200,000	-0,005	0,118
-288,847	142,288	-0,069	0,067
-287,832	18,250	0,079	0,046
-286,818	-3,344	0,153	-0,077
-285,803	273,710	0,100	-0,128
-284,789	103,783	-0,086	0,073
-283,774	-1,208	0,125	0,064
-282,759	-161,084	0,013	0,000
-281,745	800,000	-0,064	-0,133
-280,730	800,000	0,027	-0,062
-279,716	-95,965	0,030	0,006
-278,701	-123,813	0,100	-0,011
-277,686	-200,000	0,012	0,071
-276,672	-33,539	0,179	0,071
-275,657	409,410	0,064	0,098
-274,643	-129,662	-0,094	0,009
-273,628	800,000	-0,016	-0,036
-272,613	137,102	0,044	-0,041
-271,599	-63,190	0,023	-0,007
-270,584	544,062	-0,076	0,132
-269,570	-128,611	0,092	-0,009
-268,555	-200,000	0,001	-0,031
-267,540	263,546	0,072	-0,091
-266,526	101,740	-0,144	-0,122
-265,511	189,133	-0,062	-0,068
-264,497	596,703	-0,023	0,041
-263,482	-200,000	-0,003	-0,081
-262,467	267,906	-0,061	0,077
-261,453	-200,000	0,022	0,111
-260,438	-109,023	-0,065	0,010
-259,424	800,000	0,042	-0,131
-258,409	229,571	0,054	0,064
-257,395	-200,000	0,003	0,159
-256,380	-41,973	0,171	0,063
-255,365	11,763	-0,048	0,027
-254,351	463,882	-0,058	0,094
-253,336	54,945	-0,033	-0,023
-252,322	-200,000	0,012	-0,048
-251,307	410,020	-0,081	0,124
-250,292	800,000	0,052	0,130
-249,278	110,824	0,028	-0,024
-248,263	-200,000	0,105	-0,000
-247,249	-153,988	0,113	0,005
-246,234	220,350	-0,055	0,064
-245,219	107,068	-0,100	-0,086
-244,205	-200,000	0,011	-0,049
-243,190	-82,564	0,076	0,018
-242,176	-45,731	-0,048	-0,017
-241,161	43,863	0,102	0,068
-240,146	431,014	0,043	-0,068
-239,132	483,454	-0,056	-0,093
-238,117	38,591	0,072	0,046
-237,103	60,918	-0,117	-0,084
-236,088	-200,000	-0,026	0,095
-235,073	-145,879	0,199	-0,013
-234,059	20,230	0,160	0,093
-233,044	32,391	0,100	0,062
-232,030	200,206	-0,015	-0,017
-231,015	-200,000	-0,024	0,096
-230,000	156,614	-0,132	-0,131
-228,986	800,000	0,035	0,084
-227,971	-200,000	-0,008	0,053
-226,957	66,745	0,076	-0,056
-225,942	672,659	0,072	-0,136
-224,927	-35,470	-0,036	0,014
-223,913	-85,115	-0,113	-0,025
-222,898	-200,000	0,018	0,104
-221,884	473,955	-0,060	-0,098
-220,869	-200,000	-0,008	0,105
-219,855	-200,000	-0,006	0,111
-218,840	441,570	0,077	0,121
-217,825	-200,000	-0,012	-0,060
-216,811	-45,109	-0,043	-0,015
-215,796	-137,414	0,152	0,012
-214,782	22,780	-0,109	-0,064
-213,767	-37,086	-0,014	-0,006
-212,752	304,605	0,065	-0,087
-211,738	728,850	-0,047	-0,092
-210,723	-54,338	0,075	-0,025
-209,709	-200,000	0,000	-0,026
-208,694	-200,000	0,016	-0,106
-207,679	800,000	-0,051	-0,117
-206,665	52,031	0,075	0,052
-205,650	-174,898	-0,090	0,002
-204,636	-51,384	0,077	-0,026
-203,621	-40,071	0,110	0,041
-202,606	-58,540	-0,126	0,039
-201,592	303,631	0,067	-0,089
-200,577	-200,000	-0,005	-0,087
-199,563	-200,000	-0,003	-0,128
-198,548	-200,000	-0,033	-0,165
-197,533	86,752	0,063	0,050
-196,519	-200,000	-0,050	0,166
-195,504	186,844	-0,081	0,087
-194,490	800,000	-0,074	-0,152
-193,475	165,671	0,027	-0,028
-192,460	48,000	-0,063	0,043
-191,446	800,000	0,022	0,060
-190,431	-34,352	0,058	-0,023
-189,417	-200,000	-0,001	0,008
-188,402	-200,000	-0,015	-0,091
-187,387	-200,000	-0,006	-0,034
-186,373	-71,538	-0,155	0,042
-185,358	-200,000	-0,002	0,017
-184,344	-200,000	0,001	0,129
-183,329	384,067	0,013	0,020
-182,315	110,459	0,082	0,071
-181,300	800,000	-0,043	0,089
-180,285	-200,000	0,004	0,075
-179,271	-156,180	0,047	0,002
-178,256	800,000	0,051	-0,144
-177,242	-85,498	0,015	-0,003
-176,227	-188,378	-0,094	0,001
-175,212	5,716	-0,086	-0,046
-174,198	-96,481	-0,059	-0,011
-173,183	300,601	-0,114	-0,153
-172,169	195,445	-0,060	-0,066
-171,154	575,928	0,059	-0,104
-170,139	-200,000	-0,012	-0,047
-169,125	750,955	0,043	-0,084
-168,110	204,283	0,026	0,029
-167,096	800,000	-0,040	-0,081
-166,081	-200,000	0,001	-0,012
-165,066	42,964	0,017	0,011
-164,052	800,000	-0,050	0,147
-163,037	256,704	0,033	-0,041
-162,023	800,000	0,017	-0,037
-161,008	-36,011	-0,075	0,029
-159,993	-200,000	-0,002	-0,078
-158,979	-123,177	0,089	0,010
-157,964	-200,000	-0,061	-0,198
-156,950	29,256	0,053	0,032
-155,935	800,000	0,061	0,169
-154,920	719,645	-0,043	0,084
-153,906	-90,468	0,132	-0,027
-152,891	-130,178	-0,050	0,005
-151,877	-104,379	0,085	0,014
-150,862	385,224	0,069	-0,104
-149,847	800,000	-0,039	-0,105
-148,833	161,263	-0,101	-0,102
-147,818	526,937	-0,101	-0,172
-146,804	-49,600	0,124	-0,042
-145,789	-200,000	-0,027	0,133
-144,775	-200,000	0,009	0,089
-143,760	776,617	-0,032	-0,064
-142,745	800,000	0,036	-0,088
-141,731	-200,000	-0,009	-0,080
-140,716	611,503	-0,045	0,081
-139,702	226,471	0,024	-0,028
-138,687	-50,559	0,130	-0,044
-137,672	48,410	0,050	0,034
-136,658	800,000	-0,039	-0,118
-135,643	-22,505	0,068	-0,030
-134,629	5,601	0,039	0,021
-133,614	-158,470	0,076	0,003
-132,599	-193,063	0,044	-0,000
-131,585	800,000	0,039	0,081
-130,570	101,712	-0,050	-0,042
-129,556	-104,081	0,095	0,016
-128,541	-86,367	-0,095	-0,021
-127,526	110,351	-0,063	0,054
-126,512	65,148	0,086	-0,062
-125,497	465,807	0,092	0,149
-124,483	0,499	0,126	0,065
-123,468	140,386	0,047	-0,045
-122,453	197,750	-0,056	0,062
-121,439	-26,298	-0,099	-0,042
-120,424	23,701	-0,102	0,061
-119,410	246,081	0,039	0,047
