DTS Sentinel unit serial number:	SN410029Multiplexer serial number:	ORYXHardware model number:	OX2-SRSoftware version number:	ORYX F/W v4,00 Oryx Data Collector v3.7.2.0data status	okinstallation	B5 Nyhavnadifferential loss correction	single-endedforward channel	channel 2reverse channel	N/Adate	2023/12/12time	18:07:13forward acquisition time	300,00reverse acquisition time	0,00gamma	499,1914k internal	0,3157k external	0,3157temperature offset calibration	1,0000default loss term (dB/km)	0,3820temperature slope calibration	1,0000multiplexer offset coefficient	1,0000multiplexer slope coefficient	1,0000fibre end	0,00T internal ref (°C)	15,64T ext. ref 1 (°C)	-0,80T ext. ref 2 (°C)	-1,13length (m)	temperature (°C)	Stokes	anti-Stokes-744,400	-200,000	-0,024	-0,080
-743,385	-102,517	-0,245	0,043
-742,371	-200,000	-0,001	-0,007
-741,356	-90,455	-0,327	0,069
-740,342	98,614	-0,022	0,018
-739,327	-26,685	-0,354	-0,152
-738,312	-62,998	0,121	0,037
-737,298	-141,547	-0,286	0,021
-736,283	92,515	0,154	0,128
-735,269	-37,907	-0,320	0,125
-734,254	-122,009	0,138	-0,016
-733,239	-105,176	-0,574	-0,096
-732,225	30,674	0,138	-0,087
-731,210	-200,000	-0,002	0,074
-730,196	437,926	0,036	-0,058
-729,181	-200,000	0,004	-0,039
-728,167	-181,350	-0,209	0,003
-727,152	101,115	-0,097	-0,083
-726,137	-165,159	-0,188	-0,006
-725,123	-55,209	-0,156	-0,051
-724,108	-100,497	-0,118	-0,021
-723,094	97,487	-0,068	-0,057
-722,079	125,281	-0,156	-0,145
-721,064	-200,000	0,004	-0,045
-720,050	-13,258	-0,082	0,039
-719,035	-90,887	-0,128	-0,027
-718,021	-200,000	-0,036	-0,117
-717,006	218,971	0,055	-0,065
-715,991	566,774	-0,065	-0,116
-714,977	-16,779	0,040	-0,019
-713,962	229,771	0,017	-0,021
-712,948	-200,000	0,015	0,051
-711,933	195,740	-0,100	0,112
-710,918	800,000	-0,026	0,081
-709,904	146,236	0,034	0,033
-708,889	5,109	-0,102	-0,055
-707,875	-200,000	-0,006	-0,154
-706,860	-200,000	-0,009	0,078
-705,845	-200,000	-0,012	0,114
-704,831	-200,000	-0,009	-0,059
-703,816	-200,000	0,010	-0,049
-702,802	448,351	-0,059	-0,096
-701,787	119,909	-0,012	-0,011
-700,772	-200,000	-0,009	-0,038
-699,758	2,179	0,107	-0,057
-698,743	-1,588	0,112	0,058
-697,729	169,941	0,060	0,063
-696,714	105,443	-0,058	0,050
-695,699	800,000	-0,042	-0,134
-694,685	71,319	0,045	0,034
-693,670	197,588	-0,029	0,032
-692,656	-16,604	-0,101	-0,047
-691,641	800,000	-0,025	0,074
-690,627	122,036	-0,031	-0,029
-689,612	-200,000	-0,010	0,049
-688,597	783,062	-0,044	-0,089
-687,583	47,707	-0,090	-0,062
-686,568	67,238	0,159	-0,119
-685,554	278,540	0,056	-0,074
-684,539	797,534	-0,024	-0,048
-683,524	-200,000	0,019	0,141
-682,510	-10,960	0,061	0,030
-681,495	-200,000	0,012	0,074
-680,481	19,983	-0,101	-0,060
-679,466	151,540	-0,016	-0,016
-678,451	-48,280	-0,070	-0,025
-677,437	-200,000	-0,028	0,094
-676,422	141,248	0,105	0,102
-675,408	87,953	0,103	-0,084
-674,393	16,831	-0,081	0,047
-673,378	771,681	-0,017	-0,034
-672,364	50,922	-0,030	0,021
-671,349	-200,000	-0,039	-0,130
-670,335	124,564	0,031	-0,028
-669,320	-129,963	-0,026	0,003
-668,305	-200,000	0,011	0,054
-667,291	126,504	0,046	0,043
-666,276	-25,249	-0,064	0,028
-665,262	435,315	0,048	0,077
-664,247	-200,000	-0,003	-0,166
-663,232	-4,903	-0,067	-0,034
-662,218	488,044	-0,108	0,182
-661,203	-181,500	-0,113	-0,002
-660,189	800,000	0,050	-0,109
-659,174	108,860	-0,047	-0,041
-658,159	800,000	-0,038	-0,099
-657,145	-109,327	-0,013	0,002
-656,130	-200,000	-0,021	0,098
-655,116	-85,239	-0,069	0,016
-654,101	59,746	0,046	0,033
-653,086	-200,000	0,012	-0,189
-652,072	2,886	-0,078	-0,042
-651,057	-200,000	-0,103	-0,000
-650,043	232,337	-0,047	-0,057
-649,028	-84,748	-0,071	-0,016
-648,014	69,824	0,118	-0,089
-646,999	-170,814	-0,046	-0,001
-645,984	-121,153	-0,062	-0,008
-644,970	525,581	-0,014	-0,024
-643,955	1,286	-0,102	-0,054
-642,941	-105,922	-0,101	-0,017
-641,926	-200,000	0,021	0,123
-640,911	-200,000	0,006	-0,054
-639,897	800,000	-0,012	0,029
-638,882	-150,525	-0,027	-0,001
-637,868	94,273	-0,044	0,037
-636,853	800,000	-0,017	0,039
-635,838	168,543	-0,031	-0,032
-634,824	-200,000	-0,033	-0,127
-633,809	-140,752	0,039	-0,003
-632,795	-200,000	-0,015	-0,090
-631,780	251,524	-0,048	0,060
-630,765	-31,279	-0,138	0,057
-629,751	143,512	-0,104	0,101
-628,736	249,196	-0,069	-0,086
-627,722	709,029	0,048	0,095
-626,707	-49,686	-0,056	-0,020
-625,692	270,287	0,089	-0,115
-624,678	437,321	-0,053	0,085
-623,663	23,298	-0,067	0,040
-622,649	800,000	0,013	-0,029
-621,634	252,179	-0,059	0,073
-620,619	-164,288	0,083	0,003
-619,605	-200,000	-0,002	0,014
-618,590	119,057	0,050	-0,046
-617,576	34,748	-0,102	-0,065
-616,561	-200,000	-0,038	0,152
-615,546	207,152	0,021	0,024
-614,532	-200,000	0,029	-0,104
-613,517	-18,347	-0,038	-0,018
-612,503	-200,000	-0,001	-0,005
-611,488	-200,000	0,043	-0,206
-610,474	-200,000	0,000	0,043
-609,459	-23,826	0,109	0,048
-608,444	321,686	-0,110	-0,154
-607,430	800,000	0,019	-0,053
-606,415	-151,788	-0,099	0,005
-605,401	-200,000	-0,004	0,029
-604,386	-1,498	0,066	0,034
-603,371	352,504	-0,074	-0,108
-602,357	60,958	0,055	0,040
-601,342	-34,527	-0,051	0,021
-600,328	234,576	-0,101	-0,123
-599,313	261,423	0,015	-0,019
-598,298	181,788	-0,054	0,058
-597,284	4,640	0,130	0,070
-596,269	190,892	0,072	0,080
-595,255	-200,000	-0,012	0,093
-594,240	800,000	0,006	-0,017
-593,225	800,000	-0,024	0,051
-592,211	96,518	-0,070	-0,059
-591,196	676,354	0,103	0,197
-590,182	514,215	0,043	-0,075
-589,167	-4,319	-0,032	-0,016
-588,152	-127,042	-0,061	-0,006
-587,138	800,000	-0,021	-0,056
-586,123	98,831	-0,092	-0,078
-585,109	-200,000	0,005	-0,062
-584,094	-200,000	-0,007	0,093
-583,079	612,467	0,119	0,219
-582,065	5,775	-0,032	-0,017
-581,050	-200,000	-0,003	0,093
-580,036	-200,000	-0,018	0,098
-579,021	234,287	0,014	0,017
-578,006	-88,592	-0,136	-0,029
-576,992	-200,000	-0,030	-0,123
-575,977	83,803	0,157	0,125
-574,963	-200,000	-0,014	0,057
-573,948	2,108	0,056	-0,029
-572,934	-158,011	0,118	0,005
-571,919	-200,000	0,014	-0,059
-570,904	631,476	0,069	-0,129
-569,890	800,000	-0,037	-0,112
-568,875	-200,000	0,005	0,072
-567,861	16,615	0,084	-0,048
-566,846	-200,000	0,001	0,157
-565,831	800,000	-0,049	-0,117
-564,817	137,655	-0,023	0,022
-563,802	800,000	-0,025	-0,053
-562,788	41,249	0,073	-0,048
-561,773	800,000	0,052	-0,115
-560,758	155,451	0,108	-0,108
-559,744	800,000	0,047	-0,150
-558,729	9,875	-0,047	-0,026
-557,715	221,917	-0,123	-0,145
-556,700	437,706	0,066	-0,106
-555,685	-200,000	-0,020	-0,095
-554,671	454,074	0,012	-0,020
-553,656	800,000	-0,040	-0,092
-552,642	-200,000	0,014	-0,067
-551,627	-200,000	0,036	0,181
-550,612	186,540	-0,075	0,082
-549,598	236,495	0,039	-0,047
-548,583	153,627	-0,072	0,072
-547,569	800,000	-0,078	0,165
-546,554	753,832	0,061	-0,121
-545,539	13,083	-0,093	-0,053
-544,525	-78,497	0,045	-0,011
-543,510	-95,502	-0,076	0,015
-542,496	-111,824	-0,198	0,029
-541,481	-66,654	0,020	0,006
-540,466	127,412	-0,025	-0,023
-539,452	69,243	-0,028	-0,021
-538,437	800,000	-0,057	0,124
-537,423	-200,000	0,019	-0,073
-536,408	575,102	-0,022	-0,039
-535,393	800,000	-0,016	0,038
-534,379	-140,326	0,055	0,004
-533,364	-200,000	0,002	-0,008
-532,350	49,204	0,131	0,090
-531,335	324,347	0,054	0,076
-530,321	800,000	0,060	0,152
-529,306	-200,000	0,026	0,137
-528,291	-200,000	0,003	-0,114
-527,277	384,328	-0,056	-0,084
-526,262	350,151	-0,039	-0,056
-525,248	27,652	0,129	0,079
-524,233	-86,003	0,149	0,033
-523,218	-200,000	0,023	0,080
-522,204	-200,000	0,012	0,088
-521,189	81,635	-0,131	-0,104
-520,175	-97,766	-0,065	-0,012
-519,160	-127,813	0,097	-0,010
-518,145	53,404	0,071	0,049
-517,131	187,824	-0,085	0,093
-516,116	-14,762	0,102	-0,048
-515,102	97,944	-0,083	0,070
-514,087	-137,009	0,031	0,003
-513,072	-24,907	-0,115	-0,050
-512,058	-200,000	-0,026	-0,169
-511,043	440,540	0,051	-0,081
-510,029	-200,000	0,019	-0,089
-509,014	133,980	-0,040	-0,038
-507,999	352,275	0,053	0,077
-506,985	-200,000	-0,053	-0,184
-505,970	-18,028	-0,056	0,025
-504,956	-91,765	-0,011	-0,002
-503,941	-8,287	-0,112	-0,055
-502,926	220,732	0,075	0,088
-501,912	-200,000	0,040	0,206
-500,897	-9,551	-0,072	0,035
-499,883	19,613	-0,127	0,074
-498,868	800,000	-0,045	-0,093
-497,853	-42,149	0,037	-0,014
-496,839	-200,000	0,016	-0,113
-495,824	800,000	0,073	0,201
-494,810	-113,505	0,099	0,014
-493,795	285,691	0,063	0,084
-492,781	-161,931	-0,061	0,002
-491,766	-200,000	0,002	-0,071
-490,751	112,936	0,097	-0,086
-489,737	247,112	-0,091	0,113
-488,722	-141,051	-0,064	-0,005
-487,708	-200,000	0,023	-0,115
-486,693	800,000	0,013	0,039
-485,678	-200,000	-0,004	0,158
-484,664	-200,000	0,011	-0,060
-483,649	-200,000	-0,022	-0,101
-482,635	-200,000	-0,003	0,023
-481,620	195,262	0,028	-0,031
-480,605	456,757	-0,101	-0,164
-479,591	62,081	-0,027	-0,019
-478,576	-200,000	0,001	0,015
-477,562	-200,000	-0,033	0,200
-476,547	-200,000	-0,015	-0,087
-475,532	-133,791	0,059	-0,005
-474,518	38,168	0,141	-0,091
-473,503	-78,891	0,118	0,029
-472,489	121,564	0,054	0,049
-471,474	8,997	-0,018	0,010
-470,459	800,000	0,016	0,045
-469,445	-17,508	-0,177	-0,081
-468,430	43,334	0,095	0,063
-467,416	171,567	-0,074	0,078
-466,401	-200,000	-0,011	0,154
-465,386	-200,000	0,000	-0,134
-464,372	-200,000	-0,012	-0,123
-463,357	514,147	-0,026	-0,045
-462,343	-200,000	-0,007	0,056
-461,328	-124,035	0,124	-0,014
-460,313	11,596	-0,109	0,061
-459,299	-69,724	0,077	0,021
-458,284	239,666	-0,021	-0,025
-457,270	346,481	-0,029	0,041
-456,255	-2,950	0,067	-0,034
-455,241	-120,283	-0,035	0,004
-454,226	-80,448	-0,103	0,025
-453,211	-17,977	0,089	-0,040
-452,197	288,547	-0,064	-0,085
-451,182	29,251	0,060	-0,037
-450,168	-23,524	0,069	0,030
-449,153	-10,017	-0,018	-0,009
-448,138	183,897	0,078	0,084
-447,124	94,667	-0,036	0,030
-446,109	-99,754	0,036	0,007
-445,095	-200,000	-0,039	0,149
-444,080	127,182	0,051	0,047
-443,065	-200,000	0,019	0,189
-442,051	557,469	0,114	0,201
-441,036	-200,000	0,041	0,000
-440,022	800,000	0,054	-0,110
-439,007	477,429	0,046	0,077
-437,992	138,520	0,028	-0,027
-436,978	237,783	0,018	0,022
-435,963	-200,000	-0,002	-0,060
-434,949	800,000	-0,049	-0,128
-433,934	-123,108	-0,077	0,009
-432,919	346,128	-0,029	-0,042
-431,905	397,256	-0,111	0,169
-430,890	-200,000	-0,006	0,092
-429,876	386,005	-0,097	0,147
-428,861	29,424	0,149	0,092
-427,846	-166,393	-0,066	0,002
-426,832	654,945	0,017	-0,032
-425,817	800,000	-0,045	-0,135
-424,803	800,000	0,054	-0,164
-423,788	-48,538	0,103	-0,036
-422,773	43,613	-0,051	-0,034
-421,759	-21,089	-0,064	0,028
-420,744	-44,753	-0,100	-0,036
-419,730	800,000	0,017	0,036
-418,715	-200,000	-0,008	-0,089
-417,701	2,217	0,049	-0,026
-416,686	183,345	0,078	0,084
-415,671	-76,898	-0,116	-0,029
-414,657	-200,000	-0,019	0,111
-413,642	-200,000	0,011	0,057
-412,628	-200,000	0,002	-0,018
-411,613	800,000	-0,008	0,020
-410,598	201,325	0,134	0,150
-409,584	-200,000	0,029	0,100
-408,569	604,144	0,041	0,074
-407,555	138,801	0,128	0,123
-406,540	800,000	-0,018	0,049
-405,525	-200,000	-0,009	0,043
-404,511	10,854	-0,082	-0,045
-403,496	122,803	0,086	0,079
-402,482	6,477	0,058	0,031
-401,467	178,183	0,158	0,168
-400,452	248,199	0,115	0,142
-399,438	183,854	0,112	0,121
-398,423	-200,000	0,007	-0,089
-397,409	-200,000	0,001	0,064
-396,394	-182,478	0,047	-0,001
-395,379	204,207	0,041	-0,046
-394,365	-10,794	-0,071	0,034
-393,350	-68,375	0,130	-0,037
-392,336	198,622	0,171	0,191
-391,321	143,118	0,083	0,080
-390,306	-41,937	-0,060	0,022
-389,292	739,568	-0,034	0,067
-388,277	-158,547	-0,079	0,003
-387,263	800,000	0,039	0,098
-386,248	82,694	-0,054	0,042
-385,233	292,461	0,074	0,099
-384,219	-41,755	-0,094	0,035
-383,204	-200,000	0,004	0,058
-382,190	-55,142	-0,063	0,020
-381,175	800,000	0,064	0,136
-380,160	-200,000	0,000	0,035
-379,146	551,323	-0,084	0,147
-378,131	475,967	0,027	-0,044
-377,117	-200,000	0,014	0,064
-376,102	800,000	0,045	-0,136
-375,088	-35,297	-0,105	-0,041
-374,073	800,000	-0,040	-0,115
-373,058	52,600	-0,067	0,047
-372,044	-200,000	0,013	-0,052
-371,029	-200,000	0,013	-0,112
-370,015	85,948	0,051	0,041
-369,000	-79,895	-0,052	-0,013
-367,985	91,515	-0,055	0,045
-366,971	49,612	-0,105	0,072
-365,956	89,456	0,092	0,074
-364,942	-200,000	0,048	0,185
-363,927	-200,000	0,002	0,130
-362,912	800,000	-0,014	-0,036
-361,898	428,862	-0,022	0,035
-360,883	800,000	0,035	-0,086
-359,869	-13,988	0,037	-0,017
-358,854	-200,000	0,003	-0,128
-357,839	360,644	-0,043	0,063
-356,825	276,893	-0,109	0,142
-355,810	29,965	0,083	0,051
-354,796	-22,940	-0,075	0,033
-353,781	1,488	-0,050	-0,026
-352,766	-85,188	-0,102	0,023
-351,752	27,549	0,091	0,056
-350,737	-104,111	-0,029	0,005
-349,723	-27,355	0,103	-0,043
-348,708	3,306	0,034	0,018
-347,693	-93,075	-0,068	0,014
-346,679	184,675	-0,062	-0,067
-345,664	-200,000	0,002	-0,119
-344,650	240,288	0,109	-0,132
-343,635	799,001	0,068	-0,137
-342,620	-200,000	0,015	0,186
-341,606	57,872	0,052	0,037
-340,591	-200,000	-0,011	0,044
-339,577	-67,872	-0,117	-0,033
-338,562	800,000	0,036	0,082
-337,548	10,480	-0,057	-0,031
-336,533	42,293	0,038	-0,025
-335,518	-95,105	-0,062	-0,012
-334,504	15,117	0,072	-0,041
-333,489	-200,000	-0,043	-0,215
-332,475	419,477	0,010	-0,016
-331,460	-200,000	0,007	-0,123
-330,445	197,302	-0,102	0,113
-329,431	-162,093	0,031	0,001
-328,416	63,397	0,108	-0,078
-327,402	221,287	-0,057	0,066
-326,387	-200,000	0,008	0,094
-325,372	120,270	-0,035	0,031
-324,358	351,741	0,070	-0,100
-323,343	-60,118	0,054	-0,017
-322,329	800,000	0,029	0,059
-321,314	417,212	0,041	0,063
-320,299	-66,333	0,035	0,010
-319,285	-200,000	0,033	-0,107
-318,270	-78,757	-0,140	-0,034
-317,256	-200,000	-0,029	-0,157
-316,241	469,962	-0,106	0,174
-315,226	-105,880	0,053	0,009
-314,212	-85,869	0,089	-0,020
-313,197	-35,384	0,107	0,042
-312,183	-100,404	-0,179	-0,032
-311,168	-4,752	0,126	-0,063
-310,153	800,000	0,012	-0,038
-309,139	-200,000	-0,049	-0,177
-308,124	-106,632	-0,053	-0,008
-307,110	-200,000	0,014	0,051
-306,095	138,401	0,099	0,095
-305,080	69,600	-0,087	-0,065
-304,066	38,564	0,099	-0,064
-303,051	407,136	-0,072	-0,111
-302,037	141,380	0,042	0,040
-301,022	-97,279	-0,164	0,031
-300,008	800,000	-0,035	0,094
-298,993	-155,738	0,020	0,001
-297,978	72,384	0,169	-0,128
-296,964	800,000	0,012	-0,025
-295,949	195,135	0,041	-0,045
-294,935	22,574	-0,051	-0,030
-293,920	-8,834	0,135	0,066
-292,905	-200,000	0,002	0,021
-291,891	-61,533	0,201	-0,061
-290,876	149,236	-0,022	0,021
-289,862	-7,732	0,016	-0,008
-288,847	158,800	-0,098	-0,099
-287,832	-200,000	0,015	0,071
-286,818	-136,400	-0,084	0,007
-285,803	-38,434	0,197	-0,075
-284,789	297,616	-0,035	0,046
-283,774	10,863	0,017	0,009
-282,759	1,486	-0,103	-0,054
-281,745	-21,756	0,119	-0,052
-280,730	206,728	0,070	-0,080
-279,716	131,334	0,063	-0,058
-278,701	-200,000	-0,022	-0,137
-277,686	178,980	0,001	0,001
-276,672	800,000	0,044	0,111
-275,657	129,061	-0,098	-0,090
-274,643	-200,000	-0,001	-0,044
-273,628	800,000	-0,020	0,043
-272,613	138,781	0,087	-0,083
-271,599	-192,851	-0,108	0,001
-270,584	-51,799	-0,056	-0,019
-269,570	-107,739	-0,172	0,027
-268,555	-30,092	-0,026	-0,011
-267,540	-19,720	-0,108	-0,048
-266,526	-11,125	-0,267	-0,127
-265,511	-200,000	-0,008	-0,058
-264,497	54,430	-0,105	-0,073
-263,482	800,000	0,024	0,057
-262,467	96,042	0,104	-0,086
-261,453	201,218	-0,056	0,063
-260,438	125,704	-0,123	0,112
-259,424	800,000	0,040	-0,083
-258,409	-200,000	-0,010	-0,076
-257,395	-200,000	0,001	0,025
-256,380	-200,000	0,021	-0,140
-255,365	800,000	0,063	-0,164
-254,351	255,555	0,011	0,014
-253,336	-67,217	-0,087	0,025
-252,322	-31,688	-0,115	-0,046
-251,307	-70,384	-0,100	0,027
-250,292	-27,083	0,134	-0,056
-249,278	32,447	-0,050	-0,031
-248,263	144,721	-0,064	-0,062
-247,249	192,086	0,035	0,038
-246,234	113,900	-0,088	-0,077
-245,219	237,617	-0,071	-0,086
-244,205	-200,000	-0,002	-0,008
-243,190	-131,941	0,163	0,015
-242,176	375,518	0,019	-0,028
-241,161	327,007	-0,095	0,132
-240,146	593,678	-0,033	0,059
-239,132	129,877	0,057	-0,052
-238,117	-37,729	0,041	-0,016
-237,103	-200,000	-0,013	0,058
-236,088	796,209	-0,006	0,012
-235,073	-140,725	-0,081	0,006
-234,059	2,894	0,099	0,052
-233,044	800,000	-0,051	0,113
-232,030	-200,000	0,019	0,075
-231,015	11,376	-0,095	0,052
-230,000	-163,757	0,128	0,004
-228,986	800,000	-0,042	-0,101
-227,971	79,407	-0,026	-0,020
-226,957	439,203	-0,022	-0,034
-225,942	-200,000	0,002	-0,050
-224,927	800,000	0,016	-0,052
-223,913	93,568	-0,035	-0,028
-222,898	800,000	-0,017	0,052
-221,884	-200,000	-0,007	0,055
-220,869	194,873	0,093	-0,103
-219,855	277,017	0,055	-0,070
-218,840	266,695	-0,043	0,054
-217,825	339,716	-0,037	0,052
-216,811	-64,577	0,058	0,017
-215,796	-200,000	-0,014	0,062
-214,782	202,178	0,082	0,092
-213,767	-200,000	0,022	0,159
-212,752	246,846	-0,024	0,029
-211,738	800,000	0,036	0,104
-210,723	139,637	0,057	0,054
-209,709	81,756	0,027	-0,021
-208,694	293,273	-0,040	0,053
-207,679	-25,547	0,036	-0,015
-206,665	782,741	-0,024	-0,048
-205,650	89,183	0,042	-0,034
-204,636	776,527	-0,065	0,130
-203,621	-83,322	0,096	0,022
-202,606	-67,163	-0,097	-0,027
-201,592	62,251	-0,037	-0,027
-200,577	781,526	-0,060	-0,119
-199,563	-200,000	-0,009	-0,034
-198,548	-200,000	0,024	-0,110
-197,533	503,932	0,056	0,093
-196,519	40,663	-0,073	-0,047
-195,504	290,095	-0,152	0,199
-194,490	334,412	0,050	0,070
-193,475	-200,000	-0,002	-0,046
-192,460	-200,000	0,019	-0,072
-191,446	800,000	-0,018	-0,058
-190,431	-98,757	0,107	0,019
-189,417	-38,331	-0,126	-0,048
-188,402	-173,689	0,060	-0,001
-187,387	-141,993	-0,086	0,006
-186,373	190,704	0,090	-0,098
-185,358	186,939	-0,102	-0,110
-184,344	16,045	-0,039	0,022
-183,329	20,673	0,089	-0,052
-182,315	-17,127	0,033	-0,015
-181,300	-200,000	-0,009	-0,058
-180,285	35,871	-0,037	-0,024
-179,271	201,066	-0,036	-0,040
-178,256	-200,000	-0,019	-0,108
-177,242	515,705	0,011	0,019
-176,227	181,428	0,102	0,108
-175,212	178,896	0,056	-0,059
-174,198	-72,057	0,042	0,011
-173,183	-200,000	-0,023	-0,160
-172,169	113,107	0,041	-0,035
-171,154	203,568	-0,043	-0,048
-170,139	548,285	0,027	-0,047
-169,125	-200,000	0,047	0,152
-168,110	-21,102	0,110	0,049
-167,096	-200,000	-0,004	0,133
-166,081	67,803	-0,079	-0,058
-165,066	-105,732	-0,052	-0,008
-164,052	-81,141	0,248	-0,059
-163,037	279,845	-0,182	0,235
-162,023	-122,110	0,145	-0,017
-161,008	99,964	0,121	0,101
-159,993	-71,018	0,055	0,015
-158,979	-200,000	-0,023	-0,094
-157,964	95,649	-0,111	-0,092
-156,950	800,000	0,047	-0,127
-155,935	-37,621	-0,042	0,016
-154,920	-102,105	0,076	0,013
-153,906	-200,000	0,007	-0,136
-152,891	-200,000	-0,032	-0,204
-151,877	-200,000	-0,029	-0,112
-150,862	263,688	-0,073	-0,092
-149,847	-200,000	0,016	-0,072
-148,833	472,329	0,042	0,068
-147,818	14,025	-0,090	-0,050
-146,804	505,610	0,062	0,103
-145,789	334,195	-0,075	0,105
-144,775	-71,234	-0,119	0,032
-143,760	133,124	0,053	-0,050
-142,745	-200,000	0,012	0,176
-141,731	-200,000	-0,012	-0,145
-140,716	-51,093	0,115	-0,039
-139,702	56,006	0,047	0,033
-138,687	-200,000	0,001	-0,129
-137,672	123,193	0,087	-0,078
-136,658	46,647	-0,107	0,072
-135,643	303,690	-0,038	0,050
-134,629	800,000	-0,024	0,063
-133,614	-104,939	0,100	0,016
-132,599	-200,000	-0,015	-0,050
-131,585	-132,439	-0,010	-0,001
-130,570	-153,665	0,032	-0,002
-129,556	800,000	-0,031	-0,070
-128,541	-104,115	0,108	0,018
-127,526	-200,000	0,003	0,030
-126,512	581,184	0,023	0,041
-125,497	-85,405	-0,039	-0,009
-124,483	341,780	0,090	0,126
-123,468	89,372	-0,054	0,043
-122,453	-142,756	0,024	0,002
-121,439	-137,282	-0,149	0,012
-120,424	-148,755	-0,044	0,003
-119,410	180,712	-0,031	-0,032
