DTS Sentinel unit serial number:	SN410029Multiplexer serial number:	ORYXHardware model number:	OX2-SRSoftware version number:	ORYX F/W v4,00 Oryx Data Collector v3.7.2.0data status	okinstallation	B5 Nyhavnadifferential loss correction	single-endedforward channel	channel 2reverse channel	N/Adate	2023/12/13time	21:27:13forward acquisition time	300,00reverse acquisition time	0,00gamma	499,1914k internal	0,3156k external	0,3156temperature offset calibration	1,0000default loss term (dB/km)	0,3820temperature slope calibration	1,0000multiplexer offset coefficient	1,0000multiplexer slope coefficient	1,0000fibre end	0,00T internal ref (°C)	10,00T ext. ref 1 (°C)	-6,84T ext. ref 2 (°C)	-6,87length (m)	temperature (°C)	Stokes	anti-Stokes-744,400	-102,498	0,163	-0,028
-743,385	26,325	-0,404	-0,248
-742,371	-61,843	0,268	0,082
-741,356	-10,756	-0,353	-0,172
-740,342	243,610	0,081	0,100
-739,327	-115,323	-0,325	-0,045
-738,312	-162,847	0,163	-0,006
-737,298	28,037	-0,295	-0,183
-736,283	-59,879	0,057	0,018
-735,269	-95,994	-0,272	0,053
-734,254	61,412	0,194	0,142
-733,239	21,913	-0,492	-0,295
-732,225	-157,938	0,208	-0,009
-731,210	-200,000	-0,008	0,034
-730,196	193,766	-0,022	0,024
-729,181	800,000	0,067	-0,142
-728,167	-200,000	-0,022	-0,094
-727,152	800,000	0,060	-0,125
-726,137	-10,300	-0,180	-0,088
-725,123	-64,423	0,059	0,018
-724,108	-59,812	-0,186	-0,058
-723,094	392,615	0,022	-0,034
-722,079	-200,000	-0,008	0,072
-721,064	-35,392	-0,142	-0,057
-720,050	32,327	-0,077	-0,049
-719,035	-200,000	0,001	-0,078
-718,021	-200,000	-0,010	-0,092
-717,006	511,561	0,056	-0,097
-715,991	800,000	0,032	-0,076
-714,977	-46,385	-0,071	-0,025
-713,962	-200,000	0,024	-0,125
-712,948	120,256	-0,102	0,094
-711,933	800,000	-0,045	0,093
-710,918	-43,531	-0,137	-0,051
-709,904	3,914	-0,085	0,045
-708,889	142,721	-0,085	-0,083
-707,875	-106,154	-0,270	-0,044
-706,860	-200,000	-0,017	0,059
-705,845	-200,000	0,001	-0,105
-704,831	18,984	0,019	-0,011
-703,816	-187,537	-0,104	-0,001
-702,802	198,804	-0,061	0,069
-701,787	-200,000	0,017	-0,080
-700,772	-200,000	0,013	-0,109
-699,758	-21,371	-0,063	-0,028
-698,743	108,081	0,036	-0,032
-697,729	46,477	-0,097	0,066
-696,714	110,608	-0,110	0,097
-695,699	-200,000	0,008	0,130
-694,685	-200,000	0,029	-0,106
-693,670	117,205	-0,098	-0,089
-692,656	-9,698	0,157	-0,077
-691,641	-200,000	-0,005	0,098
-690,627	-133,454	0,063	-0,006
-689,612	-55,254	0,060	-0,020
-688,597	800,000	0,029	0,069
-687,583	11,282	-0,046	-0,026
-686,568	-141,357	-0,119	-0,009
-685,554	-98,578	-0,127	-0,024
-684,539	122,790	0,114	0,105
-683,524	-44,235	0,024	0,009
-682,510	-102,522	0,136	-0,024
-681,495	-106,970	-0,163	0,026
-680,481	20,723	-0,028	0,017
-679,466	401,391	0,051	-0,079
-678,451	122,015	-0,076	-0,070
-677,437	-50,100	0,105	-0,036
-676,422	6,792	0,096	0,052
-675,408	-79,593	0,166	-0,041
-674,393	800,000	-0,009	0,020
-673,378	800,000	-0,028	-0,090
-672,364	-53,020	0,066	-0,022
-671,349	-200,000	-0,020	-0,087
-670,335	356,190	0,026	0,038
-669,320	-27,038	-0,074	-0,032
-668,305	88,137	0,128	-0,105
-667,291	442,063	0,062	-0,099
-666,276	143,880	-0,093	-0,091
-665,262	800,000	0,024	-0,068
-664,247	800,000	0,055	-0,123
-663,232	285,133	0,057	-0,076
-662,218	126,904	-0,127	0,119
-661,203	800,000	0,043	0,090
-660,189	-110,307	0,053	0,008
-659,174	185,909	-0,099	-0,108
-658,159	800,000	-0,064	-0,170
-657,145	21,989	-0,078	-0,047
-656,130	-42,539	-0,041	0,015
-655,116	-53,952	0,116	-0,039
-654,101	200,164	0,124	-0,140
-653,086	-200,000	-0,004	0,054
-652,072	362,732	0,098	-0,144
-651,057	-171,158	-0,036	-0,001
-650,043	4,185	0,095	-0,051
-649,028	-19,971	-0,151	-0,068
-648,014	559,634	0,052	0,092
-646,999	-136,848	-0,096	-0,008
-645,984	27,292	0,035	-0,022
-644,970	-82,148	-0,030	0,007
-643,955	-200,000	-0,019	-0,100
-642,941	800,000	-0,029	-0,063
-641,926	-2,165	-0,111	-0,057
-640,911	-160,201	0,031	-0,001
-639,897	-66,442	0,052	0,015
-638,882	-107,930	0,051	0,008
-637,868	800,000	0,013	-0,040
-636,853	101,661	0,088	0,075
-635,838	-55,611	-0,054	-0,018
-634,824	-200,000	-0,015	-0,065
-633,809	-36,653	0,110	0,043
-632,795	-47,125	0,147	-0,052
-631,780	-200,000	-0,001	0,050
-630,765	63,071	0,043	-0,032
-629,751	96,356	-0,097	-0,081
-628,736	-42,032	0,039	0,015
-627,722	97,641	-0,087	-0,073
-626,707	800,000	-0,054	-0,135
-625,692	-65,283	0,101	-0,030
-624,678	-156,123	-0,225	0,010
-623,663	-200,000	0,005	-0,027
-622,649	-0,864	-0,064	0,033
-621,634	-25,552	-0,050	0,022
-620,619	-17,651	-0,114	-0,052
-619,605	-200,000	-0,002	0,021
-618,590	-17,949	-0,182	-0,083
-617,576	-31,294	0,039	0,016
-616,561	-141,636	-0,089	-0,007
-615,546	-58,407	0,125	-0,040
-614,532	800,000	-0,007	-0,015
-613,517	-174,160	-0,050	0,001
-612,503	-200,000	-0,005	0,026
-611,488	800,000	0,050	-0,106
-610,474	-199,242	-0,080	0,000
-609,459	25,791	0,054	0,033
-608,444	53,377	0,127	-0,089
-607,430	-200,000	-0,016	-0,096
-606,415	-200,000	0,007	-0,060
-605,401	-200,000	0,025	-0,120
-604,386	-82,924	-0,246	-0,058
-603,371	110,190	0,082	0,072
-602,357	800,000	-0,020	-0,048
-601,342	-200,000	0,007	0,078
-600,328	-200,000	-0,002	-0,109
-599,313	-200,000	0,013	0,137
-598,298	-108,461	-0,135	-0,021
-597,284	40,947	-0,052	-0,034
-596,269	-62,876	0,084	-0,025
-595,255	800,000	0,073	0,223
-594,240	-200,000	-0,005	-0,035
-593,225	-105,946	-0,074	-0,012
-592,211	775,120	-0,038	0,077
-591,196	337,853	0,070	0,100
-590,182	356,290	-0,008	-0,012
-589,167	-117,130	0,085	0,011
-588,152	-200,000	0,011	0,043
-587,138	-18,803	0,012	-0,005
-586,123	12,503	0,090	0,051
-585,109	-135,309	-0,184	-0,016
-584,094	-2,796	-0,048	-0,024
-583,079	159,200	0,076	0,078
-582,065	64,364	0,076	-0,056
-581,050	-200,000	-0,026	0,118
-580,036	674,507	-0,064	0,123
-579,021	24,875	-0,114	0,069
-578,006	-200,000	-0,018	-0,078
-576,992	-200,000	-0,001	0,067
-575,977	-200,000	0,018	0,116
-574,963	-200,000	0,004	0,094
-573,948	-107,261	-0,034	0,005
-572,934	800,000	0,008	-0,018
-571,919	707,927	0,018	-0,034
-570,904	-200,000	0,007	-0,109
-569,890	800,000	-0,034	-0,087
-568,875	479,308	-0,087	0,145
-567,861	1,463	0,131	0,069
-566,846	800,000	0,064	0,136
-565,831	-177,884	-0,043	0,001
-564,817	-113,316	0,016	0,002
-563,802	-13,167	-0,149	0,071
-562,788	213,093	0,030	0,035
-561,773	93,913	-0,160	0,133
-560,758	-19,073	-0,062	0,028
-559,744	771,010	-0,021	0,042
-558,729	-200,000	0,014	-0,123
-557,715	56,581	0,105	-0,075
-556,700	800,000	-0,027	-0,083
-555,685	31,109	-0,108	-0,067
-554,671	109,533	-0,074	-0,065
-553,656	145,867	0,123	0,121
-552,642	31,103	0,069	0,043
-551,627	800,000	-0,054	0,139
-550,612	-200,000	-0,043	-0,142
-549,598	45,279	0,093	0,063
-548,583	55,458	-0,115	-0,081
-547,569	114,927	0,108	-0,096
-546,554	800,000	0,090	0,190
-545,539	-179,471	-0,022	-0,000
-544,525	-200,000	-0,001	-0,028
-543,510	22,808	0,155	-0,092
-542,496	-200,000	0,006	-0,124
-541,481	-200,000	0,012	-0,115
-540,466	-200,000	-0,022	-0,106
-539,452	-83,311	0,035	-0,008
-538,437	-200,000	-0,003	0,115
-537,423	96,749	0,105	0,088
-536,408	-163,808	0,070	0,002
-535,393	-200,000	-0,004	-0,132
-534,379	-77,149	-0,077	-0,019
-533,364	-73,878	0,047	0,012
-532,350	800,000	0,023	0,074
-531,335	-117,738	-0,160	0,021
-530,321	-41,411	-0,103	0,039
-529,306	353,639	0,057	0,083
-528,291	273,010	-0,014	0,019
-527,277	-200,000	-0,006	0,073
-526,262	-200,000	0,003	0,022
-525,248	-200,000	-0,009	0,054
-524,233	800,000	0,012	-0,029
-523,218	-2,370	0,125	0,064
-522,204	15,325	0,010	-0,006
-521,189	235,356	-0,065	-0,079
-520,175	800,000	0,037	0,077
-519,160	-189,981	0,038	0,000
-518,145	630,284	0,035	-0,064
-517,131	-4,136	0,060	-0,030
-516,116	-109,230	0,099	-0,015
-515,102	800,000	-0,008	0,023
-514,087	800,000	0,028	0,060
-513,072	-79,511	-0,061	-0,015
-512,058	800,000	-0,034	-0,093
-511,043	-200,000	-0,001	-0,006
-510,029	181,816	0,063	-0,068
-509,014	-4,533	0,106	-0,053
-507,999	166,036	-0,129	-0,134
-506,985	32,419	-0,079	-0,050
-505,970	-200,000	0,009	-0,083
-504,956	-200,000	-0,019	-0,073
-503,941	-200,000	-0,004	0,093
-502,926	262,417	0,023	0,030
-501,912	116,619	-0,037	0,034
-500,897	468,751	0,118	0,195
-499,883	-200,000	-0,006	-0,028
-498,868	79,939	0,058	-0,046
-497,853	800,000	-0,046	-0,103
-496,839	-187,692	0,025	-0,000
-495,824	-200,000	0,007	0,047
-494,810	281,046	0,060	0,078
-493,795	47,456	0,099	0,068
-492,781	3,358	0,054	0,029
-491,766	215,408	0,040	0,046
-490,751	229,319	-0,140	-0,167
-489,737	199,043	0,057	0,064
-488,722	-61,293	-0,131	0,040
-487,708	-157,960	0,090	-0,004
-486,693	52,185	-0,117	-0,081
-485,678	-200,000	-0,007	0,075
-484,664	-166,886	-0,025	0,001
-483,649	85,982	-0,050	-0,040
-482,635	-128,899	0,100	0,010
-481,620	51,681	0,018	-0,012
-480,605	361,408	-0,053	0,077
-479,591	-7,011	0,054	0,027
-478,576	-200,000	0,008	0,092
-477,562	800,000	-0,022	-0,064
-476,547	-200,000	-0,018	-0,080
-475,532	-200,000	-0,004	-0,062
-474,518	800,000	0,025	0,054
-473,503	-200,000	0,018	0,069
-472,489	346,820	-0,038	-0,054
-471,474	-200,000	-0,004	-0,056
-470,459	-63,135	0,053	-0,016
-469,445	-101,481	-0,076	-0,013
-468,430	190,438	0,020	0,021
-467,416	-98,830	-0,030	-0,005
-466,401	-78,315	0,116	-0,029
-465,386	11,175	0,092	-0,051
-464,372	-12,201	0,110	-0,052
-463,357	159,780	-0,026	0,027
-462,343	-90,310	-0,045	0,009
-461,328	-89,267	0,109	0,023
-460,313	24,035	-0,096	-0,058
-459,299	176,829	0,147	-0,156
-458,284	788,395	-0,012	-0,024
-457,270	421,242	0,061	0,095
-456,255	-200,000	-0,016	-0,059
-455,241	33,439	-0,046	-0,029
-454,226	-16,748	-0,236	-0,108
-453,211	-200,000	-0,006	0,102
-452,197	392,877	-0,098	0,150
-451,182	-121,478	0,085	0,010
-450,168	525,664	-0,065	0,112
-449,153	-200,000	0,002	-0,031
-448,138	-94,253	-0,018	0,004
-447,124	800,000	0,018	-0,044
-446,109	-82,075	0,047	-0,011
-445,095	329,158	0,152	0,214
-444,080	-26,684	-0,033	0,014
-443,065	77,149	0,019	0,014
-442,051	482,475	-0,072	-0,119
-441,036	271,825	-0,054	-0,070
-440,022	-200,000	-0,014	-0,074
-439,007	800,000	-0,030	0,064
-437,992	29,874	0,041	0,026
-436,978	-200,000	0,008	0,036
-435,963	800,000	0,033	-0,085
-434,949	-29,445	0,044	-0,018
-433,934	800,000	-0,023	-0,067
-432,919	440,485	-0,071	-0,114
-431,905	-36,062	-0,016	0,006
-430,890	800,000	0,073	0,151
-429,876	-75,024	0,120	0,031
-428,861	-78,899	0,091	0,023
-427,846	136,645	0,108	0,102
-426,832	800,000	-0,034	0,075
-425,817	206,252	-0,120	-0,137
-424,803	154,045	0,073	-0,073
-423,788	13,980	0,071	-0,040
-422,773	568,288	-0,068	0,121
-421,759	31,521	0,124	0,077
-420,744	-200,000	-0,019	0,194
-419,730	-200,000	0,033	0,127
-418,715	22,970	-0,081	-0,048
-417,701	800,000	0,024	0,054
-416,686	167,014	-0,085	0,088
-415,671	144,045	-0,016	0,015
-414,657	-200,000	-0,047	0,161
-413,642	-200,000	0,007	0,048
-412,628	-200,000	-0,003	-0,018
-411,613	-62,063	0,066	-0,020
-410,598	31,012	-0,099	0,062
-409,584	-4,276	0,037	0,019
-408,569	83,225	0,121	0,096
-407,555	310,955	0,015	-0,021
-406,540	64,787	0,046	0,034
-405,525	15,687	-0,109	-0,062
-404,511	-93,584	-0,113	-0,022
-403,496	800,000	0,020	0,054
-402,482	-73,541	0,146	0,038
-401,467	-200,000	-0,034	0,182
-400,452	-129,838	0,045	0,004
-399,438	-119,877	0,155	-0,019
-398,423	22,152	-0,057	0,034
-397,409	88,804	-0,084	-0,068
-396,394	70,101	0,166	-0,125
-395,379	-200,000	-0,006	-0,036
-394,365	-120,642	0,073	0,009
-393,350	46,213	0,138	-0,093
-392,336	-13,529	-0,176	-0,083
-391,321	-200,000	0,001	0,034
-390,306	-200,000	0,007	-0,092
-389,292	-200,000	0,001	0,057
-388,277	-57,766	0,109	0,035
-387,263	-200,000	-0,021	0,166
-386,248	-186,151	0,055	-0,001
-385,233	384,051	-0,074	-0,110
-384,219	-200,000	0,005	-0,018
-383,204	165,635	-0,034	-0,035
-382,190	-200,000	0,007	-0,048
-381,175	800,000	0,057	0,134
-380,160	171,821	-0,056	-0,058
-379,146	131,159	0,048	0,045
-378,131	800,000	0,039	0,104
-377,117	4,875	0,090	-0,048
-376,102	-200,000	-0,007	-0,051
-375,088	91,930	-0,080	0,065
-374,073	-200,000	-0,031	-0,114
-373,058	-45,410	0,078	-0,028
-372,044	-126,940	-0,049	0,005
-371,029	-200,000	0,008	0,032
-370,015	-128,714	-0,046	0,005
-369,000	-120,354	0,111	0,014
-367,985	33,286	-0,182	-0,115
-366,971	-112,369	0,065	-0,009
-365,956	219,890	0,029	-0,033
-364,942	299,577	-0,110	0,148
-363,927	-126,531	0,019	0,002
-362,912	281,841	0,080	0,104
-361,898	-34,324	0,043	-0,017
-360,883	-13,697	0,071	-0,033
-359,869	-200,000	-0,010	-0,095
-358,854	-200,000	-0,010	0,058
-357,839	-200,000	0,012	0,054
-356,825	-200,000	-0,010	0,101
-355,810	489,092	0,056	-0,093
-354,796	-147,046	0,148	-0,009
-353,781	109,000	0,089	0,078
-352,766	-30,615	-0,032	0,013
-351,752	129,792	0,022	-0,020
-350,737	-200,000	-0,012	0,102
-349,723	800,000	-0,041	-0,098
-348,708	800,000	-0,051	-0,123
-347,693	-124,478	0,085	0,009
-346,679	-132,330	-0,086	0,008
-345,664	46,446	-0,029	-0,019
-344,650	800,000	-0,045	-0,143
-343,635	741,210	0,045	-0,088
-342,620	494,671	-0,035	0,058
-341,606	-25,010	0,087	0,037
-340,591	-200,000	0,002	-0,015
-339,577	29,596	-0,059	0,036
-338,562	-56,474	-0,069	-0,022
-337,548	91,428	-0,084	-0,068
-336,533	800,000	0,072	0,156
-335,518	75,601	0,129	0,099
-334,504	246,773	-0,007	-0,008
-333,489	-200,000	-0,092	-0,000
-332,475	-23,023	0,051	-0,022
-331,460	-200,000	-0,027	-0,118
-330,445	8,644	-0,051	0,028
-329,431	-200,000	0,055	0,193
-328,416	-200,000	0,002	0,073
-327,402	21,297	0,063	-0,037
-326,387	-200,000	-0,010	0,096
-325,372	180,430	0,033	0,035
-324,358	-200,000	-0,007	-0,205
-323,343	-5,361	0,116	0,057
-322,329	-200,000	-0,051	-0,170
-321,314	38,324	-0,034	-0,022
-320,299	-200,000	0,032	0,158
-319,285	-105,817	0,071	-0,011
-318,270	-200,000	-0,015	0,086
-317,256	-200,000	0,015	-0,081
-316,241	-113,993	0,077	-0,011
-315,226	-41,119	0,070	0,026
-314,212	-16,414	0,047	-0,022
-313,197	-146,359	-0,091	0,006
-312,183	-28,864	0,118	0,049
-311,168	6,837	0,057	0,031
-310,153	-200,000	0,003	0,106
-309,139	-25,492	-0,055	0,024
-308,124	27,562	0,061	-0,037
-307,110	-25,470	0,042	-0,018
-306,095	-200,000	-0,013	0,085
-305,080	527,307	-0,015	0,025
-304,066	-200,000	0,011	-0,113
-303,051	139,092	0,084	-0,080
-302,037	-163,195	-0,132	0,005
-301,022	-200,000	0,021	0,206
-300,008	-200,000	0,020	-0,084
-298,993	-39,439	0,031	-0,012
-297,978	-63,254	-0,039	-0,011
-296,964	164,392	0,047	-0,048
-295,949	-200,000	0,006	-0,039
-294,935	37,302	-0,045	0,029
-293,920	-200,000	-0,003	0,181
-292,905	-60,041	0,133	-0,041
-291,891	-200,000	0,032	-0,140
-290,876	-200,000	0,029	0,133
-289,862	115,722	0,036	0,032
-288,847	-116,716	-0,073	-0,010
-287,832	-154,225	-0,070	-0,003
-286,818	49,709	-0,088	-0,060
-285,803	93,398	0,055	0,045
-284,789	-76,631	0,081	-0,020
-283,774	215,456	0,070	-0,080
-282,759	-200,000	0,011	-0,049
-281,745	800,000	-0,053	-0,123
-280,730	-200,000	-0,015	-0,079
-279,716	88,314	0,043	0,034
-278,701	76,771	0,049	-0,038
-277,686	-90,605	0,118	0,025
-276,672	108,179	0,109	-0,095
-275,657	701,200	0,054	-0,103
-274,643	92,061	0,014	-0,011
-273,628	633,488	-0,045	-0,082
-272,613	-20,047	-0,098	0,044
-271,599	524,456	-0,016	0,028
-270,584	36,452	0,038	0,024
-269,570	-200,000	0,002	0,083
-268,555	-0,306	0,087	0,044
-267,540	204,418	-0,037	-0,041
-266,526	-87,977	-0,155	-0,033
-265,511	729,442	-0,021	0,041
-264,497	800,000	0,009	-0,021
-263,482	800,000	0,043	0,136
-262,467	-77,401	-0,140	-0,035
-261,453	-200,000	-0,008	0,034
-260,438	-67,393	-0,100	-0,028
-259,424	-11,917	-0,042	0,020
-258,409	616,473	-0,036	-0,066
-257,395	-38,377	0,060	-0,023
-256,380	137,193	0,054	0,051
-255,365	-95,804	0,084	-0,016
-254,351	800,000	0,062	-0,142
-253,336	-18,229	0,150	-0,068
-252,322	-115,033	-0,100	0,014
-251,307	218,780	-0,082	0,095
-250,292	-98,645	-0,200	-0,037
-249,278	-200,000	0,020	0,172
-248,263	9,963	-0,107	0,059
-247,249	-55,292	-0,113	-0,037
-246,234	-200,000	-0,038	0,000
-245,219	-200,000	0,033	0,112
-244,205	445,417	0,102	-0,163
-243,190	-170,100	-0,082	-0,002
-242,176	-85,046	0,046	-0,010
-241,161	8,067	0,083	0,045
-240,146	-65,805	0,051	0,015
-239,132	-0,875	-0,136	-0,069
-238,117	-200,000	-0,008	-0,054
-237,103	-200,000	-0,017	-0,087
-236,088	800,000	0,006	-0,015
-235,073	365,072	-0,026	0,038
-234,059	137,589	-0,073	0,069
-233,044	800,000	0,018	0,040
-232,030	-30,879	-0,107	-0,044
-231,015	2,053	-0,054	-0,028
-230,000	800,000	-0,028	0,064
-228,986	-200,000	-0,063	-0,228
-227,971	-200,000	0,007	0,071
-226,957	-108,461	0,065	-0,010
-225,942	45,651	0,024	-0,016
-224,927	-200,000	0,028	-0,186
-223,913	-31,113	-0,080	-0,032
-222,898	-128,607	0,054	0,005
-221,884	355,655	-0,072	-0,104
-220,869	-90,531	0,050	-0,010
-219,855	-200,000	0,008	-0,045
-218,840	280,903	-0,069	0,089
-217,825	24,039	-0,085	0,051
-216,811	568,307	-0,037	0,065
-215,796	-200,000	-0,033	0,169
-214,782	-34,079	-0,154	-0,061
-213,767	70,434	0,120	-0,090
-212,752	138,178	0,083	0,079
-211,738	-13,750	-0,123	-0,057
-210,723	486,026	-0,078	-0,128
-209,709	800,000	-0,015	-0,043
-208,694	-200,000	-0,032	-0,109
-207,679	-200,000	-0,002	-0,137
-206,665	-90,030	-0,056	0,012
-205,650	-200,000	-0,002	0,023
-204,636	-47,443	0,132	0,046
-203,621	-106,647	-0,149	-0,024
-202,606	190,743	-0,106	0,116
-201,592	800,000	0,008	0,024
-200,577	800,000	-0,059	-0,129
-199,563	54,396	-0,024	-0,017
-198,548	-200,000	0,007	0,054
-197,533	12,859	-0,083	0,046
-196,519	-200,000	0,005	0,055
-195,504	-200,000	-0,023	-0,115
-194,490	57,970	-0,059	-0,042
-193,475	-65,997	0,124	-0,035
-192,460	-200,000	-0,018	0,062
-191,446	123,307	0,143	0,129
-190,431	525,027	0,051	0,087
-189,417	255,598	-0,078	0,097
-188,402	227,441	0,118	-0,139
-187,387	261,654	-0,024	0,030
-186,373	-200,000	0,003	-0,126
-185,358	139,498	-0,027	-0,026
-184,344	-70,894	-0,097	-0,026
-183,329	-200,000	-0,057	-0,228
-182,315	26,081	0,045	-0,027
-181,300	-200,000	-0,028	0,105
-180,285	-200,000	-0,007	-0,088
-179,271	-152,671	-0,023	0,001
-178,256	110,991	-0,061	-0,053
-177,242	340,397	0,080	0,113
-176,227	-200,000	-0,001	0,074
-175,212	-200,000	0,007	0,026
-174,198	457,310	0,035	0,056
-173,183	-88,864	0,098	0,021
-172,169	-57,955	-0,090	0,028
-171,154	-71,187	-0,073	0,020
-170,139	31,737	0,139	0,086
-169,125	179,425	0,052	0,055
-168,110	-200,000	0,013	0,117
-167,096	273,909	0,071	-0,091
-166,081	800,000	-0,017	-0,047
-165,066	-53,322	-0,161	-0,053
-164,052	364,332	0,131	-0,191
-163,037	-200,000	0,009	-0,079
-162,023	-200,000	-0,022	0,132
-161,008	-75,237	0,047	-0,012
-159,993	4,338	0,061	0,032
-158,979	-45,028	-0,121	-0,043
-157,964	-28,440	0,049	-0,020
-156,950	76,265	-0,126	0,096
-155,935	282,205	0,015	0,020
-154,920	-151,273	-0,095	0,005
-153,906	-148,946	0,026	0,001
-152,891	43,752	-0,104	0,069
-151,877	138,238	-0,005	-0,005
-150,862	579,657	0,031	0,056
-149,847	-200,000	-0,006	-0,126
-148,833	-200,000	0,018	-0,097
-147,818	-200,000	-0,012	0,098
-146,804	-200,000	-0,127	-0,000
-145,789	282,178	0,074	-0,096
-144,775	800,000	0,014	-0,044
-143,760	77,459	-0,065	-0,050
-142,745	178,310	0,045	-0,047
-141,731	-200,000	-0,015	-0,117
-140,716	-56,033	-0,093	-0,030
-139,702	-83,702	0,220	-0,050
-138,687	-200,000	-0,028	0,137
-137,672	775,694	0,015	0,030
-136,658	-42,511	-0,031	-0,011
-135,643	-200,000	0,025	0,083
-134,629	-16,653	0,052	-0,023
-133,614	121,752	0,150	0,135
-132,599	-200,000	0,025	0,102
-131,585	758,166	-0,109	-0,214
-130,570	-26,053	-0,074	-0,031
-129,556	36,050	-0,123	-0,078
-128,541	-200,000	0,017	-0,087
-127,526	-114,863	0,166	0,023
-126,512	-37,430	0,087	-0,033
-125,497	619,268	0,089	0,162
-124,483	135,884	-0,108	0,101
-123,468	-200,000	0,017	0,144
-122,453	76,312	0,058	0,044
-121,439	105,235	-0,048	0,041
-120,424	-104,090	0,149	0,025
