DTS Sentinel unit serial number:	SN410029Multiplexer serial number:	ORYXHardware model number:	OX2-SRSoftware version number:	ORYX F/W v4,00 Oryx Data Collector v3.7.2.0data status	okinstallation	B5 Nyhavnadifferential loss correction	single-endedforward channel	channel 2reverse channel	N/Adate	2023/12/12time	00:17:13forward acquisition time	300,00reverse acquisition time	0,00gamma	499,1914k internal	0,3156k external	0,3156temperature offset calibration	1,0000default loss term (dB/km)	0,3820temperature slope calibration	1,0000multiplexer offset coefficient	1,0000multiplexer slope coefficient	1,0000fibre end	0,00T internal ref (°C)	16,13T ext. ref 1 (°C)	-0,30T ext. ref 2 (°C)	-0,56length (m)	temperature (°C)	Stokes	anti-Stokes-744,400	-200,000	0,001	0,090
-743,385	-122,840	-0,280	0,033
-742,371	-4,131	0,202	0,103
-741,356	-151,961	-0,419	-0,022
-740,342	-69,243	0,254	-0,072
-739,327	-109,246	-0,243	0,038
-738,312	150,705	0,056	-0,056
-737,298	-121,905	-0,315	-0,038
-736,283	-63,244	0,109	-0,033
-735,269	-161,896	-0,284	-0,010
-734,254	800,000	-0,058	0,134
-733,239	59,144	-0,305	-0,221
-732,225	-111,293	0,213	0,032
-731,210	-33,233	-0,099	0,040
-730,196	-114,693	-0,091	-0,013
-729,181	67,093	0,034	-0,026
-728,167	-200,000	-0,040	-0,224
-727,152	-200,000	-0,001	0,048
-726,137	-200,000	0,009	-0,049
-725,123	160,056	-0,097	-0,100
-724,108	147,637	-0,184	-0,182
-723,094	-133,885	-0,224	-0,020
-722,079	800,000	-0,041	-0,098
-721,064	-200,000	0,017	-0,082
-720,050	54,429	0,085	0,060
-719,035	-200,000	-0,033	0,162
-718,021	-51,624	-0,101	-0,034
-717,006	-27,533	-0,161	-0,069
-715,991	-200,000	-0,019	-0,066
-714,977	-72,189	-0,194	-0,053
-713,962	-200,000	0,008	0,041
-712,948	111,626	-0,037	-0,033
-711,933	-157,538	-0,088	0,004
-710,918	435,402	-0,010	-0,016
-709,904	-150,201	-0,161	0,009
-708,889	-131,693	-0,131	0,012
-707,875	-200,000	-0,030	-0,144
-706,860	800,000	0,056	-0,125
-705,845	6,279	0,090	0,049
-704,831	-200,000	0,009	0,164
-703,816	187,387	-0,095	0,105
-702,802	-158,058	-0,068	0,003
-701,787	8,215	-0,094	-0,052
-700,772	-146,155	-0,060	-0,004
-699,758	108,182	-0,027	0,024
-698,743	145,509	-0,169	0,167
-697,729	-19,921	0,063	-0,028
-696,714	160,164	-0,093	0,095
-695,699	475,348	0,060	-0,100
-694,685	669,956	0,065	0,125
-693,670	800,000	-0,011	-0,034
-692,656	-200,000	0,023	0,124
-691,641	44,728	-0,072	-0,049
-690,627	-42,224	0,041	0,015
-689,612	-45,825	-0,038	-0,014
-688,597	-158,220	0,027	-0,001
-687,583	-200,000	0,006	0,144
-686,568	-169,463	-0,071	-0,002
-685,554	300,622	0,014	-0,019
-684,539	166,015	0,036	-0,038
-683,524	15,010	-0,074	0,042
-682,510	465,023	0,065	-0,107
-681,495	36,939	0,026	-0,017
-680,481	348,400	0,032	0,047
-679,466	-27,930	-0,160	-0,068
-678,451	-115,686	-0,024	0,003
-677,437	800,000	0,013	0,026
-676,422	146,410	-0,156	0,154
-675,408	-35,569	-0,032	0,013
-674,393	800,000	0,026	-0,058
-673,378	-114,908	-0,079	0,011
-672,364	800,000	0,034	-0,104
-671,349	-6,068	-0,105	-0,053
-670,335	45,734	-0,085	0,057
-669,320	155,278	-0,120	0,122
-668,305	376,530	0,080	0,121
-667,291	-121,373	-0,061	0,007
-666,276	360,910	0,029	0,042
-665,262	-200,000	0,016	-0,058
-664,247	-162,014	-0,058	0,002
-663,232	-200,000	0,008	0,088
-662,218	-200,000	0,026	0,095
-661,203	-200,000	0,012	0,043
-660,189	-72,263	0,164	-0,044
-659,174	92,596	-0,064	0,053
-658,159	232,742	-0,132	-0,160
-657,145	800,000	-0,086	-0,205
-656,130	800,000	0,041	-0,111
-655,116	-88,120	0,100	-0,022
-654,101	108,835	0,015	0,013
-653,086	-128,938	-0,149	-0,015
-652,072	-34,595	-0,087	0,035
-651,057	-200,000	-0,010	0,044
-650,043	-200,000	-0,005	0,081
-649,028	101,387	-0,050	-0,043
-648,014	-144,838	-0,073	0,005
-646,999	-81,715	-0,084	-0,020
-645,984	163,772	-0,026	0,027
-644,970	-200,000	-0,033	0,144
-643,955	-69,419	-0,107	-0,030
-642,941	-11,763	0,069	-0,033
-641,926	-144,608	-0,098	-0,007
-640,911	-33,408	0,093	0,038
-639,897	319,068	-0,069	-0,096
-638,882	265,324	0,072	0,092
-637,868	15,057	-0,172	0,099
-636,853	-21,200	-0,228	-0,102
-635,838	800,000	0,029	-0,061
-634,824	-136,882	-0,117	0,010
-633,809	-72,352	0,034	0,009
-632,795	255,214	-0,088	-0,110
-631,780	288,537	0,088	-0,117
-630,765	195,299	-0,097	0,108
-629,751	-50,907	-0,109	0,037
-628,736	21,899	-0,071	-0,043
-627,722	23,209	0,077	0,046
-626,707	119,325	0,017	0,016
-625,692	-116,954	0,073	0,010
-624,678	214,140	-0,037	-0,043
-623,663	-63,773	-0,059	0,018
-622,649	274,505	-0,056	-0,073
-621,634	2,702	-0,044	0,023
-620,619	206,705	-0,118	0,135
-619,605	-28,648	0,135	0,057
-618,590	-200,000	-0,040	0,159
-617,576	800,000	0,038	0,086
-616,561	167,238	-0,076	0,079
-615,546	-200,000	-0,007	0,126
-614,532	271,681	-0,077	-0,100
-613,517	800,000	0,053	-0,122
-612,503	-28,171	-0,047	-0,020
-611,488	-200,000	-0,006	-0,131
-610,474	-152,830	0,125	0,006
-609,459	45,128	0,006	-0,004
-608,444	50,864	0,046	0,032
-607,430	-107,955	-0,093	-0,015
-606,415	157,397	-0,037	-0,038
-605,401	237,745	0,028	0,034
-604,386	-126,655	-0,048	0,005
-603,371	362,296	-0,021	0,031
-602,357	-91,887	0,093	0,019
-601,342	215,684	-0,037	0,043
-600,328	-200,000	0,038	-0,205
-599,313	-176,457	-0,120	0,002
-598,298	-51,224	0,027	0,009
-597,284	-24,699	0,043	0,019
-596,269	62,906	-0,042	0,031
-595,255	-200,000	-0,012	-0,063
-594,240	131,621	-0,148	-0,140
-593,225	440,870	-0,083	0,133
-592,211	-16,747	-0,131	-0,061
-591,196	-200,000	0,006	0,083
-590,182	-72,656	-0,006	-0,002
-589,167	693,477	0,039	0,074
-588,152	-40,227	0,101	0,038
-587,138	-200,000	0,016	-0,066
-586,123	15,903	-0,200	-0,115
-585,109	-43,230	0,089	0,033
-584,094	-200,000	0,000	0,019
-583,079	-200,000	-0,007	-0,121
-582,065	33,819	0,084	-0,054
-581,050	-15,571	-0,057	0,027
-580,036	-78,066	0,039	0,010
-579,021	359,914	0,027	0,040
-578,006	14,031	-0,182	-0,103
-576,992	-92,695	0,093	-0,019
-575,977	-200,000	-0,028	0,097
-574,963	40,942	0,061	-0,040
-573,948	-200,000	-0,006	-0,028
-572,934	-75,569	-0,058	-0,015
-571,919	7,245	0,103	-0,056
-570,904	180,990	-0,123	-0,132
-569,890	-137,179	0,096	0,008
-568,875	-75,370	-0,024	0,006
-567,861	380,903	-0,046	0,069
-566,846	-200,000	-0,015	0,096
-565,831	55,630	-0,030	0,021
-564,817	-20,990	0,047	-0,021
-563,802	-200,000	0,015	-0,126
-562,788	-200,000	-0,005	0,149
-561,773	-58,775	-0,102	0,032
-560,758	365,711	0,036	-0,053
-559,744	-95,332	-0,109	-0,021
-558,729	-4,481	-0,107	-0,054
-557,715	-126,744	-0,045	-0,005
-556,700	800,000	-0,031	-0,085
-555,685	-200,000	0,002	0,111
-554,671	-200,000	-0,013	0,045
-553,656	800,000	-0,007	0,021
-552,642	-13,335	0,196	0,093
-551,627	198,202	-0,037	0,041
-550,612	239,678	-0,006	0,007
-549,598	-200,000	0,011	0,075
-548,583	-67,882	-0,131	0,037
-547,569	-31,319	0,160	0,066
-546,554	575,735	-0,012	0,021
-545,539	-200,000	0,003	0,105
-544,525	800,000	0,090	0,184
-543,510	-1,433	-0,047	0,024
-542,496	305,482	-0,034	-0,047
-541,481	-82,396	0,074	0,017
-540,466	800,000	0,026	-0,068
-539,452	184,884	0,092	-0,100
-538,437	800,000	-0,080	0,177
-537,423	222,617	-0,093	0,110
-536,408	-69,753	-0,126	0,035
-535,393	33,186	0,025	-0,016
-534,379	-144,921	-0,086	-0,006
-533,364	-4,880	0,130	-0,065
-532,350	-91,330	0,038	-0,008
-531,335	800,000	0,028	0,068
-530,321	-5,822	0,074	-0,037
-529,306	-200,000	-0,003	-0,083
-528,291	-120,983	0,029	-0,004
-527,277	-200,000	0,015	-0,082
-526,262	129,503	-0,096	-0,089
-525,248	84,543	0,100	-0,080
-524,233	-200,000	-0,017	0,060
-523,218	-85,550	0,125	-0,028
-522,204	32,497	-0,036	0,023
-521,189	723,118	-0,076	0,149
-520,175	-200,000	-0,007	-0,027
-519,160	-100,900	-0,151	-0,027
-518,145	437,385	-0,016	0,026
-517,131	357,285	0,032	-0,046
-516,116	69,220	0,061	-0,046
-515,102	-44,651	-0,083	0,030
-514,087	-44,077	-0,044	0,016
-513,072	-200,000	0,006	-0,120
-512,058	204,496	-0,105	-0,119
-511,043	-200,000	0,021	-0,083
-510,029	-200,000	0,032	0,151
-509,014	800,000	0,040	0,084
-507,999	-200,000	-0,011	0,079
-506,985	-67,844	0,147	0,042
-505,970	682,244	-0,042	-0,081
-504,956	-164,081	0,031	0,001
-503,941	-200,000	0,015	0,097
-502,926	-43,540	0,168	0,062
-501,912	800,000	0,012	-0,025
-500,897	-200,000	-0,007	0,082
-499,883	-181,771	-0,082	-0,001
-498,868	154,951	0,113	-0,114
-497,853	141,475	-0,042	-0,041
-496,839	800,000	0,056	0,121
-495,824	-42,187	0,130	0,048
-494,810	-30,054	-0,051	-0,021
-493,795	727,801	-0,094	0,183
-492,781	423,512	0,030	0,047
-491,766	-200,000	0,001	-0,017
-490,751	50,543	-0,122	-0,084
-489,737	5,535	0,055	0,029
-488,722	-111,129	0,083	-0,012
-487,708	-147,826	-0,103	-0,006
-486,693	-16,607	0,037	-0,017
-485,678	31,767	-0,106	0,067
-484,664	-200,000	-0,028	-0,112
-483,649	44,680	-0,069	-0,046
-482,635	96,101	0,101	-0,085
-481,620	68,483	0,046	0,034
-480,605	-200,000	0,011	-0,114
-479,591	-151,528	-0,052	-0,003
-478,576	800,000	0,025	-0,070
-477,562	-159,976	0,169	-0,007
-476,547	-200,000	0,008	-0,059
-475,532	-200,000	-0,012	-0,068
-474,518	800,000	-0,014	-0,041
-473,503	18,295	0,047	-0,027
-472,489	-200,000	-0,027	-0,115
-471,474	1,904	-0,133	0,070
-470,459	-200,000	-0,015	-0,086
-469,445	131,108	0,097	0,091
-468,430	52,512	0,060	-0,042
-467,416	335,824	-0,103	0,146
-466,401	-200,000	-0,004	0,098
-465,386	-200,000	-0,020	0,131
-464,372	19,823	-0,076	0,044
-463,357	775,531	-0,032	0,063
-462,343	389,536	-0,081	-0,122
-461,328	800,000	-0,043	0,116
-460,313	-153,536	-0,106	-0,005
-459,299	-152,188	0,067	-0,004
-458,284	261,098	0,055	-0,069
-457,270	-200,000	-0,006	0,141
-456,255	352,170	-0,052	-0,076
-455,241	-200,000	0,069	-0,279
-454,226	-79,540	0,045	0,011
-453,211	634,220	0,035	-0,066
-452,197	800,000	0,050	-0,120
-451,182	-200,000	0,007	0,064
-450,168	-11,510	0,112	-0,053
-449,153	96,286	-0,098	-0,082
-448,138	-200,000	0,026	0,102
-447,124	-200,000	-0,009	0,039
-446,109	62,734	0,058	0,042
-445,095	-200,000	-0,035	0,161
-444,080	65,822	0,040	0,029
-443,065	-200,000	-0,000	-0,023
-442,051	-39,643	-0,102	-0,039
-441,036	-200,000	-0,012	-0,118
-440,022	578,059	-0,061	-0,108
-439,007	800,000	-0,064	-0,153
-437,992	47,827	0,085	-0,058
-436,978	590,744	0,048	0,087
-435,963	-200,000	-0,003	0,129
-434,949	-21,567	-0,094	-0,042
-433,934	35,679	0,025	-0,016
-432,919	-200,000	-0,028	-0,150
-431,905	-70,796	0,009	-0,002
-430,890	-200,000	0,042	0,143
-429,876	-54,917	-0,031	0,010
-428,861	-200,000	-0,008	-0,026
-427,846	203,209	-0,106	0,120
-426,832	-4,439	0,079	-0,040
-425,817	136,054	-0,072	-0,068
-424,803	78,324	-0,076	-0,059
-423,788	-97,397	0,139	-0,026
-422,773	-156,953	-0,070	0,003
-421,759	501,548	0,124	0,210
-420,744	800,000	-0,037	-0,078
-419,730	-30,000	-0,047	-0,019
-418,715	73,465	0,045	-0,034
-417,701	800,000	-0,050	-0,106
-416,686	618,543	-0,013	0,024
-415,671	-70,017	0,041	-0,011
-414,657	-200,000	-0,001	0,032
-413,642	21,566	-0,014	0,008
-412,628	-71,699	0,109	-0,029
-411,613	65,130	-0,075	0,055
-410,598	-6,761	0,066	0,033
-409,584	-200,000	-0,007	0,076
-408,569	-154,686	0,067	0,003
-407,555	111,530	0,061	0,053
-406,540	13,953	0,069	-0,039
-405,525	-21,641	0,101	-0,045
-404,511	782,965	-0,010	-0,019
-403,496	371,470	0,003	0,005
-402,482	535,356	0,025	-0,042
-401,467	-24,923	0,094	0,040
-400,452	-33,273	0,121	-0,049
-399,438	261,164	-0,043	-0,055
-398,423	451,473	0,012	-0,019
-397,409	-200,000	-0,020	0,076
-396,394	-72,763	-0,117	-0,031
-395,379	-200,000	0,012	0,119
-394,365	-4,314	0,088	-0,044
-393,350	318,731	-0,039	-0,054
-392,336	319,797	0,091	0,127
-391,321	-200,000	-0,033	-0,121
-390,306	7,541	-0,177	0,096
-389,292	73,113	-0,084	0,064
-388,277	19,551	-0,041	0,024
-387,263	-200,000	-0,004	-0,060
-386,248	273,250	-0,027	0,035
-385,233	142,292	-0,052	0,051
-384,219	9,391	0,175	0,096
-383,204	-200,000	0,013	-0,059
-382,190	334,267	0,031	0,044
-381,175	-58,348	0,115	0,036
-380,160	200,507	0,051	-0,057
-379,146	305,901	0,008	0,011
-378,131	277,298	-0,036	-0,047
-377,117	800,000	0,026	0,072
-376,102	-200,000	0,005	0,085
-375,088	-133,772	0,049	-0,004
-374,073	85,628	-0,125	-0,100
-373,058	-87,085	0,062	0,014
-372,044	333,374	0,075	-0,105
-371,029	-159,874	0,115	-0,004
-370,015	-14,347	0,048	-0,023
-369,000	-179,162	-0,180	0,003
-367,985	800,000	-0,089	-0,188
-366,971	20,582	-0,029	-0,017
-365,956	800,000	0,029	-0,079
-364,942	800,000	-0,066	0,162
-363,927	-200,000	0,004	0,042
-362,912	-71,858	0,101	-0,027
-361,898	-59,776	-0,111	0,034
-360,883	39,459	-0,098	0,064
-359,869	-12,842	0,086	-0,040
-358,854	70,198	-0,138	0,104
-357,839	-200,000	-0,001	0,096
-356,825	32,927	0,090	0,057
-355,810	-133,848	0,067	-0,006
-354,796	-113,722	-0,235	-0,033
-353,781	-56,989	0,134	-0,043
-352,766	138,084	0,067	-0,064
-351,752	-200,000	-0,001	0,046
-350,737	-67,372	-0,014	0,004
-349,723	354,064	-0,062	-0,089
-348,708	-200,000	0,029	0,113
-347,693	435,728	0,122	0,193
-346,679	-200,000	0,006	-0,049
-345,664	-105,365	-0,208	-0,034
-344,650	-200,000	0,026	-0,085
-343,635	-91,228	0,166	0,034
-342,620	63,843	-0,061	0,044
-341,606	13,664	-0,084	0,047
-340,591	40,998	-0,126	0,083
-339,577	-109,597	0,094	0,014
-338,562	87,051	-0,044	-0,036
-337,548	-200,000	0,002	-0,049
-336,533	-200,000	0,030	0,154
-335,518	-200,000	0,035	0,149
-334,504	399,141	0,059	0,089
-333,489	18,833	-0,092	-0,053
-332,475	-81,472	-0,059	0,014
-331,460	-74,065	-0,123	-0,032
-330,445	-159,523	-0,026	0,001
-329,431	228,072	0,033	0,039
-328,416	-8,565	-0,156	0,076
-327,402	-56,790	0,096	0,031
-326,387	174,677	0,056	-0,059
-325,372	-15,986	-0,084	-0,039
-324,358	-170,249	0,089	-0,002
-323,343	-200,000	0,020	0,064
-322,329	47,744	0,147	0,100
-321,314	12,230	-0,149	-0,083
-320,299	800,000	0,041	0,089
-319,285	-200,000	-0,021	0,115
-318,270	-130,895	-0,066	-0,006
-317,256	618,407	0,038	-0,069
-316,241	800,000	-0,060	-0,135
-315,226	-46,084	0,069	-0,024
-314,212	-25,949	0,118	0,050
-313,197	800,000	0,006	0,017
-312,183	800,000	-0,027	0,058
-311,168	-159,687	-0,070	0,003
-310,153	-70,932	-0,134	-0,036
-309,139	-37,292	0,093	0,036
-308,124	15,004	0,119	0,068
-307,110	79,540	0,059	-0,046
-306,095	184,853	-0,081	0,087
-305,080	66,453	0,122	-0,090
-304,066	279,067	-0,058	-0,075
-303,051	-113,681	0,037	-0,005
-302,037	-200,000	-0,035	-0,157
-301,022	-200,000	-0,020	-0,133
-300,008	-6,666	-0,071	-0,035
-298,993	-155,616	-0,037	0,002
-297,978	75,544	0,163	0,125
-296,964	-3,216	-0,119	0,060
-295,949	-171,890	0,137	0,003
-294,935	2,349	-0,028	-0,015
-293,920	-200,000	0,009	0,097
-292,905	73,518	0,100	-0,076
-291,891	336,499	0,033	0,046
-290,876	-5,726	-0,044	-0,022
-289,862	-53,366	-0,065	0,022
-288,847	-79,385	-0,095	-0,023
-287,832	180,321	-0,055	-0,058
-286,818	-157,310	0,021	-0,001
-285,803	88,704	0,151	0,121
-284,789	-22,896	0,072	0,031
-283,774	-200,000	-0,009	0,099
-282,759	25,211	-0,041	0,025
-281,745	294,387	-0,137	-0,182
-280,730	382,554	-0,039	-0,059
-279,716	-54,873	0,074	-0,024
-278,701	-104,953	0,019	-0,003
-277,686	-35,080	0,098	-0,039
-276,672	345,037	0,082	0,117
-275,657	-7,996	-0,060	-0,029
-274,643	11,698	0,091	-0,051
-273,628	377,971	-0,082	-0,122
-272,613	172,576	-0,034	0,035
-271,599	-68,526	0,074	-0,021
-270,584	-140,084	0,116	0,009
-269,570	-64,626	0,133	0,039
-268,555	72,345	0,059	0,044
-267,540	-200,000	-0,018	-0,072
-266,526	14,611	-0,068	-0,038
-265,511	-200,000	0,005	0,039
-264,497	800,000	-0,022	-0,058
-263,482	158,481	-0,123	0,124
-262,467	744,086	0,024	-0,046
-261,453	-110,485	-0,103	0,015
-260,438	122,066	-0,023	0,021
-259,424	163,899	0,018	0,019
-258,409	800,000	0,038	0,092
-257,395	140,174	0,047	0,045
-256,380	33,155	0,098	0,062
-255,365	276,876	0,036	-0,047
-254,351	-200,000	0,019	0,068
-253,336	-108,345	-0,054	0,008
-252,322	-40,661	0,128	-0,048
-251,307	138,379	0,083	-0,079
-250,292	567,823	-0,014	0,026
-249,278	-135,471	-0,010	-0,001
-248,263	100,665	0,088	-0,074
-247,249	587,999	0,077	0,137
-246,234	278,157	0,011	0,015
-245,219	-200,000	-0,040	-0,139
-244,205	353,752	0,064	0,093
-243,190	610,352	-0,024	-0,043
-242,176	161,584	0,096	0,097
-241,161	70,580	-0,116	-0,087
-240,146	283,332	-0,046	0,060
-239,132	-93,644	-0,009	0,002
-238,117	-163,185	-0,014	0,000
-237,103	678,781	-0,124	-0,235
-236,088	313,965	0,122	-0,166
-235,073	45,866	0,147	-0,098
-234,059	-200,000	0,009	-0,093
-233,044	800,000	0,063	0,197
-232,030	16,939	-0,111	0,064
-231,015	291,283	-0,049	-0,065
-230,000	-23,808	0,107	-0,046
-228,986	-200,000	-0,004	-0,036
-227,971	574,325	-0,030	-0,052
-226,957	137,431	0,077	-0,073
-225,942	800,000	0,037	-0,097
-224,927	218,635	-0,019	-0,022
-223,913	175,625	0,043	-0,045
-222,898	-68,476	-0,058	0,016
-221,884	-200,000	0,006	-0,098
-220,869	-35,120	0,136	0,053
-219,855	-11,544	-0,106	0,050
-218,840	184,010	0,083	0,089
-217,825	381,528	0,062	-0,092
-216,811	636,456	-0,041	-0,075
-215,796	800,000	0,021	-0,059
-214,782	37,866	0,037	-0,024
-213,767	-11,540	0,028	0,013
-212,752	80,463	-0,059	-0,046
-211,738	246,644	0,100	0,123
-210,723	-148,794	0,153	-0,009
-209,709	228,625	0,061	-0,072
-208,694	-85,313	0,084	-0,019
-207,679	-101,904	-0,126	-0,022
-206,665	-65,599	-0,086	-0,025
-205,650	-45,078	0,036	0,013
-204,636	-30,057	-0,111	0,046
-203,621	223,947	0,095	-0,111
-202,606	65,780	-0,052	0,038
-201,592	-156,924	-0,044	0,002
-200,577	5,753	0,083	-0,044
-199,563	800,000	-0,035	0,080
-198,548	-200,000	-0,006	-0,219
-197,533	90,982	0,035	-0,028
-196,519	-187,463	0,133	-0,001
-195,504	-10,002	-0,067	0,032
-194,490	567,365	0,059	0,104
-193,475	107,038	-0,089	0,076
-192,460	221,334	0,038	0,044
-191,446	30,343	-0,029	0,018
-190,431	539,593	0,103	0,178
-189,417	-200,000	0,026	0,122
-188,402	370,098	-0,075	0,110
-187,387	-83,328	-0,065	0,015
-186,373	800,000	-0,020	0,044
-185,358	-200,000	-0,001	-0,028
-184,344	-3,961	-0,055	0,027
-183,329	800,000	0,048	-0,102
-182,315	800,000	0,053	-0,106
-181,300	9,607	0,068	0,037
-180,285	-200,000	0,011	-0,044
-179,271	-116,848	-0,091	0,012
-178,256	92,947	0,034	0,027
-177,242	-104,544	0,176	0,029
-176,227	188,669	-0,103	0,112
-175,212	800,000	-0,027	-0,057
-174,198	216,212	0,101	-0,116
-173,183	4,025	0,034	0,018
-172,169	-200,000	0,016	-0,062
-171,154	268,458	-0,008	0,010
-170,139	-200,000	-0,055	0,178
-169,125	-37,574	0,091	-0,035
-168,110	267,777	-0,064	-0,082
-167,096	237,017	-0,105	-0,126
-166,081	-113,511	-0,082	0,011
-165,066	-200,000	-0,001	-0,028
-164,052	159,733	0,030	0,030
-163,037	-79,019	-0,034	-0,008
-162,023	349,099	-0,013	0,019
-161,008	1,486	-0,063	-0,032
-159,993	322,814	0,056	-0,077
-158,979	-44,443	-0,072	-0,026
-157,964	-70,092	-0,057	-0,016
-156,950	-200,000	-0,023	-0,135
-155,935	216,031	0,174	0,200
-154,920	314,184	0,048	-0,065
-153,906	-191,324	0,097	0,001
-152,891	-200,000	0,012	-0,088
-151,877	-68,749	0,128	-0,035
-150,862	800,000	-0,035	-0,092
-149,847	173,898	-0,009	0,009
-148,833	-61,531	0,025	0,007
-147,818	-200,000	0,022	-0,072
-146,804	-149,075	0,029	-0,002
-145,789	-33,998	-0,128	0,051
-144,775	181,446	-0,056	0,059
-143,760	321,591	-0,102	0,141
-142,745	-200,000	0,022	-0,121
-141,731	-103,265	-0,046	0,008
-140,716	174,569	0,049	-0,051
-139,702	-200,000	-0,029	-0,126
-138,687	-44,021	0,076	0,027
-137,672	549,429	0,029	0,050
-136,658	59,089	0,085	0,060
-135,643	207,966	-0,030	0,034
-134,629	-200,000	0,008	0,190
-133,614	-200,000	0,030	-0,098
-132,599	117,181	0,134	0,119
-131,585	545,155	0,063	0,109
-130,570	-200,000	-0,024	0,107
-129,556	-200,000	0,058	0,000
-128,541	-77,822	0,058	0,014
-127,526	-153,752	-0,110	0,005
-126,512	-137,608	0,083	0,007
-125,497	-93,969	-0,083	-0,016
-124,483	-200,000	-0,019	-0,128
-123,468	-200,000	-0,014	0,150
-122,453	-200,000	-0,034	-0,220
-121,439	714,916	-0,078	-0,150
-120,424	800,000	-0,017	-0,038
-119,410	438,535	0,044	-0,069
