DTS Sentinel unit serial number:	SN410029Multiplexer serial number:	ORYXHardware model number:	OX2-SRSoftware version number:	ORYX F/W v4,00 Oryx Data Collector v3.7.2.0data status	okinstallation	B5 Nyhavnadifferential loss correction	single-endedforward channel	channel 2reverse channel	N/Adate	2023/12/12time	06:22:13forward acquisition time	300,00reverse acquisition time	0,00gamma	499,1914k internal	0,3157k external	0,3157temperature offset calibration	1,0000default loss term (dB/km)	0,3820temperature slope calibration	1,0000multiplexer offset coefficient	1,0000multiplexer slope coefficient	1,0000fibre end	0,00T internal ref (°C)	15,25T ext. ref 1 (°C)	-1,16T ext. ref 2 (°C)	-1,44length (m)	temperature (°C)	Stokes	anti-Stokes-744,400	510,622	-0,079	0,135
-743,385	-48,488	-0,239	-0,084
-742,371	72,848	0,134	-0,103
-741,356	-62,188	-0,205	0,063
-740,342	-104,776	0,138	0,023
-739,327	-133,994	-0,334	-0,030
-738,312	800,000	0,044	-0,096
-737,298	-200,000	-0,222	0,000
-736,283	-144,456	0,066	-0,004
-735,269	-69,081	-0,261	0,073
-734,254	-23,262	0,107	-0,047
-733,239	-94,118	-0,461	-0,092
-732,225	-82,895	0,238	0,056
-731,210	800,000	0,046	0,131
-730,196	447,026	-0,033	-0,053
-729,181	69,245	-0,055	0,042
-728,167	-96,346	-0,069	0,013
-727,152	45,457	0,056	-0,038
-726,137	-200,000	0,029	-0,115
-725,123	800,000	0,036	-0,087
-724,108	28,589	-0,155	-0,096
-723,094	-200,000	0,002	-0,040
-722,079	-189,242	-0,155	0,001
-721,064	-129,286	0,085	-0,009
-720,050	296,247	-0,068	-0,092
-719,035	800,000	-0,014	-0,039
-718,021	101,192	-0,013	-0,011
-717,006	800,000	-0,045	-0,102
-715,991	-12,612	0,087	0,042
-714,977	-60,426	-0,028	0,009
-713,962	-200,000	-0,039	-0,159
-712,948	-200,000	0,004	0,101
-711,933	-200,000	-0,022	0,242
-710,918	540,129	-0,032	-0,057
-709,904	48,420	0,023	-0,016
-708,889	-88,612	-0,060	0,013
-707,875	-200,000	-0,008	-0,037
-706,860	-34,966	-0,065	0,026
-705,845	-35,696	-0,073	-0,029
-704,831	542,478	0,036	0,064
-703,816	72,697	0,064	0,049
-702,802	479,326	-0,013	-0,022
-701,787	277,125	-0,077	-0,101
-700,772	187,361	0,070	-0,077
-699,758	728,042	-0,072	0,143
-698,743	-200,000	0,020	0,086
-697,729	800,000	0,021	0,051
-696,714	-4,124	-0,089	0,045
-695,699	800,000	0,022	0,067
-694,685	44,022	-0,046	0,031
-693,670	18,598	-0,143	-0,084
-692,656	-38,645	-0,088	-0,034
-691,641	2,040	0,081	0,043
-690,627	9,183	0,062	0,035
-689,612	79,435	0,123	-0,097
-688,597	56,911	-0,209	-0,150
-687,583	778,779	-0,064	0,130
-686,568	104,062	-0,116	-0,101
-685,554	-108,898	0,046	-0,007
-684,539	162,438	0,062	-0,065
-683,524	800,000	-0,015	0,048
-682,510	483,036	-0,021	0,036
-681,495	474,745	-0,069	-0,115
-680,481	521,483	-0,047	0,082
-679,466	69,035	-0,125	-0,094
-678,451	800,000	0,032	-0,095
-677,437	41,730	-0,107	0,071
-676,422	157,489	-0,060	-0,061
-675,408	-116,216	0,129	0,017
-674,393	94,849	-0,041	-0,035
-673,378	-200,000	-0,015	0,062
-672,364	168,479	-0,023	0,024
-671,349	123,890	-0,006	-0,006
-670,335	-200,000	0,013	0,147
-669,320	317,390	-0,019	0,026
-668,305	-200,000	-0,008	-0,139
-667,291	-139,649	-0,117	-0,009
-666,276	116,058	-0,039	0,035
-665,262	540,573	-0,067	0,118
-664,247	-200,000	0,002	-0,179
-663,232	-29,870	-0,097	0,040
-662,218	91,228	-0,159	-0,131
-661,203	-186,216	0,147	0,002
-660,189	800,000	-0,086	-0,178
-659,174	-30,053	-0,008	0,003
-658,159	177,675	0,058	0,062
-657,145	72,594	-0,013	-0,010
-656,130	-54,857	-0,129	-0,043
-655,116	-200,000	0,015	0,059
-654,101	-200,000	0,005	0,048
-653,086	800,000	-0,042	-0,119
-652,072	-118,600	0,065	0,008
-651,057	43,429	-0,148	-0,099
-650,043	368,436	-0,085	0,127
-649,028	124,575	-0,070	0,065
-648,014	4,968	0,074	-0,040
-646,999	-31,455	-0,022	0,009
-645,984	-12,961	0,070	0,034
-644,970	138,157	-0,078	-0,076
-643,955	-105,654	-0,193	-0,032
-642,941	-29,309	0,102	-0,043
-641,926	-101,541	-0,124	0,022
-640,911	-73,124	0,113	-0,030
-639,897	-123,819	-0,123	-0,014
-638,882	204,518	0,044	0,050
-637,868	-200,000	-0,015	-0,078
-636,853	-23,786	-0,120	-0,052
-635,838	-200,000	0,009	0,089
-634,824	800,000	-0,046	-0,121
-633,809	712,799	0,037	-0,073
-632,795	80,500	-0,062	0,049
-631,780	-100,052	-0,146	-0,027
-630,765	-200,000	0,037	-0,182
-629,751	-113,709	-0,201	-0,028
-628,736	-200,000	0,003	0,017
-627,722	800,000	-0,019	-0,041
-626,707	-200,000	-0,020	0,115
-625,692	-71,483	0,060	0,016
-624,678	717,722	0,021	0,042
-623,663	-200,000	0,024	0,105
-622,649	474,853	-0,042	0,070
-621,634	-200,000	0,002	-0,041
-620,619	-200,000	0,001	-0,020
-619,605	-180,336	0,060	0,001
-618,590	591,728	0,040	0,073
-617,576	-200,000	0,005	-0,026
-616,561	-144,037	-0,113	-0,008
-615,546	-200,000	-0,012	-0,204
-614,532	-200,000	0,003	-0,085
-613,517	-200,000	-0,015	-0,130
-612,503	-28,405	0,098	0,041
-611,488	115,545	0,054	0,048
-610,474	767,733	-0,100	0,201
-609,459	41,830	-0,045	-0,030
-608,444	-200,000	-0,011	0,067
-607,430	800,000	-0,036	-0,117
-606,415	-200,000	0,003	0,025
-605,401	11,488	-0,065	0,036
-604,386	-200,000	-0,012	0,000
-603,371	-200,000	-0,005	0,148
-602,357	-104,737	-0,074	0,012
-601,342	-56,704	-0,044	0,014
-600,328	49,382	-0,083	-0,057
-599,313	-76,181	-0,125	-0,032
-598,298	-56,695	0,081	0,026
-597,284	288,148	0,059	-0,079
-596,269	-33,547	0,118	0,047
-595,255	-106,212	0,068	-0,011
-594,240	-61,337	-0,106	0,033
-593,225	-200,000	0,008	-0,092
-592,211	-71,425	-0,083	0,023
-591,196	38,916	-0,012	0,008
-590,182	86,166	0,124	-0,100
-589,167	800,000	0,062	0,174
-588,152	-109,153	-0,065	0,010
-587,138	-68,381	-0,095	-0,027
-586,123	-109,076	0,095	-0,015
-585,109	-161,195	0,085	0,003
-584,094	-200,000	-0,025	-0,135
-583,079	31,081	0,026	0,016
-582,065	-111,142	0,056	0,008
-581,050	131,587	0,076	0,071
-580,036	-200,000	-0,001	-0,087
-579,021	42,731	-0,093	-0,062
-578,006	-200,000	-0,007	-0,080
-576,992	-72,828	-0,079	-0,021
-575,977	-24,927	-0,078	-0,034
-574,963	-200,000	0,041	0,137
-573,948	800,000	0,015	0,040
-572,934	-200,000	0,005	-0,076
-571,919	406,155	-0,045	0,070
-570,904	-79,261	0,053	-0,013
-569,890	52,436	-0,097	0,067
-568,875	-110,897	-0,119	0,018
-567,861	-200,000	-0,003	-0,084
-566,846	-200,000	-0,004	0,108
-565,831	251,919	-0,061	-0,077
-564,817	800,000	0,024	0,049
-563,802	672,415	0,048	0,091
-562,788	-92,099	-0,102	0,021
-561,773	-53,008	0,020	0,007
-560,758	-17,031	0,016	-0,007
-559,744	33,175	-0,035	-0,022
-558,729	-57,453	0,113	0,036
-557,715	-200,000	-0,003	0,026
-556,700	282,792	0,020	0,026
-555,685	-200,000	0,012	-0,044
-554,671	-200,000	0,020	0,068
-553,656	-52,581	0,087	-0,029
-552,642	-3,815	0,033	0,017
-551,627	3,104	0,042	0,022
-550,612	57,328	-0,103	0,073
-549,598	404,683	-0,097	0,150
-548,583	-60,396	0,070	-0,022
-547,569	-123,781	0,121	-0,014
-546,554	205,246	0,119	0,135
-545,539	-200,000	0,014	0,075
-544,525	32,837	-0,056	-0,035
-543,510	800,000	-0,033	-0,098
-542,496	-47,205	-0,157	-0,056
-541,481	-200,000	0,018	-0,177
-540,466	88,535	-0,226	0,183
-539,452	-200,000	-0,015	-0,081
-538,437	-53,633	0,096	0,032
-537,423	362,919	-0,041	-0,060
-536,408	252,591	0,029	0,036
-535,393	325,248	0,041	-0,057
-534,379	800,000	-0,035	-0,074
-533,364	266,072	-0,045	0,058
-532,350	200,959	0,048	0,054
-531,335	313,757	0,033	0,046
-530,321	-200,000	-0,009	0,061
-529,306	-200,000	-0,012	-0,112
-528,291	134,585	-0,080	-0,076
-527,277	36,069	-0,104	-0,067
-526,262	-200,000	-0,018	0,072
-525,248	-148,721	0,107	-0,006
-524,233	31,710	0,065	-0,041
-523,218	-89,170	0,057	0,012
-522,204	280,805	-0,056	-0,073
-521,189	-131,340	-0,148	0,014
-520,175	40,425	-0,097	-0,064
-519,160	150,656	0,033	-0,032
-518,145	735,408	-0,026	-0,051
-517,131	-200,000	-0,000	0,101
-516,116	104,638	0,020	-0,017
-515,102	-57,415	0,091	0,029
-514,087	-125,679	-0,109	-0,012
-513,072	-97,324	0,138	-0,026
-512,058	-200,000	-0,013	-0,086
-511,043	-200,000	-0,021	-0,131
-510,029	-93,228	-0,044	0,009
-509,014	-100,177	-0,101	-0,018
-507,999	-200,000	0,012	-0,100
-506,985	-103,492	-0,071	-0,012
-505,970	-40,941	-0,167	0,063
-504,956	173,997	0,087	-0,092
-503,941	315,134	0,013	0,018
-502,926	-98,595	0,147	-0,027
-501,912	-1,690	-0,108	0,055
-500,897	-90,220	0,113	-0,024
-499,883	-104,483	0,049	0,008
-498,868	49,957	-0,124	-0,085
-497,853	800,000	0,017	-0,046
-496,839	800,000	0,047	-0,097
-495,824	800,000	-0,014	0,035
-494,810	-122,260	0,169	0,020
-493,795	36,489	-0,080	0,051
-492,781	-200,000	0,017	-0,083
-491,766	313,797	-0,047	-0,064
-490,751	-50,488	-0,087	0,030
-489,737	447,429	0,038	-0,062
-488,722	-200,000	-0,001	-0,033
-487,708	-157,400	-0,081	0,003
-486,693	800,000	-0,025	0,077
-485,678	-130,281	-0,081	0,008
-484,664	-59,210	-0,152	-0,047
-483,649	425,622	-0,046	-0,072
-482,635	-181,372	0,107	-0,001
-481,620	81,891	-0,066	-0,052
-480,605	-11,687	-0,034	0,016
-479,591	-200,000	0,000	-0,019
-478,576	226,857	0,041	-0,049
-477,562	-58,601	0,143	0,045
-476,547	-76,037	-0,200	0,051
-475,532	-200,000	-0,021	-0,076
-474,518	-200,000	0,012	0,081
-473,503	-19,346	-0,056	0,025
-472,489	-112,824	-0,099	0,014
-471,474	80,809	-0,008	0,006
-470,459	18,511	-0,132	-0,077
-469,445	45,041	0,030	0,020
-468,430	-100,677	-0,040	0,007
-467,416	-22,765	0,097	0,042
-466,401	-200,000	0,021	-0,096
-465,386	-200,000	-0,003	0,027
-464,372	-200,000	0,028	-0,120
-463,357	-200,000	-0,013	-0,089
-462,343	271,968	-0,013	0,017
-461,328	126,316	0,026	0,024
-460,313	141,467	0,054	-0,052
-459,299	-188,636	0,119	-0,001
-458,284	-200,000	0,001	-0,016
-457,270	-200,000	0,011	-0,056
-456,255	85,382	-0,095	-0,076
-455,241	472,273	-0,031	-0,051
-454,226	771,797	0,098	0,197
-453,211	-18,739	0,098	0,044
-452,197	800,000	0,045	0,123
-451,182	-6,573	0,067	-0,033
-450,168	359,798	0,036	0,052
-449,153	800,000	-0,021	0,045
-448,138	-200,000	0,032	-0,161
-447,124	131,501	-0,051	-0,048
-446,109	118,144	0,046	-0,041
-445,095	-134,578	0,057	-0,005
-444,080	102,192	0,069	0,058
-443,065	49,021	0,103	0,070
-442,051	-7,678	-0,099	0,049
-441,036	-129,888	0,060	-0,006
-440,022	39,369	0,047	-0,030
-439,007	297,529	0,040	0,053
-437,992	191,987	0,075	-0,082
-436,978	-63,042	0,070	0,021
-435,963	18,244	-0,046	-0,027
-434,949	-2,068	0,021	0,011
-433,934	800,000	-0,016	-0,039
-432,919	-147,308	0,114	0,007
-431,905	29,921	-0,085	0,053
-430,890	-46,976	0,074	0,026
-429,876	106,761	-0,092	0,079
-428,861	-200,000	0,007	0,031
-427,846	81,143	0,114	-0,090
-426,832	358,587	-0,027	-0,039
-425,817	98,679	-0,037	-0,031
-424,803	-59,443	-0,120	0,037
-423,788	64,104	0,123	-0,090
-422,773	-12,370	0,025	0,012
-421,759	-73,783	0,065	0,017
-420,744	-136,612	-0,048	-0,004
-419,730	327,394	0,077	-0,108
-418,715	800,000	0,053	0,131
-417,701	800,000	-0,022	-0,067
-416,686	-147,792	0,133	-0,008
-415,671	359,464	-0,052	0,076
-414,657	-200,000	0,024	0,119
-413,642	-200,000	0,001	0,074
-412,628	21,980	0,028	-0,016
-411,613	752,840	-0,064	0,126
-410,598	502,938	0,047	0,079
-409,584	-95,123	-0,122	0,024
-408,569	-60,354	0,095	-0,029
-407,555	-15,801	0,153	0,071
-406,540	110,188	-0,081	0,071
-405,525	800,000	0,067	0,154
-404,511	800,000	0,030	0,078
-403,496	-187,616	-0,056	-0,001
-402,482	-200,000	0,027	-0,092
-401,467	377,799	-0,031	0,046
-400,452	-200,000	0,001	-0,058
-399,438	94,739	-0,086	0,071
-398,423	-200,000	-0,010	-0,070
-397,409	-31,387	-0,086	-0,035
-396,394	-200,000	-0,008	-0,047
-395,379	800,000	0,019	-0,046
-394,365	60,446	0,116	0,083
-393,350	800,000	-0,034	0,073
-392,336	335,974	-0,017	-0,024
-391,321	-200,000	-0,005	0,023
-390,306	741,675	-0,015	0,030
-389,292	296,492	-0,088	-0,118
-388,277	-200,000	0,030	-0,099
-387,263	-188,429	-0,120	-0,001
-386,248	800,000	-0,018	-0,038
-385,233	-134,493	0,060	-0,005
-384,219	365,428	0,035	-0,051
-383,204	800,000	0,012	0,037
-382,190	61,100	0,069	0,049
-381,175	41,309	-0,104	0,068
-380,160	-156,781	0,084	0,004
-379,146	800,000	-0,055	0,140
-378,131	-108,119	-0,102	-0,016
-377,117	-200,000	-0,011	-0,242
-376,102	-97,148	-0,093	-0,018
-375,088	800,000	0,036	-0,087
-374,073	415,556	-0,025	-0,039
-373,058	-127,861	0,059	0,006
-372,044	279,743	-0,074	0,096
-371,029	769,937	-0,007	-0,014
-370,015	42,992	-0,136	-0,090
-369,000	-44,495	0,051	0,018
-367,985	-32,196	-0,064	0,026
-366,971	29,574	0,066	0,040
-365,956	-4,568	-0,044	-0,022
-364,942	-86,617	0,117	-0,026
-363,927	37,025	-0,018	-0,012
-362,912	-200,000	-0,042	0,174
-361,898	65,769	-0,032	0,023
-360,883	208,484	-0,063	0,071
-359,869	-104,658	-0,026	-0,004
-358,854	-42,753	-0,008	-0,003
-357,839	800,000	0,029	0,066
-356,825	162,546	0,052	0,053
-355,810	-141,476	0,149	-0,011
-354,796	130,248	0,064	0,060
-353,781	175,618	-0,062	0,065
-352,766	108,942	-0,074	-0,064
-351,752	157,949	0,054	0,054
-350,737	23,060	0,085	-0,050
-349,723	42,341	0,057	0,038
-348,708	231,151	0,058	0,070
-347,693	-125,403	0,089	0,010
-346,679	-108,845	0,060	-0,009
-345,664	-133,432	0,093	-0,008
-344,650	-113,855	-0,064	-0,009
-343,635	20,087	-0,024	-0,014
-342,620	-11,894	-0,031	-0,015
-341,606	-200,000	-0,017	0,122
-340,591	360,621	-0,039	0,057
-339,577	-34,434	-0,130	0,052
-338,562	99,759	0,032	-0,027
-337,548	54,212	-0,033	0,023
-336,533	-200,000	0,033	0,156
-335,518	-105,799	0,064	0,010
-334,504	98,160	-0,071	0,059
-333,489	800,000	-0,068	0,152
-332,475	-46,410	-0,130	0,046
-331,460	613,762	-0,079	-0,144
-330,445	792,065	-0,057	0,114
-329,431	242,092	0,041	0,050
-328,416	-200,000	0,004	0,063
-327,402	-120,256	0,212	-0,026
-326,387	160,349	-0,039	-0,039
-325,372	-130,434	-0,140	0,014
-324,358	56,261	-0,193	-0,136
-323,343	-143,391	0,165	0,011
-322,329	324,508	-0,048	0,067
-321,314	-200,000	0,011	0,066
-320,299	-200,000	0,007	0,070
-319,285	310,419	-0,030	-0,040
-318,270	86,778	-0,073	-0,058
-317,256	23,135	0,120	-0,071
-316,241	17,509	-0,120	0,069
-315,226	72,792	-0,068	0,051
-314,212	-176,477	0,148	0,003
-313,197	-159,849	0,054	-0,002
-312,183	152,120	-0,037	-0,036
-311,168	-52,959	0,105	-0,035
-310,153	253,949	-0,083	0,103
-309,139	162,998	0,028	-0,028
-308,124	-157,002	-0,183	-0,008
-307,110	-200,000	-0,008	0,080
-306,095	42,383	0,098	-0,064
-305,080	231,807	0,058	-0,069
-304,066	800,000	-0,032	0,066
-303,051	-200,000	0,003	-0,130
-302,037	9,529	0,080	-0,044
-301,022	274,591	-0,014	0,018
-300,008	-200,000	0,023	-0,094
-298,993	-200,000	0,001	0,122
-297,978	-106,195	0,158	-0,025
-296,964	-63,267	-0,070	-0,021
-295,949	25,405	-0,043	0,026
-294,935	430,498	-0,062	-0,098
-293,920	348,834	-0,036	-0,052
-292,905	72,710	0,066	0,050
-291,891	11,871	0,071	0,040
-290,876	-62,346	0,076	-0,023
-289,862	47,042	-0,153	-0,103
-288,847	-60,617	0,024	-0,007
-287,832	-200,000	0,002	-0,040
-286,818	-83,354	-0,064	-0,015
-285,803	47,819	0,144	0,097
-284,789	-200,000	0,016	0,103
-283,774	373,063	0,088	0,130
-282,759	-200,000	0,016	-0,113
-281,745	-61,004	-0,082	-0,025
-280,730	-76,704	-0,048	-0,012
-279,716	-200,000	0,001	0,175
-278,701	589,102	0,062	0,111
-277,686	800,000	0,036	0,104
-276,672	800,000	0,028	0,088
-275,657	-185,608	-0,042	0,000
-274,643	213,979	-0,035	-0,040
-273,628	-200,000	-0,028	-0,108
-272,613	62,294	0,083	-0,060
-271,599	87,215	-0,048	0,038
-270,584	-89,051	-0,018	0,004
-269,570	-200,000	-0,005	-0,032
-268,555	-200,000	0,084	0,000
-267,540	42,094	-0,124	0,081
-266,526	-200,000	0,035	-0,160
-265,511	-200,000	0,013	0,046
-264,497	361,836	0,029	0,042
-263,482	-200,000	0,004	0,071
-262,467	-82,692	-0,119	0,028
-261,453	-17,788	0,092	0,042
-260,438	800,000	0,037	0,113
-259,424	-200,000	-0,007	-0,110
-258,409	137,481	0,040	0,038
-257,395	-200,000	-0,011	-0,061
-256,380	-200,000	0,009	-0,054
-255,365	-200,000	0,006	0,041
-254,351	-29,315	0,148	0,061
-253,336	-160,055	0,094	-0,004
-252,322	-136,640	-0,197	-0,016
-251,307	800,000	0,043	0,128
-250,292	-132,344	0,102	0,009
-249,278	17,080	0,132	0,075
-248,263	800,000	-0,011	-0,034
-247,249	-200,000	0,023	-0,096
-246,234	800,000	0,043	-0,095
-245,219	-71,917	-0,060	0,016
-244,205	-148,863	0,121	0,007
-243,190	-200,000	-0,012	-0,080
-242,176	-28,668	0,033	0,014
-241,161	800,000	0,038	0,081
-240,146	732,157	0,024	-0,047
-239,132	-200,000	0,010	-0,033
-238,117	-64,995	-0,092	-0,027
-237,103	108,053	-0,095	0,081
-236,088	-104,731	-0,103	0,017
-235,073	-55,673	-0,033	0,010
-234,059	-162,147	-0,056	0,002
-233,044	-45,028	0,084	0,030
-232,030	-111,723	0,175	0,025
-231,015	32,324	-0,136	-0,085
-230,000	90,785	-0,072	0,059
-228,986	96,730	0,054	-0,045
-227,971	-53,614	-0,046	-0,015
-226,957	-157,680	0,074	0,003
-225,942	-200,000	0,024	-0,094
-224,927	141,036	0,027	-0,025
-223,913	-200,000	-0,003	-0,087
-222,898	-200,000	-0,005	-0,059
-221,884	-200,000	0,025	-0,097
-220,869	-143,118	-0,085	-0,006
-219,855	-75,565	0,128	0,033
-218,840	340,341	0,057	0,080
-217,825	-167,665	-0,049	-0,001
-216,811	800,000	0,033	-0,102
-215,796	-200,000	-0,017	-0,072
-214,782	-61,610	0,047	-0,014
-213,767	-33,719	-0,110	-0,044
-212,752	-27,568	0,076	0,032
-211,738	-157,219	0,086	0,004
-210,723	-200,000	-0,021	-0,076
-209,709	34,893	-0,057	-0,036
-208,694	92,726	0,063	-0,052
-207,679	82,747	-0,012	-0,009
-206,665	190,788	0,034	-0,037
-205,650	-45,291	0,035	0,012
-204,636	-2,617	0,069	0,035
-203,621	271,975	0,049	0,062
-202,606	511,227	-0,047	0,079
-201,592	61,958	-0,109	0,078
-200,577	800,000	-0,032	-0,075
-199,563	33,118	0,047	-0,029
-198,548	75,182	0,055	-0,042
-197,533	-200,000	0,009	-0,164
-196,519	-144,818	0,097	-0,006
-195,504	-200,000	-0,022	-0,112
-194,490	-108,594	0,051	-0,008
-193,475	35,346	-0,086	-0,054
-192,460	227,305	0,038	-0,045
-191,446	143,545	0,085	0,082
-190,431	-200,000	0,022	0,082
-189,417	535,402	-0,015	0,025
-188,402	-200,000	0,004	-0,044
-187,387	33,296	-0,064	-0,040
-186,373	-200,000	-0,024	0,094
-185,358	-107,056	0,068	-0,011
-184,344	120,733	-0,041	0,037
-183,329	-55,546	0,145	-0,047
-182,315	-147,304	0,035	-0,002
-181,300	800,000	-0,009	0,025
-180,285	-98,859	-0,027	-0,005
-179,271	-200,000	-0,022	0,101
-178,256	10,126	0,072	-0,039
-177,242	93,402	0,143	0,117
-176,227	626,800	-0,034	0,063
-175,212	322,971	0,065	0,090
-174,198	-55,644	0,058	0,019
-173,183	-200,000	-0,016	-0,166
-172,169	-200,000	0,005	-0,255
-171,154	-24,080	-0,128	-0,055
-170,139	-9,600	0,150	0,072
-169,125	-200,000	-0,037	0,132
-168,110	361,896	0,043	0,063
-167,096	-200,000	-0,016	0,062
-166,081	-13,256	-0,108	-0,051
-165,066	800,000	-0,029	0,063
-164,052	779,478	-0,036	0,071
-163,037	-104,959	0,145	0,024
-162,023	-56,677	0,085	-0,027
-161,008	670,220	0,021	-0,040
-159,993	-126,719	0,025	0,003
-158,979	-102,824	-0,108	-0,018
-157,964	195,244	-0,037	0,041
-156,950	41,012	-0,091	-0,059
-155,935	452,309	0,049	-0,079
-154,920	-200,000	0,011	-0,038
-153,906	97,848	0,035	0,029
-152,891	-34,460	-0,071	-0,028
-151,877	-83,652	-0,017	-0,004
-150,862	166,785	-0,125	-0,128
-149,847	122,396	-0,111	-0,100
-148,833	322,900	-0,106	-0,145
-147,818	800,000	-0,018	-0,037
-146,804	21,050	0,025	0,014
-145,789	-169,125	-0,102	-0,003
-144,775	-68,275	-0,037	0,010
-143,760	-179,954	-0,030	0,000
-142,745	-126,091	-0,177	0,019
-141,731	-38,502	0,074	0,028
-140,716	-186,635	-0,091	0,001
-139,702	24,562	-0,083	0,049
-138,687	249,022	0,037	-0,046
-137,672	-200,000	-0,001	0,065
-136,658	177,127	0,083	-0,087
-135,643	19,338	-0,121	0,070
-134,629	-79,032	0,092	-0,022
-133,614	-200,000	-0,071	-0,000
-132,599	800,000	0,091	0,194
-131,585	-200,000	-0,003	0,126
-130,570	-200,000	0,046	-0,147
-129,556	-56,015	-0,085	0,027
-128,541	36,579	0,053	0,033
-127,526	800,000	-0,048	0,098
-126,512	-20,729	-0,067	0,029
-125,497	-147,286	0,088	0,005
-124,483	-200,000	0,011	0,058
-123,468	-15,629	-0,023	0,010
-122,453	800,000	-0,053	-0,159
-121,439	-200,000	0,014	0,067
-120,424	-172,535	-0,065	0,001
-119,410	143,108	0,035	0,033
