DTS Sentinel unit serial number:	SN410029Multiplexer serial number:	ORYXHardware model number:	OX2-SRSoftware version number:	ORYX F/W v4,00 Oryx Data Collector v3.7.2.0data status	okinstallation	B5 Nyhavnadifferential loss correction	single-endedforward channel	channel 2reverse channel	N/Adate	2023/12/12time	13:02:13forward acquisition time	300,00reverse acquisition time	0,00gamma	499,1914k internal	0,3158k external	0,3158temperature offset calibration	1,0000default loss term (dB/km)	0,3820temperature slope calibration	1,0000multiplexer offset coefficient	1,0000multiplexer slope coefficient	1,0000fibre end	0,00T internal ref (°C)	15,49T ext. ref 1 (°C)	-0,45T ext. ref 2 (°C)	-0,69length (m)	temperature (°C)	Stokes	anti-Stokes-744,400	89,053	0,164	0,135
-743,385	-198,895	-0,217	0,001
-742,371	-171,324	0,186	-0,004
-741,356	-17,101	-0,207	-0,096
-740,342	167,756	-0,047	0,049
-739,327	-56,511	-0,276	-0,090
-738,312	-108,963	0,175	-0,027
-737,298	-43,625	-0,368	0,136
-736,283	-162,365	0,121	0,004
-735,269	-159,543	-0,419	0,017
-734,254	-70,095	0,104	0,029
-733,239	-86,965	-0,460	-0,103
-732,225	126,264	0,151	-0,140
-731,210	721,868	0,033	0,065
-730,196	15,185	0,073	-0,042
-729,181	-200,000	-0,010	0,042
-728,167	136,296	0,079	0,076
-727,152	26,601	-0,159	-0,098
-726,137	-200,000	-0,001	-0,154
-725,123	-200,000	0,001	-0,068
-724,108	174,697	-0,094	-0,101
-723,094	-64,968	-0,107	-0,032
-722,079	86,029	-0,156	-0,126
-721,064	377,656	0,056	0,085
-720,050	800,000	0,055	0,163
-719,035	-200,000	-0,038	-0,178
-718,021	-200,000	-0,002	-0,114
-717,006	-65,404	-0,152	-0,045
-715,991	-76,093	-0,067	-0,017
-714,977	-200,000	0,005	-0,146
-713,962	579,909	-0,071	-0,129
-712,948	-34,690	-0,133	-0,053
-711,933	-200,000	0,001	0,047
-710,918	-200,000	-0,024	-0,094
-709,904	-50,383	-0,184	-0,064
-708,889	140,852	-0,117	-0,114
-707,875	-200,000	-0,030	-0,142
-706,860	-22,585	0,076	0,034
-705,845	-179,900	0,103	-0,002
-704,831	-200,000	-0,001	-0,026
-703,816	-27,031	0,047	0,020
-702,802	115,328	-0,077	0,069
-701,787	28,146	0,094	-0,058
-700,772	-200,000	0,033	-0,123
-699,758	299,951	-0,062	0,084
-698,743	70,417	0,026	0,020
-697,729	222,180	-0,054	0,064
-696,714	455,472	0,020	0,033
-695,699	11,538	-0,154	-0,087
-694,685	500,539	0,053	-0,091
-693,670	386,716	-0,068	-0,103
-692,656	49,189	-0,138	-0,096
-691,641	800,000	-0,037	0,080
-690,627	-129,766	0,058	0,006
-689,612	516,323	-0,064	0,111
-688,597	-200,000	0,042	0,164
-687,583	54,709	-0,198	0,140
-686,568	616,073	-0,048	-0,089
-685,554	61,431	-0,070	-0,051
-684,539	642,464	0,053	-0,100
-683,524	490,108	-0,015	-0,026
-682,510	-200,000	-0,008	-0,082
-681,495	415,676	0,078	0,123
-680,481	-200,000	0,008	-0,130
-679,466	800,000	-0,060	-0,124
-678,451	-200,000	0,024	0,090
-677,437	-200,000	0,011	0,054
-676,422	-200,000	0,001	0,009
-675,408	-200,000	0,002	-0,007
-674,393	319,387	0,088	-0,123
-673,378	132,255	-0,125	-0,118
-672,364	800,000	-0,053	-0,160
-671,349	-200,000	-0,021	0,069
-670,335	-83,678	0,025	0,006
-669,320	666,079	-0,052	-0,099
-668,305	40,580	0,087	-0,058
-667,291	-96,232	-0,089	0,017
-666,276	0,292	-0,023	0,012
-665,262	-78,279	-0,088	0,022
-664,247	800,000	-0,029	-0,086
-663,232	768,485	0,101	-0,204
-662,218	-200,000	0,005	0,029
-661,203	158,438	0,040	-0,041
-660,189	800,000	0,026	0,059
-659,174	-84,522	0,030	0,007
-658,159	-48,491	-0,184	0,065
-657,145	31,858	-0,054	0,034
-656,130	-200,000	-0,042	-0,166
-655,116	-143,959	-0,139	-0,009
-654,101	196,785	-0,059	0,066
-653,086	21,794	0,049	0,029
-652,072	-200,000	0,021	-0,133
-651,057	614,218	-0,056	-0,104
-650,043	177,460	0,079	-0,085
-649,028	15,248	0,099	0,057
-648,014	-91,148	0,062	0,013
-646,999	147,759	0,003	-0,003
-645,984	174,033	-0,082	-0,087
-644,970	-200,000	-0,005	-0,048
-643,955	-129,775	0,060	-0,006
-642,941	-129,014	-0,118	-0,012
-641,926	23,101	0,006	0,003
-640,911	-200,000	-0,029	0,209
-639,897	-4,007	-0,086	0,044
-638,882	36,924	-0,061	-0,039
-637,868	91,536	-0,100	-0,083
-636,853	64,165	-0,042	-0,031
-635,838	-134,674	0,065	-0,006
-634,824	-84,504	-0,059	-0,013
-633,809	-147,350	0,074	0,005
-632,795	192,244	0,059	-0,066
-631,780	800,000	-0,045	0,105
-630,765	-30,805	0,033	-0,014
-629,751	236,546	-0,045	-0,055
-628,736	800,000	0,087	-0,214
-627,722	582,728	-0,038	-0,068
-626,707	-200,000	0,007	0,152
-625,692	322,553	-0,084	0,118
-624,678	80,264	0,066	-0,052
-623,663	-4,046	-0,076	0,039
-622,649	410,538	-0,088	-0,138
-621,634	-141,686	0,031	0,002
-620,619	362,021	-0,049	0,072
-619,605	228,902	-0,076	-0,091
-618,590	800,000	-0,044	-0,112
-617,576	-70,924	0,187	-0,051
-616,561	276,487	-0,039	0,050
-615,546	75,238	-0,073	-0,056
-614,532	800,000	-0,039	-0,104
-613,517	41,023	-0,043	-0,028
-612,503	-154,488	0,019	0,001
-611,488	420,800	0,082	0,130
-610,474	-66,344	0,059	-0,017
-609,459	259,138	0,033	-0,042
-608,444	-152,198	-0,177	0,009
-607,430	-52,319	-0,037	-0,012
-606,415	-117,510	-0,128	0,017
-605,401	-200,000	-0,017	-0,131
-604,386	-95,986	-0,092	0,018
-603,371	-200,000	0,006	-0,028
-602,357	-96,538	0,114	-0,022
-601,342	58,593	-0,040	0,029
-600,328	-132,970	-0,124	0,011
-599,313	-94,951	0,099	0,019
-598,298	18,169	-0,126	-0,073
-597,284	-34,570	0,024	0,009
-596,269	452,940	-0,034	0,056
-595,255	-13,103	0,098	0,047
-594,240	225,815	-0,051	0,060
-593,225	-33,831	-0,065	-0,026
-592,211	191,973	-0,041	-0,046
-591,196	-14,227	-0,096	0,045
-590,182	227,555	0,122	0,146
-589,167	-25,038	0,049	0,021
-588,152	254,061	-0,084	0,105
-587,138	-96,589	-0,161	0,031
-586,123	-61,113	0,167	-0,051
-585,109	692,383	0,025	0,047
-584,094	800,000	0,007	-0,017
-583,079	-200,000	-0,005	-0,029
-582,065	-95,429	0,051	-0,010
-581,050	-109,928	-0,039	-0,006
-580,036	479,377	0,040	-0,067
-579,021	187,405	-0,083	-0,091
-578,006	262,229	0,099	-0,126
-576,992	-146,718	-0,069	0,004
-575,977	-148,507	0,039	0,002
-574,963	-37,816	-0,141	-0,055
-573,948	440,479	-0,050	0,081
-572,934	-11,278	0,091	-0,044
-571,919	382,899	0,025	0,038
-570,904	-200,000	-0,005	-0,027
-569,890	324,823	-0,068	-0,095
-568,875	-200,000	0,016	0,111
-567,861	-177,225	0,045	0,001
-566,846	-200,000	-0,013	0,080
-565,831	-144,205	0,118	0,008
-564,817	-200,000	-0,006	0,036
-563,802	576,779	-0,018	0,032
-562,788	18,870	0,028	-0,016
-561,773	-200,000	0,018	0,160
-560,758	35,915	0,038	0,024
-559,744	11,407	-0,116	0,065
-558,729	657,815	0,053	-0,100
-557,715	-151,450	-0,043	0,002
-556,700	-144,863	0,115	-0,008
-555,685	-200,000	-0,007	-0,152
-554,671	730,765	0,025	0,049
-553,656	-5,229	0,013	-0,006
-552,642	514,487	-0,031	-0,052
-551,627	-200,000	0,026	-0,128
-550,612	7,514	0,049	0,027
-549,598	-117,307	-0,101	-0,013
-548,583	-24,725	-0,110	-0,047
-547,569	417,372	0,140	-0,219
-546,554	-16,779	-0,036	0,017
-545,539	-200,000	0,021	-0,071
-544,525	-53,958	0,026	-0,009
-543,510	-200,000	0,019	0,098
-542,496	510,115	-0,016	-0,028
-541,481	-200,000	0,012	0,057
-540,466	800,000	-0,017	0,037
-539,452	557,011	-0,038	0,067
-538,437	232,251	-0,077	0,093
-537,423	441,455	0,059	-0,096
-536,408	-200,000	-0,016	-0,126
-535,393	158,231	0,012	-0,012
-534,379	-101,289	-0,099	0,018
-533,364	-200,000	0,004	-0,057
-532,350	-18,179	-0,113	0,051
-531,335	-77,457	0,096	-0,024
-530,321	65,155	0,105	-0,078
-529,306	345,039	-0,065	-0,094
-528,291	-101,498	0,153	-0,027
-527,277	-200,000	0,035	0,116
-526,262	-170,284	0,115	0,003
-525,248	-200,000	0,047	-0,153
-524,233	16,430	0,077	-0,044
-523,218	800,000	-0,007	0,016
-522,204	800,000	-0,029	-0,074
-521,189	35,239	0,075	-0,048
-520,175	-47,255	-0,184	0,065
-519,160	44,897	0,220	-0,148
-518,145	-75,239	-0,035	-0,009
-517,131	-200,000	0,011	0,050
-516,116	132,938	-0,084	-0,079
-515,102	-154,111	-0,039	0,002
-514,087	443,720	0,026	0,042
-513,072	405,231	-0,071	-0,110
-512,058	334,607	-0,106	-0,150
-511,043	-77,619	0,089	0,022
-510,029	153,346	0,027	-0,027
-509,014	-200,000	0,015	0,159
-507,999	800,000	-0,003	-0,007
-506,985	416,059	0,025	-0,039
-505,970	32,527	-0,050	-0,031
-504,956	75,030	0,070	-0,054
-503,941	-200,000	-0,020	0,089
-502,926	800,000	-0,043	-0,106
-501,912	-200,000	0,010	0,070
-500,897	-200,000	0,012	0,243
-499,883	126,568	-0,092	0,085
-498,868	800,000	-0,054	-0,119
-497,853	32,914	-0,060	0,038
-496,839	199,983	0,100	-0,113
-495,824	-64,167	0,160	0,047
-494,810	82,576	-0,054	0,043
-493,795	18,398	-0,085	-0,050
-492,781	525,154	-0,052	0,091
-491,766	24,982	-0,033	0,020
-490,751	-200,000	-0,022	-0,104
-489,737	294,111	-0,047	0,063
-488,722	-200,000	0,003	0,066
-487,708	-97,666	0,094	0,018
-486,693	179,403	0,126	-0,134
-485,678	-200,000	-0,009	-0,031
-484,664	40,233	-0,116	0,076
-483,649	28,654	-0,051	-0,032
-482,635	636,017	-0,062	-0,115
-481,620	-200,000	0,001	-0,201
-480,605	-200,000	-0,005	0,103
-479,591	-119,198	-0,140	0,018
-478,576	-200,000	-0,008	0,099
-477,562	-200,000	-0,006	-0,054
-476,547	193,485	-0,033	0,037
-475,532	-60,092	0,089	-0,028
-474,518	-200,000	0,002	-0,087
-473,503	-200,000	-0,002	0,023
-472,489	-99,425	0,150	0,027
-471,474	71,641	0,101	0,076
-470,459	-200,000	-0,011	-0,073
-469,445	-200,000	-0,002	0,044
-468,430	800,000	-0,020	0,056
-467,416	-200,000	-0,010	-0,049
-466,401	-200,000	0,002	-0,062
-465,386	-131,449	0,075	0,007
-464,372	-200,000	-0,014	0,110
-463,357	148,237	-0,093	0,092
-462,343	-200,000	0,008	-0,050
-461,328	800,000	-0,032	-0,097
-460,313	383,582	0,061	0,092
-459,299	-21,073	-0,070	-0,031
-458,284	60,624	-0,097	-0,070
-457,270	-200,000	0,022	0,077
-456,255	-157,629	0,084	0,004
-455,241	800,000	-0,047	-0,124
-454,226	20,134	0,138	-0,081
-453,211	-111,376	-0,070	0,010
-452,197	538,863	0,027	0,047
-451,182	-200,000	0,019	0,085
-450,168	-200,000	0,007	0,105
-449,153	800,000	0,024	-0,068
-448,138	-120,884	0,036	-0,004
-447,124	-200,000	0,015	0,066
-446,109	-200,000	-0,006	-0,069
-445,095	-87,569	0,095	0,021
-444,080	57,802	0,053	-0,037
-443,065	53,796	0,077	-0,054
-442,051	-128,081	0,118	-0,012
-441,036	-200,000	0,003	0,060
-440,022	-200,000	-0,045	-0,172
-439,007	-61,462	0,090	-0,027
-437,992	156,236	0,070	-0,071
-436,978	508,889	0,053	0,091
-435,963	93,875	0,027	-0,022
-434,949	-200,000	0,015	-0,052
-433,934	66,103	-0,152	0,112
-432,919	122,783	0,116	0,106
-431,905	-148,084	-0,159	0,009
-430,890	-162,177	-0,057	0,002
-429,876	228,881	-0,041	0,048
-428,861	-60,420	0,050	-0,015
-427,846	545,906	-0,040	-0,070
-426,832	448,521	-0,040	0,065
-425,817	390,839	0,043	-0,065
-424,803	-200,000	-0,008	0,049
-423,788	26,112	0,029	-0,017
-422,773	-199,168	0,119	-0,000
-421,759	-200,000	0,012	0,061
-420,744	-116,812	-0,052	0,007
-419,730	150,314	-0,064	0,064
-418,715	443,821	0,041	-0,066
-417,701	114,681	0,020	0,017
-416,686	800,000	0,041	-0,105
-415,671	800,000	-0,022	0,068
-414,657	-200,000	0,001	-0,043
-413,642	-200,000	-0,006	0,026
-412,628	119,816	-0,033	-0,030
-411,613	-200,000	-0,039	-0,210
-410,598	89,565	0,061	-0,049
-409,584	-200,000	0,000	0,030
-408,569	40,891	0,139	-0,091
-407,555	-38,896	-0,040	0,015
-406,540	21,274	0,073	0,043
-405,525	800,000	-0,058	0,124
-404,511	800,000	0,013	0,030
-403,496	-200,000	-0,022	-0,124
-402,482	-200,000	0,006	0,031
-401,467	-24,865	-0,095	0,041
-400,452	-200,000	0,025	0,156
-399,438	-125,656	-0,035	0,004
-398,423	-80,801	0,158	0,038
-397,409	-0,844	-0,109	-0,056
-396,394	800,000	-0,028	-0,071
-395,379	-200,000	0,030	-0,204
-394,365	-32,614	0,056	-0,022
-393,350	265,441	-0,034	-0,043
-392,336	-200,000	-0,015	-0,092
-391,321	148,857	-0,104	0,102
-390,306	-175,238	0,181	0,004
-389,292	-200,000	0,023	0,096
-388,277	561,830	-0,062	-0,109
-387,263	-110,499	-0,105	0,016
-386,248	-122,877	0,116	0,013
-385,233	76,977	-0,077	0,060
-384,219	-144,472	-0,018	-0,001
-383,204	-142,492	-0,208	-0,015
-382,190	40,705	-0,105	0,068
-381,175	800,000	0,057	-0,123
-380,160	105,001	0,026	0,022
-379,146	-86,085	0,099	-0,022
-378,131	23,003	-0,050	-0,030
-377,117	450,354	-0,046	-0,075
-376,102	53,393	-0,044	-0,031
-375,088	-200,000	-0,007	-0,074
-374,073	335,351	-0,042	-0,060
-373,058	-55,950	-0,027	-0,009
-372,044	-200,000	0,001	0,106
-371,029	-88,363	0,030	-0,006
-370,015	-200,000	-0,015	-0,085
-369,000	-168,198	-0,076	0,002
-367,985	55,665	-0,139	-0,098
-366,971	-200,000	0,029	0,109
-365,956	71,082	0,032	-0,024
-364,942	800,000	-0,017	0,044
-363,927	800,000	0,076	0,213
-362,912	267,797	-0,077	-0,099
-361,898	-108,514	0,042	-0,006
-360,883	-133,722	-0,031	0,003
-359,869	-59,748	-0,059	0,018
-358,854	57,904	0,072	0,051
-357,839	-120,979	-0,083	0,010
-356,825	-200,000	0,055	0,196
-355,810	113,906	-0,066	0,058
-354,796	102,582	-0,014	-0,012
-353,781	-200,000	0,001	-0,082
-352,766	553,433	0,036	0,063
-351,752	-200,000	-0,001	0,091
-350,737	115,258	-0,110	0,098
-349,723	341,795	0,053	0,075
-348,708	-142,472	0,117	0,008
-347,693	-200,000	-0,036	0,127
-346,679	65,253	-0,027	-0,020
-345,664	800,000	0,033	0,071
-344,650	-200,000	-0,020	0,073
-343,635	56,246	0,108	-0,076
-342,620	-62,286	0,045	-0,013
-341,606	-200,000	-0,043	-0,147
-340,591	-68,119	-0,092	0,026
-339,577	61,947	0,048	-0,035
-338,562	653,233	-0,049	0,092
-337,548	102,664	0,048	-0,041
-336,533	800,000	-0,032	0,076
-335,518	206,088	0,181	0,205
-334,504	-200,000	0,001	-0,053
-333,489	559,010	0,045	-0,079
-332,475	800,000	-0,007	-0,014
-331,460	-200,000	0,004	-0,017
-330,445	75,180	0,044	0,033
-329,431	-105,843	0,091	-0,015
-328,416	128,564	0,048	0,044
-327,402	472,735	-0,077	0,127
-326,387	-200,000	0,031	0,163
-325,372	4,122	-0,038	-0,020
-324,358	180,597	-0,040	-0,043
-323,343	-200,000	-0,002	0,042
-322,329	193,680	0,074	-0,081
-321,314	-124,425	-0,055	-0,006
-320,299	316,105	0,060	-0,083
-319,285	147,274	0,019	0,019
-318,270	-35,976	0,055	0,021
-317,256	800,000	0,026	-0,075
-316,241	519,022	-0,050	0,085
-315,226	-23,926	-0,111	-0,048
-314,212	336,837	-0,008	0,011
-313,197	64,243	0,087	0,063
-312,183	94,437	-0,070	-0,058
-311,168	12,972	-0,150	0,084
-310,153	-200,000	0,018	-0,093
-309,139	650,031	0,017	-0,032
-308,124	-114,503	-0,171	0,024
-307,110	-139,067	0,104	-0,008
-306,095	222,360	0,061	0,072
-305,080	-200,000	0,034	-0,206
-304,066	748,577	-0,037	-0,072
-303,051	-84,219	-0,037	-0,008
-302,037	757,055	0,045	-0,089
-301,022	-200,000	0,010	0,108
-300,008	-63,160	0,181	0,054
-298,993	-200,000	-0,007	-0,024
-297,978	18,487	0,047	-0,027
-296,964	800,000	-0,016	-0,043
-295,949	-60,295	0,060	-0,019
-294,935	146,878	-0,076	-0,074
-293,920	-200,000	0,323	0,000
-292,905	-81,458	0,043	0,010
-291,891	172,764	0,021	-0,022
-290,876	800,000	0,013	0,038
-289,862	68,538	-0,049	0,037
-288,847	-200,000	0,003	-0,061
-287,832	-24,814	-0,075	-0,032
-286,818	-200,000	-0,029	-0,112
-285,803	800,000	-0,030	0,085
-284,789	-128,592	0,023	-0,002
-283,774	5,587	-0,154	0,082
-282,759	69,132	-0,044	-0,033
-281,745	-200,000	-0,026	-0,124
-280,730	-200,000	-0,032	-0,117
-279,716	800,000	0,029	0,059
-278,701	31,973	-0,053	-0,033
-277,686	-101,509	0,090	-0,016
-276,672	-200,000	-0,033	0,133
-275,657	-73,144	-0,168	0,044
-274,643	123,244	0,061	-0,056
-273,628	-200,000	0,012	-0,048
-272,613	650,172	0,072	-0,134
-271,599	80,714	-0,018	0,014
-270,584	-200,000	0,004	0,059
-269,570	583,986	-0,085	0,151
-268,555	240,419	0,078	-0,095
-267,540	432,738	0,054	-0,085
-266,526	800,000	0,017	0,049
-265,511	31,241	0,084	-0,052
-264,497	138,345	0,030	-0,028
-263,482	256,755	0,075	0,093
-262,467	-200,000	-0,030	0,105
-261,453	-135,917	-0,007	0,001
-260,438	387,147	-0,066	0,099
-259,424	-200,000	-0,008	-0,072
-258,409	67,062	-0,127	-0,094
-257,395	-200,000	0,036	-0,144
-256,380	202,774	0,065	0,073
-255,365	-70,242	0,103	0,028
-254,351	-47,201	-0,089	0,031
-253,336	175,787	-0,023	-0,024
-252,322	72,835	0,052	0,039
-251,307	708,587	0,020	0,038
-250,292	-141,978	-0,058	0,004
-249,278	-148,251	0,101	-0,006
-248,263	-200,000	-0,001	0,005
-247,249	-200,000	0,002	0,109
-246,234	21,892	-0,164	0,096
-245,219	-200,000	0,011	-0,055
-244,205	-2,963	0,091	-0,046
-243,190	-113,058	0,086	0,012
-242,176	69,512	0,074	-0,055
-241,161	182,525	-0,049	-0,052
-240,146	-200,000	0,001	-0,022
-239,132	-89,082	0,109	0,023
-238,117	721,728	-0,061	0,117
-237,103	84,065	-0,054	0,042
-236,088	800,000	0,104	0,219
-235,073	186,553	-0,043	-0,046
-234,059	800,000	-0,064	0,129
-233,044	-200,000	0,035	-0,128
-232,030	-200,000	0,005	0,080
-231,015	144,314	-0,104	0,100
-230,000	73,061	-0,046	-0,034
-228,986	463,887	-0,034	0,055
-227,971	506,099	0,041	-0,069
-226,957	281,797	-0,049	0,064
-225,942	800,000	-0,017	0,034
-224,927	-200,000	-0,017	0,111
-223,913	-110,627	0,074	0,011
-222,898	463,147	0,070	0,113
-221,884	-200,000	-0,006	0,031
-220,869	-7,054	0,084	-0,041
-219,855	-200,000	0,048	0,164
-218,840	800,000	-0,043	0,109
-217,825	-200,000	-0,022	0,173
-216,811	-151,397	-0,069	-0,004
-215,796	-200,000	0,003	-0,069
-214,782	-108,476	-0,108	0,017
-213,767	-88,212	0,109	-0,023
-212,752	72,749	-0,056	-0,042
-211,738	-200,000	0,006	-0,023
-210,723	800,000	0,057	0,154
-209,709	800,000	-0,065	0,187
-208,694	-200,000	-0,016	-0,142
-207,679	-200,000	-0,008	-0,076
-206,665	85,414	0,112	0,089
-205,650	236,885	0,063	0,075
-204,636	-200,000	0,001	0,038
-203,621	-46,319	-0,154	-0,054
-202,606	346,605	0,026	0,036
-201,592	-200,000	-0,008	-0,127
-200,577	79,790	-0,016	0,012
-199,563	-174,430	-0,166	-0,003
-198,548	800,000	0,034	0,075
-197,533	137,571	-0,024	0,023
-196,519	-200,000	0,026	0,106
-195,504	290,986	0,046	-0,061
-194,490	777,832	0,018	-0,037
-193,475	-102,392	0,031	-0,005
-192,460	400,668	-0,029	-0,044
-191,446	-200,000	0,002	0,117
-190,431	42,038	-0,028	0,018
-189,417	800,000	0,035	-0,078
-188,402	289,674	0,102	0,134
-187,387	-98,671	-0,060	0,011
-186,373	-131,721	-0,138	-0,013
-185,358	-54,466	0,091	0,030
-184,344	-130,946	0,073	-0,007
-183,329	-200,000	-0,006	-0,072
-182,315	800,000	0,026	0,061
-181,300	800,000	0,037	-0,083
-180,285	-139,152	-0,193	0,015
-179,271	-200,000	0,001	-0,004
-178,256	-99,200	-0,117	0,021
-177,242	150,393	0,026	-0,025
-176,227	384,507	-0,047	0,070
-175,212	-200,000	-0,018	0,112
-174,198	800,000	0,018	0,050
-173,183	800,000	-0,030	-0,069
-172,169	169,342	0,035	-0,036
-171,154	168,960	0,060	-0,062
-170,139	-200,000	-0,001	-0,066
-169,125	800,000	-0,039	-0,086
-168,110	29,198	0,121	-0,074
-167,096	-200,000	-0,020	-0,095
-166,081	383,313	0,046	-0,068
-165,066	800,000	0,024	-0,056
-164,052	310,875	-0,077	-0,104
-163,037	459,286	-0,033	-0,053
-162,023	419,671	0,035	0,054
-161,008	800,000	0,011	0,035
-159,993	-4,417	0,063	0,031
-158,979	32,755	-0,102	0,063
-157,964	46,290	0,030	-0,020
-156,950	-200,000	-0,004	0,066
-155,935	-148,943	0,086	-0,005
-154,920	404,696	0,046	0,070
-153,906	99,435	0,073	0,061
-152,891	-139,025	0,083	0,006
-151,877	-59,303	-0,053	0,016
-150,862	226,302	0,036	-0,042
-149,847	-41,584	-0,143	-0,053
-148,833	354,313	-0,050	0,072
-147,818	-114,866	0,107	0,015
-146,804	77,971	-0,091	0,070
-145,789	-29,382	0,146	-0,060
-144,775	532,107	0,041	0,071
-143,760	-200,000	0,021	-0,196
-142,745	-8,148	-0,057	-0,028
-141,731	-200,000	0,008	-0,036
-140,716	607,119	0,051	0,092
-139,702	428,872	0,037	-0,058
-138,687	800,000	0,047	-0,121
-137,672	-187,792	0,054	-0,000
-136,658	-200,000	0,020	0,140
-135,643	-129,644	-0,107	0,011
-134,629	4,372	-0,092	-0,048
-133,614	158,397	0,077	-0,077
-132,599	10,505	0,053	-0,029
-131,585	-135,060	-0,067	0,006
-130,570	173,941	0,016	0,016
-129,556	-144,183	0,079	-0,005
-128,541	-67,024	-0,148	-0,042
-127,526	-200,000	0,012	0,065
-126,512	540,609	-0,059	0,102
-125,497	800,000	-0,049	0,103
-124,483	800,000	0,057	0,137
-123,468	42,584	-0,042	0,027
-122,453	-200,000	-0,015	-0,123
-121,439	-59,863	-0,038	0,012
-120,424	28,357	0,066	0,040
