DTS Sentinel unit serial number:	SN410029Multiplexer serial number:	ORYXHardware model number:	OX2-SRSoftware version number:	ORYX F/W v4,00 Oryx Data Collector v3.7.2.0data status	okinstallation	B5 Nyhavnadifferential loss correction	single-endedforward channel	channel 2reverse channel	N/Adate	2023/12/13time	08:57:13forward acquisition time	300,00reverse acquisition time	0,00gamma	499,1914k internal	0,3160k external	0,3160temperature offset calibration	1,0000default loss term (dB/km)	0,3820temperature slope calibration	1,0000multiplexer offset coefficient	1,0000multiplexer slope coefficient	1,0000fibre end	0,00T internal ref (°C)	13,64T ext. ref 1 (°C)	-2,73T ext. ref 2 (°C)	-3,03length (m)	temperature (°C)	Stokes	anti-Stokes-744,400	83,892	0,163	0,131
-743,385	-109,189	-0,244	-0,038
-742,371	-162,332	0,198	0,007
-741,356	-186,708	-0,348	0,004
-740,342	-61,509	0,245	0,075
-739,327	-154,795	-0,454	-0,022
-738,312	-74,285	0,161	-0,043
-737,298	-100,183	-0,330	-0,060
-736,283	-55,032	0,072	-0,024
-735,269	-115,699	-0,192	0,026
-734,254	-200,000	0,006	0,123
-733,239	-14,782	-0,481	-0,227
-732,225	122,363	0,139	0,128
-731,210	135,671	-0,069	-0,066
-730,196	-200,000	0,012	-0,114
-729,181	-200,000	0,008	0,049
-728,167	-106,285	-0,023	-0,004
-727,152	-200,000	-0,008	-0,033
-726,137	-75,139	-0,163	0,043
-725,123	-81,853	-0,032	-0,008
-724,108	444,287	-0,065	-0,105
-723,094	110,550	-0,138	-0,122
-722,079	-200,000	-0,026	-0,144
-721,064	380,076	0,039	0,060
-720,050	36,830	-0,181	-0,118
-719,035	122,371	-0,042	-0,039
-718,021	-101,954	-0,088	0,016
-717,006	-67,898	-0,151	0,043
-715,991	360,862	-0,059	0,088
-714,977	-200,000	-0,002	0,058
-713,962	-167,694	-0,088	-0,003
-712,948	-200,000	-0,017	-0,117
-711,933	800,000	0,014	-0,036
-710,918	260,337	0,052	-0,066
-709,904	64,894	0,025	0,019
-708,889	-5,045	0,019	0,010
-707,875	-200,000	-0,033	-0,111
-706,860	-200,000	-0,001	-0,005
-705,845	291,312	0,072	-0,096
-704,831	36,725	-0,127	0,082
-703,816	-109,583	-0,095	-0,015
-702,802	120,423	0,035	-0,032
-701,787	-200,000	-0,001	-0,156
-700,772	107,584	-0,016	0,014
-699,758	560,841	0,025	-0,045
-698,743	283,729	-0,016	0,021
-697,729	231,990	-0,124	0,150
-696,714	-200,000	0,004	-0,021
-695,699	67,479	-0,124	-0,093
-694,685	-200,000	0,003	-0,129
-693,670	238,129	0,015	0,018
-692,656	-10,527	-0,027	0,013
-691,641	-45,626	0,249	0,090
-690,627	453,583	-0,055	0,090
-689,612	-78,228	0,030	0,008
-688,597	126,602	-0,093	-0,086
-687,583	-16,462	0,100	-0,046
-686,568	-200,000	-0,015	-0,141
-685,554	408,709	-0,058	-0,090
-684,539	800,000	0,049	0,151
-683,524	-200,000	0,003	0,048
-682,510	-140,897	-0,060	-0,004
-681,495	19,483	0,036	0,021
-680,481	-38,107	-0,136	0,053
-679,466	198,076	0,035	-0,039
-678,451	-200,000	0,030	-0,187
-677,437	-200,000	-0,013	-0,079
-676,422	-81,981	0,074	0,018
-675,408	598,579	-0,042	0,077
-674,393	-177,983	-0,035	0,001
-673,378	268,550	-0,014	0,017
-672,364	127,499	-0,020	-0,018
-671,349	-200,000	-0,016	-0,062
-670,335	-127,722	-0,020	0,002
-669,320	-132,617	0,124	-0,012
-668,305	164,929	0,057	-0,059
-667,291	146,331	-0,050	-0,050
-666,276	-200,000	0,001	-0,073
-665,262	44,842	-0,207	-0,140
-664,247	-163,054	0,029	-0,001
-663,232	800,000	-0,040	-0,104
-662,218	18,637	-0,103	-0,060
-661,203	-200,000	-0,005	-0,053
-660,189	-136,155	0,148	-0,013
-659,174	800,000	-0,059	0,134
-658,159	126,744	-0,048	-0,045
-657,145	323,689	-0,087	0,122
-656,130	800,000	-0,046	0,103
-655,116	673,435	0,048	0,091
-654,101	-71,690	0,089	-0,024
-653,086	800,000	0,015	-0,037
-652,072	-130,440	-0,231	0,023
-651,057	-21,815	-0,113	-0,050
-650,043	762,151	-0,026	-0,052
-649,028	78,659	-0,078	0,061
-648,014	-200,000	-0,038	0,139
-646,999	-109,244	-0,061	0,009
-645,984	-98,117	0,111	-0,021
-644,970	-71,880	-0,196	-0,053
-643,955	-13,511	0,048	-0,023
-642,941	105,217	-0,087	-0,076
-641,926	-200,000	0,004	-0,036
-640,911	-200,000	0,046	0,163
-639,897	-123,960	0,170	0,019
-638,882	260,030	-0,065	-0,083
-637,868	-200,000	-0,001	-0,015
-636,853	300,701	-0,039	0,053
-635,838	151,912	-0,100	-0,101
-634,824	120,984	-0,079	0,072
-633,809	65,638	0,082	0,061
-632,795	-93,515	0,124	0,025
-631,780	-200,000	-0,001	-0,043
-630,765	146,267	-0,062	0,061
-629,751	-99,980	-0,138	-0,025
-628,736	800,000	0,058	-0,120
-627,722	-67,579	-0,004	-0,001
-626,707	-96,251	-0,052	-0,010
-625,692	-30,045	0,104	0,043
-624,678	800,000	-0,006	0,017
-623,663	283,543	-0,057	-0,075
-622,649	-108,833	-0,139	-0,022
-621,634	-5,429	-0,049	0,025
-620,619	41,226	-0,051	-0,034
-619,605	-30,547	-0,048	-0,020
-618,590	-200,000	0,012	-0,136
-617,576	800,000	0,038	-0,080
-616,561	-71,090	0,091	0,025
-615,546	-69,115	-0,063	0,018
-614,532	-200,000	-0,005	-0,021
-613,517	270,445	-0,034	0,043
-612,503	-200,000	-0,002	-0,091
-611,488	-62,508	0,137	0,041
-610,474	-138,465	-0,050	-0,004
-609,459	-61,629	0,034	-0,010
-608,444	109,496	0,062	-0,055
-607,430	637,113	-0,032	0,060
-606,415	-73,874	-0,110	0,029
-605,401	85,537	-0,055	0,044
-604,386	-133,320	0,037	0,003
-603,371	134,470	0,076	0,073
-602,357	-200,000	-0,025	0,133
-601,342	-200,000	0,004	0,032
-600,328	-200,000	0,018	-0,107
-599,313	-94,664	0,038	0,007
-598,298	-151,317	0,043	-0,002
-597,284	-200,000	0,044	-0,165
-596,269	-200,000	-0,008	-0,105
-595,255	-200,000	-0,023	0,159
-594,240	-200,000	-0,017	-0,088
-593,225	-5,570	-0,045	0,023
-592,211	-200,000	-0,009	-0,089
-591,196	-125,795	0,015	-0,002
-590,182	-200,000	-0,047	-0,168
-589,167	35,588	-0,036	0,023
-588,152	75,072	-0,067	0,052
-587,138	800,000	0,024	-0,057
-586,123	-59,513	-0,086	-0,027
-585,109	-200,000	-0,015	-0,092
-584,094	31,498	0,060	-0,038
-583,079	-200,000	0,027	-0,090
-582,065	207,728	0,093	0,106
-581,050	414,045	0,065	-0,101
-580,036	800,000	0,018	-0,041
-579,021	46,578	0,043	0,029
-578,006	197,283	-0,060	-0,067
-576,992	-31,538	0,035	-0,015
-575,977	-88,637	0,150	-0,032
-574,963	-200,000	-0,009	0,116
-573,948	-200,000	-0,006	0,048
-572,934	16,340	0,095	-0,055
-571,919	-136,384	-0,149	0,013
-570,904	-31,900	-0,081	-0,033
-569,890	259,935	0,030	-0,038
-568,875	76,216	0,121	-0,094
-567,861	-101,966	0,132	-0,023
-566,846	-5,900	0,026	-0,013
-565,831	53,414	0,125	0,088
-564,817	572,491	-0,056	-0,101
-563,802	46,933	0,120	-0,081
-562,788	800,000	0,039	-0,088
-561,773	-200,000	0,005	-0,135
-560,758	-68,348	-0,112	0,032
-559,744	-200,000	-0,007	-0,060
-558,729	-82,550	0,116	0,027
-557,715	-114,484	-0,068	0,009
-556,700	-200,000	-0,001	0,005
-555,685	-85,520	0,069	0,016
-554,671	348,892	0,042	-0,061
-553,656	-36,670	0,046	0,018
-552,642	-48,435	0,075	0,026
-551,627	111,906	0,050	-0,044
-550,612	-108,509	-0,077	0,012
-549,598	652,926	-0,048	-0,090
-548,583	228,042	0,040	-0,048
-547,569	65,957	0,056	-0,041
-546,554	317,010	0,050	-0,069
-545,539	-200,000	-0,025	0,113
-544,525	-158,602	0,035	-0,001
-543,510	45,093	0,045	-0,030
-542,496	800,000	-0,022	-0,062
-541,481	390,876	-0,082	-0,125
-540,466	-200,000	0,019	0,091
-539,452	-200,000	-0,002	0,073
-538,437	169,528	0,096	-0,101
-537,423	-150,845	0,063	0,003
-536,408	129,517	-0,066	0,061
-535,393	-27,328	0,081	-0,034
-534,379	78,231	-0,106	0,083
-533,364	20,534	-0,072	0,042
-532,350	12,179	0,020	0,011
-531,335	-128,655	0,128	0,013
-530,321	800,000	0,056	0,158
-529,306	-200,000	-0,005	-0,044
-528,291	128,197	0,052	-0,049
-527,277	3,412	0,093	-0,049
-526,262	398,188	-0,088	-0,134
-525,248	46,857	0,072	0,049
-524,233	-137,320	0,106	0,009
-523,218	800,000	-0,037	0,097
-522,204	-200,000	-0,004	0,120
-521,189	88,117	-0,137	-0,111
-520,175	18,011	-0,114	0,066
-519,160	54,339	-0,038	0,027
-518,145	138,202	0,028	-0,027
-517,131	9,063	0,106	-0,058
-516,116	800,000	0,014	0,037
-515,102	800,000	-0,102	0,227
-514,087	800,000	0,026	0,081
-513,072	92,465	0,068	-0,056
-512,058	1,784	-0,027	-0,014
-511,043	204,967	0,017	0,019
-510,029	-59,620	0,082	0,026
-509,014	800,000	0,005	-0,015
-507,999	800,000	0,019	0,042
-506,985	800,000	0,032	0,095
-505,970	28,965	-0,024	-0,015
-504,956	-200,000	0,009	0,100
-503,941	-13,202	0,114	0,054
-502,926	72,528	-0,082	-0,062
-501,912	689,737	-0,043	-0,083
-500,897	-56,010	0,069	0,022
-499,883	0,416	-0,064	-0,033
-498,868	297,186	-0,100	0,134
-497,853	-67,878	0,016	-0,004
-496,839	449,597	0,120	-0,193
-495,824	139,111	0,067	0,064
-494,810	-15,448	0,144	-0,067
-493,795	359,436	0,087	0,127
-492,781	-152,828	-0,068	0,003
-491,766	-67,613	0,103	0,029
-490,751	-177,506	-0,234	0,004
-489,737	-140,851	0,055	0,004
-488,722	-200,000	-0,002	0,110
-487,708	-200,000	0,005	0,028
-486,693	-200,000	-0,020	-0,079
-485,678	800,000	-0,017	-0,048
-484,664	-94,650	0,073	-0,014
-483,649	-200,000	-0,008	0,038
-482,635	800,000	0,018	-0,049
-481,620	76,283	0,060	0,046
-480,605	-200,000	0,022	0,101
-479,591	64,284	-0,139	0,102
-478,576	44,884	0,089	-0,059
-477,562	343,550	-0,030	-0,042
-476,547	-121,679	0,056	0,007
-475,532	-71,309	-0,161	0,044
-474,518	-200,000	0,003	0,044
-473,503	800,000	-0,048	0,108
-472,489	-200,000	0,012	0,121
-471,474	-200,000	0,007	0,208
-470,459	231,089	-0,094	0,112
-469,445	332,408	0,072	-0,102
-468,430	800,000	-0,032	-0,088
-467,416	457,267	0,066	-0,107
-466,401	65,573	0,034	0,025
-465,386	-200,000	-0,015	0,158
-464,372	596,074	-0,062	0,112
-463,357	120,783	-0,068	0,062
-462,343	-149,275	0,079	0,005
-461,328	100,637	-0,077	-0,065
-460,313	-26,857	0,071	-0,030
-459,299	-200,000	0,012	0,072
-458,284	107,911	0,066	0,057
-457,270	307,128	-0,086	0,116
-456,255	-200,000	-0,008	0,129
-455,241	-200,000	0,008	-0,070
-454,226	-121,674	-0,037	-0,004
-453,211	230,329	-0,023	-0,028
-452,197	135,553	0,105	-0,100
-451,182	-200,000	-0,007	0,091
-450,168	-200,000	0,002	0,065
-449,153	-7,118	0,061	-0,030
-448,138	-200,000	0,030	-0,218
-447,124	112,237	0,034	-0,030
-446,109	-2,352	-0,063	0,032
-445,095	-142,824	0,029	-0,002
-444,080	-28,263	0,108	0,045
-443,065	-200,000	0,041	0,194
-442,051	-200,000	0,044	0,168
-441,036	-119,417	0,031	0,004
-440,022	-44,889	-0,134	-0,048
-439,007	-200,000	-0,006	0,070
-437,992	1,724	0,147	0,077
-436,978	-35,801	0,072	-0,028
-435,963	800,000	0,070	0,164
-434,949	27,059	0,128	0,078
-433,934	3,315	0,064	-0,034
-432,919	800,000	-0,050	-0,153
-431,905	800,000	0,021	-0,048
-430,890	-161,816	0,076	-0,003
-429,876	-30,459	0,092	0,038
-428,861	-200,000	-0,012	-0,040
-427,846	131,173	-0,050	-0,047
-426,832	-78,171	-0,038	0,009
-425,817	800,000	-0,066	-0,171
-424,803	72,174	0,059	0,044
-423,788	-200,000	0,007	-0,066
-422,773	249,839	-0,052	0,065
-421,759	800,000	0,054	0,128
-420,744	-200,000	0,002	0,029
-419,730	-89,650	-0,061	-0,013
-418,715	367,577	0,070	-0,104
-417,701	-160,351	-0,059	-0,002
-416,686	-12,576	-0,086	0,041
-415,671	-28,161	0,057	0,024
-414,657	102,934	0,090	0,077
-413,642	-200,000	-0,022	0,091
-412,628	68,058	-0,106	0,079
-411,613	787,261	0,039	-0,079
-410,598	223,536	-0,087	-0,103
-409,584	-32,005	0,062	-0,025
-408,569	-133,986	0,137	-0,012
-407,555	406,910	-0,022	0,034
-406,540	-200,000	0,004	0,121
-405,525	-121,324	-0,080	0,010
-404,511	-200,000	-0,025	-0,112
-403,496	-84,877	0,040	-0,009
-402,482	-200,000	0,012	0,063
-401,467	-177,204	0,060	0,001
-400,452	192,481	-0,046	0,050
-399,438	145,663	-0,035	-0,034
-398,423	800,000	-0,063	0,166
-397,409	-89,454	-0,095	-0,020
-396,394	-200,000	0,003	-0,017
-395,379	-200,000	0,014	0,068
-394,365	503,525	0,043	0,072
-393,350	-104,982	0,116	0,019
-392,336	-76,236	-0,023	0,006
-391,321	-0,848	-0,037	-0,019
-390,306	17,350	-0,143	-0,082
-389,292	-200,000	-0,014	-0,051
-388,277	33,306	-0,085	-0,054
-387,263	78,480	0,116	0,090
-386,248	-120,344	0,109	-0,013
-385,233	23,904	-0,052	0,031
-384,219	-9,612	0,060	0,029
-383,204	35,516	-0,156	0,100
-382,190	800,000	0,040	-0,116
-381,175	800,000	0,028	0,079
-380,160	3,866	0,087	0,046
-379,146	148,632	0,050	-0,050
-378,131	-200,000	0,019	0,091
-377,117	-0,977	-0,164	0,084
-376,102	120,544	-0,062	-0,056
-375,088	-50,073	0,164	-0,056
-374,073	128,685	-0,116	-0,108
-373,058	-18,873	0,052	-0,024
-372,044	26,965	-0,043	0,026
-371,029	-200,000	-0,001	0,033
-370,015	-69,707	-0,137	-0,038
-369,000	181,916	-0,050	-0,054
-367,985	-96,176	0,100	-0,019
-366,971	97,870	0,076	-0,064
-365,956	-200,000	-0,040	0,139
-364,942	446,834	0,091	0,146
-363,927	800,000	0,027	0,073
-362,912	723,605	-0,012	-0,024
-361,898	-128,973	-0,042	-0,004
-360,883	310,273	-0,024	-0,032
-359,869	374,830	-0,028	0,041
-358,854	-3,096	0,020	-0,010
-357,839	800,000	-0,013	0,033
-356,825	312,455	-0,034	0,047
-355,810	800,000	-0,006	-0,018
-354,796	800,000	-0,030	0,084
-353,781	-179,052	-0,213	-0,003
-352,766	16,610	-0,139	-0,080
-351,752	224,456	0,064	0,075
-350,737	30,297	0,182	0,112
-349,723	-200,000	-0,011	0,074
-348,708	263,921	-0,063	0,079
-347,693	491,935	-0,020	0,033
-346,679	59,594	-0,015	-0,011
-345,664	-200,000	-0,003	-0,090
-344,650	-200,000	0,029	-0,156
-343,635	-200,000	0,017	-0,152
-342,620	-30,013	0,185	-0,076
-341,606	-200,000	-0,015	0,077
-340,591	93,826	-0,046	0,038
-339,577	265,058	-0,049	-0,062
-338,562	191,374	0,030	0,033
-337,548	216,920	-0,048	-0,056
-336,533	92,453	0,030	-0,025
-335,518	800,000	0,051	-0,116
-334,504	-200,000	-0,039	-0,145
-333,489	-102,103	0,030	-0,005
-332,475	-200,000	-0,004	0,021
-331,460	-200,000	-0,037	-0,133
-330,445	-200,000	-0,011	-0,061
-329,431	-200,000	0,006	0,145
-328,416	7,915	-0,087	0,047
-327,402	300,483	-0,037	0,049
-326,387	-40,694	-0,136	-0,051
-325,372	-200,000	-0,007	-0,051
-324,358	274,865	-0,099	0,128
-323,343	-118,571	-0,194	0,025
-322,329	211,367	0,070	0,080
-321,314	93,471	0,042	-0,034
-320,299	21,175	-0,147	0,086
-319,285	430,663	-0,010	-0,015
-318,270	11,936	-0,081	0,045
-317,256	-200,000	-0,005	-0,020
-316,241	800,000	-0,047	-0,106
-315,226	-200,000	0,000	-0,022
-314,212	56,898	0,062	0,044
-313,197	118,084	0,077	-0,068
-312,183	800,000	0,046	0,103
-311,168	710,430	-0,075	-0,144
-310,153	692,078	0,030	-0,058
-309,139	-200,000	0,008	-0,121
-308,124	800,000	0,032	0,093
-307,110	800,000	-0,065	0,205
-306,095	216,940	0,056	0,065
-305,080	-100,296	0,073	-0,013
-304,066	226,212	-0,094	0,111
-303,051	56,332	-0,148	-0,104
-302,037	-200,000	-0,006	0,085
-301,022	-57,351	0,065	0,021
-300,008	-106,079	0,170	-0,027
-298,993	68,450	0,088	0,065
-297,978	234,635	-0,071	0,085
-296,964	112,734	-0,075	-0,065
-295,949	180,455	0,079	0,084
-294,935	348,372	-0,035	0,050
-293,920	-200,000	0,006	0,053
-292,905	-200,000	-0,021	-0,072
-291,891	368,059	0,054	-0,079
-290,876	-200,000	0,001	0,063
-289,862	-61,905	-0,126	0,038
-288,847	16,517	-0,126	-0,072
-287,832	-200,000	0,031	-0,180
-286,818	-200,000	0,052	-0,190
-285,803	800,000	-0,058	0,125
-284,789	-142,625	0,106	-0,007
-283,774	-30,082	-0,124	-0,051
-282,759	-200,000	-0,004	-0,038
-281,745	172,596	-0,066	-0,068
-280,730	-1,186	-0,154	0,079
-279,716	-120,962	-0,110	-0,013
-278,701	-118,354	-0,140	0,018
-277,686	-200,000	0,027	0,136
-276,672	-1,267	0,103	0,053
-275,657	-200,000	-0,005	0,047
-274,643	800,000	0,031	0,075
-273,628	-200,000	0,009	0,046
-272,613	-48,144	-0,039	0,013
-271,599	-200,000	-0,001	-0,040
-270,584	-200,000	0,028	0,127
-269,570	132,599	-0,112	0,105
-268,555	-36,832	0,038	0,015
-267,540	800,000	0,025	-0,075
-266,526	-200,000	-0,003	0,027
-265,511	15,676	0,053	0,030
-264,497	800,000	0,037	-0,090
-263,482	800,000	-0,024	-0,071
-262,467	-124,635	0,080	0,009
-261,453	-200,000	0,002	-0,067
-260,438	800,000	0,046	-0,127
-259,424	-102,891	0,065	0,011
-258,409	-146,844	0,089	0,005
-257,395	800,000	-0,051	-0,114
-256,380	-42,012	0,094	0,035
-255,365	259,781	-0,099	-0,124
-254,351	94,728	-0,090	0,074
-253,336	-57,589	0,129	-0,041
-252,322	694,183	0,047	0,089
-251,307	-200,000	-0,008	-0,056
-250,292	166,406	-0,061	0,062
-249,278	-127,594	0,019	0,002
-248,263	-23,338	0,061	0,026
-247,249	-156,778	-0,091	0,004
-246,234	-200,000	-0,015	-0,219
-245,219	98,480	-0,096	-0,080
-244,205	-200,000	-0,028	-0,144
-243,190	313,324	0,081	-0,110
-242,176	-200,000	-0,008	-0,036
-241,161	-1,561	0,048	-0,024
-240,146	282,144	0,027	0,034
-239,132	-88,389	0,061	-0,013
-238,117	200,437	0,032	-0,036
-237,103	31,062	-0,094	-0,058
-236,088	-200,000	0,003	0,024
-235,073	-200,000	0,050	0,176
-234,059	800,000	-0,012	0,027
-233,044	-200,000	-0,021	-0,130
-232,030	800,000	0,024	-0,062
-231,015	800,000	-0,029	0,062
-230,000	99,272	-0,027	-0,023
-228,986	800,000	0,020	0,054
-227,971	-200,000	-0,003	-0,042
-226,957	311,153	0,063	-0,086
-225,942	-37,107	-0,057	-0,022
-224,927	-60,040	0,051	0,016
-223,913	279,533	0,044	0,057
-222,898	477,152	-0,119	-0,194
-221,884	-200,000	-0,029	0,101
-220,869	185,687	-0,022	-0,023
-219,855	-13,143	0,096	-0,045
-218,840	150,059	-0,065	-0,064
-217,825	547,541	-0,079	-0,137
-216,811	800,000	0,033	0,075
-215,796	800,000	-0,055	-0,113
-214,782	333,295	-0,077	-0,108
-213,767	94,800	-0,080	-0,066
-212,752	495,957	0,030	0,050
-211,738	-200,000	-0,027	0,117
-210,723	98,474	0,049	-0,041
-209,709	-42,049	0,125	0,046
-208,694	749,900	0,015	-0,029
-207,679	-200,000	0,021	-0,127
-206,665	73,254	-0,142	0,107
-205,650	-200,000	-0,013	0,205
-204,636	66,021	0,043	0,032
-203,621	38,415	-0,028	0,018
-202,606	-200,000	0,012	-0,044
-201,592	-200,000	0,005	-0,122
-200,577	525,133	-0,101	0,172
-199,563	-106,710	0,083	0,013
-198,548	473,533	0,060	-0,099
-197,533	-103,979	0,134	0,022
-196,519	0,458	0,047	-0,024
-195,504	-200,000	-0,010	-0,037
-194,490	-48,671	-0,120	-0,041
-193,475	573,106	-0,050	-0,088
-192,460	353,290	0,010	-0,014
-191,446	800,000	0,007	-0,015
-190,431	-200,000	-0,007	-0,056
-189,417	-200,000	0,027	0,129
-188,402	-66,625	-0,073	0,021
-187,387	113,180	-0,142	0,124
-186,373	31,066	0,035	0,022
-185,358	-180,520	0,145	0,002
-184,344	114,098	-0,059	0,052
-183,329	-200,000	-0,013	0,121
-182,315	142,830	0,084	-0,081
-181,300	800,000	-0,028	-0,075
-180,285	-16,193	0,061	0,028
-179,271	-200,000	0,002	-0,084
-178,256	-200,000	-0,028	0,106
-177,242	-18,676	0,010	-0,004
-176,227	-200,000	0,034	0,130
-175,212	-48,080	-0,128	-0,044
-174,198	-200,000	0,018	0,178
-173,183	-12,012	-0,074	0,035
-172,169	-200,000	0,020	-0,100
-171,154	800,000	-0,051	-0,129
-170,139	4,940	0,019	0,010
-169,125	-200,000	-0,003	-0,040
-168,110	-84,716	-0,184	0,041
-167,096	419,153	0,032	-0,050
-166,081	-200,000	0,034	0,000
-165,066	24,252	-0,139	-0,083
-164,052	800,000	0,049	-0,134
-163,037	-200,000	0,028	-0,138
-162,023	-131,924	0,097	-0,009
-161,008	160,509	-0,057	0,057
-159,993	800,000	-0,025	-0,066
-158,979	-200,000	-0,018	-0,139
-157,964	800,000	0,041	0,085
-156,950	125,604	-0,056	-0,051
-155,935	102,436	0,075	-0,063
-154,920	207,420	0,079	0,089
-153,906	-200,000	-0,012	0,054
-152,891	-200,000	0,014	0,055
-151,877	-200,000	-0,023	0,079
-150,862	-58,888	-0,107	-0,033
-149,847	-42,738	0,083	-0,030
-148,833	-31,441	-0,104	-0,042
-147,818	326,671	0,104	0,144
-146,804	324,173	-0,074	-0,102
-145,789	-102,586	-0,064	0,011
-144,775	-200,000	-0,018	-0,086
-143,760	800,000	0,044	-0,108
-142,745	6,074	0,081	0,043
-141,731	800,000	0,027	-0,069
-140,716	249,103	-0,060	0,074
-139,702	-200,000	-0,018	-0,100
-138,687	145,524	-0,024	0,023
-137,672	396,802	-0,076	-0,115
-136,658	-143,665	0,116	-0,008
-135,643	800,000	0,005	0,013
-134,629	-53,325	-0,085	0,028
-133,614	-80,509	0,052	0,012
-132,599	532,044	-0,057	0,098
-131,585	-200,000	0,010	0,038
-130,570	-200,000	-0,018	-0,073
-129,556	11,987	0,072	-0,040
-128,541	424,582	-0,035	-0,054
-127,526	800,000	-0,039	-0,097
-126,512	31,471	-0,076	-0,047
-125,497	-37,562	0,097	0,037
-124,483	28,451	-0,042	0,026
-123,468	209,950	0,022	-0,025
-122,453	-200,000	0,025	-0,089
-121,439	-200,000	0,022	0,096
-120,424	800,000	0,029	0,071
