DTS Sentinel unit serial number:	SN410029Multiplexer serial number:	ORYXHardware model number:	OX2-SRSoftware version number:	ORYX F/W v4,00 Oryx Data Collector v3.7.2.0data status	okinstallation	B5 Nyhavnadifferential loss correction	single-endedforward channel	channel 2reverse channel	N/Adate	2023/12/13time	15:37:13forward acquisition time	300,00reverse acquisition time	0,00gamma	499,1914k internal	0,3160k external	0,3160temperature offset calibration	1,0000default loss term (dB/km)	0,3820temperature slope calibration	1,0000multiplexer offset coefficient	1,0000multiplexer slope coefficient	1,0000fibre end	0,00T internal ref (°C)	14,96T ext. ref 1 (°C)	-1,43T ext. ref 2 (°C)	-1,73length (m)	temperature (°C)	Stokes	anti-Stokes-744,400	161,783	0,070	0,072
-743,385	-134,463	-0,291	-0,026
-742,371	-14,393	0,079	-0,038
-741,356	-200,000	-0,407	0,001
-740,342	304,678	-0,049	-0,067
-739,327	-50,367	-0,339	-0,117
-738,312	-200,000	0,003	0,016
-737,298	-110,562	-0,365	-0,055
-736,283	800,000	-0,016	0,034
-735,269	-53,705	-0,182	0,061
-734,254	152,082	0,079	0,080
-733,239	-87,024	-0,479	-0,107
-732,225	35,802	0,109	0,071
-731,210	233,771	0,015	0,018
-730,196	-200,000	0,015	-0,112
-729,181	-119,417	0,168	-0,021
-728,167	21,813	-0,083	-0,050
-727,152	286,888	0,091	-0,121
-726,137	-59,422	-0,074	0,023
-725,123	-117,698	-0,111	-0,015
-724,108	451,800	0,012	0,020
-723,094	257,972	-0,093	0,118
-722,079	-200,000	-0,002	-0,039
-721,064	-86,457	-0,062	0,014
-720,050	356,409	-0,019	0,027
-719,035	34,268	-0,008	0,005
-718,021	139,678	-0,003	-0,003
-717,006	-200,000	-0,056	-0,213
-715,991	800,000	-0,067	-0,140
-714,977	194,688	-0,060	0,068
-713,962	-200,000	0,005	0,018
-712,948	40,352	0,023	-0,015
-711,933	-95,949	-0,087	0,017
-710,918	-200,000	0,004	0,090
-709,904	800,000	-0,037	-0,081
-708,889	23,259	-0,132	0,080
-707,875	-4,714	-0,119	-0,060
-706,860	-200,000	-0,018	0,149
-705,845	216,206	0,023	-0,027
-704,831	-200,000	-0,021	0,097
-703,816	-200,000	-0,007	-0,056
-702,802	-177,761	-0,085	0,001
-701,787	15,705	0,050	-0,029
-700,772	-106,694	0,068	-0,011
-699,758	414,422	0,087	-0,136
-698,743	800,000	0,010	0,028
-697,729	635,532	-0,035	0,065
-696,714	-86,357	0,016	-0,003
-695,699	-200,000	-0,008	-0,075
-694,685	-200,000	-0,032	0,125
-693,670	-0,568	-0,025	0,013
-692,656	-84,950	-0,135	0,031
-691,641	215,995	-0,064	-0,074
-690,627	133,907	0,047	0,045
-689,612	-5,535	-0,111	0,056
-688,597	-200,000	-0,021	0,158
-687,583	213,382	-0,101	-0,118
-686,568	-200,000	-0,005	0,089
-685,554	-200,000	0,019	0,082
-684,539	800,000	-0,039	0,099
-683,524	-121,926	0,090	0,011
-682,510	800,000	-0,009	-0,029
-681,495	313,589	-0,066	0,091
-680,481	37,106	-0,075	-0,049
-679,466	53,150	0,013	-0,009
-678,451	217,663	-0,043	0,050
-677,437	19,672	-0,053	0,031
-676,422	-200,000	-0,027	0,146
-675,408	-77,973	-0,052	0,013
-674,393	-67,864	-0,157	0,045
-673,378	343,907	0,076	-0,110
-672,364	29,759	-0,075	-0,047
-671,349	-58,419	0,087	0,028
-670,335	-200,000	-0,018	0,115
-669,320	-59,789	0,095	0,030
-668,305	-37,797	-0,096	-0,037
-667,291	800,000	0,051	-0,109
-666,276	-64,420	-0,128	-0,038
-665,262	-200,000	0,005	0,093
-664,247	87,489	0,075	-0,061
-663,232	-57,189	-0,049	-0,016
-662,218	-26,887	-0,049	0,021
-661,203	6,786	-0,048	-0,026
-660,189	148,405	-0,056	0,055
-659,174	14,013	0,095	-0,054
-658,159	-200,000	-0,041	-0,164
-657,145	-200,000	0,008	-0,026
-656,130	52,277	-0,105	-0,073
-655,116	-200,000	0,021	0,067
-654,101	800,000	0,039	0,110
-653,086	-200,000	-0,005	0,045
-652,072	78,454	-0,077	0,061
-651,057	800,000	-0,005	0,016
-650,043	426,302	-0,038	0,061
-649,028	-200,000	-0,014	0,059
-648,014	100,478	-0,027	-0,023
-646,999	-29,512	-0,223	0,093
-645,984	800,000	0,017	0,036
-644,970	-128,200	0,070	-0,007
-643,955	-200,000	0,004	-0,095
-642,941	133,856	0,079	0,075
-641,926	-78,281	0,049	0,012
-640,911	-181,131	-0,107	0,002
-639,897	444,911	0,009	0,015
-638,882	800,000	0,074	0,209
-637,868	152,430	0,088	-0,088
-636,853	161,011	-0,055	-0,056
-635,838	224,950	0,099	-0,118
-634,824	-111,706	-0,118	-0,017
-633,809	290,459	-0,037	-0,049
-632,795	-200,000	0,018	-0,058
-631,780	-31,857	0,010	-0,004
-630,765	-200,000	-0,015	-0,090
-629,751	408,921	0,067	-0,104
-628,736	-200,000	0,008	0,032
-627,722	97,334	-0,147	-0,124
-626,707	86,849	0,083	0,067
-625,692	40,609	0,097	0,064
-624,678	-135,392	0,060	-0,005
-623,663	-137,009	-0,160	0,013
-622,649	91,076	-0,185	-0,152
-621,634	-88,749	0,068	0,015
-620,619	800,000	-0,069	-0,145
-619,605	140,634	0,110	0,107
-618,590	-75,838	-0,071	-0,018
-617,576	132,476	-0,139	-0,132
-616,561	217,540	0,014	-0,016
-615,546	-145,746	-0,023	0,001
-614,532	-11,554	-0,088	0,042
-613,517	800,000	0,045	0,103
-612,503	-50,043	0,079	-0,027
-611,488	20,757	-0,147	0,087
-610,474	28,128	0,071	0,044
-609,459	-111,904	-0,082	0,012
-608,444	-176,146	-0,052	0,001
-607,430	-26,143	-0,108	-0,046
-606,415	-200,000	-0,018	-0,097
-605,401	-200,000	0,005	-0,032
-604,386	-121,032	0,048	0,006
-603,371	-200,000	0,008	0,072
-602,357	-200,000	0,008	-0,058
-601,342	800,000	-0,021	-0,068
-600,328	295,194	-0,009	-0,011
-599,313	-182,873	-0,028	-0,000
-598,298	36,575	-0,085	-0,055
-597,284	-29,175	0,143	0,060
-596,269	-200,000	-0,003	0,143
-595,255	215,667	0,066	0,077
-594,240	315,643	0,068	-0,094
-593,225	299,270	0,078	-0,106
-592,211	440,152	-0,074	-0,120
-591,196	23,665	0,068	0,041
-590,182	195,211	-0,046	0,051
-589,167	279,837	-0,030	0,040
-588,152	800,000	-0,039	-0,097
-587,138	800,000	-0,029	0,089
-586,123	-17,739	-0,143	0,066
-585,109	-200,000	0,021	0,076
-584,094	800,000	-0,040	-0,115
-583,079	-200,000	-0,004	0,029
-582,065	-200,000	-0,004	-0,037
-581,050	-200,000	-0,022	-0,079
-580,036	314,479	-0,044	0,060
-579,021	800,000	-0,042	-0,088
-578,006	-122,461	-0,059	-0,007
-576,992	-45,783	0,057	0,020
-575,977	275,901	-0,060	-0,078
-574,963	-35,713	-0,059	0,023
-573,948	800,000	0,046	0,111
-572,934	-200,000	0,017	0,091
-571,919	39,806	0,068	-0,044
-570,904	200,820	0,051	-0,057
-569,890	5,142	-0,143	-0,077
-568,875	547,301	0,036	0,063
-567,861	364,645	-0,038	0,056
-566,846	237,347	-0,046	0,056
-565,831	-48,728	0,198	0,069
-564,817	-200,000	-0,006	-0,070
-563,802	-89,914	0,097	-0,021
-562,788	255,717	-0,174	-0,219
-561,773	-153,678	-0,065	-0,003
-560,758	121,789	0,040	0,037
-559,744	-200,000	0,005	-0,093
-558,729	-200,000	0,018	0,099
-557,715	-125,489	-0,076	0,008
-556,700	27,412	-0,035	0,022
-555,685	-4,436	-0,056	-0,028
-554,671	218,010	-0,072	-0,084
-553,656	578,226	0,100	0,179
-552,642	-200,000	0,014	0,059
-551,627	800,000	-0,050	0,127
-550,612	517,700	-0,025	-0,043
-549,598	800,000	-0,033	-0,079
-548,583	111,645	-0,042	-0,037
-547,569	-200,000	-0,035	0,160
-546,554	800,000	0,036	0,099
-545,539	235,000	0,033	-0,040
-544,525	-200,000	-0,004	-0,159
-543,510	-68,664	-0,086	-0,024
-542,496	800,000	0,020	-0,061
-541,481	7,605	-0,079	-0,043
-540,466	16,277	-0,154	-0,088
-539,452	141,563	0,110	-0,107
-538,437	-69,478	0,060	0,017
-537,423	-90,499	0,088	-0,019
-536,408	-200,000	0,012	0,057
-535,393	31,924	-0,100	0,063
-534,379	44,695	0,046	-0,031
-533,364	-200,000	-0,009	-0,091
-532,350	-39,946	-0,127	0,048
-531,335	-4,314	0,199	0,100
-530,321	-171,764	-0,072	0,002
-529,306	63,227	-0,042	-0,031
-528,291	130,460	0,163	-0,153
-527,277	-200,000	0,008	0,040
-526,262	800,000	0,013	-0,036
-525,248	13,869	0,070	0,040
-524,233	800,000	0,036	0,088
-523,218	800,000	0,028	0,079
-522,204	-58,031	-0,017	0,005
-521,189	-152,537	-0,105	0,005
-520,175	191,616	0,086	-0,095
-519,160	-83,389	0,054	-0,013
-518,145	6,373	-0,073	0,039
-517,131	58,470	0,047	-0,034
-516,116	15,052	-0,104	-0,059
-515,102	-194,126	-0,146	-0,001
-514,087	800,000	-0,044	-0,125
-513,072	-9,039	0,081	-0,039
-512,058	49,109	-0,051	-0,035
-511,043	250,034	0,097	-0,121
-510,029	410,621	0,068	-0,105
-509,014	-200,000	0,037	0,233
-507,999	-200,000	0,043	0,170
-506,985	-86,205	-0,110	0,025
-505,970	229,863	0,082	0,098
-504,956	-7,826	-0,060	-0,030
-503,941	49,654	0,057	-0,039
-502,926	-61,429	0,195	-0,059
-501,912	318,504	0,027	-0,038
-500,897	56,138	-0,025	-0,017
-499,883	-87,259	-0,090	0,020
-498,868	-131,135	-0,119	-0,011
-497,853	83,092	-0,012	0,009
-496,839	113,439	0,056	0,049
-495,824	-76,044	0,109	0,028
-494,810	-200,000	0,014	0,123
-493,795	111,565	0,025	0,022
-492,781	800,000	0,029	0,061
-491,766	68,224	0,034	-0,025
-490,751	-200,000	0,033	-0,136
-489,737	131,355	0,045	-0,042
-488,722	-59,076	0,042	0,013
-487,708	-200,000	-0,008	0,044
-486,693	511,714	-0,063	-0,107
-485,678	233,011	-0,040	-0,048
-484,664	186,514	-0,042	-0,046
-483,649	800,000	-0,006	-0,017
-482,635	-200,000	-0,050	-0,283
-481,620	-200,000	0,012	0,054
-480,605	-81,598	0,100	0,024
-479,591	-200,000	-0,007	0,108
-478,576	-200,000	-0,009	0,051
-477,562	-200,000	-0,016	0,100
-476,547	711,227	-0,059	0,114
-475,532	-200,000	0,005	0,034
-474,518	195,370	0,111	0,123
-473,503	-7,137	0,167	0,082
-472,489	248,891	0,127	0,157
-471,474	-200,000	-0,020	0,139
-470,459	-78,776	-0,119	-0,029
-469,445	-200,000	0,006	0,207
-468,430	800,000	-0,046	0,143
-467,416	91,386	0,103	0,084
-466,401	29,894	0,053	-0,033
-465,386	65,932	-0,056	0,041
-464,372	96,676	0,066	0,055
-463,357	198,756	-0,048	-0,053
-462,343	70,449	-0,095	0,072
-461,328	88,587	-0,088	0,072
-460,313	251,640	0,054	-0,067
-459,299	800,000	0,039	-0,108
-458,284	-200,000	0,009	-0,042
-457,270	-200,000	-0,021	-0,119
-456,255	722,383	0,049	0,095
-455,241	-129,859	0,055	-0,005
-454,226	-74,710	-0,051	0,013
-453,211	50,380	-0,037	0,026
-452,197	551,151	0,041	0,072
-451,182	413,374	0,081	-0,126
-450,168	-116,060	0,070	-0,009
-449,153	230,176	-0,065	-0,078
-448,138	-141,539	0,018	0,001
-447,124	800,000	0,025	0,072
-446,109	400,862	-0,064	-0,098
-445,095	-200,000	-0,008	0,124
-444,080	190,199	-0,138	0,151
-443,065	47,738	0,055	0,037
-442,051	129,202	0,073	-0,068
-441,036	170,384	0,053	0,055
-440,022	10,797	-0,059	-0,033
-439,007	174,479	-0,050	0,053
-437,992	-128,792	0,026	0,003
-436,978	800,000	-0,013	0,028
-435,963	-44,390	0,131	0,047
-434,949	-34,358	-0,050	0,020
-433,934	-200,000	-0,040	-0,152
-432,919	85,645	0,094	-0,075
-431,905	74,906	-0,023	-0,017
-430,890	-200,000	0,015	0,079
-429,876	-35,329	0,085	-0,033
-428,861	-1,282	-0,075	-0,039
-427,846	800,000	0,029	-0,082
-426,832	-200,000	-0,008	0,138
-425,817	-21,721	-0,060	-0,026
-424,803	-31,053	0,080	-0,033
-423,788	713,509	0,020	-0,038
-422,773	-200,000	0,010	-0,093
-421,759	-41,149	-0,004	0,002
-420,744	800,000	0,055	0,167
-419,730	78,981	-0,090	-0,070
-418,715	-117,592	0,081	0,011
-417,701	800,000	0,032	0,086
-416,686	-35,706	0,053	0,021
-415,671	-108,005	0,163	-0,025
-414,657	-131,270	0,109	-0,010
-413,642	-65,632	-0,118	-0,034
-412,628	-200,000	-0,011	-0,080
-411,613	800,000	-0,068	-0,154
-410,598	800,000	0,038	-0,096
-409,584	32,399	-0,062	0,039
-408,569	-150,108	0,128	0,007
-407,555	800,000	0,020	-0,046
-406,540	271,653	-0,004	0,005
-405,525	-137,416	-0,092	-0,007
-404,511	327,617	-0,036	-0,051
-403,496	-200,000	-0,035	-0,134
-402,482	-36,174	0,109	0,042
-401,467	682,920	0,038	-0,072
-400,452	-149,403	0,127	0,007
-399,438	-63,266	-0,049	0,014
-398,423	-185,273	0,043	-0,000
-397,409	-24,059	-0,177	-0,077
-396,394	154,828	-0,069	-0,069
-395,379	127,172	0,176	0,163
-394,365	489,493	-0,107	0,179
-393,350	275,626	0,116	0,150
-392,336	-6,174	-0,064	0,032
-391,321	127,328	0,029	0,027
-390,306	-200,000	-0,014	-0,140
-389,292	17,633	-0,028	-0,016
-388,277	800,000	-0,024	-0,059
-387,263	-200,000	-0,004	-0,090
-386,248	101,939	0,027	0,023
-385,233	319,804	-0,040	-0,055
-384,219	800,000	0,011	-0,029
-383,204	685,542	0,018	0,033
-382,190	-200,000	-0,043	-0,185
-381,175	493,971	0,041	0,068
-380,160	-117,523	0,033	0,004
-379,146	14,379	-0,174	-0,098
-378,131	53,234	0,090	-0,063
-377,117	-200,000	-0,019	0,127
-376,102	300,912	-0,077	-0,103
-375,088	84,596	0,055	-0,044
-374,073	92,353	-0,020	0,016
-373,058	-4,184	0,096	0,048
-372,044	-200,000	0,007	-0,057
-371,029	278,892	-0,072	0,093
-370,015	-39,476	-0,068	0,026
-369,000	162,223	-0,065	-0,066
-367,985	-200,000	0,010	-0,093
-366,971	-200,000	-0,023	-0,092
-365,956	716,520	0,012	0,023
-364,942	48,577	0,041	-0,028
-363,927	-200,000	-0,012	0,074
-362,912	-200,000	-0,008	0,035
-361,898	659,622	0,013	-0,025
-360,883	-95,257	0,081	-0,016
-359,869	-68,028	-0,075	-0,021
-358,854	-200,000	0,002	0,058
-357,839	690,906	0,053	-0,101
-356,825	-200,000	0,008	0,044
-355,810	52,789	-0,129	0,090
-354,796	-142,414	-0,032	-0,002
-353,781	-200,000	0,012	-0,080
-352,766	-200,000	-0,009	-0,060
-351,752	-28,059	-0,025	-0,010
-350,737	320,653	0,068	0,094
-349,723	800,000	0,053	-0,129
-348,708	800,000	-0,015	0,038
-347,693	-115,921	-0,046	-0,006
-346,679	800,000	-0,037	-0,109
-345,664	-200,000	-0,024	-0,133
-344,650	263,085	0,051	-0,064
-343,635	347,720	-0,024	-0,035
-342,620	400,115	0,037	0,056
-341,606	-200,000	-0,029	-0,119
-340,591	-173,052	-0,138	-0,003
-339,577	3,096	-0,076	-0,040
-338,562	480,762	-0,031	-0,051
-337,548	-52,874	-0,077	0,026
-336,533	-200,000	-0,011	0,046
-335,518	-200,000	0,000	-0,023
-334,504	-85,923	-0,053	-0,012
-333,489	-200,000	-0,029	-0,107
-332,475	-79,310	-0,061	-0,015
-331,460	5,573	0,048	-0,026
-330,445	800,000	0,034	-0,071
-329,431	512,308	0,059	0,100
-328,416	-34,885	-0,091	0,036
-327,402	-38,056	-0,048	-0,019
-326,387	398,648	0,028	0,043
-325,372	-200,000	0,012	-0,108
-324,358	-144,667	0,131	-0,009
-323,343	77,609	0,108	0,084
-322,329	46,941	-0,054	-0,036
-321,314	43,052	0,122	0,080
-320,299	800,000	0,014	0,027
-319,285	-200,000	0,001	0,067
-318,270	680,951	-0,050	0,095
-317,256	-24,953	-0,041	-0,018
-316,241	-50,740	0,103	-0,035
-315,226	-40,857	0,095	-0,035
-314,212	0,950	0,079	0,041
-313,197	-200,000	-0,007	-0,088
-312,183	212,574	-0,108	0,123
-311,168	-200,000	-0,006	0,159
-310,153	93,207	0,115	-0,094
-309,139	84,487	-0,112	0,088
-308,124	-82,258	0,116	0,027
-307,110	522,744	0,095	0,162
-306,095	255,806	0,076	-0,095
-305,080	171,044	0,033	-0,034
-304,066	800,000	-0,039	-0,097
-303,051	17,679	-0,053	0,030
-302,037	342,449	-0,019	0,026
-301,022	-200,000	-0,024	0,107
-300,008	-51,047	-0,061	0,021
-298,993	307,832	0,008	0,010
-297,978	-200,000	0,027	0,120
-296,964	800,000	0,033	0,069
-295,949	542,251	0,030	-0,052
-294,935	800,000	0,052	-0,136
-293,920	402,338	0,028	0,042
-292,905	800,000	-0,047	-0,105
-291,891	-132,168	0,209	0,019
-290,876	-200,000	-0,033	0,124
-289,862	-98,734	-0,074	-0,013
-288,847	800,000	0,022	-0,055
-287,832	85,060	-0,074	-0,059
-286,818	-200,000	0,011	0,098
-285,803	167,286	-0,088	0,090
-284,789	465,263	0,033	-0,053
-283,774	150,221	0,071	-0,069
-282,759	800,000	-0,056	-0,133
-281,745	-200,000	-0,006	-0,039
-280,730	-36,986	-0,039	-0,015
-279,716	153,949	-0,087	-0,086
-278,701	26,474	0,117	0,070
-277,686	-200,000	0,000	0,026
-276,672	-91,594	0,159	-0,032
-275,657	-200,000	0,029	-0,115
-274,643	-200,000	-0,051	-0,163
-273,628	-147,300	0,045	0,003
-272,613	-200,000	-0,026	-0,087
-271,599	-200,000	-0,008	-0,086
-270,584	-200,000	0,028	0,141
-269,570	26,410	0,085	0,051
-268,555	117,097	-0,091	-0,081
-267,540	-200,000	-0,003	-0,034
-266,526	176,772	-0,026	-0,027
-265,511	138,444	-0,028	-0,026
-264,497	6,716	0,026	0,014
-263,482	-60,054	0,160	0,049
-262,467	-29,013	-0,060	-0,025
-261,453	-200,000	-0,035	0,115
-260,438	-67,473	0,068	-0,019
-259,424	-200,000	0,002	-0,061
-258,409	-200,000	-0,022	-0,110
-257,395	-107,700	0,099	0,015
-256,380	800,000	0,028	0,077
-255,365	98,881	-0,125	0,104
-254,351	311,700	0,081	0,110
-253,336	-106,241	-0,183	0,029
-252,322	800,000	-0,015	-0,048
-251,307	19,653	0,073	0,042
-250,292	800,000	-0,023	0,053
-249,278	-200,000	0,016	0,120
-248,263	-200,000	0,018	0,093
-247,249	253,602	-0,033	-0,041
-246,234	135,846	-0,041	0,038
-245,219	150,708	-0,067	-0,066
-244,205	-48,152	0,046	0,016
-243,190	174,200	0,062	0,065
-242,176	680,749	0,042	0,080
-241,161	800,000	0,027	0,069
-240,146	-123,770	0,078	0,009
-239,132	-11,382	0,049	0,023
-238,117	427,709	0,052	-0,081
-237,103	800,000	0,002	-0,004
-236,088	116,525	-0,078	0,069
-235,073	-182,227	0,081	-0,001
-234,059	652,416	0,046	-0,085
-233,044	-34,497	0,055	-0,022
-232,030	800,000	-0,050	-0,103
-231,015	-139,317	0,113	0,009
-230,000	55,124	0,051	-0,035
-228,986	-21,914	0,051	0,022
-227,971	32,454	-0,033	-0,020
-226,957	-200,000	0,016	0,064
-225,942	-64,064	-0,038	-0,011
-224,927	-113,562	-0,108	-0,015
-223,913	558,370	-0,020	-0,035
-222,898	800,000	-0,005	-0,014
-221,884	-46,763	-0,042	0,015
-220,869	-182,261	-0,065	-0,001
-219,855	-74,319	0,113	0,029
-218,840	800,000	0,038	0,082
-217,825	-130,716	-0,112	-0,011
-216,811	800,000	-0,027	0,058
-215,796	800,000	-0,050	0,149
-214,782	-200,000	-0,027	0,220
-213,767	108,034	-0,039	0,034
-212,752	-3,162	0,056	-0,028
-211,738	800,000	-0,014	0,029
-210,723	-177,410	0,051	0,001
-209,709	631,921	0,046	0,084
-208,694	109,951	-0,045	-0,039
-207,679	800,000	-0,031	-0,099
-206,665	-200,000	0,007	0,033
-205,650	-200,000	-0,006	0,055
-204,636	-19,084	-0,023	0,010
-203,621	-13,729	0,109	-0,051
-202,606	800,000	-0,021	0,060
-201,592	-153,895	-0,084	0,004
-200,577	-64,666	0,076	-0,022
-199,563	739,451	-0,006	-0,011
-198,548	170,753	-0,058	0,060
-197,533	-99,978	0,040	-0,007
-196,519	-200,000	-0,002	-0,027
-195,504	131,955	0,068	0,063
-194,490	-54,907	0,120	-0,039
-193,475	116,499	-0,076	-0,067
-192,460	35,307	-0,063	-0,040
-191,446	800,000	0,066	0,145
-190,431	130,372	0,090	0,083
-189,417	27,153	-0,084	-0,051
-188,402	477,048	-0,066	-0,107
-187,387	-78,280	-0,050	-0,012
-186,373	46,954	0,056	0,037
-185,358	-30,836	-0,103	0,042
-184,344	-200,000	-0,012	-0,043
-183,329	-59,970	-0,109	0,033
-182,315	-200,000	-0,005	-0,153
-181,300	101,852	0,012	0,010
-180,285	415,593	0,072	-0,111
-179,271	87,289	-0,010	-0,008
-178,256	119,995	0,072	-0,064
-177,242	72,095	-0,065	0,048
-176,227	800,000	0,061	0,127
-175,212	435,578	0,052	0,082
-174,198	800,000	-0,018	0,039
-173,183	103,384	-0,103	-0,087
-172,169	-127,884	-0,037	-0,004
-171,154	-200,000	-0,025	-0,118
-170,139	-170,720	0,098	0,002
-169,125	147,005	-0,099	0,096
-168,110	-200,000	0,027	0,121
-167,096	-200,000	0,003	0,017
-166,081	19,888	-0,092	-0,053
-165,066	-200,000	0,006	0,055
-164,052	203,370	-0,068	-0,076
-163,037	-200,000	0,012	0,106
-162,023	800,000	-0,007	-0,021
-161,008	-200,000	0,008	-0,070
-159,993	51,931	-0,124	-0,085
-158,979	-42,478	-0,021	0,008
-157,964	208,133	0,094	-0,106
-156,950	-167,341	-0,094	0,003
-155,935	-15,083	0,047	0,021
-154,920	800,000	0,036	0,115
-153,906	-200,000	0,001	0,080
-152,891	-200,000	-0,040	0,145
-151,877	184,668	-0,076	0,082
-150,862	-76,483	0,029	-0,007
-149,847	192,165	0,026	-0,028
-148,833	-200,000	-0,001	0,011
-147,818	72,760	0,123	0,092
-146,804	283,027	0,071	0,092
-145,789	226,364	-0,099	0,116
-144,775	279,730	-0,047	0,060
-143,760	-123,855	-0,069	0,008
-142,745	-14,316	-0,089	-0,041
-141,731	800,000	-0,010	0,032
-140,716	43,195	0,203	-0,133
-139,702	-174,809	0,033	0,001
-138,687	79,535	-0,059	-0,045
-137,672	528,923	0,020	-0,035
-136,658	301,242	-0,041	-0,054
-135,643	103,932	0,019	0,016
-134,629	-184,014	-0,125	0,001
-133,614	53,669	-0,107	-0,074
-132,599	-200,000	0,026	0,089
-131,585	43,453	-0,073	-0,048
-130,570	594,036	0,010	-0,017
-129,556	682,055	-0,038	0,072
-128,541	87,227	0,044	-0,035
-127,526	-146,186	-0,057	0,004
-126,512	-200,000	-0,007	-0,153
-125,497	-185,536	0,052	0,001
-124,483	287,956	0,053	-0,069
-123,468	-200,000	0,007	0,115
-122,453	-200,000	0,021	0,138
-121,439	800,000	0,052	-0,107
-120,424	524,846	-0,024	0,040
-119,410	800,000	0,057	0,138
