DTS Sentinel unit serial number:	SN410029Multiplexer serial number:	ORYXHardware model number:	OX2-SRSoftware version number:	ORYX F/W v4,00 Oryx Data Collector v3.7.2.0data status	okinstallation	B5 Nyhavnadifferential loss correction	single-endedforward channel	channel 2reverse channel	N/Adate	2023/12/13time	21:17:13forward acquisition time	300,00reverse acquisition time	0,00gamma	499,1914k internal	0,3156k external	0,3156temperature offset calibration	1,0000default loss term (dB/km)	0,3820temperature slope calibration	1,0000multiplexer offset coefficient	1,0000multiplexer slope coefficient	1,0000fibre end	0,00T internal ref (°C)	10,12T ext. ref 1 (°C)	-6,77T ext. ref 2 (°C)	-6,83length (m)	temperature (°C)	Stokes	anti-Stokes-744,400	-28,715	0,181	0,077
-743,385	-124,331	-0,315	0,036
-742,371	322,145	0,045	0,063
-741,356	-92,854	-0,333	-0,068
-740,342	115,695	0,181	0,163
-739,327	-59,876	-0,280	-0,088
-738,312	-22,622	0,117	0,052
-737,298	-144,937	-0,361	0,024
-736,283	238,677	0,017	-0,021
-735,269	-3,169	-0,243	-0,125
-734,254	230,887	-0,011	-0,013
-733,239	114,546	-0,420	-0,377
-732,225	13,352	0,229	0,130
-731,210	-200,000	0,024	-0,085
-730,196	-73,923	-0,090	0,024
-729,181	-105,333	-0,070	0,012
-728,167	-154,469	-0,128	0,006
-727,152	36,498	-0,031	0,020
-726,137	-137,668	-0,084	-0,007
-725,123	58,057	-0,082	-0,059
-724,108	490,151	-0,077	-0,130
-723,094	800,000	-0,057	-0,164
-722,079	320,976	-0,086	-0,120
-721,064	-98,592	-0,051	-0,010
-720,050	433,106	-0,031	0,050
-719,035	-200,000	0,007	-0,072
-718,021	324,529	-0,055	0,078
-717,006	-112,261	-0,082	-0,012
-715,991	-200,000	-0,017	-0,057
-714,977	63,303	-0,152	-0,112
-713,962	306,607	-0,031	0,043
-712,948	109,015	-0,086	0,076
-711,933	-116,895	-0,102	-0,014
-710,918	-200,000	0,001	0,067
-709,904	-10,541	-0,051	-0,025
-708,889	193,471	-0,063	-0,070
-707,875	4,141	-0,163	-0,087
-706,860	525,956	0,078	-0,136
-705,845	178,806	0,057	-0,061
-704,831	-200,000	-0,007	-0,066
-703,816	168,893	0,035	-0,037
-702,802	-200,000	-0,003	0,084
-701,787	165,675	-0,074	0,077
-700,772	-13,232	-0,109	-0,052
-699,758	109,357	-0,122	-0,108
-698,743	800,000	0,036	0,094
-697,729	734,806	-0,093	0,184
-696,714	800,000	0,017	0,051
-695,699	-200,000	0,016	-0,075
-694,685	-66,317	-0,121	-0,035
-693,670	129,655	-0,045	-0,043
-692,656	-200,000	-0,016	-0,054
-691,641	-200,000	-0,028	0,140
-690,627	-200,000	0,014	-0,055
-689,612	-200,000	-0,014	-0,134
-688,597	-46,923	-0,067	-0,024
-687,583	800,000	0,023	-0,064
-686,568	-200,000	0,034	-0,112
-685,554	-42,049	0,024	-0,009
-684,539	207,661	0,053	-0,060
-683,524	-140,596	0,087	-0,007
-682,510	34,537	0,059	-0,038
-681,495	800,000	-0,023	-0,049
-680,481	156,841	-0,115	-0,117
-679,466	-33,631	0,136	-0,055
-678,451	677,841	0,032	-0,061
-677,437	-47,995	-0,159	-0,056
-676,422	-181,518	-0,104	-0,001
-675,408	-112,182	0,086	-0,013
-674,393	169,501	-0,054	-0,057
-673,378	800,000	-0,008	-0,020
-672,364	90,634	-0,151	-0,125
-671,349	800,000	-0,019	0,039
-670,335	-200,000	-0,009	-0,076
-669,320	-200,000	0,017	-0,116
-668,305	800,000	-0,017	-0,038
-667,291	507,341	-0,049	0,084
-666,276	392,640	0,035	-0,054
-665,262	280,007	-0,066	-0,087
-664,247	-86,631	-0,100	0,022
-663,232	-14,815	-0,056	-0,026
-662,218	-200,000	0,015	-0,054
-661,203	-71,702	0,084	-0,023
-660,189	-200,000	0,001	0,030
-659,174	239,316	-0,028	0,035
-658,159	-200,000	0,036	-0,233
-657,145	24,078	-0,030	-0,018
-656,130	175,015	0,066	-0,071
-655,116	800,000	-0,052	0,134
-654,101	-200,000	0,004	-0,081
-653,086	-99,347	0,055	-0,010
-652,072	-45,561	-0,056	-0,020
-651,057	-200,000	-0,019	-0,130
-650,043	-3,843	0,056	-0,028
-649,028	-200,000	-0,019	-0,164
-648,014	-200,000	-0,025	0,112
-646,999	-200,000	-0,007	-0,051
-645,984	800,000	-0,016	-0,049
-644,970	4,791	0,154	-0,083
-643,955	-21,956	0,066	-0,029
-642,941	15,807	-0,079	-0,046
-641,926	-59,650	-0,052	0,016
-640,911	-40,701	-0,053	-0,020
-639,897	40,821	0,106	0,070
-638,882	-115,504	-0,048	-0,007
-637,868	104,742	0,069	-0,060
-636,853	8,890	-0,117	-0,065
-635,838	73,614	-0,121	-0,093
-634,824	-80,720	0,022	0,005
-633,809	382,515	-0,066	0,100
-632,795	-5,950	0,081	0,041
-631,780	614,907	-0,044	-0,082
-630,765	800,000	0,024	-0,078
-629,751	800,000	0,067	-0,177
-628,736	-16,609	-0,125	-0,058
-627,722	82,838	-0,071	-0,056
-626,707	-183,890	-0,084	0,001
-625,692	-20,752	0,215	0,096
-624,678	-200,000	0,004	0,166
-623,663	257,015	0,128	0,161
-622,649	800,000	-0,058	0,138
-621,634	355,877	0,031	-0,046
-620,619	-200,000	0,015	-0,128
-619,605	361,713	0,055	-0,081
-618,590	-83,012	0,082	-0,019
-617,576	-105,959	0,092	-0,015
-616,561	-14,130	-0,149	-0,070
-615,546	165,374	-0,110	-0,114
-614,532	800,000	0,062	-0,171
-613,517	160,439	-0,126	-0,129
-612,503	-22,718	-0,051	-0,022
-611,488	-200,000	-0,002	-0,011
-610,474	-68,400	-0,049	0,014
-609,459	-63,463	-0,137	-0,041
-608,444	479,012	0,043	-0,072
-607,430	581,632	0,010	0,018
-606,415	-200,000	0,028	-0,137
-605,401	48,035	-0,122	-0,084
-604,386	42,487	0,100	0,066
-603,371	243,151	0,043	0,054
-602,357	800,000	-0,039	0,097
-601,342	235,953	0,029	0,035
-600,328	-200,000	-0,004	0,028
-599,313	-200,000	0,003	-0,021
-598,298	33,956	0,078	-0,050
-597,284	-12,624	-0,027	0,013
-596,269	153,384	0,061	0,061
-595,255	140,038	0,095	0,092
-594,240	800,000	0,023	-0,069
-593,225	-113,868	-0,200	-0,028
-592,211	-200,000	-0,002	-0,062
-591,196	759,498	0,033	-0,066
-590,182	800,000	-0,027	-0,075
-589,167	-200,000	-0,013	-0,158
-588,152	-98,365	-0,025	-0,005
-587,138	720,114	0,031	-0,061
-586,123	495,348	-0,041	-0,070
-585,109	-145,490	0,054	0,004
-584,094	406,194	0,053	-0,082
-583,079	-200,000	-0,040	-0,211
-582,065	-200,000	-0,005	-0,145
-581,050	32,818	-0,130	-0,082
-580,036	-81,030	-0,031	0,007
-579,021	-134,406	-0,052	0,005
-578,006	59,405	-0,183	-0,132
-576,992	-200,000	0,029	-0,097
-575,977	-89,554	0,191	0,041
-574,963	-131,676	-0,057	-0,005
-573,948	-200,000	0,000	0,046
-572,934	794,397	-0,032	0,065
-571,919	40,507	-0,010	0,007
-570,904	-200,000	-0,010	0,038
-569,890	-102,846	-0,069	-0,012
-568,875	-200,000	0,004	0,076
-567,861	800,000	0,079	-0,173
-566,846	-126,908	-0,097	0,010
-565,831	-105,631	-0,067	0,011
-564,817	241,400	-0,044	0,054
-563,802	-200,000	-0,020	0,106
-562,788	-200,000	-0,013	-0,109
-561,773	800,000	-0,017	0,036
-560,758	-200,000	0,004	-0,058
-559,744	55,052	-0,134	0,095
-558,729	120,147	0,092	0,084
-557,715	-200,000	-0,019	0,141
-556,700	-52,473	-0,084	0,028
-555,685	-44,775	-0,089	0,032
-554,671	220,373	0,044	0,051
-553,656	-138,023	0,116	0,009
-552,642	332,252	0,046	-0,065
-551,627	800,000	-0,042	0,126
-550,612	-200,000	0,037	0,148
-549,598	-200,000	-0,043	-0,277
-548,583	-200,000	-0,033	-0,256
-547,569	-149,472	0,092	0,005
-546,554	-33,817	0,045	0,018
-545,539	-109,532	-0,140	-0,021
-544,525	-17,386	0,127	0,058
-543,510	-85,423	0,057	0,013
-542,496	274,280	-0,028	0,037
-541,481	800,000	-0,043	0,123
-540,466	800,000	0,051	0,112
-539,452	76,131	-0,055	0,043
-538,437	90,585	-0,069	0,056
-537,423	-28,592	0,166	0,070
-536,408	-148,200	-0,106	-0,006
-535,393	-51,773	-0,063	-0,021
-534,379	-67,875	-0,168	0,048
-533,364	402,453	-0,026	-0,040
-532,350	-95,704	0,104	0,020
-531,335	51,209	-0,045	-0,031
-530,321	19,219	0,080	0,047
-529,306	-75,736	-0,139	-0,036
-528,291	257,350	-0,100	-0,126
-527,277	132,029	-0,024	-0,022
-526,262	132,087	-0,150	0,141
-525,248	58,872	-0,016	-0,012
-524,233	561,110	-0,024	-0,042
-523,218	800,000	-0,029	-0,064
-522,204	15,571	0,081	-0,046
-521,189	64,227	0,032	0,024
-520,175	-66,692	-0,031	-0,009
-519,160	-24,201	0,154	-0,067
-518,145	208,225	-0,043	-0,049
-517,131	433,051	0,107	-0,171
-516,116	800,000	-0,003	-0,007
-515,102	160,622	0,030	-0,030
-514,087	96,397	-0,034	-0,029
-513,072	-200,000	0,008	0,026
-512,058	-104,233	-0,042	-0,007
-511,043	235,950	0,084	-0,102
-510,029	800,000	-0,032	-0,089
-509,014	113,278	0,138	0,122
-507,999	-116,462	-0,085	-0,011
-506,985	-200,000	-0,007	0,062
-505,970	-26,530	0,076	0,033
-504,956	6,030	0,062	0,034
-503,941	-200,000	0,008	0,040
-502,926	19,142	0,079	-0,046
-501,912	770,938	-0,027	0,055
-500,897	-39,538	-0,137	0,052
-499,883	-200,000	0,004	0,047
-498,868	-110,027	-0,045	0,007
-497,853	-131,546	-0,077	0,007
-496,839	-43,947	-0,092	0,034
-495,824	800,000	0,009	0,026
-494,810	-159,757	0,095	-0,004
-493,795	-200,000	0,016	0,152
-492,781	800,000	0,051	0,109
-491,766	-156,798	0,062	0,003
-490,751	588,792	0,049	0,088
-489,737	123,801	0,065	0,059
-488,722	-86,638	0,032	0,007
-487,708	313,423	0,067	-0,093
-486,693	800,000	-0,019	-0,056
-485,678	-200,000	-0,024	-0,088
-484,664	-128,584	-0,168	-0,017
-483,649	-34,707	-0,057	0,023
-482,635	-200,000	0,032	0,109
-481,620	50,383	0,046	-0,032
-480,605	-200,000	-0,010	-0,031
-479,591	-109,175	0,132	0,020
-478,576	83,256	0,039	0,031
-477,562	-64,764	0,015	-0,004
-476,547	605,593	-0,047	0,085
-475,532	-58,614	-0,018	0,006
-474,518	-200,000	0,006	0,034
-473,503	800,000	-0,007	0,022
-472,489	93,870	0,089	0,074
-471,474	-80,246	0,060	0,015
-470,459	-200,000	-0,011	-0,039
-469,445	-74,717	-0,172	0,045
-468,430	10,419	0,138	-0,077
-467,416	-200,000	-0,022	-0,082
-466,401	800,000	0,080	0,169
-465,386	-200,000	-0,004	-0,027
-464,372	-123,735	-0,119	-0,014
-463,357	-40,367	-0,045	-0,017
-462,343	-200,000	-0,000	-0,064
-461,328	300,934	-0,005	-0,007
-460,313	79,087	0,021	0,017
-459,299	720,066	0,042	0,082
-458,284	369,584	0,054	0,079
-457,270	-88,485	0,154	0,033
-456,255	161,368	-0,017	-0,018
-455,241	22,549	0,062	-0,037
-454,226	-47,920	0,082	0,029
-453,211	339,499	-0,052	0,074
-452,197	-63,488	0,082	0,025
-451,182	-54,088	0,098	0,032
-450,168	602,437	-0,019	-0,034
-449,153	-200,000	-0,003	-0,050
-448,138	458,335	-0,042	-0,069
-447,124	111,898	0,022	0,020
-446,109	800,000	0,011	-0,024
-445,095	-64,538	-0,068	0,020
-444,080	36,336	0,106	0,068
-443,065	-200,000	-0,030	0,149
-442,051	-137,427	-0,082	-0,007
-441,036	-200,000	-0,023	-0,101
-440,022	-200,000	0,001	-0,159
-439,007	-200,000	0,002	0,022
-437,992	-200,000	-0,005	0,132
-436,978	800,000	0,038	0,102
-435,963	-200,000	0,001	0,121
-434,949	-126,237	0,065	-0,007
-433,934	-147,552	-0,072	0,004
-432,919	332,160	0,057	-0,080
-431,905	475,947	-0,034	-0,056
-430,890	800,000	0,002	0,004
-429,876	-161,470	0,110	-0,004
-428,861	-53,859	-0,155	-0,051
-427,846	800,000	-0,016	0,033
-426,832	-113,291	-0,055	-0,008
-425,817	-2,886	-0,041	0,021
-424,803	-200,000	-0,046	0,186
-423,788	445,340	0,096	0,154
-422,773	-53,355	0,070	-0,023
-421,759	237,721	0,062	0,076
-420,744	158,713	0,055	0,055
-419,730	-94,682	0,071	0,014
-418,715	-200,000	-0,002	-0,037
-417,701	609,977	0,035	0,064
-416,686	246,625	-0,028	0,034
-415,671	417,948	-0,058	-0,091
-414,657	-44,474	0,029	-0,010
-413,642	-129,916	0,028	0,003
-412,628	-94,182	0,088	0,017
-411,613	-200,000	-0,028	-0,152
-410,598	-200,000	0,011	0,082
-409,584	-200,000	0,002	0,070
-408,569	117,042	0,089	0,079
-407,555	-80,122	0,164	0,040
-406,540	-97,075	-0,077	0,015
-405,525	-51,792	-0,116	0,039
-404,511	112,745	-0,043	0,038
-403,496	800,000	0,019	-0,044
-402,482	-200,000	-0,029	-0,130
-401,467	74,154	0,079	-0,060
-400,452	401,786	0,050	0,076
-399,438	658,134	-0,028	0,053
-398,423	-107,900	-0,082	0,013
-397,409	-1,411	0,102	-0,052
-396,394	550,737	0,082	-0,144
-395,379	-200,000	-0,020	-0,068
-394,365	-200,000	0,005	-0,047
-393,350	-200,000	-0,037	0,175
-392,336	-30,511	-0,049	0,020
-391,321	-200,000	-0,009	0,092
-390,306	-105,733	0,053	0,009
-389,292	-99,500	-0,091	0,017
-388,277	-117,972	0,068	-0,009
-387,263	-94,241	0,076	0,015
-386,248	-94,725	0,085	-0,017
-385,233	83,981	0,048	0,038
-384,219	800,000	0,072	-0,167
-383,204	318,134	-0,017	-0,024
-382,190	800,000	-0,043	-0,095
-381,175	-116,132	0,197	-0,026
-380,160	-143,524	-0,080	-0,005
-379,146	800,000	-0,037	0,098
-378,131	234,502	0,062	0,074
-377,117	-200,000	-0,015	0,096
-376,102	-45,849	-0,125	-0,045
-375,088	-200,000	-0,032	-0,116
-374,073	4,308	-0,079	-0,042
-373,058	368,346	0,044	-0,065
-372,044	746,165	0,079	0,155
-371,029	49,869	-0,062	0,043
-370,015	178,358	-0,043	0,046
-369,000	278,805	-0,042	-0,055
-367,985	-200,000	0,012	-0,041
-366,971	-162,122	0,101	-0,004
-365,956	179,111	0,032	-0,034
-364,942	182,506	0,096	0,103
-363,927	599,466	0,039	0,071
-362,912	800,000	0,008	0,022
-361,898	221,532	-0,041	-0,047
-360,883	-6,605	-0,110	-0,054
-359,869	800,000	-0,014	-0,034
-358,854	-200,000	-0,000	0,032
-357,839	800,000	0,037	0,119
-356,825	-200,000	0,023	0,174
-355,810	-200,000	0,006	-0,051
-354,796	129,331	0,048	-0,045
-353,781	88,511	-0,117	0,094
-352,766	800,000	-0,060	0,122
-351,752	-7,433	-0,080	0,039
-350,737	800,000	0,047	0,134
-349,723	50,918	0,059	0,041
-348,708	181,274	0,053	0,056
-347,693	-200,000	0,022	0,076
-346,679	-31,938	-0,091	-0,037
-345,664	-16,652	0,101	-0,046
-344,650	-200,000	-0,005	-0,093
-343,635	800,000	0,032	-0,069
-342,620	-200,000	0,013	-0,045
-341,606	255,909	-0,035	0,044
-340,591	800,000	-0,030	-0,065
-339,577	339,971	0,054	-0,077
-338,562	8,789	-0,107	-0,059
-337,548	-119,162	-0,055	0,007
-336,533	435,475	0,054	0,085
-335,518	800,000	-0,015	-0,041
-334,504	-200,000	-0,009	0,081
-333,489	-173,969	-0,075	-0,002
-332,475	667,335	-0,027	-0,051
-331,460	-100,538	-0,094	-0,017
-330,445	-200,000	-0,014	-0,102
-329,431	800,000	0,018	0,041
-328,416	223,365	-0,033	-0,039
-327,402	650,812	0,088	0,164
-326,387	164,708	0,109	-0,111
-325,372	-200,000	0,005	-0,129
-324,358	-72,469	-0,121	0,032
-323,343	-200,000	0,032	-0,122
-322,329	495,474	0,080	-0,134
-321,314	800,000	-0,009	0,019
-320,299	-200,000	-0,018	0,098
-319,285	-70,656	-0,057	-0,016
-318,270	-71,582	-0,164	-0,044
-317,256	115,927	0,106	-0,094
-316,241	33,169	-0,076	-0,047
-315,226	424,896	0,030	0,047
-314,212	58,815	0,039	0,028
-313,197	-52,535	-0,153	0,051
-312,183	-106,159	0,060	0,010
-311,168	132,298	0,059	0,055
-310,153	-200,000	-0,070	-0,236
-309,139	669,735	-0,051	-0,096
-308,124	241,727	-0,038	0,047
-307,110	20,343	-0,081	-0,048
-306,095	-200,000	-0,002	0,032
-305,080	-113,433	0,142	0,020
-304,066	-200,000	0,004	-0,079
-303,051	800,000	0,030	0,065
-302,037	-33,033	-0,157	0,063
-301,022	-36,564	0,074	0,029
-300,008	241,739	0,092	0,111
-298,993	0,953	0,104	-0,054
-297,978	-200,000	-0,019	0,115
-296,964	-88,995	-0,094	0,020
-295,949	43,998	0,090	-0,060
-294,935	113,717	-0,129	-0,113
-293,920	83,838	-0,183	0,145
-292,905	-145,218	0,074	-0,005
-291,891	-52,520	-0,058	-0,019
-290,876	-200,000	0,015	0,050
-289,862	16,810	0,020	0,011
-288,847	-78,028	-0,129	-0,032
-287,832	543,803	-0,034	0,060
-286,818	96,985	0,078	-0,065
-285,803	800,000	0,016	0,051
-284,789	462,073	0,053	0,087
-283,774	800,000	0,029	0,091
-282,759	-200,000	0,003	0,045
-281,745	676,775	-0,078	-0,148
-280,730	-200,000	-0,020	-0,095
-279,716	-200,000	0,005	-0,147
-278,701	248,970	-0,031	0,038
-277,686	-90,862	-0,101	-0,021
-276,672	-200,000	-0,002	-0,035
-275,657	84,752	-0,059	0,047
-274,643	329,839	-0,104	-0,145
-273,628	800,000	0,019	-0,047
-272,613	-200,000	0,001	0,043
-271,599	-200,000	0,000	0,081
-270,584	153,415	-0,098	0,098
-269,570	228,664	-0,063	0,074
-268,555	-200,000	-0,014	0,194
-267,540	0,218	0,069	0,036
-266,526	-174,756	-0,132	-0,003
-265,511	18,187	0,055	0,031
-264,497	-200,000	-0,009	-0,122
-263,482	-91,697	0,132	0,027
-262,467	28,137	0,044	0,027
-261,453	69,522	-0,047	-0,035
-260,438	64,264	0,098	0,071
-259,424	-159,585	-0,155	-0,006
-258,409	380,617	-0,006	0,009
-257,395	263,968	0,002	0,002
-256,380	616,507	0,043	0,078
-255,365	-137,187	0,130	-0,011
-254,351	-200,000	-0,007	-0,118
-253,336	-200,000	-0,021	-0,120
-252,322	-200,000	0,009	-0,062
-251,307	-200,000	-0,011	0,040
-250,292	-200,000	0,029	0,138
-249,278	65,961	0,162	0,118
-248,263	522,284	0,007	-0,011
-247,249	181,298	0,038	-0,040
-246,234	-44,448	-0,121	-0,043
-245,219	800,000	-0,028	-0,061
-244,205	494,531	0,017	-0,028
-243,190	558,931	-0,063	0,111
-242,176	174,582	0,042	0,044
-241,161	-73,858	0,101	-0,026
-240,146	430,028	-0,044	-0,070
-239,132	6,960	-0,091	-0,049
-238,117	800,000	0,056	-0,119
-237,103	-200,000	-0,009	0,085
-236,088	151,739	0,037	0,037
-235,073	148,010	0,078	0,076
-234,059	195,255	0,108	0,119
-233,044	414,645	-0,081	-0,125
-232,030	-200,000	-0,028	-0,113
-231,015	662,980	-0,051	-0,095
-230,000	-200,000	-0,032	-0,113
-228,986	110,385	0,049	-0,043
-227,971	-115,884	0,042	0,006
-226,957	-116,584	0,061	-0,008
-225,942	-9,674	-0,083	0,040
-224,927	-200,000	-0,025	0,081
-223,913	-13,147	-0,148	0,069
-222,898	124,552	0,115	0,105
-221,884	313,843	-0,058	-0,079
-220,869	-200,000	0,027	-0,096
-219,855	-200,000	0,021	0,121
-218,840	10,743	0,119	-0,065
-217,825	-26,491	-0,122	0,051
-216,811	-105,126	0,070	-0,011
-215,796	-200,000	-0,024	0,081
-214,782	800,000	-0,053	-0,142
-213,767	-1,217	0,035	0,018
-212,752	-20,803	0,103	-0,046
-211,738	-56,573	0,073	-0,023
-210,723	118,352	-0,145	0,129
-209,709	33,349	0,083	0,052
-208,694	-162,410	-0,128	-0,004
-207,679	424,614	0,053	-0,082
-206,665	172,303	0,040	0,041
-205,650	383,141	-0,041	0,061
-204,636	20,235	-0,072	0,042
-203,621	169,020	-0,051	0,053
-202,606	-190,939	-0,079	0,001
-201,592	800,000	-0,003	0,009
-200,577	-27,783	0,040	0,017
-199,563	88,271	0,099	-0,080
-198,548	-200,000	0,006	0,153
-197,533	-91,350	0,080	0,016
-196,519	-159,537	-0,114	-0,004
-195,504	292,336	0,048	0,063
-194,490	278,317	-0,056	-0,072
-193,475	-200,000	-0,023	-0,211
-192,460	-200,000	0,007	-0,050
-191,446	-200,000	0,008	0,059
-190,431	800,000	-0,024	-0,074
-189,417	151,208	0,062	-0,061
-188,402	-62,756	0,020	-0,006
-187,387	102,626	-0,032	-0,027
-186,373	18,667	0,162	-0,093
-185,358	24,630	-0,108	-0,064
-184,344	-200,000	0,001	0,011
-183,329	136,064	0,031	0,029
-182,315	-200,000	0,025	0,101
-181,300	800,000	0,058	0,145
-180,285	132,864	-0,077	0,072
-179,271	-2,721	0,104	-0,052
-178,256	-60,317	-0,096	0,029
-177,242	38,620	0,009	-0,006
-176,227	89,233	0,096	-0,077
-175,212	520,700	-0,088	0,150
-174,198	800,000	-0,069	0,140
-173,183	-200,000	-0,028	-0,170
-172,169	-200,000	-0,000	0,021
-171,154	800,000	0,031	0,085
-170,139	366,773	-0,046	-0,068
-169,125	-23,637	0,165	0,071
-168,110	24,687	0,085	0,050
-167,096	-57,384	0,054	0,017
-166,081	248,498	0,069	-0,085
-165,066	-30,352	0,119	-0,048
-164,052	-200,000	-0,018	-0,108
-163,037	43,600	0,087	0,058
-162,023	7,830	-0,080	0,043
-161,008	352,597	0,087	0,125
-159,993	800,000	-0,008	0,024
-158,979	142,161	-0,043	0,041
-157,964	34,838	-0,020	-0,013
-156,950	-200,000	0,020	-0,111
-155,935	-153,544	-0,104	0,005
-154,920	800,000	-0,003	0,008
-153,906	-80,327	0,173	0,041
-152,891	267,199	-0,095	0,120
-151,877	-54,501	-0,106	0,034
-150,862	-200,000	-0,001	-0,120
-149,847	-84,304	-0,129	-0,029
-148,833	560,109	0,065	-0,113
-147,818	-68,271	-0,063	-0,018
-146,804	-50,911	0,155	-0,052
-145,789	237,908	-0,111	0,133
-144,775	-51,756	0,111	0,037
-143,760	-26,281	-0,082	-0,035
-142,745	800,000	0,026	0,055
-141,731	-200,000	0,019	0,086
-140,716	349,759	0,078	0,111
-139,702	-59,770	0,039	-0,012
-138,687	-200,000	-0,004	0,058
-137,672	-76,196	-0,063	-0,016
-136,658	-140,400	-0,152	0,011
-135,643	7,728	-0,045	0,024
-134,629	800,000	-0,034	-0,080
-133,614	-200,000	-0,014	-0,142
-132,599	-183,840	-0,077	0,001
-131,585	215,035	-0,102	0,116
-130,570	-23,258	-0,140	-0,060
-129,556	-200,000	0,006	0,080
-128,541	222,446	-0,057	-0,066
-127,526	53,448	-0,089	0,062
-126,512	800,000	0,030	-0,079
-125,497	-200,000	0,023	0,199
-124,483	68,534	0,117	0,086
-123,468	702,144	0,033	0,063
-122,453	40,960	-0,191	-0,124
-121,439	113,151	0,024	-0,021
-120,424	306,090	-0,057	0,076
