DTS Sentinel unit serial number:	SN410029Multiplexer serial number:	ORYXHardware model number:	OX2-SRSoftware version number:	ORYX F/W v4,00 Oryx Data Collector v3.7.2.0data status	okinstallation	B5 Nyhavnadifferential loss correction	single-endedforward channel	channel 2reverse channel	N/Adate	2023/12/12time	01:52:13forward acquisition time	300,00reverse acquisition time	0,00gamma	499,1914k internal	0,3156k external	0,3156temperature offset calibration	1,0000default loss term (dB/km)	0,3820temperature slope calibration	1,0000multiplexer offset coefficient	1,0000multiplexer slope coefficient	1,0000fibre end	0,00T internal ref (°C)	15,86T ext. ref 1 (°C)	-0,60T ext. ref 2 (°C)	-0,89length (m)	temperature (°C)	Stokes	anti-Stokes-744,400	-200,000	0,008	0,045
-743,385	-108,984	-0,296	0,046
-742,371	15,364	0,151	0,087
-741,356	-75,987	-0,198	-0,051
-740,342	277,226	0,101	0,132
-739,327	-99,077	-0,212	0,039
-738,312	-93,546	0,106	0,021
-737,298	-109,011	-0,218	0,034
-736,283	236,465	0,055	0,067
-735,269	-34,623	-0,287	0,115
-734,254	18,642	0,156	0,092
-733,239	-42,012	-0,528	-0,198
-732,225	136,040	0,090	0,087
-731,210	57,377	-0,183	0,132
-730,196	103,747	0,110	-0,095
-729,181	701,294	-0,042	-0,082
-728,167	659,501	-0,014	-0,028
-727,152	330,784	-0,051	0,073
-726,137	256,775	-0,067	0,085
-725,123	332,836	0,093	-0,132
-724,108	108,687	-0,130	-0,114
-723,094	157,949	-0,147	-0,151
-722,079	-143,487	-0,098	-0,007
-721,064	800,000	0,032	-0,068
-720,050	650,750	-0,072	0,137
-719,035	252,093	0,030	0,037
-718,021	81,540	0,050	0,039
-717,006	665,620	-0,029	-0,055
-715,991	-48,947	-0,074	-0,026
-714,977	445,442	-0,058	0,094
-713,962	-200,000	0,003	-0,104
-712,948	-147,176	0,075	-0,005
-711,933	800,000	-0,022	-0,063
-710,918	-166,969	0,186	0,006
-709,904	717,791	0,051	-0,100
-708,889	295,175	-0,045	0,060
-707,875	261,282	-0,097	-0,124
-706,860	-45,877	-0,082	0,030
-705,845	800,000	-0,017	0,044
-704,831	203,596	-0,101	0,115
-703,816	-26,975	0,133	-0,057
-702,802	800,000	-0,029	-0,070
-701,787	800,000	0,018	-0,057
-700,772	370,502	-0,074	0,111
-699,758	800,000	0,026	0,074
-698,743	456,386	0,045	0,074
-697,729	-200,000	-0,044	0,160
-696,714	-144,002	0,082	0,006
-695,699	102,826	-0,052	-0,045
-694,685	59,073	-0,035	0,025
-693,670	146,767	-0,125	-0,124
-692,656	800,000	-0,036	-0,101
-691,641	-23,978	-0,117	0,051
-690,627	800,000	0,021	-0,064
-689,612	-200,000	0,028	-0,094
-688,597	-200,000	0,028	-0,098
-687,583	-53,412	-0,171	-0,057
-686,568	-72,085	-0,066	0,018
-685,554	-200,000	0,006	0,086
-684,539	-200,000	-0,024	0,103
-683,524	-89,878	-0,078	-0,017
-682,510	-29,244	0,026	-0,011
-681,495	800,000	0,027	-0,071
-680,481	-200,000	0,000	-0,051
-679,466	162,381	0,055	-0,057
-678,451	179,508	-0,050	0,054
-677,437	-5,804	-0,049	0,024
-676,422	-200,000	-0,020	0,184
-675,408	-28,887	0,033	0,014
-674,393	-200,000	0,009	0,159
-673,378	-200,000	-0,001	-0,203
-672,364	-163,575	-0,184	0,006
-671,349	75,739	-0,132	-0,103
-670,335	-113,221	-0,103	-0,015
-669,320	14,690	0,249	-0,143
-668,305	800,000	0,049	-0,101
-667,291	-40,078	-0,181	-0,069
-666,276	-192,318	-0,096	0,001
-665,262	549,670	-0,056	-0,099
-664,247	161,373	0,091	-0,094
-663,232	65,250	0,080	0,059
-662,218	388,222	-0,047	0,072
-661,203	-49,834	-0,069	-0,024
-660,189	-130,825	-0,059	0,006
-659,174	-200,000	0,014	0,100
-658,159	294,589	0,010	-0,013
-657,145	-51,740	-0,102	0,035
-656,130	69,582	-0,097	-0,073
-655,116	800,000	-0,019	-0,045
-654,101	109,874	-0,083	0,073
-653,086	-13,672	0,109	-0,052
-652,072	-65,053	-0,068	-0,020
-651,057	123,637	0,094	0,086
-650,043	131,400	-0,048	0,046
-649,028	-200,000	-0,008	-0,027
-648,014	-200,000	-0,033	-0,165
-646,999	-105,523	-0,085	0,014
-645,984	58,556	-0,093	0,067
-644,970	34,767	-0,059	0,038
-643,955	-200,000	0,014	-0,045
-642,941	103,676	-0,088	-0,076
-641,926	800,000	0,038	0,089
-640,911	800,000	0,040	-0,096
-639,897	492,484	0,063	-0,106
-638,882	-160,349	0,082	-0,003
-637,868	-31,575	0,043	0,018
-636,853	800,000	-0,029	0,090
-635,838	-166,395	-0,061	-0,002
-634,824	110,578	-0,069	-0,061
-633,809	111,478	0,086	0,076
-632,795	-200,000	-0,012	0,193
-631,780	210,352	-0,041	0,047
-630,765	-110,080	0,103	-0,016
-629,751	-85,559	-0,071	-0,016
-628,736	-48,453	-0,117	0,041
-627,722	-106,268	0,170	-0,028
-626,707	159,511	0,027	-0,027
-625,692	171,265	0,151	0,159
-624,678	-200,000	-0,014	0,119
-623,663	-24,263	0,057	-0,025
-622,649	407,761	-0,027	-0,042
-621,634	-200,000	0,002	-0,106
-620,619	-99,819	0,091	-0,017
-619,605	-18,644	-0,085	-0,039
-618,590	-184,691	-0,070	0,001
-617,576	800,000	0,020	0,047
-616,561	-200,000	-0,009	-0,039
-615,546	-56,086	-0,085	0,028
-614,532	-101,906	-0,165	-0,029
-613,517	360,356	-0,023	0,033
-612,503	36,293	0,106	-0,069
-611,488	-27,887	-0,079	0,033
-610,474	611,184	0,041	-0,075
-609,459	81,381	-0,129	0,102
-608,444	28,962	-0,025	-0,016
-607,430	800,000	-0,049	-0,125
-606,415	-200,000	0,009	-0,089
-605,401	800,000	-0,016	-0,045
-604,386	259,152	-0,086	0,109
-603,371	-200,000	-0,009	0,053
-602,357	36,102	-0,079	-0,051
-601,342	800,000	-0,026	-0,076
-600,328	-88,171	0,076	-0,016
-599,313	234,743	-0,049	-0,059
-598,298	332,077	-0,050	0,071
-597,284	19,864	-0,049	-0,029
-596,269	516,651	-0,060	0,104
-595,255	800,000	-0,029	0,069
-594,240	298,696	-0,063	-0,085
-593,225	-112,960	-0,175	-0,025
-592,211	277,333	0,051	-0,067
-591,196	576,658	0,043	-0,077
-590,182	155,569	0,110	0,111
-589,167	349,128	-0,077	0,111
-588,152	60,898	0,025	-0,018
-587,138	50,168	0,084	0,058
-586,123	800,000	-0,079	-0,175
-585,109	800,000	-0,014	0,034
-584,094	55,099	-0,080	0,057
-583,079	-107,613	0,016	0,003
-582,065	455,061	-0,063	0,102
-581,050	-200,000	0,011	-0,066
-580,036	800,000	0,042	0,107
-579,021	42,268	-0,101	-0,067
-578,006	-62,605	-0,070	-0,021
-576,992	-200,000	0,022	-0,094
-575,977	617,616	-0,056	-0,103
-574,963	-16,013	0,073	-0,034
-573,948	-200,000	0,010	0,034
-572,934	-200,000	0,014	0,058
-571,919	-81,506	-0,147	0,035
-570,904	220,597	-0,079	-0,093
-569,890	-200,000	-0,014	0,067
-568,875	62,589	-0,055	-0,040
-567,861	-200,000	0,002	0,185
-566,846	89,871	-0,063	0,051
-565,831	-200,000	-0,001	0,079
-564,817	-200,000	0,017	-0,183
-563,802	-104,467	-0,091	-0,015
-562,788	-145,025	-0,118	0,008
-561,773	-24,019	0,107	0,047
-560,758	209,841	-0,053	0,061
-559,744	368,301	0,035	0,052
-558,729	-29,497	0,072	0,030
-557,715	-200,000	-0,007	-0,091
-556,700	-200,000	-0,004	-0,094
-555,685	-100,606	-0,019	-0,003
-554,671	69,884	0,069	0,052
-553,656	-106,606	-0,130	0,021
-552,642	-200,000	-0,003	0,054
-551,627	707,200	0,036	0,071
-550,612	800,000	-0,065	0,167
-549,598	249,883	-0,055	-0,068
-548,583	800,000	0,011	0,029
-547,569	-120,919	-0,069	-0,008
-546,554	202,099	0,107	0,121
-545,539	800,000	-0,066	-0,143
-544,525	48,256	0,088	0,060
-543,510	-200,000	0,005	0,101
-542,496	49,974	-0,045	-0,031
-541,481	527,782	-0,084	0,146
-540,466	57,179	-0,017	-0,012
-539,452	-200,000	0,002	-0,013
-538,437	64,340	0,015	0,011
-537,423	42,543	-0,031	0,020
-536,408	-200,000	0,012	0,178
-535,393	-200,000	-0,003	-0,054
-534,379	699,071	-0,051	-0,098
-533,364	-42,518	0,062	0,023
-532,350	193,424	0,065	-0,072
-531,335	-200,000	0,006	0,134
-530,321	723,372	0,017	0,032
-529,306	-147,496	0,092	-0,006
-528,291	67,889	-0,135	-0,101
-527,277	188,981	-0,110	-0,121
-526,262	800,000	0,049	-0,101
-525,248	-55,585	0,099	0,032
-524,233	218,892	0,125	0,146
-523,218	94,324	0,111	0,092
-522,204	800,000	-0,020	0,061
-521,189	250,437	0,035	-0,044
-520,175	142,752	-0,065	-0,063
-519,160	-10,479	-0,106	0,051
-518,145	217,341	0,131	0,152
-517,131	-70,787	-0,090	0,025
-516,116	-153,522	-0,035	0,002
-515,102	9,000	-0,061	0,034
-514,087	-67,653	0,099	0,028
-513,072	-200,000	-0,004	0,068
-512,058	-200,000	-0,004	-0,029
-511,043	-200,000	-0,005	-0,027
-510,029	-200,000	-0,010	-0,057
-509,014	310,856	0,106	0,145
-507,999	71,371	0,091	-0,069
-506,985	21,006	-0,092	-0,055
-505,970	93,191	-0,045	-0,037
-504,956	204,813	-0,105	-0,119
-503,941	-46,003	0,043	0,015
-502,926	132,481	0,168	0,158
-501,912	219,285	0,091	0,106
-500,897	-61,779	-0,021	-0,007
-499,883	108,355	-0,086	0,075
-498,868	-200,000	-0,012	-0,107
-497,853	-200,000	-0,016	-0,092
-496,839	800,000	-0,013	-0,029
-495,824	41,857	0,122	-0,081
-494,810	577,927	0,017	0,031
-493,795	361,816	-0,032	-0,047
-492,781	-77,375	-0,128	0,032
-491,766	800,000	-0,021	0,044
-490,751	-5,364	-0,096	0,048
-489,737	-70,709	0,087	0,024
-488,722	374,059	0,058	-0,086
-487,708	105,176	0,088	0,076
-486,693	101,949	0,043	0,036
-485,678	800,000	0,017	-0,053
-484,664	800,000	0,009	-0,025
-483,649	-200,000	0,013	0,076
-482,635	523,300	0,081	-0,140
-481,620	800,000	0,027	0,066
-480,605	3,169	-0,066	0,035
-479,591	-200,000	-0,007	-0,042
-478,576	-200,000	-0,006	-0,057
-477,562	-156,699	-0,119	0,005
-476,547	-79,351	0,051	0,013
-475,532	34,142	-0,040	-0,025
-474,518	-200,000	-0,014	-0,045
-473,503	80,174	-0,043	-0,034
-472,489	148,121	0,010	-0,010
-471,474	687,625	0,034	0,066
-470,459	12,872	0,025	0,014
-469,445	260,423	-0,096	0,122
-468,430	-68,286	-0,099	-0,028
-467,416	72,017	0,029	0,022
-466,401	58,551	0,066	-0,047
-465,386	-200,000	-0,005	-0,093
-464,372	-113,197	0,108	-0,015
-463,357	-200,000	-0,019	0,092
-462,343	283,958	-0,011	-0,015
-461,328	-200,000	-0,008	0,114
-460,313	-200,000	-0,017	-0,074
-459,299	800,000	0,079	-0,170
-458,284	622,408	-0,047	0,087
-457,270	-51,248	0,137	0,047
-456,255	43,719	-0,093	0,062
-455,241	-96,114	0,111	0,021
-454,226	176,378	-0,033	-0,035
-453,211	131,118	0,104	0,098
-452,197	800,000	0,033	0,074
-451,182	49,354	0,114	0,078
-450,168	-200,000	0,001	0,032
-449,153	98,043	0,040	-0,034
-448,138	29,436	0,073	0,045
-447,124	61,185	-0,097	-0,070
-446,109	411,666	-0,056	-0,087
-445,095	-200,000	-0,009	-0,100
-444,080	51,340	0,116	-0,080
-443,065	623,554	-0,026	-0,048
-442,051	-37,566	-0,026	0,010
-441,036	-105,611	-0,194	-0,032
-440,022	-95,303	0,108	-0,021
-439,007	-135,790	-0,172	-0,015
-437,992	27,182	-0,061	0,038
-436,978	58,289	-0,057	0,041
-435,963	323,728	0,052	0,073
-434,949	-200,000	-0,002	-0,054
-433,934	800,000	0,037	-0,080
-432,919	800,000	-0,041	0,093
-431,905	-200,000	-0,001	-0,027
-430,890	-200,000	0,003	0,087
-429,876	-200,000	-0,032	-0,143
-428,861	800,000	0,023	0,072
-427,846	-8,755	-0,124	-0,060
-426,832	-200,000	0,001	-0,144
-425,817	-0,450	0,017	0,009
-424,803	-200,000	0,060	-0,197
-423,788	-29,465	0,103	-0,043
-422,773	-99,161	-0,065	0,012
-421,759	-28,097	0,053	0,022
-420,744	92,580	-0,008	-0,007
-419,730	-49,492	-0,051	-0,017
-418,715	-200,000	0,032	-0,109
-417,701	10,747	-0,135	0,075
-416,686	753,788	0,032	0,062
-415,671	754,823	-0,053	0,106
-414,657	-115,099	-0,096	-0,013
-413,642	-200,000	0,018	-0,104
-412,628	27,625	-0,058	-0,036
-411,613	-37,132	-0,096	-0,037
-410,598	83,919	0,072	0,057
-409,584	-4,280	-0,022	0,011
-408,569	-200,000	-0,020	-0,104
-407,555	-200,000	0,000	0,046
-406,540	-200,000	-0,034	-0,114
-405,525	800,000	0,010	0,023
-404,511	-73,124	0,055	0,015
-403,496	-42,036	-0,071	-0,026
-402,482	-200,000	0,006	0,038
-401,467	-200,000	0,019	-0,102
-400,452	800,000	-0,039	-0,114
-399,438	-96,495	0,078	0,015
-398,423	800,000	-0,019	0,059
-397,409	-16,784	-0,078	0,036
-396,394	-200,000	0,032	-0,155
-395,379	292,643	-0,018	0,025
-394,365	-25,588	0,049	-0,021
-393,350	-200,000	0,055	-0,000
-392,336	800,000	0,028	-0,086
-391,321	2,575	-0,093	-0,049
-390,306	-99,598	0,030	-0,005
-389,292	1,534	-0,030	-0,016
-388,277	-97,977	0,145	-0,027
-387,263	-46,029	0,156	-0,056
-386,248	-19,300	-0,080	-0,036
-385,233	134,414	-0,051	-0,048
-384,219	800,000	0,044	0,098
-383,204	460,892	-0,060	0,098
-382,190	-146,201	-0,082	-0,005
-381,175	4,973	-0,109	0,058
-380,160	-130,210	-0,060	-0,006
-379,146	-200,000	-0,009	0,045
-378,131	-200,000	-0,012	0,045
-377,117	800,000	0,032	0,092
-376,102	634,832	0,063	-0,116
-375,088	-200,000	-0,003	-0,138
-374,073	-20,612	0,047	0,021
-373,058	-200,000	-0,019	-0,066
-372,044	169,565	0,117	0,122
-371,029	800,000	0,038	0,114
-370,015	-140,842	0,138	0,010
-369,000	-200,000	-0,035	0,157
-367,985	-106,505	-0,055	-0,009
-366,971	-200,000	-0,024	0,088
-365,956	229,055	0,031	-0,037
-364,942	-176,412	0,138	-0,003
-363,927	60,748	-0,084	0,061
-362,912	241,482	0,073	-0,089
-361,898	413,523	-0,117	-0,181
-360,883	800,000	-0,019	-0,056
-359,869	-61,039	-0,017	-0,005
-358,854	262,738	0,149	0,189
-357,839	800,000	0,060	0,158
-356,825	124,522	-0,023	0,021
-355,810	-31,631	0,027	0,011
-354,796	64,388	-0,033	-0,024
-353,781	800,000	0,011	-0,033
-352,766	-0,152	0,032	0,016
-351,752	-67,369	0,067	-0,019
-350,737	216,234	-0,012	0,014
-349,723	-200,000	-0,023	0,143
-348,708	-121,023	-0,046	0,006
-347,693	78,266	-0,008	-0,006
-346,679	-34,418	-0,033	0,013
-345,664	384,591	-0,044	0,066
-344,650	-200,000	-0,022	-0,091
-343,635	216,931	0,016	0,019
-342,620	209,508	0,068	0,078
-341,606	329,750	0,058	0,081
-340,591	-130,018	-0,062	0,006
-339,577	800,000	-0,027	-0,077
-338,562	-200,000	-0,006	-0,081
-337,548	-200,000	0,004	0,102
-336,533	-68,149	0,111	0,031
-335,518	-56,317	0,230	0,074
-334,504	800,000	0,016	-0,035
-333,489	-200,000	-0,012	0,084
-332,475	-96,104	-0,098	-0,019
-331,460	-86,759	0,151	0,033
-330,445	-100,825	0,141	0,025
-329,431	234,677	-0,049	-0,059
-328,416	205,357	0,098	-0,110
-327,402	14,129	0,092	0,052
-326,387	184,776	0,062	0,067
-325,372	-137,926	-0,122	-0,010
-324,358	-200,000	0,014	-0,133
-323,343	61,525	0,074	0,053
-322,329	12,474	-0,188	-0,105
-321,314	-68,461	0,066	-0,019
-320,299	-200,000	0,011	0,044
-319,285	269,574	0,085	0,109
-318,270	457,372	0,053	-0,086
-317,256	-200,000	0,004	-0,167
-316,241	-137,660	-0,114	-0,009
-315,226	-96,443	0,011	-0,002
-314,212	220,028	0,099	0,115
-313,197	476,502	0,068	0,113
-312,183	-200,000	-0,027	-0,124
-311,168	142,501	-0,067	0,065
-310,153	800,000	-0,056	-0,119
-309,139	-200,000	-0,003	0,024
-308,124	-200,000	-0,004	-0,136
-307,110	-115,445	0,042	0,006
-306,095	134,796	0,045	-0,042
-305,080	133,498	-0,034	-0,032
-304,066	-200,000	-0,012	0,181
-303,051	-93,863	-0,045	0,009
-302,037	800,000	-0,038	-0,082
-301,022	-86,948	-0,054	0,012
-300,008	-135,558	0,125	0,011
-298,993	280,083	0,095	0,124
-297,978	800,000	-0,036	0,084
-296,964	40,872	-0,147	-0,096
-295,949	42,483	0,022	-0,014
-294,935	42,922	0,069	-0,045
-293,920	-127,001	0,113	-0,012
-292,905	-103,356	-0,183	-0,031
-291,891	464,075	0,102	0,166
-290,876	142,286	-0,068	-0,065
-289,862	-51,693	-0,120	0,040
-288,847	181,845	0,133	-0,142
-287,832	486,770	-0,040	0,067
-286,818	800,000	-0,031	0,067
-285,803	302,388	-0,010	0,014
-284,789	34,651	-0,066	0,041
-283,774	-112,457	0,095	-0,014
-282,759	-14,631	-0,113	0,052
-281,745	91,483	-0,081	0,066
-280,730	800,000	-0,049	-0,152
-279,716	6,722	0,123	-0,066
-278,701	249,784	0,032	0,040
-277,686	60,001	-0,070	0,050
-276,672	232,194	0,011	-0,013
-275,657	52,421	-0,052	0,036
-274,643	-120,798	-0,100	-0,012
-273,628	-200,000	0,007	-0,035
-272,613	-83,161	0,163	-0,038
-271,599	-200,000	0,009	-0,060
-270,584	37,516	-0,040	0,026
-269,570	-200,000	0,007	0,131
-268,555	-30,318	-0,143	0,058
-267,540	102,428	0,100	0,085
-266,526	-21,216	0,042	0,019
-265,511	-5,357	-0,026	0,013
-264,497	-60,700	-0,209	-0,064
-263,482	800,000	0,069	0,146
-262,467	-200,000	-0,006	0,043
-261,453	120,337	-0,093	0,084
-260,438	-200,000	-0,020	-0,077
-259,424	-200,000	0,044	-0,149
-258,409	-8,771	0,034	-0,016
-257,395	20,379	0,091	-0,053
-256,380	77,735	0,097	0,075
-255,365	-4,710	0,019	-0,009
-254,351	130,230	0,120	-0,111
-253,336	275,874	0,069	-0,089
-252,322	553,318	0,036	0,064
-251,307	-200,000	-0,006	-0,063
-250,292	100,182	0,034	0,029
-249,278	39,183	0,030	-0,019
-248,263	105,986	-0,064	0,055
-247,249	-120,754	0,071	-0,009
-246,234	-67,091	-0,098	0,028
-245,219	800,000	-0,038	-0,090
-244,205	-200,000	-0,005	0,022
-243,190	23,765	0,039	-0,023
-242,176	-63,062	-0,043	0,013
-241,161	800,000	0,057	0,149
-240,146	60,854	0,063	0,045
-239,132	170,401	-0,064	0,066
-238,117	-103,416	0,053	-0,009
-237,103	151,767	-0,075	-0,074
-236,088	192,221	0,035	0,038
-235,073	-54,819	0,196	-0,064
-234,059	22,390	0,033	-0,019
-233,044	322,829	0,035	0,048
-232,030	-50,385	-0,164	0,056
-231,015	800,000	0,051	-0,154
-230,000	-113,321	-0,063	-0,009
-228,986	17,697	0,099	-0,057
-227,971	682,918	-0,024	0,045
-226,957	173,821	0,006	-0,007
-225,942	800,000	0,027	0,075
-224,927	800,000	0,062	0,138
-223,913	249,927	-0,052	-0,063
-222,898	68,081	-0,044	-0,033
-221,884	-200,000	0,004	0,047
-220,869	368,194	0,049	-0,072
-219,855	327,619	0,037	0,051
-218,840	-74,251	0,147	0,038
-217,825	-200,000	0,017	0,141
-216,811	-20,978	-0,128	0,056
-215,796	800,000	-0,006	-0,017
-214,782	209,197	-0,119	-0,135
-213,767	-200,000	-0,031	-0,222
-212,752	-200,000	-0,009	-0,134
-211,738	800,000	0,065	0,149
-210,723	-159,854	-0,063	-0,002
-209,709	421,704	0,055	0,086
-208,694	-200,000	0,009	-0,071
-207,679	411,456	-0,052	-0,080
-206,665	-156,342	0,077	-0,003
-205,650	-3,458	-0,135	-0,068
-204,636	162,365	-0,116	-0,117
-203,621	-185,188	-0,039	0,000
-202,606	550,232	-0,043	0,075
-201,592	457,799	-0,005	0,008
-200,577	-200,000	-0,000	0,036
-199,563	179,703	-0,059	0,063
-198,548	-200,000	-0,001	-0,020
-197,533	-87,607	-0,049	0,011
-196,519	115,140	0,086	0,076
-195,504	149,288	0,079	-0,078
-194,490	91,148	0,049	-0,040
-193,475	488,783	0,084	-0,139
-192,460	520,182	0,042	0,072
-191,446	96,660	0,047	0,039
-190,431	467,783	0,051	0,082
-189,417	161,844	0,044	0,045
-188,402	-200,000	-0,026	-0,100
-187,387	169,412	-0,090	-0,093
-186,373	91,770	-0,109	-0,088
-185,358	-76,223	0,081	-0,020
-184,344	-26,098	0,088	-0,037
-183,329	133,768	-0,108	0,101
-182,315	714,301	-0,013	0,026
-181,300	-200,000	0,039	-0,135
-180,285	800,000	0,017	-0,049
-179,271	106,311	-0,073	0,063
-178,256	-33,264	-0,052	0,021
-177,242	40,862	-0,046	0,030
-176,227	293,367	0,051	0,067
-175,212	273,844	-0,082	-0,105
-174,198	-151,613	0,065	-0,003
-173,183	-200,000	0,002	0,029
-172,169	800,000	-0,038	-0,086
-171,154	353,992	-0,074	-0,107
-170,139	282,094	0,148	0,192
-169,125	-192,579	0,067	0,000
-168,110	134,064	-0,057	0,053
-167,096	5,278	0,071	-0,038
-166,081	-200,000	-0,013	-0,130
-165,066	-200,000	-0,001	-0,079
-164,052	-200,000	0,006	-0,034
-163,037	89,334	0,114	0,091
-162,023	-73,395	0,103	0,027
-161,008	800,000	0,021	0,058
-159,993	-154,136	0,118	0,006
-158,979	-8,555	0,112	-0,054
-157,964	528,835	-0,055	-0,094
-156,950	-200,000	0,032	-0,139
-155,935	-200,000	0,021	0,138
-154,920	34,687	-0,034	0,021
-153,906	158,839	0,033	-0,033
-152,891	800,000	0,014	-0,041
-151,877	-160,225	-0,156	0,006
-150,862	-66,806	0,022	0,006
-149,847	800,000	0,043	0,106
-148,833	-37,014	-0,092	0,035
-147,818	109,599	0,075	0,065
-146,804	250,728	0,097	0,120
-145,789	-200,000	-0,033	-0,128
-144,775	-93,195	-0,159	0,032
-143,760	-200,000	0,004	0,034
-142,745	-200,000	-0,006	-0,141
-141,731	-200,000	-0,011	0,060
-140,716	-62,078	0,136	-0,041
-139,702	-200,000	-0,012	0,042
-138,687	-76,913	0,064	-0,016
-137,672	-200,000	0,028	-0,099
-136,658	-200,000	0,000	0,085
-135,643	-200,000	0,003	-0,049
-134,629	-200,000	0,007	0,115
-133,614	-131,491	0,021	0,002
-132,599	51,454	0,047	0,032
-131,585	112,001	-0,046	-0,040
-130,570	-47,420	-0,107	0,037
-129,556	310,781	0,058	0,079
-128,541	-141,034	-0,101	0,007
-127,526	800,000	-0,030	-0,072
-126,512	-200,000	0,002	0,124
-125,497	-200,000	0,009	0,068
-124,483	-200,000	0,004	-0,083
-123,468	-200,000	-0,001	-0,029
-122,453	27,624	-0,138	0,083
-121,439	800,000	-0,044	0,114
-120,424	-130,740	-0,104	-0,010
-119,410	-77,339	0,140	-0,035
