DTS Sentinel unit serial number:	SN410029Multiplexer serial number:	ORYXHardware model number:	OX2-SRSoftware version number:	ORYX F/W v4,00 Oryx Data Collector v3.7.2.0data status	okinstallation	B5 Nyhavnadifferential loss correction	single-endedforward channel	channel 2reverse channel	N/Adate	2023/12/14time	17:12:13forward acquisition time	300,00reverse acquisition time	0,00gamma	499,1914k internal	0,3157k external	0,3157temperature offset calibration	1,0000default loss term (dB/km)	0,3820temperature slope calibration	1,0000multiplexer offset coefficient	1,0000multiplexer slope coefficient	1,0000fibre end	0,00T internal ref (°C)	8,15T ext. ref 1 (°C)	-7,18T ext. ref 2 (°C)	-7,22length (m)	temperature (°C)	Stokes	anti-Stokes-744,400	38,635	0,068	0,044
-743,385	-74,320	-0,425	-0,112
-742,371	-39,493	0,229	0,088
-741,356	-107,338	-0,421	-0,068
-740,342	-120,680	0,063	-0,008
-739,327	-165,448	-0,367	0,012
-738,312	-124,953	0,180	-0,020
-737,298	10,008	-0,353	-0,197
-736,283	-125,427	0,166	0,018
-735,269	-154,448	-0,428	0,021
-734,254	-200,000	-0,001	-0,009
-733,239	-7,697	-0,552	-0,274
-732,225	137,328	0,184	0,177
-731,210	313,189	-0,063	0,088
-730,196	-31,172	-0,091	-0,038
-729,181	800,000	-0,023	-0,064
-728,167	800,000	-0,015	-0,046
-727,152	-139,656	-0,144	0,011
-726,137	55,188	0,057	0,040
-725,123	-200,000	-0,042	-0,199
-724,108	84,696	-0,053	-0,043
-723,094	35,445	-0,144	-0,093
-722,079	64,762	0,025	0,018
-721,064	-76,959	0,055	-0,014
-720,050	-200,000	-0,006	0,072
-719,035	-80,410	-0,096	-0,024
-718,021	58,083	-0,159	-0,115
-717,006	-200,000	0,027	-0,097
-715,991	800,000	-0,041	-0,088
-714,977	-10,714	-0,066	-0,032
-713,962	-200,000	-0,032	-0,106
-712,948	122,154	-0,099	-0,091
-711,933	126,839	-0,040	0,038
-710,918	750,955	-0,065	-0,130
-709,904	-167,088	-0,152	-0,004
-708,889	537,057	-0,062	-0,108
-707,875	-110,493	-0,089	0,013
-706,860	-200,000	0,013	-0,150
-705,845	-200,000	-0,008	-0,053
-704,831	171,221	-0,070	0,074
-703,816	-200,000	-0,004	0,114
-702,802	-200,000	-0,060	-0,207
-701,787	800,000	0,034	-0,092
-700,772	139,090	-0,024	0,023
-699,758	-18,301	-0,029	0,013
-698,743	-200,000	-0,035	0,184
-697,729	69,160	0,111	0,084
-696,714	800,000	-0,023	0,050
-695,699	126,361	0,068	0,063
-694,685	70,048	0,092	-0,070
-693,670	-147,135	-0,153	-0,009
-692,656	-93,736	-0,041	0,008
-691,641	-200,000	-0,025	0,085
-690,627	59,242	-0,031	0,023
-689,612	323,740	-0,031	0,044
-688,597	11,485	-0,029	0,016
-687,583	191,414	0,026	-0,029
-686,568	800,000	-0,012	-0,029
-685,554	108,385	-0,032	0,028
-684,539	-51,772	-0,062	0,021
-683,524	-156,995	0,096	-0,004
-682,510	445,576	0,046	-0,075
-681,495	15,271	-0,122	-0,070
-680,481	-46,804	-0,193	-0,069
-679,466	710,920	0,051	-0,100
-678,451	611,971	-0,029	-0,055
-677,437	800,000	-0,019	-0,052
-676,422	196,104	0,082	0,091
-675,408	-200,000	-0,020	-0,121
-674,393	-200,000	-0,003	-0,032
-673,378	-2,533	-0,071	-0,036
-672,364	-200,000	-0,028	-0,165
-671,349	211,497	-0,026	-0,030
-670,335	-26,143	-0,033	-0,014
-669,320	130,752	0,102	-0,096
-668,305	9,096	-0,027	-0,015
-667,291	800,000	-0,023	0,069
-666,276	10,909	-0,145	-0,081
-665,262	28,445	0,150	-0,093
-664,247	286,729	-0,140	-0,186
-663,232	-200,000	-0,011	-0,091
-662,218	326,317	0,085	0,120
-661,203	-200,000	0,004	-0,015
-660,189	284,270	-0,061	-0,081
-659,174	115,971	-0,084	-0,076
-658,159	-150,674	0,120	0,007
-657,145	-88,223	-0,029	0,006
-656,130	-200,000	-0,010	0,055
-655,116	-178,257	-0,061	0,001
-654,101	168,771	-0,068	-0,071
-653,086	382,380	0,035	-0,053
-652,072	538,552	0,032	-0,055
-651,057	-64,395	0,069	-0,020
-650,043	-134,331	-0,114	-0,010
-649,028	286,130	-0,038	0,050
-648,014	290,766	-0,091	0,121
-646,999	800,000	0,073	0,166
-645,984	-110,343	-0,009	0,001
-644,970	-47,518	0,123	0,044
-643,955	-65,183	0,039	0,011
-642,941	7,245	-0,079	-0,043
-641,926	350,491	-0,068	-0,100
-640,911	198,786	0,122	0,138
-639,897	15,632	0,038	-0,022
-638,882	121,139	0,022	0,020
-637,868	-200,000	-0,019	-0,129
-636,853	-80,133	-0,177	0,043
-635,838	8,321	-0,096	0,053
-634,824	-200,000	0,014	-0,050
-633,809	-44,164	0,176	0,064
-632,795	183,644	0,020	0,021
-631,780	-38,511	-0,141	0,055
-630,765	-200,000	0,002	-0,119
-629,751	-36,931	-0,101	-0,040
-628,736	747,995	-0,094	-0,186
-627,722	228,080	0,023	0,028
-626,707	22,994	-0,126	-0,076
-625,692	-200,000	-0,023	-0,144
-624,678	480,988	-0,052	-0,087
-623,663	800,000	-0,033	-0,073
-622,649	27,150	0,143	0,088
-621,634	109,709	0,084	-0,074
-620,619	-140,905	-0,163	-0,012
-619,605	141,251	-0,075	0,073
-618,590	-200,000	0,087	-0,000
-617,576	-200,000	-0,033	0,113
-616,561	18,409	0,004	-0,002
-615,546	-175,524	-0,085	0,002
-614,532	800,000	-0,037	-0,103
-613,517	177,047	-0,126	-0,135
-612,503	-64,094	-0,071	-0,021
-611,488	-62,231	-0,204	-0,062
-610,474	70,818	-0,068	0,051
-609,459	-200,000	-0,008	-0,074
-608,444	-89,456	-0,118	-0,025
-607,430	-200,000	-0,009	0,072
-606,415	-89,703	-0,104	-0,022
-605,401	81,695	-0,003	-0,002
-604,386	59,007	-0,055	-0,040
-603,371	-103,927	0,080	0,014
-602,357	218,448	0,054	-0,063
-601,342	-24,416	0,090	-0,039
-600,328	-54,784	-0,157	-0,052
-599,313	42,338	-0,014	0,009
-598,298	800,000	0,028	-0,071
-597,284	-200,000	0,003	0,044
-596,269	113,428	0,049	0,044
-595,255	-61,756	0,115	-0,035
-594,240	-200,000	0,005	-0,152
-593,225	-66,825	-0,011	0,003
-592,211	65,900	0,059	-0,044
-591,196	800,000	0,058	-0,154
-590,182	151,181	-0,111	-0,111
-589,167	-24,271	0,061	0,026
-588,152	800,000	-0,036	0,081
-587,138	18,585	0,097	-0,057
-586,123	-110,664	0,097	0,015
-585,109	68,149	-0,031	-0,023
-584,094	412,954	0,048	0,075
-583,079	-200,000	-0,017	0,070
-582,065	85,549	0,066	0,053
-581,050	5,783	-0,066	0,036
-580,036	454,690	0,038	-0,062
-579,021	-200,000	-0,015	-0,098
-578,006	-200,000	-0,003	-0,015
-576,992	-200,000	-0,028	-0,093
-575,977	244,619	0,035	0,043
-574,963	-129,519	-0,123	-0,012
-573,948	-200,000	0,032	-0,144
-572,934	-21,551	0,041	-0,018
-571,919	351,040	-0,006	-0,009
-570,904	-9,830	0,085	0,041
-569,890	-84,305	-0,091	-0,021
-568,875	-200,000	0,001	-0,065
-567,861	800,000	0,054	-0,115
-566,846	-10,516	0,066	-0,032
-565,831	614,248	0,018	-0,034
-564,817	54,437	-0,125	-0,088
-563,802	800,000	-0,048	-0,145
-562,788	89,506	-0,105	-0,086
-561,773	800,000	0,032	0,077
-560,758	57,269	0,109	0,078
-559,744	-30,966	-0,084	0,035
-558,729	231,582	-0,034	-0,041
-557,715	800,000	-0,040	0,082
-556,700	49,290	-0,130	-0,090
-555,685	59,220	-0,197	-0,142
-554,671	252,741	0,073	0,091
-553,656	800,000	0,045	-0,110
-552,642	-200,000	0,003	-0,173
-551,627	800,000	-0,050	-0,158
-550,612	-96,492	-0,127	0,024
-549,598	111,723	0,042	0,037
-548,583	409,827	0,020	-0,031
-547,569	13,642	-0,089	0,050
-546,554	170,719	0,050	-0,052
-545,539	800,000	0,042	0,100
-544,525	-200,000	-0,003	-0,020
-543,510	42,340	-0,098	-0,065
-542,496	-200,000	-0,007	0,105
-541,481	44,953	-0,065	-0,043
-540,466	198,992	-0,030	0,034
-539,452	-200,000	0,016	0,000
-538,437	800,000	-0,013	-0,030
-537,423	800,000	-0,018	0,046
-536,408	800,000	-0,033	0,084
-535,393	-88,322	-0,044	0,010
-534,379	156,148	-0,119	-0,120
-533,364	17,127	0,106	0,061
-532,350	800,000	0,058	0,157
-531,335	192,891	0,094	-0,104
-530,321	-103,308	-0,165	0,028
-529,306	87,414	0,030	0,024
-528,291	-79,759	-0,106	0,026
-527,277	-119,724	0,115	0,014
-526,262	51,755	0,201	-0,140
-525,248	-200,000	0,011	-0,053
-524,233	630,989	0,049	-0,091
-523,218	464,793	0,026	-0,042
-522,204	800,000	0,037	-0,097
-521,189	-200,000	-0,003	0,047
-520,175	-168,964	-0,118	0,003
-519,160	-200,000	0,081	-0,000
-518,145	-131,464	0,096	0,009
-517,131	176,163	-0,028	-0,030
-516,116	-92,559	-0,060	-0,012
-515,102	22,465	0,135	0,081
-514,087	800,000	-0,075	-0,215
-513,072	6,932	-0,071	-0,039
-512,058	-200,000	0,009	0,070
-511,043	-200,000	-0,002	0,103
-510,029	-0,719	0,104	0,054
-509,014	80,250	-0,060	0,047
-507,999	-85,492	-0,109	0,025
-506,985	-200,000	0,000	-0,057
-505,970	-200,000	0,006	-0,155
-504,956	54,928	0,007	-0,005
-503,941	-38,151	0,062	0,024
-502,926	146,679	0,068	-0,067
-501,912	128,711	-0,104	0,097
-500,897	148,684	0,133	0,132
-499,883	800,000	-0,048	-0,122
-498,868	-200,000	-0,005	-0,017
-497,853	388,291	0,029	-0,045
-496,839	-36,702	0,053	-0,021
-495,824	327,646	-0,054	0,076
-494,810	-83,557	0,092	-0,021
-493,795	-7,467	-0,077	0,038
-492,781	46,536	0,025	-0,017
-491,766	142,395	0,094	-0,091
-490,751	14,868	0,033	-0,019
-489,737	-71,955	-0,108	0,029
-488,722	-200,000	0,012	-0,150
-487,708	800,000	-0,075	0,156
-486,693	-200,000	0,017	-0,063
-485,678	800,000	-0,028	0,065
-484,664	0,607	-0,062	-0,032
-483,649	-200,000	-0,002	-0,033
-482,635	-48,906	0,078	-0,027
-481,620	83,437	0,093	0,074
-480,605	-33,628	-0,025	0,010
-479,591	-59,378	-0,098	-0,030
-478,576	55,144	0,029	-0,020
-477,562	757,089	-0,022	0,043
-476,547	-130,811	-0,054	-0,005
-475,532	-173,039	-0,136	-0,003
-474,518	36,671	0,022	-0,014
-473,503	-160,293	0,050	-0,002
-472,489	800,000	-0,023	0,047
-471,474	7,752	0,074	0,040
-470,459	-200,000	-0,002	0,078
-469,445	400,495	0,021	-0,032
-468,430	800,000	0,033	0,101
-467,416	-82,567	0,082	0,019
-466,401	76,771	-0,082	0,063
-465,386	73,923	-0,033	-0,025
-464,372	-200,000	-0,003	0,065
-463,357	-47,248	-0,009	-0,003
-462,343	67,405	-0,073	-0,054
-461,328	-44,300	0,084	0,031
-460,313	800,000	-0,058	-0,157
-459,299	-200,000	0,002	-0,075
-458,284	-200,000	0,024	0,109
-457,270	187,835	0,077	0,084
-456,255	-109,511	-0,106	0,016
-455,241	87,708	-0,044	0,035
-454,226	-133,809	-0,030	0,003
-453,211	27,627	-0,040	0,025
-452,197	-200,000	-0,000	0,013
-451,182	436,083	-0,063	0,100
-450,168	-1,347	-0,099	0,051
-449,153	295,385	-0,054	-0,072
-448,138	-29,539	0,098	-0,041
-447,124	85,769	0,018	0,015
-446,109	273,758	0,054	-0,070
-445,095	-103,449	-0,059	0,010
-444,080	-200,000	0,011	-0,071
-443,065	-200,000	-0,011	0,132
-442,051	289,584	-0,112	0,148
-441,036	-200,000	0,008	-0,039
-440,022	236,011	0,034	-0,041
-439,007	31,748	0,069	-0,043
-437,992	-200,000	-0,007	-0,034
-436,978	-200,000	0,004	-0,041
-435,963	800,000	0,064	0,157
-434,949	45,051	-0,037	0,025
-433,934	153,541	-0,067	-0,066
-432,919	-0,476	0,026	0,014
-431,905	-200,000	0,005	-0,092
-430,890	-13,744	-0,028	-0,013
-429,876	-200,000	0,016	-0,053
-428,861	66,348	0,049	-0,036
-427,846	383,579	0,080	-0,120
-426,832	80,099	-0,089	-0,069
-425,817	-17,954	-0,052	-0,024
-424,803	-200,000	-0,011	-0,095
-423,788	-200,000	0,001	-0,013
-422,773	245,091	0,036	-0,044
-421,759	800,000	0,018	0,057
-420,744	-77,798	0,078	0,019
-419,730	-61,321	-0,148	-0,045
-418,715	-67,329	0,041	-0,012
-417,701	800,000	-0,046	0,098
-416,686	140,999	0,040	0,038
-415,671	-89,676	0,109	-0,023
-414,657	-200,000	0,003	0,091
-413,642	-200,000	-0,015	0,118
-412,628	-22,305	-0,104	-0,046
-411,613	-200,000	-0,017	-0,070
-410,598	-200,000	-0,013	-0,132
-409,584	335,097	-0,065	-0,092
-408,569	-200,000	0,010	-0,068
-407,555	-200,000	0,024	-0,111
-406,540	11,492	0,020	-0,011
-405,525	-18,735	0,093	0,042
-404,511	-154,542	-0,050	0,002
-403,496	-21,785	-0,065	-0,028
-402,482	500,820	0,040	0,068
-401,467	-200,000	-0,003	0,164
-400,452	-200,000	0,012	0,080
-399,438	800,000	-0,015	0,046
-398,423	-200,000	-0,010	-0,041
-397,409	-200,000	0,035	-0,186
-396,394	-200,000	-0,027	-0,092
-395,379	406,116	-0,043	-0,066
-394,365	617,811	-0,041	0,075
-393,350	237,248	0,071	0,086
-392,336	149,194	0,073	-0,072
-391,321	-200,000	-0,039	0,130
-390,306	-200,000	-0,026	-0,120
-389,292	-139,695	-0,105	-0,008
-388,277	-77,795	0,228	-0,057
-387,263	-91,439	-0,061	0,012
-386,248	-5,237	0,104	-0,052
-385,233	774,557	-0,055	0,110
-384,219	-160,647	0,085	-0,003
-383,204	171,447	0,065	-0,068
-382,190	-85,656	-0,036	-0,008
-381,175	408,283	0,056	0,087
-380,160	-200,000	0,033	0,147
-379,146	41,477	0,061	0,040
-378,131	457,197	0,089	0,144
-377,117	800,000	0,029	-0,073
-376,102	800,000	-0,024	-0,066
-375,088	-87,042	-0,157	-0,034
-374,073	40,473	-0,050	0,033
-373,058	800,000	-0,017	-0,039
-372,044	115,130	-0,100	-0,089
-371,029	-200,000	-0,015	0,065
-370,015	677,821	-0,083	0,157
-369,000	-91,735	-0,130	-0,027
-367,985	-47,886	-0,013	-0,005
-366,971	-70,344	0,076	-0,021
-365,956	470,135	0,078	0,128
-364,942	123,228	-0,152	0,138
-363,927	800,000	-0,035	0,075
-362,912	-200,000	-0,016	-0,071
-361,898	-200,000	-0,020	0,071
-360,883	1,637	-0,134	-0,070
-359,869	800,000	-0,025	-0,068
-358,854	-200,000	-0,006	0,032
-357,839	515,160	0,039	0,067
-356,825	81,130	0,144	0,113
-355,810	-106,531	-0,025	-0,004
-354,796	-155,431	-0,020	0,001
-353,781	-200,000	0,040	0,000
-352,766	800,000	0,058	-0,124
-351,752	-200,000	0,001	-0,005
-350,737	-43,018	-0,105	0,038
-349,723	302,268	-0,018	-0,024
-348,708	-200,000	0,007	0,098
-347,693	800,000	-0,006	0,018
-346,679	637,425	0,032	-0,060
-345,664	145,193	-0,050	0,049
-344,650	75,670	0,057	-0,044
-343,635	15,372	-0,071	0,040
-342,620	403,420	0,048	0,074
-341,606	-17,018	0,072	0,033
-340,591	77,692	0,082	-0,064
-339,577	246,608	-0,034	0,042
-338,562	-128,513	0,087	0,009
-337,548	210,431	-0,048	-0,055
-336,533	152,906	0,127	-0,126
-335,518	218,807	-0,114	0,133
-334,504	103,767	0,108	-0,092
-333,489	122,175	0,024	-0,022
-332,475	-114,006	0,045	0,006
-331,460	800,000	0,053	0,125
-330,445	800,000	-0,016	-0,035
-329,431	-200,000	0,005	0,063
-328,416	-92,263	0,092	0,019
-327,402	14,435	0,138	0,078
-326,387	-125,500	-0,136	0,015
-325,372	180,071	0,072	0,077
-324,358	-155,245	-0,057	-0,003
-323,343	592,940	0,035	-0,062
-322,329	115,246	-0,075	-0,066
-321,314	800,000	0,051	0,104
-320,299	-200,000	-0,004	-0,061
-319,285	-21,809	-0,143	0,063
-318,270	-28,013	-0,100	0,042
-317,256	-17,520	-0,039	0,018
-316,241	800,000	0,066	-0,156
-315,226	286,985	0,046	0,061
-314,212	523,173	0,048	0,082
-313,197	-200,000	0,041	0,138
-312,183	500,909	0,060	0,101
-311,168	-96,579	0,072	-0,014
-310,153	-80,177	-0,097	-0,023
-309,139	-35,665	-0,113	-0,044
-308,124	-7,269	0,081	0,040
-307,110	38,670	0,057	0,037
-306,095	212,654	0,083	0,095
-305,080	-200,000	-0,000	0,055
-304,066	536,067	0,096	-0,165
-303,051	-176,905	-0,146	0,003
-302,037	298,045	-0,102	0,136
-301,022	121,292	0,077	-0,069
-300,008	121,083	0,054	0,049
-298,993	-200,000	0,004	-0,072
-297,978	21,786	-0,045	0,027
-296,964	133,946	-0,070	-0,065
-295,949	-152,321	-0,014	-0,001
-294,935	-200,000	-0,025	-0,093
-293,920	82,417	0,039	-0,031
-292,905	28,922	0,097	0,059
-291,891	-160,704	0,084	-0,003
-290,876	66,247	0,087	0,064
-289,862	-200,000	0,026	0,095
-288,847	800,000	0,040	-0,097
-287,832	227,936	-0,102	-0,120
-286,818	-88,787	-0,046	0,010
-285,803	-77,623	0,077	-0,019
-284,789	-146,719	-0,036	-0,002
-283,774	40,736	0,068	0,044
-282,759	-56,604	0,125	0,040
-281,745	237,873	-0,042	0,050
-280,730	-200,000	0,008	0,054
-279,716	-79,470	-0,109	-0,027
-278,701	-60,071	-0,173	-0,053
-277,686	-200,000	0,006	0,217
-276,672	800,000	0,029	0,082
-275,657	-64,616	-0,006	-0,002
-274,643	-54,589	-0,137	-0,044
-273,628	-200,000	-0,046	0,199
-272,613	113,091	0,075	-0,066
-271,599	-200,000	0,012	0,085
-270,584	427,254	-0,066	0,103
-269,570	-200,000	-0,012	0,128
-268,555	-200,000	-0,037	0,145
-267,540	-98,393	-0,133	-0,024
-266,526	-200,000	0,003	-0,087
-265,511	-96,319	0,097	-0,019
-264,497	-175,209	0,112	0,002
-263,482	-175,175	0,013	-0,000
-262,467	150,973	0,040	0,039
-261,453	-160,551	-0,127	0,005
-260,438	258,260	-0,045	-0,056
-259,424	60,341	-0,126	0,090
-258,409	99,953	-0,093	0,078
-257,395	88,656	0,068	-0,055
-256,380	800,000	-0,015	-0,037
-255,365	32,324	0,112	0,070
-254,351	-78,139	-0,028	0,007
-253,336	-200,000	-0,034	0,156
-252,322	538,594	-0,027	0,046
-251,307	-200,000	-0,000	0,045
-250,292	-200,000	-0,008	0,030
-249,278	-200,000	0,013	0,115
-248,263	800,000	-0,027	0,061
-247,249	800,000	-0,041	0,083
-246,234	-91,420	-0,192	-0,039
-245,219	-200,000	0,016	-0,102
-244,205	-200,000	0,007	-0,032
-243,190	-147,033	-0,033	0,002
-242,176	-200,000	0,006	0,065
-241,161	-96,970	-0,072	0,013
-240,146	77,698	0,049	-0,038
-239,132	-200,000	0,024	0,086
-238,117	-200,000	0,005	-0,160
-237,103	286,038	-0,058	-0,076
-236,088	-140,008	0,191	-0,014
-235,073	-200,000	-0,013	0,047
-234,059	-8,371	0,099	0,048
-233,044	800,000	-0,039	0,100
-232,030	-75,409	-0,066	0,017
-231,015	800,000	0,042	-0,108
-230,000	248,928	-0,089	-0,109
-228,986	86,254	0,083	-0,066
-227,971	-162,196	0,208	0,007
-226,957	218,036	0,095	-0,110
-225,942	-200,000	0,006	0,077
-224,927	-139,750	0,145	0,011
-223,913	-60,377	0,228	-0,070
-222,898	60,479	0,089	-0,063
-221,884	-200,000	-0,021	0,105
-220,869	-43,100	0,172	0,063
-219,855	29,420	0,071	-0,044
-218,840	-200,000	0,008	-0,027
-217,825	312,381	0,112	-0,152
-216,811	187,235	-0,025	-0,027
-215,796	108,305	0,059	-0,051
-214,782	314,443	0,076	-0,104
-213,767	800,000	-0,059	0,150
-212,752	-109,171	-0,105	0,016
-211,738	-41,557	0,125	0,046
-210,723	186,267	0,033	0,035
-209,709	63,603	-0,100	0,072
-208,694	242,417	0,067	-0,082
-207,679	800,000	0,018	-0,048
-206,665	-60,717	-0,117	0,035
-205,650	-85,291	0,135	-0,030
-204,636	134,223	0,110	-0,103
-203,621	800,000	-0,025	0,062
-202,606	179,622	-0,165	0,174
-201,592	505,701	-0,023	0,038
-200,577	-62,838	0,016	-0,005
-199,563	5,173	-0,072	-0,038
-198,548	96,596	-0,014	0,011
-197,533	800,000	-0,004	0,012
-196,519	18,884	0,072	0,042
-195,504	165,296	-0,154	-0,157
-194,490	-85,891	0,089	0,020
-193,475	-58,778	-0,074	-0,023
-192,460	42,360	-0,058	0,038
-191,446	800,000	0,078	0,157
-190,431	793,212	0,041	0,082
-189,417	-73,022	0,062	-0,016
-188,402	-83,368	0,019	0,004
-187,387	-200,000	0,004	-0,170
-186,373	-144,504	-0,094	-0,006
-185,358	73,119	0,094	0,071
-184,344	-132,276	0,135	0,012
-183,329	-117,999	-0,102	-0,013
-182,315	-0,342	0,050	-0,025
-181,300	-99,467	0,069	0,012
-180,285	23,801	-0,053	0,032
-179,271	2,318	0,069	-0,036
-178,256	-200,000	0,085	0,000
-177,242	-200,000	-0,009	0,042
-176,227	711,383	0,068	-0,131
-175,212	577,425	-0,043	0,076
-174,198	145,335	0,127	0,123
-173,183	20,388	0,027	0,016
-172,169	143,385	-0,030	-0,029
-171,154	197,430	0,071	-0,078
-170,139	54,745	-0,126	0,087
-169,125	-200,000	-0,034	0,111
-168,110	-134,374	0,189	0,016
-167,096	800,000	-0,037	0,084
-166,081	61,206	-0,078	0,056
-165,066	-62,291	-0,031	0,009
-164,052	512,001	-0,116	0,196
-163,037	-200,000	0,024	0,093
-162,023	-200,000	0,014	-0,063
-161,008	263,873	0,037	-0,046
-159,993	271,489	-0,053	-0,068
-158,979	93,413	0,093	-0,076
-157,964	-105,610	0,048	0,008
-156,950	-71,115	0,137	-0,037
-155,935	408,933	-0,044	-0,067
-154,920	-56,288	0,178	-0,057
-153,906	-66,197	-0,017	-0,005
-152,891	-129,744	0,053	0,005
-151,877	-31,432	0,075	-0,030
-150,862	381,085	0,040	-0,059
-149,847	49,699	-0,031	-0,021
-148,833	-35,938	0,034	-0,013
-147,818	-200,000	0,000	0,148
-146,804	-143,948	-0,124	-0,008
-145,789	-12,202	0,092	0,043
-144,775	-125,246	0,112	-0,012
-143,760	96,101	-0,038	-0,032
-142,745	-200,000	0,012	-0,046
-141,731	-53,234	-0,091	-0,030
-140,716	293,340	0,030	-0,040
-139,702	-32,383	0,067	-0,027
-138,687	105,959	-0,091	-0,078
-137,672	-200,000	0,017	0,083
-136,658	151,072	-0,079	-0,077
-135,643	-200,000	0,021	-0,144
-134,629	-111,947	0,090	0,013
-133,614	-93,569	-0,068	0,013
-132,599	707,023	0,021	-0,039
-131,585	800,000	-0,020	-0,040
-130,570	38,602	-0,143	0,091
-129,556	323,693	-0,016	-0,023
-128,541	656,528	0,031	-0,058
-127,526	800,000	0,020	0,055
-126,512	800,000	-0,037	-0,079
-125,497	147,578	-0,040	-0,038
-124,483	-183,042	-0,063	0,001
-123,468	-200,000	-0,023	0,127
-122,453	-200,000	0,021	-0,135
-121,439	188,883	0,111	-0,119
-120,424	-200,000	-0,000	-0,005
-119,410	-131,508	-0,066	-0,006
