DTS Sentinel unit serial number:	SN410029Multiplexer serial number:	ORYXHardware model number:	OX2-SRSoftware version number:	ORYX F/W v4,00 Oryx Data Collector v3.7.2.0data status	okinstallation	B5 Nyhavnadifferential loss correction	single-endedforward channel	channel 2reverse channel	N/Adate	2023/12/13time	07:17:13forward acquisition time	300,00reverse acquisition time	0,00gamma	499,1914k internal	0,3160k external	0,3160temperature offset calibration	1,0000default loss term (dB/km)	0,3820temperature slope calibration	1,0000multiplexer offset coefficient	1,0000multiplexer slope coefficient	1,0000fibre end	0,00T internal ref (°C)	13,69T ext. ref 1 (°C)	-2,75T ext. ref 2 (°C)	-3,05length (m)	temperature (°C)	Stokes	anti-Stokes-744,400	160,124	0,059	-0,060
-743,385	-112,016	-0,248	0,036
-742,371	-22,469	0,108	0,048
-741,356	-132,004	-0,207	0,020
-740,342	499,329	0,046	0,079
-739,327	17,280	-0,312	0,182
-738,312	-124,150	0,103	0,012
-737,298	-36,960	-0,416	0,163
-736,283	41,181	0,075	0,050
-735,269	-75,705	-0,342	-0,089
-734,254	-200,000	0,049	0,203
-733,239	-6,389	-0,490	-0,246
-732,225	-108,837	0,088	-0,014
-731,210	-60,981	-0,058	-0,018
-730,196	-55,577	-0,012	0,004
-729,181	148,740	-0,086	-0,086
-728,167	91,896	-0,063	-0,052
-727,152	87,072	-0,051	-0,042
-726,137	448,396	-0,059	-0,096
-725,123	289,307	-0,040	-0,054
-724,108	-200,000	0,003	-0,052
-723,094	304,104	-0,034	-0,046
-722,079	348,100	-0,071	-0,103
-721,064	800,000	0,018	-0,039
-720,050	23,763	0,087	-0,053
-719,035	86,148	0,009	-0,007
-718,021	-93,137	-0,065	-0,013
-717,006	106,055	-0,129	-0,113
-715,991	285,754	-0,061	-0,081
-714,977	142,495	-0,029	0,028
-713,962	-178,080	-0,093	0,002
-712,948	-133,676	0,038	0,003
-711,933	-200,000	-0,026	-0,170
-710,918	800,000	0,018	0,049
-709,904	-130,291	-0,118	0,012
-708,889	169,861	-0,110	-0,116
-707,875	775,763	-0,028	-0,056
-706,860	365,243	-0,028	-0,042
-705,845	151,184	0,070	-0,070
-704,831	-64,533	0,067	-0,020
-703,816	38,420	0,022	0,014
-702,802	-128,347	-0,122	0,013
-701,787	-55,177	0,057	-0,019
-700,772	-88,346	0,048	-0,011
-699,758	800,000	-0,017	-0,053
-698,743	92,588	0,093	0,077
-697,729	800,000	-0,050	-0,130
-696,714	-29,511	-0,048	-0,020
-695,699	-83,309	0,127	-0,030
-694,685	516,687	-0,027	-0,046
-693,670	-73,412	-0,153	-0,041
-692,656	-32,598	0,133	0,054
-691,641	-200,000	0,002	-0,039
-690,627	110,350	0,076	0,067
-689,612	557,593	-0,037	0,066
-688,597	35,796	0,030	0,019
-687,583	-200,000	0,026	-0,125
-686,568	-200,000	0,006	-0,066
-685,554	485,442	0,066	-0,110
-684,539	512,729	-0,085	-0,147
-683,524	543,732	-0,130	-0,229
-682,510	-200,000	-0,010	-0,114
-681,495	-68,749	-0,085	0,024
-680,481	87,543	-0,090	-0,073
-679,466	-200,000	0,011	-0,121
-678,451	-200,000	0,004	0,027
-677,437	-200,000	0,013	-0,097
-676,422	-200,000	-0,000	-0,020
-675,408	-143,215	-0,041	-0,003
-674,393	76,293	-0,137	-0,106
-673,378	-200,000	-0,032	-0,159
-672,364	30,972	-0,096	0,060
-671,349	33,914	-0,125	-0,080
-670,335	197,017	0,094	0,106
-669,320	19,207	0,052	0,031
-668,305	216,535	0,040	0,047
-667,291	168,918	0,034	0,036
-666,276	107,000	-0,092	-0,080
-665,262	-200,000	-0,028	-0,095
-664,247	139,613	-0,095	-0,092
-663,232	320,914	0,084	0,118
-662,218	-161,555	0,130	0,005
-661,203	477,500	0,065	0,108
-660,189	800,000	-0,054	-0,118
-659,174	800,000	0,048	-0,127
-658,159	594,168	0,019	0,035
-657,145	148,352	0,079	-0,078
-656,130	-76,398	-0,080	0,021
-655,116	-200,000	0,005	0,064
-654,101	205,170	-0,027	0,031
-653,086	397,198	-0,104	-0,161
-652,072	-182,671	0,030	0,000
-651,057	-147,700	-0,147	-0,009
-650,043	-200,000	0,004	0,065
-649,028	-13,225	0,018	-0,009
-648,014	-200,000	-0,045	0,148
-646,999	800,000	0,004	-0,012
-645,984	-74,987	-0,111	0,029
-644,970	-200,000	0,004	-0,065
-643,955	-36,257	-0,088	-0,035
-642,941	188,136	0,049	-0,053
-641,926	144,579	-0,039	0,038
-640,911	377,472	-0,029	-0,044
-639,897	-179,678	0,019	0,000
-638,882	183,606	-0,074	0,080
-637,868	-30,479	-0,110	0,046
-636,853	-14,574	-0,032	-0,015
-635,838	-60,047	-0,110	-0,034
-634,824	-78,613	-0,106	0,026
-633,809	-187,760	0,054	0,001
-632,795	800,000	-0,046	0,106
-631,780	-17,557	-0,188	0,086
-630,765	-137,061	-0,084	0,007
-629,751	656,240	-0,068	-0,130
-628,736	-66,591	-0,148	-0,043
-627,722	388,189	-0,050	-0,076
-626,707	502,949	0,074	0,126
-625,692	-200,000	-0,014	0,165
-624,678	-200,000	-0,006	-0,083
-623,663	800,000	0,041	-0,093
-622,649	-65,662	-0,171	-0,050
-621,634	-2,808	0,039	0,020
-620,619	-74,133	-0,111	0,029
-619,605	96,206	0,023	0,019
-618,590	-3,836	-0,127	-0,064
-617,576	800,000	0,041	0,085
-616,561	287,438	-0,024	-0,032
-615,546	-200,000	0,001	-0,078
-614,532	147,855	0,045	0,044
-613,517	-200,000	0,002	-0,160
-612,503	-134,465	0,062	0,005
-611,488	-200,000	0,026	-0,114
-610,474	-25,906	-0,067	0,029
-609,459	-200,000	0,021	-0,092
-608,444	800,000	-0,070	-0,159
-607,430	52,828	-0,042	-0,030
-606,415	-154,465	-0,172	0,008
-605,401	386,830	0,053	-0,081
-604,386	549,802	0,033	-0,057
-603,371	-81,695	0,070	0,017
-602,357	642,191	-0,051	0,096
-601,342	56,060	0,035	0,025
-600,328	-200,000	0,018	-0,117
-599,313	-55,021	0,126	0,041
-598,298	-145,202	0,105	-0,007
-597,284	12,427	-0,081	-0,046
-596,269	-77,267	0,103	0,026
-595,255	-58,245	0,071	-0,023
-594,240	20,086	-0,046	0,027
-593,225	-200,000	0,039	-0,139
-592,211	-119,999	-0,099	0,012
-591,196	-22,802	0,091	0,040
-590,182	-17,579	-0,075	0,034
-589,167	120,303	-0,027	0,025
-588,152	-200,000	0,028	0,129
-587,138	-52,718	-0,048	-0,016
-586,123	751,695	0,022	0,045
-585,109	24,865	0,078	0,047
-584,094	-51,116	0,022	-0,007
-583,079	696,840	-0,011	-0,021
-582,065	-70,595	0,116	-0,032
-581,050	-200,000	0,002	-0,014
-580,036	-200,000	0,014	0,046
-579,021	19,752	-0,087	-0,051
-578,006	255,764	-0,061	0,076
-576,992	50,750	-0,045	-0,031
-575,977	-43,892	0,100	-0,037
-574,963	-200,000	-0,025	0,178
-573,948	-0,383	-0,051	0,027
-572,934	550,825	0,020	0,035
-571,919	-14,128	-0,029	-0,014
-570,904	800,000	-0,072	-0,182
-569,890	28,211	-0,094	-0,058
-568,875	-200,000	0,011	0,055
-567,861	-200,000	-0,049	-0,167
-566,846	-185,165	-0,065	0,001
-565,831	-33,596	-0,058	0,023
-564,817	-18,687	0,087	-0,040
-563,802	-118,487	-0,058	0,007
-562,788	116,851	0,068	-0,061
-561,773	800,000	-0,034	-0,081
-560,758	-67,998	0,082	0,023
-559,744	50,158	0,079	-0,055
-558,729	27,487	-0,043	0,026
-557,715	348,708	-0,028	0,040
-556,700	800,000	0,048	-0,106
-555,685	-55,934	-0,148	-0,048
-554,671	-157,414	0,216	0,009
-553,656	-200,000	-0,009	0,060
-552,642	-89,994	-0,147	0,031
-551,627	-200,000	0,016	0,105
-550,612	-200,000	-0,022	-0,080
-549,598	800,000	0,087	-0,247
-548,583	62,079	-0,037	-0,027
-547,569	-40,736	0,082	0,031
-546,554	-75,357	-0,036	-0,009
-545,539	-137,170	-0,156	-0,013
-544,525	-32,102	-0,079	-0,032
-543,510	800,000	0,023	0,068
-542,496	-38,935	0,066	0,025
-541,481	248,759	-0,073	-0,091
-540,466	123,096	0,051	-0,047
-539,452	62,103	0,110	0,080
-538,437	-168,741	0,113	-0,003
-537,423	-200,000	0,044	-0,186
-536,408	800,000	-0,038	-0,079
-535,393	-166,989	-0,131	0,004
-534,379	-200,000	0,001	0,085
-533,364	101,566	0,035	-0,030
-532,350	800,000	0,048	0,102
-531,335	-93,189	0,046	0,009
-530,321	205,354	-0,054	-0,061
-529,306	-137,437	0,053	0,004
-528,291	238,220	0,081	0,099
-527,277	-200,000	-0,003	-0,052
-526,262	24,713	0,036	0,022
-525,248	656,562	0,042	0,080
-524,233	123,559	-0,029	-0,026
-523,218	-84,705	-0,100	0,023
-522,204	569,517	0,034	0,062
-521,189	540,414	0,049	-0,085
-520,175	-181,819	-0,053	0,001
-519,160	-18,374	-0,055	0,025
-518,145	-200,000	-0,013	0,087
-517,131	-135,164	0,129	0,011
-516,116	-200,000	-0,019	0,070
-515,102	-45,423	-0,101	0,036
-514,087	134,979	-0,089	-0,085
-513,072	-200,000	0,052	-0,179
-512,058	800,000	0,011	-0,027
-511,043	-76,735	0,093	0,024
-510,029	277,022	0,035	0,046
-509,014	-29,733	0,034	-0,014
-507,999	-95,252	0,050	0,010
-506,985	800,000	0,030	0,070
-505,970	800,000	0,025	-0,068
-504,956	-200,000	0,017	-0,092
-503,941	39,020	-0,045	-0,029
-502,926	417,060	0,083	0,130
-501,912	261,002	0,035	0,045
-500,897	-75,748	0,143	-0,037
-499,883	-114,883	-0,107	0,015
-498,868	35,093	0,009	-0,006
-497,853	-11,519	0,138	0,066
-496,839	-200,000	-0,005	-0,130
-495,824	-94,768	0,063	0,012
-494,810	38,142	0,092	0,060
-493,795	-36,135	0,048	0,019
-492,781	-162,920	0,132	-0,005
-491,766	-25,202	-0,122	0,052
-490,751	642,462	-0,059	-0,110
-489,737	800,000	0,018	0,051
-488,722	117,229	-0,022	0,020
-487,708	56,776	0,133	0,094
-486,693	-200,000	0,008	-0,078
-485,678	346,946	-0,017	0,025
-484,664	334,867	0,029	0,041
-483,649	-148,237	-0,099	-0,006
-482,635	446,667	-0,013	-0,020
-481,620	-25,064	0,170	0,073
-480,605	70,015	-0,153	0,115
-479,591	-200,000	0,019	0,271
-478,576	202,179	-0,082	0,092
-477,562	-139,659	-0,118	0,009
-476,547	-200,000	-0,004	-0,020
-475,532	-5,068	-0,021	-0,011
-474,518	271,916	0,093	0,120
-473,503	800,000	0,034	0,086
-472,489	329,433	0,062	0,087
-471,474	53,822	-0,045	-0,031
-470,459	4,262	-0,179	0,096
-469,445	-200,000	0,028	0,119
-468,430	-4,688	-0,039	-0,020
-467,416	-200,000	0,011	-0,108
-466,401	-200,000	0,005	0,033
-465,386	800,000	-0,021	-0,058
-464,372	800,000	0,027	-0,076
-463,357	160,399	-0,023	-0,023
-462,343	-68,860	0,116	-0,032
-461,328	-25,388	-0,079	-0,034
-460,313	38,714	0,066	-0,043
-459,299	-200,000	0,005	0,044
-458,284	-98,877	-0,100	-0,018
-457,270	-200,000	-0,005	0,096
-456,255	39,526	0,052	0,034
-455,241	398,011	-0,093	-0,142
-454,226	53,654	-0,095	0,066
-453,211	145,566	-0,064	0,062
-452,197	134,688	-0,062	0,059
-451,182	478,802	0,040	0,067
-450,168	207,299	-0,062	0,070
-449,153	578,005	0,081	-0,144
-448,138	-155,515	-0,083	0,004
-447,124	721,021	0,065	-0,127
-446,109	800,000	0,024	0,056
-445,095	-79,383	0,058	0,014
-444,080	34,595	-0,033	0,021
-443,065	370,386	0,087	0,129
-442,051	169,054	-0,124	0,129
-441,036	61,881	0,043	0,031
-440,022	-116,954	-0,045	-0,006
-439,007	-139,157	-0,093	0,007
-437,992	-200,000	-0,009	0,066
-436,978	108,319	0,053	0,046
-435,963	800,000	-0,015	0,039
-434,949	-81,394	-0,101	0,024
-433,934	538,386	-0,063	-0,109
-432,919	-200,000	0,003	-0,091
-431,905	190,613	0,061	0,066
-430,890	800,000	-0,030	-0,088
-429,876	8,886	-0,057	-0,031
-428,861	-54,471	-0,108	-0,035
-427,846	-200,000	0,003	-0,047
-426,832	-55,570	-0,091	0,029
-425,817	17,535	-0,178	0,103
-424,803	-8,822	0,078	0,038
-423,788	-89,113	0,048	-0,010
-422,773	44,242	-0,057	-0,038
-421,759	-131,242	0,093	-0,009
-420,744	163,402	0,022	-0,023
-419,730	258,059	0,065	-0,081
-418,715	121,543	-0,023	-0,021
-417,701	-170,544	-0,029	0,001
-416,686	517,128	0,003	0,005
-415,671	-200,000	0,005	-0,038
-414,657	98,027	-0,056	-0,047
-413,642	-50,506	0,045	-0,015
-412,628	95,290	-0,175	-0,145
-411,613	-96,123	0,056	0,011
-410,598	291,166	-0,108	-0,143
-409,584	-6,088	0,149	0,074
-408,569	-200,000	-0,011	-0,113
-407,555	-40,157	-0,050	0,019
-406,540	156,487	0,115	-0,116
-405,525	277,982	0,091	0,118
-404,511	638,469	-0,018	-0,033
-403,496	465,021	-0,041	-0,067
-402,482	20,515	-0,113	0,066
-401,467	107,275	0,122	0,106
-400,452	-200,000	0,004	-0,048
-399,438	-35,895	-0,146	-0,057
-398,423	41,782	0,072	0,047
-397,409	800,000	0,044	-0,093
-396,394	356,153	-0,120	-0,174
-395,379	-200,000	0,003	-0,015
-394,365	-125,743	0,048	0,005
-393,350	-62,263	-0,169	-0,051
-392,336	-200,000	-0,016	-0,056
-391,321	-200,000	-0,001	0,012
-390,306	-200,000	0,018	-0,076
-389,292	9,777	0,040	-0,022
-388,277	-200,000	-0,000	0,004
-387,263	-27,160	0,127	-0,054
-386,248	57,327	-0,104	0,074
-385,233	438,162	0,058	0,093
-384,219	-162,179	0,081	0,003
-383,204	-61,153	0,034	-0,010
-382,190	60,911	-0,121	-0,087
-381,175	-200,000	-0,090	0,000
-380,160	593,805	0,043	0,078
-379,146	800,000	-0,032	0,093
-378,131	72,309	0,047	0,035
-377,117	-200,000	0,026	-0,150
-376,102	160,126	0,056	-0,057
-375,088	353,724	-0,042	-0,060
-374,073	-0,951	-0,095	0,049
-373,058	94,527	0,060	0,050
-372,044	427,317	-0,044	0,069
-371,029	92,501	0,088	0,072
-370,015	83,046	-0,041	0,032
-369,000	-200,000	-0,003	-0,178
-367,985	226,654	-0,021	-0,025
-366,971	-44,578	-0,110	-0,040
-365,956	115,961	0,068	0,060
-364,942	800,000	0,020	-0,051
-363,927	-110,697	-0,034	0,005
-362,912	-152,711	0,044	0,002
-361,898	7,091	0,083	-0,045
-360,883	41,084	-0,170	-0,111
-359,869	-200,000	0,010	-0,036
-358,854	175,372	0,057	-0,060
-357,839	-200,000	0,002	0,049
-356,825	-34,393	0,094	0,037
-355,810	51,964	-0,058	0,040
-354,796	-200,000	0,013	-0,073
-353,781	-200,000	0,002	-0,054
-352,766	91,086	-0,125	-0,102
-351,752	-139,643	0,025	-0,002
-350,737	-187,544	0,131	-0,001
-349,723	800,000	-0,013	0,035
-348,708	-7,609	0,092	0,045
-347,693	-104,929	-0,033	0,005
-346,679	75,516	-0,146	-0,111
-345,664	-200,000	-0,026	-0,131
-344,650	-200,000	0,028	0,097
-343,635	-101,283	0,108	0,019
-342,620	537,724	-0,034	0,060
-341,606	-66,346	-0,124	0,035
-340,591	-21,138	0,100	0,044
-339,577	-200,000	0,001	0,009
-338,562	-95,128	-0,091	0,018
-337,548	-16,006	0,107	0,049
-336,533	800,000	0,026	-0,053
-335,518	-4,120	0,077	0,039
-334,504	133,766	-0,092	0,086
-333,489	800,000	0,050	-0,136
-332,475	111,676	-0,120	-0,105
-331,460	800,000	0,033	0,092
-330,445	-18,869	-0,029	-0,013
-329,431	134,190	0,077	0,072
-328,416	-42,740	0,089	-0,033
-327,402	-200,000	-0,005	0,286
-326,387	-137,072	0,069	-0,006
-325,372	-200,000	-0,012	-0,050
-324,358	-15,361	-0,053	-0,025
-323,343	-24,738	-0,053	-0,023
-322,329	-28,225	0,148	0,062
-321,314	800,000	-0,034	0,107
-320,299	165,221	-0,096	0,098
-319,285	463,349	0,024	-0,039
-318,270	163,277	-0,027	0,027
-317,256	-200,000	0,001	-0,045
-316,241	-127,479	0,118	0,012
-315,226	-200,000	-0,010	-0,078
-314,212	-200,000	-0,016	0,088
-313,197	-132,948	0,074	-0,007
-312,183	15,616	0,130	-0,074
-311,168	800,000	0,017	0,035
-310,153	337,357	-0,064	0,090
-309,139	249,083	-0,022	0,027
-308,124	-200,000	-0,012	0,038
-307,110	-200,000	-0,013	-0,047
-306,095	63,880	-0,032	0,023
-305,080	-200,000	0,002	0,061
-304,066	325,081	-0,064	-0,088
-303,051	109,176	-0,035	0,030
-302,037	-22,219	-0,021	0,009
-301,022	-200,000	0,005	0,039
-300,008	5,990	0,196	0,105
-298,993	-23,683	-0,054	0,024
-297,978	169,877	0,067	0,070
-296,964	618,464	0,047	0,086
-295,949	12,858	0,173	0,097
-294,935	554,911	0,024	-0,042
-293,920	25,685	0,106	-0,064
-292,905	800,000	0,049	0,121
-291,891	177,629	0,101	0,107
-290,876	20,089	-0,089	0,052
-289,862	800,000	-0,039	-0,088
-288,847	-112,639	-0,041	0,006
-287,832	710,260	-0,016	-0,030
-286,818	-44,748	0,105	0,038
-285,803	9,622	-0,158	-0,086
-284,789	69,026	-0,036	-0,027
-283,774	-141,814	0,050	-0,004
-282,759	106,463	-0,107	-0,092
-281,745	-133,463	-0,114	0,010
-280,730	-56,353	0,105	0,034
-279,716	-137,495	0,180	-0,015
-278,701	363,319	0,033	-0,048
-277,686	-38,252	-0,039	0,015
-276,672	800,000	-0,022	-0,046
-275,657	24,336	-0,040	-0,024
-274,643	101,375	0,060	-0,050
-273,628	800,000	-0,028	-0,061
-272,613	-200,000	0,004	0,099
-271,599	-200,000	-0,001	0,025
-270,584	-145,498	-0,090	-0,006
-269,570	-200,000	0,022	0,143
-268,555	-200,000	-0,029	-0,096
-267,540	134,881	-0,084	0,079
-266,526	3,944	0,114	-0,060
-265,511	-110,493	0,160	-0,024
-264,497	-22,834	0,116	0,051
-263,482	-4,291	0,038	0,019
-262,467	223,087	0,068	0,079
-261,453	-200,000	-0,047	0,225
-260,438	117,252	-0,078	0,069
-259,424	268,739	0,037	-0,047
-258,409	-67,146	-0,072	-0,020
-257,395	-200,000	0,010	0,075
-256,380	62,883	0,085	0,062
-255,365	-200,000	0,015	0,072
-254,351	-111,261	0,018	-0,003
-253,336	800,000	0,013	0,039
-252,322	284,573	-0,086	-0,112
-251,307	-37,717	0,070	-0,027
-250,292	800,000	-0,039	-0,096
-249,278	576,186	0,028	0,050
-248,263	-200,000	-0,026	0,097
-247,249	738,803	-0,055	-0,107
-246,234	13,467	0,115	-0,065
-245,219	-80,741	-0,088	0,021
-244,205	416,684	-0,023	0,036
-243,190	800,000	-0,044	0,117
-242,176	129,922	0,057	-0,053
-241,161	-111,651	0,024	-0,003
-240,146	5,965	-0,010	-0,005
-239,132	-156,269	-0,234	0,010
-238,117	283,035	0,049	-0,064
-237,103	800,000	-0,044	-0,114
-236,088	563,655	-0,047	-0,082
-235,073	397,559	0,050	-0,076
-234,059	-148,274	0,165	-0,010
-233,044	-76,960	0,018	-0,004
-232,030	-17,846	0,062	0,028
-231,015	-153,707	-0,105	0,005
-230,000	-200,000	-0,023	-0,090
-228,986	800,000	-0,096	-0,244
-227,971	800,000	-0,039	0,082
-226,957	-44,364	0,069	-0,025
-225,942	137,655	-0,068	0,064
-224,927	-71,156	-0,061	0,016
-223,913	-200,000	0,002	0,144
-222,898	117,405	0,042	-0,038
-221,884	-117,766	0,098	0,013
-220,869	223,876	0,029	0,033
-219,855	-200,000	0,008	0,060
-218,840	260,275	0,061	0,076
-217,825	-133,478	-0,135	-0,012
-216,811	-200,000	-0,017	-0,071
-215,796	76,724	0,153	0,117
-214,782	-78,283	0,164	-0,040
-213,767	528,785	0,050	0,085
-212,752	-60,857	0,115	0,035
-211,738	-50,310	0,071	-0,024
-210,723	-184,852	0,081	-0,001
-209,709	-109,698	0,123	0,019
-208,694	800,000	-0,017	-0,034
-207,679	-50,732	-0,086	-0,029
-206,665	-200,000	0,013	0,051
-205,650	-200,000	-0,037	0,130
-204,636	-38,983	-0,106	-0,040
-203,621	800,000	0,029	-0,065
-202,606	-200,000	-0,015	-0,152
-201,592	-26,553	-0,045	0,019
-200,577	-61,844	-0,092	0,027
-199,563	-9,735	0,089	0,043
-198,548	-156,791	0,036	-0,002
-197,533	-200,000	-0,007	0,070
-196,519	-157,277	0,044	-0,002
-195,504	-67,572	-0,072	-0,020
-194,490	-96,103	-0,033	0,006
-193,475	-139,499	0,047	-0,004
-192,460	-200,000	-0,005	-0,080
-191,446	95,843	-0,047	-0,039
-190,431	203,490	0,102	0,114
-189,417	-137,277	-0,076	0,006
-188,402	800,000	0,054	0,151
-187,387	162,160	-0,113	-0,114
-186,373	292,507	-0,062	-0,081
-185,358	-101,977	0,059	-0,010
-184,344	33,234	0,086	0,054
-183,329	-92,695	0,120	0,024
-182,315	203,351	0,081	0,091
-181,300	800,000	-0,041	-0,102
-180,285	54,102	-0,071	-0,049
-179,271	800,000	0,057	-0,174
-178,256	45,773	0,110	0,073
-177,242	403,228	-0,042	0,064
-176,227	8,119	0,030	-0,016
-175,212	-200,000	0,033	0,158
-174,198	51,143	-0,069	0,047
-173,183	800,000	-0,073	-0,177
-172,169	800,000	0,043	-0,089
-171,154	714,511	0,025	-0,047
-170,139	221,350	0,122	0,142
-169,125	-49,061	0,063	0,022
-168,110	-127,261	-0,064	-0,007
-167,096	-77,123	-0,079	-0,020
-166,081	-200,000	0,011	0,094
-165,066	299,125	0,033	0,044
-164,052	209,112	-0,070	-0,079
-163,037	33,643	-0,068	0,043
-162,023	113,788	0,113	-0,099
-161,008	-1,786	0,113	0,057
-159,993	160,358	0,064	-0,064
-158,979	139,250	-0,036	-0,034
-157,964	-200,000	-0,012	-0,099
-156,950	542,287	0,054	-0,093
-155,935	-200,000	0,008	-0,027
-154,920	800,000	0,017	-0,047
-153,906	133,044	0,095	0,089
-152,891	6,760	-0,126	0,067
-151,877	130,822	-0,067	-0,062
-150,862	73,098	0,022	0,017
-149,847	-200,000	0,003	0,033
-148,833	88,398	0,028	0,023
-147,818	-200,000	-0,006	0,098
-146,804	-171,133	0,008	0,000
-145,789	800,000	0,023	0,055
-144,775	138,907	-0,127	-0,120
-143,760	56,491	0,123	-0,086
-142,745	800,000	0,019	0,043
-141,731	-200,000	0,021	0,110
-140,716	390,313	-0,049	0,073
-139,702	104,667	0,064	0,054
-138,687	324,408	0,018	0,025
-137,672	800,000	0,024	0,060
-136,658	-200,000	0,010	-0,111
-135,643	-15,173	0,141	-0,065
-134,629	-22,212	0,048	0,021
-133,614	-33,320	0,042	0,017
-132,599	-18,202	0,100	-0,045
-131,585	263,276	-0,028	0,035
-130,570	520,798	0,064	0,108
-129,556	449,096	-0,065	-0,103
-128,541	-171,729	0,153	0,004
-127,526	618,240	-0,108	0,196
-126,512	-200,000	-0,016	-0,060
-125,497	150,175	0,109	0,106
-124,483	115,707	0,125	0,110
-123,468	-103,548	-0,096	-0,016
-122,453	452,897	-0,038	-0,061
-121,439	8,123	-0,106	-0,057
-120,424	-45,230	-0,079	-0,028
-119,410	152,772	-0,040	0,039
-118,395	-200,000	0,007	0,130
