DTS Sentinel unit serial number:	SN410029Multiplexer serial number:	ORYXHardware model number:	OX2-SRSoftware version number:	ORYX F/W v4,00 Oryx Data Collector v3.7.2.0data status	okinstallation	B5 Nyhavnadifferential loss correction	single-endedforward channel	channel 2reverse channel	N/Adate	2023/12/11time	16:27:13forward acquisition time	300,00reverse acquisition time	0,00gamma	499,1914k internal	0,3166k external	0,3166temperature offset calibration	1,0000default loss term (dB/km)	0,3820temperature slope calibration	1,0000multiplexer offset coefficient	1,0000multiplexer slope coefficient	1,0000fibre end	0,00T internal ref (°C)	14,02T ext. ref 1 (°C)	-0,94T ext. ref 2 (°C)	-0,96length (m)	temperature (°C)	Stokes	anti-Stokes-744,400	73,472	0,125	-0,096
-743,385	-148,258	-0,300	-0,018
-742,371	-62,512	0,152	0,046
-741,356	-10,753	-0,246	0,119
-740,342	-129,327	0,206	0,021
-739,327	-151,811	-0,341	-0,018
-738,312	-78,350	0,132	0,033
-737,298	-2,250	-0,263	0,135
-736,283	747,895	0,047	-0,094
-735,269	-76,700	-0,150	0,038
-734,254	349,429	0,115	0,168
-733,239	-52,646	-0,422	-0,142
-732,225	-46,079	0,127	0,046
-731,210	800,000	-0,010	-0,021
-730,196	800,000	0,017	-0,037
-729,181	10,780	-0,084	-0,047
-728,167	68,297	0,142	-0,107
-727,152	-200,000	-0,012	-0,104
-726,137	-47,894	-0,097	-0,034
-725,123	164,672	-0,139	-0,144
-724,108	-103,659	-0,139	-0,024
-723,094	96,245	-0,077	-0,065
-722,079	800,000	-0,041	0,123
-721,064	800,000	0,012	-0,035
-720,050	800,000	0,029	0,095
-719,035	782,196	0,073	0,147
-718,021	-133,575	-0,062	0,006
-717,006	202,023	-0,122	-0,139
-715,991	64,373	0,108	-0,080
-714,977	170,289	-0,147	-0,155
-713,962	-85,532	0,048	0,011
-712,948	137,158	0,017	0,016
-711,933	-38,309	-0,019	-0,007
-710,918	-37,854	-0,149	0,058
-709,904	-200,000	0,009	-0,090
-708,889	800,000	-0,044	0,095
-707,875	-16,202	-0,069	0,032
-706,860	12,060	-0,087	0,049
-705,845	-200,000	-0,034	0,125
-704,831	-200,000	-0,020	0,122
-703,816	-164,854	0,017	-0,001
-702,802	-200,000	-0,034	0,121
-701,787	17,955	0,044	-0,026
-700,772	45,947	0,028	-0,019
-699,758	-8,904	-0,088	0,043
-698,743	194,284	-0,130	0,145
-697,729	-200,000	-0,001	0,026
-696,714	-200,000	0,011	-0,091
-695,699	451,891	-0,069	-0,113
-694,685	-200,000	0,015	0,095
-693,670	-103,088	-0,111	-0,019
-692,656	800,000	0,038	0,089
-691,641	-83,359	0,129	0,030
-690,627	-7,594	0,097	0,048
-689,612	-113,921	-0,102	0,014
-688,597	202,292	0,031	-0,035
-687,583	-95,424	0,035	0,007
-686,568	-34,063	-0,102	-0,041
-685,554	44,616	-0,024	-0,016
-684,539	-79,286	-0,060	0,015
-683,524	-194,065	-0,035	0,000
-682,510	-200,000	0,002	0,128
-681,495	-200,000	-0,007	-0,048
-680,481	-134,936	-0,143	-0,012
-679,466	3,703	-0,125	-0,067
-678,451	-200,000	-0,021	-0,087
-677,437	82,545	0,057	0,045
-676,422	800,000	0,042	-0,092
-675,408	343,011	-0,039	0,056
-674,393	-59,338	-0,065	0,020
-673,378	481,643	0,054	-0,090
-672,364	800,000	-0,023	-0,063
-671,349	100,342	-0,022	-0,018
-670,335	-200,000	-0,037	-0,138
-669,320	-200,000	-0,009	0,050
-668,305	800,000	0,026	0,079
-667,291	163,540	0,117	0,121
-666,276	-104,853	-0,171	-0,028
-665,262	-164,696	-0,090	0,003
-664,247	-200,000	-0,003	-0,108
-663,232	-89,103	-0,152	-0,033
-662,218	466,648	-0,031	0,051
-661,203	800,000	0,031	-0,095
-660,189	-65,472	-0,125	0,037
-659,174	-200,000	0,053	-0,211
-658,159	-119,690	-0,118	0,015
-657,145	800,000	-0,012	0,030
-656,130	-90,892	0,125	0,026
-655,116	-200,000	-0,006	0,036
-654,101	64,080	0,077	0,057
-653,086	458,797	-0,067	0,109
-652,072	141,307	-0,072	-0,070
-651,057	-200,000	-0,027	-0,154
-650,043	16,316	0,086	0,050
-649,028	-49,384	-0,003	-0,001
-648,014	-34,648	0,086	0,034
-646,999	272,638	0,175	0,227
-645,984	-125,832	-0,061	0,007
-644,970	800,000	-0,042	0,109
-643,955	253,618	-0,050	-0,062
-642,941	61,582	0,095	-0,069
-641,926	203,844	-0,096	-0,109
-640,911	167,709	0,118	-0,123
-639,897	-67,489	-0,087	-0,025
-638,882	-94,321	0,137	0,027
-637,868	752,867	0,047	-0,093
-636,853	-101,848	-0,092	-0,016
-635,838	-200,000	-0,046	-0,223
-634,824	419,264	-0,129	-0,202
-633,809	-200,000	-0,012	-0,060
-632,795	325,712	0,046	0,065
-631,780	-148,309	-0,039	0,002
-630,765	-107,614	-0,194	-0,031
-629,751	800,000	-0,025	-0,053
-628,736	-1,078	-0,102	-0,052
-627,722	-117,011	0,019	0,003
-626,707	-200,000	0,009	-0,071
-625,692	240,243	0,140	0,171
-624,678	-111,511	-0,036	0,005
-623,663	-37,516	0,055	0,021
-622,649	-200,000	-0,016	-0,091
-621,634	-200,000	-0,010	-0,097
-620,619	-200,000	0,006	0,057
-619,605	432,806	0,058	0,092
-618,590	106,000	-0,099	0,086
-617,576	92,768	0,025	0,021
-616,561	307,545	-0,074	0,102
-615,546	-80,092	-0,083	0,020
-614,532	800,000	-0,008	0,026
-613,517	-130,654	-0,084	0,008
-612,503	381,201	0,051	-0,076
-611,488	154,129	0,122	0,123
-610,474	361,023	0,064	0,094
-609,459	171,332	-0,037	-0,038
-608,444	45,654	-0,126	-0,085
-607,430	122,379	0,105	0,096
-606,415	-40,414	0,024	-0,009
-605,401	65,048	0,012	0,009
-604,386	-48,982	-0,034	-0,012
-603,371	190,814	-0,041	0,046
-602,357	800,000	-0,016	0,045
-601,342	-200,000	0,016	0,110
-600,328	800,000	-0,006	0,017
-599,313	733,045	0,061	-0,120
-598,298	800,000	0,029	0,091
-597,284	299,586	-0,086	0,116
-596,269	285,968	-0,059	-0,078
-595,255	-101,217	-0,069	-0,012
-594,240	-62,380	0,043	-0,013
-593,225	17,220	0,067	-0,039
-592,211	-200,000	-0,004	-0,077
-591,196	-5,311	-0,010	0,005
-590,182	-113,919	0,015	-0,002
-589,167	-200,000	-0,006	0,024
-588,152	-200,000	0,021	0,076
-587,138	116,016	0,057	0,051
-586,123	249,614	-0,047	0,059
-585,109	243,336	-0,027	0,033
-584,094	800,000	-0,045	0,105
-583,079	-102,213	-0,043	-0,008
-582,065	269,081	0,052	0,067
-581,050	92,839	0,068	-0,056
-580,036	800,000	0,027	-0,074
-579,021	800,000	-0,021	-0,047
-578,006	-57,442	-0,166	-0,053
-576,992	288,132	0,087	-0,116
-575,977	-200,000	0,020	0,135
-574,963	-118,275	0,054	-0,007
-573,948	446,906	-0,003	0,005
-572,934	800,000	0,008	-0,025
-571,919	-85,343	-0,078	-0,018
-570,904	27,485	-0,145	-0,089
-569,890	-94,666	0,149	0,029
-568,875	-200,000	-0,001	-0,059
-567,861	295,581	0,086	0,116
-566,846	-200,000	0,005	0,071
-565,831	-188,700	-0,088	-0,001
-564,817	-183,586	-0,126	0,002
-563,802	310,893	-0,085	0,116
-562,788	26,585	0,093	-0,057
-561,773	-168,013	-0,136	-0,004
-560,758	800,000	0,039	0,114
-559,744	145,275	-0,054	0,052
-558,729	-200,000	-0,023	-0,109
-557,715	459,167	-0,039	-0,064
-556,700	-151,340	-0,092	-0,005
-555,685	-200,000	0,013	-0,046
-554,671	-200,000	0,012	0,086
-553,656	48,373	0,139	0,095
-552,642	148,697	-0,043	0,043
-551,627	422,814	-0,039	0,062
-550,612	-200,000	-0,008	-0,060
-549,598	800,000	-0,025	-0,051
-548,583	-131,298	0,054	-0,005
-547,569	-200,000	0,026	0,139
-546,554	118,384	0,055	0,050
-545,539	200,779	-0,025	0,028
-544,525	-200,000	-0,011	0,065
-543,510	140,857	-0,049	-0,047
-542,496	-74,912	-0,034	-0,009
-541,481	800,000	-0,062	-0,186
-540,466	-21,841	0,144	0,064
-539,452	800,000	0,045	-0,092
-538,437	-135,730	-0,161	0,014
-537,423	-45,664	-0,083	0,030
-536,408	-115,782	-0,031	-0,004
-535,393	41,988	-0,046	-0,030
-534,379	-200,000	0,006	-0,081
-533,364	-77,985	-0,139	-0,035
-532,350	-10,311	0,129	0,062
-531,335	-147,820	0,056	0,003
-530,321	-47,898	-0,210	-0,074
-529,306	-100,812	0,175	0,031
-528,291	111,203	0,103	-0,090
-527,277	-125,254	0,051	-0,006
-526,262	-200,000	0,007	-0,070
-525,248	-96,834	0,067	0,013
-524,233	-200,000	-0,003	-0,099
-523,218	-42,209	-0,024	0,009
-522,204	304,133	0,090	-0,122
-521,189	3,868	0,136	-0,072
-520,175	413,390	-0,090	-0,140
-519,160	800,000	-0,031	-0,077
-518,145	-50,472	-0,081	-0,028
-517,131	-157,416	0,188	0,008
-516,116	-1,549	0,054	0,028
-515,102	-125,619	-0,192	-0,021
-514,087	800,000	0,057	0,149
-513,072	733,753	-0,089	-0,174
-512,058	-200,000	-0,048	0,161
-511,043	183,994	0,015	0,016
-510,029	236,246	0,013	-0,016
-509,014	-138,390	-0,056	-0,004
-507,999	-98,815	0,150	0,028
-506,985	221,447	-0,073	0,085
-505,970	-6,561	-0,111	-0,055
-504,956	357,432	-0,033	-0,048
-503,941	800,000	-0,004	0,011
-502,926	35,258	0,070	-0,045
-501,912	-200,000	0,014	-0,077
-500,897	-200,000	-0,019	0,118
-499,883	69,965	0,083	-0,062
-498,868	1,170	-0,100	-0,052
-497,853	-139,098	-0,135	0,011
-496,839	-200,000	0,000	-0,016
-495,824	-86,090	0,188	-0,042
-494,810	-82,588	-0,006	-0,001
-493,795	800,000	-0,018	0,038
-492,781	-200,000	-0,030	0,122
-491,766	-80,542	-0,181	-0,044
-490,751	-200,000	0,042	-0,138
-489,737	133,893	0,010	0,009
-488,722	60,310	-0,103	0,074
-487,708	123,426	0,140	0,128
-486,693	-84,637	-0,140	0,032
-485,678	-200,000	0,018	0,171
-484,664	58,107	0,038	0,027
-483,649	492,576	0,039	-0,065
-482,635	-144,298	0,107	0,007
-481,620	42,349	0,058	-0,038
-480,605	-141,218	-0,101	-0,007
-479,591	210,270	-0,070	-0,080
-478,576	-57,528	-0,114	-0,036
-477,562	52,460	-0,019	-0,013
-476,547	800,000	0,054	-0,127
-475,532	800,000	-0,022	0,050
-474,518	-200,000	-0,015	0,204
-473,503	-29,231	-0,025	-0,010
-472,489	-200,000	-0,014	0,092
-471,474	285,168	-0,043	0,056
-470,459	-200,000	0,000	0,057
-469,445	59,018	-0,036	-0,026
-468,430	-139,939	0,115	0,009
-467,416	-124,191	0,094	0,011
-466,401	-158,414	0,047	0,002
-465,386	-173,539	0,067	0,001
-464,372	-200,000	0,015	0,097
-463,357	-200,000	0,016	-0,057
-462,343	-200,000	0,003	-0,014
-461,328	-200,000	0,002	0,061
-460,313	-105,488	0,102	0,017
-459,299	-152,369	-0,087	-0,005
-458,284	-200,000	0,012	0,179
-457,270	-108,954	-0,121	-0,019
-456,255	800,000	-0,041	-0,096
-455,241	-200,000	0,007	0,079
-454,226	448,736	0,044	-0,071
-453,211	188,812	0,045	-0,049
-452,197	-200,000	-0,021	0,111
-451,182	132,022	0,053	0,049
-450,168	-76,867	0,075	0,019
-449,153	3,875	0,011	0,006
-448,138	-200,000	-0,049	-0,202
-447,124	132,379	0,027	-0,025
-446,109	285,205	-0,023	0,030
-445,095	70,994	0,026	-0,020
-444,080	-25,965	0,145	0,062
-443,065	-200,000	0,008	-0,053
-442,051	476,784	-0,048	-0,080
-441,036	800,000	-0,011	0,030
-440,022	-64,270	-0,047	0,014
-439,007	-60,251	0,106	-0,032
-437,992	-200,000	0,001	-0,037
-436,978	800,000	0,046	0,111
-435,963	800,000	-0,017	0,046
-434,949	101,506	-0,039	0,033
-433,934	-87,105	-0,072	-0,016
-432,919	-129,789	0,018	0,002
-431,905	-76,043	0,092	0,023
-430,890	105,915	0,026	-0,022
-429,876	800,000	0,056	0,140
-428,861	-200,000	-0,028	0,153
-427,846	-200,000	0,002	0,170
-426,832	-200,000	-0,000	-0,032
-425,817	71,521	0,086	-0,065
-424,803	-17,775	-0,004	-0,002
-423,788	-132,346	-0,049	-0,005
-422,773	479,468	-0,048	0,079
-421,759	202,427	0,014	-0,016
-420,744	-200,000	-0,047	0,167
-419,730	-159,556	-0,087	0,003
-418,715	14,488	-0,035	0,020
-417,701	-200,000	-0,002	-0,087
-416,686	8,700	0,136	0,074
-415,671	64,147	0,066	-0,048
-414,657	60,776	0,083	0,060
-413,642	-122,590	-0,057	-0,007
-412,628	-200,000	-0,013	0,100
-411,613	800,000	-0,023	0,056
-410,598	-97,195	-0,120	0,023
-409,584	37,743	0,085	-0,055
-408,569	-178,170	0,082	-0,001
-407,555	-102,372	-0,135	0,023
-406,540	44,193	-0,128	0,085
-405,525	-37,622	0,039	-0,015
-404,511	-200,000	0,011	-0,048
-403,496	-80,836	-0,057	0,014
-402,482	119,557	-0,040	0,036
-401,467	-115,235	0,016	-0,002
-400,452	-107,937	0,209	-0,033
-399,438	13,212	0,130	-0,073
-398,423	-116,578	-0,059	-0,008
-397,409	-196,042	-0,041	0,000
-396,394	125,320	0,106	0,097
-395,379	535,484	0,047	-0,082
-394,365	800,000	-0,016	0,037
-393,350	367,354	0,042	-0,062
-392,336	800,000	0,048	0,130
-391,321	800,000	-0,042	-0,105
-390,306	-4,881	0,061	-0,030
-389,292	20,479	-0,012	0,007
-388,277	-200,000	-0,017	0,075
-387,263	-75,795	0,095	-0,024
-386,248	-200,000	0,002	0,056
-385,233	800,000	-0,050	0,153
-384,219	-63,987	-0,148	0,044
-383,204	-72,990	0,031	-0,008
-382,190	127,841	-0,067	0,061
-381,175	520,991	0,042	-0,072
-380,160	262,142	-0,052	-0,066
-379,146	38,333	0,081	0,052
-378,131	363,329	-0,070	-0,102
-377,117	-200,000	-0,034	0,197
-376,102	293,828	-0,075	0,099
-375,088	-99,449	0,047	-0,008
-374,073	800,000	0,012	0,032
-373,058	147,018	0,067	0,065
-372,044	800,000	-0,083	0,229
-371,029	-200,000	-0,023	0,124
-370,015	-38,769	-0,063	0,024
-369,000	-200,000	0,025	-0,135
-367,985	132,704	-0,051	-0,048
-366,971	-200,000	-0,016	0,209
-365,956	-105,370	0,157	0,026
-364,942	370,600	0,077	-0,113
-363,927	446,702	-0,062	0,099
-362,912	704,104	0,071	-0,136
-361,898	800,000	0,012	0,032
-360,883	800,000	0,031	-0,065
-359,869	800,000	-0,050	-0,146
-358,854	-4,228	0,065	0,032
-357,839	199,866	0,012	0,014
-356,825	-43,920	-0,069	0,025
-355,810	-58,404	0,180	-0,056
-354,796	-55,767	-0,014	-0,005
-353,781	-61,841	-0,134	-0,040
-352,766	-200,000	-0,011	0,037
-351,752	269,222	-0,054	0,069
-350,737	78,127	0,059	0,046
-349,723	-43,535	0,092	-0,034
-348,708	-200,000	0,011	0,083
-347,693	243,484	-0,070	0,085
-346,679	311,403	-0,065	0,088
-345,664	365,714	-0,068	-0,100
-344,650	-133,355	-0,138	-0,012
-343,635	-75,574	0,028	0,007
-342,620	-97,508	0,112	0,021
-341,606	-107,347	-0,118	0,019
-340,591	800,000	-0,026	0,064
-339,577	34,373	0,043	0,027
-338,562	182,043	-0,101	0,108
-337,548	-200,000	-0,005	-0,022
-336,533	-151,026	0,057	-0,003
-335,518	623,356	0,068	0,125
-334,504	149,223	0,011	-0,010
-333,489	-66,572	-0,130	0,037
-332,475	-25,174	-0,054	-0,023
-331,460	238,187	0,046	0,055
-330,445	-200,000	-0,008	-0,157
-329,431	11,904	0,173	-0,096
-328,416	362,522	-0,013	0,018
-327,402	-102,821	-0,026	-0,005
-326,387	-200,000	0,003	-0,084
-325,372	122,486	-0,077	-0,069
-324,358	4,867	-0,099	0,053
-323,343	461,517	0,019	0,031
-322,329	800,000	0,051	0,105
-321,314	40,534	0,048	-0,031
-320,299	800,000	-0,032	-0,077
-319,285	-101,879	0,054	0,009
-318,270	128,493	0,114	0,105
-317,256	-200,000	0,038	-0,173
-316,241	136,577	-0,079	-0,075
-315,226	193,632	0,065	0,071
-314,212	551,539	0,070	-0,122
-313,197	613,951	-0,077	-0,139
-312,183	-200,000	-0,026	-0,125
-311,168	224,269	0,069	-0,080
-310,153	183,615	-0,057	-0,061
-309,139	-11,559	-0,031	-0,015
-308,124	52,347	-0,090	-0,062
-307,110	107,976	0,077	0,066
-306,095	-200,000	0,041	-0,182
-305,080	5,279	0,086	-0,046
-304,066	29,684	0,016	0,010
-303,051	-6,453	-0,133	-0,066
-302,037	55,166	-0,114	-0,080
-301,022	116,148	0,023	0,020
-300,008	-63,890	0,057	-0,017
-298,993	-67,681	0,125	0,035
-297,978	151,533	0,093	-0,092
-296,964	-57,067	-0,090	-0,028
-295,949	-130,716	0,037	0,004
-294,935	121,570	-0,124	-0,112
-293,920	-200,000	0,011	-0,049
-292,905	72,578	0,109	0,082
-291,891	-200,000	-0,010	0,078
-290,876	179,980	0,025	0,026
-289,862	-133,012	-0,052	0,005
-288,847	196,287	-0,101	-0,112
-287,832	478,336	0,045	0,074
-286,818	109,405	0,040	0,035
-285,803	85,946	0,184	0,146
-284,789	-91,792	-0,102	-0,021
-283,774	-80,915	-0,009	0,002
-282,759	116,948	-0,009	0,008
-281,745	-200,000	-0,007	0,047
-280,730	-53,249	-0,060	-0,020
-279,716	-99,191	0,033	0,006
-278,701	800,000	0,037	0,089
-277,686	-200,000	-0,031	0,111
-276,672	78,498	-0,042	0,032
-275,657	46,543	0,072	0,048
-274,643	776,659	0,054	-0,107
-273,628	-200,000	-0,022	-0,146
-272,613	234,538	-0,048	-0,058
-271,599	45,172	-0,087	-0,058
-270,584	-52,703	-0,091	0,030
-269,570	234,492	0,027	0,033
-268,555	-86,839	0,088	0,019
-267,540	251,665	-0,059	0,072
-266,526	112,696	-0,029	0,026
-265,511	800,000	-0,033	-0,100
-264,497	154,641	-0,080	-0,080
-263,482	-128,627	-0,116	0,012
-262,467	-10,247	0,076	-0,036
-261,453	4,964	-0,051	0,027
-260,438	72,445	-0,064	0,048
-259,424	169,757	-0,098	-0,101
-258,409	-59,055	0,085	0,026
-257,395	800,000	0,007	-0,017
-256,380	97,705	0,091	-0,075
-255,365	220,427	0,014	0,016
-254,351	74,679	0,016	0,012
-253,336	-101,585	0,056	-0,010
-252,322	166,362	-0,055	0,057
-251,307	800,000	-0,015	0,041
-250,292	61,205	-0,018	0,013
-249,278	-200,000	-0,009	-0,098
-248,263	136,741	0,084	0,080
-247,249	-80,106	0,113	0,027
-246,234	82,957	0,027	-0,021
-245,219	-142,051	0,026	0,002
-244,205	42,448	-0,067	0,044
-243,190	-88,212	-0,015	0,003
-242,176	-118,205	0,061	0,008
-241,161	301,179	0,046	-0,061
-240,146	-137,375	0,076	-0,006
-239,132	-38,687	0,044	0,017
-238,117	88,897	-0,027	-0,021
-237,103	534,690	-0,076	-0,131
-236,088	42,179	-0,116	0,076
-235,073	-200,000	0,040	0,127
-234,059	299,322	-0,001	-0,002
-233,044	62,264	-0,132	0,095
-232,030	171,252	-0,083	0,085
-231,015	-200,000	0,016	-0,054
-230,000	-200,000	0,009	-0,080
-228,986	-70,115	-0,102	0,028
-227,971	-200,000	-0,000	-0,022
-226,957	286,042	-0,016	-0,021
-225,942	517,874	0,086	-0,146
-224,927	-1,454	-0,164	-0,083
-223,913	648,100	0,036	-0,067
-222,898	-47,215	0,166	-0,058
-221,884	-52,409	0,128	0,042
-220,869	179,961	0,081	-0,086
-219,855	800,000	0,043	0,102
-218,840	-116,006	0,150	0,020
-217,825	-72,886	-0,070	0,018
-216,811	800,000	0,016	0,035
-215,796	-53,171	-0,029	0,009
-214,782	-200,000	0,026	-0,166
-213,767	-64,918	-0,050	-0,015
-212,752	-27,451	0,119	-0,050
-211,738	-52,515	0,084	-0,028
-210,723	490,305	0,071	0,118
-209,709	154,802	-0,043	-0,043
-208,694	800,000	0,037	-0,091
-207,679	88,770	-0,020	0,016
-206,665	-200,000	-0,009	0,086
-205,650	800,000	-0,043	0,100
-204,636	99,768	-0,054	-0,045
-203,621	-50,478	0,037	-0,012
-202,606	112,809	0,058	0,050
-201,592	-200,000	0,003	-0,072
-200,577	378,693	-0,095	-0,140
-199,563	-112,858	0,079	-0,011
-198,548	-200,000	-0,006	0,054
-197,533	-200,000	0,006	-0,073
-196,519	-19,060	0,068	-0,030
-195,504	-200,000	0,000	-0,159
-194,490	506,584	-0,027	-0,046
-193,475	-200,000	0,011	0,079
-192,460	-200,000	0,017	0,101
-191,446	-85,005	-0,070	-0,016
-190,431	42,761	0,076	-0,049
-189,417	227,326	-0,139	-0,163
-188,402	26,429	-0,046	-0,028
-187,387	-104,733	-0,091	0,015
-186,373	44,273	0,036	0,024
-185,358	82,665	-0,026	0,020
-184,344	-35,866	0,150	-0,058
-183,329	-6,130	0,011	-0,005
-182,315	338,118	-0,075	-0,105
-181,300	294,275	-0,049	-0,065
-180,285	74,983	-0,150	-0,113
-179,271	116,864	-0,150	-0,133
-178,256	-93,338	-0,053	-0,010
-177,242	-200,000	0,011	0,050
-176,227	-4,827	-0,066	0,033
-175,212	-12,169	0,087	0,041
-174,198	-36,496	0,068	-0,026
-173,183	800,000	-0,020	-0,044
-172,169	123,827	-0,039	-0,035
-171,154	1,117	-0,042	0,021
-170,139	290,237	0,063	0,082
-169,125	-200,000	0,002	-0,096
-168,110	-51,128	0,084	-0,028
-167,096	4,421	0,190	0,100
-166,081	-66,952	-0,109	-0,031
-165,066	-200,000	-0,008	0,029
-164,052	629,509	0,051	0,093
-163,037	180,609	0,106	-0,112
-162,023	268,579	0,052	0,066
-161,008	-121,186	0,094	-0,011
-159,993	189,536	-0,033	-0,036
-158,979	-8,231	-0,027	0,013
-157,964	171,628	-0,026	0,027
-156,950	188,743	0,065	-0,070
-155,935	487,228	0,068	0,113
-154,920	-154,478	-0,093	-0,004
-153,906	728,527	0,042	0,081
-152,891	210,091	0,010	-0,012
-151,877	179,963	0,040	-0,042
-150,862	92,458	-0,149	-0,120
-149,847	-17,994	0,100	-0,045
-148,833	-200,000	0,003	-0,044
-147,818	-94,913	-0,115	0,022
-146,804	105,865	0,020	0,017
-145,789	-7,103	-0,064	-0,031
-144,775	-200,000	-0,018	-0,071
-143,760	239,703	0,112	-0,134
-142,745	-30,349	-0,024	0,010
-141,731	800,000	-0,050	0,133
-140,716	-42,422	0,045	-0,016
-139,702	-200,000	0,001	0,086
-138,687	136,400	-0,078	0,073
-137,672	518,073	0,036	0,060
-136,658	-200,000	-0,010	-0,188
-135,643	119,120	0,054	0,048
-134,629	-63,165	0,067	-0,020
-133,614	-158,442	0,068	0,003
-132,599	40,767	0,016	0,010
-131,585	-200,000	0,019	0,138
-130,570	-62,208	0,106	-0,031
-129,556	-4,919	-0,093	0,046
-128,541	-77,263	-0,197	0,049
-127,526	126,331	0,093	0,085
-126,512	-117,045	-0,054	-0,007
-125,497	-200,000	0,001	0,029
-124,483	-58,400	-0,046	0,014
-123,468	-200,000	-0,030	0,168
-122,453	800,000	0,049	0,105
-121,439	586,338	-0,056	-0,100
-120,424	-200,000	-0,007	0,045
-119,410	-28,050	0,107	-0,044
