DTS Sentinel unit serial number:	SN410029Multiplexer serial number:	ORYXHardware model number:	OX2-SRSoftware version number:	ORYX F/W v4,00 Oryx Data Collector v3.7.2.0data status	okinstallation	B5 Nyhavnadifferential loss correction	single-endedforward channel	channel 2reverse channel	N/Adate	2023/12/12time	15:47:13forward acquisition time	300,00reverse acquisition time	0,00gamma	499,1914k internal	0,3156k external	0,3156temperature offset calibration	1,0000default loss term (dB/km)	0,3820temperature slope calibration	1,0000multiplexer offset coefficient	1,0000multiplexer slope coefficient	1,0000fibre end	0,00T internal ref (°C)	15,93T ext. ref 1 (°C)	-0,48T ext. ref 2 (°C)	-0,75length (m)	temperature (°C)	Stokes	anti-Stokes-744,400	334,263	0,035	-0,050
-743,385	-154,102	-0,284	-0,014
-742,371	-137,471	0,164	0,013
-741,356	-105,193	-0,207	0,035
-740,342	618,878	-0,013	0,025
-739,327	22,076	-0,134	0,080
-738,312	133,340	0,078	-0,074
-737,298	-158,193	-0,278	-0,012
-736,283	462,591	0,027	-0,044
-735,269	-111,916	-0,156	0,023
-734,254	-130,498	0,116	0,011
-733,239	-9,316	-0,390	-0,191
-732,225	-155,311	0,122	0,006
-731,210	-76,846	-0,175	-0,045
-730,196	275,937	0,040	-0,053
-729,181	-200,000	0,015	0,049
-728,167	800,000	0,027	-0,071
-727,152	10,317	-0,103	0,057
-726,137	-200,000	0,039	-0,132
-725,123	-200,000	-0,029	-0,140
-724,108	590,829	-0,048	-0,087
-723,094	424,380	-0,053	-0,085
-722,079	800,000	-0,045	-0,112
-721,064	-200,000	-0,030	-0,162
-720,050	-200,000	0,025	-0,081
-719,035	721,603	-0,021	0,042
-718,021	-91,654	-0,097	0,020
-717,006	800,000	0,039	-0,122
-715,991	159,833	0,074	-0,076
-714,977	800,000	0,052	-0,146
-713,962	800,000	-0,030	-0,085
-712,948	-131,359	0,092	0,009
-711,933	-200,000	-0,007	0,071
-710,918	-200,000	-0,009	0,133
-709,904	-200,000	-0,023	-0,084
-708,889	-18,299	-0,240	-0,110
-707,875	35,469	0,057	0,037
-706,860	-66,271	-0,154	-0,045
-705,845	-200,000	0,013	0,123
-704,831	-200,000	0,003	0,110
-703,816	43,455	0,178	0,120
-702,802	659,690	0,019	0,037
-701,787	-132,945	0,048	0,004
-700,772	-121,832	-0,179	0,021
-699,758	800,000	0,027	-0,076
-698,743	-200,000	0,005	0,040
-697,729	-42,982	-0,151	0,056
-696,714	-200,000	0,014	0,067
-695,699	-200,000	-0,007	-0,146
-694,685	198,684	0,068	-0,077
-693,670	-121,289	-0,044	0,005
-692,656	759,638	0,121	-0,243
-691,641	42,498	0,085	0,057
-690,627	-200,000	0,030	0,119
-689,612	-112,227	-0,084	-0,012
-688,597	94,906	-0,109	-0,091
-687,583	-200,000	-0,010	-0,077
-686,568	-200,000	0,000	0,094
-685,554	371,152	0,062	-0,093
-684,539	-64,108	0,052	-0,016
-683,524	78,504	-0,052	-0,041
-682,510	-200,000	-0,008	-0,073
-681,495	469,947	0,054	-0,090
-680,481	506,503	-0,086	-0,148
-679,466	-178,753	-0,020	0,000
-678,451	-67,264	0,009	0,003
-677,437	26,728	0,154	-0,094
-676,422	582,669	0,080	-0,145
-675,408	30,518	-0,027	-0,017
-674,393	3,176	-0,101	-0,054
-673,378	-200,000	-0,001	-0,069
-672,364	800,000	0,040	-0,087
-671,349	693,322	-0,018	-0,034
-670,335	57,742	0,062	-0,045
-669,320	800,000	-0,072	0,220
-668,305	-28,827	-0,006	-0,002
-667,291	132,411	0,088	-0,084
-666,276	116,202	-0,049	0,044
-665,262	800,000	0,016	0,041
-664,247	800,000	0,033	-0,069
-663,232	-200,000	0,029	-0,120
-662,218	-200,000	0,015	-0,150
-661,203	693,008	-0,024	-0,047
-660,189	335,343	0,055	-0,078
-659,174	-13,700	-0,070	0,033
-658,159	-200,000	0,026	-0,112
-657,145	-30,091	-0,080	-0,033
-656,130	20,238	-0,109	-0,064
-655,116	800,000	0,053	-0,107
-654,101	651,152	-0,031	-0,059
-653,086	30,466	-0,044	-0,028
-652,072	-200,000	0,005	-0,055
-651,057	-59,559	0,068	0,021
-650,043	10,776	0,093	0,052
-649,028	132,839	0,075	0,071
-648,014	-19,800	-0,086	0,039
-646,999	525,198	-0,045	0,078
-645,984	-176,410	-0,076	-0,001
-644,970	-106,510	0,070	-0,011
-643,955	-200,000	0,004	-0,064
-642,941	-200,000	0,002	0,083
-641,926	-51,018	-0,074	-0,025
-640,911	-200,000	-0,000	-0,061
-639,897	-131,397	0,105	0,010
-638,882	800,000	0,048	0,116
-637,868	-59,419	0,036	0,011
-636,853	800,000	0,036	0,112
-635,838	21,529	-0,152	0,090
-634,824	-24,181	-0,164	0,072
-633,809	-30,190	-0,033	-0,014
-632,795	134,606	0,052	0,049
-631,780	69,608	0,091	0,069
-630,765	63,376	-0,099	-0,073
-629,751	-56,625	-0,123	0,040
-628,736	462,254	-0,042	-0,069
-627,722	416,084	-0,022	-0,034
-626,707	134,878	0,038	-0,036
-625,692	-200,000	0,026	-0,092
-624,678	235,612	0,032	-0,039
-623,663	-200,000	0,004	-0,055
-622,649	-200,000	-0,001	-0,025
-621,634	320,498	0,075	-0,105
-620,619	110,811	-0,107	0,094
-619,605	-26,577	0,104	0,045
-618,590	129,268	-0,125	-0,117
-617,576	169,957	0,025	0,027
-616,561	35,831	0,032	0,020
-615,546	445,470	-0,009	0,014
-614,532	-36,639	-0,056	-0,022
-613,517	210,999	-0,010	0,011
-612,503	-200,000	-0,008	-0,052
-611,488	680,070	0,040	0,078
-610,474	301,421	-0,031	-0,041
-609,459	800,000	0,029	0,084
-608,444	-200,000	-0,033	-0,135
-607,430	47,995	-0,040	0,027
-606,415	93,818	0,025	0,021
-605,401	-200,000	-0,008	-0,106
-604,386	27,242	0,095	0,058
-603,371	-49,691	0,142	0,049
-602,357	-72,511	-0,110	0,029
-601,342	111,559	0,028	-0,025
-600,328	800,000	0,041	0,097
-599,313	10,074	-0,033	-0,018
-598,298	-200,000	-0,003	-0,103
-597,284	68,173	0,091	0,068
-596,269	-41,221	0,239	0,090
-595,255	-200,000	-0,004	0,126
-594,240	117,187	-0,076	0,069
-593,225	24,770	-0,185	-0,112
-592,211	-119,394	-0,207	-0,026
-591,196	393,757	0,100	-0,152
-590,182	8,067	0,030	0,016
-589,167	800,000	0,051	0,136
-588,152	800,000	-0,043	0,110
-587,138	516,639	0,056	-0,096
-586,123	-36,622	-0,047	-0,019
-585,109	3,208	-0,094	-0,050
-584,094	-22,014	-0,048	-0,021
-583,079	800,000	-0,046	-0,110
-582,065	-117,726	-0,147	-0,019
-581,050	761,068	0,002	-0,005
-580,036	-110,253	0,074	0,011
-579,021	800,000	0,028	-0,075
-578,006	101,583	-0,102	-0,087
-576,992	-200,000	0,006	0,051
-575,977	435,650	0,092	-0,148
-574,963	100,871	-0,096	0,082
-573,948	-200,000	0,019	0,073
-572,934	11,639	-0,064	-0,036
-571,919	-1,338	-0,092	-0,047
-570,904	-99,095	0,131	-0,024
-569,890	21,643	-0,075	0,044
-568,875	-36,374	0,077	0,030
-567,861	-200,000	0,016	-0,057
-566,846	-63,905	0,079	0,024
-565,831	-75,356	-0,083	0,021
-564,817	-200,000	-0,007	-0,157
-563,802	-200,000	0,055	-0,238
-562,788	-200,000	-0,048	-0,184
-561,773	128,815	-0,083	0,077
-560,758	-133,485	0,150	-0,014
-559,744	-31,924	0,121	0,049
-558,729	-104,676	0,078	-0,013
-557,715	355,774	-0,039	0,058
-556,700	800,000	-0,023	0,051
-555,685	-200,000	0,002	-0,041
-554,671	-166,807	-0,095	-0,003
-553,656	521,615	-0,043	0,075
-552,642	-4,043	-0,216	0,109
-551,627	-48,365	-0,044	0,015
-550,612	192,743	0,046	-0,051
-549,598	98,975	-0,025	-0,021
-548,583	11,381	-0,069	-0,038
-547,569	298,621	0,060	-0,081
-546,554	253,283	0,082	-0,103
-545,539	5,991	0,021	0,011
-544,525	273,377	0,036	0,046
-543,510	800,000	0,020	0,060
-542,496	287,887	-0,060	-0,080
-541,481	45,335	-0,053	0,036
-540,466	800,000	0,024	-0,057
-539,452	481,376	-0,005	-0,008
-538,437	72,050	-0,040	0,030
-537,423	9,829	0,011	-0,006
-536,408	-200,000	0,017	0,087
-535,393	-86,757	-0,139	-0,031
-534,379	-141,622	-0,083	-0,006
-533,364	69,003	0,058	-0,044
-532,350	356,026	0,072	0,106
-531,335	800,000	-0,007	0,016
-530,321	231,070	0,099	0,118
-529,306	-11,116	-0,182	-0,088
-528,291	-80,076	-0,152	0,037
-527,277	-109,456	-0,156	-0,024
-526,262	800,000	-0,011	0,024
-525,248	-196,621	0,091	-0,000
-524,233	-9,028	0,103	0,050
-523,218	-200,000	-0,003	-0,076
-522,204	779,725	-0,049	-0,098
-521,189	-200,000	-0,008	-0,099
-520,175	-186,209	-0,126	-0,001
-519,160	197,258	-0,052	0,058
-518,145	800,000	0,013	-0,030
-517,131	-67,638	-0,065	0,019
-516,116	150,829	-0,058	0,058
-515,102	-36,059	-0,032	0,013
-514,087	-67,603	0,071	-0,020
-513,072	-200,000	-0,006	-0,036
-512,058	-103,454	0,065	0,011
-511,043	-200,000	-0,000	0,025
-510,029	-200,000	0,001	-0,057
-509,014	-200,000	0,008	0,053
-507,999	800,000	-0,052	0,117
-506,985	-123,475	0,031	-0,004
-505,970	-45,105	-0,098	0,036
-504,956	317,639	0,044	-0,061
-503,941	-2,090	-0,079	0,040
-502,926	-140,289	0,089	-0,007
-501,912	800,000	-0,017	0,037
-500,897	133,082	-0,098	0,092
-499,883	-200,000	0,004	0,050
-498,868	-126,156	-0,114	0,012
-497,853	562,181	-0,055	-0,098
-496,839	210,792	0,034	-0,039
-495,824	143,610	-0,143	0,139
-494,810	-200,000	0,015	0,097
-493,795	658,225	0,045	0,085
-492,781	0,795	-0,112	-0,059
-491,766	800,000	0,023	-0,054
-490,751	65,629	0,150	-0,111
-489,737	-8,887	0,017	-0,008
-488,722	144,594	0,114	0,112
-487,708	312,396	0,027	0,038
-486,693	-93,862	-0,115	-0,023
-485,678	22,498	-0,078	0,047
-484,664	-200,000	-0,027	-0,090
-483,649	-79,034	0,027	-0,007
-482,635	241,896	-0,129	-0,157
-481,620	39,269	0,019	0,012
-480,605	492,781	0,039	-0,065
-479,591	-23,105	0,065	0,029
-478,576	-200,000	0,011	-0,055
-477,562	478,247	0,049	-0,081
-476,547	336,249	-0,096	-0,137
-475,532	699,189	0,008	0,015
-474,518	150,583	0,101	0,101
-473,503	-20,877	0,150	-0,067
-472,489	718,167	-0,021	-0,041
-471,474	-200,000	0,014	-0,166
-470,459	-56,990	0,058	0,019
-469,445	-95,886	0,098	-0,019
-468,430	80,476	-0,119	0,094
-467,416	800,000	-0,031	-0,081
-466,401	-58,723	0,068	0,021
-465,386	536,701	-0,050	-0,086
-464,372	-200,000	-0,020	0,102
-463,357	-87,205	-0,094	-0,021
-462,343	157,508	-0,076	-0,076
-461,328	217,915	-0,054	-0,063
-460,313	-200,000	0,007	0,060
-459,299	128,830	0,042	0,039
-458,284	-98,413	0,037	0,007
-457,270	-111,397	0,230	0,034
-456,255	-200,000	-0,016	-0,116
-455,241	477,403	-0,029	0,049
-454,226	360,957	-0,031	0,045
-453,211	292,659	0,044	-0,059
-452,197	452,364	0,026	0,042
-451,182	-136,691	0,199	0,017
-450,168	113,812	-0,018	0,016
-449,153	-200,000	-0,022	0,094
-448,138	-200,000	-0,027	-0,111
-447,124	-92,715	-0,060	-0,012
-446,109	259,963	-0,095	-0,120
-445,095	-85,097	0,060	0,014
-444,080	-200,000	0,002	-0,036
-443,065	320,521	0,090	-0,125
-442,051	-102,534	-0,150	0,026
-441,036	80,949	-0,057	0,045
-440,022	800,000	-0,050	-0,156
-439,007	800,000	-0,038	-0,093
-437,992	-200,000	-0,039	0,156
-436,978	111,413	0,065	0,057
-435,963	-43,479	0,145	0,053
-434,949	800,000	-0,051	0,117
-433,934	-200,000	0,019	-0,146
-432,919	48,845	-0,082	-0,056
-431,905	603,829	-0,048	0,088
-430,890	-200,000	0,052	0,184
-429,876	445,359	0,069	0,111
-428,861	686,079	0,058	0,110
-427,846	43,291	-0,046	-0,030
-426,832	-107,223	-0,065	0,010
-425,817	95,553	0,122	-0,101
-424,803	-117,005	-0,118	-0,016
-423,788	161,656	-0,055	0,056
-422,773	-49,901	0,067	-0,023
-421,759	-200,000	0,002	0,200
-420,744	-25,015	-0,051	-0,022
-419,730	-200,000	0,025	-0,089
-418,715	-77,846	0,104	-0,026
-417,701	177,877	0,023	0,025
-416,686	-132,006	-0,107	-0,010
-415,671	-19,128	0,040	0,018
-414,657	714,495	0,029	-0,056
-413,642	540,675	-0,048	-0,083
-412,628	84,292	-0,076	-0,061
-411,613	275,882	0,105	-0,135
-410,598	88,205	0,041	0,033
-409,584	-45,826	0,029	0,010
-408,569	800,000	-0,030	0,063
-407,555	-200,000	0,043	0,212
-406,540	8,220	-0,092	0,050
-405,525	745,233	-0,028	-0,055
-404,511	194,717	-0,013	-0,015
-403,496	16,700	-0,123	-0,071
-402,482	-131,496	0,097	0,009
-401,467	119,625	-0,080	0,072
-400,452	-200,000	-0,009	0,123
-399,438	800,000	0,038	0,109
-398,423	735,189	0,024	0,047
-397,409	604,528	0,079	0,144
-396,394	-36,280	-0,021	-0,008
-395,379	48,056	0,105	-0,072
-394,365	-200,000	0,016	0,143
-393,350	-60,474	0,067	0,021
-392,336	800,000	0,083	-0,193
-391,321	-78,279	-0,098	0,024
-390,306	105,956	-0,039	-0,034
-389,292	729,276	0,035	-0,069
-388,277	-200,000	-0,006	0,169
-387,263	30,630	-0,147	0,091
-386,248	-117,240	0,064	0,008
-385,233	-200,000	0,005	-0,134
-384,219	75,015	-0,098	-0,075
-383,204	263,474	0,086	0,109
-382,190	213,670	-0,051	0,059
-381,175	-56,898	-0,035	0,011
-380,160	-200,000	0,028	0,156
-379,146	-47,508	0,125	0,044
-378,131	392,599	-0,045	0,069
-377,117	-22,721	-0,088	-0,039
-376,102	332,453	-0,092	-0,130
-375,088	237,230	-0,035	0,042
-374,073	-200,000	0,016	0,076
-373,058	354,110	0,040	0,058
-372,044	173,778	-0,039	-0,041
-371,029	229,973	0,014	0,017
-370,015	67,480	0,107	0,079
-369,000	-98,811	0,087	0,016
-367,985	-87,649	-0,130	-0,028
-366,971	-200,000	-0,055	-0,192
-365,956	-200,000	-0,006	0,029
-364,942	8,921	0,078	-0,043
-363,927	800,000	0,051	0,160
-362,912	-200,000	-0,010	-0,067
-361,898	48,249	-0,067	-0,045
-360,883	-122,575	0,184	0,021
-359,869	-12,851	0,066	-0,031
-358,854	-56,097	0,032	-0,010
-357,839	367,670	0,088	0,129
-356,825	51,600	-0,061	0,042
-355,810	60,360	-0,111	0,079
-354,796	-200,000	0,007	0,044
-353,781	800,000	-0,027	-0,073
-352,766	-155,743	-0,066	-0,003
-351,752	221,131	-0,085	0,100
-350,737	198,127	0,088	0,098
-349,723	117,157	0,060	0,054
-348,708	-84,605	-0,041	0,009
-347,693	-200,000	0,029	-0,103
-346,679	800,000	-0,052	0,141
-345,664	147,139	0,063	-0,061
-344,650	-200,000	-0,005	-0,043
-343,635	-181,240	-0,093	-0,001
-342,620	-114,186	0,146	-0,020
-341,606	-200,000	-0,011	0,140
-340,591	-156,379	-0,058	-0,003
-339,577	-200,000	0,015	-0,124
-338,562	128,945	-0,077	-0,071
-337,548	800,000	0,052	-0,118
-336,533	232,831	-0,015	-0,018
-335,518	156,072	0,051	0,051
-334,504	49,582	0,044	-0,030
-333,489	-159,391	0,043	0,002
-332,475	800,000	-0,039	0,083
-331,460	652,797	0,021	-0,040
-330,445	208,397	-0,069	0,079
-329,431	-90,785	0,082	0,017
-328,416	4,926	0,105	0,056
-327,402	-200,000	-0,021	-0,084
-326,387	-200,000	0,025	-0,124
-325,372	-109,366	-0,191	-0,029
-324,358	-15,757	0,020	-0,009
-323,343	-40,572	-0,017	0,006
-322,329	-128,948	0,017	-0,002
-321,314	89,944	0,078	-0,063
-320,299	339,297	-0,035	-0,050
-319,285	122,393	-0,166	-0,151
-318,270	164,722	0,145	-0,149
-317,256	282,462	-0,018	0,024
-316,241	800,000	0,029	-0,085
-315,226	-200,000	0,013	0,050
-314,212	-115,244	0,041	-0,006
-313,197	-200,000	-0,024	0,271
-312,183	83,863	0,103	0,081
-311,168	30,950	0,094	-0,058
-310,153	199,015	0,099	-0,110
-309,139	27,545	-0,141	-0,086
-308,124	-96,499	-0,067	0,013
-307,110	-81,412	0,053	0,013
-306,095	800,000	0,017	0,044
-305,080	25,743	-0,057	0,035
-304,066	-81,570	-0,087	0,021
-303,051	238,830	0,171	-0,206
-302,037	800,000	0,060	-0,130
-301,022	-115,112	-0,103	-0,014
-300,008	-72,025	0,158	0,042
-298,993	800,000	0,003	0,009
-297,978	800,000	0,045	0,090
-296,964	464,296	-0,057	0,093
-295,949	240,074	-0,027	0,033
-294,935	-200,000	-0,024	-0,222
-293,920	453,219	-0,058	-0,094
-292,905	-200,000	0,016	-0,060
-291,891	800,000	0,023	0,051
-290,876	391,870	-0,060	-0,091
-289,862	-47,683	0,053	-0,018
-288,847	171,831	-0,073	-0,076
-287,832	-200,000	0,033	-0,146
-286,818	407,338	-0,055	-0,084
-285,803	-69,396	0,113	-0,031
-284,789	800,000	0,059	0,154
-283,774	-200,000	0,011	0,038
-282,759	547,106	-0,044	-0,077
-281,745	65,721	0,088	-0,064
-280,730	27,378	-0,121	-0,074
-279,716	-81,477	0,091	0,021
-278,701	-61,275	0,024	-0,007
-277,686	-200,000	0,044	0,174
-276,672	-200,000	0,016	0,088
-275,657	-200,000	-0,011	-0,111
-274,643	-188,838	0,140	-0,001
-273,628	-170,117	-0,073	-0,002
-272,613	4,773	-0,115	0,061
-271,599	-13,922	0,040	-0,019
-270,584	-200,000	-0,012	0,137
-269,570	-115,566	-0,061	0,008
-268,555	317,622	-0,123	0,169
-267,540	-9,346	-0,073	-0,035
-266,526	-200,000	-0,021	0,099
-265,511	800,000	0,056	-0,115
-264,497	-200,000	0,000	0,063
-263,482	-200,000	0,010	0,080
-262,467	136,555	-0,092	-0,087
-261,453	53,828	0,024	-0,017
-260,438	-104,597	-0,030	-0,005
-259,424	800,000	-0,046	0,140
-258,409	-15,327	-0,082	0,038
-257,395	-7,487	0,074	0,036
-256,380	244,835	0,042	-0,052
-255,365	715,164	-0,065	-0,125
-254,351	28,719	0,117	0,071
-253,336	-200,000	0,001	0,089
-252,322	299,733	-0,045	0,060
-251,307	-84,612	0,067	-0,015
-250,292	-200,000	0,002	-0,024
-249,278	-200,000	-0,005	-0,036
-248,263	-100,045	0,100	0,018
-247,249	211,653	-0,041	0,047
-246,234	-99,784	-0,087	-0,016
-245,219	208,429	0,118	-0,134
-244,205	176,420	-0,102	-0,107
-243,190	89,334	-0,040	0,032
-242,176	-200,000	0,010	0,065
-241,161	-200,000	0,000	0,019
-240,146	718,075	-0,006	0,012
-239,132	317,324	-0,035	-0,048
-238,117	-200,000	-0,004	-0,104
-237,103	-200,000	-0,020	0,102
-236,088	-125,827	-0,205	-0,022
-235,073	92,572	-0,057	0,047
-234,059	-200,000	0,020	0,120
-233,044	-200,000	-0,017	-0,109
-232,030	-32,971	-0,084	-0,033
-231,015	-200,000	0,005	-0,116
-230,000	-18,249	0,050	0,023
-228,986	710,771	0,066	0,127
-227,971	-200,000	0,099	0,000
-226,957	-49,327	0,132	-0,045
-225,942	74,494	-0,093	-0,071
-224,927	40,949	0,027	-0,018
-223,913	484,755	0,049	0,082
-222,898	26,628	-0,061	0,037
-221,884	79,698	0,100	-0,078
-220,869	-144,522	-0,085	0,006
-219,855	45,736	0,120	0,080
-218,840	455,689	-0,054	0,087
-217,825	-131,782	0,062	0,006
-216,811	655,517	-0,029	0,053
-215,796	800,000	0,004	-0,009
-214,782	800,000	-0,029	-0,072
-213,767	-16,519	0,250	0,114
-212,752	-200,000	-0,016	0,144
-211,738	9,525	0,108	0,059
-210,723	121,327	0,036	0,032
-209,709	800,000	-0,047	-0,132
-208,694	-143,609	-0,193	-0,013
-207,679	-140,141	0,068	-0,005
-206,665	-200,000	0,024	0,119
-205,650	-137,587	0,136	-0,011
-204,636	800,000	0,036	0,107
-203,621	800,000	-0,056	0,170
-202,606	-200,000	0,012	-0,084
-201,592	91,158	-0,178	-0,144
-200,577	-200,000	0,023	-0,097
-199,563	800,000	0,055	-0,122
-198,548	182,443	0,077	-0,082
-197,533	-58,803	0,098	0,031
-196,519	-200,000	0,046	0,162
-195,504	-200,000	0,018	-0,164
-194,490	800,000	0,026	-0,063
-193,475	-200,000	0,005	0,049
-192,460	48,622	0,042	-0,028
-191,446	357,140	0,053	-0,076
-190,431	-200,000	0,034	0,142
-189,417	161,349	-0,066	-0,067
-188,402	94,617	0,099	-0,081
-187,387	-200,000	-0,003	0,054
-186,373	-105,517	-0,083	0,013
-185,358	800,000	0,035	-0,100
-184,344	587,199	0,070	0,125
-183,329	800,000	-0,047	-0,123
-182,315	800,000	0,057	0,128
-181,300	666,818	0,009	0,016
-180,285	-96,061	0,027	0,005
-179,271	-15,660	0,052	0,024
-178,256	-86,099	-0,071	-0,016
-177,242	22,796	0,045	-0,027
-176,227	13,725	-0,076	0,043
-175,212	800,000	0,097	0,205
-174,198	589,463	0,060	-0,108
-173,183	-200,000	0,000	-0,033
-172,169	800,000	0,009	-0,018
-171,154	149,672	0,019	-0,019
-170,139	-100,731	0,013	-0,002
-169,125	800,000	0,035	-0,085
-168,110	594,005	0,056	0,100
-167,096	800,000	0,042	0,123
-166,081	-200,000	0,005	0,068
-165,066	354,981	-0,068	-0,097
-164,052	710,124	-0,061	-0,116
-163,037	-16,837	-0,098	-0,045
-162,023	-35,225	0,088	-0,035
-161,008	-171,621	0,121	-0,003
-159,993	800,000	-0,056	0,158
-158,979	416,267	-0,041	-0,063
-157,964	521,117	-0,023	-0,040
-156,950	-200,000	-0,015	0,059
-155,935	-4,169	0,115	-0,057
-154,920	-20,723	0,058	0,026
-153,906	800,000	0,004	-0,009
-152,891	16,210	0,046	-0,026
-151,877	800,000	-0,019	-0,040
-150,862	-72,007	0,039	-0,010
-149,847	617,624	-0,053	-0,095
-148,833	-160,110	-0,009	-0,000
-147,818	277,870	0,029	0,038
-146,804	-81,129	-0,032	0,008
-145,789	490,379	-0,050	0,083
-144,775	-27,066	-0,097	-0,041
-143,760	75,161	-0,007	-0,005
-142,745	49,066	-0,088	0,059
-141,731	-84,879	-0,014	0,003
-140,716	295,319	0,047	-0,062
-139,702	800,000	0,070	0,159
-138,687	347,701	-0,068	-0,097
-137,672	144,952	-0,038	0,036
-136,658	-200,000	-0,017	0,064
-135,643	-145,453	0,149	0,009
-134,629	-173,787	-0,088	-0,002
-133,614	12,903	0,077	-0,043
-132,599	-86,365	0,121	0,027
-131,585	-200,000	-0,009	-0,104
-130,570	-200,000	-0,026	-0,100
-129,556	-200,000	0,004	-0,022
-128,541	-20,013	-0,137	-0,060
-127,526	-85,505	0,060	-0,013
-126,512	-133,855	0,029	-0,003
-125,497	-200,000	0,030	-0,169
-124,483	173,376	0,050	-0,052
-123,468	-94,655	0,073	0,014
-122,453	66,506	0,076	0,056
-121,439	-200,000	-0,010	-0,104
-120,424	-200,000	-0,014	0,264
-119,410	76,534	0,032	-0,025
