DTS Sentinel unit serial number:	SN410029Multiplexer serial number:	ORYXHardware model number:	OX2-SRSoftware version number:	ORYX F/W v4,00 Oryx Data Collector v3.7.2.0data status	okinstallation	B5 Nyhavnadifferential loss correction	single-endedforward channel	channel 2reverse channel	N/Adate	2023/12/12time	06:07:13forward acquisition time	300,00reverse acquisition time	0,00gamma	499,1914k internal	0,3157k external	0,3157temperature offset calibration	1,0000default loss term (dB/km)	0,3820temperature slope calibration	1,0000multiplexer offset coefficient	1,0000multiplexer slope coefficient	1,0000fibre end	0,00T internal ref (°C)	15,27T ext. ref 1 (°C)	-1,14T ext. ref 2 (°C)	-1,43length (m)	temperature (°C)	Stokes	anti-Stokes-744,400	247,426	0,132	0,165
-743,385	50,068	-0,316	-0,220
-742,371	-8,447	0,119	0,059
-741,356	-22,503	-0,212	0,094
-740,342	160,445	0,032	0,033
-739,327	-124,604	-0,352	0,040
-738,312	-83,376	0,064	0,015
-737,298	-70,041	-0,346	0,096
-736,283	-138,243	0,208	0,017
-735,269	-182,773	-0,241	-0,003
-734,254	-200,000	0,025	0,216
-733,239	-93,670	-0,347	-0,070
-732,225	-49,725	0,146	0,051
-731,210	-124,994	0,124	-0,014
-730,196	-28,261	0,055	-0,023
-729,181	-99,101	-0,109	0,020
-728,167	-67,240	-0,047	-0,013
-727,152	108,038	-0,102	-0,089
-726,137	800,000	-0,017	-0,051
-725,123	-200,000	0,018	-0,063
-724,108	-80,452	-0,104	-0,025
-723,094	-61,386	-0,158	-0,049
-722,079	-75,820	-0,049	-0,013
-721,064	-200,000	-0,001	-0,112
-720,050	-84,303	-0,060	0,014
-719,035	-200,000	-0,009	-0,046
-718,021	-200,000	-0,006	-0,158
-717,006	-70,600	-0,132	0,036
-715,991	800,000	0,022	-0,060
-714,977	800,000	0,003	0,007
-713,962	-4,833	-0,156	-0,079
-712,948	-47,670	-0,105	-0,037
-711,933	97,942	0,074	0,062
-710,918	33,268	-0,126	-0,081
-709,904	800,000	0,052	-0,127
-708,889	-200,000	0,000	-0,006
-707,875	-127,747	0,026	-0,003
-706,860	527,955	-0,086	0,150
-705,845	99,901	0,109	0,093
-704,831	-49,827	0,009	0,003
-703,816	139,566	-0,131	-0,127
-702,802	800,000	0,045	-0,140
-701,787	-112,620	-0,053	0,008
-700,772	353,677	-0,120	-0,177
-699,758	25,329	0,035	-0,022
-698,743	-200,000	-0,008	0,043
-697,729	185,269	0,096	0,105
-696,714	-200,000	0,027	0,127
-695,699	402,758	-0,048	-0,074
-694,685	-200,000	-0,017	0,120
-693,670	800,000	-0,037	-0,097
-692,656	203,633	0,031	0,035
-691,641	800,000	0,025	-0,058
-690,627	4,527	0,143	-0,077
-689,612	386,395	-0,030	0,046
-688,597	-53,116	0,058	0,020
-687,583	0,102	-0,063	-0,033
-686,568	-200,000	-0,004	0,016
-685,554	533,576	-0,006	-0,010
-684,539	19,562	-0,078	-0,046
-683,524	170,360	0,015	0,016
-682,510	-200,000	0,005	0,116
-681,495	-200,000	-0,002	0,105
-680,481	-200,000	-0,031	-0,113
-679,466	-200,000	0,005	-0,064
-678,451	48,811	0,035	0,024
-677,437	19,028	-0,110	-0,065
-676,422	800,000	0,058	-0,170
-675,408	-23,123	-0,018	-0,008
-674,393	-143,276	0,057	-0,004
-673,378	-200,000	-0,018	-0,172
-672,364	-200,000	0,007	-0,048
-671,349	17,506	-0,041	-0,024
-670,335	709,164	0,023	0,046
-669,320	267,317	-0,003	-0,004
-668,305	511,881	-0,039	0,068
-667,291	220,082	-0,017	0,021
-666,276	273,699	0,068	0,088
-665,262	227,365	-0,018	0,022
-664,247	274,271	0,043	0,057
-663,232	-200,000	-0,011	-0,059
-662,218	-200,000	0,010	0,105
-661,203	150,097	-0,045	0,044
-660,189	-200,000	0,010	-0,035
-659,174	-160,300	0,036	0,001
-658,159	800,000	-0,067	-0,150
-657,145	-127,231	0,019	-0,002
-656,130	800,000	-0,060	-0,123
-655,116	-200,000	-0,002	-0,201
-654,101	247,864	-0,090	0,112
-653,086	-165,419	0,075	0,002
-652,072	332,392	-0,050	-0,071
-651,057	-17,803	-0,086	-0,039
-650,043	33,603	0,098	-0,063
-649,028	18,086	-0,135	0,079
-648,014	-200,000	-0,003	0,093
-646,999	-16,277	0,124	0,058
-645,984	239,511	0,117	-0,143
-644,970	140,299	-0,085	0,083
-643,955	-68,365	-0,209	-0,059
-642,941	447,598	0,058	-0,093
-641,926	-24,012	-0,068	-0,030
-640,911	43,624	-0,045	0,030
-639,897	548,217	0,027	0,047
-638,882	-200,000	0,007	0,098
-637,868	83,706	-0,113	0,091
-636,853	-97,038	-0,227	-0,043
-635,838	-200,000	-0,011	-0,110
-634,824	-110,515	0,069	-0,010
-633,809	260,866	0,058	0,073
-632,795	-59,487	-0,120	0,037
-631,780	38,377	0,100	-0,066
-630,765	-129,579	0,044	0,004
-629,751	86,143	-0,116	-0,094
-628,736	76,844	-0,160	-0,124
-627,722	-116,515	0,087	-0,012
-626,707	203,101	-0,094	0,106
-625,692	-200,000	-0,014	0,135
-624,678	545,338	-0,034	0,060
-623,663	515,971	0,022	-0,038
-622,649	182,226	-0,111	-0,121
-621,634	227,998	-0,061	0,073
-620,619	-131,868	-0,106	-0,010
-619,605	800,000	0,051	0,113
-618,590	90,307	-0,041	0,034
-617,576	-200,000	-0,002	0,123
-616,561	-200,000	0,001	0,060
-615,546	218,178	-0,096	-0,113
-614,532	800,000	-0,024	0,052
-613,517	-40,931	-0,124	-0,047
-612,503	-200,000	0,002	-0,015
-611,488	-200,000	0,005	0,057
-610,474	-55,872	-0,035	-0,011
-609,459	-200,000	0,024	0,097
-608,444	244,498	0,051	-0,062
-607,430	201,765	0,062	-0,070
-606,415	-200,000	0,039	-0,135
-605,401	-200,000	-0,010	0,055
-604,386	-135,457	-0,156	0,013
-603,371	-52,072	0,065	0,022
-602,357	800,000	0,018	-0,052
-601,342	125,235	0,080	0,074
-600,328	-129,667	-0,110	-0,011
-599,313	-188,214	0,012	-0,000
-598,298	41,881	0,047	0,031
-597,284	444,442	0,093	0,151
-596,269	-53,076	-0,076	-0,025
-595,255	94,053	0,055	-0,046
-594,240	-200,000	-0,027	0,132
-593,225	47,591	-0,086	-0,059
-592,211	-200,000	-0,001	0,114
-591,196	-59,168	-0,110	0,035
-590,182	15,133	0,123	0,071
-589,167	800,000	0,031	0,066
-588,152	-200,000	-0,050	0,236
-587,138	89,752	0,066	-0,054
-586,123	-77,334	-0,120	-0,030
-585,109	800,000	0,018	0,036
-584,094	-200,000	0,021	-0,078
-583,079	-200,000	-0,010	0,051
-582,065	459,457	0,008	-0,013
-581,050	-38,573	0,073	0,028
-580,036	-154,098	-0,221	0,011
-579,021	92,437	0,039	-0,032
-578,006	44,031	-0,036	-0,024
-576,992	-200,000	-0,019	0,075
-575,977	-200,000	-0,005	-0,074
-574,963	84,347	0,109	0,087
-573,948	-200,000	0,008	-0,044
-572,934	-200,000	-0,002	0,056
-571,919	-200,000	-0,001	-0,042
-570,904	800,000	0,098	-0,226
-569,890	-200,000	-0,022	-0,113
-568,875	-200,000	-0,013	-0,059
-567,861	-200,000	0,028	0,114
-566,846	-89,239	0,157	-0,034
-565,831	-200,000	-0,002	-0,022
-564,817	328,517	0,123	-0,173
-563,802	64,013	-0,120	-0,088
-562,788	156,552	0,095	-0,096
-561,773	715,358	0,039	0,075
-560,758	431,357	0,056	0,089
-559,744	375,161	-0,076	0,114
-558,729	232,634	-0,095	0,114
-557,715	104,330	0,027	-0,024
-556,700	-200,000	-0,007	-0,063
-555,685	688,608	-0,020	-0,039
-554,671	363,149	-0,018	-0,026
-553,656	179,041	-0,041	0,044
-552,642	24,307	-0,043	-0,026
-551,627	190,951	-0,040	-0,045
-550,612	-69,752	-0,188	-0,052
-549,598	332,610	-0,062	-0,088
-548,583	-128,244	-0,108	0,011
-547,569	-112,019	-0,054	0,008
-546,554	97,700	0,100	-0,084
-545,539	105,820	0,101	-0,088
-544,525	-38,903	-0,049	0,019
-543,510	-200,000	-0,000	0,084
-542,496	287,983	-0,165	-0,219
-541,481	350,807	0,050	-0,073
-540,466	-200,000	-0,019	-0,205
-539,452	-200,000	0,008	0,049
-538,437	671,392	-0,011	0,021
-537,423	-95,559	0,112	0,022
-536,408	-49,390	-0,112	-0,039
-535,393	28,698	-0,070	-0,043
-534,379	-200,000	-0,010	-0,042
-533,364	800,000	-0,010	-0,031
-532,350	-65,794	-0,020	0,006
-531,335	-36,921	-0,051	0,020
-530,321	-200,000	-0,005	0,037
-529,306	-2,700	-0,093	0,048
-528,291	414,333	-0,100	-0,156
-527,277	326,616	0,024	0,033
-526,262	-200,000	0,007	-0,123
-525,248	198,582	-0,036	-0,041
-524,233	-7,264	0,066	0,033
-523,218	465,325	-0,030	-0,049
-522,204	800,000	-0,006	0,017
-521,189	-18,064	0,060	-0,027
-520,175	-88,975	-0,008	-0,002
-519,160	-200,000	-0,016	0,142
-518,145	800,000	-0,058	0,146
-517,131	800,000	-0,023	-0,067
-516,116	800,000	-0,051	-0,157
-515,102	-112,610	0,094	0,014
-514,087	800,000	-0,033	-0,080
-513,072	-46,002	0,053	-0,019
-512,058	123,195	0,057	-0,052
-511,043	693,047	-0,075	0,145
-510,029	675,848	-0,046	0,088
-509,014	148,779	0,067	0,067
-507,999	203,683	-0,104	-0,118
-506,985	-110,683	-0,039	0,006
-505,970	318,395	0,043	-0,060
-504,956	167,600	0,090	-0,094
-503,941	800,000	-0,012	-0,038
-502,926	-171,022	0,089	-0,002
-501,912	800,000	-0,043	0,089
-500,897	58,853	-0,107	0,077
-499,883	800,000	0,057	0,141
-498,868	-96,731	0,128	0,024
-497,853	-32,843	-0,068	0,027
-496,839	-115,966	-0,158	-0,021
-495,824	800,000	-0,004	-0,009
-494,810	94,965	0,156	0,130
-493,795	800,000	0,044	0,094
-492,781	686,065	-0,052	-0,100
-491,766	-200,000	-0,009	0,060
-490,751	187,127	-0,076	-0,083
-489,737	-200,000	-0,022	-0,077
-488,722	-130,217	0,085	-0,008
-487,708	112,503	0,061	0,054
-486,693	-28,357	0,062	-0,026
-485,678	-200,000	0,004	-0,042
-484,664	-141,291	-0,135	-0,010
-483,649	-200,000	0,001	-0,136
-482,635	567,130	0,030	-0,052
-481,620	139,742	0,064	0,062
-480,605	39,109	0,147	0,096
-479,591	-51,089	-0,039	-0,013
-478,576	64,549	0,073	-0,054
-477,562	22,276	-0,103	-0,062
-476,547	-200,000	0,014	0,119
-475,532	431,192	0,082	-0,130
-474,518	423,526	-0,035	-0,055
-473,503	-15,760	0,062	0,029
-472,489	5,941	-0,060	0,032
-471,474	-200,000	-0,015	-0,051
-470,459	205,846	-0,047	-0,053
-469,445	34,425	0,033	-0,021
-468,430	467,337	-0,036	0,059
-467,416	-63,676	0,040	0,012
-466,401	279,282	-0,070	0,091
-465,386	-200,000	-0,003	-0,158
-464,372	47,234	0,051	0,035
-463,357	91,468	-0,043	0,035
-462,343	-19,650	0,027	-0,012
-461,328	269,612	-0,020	-0,026
-460,313	-200,000	-0,011	-0,248
-459,299	194,515	0,085	0,094
-458,284	264,824	0,026	0,034
-457,270	-200,000	-0,002	0,176
-456,255	161,545	-0,093	0,095
-455,241	-3,704	-0,041	0,021
-454,226	-0,619	0,148	0,076
-453,211	26,706	0,041	0,025
-452,197	-88,498	-0,048	-0,010
-451,182	-26,405	0,003	0,001
-450,168	-12,693	0,093	0,044
-449,153	81,264	-0,080	0,063
-448,138	-79,292	-0,161	0,039
-447,124	54,673	-0,088	-0,062
-446,109	-71,347	0,061	-0,017
-445,095	-200,000	0,021	0,102
-444,080	12,667	0,058	0,032
-443,065	162,827	0,038	0,039
-442,051	137,478	0,095	0,090
-441,036	17,834	-0,073	0,042
-440,022	54,528	-0,022	-0,015
-439,007	393,216	-0,038	-0,058
-437,992	800,000	0,003	0,006
-436,978	190,689	-0,029	0,031
-435,963	-200,000	0,045	0,000
-434,949	-100,172	-0,167	-0,030
-433,934	191,062	0,086	-0,095
-432,919	-200,000	0,031	-0,119
-431,905	-36,028	-0,093	0,036
-430,890	24,953	0,082	0,050
-429,876	-79,978	-0,237	0,058
-428,861	582,668	0,067	0,121
-427,846	36,513	-0,123	-0,079
-426,832	800,000	0,018	-0,049
-425,817	24,343	0,120	-0,072
-424,803	-200,000	-0,018	-0,127
-423,788	510,884	-0,037	-0,063
-422,773	800,000	-0,006	0,016
-421,759	-136,960	0,042	-0,003
-420,744	715,489	0,024	0,046
-419,730	-11,991	-0,033	0,016
-418,715	5,952	-0,080	-0,043
-417,701	-200,000	0,000	0,116
-416,686	184,087	0,046	0,049
-415,671	-115,772	0,086	0,012
-414,657	-161,916	-0,060	-0,002
-413,642	-53,102	-0,142	0,047
-412,628	-51,334	0,044	0,015
-411,613	-200,000	0,013	-0,073
-410,598	800,000	-0,056	-0,173
-409,584	-111,955	-0,136	-0,020
-408,569	2,728	-0,053	0,028
-407,555	-40,121	-0,069	-0,026
-406,540	-131,869	0,106	0,010
-405,525	-55,530	0,140	-0,045
-404,511	497,143	-0,072	-0,121
-403,496	348,816	0,034	-0,048
-402,482	-200,000	-0,000	0,028
-401,467	-66,646	-0,090	-0,026
-400,452	-81,702	0,087	0,021
-399,438	-129,741	0,136	-0,013
-398,423	369,319	-0,003	-0,004
-397,409	188,401	-0,145	-0,157
-396,394	-122,649	-0,057	-0,007
-395,379	64,132	-0,075	0,055
-394,365	-200,000	-0,029	0,152
-393,350	-200,000	0,016	0,064
-392,336	572,018	0,027	-0,047
-391,321	30,325	0,111	0,069
-390,306	800,000	-0,102	0,255
-389,292	62,258	-0,109	-0,079
-388,277	-200,000	-0,009	0,036
-387,263	800,000	0,069	0,177
-386,248	163,981	0,137	0,140
-385,233	474,110	0,101	0,166
-384,219	-103,233	-0,102	-0,017
-383,204	-173,219	0,084	0,002
-382,190	55,577	-0,111	-0,078
-381,175	800,000	-0,023	-0,047
-380,160	-41,928	0,051	0,019
-379,146	-2,073	-0,069	-0,035
-378,131	420,392	0,042	0,065
-377,117	-200,000	-0,031	-0,114
-376,102	311,674	-0,060	0,082
-375,088	-200,000	0,003	-0,088
-374,073	412,815	-0,041	-0,063
-373,058	-102,862	-0,148	0,025
-372,044	-50,130	0,075	0,026
-371,029	-200,000	0,012	0,105
-370,015	-26,356	-0,125	0,053
-369,000	122,860	-0,130	0,118
-367,985	152,108	-0,045	0,045
-366,971	-110,623	0,176	0,026
-365,956	125,946	-0,053	-0,049
-364,942	-46,701	-0,030	0,010
-363,927	140,096	0,085	0,081
-362,912	-61,577	0,174	0,053
-361,898	-132,533	0,094	0,009
-360,883	96,668	-0,089	-0,074
-359,869	-12,571	0,143	-0,068
-358,854	-200,000	0,007	0,063
-357,839	-200,000	0,002	0,186
-356,825	-92,017	0,155	0,032
-355,810	-13,127	-0,086	-0,040
-354,796	157,690	-0,034	0,034
-353,781	-200,000	0,003	-0,024
-352,766	-75,590	0,031	-0,008
-351,752	-47,998	-0,029	0,010
-350,737	44,874	0,075	0,050
-349,723	-100,551	-0,064	0,011
-348,708	-124,108	-0,093	-0,010
-347,693	-181,600	0,039	-0,001
-346,679	-200,000	0,027	-0,102
-345,664	-70,064	-0,036	0,010
-344,650	111,136	-0,066	-0,058
-343,635	-200,000	0,037	0,166
-342,620	1,668	0,084	-0,044
-341,606	-200,000	0,006	0,086
-340,591	266,856	0,037	0,047
-339,577	172,846	-0,029	0,031
-338,562	36,367	0,026	0,016
-337,548	-141,871	0,080	0,006
-336,533	269,608	-0,078	0,099
-335,518	-86,828	0,179	0,039
-334,504	800,000	0,022	-0,065
-333,489	229,829	-0,067	0,079
-332,475	-200,000	0,009	-0,170
-331,460	-200,000	0,018	0,084
-330,445	-200,000	0,024	-0,108
-329,431	-90,094	0,094	0,020
-328,416	-200,000	-0,009	0,218
-327,402	-43,020	0,028	0,010
-326,387	800,000	0,033	0,069
-325,372	-200,000	-0,027	-0,131
-324,358	-200,000	-0,012	-0,103
-323,343	-200,000	-0,010	-0,069
-322,329	280,822	-0,063	-0,081
-321,314	-200,000	0,011	-0,114
-320,299	-10,524	-0,012	-0,006
-319,285	37,072	0,053	0,034
-318,270	17,236	0,159	-0,091
-317,256	82,445	-0,028	0,022
-316,241	-200,000	-0,004	-0,074
-315,226	-14,420	0,069	-0,032
-314,212	800,000	0,028	-0,067
-313,197	-123,384	0,137	0,016
-312,183	800,000	0,023	-0,056
-311,168	-200,000	0,021	-0,106
-310,153	104,346	-0,053	-0,046
-309,139	-200,000	-0,034	0,113
-308,124	800,000	0,052	-0,117
-307,110	349,285	0,055	0,079
-306,095	800,000	-0,026	0,073
-305,080	-34,431	0,077	-0,031
-304,066	44,027	-0,010	0,006
-303,051	-79,392	-0,071	-0,017
-302,037	149,766	-0,061	-0,060
-301,022	125,240	0,104	-0,095
-300,008	-99,455	0,059	0,011
-298,993	800,000	0,021	0,054
-297,978	193,020	-0,040	0,044
-296,964	-28,064	-0,084	0,035
-295,949	148,779	0,109	-0,107
-294,935	-200,000	0,028	-0,189
-293,920	363,082	0,063	0,092
-292,905	221,549	-0,074	-0,086
-291,891	75,318	0,067	-0,051
-290,876	-200,000	0,012	-0,101
-289,862	800,000	0,042	0,085
-288,847	13,283	-0,111	-0,062
-287,832	-59,528	0,112	0,035
-286,818	-200,000	-0,009	-0,067
-285,803	92,881	0,024	0,020
-284,789	-7,636	0,101	0,049
-283,774	365,837	-0,057	0,083
-282,759	800,000	0,043	-0,110
-281,745	-200,000	0,044	0,162
-280,730	30,012	0,091	0,056
-279,716	748,190	0,037	-0,073
-278,701	745,584	-0,023	0,045
-277,686	127,255	0,106	0,097
-276,672	-2,147	0,132	0,067
-275,657	19,113	-0,064	-0,037
-274,643	43,196	0,053	0,035
-273,628	-200,000	-0,023	0,106
-272,613	259,632	0,089	0,112
-271,599	64,564	0,044	-0,032
-270,584	-21,043	0,144	0,063
-269,570	91,878	0,135	-0,110
-268,555	151,569	-0,116	0,114
-267,540	-88,961	-0,082	0,017
-266,526	52,112	-0,046	0,032
-265,511	-51,086	-0,051	0,017
-264,497	69,970	0,078	0,058
-263,482	800,000	0,038	-0,085
-262,467	-184,405	0,094	0,001
-261,453	-200,000	-0,017	0,070
-260,438	82,601	0,108	-0,085
-259,424	-42,489	0,081	0,030
-258,409	488,254	-0,057	-0,094
-257,395	-200,000	-0,034	-0,119
-256,380	-29,263	-0,088	0,037
-255,365	110,248	-0,014	0,012
-254,351	-200,000	-0,006	-0,136
-253,336	-200,000	0,032	-0,110
-252,322	436,418	0,004	0,007
-251,307	180,146	-0,083	-0,088
-250,292	-24,473	0,046	0,020
-249,278	-200,000	-0,043	0,143
-248,263	8,641	-0,088	0,048
-247,249	348,084	-0,038	-0,054
-246,234	216,230	0,057	0,065
-245,219	800,000	-0,076	0,159
-244,205	377,296	-0,118	-0,175
-243,190	515,089	0,045	-0,076
-242,176	205,123	-0,021	0,024
-241,161	485,231	-0,032	0,053
-240,146	-200,000	0,003	0,054
-239,132	8,854	0,096	0,052
-238,117	7,102	-0,136	-0,073
-237,103	88,232	-0,059	-0,048
-236,088	-0,081	0,043	0,022
-235,073	-200,000	-0,028	-0,134
-234,059	343,049	0,078	0,110
-233,044	-29,420	-0,076	-0,031
-232,030	680,974	0,026	-0,049
-231,015	151,308	0,065	0,064
-230,000	125,653	0,105	-0,096
-228,986	-200,000	0,013	0,118
-227,971	-200,000	-0,001	-0,079
-226,957	72,323	-0,073	-0,055
-225,942	-98,398	-0,074	0,014
-224,927	306,125	-0,095	-0,129
-223,913	-41,597	0,022	-0,008
-222,898	800,000	-0,048	0,115
-221,884	179,665	0,092	-0,097
-220,869	124,163	-0,050	0,046
-219,855	2,599	-0,058	-0,030
-218,840	23,181	0,163	-0,096
-217,825	-110,857	-0,158	-0,023
-216,811	172,699	0,076	-0,079
-215,796	-35,299	-0,058	-0,023
-214,782	-200,000	-0,006	0,042
-213,767	-6,466	-0,036	0,018
-212,752	0,893	0,039	0,020
-211,738	-109,230	0,078	0,012
-210,723	-64,250	0,021	0,006
-209,709	0,275	0,017	-0,009
-208,694	254,338	0,045	-0,056
-207,679	-200,000	0,001	0,032
-206,665	236,819	0,101	-0,121
-205,650	800,000	0,039	0,086
-204,636	-50,353	0,081	-0,027
-203,621	-3,322	-0,030	0,015
-202,606	-200,000	0,006	-0,037
-201,592	-200,000	-0,017	0,080
-200,577	-200,000	-0,007	-0,048
-199,563	158,195	-0,037	0,037
-198,548	317,594	0,164	0,225
-197,533	-102,866	0,153	0,026
-196,519	800,000	-0,057	0,116
-195,504	-75,611	-0,120	-0,031
-194,490	-200,000	0,027	-0,090
-193,475	59,677	-0,045	-0,032
-192,460	-164,102	0,136	-0,004
-191,446	800,000	0,017	-0,039
-190,431	-109,387	0,052	0,008
-189,417	218,978	0,077	-0,089
-188,402	-200,000	-0,019	-0,133
-187,387	-117,068	-0,200	-0,026
-186,373	-87,982	0,098	0,021
-185,358	800,000	-0,078	0,168
-184,344	188,160	0,024	-0,026
-183,329	-200,000	-0,006	-0,019
-182,315	82,195	0,048	0,037
-181,300	-186,021	0,062	-0,001
-180,285	-200,000	-0,017	-0,056
-179,271	-41,844	-0,080	-0,029
-178,256	800,000	0,033	-0,067
-177,242	0,426	-0,054	0,028
-176,227	-55,762	-0,087	0,028
-175,212	259,539	-0,019	0,024
-174,198	-173,561	-0,025	0,001
-173,183	-200,000	0,011	-0,061
-172,169	-2,130	0,012	-0,006
-171,154	83,347	0,050	0,040
-170,139	236,088	0,027	-0,032
-169,125	800,000	0,022	0,060
-168,110	-60,726	0,121	0,037
-167,096	800,000	-0,044	0,108
-166,081	-200,000	-0,002	-0,133
-165,066	-7,846	-0,113	-0,055
-164,052	-154,482	0,073	-0,003
-163,037	-200,000	-0,008	0,091
-162,023	-76,209	0,097	0,024
-161,008	18,121	-0,060	0,034
-159,993	-130,401	0,055	0,005
-158,979	78,646	0,014	0,011
-157,964	5,807	0,042	0,022
-156,950	800,000	-0,038	-0,094
-155,935	-17,259	-0,021	-0,010
-154,920	80,993	0,161	-0,125
-153,906	364,770	-0,046	0,067
-152,891	-36,678	0,119	0,046
-151,877	-78,442	-0,044	0,011
-150,862	215,412	-0,079	-0,091
-149,847	800,000	-0,033	-0,080
-148,833	-139,327	-0,040	0,003
-147,818	-48,945	0,078	0,027
-146,804	145,016	0,080	-0,077
-145,789	368,936	-0,108	0,158
-144,775	-128,120	-0,038	-0,004
-143,760	-200,000	-0,053	-0,189
-142,745	-200,000	0,006	0,050
-141,731	-78,789	0,177	-0,043
-140,716	223,053	0,049	-0,057
-139,702	-200,000	-0,001	0,085
-138,687	397,472	0,093	-0,141
-137,672	34,129	-0,148	0,093
-136,658	85,410	0,027	0,021
-135,643	-37,856	-0,163	0,062
-134,629	-85,451	-0,160	0,036
-133,614	35,718	0,093	0,059
-132,599	234,416	-0,090	0,107
-131,585	-200,000	-0,001	0,192
-130,570	32,260	-0,082	-0,051
-129,556	800,000	0,032	-0,079
-128,541	120,789	-0,068	-0,061
-127,526	136,169	0,113	0,106
-126,512	-200,000	0,004	-0,016
-125,497	387,931	0,066	0,099
-124,483	544,884	0,054	-0,094
-123,468	800,000	-0,023	-0,065
-122,453	-200,000	0,006	0,158
-121,439	-200,000	-0,030	0,097
-120,424	-200,000	0,029	0,150
-119,410	29,842	0,016	-0,010
-118,395	-129,860	0,062	0,006
