DTS Sentinel unit serial number:	SN410029Multiplexer serial number:	ORYXHardware model number:	OX2-SRSoftware version number:	ORYX F/W v4,00 Oryx Data Collector v3.7.2.0data status	okinstallation	B5 Nyhavnadifferential loss correction	single-endedforward channel	channel 2reverse channel	N/Adate	2023/12/14time	14:42:13forward acquisition time	300,00reverse acquisition time	0,00gamma	499,1914k internal	0,3157k external	0,3157temperature offset calibration	1,0000default loss term (dB/km)	0,3820temperature slope calibration	1,0000multiplexer offset coefficient	1,0000multiplexer slope coefficient	1,0000fibre end	0,00T internal ref (°C)	7,99T ext. ref 1 (°C)	-8,10T ext. ref 2 (°C)	-8,15length (m)	temperature (°C)	Stokes	anti-Stokes-744,400	-200,000	0,026	-0,124
-743,385	-16,266	-0,233	-0,109
-742,371	-23,492	0,204	0,090
-741,356	-169,687	-0,304	-0,008
-740,342	129,506	0,092	0,087
-739,327	-144,276	-0,341	-0,023
-738,312	-152,675	0,211	0,011
-737,298	-105,727	-0,335	-0,055
-736,283	-48,787	0,146	0,052
-735,269	-147,171	-0,512	-0,032
-734,254	49,781	0,105	0,073
-733,239	-62,409	-0,491	-0,150
-732,225	114,550	0,204	0,183
-731,210	800,000	0,076	0,189
-730,196	242,762	-0,056	-0,070
-729,181	291,061	-0,016	-0,021
-728,167	98,838	-0,082	-0,070
-727,152	-64,081	0,115	-0,034
-726,137	-127,226	-0,066	0,007
-725,123	-70,324	-0,061	0,017
-724,108	-184,029	-0,169	-0,002
-723,094	-200,000	-0,017	-0,162
-722,079	198,501	-0,048	-0,054
-721,064	62,921	-0,100	0,073
-720,050	-200,000	-0,009	0,139
-719,035	-67,385	-0,046	-0,013
-718,021	-200,000	-0,011	-0,062
-717,006	-123,547	-0,094	0,011
-715,991	175,129	-0,146	-0,156
-714,977	552,476	-0,050	-0,088
-713,962	-23,075	0,092	0,041
-712,948	-164,785	-0,178	-0,006
-711,933	-157,311	0,084	-0,004
-710,918	800,000	-0,034	-0,094
-709,904	-200,000	-0,031	-0,109
-708,889	21,026	-0,095	0,057
-707,875	-73,624	-0,049	-0,013
-706,860	47,715	0,078	-0,054
-705,845	-200,000	0,010	-0,102
-704,831	140,124	0,042	0,041
-703,816	426,152	-0,056	0,090
-702,802	-39,072	-0,166	0,064
-701,787	-69,346	0,128	0,036
-700,772	-102,157	-0,052	-0,009
-699,758	49,866	0,053	0,037
-698,743	-200,000	0,001	-0,051
-697,729	-200,000	0,001	0,083
-696,714	-120,381	0,042	0,005
-695,699	-200,000	0,007	0,034
-694,685	-141,035	-0,110	-0,008
-693,670	-132,535	0,073	-0,007
-692,656	-161,781	-0,119	0,004
-691,641	17,406	-0,071	0,042
-690,627	71,578	0,102	-0,078
-689,612	73,556	-0,052	-0,040
-688,597	-200,000	-0,014	0,058
-687,583	87,750	-0,081	-0,066
-686,568	-200,000	-0,023	-0,120
-685,554	800,000	-0,052	-0,130
-684,539	-69,643	-0,128	-0,036
-683,524	-200,000	-0,004	0,056
-682,510	-166,084	-0,119	-0,004
-681,495	-112,564	0,137	0,020
-680,481	545,942	-0,058	-0,103
-679,466	39,143	-0,158	-0,104
-678,451	-200,000	0,016	-0,107
-677,437	210,591	0,035	-0,040
-676,422	210,623	-0,087	-0,100
-675,408	776,526	-0,003	-0,006
-674,393	434,347	0,040	-0,065
-673,378	224,401	-0,068	-0,081
-672,364	-68,199	-0,083	0,024
-671,349	91,856	-0,032	-0,026
-670,335	8,471	0,084	0,046
-669,320	-200,000	-0,028	0,167
-668,305	663,973	0,028	0,053
-667,291	88,144	-0,098	-0,080
-666,276	128,491	-0,079	0,074
-665,262	32,337	-0,063	0,040
-664,247	73,393	0,040	-0,031
-663,232	-54,160	-0,064	-0,021
-662,218	-122,702	0,170	0,020
-661,203	3,810	0,077	-0,041
-660,189	-18,266	-0,073	0,033
-659,174	-200,000	-0,008	-0,087
-658,159	-74,986	0,053	-0,014
-657,145	37,369	-0,128	-0,083
-656,130	-200,000	0,006	0,120
-655,116	-95,123	0,159	0,031
-654,101	-185,157	-0,090	0,001
-653,086	-200,000	0,005	-0,058
-652,072	-169,785	-0,111	-0,003
-651,057	-200,000	-0,002	-0,061
-650,043	682,894	0,057	-0,110
-649,028	-53,253	0,063	0,021
-648,014	-200,000	-0,010	-0,081
-646,999	-200,000	-0,010	-0,067
-645,984	52,860	-0,142	0,100
-644,970	382,323	0,068	0,103
-643,955	516,046	0,058	-0,099
-642,941	-141,136	-0,190	-0,014
-641,926	-166,495	-0,260	0,008
-640,911	-28,031	0,207	0,088
-639,897	167,915	-0,028	0,029
-638,882	-74,746	-0,081	0,021
-637,868	12,690	0,049	-0,028
-636,853	-200,000	-0,026	-0,112
-635,838	461,393	-0,100	-0,165
-634,824	-200,000	-0,018	0,097
-633,809	44,340	-0,113	0,076
-632,795	800,000	-0,014	0,036
-631,780	626,952	-0,096	0,179
-630,765	-200,000	-0,019	-0,136
-629,751	-200,000	0,022	-0,113
-628,736	-136,545	-0,171	-0,014
-627,722	800,000	0,019	-0,060
-626,707	213,819	-0,118	-0,137
-625,692	-200,000	-0,001	0,082
-624,678	800,000	0,036	0,078
-623,663	-71,712	-0,075	0,020
-622,649	-3,555	0,083	-0,042
-621,634	51,307	-0,073	-0,051
-620,619	800,000	-0,018	-0,041
-619,605	12,657	-0,043	-0,024
-618,590	-88,848	0,095	-0,021
-617,576	67,120	0,064	0,048
-616,561	-200,000	0,028	-0,098
-615,546	627,874	-0,034	0,062
-614,532	68,128	0,049	0,037
-613,517	-28,388	0,008	0,003
-612,503	-200,000	0,019	0,182
-611,488	148,003	0,044	0,043
-610,474	83,554	-0,101	0,081
-609,459	800,000	0,064	0,178
-608,444	-98,975	-0,251	-0,046
-607,430	-110,910	-0,097	0,015
-606,415	800,000	0,005	0,015
-605,401	800,000	0,034	-0,074
-604,386	800,000	0,035	0,087
-603,371	-200,000	0,033	0,145
-602,357	-64,930	0,046	0,014
-601,342	-200,000	-0,009	0,088
-600,328	-200,000	-0,006	-0,091
-599,313	142,530	-0,101	-0,098
-598,298	48,533	-0,071	0,049
-597,284	79,513	0,081	-0,063
-596,269	632,435	0,055	0,103
-595,255	800,000	-0,018	0,040
-594,240	-51,454	-0,099	-0,034
-593,225	184,232	0,075	-0,082
-592,211	800,000	-0,040	-0,082
-591,196	-200,000	-0,009	-0,109
-590,182	146,739	-0,064	0,063
-589,167	-136,125	0,136	0,011
-588,152	-200,000	-0,016	-0,151
-587,138	-135,906	-0,220	-0,019
-586,123	-178,875	0,101	0,002
-585,109	29,561	-0,066	0,041
-584,094	800,000	-0,071	-0,180
-583,079	53,543	0,016	0,011
-582,065	666,260	0,054	0,104
-581,050	586,741	0,026	0,047
-580,036	253,116	0,053	0,066
-579,021	111,139	-0,118	-0,104
-578,006	697,389	-0,060	-0,116
-576,992	-200,000	-0,005	0,079
-575,977	-127,076	0,131	0,014
-574,963	-200,000	-0,018	0,062
-573,948	-200,000	-0,003	0,192
-572,934	-13,576	-0,082	-0,039
-571,919	-200,000	-0,016	0,072
-570,904	-65,769	-0,008	0,002
-569,890	-200,000	-0,002	0,045
-568,875	-15,547	0,064	0,030
-567,861	71,386	0,143	0,108
-566,846	-138,215	-0,155	-0,012
-565,831	-145,911	-0,158	-0,010
-564,817	60,681	0,145	-0,105
-563,802	-145,635	-0,071	0,005
-562,788	-26,978	-0,123	-0,053
-561,773	800,000	-0,034	0,098
-560,758	-200,000	-0,007	0,048
-559,744	240,158	-0,013	0,016
-558,729	44,675	0,095	-0,064
-557,715	179,511	0,065	0,070
-556,700	24,210	-0,153	-0,092
-555,685	-39,564	0,087	0,033
-554,671	800,000	0,025	0,058
-553,656	-200,000	-0,002	-0,014
-552,642	-48,552	-0,112	-0,039
-551,627	41,938	0,104	0,069
-550,612	16,284	-0,089	-0,051
-549,598	29,112	-0,047	-0,029
-548,583	-200,000	0,001	-0,054
-547,569	-110,725	0,032	0,005
-546,554	-6,576	-0,070	-0,035
-545,539	-84,656	-0,161	0,037
-544,525	-200,000	0,003	-0,110
-543,510	-133,554	0,020	-0,002
-542,496	-80,488	-0,154	-0,037
-541,481	-36,878	-0,089	-0,035
-540,466	-93,576	0,016	0,003
-539,452	-200,000	0,002	-0,014
-538,437	-200,000	-0,005	-0,067
-537,423	12,899	0,073	0,041
-536,408	559,397	0,096	-0,170
-535,393	569,365	0,036	-0,065
-534,379	-200,000	-0,032	-0,186
-533,364	-15,016	0,051	0,024
-532,350	-83,176	-0,048	-0,011
-531,335	-200,000	0,009	-0,034
-530,321	58,586	-0,107	0,077
-529,306	-200,000	-0,000	0,082
-528,291	123,249	-0,090	-0,083
-527,277	122,985	-0,167	-0,153
-526,262	-176,524	0,113	0,002
-525,248	541,201	0,071	-0,124
-524,233	-200,000	-0,013	-0,047
-523,218	442,909	0,014	0,023
-522,204	-200,000	0,020	-0,144
-521,189	-136,926	-0,048	-0,004
-520,175	-52,859	-0,084	-0,028
-519,160	439,764	-0,027	-0,044
-518,145	168,489	0,043	0,045
-517,131	49,809	-0,034	0,023
-516,116	-200,000	0,020	0,148
-515,102	800,000	0,041	-0,095
-514,087	18,742	-0,169	-0,098
-513,072	36,686	0,082	-0,053
-512,058	-200,000	-0,022	-0,103
-511,043	-200,000	0,005	-0,030
-510,029	-200,000	0,002	0,046
-509,014	-200,000	0,005	0,061
-507,999	-200,000	-0,056	0,192
-506,985	374,160	-0,075	-0,112
-505,970	578,100	0,030	0,053
-504,956	-8,789	-0,114	-0,055
-503,941	122,038	-0,082	-0,075
-502,926	302,284	0,020	0,028
-501,912	228,300	0,042	-0,050
-500,897	-47,540	-0,035	0,012
-499,883	-200,000	-0,021	-0,106
-498,868	-200,000	-0,018	0,068
-497,853	800,000	-0,015	0,040
-496,839	-77,391	0,049	0,012
-495,824	141,854	0,047	-0,045
-494,810	34,533	-0,037	-0,023
-493,795	-167,737	0,056	-0,002
-492,781	800,000	0,021	0,058
-491,766	39,053	-0,123	-0,080
-490,751	-61,319	0,098	0,030
-489,737	9,361	-0,091	-0,050
-488,722	-28,429	0,112	0,047
-487,708	214,172	-0,069	-0,079
-486,693	459,242	0,023	-0,038
-485,678	-200,000	-0,013	-0,089
-484,664	800,000	-0,060	-0,166
-483,649	-200,000	-0,009	-0,125
-482,635	-200,000	-0,011	-0,232
-481,620	152,534	0,074	-0,074
-480,605	145,985	-0,134	0,131
-479,591	-75,810	0,123	0,032
-478,576	-200,000	0,000	-0,080
-477,562	-153,161	-0,175	0,009
-476,547	70,269	-0,032	0,024
-475,532	-200,000	0,024	0,139
-474,518	-25,904	0,123	0,053
-473,503	304,655	-0,056	-0,076
-472,489	203,873	0,064	0,072
-471,474	312,612	0,053	-0,073
-470,459	-151,989	-0,052	0,003
-469,445	-142,736	-0,077	-0,005
-468,430	4,977	-0,106	-0,057
-467,416	-173,976	0,110	0,002
-466,401	234,461	-0,064	0,077
-465,386	-200,000	0,025	0,099
-464,372	135,535	-0,042	0,040
-463,357	-34,720	-0,115	0,046
-462,343	-102,828	0,062	-0,011
-461,328	662,147	-0,051	-0,096
-460,313	800,000	0,027	0,083
-459,299	203,134	0,026	0,029
-458,284	-200,000	0,110	0,000
-457,270	114,215	0,115	0,102
-456,255	-79,948	-0,079	-0,019
-455,241	564,371	0,035	-0,063
-454,226	282,535	-0,057	-0,074
-453,211	7,305	0,103	-0,056
-452,197	520,267	0,038	0,065
-451,182	188,055	-0,118	0,128
-450,168	-200,000	0,020	0,149
-449,153	800,000	-0,021	-0,046
-448,138	-83,487	-0,022	0,005
-447,124	800,000	-0,026	-0,063
-446,109	-88,709	0,101	-0,022
-445,095	312,550	0,021	0,029
-444,080	-200,000	-0,007	0,037
-443,065	10,238	-0,066	-0,037
-442,051	306,794	-0,039	0,054
-441,036	-42,222	-0,063	0,023
-440,022	-200,000	0,042	-0,221
-439,007	20,966	-0,038	-0,022
-437,992	-55,039	-0,123	0,040
-436,978	-137,272	0,055	-0,004
-435,963	208,529	0,045	-0,052
-434,949	-119,574	0,070	0,009
-433,934	-17,923	-0,047	-0,021
-432,919	-200,000	0,078	0,000
-431,905	178,511	0,036	-0,038
-430,890	-28,830	0,010	0,004
-429,876	359,615	0,049	-0,072
-428,861	3,480	0,085	-0,045
-427,846	-177,182	-0,121	-0,002
-426,832	-148,443	-0,154	-0,009
-425,817	52,880	-0,124	-0,086
-424,803	-6,777	-0,076	0,038
-423,788	74,777	0,089	-0,068
-422,773	555,303	0,025	-0,044
-421,759	800,000	0,040	0,112
-420,744	-98,885	0,105	-0,019
-419,730	10,174	-0,067	-0,037
-418,715	103,719	-0,077	-0,066
-417,701	156,130	-0,055	0,055
-416,686	406,087	0,023	0,035
-415,671	-200,000	-0,047	-0,176
-414,657	71,217	0,073	-0,055
-413,642	138,716	-0,073	0,070
-412,628	800,000	-0,036	-0,080
-411,613	-200,000	0,002	-0,108
-410,598	-200,000	-0,027	-0,113
-409,584	274,137	-0,054	-0,070
-408,569	-152,078	0,093	-0,005
-407,555	556,047	-0,126	-0,222
-406,540	-114,834	-0,045	0,006
-405,525	-150,959	-0,122	0,007
-404,511	43,805	0,064	-0,042
-403,496	800,000	0,049	-0,135
-402,482	105,430	-0,051	-0,044
-401,467	4,527	0,030	0,016
-400,452	-121,063	-0,062	-0,008
-399,438	-98,934	0,025	0,005
-398,423	-200,000	-0,023	0,100
-397,409	-200,000	-0,001	-0,010
-396,394	28,491	-0,021	0,013
-395,379	43,104	0,064	0,042
-394,365	-60,983	-0,055	-0,017
-393,350	89,318	0,078	-0,063
-392,336	-61,507	0,100	-0,030
-391,321	-64,089	-0,041	-0,012
-390,306	-108,588	0,125	0,019
-389,292	-200,000	-0,030	-0,187
-388,277	14,446	0,113	-0,064
-387,263	491,705	-0,009	-0,015
-386,248	-48,254	0,106	0,037
-385,233	-200,000	0,015	-0,147
-384,219	34,093	0,083	0,052
-383,204	120,088	-0,039	-0,036
-382,190	-71,971	-0,073	-0,020
-381,175	511,648	-0,026	0,043
-380,160	-200,000	0,006	0,075
-379,146	-200,000	-0,003	0,122
-378,131	-200,000	-0,001	0,200
-377,117	800,000	-0,022	-0,054
-376,102	-200,000	0,017	0,101
-375,088	-200,000	-0,010	-0,110
-374,073	93,497	0,090	-0,074
-373,058	-152,197	-0,173	-0,009
-372,044	-80,117	-0,010	-0,002
-371,029	800,000	0,013	-0,039
-370,015	-200,000	0,037	0,150
-369,000	456,786	0,030	-0,048
-367,985	695,733	-0,020	-0,039
-366,971	89,994	-0,059	-0,048
-365,956	-200,000	-0,038	0,175
-364,942	93,923	0,118	-0,097
-363,927	-157,684	-0,070	-0,003
-362,912	-21,469	-0,111	0,049
-361,898	-88,613	-0,016	-0,003
-360,883	-200,000	-0,023	-0,088
-359,869	5,424	0,077	0,041
-358,854	100,593	-0,047	0,040
-357,839	55,185	0,117	0,082
-356,825	-139,618	0,019	0,001
-355,810	20,245	0,110	0,064
-354,796	-73,611	-0,036	0,009
-353,781	202,686	-0,009	0,011
-352,766	31,700	0,028	-0,017
-351,752	-71,773	0,160	-0,043
-350,737	800,000	-0,042	-0,115
-349,723	434,251	0,071	0,112
-348,708	499,016	0,041	0,069
-347,693	-200,000	0,015	-0,086
-346,679	-200,000	0,012	-0,117
-345,664	11,986	0,047	-0,026
-344,650	-200,000	-0,003	-0,076
-343,635	-157,372	0,036	0,002
-342,620	-11,154	0,075	0,036
-341,606	-200,000	-0,009	0,140
-340,591	136,725	0,032	0,030
-339,577	-200,000	0,001	-0,077
-338,562	61,389	-0,062	0,045
-337,548	60,405	-0,053	0,038
-336,533	596,954	-0,078	0,141
-335,518	800,000	0,083	0,172
-334,504	800,000	0,035	0,102
-333,489	165,979	0,046	0,047
-332,475	-200,000	-0,003	0,050
-331,460	456,806	-0,072	-0,116
-330,445	800,000	0,017	0,055
-329,431	-172,426	0,097	0,002
-328,416	90,230	-0,049	0,040
-327,402	800,000	-0,036	0,111
-326,387	246,353	0,041	-0,050
-325,372	-200,000	0,025	0,135
-324,358	-20,971	0,047	-0,021
-323,343	-44,578	-0,102	-0,037
-322,329	416,093	0,068	0,106
-321,314	800,000	0,064	0,168
-320,299	32,076	0,077	0,048
-319,285	3,319	-0,053	0,028
-318,270	69,562	-0,074	0,055
-317,256	-200,000	-0,014	-0,142
-316,241	353,854	-0,063	-0,091
-315,226	105,143	0,067	-0,057
-314,212	-200,000	0,006	-0,044
-313,197	228,808	0,091	0,108
-312,183	-0,646	-0,140	0,072
-311,168	609,412	-0,070	0,128
-310,153	800,000	-0,010	-0,023
-309,139	786,249	-0,040	-0,081
-308,124	-117,722	0,126	0,016
-307,110	571,735	-0,035	0,062
-306,095	90,374	0,129	-0,104
-305,080	7,727	-0,026	0,014
-304,066	522,101	0,019	0,032
-303,051	-2,022	0,073	0,037
-302,037	174,320	0,059	-0,062
-301,022	800,000	-0,021	-0,052
-300,008	-66,166	-0,034	-0,010
-298,993	432,791	0,041	0,064
-297,978	79,467	0,083	0,065
-296,964	-131,160	0,068	-0,006
-295,949	9,756	-0,131	-0,072
-294,935	800,000	0,028	-0,070
-293,920	-200,000	0,031	-0,112
-292,905	-49,838	0,203	0,069
-291,891	245,559	0,050	-0,062
-290,876	-87,296	0,176	-0,038
-289,862	-200,000	-0,006	-0,023
-288,847	4,044	-0,124	-0,065
-287,832	800,000	-0,026	0,055
-286,818	-200,000	-0,003	0,076
-285,803	-200,000	0,024	-0,094
-284,789	-200,000	-0,015	0,116
-283,774	-200,000	0,025	0,088
-282,759	-200,000	-0,021	0,135
-281,745	103,577	-0,095	0,081
-280,730	-59,175	0,036	0,011
-279,716	47,889	0,058	-0,039
-278,701	-200,000	0,017	0,081
-277,686	-200,000	-0,013	0,056
-276,672	94,739	0,021	-0,017
-275,657	-107,271	-0,101	-0,016
-274,643	242,073	0,081	-0,098
-273,628	800,000	0,034	0,068
-272,613	-200,000	0,006	-0,049
-271,599	-14,969	0,188	0,087
-270,584	-119,063	-0,123	0,015
-269,570	298,901	0,068	0,090
-268,555	800,000	-0,028	0,079
-267,540	-200,000	0,010	0,109
-266,526	-200,000	-0,009	0,072
-265,511	16,651	0,082	-0,047
-264,497	270,541	0,024	-0,031
-263,482	160,270	0,106	0,107
-262,467	800,000	-0,036	0,091
-261,453	-9,890	0,044	-0,021
-260,438	-200,000	0,002	0,022
-259,424	-200,000	-0,008	-0,075
-258,409	183,071	0,067	0,071
-257,395	800,000	-0,035	0,072
-256,380	-200,000	0,007	0,024
-255,365	183,422	0,053	0,057
-254,351	-106,059	0,164	0,026
-253,336	-171,758	-0,145	0,003
-252,322	169,464	-0,041	-0,043
-251,307	58,677	0,032	-0,023
-250,292	168,022	-0,096	0,099
-249,278	325,291	0,018	-0,025
-248,263	-43,037	0,159	-0,058
-247,249	107,511	-0,146	0,125
-246,234	-104,927	0,062	0,010
-245,219	-69,531	0,030	-0,008
-244,205	-200,000	0,024	-0,089
-243,190	-200,000	-0,009	0,078
-242,176	138,370	0,057	0,054
-241,161	60,011	-0,066	0,047
-240,146	-113,299	0,267	-0,038
-239,132	-155,075	-0,061	0,003
-238,117	800,000	0,076	-0,239
-237,103	-200,000	-0,012	-0,075
-236,088	800,000	0,015	-0,042
-235,073	-64,250	0,149	0,044
-234,059	-200,000	-0,013	0,256
-233,044	800,000	0,048	0,101
-232,030	800,000	-0,051	0,133
-231,015	800,000	-0,030	-0,091
-230,000	-200,000	0,001	-0,024
-228,986	295,719	-0,012	0,016
-227,971	351,490	-0,048	0,068
-226,957	-95,556	0,142	-0,027
-225,942	-181,747	0,045	-0,001
-224,927	800,000	-0,055	0,165
-223,913	-200,000	0,036	-0,120
-222,898	-200,000	-0,017	-0,066
-221,884	800,000	-0,036	-0,099
-220,869	35,898	0,118	0,075
-219,855	-82,163	-0,083	0,019
-218,840	-200,000	-0,001	-0,061
-217,825	-102,059	-0,082	0,014
-216,811	-158,987	-0,045	-0,002
-215,796	-90,882	-0,145	-0,030
-214,782	-200,000	-0,002	-0,070
-213,767	390,136	0,035	0,052
-212,752	-200,000	0,024	0,110
-211,738	87,617	0,032	-0,025
-210,723	-200,000	0,080	-0,000
-209,709	-200,000	-0,024	-0,088
-208,694	-200,000	0,005	-0,099
-207,679	800,000	-0,011	0,029
-206,665	34,096	0,147	0,092
-205,650	-31,944	0,070	0,028
-204,636	262,028	0,055	0,069
-203,621	371,368	0,110	0,162
-202,606	-140,677	-0,142	-0,010
-201,592	18,573	-0,091	-0,052
-200,577	-2,717	0,082	0,041
-199,563	-200,000	-0,006	-0,021
-198,548	800,000	0,016	0,036
-197,533	-200,000	0,008	0,064
-196,519	-138,056	0,120	0,010
-195,504	-69,551	-0,092	0,025
-194,490	492,284	0,055	-0,092
-193,475	131,245	0,067	0,062
-192,460	-66,514	0,049	-0,014
-191,446	-200,000	0,002	-0,089
-190,431	104,229	0,035	-0,030
-189,417	-126,081	-0,091	0,010
-188,402	800,000	-0,063	0,140
-187,387	104,366	-0,094	-0,080
-186,373	800,000	0,041	-0,085
-185,358	-200,000	0,023	0,124
-184,344	126,975	0,055	0,050
-183,329	134,072	0,086	0,081
-182,315	-88,737	0,046	-0,010
-181,300	-200,000	-0,006	0,034
-180,285	-159,666	0,130	0,005
-179,271	10,621	-0,084	-0,046
-178,256	-101,356	-0,058	-0,010
-177,242	601,542	0,053	-0,096
-176,227	517,564	0,086	0,145
-175,212	-17,616	-0,143	-0,064
-174,198	-51,286	-0,013	0,004
-173,183	-34,535	-0,034	-0,013
-172,169	1,463	-0,156	-0,080
-171,154	-12,977	0,046	0,021
-170,139	800,000	-0,038	0,096
-169,125	-18,129	-0,045	-0,020
-168,110	-200,000	-0,002	0,030
-167,096	513,403	0,078	-0,132
-166,081	118,362	-0,087	0,078
-165,066	-200,000	-0,014	-0,147
-164,052	-190,711	0,128	-0,001
-163,037	-200,000	-0,005	0,138
-162,023	240,895	0,090	0,109
-161,008	-21,908	0,096	-0,042
-159,993	125,744	0,108	0,098
-158,979	2,427	0,068	0,035
-157,964	119,722	-0,007	-0,006
-156,950	733,279	-0,036	-0,069
-155,935	-44,448	-0,096	-0,035
-154,920	-73,014	0,143	-0,038
-153,906	-200,000	-0,017	-0,068
-152,891	-61,024	0,188	0,057
-151,877	-200,000	-0,009	0,079
-150,862	-53,568	-0,104	0,034
-149,847	-200,000	-0,024	-0,110
-148,833	-92,717	0,021	-0,004
-147,818	-33,567	0,155	0,061
-146,804	-200,000	-0,021	0,072
-145,789	-200,000	0,003	0,069
-144,775	-200,000	0,002	0,071
-143,760	-143,000	-0,108	-0,007
-142,745	72,129	0,142	-0,106
-141,731	800,000	-0,070	-0,159
-140,716	22,371	0,109	0,064
-139,702	800,000	-0,051	-0,126
-138,687	11,938	0,067	0,037
-137,672	-200,000	0,018	0,175
-136,658	582,848	-0,058	-0,103
-135,643	-200,000	0,001	-0,061
-134,629	140,895	0,025	0,024
-133,614	-200,000	-0,019	0,064
-132,599	-62,228	-0,107	-0,032
-131,585	164,351	0,045	-0,046
-130,570	2,844	-0,136	-0,071
-129,556	-200,000	0,006	-0,118
-128,541	-200,000	-0,015	-0,083
-127,526	56,894	0,057	-0,040
-126,512	25,376	-0,112	-0,067
-125,497	227,571	-0,090	0,105
-124,483	165,673	0,071	-0,072
-123,468	-192,428	-0,019	0,000
-122,453	192,419	0,088	-0,096
-121,439	45,712	-0,081	0,053
-120,424	-81,684	0,168	-0,039
