DTS Sentinel unit serial number:	SN410029Multiplexer serial number:	ORYXHardware model number:	OX2-SRSoftware version number:	ORYX F/W v4,00 Oryx Data Collector v3.7.2.0data status	okinstallation	B5 Nyhavnadifferential loss correction	single-endedforward channel	channel 2reverse channel	N/Adate	2023/12/12time	03:22:13forward acquisition time	300,00reverse acquisition time	0,00gamma	499,1914k internal	0,3156k external	0,3156temperature offset calibration	1,0000default loss term (dB/km)	0,3820temperature slope calibration	1,0000multiplexer offset coefficient	1,0000multiplexer slope coefficient	1,0000fibre end	0,00T internal ref (°C)	15,69T ext. ref 1 (°C)	-0,79T ext. ref 2 (°C)	-1,09length (m)	temperature (°C)	Stokes	anti-Stokes-744,400	-64,628	-0,071	0,021
-743,385	-126,730	-0,303	-0,033
-742,371	-91,108	0,184	-0,039
-741,356	-84,692	-0,286	0,066
-740,342	370,975	-0,030	0,045
-739,327	-53,170	-0,281	0,095
-738,312	-200,000	0,016	-0,125
-737,298	-167,629	-0,342	-0,010
-736,283	-118,572	0,068	-0,009
-735,269	-3,093	-0,250	0,128
-734,254	27,720	-0,095	0,059
-733,239	-82,440	-0,344	-0,082
-732,225	-25,056	0,148	0,064
-731,210	-149,096	-0,032	0,002
-730,196	78,782	-0,080	0,063
-729,181	800,000	-0,035	0,090
-728,167	407,144	-0,068	0,107
-727,152	-76,911	0,069	0,018
-726,137	370,380	0,044	0,065
-725,123	-72,711	-0,124	-0,033
-724,108	124,066	-0,087	-0,080
-723,094	-41,888	-0,053	0,020
-722,079	8,550	-0,119	-0,066
-721,064	364,368	0,060	0,089
-720,050	-14,149	-0,120	-0,057
-719,035	649,797	0,032	-0,062
-718,021	109,942	-0,035	-0,031
-717,006	122,896	0,027	0,025
-715,991	-45,637	0,041	0,015
-714,977	-61,289	-0,096	-0,030
-713,962	165,672	-0,041	0,043
-712,948	-17,349	-0,056	-0,026
-711,933	394,763	0,046	-0,071
-710,918	-200,000	-0,023	-0,079
-709,904	-28,464	-0,104	-0,044
-708,889	-139,696	-0,125	0,010
-707,875	-181,379	0,097	0,001
-706,860	13,182	0,106	0,060
-705,845	800,000	-0,022	0,066
-704,831	65,078	0,121	0,090
-703,816	52,192	0,091	0,064
-702,802	-23,155	-0,092	0,041
-701,787	5,249	-0,104	0,056
-700,772	245,549	-0,144	-0,179
-699,758	800,000	0,043	0,090
-698,743	-200,000	0,002	0,120
-697,729	216,339	-0,093	0,109
-696,714	-167,176	-0,082	0,002
-695,699	195,462	-0,031	-0,035
-694,685	571,166	-0,044	-0,079
-693,670	-140,056	-0,046	0,004
-692,656	-59,622	0,052	0,016
-691,641	340,711	0,031	0,044
-690,627	329,948	-0,042	-0,060
-689,612	-200,000	0,028	-0,100
-688,597	565,150	-0,021	0,038
-687,583	-200,000	-0,004	-0,017
-686,568	-44,829	-0,055	-0,020
-685,554	532,847	-0,033	-0,057
-684,539	-81,254	-0,032	-0,008
-683,524	-192,395	0,069	-0,000
-682,510	-200,000	-0,005	-0,056
-681,495	-13,446	-0,052	0,025
-680,481	84,611	0,037	0,030
-679,466	239,038	-0,084	-0,103
-678,451	800,000	-0,018	0,051
-677,437	-200,000	-0,013	-0,046
-676,422	-37,241	-0,060	0,024
-675,408	202,611	0,080	0,091
-674,393	800,000	0,011	-0,025
-673,378	28,204	-0,103	-0,064
-672,364	-115,115	0,047	0,006
-671,349	210,242	-0,223	-0,258
-670,335	-26,778	-0,058	-0,025
-669,320	-34,512	0,034	0,014
-668,305	-26,930	-0,028	0,012
-667,291	-148,203	-0,197	-0,012
-666,276	-35,435	0,186	-0,074
-665,262	342,055	-0,059	0,085
-664,247	800,000	-0,045	-0,099
-663,232	458,307	0,019	0,031
-662,218	191,388	0,064	0,071
-661,203	66,329	-0,044	0,033
-660,189	99,232	0,067	0,057
-659,174	266,181	-0,064	0,083
-658,159	800,000	0,007	0,016
-657,145	-44,824	-0,082	-0,030
-656,130	-87,060	-0,115	0,026
-655,116	-7,787	-0,122	0,060
-654,101	-52,976	-0,027	0,009
-653,086	-19,779	0,052	0,024
-652,072	438,491	-0,065	-0,104
-651,057	-40,481	-0,028	-0,011
-650,043	-140,273	0,025	-0,002
-649,028	-52,265	0,008	-0,003
-648,014	-200,000	-0,011	-0,146
-646,999	-0,761	-0,164	0,085
-645,984	84,540	-0,088	0,071
-644,970	-27,860	-0,131	-0,056
-643,955	-105,031	0,099	-0,017
-642,941	181,174	0,087	-0,094
-641,926	141,146	-0,083	-0,081
-640,911	156,695	0,088	-0,089
-639,897	93,586	0,033	0,028
-638,882	121,053	-0,007	0,007
-637,868	35,686	-0,075	-0,048
-636,853	-83,343	-0,056	0,013
-635,838	389,910	-0,067	-0,102
-634,824	-200,000	0,020	-0,083
-633,809	93,039	-0,026	0,022
-632,795	-93,289	-0,040	-0,008
-631,780	28,494	-0,113	0,070
-630,765	-55,141	-0,049	-0,016
-629,751	374,736	-0,012	-0,018
-628,736	800,000	-0,045	-0,123
-627,722	-151,042	0,016	-0,001
-626,707	-64,796	-0,132	0,039
-625,692	573,378	-0,123	0,222
-624,678	-200,000	0,016	0,083
-623,663	-14,589	0,039	0,018
-622,649	800,000	0,017	0,042
-621,634	-52,153	-0,076	0,026
-620,619	11,364	-0,077	-0,043
-619,605	-114,630	0,080	0,011
-618,590	-0,746	0,107	-0,056
-617,576	-200,000	-0,004	0,052
-616,561	-49,476	0,153	0,053
-615,546	119,736	0,094	-0,086
-614,532	136,659	-0,105	-0,100
-613,517	337,182	-0,086	-0,123
-612,503	-152,045	0,041	0,002
-611,488	-200,000	0,005	0,149
-610,474	209,509	0,066	0,076
-609,459	-200,000	0,002	0,007
-608,444	232,443	-0,119	-0,143
-607,430	-17,659	0,084	0,039
-606,415	-85,318	-0,109	0,025
-605,401	-9,639	0,038	-0,019
-604,386	148,282	-0,085	-0,084
-603,371	407,951	-0,071	0,111
-602,357	735,944	0,049	0,098
-601,342	15,504	-0,167	0,096
-600,328	-88,580	-0,109	-0,024
-599,313	97,171	-0,053	-0,044
-598,298	-200,000	-0,010	-0,130
-597,284	-75,283	0,043	-0,011
-596,269	558,307	0,025	0,045
-595,255	-200,000	-0,006	0,027
-594,240	116,013	-0,135	-0,122
-593,225	608,818	-0,049	-0,090
-592,211	204,723	-0,039	-0,045
-591,196	573,641	-0,026	0,046
-590,182	800,000	0,007	-0,021
-589,167	800,000	0,038	0,091
-588,152	800,000	0,027	0,076
-587,138	60,891	0,086	0,062
-586,123	214,363	-0,011	-0,012
-585,109	-98,734	-0,053	0,010
-584,094	29,013	-0,040	-0,025
-583,079	-100,067	-0,045	0,008
-582,065	-83,059	-0,117	-0,027
-581,050	262,480	-0,034	-0,043
-580,036	-200,000	0,028	-0,094
-579,021	-197,821	0,104	0,000
-578,006	100,246	-0,111	-0,094
-576,992	131,406	-0,079	-0,074
-575,977	434,704	0,059	-0,095
-574,963	-200,000	0,006	0,120
-573,948	797,217	-0,080	0,163
-572,934	-50,706	0,081	-0,028
-571,919	104,759	-0,148	-0,128
-570,904	-16,306	-0,108	-0,050
-569,890	663,002	0,064	-0,122
-568,875	-94,904	-0,145	-0,028
-567,861	273,867	0,093	0,120
-566,846	-200,000	-0,016	0,095
-565,831	-200,000	0,007	0,062
-564,817	800,000	-0,029	0,079
-563,802	640,379	-0,046	-0,087
-562,788	8,822	-0,067	-0,037
-561,773	244,721	0,055	-0,068
-560,758	-65,258	0,075	-0,022
-559,744	404,422	0,013	0,020
-558,729	210,227	-0,059	0,068
-557,715	-68,200	0,123	-0,035
-556,700	-200,000	-0,012	-0,101
-555,685	-188,343	-0,045	0,000
-554,671	15,376	-0,047	0,027
-553,656	-200,000	0,017	0,101
-552,642	235,004	0,051	0,062
-551,627	-200,000	0,026	0,109
-550,612	-61,501	-0,143	0,044
-549,598	85,134	0,099	0,080
-548,583	-142,429	0,076	-0,005
-547,569	-200,000	0,006	-0,055
-546,554	800,000	0,010	-0,027
-545,539	287,376	0,023	-0,031
-544,525	441,440	0,067	0,108
-543,510	800,000	-0,055	-0,125
-542,496	540,823	-0,022	-0,039
-541,481	259,811	-0,136	-0,172
-540,466	400,757	0,006	-0,009
-539,452	-105,024	0,165	-0,027
-538,437	42,656	-0,045	0,030
-537,423	-125,069	0,195	0,022
-536,408	56,444	-0,080	-0,057
-535,393	233,549	-0,097	-0,117
-534,379	-34,981	0,107	0,043
-533,364	-79,124	0,121	-0,030
-532,350	-61,507	-0,055	0,017
-531,335	-200,000	-0,018	-0,070
-530,321	58,932	-0,033	0,024
-529,306	52,678	-0,100	-0,070
-528,291	-200,000	0,015	0,062
-527,277	-96,069	-0,160	-0,031
-526,262	-153,853	-0,031	0,002
-525,248	116,180	0,094	-0,084
-524,233	55,736	-0,062	0,044
-523,218	-200,000	0,001	0,026
-522,204	-35,060	-0,071	0,028
-521,189	-115,550	-0,115	-0,016
-520,175	-200,000	0,016	0,128
-519,160	272,372	0,013	0,016
-518,145	800,000	0,035	0,072
-517,131	-200,000	0,009	0,062
-516,116	175,413	0,046	-0,049
-515,102	-51,974	0,034	-0,011
-514,087	789,957	0,037	-0,075
-513,072	-14,487	-0,069	0,032
-512,058	276,163	0,045	-0,058
-511,043	41,513	0,072	-0,048
-510,029	-200,000	-0,016	-0,075
-509,014	35,642	-0,064	0,041
-507,999	24,062	0,143	0,086
-506,985	-184,901	0,012	-0,000
-505,970	327,694	-0,095	-0,133
-504,956	353,486	-0,051	-0,074
-503,941	69,543	0,046	0,035
-502,926	90,522	0,086	0,070
-501,912	-200,000	-0,030	0,098
-500,897	-21,787	0,058	-0,026
-499,883	623,644	-0,032	0,059
-498,868	506,902	0,028	-0,048
-497,853	-200,000	0,024	-0,099
-496,839	26,786	0,115	0,070
-495,824	-58,990	-0,032	-0,010
-494,810	103,057	0,049	-0,042
-493,795	381,782	-0,023	-0,034
-492,781	800,000	-0,026	0,063
-491,766	206,732	-0,060	-0,068
-490,751	-34,482	-0,052	0,021
-489,737	-200,000	-0,026	-0,159
-488,722	249,693	0,089	0,110
-487,708	-105,703	-0,038	0,006
-486,693	-200,000	0,031	0,158
-485,678	-200,000	0,017	0,070
-484,664	-43,108	-0,079	0,029
-483,649	-200,000	0,001	-0,112
-482,635	66,585	0,081	0,060
-481,620	-40,284	0,115	-0,043
-480,605	-200,000	-0,022	0,176
-479,591	-47,676	0,112	0,039
-478,576	800,000	0,045	-0,109
-477,562	800,000	-0,072	0,154
-476,547	123,213	-0,138	0,126
-475,532	-133,975	-0,080	-0,007
-474,518	-43,739	0,158	0,058
-473,503	40,461	-0,074	-0,048
-472,489	-200,000	0,010	-0,075
-471,474	6,216	0,047	0,025
-470,459	-141,007	-0,192	0,014
-469,445	-200,000	0,010	-0,044
-468,430	-200,000	-0,020	-0,118
-467,416	196,826	0,069	-0,077
-466,401	-81,620	0,026	0,006
-465,386	800,000	-0,039	0,110
-464,372	389,540	-0,049	-0,074
-463,357	-200,000	-0,003	0,036
-462,343	115,179	-0,090	-0,080
-461,328	-59,813	0,111	-0,035
-460,313	800,000	-0,018	-0,057
-459,299	-200,000	-0,005	-0,055
-458,284	61,158	0,025	0,018
-457,270	-42,482	0,115	-0,043
-456,255	-76,302	-0,116	-0,030
-455,241	-167,818	-0,126	-0,004
-454,226	62,947	0,032	-0,023
-453,211	-39,002	0,054	0,021
-452,197	253,111	-0,096	0,120
-451,182	141,197	0,112	-0,108
-450,168	77,717	-0,047	0,037
-449,153	592,295	0,092	-0,167
-448,138	-200,000	-0,033	-0,175
-447,124	-200,000	-0,012	0,045
-446,109	108,995	-0,044	0,038
-445,095	-115,848	0,078	0,010
-444,080	800,000	0,069	0,149
-443,065	-200,000	0,023	-0,085
-442,051	-24,554	0,049	0,021
-441,036	-32,779	-0,120	-0,048
-440,022	-58,168	0,059	-0,018
-439,007	-200,000	0,029	-0,169
-437,992	194,767	0,101	0,112
-436,978	256,488	0,134	0,168
-435,963	-42,780	-0,046	-0,017
-434,949	96,992	0,097	0,081
-433,934	800,000	0,057	0,152
-432,919	-3,649	-0,051	-0,026
-431,905	168,831	0,057	0,059
-430,890	800,000	-0,026	-0,074
-429,876	210,148	-0,054	-0,062
-428,861	800,000	0,020	-0,055
-427,846	164,637	-0,022	-0,023
-426,832	-3,750	0,144	0,072
-425,817	-66,943	-0,046	0,013
-424,803	-200,000	0,013	-0,177
-423,788	-40,970	-0,085	-0,032
-422,773	-200,000	0,008	0,084
-421,759	-131,952	0,053	-0,005
-420,744	800,000	-0,038	-0,092
-419,730	-69,935	0,105	-0,029
-418,715	91,491	-0,064	-0,053
-417,701	-85,543	-0,022	-0,005
-416,686	-129,016	0,223	-0,022
-415,671	-34,661	-0,117	0,047
-414,657	291,625	-0,078	0,103
-413,642	78,382	0,101	0,078
-412,628	107,921	-0,096	-0,084
-411,613	239,167	-0,048	-0,058
-410,598	-200,000	-0,005	0,144
-409,584	-39,036	0,090	0,034
-408,569	327,868	0,049	0,069
-407,555	434,326	-0,064	0,102
-406,540	800,000	0,020	-0,056
-405,525	22,291	-0,086	0,051
-404,511	800,000	-0,036	-0,111
-403,496	-200,000	0,035	0,128
-402,482	216,257	0,052	-0,060
-401,467	165,971	-0,052	-0,053
-400,452	215,943	0,073	0,084
-399,438	800,000	0,050	-0,114
-398,423	-200,000	0,025	0,189
-397,409	-80,429	0,031	-0,008
-396,394	-83,123	-0,103	0,024
-395,379	800,000	0,044	-0,117
-394,365	351,354	-0,023	-0,034
-393,350	278,915	0,095	0,123
-392,336	-134,284	-0,061	-0,005
-391,321	13,739	0,053	0,030
-390,306	-89,099	-0,033	-0,007
-389,292	-200,000	-0,040	-0,183
-388,277	-51,731	0,086	-0,029
-387,263	185,231	0,082	0,088
-386,248	-200,000	-0,010	0,064
-385,233	-200,000	-0,004	0,040
-384,219	313,420	0,056	-0,077
-383,204	-200,000	-0,032	-0,110
-382,190	-58,280	0,062	0,020
-381,175	325,898	-0,031	0,043
-380,160	-200,000	-0,012	0,077
-379,146	-17,240	0,109	-0,050
-378,131	800,000	0,033	0,089
-377,117	113,557	-0,077	0,068
-376,102	-200,000	-0,013	-0,071
-375,088	421,534	-0,046	0,072
-374,073	-200,000	0,003	-0,014
-373,058	-79,890	-0,091	-0,022
-372,044	333,853	-0,052	-0,073
-371,029	110,854	0,014	0,012
-370,015	800,000	-0,033	-0,088
-369,000	800,000	-0,022	-0,065
-367,985	-5,529	0,135	0,067
-366,971	-200,000	0,002	-0,066
-365,956	800,000	0,070	0,197
-364,942	800,000	0,033	0,069
-363,927	-58,976	0,129	0,040
-362,912	-8,449	0,016	-0,008
-361,898	209,555	-0,087	0,100
-360,883	427,378	0,075	-0,118
-359,869	619,874	-0,015	-0,027
-358,854	42,288	-0,053	-0,035
-357,839	60,496	-0,035	0,025
-356,825	-200,000	0,047	0,155
-355,810	81,590	0,119	0,094
-354,796	-200,000	0,005	-0,038
-353,781	800,000	0,010	0,021
-352,766	-149,742	-0,074	-0,004
-351,752	33,339	-0,038	-0,024
-350,737	-109,333	0,144	0,022
-349,723	24,681	0,068	0,041
-348,708	-77,266	0,012	0,003
-347,693	18,481	-0,083	0,048
-346,679	800,000	0,047	-0,126
-345,664	392,394	0,071	-0,108
-344,650	-88,999	-0,046	-0,010
-343,635	-111,014	0,109	0,016
-342,620	-53,356	0,049	0,016
-341,606	77,177	-0,024	0,019
-340,591	417,329	0,044	-0,069
-339,577	-90,010	0,123	0,026
-338,562	-200,000	0,004	-0,080
-337,548	-200,000	-0,002	0,049
-336,533	51,316	0,132	0,091
-335,518	-196,750	0,136	-0,001
-334,504	11,635	0,097	0,054
-333,489	-59,685	-0,115	0,035
-332,475	157,747	-0,040	0,040
-331,460	-92,645	-0,043	0,009
-330,445	163,786	0,114	-0,117
-329,431	-80,065	0,042	-0,010
-328,416	351,130	0,047	0,068
-327,402	-77,324	-0,149	-0,037
-326,387	142,822	-0,076	0,074
-325,372	800,000	0,051	-0,137
-324,358	5,317	0,016	-0,009
-323,343	-61,836	0,116	-0,035
-322,329	-45,072	-0,031	-0,011
-321,314	30,647	0,037	-0,023
-320,299	639,122	-0,102	0,189
-319,285	-16,289	-0,113	-0,052
-318,270	-200,000	-0,037	-0,142
-317,256	800,000	-0,040	-0,092
-316,241	-46,050	0,106	0,038
-315,226	96,000	0,056	0,046
-314,212	-60,975	0,021	-0,006
-313,197	-200,000	0,011	0,107
-312,183	225,706	-0,073	0,086
-311,168	-14,630	0,143	-0,066
-310,153	227,703	0,037	-0,044
-309,139	447,557	-0,105	0,168
-308,124	32,736	0,071	0,044
-307,110	477,790	-0,098	0,162
-306,095	-13,704	0,078	0,037
-305,080	800,000	0,042	0,095
-304,066	-143,393	-0,102	0,007
-303,051	-200,000	-0,010	-0,060
-302,037	400,812	-0,058	-0,089
-301,022	800,000	-0,075	-0,155
-300,008	-4,291	0,037	-0,019
-298,993	-94,525	0,041	0,008
-297,978	-200,000	-0,040	0,183
-296,964	-33,106	0,060	0,024
-295,949	160,777	-0,061	0,062
-294,935	-12,531	0,079	-0,037
-293,920	196,061	0,013	-0,015
-292,905	353,120	0,036	0,053
-291,891	64,053	-0,085	-0,062
-290,876	65,925	-0,044	0,033
-289,862	-133,157	-0,031	0,003
-288,847	-57,546	0,040	-0,013
-287,832	-200,000	0,009	0,050
-286,818	800,000	-0,056	0,178
-285,803	172,972	0,101	0,106
-284,789	57,032	-0,071	-0,050
-283,774	-32,775	0,095	-0,038
-282,759	-200,000	-0,011	0,057
-281,745	-57,262	0,095	-0,030
-280,730	-2,274	0,058	-0,029
-279,716	-22,066	0,056	-0,024
-278,701	202,924	-0,006	-0,007
-277,686	-142,895	0,151	0,010
-276,672	-200,000	0,014	-0,097
-275,657	98,410	-0,087	0,072
-274,643	315,714	-0,017	-0,023
-273,628	-200,000	-0,012	-0,162
-272,613	-200,000	-0,002	-0,139
-271,599	-124,614	-0,091	-0,010
-270,584	10,428	-0,084	0,046
-269,570	-200,000	-0,025	0,085
-268,555	-200,000	0,003	-0,029
-267,540	800,000	-0,026	-0,062
-266,526	-200,000	0,014	-0,052
-265,511	-200,000	0,034	-0,211
-264,497	800,000	0,020	-0,058
-263,482	800,000	0,012	0,039
-262,467	-200,000	-0,023	0,081
-261,453	-150,350	-0,198	0,011
-260,438	686,702	0,082	-0,155
-259,424	218,233	0,052	0,061
-258,409	-89,112	-0,142	0,030
-257,395	800,000	0,018	0,040
-256,380	342,874	0,140	0,198
-255,365	-1,744	0,082	0,042
-254,351	-200,000	-0,006	-0,075
-253,336	-136,962	-0,130	0,011
-252,322	-200,000	0,011	-0,127
-251,307	268,686	0,043	-0,054
-250,292	-152,043	0,173	0,009
-249,278	250,780	0,099	0,122
-248,263	-200,000	0,015	0,078
-247,249	-14,320	-0,054	0,025
-246,234	-165,118	-0,049	0,002
-245,219	91,022	-0,059	0,048
-244,205	-9,973	-0,036	0,017
-243,190	162,954	0,040	0,040
-242,176	800,000	0,073	-0,169
-241,161	800,000	0,027	0,073
-240,146	258,676	-0,016	0,021
-239,132	76,496	0,092	0,070
-238,117	-33,751	-0,129	0,051
-237,103	63,222	0,034	0,025
-236,088	-200,000	-0,002	-0,061
-235,073	730,454	-0,037	0,072
-234,059	-54,841	0,147	0,048
-233,044	19,242	-0,043	-0,025
-232,030	184,909	0,012	-0,013
-231,015	777,937	-0,063	-0,126
-230,000	-34,935	-0,049	0,019
-228,986	-200,000	0,029	0,116
-227,971	-116,744	0,029	-0,004
-226,957	-88,776	0,109	0,023
-225,942	-62,541	0,108	0,032
-224,927	-155,593	-0,031	-0,001
-223,913	-200,000	-0,029	-0,111
-222,898	686,282	-0,117	-0,221
-221,884	-200,000	-0,036	-0,168
-220,869	-107,178	0,068	0,011
-219,855	-84,369	-0,044	-0,010
-218,840	800,000	0,008	-0,026
-217,825	-68,000	-0,181	0,051
-216,811	-13,781	-0,080	-0,037
-215,796	-200,000	-0,066	-0,216
-214,782	-64,758	-0,138	-0,040
-213,767	-200,000	-0,003	0,079
-212,752	297,111	0,073	0,096
-211,738	415,489	-0,059	0,092
-210,723	800,000	-0,040	0,125
-209,709	-132,554	0,083	0,008
-208,694	-135,703	-0,044	0,004
-207,679	-200,000	-0,006	-0,070
-206,665	-0,661	0,122	-0,062
-205,650	247,993	0,050	-0,061
-204,636	800,000	0,042	0,124
-203,621	-39,146	0,057	-0,022
-202,606	79,900	0,143	-0,111
-201,592	-200,000	-0,002	-0,048
-200,577	114,128	-0,079	-0,070
-199,563	630,268	-0,042	0,077
-198,548	-151,553	0,035	-0,002
-197,533	-8,241	0,036	0,018
-196,519	800,000	0,009	0,026
-195,504	175,623	-0,109	-0,114
-194,490	800,000	-0,026	-0,078
-193,475	-98,649	-0,035	-0,006
-192,460	-10,010	0,097	-0,046
-191,446	19,188	-0,046	-0,027
-190,431	800,000	-0,014	-0,032
-189,417	-12,090	-0,042	-0,020
-188,402	-42,241	0,048	0,018
-187,387	-200,000	0,010	-0,050
-186,373	156,438	-0,077	-0,077
-185,358	-107,507	0,040	-0,006
-184,344	654,125	0,014	0,026
-183,329	-136,064	-0,013	-0,001
-182,315	91,048	0,055	0,045
-181,300	439,448	-0,120	-0,189
-180,285	-200,000	0,000	0,048
-179,271	52,125	0,045	0,031
-178,256	574,908	-0,050	-0,089
-177,242	800,000	-0,014	-0,032
-176,227	198,796	0,039	-0,044
-175,212	95,758	-0,135	0,111
-174,198	145,328	-0,069	0,067
-173,183	800,000	-0,044	0,091
-172,169	-89,545	0,101	0,021
-171,154	800,000	-0,040	0,080
-170,139	-200,000	0,021	0,077
-169,125	-200,000	0,101	-0,000
-168,110	182,148	-0,073	0,078
-167,096	800,000	0,039	0,111
-166,081	-164,797	0,043	0,001
-165,066	-200,000	0,009	-0,137
-164,052	-200,000	0,007	-0,088
-163,037	-200,000	0,000	-0,004
-162,023	800,000	-0,098	0,204
-161,008	800,000	-0,067	0,183
-159,993	549,544	0,029	-0,051
-158,979	609,344	0,003	-0,006
-157,964	-200,000	0,033	0,119
-156,950	-200,000	0,005	-0,060
-155,935	-200,000	-0,019	0,071
-154,920	-105,896	0,056	0,009
-153,906	800,000	0,029	0,065
-152,891	-200,000	0,011	0,072
-151,877	-71,396	-0,059	-0,016
-150,862	-200,000	-0,008	0,036
-149,847	7,225	-0,062	0,033
-148,833	-172,369	-0,034	0,001
-147,818	141,331	0,056	0,054
-146,804	800,000	0,102	0,206
-145,789	-200,000	0,015	-0,124
-144,775	146,191	-0,084	-0,081
-143,760	-17,628	0,002	0,001
-142,745	-166,395	-0,134	-0,004
-141,731	800,000	-0,036	-0,080
-140,716	-173,278	0,110	-0,002
-139,702	-142,813	0,068	-0,005
-138,687	-200,000	0,007	0,038
-137,672	22,071	0,143	-0,084
-136,658	-73,326	-0,073	0,019
-135,643	800,000	-0,025	-0,061
-134,629	-30,536	-0,096	0,039
-133,614	800,000	0,039	0,123
-132,599	-174,049	-0,168	0,003
-131,585	117,565	0,095	0,084
-130,570	800,000	0,034	-0,077
-129,556	101,007	-0,046	-0,038
-128,541	-200,000	0,008	-0,124
-127,526	-161,184	0,098	-0,004
-126,512	-12,303	0,059	-0,028
-125,497	800,000	-0,023	0,059
-124,483	-200,000	0,011	0,081
-123,468	-200,000	-0,006	-0,026
-122,453	-99,617	-0,151	-0,027
-121,439	230,778	0,003	0,004
-120,424	187,536	0,033	0,036
-119,410	71,787	0,067	0,050
-118,395	-200,000	0,012	0,100
