DTS Sentinel unit serial number:	SN410029Multiplexer serial number:	ORYXHardware model number:	OX2-SRSoftware version number:	ORYX F/W v4,00 Oryx Data Collector v3.7.2.0data status	okinstallation	B5 Nyhavnadifferential loss correction	single-endedforward channel	channel 2reverse channel	N/Adate	2023/12/12time	05:37:13forward acquisition time	300,00reverse acquisition time	0,00gamma	499,1914k internal	0,3157k external	0,3157temperature offset calibration	1,0000default loss term (dB/km)	0,3820temperature slope calibration	1,0000multiplexer offset coefficient	1,0000multiplexer slope coefficient	1,0000fibre end	0,00T internal ref (°C)	15,34T ext. ref 1 (°C)	-1,03T ext. ref 2 (°C)	-1,33length (m)	temperature (°C)	Stokes	anti-Stokes-744,400	-200,000	0,007	0,080
-743,385	-65,895	-0,268	0,078
-742,371	47,723	0,110	0,076
-741,356	-103,611	-0,178	0,030
-740,342	67,833	0,111	0,083
-739,327	65,247	-0,177	0,132
-738,312	-168,669	-0,150	0,004
-737,298	-172,398	-0,217	-0,005
-736,283	-36,971	0,158	-0,062
-735,269	-127,615	-0,182	-0,019
-734,254	159,830	0,093	0,096
-733,239	21,865	-0,415	-0,249
-732,225	-115,874	0,275	-0,037
-731,210	800,000	0,027	-0,059
-730,196	-200,000	-0,005	0,022
-729,181	-200,000	0,024	-0,169
-728,167	96,674	-0,094	0,079
-727,152	-200,000	-0,006	-0,048
-726,137	17,726	-0,075	-0,044
-725,123	-59,586	-0,124	-0,039
-724,108	-1,578	-0,138	-0,071
-723,094	203,741	0,053	-0,060
-722,079	-119,581	-0,108	0,014
-721,064	-146,287	0,077	-0,005
-720,050	148,552	-0,048	-0,048
-719,035	183,613	-0,013	-0,014
-718,021	-39,684	0,024	0,009
-717,006	0,935	0,054	-0,029
-715,991	241,106	0,077	-0,095
-714,977	-30,084	-0,164	-0,068
-713,962	-62,498	-0,069	0,021
-712,948	-28,732	0,038	-0,016
-711,933	-17,370	-0,059	-0,027
-710,918	-95,891	0,033	-0,006
-709,904	-102,553	-0,155	-0,027
-708,889	800,000	-0,033	-0,088
-707,875	407,560	-0,112	-0,176
-706,860	59,363	-0,084	-0,061
-705,845	-11,493	-0,034	-0,016
-704,831	740,204	0,028	0,056
-703,816	-200,000	-0,007	-0,094
-702,802	227,747	0,017	-0,020
-701,787	40,243	-0,098	0,065
-700,772	-200,000	0,018	0,086
-699,758	-200,000	0,003	-0,091
-698,743	87,790	-0,105	-0,086
-697,729	-82,920	-0,082	0,019
-696,714	238,393	-0,020	0,025
-695,699	-200,000	0,000	0,018
-694,685	141,059	-0,075	0,074
-693,670	-107,846	0,052	-0,008
-692,656	82,098	-0,082	-0,065
-691,641	-79,168	0,042	-0,010
-690,627	545,985	-0,010	-0,018
-689,612	800,000	0,005	0,014
-688,597	245,066	0,052	-0,064
-687,583	278,137	-0,097	-0,128
-686,568	-200,000	-0,023	-0,079
-685,554	800,000	0,025	-0,082
-684,539	20,281	0,071	-0,042
-683,524	569,549	0,054	-0,097
-682,510	93,399	0,108	-0,090
-681,495	684,173	-0,026	0,051
-680,481	-200,000	-0,138	0,000
-679,466	-188,470	-0,120	-0,001
-678,451	-25,224	0,074	0,032
-677,437	78,388	-0,087	-0,068
-676,422	439,611	-0,059	-0,096
-675,408	-200,000	-0,007	-0,092
-674,393	334,853	0,033	0,047
-673,378	-200,000	-0,053	-0,177
-672,364	738,224	0,038	-0,076
-671,349	106,576	0,082	0,071
-670,335	-106,449	0,048	0,008
-669,320	-59,565	-0,087	-0,027
-668,305	422,342	0,043	-0,068
-667,291	-135,158	-0,147	0,013
-666,276	-200,000	-0,016	-0,096
-665,262	311,461	-0,096	-0,132
-664,247	-200,000	0,048	-0,157
-663,232	-135,179	0,022	-0,002
-662,218	-133,937	-0,077	-0,007
-661,203	-200,000	0,021	0,083
-660,189	102,475	-0,051	-0,044
-659,174	16,993	-0,065	-0,038
-658,159	-200,000	-0,007	-0,044
-657,145	-115,818	-0,126	0,017
-656,130	60,566	0,167	-0,121
-655,116	800,000	0,023	-0,049
-654,101	71,610	0,101	0,077
-653,086	-200,000	-0,023	-0,090
-652,072	-168,115	0,038	0,001
-651,057	-138,823	-0,086	-0,007
-650,043	137,311	-0,076	-0,073
-649,028	-200,000	-0,027	0,089
-648,014	-73,104	-0,034	-0,009
-646,999	447,550	0,052	-0,084
-645,984	20,550	0,091	0,054
-644,970	137,620	-0,036	0,035
-643,955	-69,196	-0,045	-0,013
-642,941	215,928	-0,108	-0,127
-641,926	27,230	-0,059	-0,037
-640,911	-200,000	0,013	-0,078
-639,897	-43,364	0,152	-0,056
-638,882	-200,000	0,006	0,079
-637,868	110,544	0,018	-0,016
-636,853	-200,000	-0,105	0,000
-635,838	27,828	-0,132	-0,082
-634,824	-200,000	0,001	-0,030
-633,809	800,000	-0,035	-0,078
-632,795	203,670	-0,040	-0,046
-631,780	-26,349	-0,079	0,034
-630,765	664,662	-0,039	0,074
-629,751	7,029	-0,059	0,032
-628,736	-200,000	-0,024	-0,139
-627,722	-200,000	0,004	0,050
-626,707	800,000	0,022	-0,059
-625,692	-81,752	0,044	-0,011
-624,678	-29,006	0,063	0,026
-623,663	800,000	0,029	-0,062
-622,649	-118,740	0,069	-0,009
-621,634	76,550	0,060	0,046
-620,619	113,517	-0,082	0,073
-619,605	-200,000	0,011	0,083
-618,590	251,823	0,039	-0,049
-617,576	-200,000	0,007	-0,026
-616,561	587,754	0,021	-0,038
-615,546	194,923	0,036	0,040
-614,532	370,594	0,031	-0,046
-613,517	24,676	-0,069	-0,042
-612,503	-125,200	-0,032	0,004
-611,488	-182,007	0,064	-0,001
-610,474	800,000	0,035	0,093
-609,459	621,683	0,035	-0,065
-608,444	-52,533	-0,022	0,008
-607,430	-106,672	-0,069	-0,011
-606,415	-200,000	-0,002	-0,090
-605,401	-200,000	-0,011	0,075
-604,386	800,000	-0,013	0,041
-603,371	-200,000	-0,010	0,041
-602,357	89,927	0,108	-0,088
-601,342	98,945	-0,049	0,042
-600,328	374,246	-0,098	-0,147
-599,313	375,763	-0,101	-0,152
-598,298	-33,801	0,194	0,078
-597,284	800,000	-0,019	-0,050
-596,269	800,000	0,026	0,054
-595,255	-31,535	0,142	0,058
-594,240	-10,877	-0,024	-0,012
-593,225	-48,249	0,052	-0,018
-592,211	98,405	-0,038	-0,032
-591,196	-105,665	0,056	-0,009
-590,182	313,617	0,043	-0,060
-589,167	297,057	-0,075	0,101
-588,152	-98,867	0,152	-0,028
-587,138	37,092	0,028	0,018
-586,123	-101,238	-0,069	-0,012
-585,109	-51,360	-0,120	-0,041
-584,094	114,281	0,079	-0,071
-583,079	-200,000	-0,016	-0,054
-582,065	233,334	0,066	0,080
-581,050	382,914	-0,088	0,133
-580,036	800,000	0,055	0,119
-579,021	-30,603	-0,082	-0,034
-578,006	-128,479	-0,007	-0,001
-576,992	59,573	0,074	-0,053
-575,977	-17,427	0,057	-0,026
-574,963	-106,739	0,175	-0,028
-573,948	-200,000	0,002	-0,078
-572,934	298,315	-0,070	0,094
-571,919	297,003	-0,065	-0,088
-570,904	461,272	0,076	-0,124
-569,890	-4,547	0,073	-0,037
-568,875	800,000	0,038	-0,086
-567,861	-200,000	0,012	0,139
-566,846	-12,953	-0,069	0,033
-565,831	52,999	-0,097	0,068
-564,817	-200,000	0,005	-0,168
-563,802	535,883	0,055	0,095
-562,788	4,421	0,042	-0,022
-561,773	246,885	-0,074	0,091
-560,758	-200,000	-0,007	0,106
-559,744	800,000	0,038	0,088
-558,729	408,659	-0,034	-0,053
-557,715	98,086	-0,075	-0,063
-556,700	-200,000	-0,204	0,000
-555,685	534,132	0,085	-0,148
-554,671	648,873	0,041	-0,077
-553,656	800,000	0,028	0,062
-552,642	739,332	-0,064	0,127
-551,627	800,000	0,055	0,121
-550,612	69,621	0,080	0,060
-549,598	-46,272	-0,119	-0,042
-548,583	-131,940	0,115	0,011
-547,569	135,126	0,080	-0,077
-546,554	-200,000	-0,020	0,159
-545,539	90,926	-0,038	-0,031
-544,525	-151,645	0,049	0,003
-543,510	-200,000	0,013	-0,059
-542,496	442,861	-0,070	-0,112
-541,481	363,239	0,043	-0,064
-540,466	-200,000	-0,003	0,023
-539,452	-200,000	0,004	-0,017
-538,437	31,655	0,059	-0,037
-537,423	-200,000	0,002	-0,016
-536,408	-81,521	-0,148	-0,035
-535,393	800,000	0,005	-0,012
-534,379	5,132	-0,030	0,016
-533,364	-135,730	0,092	0,008
-532,350	73,172	0,051	0,039
-531,335	800,000	0,037	-0,117
-530,321	-200,000	0,011	0,064
-529,306	178,313	-0,035	-0,037
-528,291	298,077	-0,054	-0,073
-527,277	-26,820	-0,091	0,039
-526,262	-200,000	0,007	0,030
-525,248	-200,000	-0,002	0,203
-524,233	-200,000	0,020	0,181
-523,218	-70,368	0,053	-0,015
-522,204	-102,673	0,236	0,041
-521,189	-137,843	-0,068	0,006
-520,175	349,095	-0,106	0,153
-519,160	273,920	0,101	-0,131
-518,145	-200,000	0,010	-0,145
-517,131	-85,855	-0,041	-0,009
-516,116	-114,283	0,036	0,005
-515,102	711,675	0,028	-0,054
-514,087	-145,727	-0,128	-0,008
-513,072	-200,000	-0,003	0,019
-512,058	-71,847	-0,114	0,031
-511,043	590,205	-0,031	0,056
-510,029	269,712	-0,025	-0,032
-509,014	-87,351	-0,121	0,027
-507,999	-41,860	0,086	0,032
-506,985	168,321	-0,105	-0,109
-505,970	800,000	0,034	0,080
-504,956	-200,000	-0,002	0,020
-503,941	-56,120	0,031	-0,010
-502,926	-200,000	-0,015	0,065
-501,912	-93,357	0,044	-0,009
-500,897	-200,000	-0,023	0,104
-499,883	328,942	0,062	0,087
-498,868	-83,493	-0,250	-0,058
-497,853	-200,000	-0,026	-0,128
-496,839	-17,385	-0,036	-0,016
-495,824	431,174	0,082	0,130
-494,810	442,117	-0,070	0,112
-493,795	556,275	-0,059	0,105
-492,781	-19,918	-0,092	-0,041
-491,766	-113,206	0,077	0,011
-490,751	-28,225	-0,110	0,046
-489,737	-200,000	-0,031	-0,105
-488,722	446,647	0,088	0,141
-487,708	188,087	-0,060	0,066
-486,693	-78,135	-0,058	0,015
-485,678	-131,258	-0,132	0,013
-484,664	-129,424	-0,083	-0,008
-483,649	-200,000	0,003	-0,099
-482,635	736,430	0,061	-0,120
-481,620	228,624	0,072	0,086
-480,605	157,680	0,082	0,083
-479,591	-200,000	-0,005	0,053
-478,576	-200,000	-0,014	0,074
-477,562	-51,462	0,064	0,022
-476,547	-84,001	0,158	-0,036
-475,532	206,164	0,039	0,044
-474,518	-200,000	0,011	-0,051
-473,503	-28,434	0,075	-0,031
-472,489	800,000	0,039	-0,108
-471,474	-43,332	0,018	0,007
-470,459	566,253	-0,038	0,068
-469,445	136,177	-0,060	-0,058
-468,430	362,387	-0,045	-0,067
-467,416	-100,269	0,197	0,035
-466,401	800,000	-0,014	0,032
-465,386	35,689	0,178	-0,114
-464,372	31,465	0,035	0,022
-463,357	-200,000	-0,011	-0,060
-462,343	-9,318	0,053	-0,026
-461,328	-117,751	-0,099	0,013
-460,313	800,000	0,014	0,044
-459,299	276,196	0,050	0,065
-458,284	-200,000	0,011	0,087
-457,270	586,289	0,038	0,068
-456,255	234,479	-0,091	-0,110
-455,241	-52,371	-0,110	-0,037
-454,226	-42,453	-0,130	-0,048
-453,211	-112,501	0,053	-0,008
-452,197	-200,000	0,015	0,082
-451,182	-33,634	0,041	-0,016
-450,168	102,465	-0,101	0,086
-449,153	-22,470	0,100	-0,044
-448,138	800,000	-0,072	-0,152
-447,124	91,117	-0,046	0,038
-446,109	108,283	0,100	0,087
-445,095	-154,158	-0,031	0,002
-444,080	493,733	-0,077	0,129
-443,065	-81,765	0,058	0,014
-442,051	-13,490	-0,092	-0,043
-441,036	366,370	0,040	0,059
-440,022	-30,239	0,068	-0,028
-439,007	-9,402	-0,075	-0,036
-437,992	269,299	0,065	0,084
-436,978	289,436	0,109	0,144
-435,963	43,525	-0,083	-0,055
-434,949	-200,000	-0,019	0,109
-433,934	161,785	-0,089	-0,091
-432,919	-200,000	-0,036	-0,156
-431,905	373,763	-0,063	-0,094
-430,890	-103,618	0,108	-0,018
-429,876	-69,007	0,110	0,031
-428,861	-81,886	-0,077	0,018
-427,846	6,376	-0,104	0,056
-426,832	-105,918	-0,112	-0,018
-425,817	-200,000	0,026	0,124
-424,803	800,000	0,038	0,111
-423,788	-200,000	0,022	0,078
-422,773	-0,652	-0,028	0,014
-421,759	-97,646	-0,084	0,016
-420,744	48,045	0,036	-0,024
-419,730	-200,000	-0,025	-0,103
-418,715	229,684	-0,087	-0,104
-417,701	560,563	0,015	-0,027
-416,686	398,064	-0,028	-0,042
-415,671	-26,582	0,026	-0,011
-414,657	-200,000	-0,006	0,055
-413,642	-200,000	-0,028	0,129
-412,628	-200,000	-0,008	0,027
-411,613	-200,000	0,008	0,112
-410,598	-98,902	-0,034	0,006
-409,584	-123,122	0,058	-0,007
-408,569	800,000	0,116	-0,246
-407,555	-200,000	-0,013	0,047
-406,540	800,000	0,025	0,059
-405,525	-25,260	-0,059	-0,025
-404,511	109,108	-0,070	-0,061
-403,496	-200,000	-0,006	0,031
-402,482	-200,000	-0,006	0,097
-401,467	85,975	0,164	0,132
-400,452	800,000	-0,047	-0,122
-399,438	-108,907	0,195	0,030
-398,423	636,014	-0,090	-0,166
-397,409	-200,000	-0,016	-0,160
-396,394	-200,000	-0,128	0,000
-395,379	-200,000	0,040	0,190
-394,365	-200,000	0,009	0,156
-393,350	-0,769	0,136	0,070
-392,336	66,326	0,035	0,026
-391,321	219,765	-0,075	-0,088
-390,306	18,207	0,026	0,015
-389,292	800,000	0,028	0,074
-388,277	-200,000	-0,020	0,109
-387,263	-100,929	0,148	-0,026
-386,248	-82,130	0,052	-0,012
-385,233	-43,438	-0,062	-0,023
-384,219	-200,000	0,014	0,054
-383,204	350,414	-0,167	-0,241
-382,190	-107,466	0,025	0,004
-381,175	800,000	0,034	0,091
-380,160	140,979	0,123	-0,118
-379,146	317,805	0,046	-0,064
-378,131	154,727	-0,046	-0,046
-377,117	-32,351	-0,101	0,041
-376,102	-163,199	-0,069	0,002
-375,088	-200,000	0,030	0,000
-374,073	800,000	0,016	-0,035
-373,058	-200,000	-0,011	-0,110
-372,044	-133,077	0,081	-0,007
-371,029	800,000	0,038	-0,106
-370,015	-200,000	-0,003	-0,173
-369,000	-106,764	-0,048	0,008
-367,985	-200,000	0,005	0,024
-366,971	-56,077	0,103	0,033
-365,956	-122,199	0,058	-0,007
-364,942	562,386	0,010	0,018
-363,927	418,798	0,021	-0,033
-362,912	-130,255	-0,044	-0,004
-361,898	800,000	-0,026	-0,059
-360,883	-46,000	-0,170	-0,060
-359,869	-78,592	0,062	0,015
-358,854	-95,197	-0,094	-0,018
-357,839	79,380	-0,060	-0,047
-356,825	144,600	0,038	-0,037
-355,810	518,410	0,061	0,104
-354,796	-29,524	0,049	0,020
-353,781	800,000	0,002	0,005
-352,766	-122,773	-0,039	-0,005
-351,752	800,000	0,022	-0,054
-350,737	-9,574	0,105	0,051
-349,723	800,000	0,024	0,067
-348,708	-200,000	0,032	0,135
-347,693	489,119	0,044	-0,073
-346,679	-86,830	-0,149	-0,033
-345,664	110,699	-0,072	0,063
-344,650	-38,317	0,217	0,083
-343,635	-111,857	0,141	-0,020
-342,620	-200,000	-0,008	0,078
-341,606	99,498	0,028	-0,024
-340,591	-200,000	0,032	0,127
-339,577	41,788	-0,082	-0,054
-338,562	11,943	0,039	-0,022
-337,548	131,849	0,074	0,069
-336,533	800,000	0,044	0,112
-335,518	290,561	0,056	0,075
-334,504	800,000	-0,036	-0,095
-333,489	276,755	-0,014	0,017
-332,475	-200,000	0,013	-0,042
-331,460	25,835	-0,050	0,030
-330,445	800,000	-0,042	-0,115
-329,431	-200,000	-0,003	-0,049
-328,416	800,000	0,029	-0,061
-327,402	-200,000	0,036	0,173
-326,387	543,885	0,056	0,097
-325,372	-140,154	0,039	0,003
-324,358	135,907	-0,029	0,028
-323,343	396,586	-0,022	0,033
-322,329	-200,000	-0,008	0,032
-321,314	-200,000	0,013	-0,086
-320,299	51,371	-0,040	-0,027
-319,285	-200,000	-0,006	-0,094
-318,270	-79,766	0,124	-0,030
-317,256	451,572	-0,012	0,019
-316,241	424,368	-0,048	-0,076
-315,226	458,312	-0,049	0,080
-314,212	195,294	-0,091	0,101
-313,197	206,981	0,023	0,026
-312,183	157,663	-0,071	0,072
-311,168	30,944	0,169	0,105
-310,153	165,689	-0,119	-0,123
-309,139	800,000	0,036	0,099
-308,124	273,287	0,099	0,127
-307,110	-200,000	0,012	0,044
-306,095	800,000	-0,013	0,028
-305,080	247,365	-0,104	-0,128
-304,066	800,000	0,063	-0,152
-303,051	87,785	-0,099	-0,079
-302,037	11,077	-0,050	-0,028
-301,022	-32,872	-0,136	-0,054
-300,008	59,671	0,103	-0,073
-298,993	-200,000	-0,006	-0,103
-297,978	-87,672	-0,039	0,008
-296,964	670,981	0,030	0,056
-295,949	180,872	0,102	-0,108
-294,935	-61,817	0,038	0,012
-293,920	800,000	-0,018	-0,037
-292,905	-39,267	0,093	0,035
-291,891	-200,000	0,016	-0,116
-290,876	-14,480	-0,107	0,050
-289,862	659,399	0,027	-0,050
-288,847	36,222	-0,094	-0,060
-287,832	-104,423	-0,053	-0,009
-286,818	800,000	-0,066	0,172
-285,803	499,862	0,033	0,055
-284,789	509,960	0,009	0,016
-283,774	-170,027	0,072	-0,002
-282,759	166,963	-0,040	0,041
-281,745	66,305	0,035	-0,026
-280,730	-151,933	-0,067	-0,003
-279,716	653,904	0,054	0,101
-278,701	102,921	0,099	-0,084
-277,686	80,103	0,033	0,026
-276,672	24,726	-0,041	0,025
-275,657	-130,363	0,051	-0,005
-274,643	153,924	-0,052	-0,051
-273,628	88,581	0,021	-0,017
-272,613	-200,000	0,004	-0,082
-271,599	414,857	-0,021	0,033
-270,584	2,834	0,033	-0,017
-269,570	-61,701	0,041	0,012
-268,555	-200,000	0,012	0,121
-267,540	120,022	-0,019	0,017
-266,526	-63,373	-0,205	-0,061
-265,511	103,944	0,115	0,098
-264,497	-200,000	0,014	-0,092
-263,482	-200,000	-0,001	0,009
-262,467	29,263	0,153	0,094
-261,453	-109,108	-0,051	0,008
-260,438	-36,491	0,035	0,013
-259,424	139,432	0,076	0,072
-258,409	482,643	-0,048	0,079
-257,395	800,000	-0,043	-0,135
-256,380	-50,253	0,133	-0,045
-255,365	-200,000	-0,012	0,068
-254,351	335,499	0,038	0,053
-253,336	800,000	-0,009	0,020
-252,322	-64,292	-0,134	-0,039
-251,307	48,133	-0,114	0,077
-250,292	-200,000	0,004	-0,046
-249,278	321,939	0,052	-0,072
-248,263	102,001	0,067	0,057
-247,249	-178,952	-0,081	-0,001
-246,234	800,000	0,044	-0,113
-245,219	49,249	-0,140	-0,095
-244,205	800,000	-0,075	0,160
-243,190	-75,800	0,096	0,025
-242,176	-89,979	0,126	0,026
-241,161	800,000	-0,085	0,183
-240,146	179,071	-0,080	0,085
-239,132	-200,000	-0,015	-0,052
-238,117	-123,057	0,142	-0,016
-237,103	20,081	0,079	-0,046
-236,088	633,596	-0,078	-0,143
-235,073	-25,551	-0,049	0,021
-234,059	-158,311	-0,034	-0,001
-233,044	42,027	0,056	0,036
-232,030	154,630	0,045	-0,044
-231,015	800,000	-0,034	0,107
-230,000	-171,306	-0,068	0,002
-228,986	-200,000	0,012	0,130
-227,971	-162,881	-0,141	-0,005
-226,957	-53,409	0,147	-0,048
-225,942	-200,000	0,003	0,018
-224,927	390,917	0,006	0,009
-223,913	206,298	-0,051	-0,058
-222,898	210,805	0,033	-0,037
-221,884	-23,509	0,094	0,041
-220,869	37,159	0,023	0,015
-219,855	-39,438	0,091	-0,034
-218,840	70,820	0,074	0,055
-217,825	22,551	0,054	-0,032
-216,811	-127,644	-0,127	-0,013
-215,796	93,500	-0,057	-0,047
-214,782	800,000	0,046	0,110
-213,767	-8,907	-0,107	0,052
-212,752	-113,749	0,096	0,013
-211,738	211,790	-0,036	0,041
-210,723	337,726	0,105	0,147
-209,709	-116,510	-0,025	0,003
-208,694	95,608	-0,103	-0,085
-207,679	-200,000	-0,029	0,118
-206,665	689,285	-0,025	-0,048
-205,650	166,207	0,074	0,076
-204,636	4,472	-0,033	0,018
-203,621	-200,000	-0,013	-0,116
-202,606	106,259	0,080	0,068
-201,592	-200,000	0,032	-0,201
-200,577	-200,000	-0,053	-0,202
-199,563	-97,143	0,111	0,021
-198,548	133,073	0,079	0,074
-197,533	410,046	-0,064	0,097
-196,519	-200,000	0,007	-0,076
-195,504	-34,869	0,127	0,050
-194,490	-9,320	-0,055	-0,026
-193,475	39,151	-0,068	-0,044
-192,460	-110,249	0,081	0,012
-191,446	-143,360	0,089	-0,006
-190,431	-200,000	0,025	-0,099
-189,417	34,924	-0,049	-0,031
-188,402	14,974	-0,032	-0,018
-187,387	-125,784	0,108	-0,012
-186,373	-200,000	-0,041	-0,162
-185,358	800,000	0,021	-0,063
-184,344	-200,000	-0,008	0,087
-183,329	530,687	0,064	0,109
-182,315	-102,539	-0,039	-0,007
-181,300	189,618	0,041	0,044
-180,285	-200,000	0,010	-0,097
-179,271	-200,000	0,006	-0,086
-178,256	50,687	-0,108	-0,074
-177,242	800,000	-0,013	-0,040
-176,227	-123,688	0,070	0,008
-175,212	-200,000	-0,017	-0,249
-174,198	-200,000	-0,008	-0,068
-173,183	-153,747	-0,093	-0,005
-172,169	800,000	-0,013	-0,038
-171,154	-200,000	0,003	-0,064
-170,139	-200,000	-0,012	0,076
-169,125	102,872	-0,106	0,090
-168,110	-113,939	-0,126	-0,017
-167,096	-200,000	-0,045	0,210
-166,081	-200,000	-0,001	-0,014
-165,066	85,630	-0,128	-0,101
-164,052	628,039	0,017	0,032
-163,037	50,935	-0,102	-0,069
-162,023	-200,000	-0,005	0,103
-161,008	-95,116	-0,075	-0,014
-159,993	73,917	-0,065	0,049
-158,979	-24,524	0,096	0,041
-157,964	502,294	-0,078	-0,131
-156,950	160,865	-0,099	-0,100
-155,935	170,655	0,054	-0,056
-154,920	160,720	-0,026	0,026
-153,906	-200,000	-0,001	0,070
-152,891	792,041	-0,032	0,064
-151,877	590,196	0,047	0,083
-150,862	211,447	-0,108	-0,123
-149,847	-83,139	-0,151	-0,035
-148,833	-200,000	-0,049	0,183
-147,818	800,000	0,038	-0,092
-146,804	204,072	0,029	-0,032
-145,789	-200,000	0,009	0,121
-144,775	-74,109	-0,058	0,015
-143,760	-4,392	0,049	-0,024
-142,745	-186,100	-0,115	0,001
-141,731	800,000	-0,034	-0,079
-140,716	-116,343	0,123	-0,016
-139,702	-80,287	-0,037	-0,009
-138,687	26,647	-0,026	0,016
-137,672	196,407	0,010	-0,011
-136,658	333,579	0,108	0,151
-135,643	271,060	-0,070	-0,088
-134,629	-165,125	-0,076	-0,002
-133,614	-200,000	0,019	0,072
-132,599	-66,304	0,094	0,027
-131,585	-51,360	-0,130	0,044
-130,570	-200,000	0,003	-0,031
-129,556	-200,000	-0,151	-0,000
-128,541	800,000	-0,071	-0,146
-127,526	500,246	-0,025	0,042
-126,512	-200,000	-0,030	0,105
-125,497	-21,907	-0,055	0,024
-124,483	-200,000	-0,003	0,226
-123,468	85,413	-0,066	0,052
-122,453	-200,000	0,033	-0,169
-121,439	800,000	-0,039	-0,095
-120,424	800,000	0,068	0,147
