DTS Sentinel unit serial number:	SN410029Multiplexer serial number:	ORYXHardware model number:	OX2-SRSoftware version number:	ORYX F/W v4,00 Oryx Data Collector v3.7.2.0data status	okinstallation	B5 Nyhavnadifferential loss correction	single-endedforward channel	channel 2reverse channel	N/Adate	2023/12/14time	10:22:13forward acquisition time	300,00reverse acquisition time	0,00gamma	499,1914k internal	0,3161k external	0,3161temperature offset calibration	1,0000default loss term (dB/km)	0,3820temperature slope calibration	1,0000multiplexer offset coefficient	1,0000multiplexer slope coefficient	1,0000fibre end	0,00T internal ref (°C)	6,90T ext. ref 1 (°C)	-8,98T ext. ref 2 (°C)	-9,11length (m)	temperature (°C)	Stokes	anti-Stokes-744,400	-84,671	0,210	-0,048
-743,385	-21,716	-0,451	-0,202
-742,371	-200,000	0,017	0,078
-741,356	33,130	-0,377	-0,240
-740,342	-51,179	0,159	0,055
-739,327	-44,224	-0,418	-0,154
-738,312	-200,000	0,016	0,185
-737,298	2,487	-0,479	-0,255
-736,283	52,189	0,209	0,146
-735,269	-76,512	-0,330	-0,085
-734,254	-197,915	0,250	0,001
-733,239	-51,967	-0,615	-0,209
-732,225	347,572	0,145	0,210
-731,210	-200,000	-0,016	0,113
-730,196	102,430	-0,019	-0,016
-729,181	800,000	-0,053	0,168
-728,167	-16,453	0,114	-0,053
-727,152	756,074	0,021	0,042
-726,137	495,415	0,015	0,025
-725,123	-200,000	0,004	0,029
-724,108	800,000	-0,026	0,058
-723,094	-200,000	0,005	-0,043
-722,079	-200,000	-0,016	-0,105
-721,064	481,107	0,041	-0,068
-720,050	-160,302	-0,025	-0,001
-719,035	157,875	-0,038	0,039
-718,021	-200,000	0,006	0,073
-717,006	-52,761	0,056	-0,019
-715,991	-200,000	0,020	0,098
-714,977	-46,891	-0,084	0,030
-713,962	777,341	-0,027	-0,054
-712,948	309,683	-0,042	0,057
-711,933	666,411	-0,044	-0,084
-710,918	-200,000	-0,002	0,051
-709,904	74,722	0,086	0,067
-708,889	412,899	-0,062	-0,097
-707,875	421,924	-0,036	-0,057
-706,860	-91,137	0,110	-0,023
-705,845	-200,000	-0,004	0,074
-704,831	800,000	-0,012	-0,036
-703,816	244,519	-0,043	0,053
-702,802	237,107	0,069	0,084
-701,787	185,256	-0,021	0,023
-700,772	-200,000	-0,014	-0,236
-699,758	544,393	0,049	-0,086
-698,743	-200,000	-0,023	0,087
-697,729	85,550	-0,072	0,058
-696,714	-98,397	-0,111	0,021
-695,699	-125,069	-0,093	-0,010
-694,685	94,716	-0,084	0,070
-693,670	347,927	0,024	-0,035
-692,656	-98,751	-0,073	-0,014
-691,641	-191,985	0,107	0,001
-690,627	18,932	-0,116	0,068
-689,612	-166,804	-0,080	-0,002
-688,597	244,251	0,075	-0,093
-687,583	-123,928	0,019	0,002
-686,568	182,792	0,057	-0,062
-685,554	20,507	-0,139	-0,082
-684,539	-34,262	0,060	0,024
-683,524	-80,481	0,044	-0,011
-682,510	80,938	-0,121	-0,096
-681,495	239,808	-0,010	-0,013
-680,481	-200,000	0,003	-0,054
-679,466	-22,661	-0,160	-0,071
-678,451	-161,738	-0,075	-0,003
-677,437	-176,798	-0,076	0,001
-676,422	-167,999	0,098	0,003
-675,408	18,936	0,038	-0,022
-674,393	-118,016	-0,045	-0,006
-673,378	-79,114	-0,061	0,015
-672,364	55,555	-0,036	-0,025
-671,349	-41,759	0,066	-0,025
-670,335	800,000	-0,033	0,085
-669,320	-89,751	0,035	0,008
-668,305	800,000	0,038	0,107
-667,291	98,900	0,037	0,032
-666,276	-134,129	-0,240	-0,021
-665,262	229,449	-0,091	-0,109
-664,247	-88,220	0,096	-0,021
-663,232	800,000	-0,036	0,089
-662,218	-33,500	0,069	0,028
-661,203	230,096	-0,070	0,084
-660,189	-9,154	0,148	0,073
-659,174	21,086	-0,178	-0,106
-658,159	298,829	0,063	-0,085
-657,145	-158,100	-0,215	-0,009
-656,130	-111,029	0,123	0,018
-655,116	-200,000	-0,058	0,188
-654,101	-26,649	0,114	0,049
-653,086	-67,538	-0,053	-0,015
-652,072	131,875	0,047	-0,044
-651,057	170,094	-0,160	-0,168
-650,043	-2,177	0,074	0,038
-649,028	282,859	0,063	0,084
-648,014	-108,964	0,049	0,008
-646,999	584,070	-0,094	0,170
-645,984	-200,000	-0,020	0,083
-644,970	-118,003	-0,065	-0,008
-643,955	800,000	0,072	0,155
-642,941	-200,000	-0,021	-0,084
-641,926	10,345	-0,042	0,024
-640,911	261,469	0,040	-0,052
-639,897	-200,000	-0,002	0,008
-638,882	800,000	0,052	0,120
-637,868	-88,099	0,078	0,017
-636,853	800,000	-0,051	-0,113
-635,838	-200,000	-0,029	0,124
-634,824	209,241	-0,115	0,133
-633,809	-96,776	0,160	0,030
-632,795	97,115	-0,062	-0,052
-631,780	269,381	0,029	0,038
-630,765	-200,000	-0,034	-0,123
-629,751	12,530	-0,023	-0,013
-628,736	-83,936	-0,226	-0,052
-627,722	629,791	0,042	-0,078
-626,707	-200,000	0,015	0,083
-625,692	788,586	-0,032	0,065
-624,678	170,886	0,059	0,062
-623,663	112,461	0,029	-0,025
-622,649	-19,145	-0,146	-0,066
-621,634	59,390	-0,029	0,021
-620,619	-200,000	0,028	0,099
-619,605	-27,360	0,042	-0,018
-618,590	-200,000	-0,004	-0,047
-617,576	-200,000	0,002	-0,020
-616,561	5,115	-0,058	0,031
-615,546	-21,589	-0,100	0,045
-614,532	-154,310	-0,156	0,008
-613,517	-37,530	-0,084	0,033
-612,503	-200,000	0,012	-0,051
-611,488	-200,000	0,006	0,093
-610,474	-200,000	0,028	-0,160
-609,459	-143,082	-0,027	-0,002
-608,444	-200,000	-0,008	0,057
-607,430	-82,947	-0,152	-0,036
-606,415	-200,000	0,019	-0,098
-605,401	-200,000	0,013	0,046
-604,386	237,409	0,027	0,033
-603,371	-60,538	0,036	0,011
-602,357	47,755	-0,069	0,047
-601,342	111,707	-0,034	-0,030
-600,328	800,000	-0,035	-0,108
-599,313	-200,000	-0,015	-0,111
-598,298	800,000	-0,019	-0,059
-597,284	-200,000	0,021	0,081
-596,269	-69,686	0,058	-0,016
-595,255	32,502	-0,027	-0,017
-594,240	-5,255	-0,073	-0,037
-593,225	800,000	0,040	-0,089
-592,211	-27,192	0,049	0,021
-591,196	800,000	0,012	0,026
-590,182	323,930	0,073	0,103
-589,167	85,952	-0,130	-0,105
-588,152	-58,539	0,029	-0,009
-587,138	-122,651	-0,078	0,009
-586,123	-91,577	0,076	-0,016
-585,109	72,771	-0,033	-0,025
-584,094	800,000	0,044	0,118
-583,079	65,985	-0,058	0,043
-582,065	0,972	0,033	0,017
-581,050	-200,000	-0,004	0,166
-580,036	-200,000	0,000	-0,034
-579,021	93,079	-0,076	-0,063
-578,006	131,470	-0,151	-0,142
-576,992	-200,000	-0,004	-0,065
-575,977	460,969	0,058	-0,095
-574,963	323,742	-0,017	0,024
-573,948	-200,000	-0,014	0,104
-572,934	800,000	-0,043	-0,106
-571,919	333,706	-0,027	-0,038
-570,904	800,000	0,021	-0,054
-569,890	-78,949	0,058	-0,014
-568,875	421,376	0,063	0,099
-567,861	-200,000	0,012	0,068
-566,846	-144,879	0,142	-0,009
-565,831	-62,644	-0,085	0,026
-564,817	-200,000	0,040	-0,237
-563,802	-95,393	-0,100	-0,020
-562,788	360,469	-0,037	-0,055
-561,773	61,035	-0,085	0,062
-560,758	-53,067	-0,064	-0,021
-559,744	3,836	0,139	-0,074
-558,729	-67,461	-0,085	-0,024
-557,715	-200,000	-0,001	-0,018
-556,700	-121,910	-0,149	-0,018
-555,685	229,681	0,115	-0,137
-554,671	517,270	0,032	0,055
-553,656	-151,970	0,113	-0,006
-552,642	-200,000	0,046	-0,151
-551,627	-116,057	0,083	0,011
-550,612	-103,062	-0,049	0,008
-549,598	79,414	-0,063	0,050
-548,583	-98,703	0,181	0,033
-547,569	207,085	-0,040	-0,045
-546,554	-200,000	0,023	0,075
-545,539	-127,235	0,025	-0,003
-544,525	241,623	-0,097	0,119
-543,510	-200,000	0,003	-0,095
-542,496	-131,507	0,047	0,004
-541,481	-194,349	-0,116	-0,001
-540,466	-200,000	0,008	-0,081
-539,452	-46,506	-0,103	0,037
-538,437	422,581	-0,039	-0,061
-537,423	-186,621	-0,151	-0,002
-536,408	-200,000	-0,006	-0,103
-535,393	-112,892	-0,149	-0,021
-534,379	296,649	-0,080	-0,108
-533,364	20,570	0,027	0,016
-532,350	-70,589	0,036	0,010
-531,335	800,000	-0,034	-0,099
-530,321	-200,000	0,016	0,073
-529,306	310,584	0,067	0,092
-528,291	-133,545	-0,196	-0,018
-527,277	64,992	-0,186	-0,137
-526,262	28,802	0,095	0,058
-525,248	-200,000	0,003	0,075
-524,233	-96,143	0,090	-0,017
-523,218	37,495	0,117	-0,076
-522,204	525,695	-0,074	0,127
-521,189	42,915	-0,088	0,058
-520,175	-160,854	0,024	0,001
-519,160	-88,612	-0,102	-0,022
-518,145	-187,474	0,086	-0,001
-517,131	800,000	-0,007	-0,014
-516,116	197,995	-0,035	0,039
-515,102	-18,611	0,091	-0,041
-514,087	421,644	-0,050	-0,079
-513,072	246,271	-0,095	0,117
-512,058	-200,000	0,011	0,048
-511,043	279,516	0,044	0,057
-510,029	-200,000	-0,048	0,224
-509,014	252,103	-0,087	-0,108
-507,999	-76,243	0,015	0,004
-506,985	68,419	-0,092	0,069
-505,970	384,564	-0,052	0,079
-504,956	99,572	-0,022	-0,018
-503,941	-200,000	-0,049	0,161
-502,926	-200,000	-0,021	0,112
-501,912	204,261	0,124	-0,141
-500,897	451,870	-0,083	0,135
-499,883	193,364	-0,057	0,063
-498,868	800,000	0,049	-0,107
-497,853	80,421	-0,079	-0,062
-496,839	-200,000	0,001	0,008
-495,824	-200,000	0,032	0,140
-494,810	-200,000	0,014	0,094
-493,795	-40,375	-0,123	0,046
-492,781	-200,000	-0,023	-0,080
-491,766	110,034	-0,119	-0,104
-490,751	800,000	-0,020	-0,051
-489,737	-102,975	-0,066	0,011
-488,722	30,250	0,123	0,076
-487,708	-200,000	-0,006	0,129
-486,693	-59,633	-0,120	0,037
-485,678	-55,107	-0,218	-0,071
-484,664	-200,000	-0,009	-0,062
-483,649	133,313	-0,125	-0,118
-482,635	324,138	-0,041	0,057
-481,620	-98,517	0,118	0,022
-480,605	-200,000	0,001	0,085
-479,591	24,534	0,029	0,017
-478,576	384,983	0,017	0,026
-477,562	-87,361	-0,048	-0,011
-476,547	260,292	-0,107	-0,136
-475,532	-14,242	0,058	-0,027
-474,518	107,352	0,023	-0,020
-473,503	-200,000	0,024	0,229
-472,489	92,689	-0,036	0,030
-471,474	-11,266	0,081	-0,039
-470,459	-200,000	-0,026	0,136
-469,445	-200,000	-0,006	0,038
-468,430	-200,000	-0,003	-0,079
-467,416	7,116	-0,082	0,044
-466,401	-26,060	0,086	0,037
-465,386	21,264	-0,022	0,013
-464,372	800,000	0,033	-0,077
-463,357	-29,986	-0,083	0,034
-462,343	461,676	0,070	-0,114
-461,328	14,777	-0,082	-0,046
-460,313	352,622	-0,041	-0,059
-459,299	-200,000	0,040	0,000
-458,284	435,663	-0,084	0,133
-457,270	120,069	-0,051	0,046
-456,255	-200,000	-0,009	-0,033
-455,241	730,934	-0,025	-0,048
-454,226	413,385	0,015	-0,023
-453,211	-125,977	-0,177	0,019
-452,197	-200,000	-0,015	-0,124
-451,182	-200,000	0,023	-0,147
-450,168	-200,000	0,019	0,103
-449,153	-39,578	-0,043	-0,016
-448,138	-200,000	-0,007	-0,070
-447,124	185,178	-0,012	0,013
-446,109	-74,058	0,074	-0,019
-445,095	-200,000	0,002	0,088
-444,080	-200,000	0,006	0,121
-443,065	568,615	0,055	0,098
-442,051	800,000	-0,013	0,031
-441,036	-200,000	0,004	-0,062
-440,022	2,851	0,031	-0,017
-439,007	-200,000	-0,005	-0,036
-437,992	178,377	0,028	-0,029
-436,978	68,643	0,136	-0,102
-435,963	43,451	-0,090	-0,060
-434,949	-10,075	0,113	-0,055
-433,934	-113,789	0,083	-0,012
-432,919	-200,000	-0,018	-0,094
-431,905	130,498	0,098	0,091
-430,890	12,323	0,179	-0,100
-429,876	-200,000	-0,010	0,072
-428,861	131,618	0,059	0,055
-427,846	-1,865	0,086	0,044
-426,832	295,102	-0,017	-0,023
-425,817	79,996	-0,093	-0,073
-424,803	80,073	-0,014	0,011
-423,788	-139,619	-0,057	-0,004
-422,773	-76,348	-0,094	0,024
-421,759	196,791	0,081	0,090
-420,744	-200,000	-0,014	-0,130
-419,730	6,052	-0,042	-0,023
-418,715	-55,274	0,100	-0,032
-417,701	-132,046	-0,147	0,014
-416,686	9,236	0,056	0,031
-415,671	-159,419	0,103	0,004
-414,657	-68,490	-0,015	-0,004
-413,642	226,216	0,030	0,036
-412,628	100,414	-0,061	-0,052
-411,613	44,339	-0,147	-0,098
-410,598	-112,253	-0,075	0,011
-409,584	160,209	0,152	0,155
-408,569	8,319	-0,035	-0,019
-407,555	800,000	-0,063	0,143
-406,540	800,000	-0,008	0,023
-405,525	-111,143	0,073	-0,011
-404,511	-42,287	-0,146	0,054
-403,496	8,695	0,011	-0,006
-402,482	70,177	-0,112	-0,084
-401,467	-113,779	0,236	0,033
-400,452	171,213	-0,075	0,078
-399,438	-200,000	-0,001	0,024
-398,423	-200,000	0,000	-0,046
-397,409	-200,000	-0,019	-0,083
-396,394	-110,615	0,043	-0,006
-395,379	38,092	-0,058	0,037
-394,365	-200,000	-0,004	-0,051
-393,350	-200,000	0,018	0,063
-392,336	-55,776	0,017	-0,005
-391,321	-18,604	-0,004	0,002
-390,306	-151,844	0,053	-0,003
-389,292	51,014	-0,086	-0,059
-388,277	-200,000	-0,005	-0,070
-387,263	160,658	0,060	0,061
-386,248	40,281	-0,097	0,064
-385,233	-200,000	-0,019	-0,097
-384,219	525,486	0,028	0,049
-383,204	92,635	0,055	0,045
-382,190	800,000	-0,046	-0,120
-381,175	684,358	-0,068	-0,130
-380,160	21,777	0,209	-0,123
-379,146	800,000	-0,027	-0,084
-378,131	-200,000	0,019	0,073
-377,117	-161,283	0,128	0,005
-376,102	61,493	0,063	0,045
-375,088	-200,000	-0,003	-0,259
-374,073	243,470	0,066	0,080
-373,058	118,868	-0,079	-0,071
-372,044	131,508	0,102	0,096
-371,029	-143,696	0,035	0,002
-370,015	800,000	-0,015	0,032
-369,000	258,930	-0,066	-0,083
-367,985	-200,000	-0,000	-0,010
-366,971	-116,527	-0,042	0,006
-365,956	-142,533	-0,204	0,014
-364,942	-49,587	0,115	-0,040
-363,927	-200,000	0,026	0,086
-362,912	-1,089	-0,074	0,038
-361,898	267,505	-0,111	-0,141
-360,883	6,330	0,157	0,084
-359,869	-36,387	0,097	-0,038
-358,854	-200,000	-0,024	-0,108
-357,839	60,887	0,120	0,086
-356,825	126,732	-0,114	0,105
-355,810	-90,581	0,015	0,003
-354,796	33,694	-0,052	-0,033
-353,781	800,000	0,027	-0,080
-352,766	-200,000	-0,027	-0,169
-351,752	-33,427	-0,065	-0,026
-350,737	380,995	0,057	0,085
-349,723	242,744	0,116	0,141
-348,708	167,385	0,056	0,058
-347,693	502,848	-0,076	0,128
-346,679	-144,006	-0,201	-0,014
-345,664	-97,480	-0,015	-0,003
-344,650	800,000	0,028	0,087
-343,635	-200,000	0,005	0,109
-342,620	269,799	-0,027	0,035
-341,606	-65,519	0,111	0,032
-340,591	499,190	0,050	-0,084
-339,577	-200,000	-0,010	-0,106
-338,562	286,882	0,010	-0,013
-337,548	-125,809	-0,143	-0,016
-336,533	-92,516	0,033	-0,007
-335,518	-200,000	0,005	0,116
-334,504	800,000	-0,001	0,003
-333,489	-200,000	0,057	0,209
-332,475	-61,378	-0,074	0,022
-331,460	-200,000	-0,031	0,138
-330,445	-64,694	-0,157	-0,046
-329,431	-200,000	0,008	0,027
-328,416	-200,000	-0,011	0,036
-327,402	-200,000	0,016	0,100
-326,387	-200,000	-0,027	-0,108
-325,372	247,470	-0,047	-0,058
-324,358	289,928	-0,027	-0,035
-323,343	-200,000	0,002	0,099
-322,329	110,750	0,062	-0,054
-321,314	11,869	0,121	-0,067
-320,299	-200,000	0,006	-0,054
-319,285	-38,442	0,068	0,026
-318,270	144,118	0,022	-0,021
-317,256	91,750	-0,038	0,031
-316,241	193,726	-0,059	-0,064
-315,226	-200,000	0,005	-0,036
-314,212	-34,885	0,063	0,025
-313,197	-21,661	-0,059	0,026
-312,183	-98,702	0,120	0,022
-311,168	-200,000	0,000	-0,004
-310,153	-146,933	-0,050	-0,003
-309,139	-75,100	0,060	-0,015
-308,124	-31,440	0,147	-0,060
-307,110	-38,029	0,077	0,029
-306,095	133,403	0,054	0,051
-305,080	-200,000	-0,039	0,131
-304,066	-147,956	-0,107	0,006
-303,051	-40,519	-0,050	-0,019
-302,037	76,448	-0,086	0,066
-301,022	-116,880	0,088	-0,012
-300,008	3,509	0,204	0,107
-298,993	-148,357	-0,114	-0,007
-297,978	-48,556	-0,057	-0,020
-296,964	214,083	-0,127	-0,145
-295,949	800,000	0,034	-0,083
-294,935	164,180	-0,129	-0,132
-293,920	122,880	0,057	0,052
-292,905	65,111	0,030	-0,022
-291,891	356,493	0,024	-0,035
-290,876	-32,126	0,007	0,003
-289,862	-62,602	0,223	0,067
-288,847	-200,000	-0,034	0,128
-287,832	-54,811	0,101	-0,033
-286,818	251,563	0,110	-0,135
-285,803	-125,490	-0,041	0,004
-284,789	315,580	-0,020	0,027
-283,774	53,787	0,088	-0,061
-282,759	93,156	0,095	0,078
-281,745	-200,000	0,001	-0,031
-280,730	-200,000	-0,013	0,089
-279,716	-21,288	0,116	0,051
-278,701	-115,181	0,031	0,004
-277,686	644,856	0,070	0,129
-276,672	653,581	-0,065	0,121
-275,657	-75,419	-0,054	-0,014
-274,643	54,989	0,099	-0,069
-273,628	800,000	-0,063	-0,134
-272,613	-200,000	0,050	-0,167
-271,599	-25,202	0,091	-0,039
-270,584	-200,000	0,037	-0,151
-269,570	800,000	0,012	-0,030
-268,555	-84,658	0,026	-0,006
-267,540	335,930	0,035	-0,049
-266,526	735,435	-0,020	-0,039
-265,511	800,000	-0,018	-0,037
-264,497	27,541	0,078	-0,047
-263,482	121,544	0,059	0,053
-262,467	140,105	0,130	0,124
-261,453	46,985	0,068	0,045
-260,438	65,023	-0,041	-0,030
-259,424	-19,685	-0,073	-0,032
-258,409	-200,000	-0,034	-0,115
-257,395	33,233	-0,030	0,019
-256,380	-200,000	0,013	0,054
-255,365	490,054	-0,060	-0,099
-254,351	-93,042	-0,070	-0,014
-253,336	-200,000	-0,008	-0,055
-252,322	800,000	0,019	-0,042
-251,307	800,000	0,068	0,145
-250,292	-86,462	0,151	-0,033
-249,278	23,816	0,049	0,029
-248,263	-4,237	0,047	-0,023
-247,249	475,122	0,063	-0,103
-246,234	-182,326	-0,153	-0,002
-245,219	503,113	0,035	-0,059
-244,205	369,360	-0,038	-0,056
-243,190	3,567	0,103	-0,054
-242,176	-122,860	-0,044	0,005
-241,161	301,356	0,032	0,043
-240,146	-31,387	-0,022	0,009
-239,132	800,000	0,019	-0,053
-238,117	-200,000	-0,013	-0,106
-237,103	146,915	-0,020	0,019
-236,088	-25,488	-0,108	0,046
-235,073	291,656	0,037	-0,049
-234,059	-22,633	0,109	0,047
-233,044	473,388	-0,035	0,056
-232,030	-158,071	0,089	0,004
-231,015	-97,733	-0,087	0,016
-230,000	98,355	0,053	-0,044
-228,986	327,625	-0,037	0,051
-227,971	-176,764	0,142	-0,003
-226,957	-200,000	0,014	0,165
-225,942	800,000	-0,038	0,112
-224,927	-73,742	0,144	0,037
-223,913	-200,000	0,018	-0,103
-222,898	-200,000	0,023	-0,114
-221,884	216,662	0,089	-0,103
-220,869	-200,000	-0,021	0,108
-219,855	539,083	0,101	0,173
-218,840	472,550	0,088	0,144
-217,825	34,106	-0,078	-0,049
-216,811	116,973	-0,071	-0,063
-215,796	-200,000	-0,003	-0,109
-214,782	303,845	-0,043	0,058
-213,767	75,610	0,062	0,048
-212,752	800,000	-0,051	0,147
-211,738	-200,000	0,015	0,049
-210,723	92,425	0,095	-0,077
-209,709	-200,000	-0,030	-0,114
-208,694	572,016	-0,012	-0,021
-207,679	112,788	0,019	0,017
-206,665	-200,000	0,028	0,133
-205,650	119,600	0,120	-0,108
-204,636	-200,000	0,005	-0,027
-203,621	800,000	0,056	0,146
-202,606	359,813	0,050	0,073
-201,592	800,000	-0,040	-0,116
-200,577	157,006	0,069	-0,069
-199,563	-34,481	0,082	0,032
-198,548	28,096	-0,012	0,007
-197,533	-200,000	-0,001	0,072
-196,519	466,921	-0,026	0,043
-195,504	-60,089	-0,032	-0,010
-194,490	74,610	0,069	0,053
-193,475	-174,269	0,103	0,002
-192,460	273,204	0,044	0,056
-191,446	-200,000	0,000	-0,041
-190,431	-47,131	0,013	0,005
-189,417	800,000	0,054	0,154
-188,402	330,811	-0,057	0,080
-187,387	347,765	0,064	-0,091
-186,373	-31,799	0,079	0,032
-185,358	228,762	-0,080	0,094
-184,344	-200,000	-0,055	0,200
-183,329	-200,000	0,005	0,059
-182,315	-200,000	-0,002	0,106
-181,300	-200,000	0,006	-0,141
-180,285	517,057	-0,100	-0,169
-179,271	32,256	-0,015	-0,009
-178,256	-200,000	-0,004	0,136
-177,242	-55,835	0,146	-0,047
-176,227	-75,981	-0,069	-0,017
-175,212	165,040	-0,135	-0,137
-174,198	60,968	0,062	-0,044
-173,183	-200,000	0,008	-0,180
-172,169	800,000	0,100	-0,232
-171,154	-200,000	-0,019	-0,109
-170,139	25,340	-0,058	-0,035
-169,125	125,322	-0,040	-0,036
-168,110	-73,752	0,123	0,032
-167,096	147,755	-0,108	0,104
-166,081	57,213	-0,061	0,043
-165,066	7,015	0,084	-0,045
-164,052	-200,000	0,036	0,139
-163,037	451,430	0,027	0,043
-162,023	-200,000	0,017	0,086
-161,008	9,207	0,152	0,082
-159,993	-200,000	-0,013	-0,054
-158,979	-200,000	-0,007	-0,121
-157,964	-200,000	-0,025	-0,137
-156,950	-200,000	-0,004	0,071
-155,935	-61,126	0,072	0,022
-154,920	-4,297	-0,007	0,004
-153,906	-200,000	-0,004	0,024
-152,891	800,000	0,040	-0,097
-151,877	145,600	-0,046	-0,044
-150,862	-200,000	0,002	0,071
-149,847	-98,221	0,124	0,023
-148,833	-200,000	0,027	-0,184
-147,818	81,206	-0,068	-0,053
-146,804	176,142	0,078	-0,081
-145,789	-200,000	0,050	0,319
-144,775	48,680	-0,175	0,118
-143,760	-20,713	-0,111	-0,049
-142,745	-200,000	0,015	0,153
-141,731	800,000	0,030	-0,082
-140,716	-69,191	-0,087	0,024
-139,702	578,394	-0,047	0,082
-138,687	-49,009	0,068	-0,023
-137,672	201,373	0,022	-0,025
-136,658	-82,435	0,149	0,035
-135,643	-200,000	0,004	0,108
-134,629	800,000	0,050	-0,144
-133,614	-92,288	-0,033	-0,007
-132,599	159,046	-0,046	0,046
-131,585	175,816	0,029	0,031
-130,570	800,000	0,042	0,112
-129,556	-72,228	-0,137	-0,036
-128,541	167,014	0,122	-0,125
-127,526	84,659	-0,055	-0,043
-126,512	-100,791	0,152	-0,027
-125,497	111,866	0,043	0,038
-124,483	-200,000	-0,011	-0,071
-123,468	218,551	0,090	-0,103
-122,453	797,596	0,044	-0,088
-121,439	-113,960	-0,125	0,017
-120,424	-200,000	0,012	-0,094
-119,410	-200,000	0,007	-0,100
