DTS Sentinel unit serial number:	SN410029Multiplexer serial number:	ORYXHardware model number:	OX2-SRSoftware version number:	ORYX F/W v4,00 Oryx Data Collector v3.7.2.0data status	okinstallation	B5 Nyhavnadifferential loss correction	single-endedforward channel	channel 2reverse channel	N/Adate	2023/12/14time	03:17:13forward acquisition time	300,00reverse acquisition time	0,00gamma	499,1914k internal	0,3155k external	0,3155temperature offset calibration	1,0000default loss term (dB/km)	0,3820temperature slope calibration	1,0000multiplexer offset coefficient	1,0000multiplexer slope coefficient	1,0000fibre end	0,00T internal ref (°C)	8,26T ext. ref 1 (°C)	-8,13T ext. ref 2 (°C)	-8,20length (m)	temperature (°C)	Stokes	anti-Stokes-744,400	94,151	0,194	0,163
-743,385	13,739	-0,381	-0,218
-742,371	-100,243	0,153	0,028
-741,356	-167,605	-0,334	0,010
-740,342	800,000	0,086	0,183
-739,327	-129,851	-0,376	0,038
-738,312	-12,661	0,064	0,031
-737,298	-82,670	-0,378	-0,090
-736,283	738,988	0,092	0,183
-735,269	-100,194	-0,335	-0,061
-734,254	-16,431	0,131	0,061
-733,239	27,835	-0,561	-0,348
-732,225	-65,868	0,291	0,085
-731,210	221,020	0,002	0,002
-730,196	449,389	0,067	0,110
-729,181	800,000	0,041	-0,112
-728,167	-200,000	0,015	-0,080
-727,152	800,000	-0,038	-0,081
-726,137	-111,772	-0,082	0,012
-725,123	-103,927	-0,032	0,005
-724,108	254,332	-0,045	-0,057
-723,094	800,000	0,025	-0,078
-722,079	42,357	0,068	-0,045
-721,064	102,095	-0,058	-0,050
-720,050	-200,000	-0,002	0,029
-719,035	-200,000	-0,014	0,078
-718,021	-8,060	-0,049	-0,024
-717,006	-166,925	-0,186	-0,006
-715,991	628,367	-0,121	-0,226
-714,977	137,486	-0,048	-0,047
-713,962	-200,000	0,014	-0,049
-712,948	554,902	0,057	-0,101
-711,933	601,207	0,033	0,061
-710,918	690,319	0,029	0,056
-709,904	-62,893	-0,134	-0,041
-708,889	187,896	-0,044	0,048
-707,875	247,290	-0,151	-0,188
-706,860	-64,818	0,108	-0,032
-705,845	25,166	-0,081	-0,049
-704,831	-200,000	-0,007	-0,086
-703,816	-52,215	-0,062	-0,021
-702,802	-135,266	0,053	-0,005
-701,787	603,843	-0,039	0,071
-700,772	-200,000	0,002	-0,020
-699,758	149,037	-0,039	0,039
-698,743	609,099	0,044	-0,080
-697,729	75,760	0,094	0,073
-696,714	549,175	-0,020	-0,036
-695,699	104,365	-0,041	-0,036
-694,685	60,142	-0,122	-0,089
-693,670	565,449	0,025	-0,044
-692,656	366,768	-0,016	0,023
-691,641	752,124	0,056	-0,111
-690,627	-200,000	0,005	-0,018
-689,612	-200,000	0,037	0,146
-688,597	-170,011	0,046	0,001
-687,583	-140,306	0,026	-0,002
-686,568	453,985	0,036	-0,060
-685,554	60,572	-0,128	-0,093
-684,539	375,896	0,017	0,026
-683,524	350,009	-0,005	-0,008
-682,510	56,065	-0,072	0,052
-681,495	-81,077	-0,165	-0,040
-680,481	54,156	-0,102	-0,072
-679,466	800,000	-0,045	-0,144
-678,451	20,328	-0,066	-0,039
-677,437	1,886	0,077	-0,041
-676,422	264,816	0,060	0,077
-675,408	96,086	0,011	-0,010
-674,393	184,394	-0,057	-0,062
-673,378	70,182	-0,090	-0,068
-672,364	-200,000	0,008	-0,127
-671,349	-104,552	-0,146	-0,025
-670,335	78,288	0,069	0,054
-669,320	800,000	0,032	-0,087
-668,305	-148,114	0,209	-0,013
-667,291	-188,639	-0,113	-0,001
-666,276	752,465	0,052	-0,104
-665,262	-131,535	-0,157	0,015
-664,247	83,811	-0,105	-0,084
-663,232	174,222	-0,064	0,068
-662,218	-200,000	-0,001	0,041
-661,203	153,628	0,054	-0,054
-660,189	8,564	0,129	-0,071
-659,174	-66,342	-0,057	0,016
-658,159	-200,000	-0,008	0,100
-657,145	800,000	-0,040	-0,097
-656,130	52,579	0,050	0,035
-655,116	-200,000	-0,002	-0,013
-654,101	-74,879	0,139	0,036
-653,086	-95,793	-0,051	-0,010
-652,072	-200,000	0,028	-0,199
-651,057	162,608	0,047	-0,049
-650,043	-200,000	-0,004	0,058
-649,028	-86,011	-0,059	0,013
-648,014	474,993	-0,030	0,051
-646,999	800,000	-0,025	-0,059
-645,984	-200,000	0,003	0,022
-644,970	800,000	-0,055	-0,159
-643,955	201,632	0,046	-0,052
-642,941	-200,000	-0,016	-0,183
-641,926	-200,000	0,009	-0,125
-640,911	-200,000	0,030	-0,133
-639,897	-36,784	0,078	0,030
-638,882	800,000	-0,037	0,115
-637,868	-200,000	0,020	0,121
-636,853	1,339	0,058	0,031
-635,838	-6,425	-0,107	0,054
-634,824	-200,000	-0,096	-0,000
-633,809	-200,000	-0,023	-0,157
-632,795	12,429	-0,061	0,034
-631,780	18,276	-0,134	0,079
-630,765	-117,345	0,055	0,007
-629,751	9,173	-0,049	-0,027
-628,736	170,656	-0,155	-0,163
-627,722	-200,000	0,003	-0,080
-626,707	-200,000	-0,008	0,049
-625,692	-98,094	0,046	0,009
-624,678	-86,777	-0,058	-0,013
-623,663	174,482	0,081	-0,087
-622,649	-200,000	0,002	0,065
-621,634	-101,033	-0,107	-0,019
-620,619	-22,275	0,150	-0,067
-619,605	-66,532	0,037	-0,011
-618,590	29,848	0,063	-0,039
-617,576	-200,000	-0,008	0,070
-616,561	-200,000	-0,012	-0,130
-615,546	300,140	-0,037	-0,050
-614,532	80,001	-0,128	0,101
-613,517	800,000	0,032	0,076
-612,503	193,669	-0,064	-0,071
-611,488	-103,847	0,072	0,012
-610,474	-200,000	0,008	-0,036
-609,459	13,652	0,083	-0,047
-608,444	-106,012	-0,069	0,011
-607,430	149,860	0,035	-0,035
-606,415	300,452	-0,073	-0,099
-605,401	800,000	-0,017	-0,037
-604,386	9,784	-0,122	0,068
-603,371	326,025	0,066	0,093
-602,357	-147,282	-0,075	0,005
-601,342	-125,747	0,115	-0,013
-600,328	76,817	0,090	0,070
-599,313	-200,000	-0,005	0,106
-598,298	-200,000	-0,028	-0,156
-597,284	-36,177	0,069	-0,027
-596,269	-200,000	0,020	0,103
-595,255	-97,257	0,132	-0,025
-594,240	-8,780	0,070	-0,034
-593,225	-200,000	0,017	-0,217
-592,211	-18,326	-0,135	-0,062
-591,196	74,758	0,090	-0,069
-590,182	259,576	-0,036	0,045
-589,167	118,232	-0,067	0,061
-588,152	-104,662	0,005	-0,001
-587,138	191,301	-0,039	0,044
-586,123	127,285	-0,138	-0,129
-585,109	-83,437	-0,060	-0,014
-584,094	800,000	-0,029	-0,084
-583,079	-70,210	0,071	-0,020
-582,065	71,370	0,055	0,042
-581,050	174,474	0,089	-0,095
-580,036	566,704	-0,086	-0,154
-579,021	-70,558	-0,097	-0,027
-578,006	-200,000	-0,028	-0,103
-576,992	-62,734	0,162	-0,049
-575,977	-138,353	0,117	0,009
-574,963	-200,000	0,019	0,102
-573,948	127,257	-0,071	0,066
-572,934	-70,043	-0,048	0,013
-571,919	141,113	-0,074	-0,072
-570,904	28,351	0,035	-0,021
-569,890	134,477	-0,103	-0,098
-568,875	800,000	0,021	0,051
-567,861	-200,000	0,018	0,099
-566,846	113,085	-0,044	0,039
-565,831	-200,000	0,018	0,096
-564,817	128,580	-0,200	0,187
-563,802	118,112	-0,102	0,092
-562,788	37,819	0,106	-0,069
-561,773	-29,291	-0,037	0,015
-560,758	800,000	-0,039	0,119
-559,744	-37,890	-0,065	0,025
-558,729	800,000	-0,031	-0,079
-557,715	-200,000	-0,008	0,028
-556,700	-4,082	-0,234	-0,118
-555,685	800,000	0,029	-0,082
-554,671	800,000	-0,019	-0,057
-553,656	-31,545	0,107	-0,044
-552,642	800,000	-0,032	0,078
-551,627	-57,037	-0,107	0,034
-550,612	21,287	0,076	-0,045
-549,598	-200,000	0,004	-0,044
-548,583	-200,000	-0,024	-0,085
-547,569	800,000	0,018	0,046
-546,554	-111,069	0,113	0,017
-545,539	69,450	0,069	-0,052
-544,525	199,984	-0,059	-0,066
-543,510	-134,649	-0,143	0,013
-542,496	-111,491	0,034	0,005
-541,481	-200,000	-0,009	-0,050
-540,466	253,331	0,096	-0,120
-539,452	-46,414	-0,055	-0,020
-538,437	-200,000	0,014	0,088
-537,423	-200,000	0,008	-0,035
-536,408	-200,000	-0,011	0,177
-535,393	-200,000	-0,027	-0,163
-534,379	169,417	-0,036	-0,038
-533,364	-136,809	0,052	0,004
-532,350	220,342	-0,018	-0,021
-531,335	121,288	-0,034	0,031
-530,321	800,000	0,037	-0,109
-529,306	53,177	-0,079	-0,056
-528,291	673,716	-0,050	-0,096
-527,277	-200,000	-0,021	-0,138
-526,262	31,809	0,034	-0,021
-525,248	-159,696	0,085	-0,003
-524,233	-188,542	0,135	0,001
-523,218	398,955	0,059	-0,090
-522,204	-57,732	-0,101	0,032
-521,189	-156,290	-0,217	0,010
-520,175	-200,000	-0,043	-0,152
-519,160	-200,000	-0,009	-0,070
-518,145	-128,880	0,095	0,010
-517,131	-200,000	0,042	0,137
-516,116	-200,000	-0,005	0,035
-515,102	-200,000	-0,002	-0,070
-514,087	529,755	-0,111	-0,193
-513,072	-5,424	-0,097	-0,048
-512,058	2,691	0,068	0,036
-511,043	-53,354	-0,096	0,032
-510,029	-200,000	0,024	0,113
-509,014	273,936	-0,050	0,064
-507,999	3,195	-0,065	-0,034
-506,985	-52,156	-0,137	-0,046
-505,970	-112,209	-0,112	0,016
-504,956	-146,494	-0,057	-0,004
-503,941	-52,767	0,057	0,019
-502,926	61,012	0,019	0,014
-501,912	225,773	0,091	-0,108
-500,897	-29,177	0,068	-0,028
-499,883	38,825	-0,072	-0,047
-498,868	302,428	-0,055	-0,075
-497,853	-200,000	-0,037	0,208
-496,839	-34,001	-0,055	-0,022
-495,824	-200,000	0,000	-0,063
-494,810	-47,668	-0,058	-0,020
-493,795	-200,000	-0,007	0,040
-492,781	800,000	0,081	-0,190
-491,766	-200,000	0,034	-0,174
-490,751	-200,000	0,002	-0,016
-489,737	433,797	0,019	-0,031
-488,722	40,511	0,111	-0,073
-487,708	37,440	-0,074	-0,048
-486,693	488,261	-0,024	0,039
-485,678	30,689	-0,147	-0,092
-484,664	65,825	0,032	-0,024
-483,649	-200,000	0,007	-0,043
-482,635	203,981	0,016	0,018
-481,620	-55,042	-0,071	0,023
-480,605	351,829	-0,040	-0,057
-479,591	-200,000	0,001	0,109
-478,576	-67,539	-0,077	-0,022
-477,562	800,000	0,013	-0,042
-476,547	-15,589	0,049	0,023
-475,532	-46,516	-0,068	-0,024
-474,518	110,047	-0,047	0,041
-473,503	-35,381	0,131	0,052
-472,489	-200,000	-0,014	0,055
-471,474	-64,002	0,058	0,017
-470,459	-23,934	0,176	-0,077
-469,445	-200,000	-0,011	0,101
-468,430	-200,000	0,012	0,101
-467,416	-62,954	0,094	0,028
-466,401	46,791	0,091	0,061
-465,386	309,743	0,044	0,060
-464,372	-32,745	-0,071	0,029
-463,357	-57,780	-0,021	0,007
-462,343	124,011	0,061	0,056
-461,328	9,833	-0,058	0,032
-460,313	-167,675	0,081	-0,002
-459,299	800,000	0,018	0,051
-458,284	123,756	-0,076	0,070
-457,270	800,000	-0,090	-0,193
-456,255	-200,000	-0,023	-0,147
-455,241	283,031	0,015	0,019
-454,226	-67,058	0,045	-0,013
-453,211	318,100	0,019	-0,027
-452,197	360,822	0,023	-0,034
-451,182	446,257	0,035	-0,056
-450,168	372,913	-0,064	0,095
-449,153	-200,000	0,040	0,224
-448,138	-200,000	0,010	0,041
-447,124	800,000	-0,045	0,136
-446,109	107,164	-0,015	-0,013
-445,095	-200,000	-0,038	0,156
-444,080	56,990	0,056	0,040
-443,065	800,000	-0,026	0,069
-442,051	-200,000	-0,005	0,168
-441,036	13,296	-0,159	0,090
-440,022	545,800	-0,031	0,054
-439,007	-200,000	-0,001	-0,033
-437,992	-34,998	0,133	0,053
-436,978	-200,000	0,009	-0,044
-435,963	111,029	0,084	0,074
-434,949	-34,177	0,083	0,033
-433,934	-200,000	-0,010	0,039
-432,919	206,260	0,052	0,059
-431,905	231,347	-0,063	0,076
-430,890	-200,000	-0,006	0,043
-429,876	-200,000	0,008	0,134
-428,861	-93,963	0,129	0,026
-427,846	800,000	-0,016	0,036
-426,832	146,450	-0,112	-0,110
-425,817	135,560	-0,071	-0,067
-424,803	-29,274	0,048	-0,020
-423,788	-103,569	0,120	0,020
-422,773	283,396	0,056	0,074
-421,759	-200,000	0,016	-0,094
-420,744	-121,246	-0,149	-0,018
-419,730	-200,000	0,044	-0,151
-418,715	481,533	0,071	-0,118
-417,701	-12,653	-0,015	0,007
-416,686	663,385	0,042	0,079
-415,671	35,115	0,104	0,066
-414,657	8,975	0,103	0,056
-413,642	-200,000	-0,018	0,072
-412,628	83,610	-0,101	-0,080
-411,613	800,000	0,016	-0,038
-410,598	-119,319	0,060	-0,008
-409,584	20,197	0,028	0,016
-408,569	-155,714	0,045	0,002
-407,555	-84,595	-0,046	-0,010
-406,540	-200,000	0,003	-0,075
-405,525	800,000	0,017	0,040
-404,511	289,248	0,053	-0,070
-403,496	-39,113	0,149	-0,057
-402,482	-75,354	-0,082	-0,021
-401,467	-200,000	-0,002	-0,051
-400,452	-108,120	0,062	0,010
-399,438	176,006	0,055	0,059
-398,423	649,092	-0,058	-0,108
-397,409	511,450	-0,033	-0,056
-396,394	-200,000	0,005	0,099
-395,379	-25,363	0,038	-0,016
-394,365	800,000	-0,066	0,151
-393,350	-200,000	0,028	0,128
-392,336	225,100	-0,003	-0,004
-391,321	800,000	-0,061	-0,125
-390,306	-200,000	0,012	-0,067
-389,292	67,574	-0,084	-0,062
-388,277	-200,000	-0,012	0,055
-387,263	281,752	-0,059	-0,077
-386,248	-9,694	0,055	-0,027
-385,233	176,240	-0,060	0,063
-384,219	327,098	-0,105	-0,146
-383,204	800,000	0,042	0,098
-382,190	-200,000	0,032	-0,140
-381,175	-128,069	0,129	0,013
-380,160	-200,000	0,020	0,107
-379,146	50,054	0,058	-0,040
-378,131	-113,463	0,078	-0,011
-377,117	7,009	0,029	0,015
-376,102	339,009	0,048	0,069
-375,088	20,196	-0,061	-0,036
-374,073	-30,504	-0,031	0,013
-373,058	-200,000	-0,013	0,106
-372,044	150,689	-0,025	0,025
-371,029	-48,081	0,068	0,024
-370,015	76,540	0,041	-0,032
-369,000	227,089	-0,088	0,104
-367,985	706,832	0,033	-0,064
-366,971	-120,926	-0,094	0,011
-365,956	105,152	0,084	0,072
-364,942	800,000	0,015	0,038
-363,927	143,112	0,074	0,072
-362,912	-200,000	-0,017	-0,068
-361,898	-82,396	-0,070	-0,017
-360,883	379,986	0,047	0,070
-359,869	139,089	0,112	-0,107
-358,854	-160,375	0,081	0,003
-357,839	-200,000	-0,008	0,031
-356,825	542,514	-0,051	0,090
-355,810	49,244	0,124	0,085
-354,796	-200,000	0,035	0,116
-353,781	-200,000	-0,013	-0,078
-352,766	672,987	-0,056	-0,106
-351,752	171,284	0,096	0,100
-350,737	22,025	-0,054	0,032
-349,723	-123,092	-0,046	0,005
-348,708	-200,000	0,005	0,243
-347,693	800,000	0,056	0,119
-346,679	40,708	0,035	-0,023
-345,664	698,894	-0,077	-0,147
-344,650	-55,606	0,074	0,024
-343,635	800,000	-0,039	0,090
-342,620	109,272	0,037	0,033
-341,606	200,626	-0,067	-0,075
-340,591	-4,887	0,076	-0,038
-339,577	141,517	-0,070	-0,068
-338,562	800,000	-0,042	-0,117
-337,548	800,000	0,040	-0,116
-336,533	-142,885	0,177	0,012
-335,518	563,832	0,040	0,071
-334,504	361,698	-0,093	0,136
-333,489	-138,209	-0,097	0,008
-332,475	-153,668	-0,117	-0,006
-331,460	11,393	0,107	-0,059
-330,445	-200,000	0,018	-0,104
-329,431	-56,931	-0,116	0,037
-328,416	350,955	0,077	0,111
-327,402	-51,183	0,056	-0,019
-326,387	86,286	0,069	-0,055
-325,372	474,820	-0,060	-0,098
-324,358	-53,829	-0,138	-0,045
-323,343	585,975	0,044	-0,079
-322,329	-200,000	0,046	0,183
-321,314	-200,000	0,028	0,167
-320,299	800,000	0,054	0,115
-319,285	-38,574	-0,047	-0,018
-318,270	-24,386	0,065	0,028
-317,256	79,458	-0,056	0,043
-316,241	0,427	0,092	0,048
-315,226	506,205	0,027	-0,045
-314,212	-164,767	0,026	0,001
-313,197	-200,000	-0,003	0,109
-312,183	-200,000	0,009	0,133
-311,168	-102,671	-0,102	0,017
-310,153	-98,288	-0,048	-0,009
-309,139	-200,000	-0,008	0,039
-308,124	164,322	-0,048	-0,049
-307,110	-200,000	0,014	0,084
-306,095	24,370	0,085	-0,051
-305,080	800,000	0,052	0,127
-304,066	64,093	-0,105	-0,077
-303,051	60,603	0,058	0,042
-302,037	223,085	-0,047	-0,055
-301,022	-63,434	0,068	0,020
-300,008	263,900	0,030	0,038
-298,993	349,015	0,044	-0,064
-297,978	-200,000	-0,001	0,056
-296,964	-200,000	0,017	-0,064
-295,949	-144,921	-0,144	0,009
-294,935	800,000	-0,010	0,024
-293,920	185,558	0,116	0,125
-292,905	-82,806	0,062	0,014
-291,891	-200,000	0,026	0,165
-290,876	-200,000	-0,009	-0,075
-289,862	800,000	-0,002	0,005
-288,847	244,428	-0,038	-0,046
-287,832	-33,603	-0,060	0,024
-286,818	800,000	-0,071	0,201
-285,803	-125,119	0,130	-0,014
-284,789	-200,000	-0,007	0,038
-283,774	192,505	-0,025	0,027
-282,759	166,627	-0,097	-0,099
-281,745	-191,175	-0,041	0,000
-280,730	405,843	-0,045	-0,069
-279,716	93,520	0,120	0,098
-278,701	525,932	0,077	0,131
-277,686	77,801	0,180	-0,139
-276,672	777,827	0,069	-0,136
-275,657	109,543	0,030	0,026
-274,643	800,000	-0,017	-0,048
-273,628	-50,399	-0,076	0,026
-272,613	-200,000	0,007	0,134
-271,599	243,298	-0,035	0,042
-270,584	219,571	-0,048	-0,055
-269,570	133,916	-0,044	0,041
-268,555	-200,000	-0,009	-0,064
-267,540	343,395	0,016	0,023
-266,526	-200,000	-0,017	-0,096
-265,511	123,903	-0,049	0,045
-264,497	41,112	0,081	-0,053
-263,482	800,000	0,038	0,103
-262,467	-200,000	-0,016	0,058
-261,453	192,967	-0,007	0,007
-260,438	13,964	-0,033	0,018
-259,424	451,619	0,073	-0,117
-258,409	-99,536	-0,069	0,013
-257,395	615,116	-0,037	0,067
-256,380	225,775	0,064	0,076
-255,365	386,970	0,025	0,037
-254,351	-200,000	-0,039	0,157
-253,336	717,265	-0,020	0,039
-252,322	-200,000	0,002	-0,049
-251,307	800,000	0,029	-0,079
-250,292	-200,000	-0,012	0,082
-249,278	195,453	0,100	0,110
-248,263	369,791	0,114	-0,167
-247,249	-58,866	0,068	-0,021
-246,234	800,000	-0,036	0,110
-245,219	800,000	-0,014	-0,029
-244,205	800,000	-0,042	0,089
-243,190	-143,003	0,032	-0,002
-242,176	92,669	-0,039	-0,032
-241,161	16,140	0,142	-0,081
-240,146	233,820	-0,053	0,064
-239,132	-113,977	0,040	0,006
-238,117	-196,681	-0,069	-0,000
-237,103	191,273	-0,043	-0,047
-236,088	237,446	-0,015	-0,018
-235,073	-200,000	0,003	-0,055
-234,059	-200,000	-0,004	0,175
-233,044	800,000	0,025	-0,076
-232,030	-73,650	-0,122	-0,032
-231,015	-52,413	0,085	-0,028
-230,000	-200,000	-0,012	-0,066
-228,986	476,878	0,073	-0,120
-227,971	156,431	-0,055	0,055
-226,957	800,000	0,030	-0,068
-225,942	91,153	0,065	-0,053
-224,927	172,566	-0,066	-0,068
-223,913	800,000	-0,048	-0,107
-222,898	-31,727	0,057	-0,023
-221,884	800,000	-0,024	-0,077
-220,869	-200,000	0,026	0,114
-219,855	800,000	0,055	-0,114
-218,840	28,369	0,047	0,028
-217,825	178,551	-0,073	-0,077
-216,811	458,022	-0,023	0,036
-215,796	3,235	-0,081	-0,042
-214,782	102,248	-0,108	-0,091
-213,767	-109,531	0,059	0,009
-212,752	-200,000	0,009	-0,036
-211,738	-18,680	-0,110	0,049
-210,723	-200,000	-0,003	0,035
-209,709	-143,901	-0,161	0,011
-208,694	45,643	0,112	-0,075
-207,679	-123,954	-0,082	0,009
-206,665	-200,000	-0,026	-0,143
-205,650	-70,354	0,155	0,042
-204,636	-126,652	-0,077	-0,008
-203,621	127,054	-0,085	0,078
-202,606	33,704	-0,093	-0,059
-201,592	800,000	-0,046	-0,097
-200,577	-25,484	0,140	-0,060
-199,563	9,882	0,018	0,010
-198,548	800,000	-0,063	0,142
-197,533	-91,099	0,027	0,006
-196,519	-200,000	-0,001	0,028
-195,504	-53,112	0,140	-0,046
-194,490	-44,413	-0,170	-0,061
-193,475	-66,399	-0,038	-0,011
-192,460	-194,442	0,062	-0,000
-191,446	-157,467	0,084	0,004
-190,431	-60,529	-0,154	0,047
-189,417	-200,000	0,001	0,103
-188,402	-200,000	-0,006	0,024
-187,387	-200,000	-0,005	-0,025
-186,373	-200,000	-0,027	-0,129
-185,358	34,970	0,040	-0,025
-184,344	54,420	0,091	-0,064
-183,329	-118,038	0,070	-0,009
-182,315	-200,000	-0,008	0,069
-181,300	-156,513	0,215	0,010
-180,285	-185,398	0,138	0,001
-179,271	575,055	0,045	0,079
-178,256	243,698	0,067	0,081
-177,242	800,000	0,071	0,162
-176,227	-72,607	0,094	0,025
-175,212	-131,163	-0,127	-0,012
-174,198	58,049	0,051	-0,036
-173,183	800,000	-0,016	-0,033
-172,169	-200,000	0,008	0,031
-171,154	9,303	-0,086	-0,047
-170,139	106,959	0,079	0,067
-169,125	495,234	0,019	0,032
-168,110	11,112	-0,074	0,041
-167,096	143,893	-0,036	0,035
-166,081	187,926	-0,021	-0,023
-165,066	-106,330	-0,051	0,008
-164,052	202,864	0,059	0,066
-163,037	-44,076	0,068	0,024
-162,023	-200,000	-0,020	0,090
-161,008	-200,000	-0,041	0,137
-159,993	149,225	0,075	0,074
-158,979	524,920	-0,020	0,035
-157,964	-200,000	-0,028	0,123
-156,950	209,157	0,082	-0,093
-155,935	800,000	0,024	-0,066
-154,920	-143,846	-0,095	-0,006
-153,906	-81,320	0,012	-0,003
-152,891	426,314	-0,082	-0,128
-151,877	117,698	0,045	-0,040
-150,862	800,000	0,021	-0,065
-149,847	800,000	-0,009	0,017
-148,833	497,997	0,041	0,068
-147,818	399,311	0,048	0,072
-146,804	-200,000	-0,017	0,060
-145,789	800,000	-0,025	-0,066
-144,775	-122,888	-0,100	0,011
-143,760	-200,000	-0,047	-0,213
-142,745	-114,562	0,107	0,015
-141,731	97,819	0,128	-0,106
-140,716	0,789	0,040	-0,020
-139,702	-4,957	0,047	-0,023
-138,687	136,559	-0,131	-0,123
-137,672	-200,000	-0,023	0,082
-136,658	-114,462	0,046	-0,006
-135,643	-200,000	0,043	-0,149
-134,629	800,000	0,026	-0,060
-133,614	800,000	-0,054	-0,151
-132,599	-200,000	0,004	-0,021
-131,585	28,267	-0,093	-0,056
-130,570	-200,000	0,034	-0,120
-129,556	744,458	-0,069	-0,134
-128,541	800,000	-0,045	-0,115
-127,526	173,803	-0,063	0,066
-126,512	627,683	0,107	0,196
-125,497	-200,000	0,007	-0,033
-124,483	800,000	-0,016	0,041
-123,468	556,140	-0,043	-0,075
-122,453	15,465	-0,147	-0,083
-121,439	30,239	0,184	-0,113
-120,424	-200,000	-0,025	-0,137
-119,410	-65,384	0,154	-0,044
