DTS Sentinel unit serial number:	SN410029Multiplexer serial number:	ORYXHardware model number:	OX2-SRSoftware version number:	ORYX F/W v4,00 Oryx Data Collector v3.7.2.0data status	okinstallation	B5 Nyhavnadifferential loss correction	single-endedforward channel	channel 2reverse channel	N/Adate	2023/12/14time	01:37:14forward acquisition time	300,00reverse acquisition time	0,00gamma	499,1914k internal	0,3154k external	0,3154temperature offset calibration	1,0000default loss term (dB/km)	0,3820temperature slope calibration	1,0000multiplexer offset coefficient	1,0000multiplexer slope coefficient	1,0000fibre end	0,00T internal ref (°C)	8,69T ext. ref 1 (°C)	-7,33T ext. ref 2 (°C)	-7,37length (m)	temperature (°C)	Stokes	anti-Stokes-744,400	-39,686	0,181	0,069
-743,385	-117,650	-0,235	-0,031
-742,371	-3,264	0,179	0,092
-741,356	-105,941	-0,408	0,067
-740,342	800,000	0,068	0,182
-739,327	-200,000	-0,379	-0,000
-738,312	-200,000	0,050	0,177
-737,298	-40,270	-0,376	-0,144
-736,283	18,018	0,045	0,026
-735,269	-75,690	-0,373	-0,097
-734,254	84,772	0,137	0,111
-733,239	4,626	-0,529	-0,286
-732,225	-67,643	0,294	0,085
-731,210	-200,000	0,011	0,173
-730,196	-41,784	0,109	-0,041
-729,181	569,502	0,018	0,033
-728,167	-200,000	-0,015	-0,082
-727,152	417,651	-0,078	-0,123
-726,137	800,000	-0,028	-0,072
-725,123	124,799	0,076	0,070
-724,108	-119,710	-0,143	0,018
-723,094	169,008	-0,075	-0,079
-722,079	-200,000	0,008	-0,125
-721,064	-200,000	0,010	-0,106
-720,050	-200,000	-0,015	0,083
-719,035	106,062	0,062	-0,054
-718,021	-35,208	-0,109	-0,043
-717,006	-200,000	-0,010	-0,056
-715,991	-200,000	0,020	-0,189
-714,977	165,733	-0,062	-0,064
-713,962	285,989	0,045	-0,061
-712,948	43,290	0,051	-0,034
-711,933	314,612	0,027	-0,038
-710,918	178,040	-0,109	-0,117
-709,904	-161,701	-0,072	-0,003
-708,889	-50,983	0,060	0,021
-707,875	-200,000	-0,012	-0,077
-706,860	276,272	0,057	-0,074
-705,845	-200,000	-0,021	-0,102
-704,831	150,182	0,047	-0,047
-703,816	-27,826	0,066	-0,028
-702,802	592,290	0,039	-0,070
-701,787	166,269	-0,034	-0,035
-700,772	406,846	-0,090	-0,140
-699,758	502,944	-0,052	-0,088
-698,743	-28,425	0,094	-0,040
-697,729	800,000	-0,025	-0,082
-696,714	-200,000	0,025	-0,126
-695,699	515,965	0,058	-0,100
-694,685	-144,100	-0,013	0,001
-693,670	-66,914	-0,185	-0,054
-692,656	-148,879	-0,048	0,003
-691,641	465,390	-0,027	-0,044
-690,627	94,234	0,071	0,059
-689,612	196,531	-0,129	0,145
-688,597	-200,000	-0,001	-0,099
-687,583	281,481	-0,122	-0,161
-686,568	82,216	-0,065	-0,052
-685,554	400,561	0,039	0,060
-684,539	-128,104	0,181	-0,019
-683,524	442,241	0,042	0,068
-682,510	-200,000	-0,020	-0,079
-681,495	132,311	-0,083	-0,079
-680,481	133,551	0,034	-0,032
-679,466	-98,136	-0,010	0,002
-678,451	278,563	0,063	-0,083
-677,437	800,000	-0,036	0,111
-676,422	800,000	0,014	0,039
-675,408	-200,000	-0,013	-0,096
-674,393	274,286	0,050	-0,065
-673,378	57,032	-0,100	-0,072
-672,364	-50,960	0,113	-0,039
-671,349	-200,000	-0,010	-0,082
-670,335	293,129	0,017	-0,023
-669,320	102,783	-0,107	0,092
-668,305	-200,000	0,045	-0,153
-667,291	267,031	0,052	0,067
-666,276	800,000	-0,052	-0,115
-665,262	-40,648	-0,101	0,038
-664,247	800,000	-0,017	-0,051
-663,232	214,428	-0,010	-0,011
-662,218	-133,726	0,050	0,005
-661,203	41,314	-0,120	-0,080
-660,189	-200,000	-0,019	-0,083
-659,174	-72,889	0,020	0,005
-658,159	-151,371	0,010	0,001
-657,145	56,219	-0,043	-0,030
-656,130	38,794	-0,039	-0,025
-655,116	-200,000	-0,013	0,081
-654,101	-200,000	0,007	-0,058
-653,086	-200,000	0,005	-0,056
-652,072	210,715	0,041	-0,047
-651,057	361,745	0,156	-0,231
-650,043	312,657	0,029	0,040
-649,028	-69,252	0,028	0,008
-648,014	-200,000	-0,010	0,074
-646,999	-200,000	0,001	-0,029
-645,984	386,414	-0,081	0,123
-644,970	-8,611	-0,090	-0,044
-643,955	-40,874	-0,121	0,046
-642,941	12,880	-0,059	-0,033
-641,926	-163,664	0,131	-0,004
-640,911	152,957	-0,055	-0,055
-639,897	-62,019	0,079	0,024
-638,882	-200,000	0,020	-0,163
-637,868	74,995	-0,066	-0,051
-636,853	26,990	-0,073	0,045
-635,838	365,582	0,047	0,069
-634,824	-200,000	-0,022	-0,148
-633,809	-200,000	0,001	0,051
-632,795	-78,659	0,073	0,018
-631,780	-200,000	0,008	-0,107
-630,765	-61,419	-0,038	0,012
-629,751	49,135	0,086	0,059
-628,736	-18,072	-0,126	-0,058
-627,722	53,208	0,000	0,000
-626,707	-200,000	-0,020	0,094
-625,692	-28,781	-0,027	0,012
-624,678	513,091	-0,059	-0,101
-623,663	800,000	-0,041	0,088
-622,649	774,149	0,028	0,057
-621,634	158,091	-0,055	0,056
-620,619	243,363	0,057	-0,071
-619,605	800,000	-0,026	-0,065
-618,590	-100,036	0,153	-0,028
-617,576	165,642	-0,109	-0,114
-616,561	-200,000	0,002	-0,021
-615,546	169,595	0,071	0,075
-614,532	-200,000	-0,017	0,054
-613,517	543,770	-0,057	-0,100
-612,503	302,874	-0,009	-0,012
-611,488	168,703	0,027	0,029
-610,474	-85,939	0,125	0,028
-609,459	-172,093	0,018	0,000
-608,444	-200,000	-0,006	-0,176
-607,430	15,308	-0,030	0,017
-606,415	601,133	-0,050	-0,091
-605,401	-200,000	0,024	0,103
-604,386	250,158	0,076	0,094
-603,371	355,184	0,078	0,114
-602,357	-146,879	0,126	0,008
-601,342	-200,000	-0,018	0,122
-600,328	-175,893	-0,156	0,003
-599,313	-26,964	-0,009	0,004
-598,298	-200,000	0,035	0,135
-597,284	6,092	-0,029	-0,016
-596,269	156,836	0,030	0,030
-595,255	-200,000	-0,015	0,119
-594,240	-1,268	-0,050	-0,026
-593,225	-169,685	-0,075	-0,002
-592,211	-21,674	0,133	-0,059
-591,196	-200,000	0,007	-0,026
-590,182	54,231	-0,056	-0,039
-589,167	-102,737	0,050	-0,009
-588,152	-32,146	-0,109	-0,045
-587,138	608,102	0,042	0,077
-586,123	-2,977	-0,080	-0,041
-585,109	-200,000	-0,004	-0,016
-584,094	329,313	0,054	0,077
-583,079	-83,779	-0,027	-0,006
-582,065	554,389	0,042	-0,075
-581,050	-69,066	-0,037	-0,010
-580,036	-200,000	0,008	0,124
-579,021	16,253	0,066	-0,038
-578,006	147,970	0,040	0,040
-576,992	-0,179	0,096	-0,050
-575,977	258,571	-0,024	-0,030
-574,963	800,000	0,026	-0,057
-573,948	542,289	-0,033	-0,058
-572,934	-45,829	-0,093	-0,033
-571,919	482,080	0,062	-0,103
-570,904	-200,000	-0,012	-0,105
-569,890	195,116	0,071	-0,079
-568,875	800,000	-0,044	0,095
-567,861	223,186	-0,058	-0,069
-566,846	800,000	-0,014	-0,029
-565,831	-126,934	-0,243	0,026
-564,817	-55,655	0,065	0,021
-563,802	-200,000	0,011	-0,057
-562,788	159,903	-0,040	-0,040
-561,773	-100,283	0,129	-0,023
-560,758	-200,000	0,016	-0,066
-559,744	306,480	0,042	-0,057
-558,729	800,000	-0,021	0,065
-557,715	-200,000	0,023	-0,124
-556,700	551,355	0,080	-0,141
-555,685	-170,317	-0,028	0,001
-554,671	-46,997	0,118	0,042
-553,656	-132,292	0,075	0,007
-552,642	11,697	0,063	0,035
-551,627	800,000	-0,040	0,105
-550,612	319,672	-0,060	-0,083
-549,598	-63,671	-0,170	0,051
-548,583	-47,899	-0,071	-0,025
-547,569	-200,000	-0,002	-0,011
-546,554	800,000	0,023	-0,068
-545,539	-22,035	0,024	0,011
-544,525	65,575	0,133	-0,099
-543,510	-55,430	-0,042	0,014
-542,496	7,772	-0,099	-0,054
-541,481	-116,566	0,034	0,004
-540,466	235,844	-0,086	-0,105
-539,452	800,000	0,022	-0,051
-538,437	-70,710	0,125	0,034
-537,423	152,361	-0,037	0,037
-536,408	800,000	0,090	-0,191
-535,393	375,061	-0,099	-0,148
-534,379	-63,059	0,085	0,026
-533,364	-91,815	0,073	0,015
-532,350	193,235	-0,071	0,078
-531,335	-78,025	-0,073	0,018
-530,321	-73,547	0,070	0,018
-529,306	800,000	0,102	-0,225
-528,291	-200,000	-0,013	-0,143
-527,277	-89,584	-0,036	-0,008
-526,262	-200,000	0,004	-0,031
-525,248	27,566	-0,116	0,072
-524,233	383,438	0,034	-0,052
-523,218	516,793	0,041	0,071
-522,204	99,684	0,042	0,035
-521,189	-18,783	-0,069	-0,031
-520,175	110,784	-0,114	-0,101
-519,160	188,758	0,036	0,039
-518,145	-200,000	0,006	-0,142
-517,131	799,420	-0,033	0,067
-516,116	128,913	0,102	0,095
-515,102	-200,000	-0,031	-0,119
-514,087	-55,655	-0,112	-0,036
-513,072	126,380	0,076	-0,070
-512,058	152,522	-0,058	0,058
-511,043	203,670	-0,113	-0,128
-510,029	800,000	0,066	-0,178
-509,014	-124,294	-0,106	-0,012
-507,999	84,911	0,105	-0,084
-506,985	-119,861	-0,111	0,014
-505,970	165,962	-0,114	-0,119
-504,956	468,734	0,052	-0,085
-503,941	-200,000	0,004	0,030
-502,926	800,000	0,034	-0,079
-501,912	-188,266	-0,145	-0,001
-500,897	159,545	-0,041	-0,042
-499,883	-200,000	-0,039	-0,138
-498,868	681,900	0,017	-0,032
-497,853	134,464	-0,074	0,070
-496,839	242,369	-0,035	-0,043
-495,824	378,289	-0,056	-0,083
-494,810	800,000	0,015	0,043
-493,795	-111,145	-0,072	-0,011
-492,781	35,777	-0,019	0,012
-491,766	188,957	-0,071	0,078
-490,751	188,259	0,080	0,087
-489,737	60,001	0,041	0,030
-488,722	-200,000	0,028	0,129
-487,708	221,349	-0,031	-0,037
-486,693	-16,809	0,177	0,081
-485,678	-135,645	-0,077	0,007
-484,664	574,815	0,025	-0,045
-483,649	-44,163	-0,124	-0,045
-482,635	-122,244	-0,131	-0,015
-481,620	800,000	0,051	-0,106
-480,605	-200,000	-0,053	-0,201
-479,591	167,777	-0,037	0,039
-478,576	800,000	0,047	0,104
-477,562	587,011	-0,070	-0,127
-476,547	-200,000	0,004	-0,092
-475,532	308,694	-0,036	0,049
-474,518	-200,000	-0,004	-0,065
-473,503	32,963	-0,052	-0,033
-472,489	222,522	-0,042	-0,050
-471,474	-200,000	0,002	0,009
-470,459	800,000	-0,024	-0,063
-469,445	800,000	-0,046	-0,098
-468,430	275,672	-0,060	-0,078
-467,416	-200,000	-0,006	0,047
-466,401	717,188	-0,015	-0,030
-465,386	396,175	0,041	0,063
-464,372	800,000	0,016	0,039
-463,357	-150,475	-0,014	0,001
-462,343	-109,766	-0,025	0,004
-461,328	-200,000	-0,004	-0,041
-460,313	-200,000	-0,015	-0,111
-459,299	800,000	0,022	0,055
-458,284	-121,694	-0,136	0,016
-457,270	551,980	-0,023	-0,041
-456,255	131,134	0,040	-0,037
-455,241	-200,000	-0,012	0,047
-454,226	-200,000	0,004	0,038
-453,211	-10,580	0,166	-0,080
-452,197	-162,926	0,101	-0,004
-451,182	-1,321	-0,051	0,026
-450,168	-131,420	-0,140	-0,013
-449,153	800,000	0,024	0,072
-448,138	56,258	-0,058	0,041
-447,124	-200,000	0,012	0,069
-446,109	204,457	-0,069	0,078
-445,095	-14,893	0,179	0,083
-444,080	230,692	-0,043	0,051
-443,065	83,701	-0,053	-0,042
-442,051	-27,922	-0,046	0,019
-441,036	258,453	-0,032	0,040
-440,022	120,338	-0,056	0,051
-439,007	-182,029	0,104	0,001
-437,992	-81,409	0,068	0,016
-436,978	-31,717	0,005	0,002
-435,963	-175,952	0,037	0,001
-434,949	5,460	-0,060	0,032
-433,934	2,046	-0,115	0,060
-432,919	84,324	-0,059	-0,047
-431,905	366,360	0,027	-0,040
-430,890	-15,715	0,066	0,030
-429,876	-200,000	0,013	-0,061
-428,861	-57,145	-0,096	-0,031
-427,846	-22,502	0,046	-0,020
-426,832	284,307	-0,033	-0,043
-425,817	-129,787	0,081	-0,008
-424,803	-52,547	0,035	-0,012
-423,788	-200,000	-0,003	0,027
-422,773	125,058	0,150	-0,137
-421,759	672,755	-0,028	0,053
-420,744	91,226	0,179	0,146
-419,730	62,724	-0,079	0,057
-418,715	-200,000	-0,004	-0,016
-417,701	-200,000	0,028	0,111
-416,686	71,805	0,135	0,102
-415,671	-200,000	-0,011	-0,053
-414,657	326,745	-0,045	-0,063
-413,642	18,236	0,056	0,032
-412,628	88,190	0,092	0,074
-411,613	-41,516	0,043	0,016
-410,598	-65,575	-0,103	0,030
-409,584	41,693	0,117	-0,077
-408,569	-170,902	0,129	-0,003
-407,555	254,369	0,070	0,088
-406,540	-200,000	0,002	-0,021
-405,525	294,759	0,048	-0,064
-404,511	207,643	0,041	0,047
-403,496	54,676	-0,088	-0,061
-402,482	4,348	0,024	-0,013
-401,467	-68,824	0,082	-0,023
-400,452	183,682	-0,101	0,109
-399,438	187,394	-0,021	-0,023
-398,423	-200,000	-0,010	-0,065
-397,409	207,370	-0,049	-0,056
-396,394	448,297	0,025	-0,040
-395,379	-20,292	0,055	0,024
-394,365	-200,000	-0,032	0,206
-393,350	-155,048	0,142	0,007
-392,336	-127,662	-0,116	0,012
-391,321	-200,000	0,002	-0,042
-390,306	800,000	-0,044	0,114
-389,292	169,946	-0,031	0,032
-388,277	351,485	-0,035	0,051
-387,263	670,492	-0,014	0,026
-386,248	800,000	-0,040	0,090
-385,233	110,070	-0,104	0,091
-384,219	66,348	-0,051	0,038
-383,204	123,082	-0,081	-0,073
-382,190	-200,000	0,003	0,089
-381,175	-25,168	0,112	0,048
-380,160	-38,123	0,060	-0,023
-379,146	800,000	0,058	0,127
-378,131	-200,000	0,008	-0,075
-377,117	661,759	0,051	-0,097
-376,102	-56,152	0,045	0,014
-375,088	800,000	-0,004	-0,009
-374,073	-63,525	-0,077	-0,023
-373,058	221,077	-0,054	-0,063
-372,044	13,800	0,090	0,051
-371,029	-200,000	0,044	0,148
-370,015	800,000	-0,035	0,082
-369,000	326,608	-0,024	-0,033
-367,985	486,644	-0,060	-0,100
-366,971	-102,376	-0,069	0,012
-365,956	290,924	-0,067	-0,089
-364,942	-200,000	0,001	-0,074
-363,927	-69,796	-0,084	-0,023
-362,912	-71,452	0,037	0,010
-361,898	148,093	-0,095	0,093
-360,883	-152,320	-0,091	0,005
-359,869	-10,171	0,023	0,011
-358,854	220,361	0,050	0,059
-357,839	800,000	0,049	0,126
-356,825	112,857	0,100	-0,088
-355,810	-198,106	-0,075	0,000
-354,796	-200,000	-0,008	-0,042
-353,781	-70,874	-0,160	-0,043
-352,766	-75,584	-0,119	0,031
-351,752	-200,000	0,002	0,011
-350,737	134,352	0,066	-0,062
-349,723	189,509	-0,062	-0,067
-348,708	-47,438	0,128	0,045
-347,693	-200,000	-0,044	-0,159
-346,679	-47,972	0,171	-0,060
-345,664	158,571	-0,022	-0,022
-344,650	-200,000	0,014	0,076
-343,635	119,769	0,029	0,026
-342,620	-61,924	0,149	0,045
-341,606	259,647	0,025	0,031
-340,591	144,550	-0,144	0,140
-339,577	-200,000	-0,011	0,051
-338,562	270,816	-0,094	0,121
-337,548	-45,678	0,095	-0,034
-336,533	200,411	0,029	0,033
-335,518	-34,715	-0,108	0,043
-334,504	5,866	-0,067	-0,036
-333,489	46,619	-0,017	-0,011
-332,475	264,102	-0,117	-0,148
-331,460	-106,941	-0,182	-0,029
-330,445	-200,000	0,020	-0,064
-329,431	-200,000	0,006	0,134
-328,416	-200,000	0,016	0,056
-327,402	-200,000	-0,004	0,020
-326,387	-81,985	-0,103	0,024
-325,372	136,063	0,076	-0,072
-324,358	-20,720	0,122	-0,054
-323,343	-129,863	0,065	-0,006
-322,329	275,315	0,027	0,035
-321,314	-26,646	0,093	0,039
-320,299	125,685	-0,066	-0,061
-319,285	321,669	0,017	-0,024
-318,270	658,238	0,041	-0,077
-317,256	-113,221	-0,054	-0,008
-316,241	-102,126	0,152	0,026
-315,226	800,000	0,021	-0,062
-314,212	-200,000	0,011	-0,076
-313,197	671,366	-0,062	0,116
-312,183	131,175	0,060	0,056
-311,168	112,951	0,070	-0,062
-310,153	-80,174	0,150	0,036
-309,139	243,980	-0,102	0,125
-308,124	-200,000	0,021	0,155
-307,110	39,194	0,200	0,129
-306,095	375,197	0,062	0,092
-305,080	800,000	0,012	0,029
-304,066	506,532	-0,025	0,042
-303,051	208,903	0,156	-0,178
-302,037	175,238	-0,056	0,059
-301,022	64,532	0,042	0,031
-300,008	19,018	0,052	0,030
-298,993	361,643	0,082	0,120
-297,978	23,674	-0,157	0,094
-296,964	-200,000	-0,004	-0,044
-295,949	-65,097	-0,192	0,056
-294,935	30,619	0,136	0,084
-293,920	97,077	0,081	-0,067
-292,905	27,734	0,127	0,078
-291,891	-23,880	0,148	0,064
-290,876	131,705	-0,061	-0,057
-289,862	-107,310	0,089	-0,014
-288,847	158,691	-0,085	-0,086
-287,832	-200,000	0,011	0,046
-286,818	141,969	-0,133	0,128
-285,803	-10,094	0,092	0,044
-284,789	42,670	-0,058	0,038
-283,774	-80,757	0,053	-0,013
-282,759	438,034	-0,031	0,049
-281,745	-200,000	-0,010	0,087
-280,730	-148,441	-0,066	0,004
-279,716	800,000	0,031	0,069
-278,701	-61,884	0,115	-0,035
-277,686	422,984	-0,031	0,048
-276,672	800,000	0,029	0,060
-275,657	17,116	0,085	0,049
-274,643	76,565	0,103	-0,079
-273,628	800,000	0,055	-0,173
-272,613	510,800	-0,064	-0,108
-271,599	800,000	0,053	0,134
-270,584	-60,804	-0,105	-0,032
-269,570	800,000	0,059	0,148
-268,555	-200,000	0,000	0,015
-267,540	160,484	0,009	-0,009
-266,526	194,489	-0,099	-0,109
-265,511	-1,462	0,027	0,014
-264,497	-200,000	0,005	-0,146
-263,482	800,000	0,047	0,099
-262,467	-200,000	0,014	0,070
-261,453	-59,505	0,048	-0,015
-260,438	-47,661	0,075	-0,026
-259,424	324,985	-0,048	0,066
-258,409	293,128	0,026	0,035
-257,395	499,936	-0,057	0,095
-256,380	800,000	0,013	0,033
-255,365	-65,890	0,111	-0,032
-254,351	16,636	0,052	-0,030
-253,336	55,457	0,090	0,063
-252,322	32,549	-0,120	-0,075
-251,307	79,384	0,026	0,020
-250,292	244,917	-0,068	0,083
-249,278	-200,000	0,004	-0,057
-248,263	52,859	0,063	-0,043
-247,249	-200,000	-0,006	-0,043
-246,234	800,000	0,035	-0,092
-245,219	319,038	-0,025	-0,034
-244,205	-200,000	0,022	-0,104
-243,190	133,301	-0,050	-0,047
-242,176	27,672	0,126	-0,076
-241,161	-2,612	0,096	0,049
-240,146	-200,000	-0,000	0,082
-239,132	-135,094	0,156	-0,013
-238,117	109,199	-0,056	0,048
-237,103	-3,136	-0,081	-0,041
-236,088	19,110	0,052	-0,030
-235,073	800,000	-0,054	0,172
-234,059	298,194	0,047	-0,063
-233,044	37,678	-0,098	-0,063
-232,030	-83,563	-0,060	-0,014
-231,015	133,973	-0,067	-0,063
-230,000	75,214	0,047	0,036
-228,986	118,912	0,121	-0,108
-227,971	47,350	0,083	0,056
-226,957	800,000	0,056	0,134
-225,942	228,071	0,054	-0,064
-224,927	800,000	-0,029	0,070
-223,913	348,379	0,046	0,066
-222,898	-146,399	-0,197	0,012
-221,884	800,000	0,053	-0,159
-220,869	42,361	-0,022	0,014
-219,855	-200,000	0,031	0,111
-218,840	-151,441	0,083	0,004
-217,825	-200,000	0,016	-0,058
-216,811	-200,000	0,002	0,016
-215,796	-200,000	-0,008	-0,064
-214,782	800,000	0,018	-0,037
-213,767	-34,362	-0,039	0,015
-212,752	-110,119	-0,054	-0,008
-211,738	361,539	-0,015	0,021
-210,723	355,709	-0,075	0,108
-209,709	116,910	-0,052	0,046
-208,694	-33,308	-0,055	-0,022
-207,679	-60,737	0,112	0,034
-206,665	-86,070	-0,053	-0,012
-205,650	-200,000	0,039	-0,133
-204,636	74,916	-0,045	-0,034
-203,621	-200,000	0,005	-0,103
-202,606	800,000	-0,027	0,058
-201,592	800,000	-0,020	0,042
-200,577	-120,129	-0,097	0,012
-199,563	-200,000	-0,007	0,097
-198,548	800,000	-0,031	-0,079
-197,533	-81,098	-0,008	-0,002
-196,519	800,000	-0,043	0,093
-195,504	179,092	-0,058	-0,061
-194,490	1,873	-0,074	0,039
-193,475	437,971	-0,005	-0,008
-192,460	-3,126	-0,036	-0,018
-191,446	-200,000	-0,000	0,070
-190,431	47,670	0,116	0,078
-189,417	4,275	0,189	0,100
-188,402	421,018	0,071	0,111
-187,387	800,000	-0,038	0,097
-186,373	56,114	0,011	0,008
-185,358	-200,000	-0,024	0,099
-184,344	-136,975	0,040	0,003
-183,329	-200,000	0,009	0,041
-182,315	800,000	-0,007	0,019
-181,300	150,263	0,039	0,038
-180,285	15,411	-0,132	-0,075
-179,271	146,028	0,059	0,057
-178,256	26,113	0,053	-0,032
-177,242	-98,660	-0,015	-0,003
-176,227	63,396	0,094	-0,068
-175,212	669,148	0,022	-0,042
-174,198	299,471	0,096	-0,128
-173,183	-200,000	0,002	0,016
-172,169	250,875	-0,058	0,071
-171,154	72,962	0,092	0,070
-170,139	800,000	-0,041	0,096
-169,125	800,000	-0,029	0,085
-168,110	-200,000	0,024	0,087
-167,096	-84,674	-0,112	-0,025
-166,081	-35,738	-0,064	0,025
-165,066	-78,856	-0,061	0,015
-164,052	-200,000	0,024	-0,089
-163,037	86,464	-0,043	0,034
-162,023	800,000	-0,034	0,075
-161,008	211,934	-0,051	-0,058
-159,993	27,825	-0,056	-0,034
-158,979	168,989	0,102	-0,105
-157,964	420,024	-0,022	0,034
-156,950	800,000	-0,027	-0,056
-155,935	-200,000	0,015	-0,097
-154,920	23,732	-0,167	-0,099
-153,906	-200,000	-0,004	0,062
-152,891	-200,000	0,005	0,181
-151,877	-200,000	0,004	-0,072
-150,862	572,041	0,054	-0,095
-149,847	-200,000	0,004	-0,052
-148,833	-200,000	-0,006	-0,157
-147,818	-43,113	0,051	-0,019
-146,804	-28,044	-0,054	0,022
-145,789	800,000	0,025	0,069
-144,775	-121,575	-0,141	0,017
-143,760	800,000	0,018	-0,057
-142,745	-93,256	-0,094	0,019
-141,731	-200,000	-0,030	0,124
-140,716	-30,364	0,053	-0,022
-139,702	-0,522	-0,045	-0,023
-138,687	633,650	-0,079	-0,146
-137,672	-163,255	-0,008	-0,000
-136,658	-59,652	-0,110	0,034
-135,643	-200,000	-0,013	-0,061
-134,629	-200,000	-0,021	0,091
-133,614	198,024	-0,062	0,068
-132,599	-37,415	0,087	-0,033
-131,585	-96,017	0,087	-0,016
-130,570	41,786	-0,109	0,071
-129,556	-80,290	0,146	0,035
-128,541	762,231	0,086	-0,169
-127,526	-1,768	0,045	0,023
-126,512	-200,000	-0,017	-0,058
-125,497	291,741	0,079	0,103
-124,483	800,000	-0,017	0,043
-123,468	-151,644	-0,123	-0,006
-122,453	227,772	0,104	-0,123
-121,439	311,943	-0,110	-0,150
-120,424	226,340	-0,011	0,012
-119,410	-200,000	-0,008	0,047
