DTS Sentinel unit serial number:	SN410029Multiplexer serial number:	ORYXHardware model number:	OX2-SRSoftware version number:	ORYX F/W v4,00 Oryx Data Collector v3.7.2.0data status	okinstallation	B5 Nyhavnadifferential loss correction	single-endedforward channel	channel 2reverse channel	N/Adate	2023/12/12time	06:27:13forward acquisition time	300,00reverse acquisition time	0,00gamma	499,1914k internal	0,3157k external	0,3157temperature offset calibration	1,0000default loss term (dB/km)	0,3820temperature slope calibration	1,0000multiplexer offset coefficient	1,0000multiplexer slope coefficient	1,0000fibre end	0,00T internal ref (°C)	15,25T ext. ref 1 (°C)	-1,16T ext. ref 2 (°C)	-1,44length (m)	temperature (°C)	Stokes	anti-Stokes-744,400	72,852	0,155	0,119
-743,385	-75,038	-0,212	-0,056
-742,371	-200,000	-0,008	-0,111
-741,356	-128,397	-0,170	0,018
-740,342	460,338	-0,059	0,097
-739,327	-93,249	-0,205	0,042
-738,312	24,988	0,079	-0,048
-737,298	-151,593	-0,303	-0,016
-736,283	87,158	0,079	-0,064
-735,269	-82,395	-0,200	0,048
-734,254	486,503	0,055	0,094
-733,239	-54,655	-0,370	-0,123
-732,225	-122,831	0,200	0,023
-731,210	-112,803	-0,055	-0,008
-730,196	123,995	0,141	-0,130
-729,181	222,590	-0,112	-0,133
-728,167	106,190	-0,060	-0,052
-727,152	289,353	-0,041	0,055
-726,137	-45,459	-0,231	0,084
-725,123	101,831	0,040	-0,035
-724,108	770,570	-0,071	-0,144
-723,094	800,000	-0,056	-0,172
-722,079	-167,324	-0,047	-0,001
-721,064	-75,667	-0,079	-0,020
-720,050	800,000	-0,068	-0,157
-719,035	27,137	-0,066	0,041
-718,021	-3,332	-0,138	-0,071
-717,006	-200,000	0,001	-0,020
-715,991	402,713	-0,078	-0,122
-714,977	800,000	0,042	-0,133
-713,962	280,266	-0,020	-0,026
-712,948	98,239	0,111	0,094
-711,933	91,344	0,065	-0,054
-710,918	-11,359	0,108	0,052
-709,904	103,898	-0,179	-0,155
-708,889	-145,246	-0,115	-0,008
-707,875	-68,806	-0,121	-0,034
-706,860	800,000	0,044	-0,131
-705,845	70,078	-0,102	-0,077
-704,831	142,000	-0,052	0,051
-703,816	-1,365	0,096	-0,050
-702,802	117,637	0,108	0,098
-701,787	3,581	-0,120	0,064
-700,772	-134,212	-0,134	-0,012
-699,758	-155,723	-0,158	-0,007
-698,743	471,270	-0,040	0,066
-697,729	800,000	0,037	0,094
-696,714	287,027	-0,090	0,120
-695,699	-60,399	-0,049	-0,015
-694,685	-200,000	0,015	0,066
-693,670	111,080	-0,027	-0,024
-692,656	-39,052	0,031	-0,012
-691,641	-178,499	-0,145	0,002
-690,627	800,000	0,046	-0,098
-689,612	-200,000	0,012	0,093
-688,597	-200,000	0,013	0,053
-687,583	-200,000	-0,008	0,072
-686,568	800,000	-0,027	0,058
-685,554	209,961	0,047	-0,055
-684,539	770,449	0,020	-0,040
-683,524	-155,958	0,141	-0,006
-682,510	50,470	-0,122	0,085
-681,495	180,118	-0,068	-0,074
-680,481	443,840	0,052	-0,084
-679,466	800,000	-0,080	-0,173
-678,451	434,309	0,061	-0,098
-677,437	-200,000	0,004	0,049
-676,422	800,000	0,042	0,101
-675,408	800,000	0,027	0,078
-674,393	610,155	-0,075	-0,138
-673,378	-200,000	0,026	-0,184
-672,364	800,000	-0,033	-0,079
-671,349	338,279	-0,077	-0,111
-670,335	800,000	-0,007	0,019
-669,320	252,132	-0,102	0,129
-668,305	-200,000	0,012	0,051
-667,291	800,000	-0,026	-0,058
-666,276	504,371	-0,023	-0,039
-665,262	38,082	-0,103	0,067
-664,247	-55,263	0,072	0,024
-663,232	800,000	-0,052	0,154
-662,218	96,637	0,102	0,086
-661,203	800,000	-0,046	-0,122
-660,189	800,000	-0,016	0,038
-659,174	-200,000	-0,017	-0,087
-658,159	800,000	0,039	-0,081
-657,145	800,000	-0,065	-0,156
-656,130	-84,599	0,070	-0,016
-655,116	-40,123	-0,141	-0,054
-654,101	-100,644	0,146	-0,026
-653,086	95,644	0,057	-0,047
-652,072	800,000	0,016	0,047
-651,057	39,354	-0,128	-0,084
-650,043	800,000	-0,026	-0,066
-649,028	-1,312	-0,152	-0,079
-648,014	-85,701	0,049	-0,011
-646,999	401,512	0,041	-0,063
-645,984	-200,000	0,004	0,048
-644,970	18,903	-0,055	0,032
-643,955	-200,000	0,016	0,114
-642,941	171,554	0,078	-0,083
-641,926	-144,998	0,052	0,003
-640,911	192,560	-0,188	-0,208
-639,897	282,596	0,040	-0,052
-638,882	-22,063	0,049	0,022
-637,868	-200,000	0,002	-0,095
-636,853	99,502	-0,095	0,081
-635,838	59,545	-0,100	-0,072
-634,824	-56,265	0,022	-0,007
-633,809	555,313	0,019	-0,034
-632,795	-200,000	0,004	0,027
-631,780	78,065	-0,079	-0,062
-630,765	-91,453	0,095	-0,020
-629,751	-200,000	0,017	-0,096
-628,736	307,083	0,047	0,064
-627,722	-200,000	-0,006	-0,133
-626,707	129,590	0,167	0,156
-625,692	-200,000	0,029	-0,150
-624,678	-121,125	-0,095	-0,012
-623,663	-147,610	-0,112	0,007
-622,649	59,884	-0,102	-0,074
-621,634	183,367	-0,153	-0,166
-620,619	58,896	-0,044	0,032
-619,605	-200,000	-0,003	0,043
-618,590	-39,518	0,050	0,019
-617,576	-43,650	0,236	-0,087
-616,561	-133,189	0,057	0,005
-615,546	-133,399	-0,075	-0,007
-614,532	-200,000	-0,002	-0,018
-613,517	-8,718	-0,045	-0,022
-612,503	-67,916	-0,098	-0,028
-611,488	800,000	-0,029	-0,064
-610,474	-12,612	0,083	0,040
-609,459	351,097	-0,084	0,122
-608,444	81,200	-0,088	-0,070
-607,430	110,312	0,049	0,043
-606,415	-36,314	-0,027	-0,011
-605,401	417,880	0,062	-0,097
-604,386	326,237	-0,040	-0,056
-603,371	23,372	-0,065	0,039
-602,357	800,000	-0,026	-0,054
-601,342	410,829	-0,061	0,095
-600,328	410,260	-0,054	-0,084
-599,313	-46,460	0,025	0,009
-598,298	106,493	-0,018	0,016
-597,284	151,908	0,041	0,041
-596,269	60,521	0,105	0,076
-595,255	151,303	-0,076	-0,076
-594,240	-200,000	-0,007	-0,025
-593,225	-45,389	-0,066	0,024
-592,211	64,834	0,092	-0,068
-591,196	-198,830	0,085	-0,000
-590,182	168,388	-0,051	-0,054
-589,167	-38,640	0,151	-0,058
-588,152	17,674	-0,062	0,036
-587,138	414,518	-0,019	-0,030
-586,123	90,937	-0,041	0,034
-585,109	-90,533	0,119	-0,025
-584,094	-73,242	0,052	-0,014
-583,079	-200,000	0,002	0,097
-582,065	97,411	-0,043	0,036
-581,050	170,696	-0,066	0,069
-580,036	797,305	-0,042	0,086
-579,021	123,485	-0,113	-0,104
-578,006	-79,563	-0,114	0,028
-576,992	175,222	0,024	0,026
-575,977	-58,317	0,095	0,030
-574,963	67,381	0,136	0,101
-573,948	477,310	0,046	0,077
-572,934	154,384	-0,070	-0,070
-571,919	27,280	-0,132	0,081
-570,904	40,885	-0,047	-0,031
-569,890	-200,000	-0,007	-0,114
-568,875	272,287	0,057	-0,074
-567,861	-200,000	-0,004	0,109
-566,846	253,704	0,048	-0,060
-565,831	17,731	-0,045	0,026
-564,817	164,264	-0,066	-0,068
-563,802	-200,000	0,026	-0,089
-562,788	-200,000	0,013	-0,056
-561,773	237,792	-0,032	-0,039
-560,758	-200,000	-0,005	0,016
-559,744	-200,000	0,025	0,092
-558,729	398,112	0,017	-0,027
-557,715	800,000	0,009	-0,027
-556,700	-137,276	-0,034	-0,003
-555,685	27,304	0,151	-0,093
-554,671	58,774	0,083	0,060
-553,656	52,882	0,037	-0,026
-552,642	-200,000	0,006	-0,040
-551,627	-200,000	0,053	0,218
-550,612	586,090	-0,091	-0,165
-549,598	-67,308	-0,154	-0,044
-548,583	-200,000	0,020	-0,104
-547,569	121,901	0,112	0,102
-546,554	-200,000	0,013	0,093
-545,539	800,000	0,031	-0,101
-544,525	-174,970	-0,091	0,002
-543,510	-199,768	-0,099	0,000
-542,496	214,731	-0,031	-0,036
-541,481	-170,416	-0,079	0,002
-540,466	116,063	0,121	0,108
-539,452	718,413	-0,005	-0,010
-538,437	75,938	0,075	0,058
-537,423	146,371	-0,044	0,044
-536,408	800,000	0,036	-0,081
-535,393	173,726	-0,082	-0,087
-534,379	-95,855	-0,118	0,023
-533,364	20,002	-0,025	-0,015
-532,350	205,840	0,026	-0,029
-531,335	-181,985	0,253	-0,003
-530,321	-30,181	-0,079	-0,033
-529,306	164,055	-0,015	-0,016
-528,291	100,967	0,044	-0,038
-527,277	380,346	-0,171	-0,257
-526,262	800,000	0,053	-0,159
-525,248	800,000	0,019	0,057
-524,233	264,089	0,013	-0,017
-523,218	-38,817	0,030	0,011
-522,204	-108,461	0,139	0,022
-521,189	800,000	-0,112	-0,272
-520,175	-113,838	0,111	-0,016
-519,160	-57,982	0,055	0,017
-518,145	124,598	0,056	-0,052
-517,131	0,315	0,103	0,053
-516,116	170,962	0,107	-0,113
-515,102	-24,707	-0,105	0,045
-514,087	-27,407	-0,068	-0,029
-513,072	800,000	-0,034	0,086
-512,058	550,754	0,010	0,018
-511,043	44,957	0,058	-0,039
-510,029	366,167	-0,032	-0,047
-509,014	104,284	0,137	-0,117
-507,999	-69,029	0,054	0,015
-506,985	-200,000	-0,019	-0,088
-505,970	116,010	-0,010	0,009
-504,956	-14,395	0,048	0,022
-503,941	-150,121	-0,060	0,003
-502,926	-56,685	-0,080	0,026
-501,912	6,002	0,055	0,030
-500,897	-119,661	-0,121	0,015
-499,883	-200,000	-0,001	0,009
-498,868	353,278	0,041	-0,059
-497,853	30,986	0,067	0,042
-496,839	-200,000	-0,103	0,000
-495,824	56,427	0,043	0,030
-494,810	800,000	-0,041	-0,097
-493,795	46,097	0,059	-0,040
-492,781	-113,860	-0,027	-0,004
-491,766	-200,000	-0,005	0,128
-490,751	66,767	-0,113	-0,084
-489,737	-48,386	-0,051	-0,018
-488,722	-200,000	-0,040	0,130
-487,708	-200,000	0,046	0,158
-486,693	230,326	0,077	0,092
-485,678	-200,000	-0,006	-0,073
-484,664	363,374	0,013	0,019
-483,649	-45,533	-0,021	-0,007
-482,635	-33,758	-0,078	-0,031
-481,620	47,248	-0,065	0,044
-480,605	57,852	-0,045	0,032
-479,591	-200,000	-0,021	0,075
-478,576	25,136	0,103	-0,063
-477,562	80,116	0,073	-0,058
-476,547	800,000	-0,055	-0,139
-475,532	290,953	0,138	-0,183
-474,518	549,608	0,022	-0,039
-473,503	132,686	0,116	-0,109
-472,489	84,073	-0,043	-0,034
-471,474	168,238	-0,063	-0,065
-470,459	-200,000	-0,007	-0,054
-469,445	-200,000	-0,001	0,014
-468,430	205,690	0,091	-0,103
-467,416	728,967	-0,053	-0,104
-466,401	119,018	0,121	0,109
-465,386	600,021	-0,035	-0,063
-464,372	800,000	-0,071	0,178
-463,357	16,621	-0,060	-0,034
-462,343	800,000	-0,018	-0,057
-461,328	134,163	0,024	0,022
-460,313	49,680	-0,060	-0,041
-459,299	165,553	0,027	0,028
-458,284	-200,000	0,032	0,132
-457,270	-113,786	-0,072	-0,010
-456,255	193,935	0,093	-0,103
-455,241	800,000	-0,013	0,032
-454,226	800,000	0,066	-0,173
-453,211	-82,151	0,085	-0,020
-452,197	460,931	-0,020	0,033
-451,182	-169,716	0,151	-0,004
-450,168	800,000	0,024	-0,052
-449,153	800,000	-0,047	-0,106
-448,138	296,283	0,054	-0,073
-447,124	-57,292	-0,153	0,049
-446,109	-148,011	0,077	0,005
-445,095	560,715	-0,034	-0,060
-444,080	-54,571	0,180	-0,059
-443,065	-149,097	-0,047	-0,003
-442,051	-17,027	0,074	0,034
-441,036	153,083	-0,133	0,133
-440,022	159,554	0,045	-0,045
-439,007	231,376	-0,019	0,023
-437,992	-200,000	-0,016	0,124
-436,978	-110,878	0,119	0,018
-435,963	-135,813	0,105	-0,009
-434,949	-38,594	-0,049	0,019
-433,934	568,355	0,006	0,011
-432,919	102,953	0,021	0,017
-431,905	800,000	-0,028	0,063
-430,890	495,419	0,040	0,068
-429,876	-75,081	-0,099	0,026
-428,861	627,055	-0,063	0,117
-427,846	386,305	-0,053	0,080
-426,832	-147,772	-0,061	0,004
-425,817	-200,000	-0,006	0,089
-424,803	71,219	-0,055	0,041
-423,788	-200,000	0,020	0,127
-422,773	85,665	-0,016	0,013
-421,759	154,090	-0,028	0,028
-420,744	-13,019	0,114	-0,054
-419,730	-200,000	0,004	0,045
-418,715	353,927	-0,010	0,015
-417,701	800,000	-0,051	-0,104
-416,686	173,200	-0,047	0,049
-415,671	14,508	-0,095	-0,054
-414,657	-138,242	-0,069	-0,006
-413,642	-17,801	0,049	-0,022
-412,628	147,450	-0,107	-0,105
-411,613	-200,000	-0,018	-0,104
-410,598	238,274	0,073	-0,089
-409,584	800,000	0,029	-0,066
-408,569	88,390	0,084	0,068
-407,555	114,969	-0,012	-0,011
-406,540	173,688	0,024	-0,025
-405,525	-70,814	0,029	0,008
-404,511	567,260	-0,107	-0,190
-403,496	-200,000	0,011	-0,059
-402,482	-18,615	-0,090	0,041
-401,467	800,000	0,049	-0,108
-400,452	800,000	0,001	-0,003
-399,438	46,476	-0,122	0,082
-398,423	-200,000	0,003	0,013
-397,409	-22,908	0,049	-0,021
-396,394	-200,000	0,017	0,093
-395,379	430,912	-0,007	0,011
-394,365	-200,000	0,039	0,140
-393,350	0,123	0,160	-0,083
-392,336	82,861	0,052	0,041
-391,321	-141,648	0,105	0,008
-390,306	338,742	0,023	0,033
-389,292	235,649	-0,099	0,119
-388,277	48,252	-0,040	-0,027
-387,263	268,487	0,075	0,096
-386,248	-10,099	0,097	-0,047
-385,233	800,000	0,023	0,053
-384,219	-79,332	0,035	-0,009
-383,204	-200,000	0,014	-0,080
-382,190	-200,000	0,017	0,086
-381,175	-200,000	0,036	-0,174
-380,160	-144,819	-0,130	-0,009
-379,146	155,120	0,038	-0,038
-378,131	-11,707	0,049	0,023
-377,117	213,939	-0,108	0,125
-376,102	800,000	-0,014	-0,042
-375,088	800,000	0,019	0,048
-374,073	800,000	-0,053	-0,143
-373,058	278,880	0,077	0,100
-372,044	25,420	-0,061	0,037
-371,029	-104,232	-0,057	0,010
-370,015	-92,019	0,104	-0,021
-369,000	800,000	0,020	0,044
-367,985	-200,000	0,007	-0,026
-366,971	800,000	-0,077	-0,214
-365,956	800,000	-0,030	0,079
-364,942	63,433	0,103	0,075
-363,927	-62,919	0,125	0,037
-362,912	-116,048	-0,062	0,008
-361,898	480,163	0,064	-0,106
-360,883	772,497	-0,044	-0,087
-359,869	3,987	-0,126	0,067
-358,854	-200,000	-0,022	-0,097
-357,839	297,326	-0,086	0,114
-356,825	800,000	0,039	0,107
-355,810	-79,491	0,173	-0,042
-354,796	33,753	-0,073	0,046
-353,781	7,313	0,081	-0,044
-352,766	-200,000	0,002	-0,124
-351,752	92,743	-0,083	-0,068
-350,737	-17,855	-0,104	0,047
-349,723	-98,989	0,053	-0,010
-348,708	315,585	-0,085	0,117
-347,693	-136,847	-0,104	-0,009
-346,679	-99,157	0,085	-0,015
-345,664	114,553	-0,114	0,101
-344,650	-200,000	0,004	0,181
-343,635	-200,000	0,049	0,204
-342,620	-91,556	-0,144	0,030
-341,606	-72,548	-0,066	0,018
-340,591	-200,000	-0,006	0,079
-339,577	800,000	-0,019	-0,055
-338,562	149,535	0,061	0,060
-337,548	179,068	-0,078	-0,083
-336,533	-200,000	0,021	0,162
-335,518	-200,000	-0,009	0,067
-334,504	159,741	0,098	-0,099
-333,489	138,912	-0,071	-0,067
-332,475	800,000	0,046	0,118
-331,460	22,719	0,060	-0,035
-330,445	800,000	0,043	0,095
-329,431	588,644	-0,075	0,135
-328,416	74,767	0,077	0,058
-327,402	166,182	0,058	0,059
-326,387	-200,000	-0,018	-0,062
-325,372	572,893	-0,033	-0,059
-324,358	-200,000	0,002	-0,071
-323,343	13,393	0,038	-0,021
-322,329	800,000	-0,024	-0,074
-321,314	-66,443	0,057	0,016
-320,299	-166,507	0,034	0,001
-319,285	-200,000	0,007	-0,032
-318,270	472,897	-0,082	-0,134
-317,256	532,288	-0,080	-0,138
-316,241	-101,200	-0,052	-0,009
-315,226	800,000	0,036	0,075
-314,212	-200,000	-0,008	-0,134
-313,197	-200,000	0,024	0,106
-312,183	90,998	-0,056	-0,045
-311,168	204,667	0,044	-0,049
-310,153	-200,000	-0,003	0,064
-309,139	487,948	0,025	-0,041
-308,124	-200,000	0,037	-0,120
-307,110	431,787	0,048	0,075
-306,095	523,004	0,090	0,154
-305,080	200,856	0,059	0,066
-304,066	-200,000	-0,002	-0,077
-303,051	140,697	0,036	0,034
-302,037	800,000	-0,004	-0,010
-301,022	800,000	0,026	0,073
-300,008	88,589	-0,024	0,020
-298,993	7,650	0,182	0,098
-297,978	676,365	0,043	0,082
-296,964	-200,000	0,000	-0,104
-295,949	-144,489	-0,112	0,007
-294,935	-200,000	0,007	-0,025
-293,920	-106,651	-0,074	-0,012
-292,905	566,800	-0,053	0,094
-291,891	800,000	0,038	0,091
-290,876	-161,301	-0,134	0,005
-289,862	-200,000	-0,000	0,061
-288,847	-200,000	-0,010	-0,090
-287,832	453,210	-0,072	-0,115
-286,818	-56,787	0,085	-0,027
-285,803	103,877	0,042	0,036
-284,789	141,539	0,125	-0,119
-283,774	-42,878	0,065	-0,024
-282,759	-63,087	0,005	0,002
-281,745	-200,000	0,005	-0,021
-280,730	-36,223	-0,121	0,047
-279,716	296,898	0,031	0,042
-278,701	800,000	0,061	0,152
-277,686	-200,000	0,053	0,295
-276,672	-69,025	-0,062	-0,017
-275,657	-135,912	0,069	-0,006
-274,643	98,258	0,107	0,089
-273,628	126,189	-0,133	0,122
-272,613	-200,000	0,031	-0,120
-271,599	-121,258	0,089	0,011
-270,584	-200,000	0,009	0,194
-269,570	-96,510	0,191	0,036
-268,555	-121,560	0,079	-0,009
-267,540	-71,454	-0,193	-0,052
-266,526	125,807	0,127	-0,116
-265,511	386,687	0,010	0,015
-264,497	-175,560	0,136	-0,003
-263,482	260,369	0,073	0,092
-262,467	-200,000	-0,032	0,110
-261,453	-100,476	-0,073	0,013
-260,438	-200,000	0,001	0,099
-259,424	-200,000	-0,043	-0,145
-258,409	-200,000	0,038	0,121
-257,395	-111,119	0,018	-0,003
-256,380	34,767	-0,069	0,044
-255,365	-133,086	0,099	0,009
-254,351	-122,861	0,086	-0,010
-253,336	143,917	-0,033	-0,032
-252,322	15,015	0,072	-0,041
-251,307	111,166	-0,127	-0,111
-250,292	50,900	-0,144	0,099
-249,278	190,729	0,146	0,159
-248,263	320,631	-0,034	0,047
-247,249	113,722	0,022	-0,019
-246,234	290,595	0,039	0,051
-245,219	-167,673	-0,153	-0,004
-244,205	255,069	-0,039	0,048
-243,190	800,000	0,018	0,057
-242,176	171,304	-0,027	0,029
-241,161	-200,000	-0,016	-0,105
-240,146	119,316	-0,074	0,066
-239,132	429,569	-0,050	0,079
-238,117	-200,000	-0,024	-0,136
-237,103	800,000	0,000	-0,001
-236,088	89,752	-0,069	0,056
-235,073	83,323	0,087	-0,068
-234,059	641,740	-0,074	0,137
-233,044	-152,751	0,258	-0,013
-232,030	-46,407	-0,134	-0,047
-231,015	-200,000	-0,011	-0,049
-230,000	24,521	-0,037	-0,022
-228,986	-139,805	-0,040	0,003
-227,971	-50,980	0,103	-0,035
-226,957	184,766	0,062	0,067
-225,942	205,726	0,069	-0,077
-224,927	800,000	-0,024	-0,060
-223,913	-200,000	0,022	-0,115
-222,898	-33,647	-0,056	-0,022
-221,884	-99,541	-0,134	0,024
-220,869	667,900	0,066	-0,124
-219,855	-44,534	0,111	0,040
-218,840	-200,000	0,009	-0,044
-217,825	800,000	0,010	0,020
-216,811	-94,135	-0,162	-0,032
-215,796	-200,000	0,001	0,059
-214,782	800,000	-0,047	0,147
-213,767	-200,000	-0,020	0,078
-212,752	76,968	0,093	-0,071
-211,738	-142,450	0,059	0,004
-210,723	10,746	0,063	-0,035
-209,709	-177,822	-0,090	-0,002
-208,694	800,000	0,058	-0,121
-207,679	247,474	0,017	-0,021
-206,665	117,940	0,002	-0,002
-205,650	452,921	-0,054	-0,086
-204,636	-135,993	-0,067	0,006
-203,621	51,192	-0,054	-0,037
-202,606	438,702	0,067	0,107
-201,592	-92,539	-0,122	-0,025
-200,577	-200,000	0,012	-0,055
-199,563	-200,000	0,013	-0,163
-198,548	-43,891	0,041	-0,015
-197,533	800,000	0,027	0,056
-196,519	-101,924	0,081	-0,014
-195,504	119,896	0,019	0,017
-194,490	63,553	-0,094	0,068
-193,475	-200,000	0,007	0,060
-192,460	-135,681	0,007	0,001
-191,446	-37,535	-0,059	0,023
-190,431	43,187	0,078	-0,051
-189,417	-144,972	-0,168	-0,011
-188,402	-138,801	-0,080	-0,006
-187,387	665,153	0,022	0,040
-186,373	-111,194	0,113	0,016
-185,358	206,181	0,053	0,060
-184,344	-99,523	-0,100	0,018
-183,329	-15,573	-0,068	0,031
-182,315	86,378	-0,138	0,110
-181,300	216,349	0,116	-0,133
-180,285	29,001	-0,095	0,058
-179,271	142,821	-0,156	-0,149
-178,256	56,210	-0,070	0,049
-177,242	649,884	0,052	0,096
-176,227	800,000	0,081	0,198
-175,212	716,981	0,073	0,140
-174,198	-200,000	0,011	0,037
-173,183	-156,356	-0,075	0,003
-172,169	-49,090	-0,061	0,021
-171,154	733,473	-0,017	0,032
-170,139	-115,425	-0,015	0,002
-169,125	-25,617	0,129	0,055
-168,110	271,089	0,009	0,011
-167,096	20,802	0,053	0,031
-166,081	-200,000	-0,027	-0,092
-165,066	800,000	-0,024	0,053
-164,052	-130,333	0,035	-0,003
-163,037	800,000	-0,022	0,059
-162,023	-100,470	-0,052	-0,009
-161,008	800,000	-0,031	0,064
-159,993	659,451	-0,057	0,107
-158,979	-31,049	-0,069	0,028
-157,964	214,814	0,086	-0,098
-156,950	51,128	-0,090	0,061
-155,935	-74,189	0,120	-0,031
-154,920	-10,535	-0,059	-0,028
-153,906	-200,000	0,035	0,130
-152,891	800,000	-0,020	0,060
-151,877	-109,865	0,040	-0,006
-150,862	-37,357	-0,072	-0,028
-149,847	379,238	-0,069	-0,103
-148,833	800,000	-0,029	-0,076
-147,818	-40,826	-0,047	0,018
-146,804	-19,877	0,090	0,040
-145,789	-61,129	0,062	0,019
-144,775	800,000	-0,077	-0,177
-143,760	615,640	-0,077	-0,139
-142,745	792,908	-0,003	-0,006
-141,731	-200,000	-0,049	0,179
-140,716	447,582	0,053	0,085
-139,702	290,992	0,058	-0,077
-138,687	5,944	0,032	0,017
-137,672	374,337	-0,053	-0,078
-136,658	89,868	0,059	-0,048
-135,643	112,804	-0,034	-0,030
-134,629	-18,413	0,140	-0,063
-133,614	443,010	-0,012	0,019
-132,599	69,107	-0,073	-0,054
-131,585	135,955	-0,056	0,053
-130,570	35,698	0,046	-0,029
-129,556	95,049	-0,077	-0,063
-128,541	-81,446	-0,074	-0,017
-127,526	587,366	0,032	-0,058
-126,512	-200,000	-0,013	-0,059
-125,497	317,350	0,100	0,137
-124,483	-200,000	-0,012	0,064
-123,468	524,415	-0,077	-0,131
-122,453	-200,000	0,009	-0,056
-121,439	-200,000	0,004	-0,066
-120,424	429,098	0,008	-0,012
-119,410	-139,079	0,041	0,003
