DTS Sentinel unit serial number:	SN410029Multiplexer serial number:	ORYXHardware model number:	OX2-SRSoftware version number:	ORYX F/W v4,00 Oryx Data Collector v3.7.2.0data status	okinstallation	B5 Nyhavnadifferential loss correction	single-endedforward channel	channel 2reverse channel	N/Adate	2023/12/13time	18:22:13forward acquisition time	300,00reverse acquisition time	0,00gamma	499,1914k internal	0,3160k external	0,3160temperature offset calibration	1,0000default loss term (dB/km)	0,3820temperature slope calibration	1,0000multiplexer offset coefficient	1,0000multiplexer slope coefficient	1,0000fibre end	0,00T internal ref (°C)	12,84T ext. ref 1 (°C)	-4,41T ext. ref 2 (°C)	-4,49length (m)	temperature (°C)	Stokes	anti-Stokes-744,400	-74,449	0,194	0,051
-743,385	-113,024	-0,320	-0,046
-742,371	-114,347	0,106	0,015
-741,356	-90,290	-0,245	0,052
-740,342	-133,540	0,084	0,008
-739,327	41,305	-0,202	-0,134
-738,312	165,522	0,064	-0,067
-737,298	-105,442	-0,306	-0,051
-736,283	-162,613	0,101	0,004
-735,269	-45,514	-0,310	0,113
-734,254	280,590	-0,031	0,041
-733,239	-177,762	-0,428	0,007
-732,225	18,302	0,183	0,107
-731,210	-200,000	0,007	0,057
-730,196	-200,000	0,001	-0,083
-729,181	31,989	-0,087	0,055
-728,167	-200,000	-0,019	0,127
-727,152	249,402	0,023	0,029
-726,137	-100,645	0,083	0,015
-725,123	800,000	-0,041	0,097
-724,108	-182,853	-0,090	-0,001
-723,094	281,491	-0,029	-0,038
-722,079	-200,000	-0,005	-0,034
-721,064	-93,605	0,018	0,004
-720,050	64,549	-0,112	-0,083
-719,035	-19,733	0,088	-0,040
-718,021	15,775	-0,177	-0,102
-717,006	-23,451	0,056	-0,025
-715,991	-200,000	-0,035	-0,156
-714,977	-200,000	0,029	-0,150
-713,962	-200,000	-0,015	-0,053
-712,948	4,472	-0,069	-0,037
-711,933	800,000	0,028	0,078
-710,918	387,471	-0,066	0,101
-709,904	175,000	-0,101	-0,108
-708,889	44,033	-0,066	0,044
-707,875	800,000	-0,019	-0,060
-706,860	-200,000	0,003	-0,056
-705,845	290,280	-0,056	-0,075
-704,831	-200,000	0,025	0,083
-703,816	31,067	-0,066	-0,042
-702,802	-38,150	0,057	-0,022
-701,787	28,910	-0,065	0,040
-700,772	-200,000	-0,026	-0,126
-699,758	-57,386	0,063	-0,020
-698,743	63,245	0,064	0,047
-697,729	107,816	-0,038	-0,033
-696,714	13,086	0,051	-0,029
-695,699	-200,000	0,004	-0,043
-694,685	-200,000	0,021	-0,117
-693,670	800,000	0,025	-0,057
-692,656	800,000	-0,050	-0,143
-691,641	-200,000	0,063	0,000
-690,627	34,450	0,053	-0,034
-689,612	-200,000	-0,030	-0,105
-688,597	-200,000	0,018	-0,098
-687,583	-7,690	-0,173	-0,086
-686,568	145,459	-0,020	0,020
-685,554	79,404	-0,080	-0,063
-684,539	800,000	0,033	-0,091
-683,524	-200,000	-0,001	0,103
-682,510	7,370	0,103	0,057
-681,495	-200,000	-0,015	0,087
-680,481	800,000	0,002	0,005
-679,466	-38,646	-0,062	0,024
-678,451	-200,000	0,022	-0,079
-677,437	-25,168	-0,147	0,064
-676,422	-45,324	0,061	0,022
-675,408	-43,272	-0,125	-0,046
-674,393	800,000	0,089	-0,181
-673,378	800,000	-0,026	-0,062
-672,364	301,102	0,090	-0,122
-671,349	436,743	0,011	-0,017
-670,335	800,000	-0,019	-0,049
-669,320	-64,924	0,073	-0,021
-668,305	-133,645	0,203	-0,018
-667,291	800,000	-0,034	-0,093
-666,276	97,007	0,099	-0,084
-665,262	-85,081	-0,205	-0,047
-664,247	-200,000	-0,011	0,067
-663,232	800,000	-0,051	-0,130
-662,218	220,555	-0,056	-0,066
-661,203	150,597	-0,030	-0,030
-660,189	-57,650	0,093	-0,030
-659,174	311,332	0,089	-0,123
-658,159	43,266	-0,112	-0,075
-657,145	11,112	0,117	-0,065
-656,130	-146,387	0,116	0,007
-655,116	800,000	0,052	0,126
-654,101	-77,386	-0,090	0,023
-653,086	800,000	0,007	0,016
-652,072	-100,498	-0,054	-0,010
-651,057	-142,060	-0,075	-0,005
-650,043	-64,352	-0,158	-0,047
-649,028	800,000	0,017	0,041
-648,014	407,425	0,099	0,155
-646,999	-200,000	0,010	0,126
-645,984	-64,538	-0,155	0,046
-644,970	-200,000	-0,021	-0,140
-643,955	753,973	-0,093	-0,186
-642,941	200,824	-0,068	-0,077
-641,926	-12,155	-0,159	-0,076
-640,911	62,964	0,072	-0,053
-639,897	-200,000	-0,006	0,020
-638,882	-183,505	-0,112	-0,001
-637,868	-118,117	0,068	-0,009
-636,853	162,744	-0,088	0,090
-635,838	-200,000	-0,003	0,155
-634,824	207,380	-0,034	-0,039
-633,809	55,731	-0,090	-0,064
-632,795	-41,519	0,106	-0,040
-631,780	91,648	-0,035	-0,029
-630,765	70,500	-0,007	0,005
-629,751	549,603	0,053	-0,093
-628,736	-200,000	-0,017	-0,085
-627,722	-1,618	0,182	-0,094
-626,707	178,103	0,098	0,105
-625,692	324,326	-0,023	-0,032
-624,678	-7,794	0,068	-0,034
-623,663	-200,000	-0,004	-0,115
-622,649	15,213	0,011	0,006
-621,634	435,929	0,020	-0,032
-620,619	375,390	-0,134	-0,201
-619,605	725,605	0,076	0,149
-618,590	-124,363	0,051	0,006
-617,576	-50,148	0,068	-0,023
-616,561	67,842	-0,036	-0,027
-615,546	-200,000	0,026	-0,149
-614,532	-200,000	-0,024	-0,111
-613,517	580,476	0,017	-0,030
-612,503	5,294	0,116	-0,063
-611,488	48,310	0,039	-0,027
-610,474	63,249	-0,115	0,085
-609,459	367,037	0,137	0,204
-608,444	2,616	-0,088	-0,047
-607,430	498,235	-0,015	0,026
-606,415	-139,045	-0,040	0,003
-605,401	-86,814	-0,100	0,022
-604,386	-84,476	0,018	0,004
-603,371	697,492	0,025	0,049
-602,357	-53,166	-0,132	0,044
-601,342	-36,146	0,073	0,029
-600,328	-200,000	-0,039	-0,198
-599,313	-84,495	-0,068	0,016
-598,298	22,660	0,030	-0,018
-597,284	33,477	0,073	-0,046
-596,269	-8,981	-0,095	-0,046
-595,255	800,000	0,014	0,045
-594,240	-97,181	0,062	0,012
-593,225	174,307	-0,039	-0,041
-592,211	-131,967	-0,146	-0,014
-591,196	-200,000	-0,001	-0,112
-590,182	-200,000	-0,001	0,011
-589,167	-158,759	-0,016	-0,001
-588,152	-200,000	0,015	0,066
-587,138	-200,000	0,026	-0,105
-586,123	800,000	-0,085	-0,220
-585,109	-200,000	-0,027	0,117
-584,094	138,234	0,070	0,068
-583,079	-200,000	-0,019	-0,119
-582,065	56,749	0,041	0,030
-581,050	800,000	-0,032	-0,102
-580,036	-13,222	0,011	0,005
-579,021	800,000	0,036	0,100
-578,006	-99,905	-0,067	0,012
-576,992	-157,187	0,164	-0,007
-575,977	65,911	0,030	0,022
-574,963	-200,000	0,010	0,122
-573,948	40,938	0,055	0,036
-572,934	504,443	-0,009	-0,015
-571,919	-163,237	-0,110	0,004
-570,904	518,347	-0,068	-0,117
-569,890	-48,006	0,089	0,031
-568,875	-168,855	-0,095	0,003
-567,861	800,000	0,022	0,065
-566,846	-200,000	-0,005	0,071
-565,831	-113,829	-0,042	-0,006
-564,817	229,834	-0,111	-0,133
-563,802	12,359	-0,100	-0,056
-562,788	541,489	-0,022	-0,039
-561,773	-70,756	0,059	0,016
-560,758	-146,225	-0,015	0,001
-559,744	-200,000	0,027	-0,147
-558,729	-88,857	0,138	0,030
-557,715	-200,000	-0,017	0,082
-556,700	800,000	-0,036	-0,077
-555,685	45,319	-0,089	0,060
-554,671	-200,000	-0,014	-0,092
-553,656	347,033	-0,030	0,044
-552,642	-87,063	0,096	0,021
-551,627	-200,000	0,040	-0,169
-550,612	-87,269	-0,158	0,035
-549,598	78,291	-0,047	0,036
-548,583	107,066	-0,073	-0,064
-547,569	-138,575	0,138	-0,011
-546,554	100,204	0,102	0,086
-545,539	-200,000	0,007	-0,149
-544,525	80,490	0,122	0,096
-543,510	-157,897	0,043	-0,002
-542,496	800,000	0,039	-0,102
-541,481	-129,067	-0,096	0,010
-540,466	-61,166	-0,062	0,019
-539,452	623,037	0,127	0,235
-538,437	624,288	0,018	0,034
-537,423	-146,695	0,082	0,005
-536,408	-200,000	0,006	-0,041
-535,393	-140,443	-0,046	0,003
-534,379	800,000	0,042	-0,111
-533,364	-161,035	-0,140	-0,005
-532,350	27,055	-0,028	0,017
-531,335	-200,000	0,028	0,104
-530,321	-133,888	0,127	-0,011
-529,306	474,770	-0,080	-0,133
-528,291	-200,000	0,004	-0,043
-527,277	-200,000	-0,012	0,117
-526,262	86,997	0,066	-0,053
-525,248	-200,000	0,024	-0,148
-524,233	-200,000	0,019	-0,091
-523,218	140,166	-0,061	-0,059
-522,204	-128,997	-0,142	0,014
-521,189	80,077	0,064	-0,050
-520,175	1,928	-0,122	-0,064
-519,160	422,592	-0,074	0,116
-518,145	-200,000	-0,009	0,047
-517,131	-105,774	0,148	-0,024
-516,116	-105,303	-0,094	0,015
-515,102	-84,684	-0,138	-0,032
-514,087	-167,017	-0,127	-0,004
-513,072	-200,000	0,006	0,044
-512,058	24,905	0,029	0,018
-511,043	-69,725	-0,023	0,007
-510,029	800,000	-0,019	0,047
-509,014	-200,000	0,018	0,112
-507,999	-200,000	0,012	0,105
-506,985	800,000	0,024	0,057
-505,970	-40,255	-0,149	-0,056
-504,956	-12,532	0,067	0,032
-503,941	-63,841	0,067	0,020
-502,926	94,017	0,062	-0,051
-501,912	-200,000	0,019	-0,063
-500,897	149,324	0,043	0,043
-499,883	21,229	-0,051	0,030
-498,868	62,751	-0,060	-0,044
-497,853	-200,000	0,029	-0,118
-496,839	800,000	-0,026	0,053
-495,824	-200,000	0,015	-0,071
-494,810	-112,662	-0,043	0,006
-493,795	180,676	-0,097	0,104
-492,781	-200,000	-0,037	-0,125
-491,766	86,962	0,035	0,028
-490,751	-159,016	-0,120	0,005
-489,737	-178,369	-0,093	-0,002
-488,722	167,298	-0,064	0,066
-487,708	61,366	-0,100	0,073
-486,693	460,846	0,044	-0,073
-485,678	-200,000	0,004	-0,053
-484,664	752,093	-0,033	0,064
-483,649	-200,000	-0,002	0,044
-482,635	-200,000	0,042	-0,193
-481,620	-187,503	-0,014	-0,000
-480,605	-200,000	-0,009	0,060
-479,591	21,173	-0,093	0,055
-478,576	-107,793	0,063	0,010
-477,562	178,058	-0,058	-0,061
-476,547	-200,000	-0,015	-0,138
-475,532	117,062	0,091	0,081
-474,518	-127,447	-0,064	0,007
-473,503	432,538	0,036	0,057
-472,489	800,000	0,044	0,120
-471,474	42,084	-0,082	0,054
-470,459	800,000	-0,061	-0,128
-469,445	301,605	-0,071	-0,096
-468,430	-200,000	0,003	-0,031
-467,416	800,000	-0,043	0,109
-466,401	-92,856	0,059	-0,012
-465,386	213,684	-0,049	0,057
-464,372	15,819	-0,013	0,007
-463,357	-200,000	0,021	-0,077
-462,343	-75,183	-0,114	-0,030
-461,328	177,201	-0,059	-0,062
-460,313	9,761	-0,047	0,026
-459,299	763,457	-0,038	0,075
-458,284	134,830	0,119	-0,113
-457,270	35,858	-0,129	-0,083
-456,255	-165,682	-0,157	-0,005
-455,241	72,075	-0,023	0,017
-454,226	17,281	-0,072	-0,042
-453,211	-200,000	0,004	-0,031
-452,197	800,000	0,032	0,066
-451,182	-170,777	-0,091	0,002
-450,168	177,623	-0,040	0,042
-449,153	-200,000	0,013	-0,173
-448,138	-200,000	0,029	-0,113
-447,124	-11,137	-0,103	0,049
-446,109	-200,000	0,002	0,084
-445,095	-67,558	0,116	0,033
-444,080	-55,319	-0,060	0,019
-443,065	62,403	0,078	0,057
-442,051	-200,000	0,031	0,138
-441,036	800,000	-0,054	-0,153
-440,022	70,470	-0,085	-0,064
-439,007	-27,558	-0,114	0,048
-437,992	-200,000	0,002	-0,056
-436,978	-131,929	0,048	0,005
-435,963	409,075	0,020	-0,031
-434,949	-68,718	0,054	-0,015
-433,934	-144,441	-0,047	0,003
-432,919	514,081	0,028	-0,047
-431,905	-92,392	0,093	-0,019
-430,890	2,441	0,118	0,062
-429,876	-200,000	0,028	-0,133
-428,861	-200,000	-0,004	-0,134
-427,846	454,792	0,089	0,145
-426,832	-200,000	-0,003	-0,133
-425,817	172,853	-0,091	-0,096
-424,803	800,000	0,095	0,196
-423,788	132,985	-0,099	0,093
-422,773	-200,000	-0,017	0,096
-421,759	-89,296	-0,066	0,014
-420,744	393,869	0,068	0,103
-419,730	-106,237	-0,103	0,017
-418,715	438,005	-0,022	-0,034
-417,701	61,568	-0,061	-0,044
-416,686	-70,377	0,117	-0,032
-415,671	800,000	-0,022	0,052
-414,657	-200,000	-0,003	0,064
-413,642	-200,000	-0,008	0,075
-412,628	634,991	-0,077	0,142
-411,613	-200,000	0,010	-0,093
-410,598	-126,873	0,026	-0,003
-409,584	260,556	-0,055	-0,070
-408,569	52,539	0,059	-0,041
-407,555	450,773	0,040	-0,065
-406,540	794,719	-0,043	0,087
-405,525	-10,370	-0,106	-0,051
-404,511	-200,000	-0,004	0,063
-403,496	-54,842	-0,034	0,011
-402,482	-91,195	0,120	0,025
-401,467	-200,000	0,006	-0,031
-400,452	800,000	0,049	-0,136
-399,438	724,860	-0,015	0,029
-398,423	-122,510	0,035	-0,004
-397,409	-149,952	-0,098	-0,005
-396,394	-200,000	0,015	0,070
-395,379	-200,000	-0,006	-0,052
-394,365	800,000	-0,027	-0,056
-393,350	800,000	-0,047	0,107
-392,336	-57,962	0,037	0,012
-391,321	-143,049	-0,100	-0,007
-390,306	-125,952	-0,193	0,021
-389,292	-97,756	-0,068	-0,013
-388,277	-200,000	-0,014	0,059
-387,263	171,793	-0,045	-0,047
-386,248	-200,000	0,077	-0,000
-385,233	-200,000	-0,020	-0,123
-384,219	21,929	0,086	-0,051
-383,204	-36,443	0,112	0,044
-382,190	71,327	-0,065	-0,049
-381,175	-14,888	-0,102	0,048
-380,160	91,114	0,095	0,078
-379,146	-75,442	0,123	0,032
-378,131	133,902	0,014	0,013
-377,117	712,507	0,041	0,078
-376,102	105,590	-0,096	-0,082
-375,088	800,000	-0,006	-0,016
-374,073	-200,000	-0,017	-0,151
-373,058	-200,000	-0,030	-0,122
-372,044	-200,000	-0,002	0,056
-371,029	-94,288	0,045	-0,009
-370,015	563,068	0,046	0,082
-369,000	327,703	-0,053	-0,074
-367,985	203,307	-0,041	-0,047
-366,971	-200,000	0,016	-0,060
-365,956	257,402	0,088	-0,110
-364,942	-200,000	0,009	0,044
-363,927	-16,434	0,094	-0,043
-362,912	-74,606	0,114	-0,029
-361,898	-144,705	0,023	-0,002
-360,883	131,420	0,110	-0,102
-359,869	157,920	-0,093	-0,093
-358,854	-56,939	-0,097	-0,031
-357,839	800,000	-0,016	-0,040
-356,825	-200,000	0,003	0,049
-355,810	-200,000	-0,000	0,142
-354,796	-43,919	-0,037	-0,013
-353,781	100,551	-0,031	0,026
-352,766	-200,000	0,004	0,075
-351,752	-146,206	0,111	0,007
-350,737	101,573	-0,087	0,074
-349,723	-200,000	-0,027	-0,100
-348,708	788,883	0,087	0,174
-347,693	-124,964	-0,215	-0,024
-346,679	800,000	-0,034	-0,081
-345,664	-200,000	0,007	0,065
-344,650	800,000	0,064	0,170
-343,635	156,571	0,058	0,059
-342,620	150,604	0,082	0,081
-341,606	230,864	-0,083	0,098
-340,591	-158,947	-0,053	-0,002
-339,577	201,538	0,038	-0,042
-338,562	-200,000	0,003	0,045
-337,548	333,657	0,064	0,090
-336,533	-200,000	0,042	0,193
-335,518	297,295	0,125	0,167
-334,504	800,000	-0,028	0,087
-333,489	58,276	0,035	-0,025
-332,475	-114,780	0,021	-0,003
-331,460	560,645	-0,048	-0,084
-330,445	-15,072	-0,154	-0,071
-329,431	-200,000	-0,009	-0,051
-328,416	-200,000	0,001	0,025
-327,402	-76,389	-0,072	0,018
-326,387	800,000	-0,026	0,066
-325,372	-200,000	-0,004	0,045
-324,358	183,108	0,072	-0,078
-323,343	-138,951	0,123	-0,010
-322,329	800,000	0,012	0,039
-321,314	-200,000	-0,020	-0,071
-320,299	800,000	-0,026	-0,060
-319,285	502,104	0,013	0,021
-318,270	-175,323	-0,151	0,003
-317,256	800,000	0,017	-0,052
-316,241	98,367	0,045	0,038
-315,226	-96,590	0,035	-0,007
-314,212	-200,000	0,004	0,025
-313,197	-6,584	0,065	0,032
-312,183	174,994	0,057	0,060
-311,168	-43,140	-0,096	-0,035
-310,153	615,449	0,024	-0,043
-309,139	-100,383	0,198	0,035
-308,124	-107,522	0,089	0,014
-307,110	-200,000	0,021	0,126
-306,095	147,650	0,067	0,065
-305,080	76,424	0,059	0,045
-304,066	107,315	-0,071	-0,061
-303,051	-200,000	-0,034	-0,203
-302,037	17,192	0,106	-0,061
-301,022	18,711	0,140	0,081
-300,008	-88,071	0,119	0,026
-298,993	800,000	0,071	0,145
-297,978	352,248	0,082	0,117
-296,964	800,000	0,020	-0,046
-295,949	213,722	0,022	0,025
-294,935	-128,751	0,166	-0,017
-293,920	800,000	0,036	0,090
-292,905	-200,000	-0,003	0,038
-291,891	-22,958	0,168	0,073
-290,876	800,000	-0,065	0,143
-289,862	307,417	0,070	-0,094
-288,847	192,402	-0,066	-0,073
-287,832	185,066	0,060	-0,065
-286,818	24,849	-0,020	-0,012
-285,803	-200,000	0,008	0,027
-284,789	423,443	-0,063	-0,099
-283,774	-101,079	0,180	0,032
-282,759	751,331	0,034	-0,067
-281,745	4,925	-0,011	0,006
-280,730	56,000	-0,016	-0,011
-279,716	-49,892	-0,027	-0,009
-278,701	-175,220	0,120	0,002
-277,686	577,444	0,028	0,050
-276,672	-200,000	-0,020	-0,102
-275,657	-76,740	-0,045	0,011
-274,643	-200,000	-0,034	-0,148
-273,628	-87,453	0,111	-0,024
-272,613	-200,000	-0,014	-0,051
-271,599	800,000	-0,017	-0,047
-270,584	-33,258	0,012	-0,005
-269,570	207,240	0,036	-0,040
-268,555	-108,679	-0,100	0,015
-267,540	749,460	0,049	0,097
-266,526	-200,000	-0,015	0,125
-265,511	-200,000	0,040	0,175
-264,497	774,204	0,038	0,075
-263,482	253,201	0,073	-0,090
-262,467	-200,000	-0,004	-0,094
-261,453	-129,722	0,062	-0,006
-260,438	140,734	-0,021	0,020
-259,424	125,089	-0,040	-0,036
-258,409	-166,037	-0,146	0,004
-257,395	49,550	0,062	0,042
-256,380	490,744	0,083	0,137
-255,365	-187,270	-0,161	0,002
-254,351	-200,000	-0,024	0,080
-253,336	-200,000	-0,023	0,076
-252,322	-200,000	-0,007	-0,069
-251,307	-137,037	-0,073	0,006
-250,292	-101,425	0,017	0,003
-249,278	800,000	-0,047	-0,144
-248,263	-200,000	-0,042	0,137
-247,249	91,075	0,056	-0,046
-246,234	-200,000	0,011	-0,122
-245,219	11,326	-0,052	0,029
-244,205	23,427	-0,136	0,080
-243,190	-57,261	-0,060	-0,019
-242,176	-102,871	0,080	0,014
-241,161	-200,000	-0,002	0,078
-240,146	34,227	0,060	0,038
-239,132	-90,002	0,037	0,008
-238,117	-89,349	-0,044	0,009
-237,103	-200,000	0,037	-0,131
-236,088	321,245	-0,054	0,074
-235,073	-200,000	-0,001	0,078
-234,059	780,471	0,054	0,108
-233,044	-200,000	0,038	0,147
-232,030	-157,069	-0,105	-0,005
-231,015	-200,000	0,009	-0,126
-230,000	-200,000	0,005	0,061
-228,986	123,396	-0,150	0,136
-227,971	7,015	0,127	0,068
-226,957	-36,927	0,170	0,065
-225,942	258,119	-0,127	0,158
-224,927	-45,122	0,129	0,046
-223,913	-200,000	0,012	-0,082
-222,898	189,577	0,068	-0,074
-221,884	-101,824	-0,071	-0,012
-220,869	68,753	0,050	-0,037
-219,855	-200,000	-0,008	0,027
-218,840	718,737	-0,092	0,177
-217,825	-200,000	0,013	0,066
-216,811	-1,356	-0,044	-0,022
-215,796	198,799	-0,091	-0,101
-214,782	-80,606	-0,126	-0,030
-213,767	74,265	0,057	0,043
-212,752	-68,534	0,184	-0,051
-211,738	-69,906	-0,068	0,019
-210,723	19,551	0,055	0,032
-209,709	-16,235	0,057	-0,026
-208,694	-104,362	0,071	0,012
-207,679	800,000	-0,066	-0,173
-206,665	94,507	-0,111	-0,091
-205,650	333,023	-0,016	-0,023
-204,636	-49,169	0,085	0,029
-203,621	23,184	0,049	0,029
-202,606	169,842	-0,035	-0,037
-201,592	-200,000	-0,005	-0,017
-200,577	-132,630	0,096	0,009
-199,563	-2,312	-0,051	-0,026
-198,548	800,000	0,076	0,192
-197,533	63,298	0,145	0,105
-196,519	101,859	0,046	-0,038
-195,504	800,000	0,081	-0,203
-194,490	187,160	-0,061	-0,066
-193,475	-200,000	-0,034	0,112
-192,460	-200,000	-0,013	-0,051
-191,446	-200,000	-0,026	0,087
-190,431	-200,000	-0,005	-0,038
-189,417	-200,000	-0,005	-0,097
-188,402	0,560	0,233	0,120
-187,387	-200,000	-0,007	-0,081
-186,373	800,000	-0,045	-0,113
-185,358	800,000	-0,068	-0,146
-184,344	25,395	0,055	0,033
-183,329	156,644	0,138	0,137
-182,315	77,173	0,069	0,053
-181,300	-66,358	-0,148	0,042
-180,285	-200,000	-0,021	-0,071
-179,271	247,555	-0,087	-0,106
-178,256	114,811	0,096	0,084
-177,242	800,000	-0,010	-0,024
-176,227	-73,007	-0,082	0,022
-175,212	-200,000	-0,013	0,118
-174,198	-155,786	-0,102	-0,005
-173,183	-200,000	0,013	-0,101
-172,169	800,000	0,057	-0,140
-171,154	-200,000	0,013	-0,043
-170,139	450,813	-0,047	-0,075
-169,125	-166,286	0,188	0,006
-168,110	96,344	-0,131	-0,108
-167,096	-200,000	0,015	0,060
-166,081	60,194	0,160	0,114
-165,066	-200,000	0,000	0,067
-164,052	-46,871	-0,048	0,017
-163,037	-200,000	0,008	-0,061
-162,023	-200,000	-0,029	0,116
-161,008	-13,879	-0,008	-0,003
-159,993	-114,126	0,082	-0,011
-158,979	-200,000	0,021	0,073
-157,964	41,698	0,033	-0,022
-156,950	-120,419	0,158	0,019
-155,935	196,442	0,008	-0,009
-154,920	-200,000	-0,023	0,094
-153,906	-200,000	0,013	0,091
-152,891	-200,000	-0,011	0,061
-151,877	-200,000	0,013	-0,144
-150,862	800,000	0,011	0,024
-149,847	-58,211	0,124	0,039
-148,833	-200,000	-0,060	0,000
-147,818	-200,000	0,017	-0,175
-146,804	800,000	0,046	0,124
-145,789	800,000	0,037	0,077
-144,775	791,845	-0,012	0,024
-143,760	583,867	-0,054	0,096
-142,745	-67,248	-0,034	0,010
-141,731	-21,857	0,017	0,007
-140,716	648,567	0,024	0,044
-139,702	-200,000	0,011	0,052
-138,687	800,000	0,007	0,015
-137,672	-40,210	0,151	-0,056
-136,658	121,535	-0,077	-0,069
-135,643	-68,095	-0,083	-0,023
-134,629	-200,000	-0,013	0,070
-133,614	124,350	0,072	0,065
-132,599	91,380	0,074	-0,060
-131,585	-40,953	-0,145	-0,054
-130,570	800,000	0,031	-0,087
-129,556	45,661	-0,152	-0,101
-128,541	0,610	-0,038	-0,019
-127,526	-55,933	-0,017	-0,005
-126,512	242,367	-0,084	0,101
-125,497	-200,000	0,024	0,092
-124,483	174,759	-0,073	0,076
-123,468	43,782	0,230	-0,151
-122,453	139,057	-0,056	-0,053
-121,439	-200,000	-0,016	-0,070
-120,424	-120,676	-0,142	-0,017
