DTS Sentinel unit serial number:	SN410029Multiplexer serial number:	ORYXHardware model number:	OX2-SRSoftware version number:	ORYX F/W v4,00 Oryx Data Collector v3.7.2.0data status	okinstallation	B5 Nyhavnadifferential loss correction	single-endedforward channel	channel 2reverse channel	N/Adate	2023/12/13time	01:12:13forward acquisition time	300,00reverse acquisition time	0,00gamma	499,1914k internal	0,3159k external	0,3159temperature offset calibration	1,0000default loss term (dB/km)	0,3820temperature slope calibration	1,0000multiplexer offset coefficient	1,0000multiplexer slope coefficient	1,0000fibre end	0,00T internal ref (°C)	14,14T ext. ref 1 (°C)	-2,38T ext. ref 2 (°C)	-2,70length (m)	temperature (°C)	Stokes	anti-Stokes-744,400	-140,713	0,079	0,006
-743,385	-129,454	-0,213	0,022
-742,371	-17,564	0,120	0,055
-741,356	-0,921	-0,330	0,172
-740,342	31,826	0,119	0,076
-739,327	-175,790	-0,323	-0,006
-738,312	47,867	0,072	0,049
-737,298	-39,179	-0,380	0,147
-736,283	15,034	0,179	-0,103
-735,269	20,389	-0,296	0,176
-734,254	157,449	0,140	0,142
-733,239	-51,892	-0,483	-0,165
-732,225	-60,525	0,155	0,048
-731,210	479,422	0,103	0,173
-730,196	181,623	-0,085	-0,092
-729,181	-200,000	-0,002	-0,018
-728,167	-200,000	0,005	-0,024
-727,152	310,128	-0,060	-0,083
-726,137	-200,000	-0,010	-0,118
-725,123	180,784	-0,082	-0,088
-724,108	-200,000	-0,011	-0,096
-723,094	-200,000	-0,015	-0,089
-722,079	-200,000	0,001	-0,100
-721,064	-77,703	-0,053	0,014
-720,050	-105,951	0,019	-0,003
-719,035	127,470	0,066	-0,062
-718,021	800,000	-0,062	-0,140
-717,006	-52,615	-0,055	-0,019
-715,991	800,000	-0,039	-0,086
-714,977	-19,153	-0,046	0,021
-713,962	-28,913	-0,120	-0,050
-712,948	-200,000	0,000	0,154
-711,933	8,782	-0,071	-0,039
-710,918	183,540	-0,024	0,026
-709,904	-52,662	-0,145	-0,049
-708,889	800,000	0,036	-0,081
-707,875	266,400	-0,110	-0,142
-706,860	-200,000	-0,006	-0,084
-705,845	-200,000	0,026	-0,169
-704,831	6,916	0,113	0,062
-703,816	188,320	0,087	0,095
-702,802	223,472	-0,093	0,111
-701,787	-4,411	-0,106	-0,054
-700,772	106,947	-0,139	-0,121
-699,758	-200,000	0,054	-0,185
-698,743	67,909	-0,119	0,089
-697,729	-200,000	-0,004	0,113
-696,714	30,319	0,113	0,071
-695,699	110,044	-0,114	-0,101
-694,685	-200,000	0,025	0,118
-693,670	-200,000	-0,022	-0,121
-692,656	-50,343	0,056	0,019
-691,641	319,262	-0,041	-0,058
-690,627	-25,481	0,163	0,071
-689,612	-30,419	-0,133	-0,055
-688,597	-45,891	0,129	0,046
-687,583	155,583	0,035	-0,036
-686,568	-200,000	-0,010	-0,109
-685,554	38,471	-0,094	-0,062
-684,539	800,000	0,013	0,041
-683,524	-200,000	0,014	-0,062
-682,510	-200,000	-0,021	-0,080
-681,495	462,399	-0,034	0,056
-680,481	16,544	-0,026	-0,015
-679,466	151,859	-0,063	0,063
-678,451	-8,004	-0,149	0,074
-677,437	177,858	0,042	0,045
-676,422	18,002	-0,060	0,035
-675,408	800,000	0,046	0,095
-674,393	178,728	0,059	-0,063
-673,378	8,521	-0,194	0,107
-672,364	193,034	-0,028	-0,032
-671,349	791,286	0,021	-0,042
-670,335	165,748	-0,039	-0,040
-669,320	-200,000	-0,015	0,117
-668,305	-34,505	-0,095	0,038
-667,291	-149,284	-0,199	0,011
-666,276	180,508	-0,026	0,028
-665,262	-49,486	-0,074	-0,026
-664,247	-200,000	0,006	0,073
-663,232	-75,390	0,028	0,007
-662,218	-1,469	0,104	0,054
-661,203	-200,000	-0,003	-0,068
-660,189	800,000	0,053	0,144
-659,174	128,171	0,074	0,069
-658,159	458,944	-0,024	-0,040
-657,145	-108,102	0,064	0,010
-656,130	125,879	0,110	0,102
-655,116	-200,000	-0,010	-0,128
-654,101	800,000	0,044	-0,103
-653,086	-101,548	-0,076	-0,013
-652,072	-121,484	-0,105	-0,013
-651,057	800,000	-0,019	0,048
-650,043	800,000	0,002	0,006
-649,028	-120,683	-0,137	-0,017
-648,014	720,533	-0,057	0,112
-646,999	125,965	0,047	-0,044
-645,984	800,000	0,009	-0,025
-644,970	-171,900	0,018	0,000
-643,955	-78,157	0,022	-0,005
-642,941	504,524	0,030	0,052
-641,926	-200,000	-0,015	0,055
-640,911	-200,000	-0,001	0,167
-639,897	800,000	-0,053	0,134
-638,882	194,875	-0,044	0,049
-637,868	204,374	-0,096	-0,109
-636,853	-200,000	0,015	-0,055
-635,838	-39,715	-0,091	0,035
-634,824	128,882	-0,137	0,129
-633,809	-200,000	-0,014	-0,105
-632,795	-109,925	0,070	-0,011
-631,780	15,695	0,097	0,056
-630,765	31,453	-0,059	0,037
-629,751	-118,951	0,049	0,006
-628,736	-200,000	-0,019	0,168
-627,722	218,389	-0,068	-0,080
-626,707	575,125	0,022	0,039
-625,692	-200,000	0,016	0,055
-624,678	-21,255	-0,065	0,029
-623,663	-117,092	-0,021	0,003
-622,649	800,000	-0,053	-0,114
-621,634	162,099	-0,074	-0,076
-620,619	-72,500	-0,062	0,017
-619,605	-179,836	0,107	0,002
-618,590	-200,000	0,002	0,062
-617,576	-200,000	-0,018	0,070
-616,561	800,000	-0,021	-0,057
-615,546	800,000	0,017	-0,036
-614,532	-200,000	-0,019	-0,076
-613,517	549,342	-0,066	-0,116
-612,503	118,006	-0,036	0,033
-611,488	800,000	0,022	0,051
-610,474	-200,000	0,002	-0,008
-609,459	800,000	0,044	0,103
-608,444	83,393	-0,118	-0,094
-607,430	-138,053	-0,163	0,013
-606,415	-105,212	-0,059	0,010
-605,401	-200,000	-0,003	-0,079
-604,386	-200,000	-0,004	0,080
-603,371	-200,000	-0,002	0,017
-602,357	-30,242	-0,180	-0,074
-601,342	-200,000	0,024	0,197
-600,328	187,420	0,102	0,112
-599,313	46,645	-0,108	-0,074
-598,298	293,857	0,130	-0,175
-597,284	733,157	-0,055	0,109
-596,269	64,017	-0,029	0,021
-595,255	-71,865	0,051	-0,014
-594,240	800,000	-0,048	-0,134
-593,225	351,903	-0,020	0,029
-592,211	800,000	-0,072	-0,150
-591,196	86,382	-0,028	0,023
-590,182	-39,994	-0,089	-0,034
-589,167	206,626	0,084	-0,096
-588,152	321,126	0,025	-0,036
-587,138	339,273	0,024	-0,034
-586,123	-128,783	-0,050	0,005
-585,109	-157,609	-0,077	-0,003
-584,094	-200,000	0,010	-0,164
-583,079	-200,000	-0,012	-0,048
-582,065	69,328	0,030	0,023
-581,050	379,552	-0,051	0,077
-580,036	-49,880	-0,098	0,034
-579,021	-200,000	-0,009	-0,031
-578,006	800,000	0,034	0,078
-576,992	-109,405	-0,098	-0,015
-575,977	-172,815	0,058	-0,001
-574,963	-19,416	-0,035	0,016
-573,948	-200,000	0,015	0,049
-572,934	-47,481	-0,132	0,047
-571,919	415,796	0,012	-0,018
-570,904	-200,000	0,016	-0,144
-569,890	-41,022	-0,073	0,028
-568,875	-96,075	-0,076	0,015
-567,861	565,150	0,037	0,066
-566,846	254,297	0,036	-0,045
-565,831	-200,000	-0,002	0,052
-564,817	512,028	0,006	0,010
-563,802	-200,000	0,000	-0,049
-562,788	-5,081	-0,066	-0,033
-561,773	294,261	0,033	0,044
-560,758	-30,698	-0,022	-0,009
-559,744	-200,000	0,000	-0,013
-558,729	800,000	-0,009	0,028
-557,715	-200,000	-0,019	-0,079
-556,700	296,327	-0,069	-0,093
-555,685	55,706	-0,050	-0,035
-554,671	-135,065	-0,061	-0,005
-553,656	-162,470	-0,009	0,000
-552,642	51,945	-0,034	-0,023
-551,627	81,577	0,061	-0,048
-550,612	430,091	0,046	-0,074
-549,598	271,048	0,011	0,014
-548,583	-200,000	-0,020	-0,105
-547,569	800,000	0,029	-0,067
-546,554	308,802	0,080	0,109
-545,539	-200,000	-0,003	-0,061
-544,525	-160,091	0,128	0,005
-543,510	399,960	-0,073	0,112
-542,496	188,951	0,000	0,000
-541,481	800,000	-0,034	-0,075
-540,466	731,204	-0,023	-0,045
-539,452	232,323	-0,091	-0,109
-538,437	-20,249	0,016	-0,007
-537,423	239,549	-0,092	0,113
-536,408	32,818	0,099	0,062
-535,393	800,000	-0,036	-0,114
-534,379	-91,075	-0,082	-0,017
-533,364	-24,295	-0,096	0,042
-532,350	-56,276	0,125	0,041
-531,335	-168,450	0,075	0,002
-530,321	-22,618	-0,051	-0,022
-529,306	140,916	0,057	-0,055
-528,291	-105,899	-0,061	0,010
-527,277	379,531	-0,098	-0,147
-526,262	249,376	0,092	-0,115
-525,248	800,000	0,044	0,134
-524,233	-200,000	0,027	0,099
-523,218	-200,000	0,004	-0,100
-522,204	-84,621	0,112	-0,026
-521,189	-200,000	-0,010	0,135
-520,175	-200,000	-0,001	-0,056
-519,160	200,122	-0,034	-0,038
-518,145	-200,000	0,012	0,125
-517,131	39,781	-0,019	-0,013
-516,116	800,000	-0,039	0,111
-515,102	161,042	0,022	-0,022
-514,087	-200,000	0,024	-0,115
-513,072	59,225	-0,069	-0,049
-512,058	800,000	0,050	0,135
-511,043	522,852	0,063	0,108
-510,029	-11,781	-0,011	-0,005
-509,014	20,478	0,051	-0,030
-507,999	-79,175	-0,095	0,023
-506,985	-131,275	-0,037	-0,004
-505,970	153,371	0,045	-0,045
-504,956	-9,638	-0,062	-0,030
-503,941	800,000	-0,044	-0,108
-502,926	-200,000	0,022	0,195
-501,912	-200,000	0,052	0,202
-500,897	-115,657	0,126	-0,017
-499,883	72,353	-0,073	0,056
-498,868	-200,000	-0,020	0,093
-497,853	123,280	-0,042	-0,039
-496,839	555,995	0,021	-0,037
-495,824	-187,614	0,117	0,001
-494,810	-95,506	0,063	0,012
-493,795	800,000	0,033	-0,099
-492,781	156,405	-0,077	-0,077
-491,766	-74,630	-0,126	0,033
-490,751	800,000	-0,021	-0,068
-489,737	137,512	0,009	0,008
-488,722	102,272	-0,068	0,058
-487,708	-17,828	-0,174	-0,079
-486,693	191,587	0,026	0,029
-485,678	-82,226	0,087	0,021
-484,664	-200,000	-0,026	-0,092
-483,649	302,627	0,138	-0,187
-482,635	-166,103	-0,057	0,002
-481,620	800,000	0,017	-0,043
-480,605	800,000	0,046	0,123
-479,591	-69,926	-0,105	0,029
-478,576	-200,000	0,040	-0,152
-477,562	-57,447	-0,133	0,042
-476,547	0,911	-0,081	0,042
-475,532	-134,607	0,090	0,008
-474,518	-200,000	-0,033	0,146
-473,503	-96,342	0,101	0,019
-472,489	194,549	-0,089	-0,099
-471,474	166,894	0,009	-0,010
-470,459	98,565	0,067	0,057
-469,445	569,226	-0,063	-0,112
-468,430	800,000	0,008	-0,020
-467,416	-200,000	0,030	-0,169
-466,401	-67,310	0,212	0,060
-465,386	549,423	-0,068	0,119
-464,372	329,221	-0,043	-0,061
-463,357	-132,924	-0,110	0,010
-462,343	800,000	-0,005	0,011
-461,328	-69,149	0,092	-0,026
-460,313	209,278	0,052	0,060
-459,299	314,859	0,058	0,079
-458,284	-68,762	0,029	-0,008
-457,270	81,311	-0,073	-0,057
-456,255	10,064	-0,087	0,048
-455,241	732,781	0,011	0,022
-454,226	-200,000	0,013	0,050
-453,211	304,562	0,044	-0,060
-452,197	800,000	-0,042	-0,099
-451,182	800,000	0,023	0,051
-450,168	86,682	0,079	0,064
-449,153	231,539	0,101	-0,120
-448,138	195,473	-0,049	-0,055
-447,124	800,000	0,015	0,049
-446,109	163,580	-0,062	-0,064
-445,095	-52,715	0,142	0,048
-444,080	71,033	0,047	-0,035
-443,065	779,814	-0,041	0,083
-442,051	311,697	-0,047	0,065
-441,036	326,518	-0,050	-0,070
-440,022	800,000	0,029	-0,071
-439,007	178,895	0,035	-0,037
-437,992	49,789	0,077	-0,053
-436,978	-48,671	0,116	0,040
-435,963	-183,908	-0,108	-0,001
-434,949	479,922	0,051	0,085
-433,934	127,170	0,083	0,077
-432,919	-26,174	0,090	-0,039
-431,905	800,000	-0,021	0,067
-430,890	454,428	-0,017	-0,028
-429,876	-200,000	0,010	-0,034
-428,861	-200,000	-0,018	0,089
-427,846	27,948	-0,129	-0,079
-426,832	-125,380	0,045	-0,005
-425,817	800,000	0,051	-0,126
-424,803	-200,000	0,029	0,124
-423,788	-77,593	0,039	0,010
-422,773	-200,000	-0,008	0,116
-421,759	-99,644	0,046	0,008
-420,744	-29,504	-0,056	0,023
-419,730	176,381	0,073	0,077
-418,715	-119,697	-0,127	0,016
-417,701	-60,906	0,185	-0,057
-416,686	-46,638	0,093	-0,033
-415,671	124,536	-0,064	0,059
-414,657	116,983	0,096	0,086
-413,642	241,405	0,008	-0,009
-412,628	-200,000	-0,012	-0,197
-411,613	-93,888	-0,044	0,009
-410,598	-200,000	0,000	-0,120
-409,584	37,023	0,086	-0,055
-408,569	-200,000	0,012	0,099
-407,555	800,000	0,010	0,021
-406,540	204,538	-0,043	-0,049
-405,525	795,606	-0,019	-0,039
-404,511	544,340	0,029	-0,050
-403,496	800,000	0,048	-0,121
-402,482	-200,000	0,004	-0,033
-401,467	17,438	0,093	0,054
-400,452	-110,885	0,091	-0,013
-399,438	-200,000	0,008	-0,035
-398,423	36,281	-0,056	0,036
-397,409	61,410	-0,085	0,061
-396,394	117,122	-0,054	-0,048
-395,379	-181,848	0,231	0,003
-394,365	-18,881	0,053	-0,024
-393,350	-32,184	0,103	-0,042
-392,336	-119,418	0,138	0,017
-391,321	418,667	-0,055	-0,086
-390,306	-200,000	-0,006	-0,092
-389,292	767,109	-0,021	-0,041
-388,277	277,755	-0,041	0,053
-387,263	-75,452	-0,089	0,023
-386,248	-99,124	0,047	0,009
-385,233	-10,139	-0,049	-0,024
-384,219	-101,783	0,045	-0,008
-383,204	-95,585	0,041	-0,008
-382,190	510,867	-0,061	-0,104
-381,175	-200,000	-0,009	0,102
-380,160	-200,000	0,024	0,099
-379,146	61,377	0,185	0,134
-378,131	800,000	0,029	0,065
-377,117	-62,980	0,076	0,023
-376,102	-200,000	-0,006	-0,101
-375,088	-200,000	0,006	0,129
-374,073	800,000	-0,056	-0,133
-373,058	-93,520	-0,009	-0,002
-372,044	800,000	0,055	0,154
-371,029	224,611	0,031	-0,036
-370,015	67,670	-0,024	-0,017
-369,000	-200,000	0,019	-0,143
-367,985	-200,000	-0,020	-0,106
-366,971	-61,801	0,050	0,015
-365,956	800,000	0,088	0,199
-364,942	263,939	-0,049	0,062
-363,927	-77,967	-0,140	-0,035
-362,912	800,000	-0,013	0,040
-361,898	404,713	-0,035	0,054
-360,883	-45,086	-0,157	-0,056
-359,869	-148,051	0,052	-0,003
-358,854	-109,824	0,138	-0,021
-357,839	800,000	0,041	-0,089
-356,825	267,367	0,077	0,098
-355,810	-200,000	-0,018	-0,060
-354,796	-200,000	0,003	-0,061
-353,781	268,821	0,107	-0,136
-352,766	800,000	0,020	0,044
-351,752	-200,000	0,000	0,025
-350,737	800,000	0,040	-0,085
-349,723	-200,000	-0,018	0,073
-348,708	-80,626	0,130	0,031
-347,693	200,627	0,090	-0,101
-346,679	-200,000	-0,022	-0,149
-345,664	-200,000	-0,013	0,096
-344,650	443,752	0,040	0,063
-343,635	-32,833	0,058	-0,023
-342,620	-200,000	-0,015	0,085
-341,606	-146,020	0,070	0,004
-340,591	-7,400	0,070	-0,034
-339,577	-105,338	0,043	0,007
-338,562	42,874	-0,057	-0,038
-337,548	-200,000	0,004	0,103
-336,533	270,157	-0,064	-0,082
-335,518	-200,000	-0,005	-0,029
-334,504	800,000	0,039	0,113
-333,489	-102,680	0,125	-0,021
-332,475	-200,000	-0,001	0,021
-331,460	374,055	-0,023	0,035
-330,445	-104,948	0,023	-0,004
-329,431	712,979	0,035	-0,067
-328,416	-110,537	-0,052	0,008
-327,402	47,077	0,132	-0,089
-326,387	-61,179	0,149	-0,045
-325,372	103,145	-0,168	-0,142
-324,358	-168,686	-0,140	0,004
-323,343	172,278	-0,072	0,075
-322,329	-69,940	0,071	-0,020
-321,314	-200,000	0,036	0,119
-320,299	-200,000	0,002	0,081
-319,285	341,181	0,090	0,127
-318,270	-200,000	0,018	0,119
-317,256	494,612	-0,040	-0,067
-316,241	-141,023	0,081	0,006
-315,226	59,165	0,059	0,042
-314,212	25,846	0,151	0,091
-313,197	250,075	0,043	0,052
-312,183	800,000	-0,012	-0,025
-311,168	-200,000	-0,003	0,111
-310,153	-38,218	0,038	0,014
-309,139	163,213	0,037	0,037
-308,124	-89,793	0,164	-0,034
-307,110	314,147	-0,048	-0,066
-306,095	-125,501	-0,044	0,005
-305,080	-16,563	-0,015	0,007
-304,066	-147,265	-0,041	-0,002
-303,051	288,063	0,059	-0,077
-302,037	-200,000	-0,028	0,121
-301,022	-69,337	-0,010	0,003
-300,008	-200,000	0,028	0,159
-298,993	800,000	0,028	0,062
-297,978	428,615	0,065	0,102
-296,964	-103,678	-0,062	0,010
-295,949	359,018	-0,026	-0,037
-294,935	156,978	-0,032	-0,032
-293,920	-174,483	-0,032	0,001
-292,905	-110,653	0,155	-0,023
-291,891	161,849	-0,019	0,020
-290,876	800,000	0,054	0,132
-289,862	18,163	-0,091	0,053
-288,847	161,066	-0,069	0,069
-287,832	87,949	0,093	0,075
-286,818	-47,433	-0,091	0,032
-285,803	410,464	0,037	-0,056
-284,789	-200,000	0,041	0,174
-283,774	-39,427	-0,052	0,020
-282,759	156,279	-0,081	-0,081
-281,745	-187,778	0,035	0,000
-280,730	-200,000	-0,050	-0,177
-279,716	-200,000	0,021	0,068
-278,701	800,000	-0,079	0,172
-277,686	73,423	0,069	-0,052
-276,672	77,409	-0,095	-0,073
-275,657	144,668	0,042	-0,040
-274,643	322,677	-0,023	-0,032
-273,628	800,000	0,013	-0,037
-272,613	-200,000	-0,008	-0,113
-271,599	-200,000	0,009	-0,042
-270,584	-200,000	-0,010	0,127
-269,570	80,612	0,046	0,036
-268,555	800,000	-0,003	0,010
-267,540	210,899	-0,074	-0,085
-266,526	38,737	-0,091	-0,059
-265,511	10,564	-0,110	-0,061
-264,497	-200,000	0,003	0,114
-263,482	51,929	0,127	0,087
-262,467	772,236	0,058	0,114
-261,453	486,336	-0,112	0,185
-260,438	320,658	-0,068	0,094
-259,424	800,000	0,088	-0,184
-258,409	-200,000	0,028	-0,093
-257,395	-169,572	0,092	0,002
-256,380	79,215	0,028	0,021
-255,365	-200,000	0,021	0,084
-254,351	-200,000	-0,011	-0,058
-253,336	800,000	-0,045	0,108
-252,322	-132,506	0,023	-0,002
-251,307	800,000	0,035	-0,111
-250,292	-200,000	0,000	-0,023
-249,278	677,958	-0,021	0,040
-248,263	154,724	0,086	-0,085
-247,249	-200,000	-0,034	-0,117
-246,234	377,744	0,038	0,057
-245,219	90,845	-0,086	-0,070
-244,205	-38,095	-0,044	-0,017
-243,190	42,848	0,063	0,042
-242,176	-200,000	0,007	-0,032
-241,161	87,066	-0,114	0,091
-240,146	-46,024	0,112	0,040
-239,132	-200,000	-0,035	-0,149
-238,117	-200,000	-0,019	0,132
-237,103	-200,000	-0,000	-0,018
-236,088	-126,400	-0,080	0,009
-235,073	-111,496	0,062	-0,009
-234,059	-200,000	0,019	0,121
-233,044	363,888	-0,075	-0,109
-232,030	-200,000	-0,010	-0,048
-231,015	-200,000	-0,036	-0,238
-230,000	-5,608	-0,158	0,078
-228,986	254,050	0,127	0,157
-227,971	-70,867	0,130	0,035
-226,957	-200,000	-0,002	-0,105
-225,942	-200,000	0,009	0,055
-224,927	28,405	-0,093	-0,057
-223,913	406,305	-0,038	0,058
-222,898	-131,692	-0,092	-0,009
-221,884	128,673	0,054	0,049
-220,869	-111,699	-0,053	0,008
-219,855	-94,503	0,136	0,026
-218,840	-200,000	0,020	0,163
-217,825	194,732	0,013	0,014
-216,811	107,188	-0,098	0,084
-215,796	110,724	-0,094	-0,082
-214,782	32,686	-0,055	0,034
-213,767	-73,410	0,037	0,010
-212,752	-200,000	-0,035	0,205
-211,738	67,209	-0,058	-0,042
-210,723	-4,501	0,047	-0,024
-209,709	-200,000	0,007	-0,024
-208,694	800,000	-0,042	-0,117
-207,679	-200,000	0,014	-0,082
-206,665	800,000	0,008	-0,023
-205,650	272,712	0,098	-0,125
-204,636	588,214	-0,007	0,013
-203,621	-130,180	-0,095	0,009
-202,606	800,000	-0,058	-0,136
-201,592	254,782	-0,136	-0,169
-200,577	-66,656	-0,086	0,025
-199,563	-39,159	-0,111	-0,042
-198,548	800,000	0,037	0,106
-197,533	-200,000	0,004	-0,036
-196,519	475,892	0,043	-0,070
-195,504	-200,000	-0,010	0,089
-194,490	-78,001	-0,084	0,021
-193,475	-44,431	-0,066	0,024
-192,460	83,416	-0,050	-0,040
-191,446	-95,310	0,058	0,011
-190,431	639,095	0,028	-0,052
-189,417	42,820	0,066	0,044
-188,402	-200,000	-0,018	-0,082
-187,387	107,593	0,114	0,098
-186,373	-200,000	0,025	0,136
-185,358	-113,864	-0,127	-0,018
-184,344	94,619	-0,026	-0,022
-183,329	-179,553	0,114	0,002
-182,315	9,942	-0,022	0,012
-181,300	-200,000	-0,044	-0,144
-180,285	-200,000	-0,039	0,133
-179,271	178,831	0,093	-0,098
-178,256	-48,656	0,121	0,042
-177,242	-200,000	0,011	0,111
-176,227	-65,042	0,072	0,021
-175,212	-200,000	0,017	0,105
-174,198	265,053	0,059	0,074
-173,183	-144,533	0,013	-0,001
-172,169	800,000	-0,012	-0,025
-171,154	142,396	-0,099	-0,095
-170,139	632,037	-0,087	-0,160
-169,125	42,047	0,088	0,058
-168,110	800,000	0,028	0,071
-167,096	-87,090	-0,047	-0,010
-166,081	-200,000	0,014	-0,186
-165,066	119,207	-0,115	-0,102
-164,052	-200,000	0,022	0,000
-163,037	0,310	-0,151	0,077
-162,023	613,462	0,094	0,170
-161,008	27,166	-0,064	-0,039
-159,993	-200,000	-0,001	0,014
-158,979	-54,783	-0,082	0,026
-157,964	5,816	-0,020	-0,011
-156,950	84,947	0,027	-0,021
-155,935	-200,000	0,002	0,071
-154,920	154,249	0,067	-0,067
-153,906	-200,000	-0,038	-0,226
-152,891	424,523	0,075	-0,116
-151,877	55,264	-0,078	0,054
-150,862	126,609	0,055	-0,050
-149,847	-162,909	-0,214	0,007
-148,833	-162,300	0,126	0,004
-147,818	-43,383	-0,124	0,045
-146,804	-200,000	0,000	0,082
-145,789	-200,000	0,025	0,162
-144,775	-200,000	0,020	0,107
-143,760	-17,058	0,157	-0,071
-142,745	-54,045	0,100	-0,032
-141,731	100,330	0,094	0,079
-140,716	-112,023	-0,058	0,008
-139,702	-200,000	0,006	0,139
-138,687	800,000	0,025	0,078
-137,672	-200,000	-0,012	-0,103
-136,658	-200,000	-0,038	0,154
-135,643	80,884	-0,079	-0,061
-134,629	-113,794	0,194	0,027
-133,614	398,351	-0,065	-0,099
-132,599	115,218	0,031	-0,027
-131,585	297,071	0,032	0,043
-130,570	92,595	-0,066	-0,054
-129,556	265,302	-0,055	-0,069
-128,541	304,551	-0,069	-0,093
-127,526	-36,899	0,077	-0,030
-126,512	167,029	-0,029	0,030
-125,497	-192,581	0,167	-0,001
-124,483	126,263	0,088	0,080
-123,468	-103,495	-0,080	-0,013
-122,453	269,438	0,070	-0,089
-121,439	-126,626	0,112	-0,012
-120,424	-61,624	-0,051	0,015
