DTS Sentinel unit serial number:	SN410029Multiplexer serial number:	ORYXHardware model number:	OX2-SRSoftware version number:	ORYX F/W v4,00 Oryx Data Collector v3.7.2.0data status	okinstallation	B5 Nyhavnadifferential loss correction	single-endedforward channel	channel 2reverse channel	N/Adate	2023/12/14time	03:22:13forward acquisition time	300,00reverse acquisition time	0,00gamma	499,1914k internal	0,3155k external	0,3155temperature offset calibration	1,0000default loss term (dB/km)	0,3820temperature slope calibration	1,0000multiplexer offset coefficient	1,0000multiplexer slope coefficient	1,0000fibre end	0,00T internal ref (°C)	8,24T ext. ref 1 (°C)	-8,16T ext. ref 2 (°C)	-8,23length (m)	temperature (°C)	Stokes	anti-Stokes-744,400	-41,851	0,079	0,030
-743,385	-93,938	-0,406	-0,082
-742,371	312,328	0,078	0,108
-741,356	-164,080	-0,416	-0,014
-740,342	346,042	0,124	0,180
-739,327	-101,704	-0,446	-0,079
-738,312	87,086	0,113	0,092
-737,298	-155,067	-0,254	0,012
-736,283	-12,833	0,247	0,118
-735,269	-168,521	-0,321	-0,009
-734,254	85,183	0,158	0,128
-733,239	6,853	-0,581	-0,318
-732,225	135,485	0,199	0,191
-731,210	31,032	0,054	0,034
-730,196	191,634	-0,046	-0,051
-729,181	641,551	-0,026	-0,050
-728,167	-52,529	0,033	0,011
-727,152	147,876	0,054	0,054
-726,137	130,376	0,020	-0,018
-725,123	800,000	-0,025	-0,078
-724,108	-200,000	-0,126	-0,000
-723,094	800,000	-0,089	-0,249
-722,079	44,672	0,147	-0,099
-721,064	-88,106	-0,109	0,024
-720,050	-87,485	-0,049	-0,011
-719,035	306,602	0,008	-0,011
-718,021	-147,862	-0,059	-0,004
-717,006	-200,000	-0,015	0,057
-715,991	-200,000	0,006	-0,129
-714,977	-150,066	-0,140	0,008
-713,962	-66,935	-0,103	-0,030
-712,948	156,252	-0,072	0,073
-711,933	-200,000	-0,015	0,074
-710,918	203,190	-0,022	-0,025
-709,904	-200,000	-0,005	-0,073
-708,889	-136,081	-0,033	-0,003
-707,875	-200,000	-0,038	-0,125
-706,860	-177,773	0,130	0,002
-705,845	-8,584	-0,016	0,008
-704,831	323,914	0,081	-0,115
-703,816	800,000	0,037	0,091
-702,802	-78,755	-0,111	-0,028
-701,787	239,062	-0,068	-0,083
-700,772	132,424	-0,087	-0,082
-699,758	14,827	-0,073	0,042
-698,743	-123,210	0,141	0,016
-697,729	-200,000	-0,043	-0,164
-696,714	-154,283	0,102	-0,005
-695,699	247,489	-0,078	-0,098
-694,685	-200,000	-0,004	0,036
-693,670	-200,000	-0,008	-0,140
-692,656	-45,102	0,019	0,007
-691,641	247,627	-0,073	0,091
-690,627	-17,806	0,167	0,077
-689,612	-42,357	-0,035	0,013
-688,597	-18,083	-0,071	0,032
-687,583	-109,203	-0,157	-0,024
-686,568	-200,000	-0,003	-0,044
-685,554	9,959	-0,032	0,018
-684,539	800,000	0,003	-0,009
-683,524	800,000	-0,038	0,078
-682,510	-156,604	0,188	0,008
-681,495	-47,915	-0,129	-0,046
-680,481	-12,604	-0,133	0,064
-679,466	83,254	-0,076	-0,061
-678,451	-125,101	0,030	0,003
-677,437	181,331	0,084	0,091
-676,422	176,880	-0,115	0,124
-675,408	800,000	0,028	0,078
-674,393	23,565	-0,058	-0,035
-673,378	542,573	-0,032	-0,056
-672,364	746,385	0,026	-0,052
-671,349	-200,000	0,006	-0,030
-670,335	-130,047	0,071	0,007
-669,320	-143,220	-0,141	-0,010
-668,305	108,462	0,050	0,044
-667,291	-105,456	-0,031	-0,005
-666,276	-200,000	-0,006	-0,047
-665,262	471,806	-0,052	-0,086
-664,247	-91,615	-0,182	0,038
-663,232	-71,192	0,047	0,013
-662,218	491,167	0,040	-0,068
-661,203	-68,726	0,033	0,009
-660,189	-128,130	-0,101	0,010
-659,174	213,446	0,093	-0,108
-658,159	-63,566	-0,194	-0,058
-657,145	718,118	0,026	0,050
-656,130	-14,713	0,034	0,016
-655,116	35,126	0,021	-0,014
-654,101	-200,000	-0,015	-0,058
-653,086	336,277	-0,106	0,152
-652,072	-4,468	-0,116	-0,059
-651,057	246,848	-0,110	-0,137
-650,043	-200,000	0,018	-0,081
-649,028	434,735	0,014	0,022
-648,014	-143,531	-0,069	0,005
-646,999	244,796	0,056	-0,069
-645,984	-36,698	-0,104	-0,041
-644,970	99,314	-0,085	-0,073
-643,955	123,420	0,039	-0,036
-642,941	203,399	-0,038	-0,044
-641,926	-53,745	0,066	0,022
-640,911	545,898	0,027	-0,048
-639,897	462,435	0,040	-0,066
-638,882	-6,692	0,064	0,032
-637,868	-200,000	-0,009	-0,032
-636,853	-120,139	-0,176	-0,022
-635,838	-200,000	-0,009	-0,095
-634,824	4,652	0,026	0,014
-633,809	259,309	0,036	0,045
-632,795	108,308	0,040	-0,035
-631,780	62,545	-0,032	-0,024
-630,765	-75,333	-0,075	-0,020
-629,751	800,000	-0,048	-0,127
-628,736	720,872	0,017	-0,034
-627,722	219,984	0,055	-0,064
-626,707	382,370	-0,072	-0,108
-625,692	478,360	0,097	-0,161
-624,678	-200,000	-0,015	0,132
-623,663	-144,928	-0,085	-0,006
-622,649	223,645	0,040	0,047
-621,634	33,196	-0,066	-0,042
-620,619	435,520	-0,051	-0,082
-619,605	235,180	0,109	0,132
-618,590	102,444	-0,101	0,087
-617,576	800,000	-0,022	0,053
-616,561	209,421	0,067	-0,077
-615,546	53,095	0,072	-0,050
-614,532	800,000	-0,078	-0,189
-613,517	-129,083	-0,134	-0,014
-612,503	-26,125	0,182	0,078
-611,488	90,384	-0,086	0,070
-610,474	-200,000	0,005	0,066
-609,459	163,173	-0,086	0,089
-608,444	-38,129	-0,110	-0,043
-607,430	216,793	-0,070	0,082
-606,415	-50,559	0,071	-0,024
-605,401	-197,862	-0,051	-0,000
-604,386	-200,000	-0,003	0,013
-603,371	-200,000	0,000	0,062
-602,357	-200,000	0,008	0,080
-601,342	549,748	-0,067	-0,119
-600,328	800,000	0,037	-0,091
-599,313	692,468	-0,071	-0,137
-598,298	1,511	0,109	0,058
-597,284	-130,315	0,027	-0,003
-596,269	192,810	0,083	0,092
-595,255	-63,924	0,033	0,010
-594,240	111,664	0,079	-0,070
-593,225	207,116	0,048	0,055
-592,211	800,000	0,040	-0,087
-591,196	12,555	0,123	0,069
-590,182	11,853	0,135	-0,076
-589,167	-200,000	0,015	-0,141
-588,152	-26,425	-0,038	0,016
-587,138	3,940	0,120	-0,064
-586,123	-8,995	-0,105	0,052
-585,109	-200,000	-0,003	-0,049
-584,094	-62,920	-0,025	-0,007
-583,079	-165,938	0,172	0,005
-582,065	60,346	-0,093	0,067
-581,050	-180,680	-0,030	-0,000
-580,036	-200,000	-0,017	-0,085
-579,021	-200,000	0,001	0,088
-578,006	-55,413	0,090	-0,029
-576,992	206,117	-0,076	0,086
-575,977	800,000	0,064	0,130
-574,963	-200,000	-0,028	0,101
-573,948	206,789	-0,033	-0,038
-572,934	105,319	-0,096	-0,083
-571,919	800,000	0,041	-0,091
-570,904	-200,000	0,002	0,064
-569,890	-200,000	-0,013	-0,114
-568,875	-200,000	0,024	0,125
-567,861	218,253	0,089	0,105
-566,846	-200,000	0,030	0,174
-565,831	-89,166	0,030	-0,006
-564,817	295,767	-0,034	0,046
-563,802	72,367	-0,114	-0,087
-562,788	800,000	0,035	-0,105
-561,773	-200,000	0,005	-0,043
-560,758	135,651	0,135	0,129
-559,744	-200,000	0,017	-0,102
-558,729	-200,000	0,017	-0,059
-557,715	-129,959	0,022	0,002
-556,700	454,383	-0,041	-0,067
-555,685	45,545	-0,126	-0,085
-554,671	800,000	-0,019	0,041
-553,656	53,393	-0,028	-0,020
-552,642	-85,152	0,125	0,028
-551,627	-200,000	-0,035	0,132
-550,612	-2,742	0,048	0,025
-549,598	141,552	-0,087	0,084
-548,583	-152,217	-0,174	0,009
-547,569	800,000	0,015	-0,034
-546,554	800,000	0,024	-0,053
-545,539	536,038	-0,039	-0,068
-544,525	-200,000	-0,008	-0,090
-543,510	21,176	-0,112	-0,066
-542,496	-28,831	0,168	0,070
-541,481	-25,379	-0,056	-0,024
-540,466	174,322	-0,029	-0,030
-539,452	107,203	0,095	0,082
-538,437	157,460	0,120	0,121
-537,423	-103,366	-0,061	-0,010
-536,408	-136,222	-0,046	0,004
-535,393	-200,000	0,028	0,104
-534,379	54,366	-0,069	0,049
-533,364	639,327	-0,099	-0,184
-532,350	-94,932	-0,038	0,007
-531,335	-76,428	-0,144	-0,037
-530,321	136,400	-0,042	-0,040
-529,306	800,000	0,056	0,119
-528,291	-200,000	0,001	-0,057
-527,277	375,603	-0,047	-0,070
-526,262	-65,354	-0,066	-0,019
-525,248	775,334	0,034	0,068
-524,233	1,376	0,055	-0,029
-523,218	-200,000	0,031	0,145
-522,204	800,000	-0,051	0,125
-521,189	63,816	0,076	0,056
-520,175	145,826	-0,048	0,047
-519,160	148,610	0,067	-0,066
-518,145	-200,000	0,016	-0,055
-517,131	670,752	0,068	0,129
-516,116	124,255	-0,066	0,061
-515,102	-200,000	0,002	-0,031
-514,087	800,000	-0,030	-0,080
-513,072	679,433	0,021	0,040
-512,058	800,000	-0,030	-0,078
-511,043	-200,000	0,015	0,081
-510,029	-200,000	-0,036	-0,197
-509,014	335,882	0,087	0,123
-507,999	359,878	0,039	0,057
-506,985	800,000	-0,011	-0,023
-505,970	505,509	-0,064	0,108
-504,956	-200,000	-0,016	-0,109
-503,941	800,000	0,038	-0,085
-502,926	800,000	0,049	-0,105
-501,912	25,909	0,138	0,084
-500,897	413,705	0,069	0,108
-499,883	-61,389	0,090	0,028
-498,868	-10,210	-0,165	-0,080
-497,853	-69,842	0,069	-0,019
-496,839	71,070	0,110	-0,083
-495,824	800,000	0,032	0,080
-494,810	-185,160	0,049	0,001
-493,795	14,777	-0,050	-0,029
-492,781	309,158	0,021	0,029
-491,766	800,000	-0,037	-0,116
-490,751	133,224	0,039	0,037
-489,737	-106,435	0,141	-0,023
-488,722	-59,379	-0,070	0,022
-487,708	-200,000	0,015	0,181
-486,693	800,000	-0,032	-0,075
-485,678	115,955	0,024	-0,021
-484,664	753,405	-0,026	-0,051
-483,649	800,000	0,037	-0,094
-482,635	-200,000	-0,028	-0,103
-481,620	28,670	-0,105	-0,065
-480,605	38,488	-0,034	0,022
-479,591	-148,234	0,067	0,004
-478,576	13,003	-0,178	0,100
-477,562	800,000	-0,061	0,130
-476,547	-4,837	-0,099	-0,050
-475,532	800,000	-0,021	0,044
-474,518	-200,000	0,022	0,122
-473,503	-200,000	0,028	0,189
-472,489	-18,528	-0,041	0,019
-471,474	-177,748	-0,032	-0,001
-470,459	-200,000	0,012	-0,063
-469,445	800,000	0,062	0,136
-468,430	65,561	-0,124	-0,091
-467,416	-200,000	0,004	0,063
-466,401	-200,000	0,018	0,120
-465,386	-200,000	0,009	0,053
-464,372	-200,000	-0,025	-0,089
-463,357	-200,000	-0,002	-0,054
-462,343	-175,305	-0,094	-0,002
-461,328	188,254	0,052	0,057
-460,313	725,486	0,064	0,125
-459,299	-200,000	-0,006	0,110
-458,284	-65,769	0,069	0,020
-457,270	77,066	0,062	-0,048
-456,255	227,046	-0,150	-0,178
-455,241	-200,000	-0,017	-0,099
-454,226	-200,000	-0,013	-0,055
-453,211	800,000	-0,011	-0,026
-452,197	-24,154	0,127	0,055
-451,182	-200,000	-0,002	0,096
-450,168	-91,311	-0,135	0,028
-449,153	-200,000	0,005	-0,076
-448,138	4,600	-0,113	-0,061
-447,124	-141,844	-0,034	0,002
-446,109	-71,933	-0,083	-0,022
-445,095	-50,730	0,046	0,016
-444,080	115,069	0,078	0,069
-443,065	-200,000	0,029	-0,124
-442,051	-133,312	-0,042	-0,004
-441,036	-200,000	-0,011	0,064
-440,022	88,057	-0,075	-0,061
-439,007	-200,000	0,010	-0,043
-437,992	262,713	0,037	-0,048
-436,978	232,776	0,103	0,124
-435,963	-200,000	0,144	0,000
-434,949	-131,755	0,090	0,009
-433,934	800,000	0,037	-0,108
-432,919	184,273	-0,136	-0,147
-431,905	292,469	-0,059	-0,079
-430,890	-163,207	0,066	-0,002
-429,876	-4,852	0,165	0,083
-428,861	296,344	-0,074	0,100
-427,846	-24,134	0,101	-0,044
-426,832	-200,000	-0,001	-0,056
-425,817	-21,789	-0,080	-0,036
-424,803	-200,000	-0,007	-0,132
-423,788	800,000	-0,028	0,077
-422,773	-200,000	-0,003	-0,023
-421,759	-136,136	0,215	-0,018
-420,744	-3,326	-0,145	0,074
-419,730	-31,485	0,062	-0,025
-418,715	-200,000	-0,020	0,097
-417,701	-62,767	0,064	0,019
-416,686	-54,960	0,024	0,008
-415,671	-115,418	-0,035	0,005
-414,657	-200,000	0,010	-0,089
-413,642	331,636	0,052	0,073
-412,628	-200,000	-0,020	0,097
-411,613	248,426	0,023	-0,028
-410,598	-200,000	0,003	0,037
-409,584	18,956	-0,040	-0,023
-408,569	-11,446	0,068	0,033
-407,555	-60,115	0,091	0,028
-406,540	734,349	-0,052	0,102
-405,525	303,872	-0,041	-0,055
-404,511	31,047	-0,108	0,067
-403,496	-200,000	-0,002	-0,072
-402,482	67,127	0,040	0,030
-401,467	800,000	-0,003	0,006
-400,452	249,887	0,092	-0,113
-399,438	-24,431	-0,078	0,034
-398,423	-200,000	-0,007	0,060
-397,409	74,120	0,081	-0,062
-396,394	-9,321	0,055	0,026
-395,379	-39,714	-0,121	-0,046
-394,365	-200,000	0,034	-0,120
-393,350	-28,321	0,196	0,082
-392,336	614,017	-0,039	-0,071
-391,321	-200,000	-0,024	-0,094
-390,306	100,495	-0,100	-0,085
-389,292	626,458	0,024	0,045
-388,277	-99,280	-0,173	-0,031
-387,263	65,242	0,116	0,085
-386,248	70,532	-0,123	0,093
-385,233	11,226	0,068	0,038
-384,219	580,300	-0,083	-0,148
-383,204	-200,000	-0,001	-0,068
-382,190	800,000	0,046	-0,144
-381,175	-58,374	0,034	0,011
-380,160	-200,000	0,018	0,142
-379,146	-200,000	0,040	0,188
-378,131	656,437	-0,038	0,072
-377,117	291,435	-0,011	-0,014
-376,102	121,721	-0,012	-0,011
-375,088	-58,628	-0,178	-0,056
-374,073	-200,000	0,003	-0,047
-373,058	-20,717	-0,036	0,016
-372,044	97,851	0,083	0,070
-371,029	-24,875	-0,057	0,025
-370,015	-129,402	0,067	-0,007
-369,000	57,825	-0,085	-0,060
-367,985	800,000	-0,023	0,048
-366,971	800,000	-0,026	-0,062
-365,956	42,878	0,030	0,020
-364,942	-200,000	0,012	-0,065
-363,927	417,647	-0,022	-0,035
-362,912	550,743	0,028	0,049
-361,898	12,132	0,160	-0,089
-360,883	-45,094	-0,022	0,008
-359,869	-3,982	-0,107	0,054
-358,854	-100,150	-0,059	0,011
-357,839	42,446	0,053	-0,035
-356,825	-12,637	0,128	0,061
-355,810	800,000	0,024	0,063
-354,796	-200,000	0,000	0,171
-353,781	-200,000	0,014	-0,067
-352,766	-91,065	-0,079	-0,016
-351,752	-200,000	0,003	-0,010
-350,737	-45,989	0,105	0,037
-349,723	304,744	0,066	-0,089
-348,708	330,902	0,018	-0,025
-347,693	-151,680	-0,068	-0,004
-346,679	800,000	-0,045	-0,111
-345,664	129,937	-0,126	-0,117
-344,650	74,855	-0,080	-0,061
-343,635	800,000	-0,017	0,045
-342,620	-85,503	0,077	-0,017
-341,606	190,251	0,053	0,058
-340,591	-200,000	0,043	-0,210
-339,577	-200,000	-0,007	-0,103
-338,562	-200,000	0,004	-0,047
-337,548	214,089	-0,053	0,061
-336,533	-0,835	-0,115	0,059
-335,518	-200,000	0,023	0,106
-334,504	40,936	-0,087	-0,057
-333,489	-63,914	-0,018	0,005
-332,475	-170,635	-0,118	-0,003
-331,460	-19,985	-0,015	0,006
-330,445	-200,000	-0,005	0,047
-329,431	-200,000	-0,021	-0,072
-328,416	22,583	-0,088	0,052
-327,402	-200,000	0,006	0,157
-326,387	41,956	-0,085	-0,056
-325,372	-200,000	0,028	-0,153
-324,358	-54,851	0,060	-0,020
-323,343	-144,702	-0,118	-0,008
-322,329	-200,000	-0,012	-0,056
-321,314	48,427	0,072	0,049
-320,299	408,904	0,052	0,081
-319,285	304,540	0,014	0,018
-318,270	797,852	-0,010	-0,020
-317,256	27,083	0,083	0,050
-316,241	-200,000	0,012	-0,059
-315,226	800,000	0,062	0,147
-314,212	31,113	0,077	-0,048
-313,197	183,356	0,057	0,061
-312,183	106,598	-0,109	0,094
-311,168	-200,000	0,037	-0,147
-310,153	-89,004	-0,052	-0,011
-309,139	566,225	-0,043	-0,077
-308,124	-200,000	-0,019	-0,108
-307,110	172,391	-0,067	-0,070
-306,095	-93,448	-0,048	0,010
-305,080	-200,000	-0,010	0,085
-304,066	800,000	0,014	-0,038
-303,051	25,956	0,091	-0,055
-302,037	25,047	-0,062	0,037
-301,022	-200,000	0,013	-0,118
-300,008	293,023	0,047	0,062
-298,993	-200,000	0,005	0,223
-297,978	800,000	-0,021	0,052
-296,964	548,628	-0,048	0,083
-295,949	-200,000	0,007	0,086
-294,935	579,592	-0,065	-0,116
-293,920	433,658	-0,047	-0,074
-292,905	-89,062	0,172	0,036
-291,891	-200,000	-0,021	0,152
-290,876	3,844	-0,100	-0,053
-289,862	109,877	-0,031	0,027
-288,847	-22,699	-0,058	-0,025
-287,832	800,000	0,028	-0,086
-286,818	-200,000	0,033	-0,121
-285,803	158,437	0,067	0,067
-284,789	524,367	0,011	-0,018
-283,774	143,406	0,068	0,066
-282,759	14,109	0,080	0,045
-281,745	800,000	0,037	0,078
-280,730	-33,968	0,069	-0,028
-279,716	-177,336	0,105	0,002
-278,701	59,338	0,128	0,092
-277,686	-108,239	0,164	-0,025
-276,672	-200,000	-0,003	-0,024
-275,657	-142,733	0,123	-0,009
-274,643	715,221	0,028	0,055
-273,628	-200,000	-0,031	0,135
-272,613	-200,000	-0,015	-0,062
-271,599	-200,000	0,002	0,014
-270,584	216,688	0,026	-0,030
-269,570	-200,000	-0,017	0,146
-268,555	-200,000	0,022	-0,085
-267,540	107,599	-0,042	0,036
-266,526	-39,419	0,103	-0,039
-265,511	164,863	-0,028	-0,029
-264,497	460,810	-0,013	0,021
-263,482	-100,180	0,063	-0,011
-262,467	-200,000	0,020	0,154
-261,453	-82,468	0,092	0,021
-260,438	232,464	-0,061	0,073
-259,424	-100,019	-0,126	-0,022
-258,409	-142,899	0,056	0,004
-257,395	657,621	0,014	0,026
-256,380	538,783	-0,067	-0,115
-255,365	295,779	-0,111	0,148
-254,351	344,775	-0,035	-0,050
-253,336	-69,996	-0,063	-0,017
-252,322	108,343	-0,079	-0,069
-251,307	194,506	0,048	0,053
-250,292	-200,000	-0,041	-0,000
-249,278	338,107	0,061	0,087
-248,263	-8,564	-0,042	-0,021
-247,249	145,254	0,059	0,057
-246,234	800,000	-0,070	-0,149
-245,219	-5,586	-0,079	-0,039
-244,205	-188,749	-0,162	0,001
-243,190	98,979	0,029	0,024
-242,176	-91,286	0,068	-0,014
-241,161	-166,882	0,145	-0,004
-240,146	-200,000	0,010	-0,204
-239,132	-200,000	-0,006	0,023
-238,117	-27,056	-0,064	-0,027
-237,103	-200,000	-0,034	-0,138
-236,088	139,192	0,021	-0,020
-235,073	800,000	0,026	-0,064
-234,059	-77,280	0,044	-0,011
-233,044	-123,607	-0,048	0,005
-232,030	-200,000	-0,037	0,263
-231,015	-168,551	-0,004	0,000
-230,000	541,644	0,029	0,051
-228,986	240,432	0,038	0,046
-227,971	-31,830	-0,053	-0,021
-226,957	74,542	0,079	-0,060
-225,942	-182,721	-0,110	-0,001
-224,927	-200,000	-0,009	0,094
-223,913	371,992	-0,079	-0,116
-222,898	-200,000	0,010	-0,068
-221,884	-190,391	0,127	-0,001
-220,869	-96,853	0,013	0,002
-219,855	-136,521	0,080	0,007
-218,840	-102,932	-0,169	0,029
-217,825	179,746	-0,059	0,062
-216,811	-200,000	0,001	0,007
-215,796	186,125	-0,057	0,062
-214,782	517,558	-0,021	0,036
-213,767	67,682	0,137	0,101
-212,752	382,833	0,087	0,130
-211,738	169,612	0,014	0,015
-210,723	192,384	-0,049	-0,054
-209,709	-200,000	0,030	-0,110
-208,694	137,431	-0,056	-0,053
-207,679	297,282	0,132	-0,176
-206,665	800,000	-0,029	-0,062
-205,650	29,308	0,091	0,056
-204,636	445,731	-0,073	0,117
-203,621	178,154	-0,097	-0,102
-202,606	573,870	-0,063	-0,112
-201,592	-121,166	-0,065	0,008
-200,577	-200,000	0,015	-0,053
-199,563	253,795	0,026	-0,032
-198,548	-200,000	0,019	0,187
-197,533	6,724	-0,013	0,007
-196,519	571,014	0,020	0,035
-195,504	120,405	-0,103	0,092
-194,490	-69,017	-0,101	-0,028
-193,475	-200,000	-0,022	-0,115
-192,460	800,000	0,076	-0,154
-191,446	-138,578	-0,029	-0,002
-190,431	389,865	0,074	0,111
-189,417	154,303	-0,044	0,043
-188,402	-200,000	0,005	-0,047
-187,387	800,000	-0,066	-0,169
-186,373	-200,000	-0,013	-0,080
-185,358	37,491	-0,046	-0,030
-184,344	-200,000	-0,016	0,089
-183,329	-200,000	0,015	0,153
-182,315	-110,120	0,106	-0,016
-181,300	-200,000	-0,021	0,096
-180,285	-200,000	0,003	-0,144
-179,271	-130,705	0,032	-0,003
-178,256	127,302	-0,033	0,031
-177,242	-32,873	0,076	0,030
-176,227	497,330	0,021	-0,035
-175,212	-108,011	-0,117	0,018
-174,198	96,594	0,050	-0,041
-173,183	149,406	0,075	0,074
-172,169	-39,271	0,141	0,053
-171,154	800,000	0,045	-0,101
-170,139	-88,703	-0,049	-0,010
-169,125	262,750	-0,044	0,055
-168,110	-200,000	-0,031	0,135
-167,096	234,045	0,030	-0,036
-166,081	553,108	-0,055	-0,096
-165,066	-112,393	-0,182	0,026
-164,052	-134,692	0,173	0,015
-163,037	-20,361	-0,073	0,032
-162,023	26,513	0,155	0,093
-161,008	-200,000	0,027	-0,102
-159,993	-73,334	-0,176	0,046
-158,979	-44,127	0,134	0,048
-157,964	577,084	0,037	-0,065
-156,950	-166,407	-0,062	0,002
-155,935	-200,000	-0,013	0,088
-154,920	107,570	0,113	0,097
-153,906	-200,000	0,027	0,147
-152,891	348,061	0,030	0,042
-151,877	-200,000	0,009	0,123
-150,862	-21,435	-0,089	-0,039
-149,847	212,519	0,109	0,124
-148,833	-200,000	-0,000	0,048
-147,818	60,952	0,039	0,028
-146,804	-200,000	0,013	-0,051
-145,789	74,043	-0,095	-0,072
-144,775	658,209	-0,075	-0,139
-143,760	128,615	-0,056	-0,051
-142,745	212,507	-0,062	-0,071
-141,731	-55,603	0,054	0,017
-140,716	94,079	0,028	0,023
-139,702	109,697	0,073	0,063
-138,687	-200,000	-0,002	0,076
-137,672	-200,000	-0,029	-0,118
-136,658	-126,287	-0,093	0,010
-135,643	-128,840	-0,162	-0,016
-134,629	-200,000	-0,005	0,082
-133,614	83,918	0,075	-0,059
-132,599	340,699	0,020	-0,029
-131,585	-200,000	0,003	0,021
-130,570	-200,000	-0,023	0,096
-129,556	-200,000	0,041	-0,155
-128,541	454,474	0,063	-0,102
-127,526	377,819	0,009	0,014
-126,512	800,000	0,019	0,038
-125,497	800,000	0,086	0,206
-124,483	-26,421	0,099	0,042
-123,468	-61,422	0,024	0,007
-122,453	800,000	-0,015	-0,044
-121,439	313,029	-0,083	-0,113
-120,424	452,620	-0,072	0,115
