DTS Sentinel unit serial number:	SN410029Multiplexer serial number:	ORYXHardware model number:	OX2-SRSoftware version number:	ORYX F/W v4,00 Oryx Data Collector v3.7.2.0data status	okinstallation	B5 Nyhavnadifferential loss correction	single-endedforward channel	channel 2reverse channel	N/Adate	2023/12/12time	07:12:13forward acquisition time	300,00reverse acquisition time	0,00gamma	499,1914k internal	0,3158k external	0,3158temperature offset calibration	1,0000default loss term (dB/km)	0,3820temperature slope calibration	1,0000multiplexer offset coefficient	1,0000multiplexer slope coefficient	1,0000fibre end	0,00T internal ref (°C)	15,17T ext. ref 1 (°C)	-1,11T ext. ref 2 (°C)	-1,39length (m)	temperature (°C)	Stokes	anti-Stokes-744,400	-40,202	0,096	0,037
-743,385	101,911	-0,227	0,195
-742,371	238,402	0,121	0,148
-741,356	-47,067	-0,289	0,103
-740,342	-26,816	0,175	-0,075
-739,327	-0,966	-0,152	0,079
-738,312	-200,000	0,053	0,261
-737,298	-57,865	-0,267	-0,086
-736,283	218,778	0,081	0,096
-735,269	59,713	-0,284	0,206
-734,254	-72,082	0,136	-0,037
-733,239	-7,991	-0,465	-0,230
-732,225	133,267	0,073	0,069
-731,210	-37,936	-0,114	0,044
-730,196	-200,000	-0,019	-0,072
-729,181	800,000	-0,061	-0,126
-728,167	-161,529	0,156	-0,006
-727,152	138,551	-0,024	-0,023
-726,137	131,955	0,065	-0,061
-725,123	-159,440	-0,155	-0,006
-724,108	-200,000	0,015	-0,102
-723,094	-16,695	-0,056	0,026
-722,079	-200,000	0,007	0,027
-721,064	-200,000	-0,039	-0,153
-720,050	-68,391	-0,102	0,029
-719,035	128,034	0,060	-0,056
-718,021	800,000	0,020	-0,059
-717,006	8,591	-0,111	-0,061
-715,991	374,081	-0,102	-0,153
-714,977	-200,000	0,020	-0,116
-713,962	150,912	0,011	-0,012
-712,948	-200,000	-0,013	-0,133
-711,933	29,813	-0,028	-0,018
-710,918	800,000	-0,026	0,061
-709,904	-31,534	-0,097	0,040
-708,889	-2,024	-0,196	-0,101
-707,875	-15,954	-0,132	-0,062
-706,860	109,715	-0,046	-0,041
-705,845	800,000	0,013	-0,040
-704,831	-39,562	0,133	-0,051
-703,816	-99,915	-0,083	0,015
-702,802	-154,149	-0,062	-0,003
-701,787	-148,422	-0,150	0,009
-700,772	390,008	-0,030	0,046
-699,758	117,301	0,076	-0,069
-698,743	-200,000	0,004	0,057
-697,729	-126,599	0,128	-0,014
-696,714	-145,516	0,050	-0,003
-695,699	571,214	-0,053	-0,095
-694,685	-52,655	0,047	-0,016
-693,670	800,000	0,007	-0,018
-692,656	-62,793	0,036	-0,011
-691,641	-126,595	0,079	0,008
-690,627	-200,000	0,018	0,064
-689,612	800,000	0,049	-0,121
-688,597	462,769	0,042	-0,069
-687,583	577,527	-0,067	-0,121
-686,568	393,282	-0,074	-0,114
-685,554	-122,976	-0,121	-0,014
-684,539	-50,339	0,055	-0,019
-683,524	-94,233	0,037	0,007
-682,510	662,557	-0,050	0,095
-681,495	168,531	-0,017	0,018
-680,481	-36,362	-0,048	0,019
-679,466	109,708	0,028	0,025
-678,451	-83,090	-0,120	-0,028
-677,437	31,745	-0,040	0,025
-676,422	17,500	0,075	-0,044
-675,408	13,313	-0,093	0,053
-674,393	-200,000	-0,003	0,151
-673,378	126,852	-0,116	-0,108
-672,364	-92,456	-0,196	-0,040
-671,349	304,062	-0,092	-0,125
-670,335	-101,341	-0,081	-0,014
-669,320	-50,430	0,175	-0,061
-668,305	-167,272	-0,133	-0,004
-667,291	-19,355	-0,069	-0,031
-666,276	236,141	-0,072	-0,088
-665,262	-166,291	0,119	0,004
-664,247	-24,697	-0,055	-0,024
-663,232	-200,000	-0,038	-0,219
-662,218	-96,391	-0,069	0,013
-661,203	184,606	0,038	-0,042
-660,189	48,822	-0,027	0,019
-659,174	800,000	0,047	-0,118
-658,159	-23,225	-0,096	-0,042
-657,145	-200,000	-0,030	-0,115
-656,130	586,610	0,039	-0,070
-655,116	525,504	-0,053	-0,092
-654,101	-25,384	0,129	0,056
-653,086	62,393	-0,092	-0,068
-652,072	72,974	0,056	-0,043
-651,057	162,769	-0,053	-0,055
-650,043	-200,000	0,017	-0,165
-649,028	436,200	-0,076	-0,123
-648,014	-200,000	-0,006	-0,170
-646,999	-200,000	0,007	-0,067
-645,984	-47,213	-0,121	0,043
-644,970	800,000	0,009	0,029
-643,955	800,000	0,039	-0,123
-642,941	75,810	0,116	-0,090
-641,926	11,983	-0,109	0,061
-640,911	-200,000	-0,003	-0,072
-639,897	443,839	-0,032	-0,052
-638,882	-129,071	0,103	0,010
-637,868	-25,223	-0,142	0,062
-636,853	221,949	-0,062	-0,073
-635,838	-200,000	-0,012	-0,060
-634,824	-123,139	-0,029	0,003
-633,809	-83,869	0,064	0,015
-632,795	104,287	0,075	0,065
-631,780	800,000	-0,015	0,033
-630,765	46,945	-0,064	0,043
-629,751	-123,122	-0,148	-0,017
-628,736	370,498	-0,090	0,134
-627,722	-200,000	0,011	-0,140
-626,707	-61,866	-0,124	-0,038
-625,692	-27,260	0,088	0,038
-624,678	-15,755	-0,025	0,012
-623,663	108,006	-0,033	0,029
-622,649	274,569	0,043	-0,055
-621,634	-56,411	0,142	0,046
-620,619	-63,268	-0,077	-0,023
-619,605	-95,228	-0,019	0,004
-618,590	5,855	0,055	-0,030
-617,576	-200,000	-0,026	0,098
-616,561	366,153	-0,056	-0,083
-615,546	367,795	-0,084	-0,125
-614,532	-200,000	-0,012	-0,050
-613,517	746,851	-0,066	-0,132
-612,503	800,000	0,084	-0,185
-611,488	372,778	0,056	0,083
-610,474	-200,000	0,010	0,204
-609,459	730,396	-0,070	0,137
-608,444	-101,000	-0,077	0,014
-607,430	439,670	0,071	-0,114
-606,415	333,723	-0,048	-0,068
-605,401	-200,000	0,021	-0,084
-604,386	-22,641	0,125	0,055
-603,371	-84,632	0,074	-0,017
-602,357	-72,147	0,123	-0,033
-601,342	-200,000	-0,002	-0,035
-600,328	800,000	-0,080	-0,170
-599,313	403,798	0,015	0,023
-598,298	16,148	-0,089	0,051
-597,284	800,000	0,013	0,031
-596,269	-200,000	-0,005	0,117
-595,255	-38,746	0,051	0,019
-594,240	191,881	-0,141	-0,156
-593,225	7,462	-0,083	-0,045
-592,211	-138,545	-0,021	-0,002
-591,196	194,867	0,029	0,033
-590,182	13,977	-0,139	-0,079
-589,167	485,537	-0,021	0,036
-588,152	-200,000	0,001	0,100
-587,138	370,606	-0,052	0,078
-586,123	34,053	-0,067	-0,042
-585,109	-200,000	0,003	-0,044
-584,094	800,000	-0,003	0,008
-583,079	37,565	0,036	0,023
-582,065	-200,000	0,008	-0,079
-581,050	-124,601	-0,128	0,014
-580,036	-200,000	0,028	0,148
-579,021	800,000	-0,044	-0,120
-578,006	124,552	-0,043	-0,040
-576,992	-200,000	0,011	-0,064
-575,977	-200,000	0,024	0,090
-574,963	800,000	0,019	0,057
-573,948	11,467	-0,061	-0,034
-572,934	204,980	0,128	0,146
-571,919	-127,153	0,014	0,001
-570,904	-89,068	0,030	-0,006
-569,890	-200,000	0,005	-0,029
-568,875	-62,953	-0,111	0,033
-567,861	-200,000	0,002	0,023
-566,846	-103,401	-0,173	-0,030
-565,831	-79,508	-0,063	-0,015
-564,817	-14,584	0,041	0,019
-563,802	-200,000	0,016	-0,130
-562,788	378,627	0,015	-0,022
-561,773	800,000	0,016	0,042
-560,758	-200,000	0,002	0,075
-559,744	800,000	0,023	0,052
-558,729	157,631	0,068	0,069
-557,715	355,446	0,093	-0,136
-556,700	28,471	0,097	-0,060
-555,685	-200,000	-0,005	-0,061
-554,671	32,520	-0,093	-0,059
-553,656	-8,179	-0,052	-0,026
-552,642	-132,436	-0,087	0,008
-551,627	676,617	-0,055	0,105
-550,612	800,000	-0,004	-0,009
-549,598	-50,515	0,034	-0,012
-548,583	-200,000	0,004	0,036
-547,569	159,279	-0,023	-0,023
-546,554	-173,518	0,101	0,002
-545,539	625,648	0,103	0,192
-544,525	-112,396	-0,095	0,014
-543,510	190,638	-0,069	-0,076
-542,496	480,378	-0,064	0,106
-541,481	418,607	-0,054	-0,085
-540,466	623,344	0,014	0,025
-539,452	357,262	0,061	0,089
-538,437	-87,141	-0,056	-0,012
-537,423	124,895	0,046	0,043
-536,408	26,143	-0,040	-0,024
-535,393	-200,000	0,065	-0,000
-534,379	333,967	0,063	0,090
-533,364	113,811	-0,083	0,073
-532,350	-200,000	0,011	0,037
-531,335	128,683	-0,016	-0,015
-530,321	-200,000	-0,002	-0,086
-529,306	-200,000	0,017	0,140
-528,291	59,687	-0,135	0,098
-527,277	800,000	0,007	-0,017
-526,262	800,000	0,054	0,112
-525,248	800,000	-0,051	-0,131
-524,233	114,296	-0,088	0,078
-523,218	375,739	0,069	0,104
-522,204	173,827	-0,055	-0,059
-521,189	-67,087	0,110	0,031
-520,175	68,767	0,131	0,098
-519,160	-125,393	-0,038	0,004
-518,145	96,614	-0,049	0,041
-517,131	317,208	0,116	-0,161
-516,116	-80,551	-0,111	0,027
-515,102	-50,254	-0,021	-0,007
-514,087	-200,000	0,023	0,127
-513,072	-85,080	-0,090	-0,020
-512,058	-200,000	0,016	-0,060
-511,043	-200,000	0,008	-0,062
-510,029	180,291	-0,095	0,102
-509,014	187,275	-0,039	-0,043
-507,999	-170,219	0,094	-0,002
-506,985	-181,048	-0,057	0,001
-505,970	292,964	-0,042	0,056
-504,956	261,034	0,086	-0,109
-503,941	49,411	0,059	0,041
-502,926	-157,180	0,041	-0,002
-501,912	186,032	0,049	-0,054
-500,897	-200,000	-0,007	-0,026
-499,883	34,007	0,119	-0,075
-498,868	-166,110	-0,076	-0,002
-497,853	36,392	-0,054	-0,035
-496,839	422,104	-0,017	-0,027
-495,824	100,184	0,070	-0,059
-494,810	359,864	-0,034	-0,050
-493,795	-200,000	0,002	-0,056
-492,781	-200,000	-0,010	0,046
-491,766	-200,000	0,000	-0,115
-490,751	551,549	0,008	-0,014
-489,737	-40,960	-0,129	-0,048
-488,722	93,259	-0,083	-0,068
-487,708	-200,000	0,036	-0,129
-486,693	800,000	-0,037	0,102
-485,678	800,000	-0,053	0,128
-484,664	-94,623	0,111	0,022
-483,649	-123,223	-0,114	0,013
-482,635	127,595	0,019	0,018
-481,620	800,000	0,039	0,116
-480,605	48,397	0,011	0,008
-479,591	49,886	0,067	-0,046
-478,576	88,202	-0,125	-0,101
-477,562	-72,001	0,122	0,033
-476,547	-166,924	0,053	-0,002
-475,532	-22,823	-0,127	-0,055
-474,518	-152,228	0,126	0,007
-473,503	-78,872	-0,021	0,005
-472,489	-76,634	0,058	0,015
-471,474	-55,704	0,067	0,022
-470,459	-127,666	-0,123	-0,013
-469,445	-200,000	-0,019	0,069
-468,430	116,862	-0,003	0,003
-467,416	76,747	-0,074	0,057
-466,401	-200,000	0,021	0,119
-465,386	-200,000	0,002	0,044
-464,372	800,000	0,056	0,140
-463,357	800,000	0,018	-0,041
-462,343	-200,000	0,011	0,056
-461,328	54,484	-0,077	-0,054
-460,313	-200,000	-0,006	0,059
-459,299	-200,000	0,011	0,093
-458,284	223,313	0,023	-0,027
-457,270	-200,000	-0,038	0,128
-456,255	41,363	0,039	-0,026
-455,241	-115,871	-0,125	0,017
-454,226	-70,261	0,153	0,042
-453,211	-200,000	-0,004	0,080
-452,197	36,791	-0,016	-0,011
-451,182	36,280	-0,128	0,082
-450,168	-74,291	-0,095	-0,025
-449,153	-71,290	0,082	0,022
-448,138	364,738	-0,027	0,039
-447,124	113,857	-0,026	-0,023
-446,109	509,300	-0,032	0,055
-445,095	153,738	0,132	0,132
-444,080	-105,730	-0,111	0,018
-443,065	-22,186	0,140	-0,062
-442,051	-109,775	0,066	0,010
-441,036	606,061	-0,026	0,047
-440,022	-200,000	0,016	-0,094
-439,007	-200,000	-0,012	0,169
-437,992	82,201	0,059	0,046
-436,978	-18,589	0,132	-0,060
-435,963	1,250	-0,076	0,040
-434,949	69,076	-0,034	0,025
-433,934	18,431	-0,038	0,022
-432,919	-200,000	0,008	-0,084
-431,905	-200,000	0,004	0,050
-430,890	-200,000	0,013	-0,055
-429,876	-200,000	0,004	-0,017
-428,861	-156,450	0,102	0,005
-427,846	5,847	0,007	0,004
-426,832	-138,524	0,064	-0,005
-425,817	83,247	-0,124	0,099
-424,803	800,000	0,018	-0,043
-423,788	760,367	-0,045	0,088
-422,773	800,000	0,009	0,028
-421,759	-121,748	0,205	0,024
-420,744	-31,470	0,187	-0,076
-419,730	-200,000	0,003	-0,010
-418,715	142,390	0,091	-0,088
-417,701	1,902	-0,125	-0,066
-416,686	-21,065	0,065	0,029
-415,671	67,297	0,123	-0,091
-414,657	240,685	-0,081	-0,099
-413,642	0,631	0,119	-0,062
-412,628	-40,149	-0,061	0,023
-411,613	-200,000	0,037	0,123
-410,598	21,100	-0,078	-0,046
-409,584	106,291	0,043	-0,037
-408,569	101,533	-0,114	0,097
-407,555	7,658	0,145	0,079
-406,540	-113,401	-0,050	0,007
-405,525	800,000	0,021	-0,067
-404,511	125,839	-0,059	0,054
-403,496	203,674	-0,090	-0,101
-402,482	-200,000	0,006	-0,052
-401,467	68,585	0,028	-0,021
-400,452	-200,000	0,010	-0,097
-399,438	-110,893	-0,088	-0,013
-398,423	598,771	-0,044	-0,080
-397,409	-200,000	0,001	0,036
-396,394	-15,856	-0,118	-0,054
-395,379	-200,000	-0,026	0,099
-394,365	81,599	0,045	0,035
-393,350	16,650	-0,034	0,019
-392,336	-21,231	-0,010	-0,005
-391,321	-200,000	-0,016	-0,075
-390,306	-200,000	0,002	0,127
-389,292	800,000	-0,058	-0,128
-388,277	-200,000	0,004	-0,045
-387,263	308,738	-0,038	0,052
-386,248	-93,485	-0,063	0,013
-385,233	0,940	0,116	0,060
-384,219	35,195	0,049	0,031
-383,204	-33,385	-0,119	0,048
-382,190	800,000	-0,014	0,041
-381,175	-65,223	-0,152	-0,044
-380,160	247,657	-0,046	-0,057
-379,146	-176,607	0,038	0,001
-378,131	-200,000	-0,014	0,141
-377,117	-200,000	-0,003	0,082
-376,102	-200,000	-0,010	0,100
-375,088	39,958	-0,016	-0,011
-374,073	-59,212	-0,201	0,062
-373,058	-31,573	-0,017	0,007
-372,044	-85,598	-0,090	0,020
-371,029	-56,001	0,018	-0,006
-370,015	-32,798	0,014	0,006
-369,000	95,556	-0,067	0,056
-367,985	-83,737	0,031	-0,007
-366,971	594,569	-0,085	-0,153
-365,956	-152,544	0,156	0,008
-364,942	-62,205	0,040	-0,012
-363,927	300,291	-0,014	-0,019
-362,912	-200,000	0,017	-0,107
-361,898	800,000	0,051	-0,128
-360,883	41,619	0,047	0,031
-359,869	23,418	0,068	-0,041
-358,854	-200,000	-0,007	0,034
-357,839	-200,000	0,005	-0,070
-356,825	760,269	0,015	0,031
-355,810	688,952	0,033	-0,063
-354,796	103,761	-0,082	0,070
-353,781	800,000	-0,050	-0,128
-352,766	153,325	0,114	-0,113
-351,752	-200,000	0,004	-0,051
-350,737	184,519	0,044	-0,047
-349,723	800,000	0,074	0,171
-348,708	315,894	-0,030	-0,042
-347,693	-63,545	-0,023	0,007
-346,679	47,866	-0,082	-0,055
-345,664	-30,116	0,058	-0,024
-344,650	-171,577	0,154	-0,004
-343,635	800,000	-0,049	0,100
-342,620	382,104	0,052	-0,078
-341,606	800,000	0,055	0,175
-340,591	800,000	-0,031	0,093
-339,577	185,041	-0,091	-0,099
-338,562	105,754	-0,057	-0,049
-337,548	800,000	-0,021	0,056
-336,533	54,899	-0,046	0,032
-335,518	5,538	0,071	0,038
-334,504	-200,000	-0,021	0,155
-333,489	-134,965	0,058	0,005
-332,475	800,000	-0,062	0,137
-331,460	36,878	-0,057	0,036
-330,445	31,356	0,011	0,007
-329,431	-200,000	-0,025	0,114
-328,416	155,444	0,131	0,131
-327,402	-200,000	0,003	-0,020
-326,387	240,968	-0,103	0,125
-325,372	2,322	0,049	-0,026
-324,358	800,000	-0,008	-0,018
-323,343	-200,000	0,012	-0,078
-322,329	192,924	-0,110	0,120
-321,314	-72,644	0,067	-0,018
-320,299	30,985	-0,094	-0,059
-319,285	-200,000	0,000	0,022
-318,270	-200,000	-0,026	0,095
-317,256	-101,236	0,070	0,012
-316,241	-65,359	0,027	-0,008
-315,226	-13,101	0,104	0,049
-314,212	-15,292	0,056	0,026
-313,197	758,559	-0,068	0,133
-312,183	31,258	0,128	-0,080
-311,168	100,310	-0,037	0,031
-310,153	800,000	-0,024	0,055
-309,139	143,530	-0,057	0,055
-308,124	-42,502	0,043	0,016
-307,110	435,124	0,043	0,068
-306,095	-200,000	0,017	0,116
-305,080	82,722	0,049	0,039
-304,066	-81,126	-0,153	-0,036
-303,051	-125,107	-0,133	0,015
-302,037	800,000	0,030	-0,062
-301,022	-97,194	-0,058	-0,011
-300,008	107,712	0,100	0,086
-298,993	264,346	0,024	0,030
-297,978	218,172	0,094	0,108
-296,964	-112,056	0,048	-0,007
-295,949	36,990	-0,050	-0,032
-294,935	-200,000	-0,012	-0,089
-293,920	-19,891	-0,031	-0,014
-292,905	800,000	-0,023	0,052
-291,891	-190,107	0,145	-0,001
-290,876	-200,000	-0,012	0,183
-289,862	800,000	0,028	-0,073
-288,847	-81,220	-0,150	0,036
-287,832	210,157	-0,038	0,043
-286,818	-85,326	0,137	-0,031
-285,803	99,119	0,082	0,069
-284,789	64,182	0,023	0,017
-283,774	-200,000	0,012	0,111
-282,759	-200,000	0,001	-0,060
-281,745	-200,000	0,007	0,039
-280,730	-200,000	-0,017	0,098
-279,716	327,966	-0,059	-0,082
-278,701	-51,563	0,180	0,060
-277,686	800,000	0,041	0,084
-276,672	-140,551	0,111	0,008
-275,657	800,000	0,038	0,116
-274,643	800,000	0,039	-0,079
-273,628	629,455	0,086	-0,158
-272,613	650,275	-0,040	-0,075
-271,599	-115,501	0,060	0,008
-270,584	-200,000	0,006	-0,075
-269,570	800,000	0,060	0,143
-268,555	519,523	-0,072	-0,122
-267,540	-200,000	0,015	-0,156
-266,526	-36,180	0,114	-0,044
-265,511	-79,228	-0,102	-0,025
-264,497	800,000	-0,036	-0,098
-263,482	-125,726	0,090	-0,010
-262,467	185,879	0,069	0,074
-261,453	691,386	-0,057	-0,109
-260,438	136,297	-0,088	0,083
-259,424	-200,000	-0,015	-0,066
-258,409	29,801	-0,066	0,041
-257,395	-200,000	-0,001	-0,068
-256,380	-100,987	0,082	-0,014
-255,365	243,744	-0,045	0,055
-254,351	593,354	0,047	0,085
-253,336	800,000	0,038	0,104
-252,322	-92,151	-0,038	0,008
-251,307	-2,017	-0,011	-0,006
-250,292	-86,037	0,111	-0,025
-249,278	269,476	0,131	0,167
-248,263	-53,339	0,055	0,018
-247,249	-143,725	-0,058	0,004
-246,234	-84,336	0,007	0,002
-245,219	-68,315	-0,115	-0,032
-244,205	-99,742	-0,131	-0,023
-243,190	-200,000	0,006	-0,087
-242,176	-200,000	0,003	-0,133
-241,161	57,764	-0,060	-0,043
-240,146	-101,797	-0,126	0,022
-239,132	-200,000	-0,036	-0,131
-238,117	800,000	0,059	-0,123
-237,103	13,663	-0,020	-0,011
-236,088	-200,000	-0,010	0,110
-235,073	260,005	0,058	-0,073
-234,059	95,577	0,015	-0,012
-233,044	-200,000	0,064	0,208
-232,030	453,131	-0,041	-0,065
-231,015	502,062	-0,024	-0,041
-230,000	800,000	-0,067	-0,165
-228,986	-114,673	0,062	-0,008
-227,971	535,816	0,078	-0,135
-226,957	-99,154	-0,151	-0,027
-225,942	8,587	-0,117	0,064
-224,927	-35,605	-0,075	-0,029
-223,913	-148,528	0,160	-0,009
-222,898	-195,900	-0,120	-0,001
-221,884	-200,000	-0,006	-0,045
-220,869	-156,784	-0,066	-0,003
-219,855	-115,800	-0,104	0,014
-218,840	56,201	-0,030	-0,021
-217,825	-68,420	0,039	0,011
-216,811	800,000	0,031	-0,071
-215,796	261,140	-0,024	0,031
-214,782	800,000	-0,022	-0,051
-213,767	-111,757	0,099	0,014
-212,752	-200,000	0,011	-0,078
-211,738	800,000	0,014	-0,034
-210,723	-200,000	0,015	0,068
-209,709	406,280	-0,030	-0,045
-208,694	800,000	-0,009	-0,028
-207,679	133,012	-0,056	0,052
-206,665	198,604	0,062	-0,069
-205,650	-84,714	0,190	-0,043
-204,636	5,670	0,080	0,043
-203,621	800,000	-0,022	0,057
-202,606	-200,000	-0,020	0,165
-201,592	64,868	0,056	-0,041
-200,577	100,169	-0,007	0,006
-199,563	120,650	-0,108	-0,097
-198,548	-126,645	-0,048	-0,005
-197,533	-200,000	-0,032	0,215
-196,519	48,103	0,112	0,076
-195,504	-200,000	0,040	-0,204
-194,490	-41,617	-0,037	-0,014
-193,475	-63,358	0,107	0,032
-192,460	-72,516	0,086	0,023
-191,446	-5,189	0,090	-0,044
-190,431	-72,810	0,017	0,004
-189,417	800,000	0,024	-0,051
-188,402	165,072	0,067	0,068
-187,387	-200,000	-0,012	-0,211
-186,373	-101,806	-0,018	0,003
-185,358	-130,199	0,134	-0,013
-184,344	157,541	-0,027	-0,027
-183,329	-32,404	0,064	0,026
-182,315	-75,016	0,046	-0,012
-181,300	800,000	-0,056	-0,156
-180,285	-200,000	0,013	-0,160
-179,271	-200,000	-0,003	-0,027
-178,256	214,584	0,034	0,039
-177,242	-200,000	-0,032	-0,175
-176,227	56,819	0,049	-0,034
-175,212	-200,000	0,008	0,132
-174,198	-34,930	-0,156	-0,061
-173,183	49,546	0,097	-0,065
-172,169	301,150	-0,128	-0,171
-171,154	-200,000	0,008	-0,135
-170,139	800,000	0,058	0,182
-169,125	-94,525	0,121	-0,024
-168,110	800,000	0,035	0,099
-167,096	-30,825	0,021	-0,009
-166,081	-87,968	-0,048	-0,010
-165,066	-200,000	-0,015	0,055
-164,052	-77,262	0,058	0,015
-163,037	-67,242	-0,164	0,046
-162,023	142,165	0,037	0,035
-161,008	77,608	0,043	-0,033
-159,993	477,982	0,065	-0,107
-158,979	-111,153	0,027	-0,004
-157,964	-138,981	0,057	0,004
-156,950	800,000	-0,019	-0,049
-155,935	-39,555	0,137	-0,051
-154,920	-200,000	-0,032	-0,135
-153,906	215,790	0,056	-0,064
-152,891	-200,000	-0,008	0,064
-151,877	56,613	0,054	-0,038
-150,862	298,830	-0,106	-0,141
-149,847	314,392	0,033	0,045
-148,833	77,854	-0,099	0,076
-147,818	-95,117	0,128	-0,025
-146,804	-200,000	-0,016	0,077
-145,789	-122,039	0,029	0,003
-144,775	800,000	-0,072	0,159
-143,760	-133,878	-0,103	-0,009
-142,745	631,636	-0,046	-0,084
-141,731	130,794	0,102	-0,094
-140,716	487,087	0,020	0,033
-139,702	270,567	-0,048	0,061
-138,687	117,552	-0,076	-0,067
-137,672	439,859	-0,017	0,027
-136,658	-80,927	-0,148	-0,035
-135,643	-200,000	-0,031	0,140
-134,629	92,366	0,113	0,091
-133,614	-200,000	-0,012	0,179
-132,599	-80,971	0,092	-0,022
-131,585	-200,000	-0,004	-0,044
-130,570	75,706	-0,010	-0,008
-129,556	-172,764	-0,047	0,001
-128,541	-98,305	-0,008	0,002
-127,526	559,673	0,039	-0,067
-126,512	-200,000	0,009	-0,085
-125,497	330,973	0,022	-0,031
-124,483	-200,000	-0,018	-0,073
-123,468	10,657	0,066	-0,036
-122,453	800,000	-0,031	-0,097
-121,439	-200,000	-0,011	-0,198
-120,424	167,347	0,061	-0,062
-119,410	231,298	-0,118	-0,139
