DTS Sentinel unit serial number:	SN410029Multiplexer serial number:	ORYXHardware model number:	OX2-SRSoftware version number:	ORYX F/W v4,00 Oryx Data Collector v3.7.2.0data status	okinstallation	B5 Nyhavnadifferential loss correction	single-endedforward channel	channel 2reverse channel	N/Adate	2023/12/12time	02:22:13forward acquisition time	300,00reverse acquisition time	0,00gamma	499,1914k internal	0,3156k external	0,3156temperature offset calibration	1,0000default loss term (dB/km)	0,3820temperature slope calibration	1,0000multiplexer offset coefficient	1,0000multiplexer slope coefficient	1,0000fibre end	0,00T internal ref (°C)	15,77T ext. ref 1 (°C)	-0,63T ext. ref 2 (°C)	-0,93length (m)	temperature (°C)	Stokes	anti-Stokes-744,400	-200,000	0,001	-0,024
-743,385	-130,455	-0,298	-0,029
-742,371	-139,620	0,233	-0,018
-741,356	-96,904	-0,285	0,055
-740,342	-28,986	0,189	0,080
-739,327	-140,988	-0,248	0,018
-738,312	-97,266	0,131	-0,025
-737,298	-80,163	-0,406	-0,099
-736,283	254,012	0,070	0,089
-735,269	-139,241	-0,199	0,016
-734,254	759,525	-0,062	0,125
-733,239	-8,435	-0,402	-0,199
-732,225	170,975	0,048	0,051
-731,210	800,000	-0,015	0,034
-730,196	611,924	-0,068	0,126
-729,181	100,204	-0,130	-0,111
-728,167	-45,039	-0,077	-0,028
-727,152	-200,000	0,018	-0,109
-726,137	410,977	0,048	-0,075
-725,123	1,685	-0,062	0,033
-724,108	-143,564	0,051	-0,004
-723,094	800,000	-0,053	-0,125
-722,079	76,066	-0,108	-0,084
-721,064	-200,000	-0,007	-0,031
-720,050	13,105	0,011	-0,006
-719,035	278,264	-0,056	0,074
-718,021	-13,487	-0,016	-0,008
-717,006	-200,000	-0,009	-0,119
-715,991	254,083	-0,133	-0,167
-714,977	-200,000	-0,037	-0,165
-713,962	-200,000	0,037	-0,163
-712,948	152,356	-0,054	0,054
-711,933	37,138	0,080	0,052
-710,918	-69,749	-0,061	-0,017
-709,904	-200,000	0,054	-0,213
-708,889	800,000	-0,055	-0,153
-707,875	94,256	-0,106	0,088
-706,860	43,407	-0,073	0,049
-705,845	800,000	-0,065	-0,195
-704,831	427,632	-0,013	-0,020
-703,816	-6,790	-0,073	-0,037
-702,802	-70,583	-0,104	0,029
-701,787	-200,000	-0,016	0,060
-700,772	-17,211	-0,111	-0,051
-699,758	26,931	0,048	-0,030
-698,743	39,901	0,057	-0,038
-697,729	-22,550	-0,077	0,034
-696,714	-200,000	-0,022	0,092
-695,699	800,000	0,021	-0,045
-694,685	1,076	-0,073	-0,038
-693,670	800,000	0,026	-0,078
-692,656	-22,621	0,094	-0,041
-691,641	609,081	-0,064	-0,119
-690,627	-58,734	0,023	-0,007
-689,612	-200,000	-0,009	0,118
-688,597	-36,770	0,109	-0,043
-687,583	323,999	-0,110	-0,156
-686,568	-200,000	-0,033	-0,149
-685,554	-200,000	0,020	-0,154
-684,539	-33,795	0,099	-0,040
-683,524	-31,805	0,135	0,055
-682,510	394,598	0,068	-0,105
-681,495	-64,686	-0,189	-0,056
-680,481	-58,240	0,056	0,018
-679,466	5,126	-0,107	-0,058
-678,451	-163,444	0,109	-0,004
-677,437	-200,000	-0,001	-0,040
-676,422	-52,790	0,060	-0,020
-675,408	-102,358	0,163	0,029
-674,393	800,000	-0,026	0,064
-673,378	-200,000	-0,000	0,021
-672,364	-200,000	0,006	-0,062
-671,349	108,578	0,109	-0,096
-670,335	-69,744	-0,131	-0,037
-669,320	800,000	0,041	0,091
-668,305	-59,037	0,082	0,026
-667,291	-72,124	0,115	0,031
-666,276	-192,543	-0,166	0,001
-665,262	-200,000	0,168	0,000
-664,247	38,592	-0,122	-0,080
-663,232	9,464	0,145	-0,080
-662,218	-200,000	-0,011	0,166
-661,203	-72,872	0,102	-0,028
-660,189	0,217	0,145	0,076
-659,174	-195,249	-0,158	-0,001
-658,159	-110,425	-0,105	-0,016
-657,145	-200,000	-0,013	0,102
-656,130	-200,000	-0,030	0,108
-655,116	800,000	-0,034	0,076
-654,101	-39,417	0,084	0,032
-653,086	-57,570	0,063	0,020
-652,072	-36,586	-0,042	0,017
-651,057	-200,000	-0,032	-0,200
-650,043	36,210	-0,043	-0,028
-649,028	597,287	0,060	-0,109
-648,014	-200,000	-0,037	-0,126
-646,999	800,000	-0,014	-0,041
-645,984	-38,455	0,041	-0,016
-644,970	-200,000	-0,027	-0,120
-643,955	-200,000	-0,013	0,097
-642,941	-200,000	0,011	0,051
-641,926	800,000	-0,039	0,100
-640,911	106,025	-0,036	-0,031
-639,897	-117,116	0,121	-0,016
-638,882	800,000	0,053	0,164
-637,868	-37,811	-0,076	0,029
-636,853	-3,509	-0,074	-0,038
-635,838	-124,574	-0,032	-0,004
-634,824	-200,000	0,000	0,020
-633,809	-200,000	-0,043	0,199
-632,795	44,668	0,035	-0,023
-631,780	27,657	0,082	0,051
-630,765	-37,988	-0,215	0,083
-629,751	-200,000	-0,004	-0,112
-628,736	17,893	-0,170	-0,099
-627,722	-200,000	-0,016	-0,113
-626,707	215,912	0,047	-0,055
-625,692	800,000	0,049	0,108
-624,678	589,173	-0,082	0,150
-623,663	800,000	-0,027	0,076
-622,649	-191,859	-0,111	0,001
-621,634	800,000	0,080	-0,212
-620,619	48,429	0,042	-0,029
-619,605	-200,000	0,010	0,052
-618,590	48,938	0,108	-0,075
-617,576	-131,655	-0,056	0,005
-616,561	800,000	-0,021	0,050
-615,546	74,008	0,030	0,023
-614,532	-37,573	0,054	0,021
-613,517	203,165	-0,097	-0,111
-612,503	800,000	0,041	0,131
-611,488	800,000	0,059	-0,121
-610,474	800,000	-0,020	-0,049
-609,459	-200,000	-0,003	-0,088
-608,444	72,276	-0,118	-0,090
-607,430	60,041	-0,040	0,029
-606,415	-200,000	-0,015	0,089
-605,401	372,122	-0,033	-0,049
-604,386	-200,000	0,013	0,104
-603,371	684,490	-0,043	0,083
-602,357	-200,000	-0,033	-0,168
-601,342	121,747	0,075	-0,069
-600,328	12,265	-0,102	0,057
-599,313	342,197	0,029	0,041
-598,298	-140,517	0,180	0,014
-597,284	561,341	-0,020	-0,035
-596,269	800,000	0,007	-0,019
-595,255	-200,000	0,002	0,104
-594,240	-81,886	-0,098	0,023
-593,225	59,987	-0,071	0,051
-592,211	-200,000	0,011	-0,117
-591,196	-85,858	0,031	0,007
-590,182	-155,274	0,081	0,004
-589,167	243,810	-0,031	0,038
-588,152	-107,504	-0,058	-0,009
-587,138	-100,196	-0,046	0,008
-586,123	93,684	-0,158	-0,131
-585,109	-200,000	-0,003	-0,100
-584,094	-63,302	0,120	-0,036
-583,079	116,684	-0,105	0,094
-582,065	25,211	-0,072	-0,044
-581,050	238,737	-0,092	-0,112
-580,036	-37,445	-0,080	-0,031
-579,021	199,533	-0,090	-0,101
-578,006	390,562	0,060	-0,092
-576,992	-200,000	-0,038	-0,140
-575,977	681,184	-0,019	0,037
-574,963	-200,000	-0,012	-0,052
-573,948	372,416	0,040	0,060
-572,934	-77,424	0,084	0,021
-571,919	-200,000	0,028	-0,104
-570,904	70,674	-0,058	0,044
-569,890	-66,702	-0,074	-0,021
-568,875	800,000	-0,021	0,051
-567,861	224,849	-0,048	-0,058
-566,846	800,000	-0,056	-0,119
-565,831	-45,473	0,043	-0,016
-564,817	-200,000	0,020	0,128
-563,802	-179,109	-0,107	-0,002
-562,788	-12,163	-0,121	-0,058
-561,773	-72,624	0,049	-0,013
-560,758	-200,000	-0,050	0,000
-559,744	-200,000	-0,007	-0,076
-558,729	-26,184	-0,029	-0,012
-557,715	2,111	-0,122	0,064
-556,700	-58,393	-0,109	-0,035
-555,685	-200,000	0,023	0,131
-554,671	-59,247	0,102	0,032
-553,656	800,000	0,075	0,153
-552,642	19,860	0,106	-0,062
-551,627	-50,119	0,023	0,008
-550,612	-200,000	-0,012	-0,057
-549,598	-39,605	0,108	0,041
-548,583	285,085	0,035	0,047
-547,569	-100,510	-0,131	0,023
-546,554	800,000	0,013	-0,034
-545,539	-138,215	-0,066	-0,005
-544,525	583,775	0,063	0,114
-543,510	184,005	-0,051	-0,055
-542,496	-200,000	0,014	0,057
-541,481	-115,540	-0,132	-0,018
-540,466	-200,000	-0,040	-0,172
-539,452	-200,000	0,023	0,089
-538,437	800,000	-0,017	0,035
-537,423	536,063	0,070	0,123
-536,408	-200,000	0,020	-0,107
-535,393	28,122	0,043	-0,026
-534,379	-84,815	-0,091	0,021
-533,364	-57,223	-0,101	-0,032
-532,350	83,755	0,063	0,050
-531,335	623,412	-0,045	0,083
-530,321	364,048	-0,045	-0,066
-529,306	278,648	0,041	-0,054
-528,291	-200,000	-0,015	-0,119
-527,277	-200,000	-0,019	-0,117
-526,262	-30,845	-0,064	0,026
-525,248	800,000	-0,005	0,012
-524,233	-15,829	0,105	0,049
-523,218	194,405	-0,026	0,029
-522,204	-200,000	0,019	-0,120
-521,189	302,940	-0,079	-0,108
-520,175	-200,000	-0,043	-0,150
-519,160	800,000	0,009	0,029
-518,145	-78,765	-0,079	0,020
-517,131	50,422	0,063	-0,044
-516,116	-125,956	-0,077	-0,008
-515,102	-47,410	-0,093	-0,033
-514,087	108,409	-0,069	0,060
-513,072	-200,000	-0,018	-0,100
-512,058	-56,978	-0,106	-0,034
-511,043	299,203	0,061	0,083
-510,029	-27,914	0,047	0,020
-509,014	800,000	-0,019	0,060
-507,999	-200,000	-0,025	0,147
-506,985	205,365	-0,141	0,161
-505,970	-200,000	-0,010	-0,190
-504,956	-200,000	0,049	-0,196
-503,941	-200,000	-0,004	0,030
-502,926	-85,264	0,151	-0,034
-501,912	4,594	0,041	0,022
-500,897	71,045	-0,092	0,069
-499,883	115,749	-0,166	0,149
-498,868	4,099	-0,064	-0,034
-497,853	159,702	-0,023	-0,023
-496,839	-200,000	0,004	-0,025
-495,824	672,925	0,054	-0,102
-494,810	-41,248	0,134	-0,050
-493,795	800,000	-0,075	-0,165
-492,781	779,309	0,014	0,028
-491,766	397,684	0,029	-0,045
-490,751	-88,987	0,046	0,010
-489,737	-93,151	0,139	0,028
-488,722	-1,615	-0,106	0,055
-487,708	49,159	0,079	0,054
-486,693	293,548	0,100	0,133
-485,678	164,042	-0,036	-0,037
-484,664	-200,000	0,021	-0,138
-483,649	186,336	-0,074	-0,080
-482,635	117,252	-0,098	-0,088
-481,620	800,000	0,055	0,127
-480,605	-1,553	0,047	0,024
-479,591	-200,000	-0,003	-0,060
-478,576	-139,990	0,040	0,003
-477,562	-115,347	-0,095	0,013
-476,547	-69,480	0,107	-0,030
-475,532	27,736	0,081	-0,050
-474,518	-200,000	-0,000	-0,021
-473,503	80,497	0,064	0,051
-472,489	34,708	0,029	-0,018
-471,474	452,763	-0,055	0,089
-470,459	510,979	0,011	-0,019
-469,445	800,000	0,050	-0,112
-468,430	217,122	0,052	-0,061
-467,416	-200,000	0,019	0,092
-466,401	-200,000	-0,000	0,116
-465,386	-200,000	0,036	0,188
-464,372	-200,000	0,017	0,096
-463,357	434,565	0,003	0,004
-462,343	800,000	-0,036	-0,099
-461,328	433,446	0,028	-0,045
-460,313	-99,446	0,049	0,009
-459,299	-200,000	0,027	0,156
-458,284	198,454	0,083	0,092
-457,270	800,000	-0,036	0,082
-456,255	78,148	-0,149	0,116
-455,241	-200,000	-0,010	0,037
-454,226	338,897	-0,024	0,035
-453,211	-131,232	0,078	-0,007
-452,197	800,000	-0,022	-0,062
-451,182	-200,000	-0,038	0,245
-450,168	800,000	-0,024	0,051
-449,153	-200,000	-0,008	0,085
-448,138	800,000	0,031	0,086
-447,124	-200,000	0,020	-0,158
-446,109	-54,618	0,182	-0,060
-445,095	-139,406	-0,041	0,003
-444,080	-200,000	-0,005	-0,036
-443,065	800,000	-0,035	-0,112
-442,051	-22,732	-0,088	0,039
-441,036	-49,183	0,117	0,040
-440,022	-200,000	-0,003	-0,042
-439,007	129,845	0,072	-0,067
-437,992	-200,000	-0,028	0,107
-436,978	-47,237	0,141	0,050
-435,963	353,420	-0,022	-0,032
-434,949	37,207	-0,094	-0,060
-433,934	800,000	0,052	-0,150
-432,919	517,333	-0,087	-0,149
-431,905	532,190	-0,047	-0,081
-430,890	19,620	-0,035	-0,021
-429,876	59,565	0,071	-0,051
-428,861	-200,000	0,026	-0,098
-427,846	227,205	0,061	0,072
-426,832	-200,000	-0,000	-0,058
-425,817	264,969	0,044	-0,055
-424,803	800,000	-0,043	-0,089
-423,788	800,000	-0,019	-0,041
-422,773	33,795	0,131	0,083
-421,759	670,041	0,057	-0,107
-420,744	-153,901	0,083	-0,004
-419,730	250,876	-0,076	-0,095
-418,715	-12,595	-0,054	-0,025
-417,701	-200,000	-0,019	-0,114
-416,686	492,628	0,059	0,100
-415,671	800,000	0,021	-0,059
-414,657	-124,478	0,104	-0,012
-413,642	9,081	-0,084	0,046
-412,628	45,104	-0,109	0,073
-411,613	61,795	0,065	-0,047
-410,598	543,858	-0,017	0,029
-409,584	51,012	-0,064	-0,044
-408,569	20,811	0,044	-0,026
-407,555	511,524	0,050	0,084
-406,540	-200,000	0,008	-0,028
-405,525	-125,416	0,028	0,003
-404,511	-200,000	0,003	0,026
-403,496	800,000	-0,034	0,070
-402,482	19,102	0,025	0,014
-401,467	258,695	-0,027	-0,034
-400,452	-200,000	-0,006	-0,137
-399,438	136,436	-0,032	0,030
-398,423	530,461	-0,092	0,159
-397,409	192,822	0,029	-0,032
-396,394	-17,179	0,137	-0,063
-395,379	-200,000	-0,013	-0,052
-394,365	-53,513	-0,021	0,007
-393,350	28,598	0,099	0,061
-392,336	800,000	-0,019	0,052
-391,321	38,341	0,023	0,015
-390,306	360,995	-0,016	0,024
-389,292	310,528	0,068	-0,093
-388,277	-65,446	0,137	-0,040
-387,263	-101,313	0,116	0,020
-386,248	-200,000	0,008	0,027
-385,233	-12,021	-0,047	-0,023
-384,219	109,387	-0,080	-0,070
-383,204	54,402	-0,016	-0,011
-382,190	-200,000	-0,018	0,072
-381,175	745,961	0,035	-0,068
-380,160	-61,153	-0,081	-0,025
-379,146	235,512	-0,088	0,106
-378,131	-200,000	-0,025	-0,098
-377,117	-132,944	0,111	-0,010
-376,102	800,000	0,012	-0,028
-375,088	-200,000	0,004	-0,048
-374,073	-200,000	-0,035	-0,139
-373,058	217,910	-0,049	-0,057
-372,044	-200,000	-0,004	-0,056
-371,029	-47,520	-0,128	-0,045
-370,015	23,635	-0,158	0,094
-369,000	800,000	0,007	0,019
-367,985	-200,000	-0,014	-0,055
-366,971	800,000	0,046	-0,120
-365,956	800,000	-0,016	0,040
-364,942	-135,369	0,049	0,004
-363,927	-200,000	0,015	-0,053
-362,912	-114,385	0,125	0,017
-361,898	-163,743	-0,025	-0,001
-360,883	-200,000	-0,036	-0,146
-359,869	-200,000	0,006	0,082
-358,854	800,000	-0,018	-0,046
-357,839	-200,000	-0,005	0,052
-356,825	-14,290	0,059	-0,027
-355,810	398,976	0,079	0,120
-354,796	-4,135	-0,122	0,061
-353,781	115,043	-0,057	0,050
-352,766	-187,552	0,033	-0,000
-351,752	-200,000	0,171	0,001
-350,737	800,000	-0,038	0,099
-349,723	17,534	-0,082	0,047
-348,708	-23,761	0,152	-0,066
-347,693	23,368	-0,044	0,026
-346,679	385,866	-0,048	-0,073
-345,664	348,096	0,092	-0,132
-344,650	-29,404	0,075	0,031
-343,635	1,837	0,056	-0,029
-342,620	-200,000	0,012	-0,073
-341,606	191,456	-0,025	-0,027
-340,591	174,534	0,118	0,124
-339,577	59,188	0,124	0,089
-338,562	-179,285	-0,036	0,001
-337,548	-74,438	0,048	0,013
-336,533	88,644	0,066	0,054
-335,518	156,862	-0,022	-0,022
-334,504	-182,126	-0,080	-0,001
-333,489	-164,103	0,101	-0,003
-332,475	-200,000	0,009	0,068
-331,460	800,000	-0,064	-0,186
-330,445	278,398	-0,110	0,142
-329,431	35,444	0,097	0,062
-328,416	451,752	0,068	0,110
-327,402	-200,000	-0,035	0,184
-326,387	-89,280	-0,188	0,040
-325,372	137,386	-0,062	0,059
-324,358	-200,000	-0,006	-0,040
-323,343	647,514	-0,069	-0,129
-322,329	-79,059	-0,054	-0,013
-321,314	-200,000	0,029	0,100
-320,299	-200,000	-0,013	0,083
-319,285	-200,000	0,010	0,032
-318,270	800,000	-0,057	-0,141
-317,256	339,499	-0,031	-0,044
-316,241	40,061	0,047	-0,030
-315,226	134,272	0,039	-0,036
-314,212	114,540	-0,052	0,046
-313,197	-200,000	0,025	0,117
-312,183	-200,000	-0,006	0,039
-311,168	115,123	-0,109	-0,097
-310,153	-200,000	0,005	0,101
-309,139	523,883	-0,067	0,115
-308,124	800,000	-0,055	0,123
-307,110	-2,769	-0,138	-0,070
-306,095	299,984	0,124	0,166
-305,080	285,049	0,045	0,059
-304,066	-200,000	-0,087	0,295
-303,051	529,932	-0,036	-0,062
-302,037	800,000	0,030	0,062
-301,022	72,269	-0,188	-0,142
-300,008	31,983	0,034	-0,021
-298,993	800,000	-0,060	0,131
-297,978	800,000	-0,009	-0,023
-296,964	-200,000	-0,017	0,086
-295,949	55,081	-0,111	-0,078
-294,935	-200,000	0,009	-0,116
-293,920	69,427	-0,057	0,042
-292,905	84,064	-0,061	-0,048
-291,891	221,629	0,028	0,033
-290,876	-200,000	-0,005	0,095
-289,862	-114,869	0,118	0,016
-288,847	13,105	0,143	0,080
-287,832	-41,583	0,049	0,018
-286,818	562,872	0,050	-0,088
-285,803	-200,000	0,015	0,094
-284,789	-155,458	0,099	0,005
-283,774	147,882	-0,034	-0,033
-282,759	102,130	0,066	-0,056
-281,745	-200,000	-0,002	-0,058
-280,730	131,741	-0,030	0,028
-279,716	-103,071	0,132	-0,022
-278,701	4,291	0,096	0,051
-277,686	-184,961	0,105	-0,001
-276,672	266,456	0,016	0,021
-275,657	331,084	-0,104	0,146
-274,643	-50,227	-0,096	0,033
-273,628	563,995	-0,066	0,116
-272,613	800,000	-0,016	0,046
-271,599	-200,000	-0,015	0,050
-270,584	302,123	0,113	0,151
-269,570	249,598	0,044	-0,055
-268,555	-61,236	0,082	0,025
-267,540	800,000	-0,058	-0,126
-266,526	-153,216	-0,098	0,005
-265,511	-200,000	0,000	-0,064
-264,497	-184,699	-0,059	0,001
-263,482	170,497	-0,060	-0,063
-262,467	-52,828	0,071	0,024
-261,453	9,437	-0,079	0,043
-260,438	88,872	-0,071	0,057
-259,424	-54,875	-0,080	-0,026
-258,409	33,453	-0,062	-0,039
-257,395	-113,816	-0,074	-0,010
-256,380	-39,565	0,135	-0,051
-255,365	558,330	0,098	0,172
-254,351	457,736	-0,039	0,063
-253,336	-200,000	0,004	-0,096
-252,322	-200,000	-0,006	-0,025
-251,307	224,375	-0,085	0,099
-250,292	176,155	0,043	-0,046
-249,278	53,256	0,116	0,080
-248,263	141,253	0,102	0,097
-247,249	210,732	-0,010	0,011
-246,234	-200,000	-0,011	0,088
-245,219	800,000	-0,006	0,012
-244,205	800,000	0,025	-0,070
-243,190	800,000	-0,070	0,152
-242,176	-125,533	0,069	-0,008
-241,161	-161,984	0,084	-0,003
-240,146	-200,000	-0,001	0,112
-239,132	273,528	0,035	0,045
-238,117	-17,026	0,113	0,051
-237,103	-33,074	-0,093	-0,037
-236,088	-23,605	0,039	0,017
-235,073	-200,000	0,002	0,049
-234,059	130,847	0,153	-0,142
-233,044	151,907	0,034	-0,034
-232,030	-200,000	0,000	-0,005
-231,015	214,290	-0,079	-0,090
-230,000	-66,116	-0,176	0,050
-228,986	-11,669	0,068	0,032
-227,971	-143,503	0,041	-0,003
-226,957	212,151	0,075	0,086
-225,942	11,479	0,035	-0,019
-224,927	800,000	-0,033	-0,081
-223,913	84,788	0,086	-0,068
-222,898	316,448	-0,093	-0,128
-221,884	313,469	0,018	0,024
-220,869	-7,726	0,066	-0,032
-219,855	142,430	0,052	-0,050
-218,840	-200,000	-0,014	0,088
-217,825	72,249	-0,135	0,102
-216,811	139,263	-0,083	0,079
-215,796	373,852	-0,029	0,043
-214,782	53,671	0,082	-0,057
-213,767	27,558	0,109	-0,066
-212,752	745,285	0,013	-0,025
-211,738	-200,000	0,002	0,013
-210,723	-200,000	0,017	-0,098
-209,709	53,532	-0,141	-0,098
-208,694	463,465	0,018	0,030
-207,679	28,389	-0,109	-0,066
-206,665	-63,194	0,219	0,065
-205,650	800,000	0,039	0,113
-204,636	-25,305	0,079	-0,033
-203,621	-200,000	0,003	-0,049
-202,606	-200,000	0,006	-0,035
-201,592	-200,000	0,014	0,084
-200,577	-200,000	0,002	0,028
-199,563	219,806	0,045	-0,052
-198,548	6,898	-0,133	0,071
-197,533	-200,000	-0,005	-0,033
-196,519	-200,000	-0,011	0,120
-195,504	-200,000	-0,009	0,155
-194,490	-86,445	-0,106	0,023
-193,475	38,442	0,047	-0,030
-192,460	6,681	-0,016	0,009
-191,446	-200,000	0,004	0,036
-190,431	-200,000	-0,021	0,133
-189,417	-99,132	0,048	-0,009
-188,402	-8,113	-0,081	-0,039
-187,387	501,091	0,010	0,016
-186,373	364,482	-0,046	-0,067
-185,358	-84,395	0,018	-0,004
-184,344	-72,286	0,101	0,027
-183,329	-200,000	0,012	0,112
-182,315	-115,251	0,027	0,004
-181,300	-6,547	-0,040	0,020
-180,285	767,578	0,089	0,176
-179,271	-200,000	-0,003	0,250
-178,256	-200,000	0,014	-0,105
-177,242	555,114	0,049	-0,086
-176,227	-98,926	0,087	-0,016
-175,212	-172,447	-0,120	-0,003
-174,198	23,896	0,046	-0,027
-173,183	-113,821	-0,082	-0,011
-172,169	-96,441	0,160	0,030
-171,154	-200,000	0,017	-0,191
-170,139	-200,000	-0,022	-0,142
-169,125	259,501	0,066	0,082
-168,110	178,876	0,089	-0,094
-167,096	489,773	0,024	-0,039
-166,081	63,086	-0,072	-0,052
-165,066	-200,000	0,032	-0,137
-164,052	368,984	0,067	-0,098
-163,037	-200,000	0,005	0,046
-162,023	-200,000	0,017	-0,103
-161,008	-135,280	0,161	0,014
-159,993	14,939	0,164	-0,092
-158,979	103,191	0,031	-0,026
-157,964	-106,363	0,092	-0,015
-156,950	474,831	-0,050	-0,081
-155,935	412,797	-0,043	0,066
-154,920	271,492	0,050	0,063
-153,906	101,868	-0,060	-0,050
-152,891	75,431	-0,060	-0,046
-151,877	-58,538	-0,053	-0,017
-150,862	-55,891	0,041	0,013
-149,847	-38,035	-0,010	-0,004
-148,833	72,114	0,067	0,050
-147,818	-66,027	-0,064	-0,018
-146,804	214,572	-0,055	0,063
-145,789	165,225	0,058	0,059
-144,775	-200,000	0,006	0,054
-143,760	105,371	-0,029	0,025
-142,745	800,000	0,018	0,043
-141,731	-70,348	-0,112	-0,030
-140,716	749,145	0,093	-0,181
-139,702	-64,959	0,135	-0,039
-138,687	-200,000	-0,013	0,066
-137,672	-200,000	-0,030	-0,127
-136,658	800,000	-0,014	-0,038
-135,643	-71,338	-0,047	-0,013
-134,629	-137,032	0,140	0,011
-133,614	547,305	-0,002	-0,004
-132,599	-200,000	-0,023	0,110
-131,585	-137,842	0,193	0,015
-130,570	-200,000	0,019	0,113
-129,556	800,000	-0,052	0,125
-128,541	-13,625	-0,066	0,031
-127,526	102,148	0,052	-0,043
-126,512	800,000	0,037	-0,086
-125,497	38,754	0,087	0,056
-124,483	-44,494	0,063	0,023
-123,468	507,322	-0,040	-0,067
-122,453	-200,000	0,046	-0,215
-121,439	-200,000	-0,014	-0,047
-120,424	140,027	0,002	0,002
-119,410	629,624	0,055	0,101
