DTS Sentinel unit serial number:	SN410029Multiplexer serial number:	ORYXHardware model number:	OX2-SRSoftware version number:	ORYX F/W v4,00 Oryx Data Collector v3.7.2.0data status	okinstallation	B5 Nyhavnadifferential loss correction	single-endedforward channel	channel 2reverse channel	N/Adate	2023/12/13time	09:07:13forward acquisition time	300,00reverse acquisition time	0,00gamma	499,1914k internal	0,3160k external	0,3160temperature offset calibration	1,0000default loss term (dB/km)	0,3820temperature slope calibration	1,0000multiplexer offset coefficient	1,0000multiplexer slope coefficient	1,0000fibre end	0,00T internal ref (°C)	13,64T ext. ref 1 (°C)	-2,74T ext. ref 2 (°C)	-3,03length (m)	temperature (°C)	Stokes	anti-Stokes-744,400	-76,666	0,102	0,026
-743,385	-23,690	-0,293	0,129
-742,371	-200,000	0,029	0,200
-741,356	-145,061	-0,441	0,029
-740,342	-97,623	0,177	0,033
-739,327	-80,408	-0,291	-0,071
-738,312	72,684	0,046	0,035
-737,298	-153,369	-0,391	-0,020
-736,283	-34,295	0,224	0,090
-735,269	-31,175	-0,211	0,087
-734,254	160,775	0,074	0,076
-733,239	-24,745	-0,434	-0,189
-732,225	89,842	0,105	0,086
-731,210	800,000	-0,032	-0,067
-730,196	253,198	0,055	-0,070
-729,181	-106,324	-0,188	0,031
-728,167	-200,000	-0,020	-0,088
-727,152	66,173	0,026	-0,019
-726,137	17,293	-0,050	0,029
-725,123	-26,326	-0,034	0,015
-724,108	518,770	-0,076	-0,132
-723,094	800,000	-0,021	-0,061
-722,079	199,089	-0,072	-0,081
-721,064	-82,654	0,096	0,023
-720,050	258,431	-0,030	-0,038
-719,035	412,409	-0,047	0,073
-718,021	-200,000	-0,036	-0,184
-717,006	-200,000	-0,015	-0,120
-715,991	-150,794	-0,195	0,011
-714,977	-200,000	-0,011	-0,088
-713,962	219,304	-0,057	-0,067
-712,948	-29,497	-0,141	-0,059
-711,933	87,424	-0,103	0,083
-710,918	27,518	0,056	-0,035
-709,904	-16,907	-0,104	-0,048
-708,889	141,314	-0,074	-0,072
-707,875	-200,000	-0,032	-0,168
-706,860	94,981	0,080	0,067
-705,845	97,895	0,050	0,043
-704,831	-200,000	-0,034	0,115
-703,816	137,789	0,069	0,066
-702,802	-39,730	0,105	0,040
-701,787	62,330	0,079	-0,058
-700,772	15,650	-0,045	0,026
-699,758	4,446	-0,099	-0,053
-698,743	-59,828	0,081	0,025
-697,729	54,125	-0,012	0,008
-696,714	228,478	0,023	0,027
-695,699	-177,017	0,102	0,002
-694,685	-200,000	0,043	-0,221
-693,670	568,038	-0,092	-0,165
-692,656	-200,000	0,009	-0,067
-691,641	19,050	0,157	0,092
-690,627	-105,248	0,078	-0,013
-689,612	16,784	-0,038	-0,022
-688,597	-200,000	0,029	-0,096
-687,583	-200,000	-0,017	-0,103
-686,568	281,771	-0,121	-0,160
-685,554	-200,000	-0,009	-0,092
-684,539	-33,724	0,303	-0,122
-683,524	-56,232	-0,103	0,033
-682,510	84,922	0,024	0,019
-681,495	339,408	0,046	-0,066
-680,481	-120,322	-0,114	-0,014
-679,466	197,134	0,052	-0,058
-678,451	128,990	-0,060	-0,056
-677,437	-200,000	0,002	-0,027
-676,422	-200,000	-0,017	-0,056
-675,408	-60,597	-0,078	0,024
-674,393	-161,708	-0,004	0,000
-673,378	-60,484	-0,190	0,059
-672,364	-200,000	-0,011	-0,060
-671,349	-63,999	0,070	0,021
-670,335	800,000	0,073	-0,154
-669,320	800,000	-0,060	0,182
-668,305	497,547	-0,045	0,077
-667,291	168,470	-0,073	-0,077
-666,276	136,811	-0,093	-0,089
-665,262	-75,269	-0,053	-0,014
-664,247	201,261	0,093	-0,105
-663,232	-184,427	-0,176	-0,002
-662,218	125,301	0,030	0,027
-661,203	-200,000	0,004	0,020
-660,189	628,941	0,028	0,052
-659,174	-161,827	0,024	0,001
-658,159	195,118	0,015	-0,017
-657,145	800,000	-0,015	0,048
-656,130	340,745	-0,047	-0,068
-655,116	38,130	0,133	-0,087
-654,101	-52,611	-0,094	0,032
-653,086	-80,699	0,035	-0,008
-652,072	57,223	-0,053	-0,038
-651,057	107,381	-0,071	-0,062
-650,043	182,064	-0,016	-0,017
-649,028	64,813	-0,107	0,079
-648,014	-200,000	0,011	-0,097
-646,999	-104,836	-0,003	0,001
-645,984	-200,000	-0,008	0,095
-644,970	-163,005	-0,146	-0,005
-643,955	-138,725	0,136	-0,011
-642,941	-172,983	-0,122	-0,003
-641,926	394,091	-0,036	-0,055
-640,911	-139,378	-0,014	0,001
-639,897	800,000	-0,036	-0,086
-638,882	90,742	0,054	-0,044
-637,868	715,477	0,016	-0,031
-636,853	173,545	-0,071	-0,075
-635,838	-83,383	-0,052	-0,012
-634,824	-106,959	-0,081	0,013
-633,809	-37,286	-0,173	0,067
-632,795	3,572	0,070	-0,037
-631,780	-135,264	-0,046	-0,004
-630,765	-83,499	0,062	-0,014
-629,751	-157,255	-0,174	0,008
-628,736	-200,000	-0,005	-0,055
-627,722	25,691	-0,074	0,045
-626,707	55,901	0,087	0,062
-625,692	-200,000	-0,007	0,118
-624,678	800,000	0,028	0,080
-623,663	-22,966	-0,043	0,019
-622,649	-122,142	-0,036	0,004
-621,634	800,000	-0,038	-0,086
-620,619	800,000	0,020	-0,052
-619,605	-200,000	0,013	0,081
-618,590	281,730	0,074	0,098
-617,576	-177,283	0,039	0,001
-616,561	265,301	-0,053	-0,068
-615,546	-200,000	-0,028	0,135
-614,532	23,077	0,005	-0,003
-613,517	105,151	-0,152	-0,131
-612,503	-49,803	0,061	-0,021
-611,488	800,000	0,018	0,040
-610,474	-82,252	-0,098	-0,023
-609,459	-21,452	-0,098	0,044
-608,444	-200,000	0,001	0,108
-607,430	372,519	-0,084	0,126
-606,415	33,075	-0,038	0,024
-605,401	493,606	0,044	0,074
-604,386	-90,194	0,181	-0,038
-603,371	-135,211	0,116	0,010
-602,357	-200,000	-0,008	0,161
-601,342	-52,294	-0,094	0,032
-600,328	-123,648	-0,149	-0,017
-599,313	144,231	0,069	-0,067
-598,298	-66,579	-0,038	0,011
-597,284	84,907	-0,052	0,042
-596,269	24,797	-0,102	-0,062
-595,255	800,000	-0,036	0,096
-594,240	58,008	-0,086	-0,062
-593,225	800,000	0,046	-0,137
-592,211	800,000	-0,039	-0,113
-591,196	-12,815	0,042	-0,020
-590,182	-174,122	-0,217	0,005
-589,167	-200,000	-0,002	0,133
-588,152	-200,000	0,011	-0,142
-587,138	-200,000	-0,011	0,047
-586,123	-200,000	0,057	-0,217
-585,109	-102,265	-0,145	-0,025
-584,094	110,586	0,055	-0,048
-583,079	800,000	0,040	0,091
-582,065	-80,117	0,041	-0,010
-581,050	16,268	0,091	-0,053
-580,036	107,304	-0,071	0,062
-579,021	-200,000	-0,007	0,054
-578,006	-108,316	0,170	-0,027
-576,992	-102,872	-0,028	0,005
-575,977	31,023	0,012	-0,008
-574,963	-18,631	0,089	0,040
-573,948	67,714	-0,074	-0,055
-572,934	109,038	0,060	-0,052
-571,919	16,314	-0,061	-0,035
-570,904	61,648	-0,088	0,064
-569,890	-157,503	0,108	-0,005
-568,875	22,213	0,060	0,036
-567,861	60,557	0,061	0,044
-566,846	-200,000	0,018	0,097
-565,831	-200,000	-0,008	-0,053
-564,817	195,074	0,014	0,016
-563,802	18,066	-0,178	-0,103
-562,788	-11,280	-0,068	-0,033
-561,773	-200,000	-0,007	0,119
-560,758	-149,279	0,090	-0,005
-559,744	90,964	0,026	0,022
-558,729	122,709	0,117	0,107
-557,715	-200,000	-0,007	0,037
-556,700	800,000	-0,051	0,124
-555,685	-200,000	0,019	-0,074
-554,671	327,173	-0,042	0,059
-553,656	-146,100	0,153	0,010
-552,642	147,786	0,031	-0,031
-551,627	-200,000	-0,010	0,056
-550,612	-96,966	-0,114	-0,022
-549,598	714,972	-0,052	-0,101
-548,583	-40,618	0,092	-0,035
-547,569	800,000	-0,024	-0,051
-546,554	35,423	0,083	-0,053
-545,539	376,402	-0,065	0,097
-544,525	202,604	-0,084	0,095
-543,510	800,000	0,020	-0,045
-542,496	-200,000	-0,001	-0,051
-541,481	486,328	-0,049	-0,082
-540,466	-137,241	-0,111	0,009
-539,452	-152,017	-0,027	-0,001
-538,437	-170,238	0,182	-0,005
-537,423	115,122	-0,080	0,071
-536,408	380,279	0,063	-0,095
-535,393	-114,528	-0,128	0,018
-534,379	220,310	-0,060	0,070
-533,364	800,000	0,018	-0,043
-532,350	-95,950	-0,092	0,018
-531,335	10,294	0,125	0,069
-530,321	-167,047	0,080	-0,002
-529,306	-82,959	0,179	-0,042
-528,291	-59,359	0,059	0,018
-527,277	15,317	-0,168	-0,096
-526,262	421,131	0,040	0,063
-525,248	800,000	0,044	-0,090
-524,233	-49,845	0,082	-0,028
-523,218	-26,184	0,033	0,014
-522,204	433,781	0,033	0,053
-521,189	-200,000	-0,019	-0,100
-520,175	114,743	-0,106	-0,094
-519,160	320,010	-0,047	0,065
-518,145	148,285	0,096	0,095
-517,131	417,002	-0,032	0,050
-516,116	723,692	0,028	0,054
-515,102	96,004	-0,070	0,059
-514,087	467,191	0,039	0,063
-513,072	16,204	0,045	0,026
-512,058	501,152	-0,033	-0,056
-511,043	60,054	-0,051	-0,037
-510,029	77,936	0,050	-0,039
-509,014	-177,111	0,236	-0,004
-507,999	-124,527	0,182	0,020
-506,985	-200,000	-0,019	-0,127
-505,970	309,558	-0,056	0,077
-504,956	-200,000	0,009	-0,098
-503,941	-152,687	0,199	0,010
-502,926	-200,000	0,014	0,083
-501,912	-46,887	0,099	-0,035
-500,897	181,917	-0,152	-0,164
-499,883	71,090	-0,021	-0,016
-498,868	-162,099	-0,087	-0,003
-497,853	82,851	-0,093	-0,073
-496,839	13,902	-0,145	-0,082
-495,824	23,090	-0,083	0,049
-494,810	-35,115	0,201	-0,079
-493,795	-133,292	0,113	-0,010
-492,781	-200,000	-0,002	0,064
-491,766	-200,000	-0,006	-0,029
-490,751	271,750	0,079	-0,101
-489,737	800,000	-0,009	-0,023
-488,722	616,755	0,042	0,077
-487,708	-3,860	0,074	0,038
-486,693	800,000	0,048	-0,119
-485,678	-17,418	0,106	-0,049
-484,664	-200,000	0,006	0,061
-483,649	800,000	0,051	-0,117
-482,635	548,669	0,029	-0,050
-481,620	677,065	0,059	0,113
-480,605	800,000	0,079	0,162
-479,591	167,926	0,082	-0,085
-478,576	171,183	0,060	-0,063
-477,562	-121,572	0,248	-0,030
-476,547	-79,789	-0,071	-0,017
-475,532	800,000	0,024	-0,063
-474,518	800,000	0,027	0,076
-473,503	652,590	0,026	0,049
-472,489	-82,533	0,042	0,010
-471,474	-200,000	-0,032	-0,137
-470,459	-200,000	0,003	-0,136
-469,445	800,000	-0,047	-0,100
-468,430	292,696	-0,095	-0,127
-467,416	800,000	-0,044	0,107
-466,401	347,130	-0,093	0,133
-465,386	-200,000	0,019	-0,102
-464,372	70,880	0,110	-0,083
-463,357	557,242	-0,089	0,157
-462,343	-200,000	0,024	-0,100
-461,328	-47,374	0,081	-0,029
-460,313	-113,301	0,062	0,009
-459,299	-119,672	0,105	0,013
-458,284	800,000	0,044	0,109
-457,270	252,444	-0,030	-0,038
-456,255	62,359	0,042	0,031
-455,241	38,922	-0,246	-0,160
-454,226	-17,580	0,032	-0,015
-453,211	356,224	-0,066	-0,096
-452,197	-172,114	0,052	0,001
-451,182	800,000	-0,042	0,108
-450,168	129,035	-0,090	0,084
-449,153	380,574	-0,014	0,020
-448,138	-200,000	0,011	-0,052
-447,124	339,600	-0,052	-0,073
-446,109	800,000	-0,052	-0,143
-445,095	-200,000	-0,021	-0,134
-444,080	-75,906	-0,009	-0,002
-443,065	21,677	-0,060	-0,035
-442,051	-200,000	-0,008	0,060
-441,036	-78,782	0,092	0,023
-440,022	-200,000	0,010	-0,034
-439,007	-200,000	-0,022	0,083
-437,992	10,939	0,055	0,031
-436,978	-200,000	0,043	0,143
-435,963	-95,357	-0,189	-0,037
-434,949	-200,000	-0,007	0,121
-433,934	-177,500	0,106	0,002
-432,919	-200,000	0,018	-0,073
-431,905	-200,000	0,014	-0,134
-430,890	-81,385	-0,160	0,038
-429,876	318,642	0,047	-0,065
-428,861	391,562	0,010	0,015
-427,846	459,974	0,064	0,104
-426,832	283,814	0,022	-0,029
-425,817	800,000	-0,054	-0,110
-424,803	-200,000	0,014	-0,091
-423,788	59,433	-0,059	-0,042
-422,773	-200,000	0,000	-0,076
-421,759	59,847	-0,106	0,076
-420,744	-152,556	-0,102	0,005
-419,730	-200,000	-0,043	-0,144
-418,715	1,710	-0,050	-0,026
-417,701	294,781	0,021	-0,028
-416,686	32,065	0,112	-0,070
-415,671	410,213	0,050	0,077
-414,657	-145,604	-0,145	0,009
-413,642	63,640	0,049	0,036
-412,628	-36,601	0,068	-0,026
-411,613	-200,000	-0,009	0,028
-410,598	28,330	-0,056	-0,035
-409,584	800,000	-0,076	0,202
-408,569	800,000	0,028	0,069
-407,555	-200,000	0,011	0,079
-406,540	130,388	-0,093	-0,087
-405,525	-41,510	0,081	0,030
-404,511	-18,590	-0,103	-0,046
-403,496	-134,936	-0,097	0,008
-402,482	800,000	0,022	-0,063
-401,467	61,310	0,167	0,121
-400,452	-150,437	0,131	0,007
-399,438	236,905	0,120	0,144
-398,423	723,454	0,045	0,087
-397,409	581,850	-0,028	0,050
-396,394	132,255	0,128	-0,120
-395,379	60,284	0,051	0,036
-394,365	-111,776	-0,134	-0,020
-393,350	-57,839	0,135	-0,043
-392,336	746,321	0,066	0,131
-391,321	290,783	-0,031	-0,041
-390,306	-200,000	-0,008	0,034
-389,292	-200,000	0,058	0,000
-388,277	208,498	0,051	-0,058
-387,263	-51,771	0,058	-0,020
-386,248	195,816	-0,041	-0,045
-385,233	-28,734	0,040	0,017
-384,219	-133,490	-0,160	0,014
-383,204	1,322	-0,122	-0,064
-382,190	-200,000	-0,018	-0,070
-381,175	48,768	-0,088	0,060
-380,160	-45,108	0,073	-0,026
-379,146	-200,000	-0,022	0,182
-378,131	800,000	-0,029	0,085
-377,117	-200,000	0,013	-0,164
-376,102	-200,000	-0,029	-0,115
-375,088	58,675	-0,046	0,033
-374,073	-74,473	0,175	0,045
-373,058	800,000	-0,024	0,058
-372,044	-200,000	-0,014	0,102
-371,029	-145,722	0,049	0,003
-370,015	-200,000	0,022	0,091
-369,000	388,048	-0,073	-0,110
-367,985	800,000	-0,018	-0,045
-366,971	499,681	0,044	0,073
-365,956	789,916	-0,050	-0,101
-364,942	-200,000	-0,002	0,059
-363,927	326,932	0,097	0,135
-362,912	-181,000	-0,076	-0,001
-361,898	202,964	-0,018	-0,020
-360,883	-73,890	-0,111	-0,029
-359,869	49,150	-0,089	-0,061
-358,854	27,808	0,138	-0,084
-357,839	-71,598	-0,089	0,024
-356,825	64,237	0,022	0,016
-355,810	192,842	-0,094	0,103
-354,796	-19,837	0,095	-0,042
-353,781	-92,024	0,040	-0,008
-352,766	-48,685	-0,163	-0,057
-351,752	-200,000	-0,037	-0,154
-350,737	800,000	0,014	0,038
-349,723	-145,605	0,058	0,004
-348,708	51,622	-0,033	-0,022
-347,693	-56,245	-0,098	-0,031
-346,679	-170,417	-0,061	0,002
-345,664	-200,000	0,020	-0,115
-344,650	-52,878	-0,059	-0,020
-343,635	88,483	0,035	-0,029
-342,620	-59,315	0,028	0,009
-341,606	-200,000	0,005	-0,111
-340,591	-200,000	0,012	-0,086
-339,577	340,866	-0,037	-0,053
-338,562	6,397	-0,022	-0,012
-337,548	-5,128	-0,050	0,025
-336,533	-200,000	0,020	0,197
-335,518	116,973	-0,035	-0,031
-334,504	94,410	0,084	0,069
-333,489	268,349	-0,066	-0,084
-332,475	800,000	-0,019	0,054
-331,460	170,609	-0,099	0,103
-330,445	-9,046	0,107	0,052
-329,431	-200,000	-0,005	0,060
-328,416	124,491	0,018	0,017
-327,402	-145,606	0,119	0,008
-326,387	471,826	-0,087	0,143
-325,372	-71,261	-0,100	-0,027
-324,358	182,976	-0,047	0,050
-323,343	800,000	-0,003	-0,007
-322,329	-129,448	-0,028	-0,003
-321,314	-200,000	0,036	0,154
-320,299	208,491	0,042	0,047
-319,285	454,844	-0,037	0,060
-318,270	46,420	0,018	0,012
-317,256	-24,087	-0,102	0,044
-316,241	559,190	-0,058	-0,102
-315,226	412,197	-0,050	-0,078
-314,212	-11,778	0,080	-0,038
-313,197	-200,000	0,018	0,173
-312,183	405,575	0,051	-0,078
-311,168	-200,000	0,038	0,158
-310,153	-93,616	0,075	0,015
-309,139	-85,089	-0,065	0,015
-308,124	372,868	-0,048	0,072
-307,110	82,151	-0,056	0,044
-306,095	-54,147	-0,077	0,025
-305,080	-11,507	-0,047	-0,022
-304,066	-57,881	0,130	0,041
-303,051	-200,000	-0,020	0,184
-302,037	-200,000	-0,015	0,080
-301,022	-148,008	0,034	-0,002
-300,008	302,449	0,057	0,076
-298,993	442,762	0,031	0,050
-297,978	722,037	-0,045	0,088
-296,964	800,000	-0,017	-0,048
-295,949	-200,000	-0,018	0,083
-294,935	-128,477	-0,068	-0,007
-293,920	-186,282	-0,064	0,001
-292,905	-200,000	0,012	0,189
-291,891	-200,000	-0,009	-0,043
-290,876	194,626	0,089	-0,098
-289,862	800,000	-0,052	-0,149
-288,847	211,103	0,063	-0,071
-287,832	-200,000	0,027	-0,102
-286,818	213,450	-0,008	-0,009
-285,803	115,651	0,044	-0,039
-284,789	-136,917	0,086	0,007
-283,774	-14,667	-0,073	0,034
-282,759	503,423	0,097	0,162
-281,745	-200,000	0,010	0,161
-280,730	449,673	-0,072	-0,115
-279,716	272,714	-0,009	-0,011
-278,701	127,357	-0,053	-0,048
-277,686	-54,371	0,179	0,059
-276,672	3,845	-0,051	0,027
-275,657	800,000	0,069	-0,153
-274,643	-58,539	0,050	-0,016
-273,628	-80,420	-0,093	0,022
-272,613	39,161	-0,091	-0,059
-271,599	194,393	0,156	0,171
-270,584	96,217	-0,072	-0,060
-269,570	-200,000	-0,010	0,063
-268,555	-144,938	-0,097	0,006
-267,540	-200,000	0,011	0,088
-266,526	149,933	-0,079	-0,077
-265,511	800,000	0,035	0,090
-264,497	-22,806	0,096	0,042
-263,482	-140,026	-0,076	0,006
-262,467	-62,126	0,136	-0,041
-261,453	412,515	-0,061	-0,095
-260,438	800,000	0,017	-0,044
-259,424	-72,418	0,135	0,036
-258,409	27,110	-0,163	-0,099
-257,395	678,522	0,038	0,071
-256,380	800,000	0,051	0,144
-255,365	90,768	0,059	0,048
-254,351	-200,000	0,012	0,077
-253,336	-30,985	-0,077	-0,031
-252,322	-200,000	-0,028	-0,147
-251,307	102,684	-0,015	-0,012
-250,292	81,693	0,069	0,054
-249,278	-200,000	-0,024	0,132
-248,263	53,452	0,127	0,088
-247,249	800,000	0,034	-0,093
-246,234	-200,000	-0,003	-0,017
-245,219	-18,824	-0,120	0,054
-244,205	96,350	-0,147	-0,121
-243,190	-200,000	-0,017	0,058
-242,176	44,782	0,091	0,061
-241,161	192,891	-0,041	-0,044
-240,146	703,329	0,061	-0,117
-239,132	-26,001	0,042	0,018
-238,117	-103,845	0,077	-0,013
-237,103	-200,000	-0,011	-0,068
-236,088	-200,000	0,027	-0,096
-235,073	-45,442	0,086	-0,030
-234,059	23,132	-0,060	-0,036
-233,044	-200,000	-0,003	0,019
-232,030	-200,000	-0,018	-0,088
-231,015	32,590	0,098	-0,061
-230,000	-9,817	0,065	-0,031
-228,986	-161,615	0,092	-0,003
-227,971	31,307	0,101	0,063
-226,957	-120,149	0,109	0,013
-225,942	25,725	-0,010	-0,006
-224,927	-200,000	0,001	-0,055
-223,913	-200,000	0,018	-0,068
-222,898	-200,000	0,006	-0,092
-221,884	377,270	0,030	-0,045
-220,869	276,048	0,075	0,096
-219,855	-200,000	0,012	0,138
-218,840	591,039	-0,013	0,024
-217,825	-47,502	-0,036	-0,013
-216,811	-33,650	0,082	0,033
-215,796	50,441	-0,069	-0,047
-214,782	62,145	-0,090	-0,064
-213,767	-44,335	-0,028	-0,010
-212,752	507,278	-0,031	0,052
-211,738	270,854	-0,084	0,107
-210,723	152,608	0,078	-0,077
-209,709	18,495	-0,143	-0,082
-208,694	-200,000	-0,038	-0,128
-207,679	-200,000	0,027	0,097
-206,665	-113,869	-0,037	-0,005
-205,650	-200,000	0,024	0,091
-204,636	55,489	-0,020	0,014
-203,621	227,760	-0,016	-0,019
-202,606	-133,998	-0,045	0,004
-201,592	-179,920	-0,110	0,002
-200,577	-121,513	-0,049	-0,006
-199,563	237,116	0,109	0,131
-198,548	-200,000	0,008	0,108
-197,533	-200,000	0,004	0,134
-196,519	59,612	-0,039	0,028
-195,504	-200,000	-0,005	-0,091
-194,490	198,728	-0,060	-0,067
-193,475	-200,000	-0,004	-0,036
-192,460	-200,000	0,005	-0,025
-191,446	45,659	0,155	0,103
-190,431	800,000	-0,006	0,014
-189,417	15,066	0,037	0,021
-188,402	-16,770	-0,099	0,045
-187,387	128,834	0,067	-0,062
-186,373	145,838	0,101	0,097
-185,358	140,785	-0,086	-0,082
-184,344	800,000	-0,007	0,022
-183,329	-200,000	-0,028	0,111
-182,315	24,570	0,051	0,030
-181,300	-76,466	0,092	0,023
-180,285	-110,418	-0,109	-0,016
-179,271	-7,248	0,020	0,010
-178,256	-91,220	-0,060	-0,012
-177,242	800,000	0,031	-0,070
-176,227	800,000	-0,044	0,137
-175,212	195,885	0,060	-0,066
-174,198	309,301	-0,010	-0,014
-173,183	-158,724	-0,042	-0,002
-172,169	85,141	0,033	-0,026
-171,154	73,185	0,102	-0,077
-170,139	179,596	-0,056	0,059
-169,125	205,342	-0,013	0,015
-168,110	-20,753	0,148	-0,065
-167,096	800,000	0,049	-0,100
-166,081	34,301	-0,072	-0,045
-165,066	360,223	-0,091	-0,131
-164,052	-8,132	-0,065	0,032
-163,037	-200,000	-0,006	-0,023
-162,023	243,882	-0,034	-0,041
-161,008	215,874	0,067	0,077
-159,993	-130,321	0,135	-0,013
-158,979	-200,000	0,016	-0,231
-157,964	-67,957	-0,026	-0,007
-156,950	-74,347	0,080	-0,021
-155,935	276,600	0,033	-0,042
-154,920	800,000	0,038	0,097
-153,906	75,722	-0,024	0,018
-152,891	356,919	-0,056	-0,080
-151,877	28,853	-0,088	0,054
-150,862	800,000	0,002	-0,005
-149,847	138,239	-0,043	0,040
-148,833	800,000	0,057	0,118
-147,818	-200,000	-0,016	0,128
-146,804	800,000	0,015	-0,030
-145,789	-159,896	0,145	-0,006
-144,775	-60,487	-0,055	0,017
-143,760	-200,000	0,006	0,028
-142,745	800,000	-0,036	-0,103
-141,731	800,000	-0,005	0,011
-140,716	-49,627	-0,048	-0,016
-139,702	800,000	-0,060	-0,120
-138,687	4,694	-0,035	0,018
-137,672	406,965	-0,050	0,077
-136,658	-18,927	-0,018	-0,008
-135,643	-110,418	0,007	0,001
-134,629	161,527	-0,044	0,045
-133,614	12,517	0,174	0,096
-132,599	800,000	0,007	0,015
-131,585	-151,298	-0,025	-0,001
-130,570	45,221	0,134	-0,089
-129,556	41,855	-0,090	-0,058
-128,541	448,330	-0,017	0,027
-127,526	-23,514	0,159	0,068
-126,512	226,314	-0,067	0,079
-125,497	-23,783	0,047	-0,020
-124,483	-200,000	-0,020	0,113
-123,468	-115,361	-0,123	-0,017
-122,453	-0,893	-0,111	0,057
-121,439	800,000	0,067	-0,137
-120,424	273,527	-0,006	0,008
-119,410	-200,000	0,014	0,167
