DTS Sentinel unit serial number:	SN410029Multiplexer serial number:	ORYXHardware model number:	OX2-SRSoftware version number:	ORYX F/W v4,00 Oryx Data Collector v3.7.2.0data status	okinstallation	B5 Nyhavnadifferential loss correction	single-endedforward channel	channel 2reverse channel	N/Adate	2023/12/12time	11:02:13forward acquisition time	300,00reverse acquisition time	0,00gamma	499,1914k internal	0,3158k external	0,3158temperature offset calibration	1,0000default loss term (dB/km)	0,3820temperature slope calibration	1,0000multiplexer offset coefficient	1,0000multiplexer slope coefficient	1,0000fibre end	0,00T internal ref (°C)	15,01T ext. ref 1 (°C)	-1,19T ext. ref 2 (°C)	-1,45length (m)	temperature (°C)	Stokes	anti-Stokes-744,400	-33,854	0,089	-0,036
-743,385	-177,085	-0,289	-0,005
-742,371	16,850	0,109	0,063
-741,356	-34,718	-0,202	0,081
-740,342	79,946	0,064	-0,051
-739,327	72,405	-0,188	0,144
-738,312	-117,693	0,048	0,006
-737,298	0,443	-0,121	-0,064
-736,283	331,522	0,092	0,132
-735,269	-81,902	-0,273	0,065
-734,254	767,309	-0,026	0,053
-733,239	-112,258	-0,421	-0,062
-732,225	423,889	0,060	-0,096
-731,210	-51,858	0,131	-0,045
-730,196	571,835	0,063	-0,114
-729,181	-200,000	0,033	-0,112
-728,167	195,919	-0,121	0,136
-727,152	518,172	-0,049	-0,085
-726,137	-197,022	-0,189	0,001
-725,123	-128,627	-0,113	-0,012
-724,108	800,000	-0,074	-0,209
-723,094	-144,206	-0,145	-0,010
-722,079	-63,508	-0,022	-0,006
-721,064	-200,000	-0,003	0,032
-720,050	175,786	0,021	0,022
-719,035	-200,000	0,020	0,114
-718,021	-200,000	-0,014	-0,077
-717,006	115,635	-0,012	0,011
-715,991	387,121	0,045	0,069
-714,977	-30,528	-0,037	-0,015
-713,962	-200,000	0,028	-0,104
-712,948	-73,180	0,047	0,012
-711,933	113,750	0,065	0,058
-710,918	-11,229	-0,062	0,030
-709,904	-43,452	-0,106	-0,039
-708,889	-23,851	-0,112	0,049
-707,875	165,890	-0,123	-0,128
-706,860	166,388	0,034	-0,036
-705,845	396,030	-0,045	-0,070
-704,831	-94,057	0,086	0,017
-703,816	35,156	0,103	-0,066
-702,802	220,598	0,049	-0,058
-701,787	-200,000	0,027	-0,137
-700,772	310,896	-0,060	0,082
-699,758	232,207	-0,076	0,092
-698,743	250,059	-0,020	0,025
-697,729	154,020	-0,063	0,064
-696,714	773,811	-0,004	-0,008
-695,699	-182,371	0,097	-0,001
-694,685	-106,399	0,050	-0,008
-693,670	153,413	-0,035	-0,035
-692,656	800,000	0,047	-0,113
-691,641	385,668	-0,062	-0,094
-690,627	-52,424	0,064	0,022
-689,612	464,855	0,067	-0,111
-688,597	800,000	0,020	-0,062
-687,583	252,719	-0,062	-0,078
-686,568	305,496	0,084	-0,115
-685,554	-132,327	-0,032	0,003
-684,539	-94,451	0,106	-0,021
-683,524	-9,620	-0,166	-0,081
-682,510	-200,000	-0,006	-0,026
-681,495	-200,000	-0,035	-0,130
-680,481	350,226	-0,024	-0,035
-679,466	-200,000	-0,038	-0,187
-678,451	399,268	0,011	0,016
-677,437	-96,400	-0,049	-0,009
-676,422	-200,000	-0,016	-0,056
-675,408	68,715	0,060	0,045
-674,393	-37,599	-0,033	-0,013
-673,378	28,735	-0,085	-0,053
-672,364	800,000	0,029	-0,087
-671,349	7,438	-0,091	-0,050
-670,335	-22,578	0,095	0,042
-669,320	174,871	0,039	-0,041
-668,305	800,000	0,069	0,151
-667,291	585,842	-0,050	-0,091
-666,276	297,248	-0,019	0,026
-665,262	-141,482	-0,084	0,006
-664,247	95,646	0,027	-0,023
-663,232	63,438	-0,012	-0,009
-662,218	-200,000	-0,024	0,118
-661,203	-200,000	-0,008	-0,041
-660,189	-130,098	0,157	0,016
-659,174	140,716	-0,042	0,041
-658,159	800,000	-0,059	0,181
-657,145	800,000	0,033	-0,071
-656,130	-200,000	0,001	0,014
-655,116	50,566	-0,024	0,017
-654,101	-200,000	0,008	0,036
-653,086	526,983	0,057	0,099
-652,072	800,000	-0,039	-0,095
-651,057	134,795	0,053	-0,051
-650,043	162,738	0,043	0,044
-649,028	-40,013	-0,028	0,011
-648,014	249,162	-0,052	0,065
-646,999	-200,000	0,013	0,062
-645,984	-81,158	0,189	-0,045
-644,970	-200,000	0,001	0,108
-643,955	260,741	0,055	-0,071
-642,941	-72,531	-0,041	0,011
-641,926	-1,592	-0,074	-0,038
-640,911	-168,831	-0,072	0,002
-639,897	81,115	0,016	-0,012
-638,882	-200,000	0,020	-0,072
-637,868	-74,457	-0,024	-0,006
-636,853	800,000	0,024	-0,048
-635,838	-73,215	-0,243	-0,065
-634,824	-62,548	0,074	0,022
-633,809	26,505	0,104	-0,064
-632,795	800,000	0,029	-0,067
-631,780	391,391	-0,069	0,106
-630,765	90,465	0,095	-0,078
-629,751	15,524	-0,135	-0,078
-628,736	432,867	-0,020	-0,032
-627,722	-112,939	-0,073	-0,010
-626,707	98,895	0,029	0,025
-625,692	281,516	0,059	-0,077
-624,678	800,000	-0,056	0,118
-623,663	-11,856	-0,014	-0,007
-622,649	800,000	-0,048	-0,133
-621,634	-118,186	-0,115	0,015
-620,619	-82,566	-0,052	0,012
-619,605	23,076	-0,067	-0,041
-618,590	-200,000	0,005	0,114
-617,576	-200,000	-0,000	0,060
-616,561	-141,792	-0,028	-0,002
-615,546	678,111	-0,047	0,091
-614,532	-193,420	-0,246	0,002
-613,517	-8,761	0,070	-0,034
-612,503	800,000	0,061	-0,138
-611,488	-187,645	-0,117	-0,001
-610,474	434,276	-0,008	0,012
-609,459	78,592	0,069	-0,054
-608,444	800,000	0,058	-0,180
-607,430	520,059	-0,095	-0,164
-606,415	-200,000	0,002	-0,055
-605,401	145,812	0,042	0,041
-604,386	-200,000	0,003	0,042
-603,371	3,582	-0,040	-0,022
-602,357	800,000	0,033	0,102
-601,342	329,613	-0,043	-0,060
-600,328	333,349	-0,064	-0,092
-599,313	-200,000	0,041	0,000
-598,298	424,140	0,049	-0,078
-597,284	-54,283	-0,113	-0,037
-596,269	-126,525	0,084	-0,009
-595,255	-200,000	-0,001	0,053
-594,240	800,000	-0,014	0,039
-593,225	179,751	0,045	-0,048
-592,211	18,668	-0,058	-0,034
-591,196	121,546	-0,060	0,055
-590,182	-125,832	0,034	-0,004
-589,167	-119,636	0,054	0,007
-588,152	-89,485	-0,116	0,025
-587,138	-89,177	0,068	0,015
-586,123	-200,000	0,012	-0,130
-585,109	-200,000	0,004	0,046
-584,094	-200,000	-0,020	-0,075
-583,079	136,618	0,093	0,089
-582,065	-177,536	-0,038	0,001
-581,050	176,973	0,083	0,089
-580,036	97,145	-0,013	-0,011
-579,021	-145,718	-0,097	0,006
-578,006	55,521	-0,118	-0,084
-576,992	800,000	-0,059	0,179
-575,977	629,780	0,077	0,144
-574,963	-200,000	0,024	0,187
-573,948	-200,000	-0,009	0,035
-572,934	350,132	0,098	-0,142
-571,919	-24,495	-0,107	-0,047
-570,904	-200,000	-0,035	-0,138
-569,890	800,000	-0,041	-0,085
-568,875	104,299	0,022	0,019
-567,861	6,880	-0,069	0,037
-566,846	519,109	0,078	-0,134
-565,831	-163,485	0,073	-0,002
-564,817	646,563	0,031	-0,059
-563,802	224,945	-0,053	-0,063
-562,788	800,000	-0,066	0,167
-561,773	108,276	0,030	-0,026
-560,758	-145,968	0,057	0,004
-559,744	800,000	0,026	-0,077
-558,729	800,000	-0,038	-0,091
-557,715	-200,000	-0,002	0,027
-556,700	-55,948	-0,043	0,014
-555,685	-200,000	-0,009	0,089
-554,671	44,641	-0,110	-0,074
-553,656	194,059	0,092	-0,102
-552,642	43,965	0,025	0,017
-551,627	-200,000	0,006	-0,076
-550,612	8,884	-0,165	-0,091
-549,598	-200,000	-0,017	-0,057
-548,583	175,456	0,095	-0,101
-547,569	-136,387	-0,109	0,009
-546,554	143,811	-0,053	0,052
-545,539	800,000	-0,020	-0,054
-544,525	455,223	-0,043	0,070
-543,510	88,521	0,014	0,011
-542,496	-159,712	0,059	0,002
-541,481	-109,863	-0,095	0,014
-540,466	-200,000	0,007	-0,034
-539,452	196,147	-0,045	-0,050
-538,437	638,093	0,061	0,113
-537,423	123,926	0,109	0,100
-536,408	99,780	0,122	-0,104
-535,393	142,686	-0,167	-0,162
-534,379	-144,461	0,038	-0,003
-533,364	100,716	-0,070	0,060
-532,350	379,431	-0,028	0,042
-531,335	800,000	0,064	0,142
-530,321	800,000	0,010	-0,031
-529,306	159,642	-0,120	-0,122
-528,291	800,000	0,029	-0,076
-527,277	-167,544	-0,072	0,002
-526,262	800,000	0,061	0,149
-525,248	-200,000	0,003	0,026
-524,233	380,688	-0,070	0,106
-523,218	800,000	0,012	-0,025
-522,204	-200,000	-0,014	-0,102
-521,189	800,000	0,031	0,097
-520,175	-163,499	-0,107	0,004
-519,160	211,276	-0,069	-0,079
-518,145	80,329	0,049	0,039
-517,131	352,246	0,088	0,128
-516,116	234,551	-0,057	0,069
-515,102	-200,000	-0,008	-0,040
-514,087	800,000	0,038	0,090
-513,072	61,525	-0,164	0,119
-512,058	-70,668	0,129	-0,035
-511,043	-88,125	-0,008	-0,002
-510,029	18,824	0,035	0,020
-509,014	-31,410	0,027	-0,011
-507,999	-200,000	-0,038	0,196
-506,985	37,843	-0,087	0,056
-505,970	-29,248	0,073	-0,030
-504,956	-200,000	0,000	-0,070
-503,941	800,000	0,031	0,086
-502,926	56,372	0,078	0,056
-501,912	110,157	-0,124	-0,109
-500,897	-200,000	0,008	0,196
-499,883	-47,827	-0,127	-0,045
-498,868	397,649	0,078	-0,120
-497,853	474,692	0,068	-0,112
-496,839	800,000	-0,040	-0,089
-495,824	-173,847	-0,114	-0,002
-494,810	-19,273	-0,064	0,029
-493,795	-193,613	-0,138	0,001
-492,781	800,000	-0,044	-0,111
-491,766	-157,905	-0,031	-0,001
-490,751	456,706	0,092	-0,150
-489,737	-125,080	-0,074	-0,008
-488,722	-200,000	0,010	-0,052
-487,708	100,195	0,049	0,042
-486,693	457,809	-0,055	0,090
-485,678	-138,495	-0,051	-0,004
-484,664	-65,744	0,021	-0,006
-483,649	410,739	0,012	-0,019
-482,635	291,977	-0,055	0,074
-481,620	492,120	0,023	0,039
-480,605	-56,694	-0,107	-0,034
-479,591	-200,000	0,006	0,081
-478,576	85,043	0,126	0,101
-477,562	800,000	0,024	-0,054
-476,547	30,743	-0,098	-0,061
-475,532	-200,000	-0,020	0,079
-474,518	87,076	0,065	-0,053
-473,503	-200,000	-0,004	0,054
-472,489	359,663	-0,076	0,112
-471,474	-184,114	0,057	-0,001
-470,459	-200,000	-0,020	-0,124
-469,445	-200,000	0,022	-0,173
-468,430	53,190	0,090	0,063
-467,416	51,426	-0,043	0,030
-466,401	-200,000	-0,035	0,119
-465,386	800,000	0,031	0,064
-464,372	-200,000	0,009	0,123
-463,357	-133,068	-0,116	-0,011
-462,343	-200,000	-0,002	-0,140
-461,328	-200,000	-0,013	-0,085
-460,313	-200,000	0,013	0,051
-459,299	-34,463	0,050	0,020
-458,284	381,034	0,092	0,138
-457,270	66,478	0,054	0,040
-456,255	-200,000	0,012	-0,072
-455,241	266,534	-0,029	0,037
-454,226	-93,698	-0,031	0,006
-453,211	800,000	0,022	-0,047
-452,197	-27,469	-0,042	-0,018
-451,182	-98,614	-0,024	-0,004
-450,168	88,839	0,042	-0,034
-449,153	131,868	-0,134	0,126
-448,138	-200,000	-0,001	-0,079
-447,124	-200,000	0,009	-0,082
-446,109	-200,000	-0,010	0,107
-445,095	-132,105	0,052	0,005
-444,080	800,000	0,061	-0,125
-443,065	160,982	-0,017	0,017
-442,051	15,819	0,105	-0,060
-441,036	-12,786	-0,128	0,060
-440,022	800,000	-0,014	0,044
-439,007	800,000	-0,022	0,068
-437,992	-43,562	0,149	-0,055
-436,978	-200,000	-0,005	0,056
-435,963	-138,455	-0,022	0,002
-434,949	-102,420	-0,105	0,018
-433,934	-186,847	-0,143	0,001
-432,919	606,383	-0,047	-0,086
-431,905	-200,000	-0,002	-0,048
-430,890	-200,000	-0,025	0,082
-429,876	800,000	0,072	0,155
-428,861	441,567	-0,079	0,126
-427,846	289,100	0,098	-0,129
-426,832	-97,764	-0,053	-0,010
-425,817	-200,000	-0,021	-0,086
-424,803	-200,000	0,005	-0,076
-423,788	-107,929	0,079	-0,012
-422,773	-200,000	-0,017	0,164
-421,759	-200,000	-0,040	0,153
-420,744	160,640	0,096	-0,098
-419,730	-200,000	0,002	-0,081
-418,715	33,485	-0,037	0,023
-417,701	800,000	0,020	0,060
-416,686	47,917	0,060	-0,041
-415,671	-142,050	0,132	-0,009
-414,657	90,066	-0,037	-0,030
-413,642	-200,000	0,030	0,106
-412,628	11,040	-0,113	0,063
-411,613	-29,254	-0,152	0,063
-410,598	373,117	0,047	0,070
-409,584	-119,619	0,135	0,017
-408,569	167,515	0,050	-0,051
-407,555	800,000	-0,078	0,190
-406,540	228,877	0,058	-0,069
-405,525	143,070	-0,072	-0,070
-404,511	-94,468	0,215	0,042
-403,496	3,039	-0,137	-0,072
-402,482	-200,000	0,019	-0,123
-401,467	197,831	-0,087	0,097
-400,452	53,564	0,055	-0,038
-399,438	-23,306	0,095	0,041
-398,423	-200,000	0,002	-0,079
-397,409	364,299	-0,014	-0,020
-396,394	-200,000	0,015	-0,102
-395,379	42,740	0,049	-0,033
-394,365	-72,402	0,061	0,016
-393,350	276,214	0,136	0,176
-392,336	163,537	0,039	0,040
-391,321	-38,574	-0,157	0,060
-390,306	800,000	-0,017	-0,043
-389,292	-200,000	0,015	-0,069
-388,277	800,000	-0,046	-0,095
-387,263	137,135	-0,027	0,026
-386,248	800,000	0,019	0,046
-385,233	-200,000	0,012	-0,052
-384,219	-200,000	-0,000	0,035
-383,204	-40,704	0,076	0,029
-382,190	-200,000	0,022	0,071
-381,175	800,000	0,044	0,131
-380,160	647,740	-0,036	0,067
-379,146	-200,000	0,016	-0,061
-378,131	-110,278	-0,058	0,009
-377,117	781,144	-0,050	-0,100
-376,102	118,403	0,039	0,035
-375,088	-2,510	0,046	-0,023
-374,073	800,000	0,023	-0,048
-373,058	10,552	0,038	0,021
-372,044	-82,744	0,162	0,038
-371,029	-200,000	-0,006	0,174
-370,015	-79,652	-0,038	0,009
-369,000	-200,000	-0,002	-0,067
-367,985	-37,776	0,150	0,058
-366,971	-95,398	-0,098	0,019
-365,956	238,219	0,142	0,172
-364,942	98,847	0,102	0,085
-363,927	165,033	0,025	-0,025
-362,912	152,782	0,106	0,105
-361,898	-200,000	0,011	-0,056
-360,883	800,000	-0,059	-0,146
-359,869	800,000	0,055	0,123
-358,854	800,000	0,046	0,140
-357,839	-66,796	-0,082	-0,023
-356,825	-67,215	-0,028	0,008
-355,810	-53,631	-0,074	-0,024
-354,796	-200,000	0,003	0,018
-353,781	8,164	-0,027	-0,015
-352,766	403,854	0,058	-0,089
-351,752	124,694	0,011	0,010
-350,737	-86,880	0,171	-0,038
-349,723	-200,000	-0,022	0,188
-348,708	-200,000	-0,033	0,120
-347,693	274,360	0,071	0,091
-346,679	-74,608	-0,212	-0,055
-345,664	-200,000	-0,046	-0,194
-344,650	513,023	-0,068	0,115
-343,635	-89,648	-0,086	0,018
-342,620	-200,000	-0,033	0,115
-341,606	-200,000	0,028	0,213
-340,591	66,938	-0,062	0,045
-339,577	65,628	0,091	-0,067
-338,562	800,000	0,040	-0,117
-337,548	37,150	0,139	-0,089
-336,533	219,454	-0,052	0,060
-335,518	-174,179	0,127	-0,003
-334,504	-59,035	0,090	0,028
-333,489	800,000	0,020	-0,044
-332,475	-200,000	0,004	0,024
-331,460	207,057	0,153	-0,173
-330,445	-200,000	0,000	0,006
-329,431	-200,000	0,002	-0,030
-328,416	-132,040	0,166	-0,015
-327,402	-200,000	0,041	0,133
-326,387	-200,000	-0,009	0,038
-325,372	720,107	0,061	0,119
-324,358	800,000	-0,049	-0,104
-323,343	-200,000	0,011	0,054
-322,329	41,479	0,119	0,078
-321,314	-200,000	0,027	0,101
-320,299	65,800	-0,122	0,089
-319,285	800,000	0,010	-0,027
-318,270	-200,000	-0,009	-0,110
-317,256	-200,000	0,029	-0,133
-316,241	-55,642	0,089	-0,029
-315,226	335,310	0,034	0,048
-314,212	64,203	0,081	0,059
-313,197	800,000	-0,017	0,044
-312,183	-200,000	-0,020	0,090
-311,168	344,605	0,032	-0,045
-310,153	192,161	-0,059	-0,064
-309,139	-156,195	-0,090	-0,004
-308,124	800,000	0,039	0,096
-307,110	92,138	0,112	-0,091
-306,095	-86,284	0,126	-0,028
-305,080	1,868	-0,082	0,043
-304,066	21,845	0,119	-0,070
-303,051	-200,000	0,006	-0,042
-302,037	-200,000	0,003	-0,083
-301,022	360,065	-0,002	-0,003
-300,008	800,000	0,020	-0,041
-298,993	695,255	-0,023	-0,045
-297,978	-200,000	0,039	0,131
-296,964	-97,052	-0,203	0,038
-295,949	-80,220	0,075	0,018
-294,935	-14,983	0,031	-0,014
-293,920	237,120	-0,067	0,081
-292,905	-200,000	0,010	0,060
-291,891	105,041	0,084	0,072
-290,876	133,266	-0,084	-0,079
-289,862	800,000	-0,013	-0,040
-288,847	-200,000	-0,010	-0,142
-287,832	-200,000	-0,038	-0,169
-286,818	704,169	-0,039	-0,075
-285,803	-200,000	-0,011	-0,059
-284,789	326,773	0,082	0,114
-283,774	-15,286	0,107	0,049
-282,759	-64,517	0,090	-0,026
-281,745	90,564	-0,116	-0,094
-280,730	-76,167	-0,070	0,018
-279,716	123,747	-0,043	0,039
-278,701	129,601	0,128	0,119
-277,686	-56,721	-0,057	-0,018
-276,672	3,296	-0,051	0,027
-275,657	20,762	0,021	0,012
-274,643	-178,715	-0,108	-0,002
-273,628	800,000	0,044	-0,094
-272,613	-69,886	-0,168	0,046
-271,599	6,224	0,131	-0,070
-270,584	-29,100	-0,068	-0,028
-269,570	164,244	-0,114	-0,116
-268,555	-200,000	-0,005	0,032
-267,540	270,936	-0,051	0,065
-266,526	-74,371	-0,129	0,033
-265,511	-65,656	0,014	0,004
-264,497	-162,467	0,091	0,003
-263,482	-87,749	0,127	0,027
-262,467	250,585	0,044	0,054
-261,453	120,803	-0,035	0,031
-260,438	-141,734	-0,032	-0,002
-259,424	-146,356	-0,075	0,005
-258,409	537,964	-0,024	-0,042
-257,395	-200,000	0,009	0,091
-256,380	461,753	0,024	0,039
-255,365	202,028	0,102	-0,114
-254,351	800,000	-0,016	0,033
-253,336	800,000	0,061	-0,165
-252,322	-200,000	0,019	-0,141
-251,307	-200,000	-0,000	0,045
-250,292	71,062	-0,178	-0,133
-249,278	-200,000	-0,005	-0,016
-248,263	800,000	0,068	-0,157
-247,249	-200,000	-0,021	0,177
-246,234	588,981	-0,031	-0,056
-245,219	-30,143	-0,117	-0,048
-244,205	45,959	0,071	-0,047
-243,190	-200,000	0,005	-0,094
-242,176	800,000	0,031	0,072
-241,161	-70,336	0,052	0,014
-240,146	77,570	0,151	0,116
-239,132	-200,000	0,012	0,066
-238,117	152,058	-0,044	-0,044
-237,103	-4,519	0,034	0,017
-236,088	-1,462	0,075	-0,038
-235,073	45,427	0,094	0,062
-234,059	-51,081	0,074	-0,025
-233,044	313,985	0,061	-0,084
-232,030	-200,000	-0,005	-0,104
-231,015	765,398	-0,023	-0,045
-230,000	-63,354	-0,146	-0,043
-228,986	77,527	0,033	-0,026
-227,971	270,903	-0,062	0,079
-226,957	85,671	-0,070	0,056
-225,942	38,522	0,066	-0,043
-224,927	544,866	0,087	0,151
-223,913	199,552	-0,048	0,054
-222,898	-200,000	-0,016	-0,144
-221,884	-200,000	0,016	0,099
-220,869	28,796	0,096	-0,059
-219,855	-165,937	-0,026	-0,001
-218,840	-137,867	0,065	0,005
-217,825	-152,629	-0,120	-0,006
-216,811	-73,775	-0,088	0,023
-215,796	-51,894	0,138	-0,046
-214,782	4,251	-0,017	0,009
-213,767	800,000	0,013	0,033
-212,752	20,945	0,142	0,083
-211,738	-200,000	0,012	-0,125
-210,723	-95,033	0,030	0,006
-209,709	-147,729	-0,080	-0,005
-208,694	800,000	-0,028	-0,081
-207,679	115,370	0,073	-0,064
-206,665	85,104	0,090	-0,071
-205,650	197,311	0,055	0,061
-204,636	-74,897	0,166	0,043
-203,621	219,157	-0,082	0,094
-202,606	107,437	0,055	-0,047
-201,592	434,412	0,014	0,022
-200,577	-133,802	0,137	0,012
-199,563	427,847	-0,087	0,136
-198,548	-200,000	0,016	0,055
-197,533	800,000	0,020	-0,039
-196,519	-126,539	-0,052	-0,005
-195,504	-200,000	0,014	-0,053
-194,490	800,000	-0,041	-0,130
-193,475	800,000	-0,035	-0,092
-192,460	-108,092	-0,048	-0,007
-191,446	97,410	0,109	0,090
-190,431	29,768	0,018	-0,011
-189,417	508,558	0,043	0,073
-188,402	-166,040	-0,089	-0,003
-187,387	647,617	0,036	-0,066
-186,373	800,000	-0,025	0,079
-185,358	-12,219	0,048	0,023
-184,344	578,388	0,024	0,043
-183,329	246,070	0,064	-0,078
-182,315	-200,000	-0,004	-0,022
-181,300	-200,000	-0,004	-0,059
-180,285	196,923	-0,113	0,125
-179,271	-200,000	0,006	0,103
-178,256	800,000	0,035	0,086
-177,242	304,792	-0,076	-0,102
-176,227	-200,000	0,000	0,012
-175,212	301,699	0,036	0,048
-174,198	-49,549	-0,175	-0,060
-173,183	-200,000	0,003	-0,155
-172,169	-87,925	-0,101	-0,022
-171,154	800,000	0,033	0,084
-170,139	81,081	-0,163	-0,127
-169,125	-60,260	0,133	-0,041
-168,110	800,000	0,063	-0,166
-167,096	-200,000	-0,002	-0,113
-166,081	-78,359	-0,052	0,013
-165,066	11,043	-0,118	-0,065
-164,052	800,000	-0,047	0,095
-163,037	-200,000	-0,005	-0,033
-162,023	211,025	0,092	-0,105
-161,008	115,617	0,053	0,047
-159,993	80,816	-0,054	0,042
-158,979	-200,000	0,006	-0,068
-157,964	-140,346	-0,109	0,008
-156,950	596,141	0,029	-0,052
-155,935	-200,000	-0,020	0,099
-154,920	-200,000	-0,002	0,071
-153,906	251,299	0,069	0,085
-152,891	-200,000	0,006	0,098
-151,877	-200,000	0,004	-0,019
-150,862	103,801	-0,059	-0,050
-149,847	-49,118	-0,007	0,002
-148,833	-16,889	-0,085	-0,038
-147,818	31,222	0,128	0,079
-146,804	-200,000	-0,034	0,137
-145,789	-80,187	0,085	-0,020
-144,775	-200,000	-0,036	-0,129
-143,760	-28,991	-0,045	-0,018
-142,745	149,247	-0,046	-0,045
-141,731	-115,340	0,121	-0,016
-140,716	-102,979	0,111	0,019
-139,702	-200,000	-0,021	0,125
-138,687	-65,529	0,120	0,034
-137,672	-200,000	0,023	0,090
-136,658	-56,193	-0,039	-0,012
-135,643	3,238	0,125	-0,065
-134,629	189,991	-0,054	0,059
-133,614	147,512	0,020	0,020
-132,599	496,338	-0,044	0,072
-131,585	800,000	0,011	0,025
-130,570	467,975	-0,029	0,047
-129,556	-76,887	0,096	-0,024
-128,541	181,193	0,035	-0,037
-127,526	-200,000	0,005	0,151
-126,512	800,000	0,090	-0,195
-125,497	-200,000	-0,012	-0,108
-124,483	-185,606	-0,165	-0,002
-123,468	-165,488	-0,214	-0,007
-122,453	-161,626	0,093	-0,003
-121,439	-200,000	-0,034	-0,112
-120,424	-200,000	0,002	-0,167
-119,410	-66,183	-0,066	0,019
