DTS Sentinel unit serial number:	SN410029Multiplexer serial number:	ORYXHardware model number:	OX2-SRSoftware version number:	ORYX F/W v4,00 Oryx Data Collector v3.7.2.0data status	okinstallation	B5 Nyhavnadifferential loss correction	single-endedforward channel	channel 2reverse channel	N/Adate	2023/12/11time	21:12:13forward acquisition time	300,00reverse acquisition time	0,00gamma	499,1914k internal	0,3157k external	0,3157temperature offset calibration	1,0000default loss term (dB/km)	0,3820temperature slope calibration	1,0000multiplexer offset coefficient	1,0000multiplexer slope coefficient	1,0000fibre end	0,00T internal ref (°C)	16,18T ext. ref 1 (°C)	0,23T ext. ref 2 (°C)	-0,00length (m)	temperature (°C)	Stokes	anti-Stokes-744,400	-106,019	0,196	-0,032
-743,385	-200,000	-0,318	0,000
-742,371	678,954	0,044	0,085
-741,356	-120,926	-0,244	0,030
-740,342	86,912	0,079	0,064
-739,327	-74,310	-0,265	0,070
-738,312	267,157	0,086	-0,111
-737,298	-94,085	-0,358	-0,072
-736,283	-200,000	0,020	0,196
-735,269	-75,223	-0,384	0,100
-734,254	-200,000	0,013	0,068
-733,239	-22,560	-0,397	-0,176
-732,225	-15,578	0,236	-0,110
-731,210	-200,000	-0,010	0,136
-730,196	-27,450	0,038	-0,016
-729,181	-19,396	-0,059	-0,027
-728,167	721,975	-0,111	0,219
-727,152	-1,361	-0,054	0,028
-726,137	800,000	0,024	-0,051
-725,123	39,409	0,099	-0,065
-724,108	294,990	-0,151	-0,204
-723,094	-200,000	-0,019	-0,073
-722,079	-200,000	-0,005	0,020
-721,064	800,000	0,028	0,076
-720,050	50,894	-0,111	0,077
-719,035	37,594	-0,056	-0,037
-718,021	-200,000	-0,016	-0,142
-717,006	20,924	-0,039	0,023
-715,991	177,371	-0,166	-0,178
-714,977	476,647	-0,038	-0,063
-713,962	75,287	-0,119	-0,093
-712,948	-200,000	0,004	0,068
-711,933	17,990	0,035	0,020
-710,918	-200,000	-0,020	0,115
-709,904	161,978	-0,015	0,016
-708,889	-50,843	-0,090	-0,031
-707,875	188,588	0,006	-0,006
-706,860	99,078	0,023	-0,020
-705,845	281,823	-0,068	-0,090
-704,831	800,000	0,046	0,136
-703,816	-200,000	-0,020	0,075
-702,802	-200,000	-0,011	-0,083
-701,787	51,746	-0,092	0,064
-700,772	762,588	0,047	-0,095
-699,758	100,615	0,044	0,037
-698,743	72,825	0,120	-0,092
-697,729	-1,989	-0,127	-0,066
-696,714	-200,000	0,010	0,036
-695,699	-97,667	-0,079	0,015
-694,685	162,744	-0,106	-0,109
-693,670	27,754	-0,152	-0,094
-692,656	-40,616	-0,073	0,028
-691,641	-149,034	-0,021	0,001
-690,627	35,295	-0,094	-0,061
-689,612	800,000	-0,025	-0,067
-688,597	-107,977	-0,041	-0,006
-687,583	-85,788	-0,081	-0,018
-686,568	82,745	-0,059	-0,047
-685,554	132,627	0,031	-0,029
-684,539	647,064	0,064	0,120
-683,524	5,598	0,152	0,082
-682,510	-200,000	-0,010	-0,055
-681,495	156,455	-0,097	-0,098
-680,481	800,000	-0,021	0,047
-679,466	337,353	-0,141	-0,202
-678,451	40,962	-0,038	-0,025
-677,437	-195,013	-0,029	-0,000
-676,422	-200,000	-0,011	0,091
-675,408	-48,770	-0,062	-0,022
-674,393	-200,000	0,009	-0,065
-673,378	-135,628	-0,082	0,007
-672,364	-70,039	0,097	0,027
-671,349	800,000	0,026	-0,054
-670,335	800,000	0,031	-0,090
-669,320	-200,000	-0,007	0,078
-668,305	-110,086	-0,039	-0,006
-667,291	18,780	-0,098	-0,058
-666,276	-27,958	0,056	-0,024
-665,262	627,901	-0,054	-0,101
-664,247	210,077	0,048	-0,055
-663,232	-96,987	-0,074	0,014
-662,218	-200,000	-0,028	0,130
-661,203	-200,000	-0,030	-0,111
-660,189	-34,567	0,090	0,036
-659,174	269,072	0,039	-0,051
-658,159	-61,796	-0,207	0,063
-657,145	-95,209	0,056	-0,011
-656,130	-128,151	0,174	-0,018
-655,116	-41,925	0,146	-0,055
-654,101	-64,363	0,057	-0,017
-653,086	-138,847	-0,106	0,008
-652,072	-49,393	0,063	0,022
-651,057	169,517	-0,065	0,069
-650,043	207,284	0,081	-0,093
-649,028	217,357	0,040	-0,047
-648,014	295,565	-0,026	0,035
-646,999	-200,000	0,004	0,122
-645,984	-67,291	0,125	-0,036
-644,970	-167,299	-0,058	-0,002
-643,955	593,302	-0,095	-0,173
-642,941	-159,080	0,105	-0,004
-641,926	-86,098	0,048	-0,011
-640,911	-200,000	-0,030	0,112
-639,897	92,774	0,040	-0,033
-638,882	105,546	-0,066	-0,057
-637,868	14,716	-0,020	-0,011
-636,853	38,640	0,064	0,042
-635,838	-56,346	0,068	0,022
-634,824	89,392	-0,037	0,030
-633,809	-95,402	0,097	0,019
-632,795	-200,000	-0,006	0,080
-631,780	-200,000	-0,003	0,037
-630,765	521,933	0,049	0,085
-629,751	171,592	-0,053	0,056
-628,736	-43,226	-0,064	-0,024
-627,722	-80,697	-0,026	0,006
-626,707	-173,078	-0,032	-0,001
-625,692	42,980	-0,016	0,011
-624,678	-2,282	-0,065	-0,034
-623,663	5,114	0,025	0,014
-622,649	103,431	-0,039	-0,034
-621,634	-200,000	-0,011	-0,163
-620,619	120,853	0,054	-0,049
-619,605	662,631	0,018	-0,035
-618,590	-41,822	0,101	-0,038
-617,576	-200,000	-0,010	-0,046
-616,561	-28,815	-0,111	-0,046
-615,546	144,020	-0,123	-0,120
-614,532	800,000	-0,042	-0,112
-613,517	198,944	-0,065	-0,073
-612,503	-200,000	0,010	0,073
-611,488	-200,000	-0,008	-0,078
-610,474	-95,756	0,122	-0,024
-609,459	800,000	0,033	0,082
-608,444	273,486	-0,068	-0,088
-607,430	-79,240	0,038	-0,009
-606,415	800,000	-0,002	0,006
-605,401	800,000	-0,022	-0,046
-604,386	-83,290	0,045	-0,010
-603,371	21,723	0,054	0,032
-602,357	-48,731	-0,100	0,035
-601,342	-46,032	0,135	-0,048
-600,328	243,754	-0,047	-0,058
-599,313	160,071	0,070	-0,072
-598,298	-200,000	0,011	-0,066
-597,284	388,322	0,063	0,097
-596,269	-200,000	-0,019	0,184
-595,255	40,728	-0,043	-0,028
-594,240	77,951	-0,171	-0,134
-593,225	-20,032	0,081	0,037
-592,211	146,675	-0,161	0,159
-591,196	86,675	-0,044	0,035
-590,182	247,075	-0,023	0,029
-589,167	-5,205	0,105	-0,053
-588,152	-114,244	0,064	0,009
-587,138	139,040	-0,054	0,052
-586,123	86,813	0,018	-0,015
-585,109	800,000	0,050	0,152
-584,094	-123,700	-0,074	0,008
-583,079	800,000	-0,021	0,044
-582,065	-200,000	-0,002	0,071
-581,050	-200,000	0,004	0,071
-580,036	-200,000	-0,000	0,025
-579,021	458,315	-0,022	0,036
-578,006	-78,954	-0,020	0,005
-576,992	-200,000	-0,006	-0,043
-575,977	-114,081	-0,037	0,005
-574,963	44,373	-0,072	0,049
-573,948	517,335	0,016	-0,028
-572,934	116,279	-0,087	0,078
-571,919	560,012	-0,036	0,064
-570,904	800,000	-0,020	-0,051
-569,890	-37,796	-0,061	-0,024
-568,875	-200,000	0,018	-0,123
-567,861	51,275	0,100	-0,069
-566,846	328,321	0,047	0,066
-565,831	3,694	-0,040	0,021
-564,817	-200,000	0,017	-0,084
-563,802	-100,388	-0,063	0,011
-562,788	-59,994	-0,110	-0,034
-561,773	-200,000	-0,024	-0,092
-560,758	-104,194	-0,178	0,030
-559,744	-26,633	-0,052	0,022
-558,729	371,752	0,011	-0,016
-557,715	126,227	0,094	-0,087
-556,700	800,000	-0,014	0,032
-555,685	-98,451	-0,050	-0,009
-554,671	487,798	-0,023	0,038
-553,656	-200,000	0,010	0,039
-552,642	121,010	0,085	0,077
-551,627	623,908	0,038	0,070
-550,612	-200,000	0,023	0,097
-549,598	561,702	0,025	0,044
-548,583	48,394	-0,078	-0,054
-547,569	118,847	-0,068	-0,062
-546,554	155,144	-0,062	-0,063
-545,539	606,875	0,031	0,056
-544,525	690,110	-0,050	0,096
-543,510	-200,000	-0,046	0,181
-542,496	251,490	0,026	0,032
-541,481	-200,000	-0,015	-0,067
-540,466	47,276	0,075	0,051
-539,452	-107,738	-0,082	0,013
-538,437	-200,000	-0,004	0,017
-537,423	800,000	0,020	0,043
-536,408	53,797	-0,090	-0,063
-535,393	269,513	0,076	-0,098
-534,379	-200,000	0,012	-0,053
-533,364	335,836	0,099	-0,141
-532,350	-200,000	0,004	0,034
-531,335	10,806	0,116	0,065
-530,321	-43,220	-0,105	0,039
-529,306	14,109	-0,092	-0,052
-528,291	-200,000	0,017	-0,150
-527,277	532,560	-0,030	-0,053
-526,262	-200,000	-0,006	0,044
-525,248	202,828	-0,019	0,021
-524,233	49,622	0,159	0,109
-523,218	506,041	-0,055	-0,094
-522,204	1,652	0,044	0,023
-521,189	-200,000	-0,011	0,105
-520,175	230,386	-0,068	-0,082
-519,160	800,000	-0,031	0,072
-518,145	42,115	0,066	-0,044
-517,131	800,000	-0,010	0,021
-516,116	800,000	0,011	0,032
-515,102	-200,000	0,012	0,063
-514,087	-151,753	-0,150	0,008
-513,072	-45,734	-0,091	0,033
-512,058	-148,358	0,101	0,006
-511,043	-200,000	-0,013	0,154
-510,029	29,451	0,048	0,030
-509,014	800,000	-0,030	0,061
-507,999	-200,000	-0,016	0,094
-506,985	-55,435	-0,178	-0,058
-505,970	-46,482	0,125	-0,045
-504,956	45,501	0,120	-0,081
-503,941	206,285	-0,013	0,015
-502,926	-141,342	0,078	-0,006
-501,912	288,061	0,067	0,089
-500,897	692,425	-0,034	-0,066
-499,883	65,796	0,064	0,048
-498,868	96,509	-0,145	-0,121
-497,853	-3,869	0,036	-0,018
-496,839	372,119	-0,031	-0,046
-495,824	800,000	0,027	0,066
-494,810	244,366	0,047	0,058
-493,795	-102,643	0,109	-0,019
-492,781	800,000	0,002	0,004
-491,766	-89,242	0,092	-0,020
-490,751	61,703	-0,052	-0,038
-489,737	86,876	-0,020	-0,016
-488,722	218,545	0,014	0,017
-487,708	39,382	0,050	-0,033
-486,693	40,958	-0,026	0,017
-485,678	-200,000	0,001	0,011
-484,664	118,724	-0,061	0,055
-483,649	488,280	-0,037	0,061
-482,635	-57,683	0,131	-0,042
-481,620	20,676	-0,052	0,031
-480,605	800,000	-0,022	-0,055
-479,591	98,331	-0,094	0,079
-478,576	-102,062	-0,086	-0,015
-477,562	194,633	0,061	-0,067
-476,547	-39,992	0,072	-0,027
-475,532	-48,763	-0,075	-0,026
-474,518	47,370	0,061	-0,041
-473,503	91,392	0,099	-0,081
-472,489	-101,025	-0,067	0,012
-471,474	-200,000	-0,017	0,057
-470,459	-92,916	0,153	0,031
-469,445	-38,846	-0,102	-0,039
-468,430	103,633	-0,082	-0,070
-467,416	-200,000	-0,026	0,117
-466,401	235,821	0,103	0,125
-465,386	-22,998	-0,131	-0,058
-464,372	12,432	-0,163	0,091
-463,357	-200,000	-0,008	-0,030
-462,343	-200,000	-0,033	-0,143
-461,328	800,000	0,051	-0,152
-460,313	-137,053	0,229	0,019
-459,299	800,000	-0,058	0,123
-458,284	800,000	0,018	-0,041
-457,270	485,830	-0,084	-0,139
-456,255	329,669	-0,062	0,087
-455,241	-200,000	0,028	0,124
-454,226	-105,025	-0,081	-0,013
-453,211	-200,000	0,002	-0,028
-452,197	75,979	0,117	0,090
-451,182	-125,749	0,074	-0,008
-450,168	-200,000	-0,005	0,050
-449,153	274,252	0,044	-0,057
-448,138	273,135	-0,034	0,044
-447,124	-21,349	0,018	-0,008
-446,109	212,615	-0,029	-0,033
-445,095	-200,000	-0,002	0,033
-444,080	800,000	0,011	-0,035
-443,065	-118,993	0,083	-0,010
-442,051	-200,000	-0,013	0,148
-441,036	800,000	0,018	0,046
-440,022	-200,000	-0,014	-0,160
-439,007	334,646	0,051	-0,073
-437,992	64,630	0,071	-0,052
-436,978	400,001	-0,063	0,096
-435,963	800,000	-0,029	0,075
-434,949	-200,000	-0,003	0,071
-433,934	-9,906	-0,117	0,056
-432,919	800,000	0,028	-0,077
-431,905	800,000	-0,040	-0,089
-430,890	-200,000	0,007	0,078
-429,876	243,461	-0,070	0,085
-428,861	-150,587	0,086	0,005
-427,846	800,000	-0,030	-0,069
-426,832	-76,234	-0,110	-0,028
-425,817	-146,617	0,082	-0,005
-424,803	52,526	0,123	-0,085
-423,788	-80,960	-0,133	-0,032
-422,773	-95,729	0,121	-0,023
-421,759	394,713	0,007	-0,011
-420,744	800,000	0,020	0,051
-419,730	-8,822	0,028	0,013
-418,715	231,188	-0,097	-0,116
-417,701	-200,000	0,021	-0,130
-416,686	-43,449	-0,118	-0,043
-415,671	-10,658	0,075	0,036
-414,657	800,000	-0,042	0,091
-413,642	156,155	-0,035	0,035
-412,628	-200,000	-0,007	-0,157
-411,613	-15,797	-0,092	0,043
-410,598	128,682	-0,058	0,054
-409,584	-200,000	0,007	0,073
-408,569	-200,000	0,015	0,081
-407,555	18,295	0,035	0,020
-406,540	762,119	-0,022	0,043
-405,525	-200,000	-0,004	-0,071
-404,511	112,813	-0,037	-0,033
-403,496	800,000	0,057	-0,168
-402,482	-39,672	-0,118	0,045
-401,467	60,711	0,055	-0,039
-400,452	-65,027	0,079	-0,023
-399,438	276,381	0,048	-0,062
-398,423	-200,000	-0,049	-0,161
-397,409	-76,355	0,051	-0,013
-396,394	-200,000	0,015	-0,047
-395,379	12,780	0,015	-0,008
-394,365	800,000	0,053	-0,111
-393,350	478,865	0,076	0,126
-392,336	147,451	-0,048	0,047
-391,321	80,693	-0,083	0,065
-390,306	4,551	-0,075	0,040
-389,292	315,072	-0,144	-0,197
-388,277	-188,519	-0,006	0,000
-387,263	-28,508	0,061	0,025
-386,248	-117,666	0,038	-0,005
-385,233	28,972	0,042	-0,026
-384,219	-200,000	0,012	-0,039
-383,204	62,627	-0,074	0,054
-382,190	-97,226	-0,056	0,011
-381,175	105,312	-0,042	-0,036
-380,160	-13,688	-0,044	-0,020
-379,146	320,651	0,026	0,036
-378,131	-200,000	0,006	0,139
-377,117	-139,146	-0,058	-0,004
-376,102	-54,318	-0,073	0,024
-375,088	291,043	0,028	-0,037
-374,073	314,019	-0,010	-0,013
-373,058	800,000	0,019	0,051
-372,044	-68,351	0,042	-0,012
-371,029	-200,000	0,002	0,113
-370,015	-200,000	-0,008	0,030
-369,000	117,982	-0,084	0,075
-367,985	800,000	0,035	-0,084
-366,971	800,000	0,031	0,085
-365,956	54,362	0,067	0,047
-364,942	-13,823	0,086	-0,040
-363,927	550,791	-0,040	0,070
-362,912	271,441	0,043	0,055
-361,898	800,000	0,022	0,045
-360,883	-113,564	-0,076	-0,011
-359,869	-200,000	0,025	-0,170
-358,854	110,886	-0,029	0,025
-357,839	-200,000	0,018	0,061
-356,825	-200,000	-0,005	0,089
-355,810	-49,894	-0,142	-0,049
-354,796	737,787	-0,052	-0,101
-353,781	431,520	0,016	0,026
-352,766	12,207	-0,032	-0,018
-351,752	98,397	0,038	-0,032
-350,737	211,284	0,039	-0,044
-349,723	321,716	0,041	0,057
-348,708	57,149	0,008	-0,006
-347,693	-178,528	0,109	-0,002
-346,679	-200,000	-0,022	-0,180
-345,664	359,872	0,031	-0,045
-344,650	39,038	-0,177	-0,115
-343,635	-14,141	0,065	-0,031
-342,620	109,975	0,083	0,073
-341,606	-200,000	-0,012	-0,125
-340,591	173,945	0,067	0,070
-339,577	113,038	-0,057	-0,050
-338,562	-200,000	-0,011	-0,092
-337,548	84,553	-0,035	0,028
-336,533	297,157	0,023	-0,031
-335,518	297,052	0,040	-0,053
-334,504	-57,346	0,072	0,023
-333,489	-200,000	-0,005	0,019
-332,475	438,415	-0,009	-0,014
-331,460	-64,667	-0,041	0,012
-330,445	-43,960	0,117	0,042
-329,431	389,021	0,073	0,109
-328,416	60,784	0,087	0,063
-327,402	-97,717	0,131	0,024
-326,387	-36,361	0,118	-0,046
-325,372	-200,000	-0,009	-0,077
-324,358	-200,000	0,014	-0,053
-323,343	86,927	-0,094	0,075
-322,329	51,020	-0,058	-0,040
-321,314	-159,663	0,180	0,007
-320,299	-200,000	-0,002	0,050
-319,285	-200,000	0,025	-0,092
-318,270	-41,834	0,049	-0,018
-317,256	17,557	-0,085	0,049
-316,241	632,931	0,009	0,016
-315,226	800,000	0,051	0,113
-314,212	-200,000	0,019	-0,116
-313,197	167,770	0,064	-0,066
-312,183	232,260	-0,060	0,071
-311,168	-200,000	0,015	-0,103
-310,153	281,394	0,056	-0,073
-309,139	243,092	0,015	-0,018
-308,124	-107,034	0,102	-0,016
-307,110	324,639	-0,080	-0,110
-306,095	-200,000	0,007	-0,063
-305,080	65,322	-0,078	-0,057
-304,066	800,000	0,033	-0,099
-303,051	-69,051	0,052	0,014
-302,037	-200,000	0,031	-0,111
-301,022	-84,179	-0,042	-0,010
-300,008	14,831	-0,037	-0,021
-298,993	800,000	-0,020	-0,049
-297,978	104,741	-0,079	-0,067
-296,964	208,745	0,062	-0,070
-295,949	-119,481	0,165	-0,020
-294,935	-128,357	-0,085	0,009
-293,920	-98,516	0,063	0,012
-292,905	40,203	-0,106	-0,069
-291,891	-200,000	0,023	0,129
-290,876	162,548	-0,064	0,065
-289,862	-47,808	0,123	0,043
-288,847	20,030	-0,076	0,044
-287,832	-35,196	-0,094	-0,037
-286,818	316,337	-0,023	0,031
-285,803	4,580	0,175	0,092
-284,789	-40,863	0,053	0,020
-283,774	128,743	0,056	0,051
-282,759	-39,937	-0,055	-0,021
-281,745	-194,113	0,046	-0,000
-280,730	-72,388	-0,051	0,014
-279,716	-200,000	-0,009	0,054
-278,701	-70,994	0,037	-0,010
-277,686	152,850	-0,051	-0,051
-276,672	-125,991	0,170	-0,018
-275,657	-200,000	-0,005	0,026
-274,643	224,478	-0,053	-0,063
-273,628	-51,350	-0,079	-0,027
-272,613	762,424	0,012	0,023
-271,599	166,356	-0,055	-0,056
-270,584	-200,000	-0,046	0,228
-269,570	96,483	0,049	-0,041
-268,555	374,191	-0,015	-0,022
-267,540	155,652	0,025	-0,025
-266,526	647,261	0,016	0,029
-265,511	-5,760	-0,136	-0,067
-264,497	-200,000	0,006	0,120
-263,482	18,028	0,072	0,042
-262,467	80,083	0,025	0,020
-261,453	-200,000	0,007	0,039
-260,438	800,000	0,054	-0,166
-259,424	800,000	0,054	-0,119
-258,409	203,936	-0,077	-0,087
-257,395	-54,664	-0,016	-0,005
-256,380	9,365	0,091	-0,050
-255,365	-127,020	-0,047	0,005
-254,351	365,278	-0,062	0,090
-253,336	-200,000	0,007	0,070
-252,322	676,222	-0,056	0,106
-251,307	-141,344	-0,069	0,005
-250,292	-200,000	-0,014	0,063
-249,278	-200,000	-0,004	-0,042
-248,263	661,544	0,087	0,162
-247,249	65,304	-0,039	-0,029
-246,234	800,000	0,028	0,071
-245,219	5,733	-0,098	-0,052
-244,205	-200,000	0,008	-0,090
-243,190	-200,000	-0,002	-0,127
-242,176	113,093	-0,049	0,043
-241,161	652,395	0,070	0,130
-240,146	-200,000	-0,006	0,142
-239,132	-82,669	-0,050	0,012
-238,117	-99,342	-0,055	-0,010
-237,103	217,667	-0,093	-0,107
-236,088	303,289	-0,009	-0,012
-235,073	-200,000	-0,004	0,167
-234,059	633,046	0,036	-0,067
-233,044	70,997	0,018	-0,013
-232,030	800,000	0,072	0,203
-231,015	-98,079	0,123	0,023
-230,000	800,000	0,007	-0,015
-228,986	69,738	-0,073	0,054
-227,971	-200,000	0,002	-0,062
-226,957	-95,287	0,192	0,037
-225,942	368,242	-0,096	0,141
-224,927	217,878	0,046	-0,053
-223,913	159,165	0,016	0,016
-222,898	-200,000	-0,032	0,127
-221,884	-200,000	0,005	-0,100
-220,869	800,000	0,066	0,167
-219,855	-39,580	0,074	-0,028
-218,840	291,022	0,073	-0,096
-217,825	-200,000	-0,004	0,036
-216,811	800,000	-0,061	-0,185
-215,796	17,955	-0,113	-0,065
-214,782	27,043	0,020	-0,012
-213,767	195,228	0,085	-0,094
-212,752	-200,000	-0,013	-0,046
-211,738	-200,000	0,021	0,102
-210,723	120,678	0,061	0,054
-209,709	122,501	-0,156	-0,140
-208,694	126,632	0,068	-0,062
-207,679	-200,000	-0,029	-0,173
-206,665	-78,063	0,066	0,016
-205,650	94,320	0,081	-0,066
-204,636	-200,000	-0,032	0,141
-203,621	-200,000	-0,010	-0,053
-202,606	540,756	0,056	0,096
-201,592	-63,947	-0,145	0,043
-200,577	-200,000	0,009	-0,080
-199,563	156,412	0,119	0,118
-198,548	800,000	0,011	0,033
-197,533	351,510	0,081	0,116
-196,519	-144,598	0,108	-0,007
-195,504	-126,465	-0,079	-0,008
-194,490	-80,153	-0,032	0,008
-193,475	95,273	-0,104	-0,086
-192,460	79,797	0,073	0,056
-191,446	-200,000	0,014	-0,048
-190,431	800,000	0,034	0,094
-189,417	84,484	-0,108	0,085
-188,402	-200,000	0,002	0,023
-187,387	230,125	-0,055	0,065
-186,373	148,152	-0,060	0,059
-185,358	-200,000	0,029	0,143
-184,344	-82,260	0,043	0,010
-183,329	267,882	0,062	0,078
-182,315	298,396	-0,109	0,145
-181,300	352,663	-0,019	-0,027
-180,285	-24,580	0,082	-0,035
-179,271	98,680	-0,066	-0,055
-178,256	771,206	0,002	-0,005
-177,242	-13,744	0,073	-0,034
-176,227	-12,595	0,135	0,063
-175,212	328,182	0,084	0,116
-174,198	-27,155	0,023	-0,009
-173,183	-113,385	-0,030	-0,004
-172,169	-110,243	-0,142	-0,021
-171,154	-200,000	-0,026	-0,156
-170,139	-200,000	0,010	0,099
-169,125	571,644	0,001	-0,002
-168,110	-55,084	0,183	0,059
-167,096	-105,153	-0,098	0,016
-166,081	-140,901	-0,152	-0,011
-165,066	-27,139	-0,066	-0,027
-164,052	602,987	-0,073	-0,131
-163,037	179,446	0,084	0,089
-162,023	-200,000	-0,028	-0,112
-161,008	257,414	0,124	-0,153
-159,993	-88,999	-0,162	0,034
-158,979	800,000	0,011	0,024
-157,964	800,000	-0,017	-0,052
-156,950	-129,742	0,037	0,004
-155,935	-200,000	0,026	0,090
-154,920	-200,000	0,019	0,139
-153,906	393,810	0,082	-0,123
-152,891	788,370	-0,055	-0,110
-151,877	-16,951	-0,082	0,037
-150,862	-200,000	-0,019	-0,093
-149,847	-96,211	-0,103	-0,019
-148,833	29,079	-0,049	-0,030
-147,818	256,505	-0,043	0,053
-146,804	-200,000	-0,018	-0,062
-145,789	88,910	-0,177	0,142
-144,775	-45,081	-0,074	-0,026
-143,760	286,506	-0,031	-0,040
-142,745	-200,000	0,004	-0,071
-141,731	-200,000	0,009	0,116
-140,716	-47,823	-0,045	0,016
-139,702	800,000	-0,037	0,106
-138,687	-56,124	-0,064	-0,020
-137,672	-154,515	-0,067	-0,003
-136,658	800,000	-0,048	-0,129
-135,643	609,223	0,020	-0,036
-134,629	-200,000	-0,007	-0,067
-133,614	800,000	-0,042	-0,092
-132,599	-116,735	0,205	-0,027
-131,585	87,960	0,054	0,043
-130,570	-145,118	0,066	0,004
-129,556	0,009	-0,121	-0,062
-128,541	640,547	-0,050	0,091
-127,526	253,334	-0,064	-0,079
-126,512	-175,058	0,146	0,003
-125,497	-136,568	0,074	-0,006
-124,483	-148,264	-0,021	0,001
-123,468	-200,000	-0,031	0,126
-122,453	170,037	-0,076	-0,078
-121,439	613,970	-0,052	-0,094
-120,424	146,072	0,083	0,080
-119,410	-200,000	-0,019	-0,110
