DTS Sentinel unit serial number:	SN410029Multiplexer serial number:	ORYXHardware model number:	OX2-SRSoftware version number:	ORYX F/W v4,00 Oryx Data Collector v3.7.2.0data status	okinstallation	B5 Nyhavnadifferential loss correction	single-endedforward channel	channel 2reverse channel	N/Adate	2023/12/12time	17:47:13forward acquisition time	300,00reverse acquisition time	0,00gamma	499,1914k internal	0,3157k external	0,3157temperature offset calibration	1,0000default loss term (dB/km)	0,3820temperature slope calibration	1,0000multiplexer offset coefficient	1,0000multiplexer slope coefficient	1,0000fibre end	0,00T internal ref (°C)	15,68T ext. ref 1 (°C)	-0,80T ext. ref 2 (°C)	-1,11length (m)	temperature (°C)	Stokes	anti-Stokes-744,400	111,315	0,068	-0,060
-743,385	-67,816	-0,408	-0,117
-742,371	-200,000	0,003	0,039
-741,356	-53,539	-0,322	0,108
-740,342	800,000	0,063	-0,141
-739,327	-9,316	-0,169	0,083
-738,312	800,000	0,042	0,091
-737,298	-42,256	-0,277	-0,104
-736,283	-189,175	0,127	0,001
-735,269	-137,940	-0,334	0,027
-734,254	-132,687	0,067	0,006
-733,239	-81,798	-0,400	-0,096
-732,225	-19,662	0,077	-0,035
-731,210	-200,000	0,023	0,089
-730,196	529,328	-0,046	-0,081
-729,181	-200,000	-0,010	-0,072
-728,167	153,096	-0,084	0,085
-727,152	176,172	0,034	0,036
-726,137	-77,701	-0,061	-0,015
-725,123	-124,999	0,046	-0,005
-724,108	53,312	-0,076	0,053
-723,094	-41,361	-0,163	-0,061
-722,079	-157,635	0,107	-0,005
-721,064	250,564	-0,032	-0,040
-720,050	-200,000	-0,016	-0,111
-719,035	-87,208	-0,032	0,007
-718,021	47,327	-0,025	-0,017
-717,006	33,150	-0,067	-0,043
-715,991	317,944	0,053	-0,074
-714,977	-136,942	-0,155	0,013
-713,962	210,376	0,018	-0,021
-712,948	-200,000	0,000	-0,083
-711,933	800,000	-0,025	-0,066
-710,918	207,645	0,058	-0,067
-709,904	12,168	-0,133	-0,075
-708,889	90,862	-0,074	-0,061
-707,875	-66,814	-0,106	0,031
-706,860	389,451	0,035	0,053
-705,845	84,258	-0,027	0,022
-704,831	223,969	0,016	0,020
-703,816	88,691	0,163	0,133
-702,802	425,876	-0,060	-0,096
-701,787	-24,163	-0,171	-0,075
-700,772	296,054	0,011	0,015
-699,758	-105,184	0,064	0,011
-698,743	-200,000	-0,022	-0,074
-697,729	800,000	0,012	-0,032
-696,714	94,284	0,106	-0,088
-695,699	-25,994	-0,061	-0,026
-694,685	157,801	-0,097	0,099
-693,670	-118,106	-0,052	0,007
-692,656	408,721	0,035	-0,054
-691,641	-200,000	0,004	-0,195
-690,627	441,873	-0,039	-0,063
-689,612	-0,676	0,025	0,013
-688,597	111,283	0,092	0,082
-687,583	-61,962	-0,078	0,024
-686,568	-200,000	0,001	-0,084
-685,554	82,251	-0,030	-0,024
-684,539	35,978	-0,051	-0,033
-683,524	-200,000	0,008	-0,131
-682,510	431,764	-0,067	-0,107
-681,495	69,258	-0,048	0,037
-680,481	-200,000	0,010	-0,089
-679,466	313,794	-0,024	-0,034
-678,451	74,203	-0,103	-0,079
-677,437	-200,000	-0,001	0,025
-676,422	58,999	-0,091	-0,066
-675,408	396,592	0,053	-0,082
-674,393	-28,260	-0,089	0,038
-673,378	161,195	-0,052	0,053
-672,364	589,882	-0,010	-0,018
-671,349	182,991	-0,061	-0,066
-670,335	800,000	-0,062	0,136
-669,320	79,932	0,064	0,050
-668,305	-119,416	-0,035	-0,004
-667,291	800,000	-0,047	-0,109
-666,276	-200,000	-0,016	0,059
-665,262	800,000	-0,040	-0,121
-664,247	800,000	0,014	-0,030
-663,232	-200,000	0,018	-0,158
-662,218	800,000	0,046	-0,094
-661,203	-133,727	-0,084	0,008
-660,189	-8,115	-0,075	-0,037
-659,174	-200,000	0,007	0,022
-658,159	134,862	0,063	-0,060
-657,145	-200,000	-0,006	-0,090
-656,130	-142,469	0,159	0,011
-655,116	78,390	0,121	0,095
-654,101	800,000	0,012	0,026
-653,086	431,511	-0,038	0,061
-652,072	601,892	-0,057	-0,104
-651,057	-53,171	-0,050	0,017
-650,043	-165,034	-0,139	-0,004
-649,028	-80,678	-0,141	-0,034
-648,014	35,278	0,117	0,075
-646,999	416,273	0,058	-0,090
-645,984	3,135	0,113	0,060
-644,970	126,544	-0,076	-0,071
-643,955	-200,000	-0,019	-0,157
-642,941	144,045	-0,028	0,027
-641,926	129,573	0,054	-0,051
-640,911	-67,796	-0,080	-0,023
-639,897	-200,000	0,003	0,072
-638,882	650,115	-0,030	0,057
-637,868	54,591	-0,056	-0,040
-636,853	235,723	-0,051	0,062
-635,838	-145,525	-0,083	0,005
-634,824	-109,961	-0,152	-0,023
-633,809	-200,000	-0,008	-0,032
-632,795	800,000	-0,004	-0,010
-631,780	35,181	0,043	0,027
-630,765	-88,181	0,052	-0,011
-629,751	800,000	0,021	-0,044
-628,736	321,227	-0,055	-0,076
-627,722	-22,277	0,091	-0,041
-626,707	-73,689	0,062	0,016
-625,692	-13,269	0,039	0,018
-624,678	-153,470	0,067	0,003
-623,663	-200,000	0,031	-0,102
-622,649	202,256	-0,047	-0,054
-621,634	-200,000	-0,017	0,069
-620,619	-54,566	0,056	0,018
-619,605	-200,000	-0,000	-0,006
-618,590	-39,935	0,085	-0,033
-617,576	133,777	-0,086	0,082
-616,561	-200,000	-0,031	-0,139
-615,546	-56,082	-0,038	0,013
-614,532	-200,000	-0,004	-0,093
-613,517	275,021	0,043	0,056
-612,503	-200,000	0,018	0,090
-611,488	-200,000	-0,010	-0,041
-610,474	-117,034	0,051	-0,007
-609,459	-200,000	0,016	-0,065
-608,444	113,846	-0,064	-0,057
-607,430	129,687	-0,064	0,060
-606,415	-144,426	0,019	-0,001
-605,401	266,653	0,079	0,101
-604,386	-15,826	0,008	-0,004
-603,371	1,543	-0,050	0,026
-602,357	2,583	0,076	-0,040
-601,342	75,367	-0,066	-0,051
-600,328	1,135	-0,109	0,057
-599,313	-50,660	-0,029	0,010
-598,298	-28,600	-0,041	-0,017
-597,284	-128,881	0,120	0,012
-596,269	608,530	-0,070	0,129
-595,255	227,126	-0,044	0,053
-594,240	-200,000	0,004	0,015
-593,225	420,912	-0,050	0,078
-592,211	7,142	0,105	0,057
-591,196	244,480	0,122	-0,150
-590,182	151,485	-0,012	0,012
-589,167	-49,858	0,056	0,019
-588,152	800,000	-0,061	0,152
-587,138	-200,000	0,004	0,037
-586,123	800,000	-0,013	-0,034
-585,109	126,806	-0,166	-0,154
-584,094	-138,725	-0,133	0,010
-583,079	329,043	-0,061	0,087
-582,065	303,311	-0,064	0,087
-581,050	-200,000	0,028	-0,097
-580,036	147,763	0,119	-0,117
-579,021	-200,000	0,018	-0,117
-578,006	-200,000	0,021	-0,199
-576,992	304,754	-0,053	-0,073
-575,977	-60,002	0,177	-0,055
-574,963	-153,245	0,105	0,005
-573,948	-171,846	0,125	0,003
-572,934	-80,753	0,035	-0,008
-571,919	-125,374	-0,113	-0,012
-570,904	-159,743	0,092	0,004
-569,890	391,861	0,092	-0,140
-568,875	800,000	0,048	-0,118
-567,861	800,000	-0,053	0,112
-566,846	297,404	0,058	0,078
-565,831	24,988	-0,048	-0,029
-564,817	384,783	-0,089	-0,135
-563,802	215,899	-0,020	0,024
-562,788	280,101	-0,109	-0,143
-561,773	-200,000	-0,005	0,097
-560,758	-200,000	-0,011	0,149
-559,744	-200,000	0,014	0,119
-558,729	-0,187	0,115	0,060
-557,715	167,347	-0,068	-0,071
-556,700	-74,478	0,039	0,010
-555,685	483,208	-0,030	-0,051
-554,671	-143,173	-0,122	-0,008
-553,656	56,946	0,012	-0,009
-552,642	-200,000	-0,018	0,120
-551,627	34,902	-0,037	-0,024
-550,612	800,000	-0,036	-0,111
-549,598	-200,000	-0,008	0,091
-548,583	800,000	0,039	-0,111
-547,569	69,513	0,061	0,046
-546,554	40,602	0,021	0,014
-545,539	-132,296	0,124	-0,012
-544,525	317,292	0,055	-0,076
-543,510	-79,852	-0,117	-0,029
-542,496	-169,791	-0,175	0,005
-541,481	210,636	0,063	0,072
-540,466	297,308	0,014	-0,019
-539,452	21,274	0,026	0,015
-538,437	73,392	-0,101	0,078
-537,423	68,394	0,092	0,069
-536,408	-200,000	0,002	-0,018
-535,393	213,103	0,090	-0,104
-534,379	-200,000	-0,014	0,078
-533,364	52,773	0,041	0,029
-532,350	181,386	0,062	0,067
-531,335	-49,927	0,025	0,009
-530,321	-200,000	0,026	-0,133
-529,306	-200,000	0,023	-0,079
-528,291	432,673	-0,103	0,164
-527,277	-23,471	0,120	-0,052
-526,262	-6,712	-0,049	0,024
-525,248	248,604	0,026	0,032
-524,233	604,002	-0,010	0,018
-523,218	270,174	0,020	-0,025
-522,204	228,700	0,045	-0,054
-521,189	4,172	-0,090	-0,048
-520,175	-108,661	0,025	0,004
-519,160	-200,000	0,014	-0,045
-518,145	254,120	-0,027	0,034
-517,131	180,270	-0,075	0,080
-516,116	201,246	0,065	0,073
-515,102	-82,612	-0,124	0,029
-514,087	543,192	0,047	-0,082
-513,072	4,259	0,056	-0,030
-512,058	364,381	-0,108	-0,160
-511,043	235,484	-0,110	-0,133
-510,029	-17,049	0,108	0,050
-509,014	-78,749	-0,118	0,029
-507,999	-141,295	-0,024	-0,002
-506,985	-200,000	0,025	0,195
-505,970	-200,000	0,015	-0,090
-504,956	-3,306	-0,051	-0,026
-503,941	6,844	-0,031	0,017
-502,926	18,541	-0,034	0,020
-501,912	-102,639	0,077	-0,013
-500,897	20,939	-0,059	-0,035
-499,883	-200,000	0,035	-0,143
-498,868	432,978	-0,059	0,094
-497,853	800,000	0,043	0,100
-496,839	-51,513	-0,036	-0,012
-495,824	161,059	0,076	0,078
-494,810	57,720	0,053	-0,038
-493,795	-200,000	-0,012	0,066
-492,781	800,000	-0,083	0,187
-491,766	13,308	0,051	-0,029
-490,751	54,530	-0,125	-0,088
-489,737	-42,220	0,093	-0,035
-488,722	-141,283	0,155	-0,011
-487,708	436,688	0,020	-0,032
-486,693	800,000	-0,058	0,120
-485,678	237,018	-0,018	0,022
-484,664	55,125	-0,055	-0,039
-483,649	532,293	0,026	0,045
-482,635	457,392	0,112	-0,182
-481,620	800,000	0,081	0,164
-480,605	800,000	-0,047	0,134
-479,591	73,053	0,094	0,072
-478,576	189,517	-0,076	0,083
-477,562	800,000	0,024	-0,075
-476,547	379,462	-0,053	-0,079
-475,532	451,140	0,009	0,014
-474,518	-119,667	0,182	-0,023
-473,503	77,997	-0,023	0,018
-472,489	769,226	-0,083	0,167
-471,474	18,754	0,074	0,043
-470,459	-200,000	0,002	-0,059
-469,445	-59,787	-0,033	0,010
-468,430	190,807	-0,028	0,031
-467,416	8,656	0,090	-0,049
-466,401	-50,559	0,141	-0,048
-465,386	-81,077	-0,044	0,011
-464,372	800,000	-0,058	-0,124
-463,357	-41,127	0,078	-0,029
-462,343	8,453	-0,026	0,014
-461,328	200,460	-0,083	-0,093
-460,313	202,255	0,081	0,091
-459,299	-35,271	0,090	0,036
-458,284	102,841	0,080	0,068
-457,270	-11,590	-0,043	0,020
-456,255	482,386	-0,045	-0,075
-455,241	-42,451	0,007	0,002
-454,226	103,346	-0,092	-0,079
-453,211	153,664	-0,048	-0,048
-452,197	-130,886	0,233	0,022
-451,182	800,000	0,006	0,019
-450,168	402,564	-0,038	0,059
-449,153	-200,000	0,003	0,034
-448,138	800,000	-0,023	-0,058
-447,124	-16,921	-0,130	-0,059
-446,109	-90,258	0,054	-0,011
-445,095	504,890	0,039	0,067
-444,080	-100,617	0,085	-0,015
-443,065	230,410	0,029	0,035
-442,051	662,237	-0,028	0,053
-441,036	-110,035	-0,105	-0,016
-440,022	-108,428	-0,122	-0,019
-439,007	611,140	0,030	0,055
-437,992	-200,000	0,013	-0,138
-436,978	-174,904	0,193	0,004
-435,963	-150,981	0,160	0,009
-434,949	-200,000	-0,007	0,083
-433,934	-51,613	-0,053	-0,018
-432,919	-87,625	0,118	-0,026
-431,905	115,634	-0,113	0,101
-430,890	149,409	-0,085	-0,084
-429,876	408,951	-0,063	0,097
-428,861	24,261	0,067	-0,040
-427,846	135,762	-0,040	0,038
-426,832	-200,000	-0,014	-0,055
-425,817	-200,000	-0,029	-0,130
-424,803	60,721	0,033	-0,024
-423,788	581,561	0,041	-0,074
-422,773	-45,517	0,116	0,041
-421,759	179,851	-0,043	0,045
-420,744	-114,039	-0,018	0,002
-419,730	-49,285	0,082	0,028
-418,715	-200,000	-0,005	-0,134
-417,701	800,000	0,049	-0,123
-416,686	168,543	0,034	0,036
-415,671	-21,989	0,081	0,036
-414,657	357,574	-0,078	0,114
-413,642	313,096	0,087	0,120
-412,628	-2,352	-0,013	-0,006
-411,613	-122,898	-0,015	0,002
-410,598	57,606	0,090	-0,064
-409,584	-200,000	0,015	0,076
-408,569	800,000	-0,030	0,094
-407,555	-200,000	-0,029	-0,106
-406,540	800,000	-0,028	0,066
-405,525	-200,000	-0,002	0,119
-404,511	-60,113	-0,071	-0,022
-403,496	-101,712	0,105	-0,018
-402,482	-200,000	-0,009	-0,137
-401,467	53,493	0,043	-0,030
-400,452	135,238	0,090	0,085
-399,438	-200,000	-0,001	0,013
-398,423	337,102	0,041	-0,058
-397,409	54,340	-0,120	0,084
-396,394	-135,480	-0,062	-0,005
-395,379	-45,931	-0,094	-0,034
-394,365	800,000	0,015	0,044
-393,350	-44,744	0,200	0,072
-392,336	49,609	-0,122	-0,084
-391,321	-200,000	0,036	-0,180
-390,306	-147,973	0,097	-0,006
-389,292	35,981	-0,017	0,011
-388,277	-6,816	-0,015	-0,007
-387,263	-73,998	-0,041	0,011
-386,248	-32,166	0,135	0,055
-385,233	-45,605	0,105	-0,038
-384,219	-159,436	-0,084	0,003
-383,204	-52,687	-0,117	-0,039
-382,190	-200,000	0,013	-0,151
-381,175	-200,000	-0,056	0,217
-380,160	677,529	0,019	0,035
-379,146	30,291	0,052	0,033
-378,131	-60,513	0,181	0,056
-377,117	489,999	0,028	0,047
-376,102	-53,674	-0,098	-0,032
-375,088	-9,269	-0,058	-0,028
-374,073	-27,888	0,077	-0,032
-373,058	-200,000	-0,001	0,014
-372,044	-91,288	0,133	0,028
-371,029	191,469	-0,101	-0,111
-370,015	800,000	0,023	-0,051
-369,000	-119,226	0,107	0,013
-367,985	800,000	0,014	0,030
-366,971	-200,000	-0,011	0,167
-365,956	128,189	0,017	0,016
-364,942	592,309	0,043	0,077
-363,927	800,000	0,076	0,237
-362,912	176,550	-0,066	0,070
-361,898	-200,000	-0,025	0,123
-360,883	121,185	-0,061	-0,055
-359,869	-200,000	-0,007	0,029
-358,854	43,214	0,045	0,030
-357,839	-200,000	0,026	0,113
-356,825	-57,664	0,059	0,019
-355,810	239,467	-0,114	0,138
-354,796	800,000	0,024	0,055
-353,781	800,000	-0,038	-0,097
-352,766	-151,271	0,142	0,008
-351,752	104,463	-0,019	-0,017
-350,737	43,369	-0,044	-0,029
-349,723	-82,494	-0,074	0,017
-348,708	-119,739	-0,081	0,010
-347,693	-115,716	-0,200	0,027
-346,679	-100,544	-0,126	-0,022
-345,664	-97,452	-0,159	-0,030
-344,650	100,264	-0,038	-0,032
-343,635	307,790	-0,025	0,034
-342,620	217,276	0,031	-0,036
-341,606	271,778	0,033	0,043
-340,591	88,335	0,117	-0,094
-339,577	-85,715	-0,062	0,014
-338,562	89,181	0,158	-0,127
-337,548	800,000	-0,030	-0,084
-336,533	65,442	0,074	0,054
-335,518	800,000	-0,005	0,014
-334,504	-200,000	0,005	-0,019
-333,489	-14,978	0,046	0,021
-332,475	-200,000	0,010	-0,105
-331,460	-200,000	0,004	-0,030
-330,445	85,325	0,030	-0,024
-329,431	-200,000	0,022	-0,083
-328,416	-71,300	-0,067	-0,018
-327,402	327,188	0,018	-0,025
-326,387	37,448	0,071	0,046
-325,372	-83,465	-0,118	0,027
-324,358	186,671	0,064	-0,069
-323,343	590,369	-0,064	-0,114
-322,329	-173,738	-0,025	-0,001
-321,314	-200,000	0,004	0,093
-320,299	-200,000	0,047	0,184
-319,285	-120,446	-0,171	0,021
-318,270	800,000	0,027	-0,082
-317,256	-145,358	-0,084	-0,005
-316,241	-200,000	0,009	-0,050
-315,226	265,716	-0,050	-0,063
-314,212	800,000	-0,048	0,154
-313,197	305,249	-0,029	-0,039
-312,183	145,739	-0,133	-0,130
-311,168	-200,000	-0,005	0,101
-310,153	800,000	0,090	-0,184
-309,139	326,455	-0,081	-0,113
-308,124	-81,026	0,089	-0,021
-307,110	-200,000	0,028	0,104
-306,095	-200,000	-0,012	0,047
-305,080	115,369	0,085	-0,076
-304,066	-101,505	-0,058	-0,010
-303,051	-95,737	0,047	-0,009
-302,037	784,939	-0,040	0,080
-301,022	-200,000	-0,024	-0,101
-300,008	45,395	0,044	0,029
-298,993	-35,206	0,139	0,055
-297,978	190,574	0,088	-0,096
-296,964	320,599	0,042	-0,058
-295,949	-22,338	-0,108	-0,047
-294,935	-200,000	-0,023	-0,088
-293,920	48,174	0,123	-0,083
-292,905	162,160	-0,029	0,030
-291,891	563,822	-0,081	0,143
-290,876	220,076	0,035	0,040
-289,862	-74,259	-0,073	0,019
-288,847	800,000	0,007	-0,014
-287,832	-200,000	-0,022	-0,117
-286,818	-74,188	0,017	0,005
-285,803	206,559	0,023	-0,025
-284,789	109,061	0,122	0,106
-283,774	-11,236	0,042	0,020
-282,759	201,421	0,063	0,070
-281,745	220,387	0,090	-0,105
-280,730	403,160	0,014	-0,022
-279,716	-200,000	0,006	-0,055
-278,701	56,568	-0,014	-0,010
-277,686	-200,000	0,006	0,084
-276,672	800,000	-0,032	-0,077
-275,657	-200,000	-0,016	-0,102
-274,643	75,645	-0,074	-0,056
-273,628	-200,000	0,009	-0,096
-272,613	800,000	0,038	0,084
-271,599	96,068	0,115	0,095
-270,584	-200,000	-0,000	0,047
-269,570	-24,761	-0,025	0,011
-268,555	-48,699	-0,128	-0,044
-267,540	800,000	-0,001	-0,004
-266,526	-200,000	-0,008	0,140
-265,511	-13,445	0,151	0,071
-264,497	-114,530	0,048	-0,007
-263,482	209,008	0,044	-0,050
-262,467	89,302	-0,048	0,038
-261,453	800,000	-0,081	-0,256
-260,438	-40,026	0,054	-0,020
-259,424	-4,869	-0,057	-0,029
-258,409	-126,455	-0,186	0,020
-257,395	141,838	0,093	-0,089
-256,380	509,804	0,046	0,078
-255,365	800,000	-0,046	0,142
-254,351	199,634	-0,079	0,088
-253,336	32,219	-0,121	-0,075
-252,322	219,810	0,050	0,058
-251,307	184,900	0,051	-0,055
-250,292	-200,000	-0,004	-0,084
-249,278	800,000	0,021	0,065
-248,263	565,945	-0,010	-0,017
-247,249	-58,340	0,148	0,046
-246,234	11,839	0,066	-0,036
-245,219	-141,945	-0,055	-0,004
-244,205	-45,592	-0,048	0,017
-243,190	-64,775	-0,032	-0,009
-242,176	189,105	0,028	0,031
-241,161	312,979	0,116	0,158
-240,146	530,811	-0,058	0,100
-239,132	-75,918	0,174	0,044
-238,117	309,190	-0,062	0,084
-237,103	52,841	0,076	-0,053
-236,088	-8,231	-0,018	-0,009
-235,073	-84,045	-0,053	-0,012
-234,059	-108,302	-0,097	0,015
-233,044	-44,120	0,054	-0,019
-232,030	-120,211	0,079	0,010
-231,015	43,978	0,052	-0,034
-230,000	345,299	0,015	0,021
-228,986	345,674	-0,082	0,116
-227,971	-200,000	0,007	-0,031
-226,957	-21,151	-0,049	0,021
-225,942	800,000	0,066	-0,184
-224,927	-51,569	-0,087	-0,029
-223,913	-200,000	0,021	0,119
-222,898	202,679	-0,061	-0,069
-221,884	574,855	-0,011	-0,019
-220,869	-200,000	0,025	-0,097
-219,855	469,716	-0,035	-0,057
-218,840	-200,000	-0,007	0,038
-217,825	762,716	0,007	-0,015
-216,811	800,000	-0,057	0,137
-215,796	-200,000	0,031	-0,100
-214,782	-56,777	-0,207	-0,066
-213,767	-200,000	-0,042	0,153
-212,752	697,619	0,046	-0,088
-211,738	-105,488	-0,039	-0,006
-210,723	116,042	-0,079	0,069
-209,709	64,919	0,055	-0,040
-208,694	-200,000	-0,006	0,133
-207,679	-53,019	-0,043	-0,014
-206,665	-200,000	-0,029	-0,110
-205,650	-71,015	0,098	0,026
-204,636	-200,000	0,014	-0,046
-203,621	-2,936	0,037	-0,019
-202,606	-188,163	-0,084	0,001
-201,592	-56,421	-0,116	-0,037
-200,577	-32,137	0,065	0,026
-199,563	-200,000	-0,025	-0,117
-198,548	26,982	-0,108	-0,065
-197,533	-156,603	0,044	0,002
-196,519	790,620	0,045	0,091
-195,504	-200,000	-0,008	0,042
-194,490	-200,000	0,020	0,110
-193,475	800,000	0,023	0,054
-192,460	-200,000	-0,002	0,011
-191,446	23,621	0,023	0,014
-190,431	559,449	-0,048	0,083
-189,417	800,000	-0,057	0,114
-188,402	-85,517	0,069	-0,015
-187,387	-200,000	0,029	-0,176
-186,373	125,368	-0,059	0,054
-185,358	634,877	-0,087	-0,161
-184,344	-54,228	0,042	0,014
-183,329	800,000	-0,027	0,070
-182,315	27,312	-0,093	0,056
-181,300	-27,074	0,053	0,022
-180,285	-69,765	0,034	-0,009
-179,271	-190,531	-0,040	0,000
-178,256	-48,766	-0,052	-0,018
-177,242	37,860	0,017	-0,011
-176,227	-107,577	-0,076	-0,012
-175,212	800,000	0,051	0,142
-174,198	93,034	-0,171	0,140
-173,183	298,478	-0,058	-0,077
-172,169	17,352	0,077	-0,044
-171,154	-39,280	-0,050	0,019
-170,139	-93,737	-0,082	-0,016
-169,125	-200,000	0,039	0,142
-168,110	581,229	0,076	0,134
-167,096	35,073	-0,038	-0,024
-166,081	64,417	-0,084	0,061
-165,066	-86,769	-0,132	0,029
-164,052	648,735	0,026	0,048
-163,037	800,000	-0,009	-0,025
-162,023	773,773	-0,046	0,090
-161,008	800,000	-0,029	-0,078
-159,993	491,338	0,055	-0,091
-158,979	757,552	-0,021	-0,041
-157,964	-27,669	0,065	0,027
-156,950	-200,000	-0,023	-0,149
-155,935	286,533	0,037	-0,048
-154,920	412,552	-0,042	-0,064
-153,906	107,554	-0,053	-0,046
-152,891	-200,000	-0,012	0,041
-151,877	-200,000	-0,016	-0,058
-150,862	-122,187	-0,048	0,006
-149,847	727,199	0,025	0,048
-148,833	-200,000	-0,022	0,091
-147,818	59,481	-0,045	-0,032
-146,804	90,700	-0,076	-0,061
-145,789	-172,518	-0,044	-0,001
-144,775	125,793	0,065	-0,060
-143,760	-141,602	-0,082	0,006
-142,745	-200,000	-0,021	-0,107
-141,731	-34,424	0,143	0,056
-140,716	-168,124	-0,058	0,002
-139,702	-123,338	0,092	-0,010
-138,687	271,254	0,010	-0,012
-137,672	-200,000	0,006	0,070
-136,658	408,687	0,038	-0,058
-135,643	-84,306	0,099	0,022
-134,629	-79,574	-0,106	-0,026
-133,614	104,115	0,062	0,052
-132,599	68,648	-0,108	-0,080
-131,585	35,828	-0,048	0,030
-130,570	-54,230	-0,108	-0,035
-129,556	-200,000	0,051	-0,214
-128,541	-200,000	0,011	-0,107
-127,526	800,000	-0,030	-0,077
-126,512	-21,712	-0,043	-0,019
-125,497	-200,000	-0,017	0,064
-124,483	226,704	-0,047	-0,055
-123,468	800,000	0,084	0,168
-122,453	800,000	0,016	0,044
-121,439	-200,000	-0,022	0,085
-120,424	29,952	-0,101	-0,062
-119,410	180,893	-0,070	-0,074
