DTS Sentinel unit serial number:	SN410029Multiplexer serial number:	ORYXHardware model number:	OX2-SRSoftware version number:	ORYX F/W v4,00 Oryx Data Collector v3.7.2.0data status	okinstallation	B5 Nyhavnadifferential loss correction	single-endedforward channel	channel 2reverse channel	N/Adate	2023/12/14time	12:57:13forward acquisition time	300,00reverse acquisition time	0,00gamma	499,1914k internal	0,3158k external	0,3158temperature offset calibration	1,0000default loss term (dB/km)	0,3820temperature slope calibration	1,0000multiplexer offset coefficient	1,0000multiplexer slope coefficient	1,0000fibre end	0,00T internal ref (°C)	7,99T ext. ref 1 (°C)	-7,63T ext. ref 2 (°C)	-7,69length (m)	temperature (°C)	Stokes	anti-Stokes-744,400	-114,601	0,120	-0,017
-743,385	-35,502	-0,311	-0,124
-742,371	92,025	0,200	0,166
-741,356	-63,691	-0,318	-0,095
-740,342	-1,920	0,235	0,121
-739,327	-69,778	-0,475	-0,133
-738,312	198,180	0,085	0,096
-737,298	-82,882	-0,479	-0,113
-736,283	-153,838	0,216	0,011
-735,269	-95,076	-0,344	-0,068
-734,254	-53,990	0,126	-0,042
-733,239	15,935	-0,591	-0,342
-732,225	-63,950	0,336	0,100
-731,210	800,000	0,008	0,018
-730,196	-200,000	0,002	-0,030
-729,181	-35,557	-0,126	-0,050
-728,167	-41,520	0,020	0,007
-727,152	55,965	0,026	0,018
-726,137	-200,000	-0,012	-0,075
-725,123	28,081	-0,088	0,054
-724,108	285,127	-0,079	-0,105
-723,094	-119,626	-0,043	0,005
-722,079	52,173	-0,054	0,038
-721,064	800,000	-0,051	-0,114
-720,050	100,398	-0,123	0,105
-719,035	32,174	-0,107	-0,068
-718,021	-64,593	-0,204	0,060
-717,006	800,000	-0,081	0,186
-715,991	-200,000	-0,009	-0,176
-714,977	-200,000	-0,033	-0,204
-713,962	-26,607	0,081	0,035
-712,948	246,161	0,137	-0,171
-711,933	-200,000	-0,030	0,189
-710,918	-8,276	0,132	-0,065
-709,904	-44,156	-0,107	-0,039
-708,889	20,029	-0,136	-0,081
-707,875	34,602	-0,098	-0,063
-706,860	-64,226	-0,144	0,043
-705,845	-16,629	0,070	-0,032
-704,831	800,000	-0,018	-0,049
-703,816	800,000	-0,025	0,056
-702,802	-200,000	-0,003	-0,129
-701,787	-101,801	-0,176	-0,031
-700,772	-200,000	-0,023	-0,123
-699,758	172,149	0,039	-0,041
-698,743	147,707	0,059	0,059
-697,729	-52,423	-0,133	-0,045
-696,714	800,000	-0,037	-0,097
-695,699	66,890	0,104	-0,078
-694,685	47,102	-0,106	0,073
-693,670	515,814	-0,048	-0,082
-692,656	-64,766	-0,141	-0,042
-691,641	218,491	-0,019	-0,023
-690,627	800,000	0,012	-0,037
-689,612	304,454	-0,067	0,092
-688,597	76,736	0,047	-0,036
-687,583	180,748	-0,174	-0,189
-686,568	-124,566	-0,020	0,002
-685,554	-200,000	-0,006	0,068
-684,539	-96,668	0,035	0,007
-683,524	-200,000	-0,006	-0,106
-682,510	75,653	0,032	0,025
-681,495	307,830	-0,022	-0,030
-680,481	419,199	-0,041	-0,065
-679,466	-200,000	0,017	-0,056
-678,451	204,229	0,073	-0,083
-677,437	-200,000	-0,023	-0,120
-676,422	-146,158	0,095	-0,006
-675,408	-146,147	-0,085	0,005
-674,393	800,000	-0,033	0,106
-673,378	229,748	-0,085	-0,103
-672,364	38,201	0,111	-0,072
-671,349	11,017	-0,128	-0,072
-670,335	539,994	0,032	0,056
-669,320	440,611	0,059	0,095
-668,305	-200,000	-0,012	0,165
-667,291	8,083	-0,061	-0,033
-666,276	471,458	0,041	-0,069
-665,262	-3,741	-0,101	-0,051
-664,247	800,000	-0,052	-0,110
-663,232	143,658	-0,088	-0,086
-662,218	-70,529	0,078	-0,022
-661,203	-200,000	-0,002	-0,089
-660,189	800,000	-0,032	0,096
-659,174	-121,663	-0,146	0,018
-658,159	-65,117	-0,202	-0,059
-657,145	-200,000	0,036	-0,157
-656,130	36,846	-0,101	-0,066
-655,116	448,253	0,064	-0,104
-654,101	-127,724	-0,053	-0,006
-653,086	718,669	-0,043	0,084
-652,072	-200,000	-0,006	-0,059
-651,057	-79,265	-0,119	0,029
-650,043	-200,000	-0,021	-0,073
-649,028	-101,135	-0,156	-0,028
-648,014	-47,912	0,037	-0,013
-646,999	186,106	-0,129	-0,141
-645,984	800,000	0,033	-0,093
-644,970	-200,000	-0,011	0,155
-643,955	137,294	-0,063	-0,061
-642,941	81,344	-0,078	-0,062
-641,926	110,746	-0,080	-0,071
-640,911	-200,000	0,013	-0,048
-639,897	-186,760	0,033	-0,000
-638,882	231,438	-0,135	0,163
-637,868	800,000	0,038	0,085
-636,853	26,888	-0,027	-0,016
-635,838	51,047	0,091	0,063
-634,824	-54,088	-0,131	0,044
-633,809	563,565	0,035	0,062
-632,795	28,384	-0,058	0,036
-631,780	-200,000	0,006	0,036
-630,765	-200,000	-0,015	-0,163
-629,751	-123,692	-0,218	0,025
-628,736	-141,219	-0,117	0,009
-627,722	208,782	-0,025	-0,029
-626,707	-75,669	-0,187	-0,048
-625,692	-51,991	0,068	0,023
-624,678	800,000	0,033	-0,080
-623,663	-86,081	-0,141	-0,032
-622,649	800,000	-0,028	-0,063
-621,634	-178,753	-0,099	-0,002
-620,619	-200,000	-0,007	-0,039
-619,605	87,279	0,058	-0,047
-618,590	-109,750	-0,139	0,021
-617,576	-79,302	-0,071	-0,017
-616,561	74,093	-0,031	0,024
-615,546	418,577	-0,062	-0,097
-614,532	-82,656	-0,122	-0,029
-613,517	-25,275	0,086	-0,037
-612,503	-200,000	-0,026	0,110
-611,488	141,294	0,030	-0,029
-610,474	185,800	0,069	0,075
-609,459	-18,226	-0,034	0,015
-608,444	800,000	0,020	-0,049
-607,430	13,003	-0,127	-0,072
-606,415	693,547	-0,077	-0,150
-605,401	-59,718	-0,099	0,031
-604,386	89,821	-0,117	0,095
-603,371	25,024	0,046	-0,028
-602,357	140,423	0,073	0,071
-601,342	-177,827	-0,176	-0,003
-600,328	172,651	-0,062	-0,066
-599,313	46,978	0,074	-0,050
-598,298	-98,777	-0,041	0,008
-597,284	800,000	0,013	0,039
-596,269	435,743	-0,075	0,120
-595,255	-67,343	-0,043	-0,012
-594,240	179,988	0,043	-0,046
-593,225	800,000	-0,001	-0,004
-592,211	462,390	0,041	-0,068
-591,196	-26,200	-0,191	0,082
-590,182	-200,000	-0,001	-0,015
-589,167	-200,000	-0,005	0,236
-588,152	-9,117	-0,104	0,051
-587,138	427,599	0,040	-0,063
-586,123	157,027	-0,051	-0,052
-585,109	114,985	0,011	0,010
-584,094	800,000	0,005	-0,010
-583,079	342,609	-0,047	0,067
-582,065	-85,973	0,076	0,017
-581,050	-200,000	0,020	-0,155
-580,036	-200,000	-0,003	-0,048
-579,021	655,446	-0,024	-0,046
-578,006	330,778	-0,049	-0,069
-576,992	229,975	0,041	-0,049
-575,977	597,199	0,087	-0,158
-574,963	-82,155	0,058	0,014
-573,948	-200,000	-0,029	0,152
-572,934	494,506	-0,066	0,111
-571,919	-11,816	-0,073	-0,035
-570,904	-125,380	-0,177	0,020
-569,890	-200,000	-0,018	-0,131
-568,875	800,000	0,010	0,026
-567,861	521,763	-0,051	0,089
-566,846	-101,580	-0,053	-0,009
-565,831	-63,235	-0,109	-0,033
-564,817	98,485	-0,095	-0,080
-563,802	800,000	-0,022	0,045
-562,788	190,924	-0,026	0,029
-561,773	-107,003	-0,162	-0,026
-560,758	127,019	0,104	-0,097
-559,744	413,857	-0,057	0,089
-558,729	377,021	0,087	0,130
-557,715	-200,000	0,004	-0,058
-556,700	280,613	-0,043	-0,056
-555,685	-200,000	0,000	-0,196
-554,671	712,824	0,019	-0,037
-553,656	800,000	-0,027	0,075
-552,642	349,743	-0,059	0,085
-551,627	-164,255	-0,007	0,000
-550,612	-102,114	0,025	0,004
-549,598	365,670	-0,024	-0,035
-548,583	-105,287	-0,186	0,031
-547,569	11,309	0,069	0,038
-546,554	-200,000	0,051	0,169
-545,539	-75,180	-0,131	0,034
-544,525	-41,208	0,047	0,018
-543,510	170,311	-0,024	0,025
-542,496	-45,221	0,043	0,016
-541,481	-189,102	-0,090	0,001
-540,466	-200,000	0,013	-0,216
-539,452	-75,382	0,141	-0,036
-538,437	168,606	0,052	0,054
-537,423	364,536	0,049	0,073
-536,408	-96,307	-0,077	-0,015
-535,393	800,000	-0,108	-0,235
-534,379	-182,930	-0,085	-0,001
-533,364	3,378	-0,100	-0,053
-532,350	789,111	0,028	0,057
-531,335	-84,520	-0,069	0,016
-530,321	-1,105	0,006	0,003
-529,306	343,833	0,052	0,075
-528,291	196,343	-0,179	-0,199
-527,277	800,000	-0,027	0,064
-526,262	-115,656	-0,136	-0,018
-525,248	800,000	0,024	-0,059
-524,233	-200,000	0,010	0,143
-523,218	25,046	0,112	0,068
-522,204	-62,041	0,125	0,038
-521,189	-150,286	-0,125	0,007
-520,175	162,509	0,070	-0,072
-519,160	-28,202	-0,085	-0,036
-518,145	508,438	0,068	-0,115
-517,131	-200,000	0,018	0,122
-516,116	399,199	-0,032	0,050
-515,102	800,000	0,031	0,074
-514,087	-2,369	0,086	0,044
-513,072	-75,636	-0,131	0,034
-512,058	-200,000	-0,020	-0,070
-511,043	429,813	-0,060	-0,095
-510,029	138,888	-0,041	-0,039
-509,014	800,000	0,042	-0,132
-507,999	-200,000	0,019	-0,096
-506,985	68,198	0,064	0,048
-505,970	-200,000	0,009	-0,084
-504,956	-200,000	0,042	-0,155
-503,941	-200,000	0,005	-0,076
-502,926	-200,000	0,131	-0,000
-501,912	-200,000	0,012	0,156
-500,897	-200,000	-0,022	0,103
-499,883	113,722	0,029	-0,026
-498,868	800,000	0,001	0,003
-497,853	72,313	-0,068	-0,052
-496,839	447,881	0,036	0,058
-495,824	50,612	-0,028	0,019
-494,810	800,000	0,035	0,096
-493,795	-75,278	0,056	0,014
-492,781	288,065	-0,031	-0,041
-491,766	800,000	0,062	0,127
-490,751	732,424	-0,021	0,042
-489,737	-112,762	-0,257	-0,037
-488,722	-200,000	-0,005	-0,148
-487,708	-15,328	0,029	0,014
-486,693	100,317	0,074	0,063
-485,678	800,000	0,024	-0,069
-484,664	52,550	-0,097	-0,068
-483,649	488,324	0,020	-0,033
-482,635	-200,000	-0,020	0,171
-481,620	214,298	-0,131	0,152
-480,605	800,000	0,087	0,214
-479,591	800,000	-0,023	-0,054
-478,576	-200,000	-0,018	-0,059
-477,562	-55,471	0,102	-0,033
-476,547	800,000	-0,037	-0,103
-475,532	800,000	-0,001	-0,002
-474,518	464,267	-0,030	-0,050
-473,503	-200,000	0,002	0,113
-472,489	570,696	0,083	0,148
-471,474	64,269	0,178	-0,131
-470,459	-200,000	-0,002	0,110
-469,445	28,436	-0,088	-0,054
-468,430	-200,000	-0,006	-0,042
-467,416	296,215	-0,035	-0,046
-466,401	365,549	-0,019	-0,028
-465,386	397,033	-0,030	0,047
-464,372	-200,000	-0,011	0,036
-463,357	-200,000	0,002	-0,057
-462,343	-200,000	-0,005	-0,046
-461,328	220,827	0,031	-0,037
-460,313	107,046	-0,043	0,037
-459,299	-200,000	-0,006	-0,145
-458,284	282,284	-0,121	-0,158
-457,270	-200,000	0,032	-0,109
-456,255	-44,484	-0,102	0,037
-455,241	800,000	-0,006	0,014
-454,226	93,355	0,134	-0,110
-453,211	2,072	-0,085	-0,045
-452,197	205,175	0,032	-0,036
-451,182	150,594	-0,046	-0,045
-450,168	800,000	-0,027	0,077
-449,153	-200,000	-0,004	0,137
-448,138	223,903	0,026	-0,031
-447,124	-135,457	-0,039	-0,003
-446,109	-134,667	0,101	-0,009
-445,095	196,600	0,083	0,092
-444,080	-122,253	-0,154	0,018
-443,065	452,383	0,045	0,072
-442,051	244,480	0,055	-0,067
-441,036	-200,000	-0,011	-0,150
-440,022	129,430	0,040	-0,038
-439,007	203,728	0,052	0,059
-437,992	-200,000	0,011	0,079
-436,978	-25,757	0,090	0,039
-435,963	800,000	0,061	-0,152
-434,949	278,298	-0,023	-0,029
-433,934	104,793	0,059	-0,051
-432,919	28,481	-0,029	-0,018
-431,905	-112,133	-0,051	0,007
-430,890	-200,000	-0,015	0,135
-429,876	225,673	0,085	0,101
-428,861	800,000	-0,005	0,013
-427,846	38,007	0,129	-0,083
-426,832	-200,000	0,011	-0,080
-425,817	800,000	-0,024	0,054
-424,803	800,000	-0,019	0,056
-423,788	-97,705	0,062	0,012
-422,773	526,000	0,014	0,024
-421,759	-105,036	0,202	-0,033
-420,744	3,642	0,018	-0,010
-419,730	-200,000	-0,008	-0,080
-418,715	-200,000	-0,006	0,141
-417,701	-200,000	-0,013	0,114
-416,686	-200,000	0,001	0,010
-415,671	-200,000	0,017	0,145
-414,657	-200,000	0,025	0,090
-413,642	77,058	0,029	0,023
-412,628	167,011	0,095	0,099
-411,613	15,263	-0,108	0,061
-410,598	-125,273	0,087	-0,010
-409,584	-126,664	0,106	-0,011
-408,569	80,715	-0,068	0,053
-407,555	276,433	0,120	0,156
-406,540	38,161	-0,028	0,018
-405,525	3,428	-0,020	-0,010
-404,511	402,287	0,048	-0,074
-403,496	-200,000	0,008	-0,113
-402,482	266,878	0,084	-0,107
-401,467	-96,114	0,097	-0,019
-400,452	-45,015	0,162	0,058
-399,438	202,253	-0,061	0,068
-398,423	-17,966	0,065	0,029
-397,409	-10,253	0,088	-0,042
-396,394	1,196	0,084	0,044
-395,379	81,018	0,053	0,041
-394,365	-200,000	0,014	0,181
-393,350	-200,000	-0,006	0,057
-392,336	-27,625	-0,048	-0,020
-391,321	11,718	-0,025	-0,014
-390,306	26,490	-0,083	-0,051
-389,292	-200,000	-0,022	-0,123
-388,277	-160,593	0,068	-0,003
-387,263	800,000	0,052	0,124
-386,248	-116,810	0,046	-0,006
-385,233	-31,715	0,094	0,038
-384,219	96,293	-0,070	0,058
-383,204	47,469	-0,108	0,073
-382,190	13,518	0,040	0,022
-381,175	800,000	-0,033	-0,067
-380,160	-145,311	0,055	0,004
-379,146	19,228	0,096	-0,056
-378,131	-139,333	0,118	0,009
-377,117	-65,196	0,128	-0,037
-376,102	267,100	0,026	-0,033
-375,088	-71,407	0,081	0,022
-374,073	119,131	-0,047	0,042
-373,058	-126,626	0,128	-0,014
-372,044	-122,382	0,143	0,017
-371,029	-200,000	0,011	0,120
-370,015	274,019	-0,024	-0,031
-369,000	102,846	-0,060	0,051
-367,985	137,526	-0,082	0,078
-366,971	344,576	0,083	0,118
-365,956	-67,900	0,059	-0,017
-364,942	-110,070	-0,058	-0,009
-363,927	-168,162	0,082	-0,002
-362,912	-200,000	0,021	-0,077
-361,898	800,000	0,039	-0,113
-360,883	-22,436	-0,028	0,012
-359,869	152,118	0,014	0,014
-358,854	113,406	0,083	0,074
-357,839	163,656	0,104	0,107
-356,825	800,000	0,045	0,126
-355,810	73,416	0,082	0,062
-354,796	-9,266	-0,109	0,052
-353,781	800,000	-0,032	-0,104
-352,766	-69,407	-0,072	-0,020
-351,752	-19,068	-0,076	-0,034
-350,737	-200,000	-0,009	-0,048
-349,723	388,105	0,108	0,163
-348,708	205,821	-0,074	-0,084
-347,693	-85,636	0,084	0,019
-346,679	-134,682	0,182	-0,016
-345,664	204,705	-0,074	-0,083
-344,650	101,773	0,068	0,057
-343,635	800,000	0,009	0,022
-342,620	-102,512	0,095	-0,016
-341,606	30,542	0,018	-0,011
-340,591	-200,000	-0,030	-0,097
-339,577	443,784	-0,060	-0,096
-338,562	800,000	-0,027	-0,058
-337,548	348,899	0,048	0,070
-336,533	-24,163	-0,064	-0,028
-335,518	-86,368	0,109	0,024
-334,504	-151,655	-0,025	0,001
-333,489	800,000	0,029	0,071
-332,475	794,418	-0,004	-0,007
-331,460	-200,000	-0,004	-0,151
-330,445	-200,000	-0,010	-0,069
-329,431	800,000	0,020	0,051
-328,416	125,426	-0,051	0,047
-327,402	-179,485	0,160	-0,002
-326,387	-200,000	-0,009	-0,112
-325,372	-200,000	-0,013	0,055
-324,358	-113,468	-0,083	0,012
-323,343	-200,000	-0,003	0,186
-322,329	-2,740	0,129	-0,065
-321,314	-59,952	0,021	-0,007
-320,299	233,852	0,031	0,037
-319,285	519,653	0,013	-0,023
-318,270	213,309	0,063	0,072
-317,256	-71,104	0,131	-0,035
-316,241	49,216	-0,117	-0,080
-315,226	-200,000	0,007	-0,049
-314,212	-200,000	0,028	-0,105
-313,197	249,390	-0,041	-0,051
-312,183	15,853	-0,099	0,056
-311,168	-122,654	0,068	-0,008
-310,153	151,846	0,008	-0,008
-309,139	-200,000	0,015	0,082
-308,124	-154,666	0,045	-0,002
-307,110	-200,000	-0,001	-0,088
-306,095	220,734	0,154	0,180
-305,080	-84,644	0,058	0,013
-304,066	498,310	-0,045	-0,076
-303,051	250,440	0,051	-0,063
-302,037	800,000	-0,030	0,073
-301,022	-65,111	0,061	0,018
-300,008	158,139	-0,035	0,035
-298,993	-18,999	0,006	0,003
-297,978	800,000	-0,073	0,168
-296,964	644,354	0,021	0,038
-295,949	-132,797	-0,162	0,015
-294,935	181,269	-0,031	0,033
-293,920	-76,844	-0,021	-0,005
-292,905	800,000	0,061	0,170
-291,891	800,000	0,031	0,064
-290,876	31,870	0,111	-0,069
-289,862	-48,527	-0,132	-0,046
-288,847	54,990	-0,025	0,017
-287,832	166,628	-0,064	-0,066
-286,818	297,036	0,052	-0,070
-285,803	-1,898	-0,116	-0,059
-284,789	378,692	0,034	-0,050
-283,774	-46,494	-0,068	0,024
-282,759	-64,246	-0,087	-0,025
-281,745	800,000	0,022	-0,052
-280,730	-200,000	0,001	-0,081
-279,716	-57,128	0,128	-0,041
-278,701	-200,000	-0,028	0,133
-277,686	210,890	0,165	0,188
-276,672	680,496	-0,031	0,059
-275,657	-111,985	0,124	0,018
-274,643	800,000	-0,013	0,025
-273,628	25,229	0,090	-0,054
-272,613	-71,447	-0,185	0,050
-271,599	253,263	0,011	0,014
-270,584	-200,000	-0,021	-0,086
-269,570	-62,504	0,069	0,021
-268,555	-51,448	-0,050	0,017
-267,540	-200,000	-0,032	-0,112
-266,526	446,569	-0,062	-0,099
-265,511	216,037	0,047	0,054
-264,497	-200,000	0,026	0,105
-263,482	117,241	0,125	0,111
-262,467	-200,000	-0,001	0,094
-261,453	-89,401	0,099	0,021
-260,438	-200,000	0,014	-0,072
-259,424	-200,000	-0,053	-0,257
-258,409	-1,200	0,062	-0,032
-257,395	70,871	0,079	0,059
-256,380	84,454	0,063	0,049
-255,365	544,586	0,060	0,104
-254,351	145,868	0,044	-0,043
-253,336	106,305	0,081	0,070
-252,322	800,000	-0,048	0,106
-251,307	-144,103	0,065	-0,004
-250,292	-200,000	0,006	0,053
-249,278	-200,000	-0,017	0,078
-248,263	-43,767	-0,039	-0,014
-247,249	800,000	0,025	0,055
-246,234	144,696	-0,051	-0,050
-245,219	-53,550	-0,023	0,008
-244,205	663,829	-0,049	-0,091
-243,190	-200,000	-0,022	-0,098
-242,176	-200,000	-0,007	-0,088
-241,161	14,064	0,161	0,090
-240,146	33,650	-0,115	-0,072
-239,132	-74,757	0,072	0,019
-238,117	37,086	0,073	-0,047
-237,103	-101,785	-0,036	0,006
-236,088	117,268	-0,032	-0,028
-235,073	458,202	0,068	-0,110
-234,059	369,341	-0,046	-0,067
-233,044	-55,918	0,093	-0,030
-232,030	166,869	-0,153	-0,157
-231,015	7,048	0,057	-0,030
-230,000	-200,000	0,003	-0,022
-228,986	144,297	-0,060	-0,058
-227,971	-110,210	-0,080	-0,012
-226,957	800,000	0,029	-0,074
-225,942	50,855	0,036	0,025
-224,927	63,733	0,053	0,039
-223,913	250,907	0,052	-0,064
-222,898	146,746	0,010	0,009
-221,884	-43,835	-0,127	-0,046
-220,869	48,212	0,019	-0,013
-219,855	487,053	-0,066	-0,109
-218,840	800,000	0,083	-0,186
-217,825	800,000	0,042	-0,105
-216,811	-60,441	0,091	-0,028
-215,796	-200,000	0,002	-0,025
-214,782	-200,000	0,002	-0,042
-213,767	688,533	-0,025	0,048
-212,752	-200,000	0,012	0,091
-211,738	477,666	-0,029	-0,047
-210,723	11,465	-0,037	0,021
-209,709	468,891	-0,038	0,061
-208,694	-200,000	0,021	0,103
-207,679	7,251	-0,159	0,085
-206,665	-92,342	0,136	0,027
-205,650	-200,000	-0,001	-0,017
-204,636	-96,224	-0,018	0,003
-203,621	143,186	-0,132	0,127
-202,606	-152,412	-0,174	0,009
-201,592	67,278	0,071	-0,052
-200,577	172,706	-0,032	0,033
-199,563	-69,102	-0,073	0,020
-198,548	-97,990	0,075	-0,014
-197,533	-200,000	0,015	0,075
-196,519	601,968	-0,030	0,053
-195,504	800,000	-0,031	-0,075
-194,490	-200,000	0,004	-0,022
-193,475	-63,248	0,065	0,019
-192,460	-200,000	-0,011	-0,141
-191,446	800,000	-0,051	-0,123
-190,431	16,911	-0,081	-0,046
-189,417	69,546	0,050	-0,037
-188,402	-99,061	0,145	0,026
-187,387	246,489	0,039	-0,048
-186,373	-200,000	0,029	-0,113
-185,358	-151,334	0,157	-0,008
-184,344	106,796	-0,086	0,074
-183,329	800,000	0,073	0,199
-182,315	-36,315	0,064	0,025
-181,300	145,153	-0,097	0,094
-180,285	-200,000	-0,005	-0,024
-179,271	31,203	0,060	0,037
-178,256	216,911	0,050	0,058
-177,242	89,059	-0,064	0,051
-176,227	-200,000	0,013	0,079
-175,212	-120,054	-0,117	-0,014
-174,198	-58,528	-0,058	-0,018
-173,183	-200,000	0,014	0,053
-172,169	-200,000	0,044	-0,179
-171,154	203,323	-0,083	-0,092
-170,139	386,163	0,109	-0,163
-169,125	376,504	0,150	0,222
-168,110	-200,000	-0,010	0,138
-167,096	24,484	-0,066	0,039
-166,081	-34,161	-0,045	-0,018
-165,066	-105,812	-0,090	-0,015
-164,052	149,967	-0,065	0,064
-163,037	48,798	0,102	-0,069
-162,023	800,000	0,026	0,073
-161,008	122,006	0,068	0,061
-159,993	304,388	-0,099	0,133
-158,979	800,000	0,013	-0,039
-157,964	-21,740	-0,075	-0,033
-156,950	164,314	0,032	-0,033
-155,935	-13,716	0,035	-0,016
-154,920	-50,150	0,110	0,037
-153,906	46,620	0,076	-0,051
-152,891	-200,000	0,022	-0,095
-151,877	-115,619	-0,070	0,009
-150,862	800,000	-0,028	-0,075
-149,847	37,452	-0,107	0,068
-148,833	-97,830	-0,044	0,008
-147,818	140,262	0,117	0,112
-146,804	-183,818	-0,064	-0,001
-145,789	620,277	0,080	-0,145
-144,775	-200,000	0,024	0,084
-143,760	-111,508	-0,132	-0,019
-142,745	207,734	-0,066	-0,074
-141,731	800,000	0,019	0,046
-140,716	-15,796	0,107	0,049
-139,702	-64,250	-0,101	-0,029
-138,687	378,273	-0,081	-0,119
-137,672	-200,000	-0,015	-0,163
-136,658	-200,000	-0,005	-0,056
-135,643	-134,438	-0,087	0,008
-134,629	68,002	0,107	-0,079
-133,614	-71,089	-0,124	0,033
-132,599	-53,455	-0,114	0,037
-131,585	174,976	0,014	0,014
-130,570	321,703	-0,066	0,091
-129,556	423,671	-0,062	-0,097
-128,541	204,987	0,075	-0,084
-127,526	-200,000	-0,002	-0,038
-126,512	800,000	-0,017	-0,045
-125,497	-79,352	0,043	-0,010
-124,483	-36,714	0,166	0,064
-123,468	-200,000	0,000	-0,055
-122,453	-120,612	-0,144	-0,017
-121,439	191,525	0,044	0,047
-120,424	800,000	0,016	-0,050
