DTS Sentinel unit serial number:	SN410029Multiplexer serial number:	ORYXHardware model number:	OX2-SRSoftware version number:	ORYX F/W v4,00 Oryx Data Collector v3.7.2.0data status	okinstallation	B5 Nyhavnadifferential loss correction	single-endedforward channel	channel 2reverse channel	N/Adate	2023/12/14time	04:17:13forward acquisition time	300,00reverse acquisition time	0,00gamma	499,1914k internal	0,3156k external	0,3156temperature offset calibration	1,0000default loss term (dB/km)	0,3820temperature slope calibration	1,0000multiplexer offset coefficient	1,0000multiplexer slope coefficient	1,0000fibre end	0,00T internal ref (°C)	7,93T ext. ref 1 (°C)	-8,50T ext. ref 2 (°C)	-8,58length (m)	temperature (°C)	Stokes	anti-Stokes-744,400	61,092	0,113	0,083
-743,385	-150,694	-0,381	-0,021
-742,371	259,442	0,130	0,165
-741,356	-190,979	-0,302	0,002
-740,342	-11,581	0,113	0,055
-739,327	-97,507	-0,334	0,063
-738,312	-57,066	0,139	-0,045
-737,298	89,578	-0,363	-0,299
-736,283	87,929	0,106	0,087
-735,269	-163,382	-0,310	-0,011
-734,254	800,000	0,046	0,135
-733,239	14,407	-0,577	-0,331
-732,225	-50,927	0,343	0,118
-731,210	78,455	-0,115	-0,091
-730,196	-200,000	0,011	-0,083
-729,181	128,836	0,013	0,013
-728,167	-200,000	-0,042	-0,139
-727,152	410,673	-0,060	0,094
-726,137	123,748	0,028	0,026
-725,123	302,277	-0,103	-0,140
-724,108	-110,284	-0,147	0,022
-723,094	-200,000	-0,008	-0,068
-722,079	47,650	-0,122	-0,084
-721,064	584,509	-0,058	-0,106
-720,050	-185,213	-0,080	-0,001
-719,035	41,592	-0,011	-0,007
-718,021	-2,771	-0,091	-0,047
-717,006	-11,850	-0,058	0,028
-715,991	-56,073	-0,182	0,059
-714,977	-63,594	-0,120	-0,036
-713,962	-200,000	-0,013	-0,114
-712,948	-80,221	0,141	-0,034
-711,933	800,000	-0,022	-0,055
-710,918	-5,247	-0,047	0,024
-709,904	28,740	-0,082	0,051
-708,889	412,150	0,078	-0,123
-707,875	258,784	-0,037	-0,047
-706,860	-52,886	0,019	-0,006
-705,845	-200,000	0,014	0,115
-704,831	-200,000	0,017	0,152
-703,816	136,151	0,061	0,059
-702,802	20,390	0,042	0,025
-701,787	-75,681	-0,029	-0,008
-700,772	315,722	-0,071	-0,099
-699,758	-164,528	0,065	0,002
-698,743	-126,159	0,112	-0,012
-697,729	75,027	-0,024	0,019
-696,714	37,593	0,122	-0,079
-695,699	-200,000	0,005	-0,054
-694,685	-175,130	-0,081	0,002
-693,670	800,000	0,013	-0,038
-692,656	62,964	-0,060	-0,044
-691,641	50,858	0,071	0,050
-690,627	-3,783	0,176	0,090
-689,612	60,793	-0,122	-0,089
-688,597	37,667	0,047	0,030
-687,583	-91,862	-0,034	0,007
-686,568	800,000	-0,035	-0,106
-685,554	597,609	-0,047	0,087
-684,539	800,000	-0,017	0,035
-683,524	127,297	-0,047	-0,044
-682,510	115,948	-0,057	0,052
-681,495	235,559	-0,101	-0,123
-680,481	338,162	0,086	-0,124
-679,466	-5,682	-0,103	-0,052
-678,451	774,924	0,051	0,104
-677,437	88,098	0,064	0,052
-676,422	357,726	-0,053	0,079
-675,408	212,885	0,031	0,037
-674,393	-200,000	-0,031	0,000
-673,378	32,733	-0,062	0,039
-672,364	-93,796	0,110	-0,022
-671,349	53,305	-0,007	-0,005
-670,335	174,713	0,036	0,038
-669,320	769,168	0,030	0,060
-668,305	-52,086	0,096	0,033
-667,291	177,375	0,037	-0,040
-666,276	-60,465	0,076	-0,024
-665,262	800,000	-0,029	-0,062
-664,247	-200,000	0,014	-0,113
-663,232	4,998	-0,067	-0,036
-662,218	235,996	0,014	-0,017
-661,203	-200,000	-0,006	0,044
-660,189	800,000	-0,041	-0,096
-659,174	-200,000	-0,029	0,112
-658,159	-54,129	0,067	-0,022
-657,145	-61,862	-0,067	0,020
-656,130	800,000	-0,018	0,039
-655,116	348,063	0,021	0,031
-654,101	387,739	0,051	-0,077
-653,086	20,188	-0,084	-0,050
-652,072	-200,000	0,034	-0,243
-651,057	150,937	0,027	-0,027
-650,043	-151,319	-0,062	-0,003
-649,028	127,221	0,111	0,104
-648,014	139,408	-0,156	0,151
-646,999	-200,000	0,026	0,093
-645,984	94,117	0,082	0,068
-644,970	-200,000	-0,011	-0,111
-643,955	-200,000	-0,013	0,106
-642,941	234,915	0,015	-0,018
-641,926	120,046	-0,047	-0,043
-640,911	800,000	0,032	0,074
-639,897	-23,514	0,070	0,031
-638,882	14,063	-0,090	-0,052
-637,868	256,688	0,031	0,039
-636,853	9,846	-0,099	-0,055
-635,838	266,431	0,047	-0,060
-634,824	53,226	-0,018	0,012
-633,809	-200,000	0,005	-0,038
-632,795	800,000	-0,044	0,130
-631,780	274,923	0,003	-0,005
-630,765	155,212	-0,074	-0,075
-629,751	-136,228	-0,149	-0,013
-628,736	-139,335	-0,139	0,011
-627,722	-121,287	0,045	0,005
-626,707	-9,862	0,060	-0,029
-625,692	800,000	-0,046	-0,094
-624,678	-68,490	0,044	0,012
-623,663	330,533	0,050	-0,071
-622,649	17,485	-0,061	0,036
-621,634	249,898	-0,027	0,034
-620,619	119,735	-0,063	0,058
-619,605	-56,553	0,085	0,028
-618,590	-127,573	0,128	0,013
-617,576	-200,000	0,004	-0,017
-616,561	-15,624	0,054	0,025
-615,546	800,000	0,028	0,061
-614,532	-5,799	-0,118	-0,059
-613,517	-35,816	0,029	-0,011
-612,503	800,000	-0,042	0,095
-611,488	158,347	0,079	-0,081
-610,474	800,000	0,013	0,037
-609,459	-87,906	-0,058	0,013
-608,444	-200,000	-0,010	-0,128
-607,430	-200,000	-0,003	-0,022
-606,415	162,270	-0,054	-0,055
-605,401	-200,000	-0,002	0,029
-604,386	245,989	-0,045	0,056
-603,371	-148,035	0,104	0,006
-602,357	335,274	-0,057	0,081
-601,342	700,553	0,038	-0,074
-600,328	-86,937	-0,072	-0,016
-599,313	332,092	-0,063	0,089
-598,298	-23,257	-0,078	0,034
-597,284	596,419	-0,046	0,084
-596,269	190,649	-0,069	-0,076
-595,255	-13,237	0,045	0,021
-594,240	149,262	-0,094	0,094
-593,225	-200,000	0,005	-0,082
-592,211	-29,705	-0,068	0,028
-591,196	-200,000	0,019	0,201
-590,182	117,537	0,073	-0,066
-589,167	509,155	0,033	0,057
-588,152	-35,603	-0,145	-0,057
-587,138	85,453	0,068	0,055
-586,123	-200,000	-0,001	-0,040
-585,109	800,000	-0,032	-0,081
-584,094	800,000	-0,018	0,039
-583,079	405,416	0,048	-0,075
-582,065	397,078	-0,055	0,084
-581,050	321,893	0,066	0,092
-580,036	800,000	-0,089	0,207
-579,021	-200,000	0,003	-0,070
-578,006	-74,106	-0,107	-0,028
-576,992	-8,970	0,056	0,028
-575,977	-64,165	0,007	-0,002
-574,963	60,270	0,045	0,032
-573,948	465,005	0,023	-0,037
-572,934	800,000	0,017	-0,047
-571,919	-141,488	-0,163	-0,012
-570,904	48,123	-0,039	-0,027
-569,890	203,373	0,051	0,058
-568,875	406,133	0,021	0,033
-567,861	-200,000	0,020	0,093
-566,846	-200,000	0,003	0,034
-565,831	800,000	-0,020	0,058
-564,817	-200,000	0,005	-0,115
-563,802	56,323	0,063	-0,045
-562,788	65,242	-0,109	0,080
-561,773	-200,000	0,011	0,050
-560,758	-200,000	0,006	0,020
-559,744	-30,369	-0,044	-0,018
-558,729	-41,568	0,088	-0,033
-557,715	80,745	0,040	0,031
-556,700	545,790	-0,038	-0,066
-555,685	-107,278	-0,170	-0,027
-554,671	-54,724	-0,076	-0,025
-553,656	630,501	0,044	0,082
-552,642	166,093	0,065	0,068
-551,627	800,000	0,015	-0,045
-550,612	-52,027	-0,125	-0,042
-549,598	-70,842	-0,014	0,004
-548,583	35,676	0,130	-0,083
-547,569	575,545	-0,016	0,029
-546,554	-142,134	-0,033	-0,002
-545,539	38,891	0,211	0,137
-544,525	-148,651	0,146	-0,009
-543,510	-121,140	0,042	-0,005
-542,496	30,511	0,095	-0,059
-541,481	800,000	0,011	-0,022
-540,466	-200,000	0,011	0,110
-539,452	484,953	0,094	0,156
-538,437	79,933	-0,084	-0,066
-537,423	28,429	0,090	0,056
-536,408	5,867	-0,074	-0,040
-535,393	800,000	0,027	0,079
-534,379	-64,405	-0,100	0,030
-533,364	695,634	0,056	0,109
-532,350	105,258	-0,071	-0,061
-531,335	-24,652	0,115	-0,050
-530,321	202,696	-0,037	-0,042
-529,306	420,617	-0,034	-0,053
-528,291	-141,869	-0,036	0,003
-527,277	11,655	-0,076	-0,042
-526,262	-2,267	-0,031	-0,016
-525,248	-87,096	0,025	-0,006
-524,233	-60,673	-0,094	0,029
-523,218	-200,000	-0,001	-0,040
-522,204	444,916	-0,080	-0,129
-521,189	-10,952	-0,075	0,036
-520,175	-13,797	-0,022	0,010
-519,160	-200,000	-0,001	0,137
-518,145	-200,000	0,026	-0,117
-517,131	-39,977	-0,139	-0,053
-516,116	-200,000	0,019	0,106
-515,102	800,000	0,028	-0,085
-514,087	412,481	0,052	0,081
-513,072	87,165	-0,081	-0,065
-512,058	41,749	-0,045	0,030
-511,043	131,046	0,116	-0,109
-510,029	-40,555	0,066	0,025
-509,014	381,702	0,045	-0,068
-507,999	-200,000	0,021	-0,088
-506,985	247,423	0,042	0,052
-505,970	-141,765	-0,103	-0,007
-504,956	800,000	-0,036	0,102
-503,941	611,735	-0,070	-0,128
-502,926	275,402	0,078	0,101
-501,912	354,262	0,113	0,164
-500,897	-200,000	-0,005	-0,032
-499,883	-25,491	-0,019	-0,008
-498,868	207,084	-0,056	0,064
-497,853	104,277	-0,077	-0,066
-496,839	-200,000	0,026	-0,163
-495,824	-200,000	-0,018	-0,126
-494,810	136,504	0,045	0,043
-493,795	800,000	-0,024	0,075
-492,781	-200,000	0,034	0,183
-491,766	172,876	0,106	-0,111
-490,751	-200,000	0,019	-0,085
-489,737	-106,890	0,046	0,007
-488,722	-41,426	0,080	0,030
-487,708	800,000	-0,020	0,058
-486,693	-31,399	-0,100	0,041
-485,678	137,808	0,053	-0,051
-484,664	146,059	-0,229	-0,225
-483,649	800,000	0,051	0,125
-482,635	478,442	0,060	-0,100
-481,620	-70,498	-0,121	0,033
-480,605	-200,000	-0,001	0,041
-479,591	-139,043	0,107	-0,008
-478,576	-39,298	-0,114	0,043
-477,562	800,000	-0,025	-0,068
-476,547	96,279	-0,028	0,023
-475,532	17,062	0,136	0,078
-474,518	-102,899	0,318	-0,055
-473,503	438,285	-0,038	-0,061
-472,489	393,298	0,022	-0,034
-471,474	246,189	-0,056	0,069
-470,459	-200,000	0,014	-0,063
-469,445	-13,465	0,038	0,018
-468,430	-200,000	-0,005	-0,169
-467,416	-200,000	0,004	-0,094
-466,401	-67,921	-0,119	0,034
-465,386	380,306	-0,053	0,079
-464,372	-39,768	0,016	0,006
-463,357	-200,000	-0,008	-0,034
-462,343	196,309	-0,032	-0,036
-461,328	109,337	0,082	-0,072
-460,313	-200,000	0,006	0,026
-459,299	-95,464	-0,012	-0,002
-458,284	-48,856	0,046	-0,016
-457,270	800,000	0,063	0,140
-456,255	-88,967	-0,047	-0,010
-455,241	-84,667	-0,239	-0,055
-454,226	78,635	0,078	-0,061
-453,211	-84,150	0,024	-0,005
-452,197	-69,347	0,136	-0,038
-451,182	-200,000	0,001	0,041
-450,168	-200,000	-0,016	0,231
-449,153	607,580	0,017	-0,031
-448,138	-200,000	0,016	0,061
-447,124	-200,000	-0,014	-0,074
-446,109	249,187	-0,015	0,019
-445,095	262,111	0,054	0,068
-444,080	133,481	-0,070	0,066
-443,065	184,128	-0,014	0,015
-442,051	19,992	0,052	0,031
-441,036	170,187	0,043	0,045
-440,022	800,000	0,012	-0,037
-439,007	144,811	-0,046	0,045
-437,992	16,803	0,048	0,028
-436,978	-145,510	0,144	-0,009
-435,963	244,024	-0,041	0,050
-434,949	149,086	-0,086	0,085
-433,934	800,000	0,034	-0,078
-432,919	800,000	-0,052	-0,110
-431,905	125,614	0,046	-0,042
-430,890	-134,631	0,177	0,016
-429,876	54,202	-0,018	0,013
-428,861	214,236	-0,089	-0,103
-427,846	9,109	-0,074	-0,041
-426,832	250,752	-0,046	-0,057
-425,817	-53,849	0,063	-0,021
-424,803	-48,779	-0,064	-0,022
-423,788	555,633	0,013	-0,022
-422,773	-200,000	-0,031	-0,132
-421,759	800,000	0,027	0,068
-420,744	239,883	-0,042	-0,051
-419,730	207,565	0,049	-0,056
-418,715	255,177	-0,041	0,051
-417,701	-200,000	0,020	-0,068
-416,686	156,543	0,066	-0,067
-415,671	-17,483	0,189	-0,086
-414,657	-76,038	-0,079	0,020
-413,642	-84,389	0,029	-0,007
-412,628	87,259	-0,081	-0,065
-411,613	800,000	0,066	-0,148
-410,598	171,297	-0,036	-0,038
-409,584	191,406	0,094	-0,103
-408,569	-111,098	0,152	-0,022
-407,555	72,643	-0,036	-0,028
-406,540	133,461	0,043	0,041
-405,525	-82,992	0,044	0,010
-404,511	-200,000	-0,016	0,202
-403,496	-200,000	-0,023	-0,083
-402,482	686,277	0,084	-0,161
-401,467	800,000	-0,012	-0,030
-400,452	-117,116	-0,114	0,015
-399,438	800,000	0,012	-0,036
-398,423	258,790	0,089	0,112
-397,409	-75,611	0,076	-0,019
-396,394	-200,000	0,023	-0,084
-395,379	-54,662	-0,040	-0,013
-394,365	-106,962	0,049	0,008
-393,350	-200,000	0,006	-0,024
-392,336	-200,000	0,020	0,096
-391,321	71,464	-0,082	-0,062
-390,306	-15,010	-0,096	0,044
-389,292	-200,000	0,014	0,061
-388,277	377,004	0,045	0,067
-387,263	800,000	0,023	-0,050
-386,248	9,283	0,031	-0,017
-385,233	236,004	-0,022	-0,027
-384,219	132,622	-0,057	-0,054
-383,204	254,180	0,063	-0,079
-382,190	-73,043	-0,092	0,024
-381,175	722,963	-0,030	-0,058
-380,160	-90,927	0,088	0,018
-379,146	800,000	-0,011	0,029
-378,131	-200,000	-0,030	0,117
-377,117	425,940	0,058	-0,091
-376,102	-58,472	0,093	0,029
-375,088	800,000	0,013	0,033
-374,073	-86,894	0,104	-0,023
-373,058	800,000	-0,021	0,050
-372,044	13,177	-0,013	-0,007
-371,029	-74,005	-0,077	-0,020
-370,015	-35,254	-0,064	0,025
-369,000	-130,681	-0,163	-0,016
-367,985	163,709	0,077	-0,079
-366,971	-200,000	-0,008	-0,042
-365,956	-200,000	-0,002	-0,034
-364,942	800,000	0,023	-0,067
-363,927	-200,000	-0,013	-0,078
-362,912	-39,906	-0,078	-0,029
-361,898	-45,369	-0,015	-0,005
-360,883	358,841	-0,048	0,070
-359,869	-72,120	0,060	0,016
-358,854	800,000	-0,059	-0,138
-357,839	-200,000	-0,025	0,087
-356,825	80,845	0,091	0,071
-355,810	800,000	0,018	-0,041
-354,796	91,598	-0,043	-0,035
-353,781	-25,259	-0,066	0,028
-352,766	-174,911	0,096	0,002
-351,752	-70,889	0,104	-0,028
-350,737	32,286	0,105	-0,066
-349,723	97,081	0,056	-0,047
-348,708	-200,000	0,020	0,136
-347,693	75,932	-0,064	0,049
-346,679	-32,775	-0,082	0,033
-345,664	261,805	0,015	0,019
-344,650	135,968	-0,074	-0,070
-343,635	295,914	-0,064	-0,085
-342,620	344,164	0,018	0,026
-341,606	-35,726	0,077	-0,030
-340,591	10,801	-0,149	-0,082
-339,577	6,684	-0,041	-0,022
-338,562	800,000	0,020	-0,052
-337,548	-200,000	0,011	0,076
-336,533	-37,995	0,085	-0,033
-335,518	-200,000	-0,006	-0,095
-334,504	-0,569	0,041	-0,021
-333,489	-84,120	0,054	-0,012
-332,475	-200,000	0,003	-0,056
-331,460	48,549	-0,073	-0,049
-330,445	-43,228	-0,021	-0,008
-329,431	-79,178	0,110	-0,027
-328,416	52,014	0,071	0,049
-327,402	322,965	-0,052	0,072
-326,387	-200,000	0,022	0,116
-325,372	-144,752	-0,085	0,006
-324,358	-98,328	-0,053	-0,010
-323,343	-200,000	-0,002	0,083
-322,329	18,110	0,138	0,080
-321,314	800,000	0,076	0,172
-320,299	199,550	0,094	0,105
-319,285	-124,619	-0,028	-0,003
-318,270	-200,000	-0,031	0,125
-317,256	114,888	-0,073	-0,064
-316,241	198,176	0,050	-0,055
-315,226	54,084	0,076	0,053
-314,212	-200,000	-0,008	-0,033
-313,197	9,313	-0,117	-0,064
-312,183	639,530	0,037	-0,069
-311,168	160,987	-0,063	0,064
-310,153	800,000	-0,088	-0,192
-309,139	39,794	-0,029	0,019
-308,124	583,115	0,018	0,032
-307,110	-110,803	0,107	0,016
-306,095	304,204	0,021	-0,028
-305,080	-81,514	-0,162	0,038
-304,066	-137,552	0,088	0,007
-303,051	-200,000	-0,016	-0,185
-302,037	193,235	-0,061	0,067
-301,022	4,271	0,076	0,040
-300,008	800,000	0,083	0,191
-298,993	180,793	0,090	-0,096
-297,978	-88,659	-0,079	-0,017
-296,964	800,000	-0,046	0,112
-295,949	800,000	0,040	0,087
-294,935	-115,039	0,064	0,009
-293,920	187,041	-0,038	0,042
-292,905	-29,712	0,102	-0,042
-291,891	-200,000	0,002	-0,073
-290,876	399,489	0,046	0,071
-289,862	-200,000	-0,009	-0,126
-288,847	800,000	0,023	-0,059
-287,832	222,858	-0,103	-0,120
-286,818	317,068	-0,044	-0,060
-285,803	-143,644	-0,081	0,005
-284,789	-79,839	0,066	-0,016
-283,774	-200,000	-0,005	-0,081
-282,759	-39,425	-0,175	-0,066
-281,745	231,036	-0,031	0,037
-280,730	800,000	0,015	-0,032
-279,716	546,659	0,034	0,058
-278,701	562,101	0,020	0,034
-277,686	289,162	-0,067	0,088
-276,672	206,815	0,007	0,008
-275,657	18,801	0,119	0,069
-274,643	-21,656	-0,035	-0,015
-273,628	-44,995	-0,200	-0,072
-272,613	272,416	0,035	-0,045
-271,599	-18,857	0,126	-0,056
-270,584	292,241	0,056	0,074
-269,570	44,826	0,079	0,053
-268,555	294,161	0,066	0,088
-267,540	207,150	0,028	0,031
-266,526	-200,000	-0,002	-0,155
-265,511	171,648	0,004	0,004
-264,497	53,633	0,073	-0,050
-263,482	-200,000	0,021	-0,083
-262,467	371,620	0,063	0,093
-261,453	800,000	0,059	0,133
-260,438	800,000	-0,029	0,082
-259,424	580,236	0,025	0,044
-258,409	800,000	0,020	-0,043
-257,395	243,286	-0,054	0,065
-256,380	800,000	0,028	0,079
-255,365	-97,154	0,138	0,026
-254,351	-8,298	-0,003	0,002
-253,336	147,478	-0,076	-0,074
-252,322	2,703	-0,103	0,054
-251,307	-107,368	0,027	0,004
-250,292	-2,091	-0,137	-0,069
-249,278	800,000	-0,023	0,067
-248,263	344,762	0,051	-0,072
-247,249	800,000	0,076	0,192
-246,234	391,514	0,045	0,068
-245,219	-118,890	-0,103	-0,013
-244,205	800,000	0,038	0,093
-243,190	343,710	0,015	-0,022
-242,176	216,748	0,069	0,080
-241,161	-21,287	0,131	0,058
-240,146	284,212	-0,076	0,099
-239,132	-56,523	0,074	0,024
-238,117	36,043	-0,040	0,025
-237,103	800,000	0,007	-0,015
-236,088	-200,000	0,011	-0,082
-235,073	-37,632	-0,082	-0,031
-234,059	-200,000	-0,000	0,140
-233,044	-4,589	0,038	-0,019
-232,030	594,693	-0,047	0,084
-231,015	800,000	-0,018	0,041
-230,000	82,140	-0,083	0,065
-228,986	51,770	-0,153	-0,105
-227,971	-112,079	0,031	0,004
-226,957	800,000	0,029	0,078
-225,942	-200,000	0,005	-0,069
-224,927	80,395	0,100	-0,078
-223,913	93,492	-0,037	-0,030
-222,898	800,000	-0,018	-0,048
-221,884	134,868	-0,123	0,116
-220,869	115,530	0,141	0,125
-219,855	-200,000	0,012	-0,067
-218,840	487,825	-0,019	-0,032
-217,825	-200,000	-0,008	0,148
-216,811	-200,000	-0,027	-0,099
-215,796	43,767	-0,091	-0,060
-214,782	-200,000	-0,039	0,179
-213,767	318,519	0,076	0,104
-212,752	-120,366	0,110	-0,013
-211,738	800,000	0,074	0,154
-210,723	64,027	-0,091	0,066
-209,709	800,000	-0,035	-0,073
-208,694	1,506	-0,044	0,023
-207,679	800,000	0,039	-0,092
-206,665	-146,157	0,112	0,007
-205,650	-6,213	0,076	-0,037
-204,636	197,631	-0,009	-0,010
-203,621	107,766	-0,072	0,062
-202,606	346,897	0,096	-0,138
-201,592	47,122	-0,045	0,030
-200,577	422,266	-0,035	-0,054
-199,563	-200,000	0,005	-0,040
-198,548	800,000	-0,032	-0,065
-197,533	-94,114	0,100	0,020
-196,519	-148,807	0,088	0,005
-195,504	-76,312	-0,166	-0,042
-194,490	-131,538	-0,064	0,006
-193,475	549,642	-0,047	-0,082
-192,460	800,000	-0,040	-0,114
-191,446	32,807	0,032	-0,020
-190,431	800,000	0,013	0,032
-189,417	-200,000	-0,010	-0,105
-188,402	-148,325	-0,129	0,008
-187,387	49,939	-0,198	-0,135
-186,373	-24,481	0,048	0,020
-185,358	-200,000	-0,021	-0,091
-184,344	209,549	-0,044	0,050
-183,329	800,000	0,052	-0,139
-182,315	135,923	0,013	-0,012
-181,300	588,921	-0,044	-0,079
-180,285	-57,071	-0,218	-0,069
-179,271	210,659	0,086	-0,098
-178,256	207,027	0,047	-0,053
-177,242	-200,000	0,126	-0,000
-176,227	-130,970	0,097	-0,009
-175,212	135,574	0,126	0,119
-174,198	58,612	-0,051	-0,036
-173,183	-133,538	-0,050	0,004
-172,169	72,726	-0,088	0,066
-171,154	254,617	0,120	-0,148
-170,139	-80,796	-0,015	0,004
-169,125	800,000	-0,025	-0,056
-168,110	-200,000	-0,012	-0,141
-167,096	-200,000	0,016	-0,074
-166,081	-92,824	0,090	0,018
-165,066	-200,000	-0,006	-0,049
-164,052	-200,000	-0,009	0,033
-163,037	-130,576	-0,124	0,012
-162,023	-87,087	0,110	0,024
-161,008	800,000	-0,065	0,177
-159,993	-20,827	-0,095	-0,042
-158,979	-32,382	-0,141	0,056
-157,964	107,540	0,096	0,082
-156,950	-200,000	0,008	0,131
-155,935	-11,588	-0,039	-0,018
-154,920	-161,236	0,044	0,002
-153,906	800,000	-0,021	0,066
-152,891	-200,000	0,006	0,110
-151,877	-200,000	0,007	0,024
-150,862	-200,000	0,011	0,065
-149,847	-51,704	-0,062	-0,021
-148,833	80,212	0,008	-0,006
-147,818	-43,212	0,081	0,030
-146,804	-200,000	0,024	-0,187
-145,789	800,000	0,053	0,143
-144,775	-200,000	0,025	-0,088
-143,760	485,809	0,008	0,013
-142,745	-12,937	0,011	0,005
-141,731	-126,003	0,092	-0,010
-140,716	34,416	0,184	0,115
-139,702	-200,000	0,008	0,045
-138,687	-68,342	0,139	0,039
-137,672	228,868	0,057	-0,068
-136,658	228,483	-0,071	0,083
-135,643	800,000	0,031	0,079
-134,629	-200,000	-0,036	-0,128
-133,614	-200,000	0,011	-0,040
-132,599	95,046	0,152	0,124
-131,585	-200,000	-0,017	-0,105
-130,570	-200,000	-0,005	-0,109
-129,556	-200,000	0,005	-0,016
-128,541	-22,066	-0,092	-0,040
-127,526	-200,000	0,003	-0,146
-126,512	-103,557	0,159	0,027
-125,497	362,538	0,028	-0,041
-124,483	-107,298	-0,062	0,010
-123,468	-51,032	0,112	0,038
-122,453	91,613	0,091	-0,074
-121,439	-132,135	-0,048	0,004
-120,424	-200,000	0,006	0,020
-119,410	800,000	-0,008	-0,020
-118,395	-200,000	0,012	0,075
-117,380	26,802	-0,053	-0,032
