DTS Sentinel unit serial number:	SN410029Multiplexer serial number:	ORYXHardware model number:	OX2-SRSoftware version number:	ORYX F/W v4,00 Oryx Data Collector v3.7.2.0data status	okinstallation	B5 Nyhavnadifferential loss correction	single-endedforward channel	channel 2reverse channel	N/Adate	2023/12/12time	12:07:13forward acquisition time	300,00reverse acquisition time	0,00gamma	499,1914k internal	0,3158k external	0,3158temperature offset calibration	1,0000default loss term (dB/km)	0,3820temperature slope calibration	1,0000multiplexer offset coefficient	1,0000multiplexer slope coefficient	1,0000fibre end	0,00T internal ref (°C)	15,19T ext. ref 1 (°C)	-0,75T ext. ref 2 (°C)	-1,01length (m)	temperature (°C)	Stokes	anti-Stokes-744,400	27,061	-0,048	0,030
-743,385	-122,297	-0,386	-0,046
-742,371	-26,490	0,124	-0,053
-741,356	-178,961	-0,365	-0,006
-740,342	88,195	0,242	0,198
-739,327	-137,476	-0,294	-0,024
-738,312	169,042	-0,139	-0,146
-737,298	-175,524	-0,166	0,003
-736,283	-200,000	-0,018	0,071
-735,269	-40,895	-0,297	-0,113
-734,254	40,060	0,096	0,063
-733,239	-52,536	-0,493	-0,167
-732,225	-143,917	0,186	0,013
-731,210	110,664	-0,043	0,038
-730,196	-200,000	-0,006	-0,075
-729,181	800,000	0,037	-0,083
-728,167	22,638	-0,024	-0,014
-727,152	81,737	-0,089	0,071
-726,137	-68,352	-0,250	-0,071
-725,123	-200,000	-0,008	-0,042
-724,108	-102,247	-0,040	0,007
-723,094	292,764	-0,096	-0,129
-722,079	-200,000	0,025	0,099
-721,064	215,227	-0,027	0,032
-720,050	564,509	-0,054	0,097
-719,035	-31,794	0,064	0,026
-718,021	33,403	-0,025	0,016
-717,006	-200,000	0,005	-0,093
-715,991	414,594	-0,083	-0,131
-714,977	-200,000	-0,027	-0,098
-713,962	800,000	0,020	-0,056
-712,948	-36,161	0,117	0,046
-711,933	349,308	-0,035	-0,051
-710,918	-111,210	-0,118	0,018
-709,904	-177,564	-0,157	0,003
-708,889	800,000	-0,026	-0,070
-707,875	23,566	-0,062	0,038
-706,860	29,922	0,069	0,043
-705,845	-162,751	-0,050	-0,002
-704,831	473,634	0,039	-0,064
-703,816	-54,599	0,104	-0,034
-702,802	66,274	0,110	-0,082
-701,787	-109,410	-0,070	0,011
-700,772	291,750	0,027	-0,037
-699,758	-84,400	-0,157	-0,036
-698,743	729,820	0,077	0,152
-697,729	-200,000	0,003	0,035
-696,714	6,588	-0,114	-0,062
-695,699	-200,000	-0,007	-0,061
-694,685	-123,777	-0,036	-0,004
-693,670	800,000	-0,007	0,018
-692,656	202,560	-0,063	-0,072
-691,641	385,316	0,026	0,039
-690,627	666,808	0,039	0,075
-689,612	119,906	-0,049	0,044
-688,597	800,000	0,022	-0,057
-687,583	234,651	-0,124	-0,151
-686,568	-200,000	-0,023	-0,172
-685,554	402,820	-0,063	-0,098
-684,539	710,470	0,073	0,143
-683,524	107,467	-0,026	0,022
-682,510	-200,000	0,015	-0,190
-681,495	-200,000	0,005	-0,080
-680,481	-47,468	-0,078	0,028
-679,466	-200,000	-0,029	-0,094
-678,451	-83,756	0,137	-0,032
-677,437	-123,794	-0,166	-0,019
-676,422	25,669	0,093	-0,057
-675,408	7,184	0,110	0,060
-674,393	56,458	-0,051	0,037
-673,378	-2,572	0,138	0,071
-672,364	-200,000	0,051	-0,212
-671,349	106,725	0,065	-0,057
-670,335	708,549	-0,081	0,158
-669,320	-50,766	-0,101	0,035
-668,305	-200,000	0,018	0,197
-667,291	276,658	0,083	-0,109
-666,276	-49,997	-0,142	-0,049
-665,262	-154,513	0,093	0,004
-664,247	-200,000	-0,020	-0,192
-663,232	301,031	-0,040	-0,054
-662,218	800,000	-0,022	-0,064
-661,203	-15,893	-0,162	0,076
-660,189	505,781	-0,054	0,093
-659,174	-200,000	-0,004	0,047
-658,159	149,136	-0,097	-0,097
-657,145	306,984	0,115	0,157
-656,130	-200,000	0,010	-0,079
-655,116	38,494	0,092	0,060
-654,101	-31,952	0,165	0,067
-653,086	-129,712	-0,049	0,005
-652,072	-200,000	-0,004	0,026
-651,057	67,396	-0,124	-0,093
-650,043	-19,069	0,156	-0,071
-649,028	800,000	0,028	0,059
-648,014	-119,726	-0,066	0,008
-646,999	800,000	0,034	-0,079
-645,984	81,862	-0,102	0,081
-644,970	-200,000	-0,029	-0,103
-643,955	27,214	-0,113	0,069
-642,941	510,918	0,008	-0,014
-641,926	-182,434	-0,105	-0,001
-640,911	14,229	0,157	-0,089
-639,897	133,768	-0,056	0,053
-638,882	-200,000	0,005	-0,024
-637,868	-1,011	0,138	-0,072
-636,853	800,000	0,042	-0,122
-635,838	-52,311	0,038	0,013
-634,824	93,161	-0,054	0,044
-633,809	-200,000	-0,037	0,136
-632,795	713,769	0,057	0,112
-631,780	168,553	0,090	0,094
-630,765	444,498	-0,061	0,098
-629,751	397,902	0,028	-0,043
-628,736	-95,063	-0,087	0,017
-627,722	-76,655	0,071	-0,018
-626,707	149,252	0,008	-0,008
-625,692	170,074	-0,052	0,055
-624,678	-68,301	0,131	-0,037
-623,663	719,755	0,031	0,061
-622,649	463,591	-0,037	0,060
-621,634	-64,534	-0,105	-0,031
-620,619	-18,334	-0,086	-0,039
-619,605	-111,807	0,148	-0,022
-618,590	800,000	-0,065	0,180
-617,576	-106,474	0,020	-0,003
-616,561	65,048	-0,035	-0,026
-615,546	-86,616	0,021	-0,005
-614,532	-200,000	0,001	-0,105
-613,517	-94,270	-0,159	0,032
-612,503	502,267	0,065	-0,110
-611,488	-107,928	-0,112	0,018
-610,474	-200,000	-0,007	0,032
-609,459	94,095	0,042	0,035
-608,444	800,000	-0,061	-0,133
-607,430	196,745	0,087	-0,097
-606,415	-127,876	0,241	0,025
-605,401	-200,000	0,005	-0,106
-604,386	-200,000	0,009	0,029
-603,371	-142,773	0,058	-0,004
-602,357	-200,000	0,001	-0,051
-601,342	-147,505	-0,041	0,002
-600,328	-93,138	0,088	0,018
-599,313	-200,000	-0,030	-0,114
-598,298	18,706	-0,095	0,056
-597,284	800,000	0,028	0,074
-596,269	-127,010	0,137	0,015
-595,255	213,611	-0,059	-0,068
-594,240	-200,000	0,021	0,069
-593,225	53,936	-0,044	0,031
-592,211	800,000	-0,055	-0,123
-591,196	800,000	-0,017	-0,039
-590,182	685,978	0,042	-0,081
-589,167	7,023	0,067	-0,036
-588,152	-200,000	-0,001	-0,149
-587,138	-27,556	-0,105	-0,045
-586,123	-200,000	0,010	0,085
-585,109	19,758	-0,055	0,032
-584,094	-200,000	-0,013	-0,085
-583,079	23,213	0,037	-0,022
-582,065	101,165	0,043	0,036
-581,050	374,039	-0,020	0,030
-580,036	32,263	-0,146	-0,092
-579,021	506,196	0,081	-0,138
-578,006	-197,486	0,087	0,000
-576,992	800,000	-0,039	0,114
-575,977	-112,965	0,105	0,015
-574,963	-72,727	0,156	-0,042
-573,948	-27,256	-0,126	0,054
-572,934	-200,000	-0,010	0,138
-571,919	-53,942	-0,092	0,031
-570,904	800,000	-0,015	-0,035
-569,890	124,814	-0,045	-0,042
-568,875	214,945	0,101	-0,117
-567,861	-151,632	-0,084	0,004
-566,846	185,556	0,048	0,053
-565,831	-47,431	-0,056	-0,020
-564,817	-95,438	-0,025	0,005
-563,802	-200,000	0,018	-0,157
-562,788	36,014	0,049	-0,031
-561,773	479,047	0,032	-0,053
-560,758	800,000	0,059	0,175
-559,744	196,055	-0,008	-0,009
-558,729	800,000	0,023	0,054
-557,715	800,000	-0,049	-0,121
-556,700	129,410	-0,121	-0,113
-555,685	351,548	0,081	0,118
-554,671	93,826	0,135	-0,112
-553,656	242,780	0,062	0,076
-552,642	-200,000	-0,009	-0,074
-551,627	800,000	0,041	0,109
-550,612	22,554	-0,157	-0,094
-549,598	55,836	0,103	0,073
-548,583	283,295	-0,067	0,088
-547,569	-200,000	0,003	-0,049
-546,554	-143,211	0,174	-0,012
-545,539	800,000	0,068	-0,145
-544,525	-70,503	-0,042	-0,012
-543,510	-118,953	-0,092	0,012
-542,496	-116,797	-0,109	-0,014
-541,481	185,871	-0,102	-0,111
-540,466	2,431	0,188	-0,099
-539,452	-164,880	0,056	0,002
-538,437	359,499	-0,037	0,054
-537,423	-6,767	-0,074	0,037
-536,408	-91,728	0,076	0,016
-535,393	-114,370	-0,169	-0,023
-534,379	800,000	-0,032	-0,088
-533,364	65,442	0,053	0,039
-532,350	-118,105	0,086	-0,011
-531,335	104,858	0,145	0,125
-530,321	558,174	-0,051	-0,090
-529,306	-200,000	0,019	-0,084
-528,291	76,150	-0,149	-0,115
-527,277	157,896	0,075	-0,076
-526,262	-200,000	-0,000	-0,061
-525,248	33,245	-0,074	-0,047
-524,233	-99,129	0,131	-0,024
-523,218	-162,191	0,049	-0,002
-522,204	-124,989	0,051	0,006
-521,189	100,773	-0,113	-0,096
-520,175	674,883	0,023	-0,043
-519,160	-11,575	0,007	0,003
-518,145	-200,000	-0,021	-0,119
-517,131	295,575	0,072	-0,097
-516,116	-200,000	-0,013	0,124
-515,102	-39,871	-0,124	-0,047
-514,087	-50,198	0,035	0,012
-513,072	-132,750	-0,144	0,013
-512,058	-200,000	-0,004	-0,135
-511,043	-200,000	-0,014	0,139
-510,029	-63,999	0,070	0,021
-509,014	166,032	-0,032	-0,033
-507,999	-200,000	0,012	-0,046
-506,985	233,916	0,035	-0,042
-505,970	-94,381	-0,056	-0,011
-504,956	-144,521	-0,033	0,002
-503,941	-66,596	-0,181	-0,052
-502,926	96,295	-0,034	-0,029
-501,912	-200,000	0,008	-0,059
-500,897	800,000	0,011	-0,025
-499,883	800,000	0,013	0,029
-498,868	694,819	-0,053	-0,102
-497,853	22,031	-0,120	-0,072
-496,839	-200,000	0,020	-0,213
-495,824	61,052	0,035	-0,025
-494,810	1,946	0,158	0,083
-493,795	295,567	0,070	0,094
-492,781	10,520	-0,046	0,026
-491,766	58,614	-0,060	-0,043
-490,751	800,000	-0,018	0,050
-489,737	228,680	-0,032	0,039
-488,722	1,817	0,205	0,108
-487,708	-200,000	-0,006	0,046
-486,693	-200,000	-0,011	-0,062
-485,678	800,000	0,028	0,070
-484,664	-54,277	-0,076	0,025
-483,649	261,645	-0,020	0,025
-482,635	-200,000	-0,013	0,071
-481,620	-24,051	-0,024	0,010
-480,605	-20,887	-0,106	0,047
-479,591	-200,000	0,042	0,137
-478,576	-11,120	-0,186	-0,089
-477,562	800,000	-0,011	-0,028
-476,547	800,000	0,016	-0,037
-475,532	-111,735	-0,063	-0,009
-474,518	-200,000	-0,009	-0,065
-473,503	-200,000	0,017	-0,072
-472,489	87,230	0,069	0,056
-471,474	-200,000	-0,020	0,074
-470,459	-106,804	-0,032	-0,005
-469,445	-116,849	0,020	-0,003
-468,430	-200,000	0,015	-0,067
-467,416	11,150	0,036	-0,020
-466,401	-39,066	0,058	-0,022
-465,386	-200,000	-0,021	0,077
-464,372	-108,925	0,155	-0,024
-463,357	43,469	-0,155	-0,103
-462,343	365,938	-0,032	0,047
-461,328	-200,000	0,009	-0,082
-460,313	-49,147	-0,068	-0,024
-459,299	-200,000	-0,030	0,145
-458,284	665,820	-0,018	-0,034
-457,270	-90,584	0,134	-0,028
-456,255	256,960	-0,059	-0,073
-455,241	-100,661	0,057	0,010
-454,226	800,000	0,044	0,115
-453,211	-200,000	0,006	0,178
-452,197	-134,384	0,056	0,005
-451,182	481,130	-0,036	-0,060
-450,168	-79,965	0,029	0,007
-449,153	614,994	-0,026	-0,048
-448,138	757,513	-0,060	-0,119
-447,124	-200,000	-0,023	-0,160
-446,109	800,000	0,009	-0,025
-445,095	316,786	0,061	-0,085
-444,080	-17,845	-0,022	0,010
-443,065	800,000	0,016	-0,041
-442,051	-14,959	0,104	0,048
-441,036	258,056	-0,096	0,121
-440,022	-200,000	-0,000	-0,083
-439,007	-28,231	-0,083	-0,035
-437,992	82,160	-0,073	-0,057
-436,978	-200,000	-0,042	-0,158
-435,963	382,454	0,036	-0,054
-434,949	230,075	0,123	0,147
-433,934	0,064	-0,109	0,056
-432,919	-200,000	0,015	-0,076
-431,905	-200,000	0,009	-0,153
-430,890	-8,012	0,061	0,030
-429,876	362,158	0,044	0,065
-428,861	-200,000	0,012	0,081
-427,846	-122,697	-0,026	-0,003
-426,832	-200,000	0,010	-0,085
-425,817	-83,286	-0,037	0,009
-424,803	702,910	0,066	0,128
-423,788	-93,610	-0,075	0,015
-422,773	148,123	-0,124	-0,122
-421,759	-200,000	0,017	0,076
-420,744	-60,430	0,103	-0,032
-419,730	695,412	-0,057	-0,110
-418,715	800,000	0,034	0,096
-417,701	137,737	-0,053	0,050
-416,686	-68,605	0,040	0,011
-415,671	584,623	0,035	0,063
-414,657	617,629	-0,074	0,136
-413,642	-200,000	-0,026	0,145
-412,628	-121,554	0,080	0,010
-411,613	-159,261	-0,039	0,002
-410,598	172,789	0,024	0,025
-409,584	5,587	-0,066	0,035
-408,569	-200,000	0,017	0,095
-407,555	28,229	-0,065	0,040
-406,540	-1,041	0,023	-0,012
-405,525	141,560	-0,098	-0,094
-404,511	148,493	-0,011	-0,011
-403,496	800,000	0,007	0,018
-402,482	-200,000	-0,020	0,113
-401,467	-131,701	0,092	-0,009
-400,452	-58,074	-0,104	-0,033
-399,438	54,042	-0,128	0,089
-398,423	800,000	0,005	-0,014
-397,409	-5,704	-0,240	0,119
-396,394	-68,616	-0,063	0,018
-395,379	13,336	-0,043	0,024
-394,365	-200,000	0,002	-0,081
-393,350	-200,000	0,013	0,150
-392,336	633,133	0,016	0,030
-391,321	800,000	-0,019	-0,040
-390,306	-107,026	0,145	0,023
-389,292	121,656	-0,073	0,067
-388,277	131,941	0,068	-0,064
-387,263	84,245	0,109	0,086
-386,248	800,000	0,024	0,066
-385,233	243,177	-0,053	0,064
-384,219	-78,328	0,086	-0,021
-383,204	54,002	0,102	-0,071
-382,190	44,291	0,068	0,045
-381,175	-34,953	0,027	-0,011
-380,160	-200,000	0,010	0,115
-379,146	117,344	0,150	0,134
-378,131	70,321	0,098	-0,073
-377,117	-161,579	0,013	0,000
-376,102	280,274	-0,067	-0,088
-375,088	793,675	-0,061	0,124
-374,073	203,492	0,076	-0,086
-373,058	142,932	0,050	-0,048
-372,044	800,000	-0,058	0,120
-371,029	-11,753	0,102	-0,049
-370,015	762,329	0,027	-0,054
-369,000	694,128	-0,043	-0,082
-367,985	243,448	0,044	0,054
-366,971	-28,848	0,099	-0,041
-365,956	321,131	-0,032	-0,045
-364,942	-200,000	0,006	0,149
-363,927	-37,164	0,038	-0,015
-362,912	90,299	-0,095	-0,077
-361,898	-12,188	0,066	-0,031
-360,883	-200,000	0,024	-0,149
-359,869	39,853	-0,040	-0,026
-358,854	313,899	0,083	0,113
-357,839	800,000	0,030	0,081
-356,825	473,411	-0,057	0,094
-355,810	320,386	-0,061	0,084
-354,796	800,000	-0,052	0,110
-353,781	-65,374	-0,137	0,040
-352,766	162,315	0,073	0,075
-351,752	-200,000	-0,023	0,151
-350,737	16,267	0,031	-0,018
-349,723	-200,000	0,019	0,085
-348,708	800,000	0,089	0,185
-347,693	-200,000	-0,011	-0,080
-346,679	222,982	-0,066	0,078
-345,664	251,836	-0,078	-0,096
-344,650	738,979	-0,037	0,072
-343,635	-76,042	0,107	0,027
-342,620	800,000	-0,056	0,161
-341,606	-200,000	-0,016	-0,069
-340,591	800,000	0,037	-0,077
-339,577	298,399	0,099	0,132
-338,562	800,000	-0,025	-0,052
-337,548	-12,945	0,057	0,027
-336,533	-73,069	-0,048	-0,013
-335,518	800,000	-0,045	0,141
-334,504	-95,382	-0,076	-0,015
-333,489	-41,238	0,034	-0,013
-332,475	70,956	0,056	0,042
-331,460	800,000	-0,038	0,094
-330,445	800,000	0,014	0,044
-329,431	-200,000	-0,012	-0,048
-328,416	56,646	-0,031	0,022
-327,402	-200,000	-0,017	0,067
-326,387	153,129	-0,040	-0,040
-325,372	800,000	0,045	0,117
-324,358	-28,256	0,064	0,027
-323,343	423,773	0,053	-0,084
-322,329	151,310	0,082	0,081
-321,314	-79,934	0,120	0,029
-320,299	-45,145	-0,065	-0,023
-319,285	42,820	0,137	0,090
-318,270	99,374	-0,085	-0,071
-317,256	80,371	0,083	0,064
-316,241	-200,000	-0,001	0,024
-315,226	87,172	0,023	-0,018
-314,212	-143,399	-0,015	-0,001
-313,197	-200,000	-0,014	-0,136
-312,183	111,482	-0,049	0,043
-311,168	371,213	-0,013	-0,020
-310,153	-200,000	0,018	-0,083
-309,139	245,161	0,094	-0,115
-308,124	330,633	-0,082	-0,114
-307,110	11,889	0,090	-0,050
-306,095	202,604	0,028	-0,032
-305,080	64,948	0,045	0,033
-304,066	-200,000	-0,033	0,143
-303,051	-85,786	0,024	-0,005
-302,037	160,255	0,007	0,007
-301,022	-200,000	-0,023	-0,082
-300,008	-27,432	-0,062	0,026
-298,993	233,686	0,018	0,022
-297,978	800,000	0,047	-0,108
-296,964	-31,849	0,078	0,032
-295,949	-200,000	0,003	-0,031
-294,935	-200,000	-0,041	-0,167
-293,920	-110,905	0,074	-0,011
-292,905	277,785	0,020	0,026
-291,891	-200,000	0,018	0,120
-290,876	-146,331	-0,147	0,009
-289,862	800,000	-0,059	-0,177
-288,847	-64,400	-0,051	-0,015
-287,832	-200,000	-0,035	-0,120
-286,818	6,668	-0,076	-0,041
-285,803	0,988	0,166	-0,086
-284,789	0,090	0,022	0,011
-283,774	-200,000	0,005	0,035
-282,759	-4,072	-0,165	-0,082
-281,745	-94,672	0,108	0,021
-280,730	49,676	-0,114	-0,078
-279,716	169,814	0,053	-0,055
-278,701	185,656	0,108	0,116
-277,686	165,772	-0,023	-0,024
-276,672	12,979	0,147	0,082
-275,657	-200,000	-0,009	0,035
-274,643	-125,502	-0,172	0,019
-273,628	800,000	0,037	0,086
-272,613	800,000	-0,036	-0,105
-271,599	-55,262	-0,044	0,014
-270,584	-200,000	0,025	-0,116
-269,570	-200,000	0,002	-0,049
-268,555	-1,028	0,071	-0,036
-267,540	-200,000	-0,022	-0,092
-266,526	-113,614	0,058	0,008
-265,511	-130,225	-0,122	-0,012
-264,497	455,799	0,046	0,075
-263,482	-2,817	0,153	0,077
-262,467	182,284	-0,090	0,097
-261,453	53,492	0,122	-0,084
-260,438	487,453	-0,032	-0,052
-259,424	-164,774	0,053	0,002
-258,409	70,305	0,114	-0,085
-257,395	-200,000	-0,016	-0,055
-256,380	-138,098	0,050	-0,004
-255,365	800,000	0,040	0,122
-254,351	-200,000	-0,021	0,154
-253,336	80,839	0,057	-0,044
-252,322	188,712	0,120	-0,130
-251,307	292,812	-0,068	-0,090
-250,292	-200,000	0,012	-0,057
-249,278	800,000	-0,059	-0,142
-248,263	800,000	-0,055	-0,119
-247,249	137,237	-0,077	0,073
-246,234	-128,650	0,067	-0,007
-245,219	105,040	-0,020	0,017
-244,205	800,000	-0,049	-0,116
-243,190	30,144	0,045	-0,028
-242,176	-59,305	-0,094	-0,029
-241,161	800,000	0,047	0,140
-240,146	471,209	-0,068	0,112
-239,132	-200,000	-0,025	0,152
-238,117	-77,921	0,093	-0,023
-237,103	-200,000	0,009	-0,034
-236,088	-35,447	-0,109	-0,043
-235,073	-200,000	0,012	0,084
-234,059	-85,527	-0,041	0,009
-233,044	-111,089	0,042	0,006
-232,030	-200,000	0,005	0,102
-231,015	-73,167	-0,118	0,031
-230,000	-200,000	-0,002	0,008
-228,986	-200,000	-0,011	-0,097
-227,971	-50,030	-0,060	-0,021
-226,957	586,241	0,040	-0,071
-225,942	22,597	0,075	-0,044
-224,927	-139,633	0,152	0,012
-223,913	41,983	-0,093	0,061
-222,898	800,000	0,018	0,054
-221,884	-44,135	-0,052	0,019
-220,869	222,893	-0,024	-0,028
-219,855	-200,000	0,005	-0,044
-218,840	140,072	-0,081	0,077
-217,825	263,336	-0,052	-0,065
-216,811	-200,000	-0,015	-0,092
-215,796	800,000	-0,037	-0,082
-214,782	103,474	0,007	0,006
-213,767	800,000	-0,024	0,053
-212,752	172,941	-0,022	0,023
-211,738	-118,030	-0,053	0,007
-210,723	588,129	0,039	0,069
-209,709	240,929	0,074	-0,089
-208,694	67,715	0,062	-0,046
-207,679	133,105	-0,077	-0,072
-206,665	280,951	0,049	-0,063
-205,650	38,037	0,073	0,047
-204,636	423,709	0,051	0,079
-203,621	-104,620	-0,163	0,027
-202,606	120,512	0,062	0,056
-201,592	800,000	-0,049	0,126
-200,577	800,000	0,035	0,081
-199,563	-200,000	0,021	0,145
-198,548	149,916	-0,076	-0,074
-197,533	-200,000	-0,014	0,068
-196,519	-35,283	-0,114	-0,044
-195,504	-200,000	-0,018	0,061
-194,490	604,942	-0,101	-0,182
-193,475	28,927	-0,027	0,016
-192,460	25,023	0,079	-0,047
-191,446	183,318	0,019	0,020
-190,431	-137,875	0,063	-0,005
-189,417	-200,000	-0,030	0,181
-188,402	-200,000	0,049	0,176
-187,387	-200,000	-0,001	-0,121
-186,373	800,000	0,045	0,094
-185,358	137,271	-0,047	-0,045
-184,344	503,582	0,018	-0,030
-183,329	439,208	0,095	0,149
-182,315	6,530	0,080	-0,043
-181,300	169,587	-0,057	0,059
-180,285	-91,483	-0,140	0,028
-179,271	43,036	-0,035	0,023
-178,256	-122,683	-0,047	-0,005
-177,242	529,572	0,054	0,093
-176,227	-172,588	0,104	-0,002
-175,212	-9,940	-0,059	0,028
-174,198	-200,000	0,001	0,025
-173,183	-1,028	-0,069	0,035
-172,169	431,855	0,029	0,046
-171,154	-87,638	-0,120	-0,026
-170,139	63,725	0,145	0,105
-169,125	-34,023	0,116	0,046
-168,110	202,838	0,139	0,155
-167,096	137,347	0,045	-0,042
-166,081	-13,616	-0,134	-0,062
-165,066	32,311	-0,023	-0,014
-164,052	-200,000	0,009	-0,036
-163,037	89,624	0,025	0,020
-162,023	140,821	-0,061	-0,058
-161,008	129,165	-0,059	0,054
-159,993	151,113	0,030	0,029
-158,979	800,000	-0,041	-0,088
-157,964	-62,339	-0,063	0,019
-156,950	-101,303	-0,116	-0,020
-155,935	-115,083	-0,178	-0,024
-154,920	-200,000	0,047	-0,153
-153,906	76,162	0,129	0,098
-152,891	37,932	0,003	0,002
-151,877	-200,000	-0,025	-0,142
-150,862	800,000	0,030	0,093
-149,847	-87,512	0,122	0,026
-148,833	-123,121	-0,077	-0,009
-147,818	211,637	-0,040	0,046
-146,804	-97,605	0,068	0,013
-145,789	-149,438	-0,072	0,004
-144,775	-42,218	-0,148	0,054
-143,760	102,382	-0,055	0,046
-142,745	800,000	-0,048	0,098
-141,731	800,000	-0,047	-0,133
-140,716	800,000	0,022	-0,049
-139,702	78,126	-0,108	0,083
-138,687	-52,276	-0,158	0,053
-137,672	-42,537	0,029	0,011
-136,658	310,784	0,014	-0,019
-135,643	638,474	-0,057	-0,104
-134,629	129,527	-0,023	-0,021
-133,614	149,653	0,010	0,010
-132,599	62,335	0,102	-0,073
-131,585	24,689	0,099	0,059
-130,570	72,742	-0,031	0,023
-129,556	11,330	-0,087	0,048
-128,541	-52,501	0,042	0,014
-127,526	-128,589	-0,109	0,011
-126,512	468,726	0,023	-0,037
-125,497	490,445	0,057	0,095
-124,483	-66,286	0,169	0,048
-123,468	27,292	0,066	-0,040
-122,453	172,902	-0,119	-0,124
-121,439	79,288	0,036	-0,027
-120,424	-200,000	-0,037	0,127
-119,410	-101,431	0,214	-0,037
-118,395	-200,000	0,009	-0,092
