DTS Sentinel unit serial number:	SN410029Multiplexer serial number:	ORYXHardware model number:	OX2-SRSoftware version number:	ORYX F/W v4,00 Oryx Data Collector v3.7.2.0data status	okinstallation	B5 Nyhavnadifferential loss correction	single-endedforward channel	channel 2reverse channel	N/Adate	2023/12/11time	19:47:13forward acquisition time	300,00reverse acquisition time	0,00gamma	499,1914k internal	0,3159k external	0,3159temperature offset calibration	1,0000default loss term (dB/km)	0,3820temperature slope calibration	1,0000multiplexer offset coefficient	1,0000multiplexer slope coefficient	1,0000fibre end	0,00T internal ref (°C)	15,76T ext. ref 1 (°C)	0,04T ext. ref 2 (°C)	-0,19length (m)	temperature (°C)	Stokes	anti-Stokes-744,400	-102,796	0,047	0,008
-743,385	-178,564	-0,270	0,004
-742,371	214,415	0,039	0,046
-741,356	-162,154	-0,246	0,009
-740,342	-33,096	0,171	-0,070
-739,327	-122,230	-0,274	0,033
-738,312	800,000	-0,055	0,154
-737,298	30,363	-0,130	0,082
-736,283	-200,000	0,006	-0,091
-735,269	56,432	-0,200	0,143
-734,254	184,544	0,039	0,043
-733,239	-12,668	-0,343	-0,164
-732,225	-108,705	0,102	-0,016
-731,210	-131,680	0,109	0,010
-730,196	-200,000	-0,005	-0,064
-729,181	23,327	0,140	-0,085
-728,167	-200,000	0,008	0,077
-727,152	-200,000	-0,005	0,032
-726,137	427,967	-0,090	-0,143
-725,123	141,765	-0,039	-0,038
-724,108	655,515	-0,008	-0,015
-723,094	-200,000	-0,010	0,036
-722,079	248,270	-0,139	-0,173
-721,064	-91,625	0,071	0,015
-720,050	-27,973	-0,113	-0,048
-719,035	162,306	-0,073	-0,076
-718,021	-13,743	-0,020	-0,010
-717,006	-87,612	-0,062	0,014
-715,991	252,075	-0,032	0,041
-714,977	-200,000	-0,003	-0,023
-713,962	-137,236	-0,161	-0,013
-712,948	164,974	-0,039	0,041
-711,933	800,000	-0,007	-0,020
-710,918	-46,160	-0,053	0,019
-709,904	357,360	-0,028	0,041
-708,889	800,000	0,009	-0,030
-707,875	800,000	-0,015	-0,044
-706,860	170,300	-0,055	-0,058
-705,845	-76,470	0,133	-0,034
-704,831	-200,000	0,020	-0,133
-703,816	-32,347	-0,092	0,037
-702,802	-146,559	-0,008	-0,000
-701,787	-21,618	0,028	-0,013
-700,772	-48,920	0,148	-0,052
-699,758	44,110	-0,051	-0,035
-698,743	-80,240	0,055	0,013
-697,729	-178,091	0,178	-0,003
-696,714	92,229	-0,039	0,032
-695,699	54,630	-0,108	-0,076
-694,685	-200,000	0,007	0,088
-693,670	43,135	-0,024	0,016
-692,656	188,752	-0,000	-0,000
-691,641	800,000	-0,025	-0,063
-690,627	26,132	-0,053	0,033
-689,612	417,925	0,057	-0,089
-688,597	713,757	-0,043	-0,084
-687,583	613,422	-0,053	-0,098
-686,568	-43,121	-0,166	0,061
-685,554	234,355	-0,101	-0,123
-684,539	-200,000	-0,053	-0,177
-683,524	-141,782	-0,119	-0,009
-682,510	-63,459	-0,080	0,024
-681,495	144,840	0,048	0,047
-680,481	-14,928	-0,143	-0,067
-679,466	-36,904	0,113	0,044
-678,451	168,272	0,040	-0,041
-677,437	451,787	-0,031	-0,051
-676,422	-84,364	0,075	0,017
-675,408	-74,428	-0,055	0,014
-674,393	-200,000	-0,001	-0,057
-673,378	-169,810	-0,146	0,004
-672,364	-139,507	-0,132	-0,010
-671,349	-161,050	-0,085	0,003
-670,335	-132,300	-0,123	-0,011
-669,320	-49,419	0,179	-0,062
-668,305	-200,000	-0,009	0,062
-667,291	-200,000	-0,005	-0,024
-666,276	54,914	-0,107	0,076
-665,262	87,068	-0,033	-0,027
-664,247	800,000	0,023	-0,056
-663,232	44,773	0,044	-0,029
-662,218	-93,602	-0,091	0,018
-661,203	800,000	-0,036	0,097
-660,189	59,177	-0,084	-0,061
-659,174	800,000	-0,044	-0,132
-658,159	-91,686	-0,167	-0,034
-657,145	517,238	0,034	-0,059
-656,130	29,509	0,021	-0,013
-655,116	352,130	0,048	0,070
-654,101	-200,000	0,008	0,044
-653,086	800,000	0,059	0,125
-652,072	59,957	-0,115	-0,083
-651,057	800,000	0,015	-0,038
-650,043	-100,139	-0,081	0,015
-649,028	-150,764	0,079	0,004
-648,014	-200,000	-0,003	0,130
-646,999	401,199	-0,038	-0,059
-645,984	-44,225	-0,067	0,024
-644,970	182,040	-0,022	0,024
-643,955	800,000	-0,057	-0,141
-642,941	-109,038	0,048	0,007
-641,926	117,400	0,058	-0,053
-640,911	523,009	-0,070	0,121
-639,897	190,028	0,063	0,070
-638,882	-116,567	-0,145	0,019
-637,868	-43,916	-0,040	0,015
-636,853	-94,383	-0,109	-0,022
-635,838	6,912	-0,159	-0,087
-634,824	-61,499	-0,020	0,006
-633,809	59,931	0,117	0,085
-632,795	-37,220	-0,023	0,009
-631,780	-12,027	0,053	0,026
-630,765	800,000	-0,022	-0,066
-629,751	21,488	-0,140	-0,083
-628,736	-200,000	0,028	-0,123
-627,722	314,606	-0,052	-0,072
-626,707	82,428	0,003	-0,002
-625,692	-200,000	-0,002	-0,045
-624,678	800,000	-0,027	0,066
-623,663	-200,000	-0,047	-0,163
-622,649	209,179	0,066	-0,076
-621,634	-200,000	-0,016	-0,116
-620,619	-9,921	0,031	-0,015
-619,605	-117,112	-0,040	-0,005
-618,590	-120,658	-0,131	-0,016
-617,576	177,527	0,078	-0,084
-616,561	163,268	-0,172	-0,178
-615,546	100,910	0,014	-0,012
-614,532	-200,000	0,003	0,041
-613,517	800,000	-0,069	-0,177
-612,503	-139,996	-0,019	-0,001
-611,488	-200,000	-0,017	0,163
-610,474	-200,000	-0,032	0,136
-609,459	-69,064	-0,199	0,056
-608,444	-35,855	-0,174	-0,069
-607,430	-200,000	-0,024	-0,182
-606,415	313,920	-0,031	-0,043
-605,401	132,792	-0,037	-0,035
-604,386	254,496	0,026	0,033
-603,371	800,000	0,032	-0,087
-602,357	-136,549	0,125	0,010
-601,342	391,430	-0,049	0,074
-600,328	-200,000	0,003	0,090
-599,313	630,218	-0,063	-0,117
-598,298	-78,306	0,064	-0,016
-597,284	-40,066	0,119	-0,045
-596,269	74,746	0,070	0,054
-595,255	-200,000	0,005	0,047
-594,240	-200,000	-0,039	0,172
-593,225	-44,735	0,092	-0,033
-592,211	204,379	-0,097	-0,110
-591,196	-141,004	-0,058	0,004
-590,182	-53,546	0,086	0,029
-589,167	-102,733	0,130	-0,022
-588,152	84,290	-0,032	-0,026
-587,138	-57,679	-0,165	0,053
-586,123	-77,231	-0,139	-0,035
-585,109	-167,302	-0,081	0,002
-584,094	60,299	-0,027	0,020
-583,079	-200,000	0,011	0,074
-582,065	-200,000	0,025	0,119
-581,050	-26,738	-0,028	0,012
-580,036	800,000	0,028	-0,071
-579,021	-54,091	-0,036	0,012
-578,006	-97,903	-0,250	-0,047
-576,992	104,254	-0,029	-0,025
-575,977	-89,533	0,059	0,013
-574,963	-145,858	0,099	0,006
-573,948	7,577	-0,038	-0,021
-572,934	-200,000	-0,008	0,156
-571,919	46,851	-0,084	0,057
-570,904	301,059	-0,075	-0,102
-569,890	-200,000	0,022	0,113
-568,875	-127,671	0,079	-0,008
-567,861	156,408	-0,043	-0,043
-566,846	5,280	0,165	0,089
-565,831	38,766	-0,050	-0,033
-564,817	15,235	0,020	0,012
-563,802	55,840	-0,062	-0,044
-562,788	39,304	-0,081	-0,053
-561,773	-133,194	0,076	-0,007
-560,758	-52,029	-0,072	-0,024
-559,744	746,312	0,068	0,134
-558,729	-200,000	-0,013	0,135
-557,715	800,000	0,031	-0,064
-556,700	800,000	-0,017	-0,052
-555,685	-144,033	-0,104	0,007
-554,671	-127,090	0,073	0,008
-553,656	-78,943	0,034	0,008
-552,642	-200,000	-0,019	0,084
-551,627	-115,131	0,027	0,004
-550,612	800,000	-0,012	0,038
-549,598	-200,000	0,025	0,111
-548,583	55,145	0,101	0,071
-547,569	-193,600	-0,052	0,000
-546,554	-62,669	-0,048	0,014
-545,539	-200,000	0,002	0,020
-544,525	-153,900	-0,102	0,005
-543,510	165,384	0,062	-0,065
-542,496	800,000	0,057	-0,172
-541,481	-200,000	0,003	-0,085
-540,466	8,232	-0,016	-0,009
-539,452	-200,000	0,006	-0,094
-538,437	-200,000	-0,031	-0,117
-537,423	-200,000	-0,007	0,274
-536,408	-42,830	0,028	0,010
-535,393	-34,314	0,027	-0,011
-534,379	75,024	-0,077	-0,059
-533,364	800,000	0,030	0,074
-532,350	-15,441	0,056	-0,026
-531,335	470,023	0,042	-0,069
-530,321	800,000	0,027	0,062
-529,306	91,176	-0,050	0,041
-528,291	-200,000	-0,011	-0,067
-527,277	153,295	0,109	-0,109
-526,262	-159,731	0,195	-0,008
-525,248	475,305	0,035	0,059
-524,233	248,225	0,067	0,083
-523,218	-200,000	0,003	0,038
-522,204	108,625	0,073	0,064
-521,189	800,000	0,074	-0,162
-520,175	-39,086	-0,098	0,037
-519,160	74,345	0,107	-0,082
-518,145	193,120	0,072	0,080
-517,131	800,000	0,030	0,087
-516,116	112,332	-0,019	0,017
-515,102	78,418	-0,089	-0,069
-514,087	460,550	-0,029	0,048
-513,072	-200,000	-0,006	-0,084
-512,058	800,000	-0,060	-0,126
-511,043	800,000	-0,016	0,050
-510,029	-200,000	0,007	0,133
-509,014	-200,000	-0,008	0,088
-507,999	-77,068	0,090	0,023
-506,985	380,404	-0,105	-0,157
-505,970	61,452	0,045	-0,033
-504,956	-46,659	-0,056	0,020
-503,941	126,524	0,085	0,079
-502,926	-42,382	0,041	0,015
-501,912	442,625	0,036	0,057
-500,897	-154,438	-0,069	0,003
-499,883	15,090	-0,059	-0,034
-498,868	-111,884	-0,107	-0,016
-497,853	-135,745	-0,101	-0,009
-496,839	561,083	-0,038	0,067
-495,824	-35,898	-0,099	-0,039
-494,810	-105,913	-0,058	0,009
-493,795	-63,322	0,153	0,046
-492,781	-9,291	0,058	-0,028
-491,766	216,914	-0,065	-0,076
-490,751	-18,201	-0,061	0,028
-489,737	-200,000	-0,019	0,083
-488,722	800,000	0,051	-0,123
-487,708	-112,525	0,012	-0,002
-486,693	247,047	0,125	0,155
-485,678	225,084	0,097	0,114
-484,664	-200,000	-0,007	-0,187
-483,649	50,820	-0,062	-0,043
-482,635	800,000	-0,040	0,093
-481,620	126,194	0,084	0,078
-480,605	-22,746	-0,007	-0,003
-479,591	-23,934	-0,063	0,027
-478,576	2,861	0,112	0,059
-477,562	361,614	-0,090	-0,131
-476,547	40,468	-0,033	-0,022
-475,532	621,984	-0,022	-0,040
-474,518	753,978	0,025	0,050
-473,503	-165,994	0,126	0,004
-472,489	299,424	0,082	0,110
-471,474	-200,000	0,033	-0,115
-470,459	-200,000	-0,029	0,130
-469,445	-62,017	-0,089	0,027
-468,430	800,000	-0,030	-0,095
-467,416	-94,975	0,118	0,023
-466,401	14,512	-0,051	0,029
-465,386	-200,000	0,015	-0,078
-464,372	800,000	-0,019	-0,052
-463,357	800,000	0,028	-0,076
-462,343	255,398	0,057	0,072
-461,328	85,224	-0,027	-0,022
-460,313	800,000	0,034	0,079
-459,299	800,000	-0,020	-0,049
-458,284	-200,000	0,011	-0,063
-457,270	44,045	0,110	0,074
-456,255	-73,544	0,105	-0,028
-455,241	295,586	-0,086	-0,115
-454,226	-200,000	0,007	-0,131
-453,211	-9,943	-0,035	-0,017
-452,197	800,000	-0,027	0,081
-451,182	-200,000	-0,003	-0,068
-450,168	-112,003	-0,122	-0,018
-449,153	381,904	0,051	0,077
-448,138	7,504	-0,088	0,048
-447,124	-200,000	-0,001	-0,028
-446,109	212,704	0,143	0,165
-445,095	-200,000	-0,023	0,135
-444,080	-136,022	0,117	-0,010
-443,065	469,024	-0,042	-0,069
-442,051	-149,284	-0,108	0,006
-441,036	241,890	-0,072	0,088
-440,022	-200,000	0,013	0,060
-439,007	-114,403	-0,032	0,004
-437,992	-93,085	0,049	0,010
-436,978	53,605	0,098	0,068
-435,963	312,550	-0,068	0,093
-434,949	-200,000	0,059	0,192
-433,934	800,000	-0,032	-0,082
-432,919	-58,908	-0,063	0,020
-431,905	-200,000	-0,005	0,083
-430,890	800,000	-0,059	0,164
-429,876	-38,729	0,080	0,031
-428,861	-141,800	0,152	-0,011
-427,846	390,968	0,059	0,089
-426,832	545,780	0,022	-0,038
-425,817	-62,628	0,061	0,018
-424,803	800,000	-0,025	-0,063
-423,788	-200,000	0,029	-0,117
-422,773	172,652	0,096	-0,101
-421,759	-162,339	0,155	-0,006
-420,744	130,809	-0,045	0,042
-419,730	-200,000	0,044	-0,214
-418,715	-200,000	-0,012	-0,044
-417,701	245,500	-0,036	-0,044
-416,686	-200,000	-0,016	-0,120
-415,671	39,522	0,070	0,046
-414,657	800,000	0,023	0,048
-413,642	132,917	-0,080	-0,075
-412,628	729,439	-0,078	0,152
-411,613	800,000	0,029	0,091
-410,598	-200,000	-0,030	-0,146
-409,584	-152,430	0,128	0,007
-408,569	-56,517	0,073	-0,023
-407,555	-104,748	0,107	-0,018
-406,540	-200,000	0,029	0,135
-405,525	-200,000	0,034	0,130
-404,511	287,376	-0,069	-0,092
-403,496	52,016	-0,089	-0,061
-402,482	-7,737	0,185	0,091
-401,467	350,361	-0,048	0,069
-400,452	800,000	0,016	0,043
-399,438	59,767	-0,073	0,052
-398,423	-141,339	0,166	0,012
-397,409	391,538	-0,029	-0,044
-396,394	-47,043	-0,094	-0,033
-395,379	-200,000	-0,004	-0,119
-394,365	27,844	0,075	0,046
-393,350	272,097	0,051	0,066
-392,336	-1,340	-0,107	-0,055
-391,321	87,123	-0,077	-0,062
-390,306	-200,000	-0,014	-0,049
-389,292	67,829	-0,014	-0,010
-388,277	-200,000	-0,003	0,059
-387,263	313,776	0,089	0,122
-386,248	780,176	0,065	0,130
-385,233	455,770	-0,064	0,104
-384,219	-200,000	0,017	-0,094
-383,204	62,882	0,124	-0,090
-382,190	800,000	-0,021	-0,048
-381,175	-85,838	0,072	-0,016
-380,160	528,336	0,100	-0,173
-379,146	243,676	-0,011	0,014
-378,131	-200,000	0,022	0,073
-377,117	-16,312	-0,091	0,042
-376,102	800,000	-0,011	0,022
-375,088	-19,198	0,028	0,013
-374,073	-62,364	0,034	-0,010
-373,058	-93,830	-0,184	0,036
-372,044	-200,000	0,002	0,160
-371,029	93,893	-0,027	-0,022
-370,015	125,123	0,010	-0,009
-369,000	372,990	-0,024	0,035
-367,985	-200,000	0,038	0,146
-366,971	-200,000	0,015	-0,082
-365,956	43,470	0,016	-0,011
-364,942	800,000	0,018	0,047
-363,927	-153,537	-0,119	-0,006
-362,912	-65,268	0,128	-0,037
-361,898	800,000	-0,034	-0,082
-360,883	35,819	-0,160	-0,102
-359,869	-187,973	-0,111	-0,001
-358,854	466,902	0,023	-0,038
-357,839	-200,000	0,020	0,084
-356,825	48,974	-0,057	-0,039
-355,810	79,644	0,048	0,038
-354,796	-55,888	0,121	-0,039
-353,781	27,071	-0,141	-0,086
-352,766	129,465	-0,025	-0,023
-351,752	800,000	0,037	-0,090
-350,737	271,679	0,034	-0,044
-349,723	122,317	0,136	0,123
-348,708	170,948	-0,035	-0,036
-347,693	23,377	0,158	0,094
-346,679	-3,516	0,016	-0,008
-345,664	-129,414	-0,212	-0,021
-344,650	294,511	0,070	0,094
-343,635	-112,225	-0,038	-0,005
-342,620	-200,000	-0,013	0,000
-341,606	-89,748	0,075	0,016
-340,591	78,226	-0,142	0,110
-339,577	416,120	-0,075	-0,116
-338,562	188,525	-0,083	-0,090
-337,548	-6,429	0,024	-0,012
-336,533	-48,582	0,108	0,037
-335,518	800,000	0,045	0,140
-334,504	-90,923	0,088	-0,018
-333,489	-200,000	0,031	-0,174
-332,475	61,148	-0,125	0,090
-331,460	-153,876	-0,136	0,007
-330,445	106,411	-0,046	0,040
-329,431	-63,212	0,125	0,037
-328,416	36,481	0,110	0,070
-327,402	291,894	-0,032	-0,042
-326,387	-87,646	-0,058	-0,013
-325,372	37,663	0,110	0,071
-324,358	800,000	0,037	-0,100
-323,343	223,154	-0,064	-0,075
-322,329	557,922	0,047	-0,083
-321,314	96,951	0,080	-0,067
-320,299	-136,058	0,059	-0,005
-319,285	-31,953	0,163	-0,066
-318,270	-147,935	0,091	-0,005
-317,256	6,335	-0,107	-0,057
-316,241	95,427	0,024	-0,020
-315,226	-200,000	0,005	0,044
-314,212	800,000	0,025	-0,065
-313,197	146,891	0,084	0,081
-312,183	-200,000	0,000	-0,073
-311,168	-4,414	0,061	0,031
-310,153	-200,000	-0,020	-0,086
-309,139	-69,393	-0,104	0,029
-308,124	141,055	0,115	-0,110
-307,110	166,364	-0,049	-0,050
-306,095	-14,478	0,180	-0,084
-305,080	760,908	-0,010	0,020
-304,066	-35,617	-0,075	0,029
-303,051	-95,476	-0,020	-0,004
-302,037	-88,394	-0,124	-0,027
-301,022	29,979	-0,045	-0,028
-300,008	62,215	-0,050	0,036
-298,993	-200,000	0,017	0,129
-297,978	339,634	-0,022	-0,031
-296,964	-186,915	-0,051	0,000
-295,949	800,000	0,046	-0,095
-294,935	-200,000	0,007	-0,046
-293,920	-153,292	0,032	0,002
-292,905	210,572	0,066	0,075
-291,891	800,000	-0,020	-0,044
-290,876	-200,000	-0,002	0,111
-289,862	-88,296	-0,017	-0,004
-288,847	28,190	0,026	0,016
-287,832	-29,584	-0,070	-0,029
-286,818	233,723	-0,130	0,155
-285,803	-25,099	0,058	-0,025
-284,789	8,440	0,021	-0,011
-283,774	17,926	-0,051	0,029
-282,759	514,346	0,057	0,097
-281,745	32,522	0,060	-0,037
-280,730	800,000	-0,032	-0,068
-279,716	174,388	0,056	0,059
-278,701	-184,273	0,201	0,002
-277,686	86,419	0,074	-0,059
-276,672	-7,676	-0,033	0,016
-275,657	-200,000	0,017	0,132
-274,643	800,000	-0,042	-0,086
-273,628	253,626	0,021	-0,026
-272,613	-200,000	0,021	-0,193
-271,599	-200,000	0,027	0,168
-270,584	-200,000	0,021	0,109
-269,570	709,994	-0,037	0,071
-268,555	564,688	0,046	-0,081
-267,540	434,246	-0,098	0,155
-266,526	-7,769	0,007	0,004
-265,511	-157,878	0,098	-0,004
-264,497	253,705	-0,035	-0,043
-263,482	75,295	0,086	0,066
-262,467	-182,130	-0,044	-0,001
-261,453	800,000	0,023	0,069
-260,438	373,728	0,027	-0,040
-259,424	-200,000	-0,034	-0,178
-258,409	-60,571	0,032	0,010
-257,395	214,785	-0,121	0,139
-256,380	165,935	0,064	-0,066
-255,365	-56,797	-0,125	0,040
-254,351	-174,776	-0,155	0,003
-253,336	-63,511	-0,044	0,013
-252,322	-96,108	-0,125	-0,024
-251,307	-27,988	0,045	-0,019
-250,292	-69,697	-0,026	0,007
-249,278	-6,338	-0,142	-0,070
-248,263	-200,000	0,013	0,182
-247,249	-138,995	0,071	-0,006
-246,234	237,977	-0,037	0,044
-245,219	-47,620	-0,053	0,019
-244,205	19,928	0,047	0,027
-243,190	-169,911	-0,059	0,002
-242,176	-200,000	0,014	0,076
-241,161	-66,747	-0,174	-0,050
-240,146	-72,970	0,106	0,028
-239,132	-200,000	0,001	-0,023
-238,117	-200,000	-0,009	-0,061
-237,103	-200,000	-0,041	-0,142
-236,088	345,832	-0,038	0,054
-235,073	256,028	0,109	0,135
-234,059	77,492	0,091	0,070
-233,044	-111,989	0,118	0,017
-232,030	355,778	-0,128	-0,185
-231,015	-200,000	-0,010	-0,040
-230,000	-200,000	-0,029	-0,112
-228,986	-200,000	0,123	0,000
-227,971	-170,344	0,041	-0,001
-226,957	-200,000	-0,021	0,099
-225,942	10,434	0,080	0,044
-224,927	-200,000	0,004	0,148
-223,913	-177,785	-0,125	0,002
-222,898	-200,000	0,001	-0,140
-221,884	217,228	-0,120	-0,138
-220,869	-2,210	0,095	-0,048
-219,855	-30,634	0,176	0,072
-218,840	-69,306	-0,069	0,019
-217,825	-12,699	-0,060	0,028
-216,811	-17,730	-0,051	0,023
-215,796	-66,717	0,036	-0,010
-214,782	25,495	0,031	-0,019
-213,767	-27,703	0,029	0,012
-212,752	-200,000	-0,020	-0,128
-211,738	-140,788	0,079	-0,006
-210,723	-29,877	-0,087	0,036
-209,709	-200,000	0,018	0,060
-208,694	530,523	-0,051	0,086
-207,679	-61,047	-0,146	-0,044
-206,665	17,169	-0,018	0,010
-205,650	233,541	-0,033	0,040
-204,636	-101,649	0,237	-0,041
-203,621	800,000	-0,029	-0,059
-202,606	-155,835	-0,055	0,002
-201,592	375,622	-0,009	0,013
-200,577	779,401	-0,009	-0,017
-199,563	584,921	0,020	0,035
-198,548	193,033	-0,049	-0,053
-197,533	-200,000	0,010	0,042
-196,519	-200,000	-0,000	-0,070
-195,504	-72,089	-0,043	0,011
-194,490	-95,788	0,037	-0,007
-193,475	-45,117	-0,013	0,005
-192,460	-132,070	0,047	0,004
-191,446	24,054	-0,100	-0,059
-190,431	-84,511	0,021	-0,005
-189,417	-128,615	-0,063	-0,006
-188,402	125,257	-0,010	-0,009
-187,387	-200,000	-0,031	0,102
-186,373	151,247	0,079	-0,078
-185,358	-73,649	0,099	0,026
-184,344	-200,000	0,038	0,000
-183,329	206,329	-0,016	0,018
-182,315	-200,000	0,016	0,093
-181,300	183,995	0,085	-0,090
-180,285	-19,910	-0,075	0,033
-179,271	800,000	0,038	-0,091
-178,256	-86,730	0,067	-0,015
-177,242	-23,845	0,145	-0,062
-176,227	-91,190	0,046	-0,009
-175,212	133,423	-0,052	-0,048
-174,198	-200,000	0,022	-0,090
-173,183	167,073	-0,125	0,128
-172,169	26,461	-0,070	0,042
-171,154	578,379	0,015	-0,027
-170,139	79,118	-0,045	0,035
-169,125	-95,304	-0,121	0,023
-168,110	247,987	-0,033	0,041
-167,096	-116,748	-0,095	0,012
-166,081	-22,717	-0,074	-0,032
-165,066	800,000	0,034	-0,092
-164,052	-4,468	0,087	-0,043
-163,037	-200,000	-0,018	0,100
-162,023	-72,620	0,113	-0,030
-161,008	71,435	-0,059	-0,044
-159,993	-5,845	0,070	-0,034
-158,979	85,914	-0,019	0,015
-157,964	18,318	0,085	0,049
-156,950	-200,000	-0,036	-0,128
-155,935	120,143	-0,116	-0,104
-154,920	-10,577	0,071	0,034
-153,906	-200,000	0,008	0,051
-152,891	63,206	0,113	0,082
-151,877	142,427	0,085	-0,081
-150,862	31,385	-0,078	-0,048
-149,847	800,000	0,044	-0,092
-148,833	84,351	-0,077	0,061
-147,818	28,662	0,106	-0,064
-146,804	-29,825	0,040	0,016
-145,789	400,989	-0,016	0,024
-144,775	-91,114	0,063	0,013
-143,760	177,652	-0,082	0,086
-142,745	800,000	0,036	-0,110
-141,731	800,000	0,057	-0,155
-140,716	-119,068	0,073	-0,009
-139,702	231,052	0,021	0,025
-138,687	312,227	0,081	0,110
-137,672	16,142	-0,016	0,009
-136,658	-146,389	-0,168	-0,010
-135,643	-200,000	0,024	-0,095
-134,629	10,644	-0,093	0,051
-133,614	-200,000	0,019	0,089
-132,599	-68,387	-0,079	-0,022
-131,585	710,654	0,043	0,082
-130,570	-135,499	-0,112	-0,009
-129,556	48,149	0,009	0,006
-128,541	-200,000	0,018	-0,076
-127,526	800,000	0,013	0,040
-126,512	-12,381	-0,057	-0,027
-125,497	329,684	0,081	-0,112
-124,483	-200,000	-0,003	0,036
-123,468	-54,064	-0,095	0,031
-122,453	262,828	-0,170	0,212
-121,439	-90,818	0,048	-0,010
-120,424	800,000	-0,029	0,089
-119,410	-50,010	0,066	0,022
