DTS Sentinel unit serial number:	SN410029Multiplexer serial number:	ORYXHardware model number:	OX2-SRSoftware version number:	ORYX F/W v4,00 Oryx Data Collector v3.7.2.0data status	okinstallation	B5 Nyhavnadifferential loss correction	single-endedforward channel	channel 2reverse channel	N/Adate	2023/12/13time	16:42:13forward acquisition time	300,00reverse acquisition time	0,00gamma	499,1914k internal	0,3159k external	0,3159temperature offset calibration	1,0000default loss term (dB/km)	0,3820temperature slope calibration	1,0000multiplexer offset coefficient	1,0000multiplexer slope coefficient	1,0000fibre end	0,00T internal ref (°C)	14,57T ext. ref 1 (°C)	-2,56T ext. ref 2 (°C)	-2,64length (m)	temperature (°C)	Stokes	anti-Stokes-744,400	-200,000	0,005	0,192
-743,385	-93,623	-0,258	-0,052
-742,371	800,000	0,072	0,153
-741,356	-91,698	-0,167	-0,035
-740,342	-89,194	0,139	-0,030
-739,327	-22,943	-0,276	0,122
-738,312	-200,000	0,004	-0,014
-737,298	-199,216	-0,344	0,001
-736,283	-115,738	0,107	-0,015
-735,269	-105,539	-0,235	-0,039
-734,254	-94,946	0,147	-0,029
-733,239	-80,984	-0,543	-0,131
-732,225	17,120	0,137	0,080
-731,210	372,407	0,099	0,149
-730,196	-200,000	-0,009	0,045
-729,181	-82,564	-0,057	0,014
-728,167	-43,092	0,020	0,008
-727,152	673,143	-0,038	-0,073
-726,137	-101,170	-0,075	0,013
-725,123	-2,913	0,051	-0,026
-724,108	154,528	-0,064	-0,065
-723,094	249,107	-0,031	-0,039
-722,079	-200,000	-0,004	-0,182
-721,064	-145,474	-0,151	0,010
-720,050	364,609	-0,042	0,062
-719,035	800,000	0,031	-0,084
-718,021	-200,000	-0,011	-0,084
-717,006	168,771	0,077	-0,081
-715,991	-200,000	-0,003	-0,058
-714,977	-200,000	-0,006	0,033
-713,962	353,658	-0,038	-0,056
-712,948	-200,000	-0,028	0,149
-711,933	800,000	0,061	0,136
-710,918	-19,335	-0,062	0,028
-709,904	-81,235	-0,094	-0,023
-708,889	196,365	-0,121	-0,136
-707,875	-200,000	0,023	-0,085
-706,860	78,692	0,034	-0,027
-705,845	-97,916	0,115	-0,022
-704,831	-70,238	-0,141	0,039
-703,816	-108,164	-0,124	-0,019
-702,802	-200,000	0,012	0,108
-701,787	-103,872	-0,137	-0,023
-700,772	-200,000	0,005	-0,050
-699,758	593,642	0,074	-0,135
-698,743	52,919	0,059	0,041
-697,729	-49,421	-0,019	-0,007
-696,714	365,798	-0,071	-0,106
-695,699	-200,000	-0,004	-0,176
-694,685	147,663	0,048	0,047
-693,670	51,055	-0,144	-0,100
-692,656	32,337	0,028	-0,018
-691,641	-200,000	0,005	0,072
-690,627	249,807	-0,030	-0,038
-689,612	13,755	-0,098	0,056
-688,597	800,000	0,009	0,023
-687,583	30,824	-0,053	-0,033
-686,568	120,351	-0,080	0,073
-685,554	-81,746	-0,015	0,003
-684,539	-119,825	0,019	0,002
-683,524	800,000	-0,053	0,119
-682,510	-200,000	0,009	0,106
-681,495	26,424	-0,064	-0,039
-680,481	-28,903	0,089	0,037
-679,466	-79,461	-0,169	-0,042
-678,451	-130,125	-0,100	-0,010
-677,437	-87,018	0,190	-0,042
-676,422	61,478	-0,113	-0,083
-675,408	-43,130	0,073	0,027
-674,393	614,738	-0,031	-0,058
-673,378	79,132	-0,071	0,056
-672,364	-200,000	0,002	-0,071
-671,349	485,041	-0,091	-0,154
-670,335	-200,000	-0,005	-0,054
-669,320	548,207	-0,041	0,072
-668,305	67,313	-0,124	-0,093
-667,291	-83,130	-0,056	-0,013
-666,276	90,284	-0,090	-0,074
-665,262	-85,350	0,111	0,025
-664,247	786,563	-0,023	-0,046
-663,232	101,249	0,081	0,069
-662,218	191,338	0,057	-0,064
-661,203	-94,989	0,066	0,013
-660,189	800,000	-0,045	0,101
-659,174	110,736	-0,053	-0,047
-658,159	2,893	-0,039	0,021
-657,145	-44,471	-0,169	-0,062
-656,130	570,733	-0,063	0,113
-655,116	-64,683	0,053	0,016
-654,101	133,264	0,008	0,007
-653,086	41,791	0,050	0,033
-652,072	800,000	-0,052	0,158
-651,057	-28,414	-0,217	-0,091
-650,043	178,373	0,080	-0,086
-649,028	-150,252	0,082	0,005
-648,014	-200,000	0,027	0,117
-646,999	-15,198	-0,084	0,039
-645,984	79,771	0,081	0,064
-644,970	800,000	-0,022	-0,053
-643,955	-123,154	0,047	0,006
-642,941	-200,000	-0,019	0,119
-641,926	385,840	0,072	0,109
-640,911	0,578	-0,046	-0,024
-639,897	561,083	0,094	-0,168
-638,882	-123,565	-0,112	-0,013
-637,868	284,421	0,051	0,068
-636,853	6,151	-0,134	-0,073
-635,838	710,130	-0,021	-0,041
-634,824	-69,129	-0,163	-0,046
-633,809	-200,000	-0,014	0,081
-632,795	-150,179	0,109	0,006
-631,780	21,974	-0,045	-0,027
-630,765	104,736	-0,045	-0,039
-629,751	102,399	-0,115	-0,098
-628,736	-200,000	0,005	-0,069
-627,722	-200,000	-0,008	-0,105
-626,707	800,000	0,016	-0,042
-625,692	-83,356	0,119	0,028
-624,678	-1,902	-0,067	-0,035
-623,663	48,168	-0,081	-0,055
-622,649	800,000	-0,017	0,043
-621,634	227,212	0,101	0,120
-620,619	800,000	-0,021	0,048
-619,605	800,000	0,071	-0,163
-618,590	73,260	0,047	-0,036
-617,576	139,280	-0,038	0,036
-616,561	33,633	0,037	0,023
-615,546	312,213	-0,016	0,023
-614,532	-200,000	0,034	-0,147
-613,517	800,000	-0,064	-0,166
-612,503	-76,948	0,051	0,013
-611,488	230,281	-0,059	-0,071
-610,474	176,197	0,046	-0,049
-609,459	800,000	-0,096	0,239
-608,444	800,000	0,011	-0,035
-607,430	250,565	0,016	0,020
-606,415	162,219	-0,111	-0,114
-605,401	-114,463	0,043	0,006
-604,386	-200,000	0,006	-0,084
-603,371	87,541	0,038	-0,031
-602,357	-166,762	-0,027	0,001
-601,342	-96,682	-0,173	0,033
-600,328	-200,000	-0,002	-0,008
-599,313	140,503	0,057	-0,055
-598,298	800,000	0,035	-0,096
-597,284	70,499	0,105	-0,080
-596,269	8,251	-0,050	0,027
-595,255	800,000	0,018	-0,055
-594,240	-48,732	-0,037	0,013
-593,225	484,601	-0,069	-0,116
-592,211	800,000	-0,026	-0,072
-591,196	800,000	0,026	-0,078
-590,182	-159,503	0,134	-0,005
-589,167	121,785	-0,049	0,045
-588,152	-195,943	0,073	0,000
-587,138	-150,570	-0,186	0,010
-586,123	-200,000	-0,001	0,036
-585,109	-200,000	-0,030	-0,171
-584,094	800,000	0,017	0,035
-583,079	757,896	0,050	0,100
-582,065	-56,940	0,122	-0,039
-581,050	464,993	-0,019	-0,031
-580,036	-51,832	0,165	0,056
-579,021	589,963	0,029	-0,052
-578,006	-115,280	-0,101	-0,014
-576,992	67,628	-0,022	0,016
-575,977	66,394	0,077	-0,057
-574,963	-200,000	0,028	0,108
-573,948	-82,900	0,082	-0,019
-572,934	-154,378	0,020	0,001
-571,919	-54,544	-0,090	-0,030
-570,904	-68,083	-0,074	-0,021
-569,890	500,829	0,048	-0,082
-568,875	800,000	-0,033	0,077
-567,861	-90,411	0,206	-0,043
-566,846	-123,074	0,089	-0,010
-565,831	-33,371	-0,183	-0,074
-564,817	92,113	0,046	0,038
-563,802	-14,568	-0,013	0,006
-562,788	-30,553	-0,113	-0,047
-561,773	347,820	0,015	-0,021
-560,758	105,402	-0,031	0,027
-559,744	-200,000	0,009	0,111
-558,729	258,854	0,074	-0,094
-557,715	125,253	-0,017	-0,015
-556,700	45,331	-0,096	-0,065
-555,685	800,000	-0,045	-0,126
-554,671	16,798	0,038	0,022
-553,656	800,000	0,033	-0,072
-552,642	-96,391	0,134	0,026
-551,627	546,285	0,023	-0,041
-550,612	800,000	0,028	0,056
-549,598	-65,628	-0,042	-0,012
-548,583	-143,125	-0,118	-0,008
-547,569	-200,000	-0,022	-0,082
-546,554	191,075	0,043	0,047
-545,539	19,833	0,106	0,062
-544,525	800,000	-0,028	-0,081
-543,510	539,870	-0,057	0,099
-542,496	-13,390	-0,023	-0,011
-541,481	35,706	-0,013	-0,008
-540,466	800,000	0,059	0,129
-539,452	800,000	0,012	-0,029
-538,437	11,075	-0,087	-0,048
-537,423	94,876	0,031	-0,026
-536,408	262,291	0,032	-0,041
-535,393	-200,000	-0,012	-0,063
-534,379	-140,784	-0,123	-0,009
-533,364	-149,656	-0,136	-0,008
-532,350	429,009	-0,079	-0,124
-531,335	-200,000	0,023	-0,087
-530,321	-65,450	0,034	0,010
-529,306	-200,000	-0,001	-0,092
-528,291	-200,000	-0,000	0,078
-527,277	7,769	-0,056	-0,031
-526,262	-51,315	-0,038	0,013
-525,248	800,000	0,061	0,182
-524,233	65,679	-0,080	0,059
-523,218	-200,000	0,017	0,181
-522,204	800,000	-0,044	0,130
-521,189	67,650	-0,054	0,040
-520,175	800,000	0,019	-0,051
-519,160	-108,233	-0,040	-0,006
-518,145	204,724	-0,012	0,014
-517,131	800,000	-0,012	-0,025
-516,116	-139,674	-0,160	-0,012
-515,102	105,959	0,061	0,052
-514,087	193,293	0,043	0,048
-513,072	110,175	-0,036	0,032
-512,058	-50,353	-0,079	-0,027
-511,043	147,762	0,037	0,037
-510,029	-166,922	0,047	-0,001
-509,014	-200,000	0,013	0,115
-507,999	-200,000	0,011	-0,043
-506,985	40,594	-0,062	-0,041
-505,970	-73,999	-0,036	-0,009
-504,956	-94,096	-0,034	-0,007
-503,941	800,000	0,015	-0,038
-502,926	89,245	-0,068	0,055
-501,912	-200,000	0,028	0,118
-500,897	321,108	-0,113	0,157
-499,883	-130,649	-0,040	0,004
-498,868	253,706	0,016	0,020
-497,853	-23,904	0,169	-0,073
-496,839	-107,746	-0,052	0,008
-495,824	800,000	-0,067	0,155
-494,810	2,792	-0,115	0,061
-493,795	-200,000	0,016	0,172
-492,781	800,000	0,043	0,126
-491,766	389,080	-0,060	-0,090
-490,751	800,000	-0,017	0,050
-489,737	-23,791	0,039	-0,017
-488,722	800,000	-0,042	0,118
-487,708	143,879	-0,070	-0,068
-486,693	-107,542	0,125	0,020
-485,678	-200,000	0,031	0,106
-484,664	-43,696	0,125	0,046
-483,649	84,884	-0,048	0,039
-482,635	-66,706	0,129	0,037
-481,620	-64,581	0,071	-0,021
-480,605	800,000	-0,011	-0,026
-479,591	29,284	0,108	0,067
-478,576	-54,159	0,032	0,011
-477,562	-200,000	-0,004	-0,025
-476,547	800,000	-0,028	-0,068
-475,532	800,000	-0,038	0,082
-474,518	-200,000	0,008	0,060
-473,503	150,698	0,073	0,072
-472,489	167,851	-0,051	0,053
-471,474	4,643	0,018	-0,009
-470,459	-200,000	-0,013	-0,103
-469,445	-200,000	0,016	0,069
-468,430	800,000	-0,023	0,049
-467,416	-160,870	-0,169	0,006
-466,401	-200,000	0,004	-0,054
-465,386	103,413	-0,099	-0,084
-464,372	-128,393	-0,150	0,015
-463,357	-200,000	0,007	-0,057
-462,343	28,878	-0,158	-0,097
-461,328	353,456	-0,034	-0,050
-460,313	639,639	0,022	-0,042
-459,299	490,285	-0,007	-0,012
-458,284	-200,000	-0,017	0,078
-457,270	-200,000	0,004	0,058
-456,255	-46,162	-0,064	0,023
-455,241	800,000	-0,010	-0,027
-454,226	-86,899	-0,105	-0,023
-453,211	370,359	0,044	-0,066
-452,197	52,428	-0,102	-0,071
-451,182	60,215	0,064	-0,046
-450,168	800,000	0,069	-0,165
-449,153	-36,068	-0,084	-0,033
-448,138	-162,184	0,089	0,003
-447,124	528,022	-0,063	-0,109
-446,109	-51,340	0,211	-0,071
-445,095	-200,000	-0,014	-0,061
-444,080	-168,485	-0,037	0,001
-443,065	-44,739	0,117	0,042
-442,051	145,798	0,079	-0,077
-441,036	-200,000	-0,029	-0,100
-440,022	-200,000	-0,001	0,014
-439,007	-200,000	0,012	0,119
-437,992	53,648	0,070	-0,049
-436,978	800,000	0,021	-0,061
-435,963	39,525	0,075	0,049
-434,949	345,915	-0,036	0,052
-433,934	247,430	-0,059	0,073
-432,919	-200,000	0,000	-0,053
-431,905	800,000	-0,028	-0,083
-430,890	-61,132	0,195	0,060
-429,876	-200,000	-0,025	0,208
-428,861	342,112	0,044	0,063
-427,846	191,400	-0,008	-0,009
-426,832	-97,425	-0,106	-0,020
-425,817	69,760	-0,059	-0,045
-424,803	56,633	0,104	0,074
-423,788	-191,507	0,176	-0,001
-422,773	105,894	0,115	0,099
-421,759	14,039	0,068	-0,038
-420,744	-200,000	0,006	0,028
-419,730	55,833	0,038	-0,027
-418,715	153,966	-0,081	0,080
-417,701	-78,073	-0,017	0,004
-416,686	179,818	0,129	0,138
-415,671	201,973	-0,034	0,038
-414,657	-125,313	0,138	0,015
-413,642	-200,000	0,013	-0,130
-412,628	-200,000	-0,027	-0,164
-411,613	-200,000	-0,015	0,055
-410,598	-200,000	-0,018	-0,102
-409,584	268,391	-0,034	-0,044
-408,569	68,645	0,059	0,044
-407,555	310,326	0,040	0,054
-406,540	-113,803	-0,040	0,006
-405,525	258,539	-0,052	0,066
-404,511	260,511	0,031	-0,039
-403,496	150,333	0,080	-0,079
-402,482	65,905	0,066	-0,049
-401,467	147,714	0,083	-0,082
-400,452	125,694	0,042	0,038
-399,438	-200,000	0,029	0,126
-398,423	-200,000	-0,036	0,183
-397,409	315,797	0,076	-0,104
-396,394	-200,000	0,016	0,071
-395,379	145,968	-0,066	-0,064
-394,365	-142,035	-0,165	-0,012
-393,350	-88,023	0,052	-0,011
-392,336	-200,000	0,005	-0,048
-391,321	-200,000	0,013	0,134
-390,306	-200,000	-0,008	-0,051
-389,292	-58,678	-0,120	-0,038
-388,277	15,312	0,099	-0,056
-387,263	-52,803	0,169	0,056
-386,248	-0,238	-0,083	-0,043
-385,233	82,544	-0,098	-0,077
-384,219	-136,396	0,154	0,013
-383,204	12,702	-0,083	-0,046
-382,190	-19,125	0,120	-0,054
-381,175	-164,211	-0,124	-0,004
-380,160	800,000	-0,079	-0,204
-379,146	-200,000	-0,005	0,116
-378,131	28,618	0,121	0,074
-377,117	-200,000	0,031	0,151
-376,102	-200,000	-0,029	-0,149
-375,088	-177,956	-0,105	0,002
-374,073	-146,000	-0,113	0,007
-373,058	-200,000	0,037	0,133
-372,044	419,933	0,052	0,082
-371,029	800,000	-0,041	-0,082
-370,015	-200,000	-0,003	-0,047
-369,000	633,305	-0,016	-0,029
-367,985	-200,000	-0,018	0,060
-366,971	-200,000	-0,062	-0,202
-365,956	800,000	0,039	-0,106
-364,942	-42,390	0,064	0,024
-363,927	441,939	0,016	-0,026
-362,912	-135,659	0,140	0,012
-361,898	800,000	-0,028	-0,071
-360,883	231,375	0,089	0,106
-359,869	-200,000	-0,009	0,045
-358,854	585,917	-0,036	-0,065
-357,839	800,000	-0,066	0,145
-356,825	-200,000	0,009	-0,075
-355,810	-43,493	0,063	0,023
-354,796	-0,452	-0,069	-0,036
-353,781	118,009	-0,062	-0,055
-352,766	451,893	0,016	-0,027
-351,752	404,993	-0,022	0,034
-350,737	800,000	0,033	0,077
-349,723	65,128	0,014	0,010
-348,708	-108,820	-0,101	0,015
-347,693	800,000	-0,037	-0,107
-346,679	560,243	-0,035	-0,062
-345,664	-18,871	-0,031	-0,014
-344,650	-25,794	-0,059	0,025
-343,635	135,065	0,098	-0,093
-342,620	6,183	0,080	0,043
-341,606	-200,000	-0,014	0,193
-340,591	418,459	-0,047	0,074
-339,577	371,434	-0,056	0,083
-338,562	304,099	-0,066	0,088
-337,548	-200,000	0,014	0,051
-336,533	-195,452	0,179	-0,001
-335,518	-200,000	-0,000	-0,048
-334,504	-200,000	0,001	-0,045
-333,489	119,719	-0,109	-0,098
-332,475	-171,723	0,020	0,000
-331,460	-65,389	-0,118	-0,034
-330,445	-139,928	-0,055	0,004
-329,431	-200,000	0,009	0,062
-328,416	-155,198	0,119	0,006
-327,402	-111,386	-0,099	-0,014
-326,387	800,000	0,039	0,105
-325,372	737,406	-0,043	-0,084
-324,358	-70,954	0,120	-0,033
-323,343	-157,347	-0,196	-0,008
-322,329	-200,000	0,027	-0,095
-321,314	-11,283	-0,130	-0,062
-320,299	-123,765	0,095	-0,011
-319,285	617,992	-0,013	0,025
-318,270	102,957	-0,139	-0,118
-317,256	800,000	-0,045	-0,106
-316,241	-197,974	-0,139	0,001
-315,226	17,855	0,081	-0,046
-314,212	-90,518	0,044	0,009
-313,197	-118,478	0,144	-0,018
-312,183	71,527	-0,092	0,069
-311,168	29,195	-0,072	0,044
-310,153	-107,152	-0,069	-0,011
-309,139	-200,000	-0,025	-0,093
-308,124	185,692	0,030	0,033
-307,110	-200,000	0,001	0,134
-306,095	800,000	-0,046	-0,128
-305,080	-17,894	-0,068	0,031
-304,066	-40,572	-0,020	-0,007
-303,051	224,972	-0,025	-0,030
-302,037	800,000	-0,040	0,089
-301,022	28,843	0,093	0,057
-300,008	-50,468	-0,106	-0,036
-298,993	-34,795	0,144	0,057
-297,978	-163,675	0,041	-0,001
-296,964	800,000	0,041	-0,084
-295,949	-200,000	0,007	-0,151
-294,935	60,008	-0,082	-0,059
-293,920	800,000	0,010	-0,026
-292,905	-83,321	0,132	-0,030
-291,891	258,771	-0,046	0,058
-290,876	547,506	-0,102	-0,177
-289,862	-78,791	0,138	-0,034
-288,847	165,167	-0,054	0,056
-287,832	305,356	0,036	-0,049
-286,818	128,959	0,099	-0,091
-285,803	-84,450	0,133	0,030
-284,789	-200,000	-0,002	0,141
-283,774	800,000	0,025	-0,059
-282,759	-127,772	0,054	0,006
-281,745	800,000	-0,003	-0,007
-280,730	800,000	0,017	-0,039
-279,716	523,601	0,034	0,057
-278,701	326,194	0,105	0,146
-277,686	800,000	-0,006	0,016
-276,672	334,312	-0,058	0,081
-275,657	-2,665	0,089	-0,045
-274,643	615,026	0,046	-0,084
-273,628	306,179	-0,106	-0,143
-272,613	-29,907	0,154	0,063
-271,599	27,630	-0,112	-0,068
-270,584	800,000	0,060	-0,146
-269,570	230,153	-0,039	-0,046
-268,555	-200,000	-0,013	0,124
-267,540	-200,000	0,007	0,025
-266,526	800,000	-0,043	-0,094
-265,511	119,623	-0,050	-0,045
-264,497	-92,315	0,102	-0,021
-263,482	29,942	0,027	-0,017
-262,467	800,000	0,058	0,120
-261,453	34,870	0,026	0,016
-260,438	63,243	-0,063	0,045
-259,424	-118,897	0,031	-0,004
-258,409	299,257	-0,037	-0,049
-257,395	12,705	0,059	-0,033
-256,380	-71,924	0,012	0,003
-255,365	-84,588	0,086	-0,019
-254,351	800,000	0,002	0,005
-253,336	415,308	-0,052	0,081
-252,322	574,337	-0,056	-0,098
-251,307	-200,000	0,005	-0,059
-250,292	80,417	-0,024	-0,019
-249,278	-200,000	0,025	0,105
-248,263	51,403	-0,072	0,049
-247,249	91,480	0,075	0,061
-246,234	-200,000	-0,028	0,109
-245,219	-19,920	0,058	-0,026
-244,205	-34,674	-0,066	-0,026
-243,190	106,276	-0,077	0,066
-242,176	-75,124	0,102	0,026
-241,161	-158,919	0,170	0,007
-240,146	-80,606	-0,074	0,018
-239,132	-200,000	-0,006	-0,053
-238,117	-200,000	0,023	0,088
-237,103	334,614	0,068	-0,095
-236,088	371,394	0,048	-0,071
-235,073	170,083	-0,060	-0,062
-234,059	-15,172	0,068	0,031
-233,044	624,493	0,012	0,022
-232,030	-16,395	0,138	0,063
-231,015	-83,959	-0,125	-0,028
-230,000	-105,087	-0,021	0,003
-228,986	800,000	0,054	0,151
-227,971	207,493	0,082	-0,093
-226,957	-84,013	0,064	0,015
-225,942	256,906	0,063	0,079
-224,927	199,104	0,040	-0,044
-223,913	177,619	-0,068	0,072
-222,898	-200,000	-0,162	-0,000
-221,884	242,087	0,043	-0,052
-220,869	437,589	0,085	0,134
-219,855	-200,000	-0,018	-0,063
-218,840	183,529	0,053	0,057
-217,825	57,507	0,022	0,015
-216,811	-200,000	0,016	0,059
-215,796	-117,386	-0,187	-0,024
-214,782	259,650	-0,069	0,086
-213,767	800,000	0,052	0,113
-212,752	-71,644	0,095	0,025
-211,738	800,000	0,055	0,143
-210,723	-28,502	-0,116	0,048
-209,709	-49,590	-0,113	0,038
-208,694	-115,320	-0,059	0,008
-207,679	-38,342	0,082	-0,031
-206,665	124,037	0,067	-0,061
-205,650	-200,000	-0,007	-0,066
-204,636	-200,000	-0,015	-0,061
-203,621	280,571	-0,059	0,077
-202,606	-200,000	-0,004	-0,031
-201,592	85,672	-0,144	-0,114
-200,577	800,000	0,016	0,035
-199,563	800,000	0,034	-0,076
-198,548	308,548	0,034	0,045
-197,533	800,000	-0,037	0,103
-196,519	-58,210	-0,187	0,058
-195,504	-200,000	-0,011	-0,113
-194,490	-106,614	-0,074	-0,012
-193,475	-200,000	-0,004	0,052
-192,460	-91,789	-0,164	0,033
-191,446	-25,379	0,084	-0,036
-190,431	800,000	-0,030	0,074
-189,417	800,000	-0,020	0,056
-188,402	-27,324	-0,054	0,023
-187,387	74,199	0,141	-0,107
-186,373	-176,810	-0,064	-0,001
-185,358	-12,339	0,108	-0,051
-184,344	119,191	-0,069	-0,061
-183,329	800,000	0,034	0,073
-182,315	142,721	0,170	0,163
-181,300	148,914	-0,103	-0,101
-180,285	-36,373	-0,055	0,021
-179,271	-200,000	-0,013	0,047
-178,256	661,596	0,038	0,070
-177,242	-2,694	0,145	-0,073
-176,227	-64,093	0,065	0,019
-175,212	146,310	0,100	0,097
-174,198	-62,711	-0,101	0,030
-173,183	5,758	-0,109	-0,058
-172,169	-200,000	0,007	0,035
-171,154	-116,742	-0,044	-0,006
-170,139	-200,000	-0,017	0,111
-169,125	800,000	0,019	-0,045
-168,110	592,493	0,045	0,080
-167,096	185,498	-0,077	0,082
-166,081	281,656	0,030	0,039
-165,066	469,413	-0,024	0,038
-164,052	143,168	0,071	-0,068
-163,037	0,159	0,069	0,035
-162,023	134,430	0,132	0,124
-161,008	-200,000	-0,015	0,069
-159,993	-98,254	-0,102	0,019
-158,979	-113,537	-0,049	-0,007
-157,964	189,463	0,068	-0,073
-156,950	-60,416	-0,058	0,018
-155,935	224,574	0,032	-0,037
-154,920	-200,000	-0,006	0,058
-153,906	-13,674	0,076	-0,035
-152,891	170,871	0,013	-0,014
-151,877	-200,000	0,021	-0,223
-150,862	-165,593	-0,211	-0,006
-149,847	87,886	-0,094	-0,075
-148,833	237,982	0,093	0,112
-147,818	-80,549	0,233	0,055
-146,804	381,430	-0,024	0,035
-145,789	-79,900	-0,047	-0,011
-144,775	-200,000	-0,031	0,103
-143,760	410,401	-0,038	-0,058
-142,745	-200,000	-0,017	0,063
-141,731	51,492	0,083	-0,057
-140,716	-7,608	-0,036	0,018
-139,702	-200,000	0,014	0,086
-138,687	-70,621	0,057	-0,015
-137,672	474,104	0,085	-0,138
-136,658	-44,131	-0,067	-0,024
-135,643	624,488	-0,068	-0,124
-134,629	-84,314	0,220	0,050
-133,614	-23,592	0,048	0,021
-132,599	-150,320	-0,083	-0,005
-131,585	-105,970	0,070	0,011
-130,570	-200,000	0,012	0,097
-129,556	-200,000	-0,002	-0,095
-128,541	-19,821	0,014	0,006
-127,526	800,000	0,063	0,129
-126,512	700,692	0,043	0,081
-125,497	-57,823	0,022	0,007
-124,483	125,487	0,045	0,041
-123,468	-200,000	-0,015	-0,083
-122,453	101,150	-0,093	0,078
-121,439	152,946	0,075	-0,074
-120,424	800,000	-0,013	-0,036
-119,410	89,273	0,037	0,030
