DTS Sentinel unit serial number:	SN410029Multiplexer serial number:	ORYXHardware model number:	OX2-SRSoftware version number:	ORYX F/W v4,00 Oryx Data Collector v3.7.2.0data status	okinstallation	B5 Nyhavnadifferential loss correction	single-endedforward channel	channel 2reverse channel	N/Adate	2023/12/13time	00:32:13forward acquisition time	300,00reverse acquisition time	0,00gamma	499,1914k internal	0,3159k external	0,3159temperature offset calibration	1,0000default loss term (dB/km)	0,3820temperature slope calibration	1,0000multiplexer offset coefficient	1,0000multiplexer slope coefficient	1,0000fibre end	0,00T internal ref (°C)	14,26T ext. ref 1 (°C)	-2,25T ext. ref 2 (°C)	-2,55length (m)	temperature (°C)	Stokes	anti-Stokes-744,400	-82,683	0,206	-0,049
-743,385	-96,108	-0,403	0,078
-742,371	-96,499	0,195	0,038
-741,356	86,383	-0,179	0,145
-740,342	33,541	0,071	0,046
-739,327	-150,960	-0,348	-0,019
-738,312	90,420	0,127	0,105
-737,298	-152,422	-0,266	-0,014
-736,283	-61,668	0,069	-0,021
-735,269	-51,712	-0,163	0,056
-734,254	242,235	0,039	0,048
-733,239	-0,659	-0,367	-0,191
-732,225	-200,000	0,004	-0,054
-731,210	407,106	0,056	0,088
-730,196	-200,000	-0,004	0,036
-729,181	176,286	0,098	0,105
-728,167	800,000	-0,057	-0,153
-727,152	-200,000	-0,020	-0,108
-726,137	332,522	0,031	-0,044
-725,123	108,363	-0,084	-0,074
-724,108	-200,000	-0,004	-0,026
-723,094	39,610	-0,077	-0,051
-722,079	72,480	-0,104	0,080
-721,064	-100,910	-0,129	-0,023
-720,050	-200,000	-0,025	0,082
-719,035	222,383	0,023	-0,027
-718,021	-200,000	-0,021	-0,171
-717,006	12,153	-0,117	0,066
-715,991	-9,117	-0,057	-0,028
-714,977	36,096	-0,019	-0,012
-713,962	64,531	-0,083	-0,061
-712,948	308,324	-0,075	-0,103
-711,933	800,000	-0,019	-0,050
-710,918	12,792	-0,066	-0,037
-709,904	157,815	0,051	-0,052
-708,889	800,000	-0,050	-0,112
-707,875	487,835	0,059	-0,099
-706,860	-200,000	0,016	-0,079
-705,845	-200,000	-0,009	-0,041
-704,831	13,993	0,138	0,079
-703,816	-200,000	-0,027	-0,124
-702,802	-200,000	-0,013	-0,072
-701,787	319,483	-0,071	-0,099
-700,772	286,869	-0,107	0,143
-699,758	-200,000	-0,030	-0,115
-698,743	-23,894	0,089	-0,039
-697,729	-200,000	0,007	0,035
-696,714	-61,030	-0,061	0,019
-695,699	-35,686	-0,058	-0,023
-694,685	146,228	-0,189	-0,187
-693,670	310,959	-0,025	-0,035
-692,656	-121,105	0,106	0,013
-691,641	-200,000	0,010	0,034
-690,627	162,905	-0,040	-0,042
-689,612	17,405	-0,054	-0,032
-688,597	271,747	-0,063	0,082
-687,583	-200,000	-0,009	-0,113
-686,568	-109,855	-0,097	-0,015
-685,554	371,696	0,042	0,062
-684,539	411,642	-0,047	0,074
-683,524	49,962	0,046	0,032
-682,510	-137,834	-0,082	-0,007
-681,495	-15,894	0,014	-0,007
-680,481	-162,242	0,112	-0,004
-679,466	-200,000	-0,030	-0,197
-678,451	47,750	0,077	-0,053
-677,437	226,210	0,027	-0,032
-676,422	374,653	-0,062	-0,093
-675,408	-109,039	-0,163	-0,025
-674,393	-60,756	0,202	0,063
-673,378	-180,045	-0,062	0,001
-672,364	-98,541	-0,092	0,017
-671,349	90,009	-0,177	-0,145
-670,335	-52,276	-0,066	0,022
-669,320	-200,000	0,014	-0,096
-668,305	2,310	-0,027	0,014
-667,291	179,270	-0,111	0,119
-666,276	540,936	-0,050	-0,088
-665,262	84,496	0,072	-0,057
-664,247	-133,955	-0,154	0,014
-663,232	-90,224	-0,099	0,021
-662,218	296,768	0,091	-0,123
-661,203	-134,230	-0,078	0,007
-660,189	39,624	-0,072	-0,047
-659,174	76,391	-0,090	-0,070
-658,159	-200,000	0,020	-0,117
-657,145	236,007	-0,062	-0,076
-656,130	-200,000	-0,004	-0,089
-655,116	-60,780	-0,108	-0,033
-654,101	246,497	-0,011	-0,014
-653,086	-74,405	0,013	0,003
-652,072	-29,442	-0,051	-0,021
-651,057	320,393	-0,056	-0,078
-650,043	-103,947	-0,163	-0,028
-649,028	-144,095	0,071	-0,005
-648,014	80,568	-0,033	0,026
-646,999	-29,900	0,124	-0,052
-645,984	-123,126	0,017	0,002
-644,970	601,299	-0,083	0,153
-643,955	-148,849	-0,103	-0,006
-642,941	97,891	0,101	-0,086
-641,926	-21,156	-0,044	0,020
-640,911	-200,000	-0,032	-0,121
-639,897	-5,343	0,086	-0,043
-638,882	-200,000	0,002	-0,013
-637,868	110,545	-0,019	0,017
-636,853	15,986	-0,144	-0,083
-635,838	-43,405	-0,051	0,019
-634,824	-12,519	-0,076	-0,036
-633,809	32,555	0,071	-0,045
-632,795	-48,734	0,005	0,002
-631,780	23,225	0,044	-0,027
-630,765	-200,000	-0,036	-0,152
-629,751	800,000	-0,019	0,057
-628,736	800,000	-0,014	-0,040
-627,722	-33,886	0,046	-0,018
-626,707	800,000	0,031	-0,082
-625,692	-82,295	-0,043	-0,010
-624,678	800,000	-0,077	-0,241
-623,663	45,013	0,103	0,070
-622,649	800,000	0,021	0,065
-621,634	-59,625	-0,169	-0,053
-620,619	-200,000	-0,054	-0,185
-619,605	-200,000	-0,007	-0,112
-618,590	530,866	0,076	0,133
-617,576	-200,000	-0,005	0,094
-616,561	142,395	0,088	-0,086
-615,546	800,000	0,018	-0,041
-614,532	-200,000	0,009	-0,042
-613,517	-56,472	-0,081	0,026
-612,503	29,301	-0,047	0,029
-611,488	-15,607	0,049	-0,023
-610,474	-200,000	0,007	-0,051
-609,459	800,000	0,010	0,029
-608,444	800,000	0,007	-0,014
-607,430	-13,859	-0,064	-0,030
-606,415	135,535	-0,116	-0,110
-605,401	-120,711	0,052	-0,006
-604,386	800,000	0,003	-0,006
-603,371	-200,000	0,001	0,020
-602,357	445,603	0,067	0,108
-601,342	-16,930	-0,010	0,004
-600,328	61,778	0,044	-0,032
-599,313	-60,654	-0,070	-0,022
-598,298	800,000	0,025	-0,072
-597,284	83,813	-0,152	0,121
-596,269	-52,675	0,120	0,040
-595,255	298,136	-0,012	-0,016
-594,240	136,149	-0,111	0,106
-593,225	44,823	-0,054	0,036
-592,211	109,779	-0,071	0,062
-591,196	248,562	-0,021	0,026
-590,182	81,240	-0,066	0,052
-589,167	-56,247	-0,025	0,008
-588,152	73,310	0,080	0,061
-587,138	110,947	-0,071	-0,062
-586,123	718,758	-0,025	-0,050
-585,109	-119,193	-0,100	0,013
-584,094	-184,950	-0,064	0,001
-583,079	800,000	-0,015	-0,034
-582,065	31,279	-0,083	0,052
-581,050	-200,000	-0,012	0,104
-580,036	70,550	0,030	-0,023
-579,021	5,310	0,042	-0,023
-578,006	800,000	0,010	-0,024
-576,992	-200,000	-0,017	-0,061
-575,977	170,644	0,063	0,066
-574,963	441,259	0,046	-0,074
-573,948	-200,000	-0,009	-0,037
-572,934	800,000	0,011	0,025
-571,919	-200,000	0,018	-0,086
-570,904	449,316	0,088	0,142
-569,890	800,000	0,019	0,056
-568,875	-19,733	-0,022	0,010
-567,861	-129,918	0,117	0,012
-566,846	324,319	0,054	-0,075
-565,831	-200,000	0,004	-0,125
-564,817	91,448	-0,059	-0,049
-563,802	-51,269	-0,121	-0,041
-562,788	27,639	0,100	-0,061
-561,773	-72,756	-0,113	-0,030
-560,758	36,464	0,052	0,034
-559,744	-18,207	0,070	0,032
-558,729	-142,705	-0,058	0,004
-557,715	-75,244	0,054	-0,014
-556,700	607,627	0,005	-0,009
-555,685	-35,733	-0,116	-0,046
-554,671	800,000	0,021	-0,042
-553,656	800,000	0,018	-0,056
-552,642	-200,000	-0,003	0,137
-551,627	50,896	-0,103	0,071
-550,612	-148,337	-0,026	0,002
-549,598	-200,000	-0,014	0,102
-548,583	37,271	-0,059	-0,038
-547,569	800,000	0,019	-0,047
-546,554	-200,000	-0,009	0,108
-545,539	254,228	-0,024	0,031
-544,525	199,610	-0,066	0,074
-543,510	-143,532	0,032	-0,002
-542,496	8,167	-0,042	0,023
-541,481	-3,818	-0,111	0,056
-540,466	-48,719	0,056	-0,019
-539,452	800,000	-0,021	0,049
-538,437	98,905	0,062	0,052
-537,423	800,000	0,034	-0,089
-536,408	-174,269	-0,102	0,002
-535,393	182,468	-0,048	0,052
-534,379	800,000	-0,052	0,131
-533,364	-200,000	-0,003	0,040
-532,350	355,031	0,058	-0,084
-531,335	-200,000	-0,006	0,028
-530,321	-200,000	0,039	0,147
-529,306	-200,000	0,001	0,171
-528,291	800,000	0,020	0,043
-527,277	37,101	0,022	0,014
-526,262	14,792	-0,015	0,008
-525,248	135,042	-0,063	-0,059
-524,233	13,304	0,068	0,039
-523,218	-17,852	0,119	-0,054
-522,204	-61,691	0,054	0,016
-521,189	800,000	-0,011	-0,031
-520,175	100,654	0,072	0,061
-519,160	21,101	-0,067	-0,040
-518,145	-45,802	0,182	0,065
-517,131	-117,586	-0,062	0,008
-516,116	28,274	-0,059	0,036
-515,102	-200,000	-0,010	0,063
-514,087	-84,997	0,074	0,017
-513,072	48,750	0,075	0,051
-512,058	82,553	-0,079	-0,062
-511,043	-100,314	0,081	-0,015
-510,029	800,000	0,035	-0,102
-509,014	-111,054	0,090	0,013
-507,999	108,081	-0,118	0,103
-506,985	457,058	-0,038	-0,062
-505,970	-156,577	0,069	0,003
-504,956	73,451	-0,125	-0,095
-503,941	654,212	-0,021	-0,039
-502,926	800,000	0,043	-0,139
-501,912	521,570	0,067	-0,114
-500,897	231,494	0,061	0,073
-499,883	-23,015	-0,071	0,031
-498,868	783,187	0,030	0,061
-497,853	-6,698	-0,097	-0,048
-496,839	-200,000	0,001	-0,062
-495,824	327,460	0,050	-0,071
-494,810	404,506	0,069	0,107
-493,795	-200,000	-0,032	0,216
-492,781	40,296	-0,179	-0,117
-491,766	-200,000	0,001	0,023
-490,751	-1,652	0,073	0,038
-489,737	406,653	-0,038	-0,058
-488,722	57,379	0,099	0,070
-487,708	173,834	0,086	-0,091
-486,693	-200,000	0,016	-0,123
-485,678	-86,888	0,066	-0,015
-484,664	-48,560	0,051	-0,018
-483,649	800,000	-0,022	0,051
-482,635	-200,000	0,031	-0,137
-481,620	800,000	0,043	0,107
-480,605	-200,000	0,003	0,046
-479,591	-200,000	0,007	-0,076
-478,576	-200,000	0,018	-0,068
-477,562	190,254	0,023	-0,025
-476,547	-200,000	0,028	-0,119
-475,532	75,160	-0,070	-0,054
-474,518	-200,000	0,003	0,028
-473,503	776,636	-0,045	0,090
-472,489	-14,141	0,112	0,052
-471,474	-88,634	0,059	-0,013
-470,459	94,201	-0,061	0,051
-469,445	800,000	-0,022	-0,047
-468,430	3,352	-0,043	-0,023
-467,416	26,651	0,078	-0,048
-466,401	-57,782	0,122	0,039
-465,386	800,000	-0,053	0,137
-464,372	-200,000	0,012	0,074
-463,357	17,669	0,137	0,079
-462,343	-200,000	-0,023	0,076
-461,328	128,613	-0,042	0,039
-460,313	800,000	-0,060	0,144
-459,299	-179,377	0,072	0,001
-458,284	-200,000	-0,005	0,081
-457,270	800,000	-0,027	0,075
-456,255	-200,000	0,012	-0,102
-455,241	-200,000	-0,011	-0,125
-454,226	158,346	-0,063	-0,064
-453,211	12,094	0,084	0,047
-452,197	341,050	0,019	0,028
-451,182	173,582	-0,077	0,081
-450,168	194,422	0,055	-0,060
-449,153	-200,000	-0,012	0,043
-448,138	-124,522	-0,142	0,016
-447,124	-151,578	-0,025	-0,001
-446,109	-200,000	0,040	0,216
-445,095	-52,243	0,190	0,064
-444,080	25,343	0,108	0,065
-443,065	57,016	0,049	-0,035
-442,051	-200,000	0,029	-0,096
-441,036	724,909	0,027	-0,053
-440,022	-39,881	-0,032	-0,012
-439,007	800,000	0,052	-0,110
-437,992	800,000	0,021	0,062
-436,978	87,974	0,008	-0,006
-435,963	102,685	0,091	0,077
-434,949	177,346	0,071	0,075
-433,934	-200,000	-0,022	0,087
-432,919	-200,000	-0,027	0,116
-431,905	-200,000	0,024	-0,140
-430,890	-1,738	-0,035	0,018
-429,876	161,218	-0,083	0,085
-428,861	-200,000	0,009	0,036
-427,846	800,000	-0,013	0,039
-426,832	260,858	0,086	-0,108
-425,817	-94,504	-0,069	-0,014
-424,803	-200,000	-0,014	0,153
-423,788	-200,000	0,016	0,064
-422,773	247,363	0,086	0,107
-421,759	390,122	-0,067	0,101
-420,744	153,408	-0,088	0,088
-419,730	87,786	-0,058	-0,047
-418,715	235,170	-0,075	-0,090
-417,701	-29,493	-0,044	0,018
-416,686	-94,460	0,093	0,018
-415,671	-111,743	-0,093	0,014
-414,657	-116,825	0,184	0,024
-413,642	148,344	-0,061	0,060
-412,628	70,828	-0,054	-0,041
-411,613	760,908	-0,027	-0,054
-410,598	-108,092	-0,070	-0,011
-409,584	102,820	0,068	-0,058
-408,569	-80,540	0,128	0,031
-407,555	123,800	-0,105	0,096
-406,540	144,840	-0,030	-0,029
-405,525	-167,479	-0,084	-0,002
-404,511	-117,172	-0,019	-0,002
-403,496	93,868	-0,076	-0,063
-402,482	-200,000	-0,032	-0,137
-401,467	-200,000	0,013	-0,043
-400,452	271,572	0,090	0,116
-399,438	342,688	0,009	0,013
-398,423	-200,000	-0,005	-0,081
-397,409	43,083	0,091	-0,060
-396,394	436,267	-0,039	-0,062
-395,379	648,815	-0,041	0,077
-394,365	-200,000	0,031	-0,102
-393,350	-82,290	0,182	0,043
-392,336	-200,000	-0,001	-0,045
-391,321	-1,750	0,054	-0,027
-390,306	-20,850	-0,092	-0,041
-389,292	-15,060	-0,049	0,023
-388,277	0,653	0,068	0,035
-387,263	-53,508	0,058	0,019
-386,248	258,547	-0,028	0,035
-385,233	-117,720	-0,145	-0,019
-384,219	109,766	0,040	0,035
-383,204	69,755	-0,080	-0,060
-382,190	424,276	-0,070	-0,109
-381,175	118,178	-0,100	-0,089
-380,160	-47,955	-0,037	0,013
-379,146	-200,000	-0,006	0,059
-378,131	-200,000	-0,030	0,136
-377,117	67,046	-0,047	0,035
-376,102	31,636	-0,055	0,034
-375,088	7,737	-0,047	0,026
-374,073	-53,508	-0,093	-0,031
-373,058	16,935	0,121	-0,070
-372,044	311,384	-0,029	0,039
-371,029	-200,000	-0,021	0,089
-370,015	2,049	-0,074	0,038
-369,000	800,000	-0,053	-0,157
-367,985	800,000	0,017	-0,043
-366,971	96,996	-0,081	-0,068
-365,956	551,940	0,063	-0,110
-364,942	128,609	0,026	0,024
-363,927	-200,000	0,011	-0,083
-362,912	800,000	0,022	-0,072
-361,898	39,976	-0,029	0,019
-360,883	-200,000	-0,032	-0,129
-359,869	600,389	0,024	0,044
-358,854	33,695	0,074	-0,047
-357,839	68,665	0,096	-0,071
-356,825	268,893	-0,077	-0,098
-355,810	-104,414	0,112	0,019
-354,796	-17,572	-0,064	0,029
-353,781	183,076	-0,110	0,118
-352,766	216,691	-0,069	0,080
-351,752	41,313	0,108	0,071
-350,737	-200,000	-0,015	0,177
-349,723	800,000	0,028	0,080
-348,708	-14,897	-0,061	0,028
-347,693	178,887	0,060	0,064
-346,679	-149,805	-0,007	0,000
-345,664	361,186	-0,030	0,043
-344,650	37,819	0,057	0,037
-343,635	-200,000	-0,030	0,097
-342,620	579,939	-0,106	0,189
-341,606	-200,000	0,058	0,227
-340,591	-200,000	-0,000	0,101
-339,577	-79,631	-0,082	-0,020
-338,562	35,577	0,082	-0,052
-337,548	76,206	0,062	0,048
-336,533	788,865	0,041	0,081
-335,518	-165,239	0,060	-0,002
-334,504	-200,000	-0,013	-0,054
-333,489	-200,000	-0,016	-0,110
-332,475	-21,294	0,140	0,062
-331,460	113,365	-0,078	-0,069
-330,445	688,532	0,021	0,040
-329,431	-200,000	-0,007	0,054
-328,416	-200,000	0,004	-0,041
-327,402	53,238	0,079	-0,055
-326,387	294,150	-0,039	-0,052
-325,372	800,000	-0,056	-0,119
-324,358	-200,000	0,028	-0,117
-323,343	-5,064	-0,158	0,078
-322,329	297,503	0,083	0,110
-321,314	-200,000	-0,017	-0,211
-320,299	-8,583	0,069	-0,033
-319,285	166,316	0,041	-0,042
-318,270	-200,000	0,023	-0,103
-317,256	-98,125	-0,046	-0,008
-316,241	-200,000	0,006	-0,104
-315,226	55,749	0,228	-0,160
-314,212	-200,000	-0,003	-0,094
-313,197	-80,472	-0,202	0,048
-312,183	-131,781	-0,188	-0,018
-311,168	-93,964	0,060	-0,012
-310,153	-200,000	0,007	-0,035
-309,139	-25,354	0,029	0,013
-308,124	52,912	0,082	0,057
-307,110	-92,911	0,143	0,029
-306,095	800,000	-0,034	-0,082
-305,080	-100,596	-0,046	-0,008
-304,066	800,000	-0,056	-0,119
-303,051	-35,049	0,045	0,018
-302,037	768,653	-0,059	-0,117
-301,022	-200,000	0,024	-0,126
-300,008	-200,000	0,000	0,050
-298,993	-27,186	-0,028	-0,012
-297,978	-42,590	-0,077	-0,028
-296,964	557,799	-0,031	-0,055
-295,949	239,755	0,011	0,013
-294,935	50,453	-0,065	-0,044
-293,920	-164,998	0,039	-0,001
-292,905	-200,000	-0,007	0,023
-291,891	46,321	0,127	0,085
-290,876	587,039	-0,033	0,059
-289,862	-200,000	0,035	0,153
-288,847	388,156	-0,022	-0,032
-287,832	-200,000	0,000	0,005
-286,818	800,000	0,034	-0,103
-285,803	-177,530	0,123	0,002
-284,789	15,419	-0,141	-0,080
-283,774	570,299	0,063	0,112
-282,759	135,936	-0,039	0,037
-281,745	-200,000	-0,011	0,060
-280,730	-31,490	-0,063	-0,026
-279,716	212,500	0,061	-0,070
-278,701	68,805	-0,066	-0,049
-277,686	-35,853	-0,100	0,039
-276,672	315,346	0,025	-0,035
-275,657	-200,000	-0,052	-0,174
-274,643	-200,000	-0,015	-0,076
-273,628	-90,937	0,037	-0,008
-272,613	-56,370	-0,117	-0,038
-271,599	212,449	-0,040	0,046
-270,584	-100,069	0,141	0,025
-269,570	-115,691	-0,103	-0,014
-268,555	282,985	0,075	0,097
-267,540	-200,000	0,035	-0,132
-266,526	-36,654	-0,060	0,023
-265,511	121,082	0,111	-0,100
-264,497	-180,599	0,093	0,001
-263,482	-200,000	-0,015	0,086
-262,467	800,000	0,015	-0,039
-261,453	-200,000	-0,014	0,058
-260,438	311,098	-0,050	-0,069
-259,424	37,523	-0,103	0,066
-258,409	-97,547	-0,046	-0,008
-257,395	-200,000	-0,021	-0,072
-256,380	-200,000	0,012	0,115
-255,365	-73,780	0,057	0,015
-254,351	800,000	0,061	-0,170
-253,336	355,869	0,052	0,075
-252,322	800,000	0,011	-0,021
-251,307	209,465	-0,090	0,102
-250,292	259,307	0,019	0,024
-249,278	113,958	0,094	0,083
-248,263	306,028	0,072	-0,098
-247,249	-33,371	-0,118	0,047
-246,234	800,000	-0,058	0,174
-245,219	413,267	0,083	-0,128
-244,205	800,000	-0,076	-0,155
-243,190	251,681	-0,067	-0,082
-242,176	206,703	0,055	-0,062
-241,161	-200,000	-0,008	0,071
-240,146	-127,240	-0,092	0,010
-239,132	188,174	-0,046	-0,050
-238,117	-200,000	-0,045	-0,183
-237,103	800,000	0,033	-0,074
-236,088	-200,000	-0,006	-0,119
-235,073	-200,000	0,012	0,067
-234,059	196,264	0,031	0,035
-233,044	-200,000	-0,001	0,032
-232,030	800,000	0,015	-0,037
-231,015	37,404	0,113	-0,072
-230,000	-122,582	-0,233	-0,027
-228,986	412,233	0,034	0,052
-227,971	236,035	0,016	0,019
-226,957	-200,000	0,064	-0,000
-225,942	202,799	0,023	-0,025
-224,927	800,000	0,037	-0,084
-223,913	56,721	0,026	-0,018
-222,898	313,589	-0,051	-0,069
-221,884	74,776	-0,093	0,070
-220,869	-200,000	-0,012	0,059
-219,855	-104,858	-0,036	-0,006
-218,840	-200,000	-0,015	0,061
-217,825	-200,000	-0,011	0,072
-216,811	800,000	0,009	0,022
-215,796	-200,000	0,010	-0,144
-214,782	52,983	0,125	0,086
-213,767	-164,828	-0,124	-0,004
-212,752	800,000	0,005	0,015
-211,738	800,000	-0,042	0,105
-210,723	-55,854	0,143	0,046
-209,709	312,043	-0,074	0,101
-208,694	-62,390	-0,046	0,014
-207,679	-10,304	0,054	0,026
-206,665	-200,000	-0,018	0,102
-205,650	153,014	0,160	0,158
-204,636	187,085	0,080	0,086
-203,621	-127,739	-0,075	0,008
-202,606	-42,653	0,068	0,025
-201,592	-200,000	-0,012	-0,084
-200,577	-200,000	0,028	-0,108
-199,563	800,000	-0,037	-0,089
-198,548	-49,875	0,053	0,018
-197,533	-31,893	-0,129	-0,052
-196,519	329,255	0,075	0,105
-195,504	800,000	-0,031	0,067
-194,490	-200,000	-0,000	-0,075
-193,475	-148,782	-0,061	-0,004
-192,460	11,158	0,061	0,034
-191,446	-55,003	0,131	0,042
-190,431	57,433	0,059	-0,042
-189,417	-200,000	0,001	0,045
-188,402	-14,174	-0,072	-0,033
-187,387	614,389	-0,100	-0,181
-186,373	800,000	-0,077	0,183
-185,358	308,749	-0,036	-0,048
-184,344	368,975	0,075	0,110
-183,329	606,403	0,071	0,127
-182,315	125,508	-0,038	0,035
-181,300	800,000	-0,029	-0,060
-180,285	87,207	0,018	-0,014
-179,271	-200,000	0,170	-0,000
-178,256	5,381	-0,043	0,023
-177,242	-200,000	0,002	-0,032
-176,227	-26,381	0,107	0,045
-175,212	800,000	-0,017	0,049
-174,198	-53,103	-0,093	-0,031
-173,183	0,972	0,025	0,013
-172,169	102,438	-0,065	-0,055
-171,154	174,649	0,033	0,035
-170,139	-24,921	-0,099	0,042
-169,125	-47,517	0,084	-0,029
-168,110	-195,371	0,151	-0,001
-167,096	40,420	-0,025	-0,016
-166,081	-200,000	0,012	-0,077
-165,066	-86,778	0,033	-0,007
-164,052	47,429	-0,059	-0,039
-163,037	-184,548	0,043	-0,000
-162,023	-200,000	0,024	0,122
-161,008	361,881	-0,010	-0,014
-159,993	800,000	-0,028	-0,080
-158,979	800,000	0,047	-0,124
-157,964	300,077	0,025	-0,033
-156,950	-200,000	-0,008	0,044
-155,935	800,000	-0,006	0,016
-154,920	78,303	0,090	0,069
-153,906	-200,000	0,003	0,041
-152,891	181,994	0,052	-0,055
-151,877	-200,000	0,019	-0,099
-150,862	3,536	0,042	0,022
-149,847	-66,691	-0,120	0,034
-148,833	800,000	-0,051	0,103
-147,818	800,000	0,045	-0,109
-146,804	-100,979	-0,032	-0,006
-145,789	800,000	0,060	0,168
-144,775	93,449	-0,088	-0,071
-143,760	-35,212	-0,092	-0,036
-142,745	-43,622	-0,135	0,049
-141,731	276,089	0,097	0,124
-140,716	414,347	0,007	-0,011
-139,702	-117,259	0,145	-0,019
-138,687	278,802	-0,068	-0,087
-137,672	-200,000	-0,002	-0,025
-136,658	-24,775	0,048	-0,020
-135,643	-9,568	0,042	-0,020
-134,629	-42,049	-0,108	0,040
-133,614	-45,056	-0,061	-0,022
-132,599	-200,000	-0,006	0,079
-131,585	129,155	-0,045	-0,042
-130,570	-200,000	-0,006	0,039
-129,556	418,058	0,053	0,081
-128,541	113,829	-0,046	0,040
-127,526	-200,000	-0,002	-0,028
-126,512	-80,782	-0,111	-0,026
-125,497	-200,000	-0,008	0,101
-124,483	585,430	-0,043	0,077
-123,468	-200,000	-0,017	-0,081
-122,453	348,041	-0,093	-0,132
-121,439	-81,021	-0,109	-0,026
-120,424	-39,681	-0,116	-0,044
-119,410	236,043	-0,032	0,039
