DTS Sentinel unit serial number:	SN410029Multiplexer serial number:	ORYXHardware model number:	OX2-SRSoftware version number:	ORYX F/W v4,00 Oryx Data Collector v3.7.2.0data status	okinstallation	B5 Nyhavnadifferential loss correction	single-endedforward channel	channel 2reverse channel	N/Adate	2023/12/12time	00:07:13forward acquisition time	300,00reverse acquisition time	0,00gamma	499,1914k internal	0,3155k external	0,3155temperature offset calibration	1,0000default loss term (dB/km)	0,3820temperature slope calibration	1,0000multiplexer offset coefficient	1,0000multiplexer slope coefficient	1,0000fibre end	0,00T internal ref (°C)	16,15T ext. ref 1 (°C)	-0,22T ext. ref 2 (°C)	-0,50length (m)	temperature (°C)	Stokes	anti-Stokes-744,400	418,687	0,043	-0,068
-743,385	-189,064	-0,367	0,003
-742,371	-33,118	0,214	0,087
-741,356	-81,128	-0,195	0,047
-740,342	800,000	0,087	0,189
-739,327	-25,316	-0,170	0,074
-738,312	-13,310	0,056	0,027
-737,298	-155,055	-0,327	-0,016
-736,283	800,000	0,035	0,081
-735,269	-134,964	-0,243	-0,021
-734,254	107,764	0,032	0,028
-733,239	-37,583	-0,280	-0,110
-732,225	-130,061	0,260	0,026
-731,210	-33,504	-0,094	0,038
-730,196	-60,090	-0,077	0,024
-729,181	261,675	0,067	-0,086
-728,167	9,074	-0,135	-0,075
-727,152	-100,415	0,108	0,020
-726,137	17,183	-0,157	-0,091
-725,123	71,620	-0,017	-0,013
-724,108	3,297	-0,149	-0,080
-723,094	94,278	-0,160	0,134
-722,079	-200,000	-0,017	-0,092
-721,064	196,415	0,063	-0,071
-720,050	237,174	0,023	0,029
-719,035	76,645	-0,090	0,070
-718,021	63,334	-0,086	-0,063
-717,006	-200,000	-0,021	-0,082
-715,991	800,000	0,054	-0,153
-714,977	-20,915	-0,028	-0,012
-713,962	-200,000	-0,021	-0,087
-712,948	724,102	-0,065	0,129
-711,933	252,070	0,096	-0,121
-710,918	800,000	-0,051	-0,142
-709,904	800,000	-0,011	-0,026
-708,889	-200,000	0,007	-0,099
-707,875	-200,000	0,009	0,035
-706,860	-8,032	0,076	0,037
-705,845	129,383	-0,018	-0,017
-704,831	-35,196	0,112	-0,045
-703,816	148,153	-0,112	-0,111
-702,802	346,589	-0,050	-0,072
-701,787	-200,000	-0,017	0,064
-700,772	126,299	-0,061	0,057
-699,758	-10,443	-0,140	0,068
-698,743	391,044	0,049	0,076
-697,729	800,000	0,073	0,168
-696,714	13,303	-0,052	-0,029
-695,699	800,000	-0,066	-0,184
-694,685	-200,000	0,027	-0,172
-693,670	89,444	-0,097	-0,080
-692,656	-200,000	0,031	0,157
-691,641	-200,000	0,009	-0,079
-690,627	102,342	0,064	-0,055
-689,612	543,229	-0,034	0,061
-688,597	-41,121	0,037	-0,014
-687,583	-200,000	-0,024	-0,103
-686,568	785,454	0,041	-0,082
-685,554	-4,795	0,094	0,048
-684,539	63,273	-0,100	-0,074
-683,524	-200,000	-0,001	-0,105
-682,510	185,991	0,032	0,035
-681,495	19,855	-0,130	-0,077
-680,481	78,101	-0,040	-0,032
-679,466	424,988	-0,090	-0,144
-678,451	357,019	-0,034	-0,050
-677,437	800,000	0,038	-0,091
-676,422	800,000	-0,015	0,034
-675,408	800,000	-0,026	-0,053
-674,393	617,031	-0,046	-0,085
-673,378	25,559	-0,073	-0,045
-672,364	26,266	0,083	-0,051
-671,349	-132,573	-0,079	-0,007
-670,335	-150,786	0,103	0,006
-669,320	800,000	-0,063	-0,158
-668,305	-200,000	-0,026	-0,184
-667,291	59,257	0,060	-0,043
-666,276	800,000	-0,008	0,023
-665,262	505,562	-0,080	-0,136
-664,247	-200,000	-0,012	-0,078
-663,232	16,163	-0,104	-0,060
-662,218	401,035	0,027	0,043
-661,203	-56,143	0,096	0,031
-660,189	28,990	-0,049	-0,031
-659,174	140,960	-0,030	-0,029
-658,159	-200,000	0,006	0,042
-657,145	800,000	0,021	-0,064
-656,130	784,408	-0,064	-0,130
-655,116	-69,047	0,137	-0,039
-654,101	-105,309	0,026	0,004
-653,086	800,000	0,047	0,136
-652,072	293,264	-0,053	-0,071
-651,057	47,123	-0,159	-0,109
-650,043	-200,000	-0,004	0,066
-649,028	-153,624	0,047	0,002
-648,014	1,116	0,044	-0,023
-646,999	212,694	0,094	0,109
-645,984	-200,000	-0,061	0,203
-644,970	82,532	-0,051	-0,041
-643,955	-21,745	-0,058	0,026
-642,941	-62,488	-0,091	0,028
-641,926	199,519	-0,102	0,115
-640,911	-200,000	0,008	-0,038
-639,897	800,000	-0,018	0,056
-638,882	93,384	0,068	0,057
-637,868	-200,000	0,003	-0,022
-636,853	483,393	0,064	-0,108
-635,838	74,655	-0,096	-0,074
-634,824	244,887	0,023	0,029
-633,809	23,011	0,116	0,070
-632,795	-153,353	-0,094	0,005
-631,780	-200,000	-0,003	-0,009
-630,765	-135,137	-0,107	0,009
-629,751	273,440	-0,054	-0,071
-628,736	-151,334	-0,023	0,001
-627,722	350,559	0,045	-0,066
-626,707	720,935	-0,035	0,069
-625,692	527,817	-0,036	-0,063
-624,678	-43,726	-0,086	0,032
-623,663	-11,912	-0,056	0,027
-622,649	123,557	-0,164	-0,151
-621,634	800,000	0,032	-0,077
-620,619	-198,850	0,091	-0,000
-619,605	-200,000	0,019	0,064
-618,590	79,778	0,066	-0,052
-617,576	-200,000	0,012	0,099
-616,561	61,327	-0,081	0,059
-615,546	-93,464	-0,153	-0,031
-614,532	25,273	0,047	-0,028
-613,517	-3,643	-0,032	0,016
-612,503	519,968	0,050	0,086
-611,488	-30,018	-0,069	-0,029
-610,474	-2,527	0,014	0,007
-609,459	98,921	0,049	0,041
-608,444	484,890	-0,059	-0,099
-607,430	49,091	-0,128	-0,088
-606,415	337,702	-0,063	-0,090
-605,401	282,015	-0,066	-0,087
-604,386	800,000	0,077	-0,161
-603,371	-32,272	0,087	-0,036
-602,357	-29,643	-0,039	0,016
-601,342	-200,000	0,002	-0,085
-600,328	17,220	-0,057	-0,033
-599,313	-138,119	-0,137	0,011
-598,298	-200,000	-0,003	0,046
-597,284	20,690	0,110	-0,065
-596,269	-200,000	0,016	-0,109
-595,255	-51,825	0,088	0,030
-594,240	270,881	-0,064	0,083
-593,225	-200,000	-0,006	-0,095
-592,211	800,000	-0,031	-0,082
-591,196	445,358	0,045	-0,073
-590,182	211,258	-0,004	-0,004
-589,167	50,528	0,079	-0,055
-588,152	108,793	-0,012	0,011
-587,138	-200,000	0,023	0,081
-586,123	-141,301	-0,147	-0,011
-585,109	94,485	0,127	-0,106
-584,094	-125,293	-0,149	0,016
-583,079	-19,548	0,147	-0,066
-582,065	-137,191	0,129	-0,011
-581,050	-200,000	-0,002	0,092
-580,036	502,665	0,062	-0,106
-579,021	-88,856	-0,093	-0,020
-578,006	-200,000	-0,009	-0,118
-576,992	23,808	0,052	-0,031
-575,977	81,101	0,120	0,095
-574,963	-200,000	0,016	0,116
-573,948	-200,000	0,010	0,078
-572,934	-200,000	-0,002	0,033
-571,919	-41,351	0,028	-0,011
-570,904	-200,000	-0,003	-0,107
-569,890	430,497	-0,082	-0,130
-568,875	-118,234	-0,039	0,005
-567,861	94,525	0,060	0,050
-566,846	168,963	0,105	0,110
-565,831	800,000	-0,052	0,164
-564,817	-3,589	-0,057	-0,029
-563,802	-168,730	-0,148	-0,004
-562,788	-200,000	-0,007	0,060
-561,773	-51,828	0,132	0,045
-560,758	-200,000	0,007	0,125
-559,744	174,595	-0,083	0,088
-558,729	800,000	0,025	0,058
-557,715	245,320	-0,086	-0,106
-556,700	134,465	0,099	-0,095
-555,685	-200,000	-0,006	-0,068
-554,671	318,624	0,053	0,073
-553,656	-132,315	0,033	0,003
-552,642	400,028	-0,010	0,015
-551,627	337,965	-0,077	0,110
-550,612	-82,816	-0,068	0,016
-549,598	800,000	0,017	0,050
-548,583	-136,537	0,018	-0,001
-547,569	220,725	-0,062	0,073
-546,554	-63,890	-0,079	0,024
-545,539	-166,205	0,074	0,002
-544,525	40,696	-0,124	0,082
-543,510	-92,825	-0,079	0,016
-542,496	800,000	-0,024	-0,065
-541,481	-200,000	-0,000	-0,031
-540,466	-52,080	-0,046	-0,016
-539,452	800,000	-0,048	0,114
-538,437	-200,000	0,027	0,112
-537,423	-31,274	-0,081	-0,033
-536,408	467,592	0,083	0,136
-535,393	-200,000	0,006	-0,047
-534,379	71,121	-0,097	0,074
-533,364	107,053	0,063	-0,055
-532,350	-19,932	-0,036	0,016
-531,335	-10,558	0,080	0,039
-530,321	353,262	0,073	0,106
-529,306	-200,000	-0,005	0,025
-528,291	800,000	0,039	-0,082
-527,277	29,026	-0,191	-0,118
-526,262	13,129	0,044	-0,025
-525,248	445,245	-0,054	-0,087
-524,233	-121,351	0,077	0,009
-523,218	-200,000	0,048	0,173
-522,204	-200,000	-0,002	-0,039
-521,189	18,177	-0,050	0,029
-520,175	650,114	-0,040	-0,075
-519,160	-200,000	-0,009	-0,045
-518,145	-16,112	-0,013	-0,006
-517,131	-70,460	0,197	0,054
-516,116	-95,475	0,093	-0,018
-515,102	49,925	-0,115	-0,079
-514,087	55,367	0,024	0,017
-513,072	-6,452	0,040	-0,020
-512,058	-200,000	-0,004	0,060
-511,043	-200,000	-0,022	-0,105
-510,029	-175,910	0,067	-0,001
-509,014	800,000	-0,024	0,051
-507,999	-71,612	0,100	0,027
-506,985	-98,544	-0,136	0,025
-505,970	-200,000	-0,019	-0,081
-504,956	-179,101	0,059	0,001
-503,941	-200,000	0,039	0,159
-502,926	-69,299	0,166	0,046
-501,912	-108,268	-0,109	-0,017
-500,897	545,337	0,042	-0,074
-499,883	800,000	0,016	-0,049
-498,868	-25,040	0,116	-0,050
-497,853	800,000	0,047	-0,099
-496,839	-76,505	-0,064	-0,016
-495,824	104,618	0,068	0,058
-494,810	489,123	-0,025	0,043
-493,795	-200,000	-0,017	-0,117
-492,781	36,856	-0,054	-0,035
-491,766	-200,000	-0,003	-0,114
-490,751	111,556	0,067	-0,059
-489,737	-136,096	0,099	-0,008
-488,722	800,000	-0,045	-0,112
-487,708	136,657	0,076	0,072
-486,693	133,922	-0,039	0,036
-485,678	-62,394	-0,110	-0,033
-484,664	-133,201	-0,095	-0,009
-483,649	679,751	0,099	-0,188
-482,635	800,000	0,061	-0,158
-481,620	10,959	0,045	-0,025
-480,605	-46,193	-0,076	-0,027
-479,591	-178,016	0,103	0,002
-478,576	-85,619	0,104	0,024
-477,562	-200,000	-0,009	0,052
-476,547	-74,392	0,085	0,022
-475,532	141,501	0,082	-0,079
-474,518	149,982	-0,077	-0,076
-473,503	-200,000	0,005	-0,100
-472,489	471,244	0,050	0,083
-471,474	-200,000	-0,002	-0,024
-470,459	4,477	-0,025	-0,013
-469,445	472,135	0,114	-0,189
-468,430	137,465	-0,040	-0,038
-467,416	-200,000	0,026	0,125
-466,401	-73,407	0,077	-0,020
-465,386	-20,084	-0,115	-0,051
-464,372	-200,000	-0,006	0,057
-463,357	-199,593	0,096	0,000
-462,343	800,000	0,024	0,074
-461,328	-200,000	-0,007	0,166
-460,313	-200,000	0,015	-0,066
-459,299	-1,205	-0,070	0,036
-458,284	-200,000	-0,024	0,080
-457,270	-129,405	0,084	0,008
-456,255	-200,000	0,005	-0,137
-455,241	-200,000	0,002	-0,127
-454,226	-22,029	-0,084	0,037
-453,211	88,494	-0,017	-0,014
-452,197	22,229	0,139	-0,083
-451,182	66,469	-0,050	0,037
-450,168	-108,382	-0,111	0,017
-449,153	-60,765	-0,200	-0,061
-448,138	-50,368	-0,141	0,048
-447,124	800,000	-0,027	-0,073
-446,109	-200,000	0,038	-0,154
-445,095	442,573	0,084	0,135
-444,080	-57,307	0,067	0,021
-443,065	186,945	-0,121	0,132
-442,051	527,156	0,029	-0,050
-441,036	707,457	0,018	0,035
-440,022	800,000	0,047	0,110
-439,007	131,582	0,057	-0,053
-437,992	487,947	0,032	0,054
-436,978	-123,333	0,017	-0,002
-435,963	-200,000	0,004	0,041
-434,949	-135,547	-0,161	0,014
-433,934	800,000	-0,040	0,123
-432,919	248,705	0,022	0,027
-431,905	-200,000	-0,021	-0,156
-430,890	-200,000	-0,025	-0,137
-429,876	158,622	0,061	-0,062
-428,861	662,934	0,050	0,094
-427,846	-200,000	0,003	0,023
-426,832	-200,000	0,008	0,036
-425,817	21,138	-0,097	-0,057
-424,803	175,696	-0,075	-0,079
-423,788	47,790	0,138	-0,093
-422,773	800,000	-0,038	-0,115
-421,759	48,325	0,131	0,089
-420,744	-0,042	-0,123	-0,064
-419,730	-200,000	0,004	0,047
-418,715	213,508	-0,073	-0,084
-417,701	422,447	0,028	-0,044
-416,686	182,342	0,063	0,068
-415,671	-134,004	0,156	-0,014
-414,657	-200,000	-0,002	-0,112
-413,642	800,000	0,024	-0,063
-412,628	484,863	-0,041	0,069
-411,613	197,087	-0,091	0,101
-410,598	360,476	-0,031	-0,046
-409,584	800,000	0,048	0,099
-408,569	800,000	-0,048	0,115
-407,555	14,854	-0,060	0,034
-406,540	-39,737	0,005	-0,002
-405,525	112,771	-0,075	0,066
-404,511	800,000	0,063	-0,177
-403,496	800,000	-0,012	0,029
-402,482	-60,515	0,128	0,039
-401,467	-200,000	-0,022	0,104
-400,452	-102,307	0,108	-0,019
-399,438	-21,210	0,049	0,022
-398,423	409,405	-0,000	0,000
-397,409	-28,551	0,100	0,042
-396,394	-36,674	-0,116	0,045
-395,379	-200,000	0,020	-0,085
-394,365	11,865	-0,039	-0,022
-393,350	-94,187	-0,039	0,008
-392,336	800,000	0,046	0,144
-391,321	364,066	-0,047	-0,069
-390,306	-21,303	0,076	-0,034
-389,292	549,301	-0,027	-0,047
-388,277	31,878	0,052	-0,033
-387,263	51,142	0,100	-0,069
-386,248	800,000	-0,042	0,129
-385,233	148,042	0,140	0,138
-384,219	-32,568	0,110	0,044
-383,204	159,529	-0,071	0,072
-382,190	-48,317	-0,128	-0,045
-381,175	-37,056	-0,083	-0,032
-380,160	427,518	-0,007	0,011
-379,146	290,289	-0,065	0,086
-378,131	-200,000	-0,016	0,055
-377,117	65,273	0,056	0,041
-376,102	800,000	-0,029	0,087
-375,088	261,686	0,042	-0,053
-374,073	494,714	0,029	-0,048
-373,058	-107,224	0,231	0,037
-372,044	-93,164	-0,063	-0,013
-371,029	31,934	-0,108	0,068
-370,015	63,172	0,116	-0,084
-369,000	-134,572	-0,079	-0,007
-367,985	-200,000	0,022	-0,081
-366,971	-76,266	0,051	-0,013
-365,956	800,000	-0,020	0,050
-364,942	96,721	0,070	-0,058
-363,927	32,356	0,073	-0,046
-362,912	181,425	-0,105	-0,112
-361,898	44,354	0,063	-0,042
-360,883	121,327	-0,091	-0,082
-359,869	195,612	0,065	0,071
-358,854	69,736	-0,048	0,036
-357,839	-83,823	0,080	0,018
-356,825	-150,885	0,039	-0,002
-355,810	800,000	-0,008	-0,023
-354,796	95,876	0,050	-0,041
-353,781	4,013	-0,127	-0,067
-352,766	-200,000	0,016	-0,109
-351,752	51,924	-0,119	0,082
-350,737	102,001	0,041	0,035
-349,723	150,040	0,084	-0,083
-348,708	800,000	0,012	-0,033
-347,693	-105,473	-0,011	0,002
-346,679	-142,011	-0,129	-0,009
-345,664	344,464	0,085	0,121
-344,650	143,564	-0,018	0,017
-343,635	-119,449	0,170	0,021
-342,620	-120,585	-0,159	0,019
-341,606	30,462	0,023	-0,015
-340,591	-101,744	-0,154	0,027
-339,577	-79,960	-0,065	-0,016
-338,562	-38,067	-0,020	0,008
-337,548	-200,000	-0,057	0,216
-336,533	800,000	0,045	0,139
-335,518	-2,460	0,053	0,027
-334,504	4,501	0,060	-0,032
-333,489	-43,891	-0,104	-0,038
-332,475	800,000	0,015	-0,038
-331,460	-187,884	0,033	-0,000
-330,445	800,000	-0,044	-0,122
-329,431	26,241	0,084	0,051
-328,416	-200,000	0,013	0,079
-327,402	-133,613	-0,073	0,007
-326,387	256,863	0,090	-0,112
-325,372	-68,221	-0,033	0,009
-324,358	-110,295	0,112	-0,017
-323,343	194,746	0,002	-0,003
-322,329	-200,000	-0,023	-0,169
-321,314	-200,000	0,010	-0,053
-320,299	679,688	0,023	0,043
-319,285	177,214	0,078	0,083
-318,270	60,763	-0,049	0,035
-317,256	-153,322	-0,109	0,005
-316,241	134,340	-0,049	-0,046
-315,226	-200,000	0,008	0,106
-314,212	-200,000	-0,020	0,109
-313,197	-22,944	-0,057	-0,025
-312,183	-37,418	0,070	-0,027
-311,168	543,131	-0,042	-0,072
-310,153	-14,798	-0,181	-0,084
-309,139	-58,424	-0,065	-0,020
-308,124	181,220	0,073	0,078
-307,110	800,000	0,035	0,074
-306,095	-85,540	0,082	0,018
-305,080	-200,000	0,007	-0,031
-304,066	193,560	-0,027	0,030
-303,051	-137,031	0,049	-0,004
-302,037	-117,466	0,143	-0,018
-301,022	-120,055	-0,082	-0,010
-300,008	-159,300	0,109	-0,004
-298,993	-200,000	0,005	-0,066
-297,978	800,000	-0,012	-0,032
-296,964	-120,957	-0,075	-0,009
-295,949	-53,179	0,062	-0,021
-294,935	66,660	-0,112	0,083
-293,920	-126,726	-0,032	-0,003
-292,905	-27,886	0,098	0,041
-291,891	800,000	-0,077	0,158
-290,876	779,931	0,068	0,136
-289,862	268,858	0,049	0,063
-288,847	55,920	-0,146	-0,102
-287,832	-200,000	-0,014	0,108
-286,818	-67,639	0,003	-0,001
-285,803	694,426	0,058	0,111
-284,789	-71,346	0,058	0,016
-283,774	-131,224	0,168	0,016
-282,759	-153,110	-0,076	0,004
-281,745	97,726	0,109	-0,091
-280,730	33,669	0,129	-0,081
-279,716	-64,716	-0,136	-0,040
-278,701	-191,590	0,058	-0,000
-277,686	182,277	0,038	-0,041
-276,672	646,817	-0,030	0,055
-275,657	111,550	0,036	-0,031
-274,643	-80,591	0,190	0,045
-273,628	-200,000	-0,032	0,138
-272,613	800,000	-0,046	-0,112
-271,599	-63,504	-0,029	0,009
-270,584	-200,000	0,042	0,168
-269,570	-200,000	-0,020	0,151
-268,555	132,882	0,073	-0,068
-267,540	-41,444	-0,130	-0,048
-266,526	190,167	-0,012	0,013
-265,511	-200,000	-0,012	-0,079
-264,497	709,692	-0,020	-0,039
-263,482	-145,081	-0,155	-0,010
-262,467	91,771	-0,013	0,010
-261,453	-200,000	0,017	0,147
-260,438	68,070	-0,048	0,035
-259,424	-200,000	-0,038	-0,131
-258,409	800,000	-0,037	-0,085
-257,395	-82,522	-0,131	0,030
-256,380	176,345	0,084	-0,089
-255,365	347,739	-0,077	0,110
-254,351	39,990	0,055	-0,035
-253,336	113,491	-0,091	-0,080
-252,322	177,195	-0,017	0,018
-251,307	-200,000	0,028	0,127
-250,292	-124,842	-0,023	-0,003
-249,278	-39,150	0,024	0,009
-248,263	160,225	-0,070	-0,070
-247,249	800,000	-0,042	0,121
-246,234	58,554	0,061	-0,043
-245,219	-33,711	0,066	-0,026
-244,205	-130,647	-0,060	0,006
-243,190	402,422	0,023	0,035
-242,176	-161,256	0,046	-0,002
-241,161	800,000	0,023	0,071
-240,146	-168,172	0,087	0,002
-239,132	-99,082	0,052	0,009
-238,117	-200,000	0,010	-0,067
-237,103	800,000	0,026	-0,058
-236,088	-128,167	-0,149	0,015
-235,073	-200,000	0,001	0,037
-234,059	-87,615	0,054	0,012
-233,044	27,701	0,009	-0,006
-232,030	109,315	-0,122	-0,106
-231,015	22,465	-0,164	-0,097
-230,000	48,512	-0,068	-0,046
-228,986	55,497	0,100	0,070
-227,971	-200,000	-0,017	0,081
-226,957	725,018	0,031	0,061
-225,942	-200,000	-0,011	0,096
-224,927	7,721	-0,123	0,066
-223,913	-96,493	-0,113	-0,021
-222,898	24,993	0,084	-0,050
-221,884	92,766	0,079	0,065
-220,869	-90,955	0,069	-0,014
-219,855	665,883	-0,075	0,141
-218,840	19,436	-0,112	0,065
-217,825	-200,000	-0,005	-0,096
-216,811	-200,000	-0,015	0,129
-215,796	-121,010	0,069	0,008
-214,782	-200,000	-0,010	0,128
-213,767	-200,000	-0,008	0,043
-212,752	-121,929	0,182	0,021
-211,738	-62,750	-0,146	0,044
-210,723	-77,534	-0,123	0,031
-209,709	195,089	-0,019	0,021
-208,694	-200,000	-0,007	-0,189
-207,679	-65,237	-0,052	-0,015
-206,665	-58,279	0,161	-0,050
-205,650	-107,262	0,201	-0,032
-204,636	800,000	-0,005	-0,014
-203,621	92,298	-0,021	0,017
-202,606	800,000	0,013	-0,041
-201,592	-22,601	-0,112	-0,049
-200,577	206,679	0,040	0,046
-199,563	19,686	0,157	-0,091
-198,548	-78,426	0,141	-0,035
-197,533	-61,921	-0,102	0,030
-196,519	-200,000	-0,001	0,134
-195,504	30,708	-0,087	0,054
-194,490	7,196	0,064	-0,035
-193,475	27,776	-0,121	0,074
-192,460	480,771	0,038	0,062
-191,446	800,000	-0,084	0,173
-190,431	-105,415	0,048	0,008
-189,417	-122,702	0,059	0,007
-188,402	800,000	0,031	-0,076
-187,387	-195,227	0,016	0,000
-186,373	-200,000	0,024	-0,113
-185,358	-200,000	0,015	-0,079
-184,344	-200,000	0,010	-0,042
-183,329	82,632	0,118	0,092
-182,315	366,680	-0,017	-0,024
-181,300	-200,000	-0,018	-0,080
-180,285	-81,979	0,111	0,026
-179,271	208,628	-0,075	-0,084
-178,256	31,452	0,129	-0,080
-177,242	-200,000	0,004	-0,012
-176,227	512,341	0,089	0,150
-175,212	-103,853	0,116	-0,019
-174,198	-37,506	-0,060	0,023
-173,183	800,000	-0,028	0,064
-172,169	329,023	-0,031	-0,043
-171,154	8,397	0,030	0,016
-170,139	800,000	-0,017	0,049
-169,125	-200,000	0,022	0,103
-168,110	26,685	0,108	-0,065
-167,096	-157,412	-0,055	-0,002
-166,081	106,136	-0,097	-0,083
-165,066	-200,000	0,009	-0,056
-164,052	-51,905	-0,024	0,008
-163,037	-200,000	-0,040	-0,183
-162,023	-61,273	-0,088	0,027
-161,008	16,005	-0,092	0,052
-159,993	251,649	-0,035	0,043
-158,979	-135,470	0,116	-0,010
-157,964	800,000	-0,057	-0,130
-156,950	11,014	-0,138	-0,076
-155,935	-200,000	0,001	-0,080
-154,920	-128,345	0,115	-0,012
-153,906	280,326	0,045	0,059
-152,891	-26,618	-0,077	0,032
-151,877	120,750	-0,092	0,082
-150,862	250,168	-0,046	-0,056
-149,847	-111,956	-0,155	0,022
-148,833	-200,000	-0,014	0,102
-147,818	778,704	-0,024	-0,048
-146,804	800,000	0,016	0,041
-145,789	5,553	-0,045	-0,024
-144,775	195,550	-0,087	0,095
-143,760	-52,680	0,150	-0,050
-142,745	-69,837	0,092	-0,025
-141,731	800,000	0,043	0,109
-140,716	800,000	0,013	0,038
-139,702	-132,035	0,129	-0,012
-138,687	-200,000	-0,002	-0,011
-137,672	107,584	0,063	0,054
-136,658	623,864	0,049	-0,089
-135,643	-200,000	0,007	-0,142
-134,629	-160,175	0,085	0,003
-133,614	-103,533	0,125	-0,021
-132,599	-134,674	-0,091	-0,008
-131,585	445,745	-0,035	0,055
-130,570	-200,000	0,021	0,125
-129,556	62,689	-0,066	-0,048
-128,541	714,714	-0,019	-0,036
-127,526	800,000	-0,014	-0,040
-126,512	336,240	0,062	-0,087
-125,497	95,160	0,009	0,007
-124,483	40,644	-0,031	0,020
-123,468	800,000	0,028	0,065
-122,453	107,090	-0,075	-0,064
-121,439	800,000	0,040	-0,102
-120,424	-200,000	-0,017	0,089
-119,410	104,392	0,039	0,033
