DTS Sentinel unit serial number:	SN410029Multiplexer serial number:	ORYXHardware model number:	OX2-SRSoftware version number:	ORYX F/W v4,00 Oryx Data Collector v3.7.2.0data status	okinstallation	B5 Nyhavnadifferential loss correction	single-endedforward channel	channel 2reverse channel	N/Adate	2023/12/13time	23:07:13forward acquisition time	300,00reverse acquisition time	0,00gamma	499,1914k internal	0,3154k external	0,3154temperature offset calibration	1,0000default loss term (dB/km)	0,3820temperature slope calibration	1,0000multiplexer offset coefficient	1,0000multiplexer slope coefficient	1,0000fibre end	0,00T internal ref (°C)	9,03T ext. ref 1 (°C)	-7,52T ext. ref 2 (°C)	-7,52length (m)	temperature (°C)	Stokes	anti-Stokes-744,400	30,457	0,155	0,098
-743,385	-20,102	-0,443	-0,201
-742,371	-62,882	0,195	0,059
-741,356	-40,769	-0,385	-0,146
-740,342	108,236	0,094	0,082
-739,327	-117,990	-0,376	0,049
-738,312	166,214	0,073	0,077
-737,298	-122,878	-0,295	-0,035
-736,283	29,158	0,105	0,066
-735,269	-26,201	-0,326	-0,141
-734,254	-200,000	0,007	0,225
-733,239	-86,763	-0,498	-0,112
-732,225	160,405	0,191	0,197
-731,210	-200,000	-0,035	0,123
-730,196	125,279	-0,122	0,114
-729,181	-11,069	-0,036	0,018
-728,167	-103,912	-0,009	-0,001
-727,152	139,591	0,061	0,060
-726,137	386,123	-0,072	-0,110
-725,123	-52,788	-0,112	-0,038
-724,108	-200,000	-0,002	-0,029
-723,094	800,000	-0,063	-0,169
-722,079	35,883	-0,102	0,066
-721,064	313,736	-0,045	-0,062
-720,050	-94,318	-0,146	0,029
-719,035	-79,128	0,149	-0,037
-718,021	42,764	-0,057	-0,039
-717,006	-200,000	-0,009	-0,046
-715,991	-50,047	-0,094	-0,033
-714,977	551,439	-0,071	-0,127
-713,962	800,000	-0,018	-0,041
-712,948	-12,593	0,020	-0,010
-711,933	482,871	-0,063	-0,106
-710,918	-200,000	0,006	0,056
-709,904	61,644	-0,036	0,026
-708,889	106,891	-0,079	-0,070
-707,875	282,357	-0,059	-0,078
-706,860	-6,777	-0,140	-0,070
-705,845	-107,660	-0,131	-0,021
-704,831	-200,000	-0,020	0,109
-703,816	-200,000	-0,001	-0,192
-702,802	800,000	0,047	-0,135
-701,787	-157,345	-0,181	0,008
-700,772	-31,659	-0,017	0,007
-699,758	199,050	0,010	-0,011
-698,743	-132,445	0,063	0,006
-697,729	209,295	-0,067	0,077
-696,714	-113,699	0,087	-0,012
-695,699	-128,969	0,156	-0,016
-694,685	20,526	-0,081	-0,048
-693,670	-109,005	-0,033	0,005
-692,656	-200,000	-0,040	-0,170
-691,641	70,569	0,068	-0,052
-690,627	321,824	-0,023	0,032
-689,612	-200,000	0,007	-0,041
-688,597	-200,000	0,051	0,000
-687,583	43,472	-0,016	0,011
-686,568	-200,000	0,000	-0,132
-685,554	74,736	-0,123	-0,095
-684,539	73,309	0,068	-0,053
-683,524	715,833	-0,013	0,025
-682,510	-61,491	-0,104	-0,032
-681,495	-200,000	0,005	0,079
-680,481	-67,381	-0,102	-0,029
-679,466	-200,000	-0,014	-0,120
-678,451	800,000	0,004	0,008
-677,437	-38,242	-0,020	0,008
-676,422	-40,912	0,042	-0,016
-675,408	-147,433	-0,112	-0,007
-674,393	291,438	-0,050	-0,066
-673,378	-18,133	0,041	0,019
-672,364	542,677	-0,038	0,067
-671,349	11,255	-0,095	-0,053
-670,335	24,097	-0,030	0,018
-669,320	-7,036	0,113	0,056
-668,305	-101,339	-0,035	0,006
-667,291	-190,632	-0,220	-0,002
-666,276	-38,270	-0,083	-0,032
-665,262	-200,000	0,023	-0,156
-664,247	58,145	-0,158	-0,114
-663,232	-200,000	0,000	-0,009
-662,218	14,143	0,039	0,022
-661,203	305,519	0,066	0,090
-660,189	182,969	-0,048	-0,053
-659,174	-11,664	-0,089	-0,043
-658,159	-155,120	-0,067	0,003
-657,145	800,000	-0,061	0,156
-656,130	194,703	-0,046	-0,051
-655,116	-200,000	0,021	-0,118
-654,101	-59,725	-0,030	0,009
-653,086	-200,000	0,009	-0,034
-652,072	172,856	-0,037	0,039
-651,057	-200,000	-0,015	0,179
-650,043	161,795	-0,027	0,028
-649,028	332,114	0,006	-0,008
-648,014	800,000	-0,025	-0,051
-646,999	189,763	-0,057	0,063
-645,984	-51,750	0,074	-0,025
-644,970	-140,691	-0,079	-0,006
-643,955	95,733	-0,154	-0,129
-642,941	195,640	-0,032	-0,036
-641,926	800,000	-0,030	0,071
-640,911	-52,023	-0,094	0,032
-639,897	330,837	0,126	0,179
-638,882	-200,000	0,010	0,059
-637,868	-200,000	0,005	-0,102
-636,853	91,276	0,080	-0,066
-635,838	-200,000	0,011	-0,127
-634,824	-200,000	0,000	-0,135
-633,809	-200,000	-0,017	0,127
-632,795	59,879	0,096	-0,070
-631,780	43,918	-0,136	0,091
-630,765	73,382	-0,034	-0,026
-629,751	-106,784	-0,200	0,032
-628,736	332,045	-0,083	-0,119
-627,722	-200,000	-0,009	-0,106
-626,707	-35,001	0,075	-0,030
-625,692	375,873	0,007	-0,010
-624,678	-30,012	-0,044	0,018
-623,663	492,501	0,030	-0,051
-622,649	800,000	0,008	0,020
-621,634	321,721	-0,063	-0,089
-620,619	-200,000	-0,010	0,038
-619,605	-52,520	0,033	-0,011
-618,590	317,028	-0,070	-0,097
-617,576	-200,000	-0,034	-0,145
-616,561	-134,045	-0,168	-0,015
-615,546	-120,611	0,101	-0,012
-614,532	-83,673	-0,094	0,022
-613,517	-141,967	-0,071	-0,005
-612,503	197,714	-0,021	-0,023
-611,488	83,414	-0,084	-0,067
-610,474	-200,000	0,022	-0,094
-609,459	73,626	-0,100	0,076
-608,444	-161,594	-0,101	0,004
-607,430	368,003	-0,020	0,030
-606,415	-125,869	0,072	0,008
-605,401	-11,669	0,093	0,045
-604,386	-30,792	-0,089	-0,037
-603,371	510,279	0,076	-0,130
-602,357	800,000	0,028	-0,070
-601,342	-200,000	-0,034	-0,157
-600,328	800,000	-0,012	-0,028
-599,313	-30,549	-0,156	-0,065
-598,298	222,191	-0,096	-0,114
-597,284	737,818	-0,027	-0,053
-596,269	-94,870	0,009	0,002
-595,255	800,000	-0,014	-0,029
-594,240	-105,004	-0,044	0,007
-593,225	800,000	0,037	0,078
-592,211	-200,000	-0,008	-0,111
-591,196	63,558	0,103	0,076
-590,182	-200,000	0,010	-0,060
-589,167	-200,000	0,015	0,049
-588,152	-200,000	-0,016	-0,071
-587,138	-200,000	-0,022	0,074
-586,123	36,711	-0,135	-0,088
-585,109	-200,000	0,003	-0,075
-584,094	621,675	-0,067	-0,125
-583,079	-156,498	0,121	0,005
-582,065	-93,227	-0,043	0,009
-581,050	15,950	-0,137	-0,079
-580,036	61,823	-0,097	0,071
-579,021	-200,000	-0,007	-0,066
-578,006	513,799	-0,055	-0,095
-576,992	376,319	0,062	-0,093
-575,977	-200,000	-0,031	-0,107
-574,963	800,000	-0,023	0,070
-573,948	800,000	0,043	0,137
-572,934	800,000	0,048	0,102
-571,919	-99,860	0,108	-0,020
-570,904	37,410	0,104	0,068
-569,890	126,790	0,053	0,049
-568,875	-200,000	-0,023	-0,095
-567,861	115,799	0,022	0,019
-566,846	5,667	0,180	0,097
-565,831	758,237	-0,027	0,055
-564,817	86,373	-0,061	0,049
-563,802	250,849	0,048	-0,061
-562,788	226,475	0,063	0,075
-561,773	348,752	0,114	0,166
-560,758	75,677	0,102	0,079
-559,744	-159,370	0,082	0,003
-558,729	800,000	-0,024	0,058
-557,715	12,368	-0,075	-0,042
-556,700	-40,120	-0,039	-0,015
-555,685	103,682	-0,103	-0,088
-554,671	-173,381	-0,088	-0,002
-553,656	387,320	0,083	0,126
-552,642	-91,724	0,114	-0,024
-551,627	-51,806	0,130	0,044
-550,612	-153,121	-0,056	0,003
-549,598	-40,918	0,046	-0,017
-548,583	687,734	0,043	0,083
-547,569	-31,639	0,145	-0,059
-546,554	230,602	0,023	-0,027
-545,539	800,000	0,042	0,088
-544,525	800,000	-0,053	0,142
-543,510	-106,891	-0,095	-0,015
-542,496	-125,794	0,052	0,006
-541,481	15,756	-0,057	0,033
-540,466	-83,473	-0,124	-0,029
-539,452	-114,837	0,164	0,023
-538,437	-110,507	0,105	-0,016
-537,423	-200,000	-0,012	0,105
-536,408	-200,000	-0,015	0,107
-535,393	-200,000	0,028	-0,123
-534,379	800,000	-0,030	0,090
-533,364	800,000	0,024	0,077
-532,350	-84,286	0,017	0,004
-531,335	26,098	0,060	0,037
-530,321	260,160	-0,024	-0,031
-529,306	-76,935	-0,075	-0,019
-528,291	-200,000	0,021	0,079
-527,277	13,787	-0,088	-0,050
-526,262	-142,809	-0,085	0,006
-525,248	800,000	0,014	-0,031
-524,233	129,614	0,019	-0,018
-523,218	-200,000	0,013	0,055
-522,204	-200,000	-0,001	0,086
-521,189	248,446	-0,034	-0,043
-520,175	6,797	0,041	-0,023
-519,160	-200,000	-0,008	0,106
-518,145	2,675	0,057	0,030
-517,131	487,335	0,029	-0,049
-516,116	535,997	0,006	-0,010
-515,102	436,939	0,024	-0,039
-514,087	800,000	-0,102	-0,210
-513,072	36,805	-0,122	-0,079
-512,058	-200,000	0,006	0,034
-511,043	-200,000	0,010	0,052
-510,029	-74,487	0,098	0,026
-509,014	-200,000	-0,038	0,180
-507,999	348,412	-0,043	0,062
-506,985	-200,000	0,001	-0,134
-505,970	-163,901	0,022	-0,001
-504,956	-200,000	0,002	-0,039
-503,941	252,060	-0,086	0,107
-502,926	-38,716	0,127	0,049
-501,912	-200,000	-0,023	0,088
-500,897	-200,000	0,013	0,162
-499,883	-109,704	0,053	0,008
-498,868	800,000	0,029	0,091
-497,853	-157,312	-0,033	0,001
-496,839	-22,823	-0,028	-0,012
-495,824	140,123	-0,059	0,057
-494,810	800,000	0,029	-0,061
-493,795	-50,839	-0,074	0,025
-492,781	-200,000	-0,009	-0,069
-491,766	-58,255	-0,100	-0,031
-490,751	352,044	-0,013	-0,019
-489,737	580,173	0,008	0,015
-488,722	-133,870	0,103	0,009
-487,708	-69,485	0,148	0,041
-486,693	-55,045	0,071	-0,023
-485,678	356,349	-0,072	-0,105
-484,664	800,000	-0,031	0,086
-483,649	60,868	0,084	0,061
-482,635	-200,000	0,034	-0,125
-481,620	81,072	0,031	0,025
-480,605	63,692	0,039	0,029
-479,591	224,772	0,018	0,022
-478,576	800,000	-0,039	-0,124
-477,562	-111,359	-0,076	-0,011
-476,547	-113,097	-0,065	0,009
-475,532	153,509	0,045	-0,045
-474,518	-200,000	-0,010	-0,069
-473,503	-75,574	0,148	-0,038
-472,489	-118,040	-0,040	0,005
-471,474	129,539	0,071	-0,066
-470,459	-165,204	-0,172	0,005
-469,445	-200,000	0,008	0,028
-468,430	199,010	0,097	-0,108
-467,416	800,000	0,049	0,110
-466,401	-200,000	-0,024	-0,140
-465,386	39,905	0,130	-0,085
-464,372	-16,085	0,043	-0,020
-463,357	-37,461	-0,079	0,031
-462,343	-65,842	0,014	-0,004
-461,328	127,875	0,117	-0,108
-460,313	-200,000	-0,026	0,113
-459,299	800,000	0,015	0,048
-458,284	-56,203	0,102	0,033
-457,270	-30,619	0,022	0,009
-456,255	-86,404	-0,032	0,007
-455,241	-200,000	-0,000	-0,019
-454,226	-68,317	-0,127	0,036
-453,211	197,689	0,075	-0,083
-452,197	800,000	0,031	-0,080
-451,182	51,277	0,169	0,117
-450,168	235,694	0,041	0,050
-449,153	359,411	-0,079	-0,115
-448,138	476,359	-0,088	-0,146
-447,124	258,354	-0,071	-0,090
-446,109	-66,164	0,136	0,039
-445,095	-159,710	0,081	-0,003
-444,080	285,318	-0,017	0,022
-443,065	-3,459	-0,062	0,032
-442,051	-181,114	0,088	-0,001
-441,036	-90,168	-0,119	0,025
-440,022	259,606	0,022	-0,028
-439,007	33,769	0,045	-0,028
-437,992	574,039	-0,080	0,142
-436,978	-172,338	0,065	-0,001
-435,963	-130,359	0,079	0,008
-434,949	-89,076	-0,090	0,019
-433,934	-57,045	0,129	0,041
-432,919	-79,727	-0,106	0,026
-431,905	43,382	-0,059	0,039
-430,890	24,235	0,032	0,019
-429,876	124,963	-0,060	-0,055
-428,861	41,174	-0,042	0,028
-427,846	3,307	-0,025	-0,013
-426,832	-43,092	-0,118	0,043
-425,817	119,791	-0,067	0,060
-424,803	-200,000	-0,015	0,204
-423,788	-13,690	0,153	-0,072
-422,773	166,221	-0,103	0,106
-421,759	-200,000	-0,002	0,011
-420,744	-200,000	-0,028	0,092
-419,730	-200,000	-0,001	-0,011
-418,715	800,000	0,057	-0,148
-417,701	-34,147	0,105	-0,042
-416,686	800,000	-0,022	0,066
-415,671	-112,633	0,012	0,002
-414,657	-46,262	0,088	0,031
-413,642	-127,881	-0,058	0,006
-412,628	-200,000	0,020	0,092
-411,613	-200,000	0,011	-0,047
-410,598	-200,000	-0,003	-0,025
-409,584	31,475	-0,080	0,050
-408,569	171,184	0,042	0,044
-407,555	800,000	0,119	0,245
-406,540	55,090	-0,045	-0,031
-405,525	800,000	-0,019	0,051
-404,511	-200,000	0,001	0,028
-403,496	-200,000	-0,001	-0,012
-402,482	-200,000	-0,022	-0,131
-401,467	318,559	0,007	-0,010
-400,452	-47,694	0,045	0,016
-399,438	-1,841	0,109	0,056
-398,423	400,625	-0,042	-0,065
-397,409	531,004	-0,013	-0,023
-396,394	800,000	-0,043	0,086
-395,379	-200,000	-0,029	0,113
-394,365	538,175	0,042	0,073
-393,350	800,000	0,055	0,139
-392,336	173,695	0,057	-0,060
-391,321	800,000	0,006	-0,014
-390,306	-24,763	-0,078	-0,034
-389,292	64,225	-0,052	-0,038
-388,277	-90,825	0,109	-0,023
-387,263	-200,000	-0,006	-0,072
-386,248	-112,388	-0,125	-0,018
-385,233	-155,275	0,043	-0,002
-384,219	243,389	0,136	-0,166
-383,204	-200,000	-0,016	-0,179
-382,190	800,000	-0,029	0,093
-381,175	-200,000	-0,011	0,087
-380,160	-200,000	-0,035	0,130
-379,146	800,000	0,028	-0,079
-378,131	496,180	-0,007	0,012
-377,117	-28,133	-0,109	0,046
-376,102	26,696	0,109	-0,066
-375,088	755,831	0,066	-0,130
-374,073	-200,000	0,004	-0,105
-373,058	76,499	-0,083	0,064
-372,044	800,000	-0,059	-0,145
-371,029	-12,104	0,047	0,022
-370,015	-53,367	-0,026	-0,009
-369,000	-111,332	-0,147	-0,022
-367,985	243,746	-0,050	-0,062
-366,971	365,443	-0,046	0,067
-365,956	195,149	-0,056	0,062
-364,942	-200,000	0,005	0,106
-363,927	-200,000	0,010	-0,138
-362,912	-200,000	0,016	0,125
-361,898	-200,000	-0,002	0,071
-360,883	800,000	-0,036	-0,091
-359,869	399,527	0,027	0,042
-358,854	75,404	0,026	0,020
-357,839	-200,000	0,003	0,121
-356,825	47,511	-0,023	0,015
-355,810	800,000	-0,037	-0,101
-354,796	-200,000	-0,001	-0,045
-353,781	-89,872	0,070	-0,015
-352,766	33,283	-0,044	-0,028
-351,752	-103,805	-0,042	0,007
-350,737	290,777	0,049	0,065
-349,723	800,000	-0,026	0,080
-348,708	-172,654	-0,182	-0,004
-347,693	800,000	0,024	0,068
-346,679	-200,000	-0,016	-0,076
-345,664	-200,000	0,019	-0,113
-344,650	-200,000	0,012	0,043
-343,635	247,162	-0,037	0,045
-342,620	721,756	0,077	0,149
-341,606	8,589	-0,128	0,070
-340,591	-40,732	0,065	-0,024
-339,577	521,999	-0,058	-0,099
-338,562	156,447	-0,023	-0,023
-337,548	800,000	-0,029	-0,060
-336,533	-63,691	0,128	0,038
-335,518	5,430	0,077	-0,041
-334,504	69,862	-0,066	0,050
-333,489	-38,759	0,069	-0,026
-332,475	-44,544	-0,074	0,027
-331,460	-88,205	-0,171	-0,037
-330,445	-200,000	0,022	-0,219
-329,431	508,505	0,046	0,078
-328,416	800,000	-0,019	0,043
-327,402	93,583	-0,039	0,032
-326,387	244,299	0,129	-0,157
-325,372	67,022	-0,047	-0,035
-324,358	408,042	0,078	-0,120
-323,343	69,216	0,094	-0,070
-322,329	800,000	0,019	0,042
-321,314	201,701	0,007	-0,007
-320,299	61,535	0,086	0,062
-319,285	800,000	0,044	0,125
-318,270	145,128	0,068	0,066
-317,256	-65,849	-0,066	0,019
-316,241	238,853	-0,108	0,131
-315,226	-164,279	0,093	0,003
-314,212	800,000	-0,023	0,055
-313,197	-74,071	-0,047	0,012
-312,183	400,055	-0,067	0,103
-311,168	-91,342	-0,049	-0,010
-310,153	-131,494	0,068	-0,006
-309,139	-200,000	0,026	-0,184
-308,124	-59,295	-0,069	-0,021
-307,110	13,336	0,044	0,024
-306,095	-29,220	0,172	0,071
-305,080	-70,159	-0,109	-0,030
-304,066	29,961	-0,124	-0,077
-303,051	-30,962	-0,040	-0,016
-302,037	800,000	0,020	0,048
-301,022	48,909	0,042	-0,029
-300,008	229,904	0,080	-0,095
-298,993	346,012	-0,046	-0,066
-297,978	77,433	-0,028	-0,022
-296,964	-68,450	0,116	-0,032
-295,949	-200,000	0,041	-0,131
-294,935	-35,960	-0,096	0,037
-293,920	800,000	0,034	0,096
-292,905	-38,041	-0,058	-0,022
-291,891	-54,007	0,086	-0,028
-290,876	-200,000	-0,014	0,047
-289,862	239,624	-0,040	0,049
-288,847	-200,000	-0,016	-0,151
-287,832	-91,326	-0,086	-0,018
-286,818	46,161	0,043	-0,029
-285,803	800,000	0,032	0,089
-284,789	-77,067	0,183	0,046
-283,774	366,935	0,048	-0,071
-282,759	13,245	-0,186	-0,104
-281,745	110,482	0,092	0,080
-280,730	175,865	0,121	-0,128
-279,716	-200,000	0,003	0,054
-278,701	-200,000	0,000	0,077
-277,686	480,850	-0,045	0,075
-276,672	45,071	-0,050	-0,033
-275,657	576,661	-0,031	0,055
-274,643	-132,199	-0,040	0,004
-273,628	-200,000	-0,019	-0,216
-272,613	-153,498	-0,113	-0,006
-271,599	-187,059	-0,249	0,002
-270,584	-91,333	-0,046	0,010
-269,570	-200,000	-0,033	0,121
-268,555	-14,936	0,223	-0,103
-267,540	61,958	-0,152	-0,110
-266,526	800,000	0,040	-0,106
-265,511	-4,736	0,038	0,019
-264,497	132,521	0,115	0,108
-263,482	800,000	0,012	0,030
-262,467	-200,000	0,025	0,173
-261,453	251,155	-0,029	0,036
-260,438	800,000	0,041	0,090
-259,424	-29,975	-0,126	0,052
-258,409	-69,056	0,124	-0,034
-257,395	-200,000	-0,013	0,070
-256,380	40,263	-0,041	0,026
-255,365	635,727	0,010	-0,019
-254,351	298,158	0,012	0,016
-253,336	-112,007	0,158	-0,023
-252,322	-200,000	-0,022	-0,078
-251,307	-200,000	-0,016	0,132
-250,292	-52,684	-0,166	-0,055
-249,278	100,825	0,137	-0,115
-248,263	-85,164	0,065	-0,015
-247,249	335,953	0,024	-0,033
-246,234	380,478	-0,032	-0,048
-245,219	497,195	-0,060	-0,100
-244,205	-10,266	0,088	-0,042
-243,190	-70,173	0,138	0,038
-242,176	35,721	-0,114	0,072
-241,161	-200,000	0,014	0,073
-240,146	484,825	0,045	0,075
-239,132	800,000	-0,028	0,058
-238,117	-78,834	-0,055	-0,014
-237,103	-138,395	-0,039	0,003
-236,088	20,961	-0,068	-0,040
-235,073	-167,743	0,002	0,000
-234,059	370,587	-0,040	0,059
-233,044	-4,763	0,128	0,064
-232,030	150,080	-0,036	-0,035
-231,015	-109,423	0,049	0,007
-230,000	-88,458	0,048	0,010
-228,986	28,797	-0,107	-0,065
-227,971	204,117	0,060	-0,067
-226,957	-27,535	0,105	-0,044
-225,942	-200,000	-0,027	0,181
-224,927	107,716	-0,045	0,038
-223,913	-52,087	0,129	-0,043
-222,898	433,328	0,031	-0,050
-221,884	11,349	-0,095	-0,052
-220,869	-90,126	0,074	-0,015
-219,855	77,142	0,145	-0,111
-218,840	513,879	-0,047	-0,079
-217,825	2,688	-0,033	-0,017
-216,811	800,000	-0,066	0,163
-215,796	28,998	-0,082	-0,050
-214,782	-181,821	0,107	0,001
-213,767	800,000	-0,032	0,098
-212,752	225,202	0,075	0,088
-211,738	-146,616	-0,041	0,003
-210,723	-200,000	0,020	0,072
-209,709	800,000	0,017	-0,044
-208,694	715,217	-0,006	0,012
-207,679	-200,000	-0,021	-0,104
-206,665	-53,999	-0,070	-0,023
-205,650	800,000	0,049	0,108
-204,636	-7,275	0,059	-0,029
-203,621	-200,000	0,031	0,136
-202,606	176,701	-0,039	0,041
-201,592	120,788	-0,040	-0,036
-200,577	-81,722	-0,082	-0,019
-199,563	-83,975	0,087	0,020
-198,548	44,604	0,064	-0,042
-197,533	-200,000	0,019	0,142
-196,519	-50,574	0,156	0,053
-195,504	195,120	0,004	-0,004
-194,490	341,371	-0,112	-0,158
-193,475	382,319	-0,037	0,056
-192,460	376,878	0,067	-0,099
-191,446	35,752	-0,195	-0,124
-190,431	-56,471	-0,066	-0,021
-189,417	224,615	0,085	-0,099
-188,402	-93,087	-0,162	-0,032
-187,387	-200,000	-0,007	-0,124
-186,373	-154,925	-0,149	0,007
-185,358	347,871	0,043	0,062
-184,344	50,085	0,108	0,074
-183,329	188,195	-0,049	0,053
-182,315	205,372	-0,007	-0,008
-181,300	-1,086	0,097	-0,050
-180,285	800,000	0,021	0,051
-179,271	800,000	0,037	-0,084
-178,256	-200,000	-0,009	0,189
-177,242	-55,803	-0,169	0,054
-176,227	82,607	0,031	-0,024
-175,212	-200,000	0,001	0,075
-174,198	385,484	-0,075	0,112
-173,183	436,614	-0,038	0,060
-172,169	800,000	-0,050	-0,132
-171,154	-23,572	-0,036	-0,016
-170,139	800,000	0,004	0,009
-169,125	373,143	-0,070	0,103
-168,110	-69,524	0,219	0,060
-167,096	-67,915	-0,035	-0,010
-166,081	-8,127	-0,020	-0,009
-165,066	348,193	0,111	-0,158
-164,052	72,956	-0,069	-0,052
-163,037	-168,214	0,183	0,005
-162,023	800,000	-0,066	0,149
-161,008	195,889	-0,055	0,061
-159,993	-47,997	0,108	-0,037
-158,979	547,140	0,022	0,037
-157,964	800,000	-0,043	-0,132
-156,950	-64,590	0,118	0,034
-155,935	-83,208	-0,007	0,002
-154,920	648,601	0,066	0,123
-153,906	123,929	0,056	0,051
-152,891	-200,000	0,006	-0,025
-151,877	-96,982	-0,093	0,017
-150,862	748,233	0,048	-0,095
-149,847	-200,000	0,042	-0,158
-148,833	76,859	-0,047	0,036
-147,818	212,565	-0,066	-0,076
-146,804	105,650	0,120	0,102
-145,789	85,021	-0,127	0,100
-144,775	281,281	0,099	-0,128
-143,760	225,563	-0,036	-0,042
-142,745	-70,674	0,144	-0,039
-141,731	-40,328	-0,152	-0,057
-140,716	243,853	0,045	0,055
-139,702	4,848	-0,065	-0,035
-138,687	373,354	0,025	-0,037
-137,672	441,263	0,059	0,094
-136,658	-35,748	0,133	-0,052
-135,643	237,863	0,045	0,054
-134,629	86,928	-0,033	-0,026
-133,614	-52,664	-0,041	-0,014
-132,599	-37,783	0,086	-0,033
-131,585	516,531	-0,040	0,067
-130,570	-81,190	0,036	-0,009
-129,556	-179,789	-0,131	0,002
-128,541	134,724	0,063	-0,059
-127,526	226,828	-0,080	-0,094
-126,512	131,569	-0,053	-0,049
-125,497	125,505	-0,035	-0,032
-124,483	435,303	0,066	0,104
-123,468	559,284	-0,019	-0,033
-122,453	-200,000	0,010	0,085
-121,439	568,600	-0,040	-0,070
-120,424	-116,360	0,163	-0,021
-119,410	404,903	-0,061	0,093
