DTS Sentinel unit serial number:	SN410029Multiplexer serial number:	ORYXHardware model number:	OX2-SRSoftware version number:	ORYX F/W v4,00 Oryx Data Collector v3.7.2.0data status	okinstallation	B5 Nyhavnadifferential loss correction	single-endedforward channel	channel 2reverse channel	N/Adate	2023/12/12time	18:37:13forward acquisition time	300,00reverse acquisition time	0,00gamma	499,1914k internal	0,3156k external	0,3156temperature offset calibration	1,0000default loss term (dB/km)	0,3820temperature slope calibration	1,0000multiplexer offset coefficient	1,0000multiplexer slope coefficient	1,0000fibre end	0,00T internal ref (°C)	15,58T ext. ref 1 (°C)	-0,96T ext. ref 2 (°C)	-1,26length (m)	temperature (°C)	Stokes	anti-Stokes-744,400	-70,838	0,136	0,037
-743,385	-98,602	-0,334	0,062
-742,371	-20,693	0,057	-0,025
-741,356	-89,237	-0,178	0,038
-740,342	-138,601	0,073	-0,006
-739,327	-94,315	-0,435	-0,087
-738,312	155,953	0,097	-0,099
-737,298	-64,380	-0,287	0,085
-736,283	250,587	-0,018	-0,022
-735,269	-91,042	-0,278	-0,058
-734,254	-56,110	0,091	-0,030
-733,239	-33,484	-0,459	-0,186
-732,225	-124,857	0,207	0,023
-731,210	367,119	-0,069	0,103
-730,196	-200,000	-0,024	0,085
-729,181	40,754	-0,017	0,011
-728,167	-131,736	-0,115	0,011
-727,152	80,766	0,023	-0,018
-726,137	132,732	0,048	-0,045
-725,123	350,105	-0,079	-0,115
-724,108	21,547	-0,087	-0,052
-723,094	132,988	-0,169	-0,160
-722,079	800,000	-0,038	-0,099
-721,064	-110,734	-0,037	-0,006
-720,050	100,779	-0,051	0,044
-719,035	-200,000	-0,015	-0,092
-718,021	-200,000	0,010	0,071
-717,006	-172,837	-0,096	0,002
-715,991	-57,351	-0,234	0,075
-714,977	-200,000	-0,025	-0,085
-713,962	-43,481	0,029	-0,011
-712,948	-200,000	0,001	0,021
-711,933	-40,365	-0,093	-0,036
-710,918	800,000	-0,045	0,116
-709,904	-134,735	-0,066	-0,006
-708,889	-36,757	-0,134	-0,053
-707,875	-65,482	-0,132	0,039
-706,860	-200,000	-0,014	0,095
-705,845	-123,674	0,048	0,006
-704,831	117,874	0,026	0,023
-703,816	11,076	0,088	-0,050
-702,802	67,132	-0,145	-0,108
-701,787	-82,962	-0,170	-0,040
-700,772	571,573	-0,029	-0,052
-699,758	-128,234	-0,105	0,011
-698,743	591,025	0,092	-0,168
-697,729	90,337	-0,057	0,047
-696,714	192,915	-0,040	-0,044
-695,699	740,951	0,016	-0,032
-694,685	-84,206	-0,103	-0,024
-693,670	-133,181	-0,048	0,004
-692,656	557,642	-0,006	-0,012
-691,641	178,454	-0,058	0,062
-690,627	800,000	-0,027	0,061
-689,612	-200,000	-0,018	0,068
-688,597	182,257	-0,166	-0,180
-687,583	-200,000	-0,000	-0,075
-686,568	-200,000	-0,038	-0,157
-685,554	-200,000	-0,003	-0,049
-684,539	567,246	-0,033	0,059
-683,524	800,000	0,053	-0,122
-682,510	-200,000	0,009	0,061
-681,495	227,894	-0,057	-0,068
-680,481	163,272	-0,022	-0,022
-679,466	65,049	0,090	0,067
-678,451	800,000	-0,034	-0,101
-677,437	800,000	-0,037	0,081
-676,422	-49,631	-0,093	-0,032
-675,408	-200,000	0,018	-0,092
-674,393	128,703	0,023	0,021
-673,378	-129,919	-0,149	0,015
-672,364	255,996	-0,074	-0,093
-671,349	-200,000	-0,002	0,010
-670,335	103,374	-0,011	0,010
-669,320	-28,646	0,192	-0,081
-668,305	303,674	-0,019	0,026
-667,291	49,715	0,074	-0,052
-666,276	16,467	0,081	-0,047
-665,262	-200,000	0,020	-0,101
-664,247	586,439	-0,026	0,047
-663,232	800,000	-0,051	-0,140
-662,218	-130,863	-0,190	0,018
-661,203	249,621	-0,061	-0,077
-660,189	-73,121	-0,060	-0,016
-659,174	172,515	-0,076	-0,080
-658,159	129,192	-0,093	-0,087
-657,145	-6,102	0,050	0,025
-656,130	3,366	0,164	-0,088
-655,116	-5,688	0,015	0,007
-654,101	-51,676	0,134	-0,046
-653,086	-107,018	-0,146	-0,023
-652,072	800,000	0,030	-0,095
-651,057	16,940	-0,028	-0,017
-650,043	15,314	0,065	0,037
-649,028	-200,000	-0,030	0,097
-648,014	6,180	-0,034	-0,018
-646,999	48,944	0,098	-0,067
-645,984	-74,773	-0,087	0,023
-644,970	713,629	0,039	-0,077
-643,955	800,000	0,057	0,159
-642,941	800,000	-0,033	-0,081
-641,926	-141,224	0,099	0,007
-640,911	55,560	0,021	-0,015
-639,897	800,000	-0,009	-0,022
-638,882	-112,268	0,122	-0,018
-637,868	-200,000	-0,004	-0,025
-636,853	203,545	-0,049	-0,056
-635,838	307,277	-0,055	-0,075
-634,824	-200,000	0,038	0,133
-633,809	-200,000	0,035	0,181
-632,795	-63,061	0,089	-0,027
-631,780	800,000	-0,021	-0,046
-630,765	-200,000	0,011	-0,086
-629,751	-24,179	0,102	-0,045
-628,736	-200,000	-0,049	0,272
-627,722	-81,116	0,180	-0,043
-626,707	8,936	0,145	-0,080
-625,692	285,290	0,044	0,058
-624,678	297,911	-0,049	-0,066
-623,663	-1,576	0,092	0,048
-622,649	-76,202	-0,063	-0,016
-621,634	467,394	0,005	-0,009
-620,619	2,717	0,071	0,038
-619,605	800,000	0,038	-0,116
-618,590	-28,231	0,078	-0,033
-617,576	800,000	-0,028	0,080
-616,561	-80,886	-0,024	-0,006
-615,546	-200,000	-0,027	-0,127
-614,532	-62,737	-0,158	0,048
-613,517	199,744	0,101	-0,114
-612,503	570,145	-0,080	-0,143
-611,488	10,981	0,051	-0,029
-610,474	800,000	-0,042	0,134
-609,459	593,387	-0,033	0,060
-608,444	186,532	-0,028	-0,031
-607,430	413,215	0,028	-0,045
-606,415	800,000	0,031	-0,076
-605,401	-200,000	-0,009	0,040
-604,386	-200,000	-0,002	0,038
-603,371	-91,334	0,118	0,025
-602,357	800,000	-0,043	0,091
-601,342	-200,000	-0,011	0,105
-600,328	-200,000	0,048	0,165
-599,313	-142,839	-0,094	0,007
-598,298	-13,596	0,013	0,006
-597,284	173,141	0,080	-0,085
-596,269	-105,358	-0,032	0,005
-595,255	-84,207	0,085	0,020
-594,240	78,756	-0,134	0,105
-593,225	800,000	-0,042	-0,100
-592,211	80,150	0,078	-0,061
-591,196	-131,416	-0,079	0,008
-590,182	-170,948	0,088	-0,002
-589,167	-17,825	0,066	0,030
-588,152	-106,995	0,057	-0,009
-587,138	-200,000	-0,003	-0,012
-586,123	-108,646	-0,119	0,018
-585,109	3,589	0,053	-0,028
-584,094	-200,000	-0,027	0,109
-583,079	-200,000	-0,007	0,040
-582,065	-151,143	0,064	-0,003
-581,050	14,212	-0,059	0,033
-580,036	-200,000	0,002	-0,053
-579,021	800,000	0,036	0,082
-578,006	54,075	0,056	-0,040
-576,992	556,789	-0,042	-0,074
-575,977	-9,193	0,139	-0,068
-574,963	6,338	0,023	0,012
-573,948	-72,081	-0,068	0,018
-572,934	-200,000	0,000	-0,006
-571,919	-200,000	-0,015	-0,102
-570,904	100,490	0,020	-0,017
-569,890	478,492	0,028	-0,047
-568,875	-200,000	-0,028	-0,112
-567,861	601,288	0,050	-0,091
-566,846	800,000	0,040	0,091
-565,831	47,949	0,078	-0,053
-564,817	-28,534	0,037	-0,016
-563,802	-200,000	-0,005	0,180
-562,788	100,187	-0,041	0,035
-561,773	311,021	0,079	-0,109
-560,758	800,000	0,066	0,145
-559,744	-200,000	0,004	-0,022
-558,729	-19,531	0,080	-0,036
-557,715	-200,000	0,011	-0,055
-556,700	800,000	0,039	-0,102
-555,685	526,814	-0,117	-0,202
-554,671	44,063	-0,054	-0,036
-553,656	17,301	0,114	0,066
-552,642	-69,979	0,067	-0,019
-551,627	-60,801	-0,048	-0,015
-550,612	-200,000	0,010	-0,077
-549,598	-47,949	0,043	-0,015
-548,583	-104,473	-0,048	0,008
-547,569	109,383	-0,130	-0,114
-546,554	-200,000	0,003	-0,047
-545,539	-23,844	0,037	-0,016
-544,525	-200,000	-0,001	-0,010
-543,510	228,307	-0,063	-0,075
-542,496	-97,309	-0,101	0,019
-541,481	800,000	-0,085	-0,240
-540,466	608,045	-0,053	-0,096
-539,452	-49,601	0,065	0,023
-538,437	611,934	0,021	0,039
-537,423	-200,000	-0,017	0,165
-536,408	95,519	0,048	0,040
-535,393	497,587	-0,082	-0,138
-534,379	-38,649	0,100	-0,038
-533,364	-75,570	-0,044	-0,011
-532,350	81,895	0,089	0,070
-531,335	-200,000	-0,013	0,080
-530,321	800,000	-0,027	-0,059
-529,306	-35,845	-0,214	-0,084
-528,291	732,409	-0,035	0,070
-527,277	305,573	-0,069	-0,094
-526,262	198,556	0,062	0,069
-525,248	-29,308	0,037	0,016
-524,233	146,219	-0,061	0,060
-523,218	-200,000	0,009	-0,092
-522,204	-200,000	-0,019	0,144
-521,189	-65,241	-0,097	0,028
-520,175	659,111	-0,017	-0,032
-519,160	800,000	0,058	-0,159
-518,145	-200,000	-0,003	-0,083
-517,131	-94,255	0,160	-0,032
-516,116	-16,318	0,010	-0,004
-515,102	-200,000	-0,021	0,097
-514,087	97,334	-0,010	-0,008
-513,072	-109,254	-0,027	-0,004
-512,058	800,000	-0,022	0,060
-511,043	-200,000	-0,023	-0,091
-510,029	-83,898	-0,116	0,027
-509,014	-26,442	0,082	-0,035
-507,999	-136,725	-0,040	-0,003
-506,985	95,051	-0,081	0,067
-505,970	-110,150	-0,135	-0,020
-504,956	19,500	0,025	-0,015
-503,941	314,907	0,045	0,062
-502,926	-16,906	0,023	0,011
-501,912	254,295	0,063	-0,079
-500,897	231,131	-0,072	-0,086
-499,883	-153,367	0,127	0,006
-498,868	800,000	-0,049	-0,114
-497,853	-26,280	0,042	0,018
-496,839	-149,344	-0,057	0,003
-495,824	800,000	-0,021	-0,046
-494,810	242,434	0,008	-0,010
-493,795	344,513	0,085	-0,122
-492,781	275,264	0,025	-0,033
-491,766	-200,000	-0,008	0,099
-490,751	-166,850	-0,121	-0,004
-489,737	71,574	-0,011	-0,008
-488,722	90,972	-0,038	0,031
-487,708	537,919	0,052	0,090
-486,693	205,435	-0,064	0,073
-485,678	800,000	0,026	0,078
-484,664	800,000	-0,026	-0,081
-483,649	-183,726	0,054	-0,001
-482,635	-90,950	-0,086	-0,018
-481,620	-174,341	0,079	-0,002
-480,605	306,097	0,014	0,019
-479,591	800,000	0,023	0,066
-478,576	-3,552	-0,031	-0,016
-477,562	-101,511	0,054	0,009
-476,547	-156,516	-0,080	-0,004
-475,532	-86,198	0,097	0,022
-474,518	184,913	-0,055	-0,059
-473,503	303,736	0,053	0,072
-472,489	-200,000	-0,007	0,086
-471,474	-200,000	-0,004	-0,172
-470,459	-200,000	-0,012	-0,070
-469,445	24,603	-0,036	0,022
-468,430	800,000	-0,019	-0,055
-467,416	322,982	-0,039	0,055
-466,401	163,355	0,209	0,215
-465,386	-154,532	0,090	-0,004
-464,372	561,130	0,027	-0,048
-463,357	-49,918	-0,131	0,045
-462,343	-10,127	0,049	-0,023
-461,328	739,634	-0,033	-0,066
-460,313	56,259	-0,143	-0,101
-459,299	117,812	0,038	0,034
-458,284	-136,630	0,070	0,006
-457,270	583,613	0,022	-0,039
-456,255	-200,000	0,037	-0,165
-455,241	679,503	0,051	-0,097
-454,226	417,335	-0,031	-0,049
-453,211	800,000	0,020	0,041
-452,197	488,464	0,062	0,103
-451,182	-200,000	-0,005	0,106
-450,168	239,278	0,051	0,062
-449,153	-112,328	0,104	-0,015
-448,138	-104,370	-0,148	-0,025
-447,124	46,439	-0,113	0,077
-446,109	741,863	0,044	-0,087
-445,095	-84,680	-0,161	-0,037
-444,080	151,125	0,035	0,035
-443,065	84,760	0,083	-0,066
-442,051	86,935	0,010	-0,008
-441,036	301,565	-0,147	-0,199
-440,022	644,029	0,036	-0,067
-439,007	-47,181	0,116	-0,041
-437,992	800,000	-0,070	-0,170
-436,978	-200,000	-0,023	0,075
-435,963	-83,694	0,144	-0,033
-434,949	48,136	-0,062	0,042
-433,934	16,515	-0,038	-0,022
-432,919	-145,308	0,052	0,003
-431,905	544,163	0,019	0,033
-430,890	-200,000	0,011	0,040
-429,876	295,929	0,016	0,022
-428,861	-200,000	-0,028	-0,173
-427,846	800,000	-0,027	-0,065
-426,832	123,715	0,159	0,145
-425,817	137,800	0,020	0,019
-424,803	800,000	-0,020	-0,051
-423,788	418,220	0,058	-0,090
-422,773	112,188	0,007	0,006
-421,759	25,334	-0,119	0,072
-420,744	1,771	-0,062	0,032
-419,730	-123,495	-0,059	0,007
-418,715	-56,900	-0,054	0,017
-417,701	-200,000	-0,046	0,159
-416,686	-200,000	-0,001	-0,056
-415,671	-130,713	0,220	-0,021
-414,657	-200,000	-0,001	0,134
-413,642	64,109	0,032	0,023
-412,628	416,647	0,064	0,100
-411,613	800,000	0,041	0,107
-410,598	780,938	0,064	0,127
-409,584	29,053	0,077	0,047
-408,569	-200,000	-0,046	-0,168
-407,555	12,133	0,053	-0,030
-406,540	1,904	-0,101	0,053
-405,525	800,000	0,039	0,121
-404,511	445,613	-0,050	-0,080
-403,496	91,790	0,057	0,046
-402,482	800,000	0,029	0,083
-401,467	800,000	0,057	0,168
-400,452	-200,000	0,001	0,031
-399,438	-200,000	0,052	0,243
-398,423	9,856	-0,147	-0,081
-397,409	-91,347	-0,095	-0,020
-396,394	800,000	-0,054	0,145
-395,379	-134,966	0,117	0,010
-394,365	-200,000	0,011	-0,036
-393,350	351,508	0,057	-0,082
-392,336	-29,418	0,063	0,026
-391,321	-58,983	0,061	0,019
-390,306	-149,233	-0,145	0,008
-389,292	-200,000	0,006	0,034
-388,277	-180,696	0,090	-0,001
-387,263	260,673	0,032	0,040
-386,248	-3,366	0,112	0,057
-385,233	-200,000	-0,015	-0,074
-384,219	97,880	-0,025	-0,021
-383,204	47,968	-0,119	-0,081
-382,190	-200,000	0,008	-0,029
-381,175	-200,000	-0,009	0,040
-380,160	97,985	0,092	0,077
-379,146	-136,391	-0,127	-0,011
-378,131	21,420	0,034	-0,020
-377,117	619,966	0,013	-0,024
-376,102	-200,000	-0,033	-0,121
-375,088	68,503	0,073	-0,054
-374,073	-200,000	-0,012	0,038
-373,058	800,000	0,023	0,052
-372,044	-200,000	0,004	0,204
-371,029	-117,867	0,019	0,002
-370,015	-200,000	-0,001	0,027
-369,000	133,577	0,054	0,050
-367,985	-200,000	-0,012	-0,174
-366,971	-200,000	0,012	0,052
-365,956	-200,000	0,031	0,160
-364,942	665,586	-0,040	0,075
-363,927	800,000	0,010	0,023
-362,912	-200,000	0,004	0,049
-361,898	-103,416	-0,120	-0,020
-360,883	248,513	0,032	0,040
-359,869	-13,643	-0,120	-0,056
-358,854	-200,000	-0,043	0,146
-357,839	-89,577	0,140	-0,030
-356,825	-86,035	-0,177	-0,039
-355,810	191,529	0,053	-0,058
-354,796	547,834	-0,026	0,045
-353,781	800,000	-0,042	-0,131
-352,766	179,177	-0,033	-0,035
-351,752	800,000	0,017	-0,035
-350,737	-200,000	-0,007	0,069
-349,723	-200,000	-0,007	-0,092
-348,708	-18,829	0,075	-0,034
-347,693	-79,772	0,061	-0,015
-346,679	-200,000	-0,028	-0,135
-345,664	-82,582	0,142	-0,033
-344,650	34,677	0,041	0,026
-343,635	-29,231	-0,045	0,019
-342,620	-80,454	-0,094	0,023
-341,606	800,000	-0,043	0,095
-340,591	-200,000	-0,002	0,023
-339,577	8,413	-0,014	0,008
-338,562	-200,000	0,007	-0,092
-337,548	54,624	0,076	-0,053
-336,533	420,921	-0,041	-0,064
-335,518	-108,035	0,032	0,005
-334,504	-194,247	0,076	0,000
-333,489	27,863	-0,119	-0,073
-332,475	800,000	-0,032	-0,079
-331,460	-200,000	-0,029	-0,094
-330,445	-200,000	-0,024	0,140
-329,431	160,235	0,036	-0,036
-328,416	-52,180	0,151	0,051
-327,402	800,000	0,065	-0,188
-326,387	800,000	-0,036	-0,092
-325,372	35,576	-0,063	-0,040
-324,358	253,483	-0,095	-0,118
-323,343	800,000	-0,020	-0,063
-322,329	1,606	0,017	-0,009
-321,314	54,905	-0,068	-0,048
-320,299	39,608	0,093	-0,060
-319,285	-200,000	-0,012	-0,130
-318,270	-67,956	-0,103	-0,029
-317,256	349,451	0,057	-0,083
-316,241	-200,000	-0,024	0,096
-315,226	359,425	0,038	0,055
-314,212	-200,000	-0,039	0,161
-313,197	68,334	0,049	0,037
-312,183	73,063	0,091	-0,069
-311,168	-200,000	0,010	-0,102
-310,153	-149,595	0,075	0,004
-309,139	62,966	-0,043	-0,031
-308,124	-87,017	-0,050	-0,011
-307,110	-94,131	-0,012	-0,002
-306,095	141,296	-0,034	-0,032
-305,080	-40,798	0,039	0,015
-304,066	544,205	-0,071	-0,124
-303,051	800,000	0,011	-0,029
-302,037	399,442	0,076	0,116
-301,022	711,244	0,052	0,100
-300,008	-200,000	0,032	0,122
-298,993	-40,130	-0,048	-0,018
-297,978	197,782	-0,042	-0,047
-296,964	-24,950	0,017	0,007
-295,949	-191,912	-0,126	-0,001
-294,935	22,617	-0,156	0,093
-293,920	-33,032	0,136	0,054
-292,905	382,749	0,081	0,122
-291,891	371,273	0,043	0,064
-290,876	353,264	-0,050	0,072
-289,862	-200,000	-0,004	0,058
-288,847	-200,000	-0,013	-0,052
-287,832	147,305	-0,137	-0,133
-286,818	800,000	-0,035	-0,102
-285,803	659,483	0,047	0,087
-284,789	-200,000	0,012	0,109
-283,774	-200,000	-0,013	0,055
-282,759	487,710	0,060	0,099
-281,745	-77,093	-0,099	0,025
-280,730	-34,362	0,081	-0,032
-279,716	-200,000	-0,007	0,058
-278,701	800,000	-0,020	-0,059
-277,686	-14,760	0,045	0,021
-276,672	131,402	-0,057	0,053
-275,657	800,000	-0,037	0,083
-274,643	330,551	-0,031	0,044
-273,628	800,000	-0,021	0,049
-272,613	79,192	-0,066	-0,051
-271,599	-39,057	-0,076	0,029
-270,584	-3,685	0,074	0,037
-269,570	-200,000	0,008	-0,121
-268,555	-34,911	0,097	0,038
-267,540	-95,383	-0,131	0,025
-266,526	-200,000	-0,006	-0,135
-265,511	-104,469	0,027	0,005
-264,497	-78,939	0,200	-0,049
-263,482	420,695	0,042	-0,065
-262,467	-200,000	0,033	0,124
-261,453	143,125	-0,099	0,095
-260,438	115,703	-0,050	0,044
-259,424	-200,000	-0,032	-0,131
-258,409	-91,640	-0,038	-0,008
-257,395	-200,000	0,004	-0,134
-256,380	15,921	0,110	-0,063
-255,365	-200,000	-0,017	0,094
-254,351	800,000	0,023	0,048
-253,336	-53,073	-0,074	-0,024
-252,322	-197,333	-0,218	0,001
-251,307	-165,815	0,103	0,003
-250,292	-200,000	-0,002	-0,013
-249,278	215,882	0,054	0,062
-248,263	-18,257	-0,026	-0,012
-247,249	81,259	0,124	0,097
-246,234	-28,884	-0,113	-0,047
-245,219	87,082	-0,097	-0,077
-244,205	-72,199	-0,043	-0,012
-243,190	-62,861	-0,069	-0,020
-242,176	-0,048	-0,077	-0,040
-241,161	4,919	0,157	-0,083
-240,146	404,275	-0,036	0,054
-239,132	118,382	-0,039	-0,034
-238,117	245,343	-0,078	-0,095
-237,103	-112,450	0,123	-0,018
-236,088	-55,670	-0,044	0,014
-235,073	-75,501	-0,032	-0,008
-234,059	515,361	0,031	0,052
-233,044	-88,063	0,173	0,037
-232,030	12,275	0,076	-0,042
-231,015	800,000	-0,039	-0,123
-230,000	-60,853	-0,007	-0,002
-228,986	800,000	0,036	-0,111
-227,971	28,234	0,104	0,064
-226,957	-200,000	-0,001	0,059
-225,942	800,000	-0,028	-0,057
-224,927	-200,000	-0,036	-0,139
-223,913	-61,976	0,097	-0,029
-222,898	-8,792	-0,099	0,048
-221,884	-52,171	0,157	0,052
-220,869	-200,000	-0,058	0,263
-219,855	100,805	0,104	0,088
-218,840	-122,816	-0,108	-0,012
-217,825	800,000	-0,052	0,127
-216,811	-61,799	-0,042	0,013
-215,796	129,555	-0,059	-0,055
-214,782	169,498	0,058	-0,060
-213,767	304,112	0,018	0,025
-212,752	-38,839	0,148	-0,056
-211,738	-94,923	-0,054	0,010
-210,723	54,687	-0,062	-0,043
-209,709	-81,432	-0,047	0,011
-208,694	52,449	-0,071	0,049
-207,679	-141,528	-0,152	0,011
-206,665	-23,592	0,105	-0,045
-205,650	283,005	0,046	0,059
-204,636	800,000	-0,010	0,024
-203,621	800,000	0,021	-0,055
-202,606	-200,000	0,011	-0,070
-201,592	-59,574	-0,049	0,015
-200,577	-200,000	-0,010	-0,076
-199,563	-27,727	-0,092	-0,038
-198,548	766,775	0,051	0,100
-197,533	-149,366	-0,021	0,001
-196,519	-132,319	-0,038	-0,003
-195,504	-117,440	-0,182	0,024
-194,490	800,000	0,051	0,106
-193,475	-80,084	-0,046	-0,011
-192,460	800,000	0,047	0,114
-191,446	-86,527	0,032	-0,007
-190,431	-200,000	0,030	-0,100
-189,417	-35,921	-0,134	-0,052
-188,402	-200,000	-0,005	-0,139
-187,387	-36,902	-0,066	0,026
-186,373	-16,136	-0,069	-0,032
-185,358	800,000	-0,005	0,011
-184,344	217,639	-0,064	0,074
-183,329	235,523	-0,088	0,105
-182,315	623,653	0,102	0,187
-181,300	-94,121	-0,143	0,028
-180,285	74,287	0,047	0,036
-179,271	-20,908	-0,182	-0,080
-178,256	385,750	-0,012	0,018
-177,242	650,390	0,051	0,095
-176,227	-200,000	0,023	0,087
-175,212	-83,180	-0,050	-0,011
-174,198	93,859	0,035	0,029
-173,183	-200,000	0,008	0,094
-172,169	155,390	-0,075	0,074
-171,154	673,587	-0,025	-0,047
-170,139	-200,000	0,011	0,185
-169,125	-44,763	-0,106	0,038
-168,110	8,846	0,213	0,115
-167,096	255,202	0,009	0,011
-166,081	149,994	-0,058	-0,057
-165,066	-200,000	0,029	-0,171
-164,052	154,632	-0,079	-0,079
-163,037	456,167	0,044	0,070
-162,023	-117,865	0,063	-0,008
-161,008	312,951	-0,058	0,079
-159,993	-74,034	-0,119	0,031
-158,979	-200,000	0,015	-0,106
-157,964	31,358	-0,065	0,040
-156,950	800,000	0,026	-0,074
-155,935	-200,000	-0,025	0,121
-154,920	368,933	-0,083	0,121
-153,906	-95,214	0,130	0,025
-152,891	155,706	0,047	-0,047
-151,877	-200,000	-0,007	0,025
-150,862	-13,453	-0,073	-0,034
-149,847	-200,000	-0,002	0,124
-148,833	-200,000	0,014	0,050
-147,818	175,584	0,062	0,065
-146,804	127,671	0,073	0,067
-145,789	-84,552	0,140	-0,032
-144,775	387,849	-0,015	0,023
-143,760	286,919	-0,083	0,108
-142,745	-18,369	-0,133	-0,060
-141,731	-29,738	0,078	0,032
-140,716	-200,000	-0,016	-0,077
-139,702	-200,000	-0,001	-0,079
-138,687	-200,000	-0,011	0,070
-137,672	800,000	0,069	0,148
-136,658	91,516	-0,188	-0,152
-135,643	315,032	-0,043	0,058
-134,629	444,212	-0,092	-0,146
-133,614	-200,000	0,001	-0,017
-132,599	579,994	-0,071	0,126
-131,585	-200,000	0,001	0,024
-130,570	800,000	0,046	-0,099
-129,556	-178,439	-0,139	0,002
-128,541	-200,000	-0,043	-0,156
-127,526	-200,000	-0,006	-0,129
-126,512	-47,132	-0,127	-0,045
-125,497	-65,424	-0,122	-0,035
-124,483	-152,196	0,065	0,003
-123,468	-75,415	0,098	0,025
-122,453	-50,188	-0,048	-0,016
-121,439	-200,000	-0,038	-0,152
-120,424	326,825	0,034	0,047
