DTS Sentinel unit serial number:	SN410029Multiplexer serial number:	ORYXHardware model number:	OX2-SRSoftware version number:	ORYX F/W v4,00 Oryx Data Collector v3.7.2.0data status	okinstallation	B5 Nyhavnadifferential loss correction	single-endedforward channel	channel 2reverse channel	N/Adate	2023/12/11time	19:52:13forward acquisition time	300,00reverse acquisition time	0,00gamma	499,1914k internal	0,3159k external	0,3159temperature offset calibration	1,0000default loss term (dB/km)	0,3820temperature slope calibration	1,0000multiplexer offset coefficient	1,0000multiplexer slope coefficient	1,0000fibre end	0,00T internal ref (°C)	15,79T ext. ref 1 (°C)	0,05T ext. ref 2 (°C)	-0,18length (m)	temperature (°C)	Stokes	anti-Stokes-744,400	-168,120	0,124	0,003
-743,385	-128,453	-0,214	0,022
-742,371	-191,356	0,145	-0,001
-741,356	-84,036	-0,286	0,066
-740,342	143,553	0,143	0,140
-739,327	-110,068	-0,263	0,040
-738,312	-200,000	-0,003	0,044
-737,298	-84,615	-0,378	0,087
-736,283	800,000	0,014	-0,038
-735,269	143,963	-0,096	0,094
-734,254	-78,602	0,164	0,041
-733,239	-12,552	-0,396	-0,190
-732,225	-116,426	0,224	-0,030
-731,210	159,633	-0,091	-0,093
-730,196	71,062	-0,073	-0,056
-729,181	194,072	0,052	0,058
-728,167	188,929	-0,033	-0,036
-727,152	275,960	0,034	-0,045
-726,137	-34,429	-0,188	-0,075
-725,123	800,000	0,039	-0,115
-724,108	106,011	-0,189	-0,165
-723,094	-138,308	-0,059	-0,005
-722,079	-82,716	-0,135	-0,032
-721,064	-200,000	0,004	-0,013
-720,050	19,982	-0,040	-0,024
-719,035	172,751	-0,017	0,019
-718,021	253,030	-0,056	0,070
-717,006	-96,533	0,071	-0,014
-715,991	81,844	-0,062	-0,050
-714,977	32,223	-0,090	-0,057
-713,962	233,312	0,075	-0,091
-712,948	800,000	0,017	-0,050
-711,933	800,000	-0,040	0,111
-710,918	31,749	0,114	-0,072
-709,904	-47,450	-0,052	0,018
-708,889	800,000	-0,040	-0,099
-707,875	338,484	-0,089	-0,127
-706,860	210,044	0,033	-0,038
-705,845	32,212	0,108	0,068
-704,831	334,671	0,097	0,138
-703,816	-200,000	0,011	-0,049
-702,802	27,129	-0,119	-0,073
-701,787	581,392	-0,045	0,082
-700,772	800,000	0,049	-0,116
-699,758	-69,438	0,090	0,025
-698,743	-27,603	0,112	0,047
-697,729	-165,370	-0,153	-0,005
-696,714	800,000	-0,045	-0,092
-695,699	-200,000	0,015	-0,099
-694,685	-200,000	0,017	-0,159
-693,670	-200,000	-0,007	-0,154
-692,656	-133,046	0,055	0,005
-691,641	184,666	0,059	0,065
-690,627	-36,500	0,048	-0,019
-689,612	33,449	0,038	0,024
-688,597	800,000	-0,061	0,193
-687,583	-193,030	0,122	0,001
-686,568	280,913	-0,071	-0,093
-685,554	-35,945	-0,047	0,019
-684,539	-86,616	0,123	0,027
-683,524	-22,835	0,122	-0,054
-682,510	-162,864	0,043	0,001
-681,495	-124,186	-0,099	0,011
-680,481	-117,979	-0,082	-0,011
-679,466	479,296	0,012	-0,020
-678,451	754,064	-0,057	-0,114
-677,437	-111,399	0,078	-0,012
-676,422	-17,144	0,037	-0,017
-675,408	800,000	-0,007	-0,020
-674,393	423,727	-0,030	-0,047
-673,378	13,767	-0,018	-0,010
-672,364	216,371	-0,103	-0,121
-671,349	-200,000	-0,038	-0,178
-670,335	258,532	0,064	-0,082
-669,320	-37,200	0,070	0,027
-668,305	16,011	0,039	0,022
-667,291	35,961	-0,113	-0,073
-666,276	334,495	-0,058	-0,083
-665,262	-200,000	0,035	0,154
-664,247	196,945	0,041	-0,046
-663,232	36,297	-0,039	-0,025
-662,218	-37,932	0,050	-0,019
-661,203	800,000	0,061	0,126
-660,189	-200,000	-0,003	-0,110
-659,174	197,114	0,055	-0,061
-658,159	-200,000	0,009	0,033
-657,145	-200,000	-0,002	-0,050
-656,130	800,000	0,066	0,153
-655,116	-22,945	0,055	-0,024
-654,101	-128,386	-0,015	-0,002
-653,086	-44,480	-0,049	0,018
-652,072	26,323	-0,073	-0,045
-651,057	-104,742	-0,062	0,010
-650,043	17,398	-0,056	0,033
-649,028	-200,000	0,024	0,112
-648,014	-47,246	-0,028	-0,010
-646,999	-200,000	-0,010	-0,134
-645,984	405,110	-0,071	-0,110
-644,970	-99,341	-0,069	0,013
-643,955	-71,806	-0,051	-0,014
-642,941	390,545	-0,066	-0,101
-641,926	21,938	-0,024	-0,014
-640,911	-200,000	0,008	0,112
-639,897	9,187	0,052	0,028
-638,882	-200,000	-0,154	0,000
-637,868	-200,000	-0,014	0,144
-636,853	83,696	0,129	-0,103
-635,838	-200,000	0,031	-0,119
-634,824	-53,045	0,159	-0,053
-633,809	19,833	0,033	-0,019
-632,795	38,962	-0,040	0,026
-631,780	-25,325	-0,050	-0,022
-630,765	-200,000	-0,005	-0,035
-629,751	122,342	-0,117	-0,107
-628,736	650,306	-0,041	-0,076
-627,722	235,892	-0,026	-0,031
-626,707	-200,000	-0,105	-0,000
-625,692	482,353	-0,067	0,113
-624,678	514,999	-0,074	0,127
-623,663	262,367	-0,045	0,057
-622,649	-75,085	-0,118	-0,031
-621,634	54,896	-0,108	-0,076
-620,619	474,709	0,029	-0,048
-619,605	800,000	-0,060	0,126
-618,590	402,238	-0,007	-0,011
-617,576	45,478	-0,115	0,078
-616,561	185,754	-0,096	0,105
-615,546	800,000	-0,020	-0,045
-614,532	-200,000	0,005	-0,048
-613,517	104,385	-0,064	-0,055
-612,503	201,007	0,020	-0,022
-611,488	-138,037	0,080	0,006
-610,474	285,151	-0,084	0,111
-609,459	25,668	0,167	0,102
-608,444	55,807	0,072	-0,051
-607,430	-100,097	0,181	0,033
-606,415	800,000	-0,033	-0,072
-605,401	-90,740	0,061	-0,013
-604,386	-200,000	0,016	0,068
-603,371	107,702	-0,067	-0,058
-602,357	-2,445	0,089	-0,046
-601,342	2,305	0,088	-0,046
-600,328	800,000	0,017	-0,043
-599,313	-200,000	0,011	-0,169
-598,298	-200,000	0,007	-0,070
-597,284	-141,920	-0,096	0,007
-596,269	349,655	-0,048	0,069
-595,255	9,061	0,130	0,072
-594,240	-86,655	-0,066	0,015
-593,225	-48,334	0,049	0,017
-592,211	320,552	-0,046	0,064
-591,196	800,000	0,043	-0,105
-590,182	800,000	0,004	0,010
-589,167	-200,000	0,008	-0,027
-588,152	221,880	0,054	0,064
-587,138	-153,955	-0,044	0,002
-586,123	-200,000	0,004	0,129
-585,109	-134,831	0,098	0,009
-584,094	-200,000	0,011	0,063
-583,079	-200,000	-0,007	0,023
-582,065	-200,000	0,012	0,057
-581,050	-2,538	0,129	0,066
-580,036	-97,241	-0,169	-0,032
-579,021	132,297	0,089	0,084
-578,006	378,535	0,033	-0,049
-576,992	-105,628	0,062	-0,010
-575,977	248,171	0,040	0,050
-574,963	800,000	-0,017	0,037
-573,948	-7,192	0,067	0,033
-572,934	-111,392	-0,038	-0,006
-571,919	526,008	-0,015	0,026
-570,904	10,633	-0,081	-0,045
-569,890	158,811	0,106	0,108
-568,875	246,011	-0,034	0,042
-567,861	-200,000	-0,001	0,055
-566,846	150,542	-0,107	0,107
-565,831	235,583	-0,021	-0,026
-564,817	-200,000	-0,028	-0,095
-563,802	-200,000	-0,020	0,066
-562,788	-92,597	-0,047	-0,010
-561,773	197,902	0,008	0,009
-560,758	-200,000	0,004	0,039
-559,744	-6,014	0,053	-0,027
-558,729	800,000	0,033	0,081
-557,715	-200,000	0,012	-0,123
-556,700	-200,000	-0,017	-0,149
-555,685	542,851	-0,066	-0,115
-554,671	-200,000	-0,028	-0,127
-553,656	-200,000	0,032	-0,136
-552,642	-31,228	0,186	0,076
-551,627	-180,759	-0,065	-0,001
-550,612	458,830	-0,028	0,046
-549,598	800,000	0,039	-0,117
-548,583	-57,921	0,114	-0,036
-547,569	-32,866	-0,140	0,057
-546,554	85,925	-0,046	-0,037
-545,539	40,468	0,118	-0,078
-544,525	-62,765	-0,094	0,028
-543,510	42,557	0,038	-0,025
-542,496	500,423	-0,053	-0,090
-541,481	199,286	0,102	-0,115
-540,466	8,868	-0,048	-0,026
-539,452	-20,255	0,037	0,017
-538,437	46,099	0,134	0,091
-537,423	-93,190	0,076	0,015
-536,408	-11,166	-0,055	0,026
-535,393	-12,188	-0,119	0,057
-534,379	414,050	-0,032	0,050
-533,364	-39,367	0,074	0,028
-532,350	-95,912	-0,095	0,018
-531,335	73,186	0,058	0,044
-530,321	800,000	-0,030	-0,096
-529,306	-49,817	0,013	-0,005
-528,291	-8,073	-0,066	0,032
-527,277	-3,943	-0,202	-0,102
-526,262	14,330	0,016	0,009
-525,248	800,000	-0,052	0,118
-524,233	-138,623	0,089	0,007
-523,218	60,403	0,135	-0,098
-522,204	94,342	0,082	0,068
-521,189	587,102	-0,015	-0,027
-520,175	140,915	0,010	0,010
-519,160	-96,547	-0,046	-0,009
-518,145	296,233	0,084	-0,113
-517,131	-63,510	-0,051	-0,015
-516,116	319,261	-0,058	0,081
-515,102	757,901	0,078	-0,155
-514,087	90,333	-0,101	-0,083
-513,072	-9,856	-0,116	-0,056
-512,058	198,710	-0,054	0,061
-511,043	-200,000	-0,002	-0,162
-510,029	10,734	0,181	0,101
-509,014	732,542	0,054	0,106
-507,999	-200,000	-0,013	0,063
-506,985	437,897	-0,071	-0,113
-505,970	-200,000	-0,011	-0,072
-504,956	-99,298	-0,084	0,015
-503,941	-200,000	0,002	-0,047
-502,926	130,682	0,090	0,084
-501,912	-200,000	0,016	0,060
-500,897	520,916	0,068	-0,118
-499,883	-53,856	-0,113	-0,037
-498,868	-114,640	-0,078	0,011
-497,853	60,887	-0,054	-0,039
-496,839	-172,601	0,085	-0,002
-495,824	800,000	0,025	0,051
-494,810	800,000	-0,056	0,128
-493,795	319,958	0,039	0,054
-492,781	-38,119	0,131	-0,050
-491,766	-89,765	-0,030	0,006
-490,751	-200,000	0,002	0,012
-489,737	71,157	0,061	0,046
-488,722	800,000	0,008	0,020
-487,708	525,388	0,035	0,060
-486,693	485,130	0,005	0,009
-485,678	-105,976	-0,041	-0,007
-484,664	-200,000	0,032	0,126
-483,649	-104,625	-0,042	-0,007
-482,635	800,000	-0,032	0,073
-481,620	-0,504	-0,096	0,049
-480,605	60,326	-0,042	0,030
-479,591	60,805	0,146	0,105
-478,576	421,015	-0,090	-0,141
-477,562	-200,000	-0,000	-0,055
-476,547	264,390	-0,106	0,134
-475,532	-200,000	0,009	0,121
-474,518	294,475	0,082	0,110
-473,503	247,867	0,044	-0,054
-472,489	82,721	0,118	0,094
-471,474	-30,885	-0,110	-0,045
-470,459	-200,000	-0,001	0,022
-469,445	-0,458	-0,091	-0,047
-468,430	-200,000	0,007	0,036
-467,416	-200,000	0,021	0,081
-466,401	-99,131	-0,125	0,023
-465,386	23,881	-0,065	-0,039
-464,372	-31,749	-0,076	0,031
-463,357	181,369	-0,071	0,076
-462,343	-62,317	-0,051	-0,015
-461,328	14,940	-0,173	-0,098
-460,313	-194,370	0,109	-0,001
-459,299	800,000	-0,044	0,106
-458,284	-8,652	-0,063	0,031
-457,270	-200,000	-0,026	0,095
-456,255	-200,000	0,020	0,152
-455,241	-10,976	-0,095	0,045
-454,226	800,000	0,018	-0,038
-453,211	-61,002	0,031	-0,010
-452,197	363,559	-0,014	-0,020
-451,182	-171,110	0,044	0,001
-450,168	-116,774	0,045	0,006
-449,153	113,834	0,063	-0,056
-448,138	132,021	-0,062	-0,058
-447,124	-94,450	-0,093	-0,018
-446,109	-133,746	0,062	-0,006
-445,095	-11,560	0,011	-0,005
-444,080	170,669	0,013	0,014
-443,065	-200,000	0,017	-0,108
-442,051	-91,530	-0,087	-0,018
-441,036	-75,809	-0,097	0,025
-440,022	-200,000	-0,023	-0,173
-439,007	-97,397	-0,045	0,009
-437,992	288,069	0,015	0,019
-436,978	-27,466	0,086	0,036
-435,963	-76,503	-0,087	0,022
-434,949	706,345	0,033	-0,064
-433,934	-124,926	-0,086	-0,009
-432,919	800,000	-0,042	-0,114
-431,905	-47,713	-0,056	0,020
-430,890	245,764	-0,063	-0,077
-429,876	-184,837	0,069	0,001
-428,861	-105,354	-0,022	-0,004
-427,846	-4,952	0,076	-0,038
-426,832	-94,271	-0,090	-0,018
-425,817	-12,566	-0,074	0,035
-424,803	-200,000	-0,010	-0,061
-423,788	-200,000	0,007	0,026
-422,773	0,977	0,106	0,055
-421,759	-36,868	-0,052	-0,020
-420,744	-37,647	0,109	0,042
-419,730	212,046	0,066	-0,076
-418,715	-21,672	0,135	-0,060
-417,701	-178,038	0,011	-0,000
-416,686	800,000	-0,003	0,009
-415,671	-58,484	0,176	-0,055
-414,657	76,589	0,130	0,100
-413,642	-200,000	0,003	-0,095
-412,628	-37,776	-0,125	-0,048
-411,613	79,999	-0,053	0,041
-410,598	-200,000	0,018	-0,091
-409,584	256,686	0,086	0,108
-408,569	354,816	-0,050	0,073
-407,555	388,322	-0,044	0,066
-406,540	-200,000	0,004	-0,132
-405,525	-200,000	0,012	-0,145
-404,511	44,442	-0,067	-0,045
-403,496	-72,672	-0,135	-0,036
-402,482	-146,119	0,135	0,009
-401,467	763,885	-0,027	0,054
-400,452	-200,000	-0,016	0,175
-399,438	-101,490	0,146	0,026
-398,423	241,844	0,088	-0,107
-397,409	31,499	0,084	-0,052
-396,394	169,315	0,074	0,077
-395,379	147,858	0,102	-0,100
-394,365	90,338	0,098	0,080
-393,350	-200,000	0,003	0,115
-392,336	-200,000	0,010	-0,061
-391,321	-96,103	-0,118	0,023
-390,306	174,901	-0,099	-0,105
-389,292	71,173	-0,078	-0,059
-388,277	-200,000	-0,012	-0,147
-387,263	-109,185	-0,108	0,016
-386,248	-200,000	0,028	0,140
-385,233	-102,193	-0,051	0,009
-384,219	800,000	0,024	0,049
-383,204	189,283	0,048	-0,052
-382,190	185,658	0,031	-0,033
-381,175	-85,941	-0,093	0,021
-380,160	-137,478	0,151	-0,012
-379,146	19,615	0,104	0,061
-378,131	104,471	-0,133	0,114
-377,117	-191,881	0,075	-0,001
-376,102	-200,000	-0,028	-0,097
-375,088	-200,000	0,010	-0,051
-374,073	-107,458	-0,105	0,017
-373,058	-200,000	-0,009	-0,086
-372,044	335,789	0,047	0,066
-371,029	-136,352	0,077	0,006
-370,015	243,074	0,016	0,019
-369,000	-200,000	0,003	0,030
-367,985	800,000	-0,054	-0,160
-366,971	-96,819	-0,193	0,037
-365,956	77,930	-0,034	0,026
-364,942	534,547	0,024	0,042
-363,927	201,623	-0,016	-0,018
-362,912	274,659	0,107	0,138
-361,898	-200,000	-0,005	-0,078
-360,883	-78,941	-0,114	-0,028
-359,869	194,637	0,045	-0,050
-358,854	180,321	-0,065	0,070
-357,839	32,178	0,124	0,077
-356,825	55,345	0,101	-0,071
-355,810	-9,648	-0,236	0,114
-354,796	-110,146	0,071	0,011
-353,781	9,930	0,070	-0,038
-352,766	490,528	0,022	0,036
-351,752	-117,114	0,078	0,010
-350,737	118,502	0,118	-0,106
-349,723	297,392	0,186	0,249
-348,708	-66,523	-0,093	0,027
-347,693	-55,376	-0,144	0,047
-346,679	800,000	0,017	-0,038
-345,664	132,445	-0,037	-0,034
-344,650	-68,993	0,052	-0,014
-343,635	-200,000	0,017	0,071
-342,620	-200,000	-0,008	0,048
-341,606	350,566	0,032	-0,046
-340,591	204,122	0,042	0,047
-339,577	-200,000	-0,003	-0,099
-338,562	-200,000	-0,004	-0,209
-337,548	800,000	0,027	-0,082
-336,533	555,588	0,028	-0,049
-335,518	-106,052	0,067	-0,011
-334,504	331,925	-0,021	0,030
-333,489	800,000	-0,027	0,062
-332,475	82,399	-0,057	0,045
-331,460	139,075	0,021	-0,020
-330,445	31,173	0,048	-0,030
-329,431	78,140	0,118	-0,091
-328,416	800,000	0,046	0,112
-327,402	684,762	0,030	0,057
-326,387	800,000	0,009	0,028
-325,372	-75,273	0,033	0,009
-324,358	108,403	0,067	-0,058
-323,343	-29,065	-0,026	-0,011
-322,329	-44,858	-0,099	0,035
-321,314	163,133	0,055	0,056
-320,299	-200,000	0,013	0,091
-319,285	-200,000	0,020	0,072
-318,270	-58,577	-0,068	0,021
-317,256	-11,814	0,040	0,019
-316,241	-44,544	0,062	0,022
-315,226	21,435	0,052	-0,031
-314,212	-54,900	0,114	-0,037
-313,197	-200,000	-0,004	0,014
-312,183	139,676	0,064	0,061
-311,168	-157,659	0,079	-0,003
-310,153	-53,725	0,029	-0,010
-309,139	371,687	-0,010	-0,015
-308,124	-200,000	-0,043	0,149
-307,110	158,533	0,030	0,030
-306,095	16,577	0,054	0,031
-305,080	507,037	0,007	-0,012
-304,066	87,471	-0,007	-0,006
-303,051	-47,910	-0,230	-0,080
-302,037	583,987	-0,073	-0,130
-301,022	-86,528	-0,065	-0,014
-300,008	49,293	0,069	0,047
-298,993	-200,000	-0,008	-0,033
-297,978	-118,202	-0,205	-0,026
-296,964	183,461	-0,070	-0,075
-295,949	800,000	0,069	-0,160
-294,935	365,135	-0,016	0,024
-293,920	356,675	0,050	0,072
-292,905	800,000	0,049	0,132
-291,891	-64,941	0,079	0,023
-290,876	-50,429	-0,024	-0,008
-289,862	180,259	-0,050	0,053
-288,847	119,386	-0,116	-0,104
-287,832	198,812	0,036	-0,040
-286,818	800,000	-0,044	0,112
-285,803	38,387	0,109	0,070
-284,789	550,394	-0,038	-0,066
-283,774	25,377	-0,088	-0,053
-282,759	-200,000	-0,023	0,140
-281,745	-29,852	-0,100	-0,041
-280,730	238,042	-0,113	-0,135
-279,716	29,629	0,032	0,020
-278,701	18,658	0,138	0,079
-277,686	-99,653	0,047	0,008
-276,672	60,515	0,081	0,058
-275,657	8,791	0,117	-0,064
-274,643	432,358	-0,060	0,094
-273,628	223,536	0,033	0,038
-272,613	-76,666	0,066	0,017
-271,599	800,000	-0,039	-0,113
-270,584	411,737	-0,046	-0,071
-269,570	5,194	0,066	-0,035
-268,555	-200,000	-0,004	-0,133
-267,540	18,162	-0,044	0,026
-266,526	-63,660	-0,160	-0,047
-265,511	45,108	-0,058	-0,038
-264,497	29,620	0,066	-0,041
-263,482	211,685	0,018	0,020
-262,467	-143,347	-0,028	0,002
-261,453	-89,188	-0,086	-0,018
-260,438	22,913	-0,093	0,055
-259,424	327,399	-0,028	-0,038
-258,409	800,000	-0,060	-0,123
-257,395	-46,627	0,048	0,017
-256,380	12,078	0,110	0,061
-255,365	80,996	0,104	-0,081
-254,351	-200,000	-0,034	0,189
-253,336	225,221	0,077	0,091
-252,322	305,010	-0,035	-0,047
-251,307	-200,000	0,052	0,198
-250,292	126,519	0,112	-0,103
-249,278	21,960	0,043	0,025
-248,263	800,000	0,025	-0,080
-247,249	800,000	-0,027	0,077
-246,234	-143,868	-0,116	-0,008
-245,219	-200,000	0,015	-0,080
-244,205	-136,237	-0,224	-0,019
-243,190	-200,000	0,032	0,157
-242,176	-200,000	-0,011	-0,065
-241,161	-200,000	0,043	0,140
-240,146	386,568	-0,021	0,032
-239,132	-112,092	-0,021	-0,003
-238,117	800,000	0,026	-0,065
-237,103	87,070	-0,090	0,072
-236,088	96,296	-0,084	-0,070
-235,073	31,826	-0,017	-0,011
-234,059	-97,130	0,112	0,021
-233,044	-200,000	-0,002	0,062
-232,030	-178,399	-0,071	0,001
-231,015	-200,000	-0,018	-0,067
-230,000	78,445	0,062	-0,048
-228,986	-122,311	-0,053	0,006
-227,971	295,458	0,013	-0,018
-226,957	138,633	-0,086	0,082
-225,942	134,479	0,055	0,052
-224,927	-151,678	0,045	-0,002
-223,913	-63,229	0,130	0,038
-222,898	-53,467	-0,045	-0,015
-221,884	-6,170	0,069	-0,034
-220,869	800,000	-0,045	0,098
-219,855	740,239	0,019	0,037
-218,840	-200,000	-0,003	-0,148
-217,825	48,644	-0,094	0,063
-216,811	670,681	-0,064	-0,121
-215,796	103,507	0,045	0,038
-214,782	-200,000	-0,019	-0,095
-213,767	-66,216	0,044	-0,012
-212,752	-23,458	0,147	0,064
-211,738	28,600	0,117	0,071
-210,723	24,305	-0,033	-0,019
-209,709	317,965	0,070	-0,096
-208,694	-122,767	-0,048	-0,006
-207,679	-108,496	0,143	-0,022
-206,665	800,000	-0,077	-0,190
-205,650	52,450	0,030	0,021
-204,636	-78,560	0,080	-0,020
-203,621	-19,754	0,038	0,017
-202,606	-106,454	-0,090	0,014
-201,592	-200,000	0,019	0,076
-200,577	44,811	0,057	0,038
-199,563	-133,821	0,070	-0,006
-198,548	-200,000	0,018	0,065
-197,533	800,000	0,050	-0,109
-196,519	-79,685	-0,153	0,037
-195,504	-200,000	0,016	0,073
-194,490	686,178	0,040	-0,076
-193,475	800,000	-0,046	0,144
-192,460	-200,000	0,001	-0,057
-191,446	-200,000	0,016	-0,108
-190,431	115,136	-0,022	0,020
-189,417	-200,000	-0,044	0,176
-188,402	384,466	-0,011	0,016
-187,387	44,323	0,103	0,068
-186,373	-89,878	-0,064	-0,013
-185,358	-200,000	0,001	-0,008
-184,344	-129,168	-0,024	-0,002
-183,329	800,000	-0,047	-0,099
-182,315	-59,761	-0,055	0,017
-181,300	-30,418	-0,089	0,036
-180,285	764,484	0,044	-0,086
-179,271	678,455	-0,020	0,037
-178,256	800,000	0,060	-0,129
-177,242	385,782	-0,066	-0,099
-176,227	-140,884	-0,017	-0,001
-175,212	800,000	0,034	0,107
-174,198	-200,000	-0,031	0,126
-173,183	800,000	0,029	0,063
-172,169	50,369	0,056	0,038
-171,154	114,190	0,063	-0,055
-170,139	65,802	-0,040	0,029
-169,125	-200,000	0,002	-0,089
-168,110	50,743	0,023	-0,016
-167,096	114,118	0,076	-0,067
-166,081	45,753	0,024	0,016
-165,066	323,727	-0,094	-0,130
-164,052	-200,000	0,006	-0,090
-163,037	3,099	-0,053	0,028
-162,023	58,032	0,035	0,025
-161,008	-200,000	0,018	-0,094
-159,993	273,126	0,049	-0,063
-158,979	167,179	-0,068	0,070
-157,964	800,000	0,012	0,026
-156,950	113,411	-0,051	-0,044
-155,935	-41,052	0,055	0,021
-154,920	-200,000	0,019	0,113
-153,906	-86,343	0,110	0,024
-152,891	25,563	0,068	-0,041
-151,877	237,454	-0,020	0,024
-150,862	-103,144	-0,108	0,018
-149,847	77,218	0,075	0,057
-148,833	-200,000	-0,008	-0,066
-147,818	-73,160	0,182	0,048
-146,804	503,358	0,015	-0,026
-145,789	-66,657	-0,184	0,052
-144,775	-14,023	0,098	0,046
-143,760	800,000	-0,063	-0,145
-142,745	540,949	0,072	0,124
-141,731	-52,785	0,161	0,053
-140,716	-200,000	0,002	0,067
-139,702	101,462	-0,021	0,017
-138,687	-200,000	-0,019	0,069
-137,672	-200,000	0,003	0,041
-136,658	83,712	-0,107	-0,084
-135,643	-47,880	0,152	0,053
-134,629	48,329	0,130	-0,087
-133,614	-192,100	-0,093	-0,001
-132,599	-51,940	0,204	-0,068
-131,585	-98,701	0,162	0,030
-130,570	114,998	-0,154	-0,135
-129,556	-156,019	-0,162	0,007
-128,541	-200,000	0,001	-0,010
-127,526	318,191	-0,060	0,082
-126,512	-82,029	0,001	0,000
-125,497	561,524	-0,039	0,068
-124,483	441,184	0,084	0,133
-123,468	800,000	0,045	-0,104
-122,453	628,058	-0,041	0,074
-121,439	-200,000	0,033	0,114
-120,424	107,220	0,063	0,054
-119,410	-200,000	-0,000	0,083
-118,395	800,000	0,037	0,111
-117,380	-200,000	-0,001	-0,018
