DTS Sentinel unit serial number:	SN410029Multiplexer serial number:	ORYXHardware model number:	OX2-SRSoftware version number:	ORYX F/W v4,00 Oryx Data Collector v3.7.2.0data status	okinstallation	B5 Nyhavnadifferential loss correction	single-endedforward channel	channel 2reverse channel	N/Adate	2023/12/12time	13:12:13forward acquisition time	300,00reverse acquisition time	0,00gamma	499,1914k internal	0,3158k external	0,3158temperature offset calibration	1,0000default loss term (dB/km)	0,3820temperature slope calibration	1,0000multiplexer offset coefficient	1,0000multiplexer slope coefficient	1,0000fibre end	0,00T internal ref (°C)	15,54T ext. ref 1 (°C)	-0,40T ext. ref 2 (°C)	-0,65length (m)	temperature (°C)	Stokes	anti-Stokes-744,400	-20,412	-0,051	-0,023
-743,385	-72,213	-0,248	0,067
-742,371	166,226	0,067	0,070
-741,356	-128,078	-0,205	-0,021
-740,342	-61,058	0,317	0,098
-739,327	-56,691	-0,169	-0,055
-738,312	-200,000	-0,008	0,043
-737,298	46,551	-0,201	-0,137
-736,283	800,000	0,015	0,046
-735,269	14,524	-0,257	0,147
-734,254	-200,000	0,014	0,066
-733,239	-74,918	-0,551	-0,145
-732,225	-18,113	0,163	0,075
-731,210	167,892	0,099	0,104
-730,196	-200,000	0,011	-0,170
-729,181	539,135	0,044	0,078
-728,167	800,000	-0,024	-0,064
-727,152	-200,000	-0,011	-0,045
-726,137	800,000	-0,036	-0,103
-725,123	-41,978	-0,162	-0,061
-724,108	99,661	-0,258	-0,220
-723,094	-55,218	0,028	-0,009
-722,079	165,836	0,084	-0,088
-721,064	-200,000	0,037	-0,249
-720,050	-200,000	0,004	0,077
-719,035	-15,977	0,137	0,064
-718,021	157,304	0,037	0,038
-717,006	446,466	-0,083	-0,135
-715,991	-73,548	-0,155	-0,041
-714,977	79,406	-0,027	-0,021
-713,962	-200,000	-0,018	0,123
-712,948	48,894	-0,069	0,048
-711,933	286,446	0,025	0,033
-710,918	49,294	-0,101	-0,070
-709,904	71,251	-0,138	-0,105
-708,889	172,535	0,038	-0,040
-707,875	-13,387	-0,049	-0,023
-706,860	800,000	-0,053	-0,130
-705,845	-48,069	-0,077	-0,027
-704,831	-20,968	0,149	0,067
-703,816	-200,000	-0,009	-0,123
-702,802	-200,000	-0,166	0,000
-701,787	-35,025	-0,081	-0,032
-700,772	170,072	-0,095	-0,100
-699,758	800,000	0,020	0,046
-698,743	-133,913	0,154	-0,014
-697,729	11,881	0,037	0,021
-696,714	199,550	0,026	0,030
-695,699	-48,622	-0,129	-0,045
-694,685	22,431	-0,084	-0,050
-693,670	-41,648	-0,149	-0,056
-692,656	259,827	-0,044	-0,056
-691,641	185,480	0,017	0,019
-690,627	128,622	0,056	0,052
-689,612	122,892	0,111	-0,102
-688,597	-69,502	-0,114	-0,032
-687,583	-200,000	0,002	-0,098
-686,568	99,611	0,075	0,064
-685,554	-84,747	-0,148	0,034
-684,539	231,138	0,059	-0,071
-683,524	-187,130	0,123	0,001
-682,510	800,000	-0,008	-0,021
-681,495	-119,512	-0,070	0,009
-680,481	36,267	0,077	0,050
-679,466	212,847	-0,100	-0,117
-678,451	316,214	-0,004	-0,006
-677,437	-36,777	-0,115	0,045
-676,422	-97,429	0,138	0,026
-675,408	-108,272	-0,211	-0,033
-674,393	159,401	-0,028	-0,028
-673,378	90,682	0,103	-0,085
-672,364	-126,075	-0,141	-0,015
-671,349	189,549	0,027	-0,029
-670,335	110,139	-0,060	0,053
-669,320	-200,000	0,015	0,121
-668,305	800,000	-0,029	0,081
-667,291	612,955	0,051	0,095
-666,276	417,796	-0,046	0,073
-665,262	316,207	-0,054	-0,075
-664,247	599,534	0,034	-0,063
-663,232	14,037	-0,075	0,043
-662,218	-33,874	-0,128	-0,051
-661,203	-81,678	-0,038	0,009
-660,189	26,338	-0,113	-0,069
-659,174	-138,126	-0,041	-0,003
-658,159	135,189	-0,047	0,045
-657,145	-142,402	-0,082	-0,006
-656,130	-45,538	0,087	-0,031
-655,116	707,132	0,050	0,098
-654,101	-200,000	0,001	0,028
-653,086	-200,000	-0,017	-0,082
-652,072	800,000	-0,024	-0,053
-651,057	-11,414	-0,188	-0,091
-650,043	-200,000	0,025	-0,102
-649,028	-200,000	-0,005	0,030
-648,014	-96,030	0,030	-0,006
-646,999	-185,768	0,132	0,001
-645,984	186,327	0,068	-0,074
-644,970	-76,846	-0,096	-0,024
-643,955	138,595	-0,036	-0,035
-642,941	491,484	-0,049	-0,083
-641,926	5,364	-0,079	0,043
-640,911	800,000	0,123	-0,253
-639,897	800,000	0,051	-0,112
-638,882	145,256	-0,043	0,042
-637,868	50,411	-0,113	-0,078
-636,853	800,000	-0,012	-0,033
-635,838	800,000	-0,035	0,114
-634,824	-200,000	0,020	0,137
-633,809	-58,153	-0,017	-0,006
-632,795	37,940	-0,064	0,041
-631,780	800,000	0,043	0,137
-630,765	169,114	-0,032	-0,033
-629,751	335,090	-0,072	-0,103
-628,736	447,243	-0,092	-0,150
-627,722	-49,990	-0,108	0,037
-626,707	800,000	-0,030	0,080
-625,692	-28,125	-0,028	0,012
-624,678	109,533	-0,035	0,031
-623,663	-58,031	0,060	-0,019
-622,649	-200,000	-0,001	-0,045
-621,634	800,000	0,053	-0,130
-620,619	29,290	0,061	-0,038
-619,605	-200,000	-0,007	0,152
-618,590	-146,455	0,011	0,001
-617,576	800,000	0,032	0,080
-616,561	-200,000	-0,013	-0,082
-615,546	-88,255	0,154	0,033
-614,532	-106,821	-0,114	-0,018
-613,517	800,000	-0,016	0,039
-612,503	154,008	-0,006	0,006
-611,488	-200,000	0,027	0,112
-610,474	-42,715	-0,032	0,012
-609,459	254,871	0,019	0,024
-608,444	-172,698	0,039	0,001
-607,430	66,977	0,069	0,051
-606,415	-82,712	0,040	-0,009
-605,401	-200,000	-0,001	0,039
-604,386	221,086	0,065	-0,077
-603,371	-116,553	-0,094	0,013
-602,357	800,000	0,020	-0,051
-601,342	37,782	-0,026	0,017
-600,328	-130,636	0,041	-0,004
-599,313	-200,000	-0,000	-0,016
-598,298	137,545	-0,129	-0,124
-597,284	-121,095	0,135	0,016
-596,269	-79,660	-0,104	0,025
-595,255	-79,629	-0,076	0,019
-594,240	-200,000	0,008	0,077
-593,225	-200,000	-0,007	-0,037
-592,211	800,000	0,015	0,045
-591,196	341,904	-0,064	-0,091
-590,182	-200,000	0,001	-0,030
-589,167	307,877	-0,016	-0,022
-588,152	604,865	0,041	0,076
-587,138	657,100	0,032	-0,061
-586,123	157,866	0,085	-0,086
-585,109	43,507	-0,071	0,048
-584,094	-200,000	-0,022	0,076
-583,079	-73,721	-0,191	0,051
-582,065	800,000	0,021	0,060
-581,050	327,384	0,007	0,009
-580,036	-200,000	0,002	-0,187
-579,021	68,726	0,059	-0,044
-578,006	-129,891	0,080	0,008
-576,992	-83,276	-0,018	-0,004
-575,977	-200,000	-0,022	0,121
-574,963	163,844	0,096	-0,099
-573,948	-108,563	-0,061	0,010
-572,934	800,000	-0,032	-0,065
-571,919	156,085	-0,113	-0,114
-570,904	87,553	-0,075	0,061
-569,890	-200,000	0,030	-0,113
-568,875	800,000	0,009	-0,029
-567,861	-86,606	-0,161	-0,036
-566,846	-17,896	0,088	0,040
-565,831	-113,774	-0,142	0,020
-564,817	-200,000	0,003	0,121
-563,802	74,723	-0,155	-0,119
-562,788	-200,000	0,015	-0,071
-561,773	280,896	-0,030	-0,040
-560,758	245,476	-0,094	0,116
-559,744	115,226	0,080	0,072
-558,729	58,586	-0,123	-0,088
-557,715	-29,139	-0,110	-0,046
-556,700	-4,301	-0,061	-0,031
-555,685	800,000	-0,049	-0,138
-554,671	-200,000	-0,033	-0,107
-553,656	-200,000	-0,022	0,074
-552,642	195,079	0,091	0,101
-551,627	148,025	0,062	0,061
-550,612	55,567	-0,129	0,092
-549,598	-200,000	0,041	-0,158
-548,583	-200,000	0,015	-0,109
-547,569	294,237	0,065	0,087
-546,554	-128,943	-0,235	0,024
-545,539	-55,401	0,075	-0,024
-544,525	54,573	0,111	-0,078
-543,510	-34,998	-0,175	0,070
-542,496	-200,000	-0,005	-0,041
-541,481	7,063	0,062	0,033
-540,466	-53,558	0,119	0,040
-539,452	233,577	0,011	0,014
-538,437	-40,970	0,042	0,016
-537,423	43,176	0,115	-0,077
-536,408	-12,586	0,086	0,041
-535,393	153,365	0,054	0,054
-534,379	-200,000	-0,016	-0,097
-533,364	695,281	0,014	-0,028
-532,350	-200,000	0,017	-0,064
-531,335	800,000	-0,061	0,133
-530,321	300,033	-0,020	0,027
-529,306	-89,979	-0,144	0,030
-528,291	500,834	0,047	0,079
-527,277	-152,804	-0,004	-0,000
-526,262	-200,000	-0,005	-0,065
-525,248	149,775	-0,099	-0,098
-524,233	0,001	0,135	0,070
-523,218	648,860	-0,053	0,099
-522,204	-200,000	0,004	-0,172
-521,189	-91,657	-0,135	-0,028
-520,175	519,857	-0,063	-0,108
-519,160	800,000	-0,035	-0,100
-518,145	130,189	-0,013	-0,012
-517,131	2,657	-0,013	-0,007
-516,116	97,041	0,111	-0,093
-515,102	-32,363	0,089	0,036
-514,087	170,242	0,054	-0,057
-513,072	109,135	-0,063	-0,055
-512,058	44,544	-0,095	-0,063
-511,043	-117,668	0,052	-0,007
-510,029	-200,000	-0,006	0,054
-509,014	-200,000	-0,014	0,051
-507,999	-125,766	0,168	0,018
-506,985	-108,775	-0,126	-0,020
-505,970	202,546	-0,016	0,019
-504,956	-200,000	0,002	0,016
-503,941	800,000	0,015	-0,049
-502,926	758,029	-0,079	0,158
-501,912	94,701	-0,056	-0,047
-500,897	-200,000	-0,004	-0,086
-499,883	230,565	0,038	0,045
-498,868	510,617	0,045	-0,077
-497,853	119,811	0,053	-0,048
-496,839	-103,236	0,122	-0,021
-495,824	-143,166	0,046	0,003
-494,810	-200,000	0,007	0,176
-493,795	800,000	-0,047	-0,137
-492,781	-200,000	0,002	-0,048
-491,766	378,760	0,056	-0,084
-490,751	-60,349	-0,037	-0,011
-489,737	-169,308	0,095	-0,003
-488,722	800,000	-0,039	-0,127
-487,708	-200,000	-0,037	-0,132
-486,693	30,876	0,168	0,105
-485,678	83,045	-0,009	0,007
-484,664	-20,725	-0,177	-0,079
-483,649	155,411	0,018	0,018
-482,635	377,801	-0,063	0,095
-481,620	-167,053	0,116	-0,003
-480,605	800,000	-0,039	0,113
-479,591	-88,666	0,089	0,019
-478,576	382,987	0,059	-0,089
-477,562	621,267	0,041	-0,076
-476,547	-200,000	0,019	-0,097
-475,532	165,779	-0,066	-0,068
-474,518	53,597	0,087	0,060
-473,503	-150,760	0,128	0,007
-472,489	-55,399	0,036	0,012
-471,474	-42,393	0,080	0,030
-470,459	-200,000	0,001	0,010
-469,445	800,000	0,019	0,040
-468,430	18,705	-0,078	0,046
-467,416	800,000	0,066	-0,142
-466,401	-78,386	0,100	0,025
-465,386	381,854	0,038	0,056
-464,372	397,289	0,031	-0,048
-463,357	800,000	0,028	-0,060
-462,343	-143,124	0,091	0,006
-461,328	568,722	0,036	-0,063
-460,313	433,471	-0,038	0,060
-459,299	800,000	0,036	0,102
-458,284	319,877	0,097	0,135
-457,270	154,850	-0,044	-0,044
-456,255	-113,071	-0,082	-0,012
-455,241	-50,072	-0,036	0,013
-454,226	800,000	-0,049	0,112
-453,211	-118,715	0,060	-0,008
-452,197	-189,471	0,119	0,001
-451,182	800,000	-0,013	0,035
-450,168	-200,000	-0,025	-0,148
-449,153	-200,000	-0,006	-0,026
-448,138	160,880	-0,025	0,026
-447,124	-141,631	-0,077	0,006
-446,109	-75,596	0,100	0,026
-445,095	-200,000	0,013	0,107
-444,080	29,889	-0,079	0,049
-443,065	47,253	-0,041	0,028
-442,051	58,778	-0,092	-0,066
-441,036	66,411	-0,104	0,077
-440,022	53,973	-0,081	0,057
-439,007	88,157	0,089	-0,072
-437,992	-19,664	-0,059	-0,027
-436,978	154,884	-0,035	0,035
-435,963	-28,191	0,049	0,020
-434,949	44,253	-0,065	0,043
-433,934	75,174	-0,129	-0,099
-432,919	-196,667	-0,087	0,000
-431,905	-200,000	0,000	-0,173
-430,890	-161,379	-0,055	0,002
-429,876	-200,000	0,022	0,080
-428,861	296,389	-0,051	-0,069
-427,846	-200,000	0,027	0,121
-426,832	374,789	-0,067	-0,100
-425,817	-200,000	0,017	-0,179
-424,803	28,018	-0,035	0,021
-423,788	-26,761	0,145	0,061
-422,773	-200,000	0,014	-0,105
-421,759	-200,000	-0,014	0,068
-420,744	-174,039	0,146	-0,003
-419,730	-17,710	-0,020	0,009
-418,715	-200,000	0,005	-0,035
-417,701	-200,000	-0,021	0,108
-416,686	61,271	-0,067	-0,048
-415,671	800,000	-0,013	0,037
-414,657	-200,000	0,030	0,128
-413,642	158,153	-0,090	0,091
-412,628	-84,562	0,129	0,029
-411,613	60,821	0,085	-0,061
-410,598	-200,000	0,006	-0,021
-409,584	208,809	0,098	0,112
-408,569	55,096	-0,151	0,106
-407,555	22,152	0,048	-0,028
-406,540	-200,000	0,018	0,092
-405,525	-200,000	0,021	-0,072
-404,511	32,734	-0,057	-0,036
-403,496	800,000	0,034	0,101
-402,482	143,827	0,058	0,057
-401,467	105,474	0,078	0,067
-400,452	-200,000	0,005	0,017
-399,438	35,294	-0,049	0,031
-398,423	-200,000	0,061	0,200
-397,409	447,706	-0,062	-0,100
-396,394	-200,000	-0,008	-0,111
-395,379	328,332	0,054	0,075
-394,365	-144,947	0,150	0,010
-393,350	261,671	0,071	0,090
-392,336	-5,396	-0,084	-0,042
-391,321	-44,959	0,019	0,007
-390,306	800,000	-0,050	0,135
-389,292	-200,000	-0,018	-0,067
-388,277	190,582	0,043	-0,047
-387,263	15,661	0,164	0,094
-386,248	-200,000	-0,010	-0,063
-385,233	-127,038	0,046	0,005
-384,219	-118,080	0,060	-0,008
-383,204	157,958	-0,080	-0,081
-382,190	-94,726	-0,016	0,003
-381,175	235,543	0,052	0,063
-380,160	-200,000	-0,004	0,127
-379,146	800,000	0,030	0,094
-378,131	-200,000	-0,042	0,143
-377,117	-200,000	-0,007	-0,128
-376,102	800,000	0,035	-0,104
-375,088	176,589	0,035	0,037
-374,073	110,210	-0,121	-0,106
-373,058	-120,229	0,070	0,009
-372,044	-14,764	0,074	0,034
-371,029	-9,456	-0,035	-0,017
-370,015	-45,056	-0,082	-0,029
-369,000	162,110	0,021	-0,021
-367,985	-200,000	0,022	0,088
-366,971	147,451	0,052	0,051
-365,956	-128,716	0,170	0,017
-364,942	95,240	-0,043	-0,036
-363,927	-200,000	-0,002	-0,034
-362,912	97,096	-0,093	-0,077
-361,898	780,312	0,050	-0,100
-360,883	-12,259	0,079	0,037
-359,869	-200,000	-0,008	0,027
-358,854	129,501	0,097	-0,090
-357,839	-1,157	0,179	0,092
-356,825	544,255	-0,047	0,082
-355,810	86,694	0,090	0,072
-354,796	707,624	-0,028	-0,053
-353,781	-200,000	-0,022	-0,103
-352,766	118,027	0,087	0,078
-351,752	-200,000	-0,049	0,199
-350,737	-91,270	0,104	-0,021
-349,723	592,216	-0,063	-0,113
-348,708	-200,000	-0,006	0,028
-347,693	-200,000	-0,045	0,147
-346,679	-137,670	0,024	0,002
-345,664	99,624	0,005	-0,004
-344,650	800,000	0,017	0,044
-343,635	-200,000	-0,017	0,080
-342,620	2,582	0,123	0,064
-341,606	685,523	-0,029	-0,056
-340,591	-73,124	0,124	-0,033
-339,577	-200,000	0,014	-0,048
-338,562	-106,100	-0,104	-0,017
-337,548	58,701	0,121	0,086
-336,533	-41,309	-0,046	0,017
-335,518	270,082	0,122	-0,156
-334,504	-69,136	-0,131	-0,036
-333,489	800,000	0,003	0,008
-332,475	309,731	-0,098	-0,133
-331,460	11,672	-0,046	-0,026
-330,445	292,784	-0,032	0,042
-329,431	-112,020	0,006	-0,001
-328,416	87,908	0,097	0,078
-327,402	-74,967	0,007	-0,002
-326,387	-148,682	0,052	-0,003
-325,372	-60,177	-0,150	-0,046
-324,358	-149,991	-0,057	0,003
-323,343	317,135	0,064	-0,088
-322,329	-88,398	0,070	-0,015
-321,314	-48,503	0,076	-0,026
-320,299	341,809	0,033	-0,047
-319,285	-136,040	0,047	0,004
-318,270	-200,000	-0,025	-0,108
-317,256	-200,000	0,019	-0,087
-316,241	800,000	0,039	0,081
-315,226	-3,959	0,176	0,088
-314,212	177,825	-0,104	-0,110
-313,197	-25,087	-0,020	0,009
-312,183	-78,213	0,115	0,028
-311,168	72,043	-0,041	-0,031
-310,153	477,272	-0,042	0,068
-309,139	-84,973	0,056	0,013
-308,124	16,359	0,055	-0,032
-307,110	130,778	-0,112	-0,104
-306,095	-101,928	0,078	-0,013
-305,080	800,000	-0,045	-0,114
-304,066	60,879	0,020	-0,015
-303,051	-140,172	-0,077	-0,006
-302,037	201,311	-0,036	-0,040
-301,022	800,000	-0,012	-0,026
-300,008	-14,750	0,038	0,018
-298,993	62,082	0,038	0,027
-297,978	-200,000	0,011	-0,098
-296,964	51,434	0,094	0,065
-295,949	-200,000	-0,032	-0,103
-294,935	-85,473	0,094	0,021
-293,920	-200,000	-0,015	0,113
-292,905	593,977	0,084	-0,152
-291,891	123,315	-0,018	0,017
-290,876	-27,439	-0,103	0,043
-289,862	60,564	-0,029	0,021
-288,847	-64,145	-0,133	0,039
-287,832	-200,000	0,018	-0,143
-286,818	-200,000	0,032	0,104
-285,803	-34,642	0,057	-0,023
-284,789	559,170	0,061	-0,107
-283,774	-200,000	-0,002	-0,038
-282,759	-61,945	0,042	0,013
-281,745	800,000	0,013	-0,037
-280,730	-97,334	0,140	0,026
-279,716	274,976	-0,030	0,039
-278,701	-167,953	0,071	-0,002
-277,686	321,879	-0,069	0,096
-276,672	-6,442	0,056	-0,027
-275,657	-200,000	0,023	0,160
-274,643	-142,640	0,028	0,002
-273,628	-38,613	-0,127	-0,048
-272,613	25,189	-0,139	-0,083
-271,599	-200,000	0,036	0,148
-270,584	-100,589	0,036	0,006
-269,570	23,982	0,107	0,064
-268,555	98,209	-0,086	0,072
-267,540	7,461	0,058	-0,031
-266,526	8,380	-0,117	0,064
-265,511	-0,084	-0,076	-0,039
-264,497	-51,662	0,030	-0,010
-263,482	691,133	0,027	0,052
-262,467	105,415	0,029	0,025
-261,453	-13,930	0,026	-0,012
-260,438	-200,000	0,004	0,064
-259,424	536,085	-0,067	0,116
-258,409	277,372	0,129	-0,166
-257,395	800,000	-0,037	-0,077
-256,380	414,101	-0,045	0,069
-255,365	-102,022	-0,033	0,006
-254,351	-145,533	-0,254	-0,016
-253,336	-200,000	-0,006	-0,130
-252,322	-49,513	-0,087	-0,030
-251,307	39,512	-0,087	-0,056
-250,292	407,249	0,034	-0,052
-249,278	641,569	-0,015	0,027
-248,263	143,459	-0,083	0,080
-247,249	800,000	0,085	-0,199
-246,234	-200,000	-0,021	-0,137
-245,219	20,597	0,028	-0,016
-244,205	-200,000	-0,008	0,036
-243,190	-147,464	0,024	0,001
-242,176	-200,000	-0,004	0,095
-241,161	606,908	0,043	0,079
-240,146	167,533	0,007	0,007
-239,132	-101,847	-0,075	0,013
-238,117	116,797	-0,086	0,076
-237,103	18,665	-0,069	-0,040
-236,088	30,612	0,009	-0,006
-235,073	-88,249	0,035	0,007
-234,059	-200,000	-0,020	0,139
-233,044	-62,364	-0,072	0,022
-232,030	-101,172	-0,061	0,011
-231,015	210,203	0,058	-0,066
-230,000	-59,495	-0,075	0,023
-228,986	800,000	-0,026	0,080
-227,971	-85,721	0,013	0,003
-226,957	-73,235	0,052	-0,014
-225,942	50,673	-0,041	-0,028
-224,927	546,030	0,049	-0,084
-223,913	64,132	-0,093	0,067
-222,898	179,599	-0,030	0,032
-221,884	484,247	-0,046	0,076
-220,869	-49,762	-0,030	0,010
-219,855	-119,637	0,006	0,001
-218,840	196,030	0,083	-0,092
-217,825	93,465	0,062	-0,051
-216,811	-200,000	-0,017	-0,161
-215,796	800,000	0,028	0,071
-214,782	-200,000	0,024	0,084
-213,767	-39,672	0,087	0,033
-212,752	-200,000	-0,026	0,150
-211,738	-200,000	-0,026	0,132
-210,723	77,171	0,065	-0,050
-209,709	-87,306	-0,080	-0,017
-208,694	-46,348	-0,140	-0,049
-207,679	800,000	-0,012	0,029
-206,665	-131,608	0,071	-0,007
-205,650	-81,081	0,010	0,002
-204,636	82,870	-0,035	0,027
-203,621	-84,913	-0,084	0,019
-202,606	-161,391	0,126	-0,005
-201,592	-200,000	0,018	-0,202
-200,577	24,264	0,157	-0,094
-199,563	309,690	-0,028	-0,037
-198,548	422,022	0,019	0,030
-197,533	77,376	-0,095	0,073
-196,519	-7,610	-0,104	0,051
-195,504	-72,829	0,206	-0,054
-194,490	-87,213	0,176	-0,038
-193,475	-125,404	-0,053	0,006
-192,460	258,341	0,040	0,050
-191,446	-98,831	0,052	0,009
-190,431	5,865	-0,058	0,031
-189,417	-59,009	-0,201	0,062
-188,402	61,201	-0,023	0,017
-187,387	-72,551	-0,134	0,036
-186,373	-200,000	-0,026	-0,088
-185,358	81,540	-0,081	-0,063
-184,344	289,006	0,111	0,146
-183,329	-100,730	-0,066	0,012
-182,315	-128,347	-0,131	0,013
-181,300	800,000	-0,055	0,157
-180,285	117,262	-0,056	0,049
-179,271	800,000	-0,058	-0,116
-178,256	-200,000	-0,032	0,141
-177,242	69,190	0,040	-0,030
-176,227	118,851	-0,091	0,081
-175,212	188,585	0,046	0,049
-174,198	-46,845	0,216	0,076
-173,183	-22,532	-0,112	0,049
-172,169	800,000	0,018	-0,039
-171,154	-37,711	0,061	0,023
-170,139	324,700	0,043	-0,059
-169,125	-200,000	0,002	-0,016
-168,110	499,383	-0,084	-0,140
-167,096	127,515	-0,016	0,014
-166,081	-200,000	0,005	-0,031
-165,066	361,255	-0,045	-0,066
-164,052	-178,276	0,032	-0,001
-163,037	135,937	0,075	0,070
-162,023	-200,000	0,003	0,100
-161,008	-200,000	0,019	0,130
-159,993	276,465	-0,072	0,092
-158,979	-188,115	-0,094	0,001
-157,964	636,895	-0,040	-0,074
-156,950	-67,354	0,088	-0,025
-155,935	-200,000	-0,009	0,137
-154,920	-67,040	0,079	0,022
-153,906	578,919	-0,045	0,079
-152,891	206,898	0,019	0,021
-151,877	189,444	-0,041	-0,045
-150,862	394,629	-0,054	-0,081
-149,847	395,369	-0,056	-0,084
-148,833	800,000	-0,018	-0,052
-147,818	-200,000	-0,008	0,029
-146,804	-200,000	-0,057	0,187
-145,789	268,361	0,017	0,021
-144,775	-133,628	-0,055	-0,005
-143,760	-138,308	-0,058	-0,005
-142,745	-126,501	0,086	-0,009
-141,731	800,000	-0,028	0,087
-140,716	29,678	-0,106	-0,065
-139,702	800,000	0,039	0,087
-138,687	517,875	0,022	0,037
-137,672	-103,575	-0,107	-0,018
-136,658	800,000	0,017	-0,053
-135,643	-200,000	0,001	-0,055
-134,629	39,551	-0,033	-0,021
-133,614	-28,704	0,099	-0,041
-132,599	9,835	0,058	-0,031
-131,585	71,139	0,105	0,079
-130,570	-140,492	0,092	0,007
-129,556	44,201	-0,023	-0,015
-128,541	-162,530	-0,193	-0,007
-127,526	-14,854	0,126	0,058
-126,512	44,359	0,043	0,028
-125,497	-200,000	-0,005	0,031
-124,483	489,044	0,052	0,085
-123,468	-135,536	-0,046	-0,004
-122,453	24,747	-0,118	-0,070
-121,439	-64,164	-0,113	0,033
-120,424	-200,000	-0,010	0,124
-119,410	-53,248	-0,093	0,031
-118,395	241,978	0,096	0,115
