DTS Sentinel unit serial number:	SN410029Multiplexer serial number:	ORYXHardware model number:	OX2-SRSoftware version number:	ORYX F/W v4,00 Oryx Data Collector v3.7.2.0data status	okinstallation	B5 Nyhavnadifferential loss correction	single-endedforward channel	channel 2reverse channel	N/Adate	2023/12/12time	10:42:13forward acquisition time	300,00reverse acquisition time	0,00gamma	499,1914k internal	0,3158k external	0,3158temperature offset calibration	1,0000default loss term (dB/km)	0,3820temperature slope calibration	1,0000multiplexer offset coefficient	1,0000multiplexer slope coefficient	1,0000fibre end	0,00T internal ref (°C)	15,00T ext. ref 1 (°C)	-1,37T ext. ref 2 (°C)	-1,63length (m)	temperature (°C)	Stokes	anti-Stokes-744,400	561,255	0,011	0,019
-743,385	-116,241	-0,288	0,039
-742,371	101,622	0,014	0,012
-741,356	-159,232	-0,197	0,008
-740,342	-11,728	0,192	0,092
-739,327	-120,158	-0,415	-0,052
-738,312	-110,438	0,141	0,021
-737,298	-143,591	-0,347	-0,024
-736,283	-9,134	0,156	0,077
-735,269	-80,832	-0,240	-0,058
-734,254	-137,546	0,129	-0,011
-733,239	4,682	-0,377	-0,203
-732,225	87,100	0,195	0,159
-731,210	-200,000	-0,015	0,166
-730,196	673,728	-0,075	0,144
-729,181	588,603	-0,023	-0,042
-728,167	800,000	-0,061	0,137
-727,152	800,000	-0,077	-0,172
-726,137	66,996	0,044	0,033
-725,123	-200,000	0,019	0,097
-724,108	95,299	-0,097	-0,081
-723,094	-58,788	0,043	-0,014
-722,079	72,954	-0,214	-0,165
-721,064	-200,000	0,009	-0,050
-720,050	-52,302	-0,116	0,039
-719,035	253,741	0,043	0,054
-718,021	122,190	-0,072	0,066
-717,006	-200,000	-0,008	-0,105
-715,991	418,110	-0,049	-0,077
-714,977	-200,000	-0,010	-0,054
-713,962	25,736	-0,083	-0,051
-712,948	141,252	0,090	-0,087
-711,933	25,070	-0,044	-0,027
-710,918	-200,000	-0,002	0,074
-709,904	-159,170	-0,088	0,004
-708,889	0,530	0,047	-0,025
-707,875	-157,605	-0,112	-0,005
-706,860	-85,010	-0,056	-0,013
-705,845	-200,000	0,022	-0,104
-704,831	541,431	0,084	0,149
-703,816	800,000	-0,048	0,113
-702,802	-200,000	-0,005	0,079
-701,787	-45,977	-0,153	-0,055
-700,772	72,960	-0,089	0,068
-699,758	71,541	-0,122	0,094
-698,743	90,663	0,022	-0,018
-697,729	-200,000	0,034	-0,127
-696,714	151,152	0,043	0,043
-695,699	-200,000	-0,065	-0,265
-694,685	294,675	-0,100	-0,135
-693,670	-200,000	-0,020	-0,083
-692,656	800,000	-0,047	-0,115
-691,641	372,485	0,069	-0,103
-690,627	402,149	-0,059	0,092
-689,612	34,494	-0,030	0,019
-688,597	-200,000	0,008	0,029
-687,583	325,801	-0,025	-0,035
-686,568	-200,000	0,028	-0,109
-685,554	-159,022	-0,087	-0,004
-684,539	-122,429	0,095	-0,011
-683,524	-163,607	-0,099	0,003
-682,510	-76,086	0,134	0,034
-681,495	15,354	-0,134	-0,077
-680,481	424,349	-0,095	-0,151
-679,466	116,227	0,082	-0,074
-678,451	800,000	-0,036	-0,091
-677,437	278,909	0,077	-0,101
-676,422	43,330	-0,079	-0,053
-675,408	-200,000	0,015	0,077
-674,393	-61,532	0,027	0,008
-673,378	306,497	-0,080	-0,109
-672,364	-25,735	0,024	0,010
-671,349	-66,524	-0,087	0,025
-670,335	800,000	0,031	0,064
-669,320	800,000	0,028	0,086
-668,305	-200,000	-0,018	0,148
-667,291	-200,000	-0,013	0,090
-666,276	-68,047	-0,054	0,015
-665,262	-20,269	-0,055	-0,025
-664,247	577,119	-0,126	-0,227
-663,232	321,639	0,152	0,213
-662,218	-130,392	-0,070	-0,007
-661,203	174,970	0,044	-0,047
-660,189	103,252	-0,217	0,187
-659,174	-200,000	0,004	-0,048
-658,159	-200,000	0,009	-0,111
-657,145	422,593	-0,034	-0,054
-656,130	800,000	0,066	0,141
-655,116	-30,674	-0,065	-0,027
-654,101	-200,000	-0,004	-0,103
-653,086	-87,889	-0,035	0,008
-652,072	614,321	0,037	0,068
-651,057	-41,068	0,030	-0,011
-650,043	21,203	-0,117	-0,069
-649,028	800,000	0,030	0,093
-648,014	-10,061	-0,128	0,062
-646,999	-200,000	0,007	0,026
-645,984	90,577	0,109	0,089
-644,970	-145,371	-0,091	-0,006
-643,955	617,145	-0,080	-0,147
-642,941	9,199	-0,105	-0,058
-641,926	474,284	-0,021	0,035
-640,911	18,598	0,192	0,113
-639,897	49,273	0,081	0,056
-638,882	5,631	-0,120	-0,065
-637,868	-200,000	-0,010	0,104
-636,853	178,855	-0,165	-0,178
-635,838	8,314	0,062	0,034
-634,824	-200,000	0,015	-0,120
-633,809	-131,451	0,044	0,004
-632,795	-125,747	0,099	-0,011
-631,780	800,000	0,043	0,124
-630,765	800,000	-0,021	0,054
-629,751	148,785	0,117	-0,116
-628,736	-42,487	-0,105	0,039
-627,722	219,634	-0,019	-0,023
-626,707	-200,000	-0,015	-0,073
-625,692	416,313	-0,003	-0,005
-624,678	-21,745	0,007	0,003
-623,663	-200,000	-0,001	0,104
-622,649	120,483	0,106	-0,096
-621,634	34,632	-0,013	-0,008
-620,619	-85,736	-0,061	0,014
-619,605	-140,421	0,150	-0,011
-618,590	-200,000	-0,030	0,099
-617,576	-200,000	0,003	-0,147
-616,561	-80,124	-0,040	0,010
-615,546	-95,142	0,102	-0,020
-614,532	156,915	-0,087	-0,088
-613,517	800,000	0,033	-0,083
-612,503	-67,875	-0,057	-0,016
-611,488	143,160	-0,068	0,066
-610,474	-200,000	-0,003	-0,108
-609,459	-200,000	-0,020	-0,084
-608,444	-200,000	-0,003	-0,092
-607,430	-200,000	-0,027	-0,132
-606,415	-155,198	-0,055	0,003
-605,401	-200,000	0,004	0,117
-604,386	-54,163	0,084	-0,028
-603,371	-64,199	0,039	0,012
-602,357	-140,728	-0,227	-0,017
-601,342	-9,815	0,066	0,032
-600,328	-110,703	0,060	0,009
-599,313	-200,000	-0,035	-0,167
-598,298	-26,414	-0,086	0,037
-597,284	80,732	0,082	-0,065
-596,269	-154,166	-0,016	0,001
-595,255	-81,647	0,022	-0,005
-594,240	-5,003	-0,108	0,055
-593,225	129,082	-0,103	-0,096
-592,211	-17,201	0,066	-0,030
-591,196	-61,068	0,100	-0,031
-590,182	-167,271	-0,063	-0,002
-589,167	-200,000	0,013	0,049
-588,152	-92,286	-0,032	0,007
-587,138	447,553	0,014	0,022
-586,123	226,534	-0,077	-0,092
-585,109	-57,515	0,074	0,024
-584,094	-200,000	-0,027	-0,132
-583,079	-150,474	-0,034	0,002
-582,065	45,824	0,011	0,008
-581,050	-78,877	0,048	0,012
-580,036	800,000	-0,038	-0,084
-579,021	246,333	-0,094	-0,116
-578,006	84,259	-0,052	-0,042
-576,992	356,750	0,050	0,073
-575,977	318,816	0,065	0,090
-574,963	-200,000	0,030	0,150
-573,948	-200,000	-0,038	-0,157
-572,934	-200,000	0,021	0,147
-571,919	706,662	-0,116	-0,225
-570,904	-200,000	0,029	-0,125
-569,890	23,304	-0,070	-0,042
-568,875	-137,494	0,087	0,007
-567,861	-200,000	-0,000	-0,024
-566,846	-200,000	-0,016	0,080
-565,831	800,000	0,030	-0,067
-564,817	10,885	-0,108	-0,060
-563,802	-97,196	-0,041	0,008
-562,788	526,553	0,078	-0,135
-561,773	-200,000	0,005	-0,101
-560,758	-151,836	0,093	-0,005
-559,744	91,982	-0,041	-0,033
-558,729	-36,988	0,121	0,047
-557,715	-200,000	-0,020	0,075
-556,700	800,000	0,023	-0,061
-555,685	-200,000	-0,033	-0,139
-554,671	-101,376	0,047	-0,008
-553,656	-78,894	0,164	0,041
-552,642	779,410	0,031	0,063
-551,627	800,000	-0,046	0,115
-550,612	-200,000	-0,016	-0,162
-549,598	26,569	-0,063	-0,039
-548,583	-123,805	-0,110	0,013
-547,569	800,000	-0,010	-0,024
-546,554	-200,000	0,020	0,073
-545,539	-200,000	-0,001	0,093
-544,525	1,350	0,061	0,032
-543,510	-3,561	0,098	0,050
-542,496	-12,136	-0,128	0,061
-541,481	287,409	-0,091	0,120
-540,466	-4,938	0,159	0,080
-539,452	800,000	0,056	0,125
-538,437	-200,000	0,018	0,082
-537,423	-145,976	-0,171	0,011
-536,408	96,996	-0,071	0,059
-535,393	51,431	-0,076	0,053
-534,379	72,324	-0,135	-0,103
-533,364	800,000	-0,018	-0,039
-532,350	-133,263	0,132	0,012
-531,335	309,641	0,084	0,115
-530,321	-63,322	-0,002	0,001
-529,306	800,000	-0,052	0,114
-528,291	800,000	0,067	-0,155
-527,277	762,971	-0,062	-0,124
-526,262	-2,275	0,057	-0,029
-525,248	-138,081	0,069	0,006
-524,233	3,006	-0,133	0,071
-523,218	-23,634	0,169	0,074
-522,204	-200,000	-0,017	0,094
-521,189	528,746	0,041	0,070
-520,175	540,794	-0,027	-0,048
-519,160	-200,000	0,025	0,082
-518,145	-200,000	0,013	-0,106
-517,131	-200,000	-0,005	0,120
-516,116	-163,584	-0,088	-0,003
-515,102	106,072	-0,077	0,067
-514,087	-51,076	-0,087	0,030
-513,072	100,853	0,060	-0,051
-512,058	268,579	0,060	-0,077
-511,043	131,946	0,018	-0,017
-510,029	-23,915	0,076	0,033
-509,014	800,000	-0,020	-0,053
-507,999	207,594	0,050	0,057
-506,985	-200,000	-0,041	0,165
-505,970	800,000	-0,053	0,150
-504,956	-200,000	0,028	-0,096
-503,941	82,196	0,059	0,047
-502,926	116,385	-0,071	0,064
-501,912	203,260	0,057	0,064
-500,897	0,932	0,045	-0,024
-499,883	-77,933	0,078	-0,020
-498,868	-200,000	0,018	-0,073
-497,853	-10,746	-0,158	0,076
-496,839	-200,000	0,007	-0,046
-495,824	-200,000	0,016	0,057
-494,810	142,643	-0,034	-0,033
-493,795	800,000	0,051	-0,163
-492,781	800,000	-0,012	0,027
-491,766	-131,637	-0,080	0,008
-490,751	-108,535	0,078	0,012
-489,737	-0,700	-0,140	-0,072
-488,722	800,000	0,049	-0,108
-487,708	800,000	0,035	-0,085
-486,693	375,430	-0,035	0,052
-485,678	1,550	-0,111	0,058
-484,664	572,946	-0,078	-0,139
-483,649	-200,000	-0,017	-0,216
-482,635	199,248	0,100	-0,112
-481,620	154,317	0,037	0,037
-480,605	800,000	0,035	0,083
-479,591	55,184	-0,065	0,045
-478,576	67,486	-0,084	0,063
-477,562	-36,318	-0,031	-0,012
-476,547	71,528	-0,053	0,040
-475,532	-200,000	0,044	-0,143
-474,518	-101,123	0,176	0,031
-473,503	325,974	0,067	-0,093
-472,489	-151,158	0,058	0,003
-471,474	43,220	-0,032	-0,022
-470,459	-200,000	-0,028	0,095
-469,445	-115,746	-0,178	-0,024
-468,430	-72,361	0,083	-0,022
-467,416	800,000	-0,050	0,141
-466,401	-200,000	-0,001	0,005
-465,386	31,249	-0,049	-0,031
-464,372	184,038	0,104	0,112
-463,357	-113,712	-0,231	0,032
-462,343	-98,551	0,221	-0,041
-461,328	800,000	0,047	0,132
-460,313	441,478	-0,104	-0,167
-459,299	-200,000	0,022	0,110
-458,284	-200,000	0,014	0,058
-457,270	-200,000	0,004	0,149
-456,255	488,304	-0,035	-0,058
-455,241	66,058	-0,104	0,077
-454,226	-84,674	-0,135	-0,031
-453,211	-200,000	0,002	0,118
-452,197	14,757	-0,024	0,013
-451,182	640,507	-0,088	0,164
-450,168	-200,000	0,011	0,046
-449,153	254,433	-0,061	0,076
-448,138	323,033	-0,098	0,136
-447,124	-200,000	-0,008	0,048
-446,109	262,839	0,040	0,051
-445,095	-92,547	-0,076	-0,015
-444,080	-167,017	0,144	-0,004
-443,065	329,090	0,058	0,081
-442,051	800,000	0,028	-0,078
-441,036	800,000	-0,066	-0,165
-440,022	-200,000	0,022	-0,150
-439,007	-25,167	0,208	-0,089
-437,992	800,000	-0,034	0,104
-436,978	29,315	-0,098	0,061
-435,963	579,811	-0,110	-0,198
-434,949	800,000	-0,063	-0,138
-433,934	-200,000	-0,000	0,009
-432,919	-127,490	-0,045	0,005
-431,905	350,047	0,050	-0,073
-430,890	619,171	0,012	0,022
-429,876	422,243	0,017	0,026
-428,861	-200,000	0,026	0,109
-427,846	-62,290	0,058	0,017
-426,832	84,284	-0,048	-0,038
-425,817	-106,730	-0,071	0,011
-424,803	-144,162	0,018	0,001
-423,788	800,000	-0,043	0,118
-422,773	271,076	0,041	0,053
-421,759	49,922	0,031	-0,022
-420,744	-200,000	0,041	-0,183
-419,730	-46,277	-0,097	0,034
-418,715	111,989	0,046	0,040
-417,701	-17,649	0,083	-0,038
-416,686	-192,234	-0,086	0,001
-415,671	-81,453	0,207	0,049
-414,657	171,538	0,026	-0,027
-413,642	17,536	0,115	-0,067
-412,628	800,000	-0,074	0,169
-411,613	-147,871	-0,117	-0,007
-410,598	72,126	-0,054	-0,041
-409,584	221,065	0,071	0,084
-408,569	59,932	-0,091	0,065
-407,555	-14,118	0,073	-0,034
-406,540	-144,860	-0,119	0,008
-405,525	-200,000	0,008	-0,082
-404,511	53,448	0,062	0,043
-403,496	-42,491	0,122	-0,045
-402,482	0,767	0,135	-0,070
-401,467	-2,226	0,115	0,058
-400,452	-13,311	0,076	0,036
-399,438	-78,707	0,055	0,014
-398,423	-200,000	0,016	-0,134
-397,409	200,636	-0,115	0,129
-396,394	-163,648	0,043	0,001
-395,379	-90,085	0,075	-0,016
-394,365	-77,838	0,144	0,036
-393,350	-165,819	0,095	-0,003
-392,336	137,539	0,025	0,024
-391,321	59,010	-0,111	-0,079
-390,306	163,424	0,045	0,046
-389,292	85,570	0,073	-0,058
-388,277	-101,317	0,039	0,007
-387,263	-200,000	-0,032	0,113
-386,248	184,903	0,079	0,085
-385,233	-25,550	0,122	0,052
-384,219	67,739	0,056	-0,042
-383,204	-166,781	-0,044	-0,001
-382,190	-83,065	0,199	-0,046
-381,175	18,726	0,142	0,083
-380,160	418,898	0,104	0,163
-379,146	-130,428	0,078	0,008
-378,131	222,448	0,044	0,051
-377,117	800,000	0,018	0,040
-376,102	94,896	-0,041	-0,034
-375,088	-200,000	0,005	-0,085
-374,073	22,721	-0,070	-0,042
-373,058	63,597	-0,057	0,042
-372,044	-30,986	-0,043	-0,018
-371,029	-37,798	0,188	0,072
-370,015	-118,017	0,064	0,008
-369,000	800,000	-0,042	-0,101
-367,985	451,854	-0,007	-0,011
-366,971	-200,000	-0,003	0,165
-365,956	-15,131	0,169	0,078
-364,942	800,000	-0,051	0,110
-363,927	-200,000	0,021	0,087
-362,912	414,041	-0,048	-0,074
-361,898	624,875	-0,026	-0,047
-360,883	800,000	-0,065	-0,161
-359,869	216,940	-0,066	-0,076
-358,854	98,037	-0,049	-0,041
-357,839	19,834	0,149	0,087
-356,825	32,497	-0,036	0,022
-355,810	314,251	-0,051	0,070
-354,796	283,771	-0,046	0,060
-353,781	-200,000	-0,022	0,092
-352,766	87,790	0,010	0,008
-351,752	-155,926	0,058	0,003
-350,737	-101,405	-0,068	0,012
-349,723	715,115	-0,038	0,074
-348,708	-119,896	0,148	0,018
-347,693	-121,924	-0,145	-0,017
-346,679	-161,671	0,089	0,003
-345,664	-148,733	0,120	-0,007
-344,650	800,000	-0,007	0,023
-343,635	-200,000	-0,022	0,114
-342,620	65,304	-0,102	0,075
-341,606	-200,000	0,033	0,113
-340,591	157,531	-0,097	0,097
-339,577	608,445	-0,061	-0,110
-338,562	151,907	-0,080	-0,079
-337,548	-143,501	-0,094	0,006
-336,533	-165,459	0,087	-0,003
-335,518	-38,642	-0,033	0,013
-334,504	-200,000	0,009	0,037
-333,489	-110,001	-0,138	-0,021
-332,475	-200,000	0,022	-0,082
-331,460	-48,599	-0,066	0,023
-330,445	-200,000	0,001	-0,015
-329,431	-200,000	0,030	-0,134
-328,416	-115,445	0,084	0,011
-327,402	800,000	0,040	0,114
-326,387	132,054	0,073	-0,068
-325,372	19,908	0,076	-0,044
-324,358	160,745	-0,030	0,031
-323,343	-98,399	-0,056	-0,010
-322,329	-74,458	0,096	-0,025
-321,314	800,000	0,064	0,200
-320,299	101,136	-0,113	0,095
-319,285	18,465	0,025	-0,015
-318,270	10,450	-0,084	-0,046
-317,256	-42,742	-0,129	-0,047
-316,241	695,963	0,042	0,080
-315,226	-150,606	-0,039	-0,002
-314,212	-3,956	0,168	-0,084
-313,197	23,693	-0,047	-0,028
-312,183	-62,331	-0,156	-0,047
-311,168	-6,087	-0,106	0,052
-310,153	-12,570	0,081	0,038
-309,139	109,927	0,026	-0,022
-308,124	-200,000	0,024	0,092
-307,110	195,333	0,026	-0,029
-306,095	162,002	0,015	-0,016
-305,080	-18,780	-0,087	0,039
-304,066	-16,729	-0,029	0,013
-303,051	19,555	-0,120	-0,069
-302,037	800,000	0,018	-0,055
-301,022	-200,000	-0,031	-0,145
-300,008	-200,000	0,013	0,052
-298,993	4,569	-0,123	0,065
-297,978	-45,832	0,101	-0,036
-296,964	-200,000	-0,002	-0,037
-295,949	-4,619	-0,106	0,053
-294,935	-200,000	0,008	-0,106
-293,920	494,058	0,033	-0,055
-292,905	-22,234	0,080	-0,035
-291,891	0,178	0,071	0,037
-290,876	-113,571	0,073	-0,010
-289,862	236,706	-0,027	-0,033
-288,847	-36,990	-0,088	-0,034
-287,832	289,639	-0,040	0,052
-286,818	800,000	0,030	0,068
-285,803	291,704	-0,030	0,039
-284,789	-200,000	-0,016	-0,070
-283,774	-10,430	-0,025	0,012
-282,759	485,508	0,075	-0,125
-281,745	800,000	0,020	0,060
-280,730	-27,425	-0,079	0,033
-279,716	-200,000	0,035	0,124
-278,701	-51,673	0,073	0,024
-277,686	-200,000	0,005	-0,048
-276,672	800,000	-0,074	-0,154
-275,657	136,534	-0,005	-0,005
-274,643	18,354	-0,124	-0,072
-273,628	262,723	0,074	0,093
-272,613	-73,702	0,025	0,007
-271,599	116,987	-0,073	-0,065
-270,584	-146,981	0,096	0,006
-269,570	16,856	0,029	-0,017
-268,555	-200,000	-0,004	-0,095
-267,540	-89,697	-0,125	0,026
-266,526	-122,522	0,104	0,012
-265,511	-97,968	-0,091	0,017
-264,497	128,773	0,059	-0,054
-263,482	-200,000	0,029	0,095
-262,467	-200,000	0,011	-0,092
-261,453	-32,182	0,101	0,041
-260,438	22,262	-0,153	-0,090
-259,424	-114,844	-0,148	-0,020
-258,409	119,761	-0,074	-0,066
-257,395	-200,000	-0,037	0,149
-256,380	-200,000	0,031	-0,158
-255,365	517,629	0,062	-0,105
-254,351	-200,000	0,005	-0,050
-253,336	-200,000	0,015	-0,058
-252,322	300,658	0,060	-0,080
-251,307	-99,899	-0,103	-0,018
-250,292	568,975	0,031	-0,054
-249,278	-122,573	0,045	0,005
-248,263	-12,983	-0,039	0,018
-247,249	348,191	-0,055	0,079
-246,234	440,496	0,038	0,060
-245,219	380,728	-0,056	0,084
-244,205	-138,038	-0,157	0,012
-243,190	146,211	-0,030	0,029
-242,176	-200,000	-0,028	0,110
-241,161	800,000	-0,043	0,106
-240,146	707,781	-0,047	0,090
-239,132	60,084	0,102	0,072
-238,117	352,927	-0,035	0,050
-237,103	-200,000	0,002	0,050
-236,088	121,520	-0,037	-0,033
-235,073	-78,307	-0,082	-0,020
-234,059	-166,982	0,098	0,003
-233,044	271,153	-0,046	0,058
-232,030	800,000	-0,031	0,092
-231,015	800,000	0,065	-0,139
-230,000	15,838	-0,150	-0,085
-228,986	114,628	0,089	-0,078
-227,971	800,000	-0,022	0,061
-226,957	800,000	0,018	0,044
-225,942	-200,000	-0,005	0,022
-224,927	104,322	0,054	0,046
-223,913	129,894	0,099	0,091
-222,898	-30,845	-0,142	-0,058
-221,884	-200,000	0,002	-0,055
-220,869	-200,000	0,022	-0,125
-219,855	62,041	-0,038	0,027
-218,840	-13,296	-0,052	-0,024
-217,825	470,528	0,022	0,035
-216,811	143,958	0,096	-0,093
-215,796	14,749	-0,041	0,023
-214,782	-200,000	-0,003	0,018
-213,767	-182,901	-0,029	0,000
-212,752	-200,000	-0,017	0,092
-211,738	626,038	0,045	0,082
-210,723	-42,851	-0,079	-0,029
-209,709	156,253	0,034	-0,034
-208,694	-200,000	-0,011	-0,059
-207,679	800,000	-0,031	-0,074
-206,665	-200,000	0,013	-0,049
-205,650	-200,000	0,024	-0,085
-204,636	-200,000	-0,009	0,089
-203,621	-71,692	0,018	0,005
-202,606	-68,745	-0,087	0,024
-201,592	800,000	0,020	0,061
-200,577	-200,000	-0,001	-0,116
-199,563	402,368	0,050	-0,077
-198,548	170,607	0,048	-0,050
-197,533	205,800	0,037	0,042
-196,519	-54,889	-0,057	-0,019
-195,504	-98,224	0,093	0,017
-194,490	446,261	-0,040	0,063
-193,475	-200,000	-0,005	-0,040
-192,460	-200,000	-0,002	-0,106
-191,446	800,000	-0,042	-0,085
-190,431	18,523	0,024	-0,014
-189,417	476,882	0,059	-0,096
-188,402	800,000	-0,011	-0,029
-187,387	187,530	-0,091	0,098
-186,373	144,132	0,117	0,113
-185,358	-78,816	-0,067	0,016
-184,344	316,532	0,059	0,080
-183,329	-200,000	-0,013	0,114
-182,315	693,117	0,039	0,074
-181,300	-200,000	0,031	-0,101
-180,285	693,894	0,050	-0,095
-179,271	-200,000	-0,010	-0,051
-178,256	19,908	0,127	0,073
-177,242	86,014	0,024	0,019
-176,227	-200,000	0,020	-0,157
-175,212	-79,113	0,043	-0,010
-174,198	-33,722	0,049	0,020
-173,183	-200,000	0,010	-0,071
-172,169	52,535	0,052	0,036
-171,154	-26,764	-0,075	-0,032
-170,139	-200,000	-0,013	-0,051
-169,125	-79,013	0,081	0,020
-168,110	-6,897	0,167	-0,081
-167,096	-200,000	-0,026	0,084
-166,081	47,965	-0,109	-0,073
-165,066	-200,000	-0,057	0,000
-164,052	-71,969	0,105	0,028
-163,037	174,025	0,020	0,021
-162,023	125,815	-0,079	-0,072
-161,008	-145,497	0,057	-0,004
-159,993	-146,232	-0,088	-0,005
-158,979	9,054	0,042	0,023
-157,964	-123,698	-0,011	0,001
-156,950	259,922	-0,081	-0,100
-155,935	-200,000	-0,004	0,032
-154,920	395,961	0,047	-0,070
-153,906	94,046	-0,103	0,084
-152,891	-34,274	0,058	0,023
-151,877	-73,545	-0,015	0,004
-150,862	-200,000	-0,020	-0,074
-149,847	-200,000	-0,017	-0,058
-148,833	-73,238	0,135	-0,035
-147,818	-65,536	0,054	-0,015
-146,804	-39,574	0,085	-0,032
-145,789	-116,985	0,095	-0,012
-144,775	-200,000	0,005	0,072
-143,760	55,207	-0,053	0,037
-142,745	37,699	-0,113	-0,072
-141,731	-200,000	0,018	-0,084
-140,716	681,497	0,034	-0,065
-139,702	-200,000	0,028	0,089
-138,687	-200,000	0,004	0,259
-137,672	434,734	-0,029	0,046
-136,658	128,948	0,073	-0,067
-135,643	-126,247	-0,117	-0,012
-134,629	27,491	-0,108	-0,066
-133,614	-27,134	-0,093	0,039
-132,599	377,238	0,034	-0,050
-131,585	800,000	-0,052	0,143
-130,570	-171,471	-0,066	0,002
-129,556	-79,374	0,173	0,042
-128,541	-200,000	-0,011	-0,074
-127,526	-200,000	-0,023	0,105
-126,512	126,822	0,092	0,084
-125,497	-200,000	-0,022	0,096
-124,483	800,000	0,018	0,037
-123,468	-200,000	0,025	-0,214
-122,453	-88,477	0,083	0,018
-121,439	70,787	-0,111	-0,082
-120,424	-127,319	-0,114	-0,012
-119,410	313,428	0,015	0,021
