DTS Sentinel unit serial number:	SN410029Multiplexer serial number:	ORYXHardware model number:	OX2-SRSoftware version number:	ORYX F/W v4,00 Oryx Data Collector v3.7.2.0data status	okinstallation	B5 Nyhavnadifferential loss correction	single-endedforward channel	channel 2reverse channel	N/Adate	2023/12/14time	13:07:13forward acquisition time	300,00reverse acquisition time	0,00gamma	499,1914k internal	0,3157k external	0,3157temperature offset calibration	1,0000default loss term (dB/km)	0,3820temperature slope calibration	1,0000multiplexer offset coefficient	1,0000multiplexer slope coefficient	1,0000fibre end	0,00T internal ref (°C)	8,02T ext. ref 1 (°C)	-7,69T ext. ref 2 (°C)	-7,74length (m)	temperature (°C)	Stokes	anti-Stokes-744,400	173,713	-0,029	0,030
-743,385	-135,358	-0,258	0,022
-742,371	143,159	0,177	0,174
-741,356	-23,891	-0,354	-0,156
-740,342	0,696	0,189	0,099
-739,327	-132,267	-0,455	-0,043
-738,312	-95,899	0,197	-0,038
-737,298	25,328	-0,341	-0,209
-736,283	100,368	0,126	-0,108
-735,269	-64,440	-0,355	-0,106
-734,254	5,406	0,184	0,100
-733,239	-67,767	-0,602	-0,172
-732,225	-30,525	0,126	0,053
-731,210	-200,000	0,004	-0,068
-730,196	179,754	-0,024	0,026
-729,181	32,295	-0,074	-0,047
-728,167	9,611	-0,067	-0,038
-727,152	-21,525	-0,017	0,008
-726,137	122,446	-0,108	-0,100
-725,123	573,343	-0,081	-0,146
-724,108	106,940	-0,096	-0,084
-723,094	-136,174	-0,037	-0,003
-722,079	-200,000	0,001	-0,069
-721,064	-200,000	-0,003	0,071
-720,050	800,000	-0,011	0,032
-719,035	-82,680	-0,047	-0,011
-718,021	-11,704	-0,093	-0,045
-717,006	36,127	-0,087	-0,056
-715,991	102,481	0,005	0,004
-714,977	510,543	-0,079	0,135
-713,962	108,608	0,068	-0,059
-712,948	128,866	0,070	-0,066
-711,933	160,253	-0,120	-0,124
-710,918	-200,000	0,012	-0,106
-709,904	-55,773	-0,200	-0,065
-708,889	-200,000	-0,003	-0,100
-707,875	20,300	-0,006	-0,003
-706,860	800,000	0,032	-0,078
-705,845	-88,831	0,232	0,050
-704,831	-0,989	-0,101	0,053
-703,816	800,000	0,030	0,090
-702,802	324,041	-0,064	-0,090
-701,787	269,744	-0,079	-0,102
-700,772	305,384	0,034	-0,047
-699,758	-200,000	-0,006	-0,032
-698,743	-9,654	-0,105	0,051
-697,729	64,269	-0,078	0,057
-696,714	69,995	-0,064	0,048
-695,699	-200,000	-0,018	0,078
-694,685	121,750	0,102	-0,093
-693,670	-3,234	0,014	0,007
-692,656	800,000	0,009	-0,023
-691,641	666,192	0,032	0,060
-690,627	96,883	0,102	0,086
-689,612	28,853	-0,038	0,024
-688,597	800,000	-0,027	0,081
-687,583	-200,000	0,005	-0,092
-686,568	-59,132	-0,086	-0,027
-685,554	94,216	0,041	0,034
-684,539	-23,213	-0,155	-0,068
-683,524	-200,000	0,007	-0,035
-682,510	180,066	0,023	-0,025
-681,495	800,000	-0,030	-0,076
-680,481	-83,704	-0,086	0,020
-679,466	532,573	0,087	0,152
-678,451	-200,000	0,005	-0,153
-677,437	800,000	-0,063	0,159
-676,422	26,147	-0,077	-0,047
-675,408	21,081	-0,077	0,046
-674,393	800,000	-0,037	-0,080
-673,378	192,673	-0,046	-0,052
-672,364	227,603	-0,033	-0,040
-671,349	48,716	0,017	-0,012
-670,335	561,373	0,090	0,161
-669,320	306,018	-0,070	0,097
-668,305	-200,000	0,026	0,115
-667,291	-120,950	-0,076	0,009
-666,276	-170,216	-0,039	0,001
-665,262	-107,414	-0,195	-0,031
-664,247	76,406	-0,091	-0,070
-663,232	238,311	-0,050	-0,062
-662,218	86,681	-0,020	0,017
-661,203	200,058	0,046	-0,052
-660,189	-39,681	0,057	-0,022
-659,174	-101,520	-0,124	0,022
-658,159	-4,828	-0,075	-0,038
-657,145	800,000	-0,051	0,125
-656,130	-0,569	-0,050	0,026
-655,116	-104,584	-0,081	-0,014
-654,101	-200,000	-0,010	0,098
-653,086	126,364	0,027	-0,025
-652,072	-58,443	-0,187	0,059
-651,057	151,476	-0,092	-0,092
-650,043	501,870	-0,051	-0,087
-649,028	800,000	0,033	0,101
-648,014	-200,000	-0,028	-0,198
-646,999	-9,520	-0,097	-0,047
-645,984	-40,734	0,084	-0,032
-644,970	35,927	0,123	-0,079
-643,955	-33,209	-0,072	-0,029
-642,941	315,397	-0,067	0,093
-641,926	-200,000	0,004	0,032
-640,911	800,000	0,011	0,034
-639,897	-200,000	0,004	-0,015
-638,882	800,000	0,037	0,098
-637,868	34,876	-0,073	0,047
-636,853	-200,000	-0,013	-0,051
-635,838	237,106	-0,009	0,012
-634,824	-22,982	0,093	-0,041
-633,809	86,707	0,042	-0,034
-632,795	800,000	0,048	0,100
-631,780	-200,000	0,004	-0,025
-630,765	-170,621	0,043	-0,001
-629,751	-168,753	-0,111	-0,003
-628,736	238,611	-0,054	-0,065
-627,722	4,237	0,116	-0,062
-626,707	800,000	0,012	-0,029
-625,692	186,683	-0,059	0,064
-624,678	14,127	0,022	-0,013
-623,663	-200,000	0,017	-0,114
-622,649	146,399	-0,123	-0,121
-621,634	118,290	-0,100	-0,091
-620,619	180,839	-0,003	0,003
-619,605	-200,000	0,002	-0,108
-618,590	-200,000	0,010	-0,134
-617,576	103,044	0,136	-0,117
-616,561	-200,000	-0,010	-0,043
-615,546	800,000	-0,056	-0,129
-614,532	95,302	-0,091	-0,076
-613,517	-200,000	-0,009	-0,121
-612,503	-200,000	0,010	-0,139
-611,488	-110,819	0,128	-0,019
-610,474	0,472	-0,135	0,071
-609,459	-49,545	0,078	-0,027
-608,444	800,000	-0,029	-0,061
-607,430	-200,000	0,000	-0,122
-606,415	-70,013	-0,031	0,009
-605,401	-7,658	-0,015	0,007
-604,386	154,231	0,086	-0,086
-603,371	10,765	0,137	-0,077
-602,357	-172,993	-0,160	-0,004
-601,342	-200,000	-0,020	-0,093
-600,328	-30,549	0,054	0,022
-599,313	-200,000	-0,000	-0,134
-598,298	-200,000	-0,027	-0,142
-597,284	-200,000	0,010	-0,046
-596,269	148,689	0,040	0,039
-595,255	-152,212	0,093	0,005
-594,240	-37,157	-0,059	-0,023
-593,225	-56,599	-0,138	-0,045
-592,211	456,354	-0,073	-0,118
-591,196	-17,275	0,197	-0,090
-590,182	352,691	-0,040	0,058
-589,167	800,000	0,072	0,216
-588,152	7,533	0,065	0,035
-587,138	-88,165	0,039	0,009
-586,123	-115,065	-0,128	-0,018
-585,109	-64,565	-0,094	0,028
-584,094	800,000	0,027	-0,087
-583,079	-139,305	0,013	0,001
-582,065	74,736	0,044	0,034
-581,050	337,795	-0,027	0,039
-580,036	50,189	-0,148	0,102
-579,021	36,054	-0,053	0,034
-578,006	757,551	0,026	-0,051
-576,992	-87,956	-0,103	0,022
-575,977	393,163	-0,110	0,169
-574,963	8,807	0,032	0,018
-573,948	178,771	0,081	0,087
-572,934	590,004	-0,078	0,142
-571,919	156,930	-0,075	-0,076
-570,904	-200,000	-0,030	0,101
-569,890	-200,000	-0,001	-0,039
-568,875	-200,000	-0,027	0,091
-567,861	-137,266	0,122	0,010
-566,846	-200,000	0,014	0,075
-565,831	-19,369	0,194	-0,088
-564,817	-200,000	0,023	-0,079
-563,802	800,000	0,012	0,026
-562,788	69,704	-0,013	0,010
-561,773	5,324	0,052	0,028
-560,758	47,167	0,050	0,034
-559,744	800,000	-0,015	-0,032
-558,729	800,000	0,035	0,071
-557,715	800,000	-0,038	0,092
-556,700	26,865	0,020	-0,012
-555,685	43,181	0,016	-0,011
-554,671	11,770	-0,135	-0,075
-553,656	66,934	0,048	0,036
-552,642	-120,011	-0,100	-0,012
-551,627	-136,409	0,022	-0,002
-550,612	-200,000	0,002	-0,068
-549,598	-200,000	0,001	0,020
-548,583	-23,971	-0,072	0,031
-547,569	-41,328	-0,084	-0,032
-546,554	-98,817	0,109	0,020
-545,539	326,665	0,059	0,083
-544,525	-136,050	-0,054	0,005
-543,510	800,000	0,012	-0,033
-542,496	800,000	-0,031	0,095
-541,481	35,566	0,123	0,079
-540,466	187,859	-0,102	-0,112
-539,452	-113,264	0,044	0,006
-538,437	36,062	-0,033	-0,021
-537,423	335,951	0,063	0,090
-536,408	11,981	-0,083	0,046
-535,393	-200,000	0,012	-0,088
-534,379	800,000	0,049	0,109
-533,364	-200,000	0,001	0,010
-532,350	26,730	0,156	0,096
-531,335	-200,000	-0,011	0,062
-530,321	-61,126	-0,177	0,054
-529,306	800,000	-0,031	-0,098
-528,291	-141,129	-0,069	0,005
-527,277	94,546	0,107	-0,089
-526,262	-200,000	0,007	-0,027
-525,248	194,307	0,048	-0,053
-524,233	-158,249	0,121	0,005
-523,218	720,085	-0,022	0,042
-522,204	-200,000	-0,014	0,049
-521,189	-200,000	-0,021	-0,131
-520,175	-27,226	-0,128	0,054
-519,160	15,097	0,047	-0,027
-518,145	280,665	0,015	0,019
-517,131	79,175	-0,017	0,013
-516,116	174,352	-0,054	-0,057
-515,102	-30,590	0,059	-0,024
-514,087	147,457	-0,107	-0,105
-513,072	258,705	-0,041	-0,052
-512,058	189,480	0,068	-0,074
-511,043	140,182	0,085	0,082
-510,029	236,751	0,026	0,031
-509,014	425,433	0,040	-0,063
-507,999	30,246	-0,046	0,029
-506,985	-200,000	0,043	-0,138
-505,970	3,325	0,121	-0,064
-504,956	-177,557	-0,150	0,003
-503,941	342,583	0,032	0,046
-502,926	-32,110	0,160	0,065
-501,912	139,707	0,021	-0,020
-500,897	132,443	-0,057	0,054
-499,883	-82,611	0,096	0,022
-498,868	431,239	-0,026	-0,041
-497,853	37,300	0,040	0,026
-496,839	60,331	-0,067	-0,048
-495,824	419,074	0,078	0,122
-494,810	-96,386	-0,069	-0,013
-493,795	-1,825	0,014	0,007
-492,781	-200,000	0,002	-0,012
-491,766	150,505	-0,039	0,039
-490,751	-200,000	0,021	-0,182
-489,737	26,238	0,081	-0,050
-488,722	-131,172	0,101	-0,010
-487,708	-42,025	0,035	-0,013
-486,693	310,287	-0,032	0,043
-485,678	-109,422	-0,073	-0,011
-484,664	-200,000	0,015	-0,059
-483,649	800,000	0,020	-0,060
-482,635	125,479	-0,037	0,034
-481,620	-47,590	-0,033	0,012
-480,605	117,703	-0,052	0,047
-479,591	35,833	0,030	0,019
-478,576	-200,000	0,011	-0,043
-477,562	-200,000	-0,016	-0,056
-476,547	30,277	-0,205	0,127
-475,532	800,000	0,027	0,072
-474,518	-41,250	0,080	0,030
-473,503	177,127	0,044	0,047
-472,489	-200,000	-0,022	0,211
-471,474	706,136	0,042	0,081
-470,459	-200,000	-0,005	-0,105
-469,445	-105,184	-0,078	-0,013
-468,430	800,000	0,053	-0,111
-467,416	-97,215	0,192	0,036
-466,401	621,631	-0,097	0,179
-465,386	305,528	-0,103	0,141
-464,372	607,331	0,020	0,037
-463,357	55,717	0,039	0,027
-462,343	-200,000	-0,016	-0,099
-461,328	431,914	0,033	0,052
-460,313	800,000	-0,036	-0,076
-459,299	-89,908	0,005	-0,001
-458,284	-200,000	-0,010	0,076
-457,270	222,214	0,141	0,166
-456,255	-76,096	-0,132	0,034
-455,241	800,000	-0,059	-0,120
-454,226	367,827	-0,045	-0,066
-453,211	-200,000	-0,024	0,093
-452,197	-200,000	0,001	0,063
-451,182	38,203	0,027	0,017
-450,168	244,752	-0,068	0,084
-449,153	254,314	-0,072	-0,090
-448,138	-54,906	0,086	-0,028
-447,124	128,867	0,034	0,032
-446,109	453,182	-0,054	0,087
-445,095	800,000	-0,037	-0,090
-444,080	-31,255	-0,100	0,041
-443,065	-200,000	0,005	0,058
-442,051	-200,000	0,000	-0,042
-441,036	40,499	-0,167	0,110
-440,022	-200,000	0,023	-0,081
-439,007	-142,181	0,071	-0,005
-437,992	56,169	0,010	-0,007
-436,978	-6,754	-0,152	-0,075
-435,963	230,919	0,070	-0,084
-434,949	-58,777	0,070	0,022
-433,934	-166,195	0,125	0,004
-432,919	800,000	0,020	0,053
-431,905	4,383	0,035	0,019
-430,890	-77,892	0,097	0,024
-429,876	485,474	-0,093	0,156
-428,861	376,875	-0,024	0,035
-427,846	-200,000	0,002	0,160
-426,832	-178,436	0,112	0,002
-425,817	800,000	-0,046	-0,140
-424,803	800,000	-0,019	-0,050
-423,788	-44,141	0,162	0,059
-422,773	-82,536	-0,049	-0,011
-421,759	145,537	-0,040	-0,039
-420,744	-135,562	0,082	0,007
-419,730	-141,130	0,084	-0,006
-418,715	-200,000	-0,033	-0,107
-417,701	800,000	-0,057	-0,143
-416,686	52,623	0,047	-0,033
-415,671	-200,000	-0,001	0,238
-414,657	-134,660	0,175	0,015
-413,642	-82,174	-0,088	-0,021
-412,628	800,000	-0,005	0,012
-411,613	-200,000	0,005	-0,060
-410,598	-113,404	-0,049	0,007
-409,584	800,000	0,024	0,066
-408,569	-200,000	0,011	-0,041
-407,555	74,377	0,057	-0,044
-406,540	-83,097	0,040	0,009
-405,525	283,748	0,036	-0,048
-404,511	139,269	-0,043	-0,042
-403,496	-170,791	-0,071	0,002
-402,482	36,925	0,051	-0,033
-401,467	-7,597	0,045	0,022
-400,452	547,948	-0,021	0,037
-399,438	43,866	0,030	0,020
-398,423	-46,598	-0,083	0,029
-397,409	800,000	-0,028	-0,089
-396,394	-200,000	-0,016	-0,137
-395,379	-139,508	0,059	0,005
-394,365	265,120	0,084	-0,106
-393,350	102,890	-0,086	0,073
-392,336	-7,584	0,044	0,021
-391,321	-58,922	-0,038	-0,012
-390,306	-127,229	-0,194	-0,020
-389,292	42,909	-0,163	-0,108
-388,277	-108,986	-0,069	-0,011
-387,263	-200,000	-0,046	0,167
-386,248	800,000	0,075	0,155
-385,233	800,000	-0,012	-0,032
-384,219	-77,276	-0,140	0,035
-383,204	94,428	-0,040	0,033
-382,190	128,843	-0,030	-0,028
-381,175	-200,000	-0,031	-0,199
-380,160	-200,000	0,027	-0,159
-379,146	-161,059	0,060	-0,002
-378,131	-129,327	-0,047	0,005
-377,117	-200,000	0,009	0,041
-376,102	759,689	0,060	-0,119
-375,088	800,000	-0,063	-0,131
-374,073	-200,000	0,004	-0,067
-373,058	178,644	0,037	-0,039
-372,044	-95,092	-0,079	0,015
-371,029	-64,311	0,118	-0,035
-370,015	151,636	-0,105	-0,104
-369,000	187,134	-0,043	-0,047
-367,985	-27,464	0,084	-0,035
-366,971	430,069	-0,052	-0,082
-365,956	-87,117	0,062	0,014
-364,942	800,000	-0,013	-0,029
-363,927	800,000	0,012	0,033
-362,912	800,000	0,043	0,095
-361,898	800,000	0,038	0,081
-360,883	236,168	0,080	-0,096
-359,869	-200,000	0,000	-0,164
-358,854	94,348	0,051	-0,042
-357,839	-90,061	0,051	-0,011
-356,825	424,504	-0,038	-0,059
-355,810	300,027	-0,047	0,063
-354,796	-159,008	-0,088	0,004
-353,781	800,000	-0,024	-0,069
-352,766	-137,639	-0,031	0,002
-351,752	420,952	-0,051	-0,080
-350,737	39,053	0,138	0,089
-349,723	-200,000	-0,025	-0,101
-348,708	-63,815	-0,056	0,017
-347,693	-200,000	0,004	0,042
-346,679	68,712	-0,162	-0,121
-345,664	-48,802	-0,089	0,031
-344,650	-73,820	0,070	0,018
-343,635	-31,158	0,120	0,049
-342,620	-11,271	-0,066	0,031
-341,606	-200,000	-0,002	0,050
-340,591	158,233	-0,047	0,048
-339,577	300,182	-0,012	0,016
-338,562	-69,015	-0,118	-0,033
-337,548	-8,103	-0,043	-0,021
-336,533	-130,637	0,084	0,008
-335,518	-94,690	-0,082	0,016
-334,504	-200,000	0,004	0,174
-333,489	-112,194	-0,089	-0,013
-332,475	-32,439	-0,085	-0,034
-331,460	89,991	-0,060	-0,049
-330,445	-4,273	0,061	-0,030
-329,431	56,002	0,063	-0,044
-328,416	368,645	0,049	0,072
-327,402	71,584	-0,164	0,123
-326,387	20,531	0,071	-0,042
-325,372	-114,611	0,011	-0,002
-324,358	-132,684	-0,084	0,008
-323,343	-200,000	-0,029	0,124
-322,329	-14,474	-0,055	-0,026
-321,314	-200,000	0,018	0,119
-320,299	-200,000	-0,014	0,158
-319,285	-200,000	0,002	-0,068
-318,270	647,729	-0,046	-0,086
-317,256	227,244	0,021	-0,025
-316,241	-200,000	0,010	-0,130
-315,226	-171,872	0,093	-0,002
-314,212	26,233	0,039	-0,023
-313,197	-35,849	0,030	0,012
-312,183	279,202	-0,019	0,025
-311,168	-200,000	0,020	-0,066
-310,153	370,163	-0,029	-0,043
-309,139	800,000	0,036	-0,073
-308,124	11,974	-0,050	0,028
-307,110	-124,613	0,215	-0,024
-306,095	-100,575	0,119	0,021
-305,080	30,527	-0,030	0,019
-304,066	-16,699	0,141	-0,064
-303,051	-200,000	0,018	0,062
-302,037	1,267	-0,027	0,014
-301,022	-133,717	-0,039	0,003
-300,008	117,898	0,058	0,051
-298,993	-200,000	-0,007	0,025
-297,978	210,316	0,056	0,064
-296,964	275,086	0,010	-0,013
-295,949	15,589	-0,119	0,067
-294,935	183,981	-0,028	-0,030
-293,920	123,773	-0,099	0,090
-292,905	-200,000	-0,003	0,023
-291,891	-200,000	-0,013	0,087
-290,876	-200,000	-0,005	0,066
-289,862	-200,000	0,012	0,042
-288,847	-45,864	0,040	0,014
-287,832	488,331	-0,044	0,073
-286,818	173,258	0,071	0,074
-285,803	314,770	-0,024	-0,033
-284,789	-200,000	-0,051	0,163
-283,774	605,712	0,078	-0,141
-282,759	-92,088	0,031	-0,006
-281,745	683,866	-0,053	0,101
-280,730	-200,000	0,000	-0,128
-279,716	-125,342	0,069	-0,008
-278,701	-43,487	0,105	0,038
-277,686	-63,682	0,058	-0,017
-276,672	-103,049	-0,026	0,004
-275,657	310,968	0,045	0,061
-274,643	-200,000	0,001	0,005
-273,628	-200,000	-0,045	-0,177
-272,613	357,536	0,009	0,013
-271,599	117,198	0,026	0,023
-270,584	144,337	0,043	0,041
-269,570	-63,947	0,084	0,025
-268,555	-62,347	-0,044	-0,013
-267,540	-200,000	0,003	0,057
-266,526	545,983	-0,055	-0,096
-265,511	-33,425	-0,012	0,005
-264,497	-200,000	-0,006	-0,111
-263,482	-128,556	0,106	0,011
-262,467	-200,000	-0,004	0,150
-261,453	-72,496	0,033	0,009
-260,438	99,823	-0,078	-0,065
-259,424	800,000	-0,028	0,064
-258,409	800,000	-0,042	0,124
-257,395	800,000	0,023	-0,063
-256,380	269,145	0,080	0,102
-255,365	179,038	-0,108	0,115
-254,351	-110,739	-0,153	-0,023
-253,336	-200,000	-0,002	-0,137
-252,322	70,782	0,072	-0,054
-251,307	215,465	-0,058	-0,066
-250,292	800,000	-0,069	-0,149
-249,278	-108,875	0,039	0,006
-248,263	42,230	-0,092	0,060
-247,249	251,984	-0,026	0,033
-246,234	619,116	-0,044	-0,080
-245,219	-200,000	-0,035	-0,212
-244,205	800,000	0,026	-0,057
-243,190	279,047	-0,065	-0,083
-242,176	598,095	0,013	0,024
-241,161	-200,000	-0,042	0,209
-240,146	800,000	0,032	0,089
-239,132	139,236	0,047	0,045
-238,117	800,000	0,042	-0,099
-237,103	-200,000	-0,001	0,033
-236,088	133,154	-0,018	0,017
-235,073	515,955	0,057	0,097
-234,059	-200,000	0,009	0,037
-233,044	-97,345	0,096	0,018
-232,030	800,000	-0,026	0,066
-231,015	-200,000	0,019	0,066
-230,000	800,000	-0,017	-0,043
-228,986	-200,000	-0,013	0,143
-227,971	-200,000	0,024	0,128
-226,957	78,689	0,056	-0,043
-225,942	139,195	-0,132	0,125
-224,927	-200,000	-0,007	-0,036
-223,913	-5,291	0,063	0,031
-222,898	-15,448	0,141	0,065
-221,884	-200,000	-0,017	0,101
-220,869	475,260	0,013	-0,021
-219,855	546,333	-0,054	-0,094
-218,840	237,836	0,115	0,139
-217,825	-83,005	-0,097	0,022
-216,811	210,896	-0,052	-0,059
-215,796	722,722	-0,082	-0,159
-214,782	0,402	0,134	-0,069
-213,767	-85,297	-0,069	-0,015
-212,752	587,596	0,075	0,134
-211,738	17,028	0,084	0,048
-210,723	-200,000	0,010	-0,037
-209,709	800,000	0,027	-0,081
-208,694	36,893	-0,076	-0,048
-207,679	-152,779	-0,199	-0,010
-206,665	-200,000	0,004	-0,041
-205,650	21,438	0,164	0,096
-204,636	-40,604	0,119	0,044
-203,621	800,000	-0,090	0,210
-202,606	800,000	0,040	0,096
-201,592	4,958	-0,051	-0,027
-200,577	-200,000	-0,002	-0,067
-199,563	-130,920	0,040	-0,004
-198,548	344,478	0,037	-0,052
-197,533	-104,533	0,086	0,014
-196,519	800,000	0,087	0,176
-195,504	-200,000	-0,047	0,208
-194,490	800,000	-0,028	0,087
-193,475	-200,000	0,006	0,090
-192,460	-52,842	-0,158	-0,052
-191,446	257,059	0,077	0,096
-190,431	111,769	-0,106	0,092
-189,417	-144,552	0,137	0,009
-188,402	-200,000	-0,017	0,083
-187,387	-154,485	0,034	0,002
-186,373	506,242	-0,098	-0,165
-185,358	-37,269	0,057	0,022
-184,344	800,000	-0,023	-0,060
-183,329	34,626	-0,125	-0,079
-182,315	-99,530	0,090	-0,016
-181,300	-154,647	-0,032	0,002
-180,285	-200,000	0,014	0,059
-179,271	-77,569	-0,032	-0,008
-178,256	-200,000	-0,007	-0,053
-177,242	-25,571	-0,030	0,013
-176,227	-105,905	-0,143	0,023
-175,212	331,561	0,137	0,191
-174,198	181,773	0,027	0,029
-173,183	705,703	0,060	-0,114
-172,169	57,465	-0,119	-0,084
-171,154	566,886	0,034	-0,061
-170,139	201,177	0,050	-0,056
-169,125	-88,472	-0,008	-0,002
-168,110	-59,948	0,037	-0,011
-167,096	157,584	0,005	0,005
-166,081	-200,000	0,007	0,234
-165,066	-135,810	-0,053	-0,004
-164,052	-200,000	0,003	0,142
-163,037	-119,202	0,129	0,016
-162,023	58,756	0,147	-0,104
-161,008	-200,000	0,012	-0,086
-159,993	-200,000	-0,007	0,096
-158,979	-48,828	-0,075	-0,026
-157,964	-200,000	-0,028	-0,129
-156,950	43,180	0,091	0,060
-155,935	800,000	-0,020	-0,050
-154,920	589,775	0,055	-0,098
-153,906	-44,394	0,049	0,018
-152,891	-200,000	-0,003	-0,105
-151,877	264,120	-0,041	0,051
-150,862	-115,000	-0,111	0,015
-149,847	39,661	0,058	0,038
-148,833	24,901	-0,086	-0,051
-147,818	224,413	0,118	-0,138
-146,804	269,625	0,029	0,037
-145,789	139,600	0,128	-0,121
-144,775	-100,744	0,030	-0,005
-143,760	549,067	0,041	0,070
-142,745	-200,000	0,000	-0,039
-141,731	800,000	-0,035	0,071
-140,716	800,000	0,018	0,053
-139,702	36,556	0,035	0,022
-138,687	-5,473	-0,063	0,031
-137,672	-200,000	0,001	-0,030
-136,658	-35,529	-0,040	-0,016
-135,643	-43,603	0,125	-0,045
-134,629	800,000	-0,026	0,060
-133,614	-11,713	0,171	-0,080
-132,599	69,547	-0,067	-0,050
-131,585	-92,663	0,122	0,024
-130,570	307,077	0,032	-0,043
-129,556	731,154	0,035	-0,068
-128,541	800,000	0,044	0,133
-127,526	654,784	-0,053	-0,098
-126,512	186,782	0,044	-0,047
-125,497	146,921	0,108	-0,104
-124,483	-86,188	-0,060	-0,013
-123,468	-200,000	0,016	-0,098
-122,453	693,358	0,043	0,081
-121,439	-200,000	-0,013	-0,058
-120,424	-200,000	0,022	-0,107
-119,410	-200,000	0,001	0,014
-118,395	-139,301	0,088	0,007
