DTS Sentinel unit serial number:	SN410029Multiplexer serial number:	ORYXHardware model number:	OX2-SRSoftware version number:	ORYX F/W v4,00 Oryx Data Collector v3.7.2.0data status	okinstallation	B5 Nyhavnadifferential loss correction	single-endedforward channel	channel 2reverse channel	N/Adate	2023/12/14time	15:17:13forward acquisition time	300,00reverse acquisition time	0,00gamma	499,1914k internal	0,3157k external	0,3157temperature offset calibration	1,0000default loss term (dB/km)	0,3820temperature slope calibration	1,0000multiplexer offset coefficient	1,0000multiplexer slope coefficient	1,0000fibre end	0,00T internal ref (°C)	7,91T ext. ref 1 (°C)	-8,27T ext. ref 2 (°C)	-8,33length (m)	temperature (°C)	Stokes	anti-Stokes-744,400	-159,849	0,101	0,004
-743,385	-47,901	-0,369	-0,131
-742,371	94,001	0,202	0,169
-741,356	-116,458	-0,360	0,048
-740,342	-1,477	0,240	0,125
-739,327	-60,482	-0,332	-0,103
-738,312	129,249	0,082	0,077
-737,298	-111,909	-0,332	-0,049
-736,283	-71,718	0,208	0,057
-735,269	-111,730	-0,422	-0,062
-734,254	-50,486	0,172	0,060
-733,239	-6,426	-0,641	-0,321
-732,225	16,518	0,312	0,181
-731,210	166,574	-0,106	0,111
-730,196	800,000	0,009	0,028
-729,181	157,508	-0,098	-0,100
-728,167	-200,000	0,001	0,030
-727,152	54,465	0,020	-0,014
-726,137	-53,619	-0,058	0,019
-725,123	586,393	-0,025	-0,046
-724,108	-200,000	-0,007	0,105
-723,094	71,417	-0,079	-0,060
-722,079	-200,000	0,010	-0,099
-721,064	0,193	0,046	-0,024
-720,050	163,696	-0,058	-0,060
-719,035	-56,113	-0,109	-0,035
-718,021	-49,400	0,038	0,013
-717,006	-200,000	0,025	-0,123
-715,991	222,069	-0,029	-0,034
-714,977	-115,325	-0,156	-0,021
-713,962	-200,000	0,013	-0,082
-712,948	308,976	0,079	-0,110
-711,933	-200,000	0,004	-0,035
-710,918	-59,283	-0,150	0,047
-709,904	154,027	-0,194	-0,196
-708,889	-200,000	-0,086	-0,000
-707,875	309,455	-0,076	-0,105
-706,860	115,234	0,059	0,053
-705,845	310,967	0,038	-0,052
-704,831	-145,744	-0,113	0,007
-703,816	-200,000	-0,002	-0,048
-702,802	254,257	-0,040	-0,051
-701,787	475,389	0,097	-0,161
-700,772	-35,964	-0,032	-0,013
-699,758	155,059	0,023	0,023
-698,743	154,146	0,152	0,153
-697,729	2,946	0,024	-0,013
-696,714	-200,000	0,022	0,096
-695,699	-33,488	0,018	-0,007
-694,685	6,308	-0,093	-0,051
-693,670	-200,000	0,036	-0,117
-692,656	206,287	-0,038	0,044
-691,641	-200,000	0,020	0,113
-690,627	-200,000	-0,029	0,150
-689,612	-200,000	0,033	0,192
-688,597	-200,000	0,008	-0,110
-687,583	-200,000	-0,006	-0,057
-686,568	-200,000	0,004	0,056
-685,554	800,000	0,011	0,026
-684,539	-200,000	0,020	-0,069
-683,524	-167,633	0,023	0,001
-682,510	-200,000	-0,002	0,135
-681,495	251,244	0,030	-0,038
-680,481	800,000	-0,071	-0,156
-679,466	-200,000	-0,015	-0,087
-678,451	-47,185	0,071	-0,025
-677,437	-90,525	-0,113	-0,024
-676,422	-200,000	0,003	-0,037
-675,408	30,487	0,057	-0,036
-674,393	23,619	-0,048	0,029
-673,378	-67,676	-0,048	0,014
-672,364	-200,000	-0,032	0,212
-671,349	-200,000	-0,158	-0,000
-670,335	-200,000	0,021	0,116
-669,320	-200,000	-0,025	-0,092
-668,305	800,000	-0,047	-0,117
-667,291	103,752	-0,046	-0,039
-666,276	-2,904	-0,095	0,049
-665,262	-9,071	0,069	-0,034
-664,247	6,656	-0,095	0,052
-663,232	63,665	-0,048	-0,035
-662,218	-200,000	-0,024	0,119
-661,203	165,959	0,120	0,125
-660,189	800,000	-0,039	0,097
-659,174	-11,248	0,038	0,018
-658,159	-43,849	0,057	0,021
-657,145	323,412	0,097	-0,136
-656,130	-72,602	-0,025	0,007
-655,116	110,260	-0,017	-0,015
-654,101	-154,521	0,145	0,007
-653,086	-200,000	-0,000	-0,057
-652,072	-106,920	-0,120	-0,019
-651,057	-18,591	0,034	-0,016
-650,043	364,789	0,102	0,151
-649,028	-200,000	-0,011	-0,038
-648,014	-9,153	0,083	-0,041
-646,999	-100,620	-0,017	0,003
-645,984	429,557	0,047	0,075
-644,970	-166,077	-0,088	0,003
-643,955	-170,219	-0,068	0,002
-642,941	-107,688	-0,039	-0,006
-641,926	149,991	-0,064	-0,064
-640,911	-200,000	-0,034	0,184
-639,897	800,000	0,057	0,164
-638,882	27,758	0,062	-0,039
-637,868	-200,000	-0,011	0,171
-636,853	30,102	-0,084	0,053
-635,838	800,000	-0,087	0,210
-634,824	463,228	-0,085	-0,140
-633,809	-110,746	0,149	0,022
-632,795	13,659	0,080	0,045
-631,780	128,909	0,039	0,037
-630,765	-199,507	-0,028	-0,000
-629,751	-89,859	-0,222	-0,047
-628,736	59,081	0,153	-0,111
-627,722	126,444	-0,073	-0,068
-626,707	-200,000	0,008	0,042
-625,692	-36,284	-0,044	0,017
-624,678	-116,452	0,017	-0,002
-623,663	-98,862	-0,098	-0,018
-622,649	-108,558	0,131	0,021
-621,634	-118,847	-0,135	0,017
-620,619	401,252	0,039	-0,060
-619,605	491,426	-0,036	0,060
-618,590	-100,629	-0,128	0,023
-617,576	800,000	-0,017	-0,041
-616,561	-152,647	0,021	-0,001
-615,546	-0,522	0,044	0,023
-614,532	800,000	-0,038	-0,089
-613,517	0,184	-0,125	-0,065
-612,503	7,618	0,143	-0,078
-611,488	800,000	-0,050	0,108
-610,474	-62,435	0,138	0,042
-609,459	-200,000	0,003	-0,033
-608,444	-15,100	-0,116	0,054
-607,430	149,921	0,072	0,071
-606,415	155,788	0,034	-0,035
-605,401	411,257	0,051	0,079
-604,386	375,178	-0,021	-0,032
-603,371	167,466	0,128	0,133
-602,357	800,000	-0,049	0,148
-601,342	-79,514	-0,112	0,028
-600,328	-93,070	-0,035	-0,007
-599,313	-138,511	-0,116	-0,009
-598,298	-200,000	-0,001	-0,011
-597,284	-200,000	0,026	-0,090
-596,269	-158,603	-0,042	-0,002
-595,255	529,331	0,104	0,181
-594,240	-73,984	-0,089	-0,023
-593,225	800,000	-0,038	-0,094
-592,211	-200,000	-0,012	0,046
-591,196	225,528	-0,035	0,042
-590,182	24,432	0,081	-0,049
-589,167	-21,833	0,076	-0,034
-588,152	289,088	-0,073	-0,097
-587,138	64,183	0,017	0,013
-586,123	26,833	-0,075	-0,046
-585,109	-200,000	-0,007	-0,029
-584,094	440,397	0,038	-0,061
-583,079	800,000	-0,007	-0,021
-582,065	-76,982	-0,024	0,006
-581,050	-200,000	-0,010	0,032
-580,036	276,984	-0,048	-0,063
-579,021	-130,071	0,185	0,018
-578,006	-119,280	-0,136	0,017
-576,992	-17,423	0,109	0,050
-575,977	40,143	-0,092	-0,060
-574,963	800,000	-0,029	0,063
-573,948	800,000	0,030	-0,067
-572,934	117,239	0,102	-0,092
-571,919	-9,845	-0,090	-0,044
-570,904	12,422	0,042	-0,024
-569,890	-200,000	-0,031	-0,118
-568,875	647,170	0,018	0,034
-567,861	63,939	0,055	0,041
-566,846	-200,000	-0,011	0,104
-565,831	303,518	-0,007	-0,009
-564,817	-22,104	-0,205	-0,091
-563,802	-165,945	-0,060	-0,002
-562,788	-65,296	0,088	-0,026
-561,773	6,499	-0,032	-0,017
-560,758	-32,578	0,089	-0,036
-559,744	513,173	0,059	0,101
-558,729	20,624	0,009	-0,005
-557,715	24,794	-0,052	-0,032
-556,700	-200,000	-0,008	0,051
-555,685	201,731	-0,098	-0,110
-554,671	800,000	-0,011	-0,027
-553,656	114,333	0,063	-0,056
-552,642	489,382	0,060	-0,100
-551,627	-200,000	0,006	-0,187
-550,612	125,144	-0,015	-0,014
-549,598	800,000	-0,008	0,019
-548,583	-200,000	-0,015	-0,137
-547,569	-33,621	-0,099	-0,040
-546,554	-54,531	-0,084	0,028
-545,539	46,099	-0,053	-0,036
-544,525	800,000	0,045	0,120
-543,510	-134,166	-0,136	-0,012
-542,496	-136,953	-0,213	-0,018
-541,481	36,645	-0,071	0,046
-540,466	106,101	0,035	-0,030
-539,452	-200,000	-0,002	0,075
-538,437	251,014	0,083	0,104
-537,423	-109,938	-0,071	0,011
-536,408	-31,976	-0,047	-0,019
-535,393	683,718	-0,025	0,048
-534,379	58,467	-0,140	-0,101
-533,364	88,977	0,036	-0,029
-532,350	-200,000	0,001	0,034
-531,335	-74,942	0,103	0,027
-530,321	141,064	-0,050	-0,048
-529,306	-200,000	0,037	0,149
-528,291	57,115	-0,054	-0,038
-527,277	-76,787	-0,087	-0,022
-526,262	-41,764	0,093	0,035
-525,248	-130,073	-0,009	0,001
-524,233	-156,291	0,103	-0,005
-523,218	52,220	-0,064	-0,045
-522,204	-53,626	-0,178	-0,059
-521,189	127,161	0,036	-0,034
-520,175	393,342	0,058	-0,088
-519,160	587,228	0,035	-0,063
-518,145	313,539	0,037	0,050
-517,131	800,000	0,009	-0,023
-516,116	-200,000	0,009	0,033
-515,102	129,753	0,029	-0,027
-514,087	-4,869	-0,105	0,053
-513,072	6,833	0,066	0,036
-512,058	800,000	-0,035	-0,102
-511,043	-122,684	-0,020	-0,002
-510,029	48,942	-0,072	-0,049
-509,014	197,050	0,081	-0,090
-507,999	-200,000	0,004	-0,070
-506,985	76,318	0,025	-0,020
-505,970	65,122	0,084	-0,062
-504,956	-96,266	-0,141	-0,027
-503,941	-58,083	-0,136	0,043
-502,926	-99,934	-0,063	-0,011
-501,912	800,000	0,022	-0,049
-500,897	800,000	0,052	0,109
-499,883	56,244	-0,104	0,074
-498,868	64,434	0,053	-0,039
-497,853	-200,000	-0,011	-0,075
-496,839	-182,973	0,136	0,002
-495,824	83,235	0,123	0,098
-494,810	-200,000	-0,003	0,027
-493,795	367,435	0,071	0,105
-492,781	-200,000	-0,009	-0,037
-491,766	-200,000	0,018	0,079
-490,751	800,000	-0,007	0,018
-489,737	86,242	0,114	-0,092
-488,722	21,007	0,070	-0,041
-487,708	296,518	0,039	0,053
-486,693	-200,000	-0,008	0,088
-485,678	-200,000	-0,014	-0,068
-484,664	800,000	-0,030	0,091
-483,649	-12,526	-0,151	-0,072
-482,635	-200,000	-0,010	0,100
-481,620	-147,817	-0,137	-0,008
-480,605	-134,602	-0,114	-0,010
-479,591	-200,000	-0,001	0,031
-478,576	-200,000	-0,017	0,174
-477,562	-3,190	0,039	-0,020
-476,547	333,010	-0,093	-0,131
-475,532	800,000	0,050	-0,138
-474,518	-84,970	-0,128	-0,029
-473,503	60,568	0,035	0,025
-472,489	469,905	0,025	0,040
-471,474	241,800	0,116	0,142
-470,459	-141,587	-0,133	0,010
-469,445	-200,000	-0,018	0,166
-468,430	-200,000	-0,017	-0,095
-467,416	-73,321	-0,074	0,020
-466,401	424,635	-0,050	0,078
-465,386	152,150	-0,027	0,027
-464,372	-200,000	-0,033	0,132
-463,357	-137,989	-0,085	0,007
-462,343	-200,000	-0,015	0,143
-461,328	-9,561	0,116	-0,056
-460,313	-200,000	-0,014	-0,171
-459,299	-164,434	0,069	0,002
-458,284	-112,133	0,088	-0,013
-457,270	-89,573	-0,087	-0,018
-456,255	21,810	0,183	-0,109
-455,241	-200,000	0,021	0,102
-454,226	800,000	-0,044	0,092
-453,211	9,195	0,029	0,016
-452,197	-200,000	0,029	-0,133
-451,182	-11,490	-0,066	0,031
-450,168	284,185	0,027	0,035
-449,153	-200,000	-0,021	-0,116
-448,138	38,157	-0,119	0,077
-447,124	-176,567	-0,171	-0,003
-446,109	800,000	-0,022	0,063
-445,095	143,783	-0,120	0,116
-444,080	190,284	-0,019	-0,021
-443,065	-200,000	-0,009	-0,047
-442,051	-127,427	0,035	-0,004
-441,036	800,000	0,017	0,038
-440,022	55,485	0,047	-0,033
-439,007	800,000	-0,021	0,044
-437,992	93,963	-0,081	0,067
-436,978	-35,192	0,040	0,016
-435,963	670,336	0,056	-0,107
-434,949	-144,323	0,186	0,012
-433,934	63,379	-0,031	0,022
-432,919	-200,000	-0,009	-0,188
-431,905	668,224	0,038	0,072
-430,890	72,892	0,041	-0,031
-429,876	-200,000	-0,006	0,028
-428,861	800,000	0,031	0,086
-427,846	-200,000	0,010	-0,104
-426,832	-200,000	0,002	-0,141
-425,817	-200,000	0,004	-0,043
-424,803	35,743	0,069	0,044
-423,788	-200,000	-0,002	0,065
-422,773	-79,899	0,127	0,031
-421,759	318,699	0,083	0,114
-420,744	800,000	0,016	0,035
-419,730	-16,936	0,019	-0,009
-418,715	284,874	-0,024	-0,031
-417,701	-164,284	0,066	-0,002
-416,686	-200,000	-0,006	0,100
-415,671	464,395	0,086	0,140
-414,657	221,372	-0,052	0,061
-413,642	-74,102	0,121	0,032
-412,628	147,345	-0,055	-0,054
-411,613	-200,000	-0,009	-0,083
-410,598	-5,416	-0,059	0,030
-409,584	800,000	-0,011	0,029
-408,569	-200,000	0,002	-0,076
-407,555	62,167	0,093	0,068
-406,540	4,823	-0,123	0,065
-405,525	42,289	0,086	0,057
-404,511	186,337	0,055	-0,060
-403,496	399,663	0,063	0,097
-402,482	-51,896	0,042	0,014
-401,467	-154,563	0,129	-0,006
-400,452	136,046	-0,088	0,084
-399,438	-128,989	0,111	-0,011
-398,423	-91,192	0,031	0,006
-397,409	-200,000	0,010	-0,067
-396,394	30,487	0,091	-0,056
-395,379	-200,000	-0,001	-0,056
-394,365	187,990	0,045	0,049
-393,350	-200,000	0,005	0,020
-392,336	20,507	-0,069	0,040
-391,321	-109,966	-0,096	-0,014
-390,306	15,582	-0,160	-0,091
-389,292	-200,000	0,055	0,187
-388,277	225,806	-0,087	0,102
-387,263	-153,579	0,210	0,010
-386,248	-200,000	-0,007	0,048
-385,233	-200,000	0,027	-0,150
-384,219	668,408	0,054	0,102
-383,204	-12,939	-0,102	-0,048
-382,190	800,000	-0,034	0,103
-381,175	615,065	0,087	0,160
-380,160	72,559	0,104	-0,079
-379,146	-200,000	0,037	0,221
-378,131	-200,000	0,017	0,138
-377,117	800,000	0,045	0,105
-376,102	-200,000	-0,003	0,017
-375,088	375,865	0,055	-0,082
-374,073	-142,335	-0,129	-0,009
-373,058	-152,259	0,123	0,006
-372,044	800,000	0,026	-0,063
-371,029	-89,086	0,129	0,027
-370,015	800,000	0,014	0,042
-369,000	-134,507	-0,111	0,010
-367,985	-200,000	0,019	-0,304
-366,971	-200,000	0,005	0,022
-365,956	106,362	0,060	0,052
-364,942	800,000	0,030	0,083
-363,927	-200,000	0,002	0,113
-362,912	-91,829	-0,124	0,025
-361,898	-28,569	-0,046	-0,019
-360,883	-200,000	0,007	-0,060
-359,869	800,000	0,048	-0,136
-358,854	693,483	0,051	-0,097
-357,839	544,316	0,024	0,042
-356,825	196,239	-0,024	0,026
-355,810	-113,133	-0,098	0,014
-354,796	-24,721	-0,106	-0,046
-353,781	-78,297	-0,049	-0,012
-352,766	0,621	0,151	0,078
-351,752	247,650	0,040	0,050
-350,737	800,000	-0,008	0,016
-349,723	98,240	0,048	0,040
-348,708	-98,705	-0,144	-0,026
-347,693	-200,000	-0,057	-0,189
-346,679	-161,762	0,104	-0,004
-345,664	0,207	0,057	-0,029
-344,650	173,311	-0,095	0,100
-343,635	215,036	0,072	-0,083
-342,620	116,311	0,017	-0,015
-341,606	6,465	0,046	-0,025
-340,591	578,349	0,029	0,052
-339,577	79,376	-0,112	-0,087
-338,562	335,312	0,017	-0,024
-337,548	-200,000	0,016	0,062
-336,533	800,000	0,007	0,021
-335,518	764,285	0,045	0,090
-334,504	-76,168	-0,171	0,043
-333,489	-200,000	-0,011	-0,063
-332,475	-200,000	-0,042	-0,183
-331,460	800,000	0,086	-0,205
-330,445	-200,000	-0,003	-0,084
-329,431	118,467	0,072	0,065
-328,416	-35,471	-0,136	0,053
-327,402	800,000	0,033	0,078
-326,387	-35,056	0,021	0,008
-325,372	-89,500	-0,160	-0,034
-324,358	-14,729	-0,067	-0,031
-323,343	343,694	0,052	-0,074
-322,329	637,629	0,052	-0,096
-321,314	800,000	0,080	-0,173
-320,299	800,000	-0,035	0,102
-319,285	-41,218	0,112	-0,042
-318,270	39,186	0,049	-0,032
-317,256	147,718	-0,014	-0,014
-316,241	-78,622	-0,020	-0,005
-315,226	299,652	-0,017	0,023
-314,212	-200,000	0,050	-0,190
-313,197	187,098	-0,074	-0,080
-312,183	-200,000	0,003	-0,036
-311,168	-8,651	0,089	-0,043
-310,153	-102,835	0,111	-0,019
-309,139	355,237	-0,102	-0,147
-308,124	-10,100	-0,064	-0,031
-307,110	603,513	0,046	0,084
-306,095	-200,000	0,041	0,203
-305,080	282,983	0,060	0,079
-304,066	18,774	-0,054	-0,031
-303,051	-200,000	0,013	-0,134
-302,037	330,958	0,055	-0,077
-301,022	305,110	0,043	0,058
-300,008	800,000	-0,049	0,129
-298,993	-200,000	-0,003	-0,066
-297,978	800,000	0,071	0,151
-296,964	-111,838	-0,041	0,006
-295,949	-144,012	0,018	-0,001
-294,935	-200,000	-0,012	-0,054
-293,920	282,972	-0,074	-0,097
-292,905	226,698	0,054	0,063
-291,891	-23,752	-0,002	-0,001
-290,876	131,282	0,058	0,054
-289,862	-35,958	-0,076	-0,030
-288,847	-146,018	-0,096	0,006
-287,832	125,867	-0,112	-0,103
-286,818	21,060	0,136	-0,080
-285,803	-90,767	0,109	0,023
-284,789	646,741	-0,028	0,053
-283,774	-200,000	0,010	-0,111
-282,759	-49,594	-0,094	0,032
-281,745	-200,000	-0,016	-0,104
-280,730	10,170	0,070	0,039
-279,716	-200,000	0,025	-0,114
-278,701	-60,904	0,040	0,012
-277,686	233,001	-0,065	-0,077
-276,672	800,000	-0,013	0,028
-275,657	761,841	0,081	-0,159
-274,643	53,103	-0,046	0,032
-273,628	18,175	-0,103	0,059
-272,613	-200,000	-0,013	-0,144
-271,599	-83,774	0,077	0,018
-270,584	130,403	-0,033	-0,030
-269,570	-200,000	0,034	0,165
-268,555	-14,402	0,054	-0,025
-267,540	-61,066	0,061	0,018
-266,526	-24,176	-0,040	-0,017
-265,511	456,177	-0,056	0,090
-264,497	0,914	0,076	-0,040
-263,482	-142,322	-0,058	0,004
-262,467	220,276	0,025	0,029
-261,453	-25,966	0,039	-0,016
-260,438	176,070	0,079	0,083
-259,424	-49,098	-0,060	-0,021
-258,409	354,522	0,016	-0,023
-257,395	-200,000	-0,009	0,077
-256,380	-143,868	0,119	-0,008
-255,365	387,182	0,058	-0,087
-254,351	88,716	-0,046	-0,037
-253,336	277,538	-0,024	0,031
-252,322	113,490	0,100	-0,088
-251,307	800,000	0,022	-0,067
-250,292	87,381	0,066	0,053
-249,278	188,419	0,082	-0,088
-248,263	363,606	0,046	-0,068
-247,249	493,289	0,014	-0,023
-246,234	-200,000	0,001	0,005
-245,219	216,466	-0,063	-0,072
-244,205	800,000	0,003	-0,006
-243,190	800,000	0,025	-0,051
-242,176	-70,168	-0,090	0,025
-241,161	-122,441	0,199	-0,023
-240,146	88,963	0,026	-0,021
-239,132	-161,351	0,127	0,005
-238,117	800,000	0,047	0,140
-237,103	357,555	-0,024	0,035
-236,088	90,975	-0,026	-0,021
-235,073	86,910	0,066	-0,053
-234,059	-200,000	-0,003	0,121
-233,044	75,576	0,040	-0,031
-232,030	289,017	-0,060	-0,079
-231,015	625,651	0,028	0,051
-230,000	800,000	0,045	0,101
-228,986	-73,061	-0,139	0,037
-227,971	-179,384	0,049	-0,001
-226,957	-144,257	0,098	-0,006
-225,942	-200,000	-0,005	0,117
-224,927	-26,826	-0,148	0,062
-223,913	-72,311	-0,088	-0,023
-222,898	264,299	0,032	-0,041
-221,884	-200,000	0,037	-0,151
-220,869	338,235	0,048	0,068
-219,855	239,477	0,020	0,024
-218,840	224,871	0,076	0,089
-217,825	-200,000	-0,009	-0,116
-216,811	426,516	-0,091	0,143
-215,796	134,006	-0,018	-0,017
-214,782	41,657	-0,035	0,023
-213,767	-44,968	0,084	0,030
-212,752	22,911	-0,041	-0,024
-211,738	800,000	-0,045	0,102
-210,723	-57,949	-0,050	0,016
-209,709	-157,064	-0,133	-0,006
-208,694	173,178	0,053	-0,055
-207,679	800,000	-0,016	0,040
-206,665	-200,000	0,006	0,084
-205,650	-200,000	-0,008	-0,034
-204,636	99,237	-0,055	-0,046
-203,621	-200,000	-0,020	0,122
-202,606	276,480	-0,043	-0,055
-201,592	-37,988	-0,057	-0,022
-200,577	234,269	-0,029	0,034
-199,563	135,193	0,086	-0,081
-198,548	-116,918	-0,068	-0,009
-197,533	-200,000	0,011	0,144
-196,519	74,173	0,076	0,058
-195,504	-161,487	0,062	-0,002
-194,490	71,742	0,061	-0,046
-193,475	355,509	0,014	-0,021
-192,460	800,000	0,040	0,124
-191,446	60,351	-0,125	-0,089
-190,431	-125,544	0,114	0,012
-189,417	75,396	0,044	0,033
-188,402	33,329	-0,109	-0,068
-187,387	-28,791	-0,123	-0,051
-186,373	-58,340	0,123	-0,038
-185,358	-31,240	0,039	-0,016
-184,344	-200,000	0,018	0,098
-183,329	278,370	-0,109	0,141
-182,315	153,253	-0,077	0,076
-181,300	-147,718	-0,120	-0,007
-180,285	-200,000	-0,018	-0,091
-179,271	91,121	0,082	-0,066
-178,256	-193,060	-0,122	0,001
-177,242	800,000	0,030	0,064
-176,227	800,000	0,010	-0,027
-175,212	800,000	0,031	-0,076
-174,198	-146,355	0,073	-0,005
-173,183	48,465	-0,076	-0,051
-172,169	800,000	-0,039	-0,082
-171,154	-94,288	0,208	0,041
-170,139	34,587	0,065	-0,041
-169,125	-46,715	0,085	-0,030
-168,110	418,406	-0,026	-0,041
-167,096	-200,000	0,028	-0,123
-166,081	9,065	0,088	0,048
-165,066	-186,665	-0,130	0,001
-164,052	319,908	-0,052	0,071
-163,037	-200,000	-0,020	-0,071
-162,023	-200,000	-0,017	0,091
-161,008	-85,212	-0,023	0,005
-159,993	-30,705	-0,112	-0,045
-158,979	169,045	0,052	-0,053
-157,964	-200,000	-0,009	0,051
-156,950	-80,444	-0,037	-0,009
-155,935	800,000	-0,027	0,062
-154,920	800,000	-0,008	-0,021
-153,906	103,346	0,036	-0,030
-152,891	23,158	0,127	0,075
-151,877	-104,049	0,060	-0,010
-150,862	-117,209	-0,011	-0,001
-149,847	-200,000	0,003	-0,023
-148,833	-67,710	-0,015	0,004
-147,818	-103,484	0,016	0,003
-146,804	-59,559	0,148	0,046
-145,789	800,000	0,061	0,127
-144,775	43,828	0,085	0,056
-143,760	-11,255	0,058	0,027
-142,745	800,000	-0,040	0,097
-141,731	-89,732	0,055	-0,012
-140,716	-132,805	-0,043	0,004
-139,702	-100,441	0,157	0,028
-138,687	-87,621	-0,097	0,021
-137,672	175,578	-0,065	-0,068
-136,658	-147,574	-0,034	0,002
-135,643	-88,535	-0,170	-0,036
-134,629	101,172	0,049	-0,041
-133,614	93,560	0,126	0,102
-132,599	53,028	0,092	0,063
-131,585	289,448	-0,042	0,056
-130,570	-77,726	0,125	0,031
-129,556	-119,202	-0,118	0,015
-128,541	-200,000	0,014	0,082
-127,526	-83,595	0,154	-0,035
-126,512	-200,000	-0,009	-0,122
-125,497	-157,671	-0,074	-0,003
-124,483	-9,363	0,103	0,049
-123,468	-200,000	0,005	0,023
-122,453	-200,000	-0,008	-0,095
-121,439	-200,000	0,008	-0,032
-120,424	-200,000	-0,006	-0,022
-119,410	800,000	0,041	0,088
