DTS Sentinel unit serial number:	SN410029Multiplexer serial number:	ORYXHardware model number:	OX2-SRSoftware version number:	ORYX F/W v4,00 Oryx Data Collector v3.7.2.0data status	okinstallation	B5 Nyhavnadifferential loss correction	single-endedforward channel	channel 2reverse channel	N/Adate	2023/12/14time	10:17:13forward acquisition time	300,00reverse acquisition time	0,00gamma	499,1914k internal	0,3161k external	0,3161temperature offset calibration	1,0000default loss term (dB/km)	0,3820temperature slope calibration	1,0000multiplexer offset coefficient	1,0000multiplexer slope coefficient	1,0000fibre end	0,00T internal ref (°C)	6,88T ext. ref 1 (°C)	-9,09T ext. ref 2 (°C)	-9,21length (m)	temperature (°C)	Stokes	anti-Stokes-744,400	-96,946	0,234	0,045
-743,385	-111,724	-0,357	-0,053
-742,371	-55,031	0,212	0,070
-741,356	-54,279	-0,245	-0,081
-740,342	529,807	0,006	0,011
-739,327	-55,379	-0,304	-0,100
-738,312	-1,313	0,103	0,054
-737,298	-56,446	-0,467	-0,152
-736,283	72,330	0,216	0,166
-735,269	-93,854	-0,237	-0,048
-734,254	225,803	0,081	0,097
-733,239	-12,507	-0,587	-0,281
-732,225	12,645	0,211	0,120
-731,210	-23,316	0,082	0,036
-730,196	800,000	0,032	-0,077
-729,181	800,000	0,010	0,032
-728,167	-18,111	0,082	-0,038
-727,152	-200,000	0,030	-0,098
-726,137	-147,917	-0,147	0,009
-725,123	-200,000	0,008	0,047
-724,108	351,412	0,052	-0,076
-723,094	-200,000	-0,003	-0,078
-722,079	337,988	-0,113	-0,162
-721,064	53,819	0,035	0,025
-720,050	-72,512	0,108	0,029
-719,035	-22,780	0,068	-0,030
-718,021	800,000	-0,077	-0,236
-717,006	800,000	-0,031	-0,069
-715,991	-126,508	0,058	-0,006
-714,977	16,274	-0,076	0,044
-713,962	91,626	0,056	-0,046
-712,948	-141,385	0,095	0,007
-711,933	-200,000	0,000	-0,038
-710,918	-197,075	-0,106	-0,000
-709,904	50,566	0,037	0,026
-708,889	-51,572	0,022	0,007
-707,875	168,125	-0,048	-0,050
-706,860	345,064	-0,072	0,104
-705,845	413,571	0,105	0,165
-704,831	-108,123	0,106	-0,017
-703,816	-14,254	-0,114	-0,054
-702,802	273,840	-0,072	0,093
-701,787	598,224	-0,053	-0,097
-700,772	-79,815	-0,098	-0,024
-699,758	-200,000	0,007	-0,039
-698,743	36,285	0,089	-0,057
-697,729	-200,000	0,004	0,028
-696,714	-200,000	-0,013	0,098
-695,699	125,704	-0,039	-0,036
-694,685	-39,495	-0,077	-0,030
-693,670	-134,494	-0,073	0,006
-692,656	800,000	0,028	-0,083
-691,641	-200,000	-0,034	0,112
-690,627	-200,000	0,013	0,050
-689,612	-92,778	-0,170	0,035
-688,597	212,585	-0,074	-0,086
-687,583	395,265	-0,071	-0,109
-686,568	800,000	-0,040	0,092
-685,554	-89,136	0,076	0,016
-684,539	-4,367	0,077	-0,039
-683,524	95,573	0,066	0,055
-682,510	-200,000	0,005	0,026
-681,495	800,000	-0,019	-0,043
-680,481	-200,000	0,019	0,162
-679,466	-93,634	-0,143	0,029
-678,451	-200,000	-0,014	-0,101
-677,437	278,398	-0,043	0,056
-676,422	-74,329	0,154	0,041
-675,408	499,968	-0,060	0,103
-674,393	228,089	0,041	0,050
-673,378	385,890	-0,033	-0,050
-672,364	-45,848	0,132	-0,048
-671,349	-85,158	0,038	0,009
-670,335	172,447	0,052	-0,055
-669,320	189,256	-0,037	0,041
-668,305	-62,351	0,059	0,018
-667,291	800,000	-0,074	0,154
-666,276	-200,000	0,048	-0,246
-665,262	800,000	0,036	-0,100
-664,247	800,000	-0,034	-0,075
-663,232	-200,000	-0,012	-0,101
-662,218	-134,564	0,107	-0,009
-661,203	-150,687	-0,106	0,006
-660,189	-68,941	0,066	-0,019
-659,174	-108,726	-0,057	0,009
-658,159	44,419	-0,080	-0,054
-657,145	-63,072	0,117	0,035
-656,130	53,561	0,056	-0,039
-655,116	-200,000	0,034	0,180
-654,101	656,507	-0,040	0,075
-653,086	576,913	-0,075	-0,135
-652,072	-200,000	0,032	-0,139
-651,057	-73,840	-0,062	-0,017
-650,043	-200,000	-0,028	-0,100
-649,028	413,727	0,084	-0,132
-648,014	-200,000	0,029	-0,099
-646,999	149,832	-0,020	0,020
-645,984	-116,938	-0,074	-0,010
-644,970	-200,000	-0,004	0,031
-643,955	-200,000	-0,017	0,058
-642,941	-200,000	0,016	-0,093
-641,926	-200,000	0,001	0,160
-640,911	800,000	-0,024	0,051
-639,897	-200,000	0,004	0,024
-638,882	359,285	-0,059	-0,086
-637,868	118,703	0,050	-0,045
-636,853	-127,599	-0,130	-0,014
-635,838	23,618	-0,026	-0,015
-634,824	-45,951	0,056	-0,020
-633,809	-200,000	0,021	0,114
-632,795	184,268	0,080	-0,087
-631,780	23,692	0,082	-0,050
-630,765	64,664	0,051	0,038
-629,751	105,738	-0,094	-0,081
-628,736	210,253	0,090	0,103
-627,722	481,216	0,078	-0,130
-626,707	7,385	-0,048	-0,026
-625,692	377,586	0,085	0,127
-624,678	-68,889	0,116	0,033
-623,663	301,560	-0,011	-0,015
-622,649	-168,101	0,008	-0,000
-621,634	22,492	-0,103	0,062
-620,619	-80,968	0,066	-0,016
-619,605	49,542	-0,121	-0,083
-618,590	799,282	0,047	0,095
-617,576	-35,326	-0,058	0,023
-616,561	107,094	0,018	-0,016
-615,546	-3,608	-0,040	0,020
-614,532	-81,702	-0,136	-0,033
-613,517	-200,000	0,008	-0,040
-612,503	800,000	-0,038	-0,112
-611,488	34,448	0,172	0,110
-610,474	-200,000	-0,009	0,048
-609,459	800,000	-0,014	0,036
-608,444	491,080	-0,086	-0,144
-607,430	-122,918	-0,029	0,003
-606,415	207,107	-0,014	-0,016
-605,401	-69,313	-0,047	-0,013
-604,386	-80,803	0,044	-0,011
-603,371	800,000	0,049	0,127
-602,357	-200,000	-0,011	0,063
-601,342	800,000	0,074	-0,153
-600,328	37,128	0,039	-0,025
-599,313	38,218	-0,095	0,062
-598,298	-10,499	-0,048	-0,023
-597,284	311,927	0,057	-0,078
-596,269	-195,156	0,081	0,000
-595,255	103,080	-0,099	0,085
-594,240	132,362	-0,067	-0,063
-593,225	800,000	0,030	-0,068
-592,211	-200,000	-0,039	-0,140
-591,196	231,474	-0,117	0,140
-590,182	800,000	-0,025	0,077
-589,167	318,487	-0,097	0,135
-588,152	-200,000	-0,006	0,151
-587,138	215,597	0,020	0,024
-586,123	174,303	-0,068	-0,072
-585,109	-13,213	0,063	0,030
-584,094	103,014	0,069	0,059
-583,079	-136,466	-0,068	-0,006
-582,065	-200,000	-0,005	0,049
-581,050	399,995	0,082	0,127
-580,036	473,250	-0,030	0,049
-579,021	183,416	0,035	0,038
-578,006	-178,785	-0,113	-0,002
-576,992	487,619	0,029	-0,049
-575,977	-200,000	0,006	0,091
-574,963	800,000	-0,037	-0,083
-573,948	95,010	-0,071	0,059
-572,934	5,350	0,029	0,015
-571,919	-114,490	-0,086	-0,012
-570,904	259,766	0,045	-0,056
-569,890	800,000	0,022	0,062
-568,875	20,048	-0,104	0,061
-567,861	365,313	0,035	0,051
-566,846	800,000	-0,012	-0,026
-565,831	15,456	0,104	0,060
-564,817	435,975	-0,028	-0,045
-563,802	-77,721	-0,158	-0,040
-562,788	172,669	0,190	-0,200
-561,773	257,675	0,059	0,074
-560,758	-200,000	0,025	0,090
-559,744	70,905	0,100	0,076
-558,729	-196,114	0,141	-0,001
-557,715	800,000	-0,047	-0,124
-556,700	800,000	0,026	0,056
-555,685	182,549	-0,070	0,075
-554,671	192,108	-0,126	-0,139
-553,656	-138,216	0,026	0,002
-552,642	-39,151	0,076	0,029
-551,627	-187,473	-0,080	0,001
-550,612	800,000	0,011	-0,033
-549,598	58,792	-0,089	-0,064
-548,583	-200,000	-0,034	-0,133
-547,569	169,754	-0,072	0,075
-546,554	96,782	0,030	-0,025
-545,539	-4,307	-0,112	0,057
-544,525	-65,162	0,089	0,026
-543,510	58,593	-0,073	-0,052
-542,496	-6,608	-0,159	0,079
-541,481	-93,238	-0,036	-0,007
-540,466	800,000	-0,017	-0,038
-539,452	21,653	0,043	-0,026
-538,437	65,755	-0,036	-0,026
-537,423	110,076	0,074	-0,065
-536,408	-53,296	0,158	0,053
-535,393	-200,000	0,026	-0,151
-534,379	14,586	-0,066	0,038
-533,364	-200,000	0,002	-0,156
-532,350	-78,553	0,118	0,029
-531,335	292,187	0,058	0,077
-530,321	-57,465	0,030	0,010
-529,306	694,034	-0,055	-0,107
-528,291	-200,000	0,018	0,069
-527,277	66,377	-0,091	-0,067
-526,262	334,690	-0,080	-0,113
-525,248	800,000	0,053	-0,155
-524,233	-140,400	0,093	0,007
-523,218	-37,379	0,071	-0,028
-522,204	-6,966	-0,114	0,056
-521,189	4,598	-0,060	0,032
-520,175	-200,000	0,019	-0,126
-519,160	-200,000	-0,009	0,029
-518,145	665,088	0,051	0,096
-517,131	-41,346	0,085	-0,032
-516,116	298,210	0,050	0,067
-515,102	22,953	-0,095	0,057
-514,087	800,000	-0,074	-0,161
-513,072	212,457	0,023	0,027
-512,058	-200,000	-0,002	-0,014
-511,043	800,000	0,063	0,176
-510,029	-145,880	0,126	-0,008
-509,014	430,603	-0,070	0,111
-507,999	-147,506	-0,099	-0,006
-506,985	-200,000	0,015	-0,059
-505,970	-33,720	0,086	0,034
-504,956	-168,844	0,100	0,003
-503,941	-200,000	0,001	0,059
-502,926	157,942	-0,038	0,038
-501,912	-200,000	0,016	0,075
-500,897	20,797	-0,048	0,029
-499,883	301,799	-0,028	0,038
-498,868	800,000	-0,059	0,158
-497,853	-69,929	0,052	-0,014
-496,839	800,000	-0,031	0,067
-495,824	-80,398	-0,269	0,065
-494,810	800,000	0,011	0,023
-493,795	-97,443	-0,091	-0,017
-492,781	628,239	-0,059	-0,110
-491,766	185,604	-0,074	-0,081
-490,751	214,977	-0,008	0,010
-489,737	-200,000	0,001	-0,054
-488,722	-3,261	-0,043	-0,022
-487,708	-187,355	0,051	0,000
-486,693	-133,298	0,058	-0,005
-485,678	387,067	-0,067	-0,102
-484,664	95,734	0,148	0,123
-483,649	-125,300	-0,117	-0,013
-482,635	-89,869	-0,056	-0,012
-481,620	-157,117	0,113	-0,005
-480,605	501,969	0,045	0,076
-479,591	-114,830	-0,172	0,024
-478,576	-82,647	-0,039	-0,009
-477,562	108,132	-0,072	-0,062
-476,547	-200,000	0,033	0,255
-475,532	-59,936	-0,104	0,032
-474,518	-5,863	0,114	0,057
-473,503	60,869	0,109	0,079
-472,489	-87,448	0,120	0,026
-471,474	22,945	-0,107	-0,064
-470,459	164,579	0,018	0,019
-469,445	800,000	0,020	0,060
-468,430	634,734	0,075	-0,139
-467,416	-200,000	0,083	0,000
-466,401	39,238	0,071	-0,046
-465,386	94,454	0,118	-0,098
-464,372	800,000	0,055	0,134
-463,357	-12,730	-0,095	-0,045
-462,343	-200,000	0,012	0,045
-461,328	800,000	-0,048	0,099
-460,313	182,042	-0,080	-0,086
-459,299	-200,000	-0,032	-0,120
-458,284	311,858	0,121	0,165
-457,270	60,435	-0,028	0,020
-456,255	-116,622	-0,065	0,009
-455,241	-117,727	-0,106	-0,014
-454,226	-200,000	0,023	-0,158
-453,211	800,000	-0,010	-0,029
-452,197	800,000	0,056	0,174
-451,182	-128,327	0,146	-0,015
-450,168	-4,476	-0,043	0,021
-449,153	353,074	0,063	-0,092
-448,138	-200,000	-0,010	-0,080
-447,124	-7,740	-0,066	0,033
-446,109	104,817	0,148	0,127
-445,095	204,426	0,022	0,025
-444,080	715,100	0,022	0,042
-443,065	458,617	-0,082	0,133
-442,051	-72,721	0,051	-0,014
-441,036	-200,000	-0,041	-0,225
-440,022	-112,172	-0,114	-0,017
-439,007	-200,000	-0,003	0,040
-437,992	-200,000	0,004	-0,127
-436,978	-136,876	0,019	-0,002
-435,963	800,000	0,033	0,074
-434,949	800,000	0,023	0,069
-433,934	800,000	-0,060	-0,171
-432,919	89,491	-0,052	-0,042
-431,905	-79,507	0,108	-0,026
-430,890	-45,834	0,076	-0,027
-429,876	-200,000	0,046	0,000
-428,861	800,000	0,069	0,154
-427,846	800,000	-0,039	0,086
-426,832	-111,268	-0,071	0,010
-425,817	-126,898	0,050	-0,005
-424,803	56,718	0,186	-0,131
-423,788	-200,000	-0,006	-0,102
-422,773	800,000	0,036	0,092
-421,759	182,210	-0,068	0,073
-420,744	-127,211	-0,136	0,014
-419,730	405,030	0,014	-0,021
-418,715	-39,073	0,065	-0,025
-417,701	-163,734	0,045	0,002
-416,686	800,000	-0,069	-0,168
-415,671	151,755	0,040	-0,040
-414,657	173,976	0,073	-0,077
-413,642	130,980	-0,060	-0,056
-412,628	800,000	0,027	0,068
-411,613	226,068	0,063	-0,075
-410,598	68,102	-0,023	-0,017
-409,584	707,968	-0,053	0,103
-408,569	241,791	0,073	0,089
-407,555	-200,000	-0,016	0,068
-406,540	-197,291	-0,133	-0,001
-405,525	39,000	-0,122	-0,079
-404,511	90,496	-0,048	0,039
-403,496	83,185	0,063	0,050
-402,482	4,497	0,011	-0,006
-401,467	-35,218	0,107	0,042
-400,452	-96,050	0,031	-0,006
-399,438	-200,000	-0,007	-0,098
-398,423	-177,669	-0,129	0,002
-397,409	-131,055	0,054	0,005
-396,394	-20,814	-0,041	-0,018
-395,379	118,082	-0,036	-0,032
-394,365	108,858	0,037	-0,032
-393,350	275,914	0,119	0,153
-392,336	-200,000	0,003	-0,123
-391,321	323,856	-0,058	0,081
-390,306	-200,000	-0,023	-0,082
-389,292	800,000	0,016	-0,033
-388,277	-123,974	0,130	-0,015
-387,263	-15,145	0,143	-0,066
-386,248	298,771	0,031	-0,042
-385,233	-81,741	-0,096	0,023
-384,219	457,193	-0,065	0,105
-383,204	-20,880	0,083	0,037
-382,190	-34,517	-0,073	-0,029
-381,175	-99,758	-0,039	0,007
-380,160	-38,405	0,094	0,036
-379,146	148,794	-0,096	-0,094
-378,131	124,872	0,066	0,060
-377,117	113,063	0,099	-0,087
-376,102	92,687	-0,089	0,073
-375,088	800,000	0,034	0,071
-374,073	93,276	-0,052	0,042
-373,058	-119,007	-0,076	-0,010
-372,044	-87,524	0,120	-0,026
-371,029	514,186	0,074	0,126
-370,015	-65,278	-0,057	0,017
-369,000	225,726	-0,036	-0,042
-367,985	-68,480	0,093	-0,026
-366,971	-6,308	-0,082	-0,040
-365,956	9,369	0,025	0,014
-364,942	-34,646	0,173	0,068
-363,927	-88,352	0,132	0,028
-362,912	-200,000	-0,007	-0,103
-361,898	92,036	-0,022	0,018
-360,883	-155,926	-0,074	-0,003
-359,869	95,990	0,059	-0,049
-358,854	175,815	-0,083	-0,087
-357,839	481,683	0,041	0,068
-356,825	-200,000	0,009	0,035
-355,810	-200,000	-0,016	0,070
-354,796	-200,000	0,021	-0,143
-353,781	-200,000	-0,000	-0,187
-352,766	46,276	-0,059	-0,039
-351,752	-64,223	0,105	0,031
-350,737	397,543	0,035	0,053
-349,723	800,000	0,057	0,148
-348,708	-200,000	0,012	0,071
-347,693	-200,000	-0,007	0,105
-346,679	29,133	-0,037	-0,023
-345,664	-200,000	-0,001	0,065
-344,650	43,153	0,156	-0,103
-343,635	-66,836	0,119	-0,034
-342,620	91,776	0,095	-0,077
-341,606	-108,300	-0,062	0,010
-340,591	-200,000	-0,004	-0,108
-339,577	-200,000	0,021	0,145
-338,562	-200,000	-0,028	-0,167
-337,548	62,472	0,045	0,032
-336,533	-200,000	0,002	0,142
-335,518	-200,000	0,002	0,071
-334,504	-15,203	-0,092	0,043
-333,489	733,304	-0,110	0,213
-332,475	-64,758	0,057	0,017
-331,460	-200,000	-0,039	-0,138
-330,445	350,090	0,045	0,065
-329,431	17,752	0,026	-0,015
-328,416	-200,000	0,022	0,227
-327,402	220,945	-0,077	0,090
-326,387	-43,577	0,136	-0,050
-325,372	661,007	0,009	0,016
-324,358	-121,035	-0,145	0,017
-323,343	397,193	0,053	-0,081
-322,329	-200,000	0,098	-0,000
-321,314	-200,000	0,027	0,137
-320,299	800,000	0,016	0,035
-319,285	-3,225	0,072	0,036
-318,270	-200,000	0,005	0,078
-317,256	-161,157	-0,089	-0,003
-316,241	378,534	0,030	0,044
-315,226	4,175	0,046	0,024
-314,212	-84,363	0,045	0,010
-313,197	217,818	-0,079	0,092
-312,183	13,882	0,050	0,028
-311,168	96,855	0,090	-0,075
-310,153	151,057	-0,164	-0,162
-309,139	-200,000	0,010	0,045
-308,124	792,837	0,054	0,109
-307,110	-200,000	0,014	-0,089
-306,095	172,348	0,117	-0,122
-305,080	-1,271	-0,054	-0,028
-304,066	-200,000	-0,022	-0,154
-303,051	-144,818	-0,093	-0,006
-302,037	58,646	-0,068	0,049
-301,022	-22,578	-0,105	0,046
-300,008	6,753	0,065	0,035
-298,993	800,000	0,044	0,128
-297,978	-25,916	-0,086	-0,036
-296,964	-200,000	0,023	-0,105
-295,949	146,741	-0,052	-0,051
-294,935	-127,997	-0,011	-0,001
-293,920	59,372	-0,147	0,105
-292,905	-92,495	0,108	0,022
-291,891	-200,000	-0,003	0,148
-290,876	-200,000	-0,014	-0,093
-289,862	122,585	0,035	0,032
-288,847	766,156	-0,050	0,098
-287,832	68,113	-0,089	0,066
-286,818	9,840	-0,021	0,012
-285,803	-57,676	-0,033	0,010
-284,789	-44,973	-0,148	-0,053
-283,774	-74,006	-0,026	-0,007
-282,759	-200,000	0,024	0,124
-281,745	800,000	-0,024	0,057
-280,730	381,720	-0,042	-0,063
-279,716	-139,176	-0,154	-0,012
-278,701	800,000	0,029	0,071
-277,686	-47,463	-0,027	0,009
-276,672	44,896	0,051	0,034
-275,657	1,663	-0,054	-0,028
-274,643	723,130	-0,033	-0,064
-273,628	800,000	0,037	-0,079
-272,613	5,343	-0,107	0,057
-271,599	-123,304	0,051	-0,006
-270,584	-200,000	-0,001	0,017
-269,570	283,122	0,031	0,040
-268,555	455,918	-0,040	-0,064
-267,540	-86,650	0,051	0,011
-266,526	-200,000	-0,004	-0,039
-265,511	72,443	0,064	0,048
-264,497	-170,833	0,082	0,002
-263,482	-200,000	-0,007	-0,106
-262,467	702,535	0,040	-0,076
-261,453	-64,915	0,074	0,021
-260,438	-121,077	-0,124	0,015
-259,424	-124,663	-0,118	0,013
-258,409	219,178	0,028	0,032
-257,395	-93,724	0,139	0,028
-256,380	-100,097	-0,072	-0,013
-255,365	151,298	0,049	0,048
-254,351	800,000	-0,012	-0,025
-253,336	-49,050	0,092	-0,032
-252,322	17,075	0,094	0,054
-251,307	0,304	-0,085	-0,044
-250,292	-200,000	-0,002	-0,036
-249,278	236,090	0,039	-0,047
-248,263	141,019	-0,063	0,060
-247,249	-176,708	0,066	0,001
-246,234	-200,000	0,005	-0,116
-245,219	-100,010	0,073	0,013
-244,205	14,666	0,152	-0,086
-243,190	317,579	-0,029	0,040
-242,176	-42,291	0,107	-0,039
-241,161	800,000	0,011	-0,031
-240,146	800,000	-0,012	-0,030
-239,132	-200,000	-0,011	-0,042
-238,117	800,000	-0,054	-0,112
-237,103	-33,131	-0,129	-0,051
-236,088	31,168	0,035	0,022
-235,073	239,768	-0,066	0,080
-234,059	699,625	0,032	0,061
-233,044	26,613	0,079	-0,048
-232,030	160,125	-0,034	-0,034
-231,015	331,777	-0,056	-0,078
-230,000	-135,787	-0,071	-0,006
-228,986	-200,000	-0,008	0,087
-227,971	-200,000	-0,001	0,107
-226,957	800,000	-0,038	-0,111
-225,942	-98,400	-0,115	0,021
-224,927	-200,000	-0,026	0,124
-223,913	-200,000	-0,008	0,048
-222,898	-77,739	-0,078	0,019
-221,884	-111,561	0,102	-0,015
-220,869	104,044	0,096	-0,082
-219,855	-122,158	0,065	0,008
-218,840	293,704	0,049	-0,065
-217,825	105,180	-0,046	-0,039
-216,811	49,617	-0,047	-0,032
-215,796	357,439	-0,094	-0,136
-214,782	-110,890	0,064	-0,009
-213,767	2,073	-0,033	0,017
-212,752	-16,330	0,071	0,033
-211,738	-69,288	0,084	-0,023
-210,723	800,000	0,026	0,068
-209,709	77,860	-0,105	-0,080
-208,694	-86,482	-0,049	0,011
-207,679	800,000	0,088	-0,254
-206,665	132,671	-0,070	0,065
-205,650	800,000	0,007	-0,017
-204,636	800,000	0,018	-0,051
-203,621	477,982	0,028	-0,046
-202,606	676,198	-0,030	0,056
-201,592	-200,000	-0,020	-0,125
-200,577	233,570	-0,065	-0,078
-199,563	-124,617	-0,127	0,014
-198,548	-200,000	0,003	0,132
-197,533	-21,624	0,063	-0,027
-196,519	-57,373	-0,076	-0,024
-195,504	-84,655	-0,023	-0,005
-194,490	59,101	-0,027	0,019
-193,475	272,089	-0,048	0,061
-192,460	-111,249	-0,107	0,016
-191,446	-108,111	0,021	-0,003
-190,431	-200,000	-0,004	-0,026
-189,417	800,000	0,062	0,133
-188,402	200,594	0,049	0,055
-187,387	70,780	0,018	0,014
-186,373	10,156	-0,090	-0,049
-185,358	633,832	0,019	-0,035
-184,344	102,617	0,006	-0,005
-183,329	-93,732	0,079	-0,016
-182,315	253,075	0,055	0,068
-181,300	-26,216	0,119	0,050
-180,285	115,446	-0,186	-0,164
-179,271	-57,393	-0,120	0,038
-178,256	99,049	-0,066	-0,055
-177,242	-52,400	0,044	-0,015
-176,227	800,000	0,018	0,037
-175,212	538,094	-0,039	-0,067
-174,198	354,463	-0,060	-0,086
-173,183	-43,678	-0,026	-0,009
-172,169	406,988	0,075	-0,114
-171,154	91,601	0,051	-0,041
-170,139	74,474	0,053	-0,040
-169,125	-71,348	-0,060	0,016
-168,110	64,941	0,099	0,072
-167,096	176,669	0,060	-0,063
-166,081	57,193	-0,077	-0,054
-165,066	-84,555	-0,046	-0,010
-164,052	-200,000	-0,001	0,052
-163,037	800,000	0,028	0,062
-162,023	-4,254	-0,077	0,038
-161,008	-26,018	0,129	-0,055
-159,993	211,919	0,119	-0,135
-158,979	-200,000	0,032	-0,135
-157,964	-115,897	-0,093	0,012
-156,950	220,161	0,026	0,030
-155,935	800,000	-0,077	-0,164
-154,920	-200,000	0,012	0,081
-153,906	-10,844	0,091	0,043
-152,891	-200,000	-0,029	0,103
-151,877	236,258	-0,035	0,042
-150,862	189,134	-0,029	-0,031
-149,847	-34,833	0,027	0,011
-148,833	-80,871	-0,021	-0,005
-147,818	-200,000	-0,039	0,180
-146,804	408,847	-0,076	0,116
-145,789	800,000	-0,018	0,038
-144,775	-99,867	0,011	-0,002
-143,760	77,261	0,071	-0,054
-142,745	-15,553	0,057	-0,026
-141,731	-161,296	0,103	0,004
-140,716	-174,420	-0,093	-0,002
-139,702	-73,983	0,116	0,030
-138,687	109,395	-0,083	0,072
-137,672	-200,000	-0,003	0,079
-136,658	-97,506	-0,126	-0,023
-135,643	-200,000	0,026	-0,131
-134,629	-158,713	0,116	0,005
-133,614	-130,160	0,074	-0,007
-132,599	-47,946	-0,052	0,018
-131,585	201,355	-0,075	0,083
-130,570	-153,533	-0,076	-0,004
-129,556	-122,331	-0,162	0,019
-128,541	-200,000	0,007	-0,062
-127,526	70,642	-0,081	0,060
-126,512	-200,000	0,012	-0,058
-125,497	-122,067	0,055	0,006
-124,483	-129,400	-0,111	-0,011
-123,468	449,056	-0,112	0,179
-122,453	380,981	0,096	-0,142
-121,439	800,000	-0,038	-0,090
-120,424	800,000	0,024	0,049
-119,410	800,000	-0,042	0,084
-118,395	-41,356	0,123	0,045
