DTS Sentinel unit serial number:	SN410029Multiplexer serial number:	ORYXHardware model number:	OX2-SRSoftware version number:	ORYX F/W v4,00 Oryx Data Collector v3.7.2.0data status	okinstallation	B5 Nyhavnadifferential loss correction	single-endedforward channel	channel 2reverse channel	N/Adate	2023/12/14time	19:17:13forward acquisition time	300,00reverse acquisition time	0,00gamma	499,1914k internal	0,3156k external	0,3156temperature offset calibration	1,0000default loss term (dB/km)	0,3820temperature slope calibration	1,0000multiplexer offset coefficient	1,0000multiplexer slope coefficient	1,0000fibre end	0,00T internal ref (°C)	8,82T ext. ref 1 (°C)	-5,79T ext. ref 2 (°C)	-5,84length (m)	temperature (°C)	Stokes	anti-Stokes-744,400	-126,325	0,120	0,013
-743,385	-78,688	-0,248	-0,062
-742,371	800,000	0,060	0,150
-741,356	-132,775	-0,321	0,030
-740,342	-200,000	0,030	0,200
-739,327	-19,393	-0,236	0,108
-738,312	-149,552	0,031	-0,002
-737,298	-123,446	-0,359	-0,042
-736,283	-92,263	0,152	0,031
-735,269	-99,101	-0,281	0,052
-734,254	-17,254	0,116	0,054
-733,239	-19,449	-0,608	-0,277
-732,225	-42,784	0,265	0,099
-731,210	-200,000	-0,031	0,159
-730,196	-81,299	-0,081	-0,020
-729,181	-200,000	-0,003	0,016
-728,167	-62,076	-0,185	-0,057
-727,152	-200,000	0,019	-0,140
-726,137	11,712	-0,196	-0,111
-725,123	-40,972	0,061	-0,023
-724,108	175,220	-0,044	-0,047
-723,094	505,308	-0,085	0,147
-722,079	65,230	-0,060	-0,045
-721,064	23,253	-0,034	-0,021
-720,050	-200,000	-0,013	0,136
-719,035	-0,893	0,161	0,084
-718,021	-47,789	-0,129	0,046
-717,006	315,954	-0,058	-0,081
-715,991	-200,000	-0,010	-0,140
-714,977	115,994	-0,082	-0,074
-713,962	647,923	-0,054	-0,102
-712,948	670,726	-0,101	0,193
-711,933	-61,259	-0,064	0,020
-710,918	669,950	-0,046	-0,089
-709,904	-200,000	0,001	-0,017
-708,889	86,221	-0,074	-0,060
-707,875	800,000	-0,039	-0,123
-706,860	-200,000	0,005	0,117
-705,845	45,210	0,009	0,006
-704,831	-200,000	0,009	-0,048
-703,816	47,621	-0,061	0,042
-702,802	-200,000	-0,018	0,068
-701,787	504,122	-0,104	-0,178
-700,772	-156,796	-0,221	-0,010
-699,758	464,197	-0,041	-0,068
-698,743	-155,365	-0,055	0,003
-697,729	3,073	-0,015	0,008
-696,714	85,747	0,049	-0,039
-695,699	-200,000	0,009	0,100
-694,685	-72,303	0,079	0,021
-693,670	37,307	-0,091	0,059
-692,656	-200,000	-0,023	-0,095
-691,641	-200,000	-0,017	-0,122
-690,627	151,273	-0,048	0,048
-689,612	800,000	0,039	-0,123
-688,597	-200,000	-0,021	0,082
-687,583	-25,325	-0,114	0,050
-686,568	-56,947	-0,038	-0,012
-685,554	-200,000	-0,025	-0,165
-684,539	297,265	0,052	0,071
-683,524	63,966	0,022	-0,017
-682,510	108,706	0,060	0,052
-681,495	800,000	0,007	0,022
-680,481	330,248	-0,162	-0,230
-679,466	116,109	-0,068	-0,062
-678,451	322,338	0,036	-0,050
-677,437	-49,824	-0,057	-0,020
-676,422	-58,466	0,073	0,023
-675,408	-192,976	0,110	-0,001
-674,393	-25,601	-0,031	-0,014
-673,378	800,000	-0,049	-0,141
-672,364	-38,671	-0,092	-0,036
-671,349	-57,267	-0,063	-0,020
-670,335	-60,934	0,101	0,031
-669,320	-155,700	-0,127	0,006
-668,305	8,789	0,023	0,013
-667,291	800,000	0,012	-0,031
-666,276	-140,491	-0,085	-0,006
-665,262	-200,000	-0,032	-0,153
-664,247	800,000	-0,040	0,103
-663,232	-100,242	-0,027	-0,005
-662,218	104,985	-0,072	-0,062
-661,203	-17,597	-0,057	-0,026
-660,189	379,956	0,038	-0,057
-659,174	-200,000	-0,012	0,084
-658,159	-54,676	-0,164	0,054
-657,145	57,466	-0,115	-0,082
-656,130	-82,480	-0,170	0,040
-655,116	800,000	-0,020	-0,049
-654,101	800,000	0,045	0,140
-653,086	-80,637	0,222	-0,054
-652,072	81,835	0,110	-0,087
-651,057	323,830	-0,111	-0,156
-650,043	-77,122	0,067	0,017
-649,028	-15,114	-0,006	0,003
-648,014	-31,160	0,088	-0,036
-646,999	-199,852	0,104	0,000
-645,984	16,372	-0,170	-0,099
-644,970	-200,000	-0,002	0,017
-643,955	39,063	-0,132	0,087
-642,941	38,609	-0,069	-0,045
-641,926	-15,260	-0,038	-0,018
-640,911	508,879	0,041	-0,071
-639,897	16,399	-0,188	0,109
-638,882	800,000	-0,060	-0,133
-637,868	-117,266	-0,131	-0,017
-636,853	771,275	-0,059	-0,118
-635,838	-200,000	-0,029	-0,183
-634,824	-8,420	-0,057	0,028
-633,809	-200,000	0,012	-0,070
-632,795	115,407	0,069	-0,062
-631,780	-54,438	-0,138	0,046
-630,765	566,921	0,050	-0,089
-629,751	-70,967	-0,089	-0,025
-628,736	800,000	0,038	-0,114
-627,722	800,000	0,007	-0,021
-626,707	-192,199	-0,120	-0,001
-625,692	31,666	0,163	0,103
-624,678	-200,000	0,041	0,139
-623,663	-200,000	0,019	0,082
-622,649	27,163	-0,100	0,061
-621,634	232,701	-0,030	-0,036
-620,619	-200,000	-0,019	-0,117
-619,605	-200,000	-0,022	0,083
-618,590	371,816	-0,040	0,060
-617,576	430,882	0,037	0,058
-616,561	28,063	-0,024	-0,015
-615,546	92,041	-0,054	-0,044
-614,532	-47,270	-0,178	-0,063
-613,517	76,823	0,024	0,018
-612,503	-169,459	-0,084	-0,002
-611,488	160,238	0,080	-0,082
-610,474	187,159	-0,094	0,103
-609,459	-200,000	0,004	0,064
-608,444	-172,050	-0,086	0,002
-607,430	-200,000	-0,001	0,021
-606,415	14,398	0,062	-0,035
-605,401	-200,000	-0,027	-0,110
-604,386	67,447	-0,121	-0,090
-603,371	770,212	0,028	0,056
-602,357	-200,000	0,032	0,115
-601,342	-200,000	-0,007	0,026
-600,328	-200,000	-0,011	-0,063
-599,313	-86,806	-0,097	0,022
-598,298	100,302	-0,045	-0,039
-597,284	-81,284	0,042	-0,010
-596,269	800,000	0,012	0,028
-595,255	-200,000	0,027	-0,096
-594,240	223,602	-0,054	-0,064
-593,225	-200,000	-0,001	-0,077
-592,211	-200,000	0,000	-0,011
-591,196	800,000	0,028	0,088
-590,182	-200,000	-0,004	0,031
-589,167	95,011	0,062	0,052
-588,152	427,475	-0,023	-0,037
-587,138	-200,000	-0,019	-0,123
-586,123	800,000	0,022	-0,050
-585,109	-200,000	0,003	0,017
-584,094	-150,630	-0,040	0,002
-583,079	-200,000	0,022	0,189
-582,065	263,288	-0,045	0,057
-581,050	-60,126	0,116	-0,036
-580,036	19,681	0,075	0,044
-579,021	-9,902	0,026	0,013
-578,006	800,000	0,024	-0,068
-576,992	-109,595	-0,066	-0,010
-575,977	-200,000	-0,013	-0,088
-574,963	18,841	0,073	0,043
-573,948	-200,000	0,016	0,081
-572,934	-42,883	0,104	0,039
-571,919	800,000	-0,065	-0,143
-570,904	-34,732	-0,082	-0,033
-569,890	343,230	0,042	-0,060
-568,875	-67,310	0,118	0,034
-567,861	38,950	0,140	0,091
-566,846	357,669	-0,005	0,008
-565,831	-113,338	-0,122	-0,017
-564,817	-73,289	-0,052	-0,014
-563,802	492,294	0,083	-0,140
-562,788	-200,000	-0,013	-0,070
-561,773	49,477	0,038	0,026
-560,758	-200,000	-0,015	0,131
-559,744	338,667	-0,056	0,079
-558,729	223,828	0,086	0,102
-557,715	-47,387	-0,105	0,037
-556,700	-90,437	0,061	0,013
-555,685	-43,055	-0,139	-0,051
-554,671	-200,000	-0,015	-0,100
-553,656	432,883	0,067	0,107
-552,642	496,881	0,056	-0,095
-551,627	47,508	0,171	0,117
-550,612	800,000	0,051	0,137
-549,598	-160,512	-0,122	-0,005
-548,583	241,560	0,049	0,059
-547,569	335,972	0,035	0,049
-546,554	179,316	-0,079	0,085
-545,539	-79,595	0,080	-0,020
-544,525	286,398	-0,055	-0,073
-543,510	-98,284	-0,210	-0,039
-542,496	268,666	0,063	-0,080
-541,481	-33,149	0,085	0,034
-540,466	122,635	0,016	0,015
-539,452	-200,000	0,030	-0,164
-538,437	-200,000	0,061	-0,234
-537,423	51,282	0,101	0,070
-536,408	-90,128	-0,066	0,014
-535,393	-200,000	-0,084	0,000
-534,379	800,000	-0,048	-0,112
-533,364	-200,000	-0,023	-0,117
-532,350	-139,739	0,038	-0,003
-531,335	-200,000	0,002	-0,021
-530,321	438,569	-0,096	0,154
-529,306	-200,000	0,003	-0,040
-528,291	800,000	-0,057	-0,133
-527,277	70,601	0,113	-0,086
-526,262	158,543	0,026	-0,026
-525,248	-113,381	0,083	-0,012
-524,233	96,730	0,040	-0,034
-523,218	-0,834	-0,023	-0,012
-522,204	-44,182	0,081	0,029
-521,189	-200,000	-0,016	0,061
-520,175	132,538	-0,102	-0,096
-519,160	254,674	0,037	-0,046
-518,145	800,000	0,028	0,060
-517,131	-121,209	0,104	-0,013
-516,116	-200,000	0,007	0,120
-515,102	-48,874	0,061	-0,021
-514,087	182,725	-0,066	-0,071
-513,072	-108,656	-0,031	0,005
-512,058	-142,438	0,110	-0,008
-511,043	-200,000	0,030	-0,130
-510,029	267,252	0,040	-0,052
-509,014	-200,000	0,014	-0,085
-507,999	45,878	0,168	-0,114
-506,985	-200,000	-0,026	-0,166
-505,970	-7,334	-0,075	-0,037
-504,956	-47,787	0,034	-0,012
-503,941	800,000	-0,039	0,091
-502,926	-200,000	0,012	0,200
-501,912	-98,009	0,073	0,014
-500,897	-47,505	0,125	0,044
-499,883	-44,797	-0,147	0,053
-498,868	16,989	-0,036	-0,021
-497,853	-14,442	0,051	0,024
-496,839	44,783	-0,097	0,065
-495,824	67,423	0,081	-0,060
-494,810	-133,739	-0,084	-0,008
-493,795	-200,000	-0,008	0,041
-492,781	502,004	-0,082	0,139
-491,766	-200,000	0,044	-0,197
-490,751	-200,000	-0,030	-0,149
-489,737	800,000	0,030	0,063
-488,722	24,425	-0,055	0,033
-487,708	537,972	0,051	0,089
-486,693	44,056	0,109	-0,073
-485,678	40,655	-0,062	-0,041
-484,664	-17,084	0,068	0,031
-483,649	-32,515	0,134	-0,054
-482,635	77,963	0,037	0,029
-481,620	-13,560	-0,053	0,025
-480,605	9,915	0,021	0,011
-479,591	395,036	-0,004	0,005
-478,576	31,368	0,082	0,051
-477,562	79,105	-0,053	-0,041
-476,547	461,083	-0,050	-0,082
-475,532	800,000	0,019	-0,043
-474,518	-200,000	0,001	0,115
-473,503	368,157	-0,011	0,017
-472,489	-14,569	0,058	0,027
-471,474	800,000	-0,051	0,118
-470,459	21,769	-0,046	-0,027
-469,445	349,169	0,020	0,029
-468,430	-45,560	-0,047	0,017
-467,416	98,379	0,075	0,063
-466,401	-35,345	0,107	0,042
-465,386	-85,963	-0,080	0,018
-464,372	-200,000	0,010	0,072
-463,357	-81,164	0,081	0,019
-462,343	-80,869	-0,051	0,012
-461,328	-200,000	-0,001	0,117
-460,313	126,447	0,114	0,105
-459,299	163,115	0,027	0,027
-458,284	-200,000	-0,027	0,100
-457,270	-103,864	-0,074	-0,013
-456,255	800,000	0,021	-0,060
-455,241	12,849	0,129	-0,073
-454,226	-200,000	0,004	-0,017
-453,211	268,958	0,023	-0,030
-452,197	-200,000	-0,001	0,058
-451,182	228,149	0,069	-0,083
-450,168	661,381	0,034	0,064
-449,153	-200,000	0,024	-0,153
-448,138	-58,781	-0,123	0,038
-447,124	-200,000	0,009	-0,031
-446,109	800,000	0,030	-0,069
-445,095	315,056	0,087	-0,119
-444,080	204,917	0,046	0,052
-443,065	800,000	-0,007	0,018
-442,051	5,754	0,105	0,057
-441,036	92,188	-0,076	-0,063
-440,022	234,019	-0,020	0,024
-439,007	95,542	-0,051	0,042
-437,992	49,311	0,096	-0,065
-436,978	264,411	-0,032	-0,041
-435,963	800,000	-0,021	0,053
-434,949	-140,664	-0,118	-0,009
-433,934	-148,264	-0,138	0,008
-432,919	-38,488	-0,142	-0,055
-431,905	286,905	0,097	0,127
-430,890	124,716	-0,032	-0,029
-429,876	800,000	0,016	0,036
-428,861	-200,000	-0,007	-0,068
-427,846	-176,495	-0,044	0,001
-426,832	800,000	0,040	-0,094
-425,817	234,544	0,054	0,065
-424,803	-200,000	0,004	0,079
-423,788	800,000	0,024	0,056
-422,773	315,387	0,109	0,151
-421,759	-200,000	0,000	0,031
-420,744	-160,321	0,076	-0,003
-419,730	137,192	-0,036	-0,034
-418,715	-200,000	-0,007	-0,104
-417,701	153,460	0,071	0,071
-416,686	172,637	0,123	0,129
-415,671	-48,813	-0,098	-0,034
-414,657	189,812	0,058	0,063
-413,642	24,703	0,062	0,037
-412,628	265,706	-0,047	0,059
-411,613	-46,251	0,040	0,014
-410,598	22,876	-0,089	0,053
-409,584	74,585	0,045	-0,034
-408,569	-102,871	0,042	-0,007
-407,555	-4,259	0,052	0,026
-406,540	50,807	-0,046	0,032
-405,525	-90,632	-0,165	-0,034
-404,511	800,000	0,009	0,023
-403,496	-39,921	-0,137	-0,052
-402,482	-200,000	-0,010	-0,066
-401,467	-200,000	-0,002	0,078
-400,452	-58,860	0,186	0,058
-399,438	-200,000	0,008	-0,043
-398,423	800,000	-0,013	-0,038
-397,409	39,630	0,026	0,017
-396,394	-31,918	0,049	0,020
-395,379	-81,488	0,038	-0,009
-394,365	-49,109	0,138	0,048
-393,350	59,742	-0,052	0,037
-392,336	32,505	-0,048	-0,030
-391,321	495,256	0,045	-0,076
-390,306	466,666	-0,006	-0,010
-389,292	599,510	-0,084	-0,153
-388,277	398,700	0,035	-0,054
-387,263	-105,217	0,081	-0,013
-386,248	482,383	-0,050	0,082
-385,233	-200,000	-0,011	0,126
-384,219	-200,000	-0,012	0,051
-383,204	800,000	-0,041	-0,088
-382,190	-200,000	0,028	-0,163
-381,175	241,811	0,024	-0,029
-380,160	473,632	0,013	-0,021
-379,146	-200,000	-0,006	0,123
-378,131	-200,000	-0,024	0,147
-377,117	781,881	0,011	-0,023
-376,102	-14,719	-0,108	-0,050
-375,088	800,000	0,014	0,043
-374,073	159,115	-0,057	0,058
-373,058	243,316	0,084	-0,102
-372,044	-38,811	0,050	-0,019
-371,029	-102,290	0,067	0,011
-370,015	-200,000	-0,010	0,076
-369,000	-200,000	-0,026	-0,093
-367,985	-200,000	0,007	0,100
-366,971	329,134	-0,058	-0,082
-365,956	-200,000	-0,004	0,081
-364,942	-6,198	0,120	0,059
-363,927	4,273	-0,077	0,041
-362,912	-72,644	0,120	0,032
-361,898	-200,000	0,051	-0,173
-360,883	49,679	-0,130	-0,089
-359,869	67,998	-0,032	0,024
-358,854	800,000	0,077	-0,191
-357,839	409,294	0,059	-0,092
-356,825	-27,473	0,056	0,024
-355,810	20,032	0,067	-0,039
-354,796	258,298	-0,054	-0,068
-353,781	-90,289	-0,027	-0,006
-352,766	326,995	-0,080	-0,112
-351,752	135,470	-0,042	-0,040
-350,737	-200,000	-0,009	-0,032
-349,723	-57,690	-0,143	0,045
-348,708	-110,471	-0,098	-0,015
-347,693	361,688	-0,080	0,117
-346,679	-32,996	0,113	-0,046
-345,664	2,032	-0,083	-0,043
-344,650	92,691	0,129	-0,106
-343,635	-193,142	0,142	-0,001
-342,620	-125,935	-0,097	0,011
-341,606	-33,552	-0,109	-0,043
-340,591	-100,100	-0,085	-0,015
-339,577	-200,000	0,001	-0,039
-338,562	76,398	-0,042	0,032
-337,548	316,873	-0,047	-0,065
-336,533	-36,919	0,105	0,041
-335,518	-200,000	0,024	0,094
-334,504	800,000	0,094	0,205
-333,489	456,241	0,033	0,053
-332,475	42,145	-0,116	-0,076
-331,460	-200,000	-0,007	-0,042
-330,445	195,025	0,032	-0,035
-329,431	800,000	0,018	-0,044
-328,416	-58,628	-0,106	-0,033
-327,402	172,344	0,076	-0,080
-326,387	212,565	-0,070	-0,081
-325,372	-200,000	-0,021	0,147
-324,358	-119,948	0,077	-0,009
-323,343	-30,425	-0,049	-0,020
-322,329	-200,000	-0,020	-0,199
-321,314	413,180	-0,016	-0,026
-320,299	800,000	0,053	0,109
-319,285	5,394	-0,067	-0,036
-318,270	16,546	-0,120	0,069
-317,256	-200,000	0,025	-0,106
-316,241	255,252	-0,099	-0,123
-315,226	-103,296	0,160	0,027
-314,212	-200,000	0,001	0,212
-313,197	800,000	-0,075	0,154
-312,183	-200,000	-0,011	0,061
-311,168	331,518	0,034	-0,048
-310,153	-76,096	0,120	0,031
-309,139	249,649	-0,066	0,081
-308,124	387,446	0,021	0,032
-307,110	-200,000	0,006	0,126
-306,095	800,000	-0,014	-0,037
-305,080	400,740	-0,022	0,034
-304,066	328,401	0,042	0,058
-303,051	-28,979	0,088	0,037
-302,037	7,899	-0,166	-0,090
-301,022	-200,000	0,003	0,029
-300,008	-200,000	0,027	0,262
-298,993	800,000	-0,040	0,098
-297,978	-157,994	0,076	0,003
-296,964	450,986	-0,025	-0,040
-295,949	-200,000	0,007	0,037
-294,935	-53,054	-0,069	-0,023
-293,920	56,863	0,106	-0,075
-292,905	800,000	0,032	0,095
-291,891	595,120	-0,049	0,089
-290,876	800,000	-0,032	-0,068
-289,862	152,307	0,078	0,077
-288,847	-86,613	-0,056	0,012
-287,832	-200,000	0,003	-0,083
-286,818	800,000	-0,031	0,071
-285,803	800,000	0,046	0,100
-284,789	800,000	-0,038	-0,085
-283,774	-90,410	-0,083	0,017
-282,759	-140,931	0,103	0,008
-281,745	74,772	-0,135	-0,103
-280,730	362,975	0,034	-0,050
-279,716	-200,000	-0,001	-0,124
-278,701	788,744	0,004	0,008
-277,686	800,000	-0,034	0,091
-276,672	65,401	0,074	-0,054
-275,657	363,318	-0,033	-0,048
-274,643	-200,000	-0,013	-0,084
-273,628	-200,000	-0,027	-0,125
-272,613	170,320	-0,077	-0,080
-271,599	122,503	0,039	-0,035
-270,584	-200,000	0,006	-0,127
-269,570	340,403	-0,095	0,134
-268,555	144,277	-0,062	0,059
-267,540	206,522	-0,100	-0,113
-266,526	435,181	-0,054	-0,085
-265,511	19,521	0,081	-0,047
-264,497	800,000	-0,068	-0,150
-263,482	498,758	0,059	0,099
-262,467	-36,705	-0,086	0,033
-261,453	-150,038	-0,110	0,006
-260,438	-200,000	0,013	-0,133
-259,424	144,869	-0,030	-0,029
-258,409	-200,000	-0,005	-0,199
-257,395	-17,236	-0,169	0,077
-256,380	73,816	0,069	0,053
-255,365	-185,318	0,104	0,001
-254,351	80,696	0,062	-0,048
-253,336	-200,000	0,012	-0,090
-252,322	-200,000	-0,022	-0,118
-251,307	-200,000	0,015	0,079
-250,292	374,776	0,012	0,017
-249,278	79,197	0,136	0,105
-248,263	-20,338	0,021	0,009
-247,249	206,115	0,027	-0,030
-246,234	-16,210	-0,148	-0,068
-245,219	-28,476	-0,109	0,045
-244,205	-0,521	0,146	-0,075
-243,190	249,092	0,051	0,062
-242,176	800,000	-0,058	0,137
-241,161	-200,000	0,001	0,013
-240,146	-200,000	0,018	0,184
-239,132	800,000	0,037	0,077
-238,117	712,835	-0,089	-0,171
-237,103	10,194	0,080	0,044
-236,088	177,394	0,027	0,028
-235,073	-45,378	-0,068	-0,024
-234,059	800,000	-0,024	-0,073
-233,044	800,000	0,040	0,115
-232,030	34,424	0,052	0,033
-231,015	-87,417	0,049	0,011
-230,000	-49,689	-0,087	0,030
-228,986	93,836	-0,073	-0,060
-227,971	-200,000	-0,007	0,046
-226,957	-29,469	0,052	0,021
-225,942	800,000	0,049	0,136
-224,927	-200,000	0,012	-0,113
-223,913	771,116	0,010	0,021
-222,898	800,000	-0,048	-0,127
-221,884	298,780	-0,026	0,034
-220,869	-200,000	0,009	0,101
-219,855	88,115	0,039	-0,031
-218,840	165,105	0,039	-0,040
-217,825	-108,933	-0,099	0,015
-216,811	540,973	0,081	-0,139
-215,796	316,195	-0,077	0,106
-214,782	123,036	0,077	0,069
-213,767	-19,867	0,196	0,087
-212,752	186,227	-0,088	0,095
-211,738	134,586	0,152	0,143
-210,723	800,000	0,085	0,192
-209,709	40,178	-0,090	-0,058
-208,694	24,061	0,091	0,054
-207,679	800,000	-0,040	-0,089
-206,665	237,865	0,069	0,083
-205,650	358,209	0,050	0,073
-204,636	590,982	0,017	-0,030
-203,621	-143,236	-0,068	0,005
-202,606	-99,500	0,028	-0,005
-201,592	800,000	-0,038	0,096
-200,577	65,020	0,015	-0,011
-199,563	800,000	0,002	-0,005
-198,548	-200,000	0,027	0,114
-197,533	-200,000	-0,015	0,099
-196,519	800,000	0,036	-0,073
-195,504	442,103	0,071	0,112
-194,490	800,000	0,044	-0,094
-193,475	-200,000	-0,014	0,134
-192,460	563,228	-0,106	-0,186
-191,446	141,046	0,066	0,063
-190,431	-58,894	0,028	-0,009
-189,417	251,196	-0,022	-0,027
-188,402	-200,000	-0,018	-0,086
-187,387	-200,000	-0,027	-0,128
-186,373	-121,781	0,047	-0,006
-185,358	-200,000	0,013	0,069
-184,344	469,917	0,008	0,013
-183,329	-86,278	0,143	-0,031
-182,315	486,633	-0,102	0,168
-181,300	170,137	-0,060	-0,062
-180,285	109,886	-0,054	-0,047
-179,271	-74,158	-0,117	-0,030
-178,256	800,000	0,027	0,060
-177,242	-200,000	0,007	0,030
-176,227	-200,000	0,022	-0,104
-175,212	-86,486	0,121	0,027
-174,198	78,826	-0,096	-0,074
-173,183	101,303	-0,090	-0,076
-172,169	800,000	0,013	0,034
-171,154	-103,101	-0,066	0,011
-170,139	-200,000	-0,039	0,162
-169,125	224,962	0,041	-0,048
-168,110	397,317	-0,048	0,072
-167,096	671,916	0,073	0,136
-166,081	155,036	0,076	0,076
-165,066	-200,000	0,001	-0,109
-164,052	44,633	-0,036	-0,024
-163,037	-152,715	0,085	0,004
-162,023	-140,169	0,079	0,006
-161,008	-200,000	-0,037	0,175
-159,993	800,000	0,071	0,217
-158,979	259,201	-0,046	-0,057
-157,964	215,604	-0,088	-0,101
-156,950	-200,000	0,012	-0,052
-155,935	-93,551	0,023	0,005
-154,920	-14,384	0,034	0,016
-153,906	-15,305	0,011	-0,005
-152,891	321,396	-0,054	-0,074
-151,877	800,000	0,030	-0,066
-150,862	-200,000	-0,021	-0,176
-149,847	99,506	-0,073	0,061
-148,833	-200,000	-0,017	-0,103
-147,818	686,255	0,066	0,124
-146,804	800,000	0,053	0,121
-145,789	-200,000	0,001	-0,092
-144,775	48,865	-0,030	0,020
-143,760	-42,793	-0,127	-0,046
-142,745	189,289	0,072	-0,078
-141,731	509,136	-0,023	0,039
-140,716	-134,672	0,031	0,003
-139,702	-200,000	-0,026	0,120
-138,687	800,000	-0,020	-0,051
-137,672	-70,361	-0,080	-0,022
-136,658	-102,665	-0,072	0,012
-135,643	145,007	0,043	-0,041
-134,629	-77,207	-0,068	-0,017
-133,614	-72,967	0,065	-0,017
-132,599	154,711	-0,087	0,086
-131,585	470,523	0,030	0,049
-130,570	-200,000	0,005	0,020
-129,556	73,047	-0,028	0,021
-128,541	694,410	-0,096	0,182
-127,526	-6,752	-0,043	0,021
-126,512	-106,429	-0,032	-0,005
-125,497	113,727	-0,037	0,032
-124,483	800,000	-0,030	0,071
-123,468	800,000	-0,041	0,104
-122,453	98,858	-0,082	0,068
-121,439	-58,162	0,056	0,017
-120,424	-167,342	-0,085	-0,002
-119,410	-85,889	0,017	0,004
-118,395	-200,000	0,029	0,141
