DTS Sentinel unit serial number:	SN410029Multiplexer serial number:	ORYXHardware model number:	OX2-SRSoftware version number:	ORYX F/W v4,00 Oryx Data Collector v3.7.2.0data status	okinstallation	B5 Nyhavnadifferential loss correction	single-endedforward channel	channel 2reverse channel	N/Adate	2023/12/13time	16:17:13forward acquisition time	300,00reverse acquisition time	0,00gamma	499,1914k internal	0,3160k external	0,3160temperature offset calibration	1,0000default loss term (dB/km)	0,3820temperature slope calibration	1,0000multiplexer offset coefficient	1,0000multiplexer slope coefficient	1,0000fibre end	0,00T internal ref (°C)	14,82T ext. ref 1 (°C)	-1,89T ext. ref 2 (°C)	-2,06length (m)	temperature (°C)	Stokes	anti-Stokes-744,400	800,000	0,039	0,087
-743,385	-141,424	-0,361	-0,027
-742,371	99,273	0,166	0,141
-741,356	-40,801	-0,202	-0,077
-740,342	316,943	0,064	0,089
-739,327	-131,746	-0,317	0,030
-738,312	-117,414	-0,093	0,012
-737,298	-87,739	-0,247	0,054
-736,283	764,923	-0,016	0,032
-735,269	-200,000	-0,360	0,001
-734,254	153,693	0,115	0,116
-733,239	-113,088	-0,481	-0,069
-732,225	-31,880	0,172	0,071
-731,210	-200,000	-0,011	-0,055
-730,196	-200,000	-0,006	-0,120
-729,181	197,262	-0,046	0,052
-728,167	-200,000	-0,013	-0,072
-727,152	205,319	0,051	-0,058
-726,137	-111,399	-0,132	-0,020
-725,123	-200,000	0,036	-0,206
-724,108	202,120	0,090	-0,102
-723,094	434,285	-0,074	-0,118
-722,079	182,465	-0,099	-0,108
-721,064	435,248	-0,045	-0,072
-720,050	-200,000	-0,009	0,043
-719,035	177,026	0,097	0,104
-718,021	-200,000	-0,018	-0,060
-717,006	800,000	-0,028	-0,057
-715,991	-95,963	-0,102	0,020
-714,977	-200,000	0,036	-0,227
-713,962	119,263	-0,099	-0,090
-712,948	83,823	-0,070	0,056
-711,933	-200,000	-0,010	-0,050
-710,918	11,317	0,051	0,029
-709,904	522,814	0,004	0,006
-708,889	232,872	0,151	-0,183
-707,875	-200,000	-0,034	-0,150
-706,860	-200,000	0,016	0,154
-705,845	72,395	0,104	-0,080
-704,831	-200,000	0,030	0,101
-703,816	9,215	0,019	0,010
-702,802	78,231	-0,082	-0,065
-701,787	176,536	-0,090	0,097
-700,772	-8,736	0,038	-0,019
-699,758	8,833	0,058	-0,032
-698,743	211,790	0,080	-0,092
-697,729	178,908	-0,062	0,067
-696,714	800,000	-0,087	0,197
-695,699	128,461	0,061	-0,058
-694,685	38,842	-0,066	0,043
-693,670	-89,285	-0,015	-0,003
-692,656	102,770	-0,110	-0,095
-691,641	800,000	-0,042	0,102
-690,627	178,707	0,109	0,117
-689,612	-200,000	-0,035	-0,190
-688,597	-200,000	0,004	-0,029
-687,583	-200,000	-0,006	-0,104
-686,568	-200,000	-0,000	-0,069
-685,554	-200,000	-0,000	-0,078
-684,539	-200,000	-0,001	-0,032
-683,524	293,365	0,037	-0,050
-682,510	-7,350	-0,073	-0,036
-681,495	-200,000	0,019	0,081
-680,481	478,365	-0,022	0,037
-679,466	-200,000	-0,045	-0,172
-678,451	45,118	-0,139	-0,094
-677,437	-200,000	-0,005	-0,057
-676,422	-104,369	0,107	-0,018
-675,408	44,296	-0,081	0,054
-674,393	-60,850	-0,085	0,026
-673,378	129,193	-0,125	-0,117
-672,364	-200,000	0,014	0,051
-671,349	79,939	-0,111	-0,087
-670,335	-200,000	-0,022	-0,118
-669,320	-32,019	0,081	-0,033
-668,305	-104,975	0,068	-0,011
-667,291	20,235	-0,062	-0,037
-666,276	-81,769	0,031	0,007
-665,262	-103,748	-0,064	0,011
-664,247	6,245	-0,072	0,039
-663,232	312,205	-0,054	0,075
-662,218	306,850	0,083	0,114
-661,203	-74,106	0,044	0,012
-660,189	800,000	-0,042	-0,095
-659,174	800,000	-0,097	-0,235
-658,159	31,781	0,053	0,033
-657,145	-200,000	-0,019	0,150
-656,130	-118,405	-0,149	-0,019
-655,116	800,000	0,033	0,091
-654,101	-73,593	-0,118	0,031
-653,086	113,375	-0,029	0,026
-652,072	209,487	-0,047	-0,054
-651,057	502,185	-0,083	-0,141
-650,043	14,163	-0,040	-0,023
-649,028	0,690	-0,044	0,023
-648,014	-61,488	0,150	0,046
-646,999	-111,625	0,185	0,027
-645,984	-107,254	-0,075	-0,012
-644,970	-116,546	-0,164	-0,022
-643,955	-19,187	0,130	-0,059
-642,941	417,226	-0,103	-0,162
-641,926	-169,395	0,053	-0,001
-640,911	-53,171	-0,027	0,009
-639,897	-43,284	0,168	0,062
-638,882	-24,459	0,067	0,029
-637,868	-36,913	-0,078	0,030
-636,853	-200,000	-0,015	0,137
-635,838	-1,441	0,024	0,013
-634,824	261,590	0,013	-0,017
-633,809	-130,649	-0,031	0,003
-632,795	153,909	0,075	0,076
-631,780	70,813	0,044	-0,034
-630,765	-200,000	-0,025	-0,081
-629,751	-200,000	0,004	-0,047
-628,736	-0,233	-0,063	-0,033
-627,722	800,000	0,022	-0,057
-626,707	429,479	0,057	0,091
-625,692	-90,939	-0,087	0,018
-624,678	-64,698	-0,078	0,023
-623,663	-107,794	-0,030	0,005
-622,649	-200,000	-0,013	0,123
-621,634	-32,605	-0,090	-0,036
-620,619	157,085	0,067	-0,068
-619,605	-77,609	0,054	-0,014
-618,590	-47,195	-0,075	0,027
-617,576	800,000	0,017	0,046
-616,561	-200,000	0,005	0,026
-615,546	-50,078	-0,029	-0,010
-614,532	-131,906	-0,063	0,006
-613,517	641,627	-0,040	-0,075
-612,503	-200,000	0,024	0,129
-611,488	-200,000	0,013	0,088
-610,474	26,165	0,036	0,022
-609,459	251,325	0,052	-0,065
-608,444	-200,000	-0,007	0,129
-607,430	255,379	-0,045	-0,057
-606,415	-91,817	0,080	0,017
-605,401	800,000	0,045	-0,111
-604,386	-155,595	0,125	-0,006
-603,371	800,000	-0,025	-0,066
-602,357	-200,000	-0,000	-0,031
-601,342	800,000	-0,037	0,076
-600,328	564,384	-0,026	-0,046
-599,313	800,000	-0,023	-0,058
-598,298	207,899	0,055	-0,063
-597,284	800,000	-0,045	0,132
-596,269	693,424	0,113	0,218
-595,255	714,020	-0,045	0,087
-594,240	29,993	-0,031	-0,019
-593,225	-104,585	-0,152	-0,025
-592,211	306,785	-0,110	-0,150
-591,196	800,000	-0,058	-0,147
-590,182	-55,267	0,141	-0,046
-589,167	800,000	0,033	-0,066
-588,152	-110,491	0,097	0,015
-587,138	-200,000	0,017	0,170
-586,123	-200,000	-0,009	-0,133
-585,109	-174,543	-0,174	-0,004
-584,094	-172,317	-0,174	-0,004
-583,079	326,928	-0,051	-0,072
-582,065	-82,695	0,052	0,012
-581,050	800,000	-0,049	0,114
-580,036	124,469	-0,014	0,013
-579,021	25,018	0,089	-0,054
-578,006	129,416	-0,198	-0,185
-576,992	140,613	0,009	-0,009
-575,977	-102,899	-0,097	0,017
-574,963	455,866	0,109	0,178
-573,948	167,603	-0,041	-0,042
-572,934	-21,401	0,121	0,054
-571,919	-200,000	-0,044	0,149
-570,904	49,202	-0,089	-0,061
-569,890	-200,000	0,003	0,122
-568,875	298,170	-0,017	-0,023
-567,861	800,000	0,051	0,103
-566,846	-63,095	0,062	-0,018
-565,831	105,783	-0,092	-0,079
-564,817	800,000	-0,045	-0,118
-563,802	-200,000	-0,013	-0,150
-562,788	-78,731	-0,064	0,016
-561,773	523,572	0,012	-0,021
-560,758	284,530	0,041	-0,054
-559,744	-38,969	-0,072	-0,027
-558,729	106,480	0,097	-0,084
-557,715	800,000	0,008	-0,018
-556,700	-200,000	-0,017	-0,104
-555,685	603,639	-0,039	-0,072
-554,671	-200,000	0,007	-0,087
-553,656	457,504	-0,048	0,078
-552,642	-200,000	0,007	0,108
-551,627	-200,000	0,008	0,121
-550,612	-200,000	0,008	0,120
-549,598	-200,000	-0,007	-0,040
-548,583	-59,715	-0,082	-0,026
-547,569	-5,991	0,106	0,053
-546,554	-27,014	-0,047	0,020
-545,539	-200,000	-0,001	-0,078
-544,525	-50,000	-0,088	0,030
-543,510	84,075	-0,080	-0,064
-542,496	800,000	-0,039	-0,103
-541,481	-136,844	-0,097	0,008
-540,466	504,386	0,016	0,027
-539,452	-101,656	-0,073	-0,013
-538,437	-87,161	0,076	0,017
-537,423	420,460	0,026	0,041
-536,408	-77,733	0,037	-0,009
-535,393	184,844	0,042	-0,046
-534,379	20,949	0,078	0,046
-533,364	352,758	-0,093	0,136
-532,350	171,301	0,110	0,115
-531,335	156,631	-0,075	0,076
-530,321	-200,000	0,003	0,098
-529,306	-151,349	0,123	0,007
-528,291	-200,000	0,001	-0,046
-527,277	-200,000	0,006	-0,170
-526,262	800,000	-0,050	0,131
-525,248	-200,000	-0,011	-0,113
-524,233	-200,000	0,004	0,039
-523,218	-200,000	-0,025	0,131
-522,204	6,959	-0,087	-0,047
-521,189	-80,511	-0,050	0,012
-520,175	-136,402	0,102	-0,009
-519,160	800,000	-0,043	0,091
-518,145	800,000	0,014	-0,036
-517,131	-85,335	-0,073	0,016
-516,116	417,801	0,051	0,080
-515,102	-200,000	0,004	-0,044
-514,087	800,000	0,017	-0,040
-513,072	800,000	-0,014	-0,030
-512,058	165,336	-0,056	0,057
-511,043	180,450	0,040	-0,043
-510,029	268,580	0,062	0,079
-509,014	-200,000	-0,030	0,157
-507,999	-200,000	-0,032	0,112
-506,985	792,748	-0,031	-0,063
-505,970	159,121	0,042	0,043
-504,956	-200,000	-0,024	-0,150
-503,941	-105,713	0,129	0,021
-502,926	137,082	0,045	-0,043
-501,912	800,000	0,022	-0,060
-500,897	-48,837	-0,034	-0,012
-499,883	104,568	0,087	0,075
-498,868	-200,000	0,001	-0,022
-497,853	-200,000	-0,008	-0,060
-496,839	800,000	0,072	-0,188
-495,824	-200,000	0,030	0,100
-494,810	544,507	-0,036	0,062
-493,795	-12,162	0,169	-0,080
-492,781	-85,131	-0,078	-0,018
-491,766	31,879	-0,126	-0,079
-490,751	-200,000	-0,011	-0,057
-489,737	-43,867	-0,073	-0,027
-488,722	-200,000	-0,015	0,093
-487,708	239,130	-0,001	-0,002
-486,693	-200,000	0,001	0,028
-485,678	138,618	-0,049	-0,047
-484,664	-200,000	-0,016	-0,135
-483,649	-200,000	-0,016	-0,136
-482,635	-200,000	0,011	-0,164
-481,620	-142,437	-0,032	0,002
-480,605	-200,000	-0,006	0,050
-479,591	407,317	-0,033	-0,052
-478,576	-200,000	-0,007	-0,100
-477,562	-200,000	0,005	-0,132
-476,547	-200,000	-0,006	0,085
-475,532	453,337	0,019	-0,031
-474,518	36,625	-0,087	-0,056
-473,503	225,417	0,084	0,099
-472,489	800,000	0,022	-0,057
-471,474	-200,000	0,011	0,118
-470,459	83,082	-0,107	-0,085
-469,445	181,802	-0,123	-0,132
-468,430	-70,963	0,055	-0,015
-467,416	-122,782	0,103	0,012
-466,401	162,969	-0,061	0,063
-465,386	-65,747	0,162	-0,047
-464,372	-98,682	0,108	0,020
-463,357	-200,000	-0,021	0,101
-462,343	-153,335	-0,026	0,001
-461,328	-200,000	0,031	0,102
-460,313	-200,000	-0,016	0,061
-459,299	173,346	0,034	0,035
-458,284	-200,000	0,011	0,172
-457,270	-200,000	0,028	0,136
-456,255	225,215	-0,089	0,105
-455,241	289,171	-0,060	0,080
-454,226	800,000	-0,056	0,138
-453,211	177,811	0,067	0,071
-452,197	800,000	-0,044	0,098
-451,182	-28,958	-0,107	0,045
-450,168	133,670	-0,093	0,087
-449,153	-200,000	-0,006	-0,070
-448,138	11,240	-0,134	-0,074
-447,124	-200,000	-0,010	0,137
-446,109	800,000	-0,021	-0,054
-445,095	-62,840	0,033	0,010
-444,080	-40,237	0,107	0,040
-443,065	800,000	-0,016	0,037
-442,051	400,285	-0,052	-0,079
-441,036	29,089	-0,101	-0,062
-440,022	-46,805	0,029	0,010
-439,007	100,128	-0,054	-0,046
-437,992	-200,000	-0,017	0,085
-436,978	-10,708	0,080	0,038
-435,963	800,000	-0,029	0,074
-434,949	-8,173	-0,048	-0,023
-433,934	800,000	0,025	-0,062
-432,919	800,000	0,045	-0,119
-431,905	745,237	-0,017	-0,033
-430,890	402,570	0,059	-0,090
-429,876	270,362	0,050	0,064
-428,861	113,264	-0,049	-0,043
-427,846	82,723	0,088	-0,070
-426,832	-200,000	0,024	-0,091
-425,817	-200,000	0,014	-0,049
-424,803	800,000	-0,055	0,112
-423,788	800,000	0,066	-0,138
-422,773	349,282	0,054	-0,078
-421,759	137,631	0,069	-0,065
-420,744	187,501	-0,126	-0,137
-419,730	-61,114	0,057	0,018
-418,715	37,355	-0,091	-0,059
-417,701	659,853	0,022	-0,042
-416,686	388,076	-0,047	-0,071
-415,671	3,809	0,114	0,060
-414,657	-126,958	0,208	0,022
-413,642	-49,614	-0,106	0,037
-412,628	800,000	-0,037	-0,079
-411,613	-200,000	0,000	-0,207
-410,598	227,272	-0,056	-0,067
-409,584	27,231	0,170	-0,103
-408,569	155,821	0,043	-0,044
-407,555	800,000	0,024	0,075
-406,540	-92,627	-0,079	0,016
-405,525	546,582	0,026	-0,045
-404,511	283,058	0,006	-0,008
-403,496	54,013	0,132	-0,092
-402,482	-200,000	-0,006	0,110
-401,467	177,105	0,066	0,070
-400,452	-200,000	-0,024	-0,217
-399,438	66,475	0,038	-0,028
-398,423	-56,908	-0,152	-0,048
-397,409	800,000	-0,039	0,095
-396,394	-73,374	-0,056	-0,015
-395,379	271,867	0,029	0,037
-394,365	111,760	-0,052	0,046
-393,350	408,192	0,085	-0,131
-392,336	176,261	-0,072	-0,076
-391,321	-149,701	-0,069	0,004
-390,306	-200,000	0,014	-0,179
-389,292	22,781	0,085	-0,051
-388,277	-29,509	0,125	0,052
-387,263	99,851	0,043	-0,036
-386,248	-200,000	0,006	-0,023
-385,233	-102,364	0,179	-0,031
-384,219	127,400	-0,087	0,080
-383,204	-26,851	-0,024	-0,010
-382,190	183,249	-0,051	-0,054
-381,175	-116,992	0,174	-0,023
-380,160	82,635	0,063	-0,049
-379,146	-200,000	-0,010	0,045
-378,131	-57,049	0,036	0,011
-377,117	-37,771	0,033	-0,013
-376,102	-200,000	-0,017	0,087
-375,088	-137,701	-0,064	-0,005
-374,073	164,805	-0,054	-0,055
-373,058	365,972	-0,062	-0,091
-372,044	-38,780	-0,084	0,032
-371,029	4,496	0,055	-0,029
-370,015	-200,000	-0,007	-0,069
-369,000	54,248	-0,016	-0,011
-367,985	800,000	-0,044	0,115
-366,971	28,184	-0,024	0,015
-365,956	55,532	-0,044	0,031
-364,942	780,980	0,016	-0,033
-363,927	800,000	0,044	0,105
-362,912	-85,865	0,092	-0,021
-361,898	-53,153	-0,154	-0,051
-360,883	711,127	-0,059	0,114
-359,869	7,486	0,007	0,004
-358,854	800,000	0,024	0,048
-357,839	16,895	0,058	0,033
-356,825	170,012	0,038	0,039
-355,810	-4,350	0,030	-0,015
-354,796	78,018	-0,102	-0,079
-353,781	-200,000	-0,001	-0,049
-352,766	-11,644	0,045	-0,022
-351,752	-137,019	0,017	0,001
-350,737	800,000	0,012	0,033
-349,723	279,808	-0,019	0,025
-348,708	735,627	0,031	-0,061
-347,693	-162,057	0,075	-0,003
-346,679	-200,000	-0,010	-0,071
-345,664	-200,000	0,016	-0,119
-344,650	324,699	-0,042	-0,059
-343,635	800,000	0,022	0,055
-342,620	-200,000	0,013	0,115
-341,606	-152,610	-0,064	0,003
-340,591	-23,742	0,130	0,056
-339,577	-200,000	-0,004	-0,066
-338,562	443,198	-0,096	-0,153
-337,548	-200,000	0,143	0,000
-336,533	-14,727	0,077	-0,036
-335,518	-162,879	0,140	0,005
-334,504	-65,757	0,074	0,021
-333,489	235,907	-0,053	-0,064
-332,475	-200,000	0,002	-0,058
-331,460	-200,000	0,004	-0,039
-330,445	-28,674	0,068	0,028
-329,431	-200,000	-0,007	-0,093
-328,416	48,356	0,060	-0,040
-327,402	143,514	-0,118	0,114
-326,387	-58,702	-0,191	0,060
-325,372	-200,000	0,019	-0,073
-324,358	609,030	-0,027	0,050
-323,343	251,025	-0,053	0,065
-322,329	-200,000	-0,007	-0,055
-321,314	-200,000	-0,044	0,170
-320,299	-40,980	0,114	0,043
-319,285	496,811	-0,040	0,067
-318,270	-200,000	-0,004	0,015
-317,256	11,048	-0,125	-0,069
-316,241	40,872	0,082	-0,054
-315,226	765,212	-0,006	0,013
-314,212	-77,508	0,066	-0,016
-313,197	-76,252	0,063	-0,016
-312,183	165,354	-0,085	-0,087
-311,168	156,052	-0,056	-0,056
-310,153	800,000	-0,042	-0,099
-309,139	65,137	0,032	-0,024
-308,124	800,000	0,040	0,091
-307,110	-200,000	-0,003	-0,104
-306,095	42,706	0,092	-0,060
-305,080	-60,980	0,085	0,026
-304,066	-157,105	0,008	0,000
-303,051	40,026	-0,089	0,058
-302,037	800,000	0,078	0,161
-301,022	-168,774	-0,093	0,002
-300,008	-200,000	-0,007	0,045
-298,993	254,406	0,120	0,148
-297,978	294,981	0,034	0,045
-296,964	-21,701	-0,084	-0,037
-295,949	432,023	0,052	-0,082
-294,935	-200,000	0,019	0,124
-293,920	-200,000	0,042	-0,186
-292,905	-43,529	0,032	-0,012
-291,891	482,032	0,020	0,032
-290,876	153,329	-0,040	-0,040
-289,862	40,972	-0,068	-0,044
-288,847	50,619	0,128	0,088
-287,832	213,509	-0,022	-0,025
-286,818	4,241	-0,043	-0,023
-285,803	196,303	-0,061	0,068
-284,789	-86,882	0,106	-0,023
-283,774	800,000	0,070	0,221
-282,759	-44,897	0,050	0,018
-281,745	-124,410	-0,137	0,015
-280,730	22,277	-0,024	0,014
-279,716	-200,000	-0,014	0,101
-278,701	-183,366	0,114	-0,001
-277,686	108,095	-0,068	0,058
-276,672	231,765	0,045	0,054
-275,657	800,000	0,020	-0,044
-274,643	-200,000	-0,018	-0,079
-273,628	-200,000	-0,038	0,133
-272,613	122,726	-0,082	0,074
-271,599	-200,000	0,001	0,133
-270,584	-200,000	-0,005	0,174
-269,570	-200,000	0,009	0,102
-268,555	-200,000	0,020	0,093
-267,540	-70,288	0,102	-0,028
-266,526	-200,000	-0,007	-0,076
-265,511	81,656	-0,078	-0,061
-264,497	-101,361	-0,121	-0,021
-263,482	116,324	0,103	-0,092
-262,467	-200,000	0,000	-0,032
-261,453	37,827	0,039	0,025
-260,438	428,850	0,018	0,028
-259,424	540,879	-0,011	-0,020
-258,409	125,492	-0,058	-0,053
-257,395	-200,000	0,017	-0,084
-256,380	-84,172	-0,041	0,009
-255,365	800,000	0,008	0,019
-254,351	125,827	0,036	-0,033
-253,336	304,657	0,026	-0,035
-252,322	-200,000	-0,024	-0,257
-251,307	800,000	-0,013	-0,032
-250,292	-200,000	-0,012	0,085
-249,278	481,973	0,030	0,049
-248,263	112,639	0,105	0,092
-247,249	5,765	-0,040	0,021
-246,234	239,598	-0,058	0,070
-245,219	-200,000	0,022	-0,081
-244,205	800,000	-0,045	-0,110
-243,190	174,131	-0,028	-0,029
-242,176	-144,983	0,146	0,010
-241,161	540,088	0,030	0,052
-240,146	101,560	-0,096	0,081
-239,132	-200,000	-0,005	-0,025
-238,117	-200,000	-0,022	-0,109
-237,103	-200,000	-0,001	-0,031
-236,088	361,448	-0,061	0,088
-235,073	-82,548	0,129	0,030
-234,059	-200,000	0,014	0,084
-233,044	800,000	0,021	0,043
-232,030	-121,281	0,208	-0,025
-231,015	800,000	-0,040	-0,096
-230,000	-200,000	0,017	-0,096
-228,986	-26,913	-0,089	-0,038
-227,971	-99,295	0,143	0,026
-226,957	126,672	-0,029	0,027
-225,942	-200,000	0,036	0,182
-224,927	800,000	-0,009	0,027
-223,913	-200,000	0,009	-0,036
-222,898	-125,028	-0,109	0,012
-221,884	-200,000	-0,000	0,044
-220,869	416,775	-0,045	-0,070
-219,855	-200,000	0,014	0,173
-218,840	-200,000	-0,031	0,142
-217,825	-200,000	0,002	0,202
-216,811	800,000	0,022	-0,066
-215,796	111,078	0,165	-0,143
-214,782	-58,134	-0,113	0,035
-213,767	800,000	0,067	-0,135
-212,752	641,245	0,034	0,062
-211,738	131,039	-0,061	-0,056
-210,723	-200,000	0,022	-0,089
-209,709	-60,160	-0,089	-0,027
-208,694	800,000	-0,026	-0,068
-207,679	-117,078	0,118	0,015
-206,665	-41,826	0,042	0,016
-205,650	321,149	0,086	0,119
-204,636	486,304	-0,100	0,165
-203,621	-200,000	0,005	-0,041
-202,606	-132,573	-0,096	0,009
-201,592	97,841	-0,067	-0,056
-200,577	-200,000	0,022	-0,139
-199,563	-137,918	-0,152	-0,012
-198,548	-200,000	-0,023	0,089
-197,533	-200,000	0,012	-0,105
-196,519	146,232	0,050	0,048
-195,504	315,343	0,022	0,030
-194,490	-91,170	-0,068	0,014
-193,475	-159,456	-0,074	-0,003
-192,460	-2,436	0,025	0,013
-191,446	473,010	0,070	0,115
-190,431	156,731	-0,072	0,071
-189,417	-200,000	0,017	-0,064
-188,402	22,964	-0,051	0,030
-187,387	224,355	-0,038	0,044
-186,373	800,000	-0,014	-0,031
-185,358	-18,142	0,054	0,024
-184,344	-32,861	0,086	0,034
-183,329	-200,000	0,014	0,075
-182,315	800,000	-0,017	0,044
-181,300	206,998	0,074	-0,084
-180,285	275,824	-0,062	0,079
-179,271	3,682	-0,171	-0,089
-178,256	28,489	0,205	-0,124
-177,242	-186,176	-0,053	-0,001
-176,227	-147,915	0,210	-0,012
-175,212	-10,442	0,098	0,047
-174,198	90,891	-0,156	-0,126
-173,183	207,538	0,050	0,056
-172,169	-9,264	0,097	0,047
-171,154	69,680	-0,011	-0,008
-170,139	402,277	0,004	-0,007
-169,125	-11,711	-0,083	-0,039
-168,110	-200,000	-0,055	0,208
-167,096	800,000	-0,005	0,013
-166,081	72,680	-0,036	-0,027
-165,066	-200,000	0,020	-0,122
-164,052	179,109	-0,104	0,110
-163,037	4,857	-0,002	0,001
-162,023	800,000	0,054	0,127
-161,008	-200,000	-0,002	0,058
-159,993	206,161	0,078	-0,087
-158,979	-70,070	-0,098	-0,027
-157,964	188,758	-0,088	-0,095
-156,950	-40,919	-0,008	-0,003
-155,935	-60,035	-0,107	0,033
-154,920	121,225	0,088	0,079
-153,906	146,796	0,060	0,058
-152,891	-39,519	-0,128	0,048
-151,877	800,000	0,026	0,057
-150,862	-30,474	0,042	0,017
-149,847	218,871	0,080	0,093
-148,833	800,000	0,032	-0,081
-147,818	145,521	0,101	-0,097
-146,804	-26,855	0,064	-0,027
-145,789	26,985	-0,083	0,050
-144,775	-108,454	0,142	-0,022
-143,760	77,174	-0,101	0,077
-142,745	-200,000	-0,001	-0,079
-141,731	62,225	-0,025	0,018
-140,716	396,530	0,031	-0,047
-139,702	121,408	-0,021	-0,019
-138,687	76,602	-0,036	0,027
-137,672	-111,100	-0,060	0,009
-136,658	304,006	0,021	0,029
-135,643	-82,933	-0,042	0,010
-134,629	-200,000	0,011	0,146
-133,614	88,702	0,035	0,028
-132,599	-26,677	0,032	-0,013
-131,585	-133,977	0,091	0,008
-130,570	-56,564	-0,182	-0,058
-129,556	49,610	-0,029	-0,020
-128,541	67,272	-0,073	0,054
-127,526	-5,427	0,126	0,062
-126,512	-77,072	-0,084	0,021
-125,497	-170,562	0,111	0,003
-124,483	154,135	0,058	0,057
-123,468	800,000	-0,042	-0,109
-122,453	800,000	-0,032	0,076
-121,439	-87,004	0,120	-0,026
-120,424	62,070	-0,051	0,037
