DTS Sentinel unit serial number:	SN410029Multiplexer serial number:	ORYXHardware model number:	OX2-SRSoftware version number:	ORYX F/W v4,00 Oryx Data Collector v3.7.2.0data status	okinstallation	B5 Nyhavnadifferential loss correction	single-endedforward channel	channel 2reverse channel	N/Adate	2023/12/13time	07:32:13forward acquisition time	300,00reverse acquisition time	0,00gamma	499,1914k internal	0,3160k external	0,3160temperature offset calibration	1,0000default loss term (dB/km)	0,3820temperature slope calibration	1,0000multiplexer offset coefficient	1,0000multiplexer slope coefficient	1,0000fibre end	0,00T internal ref (°C)	13,69T ext. ref 1 (°C)	-2,73T ext. ref 2 (°C)	-3,02length (m)	temperature (°C)	Stokes	anti-Stokes-744,400	-129,095	0,027	-0,003
-743,385	-89,748	-0,213	-0,046
-742,371	88,725	0,162	0,133
-741,356	-166,198	-0,225	-0,007
-740,342	-0,416	0,133	0,069
-739,327	-153,161	-0,201	0,010
-738,312	-133,264	0,071	0,007
-737,298	-196,323	-0,315	0,002
-736,283	245,408	0,030	0,037
-735,269	-95,827	-0,251	-0,049
-734,254	-88,741	-0,071	0,015
-733,239	-42,964	-0,564	-0,210
-732,225	-146,970	0,182	-0,011
-731,210	67,686	-0,101	-0,076
-730,196	-200,000	-0,029	-0,126
-729,181	-15,319	-0,057	0,027
-728,167	-200,000	0,005	-0,128
-727,152	800,000	-0,059	0,165
-726,137	-93,870	-0,144	0,029
-725,123	54,810	-0,141	0,100
-724,108	800,000	-0,036	-0,111
-723,094	-200,000	-0,010	-0,213
-722,079	20,396	-0,041	0,024
-721,064	-69,060	0,088	0,025
-720,050	45,740	-0,073	-0,049
-719,035	247,083	-0,106	0,132
-718,021	287,327	-0,084	-0,112
-717,006	800,000	-0,048	-0,149
-715,991	800,000	-0,070	-0,208
-714,977	26,639	0,077	0,047
-713,962	-200,000	-0,045	-0,147
-712,948	11,637	0,060	0,034
-711,933	-200,000	-0,011	-0,067
-710,918	-30,692	-0,062	0,026
-709,904	-200,000	0,019	-0,114
-708,889	128,844	-0,146	-0,137
-707,875	328,626	0,009	-0,012
-706,860	86,014	-0,076	0,062
-705,845	-170,692	-0,033	-0,001
-704,831	-47,996	0,081	0,029
-703,816	165,994	-0,047	-0,049
-702,802	-105,060	-0,098	-0,016
-701,787	146,190	-0,023	-0,023
-700,772	-200,000	0,024	-0,139
-699,758	-104,209	-0,093	-0,016
-698,743	23,212	0,131	0,079
-697,729	-182,305	0,140	0,002
-696,714	252,932	0,059	0,074
-695,699	-200,000	-0,003	-0,042
-694,685	-200,000	-0,017	0,070
-693,670	-200,000	0,027	-0,117
-692,656	-144,014	-0,173	-0,012
-691,641	-200,000	-0,012	0,160
-690,627	800,000	-0,064	0,145
-689,612	-42,657	-0,056	0,021
-688,597	-200,000	-0,005	0,090
-687,583	70,590	-0,133	-0,101
-686,568	-200,000	0,013	-0,077
-685,554	-32,591	0,082	-0,033
-684,539	-200,000	-0,001	-0,009
-683,524	-200,000	0,008	-0,045
-682,510	107,521	-0,107	0,093
-681,495	79,848	-0,062	0,049
-680,481	-200,000	-0,011	-0,223
-679,466	-62,897	-0,095	-0,029
-678,451	191,959	0,023	0,026
-677,437	-177,907	0,067	-0,001
-676,422	-56,935	0,154	-0,050
-675,408	-176,848	-0,085	0,002
-674,393	-168,321	-0,172	0,005
-673,378	-19,357	-0,006	0,003
-672,364	50,027	0,049	0,034
-671,349	76,040	-0,103	-0,080
-670,335	-200,000	-0,001	0,016
-669,320	405,920	-0,083	0,129
-668,305	180,394	-0,084	0,090
-667,291	-200,000	-0,020	0,000
-666,276	-44,887	-0,036	-0,013
-665,262	-74,677	-0,127	-0,033
-664,247	524,788	-0,001	0,002
-663,232	-60,747	-0,136	0,042
-662,218	79,455	0,038	-0,030
-661,203	636,688	-0,052	-0,097
-660,189	44,532	-0,074	0,050
-659,174	71,509	-0,077	-0,059
-658,159	-11,875	-0,080	-0,038
-657,145	-32,770	-0,064	0,026
-656,130	-145,944	0,094	-0,006
-655,116	-200,000	0,027	-0,120
-654,101	36,365	-0,013	0,009
-653,086	98,827	0,037	-0,031
-652,072	228,807	-0,046	0,055
-651,057	-200,000	-0,004	-0,042
-650,043	-200,000	0,002	0,094
-649,028	292,743	0,034	-0,045
-648,014	219,158	-0,066	0,077
-646,999	-149,014	0,051	-0,003
-645,984	-83,252	-0,142	0,033
-644,970	2,283	-0,091	-0,048
-643,955	391,923	-0,039	-0,060
-642,941	324,988	-0,047	-0,066
-641,926	800,000	0,033	-0,070
-640,911	800,000	-0,059	-0,168
-639,897	800,000	0,044	-0,124
-638,882	180,010	0,032	0,034
-637,868	800,000	-0,017	0,046
-636,853	-122,791	0,053	-0,006
-635,838	-29,505	-0,122	-0,051
-634,824	-126,439	0,094	0,010
-633,809	800,000	-0,038	-0,095
-632,795	-39,744	0,038	-0,015
-631,780	-200,000	-0,017	-0,163
-630,765	14,897	0,072	0,041
-629,751	37,522	-0,111	-0,072
-628,736	126,576	-0,093	0,086
-627,722	34,410	0,119	0,076
-626,707	-200,000	0,027	-0,103
-625,692	800,000	0,052	0,138
-624,678	-200,000	-0,006	-0,033
-623,663	800,000	0,007	0,020
-622,649	-200,000	-0,015	0,100
-621,634	313,784	-0,062	-0,085
-620,619	-113,344	-0,123	-0,017
-619,605	-200,000	0,015	-0,067
-618,590	10,074	0,103	0,057
-617,576	385,808	0,022	-0,034
-616,561	93,438	-0,018	0,015
-615,546	-16,082	-0,099	-0,046
-614,532	377,821	-0,104	-0,156
-613,517	371,805	-0,111	-0,166
-612,503	-36,682	0,118	-0,046
-611,488	-67,232	0,101	-0,029
-610,474	-200,000	0,021	-0,087
-609,459	-200,000	0,030	0,110
-608,444	273,904	-0,022	0,028
-607,430	101,352	-0,109	-0,093
-606,415	33,591	-0,089	0,057
-605,401	-200,000	-0,026	-0,106
-604,386	-69,180	0,040	0,011
-603,371	252,650	0,051	0,064
-602,357	-200,000	-0,006	-0,050
-601,342	-114,275	0,063	-0,009
-600,328	-200,000	0,021	-0,103
-599,313	-200,000	-0,046	-0,195
-598,298	-200,000	-0,001	0,020
-597,284	800,000	-0,060	-0,137
-596,269	-166,513	0,186	-0,006
-595,255	-200,000	-0,029	0,106
-594,240	-1,704	0,069	0,035
-593,225	-200,000	-0,002	-0,109
-592,211	-200,000	0,004	-0,017
-591,196	-200,000	0,016	0,143
-590,182	-127,158	-0,082	-0,009
-589,167	593,431	-0,032	0,058
-588,152	800,000	-0,017	0,035
-587,138	113,352	0,093	-0,083
-586,123	78,873	-0,021	0,017
-585,109	-134,438	-0,143	0,013
-584,094	-2,360	-0,051	-0,026
-583,079	346,604	0,034	0,049
-582,065	-200,000	-0,043	0,171
-581,050	-200,000	-0,005	0,103
-580,036	506,240	-0,059	-0,100
-579,021	545,809	-0,036	0,063
-578,006	800,000	-0,033	-0,102
-576,992	294,231	-0,058	-0,078
-575,977	250,664	0,072	-0,089
-574,963	800,000	0,065	-0,138
-573,948	174,666	-0,031	-0,033
-572,934	-145,105	-0,178	-0,012
-571,919	442,924	-0,049	-0,078
-570,904	800,000	-0,019	-0,060
-569,890	154,656	-0,054	0,054
-568,875	29,991	-0,096	-0,060
-567,861	-200,000	0,022	0,132
-566,846	207,838	-0,018	-0,021
-565,831	-9,288	-0,070	0,034
-564,817	-200,000	-0,013	-0,069
-563,802	50,842	-0,097	-0,067
-562,788	-188,648	0,119	-0,001
-561,773	-200,000	0,006	-0,051
-560,758	482,102	0,117	0,196
-559,744	117,045	0,087	-0,078
-558,729	-17,200	0,043	0,020
-557,715	-200,000	0,003	-0,030
-556,700	-0,006	-0,065	0,034
-555,685	-80,510	-0,065	-0,016
-554,671	-200,000	0,010	0,048
-553,656	-106,006	0,142	-0,023
-552,642	-200,000	0,008	-0,036
-551,627	-200,000	0,070	-0,000
-550,612	-60,424	0,107	0,033
-549,598	27,447	-0,080	-0,049
-548,583	6,697	-0,168	0,091
-547,569	-176,084	0,070	0,001
-546,554	18,062	-0,020	0,012
-545,539	-106,176	0,020	0,003
-544,525	409,981	-0,058	0,091
-543,510	44,777	-0,124	0,083
-542,496	83,634	-0,048	-0,038
-541,481	32,664	0,061	0,038
-540,466	-200,000	-0,002	0,065
-539,452	36,725	0,059	-0,038
-538,437	800,000	0,060	-0,146
-537,423	800,000	0,013	0,030
-536,408	-134,382	0,149	-0,013
-535,393	211,256	-0,063	0,072
-534,379	122,940	-0,033	0,030
-533,364	-140,105	-0,154	0,012
-532,350	-200,000	-0,023	-0,081
-531,335	-98,855	0,042	-0,008
-530,321	446,611	0,024	-0,039
-529,306	243,916	0,026	-0,031
-528,291	-151,081	0,047	-0,003
-527,277	-24,151	-0,048	0,021
-526,262	-125,924	-0,058	-0,006
-525,248	-97,470	-0,062	-0,012
-524,233	-200,000	0,026	0,162
-523,218	742,262	-0,047	-0,093
-522,204	800,000	0,006	-0,013
-521,189	800,000	0,021	0,052
-520,175	125,482	0,088	0,081
-519,160	23,746	-0,064	-0,039
-518,145	-200,000	-0,001	-0,022
-517,131	113,094	-0,086	0,076
-516,116	-67,101	0,048	0,014
-515,102	-70,263	-0,032	-0,009
-514,087	-200,000	-0,019	0,114
-513,072	-96,446	0,101	-0,019
-512,058	-200,000	0,007	-0,032
-511,043	550,377	-0,072	0,126
-510,029	21,151	0,086	0,051
-509,014	-200,000	0,026	0,200
-507,999	-14,240	0,057	0,027
-506,985	585,113	-0,072	-0,130
-505,970	537,313	-0,031	0,055
-504,956	-54,185	0,075	-0,025
-503,941	-200,000	-0,003	-0,077
-502,926	800,000	-0,029	0,091
-501,912	-37,161	0,189	-0,074
-500,897	243,186	0,088	-0,108
-499,883	420,317	-0,044	-0,069
-498,868	800,000	0,049	-0,122
-497,853	191,830	0,038	0,042
-496,839	-94,447	-0,192	-0,038
-495,824	-200,000	0,022	0,080
-494,810	-113,978	0,072	0,010
-493,795	800,000	0,017	0,049
-492,781	800,000	0,023	0,063
-491,766	-21,534	-0,145	-0,064
-490,751	-200,000	-0,041	-0,166
-489,737	191,631	-0,034	0,038
-488,722	-41,301	-0,102	0,038
-487,708	35,980	0,102	0,065
-486,693	800,000	0,030	0,076
-485,678	800,000	-0,016	0,032
-484,664	800,000	-0,042	-0,093
-483,649	124,584	-0,103	0,094
-482,635	-38,637	-0,062	0,024
-481,620	367,863	-0,044	0,065
-480,605	-15,422	0,188	0,087
-479,591	-34,346	0,199	0,079
-478,576	-4,051	-0,092	0,047
-477,562	331,614	-0,073	0,104
-476,547	800,000	0,047	-0,113
-475,532	-200,000	0,004	-0,055
-474,518	-21,544	-0,088	-0,039
-473,503	162,175	0,110	-0,113
-472,489	-200,000	-0,019	0,099
-471,474	-102,444	0,044	0,008
-470,459	-130,340	-0,047	0,005
-469,445	114,978	-0,123	-0,110
-468,430	-115,425	0,083	-0,011
-467,416	-200,000	-0,006	-0,021
-466,401	73,219	0,077	-0,059
-465,386	-200,000	0,017	0,174
-464,372	-130,214	-0,094	0,009
-463,357	107,933	-0,118	0,102
-462,343	-18,182	-0,104	-0,047
-461,328	-164,896	-0,080	-0,003
-460,313	6,880	0,077	0,042
-459,299	-107,171	0,126	0,020
-458,284	-194,342	0,195	0,001
-457,270	-146,849	0,118	-0,007
-456,255	85,618	-0,024	-0,019
-455,241	244,099	0,064	-0,079
-454,226	800,000	0,036	0,080
-453,211	91,070	-0,022	0,018
-452,197	-86,816	-0,079	0,018
-451,182	-85,810	0,137	0,031
-450,168	142,993	0,057	0,055
-449,153	180,080	-0,098	-0,105
-448,138	-200,000	-0,005	-0,108
-447,124	522,894	0,051	0,087
-446,109	800,000	0,009	0,026
-445,095	-89,687	0,167	-0,035
-444,080	-139,329	0,103	-0,008
-443,065	-133,499	0,049	-0,004
-442,051	73,985	-0,122	-0,093
-441,036	9,453	0,044	-0,024
-440,022	146,320	-0,117	0,115
-439,007	-91,749	0,126	0,026
-437,992	800,000	0,011	-0,031
-436,978	800,000	0,056	0,140
-435,963	-0,178	0,086	-0,044
-434,949	-200,000	0,021	0,100
-433,934	153,728	0,018	0,018
-432,919	-114,946	-0,053	-0,007
-431,905	-200,000	-0,009	-0,038
-430,890	-200,000	-0,011	0,128
-429,876	800,000	0,009	-0,027
-428,861	-118,874	-0,042	-0,005
-427,846	-71,467	-0,103	0,028
-426,832	523,160	0,067	0,114
-425,817	800,000	0,043	0,091
-424,803	442,293	-0,054	-0,087
-423,788	530,007	0,062	-0,108
-422,773	-121,554	-0,104	-0,012
-421,759	800,000	0,017	-0,038
-420,744	56,522	-0,121	-0,086
-419,730	759,600	-0,051	-0,101
-418,715	9,644	-0,217	0,119
-417,701	30,664	0,051	0,032
-416,686	97,967	0,030	-0,025
-415,671	-200,000	0,012	-0,087
-414,657	-188,410	-0,069	-0,001
-413,642	-200,000	-0,036	0,127
-412,628	-200,000	-0,012	-0,040
-411,613	800,000	0,060	-0,136
-410,598	592,124	0,053	-0,096
-409,584	315,981	0,065	-0,089
-408,569	91,109	-0,061	-0,049
-407,555	370,879	0,108	0,160
-406,540	53,085	0,065	0,045
-405,525	140,225	0,059	-0,056
-404,511	-72,240	-0,139	-0,037
-403,496	231,992	0,064	0,077
-402,482	800,000	0,048	-0,116
-401,467	48,943	0,134	0,091
-400,452	-4,927	-0,040	0,020
-399,438	-140,268	0,075	0,006
-398,423	581,608	-0,029	-0,052
-397,409	378,940	-0,056	-0,083
-396,394	-186,089	0,034	0,000
-395,379	6,681	-0,065	0,035
-394,365	-71,592	-0,070	-0,019
-393,350	-87,056	-0,112	0,025
-392,336	263,805	0,049	0,062
-391,321	169,624	0,025	-0,026
-390,306	-200,000	-0,041	-0,281
-389,292	-73,836	0,034	-0,009
-388,277	119,879	-0,128	0,116
-387,263	800,000	-0,026	0,073
-386,248	-42,012	0,062	0,023
-385,233	105,902	0,022	0,019
-384,219	31,609	0,104	-0,065
-383,204	800,000	0,040	-0,112
-382,190	800,000	-0,044	-0,138
-381,175	800,000	0,013	-0,026
-380,160	-37,759	0,041	0,016
-379,146	67,712	-0,031	0,023
-378,131	538,397	0,034	0,059
-377,117	-84,335	-0,068	-0,016
-376,102	-200,000	-0,017	-0,127
-375,088	15,495	-0,049	-0,028
-374,073	-200,000	0,013	0,050
-373,058	580,100	-0,032	0,057
-372,044	-129,503	0,039	0,004
-371,029	102,036	0,104	0,088
-370,015	-111,980	-0,179	-0,026
-369,000	-15,034	0,062	0,029
-367,985	-63,709	-0,136	0,040
-366,971	-146,705	-0,056	0,003
-365,956	-200,000	-0,020	0,148
-364,942	-79,596	0,045	0,011
-363,927	-27,676	0,022	-0,009
-362,912	-200,000	0,018	-0,093
-361,898	800,000	0,038	-0,077
-360,883	-200,000	-0,019	-0,113
-359,869	129,539	-0,045	0,041
-358,854	-101,686	0,062	-0,011
-357,839	800,000	0,042	-0,092
-356,825	800,000	0,008	-0,024
-355,810	13,647	-0,089	-0,050
-354,796	-200,000	0,000	0,026
-353,781	-15,532	-0,116	-0,054
-352,766	-200,000	0,019	0,119
-351,752	-110,348	0,126	-0,019
-350,737	30,722	0,087	-0,054
-349,723	-72,864	0,023	0,006
-348,708	-200,000	0,006	0,130
-347,693	-200,000	-0,011	0,088
-346,679	24,389	-0,168	0,101
-345,664	-39,936	-0,063	0,024
-344,650	77,354	-0,033	-0,026
-343,635	27,762	-0,040	-0,024
-342,620	129,728	-0,025	0,024
-341,606	-71,557	0,085	0,023
-340,591	407,415	-0,077	0,118
-339,577	-136,806	-0,025	-0,002
-338,562	-200,000	-0,004	0,025
-337,548	86,355	-0,040	-0,032
-336,533	-60,803	-0,068	-0,021
-335,518	-200,000	0,009	0,089
-334,504	81,256	-0,024	-0,019
-333,489	-83,129	0,128	-0,030
-332,475	13,636	-0,133	-0,074
-331,460	800,000	-0,016	-0,035
-330,445	-200,000	-0,002	0,049
-329,431	-55,156	0,042	-0,013
-328,416	-200,000	-0,006	-0,080
-327,402	8,777	0,124	-0,067
-326,387	177,379	0,107	-0,113
-325,372	-46,517	0,114	-0,040
-324,358	589,772	-0,033	0,060
-323,343	6,008	0,057	0,030
-322,329	128,062	0,054	0,050
-321,314	-51,747	-0,195	0,065
-320,299	800,000	-0,024	0,060
-319,285	800,000	0,033	0,099
-318,270	103,050	0,071	-0,061
-317,256	-200,000	-0,024	-0,092
-316,241	0,818	-0,110	-0,057
-315,226	-200,000	0,014	0,109
-314,212	486,025	0,066	0,110
-313,197	683,397	0,054	0,103
-312,183	-62,661	0,108	0,032
-311,168	65,639	-0,036	-0,027
-310,153	-13,880	0,097	-0,045
-309,139	800,000	-0,024	-0,057
-308,124	800,000	-0,049	0,142
-307,110	-143,222	0,078	0,005
-306,095	-200,000	0,009	-0,066
-305,080	164,317	0,080	-0,082
-304,066	118,908	-0,076	0,068
-303,051	431,444	0,037	-0,059
-302,037	178,019	0,046	0,049
-301,022	3,997	0,046	0,024
-300,008	122,826	-0,020	-0,018
-298,993	239,398	0,028	0,034
-297,978	-103,712	-0,053	-0,009
-296,964	151,285	-0,097	-0,096
-295,949	800,000	0,043	-0,097
-294,935	-80,009	-0,095	-0,023
-293,920	-200,000	0,024	0,089
-292,905	-123,904	0,119	0,013
-291,891	110,024	-0,010	-0,009
-290,876	49,751	-0,061	-0,042
-289,862	-200,000	0,014	-0,121
-288,847	15,222	-0,103	0,059
-287,832	-50,044	-0,059	0,020
-286,818	-127,462	-0,106	-0,011
-285,803	26,667	0,089	0,054
-284,789	236,161	-0,024	0,029
-283,774	-40,544	-0,035	0,013
-282,759	-200,000	-0,034	-0,149
-281,745	417,816	-0,095	-0,148
-280,730	728,024	0,040	0,078
-279,716	156,570	-0,021	0,021
-278,701	-195,357	0,027	0,000
-277,686	336,833	0,081	0,114
-276,672	-200,000	-0,002	0,054
-275,657	48,013	0,081	0,055
-274,643	348,329	0,098	-0,141
-273,628	75,715	0,081	-0,062
-272,613	691,168	0,033	-0,063
-271,599	800,000	-0,026	0,061
-270,584	800,000	-0,028	0,090
-269,570	550,830	-0,074	0,129
-268,555	528,088	-0,061	0,104
-267,540	-10,992	-0,083	0,040
-266,526	800,000	0,018	-0,039
-265,511	-200,000	0,009	-0,164
-264,497	-49,653	-0,093	0,032
-263,482	352,719	0,059	0,085
-262,467	-200,000	0,014	0,065
-261,453	225,125	-0,073	0,086
-260,438	-185,225	0,102	0,001
-259,424	130,240	-0,051	-0,047
-258,409	-89,257	-0,154	0,033
-257,395	-200,000	0,012	-0,066
-256,380	525,175	0,034	0,059
-255,365	386,039	0,083	0,124
-254,351	173,034	0,066	-0,069
-253,336	-103,898	0,127	0,021
-252,322	66,696	0,028	0,020
-251,307	-50,930	-0,135	-0,046
-250,292	73,442	-0,100	0,076
-249,278	-134,103	0,106	-0,009
-248,263	-200,000	-0,011	0,125
-247,249	515,811	0,037	-0,063
-246,234	-60,233	-0,048	0,015
-245,219	-23,515	-0,093	-0,040
-244,205	800,000	-0,039	0,105
-243,190	-197,195	0,041	-0,000
-242,176	321,749	0,035	0,049
-241,161	-92,746	-0,056	0,011
-240,146	113,115	0,054	-0,047
-239,132	130,305	-0,084	-0,077
-238,117	794,901	-0,060	-0,119
-237,103	55,069	-0,064	-0,044
-236,088	35,809	0,041	0,026
-235,073	-200,000	-0,002	-0,053
-234,059	800,000	-0,035	0,095
-233,044	-200,000	-0,012	0,154
-232,030	-200,000	-0,024	-0,078
-231,015	-200,000	-0,007	0,114
-230,000	-98,017	0,046	0,008
-228,986	28,151	0,097	0,059
-227,971	498,218	0,020	0,033
-226,957	77,850	0,071	-0,055
-225,942	135,684	-0,064	-0,060
-224,927	-200,000	0,019	-0,113
-223,913	66,106	-0,083	-0,061
-222,898	35,883	-0,148	0,094
-221,884	457,717	0,085	0,137
-220,869	323,616	-0,020	0,028
-219,855	19,754	0,088	0,051
-218,840	800,000	0,045	-0,120
-217,825	800,000	0,029	-0,090
-216,811	-200,000	0,002	0,008
-215,796	-3,386	-0,022	0,011
-214,782	-200,000	-0,007	0,037
-213,767	62,872	-0,099	0,072
-212,752	800,000	0,050	0,128
-211,738	-200,000	-0,032	0,143
-210,723	-151,190	0,081	-0,004
-209,709	-60,859	-0,087	0,026
-208,694	248,668	0,024	-0,030
-207,679	800,000	0,045	-0,127
-206,665	800,000	0,035	0,094
-205,650	113,783	0,118	-0,104
-204,636	-67,545	-0,093	0,026
-203,621	-200,000	-0,009	0,088
-202,606	800,000	-0,023	-0,066
-201,592	-60,171	0,031	-0,009
-200,577	38,633	-0,087	0,056
-199,563	-59,082	-0,027	-0,008
-198,548	251,047	0,071	-0,088
-197,533	-200,000	-0,001	-0,166
-196,519	-200,000	0,011	-0,051
-195,504	-144,077	-0,064	0,004
-194,490	-200,000	-0,028	-0,122
-193,475	114,042	0,119	-0,104
-192,460	68,622	-0,167	0,123
-191,446	-183,896	-0,034	-0,000
-190,431	-158,883	-0,066	-0,003
-189,417	-42,836	0,252	-0,092
-188,402	-96,628	-0,103	-0,019
-187,387	-200,000	-0,018	-0,092
-186,373	-107,179	-0,165	-0,026
-185,358	800,000	0,019	0,038
-184,344	5,969	0,060	-0,032
-183,329	14,173	0,054	0,030
-182,315	-15,900	0,130	-0,059
-181,300	194,280	0,089	0,098
-180,285	218,549	0,073	-0,085
-179,271	-30,462	0,083	0,034
-178,256	-77,257	-0,108	-0,027
-177,242	-66,774	0,115	-0,033
-176,227	800,000	0,032	-0,083
-175,212	317,645	-0,046	0,063
-174,198	-200,000	0,064	0,229
-173,183	-200,000	-0,001	-0,071
-172,169	-200,000	0,013	-0,125
-171,154	800,000	0,033	-0,094
-170,139	-200,000	-0,016	0,115
-169,125	-103,303	0,093	-0,016
-168,110	163,555	0,182	0,185
-167,096	260,241	-0,065	0,082
-166,081	124,259	-0,148	-0,134
-165,066	-145,770	-0,127	0,008
-164,052	126,661	0,045	0,041
-163,037	-28,228	0,100	-0,042
-162,023	71,305	0,107	-0,080
-161,008	-200,000	0,035	0,127
-159,993	800,000	0,045	0,137
-158,979	-93,209	-0,077	0,015
-157,964	-200,000	0,026	0,113
-156,950	-27,621	0,044	-0,018
-155,935	-136,013	0,161	0,013
-154,920	-200,000	-0,007	0,093
-153,906	800,000	-0,039	0,086
-152,891	-200,000	0,010	0,143
-151,877	590,583	0,064	-0,113
-150,862	-34,769	-0,084	-0,033
-149,847	132,200	0,073	-0,068
-148,833	-200,000	0,025	-0,189
-147,818	158,788	-0,069	-0,069
-146,804	44,083	0,103	0,068
-145,789	218,967	0,036	0,041
-144,775	-109,521	-0,032	-0,005
-143,760	187,348	0,052	-0,056
-142,745	32,560	0,067	0,042
-141,731	306,370	-0,030	-0,040
-140,716	644,638	0,060	-0,111
-139,702	-200,000	0,011	0,172
-138,687	-55,569	0,076	-0,024
-137,672	348,929	0,017	0,025
-136,658	-140,103	0,128	-0,010
-135,643	63,542	0,078	0,057
-134,629	-160,724	-0,102	0,004
-133,614	504,660	-0,030	-0,051
-132,599	-2,610	0,175	0,088
-131,585	80,832	-0,120	0,093
-130,570	-136,977	0,105	-0,008
-129,556	61,487	-0,095	-0,068
-128,541	800,000	0,062	0,179
-127,526	800,000	0,029	0,091
-126,512	160,528	-0,025	0,026
-125,497	323,669	0,090	0,124
-124,483	-200,000	-0,015	-0,096
-123,468	59,141	0,021	-0,015
-122,453	0,622	0,132	0,068
-121,439	-183,249	-0,076	-0,001
-120,424	-200,000	-0,043	0,173
-119,410	-15,730	0,106	-0,048
