DTS Sentinel unit serial number:	SN410029Multiplexer serial number:	ORYXHardware model number:	OX2-SRSoftware version number:	ORYX F/W v4,00 Oryx Data Collector v3.7.2.0data status	okinstallation	B5 Nyhavnadifferential loss correction	single-endedforward channel	channel 2reverse channel	N/Adate	2023/12/13time	10:17:13forward acquisition time	300,00reverse acquisition time	0,00gamma	499,1914k internal	0,3160k external	0,3160temperature offset calibration	1,0000default loss term (dB/km)	0,3820temperature slope calibration	1,0000multiplexer offset coefficient	1,0000multiplexer slope coefficient	1,0000fibre end	0,00T internal ref (°C)	13,63T ext. ref 1 (°C)	-2,73T ext. ref 2 (°C)	-3,05length (m)	temperature (°C)	Stokes	anti-Stokes-744,400	149,339	0,074	-0,074
-743,385	-79,176	-0,376	-0,093
-742,371	23,593	0,149	0,090
-741,356	-85,769	-0,365	0,083
-740,342	800,000	0,059	0,160
-739,327	-128,273	-0,247	0,026
-738,312	-23,729	0,114	0,050
-737,298	70,987	-0,252	-0,192
-736,283	57,814	0,106	-0,077
-735,269	-134,873	-0,359	-0,032
-734,254	-200,000	0,062	0,202
-733,239	-35,732	-0,483	-0,192
-732,225	-22,354	0,146	-0,065
-731,210	800,000	0,024	0,054
-730,196	39,373	-0,064	-0,042
-729,181	-49,824	-0,042	-0,015
-728,167	-115,015	-0,027	-0,004
-727,152	61,575	0,085	-0,062
-726,137	-159,846	-0,084	0,003
-725,123	399,572	0,068	-0,105
-724,108	-200,000	-0,022	-0,199
-723,094	-200,000	-0,027	-0,130
-722,079	-200,000	-0,003	-0,123
-721,064	454,557	0,084	-0,137
-720,050	-75,323	-0,044	-0,012
-719,035	-72,345	-0,159	0,043
-718,021	6,783	-0,053	-0,029
-717,006	0,514	-0,152	-0,080
-715,991	-200,000	-0,052	-0,173
-714,977	-200,000	0,005	0,106
-713,962	-49,262	-0,088	-0,031
-712,948	286,845	0,053	0,071
-711,933	800,000	-0,042	-0,094
-710,918	173,699	0,013	-0,013
-709,904	-200,000	-0,003	-0,051
-708,889	157,237	0,075	0,076
-707,875	307,197	-0,045	-0,062
-706,860	55,343	0,091	0,065
-705,845	-200,000	0,006	0,027
-704,831	367,968	-0,038	-0,057
-703,816	320,507	0,048	0,067
-702,802	49,960	-0,044	-0,030
-701,787	111,633	-0,087	-0,078
-700,772	-136,357	-0,066	-0,006
-699,758	12,465	-0,143	-0,081
-698,743	-200,000	-0,004	0,087
-697,729	207,156	-0,038	0,044
-696,714	331,753	0,089	0,127
-695,699	678,189	0,036	0,069
-694,685	-71,977	-0,040	-0,011
-693,670	-200,000	-0,022	-0,238
-692,656	-200,000	-0,029	-0,224
-691,641	-200,000	0,006	-0,114
-690,627	800,000	0,083	-0,174
-689,612	122,300	0,024	0,022
-688,597	-97,212	-0,188	-0,036
-687,583	-200,000	0,003	-0,052
-686,568	-62,490	-0,137	0,042
-685,554	168,578	-0,057	0,060
-684,539	-19,393	0,132	0,060
-683,524	-200,000	0,012	-0,124
-682,510	-200,000	0,017	0,118
-681,495	334,558	-0,071	0,101
-680,481	800,000	-0,025	0,079
-679,466	-131,013	-0,112	0,011
-678,451	800,000	0,020	-0,065
-677,437	-2,393	0,072	-0,037
-676,422	32,649	0,106	-0,067
-675,408	456,835	-0,056	-0,092
-674,393	800,000	-0,042	-0,095
-673,378	250,561	-0,052	-0,065
-672,364	-25,904	-0,124	0,053
-671,349	800,000	0,051	0,153
-670,335	111,668	-0,070	-0,062
-669,320	-200,000	0,008	-0,064
-668,305	328,736	-0,063	0,089
-667,291	58,929	0,009	-0,007
-666,276	160,966	0,017	-0,018
-665,262	294,744	-0,114	-0,154
-664,247	-197,682	-0,032	-0,000
-663,232	192,237	-0,105	0,117
-662,218	-57,141	0,033	0,011
-661,203	352,789	0,054	0,078
-660,189	183,224	-0,032	-0,034
-659,174	385,189	-0,104	-0,159
-658,159	193,188	-0,117	-0,131
-657,145	-102,395	-0,044	0,008
-656,130	-200,000	-0,008	-0,132
-655,116	250,950	0,100	-0,125
-654,101	-200,000	-0,018	-0,092
-653,086	41,593	-0,083	-0,055
-652,072	-0,891	-0,103	0,053
-651,057	-200,000	0,005	-0,093
-650,043	80,821	0,138	-0,109
-649,028	8,399	0,142	-0,078
-648,014	44,396	0,143	0,096
-646,999	600,993	-0,104	0,191
-645,984	-200,000	0,012	-0,097
-644,970	-200,000	0,017	0,154
-643,955	-101,227	-0,073	0,013
-642,941	523,899	0,095	-0,164
-641,926	-200,000	0,006	0,047
-640,911	-200,000	0,028	-0,122
-639,897	800,000	0,035	0,094
-638,882	238,446	-0,081	0,099
-637,868	7,226	-0,105	0,057
-636,853	-158,804	0,035	-0,001
-635,838	-22,846	-0,092	-0,040
-634,824	800,000	0,014	0,035
-633,809	-200,000	-0,005	0,154
-632,795	59,416	-0,023	-0,017
-631,780	-62,299	-0,179	-0,054
-630,765	-200,000	-0,011	0,141
-629,751	325,559	-0,020	-0,028
-628,736	-200,000	0,009	0,045
-627,722	79,709	-0,086	0,067
-626,707	-1,299	0,020	0,010
-625,692	800,000	0,040	0,085
-624,678	800,000	0,031	-0,065
-623,663	-82,494	0,076	0,018
-622,649	-68,493	-0,076	-0,022
-621,634	226,468	-0,065	0,078
-620,619	-200,000	-0,011	0,039
-619,605	-58,027	-0,102	0,033
-618,590	-106,936	0,031	-0,005
-617,576	-100,063	-0,057	-0,010
-616,561	61,649	0,098	0,072
-615,546	-200,000	0,003	-0,039
-614,532	-200,000	-0,007	-0,034
-613,517	-63,985	0,141	-0,042
-612,503	288,475	0,062	0,083
-611,488	180,398	0,034	-0,037
-610,474	800,000	0,058	0,149
-609,459	-200,000	-0,003	-0,097
-608,444	-200,000	-0,035	-0,120
-607,430	-200,000	0,006	-0,095
-606,415	-200,000	0,047	-0,172
-605,401	63,619	-0,060	0,044
-604,386	597,545	0,030	-0,055
-603,371	-200,000	0,002	-0,010
-602,357	-72,011	-0,063	-0,017
-601,342	-137,933	0,122	-0,010
-600,328	-94,572	-0,120	-0,024
-599,313	454,713	-0,029	0,047
-598,298	800,000	0,018	0,043
-597,284	800,000	0,060	0,125
-596,269	-87,829	-0,038	-0,008
-595,255	-4,929	-0,086	-0,043
-594,240	800,000	0,050	-0,114
-593,225	189,569	-0,045	-0,049
-592,211	631,745	-0,060	-0,112
-591,196	21,232	0,208	-0,123
-590,182	-53,364	-0,142	0,047
-589,167	-154,529	0,049	0,002
-588,152	93,100	0,019	0,015
-587,138	-144,156	-0,102	0,007
-586,123	800,000	-0,058	-0,183
-585,109	-45,849	-0,108	-0,039
-584,094	-200,000	0,015	-0,056
-583,079	800,000	-0,027	-0,065
-582,065	800,000	0,046	-0,131
-581,050	52,995	0,159	0,111
-580,036	795,570	-0,014	-0,029
-579,021	800,000	0,034	-0,078
-578,006	-200,000	-0,017	-0,092
-576,992	-50,976	0,044	0,015
-575,977	306,856	-0,074	0,101
-574,963	444,166	-0,035	-0,057
-573,948	13,044	0,126	0,071
-572,934	31,662	-0,017	-0,011
-571,919	-200,000	-0,009	-0,059
-570,904	-20,422	-0,116	-0,052
-569,890	43,078	0,075	-0,050
-568,875	117,901	0,050	-0,045
-567,861	381,480	0,045	0,068
-566,846	-200,000	-0,003	0,102
-565,831	800,000	0,026	0,069
-564,817	24,553	-0,257	-0,155
-563,802	-174,546	0,064	-0,001
-562,788	-9,824	-0,115	0,056
-561,773	59,745	-0,113	0,082
-560,758	-200,000	-0,018	0,096
-559,744	64,755	-0,073	0,054
-558,729	-200,000	0,000	0,011
-557,715	-34,188	-0,073	0,029
-556,700	325,117	-0,014	-0,020
-555,685	-9,301	0,192	0,094
-554,671	-200,000	0,002	0,084
-553,656	-71,929	0,148	0,040
-552,642	-200,000	-0,002	-0,087
-551,627	-77,215	-0,127	-0,032
-550,612	800,000	-0,030	-0,089
-549,598	264,394	-0,071	-0,091
-548,583	800,000	-0,032	-0,087
-547,569	-200,000	-0,008	-0,089
-546,554	-37,654	0,056	-0,022
-545,539	-200,000	-0,023	0,075
-544,525	144,919	0,182	0,178
-543,510	39,091	-0,086	-0,056
-542,496	60,493	-0,128	-0,093
-541,481	435,856	0,069	-0,110
-540,466	-143,842	0,050	0,003
-539,452	800,000	0,068	-0,139
-538,437	800,000	0,030	0,097
-537,423	142,964	-0,094	-0,091
-536,408	427,775	0,062	-0,098
-535,393	178,388	0,078	0,083
-534,379	-200,000	-0,030	-0,103
-533,364	25,624	0,032	0,020
-532,350	305,820	0,052	0,071
-531,335	72,432	0,032	-0,025
-530,321	189,018	0,093	-0,102
-529,306	-200,000	-0,032	-0,112
-528,291	87,574	-0,108	0,088
-527,277	-116,798	-0,029	0,004
-526,262	-102,482	0,100	-0,017
-525,248	-106,566	0,237	-0,038
-524,233	-16,260	-0,072	0,033
-523,218	309,312	0,039	0,053
-522,204	-200,000	-0,013	0,058
-521,189	-200,000	-0,019	-0,133
-520,175	555,904	0,033	-0,058
-519,160	-50,889	-0,032	0,011
-518,145	-113,046	-0,071	0,010
-517,131	135,540	-0,051	0,049
-516,116	-184,734	0,040	-0,000
-515,102	-200,000	0,008	0,150
-514,087	29,193	0,010	0,006
-513,072	-40,312	-0,051	-0,019
-512,058	117,643	-0,070	-0,063
-511,043	-68,781	0,169	0,047
-510,029	635,829	-0,051	0,094
-509,014	418,142	0,077	0,121
-507,999	-41,507	0,062	-0,023
-506,985	-33,035	-0,038	0,015
-505,970	-88,941	-0,115	0,025
-504,956	-200,000	0,005	-0,074
-503,941	447,128	-0,014	0,023
-502,926	617,829	0,065	0,120
-501,912	-64,752	0,086	0,025
-500,897	-91,138	-0,019	0,004
-499,883	-57,471	-0,055	0,017
-498,868	774,427	-0,012	0,025
-497,853	-133,292	-0,139	0,013
-496,839	369,194	0,102	0,152
-495,824	-200,000	0,029	0,120
-494,810	377,116	-0,081	-0,122
-493,795	-200,000	-0,004	0,029
-492,781	5,438	0,023	-0,012
-491,766	691,152	-0,050	0,096
-490,751	-200,000	-0,002	-0,056
-489,737	800,000	-0,048	-0,101
-488,722	-44,709	0,076	0,028
-487,708	-44,333	0,039	0,014
-486,693	255,023	-0,045	0,056
-485,678	-200,000	0,000	0,137
-484,664	197,769	0,057	-0,063
-483,649	-79,967	-0,070	0,017
-482,635	-200,000	-0,016	0,055
-481,620	78,122	0,110	0,085
-480,605	434,376	-0,061	-0,098
-479,591	-57,897	-0,051	0,016
-478,576	-200,000	-0,008	-0,030
-477,562	12,283	-0,123	-0,069
-476,547	-200,000	-0,024	-0,109
-475,532	554,719	0,025	0,043
-474,518	800,000	0,011	-0,028
-473,503	46,929	0,143	0,097
-472,489	606,258	0,043	-0,079
-471,474	-43,171	-0,063	0,023
-470,459	-0,499	-0,038	0,020
-469,445	87,190	0,036	0,029
-468,430	-31,733	-0,050	-0,021
-467,416	-200,000	0,004	-0,043
-466,401	308,052	0,039	0,053
-465,386	800,000	-0,022	-0,056
-464,372	684,198	-0,055	0,105
-463,357	-200,000	-0,026	-0,206
-462,343	-79,912	-0,125	-0,030
-461,328	-21,622	-0,187	-0,083
-460,313	-76,411	0,032	-0,008
-459,299	-89,478	0,088	-0,019
-458,284	800,000	0,043	0,112
-457,270	800,000	0,030	0,084
-456,255	800,000	-0,031	0,064
-455,241	277,068	0,067	-0,088
-454,226	-200,000	-0,005	0,037
-453,211	800,000	0,048	0,121
-452,197	-81,326	0,049	0,012
-451,182	169,502	0,038	-0,039
-450,168	-95,783	0,198	0,038
-449,153	109,408	-0,033	0,029
-448,138	149,849	-0,067	0,066
-447,124	-57,443	0,098	-0,031
-446,109	-180,375	-0,086	0,001
-445,095	-200,000	0,022	0,156
-444,080	-78,199	0,188	0,047
-443,065	42,054	0,137	0,091
-442,051	306,306	-0,048	-0,065
-441,036	800,000	0,046	0,146
-440,022	-84,353	-0,134	0,031
-439,007	-76,984	0,106	0,027
-437,992	-200,000	0,016	0,125
-436,978	-200,000	-0,002	0,101
-435,963	800,000	0,058	0,171
-434,949	426,809	0,063	-0,099
-433,934	92,673	-0,089	0,073
-432,919	-116,442	0,031	-0,004
-431,905	800,000	0,028	0,060
-430,890	-16,860	0,128	-0,059
-429,876	513,874	-0,024	-0,041
-428,861	-200,000	-0,013	0,048
-427,846	32,950	0,019	-0,012
-426,832	-108,343	0,144	-0,022
-425,817	110,496	-0,074	-0,065
-424,803	115,880	-0,106	0,094
-423,788	-168,326	0,107	-0,003
-422,773	110,209	-0,027	-0,024
-421,759	36,045	-0,041	-0,026
-420,744	-85,774	0,061	0,014
-419,730	54,471	-0,044	-0,031
-418,715	-200,000	0,005	0,018
-417,701	-39,643	-0,108	0,041
-416,686	-200,000	-0,002	0,029
-415,671	800,000	0,036	0,093
-414,657	800,000	0,013	0,036
-413,642	111,702	-0,067	-0,059
-412,628	-6,145	-0,060	-0,030
-411,613	-200,000	-0,015	0,066
-410,598	154,535	0,097	-0,097
-409,584	-32,716	-0,152	0,061
-408,569	68,855	0,070	-0,052
-407,555	-200,000	-0,042	-0,139
-406,540	-200,000	-0,011	-0,121
-405,525	-6,540	-0,065	0,032
-404,511	-3,516	0,048	-0,024
-403,496	453,827	-0,024	0,039
-402,482	421,763	0,071	-0,112
-401,467	258,858	-0,084	-0,105
-400,452	117,301	0,119	0,106
-399,438	208,447	-0,075	-0,085
-398,423	-9,276	-0,153	-0,074
-397,409	-54,684	0,080	-0,026
-396,394	-200,000	0,003	0,009
-395,379	393,456	0,040	0,060
-394,365	407,695	0,096	0,148
-393,350	-200,000	-0,007	0,043
-392,336	555,668	-0,068	0,120
-391,321	800,000	0,023	0,051
-390,306	137,009	0,073	-0,069
-389,292	-200,000	0,044	-0,243
-388,277	-83,536	-0,071	-0,016
-387,263	491,949	0,053	-0,089
-386,248	-200,000	-0,010	0,141
-385,233	61,092	-0,033	0,024
-384,219	-200,000	-0,044	0,167
-383,204	-200,000	0,019	0,079
-382,190	99,888	-0,028	-0,024
-381,175	-200,000	-0,003	-0,024
-380,160	57,985	0,032	0,023
-379,146	21,923	-0,056	0,033
-378,131	7,778	0,069	0,038
-377,117	-81,787	0,046	-0,011
-376,102	241,727	-0,090	-0,109
-375,088	-200,000	0,007	-0,048
-374,073	-200,000	-0,011	-0,140
-373,058	188,916	-0,050	-0,054
-372,044	67,198	-0,085	0,063
-371,029	-200,000	0,008	-0,112
-370,015	-200,000	0,034	0,111
-369,000	-115,851	-0,098	-0,013
-367,985	770,756	0,071	-0,141
-366,971	-200,000	-0,007	-0,099
-365,956	800,000	-0,014	0,033
-364,942	800,000	-0,020	0,048
-363,927	-57,425	0,089	0,028
-362,912	-136,788	0,041	-0,003
-361,898	-200,000	0,005	0,041
-360,883	-22,167	0,104	-0,045
-359,869	283,884	0,059	-0,077
-358,854	75,936	-0,071	0,055
-357,839	202,816	0,021	0,024
-356,825	-133,959	0,106	-0,009
-355,810	220,182	-0,093	-0,108
-354,796	208,275	0,078	-0,088
-353,781	-200,000	-0,014	0,053
-352,766	-8,865	0,074	-0,036
-351,752	800,000	0,018	0,054
-350,737	-200,000	-0,011	0,134
-349,723	800,000	0,047	0,103
-348,708	141,351	0,083	-0,080
-347,693	288,395	-0,105	-0,139
-346,679	-61,480	-0,217	-0,066
-345,664	101,548	0,083	-0,070
-344,650	120,519	-0,080	0,072
-343,635	333,577	0,046	-0,064
-342,620	12,485	0,104	-0,058
-341,606	-200,000	0,020	0,084
-340,591	165,186	-0,154	-0,158
-339,577	800,000	-0,055	0,139
-338,562	-91,535	-0,138	-0,028
-337,548	-39,860	-0,006	0,002
-336,533	-200,000	-0,016	0,101
-335,518	-200,000	-0,029	0,186
-334,504	-35,171	0,150	-0,059
-333,489	-138,105	0,152	0,012
-332,475	21,195	-0,162	-0,095
-331,460	72,141	-0,068	-0,051
-330,445	-200,000	0,014	0,073
-329,431	148,818	0,056	0,055
-328,416	-200,000	-0,001	-0,079
-327,402	-200,000	-0,006	-0,040
-326,387	800,000	0,034	0,093
-325,372	-200,000	0,007	-0,126
-324,358	-13,775	-0,060	-0,028
-323,343	-4,874	-0,060	0,030
-322,329	-80,917	-0,140	0,033
-321,314	165,944	0,013	-0,014
-320,299	-117,334	0,049	0,006
-319,285	65,180	0,146	-0,107
-318,270	-143,669	0,107	0,007
-317,256	92,944	-0,202	-0,165
-316,241	-200,000	-0,011	-0,117
-315,226	-75,723	0,068	0,017
-314,212	781,419	-0,064	-0,127
-313,197	-110,476	-0,063	-0,009
-312,183	-114,452	-0,039	-0,005
-311,168	-36,698	-0,086	-0,033
-310,153	-200,000	-0,006	-0,062
-309,139	-200,000	0,011	-0,062
-308,124	-200,000	0,009	-0,069
-307,110	-16,026	0,025	-0,012
-306,095	-200,000	-0,009	0,076
-305,080	36,163	0,009	0,006
-304,066	227,357	0,035	0,041
-303,051	-200,000	-0,026	-0,155
-302,037	-200,000	-0,002	-0,068
-301,022	312,974	0,088	0,120
-300,008	316,349	0,057	0,078
-298,993	-165,904	-0,079	-0,002
-297,978	4,144	-0,058	0,031
-296,964	-200,000	0,023	-0,076
-295,949	738,540	-0,051	0,099
-294,935	201,797	0,056	-0,063
-293,920	-123,637	0,064	-0,007
-292,905	-200,000	-0,016	-0,066
-291,891	-200,000	0,018	0,120
-290,876	58,364	0,173	0,123
-289,862	36,724	0,016	-0,010
-288,847	308,816	-0,109	-0,147
-287,832	27,016	-0,145	0,088
-286,818	463,971	-0,094	-0,153
-285,803	-5,319	0,071	0,035
-284,789	800,000	0,009	0,028
-283,774	800,000	-0,042	-0,106
-282,759	61,702	0,040	-0,028
-281,745	-200,000	0,002	-0,039
-280,730	-38,205	0,029	0,011
-279,716	285,161	-0,034	-0,045
-278,701	-145,522	-0,055	0,004
-277,686	-200,000	0,016	0,104
-276,672	6,462	-0,039	-0,021
-275,657	-106,047	0,121	0,019
-274,643	800,000	-0,047	0,109
-273,628	-200,000	0,012	0,100
-272,613	342,705	-0,025	0,035
-271,599	-115,830	0,091	-0,012
-270,584	72,680	-0,006	0,004
-269,570	-200,000	-0,006	0,059
-268,555	569,012	-0,054	-0,095
-267,540	-186,969	0,075	0,001
-266,526	2,299	-0,093	0,048
-265,511	-39,401	-0,129	-0,049
-264,497	532,249	-0,042	0,072
-263,482	41,899	0,076	-0,050
-262,467	-64,545	0,021	-0,006
-261,453	49,646	-0,037	0,025
-260,438	-59,794	-0,083	-0,025
-259,424	-200,000	-0,025	-0,137
-258,409	63,209	-0,016	-0,012
-257,395	142,459	0,072	-0,069
-256,380	-73,955	0,047	0,012
-255,365	4,177	-0,049	-0,026
-254,351	800,000	0,026	-0,077
-253,336	800,000	0,019	-0,060
-252,322	-34,477	-0,164	0,065
-251,307	-3,158	0,122	0,061
-250,292	36,162	0,069	-0,044
-249,278	-200,000	0,014	0,064
-248,263	-200,000	-0,000	0,115
-247,249	800,000	0,060	0,155
-246,234	-95,116	-0,027	0,005
-245,219	-163,808	-0,088	-0,003
-244,205	800,000	0,035	-0,099
-243,190	-200,000	0,017	0,103
-242,176	93,243	0,078	0,064
-241,161	-103,763	-0,091	-0,015
-240,146	344,135	-0,033	0,047
-239,132	-123,340	0,050	0,006
-238,117	65,508	-0,108	0,079
-237,103	465,463	-0,045	-0,073
-236,088	-200,000	-0,025	-0,142
-235,073	800,000	0,048	-0,139
-234,059	-75,081	0,046	-0,012
-233,044	-200,000	-0,003	0,020
-232,030	227,310	0,027	-0,032
-231,015	-39,826	0,084	-0,032
-230,000	-130,681	-0,057	0,005
-228,986	-199,231	0,151	-0,001
-227,971	-200,000	-0,005	0,158
-226,957	556,747	0,106	0,186
-225,942	203,025	0,015	0,017
-224,927	478,920	-0,029	0,047
-223,913	-200,000	-0,019	0,111
-222,898	279,146	-0,065	0,084
-221,884	-66,685	0,106	0,030
-220,869	-77,358	0,135	0,034
-219,855	163,714	0,035	-0,035
-218,840	-46,660	-0,122	-0,043
-217,825	-200,000	-0,013	-0,160
-216,811	-84,191	0,060	-0,014
-215,796	-39,025	-0,140	-0,053
-214,782	535,967	0,064	-0,110
-213,767	-82,732	-0,015	-0,003
-212,752	-200,000	0,010	0,069
-211,738	185,763	0,157	0,169
-210,723	410,954	-0,063	0,097
-209,709	800,000	0,030	0,084
-208,694	-109,043	-0,161	-0,024
-207,679	800,000	0,016	-0,045
-206,665	94,476	-0,007	-0,006
-205,650	-103,262	-0,087	-0,015
-204,636	800,000	-0,054	0,118
-203,621	-200,000	-0,015	0,067
-202,606	-67,110	-0,070	0,020
-201,592	-128,690	0,077	-0,008
-200,577	-19,101	0,086	-0,038
-199,563	-24,726	-0,110	-0,047
-198,548	800,000	0,044	0,124
-197,533	64,790	-0,027	-0,019
-196,519	346,566	-0,086	0,123
-195,504	800,000	0,068	-0,176
-194,490	800,000	-0,020	-0,041
-193,475	-111,206	-0,125	-0,018
-192,460	-149,240	0,185	-0,010
-191,446	-74,635	-0,155	-0,040
-190,431	-146,697	0,104	-0,006
-189,417	800,000	0,038	0,086
-188,402	-105,058	-0,094	0,015
-187,387	-100,126	-0,198	-0,035
-186,373	-200,000	0,005	0,093
-185,358	-172,981	0,135	-0,003
-184,344	-18,049	0,085	0,038
-183,329	-200,000	0,006	-0,028
-182,315	-82,886	-0,083	0,019
-181,300	99,371	0,095	-0,079
-180,285	-103,843	-0,122	-0,020
-179,271	-27,896	-0,062	0,026
-178,256	94,220	0,020	-0,017
-177,242	-9,078	0,092	-0,044
-176,227	94,454	-0,055	-0,045
-175,212	600,677	0,041	-0,074
-174,198	-73,399	-0,101	-0,026
-173,183	-200,000	-0,004	-0,109
-172,169	-200,000	-0,005	0,037
-171,154	22,244	-0,062	0,036
-170,139	430,066	0,050	-0,077
-169,125	321,163	0,033	0,045
-168,110	-200,000	-0,014	0,123
-167,096	800,000	0,036	-0,108
-166,081	-24,089	0,052	0,022
-165,066	110,197	-0,110	-0,095
-164,052	239,486	0,034	-0,041
-163,037	416,322	0,042	0,065
-162,023	-200,000	0,007	-0,096
-161,008	-66,971	0,033	-0,009
-159,993	800,000	-0,041	-0,089
-158,979	4,267	0,137	0,072
-157,964	800,000	0,030	-0,068
-156,950	-200,000	0,000	0,161
-155,935	-86,943	-0,099	-0,022
-154,920	-116,100	0,052	-0,007
-153,906	800,000	0,044	0,100
-152,891	308,613	0,086	-0,116
-151,877	45,791	-0,082	-0,055
-150,862	-117,397	0,031	0,004
-149,847	-7,634	-0,078	0,038
-148,833	-200,000	-0,009	0,088
-147,818	10,106	0,131	-0,071
-146,804	-2,014	-0,085	0,043
-145,789	-200,000	0,024	0,114
-144,775	-171,263	0,124	-0,003
-143,760	-200,000	0,005	-0,029
-142,745	26,140	-0,075	0,045
-141,731	800,000	-0,055	0,147
-140,716	-73,722	0,127	0,033
-139,702	-76,947	0,020	0,005
-138,687	-200,000	-0,014	0,097
-137,672	318,386	-0,062	-0,085
-136,658	12,280	-0,154	0,085
-135,643	51,877	-0,061	-0,042
-134,629	-74,844	0,112	0,029
-133,614	800,000	-0,031	0,074
-132,599	-200,000	-0,012	0,081
-131,585	-200,000	-0,013	0,063
-130,570	384,286	-0,041	-0,061
-129,556	123,642	-0,038	0,035
-128,541	-175,044	0,024	-0,000
-127,526	45,916	-0,075	-0,050
-126,512	-200,000	0,006	0,046
-125,497	800,000	-0,029	-0,062
-124,483	165,733	0,134	-0,137
-123,468	330,567	0,044	0,061
-122,453	-200,000	0,020	-0,079
-121,439	-200,000	-0,002	0,043
-120,424	-146,667	-0,073	-0,004
-119,410	28,608	0,093	-0,057
