DTS Sentinel unit serial number:	SN410029Multiplexer serial number:	ORYXHardware model number:	OX2-SRSoftware version number:	ORYX F/W v4,00 Oryx Data Collector v3.7.2.0data status	okinstallation	B5 Nyhavnadifferential loss correction	single-endedforward channel	channel 2reverse channel	N/Adate	2023/12/12time	09:27:13forward acquisition time	300,00reverse acquisition time	0,00gamma	499,1914k internal	0,3158k external	0,3158temperature offset calibration	1,0000default loss term (dB/km)	0,3820temperature slope calibration	1,0000multiplexer offset coefficient	1,0000multiplexer slope coefficient	1,0000fibre end	0,00T internal ref (°C)	15,02T ext. ref 1 (°C)	-1,32T ext. ref 2 (°C)	-1,62length (m)	temperature (°C)	Stokes	anti-Stokes-744,400	340,974	-0,081	0,117
-743,385	-200,000	-0,410	0,001
-742,371	693,388	0,061	-0,118
-741,356	51,292	-0,165	0,115
-740,342	194,876	0,107	0,119
-739,327	-48,666	-0,330	-0,116
-738,312	158,725	0,049	-0,050
-737,298	-23,803	-0,269	-0,118
-736,283	57,782	0,064	0,046
-735,269	-100,253	-0,331	-0,060
-734,254	60,775	0,066	0,049
-733,239	-34,102	-0,434	-0,175
-732,225	-65,399	0,322	0,095
-731,210	353,744	0,089	0,131
-730,196	18,298	-0,108	0,064
-729,181	800,000	-0,057	-0,166
-728,167	265,719	-0,131	-0,169
-727,152	-91,716	0,037	0,008
-726,137	-13,665	0,096	-0,046
-725,123	-200,000	-0,027	-0,092
-724,108	-41,175	-0,046	-0,017
-723,094	-70,382	-0,222	0,062
-722,079	-132,888	-0,008	-0,001
-721,064	308,051	0,047	-0,065
-720,050	593,674	-0,020	0,036
-719,035	-200,000	-0,024	-0,086
-718,021	363,989	0,055	-0,081
-717,006	-200,000	0,015	-0,120
-715,991	30,050	-0,181	0,113
-714,977	8,899	-0,137	0,076
-713,962	133,522	-0,086	-0,082
-712,948	-58,380	-0,070	-0,022
-711,933	-23,471	0,061	0,027
-710,918	-96,161	-0,040	0,008
-709,904	-147,097	-0,102	-0,006
-708,889	99,388	-0,166	-0,141
-707,875	800,000	-0,091	-0,207
-706,860	-200,000	-0,001	0,019
-705,845	800,000	-0,023	0,052
-704,831	-200,000	0,003	-0,062
-703,816	193,074	0,007	0,008
-702,802	191,470	-0,103	0,114
-701,787	-62,152	-0,026	-0,008
-700,772	155,329	-0,055	0,056
-699,758	-138,151	0,049	-0,004
-698,743	-200,000	0,022	-0,207
-697,729	-200,000	-0,018	0,126
-696,714	-136,191	0,039	0,003
-695,699	33,257	-0,087	-0,055
-694,685	262,783	-0,027	-0,035
-693,670	-200,000	0,019	-0,091
-692,656	20,465	-0,091	-0,054
-691,641	-64,093	-0,012	0,003
-690,627	-68,324	0,041	-0,012
-689,612	-65,276	-0,079	0,023
-688,597	800,000	0,033	-0,068
-687,583	5,504	-0,202	-0,109
-686,568	-200,000	-0,007	-0,040
-685,554	658,955	0,006	-0,012
-684,539	800,000	0,063	0,129
-683,524	-74,946	0,094	0,025
-682,510	-87,084	0,021	-0,005
-681,495	-109,319	-0,070	0,011
-680,481	-35,390	-0,124	-0,049
-679,466	-200,000	-0,069	-0,238
-678,451	127,430	0,130	-0,122
-677,437	60,568	0,042	0,030
-676,422	186,999	-0,035	-0,038
-675,408	800,000	0,043	-0,106
-674,393	-200,000	0,010	0,048
-673,378	440,058	-0,047	0,075
-672,364	-34,074	-0,131	0,053
-671,349	800,000	0,052	-0,134
-670,335	-200,000	-0,007	-0,081
-669,320	45,405	-0,053	-0,036
-668,305	-119,160	-0,053	0,007
-667,291	-53,624	0,183	0,061
-666,276	193,478	-0,109	-0,121
-665,262	-200,000	0,015	-0,070
-664,247	-200,000	-0,020	-0,070
-663,232	-130,664	-0,130	0,013
-662,218	90,145	0,127	-0,105
-661,203	800,000	-0,010	-0,028
-660,189	-200,000	-0,001	0,115
-659,174	-200,000	0,016	0,059
-658,159	-200,000	0,042	-0,173
-657,145	665,420	-0,015	0,029
-656,130	745,977	0,069	0,137
-655,116	-200,000	-0,031	0,102
-654,101	2,011	0,166	0,088
-653,086	-52,751	-0,214	0,072
-652,072	-200,000	0,006	0,029
-651,057	-175,780	-0,077	-0,001
-650,043	-200,000	-0,031	0,109
-649,028	-8,090	0,041	0,020
-648,014	-200,000	-0,003	0,107
-646,999	-105,032	-0,013	-0,002
-645,984	-200,000	0,017	0,169
-644,970	-200,000	-0,020	-0,073
-643,955	-200,000	0,006	-0,027
-642,941	-200,000	-0,028	-0,101
-641,926	-200,000	0,020	-0,073
-640,911	71,157	0,114	-0,086
-639,897	36,355	0,046	0,030
-638,882	-45,922	-0,026	0,009
-637,868	800,000	-0,019	-0,046
-636,853	-64,354	-0,107	0,032
-635,838	-18,254	0,079	-0,036
-634,824	60,719	0,144	-0,105
-633,809	800,000	-0,050	0,114
-632,795	104,688	0,036	0,031
-631,780	501,743	-0,023	0,038
-630,765	-31,941	-0,080	-0,033
-629,751	214,897	0,076	0,089
-628,736	424,416	-0,016	-0,026
-627,722	284,412	-0,017	-0,023
-626,707	800,000	0,017	0,036
-625,692	-200,000	0,001	0,014
-624,678	-200,000	-0,007	0,029
-623,663	160,827	0,118	-0,121
-622,649	-200,000	-0,061	-0,201
-621,634	-200,000	-0,014	-0,235
-620,619	251,988	0,029	-0,036
-619,605	800,000	0,067	-0,149
-618,590	277,403	0,071	0,093
-617,576	-170,367	-0,136	-0,003
-616,561	361,079	0,049	0,073
-615,546	315,684	-0,142	-0,197
-614,532	-62,708	-0,061	-0,019
-613,517	-200,000	0,017	-0,089
-612,503	-200,000	0,015	0,080
-611,488	-26,989	-0,115	0,049
-610,474	-200,000	-0,014	0,053
-609,459	-200,000	-0,004	-0,023
-608,444	228,209	-0,120	-0,143
-607,430	295,274	0,127	-0,171
-606,415	147,304	-0,049	-0,048
-605,401	254,642	0,083	-0,104
-604,386	-61,622	-0,159	-0,049
-603,371	-200,000	0,008	0,093
-602,357	-63,664	0,026	0,008
-601,342	-200,000	0,003	0,021
-600,328	-152,954	-0,097	-0,005
-599,313	122,763	-0,057	-0,052
-598,298	236,957	0,063	-0,077
-597,284	526,482	0,046	0,079
-596,269	143,709	0,116	0,113
-595,255	-200,000	-0,026	0,097
-594,240	800,000	-0,026	-0,058
-593,225	-17,483	0,044	-0,020
-592,211	-200,000	-0,001	-0,021
-591,196	115,610	0,008	0,007
-590,182	800,000	0,052	-0,158
-589,167	-76,969	-0,042	-0,011
-588,152	443,891	0,101	0,163
-587,138	652,169	-0,066	-0,124
-586,123	670,593	-0,070	-0,134
-585,109	-200,000	0,001	-0,064
-584,094	-36,018	-0,140	-0,055
-583,079	100,692	-0,050	0,043
-582,065	-71,451	0,056	0,015
-581,050	12,142	0,150	0,084
-580,036	27,684	-0,185	-0,114
-579,021	-200,000	0,005	0,039
-578,006	428,250	0,053	0,084
-576,992	191,690	0,022	-0,024
-575,977	125,871	0,086	0,080
-574,963	800,000	0,041	0,130
-573,948	98,479	0,021	-0,018
-572,934	-200,000	0,006	-0,085
-571,919	67,345	-0,057	0,042
-570,904	-200,000	-0,005	-0,075
-569,890	800,000	-0,039	-0,100
-568,875	-38,740	-0,079	0,030
-567,861	0,817	0,076	0,040
-566,846	35,307	0,020	-0,013
-565,831	-85,611	0,048	-0,011
-564,817	-164,883	0,049	-0,002
-563,802	47,076	-0,114	0,078
-562,788	800,000	-0,018	0,044
-561,773	-156,642	0,117	0,005
-560,758	-78,970	0,124	-0,031
-559,744	-200,000	0,022	0,123
-558,729	-5,098	-0,109	-0,055
-557,715	-54,820	-0,025	0,008
-556,700	-11,694	-0,074	-0,036
-555,685	-33,316	-0,055	-0,022
-554,671	-49,664	-0,164	0,057
-553,656	-200,000	-0,007	0,059
-552,642	800,000	-0,059	0,120
-551,627	399,160	0,019	0,030
-550,612	144,387	-0,047	-0,046
-549,598	-76,465	-0,120	-0,031
-548,583	-200,000	0,037	-0,231
-547,569	12,653	0,033	0,019
-546,554	-69,588	0,119	0,033
-545,539	645,419	0,016	0,030
-544,525	-200,000	-0,002	0,044
-543,510	730,396	-0,010	0,019
-542,496	800,000	-0,014	0,030
-541,481	772,858	-0,059	-0,117
-540,466	-116,906	0,097	0,013
-539,452	-200,000	-0,026	-0,128
-538,437	-73,676	0,082	0,022
-537,423	-200,000	0,025	0,101
-536,408	12,066	0,026	-0,015
-535,393	61,422	-0,151	-0,110
-534,379	-84,833	-0,013	0,003
-533,364	-61,911	0,136	-0,041
-532,350	5,993	-0,033	0,018
-531,335	296,907	-0,059	0,079
-530,321	338,221	-0,038	0,054
-529,306	-25,557	-0,085	-0,036
-528,291	99,169	0,113	0,095
-527,277	19,152	0,117	-0,068
-526,262	103,713	0,112	0,096
-525,248	-200,000	0,024	0,129
-524,233	-200,000	0,045	0,151
-523,218	-14,584	0,107	0,050
-522,204	105,303	0,075	0,065
-521,189	-61,132	-0,058	-0,018
-520,175	159,024	-0,039	0,039
-519,160	41,213	-0,047	-0,031
-518,145	45,541	0,147	-0,099
-517,131	365,399	-0,056	0,082
-516,116	-200,000	0,002	0,073
-515,102	-22,528	0,123	-0,054
-514,087	-131,756	-0,002	-0,000
-513,072	380,009	-0,012	-0,018
-512,058	337,245	0,024	0,034
-511,043	-26,522	-0,075	0,032
-510,029	77,607	-0,060	-0,047
-509,014	-200,000	0,012	0,142
-507,999	-130,719	0,165	0,016
-506,985	168,611	-0,037	-0,039
-505,970	340,309	-0,134	-0,192
-504,956	23,136	-0,086	-0,051
-503,941	-173,342	-0,093	-0,002
-502,926	95,819	-0,040	0,033
-501,912	50,317	0,182	-0,125
-500,897	-200,000	-0,024	0,104
-499,883	-47,135	-0,075	0,027
-498,868	294,731	-0,074	0,099
-497,853	-111,529	0,172	0,025
-496,839	-47,720	-0,118	0,042
-495,824	800,000	-0,039	-0,112
-494,810	60,101	0,109	0,078
-493,795	-200,000	-0,024	0,090
-492,781	53,635	-0,035	-0,025
-491,766	268,352	-0,022	0,028
-490,751	800,000	-0,034	-0,104
-489,737	65,320	0,014	0,010
-488,722	799,312	-0,036	0,072
-487,708	800,000	0,053	0,164
-486,693	155,198	-0,023	0,023
-485,678	337,947	0,084	0,119
-484,664	-173,468	-0,124	-0,003
-483,649	-41,188	-0,136	0,051
-482,635	-107,519	-0,024	-0,004
-481,620	-106,936	0,081	-0,013
-480,605	201,122	0,054	-0,060
-479,591	800,000	-0,015	-0,035
-478,576	-200,000	-0,013	0,097
-477,562	79,059	0,037	0,029
-476,547	-42,864	-0,105	-0,039
-475,532	-200,000	0,006	-0,069
-474,518	800,000	-0,032	0,079
-473,503	-200,000	-0,012	0,102
-472,489	442,896	0,043	0,070
-471,474	-110,790	-0,130	-0,019
-470,459	-200,000	-0,023	0,086
-469,445	84,779	-0,045	-0,036
-468,430	-111,931	-0,065	-0,009
-467,416	129,804	-0,044	0,041
-466,401	-33,395	0,077	0,031
-465,386	-48,053	-0,148	0,052
-464,372	17,895	0,080	-0,046
-463,357	-200,000	0,009	-0,044
-462,343	424,583	-0,065	0,103
-461,328	-168,288	-0,135	0,004
-460,313	-99,025	0,063	-0,012
-459,299	260,780	-0,090	0,114
-458,284	120,937	0,072	0,066
-457,270	102,299	-0,017	0,014
-456,255	476,953	0,019	-0,031
-455,241	-112,830	-0,103	0,015
-454,226	239,419	0,055	0,067
-453,211	687,248	0,026	0,050
-452,197	305,782	0,038	0,052
-451,182	351,536	0,028	0,040
-450,168	34,241	0,136	0,086
-449,153	-200,000	0,007	-0,032
-448,138	-58,455	0,134	-0,042
-447,124	363,230	-0,027	-0,040
-446,109	-15,265	0,020	-0,009
-445,095	-200,000	0,008	0,109
-444,080	119,546	0,128	-0,116
-443,065	800,000	0,009	-0,026
-442,051	503,683	-0,028	-0,047
-441,036	284,592	0,082	-0,108
-440,022	443,300	-0,052	-0,083
-439,007	2,054	-0,085	0,045
-437,992	800,000	0,077	0,168
-436,978	647,914	-0,034	-0,063
-435,963	-200,000	-0,013	-0,073
-434,949	76,394	-0,141	-0,109
-433,934	-200,000	-0,026	-0,116
-432,919	151,020	-0,133	-0,131
-431,905	800,000	0,013	-0,031
-430,890	-200,000	-0,013	-0,068
-429,876	-200,000	-0,012	-0,099
-428,861	-76,393	-0,095	-0,024
-427,846	156,801	-0,063	0,064
-426,832	63,078	-0,022	0,016
-425,817	-105,368	0,094	-0,015
-424,803	-5,587	0,065	0,032
-423,788	-200,000	-0,008	-0,066
-422,773	-96,302	0,111	0,021
-421,759	383,177	-0,039	0,059
-420,744	178,797	-0,046	0,049
-419,730	-115,376	-0,069	-0,009
-418,715	118,815	0,083	0,075
-417,701	-200,000	-0,011	-0,139
-416,686	-64,521	0,100	-0,029
-415,671	267,582	0,029	0,037
-414,657	-200,000	-0,010	0,085
-413,642	-200,000	0,004	0,227
-412,628	800,000	-0,046	0,143
-411,613	-200,000	0,001	0,066
-410,598	75,865	-0,025	-0,019
-409,584	102,892	0,079	0,067
-408,569	-2,643	0,005	-0,003
-407,555	-200,000	0,008	-0,044
-406,540	376,363	0,049	-0,073
-405,525	-134,554	0,111	0,010
-404,511	800,000	-0,026	-0,064
-403,496	-7,193	-0,006	-0,003
-402,482	-200,000	0,000	0,044
-401,467	63,878	-0,049	0,036
-400,452	-200,000	-0,009	0,061
-399,438	-200,000	-0,019	-0,123
-398,423	28,428	0,033	-0,020
-397,409	-86,341	0,043	-0,010
-396,394	533,512	0,048	0,083
-395,379	430,198	0,027	0,043
-394,365	-200,000	0,003	-0,096
-393,350	253,665	0,014	-0,018
-392,336	-200,000	-0,017	0,066
-391,321	-13,605	0,075	0,035
-390,306	-200,000	-0,000	-0,058
-389,292	230,875	0,079	-0,094
-388,277	101,593	-0,062	0,053
-387,263	-14,437	0,091	-0,043
-386,248	379,279	0,042	0,063
-385,233	-69,291	-0,110	0,030
-384,219	92,972	0,052	-0,043
-383,204	238,140	0,034	0,042
-382,190	800,000	0,040	0,110
-381,175	-130,849	0,064	-0,006
-380,160	-128,207	-0,027	0,003
-379,146	800,000	-0,035	-0,072
-378,131	104,211	-0,038	-0,033
-377,117	-200,000	0,009	-0,121
-376,102	-200,000	0,006	-0,097
-375,088	-200,000	-0,005	0,028
-374,073	71,941	-0,038	-0,029
-373,058	-200,000	-0,027	0,107
-372,044	142,203	-0,021	-0,020
-371,029	119,058	0,084	-0,075
-370,015	-176,141	-0,079	-0,001
-369,000	-200,000	-0,033	0,119
-367,985	788,377	-0,021	-0,042
-366,971	-200,000	-0,017	0,114
-365,956	-200,000	0,023	0,106
-364,942	161,036	-0,048	0,049
-363,927	-32,966	0,092	0,037
-362,912	-200,000	-0,024	-0,124
-361,898	-200,000	-0,006	-0,048
-360,883	-134,513	-0,058	-0,005
-359,869	347,855	-0,063	0,090
-358,854	800,000	0,052	-0,104
-357,839	-119,838	0,108	-0,013
-356,825	439,164	-0,023	-0,037
-355,810	800,000	-0,018	-0,038
-354,796	5,494	0,089	0,048
-353,781	-85,555	-0,167	-0,037
-352,766	800,000	0,030	0,069
-351,752	-109,577	0,106	0,016
-350,737	84,790	0,099	-0,079
-349,723	766,407	-0,026	-0,053
-348,708	213,443	-0,015	0,017
-347,693	-200,000	-0,006	-0,099
-346,679	420,938	-0,072	-0,112
-345,664	-200,000	0,012	-0,062
-344,650	163,001	-0,064	0,065
-343,635	-200,000	-0,032	0,143
-342,620	-31,168	0,096	0,039
-341,606	800,000	0,087	0,176
-340,591	-200,000	0,004	0,036
-339,577	-200,000	0,002	0,080
-338,562	139,174	0,120	0,115
-337,548	-113,240	-0,046	-0,007
-336,533	-60,093	-0,106	-0,032
-335,518	-200,000	0,008	0,044
-334,504	180,704	-0,103	-0,110
-333,489	800,000	0,023	-0,047
-332,475	-87,410	0,145	0,032
-331,460	157,492	-0,065	0,065
-330,445	32,534	-0,086	-0,054
-329,431	198,936	0,008	-0,009
-328,416	-112,746	-0,071	-0,010
-327,402	-200,000	0,005	-0,123
-326,387	-200,000	0,018	0,060
-325,372	52,514	0,045	0,031
-324,358	-9,116	0,131	-0,064
-323,343	460,042	0,086	-0,139
-322,329	1,953	-0,060	-0,031
-321,314	377,190	0,037	-0,054
-320,299	568,714	-0,035	0,062
-319,285	139,475	-0,054	-0,052
-318,270	25,118	-0,027	-0,016
-317,256	-200,000	0,048	-0,157
-316,241	-200,000	0,025	-0,144
-315,226	-200,000	-0,017	0,106
-314,212	-200,000	0,012	0,091
-313,197	-43,994	-0,045	0,016
-312,183	333,759	-0,108	0,151
-311,168	-200,000	-0,026	0,100
-310,153	118,175	-0,078	0,070
-309,139	800,000	0,011	-0,035
-308,124	-200,000	0,002	0,057
-307,110	113,493	0,090	0,079
-306,095	-83,003	-0,087	0,020
-305,080	-135,579	0,177	-0,015
-304,066	-200,000	-0,010	0,099
-303,051	800,000	-0,035	-0,085
-302,037	256,904	-0,084	-0,105
-301,022	-184,067	0,070	-0,001
-300,008	-200,000	0,030	0,171
-298,993	-149,939	-0,077	-0,004
-297,978	-143,770	-0,095	-0,006
-296,964	3,612	0,122	-0,064
-295,949	268,458	0,065	-0,083
-294,935	800,000	-0,016	0,040
-293,920	-200,000	0,004	0,090
-292,905	-58,104	0,145	0,046
-291,891	105,824	0,047	-0,040
-290,876	48,486	-0,041	0,028
-289,862	4,701	0,051	0,027
-288,847	109,999	0,061	0,053
-287,832	800,000	0,018	0,045
-286,818	143,479	0,015	-0,015
-285,803	-84,287	-0,035	0,008
-284,789	-105,056	-0,071	0,012
-283,774	-24,836	-0,047	-0,020
-282,759	-200,000	0,038	-0,124
-281,745	-129,666	0,066	-0,007
-280,730	241,600	-0,042	0,051
-279,716	235,301	0,130	-0,156
-278,701	-88,824	0,068	0,015
-277,686	-41,973	0,043	-0,016
-276,672	206,294	-0,022	-0,025
-275,657	-48,564	-0,049	0,017
-274,643	17,164	-0,092	0,053
-273,628	91,494	0,085	-0,069
-272,613	103,912	-0,061	-0,052
-271,599	666,952	0,077	0,144
-270,584	-200,000	-0,021	0,086
-269,570	800,000	-0,025	0,076
-268,555	49,010	-0,034	-0,023
-267,540	-200,000	-0,034	0,170
-266,526	-132,340	0,124	-0,011
-265,511	800,000	0,027	0,061
-264,497	-41,118	-0,141	0,052
-263,482	-19,501	-0,010	0,004
-262,467	141,119	0,068	-0,065
-261,453	192,377	-0,071	-0,078
-260,438	-132,023	-0,206	0,019
-259,424	-200,000	-0,004	-0,098
-258,409	-192,810	0,045	-0,000
-257,395	-200,000	0,011	0,059
-256,380	800,000	0,050	0,120
-255,365	106,192	0,055	0,047
-254,351	-1,651	0,122	-0,062
-253,336	-97,635	0,238	-0,044
-252,322	-116,267	-0,064	-0,008
-251,307	470,658	0,118	-0,192
-250,292	21,936	0,069	0,041
-249,278	129,645	0,065	0,060
-248,263	-9,796	-0,026	0,012
-247,249	-112,454	0,062	-0,009
-246,234	5,402	0,076	0,041
-245,219	197,335	-0,042	-0,046
-244,205	-138,722	0,106	0,008
-243,190	800,000	0,057	-0,131
-242,176	-200,000	0,004	0,025
-241,161	-75,815	0,103	0,026
-240,146	6,285	-0,115	0,062
-239,132	342,442	-0,072	-0,102
-238,117	-200,000	-0,015	-0,137
-237,103	34,971	-0,117	-0,074
-236,088	123,802	-0,069	-0,062
-235,073	800,000	-0,045	0,124
-234,059	-200,000	0,023	0,162
-233,044	80,346	0,055	0,043
-232,030	800,000	-0,021	0,061
-231,015	387,973	0,070	-0,105
-230,000	800,000	-0,061	-0,162
-228,986	-55,285	0,137	-0,044
-227,971	178,799	-0,027	-0,028
-226,957	190,547	0,081	-0,088
-225,942	-200,000	-0,010	0,158
-224,927	113,647	-0,141	0,124
-223,913	-200,000	-0,014	0,065
-222,898	-3,740	-0,115	-0,058
-221,884	58,221	0,027	0,019
-220,869	800,000	-0,014	-0,036
-219,855	800,000	-0,039	0,099
-218,840	69,742	0,112	-0,084
-217,825	198,007	0,071	-0,078
-216,811	-200,000	0,013	-0,043
-215,796	-200,000	0,013	-0,044
-214,782	-200,000	-0,008	0,105
-213,767	-200,000	-0,017	0,127
-212,752	800,000	-0,032	0,073
-211,738	-120,469	0,081	0,010
-210,723	292,246	0,060	0,079
-209,709	800,000	-0,053	0,108
-208,694	-114,794	0,079	0,011
-207,679	800,000	-0,055	-0,143
-206,665	729,821	-0,031	-0,060
-205,650	-10,645	0,028	-0,013
-204,636	-200,000	-0,010	0,035
-203,621	-126,015	-0,092	-0,010
-202,606	176,669	0,043	-0,045
-201,592	-156,583	-0,158	0,007
-200,577	448,352	-0,074	-0,118
-199,563	242,100	-0,099	-0,119
-198,548	-200,000	-0,003	-0,013
-197,533	273,349	0,112	-0,143
-196,519	-49,541	-0,106	-0,036
-195,504	403,127	0,088	-0,135
-194,490	-200,000	-0,012	-0,082
-193,475	144,067	-0,107	-0,103
-192,460	54,136	0,039	0,027
-191,446	15,195	0,044	-0,025
-190,431	800,000	-0,010	0,021
-189,417	-76,421	0,041	0,010
-188,402	262,970	-0,024	0,030
-187,387	-34,314	0,039	-0,015
-186,373	-44,115	-0,084	-0,030
-185,358	-200,000	0,010	0,090
-184,344	800,000	0,034	0,080
-183,329	-37,014	0,066	-0,025
-182,315	41,993	-0,036	-0,024
-181,300	-200,000	-0,041	-0,234
-180,285	-3,448	-0,081	0,040
-179,271	-200,000	-0,003	-0,043
-178,256	195,953	0,019	0,021
-177,242	-24,040	0,043	-0,018
-176,227	-200,000	-0,027	0,106
-175,212	800,000	-0,035	0,092
-174,198	800,000	-0,010	0,023
-173,183	-6,081	-0,088	0,043
-172,169	-91,919	-0,161	0,033
-171,154	-98,355	0,118	0,022
-170,139	-200,000	-0,028	-0,096
-169,125	166,182	-0,061	-0,062
-168,110	-85,666	0,144	-0,032
-167,096	212,289	0,088	-0,100
-166,081	800,000	-0,058	-0,127
-165,066	152,491	-0,100	0,099
-164,052	81,821	-0,115	-0,090
-163,037	38,450	0,117	-0,075
-162,023	-120,766	-0,073	0,009
-161,008	-30,020	0,063	-0,026
-159,993	44,412	0,104	0,069
-158,979	263,731	-0,031	0,039
-157,964	-42,444	-0,069	0,025
-156,950	-98,547	-0,059	-0,011
-155,935	-107,856	-0,074	-0,012
-154,920	800,000	-0,073	0,179
-153,906	-200,000	0,013	0,056
-152,891	-78,205	-0,120	0,029
-151,877	-200,000	0,008	-0,056
-150,862	247,068	-0,062	0,075
-149,847	-120,204	-0,047	0,006
-148,833	800,000	0,021	-0,058
-147,818	606,261	0,059	0,106
-146,804	800,000	-0,016	-0,043
-145,789	728,412	0,057	0,110
-144,775	800,000	-0,038	0,097
-143,760	-200,000	-0,010	0,083
-142,745	-52,750	0,098	-0,032
-141,731	-117,565	-0,162	0,021
-140,716	131,373	0,093	-0,086
-139,702	295,009	0,081	0,107
-138,687	-25,909	-0,159	0,067
-137,672	-127,860	0,025	0,003
-136,658	-200,000	0,023	0,088
-135,643	-22,825	0,074	-0,032
-134,629	-200,000	0,016	0,106
-133,614	346,900	0,096	0,136
-132,599	93,227	0,027	-0,022
-131,585	-8,454	-0,072	-0,035
-130,570	38,946	-0,065	0,042
-129,556	181,025	-0,039	-0,042
-128,541	-94,396	-0,086	-0,017
-127,526	-51,974	0,077	-0,026
-126,512	-75,675	-0,022	0,006
-125,497	-200,000	0,007	0,171
-124,483	800,000	-0,040	0,094
-123,468	59,918	-0,152	-0,108
-122,453	444,835	-0,020	-0,032
-121,439	342,192	0,065	-0,092
-120,424	-85,509	-0,122	-0,027
