DTS Sentinel unit serial number:	SN410029Multiplexer serial number:	ORYXHardware model number:	OX2-SRSoftware version number:	ORYX F/W v4,00 Oryx Data Collector v3.7.2.0data status	okinstallation	B5 Nyhavnadifferential loss correction	single-endedforward channel	channel 2reverse channel	N/Adate	2023/12/14time	03:47:13forward acquisition time	300,00reverse acquisition time	0,00gamma	499,1914k internal	0,3156k external	0,3156temperature offset calibration	1,0000default loss term (dB/km)	0,3820temperature slope calibration	1,0000multiplexer offset coefficient	1,0000multiplexer slope coefficient	1,0000fibre end	0,00T internal ref (°C)	8,10T ext. ref 1 (°C)	-8,32T ext. ref 2 (°C)	-8,40length (m)	temperature (°C)	Stokes	anti-Stokes-744,400	13,036	0,159	0,091
-743,385	-140,590	-0,239	-0,018
-742,371	-159,954	0,214	-0,008
-741,356	-118,544	-0,387	-0,050
-740,342	-34,295	0,094	-0,038
-739,327	-112,669	-0,407	-0,059
-738,312	800,000	0,018	0,055
-737,298	-74,351	-0,358	-0,095
-736,283	-23,335	0,101	0,045
-735,269	3,050	-0,327	-0,175
-734,254	-200,000	0,058	0,263
-733,239	1,350	-0,513	-0,271
-732,225	-76,030	0,306	0,079
-731,210	-200,000	0,007	-0,053
-730,196	116,052	0,053	-0,048
-729,181	96,627	-0,083	0,070
-728,167	306,967	0,009	-0,013
-727,152	-133,865	-0,123	0,011
-726,137	10,841	-0,153	-0,086
-725,123	-85,334	-0,042	-0,010
-724,108	111,367	-0,127	-0,113
-723,094	-200,000	-0,014	-0,083
-722,079	189,332	0,099	-0,110
-721,064	10,141	-0,032	-0,018
-720,050	800,000	-0,049	0,102
-719,035	-72,408	0,023	-0,006
-718,021	97,665	0,043	0,037
-717,006	298,832	0,078	-0,106
-715,991	233,202	-0,029	0,035
-714,977	49,071	-0,061	-0,042
-713,962	662,518	-0,037	-0,070
-712,948	287,282	-0,134	-0,179
-711,933	800,000	-0,047	0,128
-710,918	-200,000	-0,011	-0,108
-709,904	27,796	0,157	-0,097
-708,889	-139,247	-0,112	-0,009
-707,875	-135,579	0,112	-0,010
-706,860	300,798	0,018	-0,025
-705,845	0,709	0,096	0,050
-704,831	800,000	0,043	-0,092
-703,816	-145,076	-0,167	-0,011
-702,802	501,225	-0,074	0,126
-701,787	-23,528	-0,125	0,055
-700,772	191,768	0,085	0,094
-699,758	-200,000	0,023	-0,123
-698,743	-39,567	0,255	-0,098
-697,729	-200,000	0,010	0,129
-696,714	42,920	0,076	0,051
-695,699	-200,000	-0,004	0,037
-694,685	-200,000	-0,006	-0,095
-693,670	800,000	-0,043	-0,124
-692,656	800,000	0,016	-0,042
-691,641	1,188	-0,154	0,081
-690,627	-200,000	0,023	0,084
-689,612	-134,515	0,165	0,015
-688,597	-119,549	-0,121	-0,015
-687,583	-106,425	0,121	-0,020
-686,568	-80,077	-0,190	-0,047
-685,554	-200,000	-0,009	-0,118
-684,539	372,122	-0,062	0,093
-683,524	392,707	0,024	0,037
-682,510	-18,236	0,097	0,044
-681,495	-34,125	0,115	-0,046
-680,481	-141,793	-0,137	0,010
-679,466	203,775	0,139	-0,159
-678,451	306,093	0,015	0,021
-677,437	116,216	-0,100	-0,090
-676,422	506,073	-0,022	0,038
-675,408	140,027	-0,042	-0,041
-674,393	800,000	-0,041	-0,119
-673,378	-66,576	-0,099	0,029
-672,364	800,000	0,054	-0,162
-671,349	800,000	0,029	-0,082
-670,335	-84,051	0,072	-0,017
-669,320	107,907	-0,092	-0,081
-668,305	249,431	0,043	0,054
-667,291	85,348	0,034	-0,027
-666,276	800,000	0,031	-0,078
-665,262	122,199	-0,081	0,074
-664,247	292,339	-0,060	0,080
-663,232	-140,315	0,065	0,005
-662,218	800,000	0,019	-0,059
-661,203	-200,000	0,006	-0,047
-660,189	-25,812	-0,126	-0,055
-659,174	800,000	-0,031	-0,100
-658,159	-62,104	0,050	-0,015
-657,145	78,791	-0,062	-0,049
-656,130	-200,000	-0,006	-0,021
-655,116	-115,496	0,157	0,021
-654,101	-71,263	0,168	-0,046
-653,086	5,109	-0,038	0,020
-652,072	212,757	-0,049	-0,056
-651,057	-200,000	-0,001	0,044
-650,043	-18,756	-0,043	0,019
-649,028	-200,000	0,011	-0,079
-648,014	275,461	0,073	-0,095
-646,999	97,236	0,048	-0,041
-645,984	800,000	-0,085	0,188
-644,970	800,000	-0,015	-0,036
-643,955	185,464	-0,068	0,074
-642,941	71,320	-0,048	0,036
-641,926	-200,000	-0,017	-0,054
-640,911	85,085	-0,052	-0,042
-639,897	46,834	0,111	-0,075
-638,882	-200,000	0,018	-0,084
-637,868	-200,000	0,003	0,020
-636,853	119,994	-0,085	0,078
-635,838	19,698	0,041	0,024
-634,824	-200,000	-0,014	0,154
-633,809	698,804	0,044	0,086
-632,795	-200,000	0,023	0,100
-631,780	-200,000	-0,019	-0,086
-630,765	-79,753	-0,038	-0,009
-629,751	472,719	-0,030	0,050
-628,736	-39,112	-0,124	-0,048
-627,722	409,071	-0,051	-0,079
-626,707	800,000	0,029	0,075
-625,692	276,130	0,073	0,095
-624,678	-200,000	-0,016	0,098
-623,663	216,985	-0,029	-0,034
-622,649	678,777	0,027	-0,051
-621,634	146,728	0,059	-0,058
-620,619	-200,000	0,019	-0,103
-619,605	-200,000	-0,017	-0,079
-618,590	100,833	-0,060	0,051
-617,576	-24,408	0,029	-0,013
-616,561	800,000	-0,019	0,046
-615,546	-200,000	0,010	-0,078
-614,532	501,694	0,051	-0,086
-613,517	239,054	0,053	0,064
-612,503	641,974	-0,047	0,088
-611,488	85,213	0,037	0,030
-610,474	800,000	0,087	0,251
-609,459	-150,656	-0,082	-0,005
-608,444	-94,169	-0,086	0,017
-607,430	-200,000	0,005	-0,057
-606,415	363,714	-0,039	0,058
-605,401	800,000	-0,046	0,121
-604,386	-200,000	0,010	0,131
-603,371	800,000	0,048	0,117
-602,357	800,000	0,030	0,068
-601,342	-89,939	0,074	-0,016
-600,328	232,118	-0,073	0,089
-599,313	791,165	-0,028	0,058
-598,298	-14,714	0,093	0,044
-597,284	356,971	0,027	-0,040
-596,269	138,071	0,140	0,135
-595,255	-1,006	-0,095	0,049
-594,240	-200,000	0,012	-0,054
-593,225	-109,845	-0,072	0,011
-592,211	166,717	0,038	0,040
-591,196	148,432	0,105	-0,104
-590,182	800,000	0,017	-0,052
-589,167	-40,659	0,108	0,041
-588,152	629,760	0,095	-0,177
-587,138	698,294	-0,065	-0,127
-586,123	5,657	-0,071	-0,038
-585,109	95,392	0,098	-0,082
-584,094	48,751	-0,066	-0,045
-583,079	229,590	-0,090	0,107
-582,065	312,359	-0,104	0,144
-581,050	65,646	0,116	0,086
-580,036	-99,162	0,048	-0,009
-579,021	194,770	0,056	-0,063
-578,006	-123,496	-0,118	-0,014
-576,992	301,675	-0,061	-0,083
-575,977	43,316	0,087	0,058
-574,963	-15,655	-0,017	-0,008
-573,948	1,339	-0,093	-0,049
-572,934	176,205	0,057	0,061
-571,919	441,430	-0,043	-0,069
-570,904	-40,922	-0,032	-0,012
-569,890	-200,000	-0,024	-0,120
-568,875	800,000	-0,043	-0,093
-567,861	13,499	0,080	-0,045
-566,846	-113,639	-0,041	-0,006
-565,831	-200,000	0,042	0,153
-564,817	-200,000	-0,171	-0,001
-563,802	67,698	0,033	0,024
-562,788	-200,000	-0,019	-0,136
-561,773	-85,278	-0,066	0,015
-560,758	-23,801	0,074	0,032
-559,744	-64,520	0,064	0,019
-558,729	259,488	-0,048	-0,060
-557,715	596,053	-0,024	-0,043
-556,700	-158,060	-0,035	-0,001
-555,685	800,000	0,021	0,059
-554,671	-200,000	0,019	0,115
-553,656	-88,584	0,110	-0,024
-552,642	-83,707	-0,002	0,000
-551,627	800,000	0,026	-0,076
-550,612	315,532	0,092	-0,127
-549,598	246,892	-0,072	-0,089
-548,583	800,000	-0,011	0,024
-547,569	-153,559	0,081	-0,004
-546,554	-187,084	-0,064	-0,001
-545,539	-78,452	0,069	-0,017
-544,525	-200,000	-0,006	-0,112
-543,510	-200,000	-0,026	0,143
-542,496	51,895	0,024	-0,017
-541,481	82,602	-0,066	-0,052
-540,466	440,370	-0,096	-0,153
-539,452	338,450	-0,052	-0,074
-538,437	-146,895	0,081	0,005
-537,423	177,489	0,068	0,073
-536,408	343,264	0,006	-0,009
-535,393	396,308	-0,015	0,023
-534,379	-200,000	-0,019	-0,097
-533,364	3,460	-0,120	-0,064
-532,350	439,782	0,093	0,149
-531,335	-200,000	0,006	0,068
-530,321	800,000	-0,020	-0,048
-529,306	-200,000	0,006	-0,021
-528,291	800,000	0,048	-0,133
-527,277	-200,000	-0,030	-0,113
-526,262	-64,327	-0,026	0,008
-525,248	-154,985	0,066	0,003
-524,233	-200,000	0,006	-0,028
-523,218	-101,258	-0,060	0,011
-522,204	446,361	-0,062	-0,101
-521,189	543,069	-0,070	-0,123
-520,175	749,910	-0,072	0,144
-519,160	-81,941	0,062	0,015
-518,145	-200,000	-0,017	-0,060
-517,131	-92,707	0,045	0,009
-516,116	213,717	-0,013	-0,016
-515,102	800,000	0,018	0,048
-514,087	245,244	0,046	0,056
-513,072	13,792	-0,091	-0,051
-512,058	-48,273	0,165	0,058
-511,043	800,000	0,010	0,032
-510,029	-200,000	-0,021	0,079
-509,014	43,041	-0,077	0,051
-507,999	-9,884	-0,055	0,027
-506,985	-200,000	-0,014	-0,192
-505,970	-12,377	0,067	-0,032
-504,956	459,822	0,049	-0,080
-503,941	-35,557	-0,030	0,012
-502,926	153,360	0,057	0,057
-501,912	-79,630	-0,051	0,013
-500,897	-200,000	-0,020	-0,132
-499,883	800,000	0,024	-0,053
-498,868	-200,000	-0,001	-0,101
-497,853	-15,865	-0,100	0,046
-496,839	-200,000	0,017	0,086
-495,824	256,069	-0,085	-0,106
-494,810	-131,621	0,181	0,017
-493,795	590,363	0,061	0,110
-492,781	279,310	-0,078	0,102
-491,766	307,019	0,053	0,073
-490,751	-200,000	-0,020	-0,149
-489,737	247,423	0,094	-0,116
-488,722	14,100	0,084	0,047
-487,708	-108,221	0,070	-0,011
-486,693	348,141	0,041	0,060
-485,678	-72,205	0,081	-0,022
-484,664	202,951	-0,084	-0,095
-483,649	-8,881	-0,038	0,018
-482,635	-200,000	-0,012	-0,104
-481,620	-200,000	0,008	-0,080
-480,605	771,528	-0,086	0,172
-479,591	-200,000	0,028	0,099
-478,576	-200,000	0,020	0,090
-477,562	11,773	-0,177	0,099
-476,547	-39,414	0,127	-0,048
-475,532	-124,217	-0,183	0,021
-474,518	-200,000	0,028	-0,177
-473,503	-47,715	0,067	0,024
-472,489	800,000	-0,061	0,181
-471,474	221,509	0,056	0,066
-470,459	800,000	-0,020	-0,050
-469,445	72,243	-0,054	-0,041
-468,430	-200,000	0,005	0,062
-467,416	-200,000	0,033	0,121
-466,401	800,000	0,025	0,073
-465,386	39,763	0,090	0,059
-464,372	800,000	-0,039	0,123
-463,357	800,000	-0,047	0,119
-462,343	-200,000	-0,036	0,118
-461,328	-121,617	0,082	-0,010
-460,313	-200,000	-0,067	0,336
-459,299	-200,000	0,054	0,212
-458,284	18,194	0,060	-0,035
-457,270	17,833	0,091	-0,053
-456,255	720,357	-0,027	0,053
-455,241	-86,874	-0,106	-0,023
-454,226	-200,000	-0,025	-0,082
-453,211	-15,306	0,186	0,087
-452,197	-200,000	-0,004	-0,014
-451,182	789,168	-0,033	0,067
-450,168	-84,636	-0,071	0,016
-449,153	800,000	0,028	-0,076
-448,138	7,719	0,051	0,028
-447,124	-200,000	-0,026	-0,147
-446,109	-200,000	0,002	0,083
-445,095	315,281	-0,027	-0,037
-444,080	-73,694	-0,038	0,010
-443,065	85,530	-0,024	0,019
-442,051	567,112	-0,061	-0,109
-441,036	21,503	-0,089	-0,053
-440,022	-200,000	0,023	-0,094
-439,007	309,031	-0,081	0,111
-437,992	-130,748	-0,106	0,010
-436,978	158,272	-0,088	-0,089
-435,963	-200,000	0,007	0,059
-434,949	284,058	-0,009	0,012
-433,934	-28,907	-0,031	0,013
-432,919	-85,097	-0,138	-0,031
-431,905	-200,000	-0,004	-0,053
-430,890	800,000	-0,025	0,079
-429,876	-200,000	-0,009	-0,039
-428,861	289,733	-0,009	0,012
-427,846	-14,809	-0,105	0,049
-426,832	122,558	0,089	-0,081
-425,817	-149,212	0,073	0,004
-424,803	187,671	-0,038	-0,042
-423,788	-88,908	0,046	0,010
-422,773	-156,916	0,027	-0,001
-421,759	-200,000	-0,007	0,094
-420,744	-200,000	0,014	0,100
-419,730	-123,221	0,120	-0,014
-418,715	301,076	-0,058	-0,078
-417,701	800,000	-0,039	-0,083
-416,686	207,564	-0,040	-0,046
-415,671	-49,768	-0,041	-0,014
-414,657	-66,350	-0,009	0,003
-413,642	-76,928	0,117	-0,030
-412,628	-200,000	-0,002	0,020
-411,613	-13,466	-0,153	-0,072
-410,598	142,411	-0,085	0,082
-409,584	-200,000	-0,012	0,048
-408,569	326,012	0,074	0,103
-407,555	800,000	0,013	0,039
-406,540	-127,514	-0,181	-0,019
-405,525	-108,684	-0,125	-0,019
-404,511	-200,000	-0,027	-0,123
-403,496	-37,381	0,057	-0,022
-402,482	-144,710	0,035	0,002
-401,467	800,000	-0,028	0,066
-400,452	-22,267	-0,106	0,046
-399,438	150,275	0,083	-0,082
-398,423	-200,000	-0,010	-0,159
-397,409	-118,404	0,053	0,007
-396,394	84,338	0,076	0,061
-395,379	-84,925	-0,116	-0,026
-394,365	203,857	0,073	-0,083
-393,350	321,777	-0,062	-0,086
-392,336	-200,000	0,014	0,166
-391,321	150,292	-0,086	-0,085
-390,306	303,212	0,102	-0,138
-389,292	796,392	-0,024	0,048
-388,277	800,000	0,033	-0,082
-387,263	375,913	-0,045	-0,067
-386,248	800,000	-0,050	0,114
-385,233	-200,000	0,043	0,156
-384,219	559,519	0,025	0,044
-383,204	92,988	-0,026	-0,021
-382,190	165,699	-0,097	-0,100
-381,175	99,684	0,073	-0,061
-380,160	-200,000	0,026	0,148
-379,146	687,671	-0,055	0,105
-378,131	200,240	-0,090	0,101
-377,117	341,896	-0,054	-0,078
-376,102	-200,000	0,002	0,026
-375,088	-12,088	-0,042	-0,020
-374,073	-81,150	0,083	-0,020
-373,058	-180,514	0,113	-0,002
-372,044	82,504	0,024	-0,019
-371,029	800,000	0,029	0,080
-370,015	199,902	-0,049	-0,055
-369,000	166,607	0,062	-0,064
-367,985	610,841	-0,018	0,033
-366,971	-200,000	-0,038	-0,152
-365,956	-200,000	0,002	0,060
-364,942	-200,000	0,000	0,098
-363,927	800,000	-0,043	0,096
-362,912	57,391	-0,060	0,043
-361,898	78,459	-0,131	0,102
-360,883	-26,326	0,080	0,034
-359,869	-30,834	0,045	-0,018
-358,854	800,000	0,039	-0,095
-357,839	274,246	0,051	0,066
-356,825	91,390	0,018	-0,014
-355,810	-17,323	0,105	0,048
-354,796	-122,073	-0,068	-0,008
-353,781	-119,800	-0,167	-0,021
-352,766	97,688	0,023	-0,020
-351,752	-38,790	0,060	0,023
-350,737	-53,847	0,045	0,015
-349,723	86,267	0,073	0,058
-348,708	179,296	-0,032	0,034
-347,693	509,682	-0,024	-0,040
-346,679	210,455	-0,026	-0,030
-345,664	-184,787	0,107	0,001
-344,650	58,194	0,013	-0,009
-343,635	-19,926	-0,070	0,031
-342,620	-14,324	0,030	-0,014
-341,606	-200,000	-0,017	0,063
-340,591	-20,850	0,087	0,039
-339,577	-200,000	-0,005	0,022
-338,562	372,007	0,058	-0,086
-337,548	-142,411	-0,092	0,007
-336,533	95,310	-0,028	-0,023
-335,518	800,000	-0,017	0,038
-334,504	48,469	-0,090	-0,061
-333,489	347,670	0,053	-0,076
-332,475	10,639	-0,092	-0,051
-331,460	-200,000	0,003	-0,022
-330,445	800,000	0,042	-0,091
-329,431	-135,550	-0,071	0,006
-328,416	214,195	0,055	0,063
-327,402	-99,261	0,043	0,008
-326,387	237,612	0,073	-0,088
-325,372	-122,631	-0,077	-0,009
-324,358	-200,000	0,000	-0,130
-323,343	103,264	-0,076	-0,065
-322,329	44,425	0,133	0,089
-321,314	-200,000	-0,004	0,021
-320,299	235,520	0,047	-0,057
-319,285	332,320	-0,027	-0,038
-318,270	233,521	0,056	-0,067
-317,256	-200,000	-0,010	-0,078
-316,241	69,780	0,013	-0,010
-315,226	144,520	-0,054	-0,052
-314,212	800,000	-0,020	-0,054
-313,197	-200,000	0,025	0,104
-312,183	-123,947	0,042	0,005
-311,168	-56,903	-0,151	-0,048
-310,153	-107,954	-0,099	-0,015
-309,139	439,649	0,069	-0,109
-308,124	-169,868	0,113	0,003
-307,110	-200,000	0,001	-0,081
-306,095	178,809	0,020	-0,021
-305,080	-121,073	-0,081	-0,010
-304,066	489,087	-0,098	-0,163
-303,051	121,277	-0,056	-0,051
-302,037	147,193	-0,086	0,084
-301,022	89,657	-0,051	0,041
-300,008	232,938	-0,028	-0,033
-298,993	178,211	0,061	0,065
-297,978	-52,938	0,134	0,044
-296,964	-200,000	-0,041	0,158
-295,949	-200,000	-0,015	0,146
-294,935	800,000	-0,017	-0,040
-293,920	-73,410	-0,117	0,031
-292,905	534,909	0,089	0,153
-291,891	112,423	-0,105	0,092
-290,876	-124,180	-0,044	0,005
-289,862	409,907	0,015	-0,022
-288,847	63,749	-0,084	0,061
-287,832	483,605	-0,040	0,066
-286,818	-200,000	-0,004	0,098
-285,803	-200,000	0,001	0,070
-284,789	138,002	0,010	0,009
-283,774	480,385	-0,078	0,128
-282,759	93,864	-0,040	0,033
-281,745	-200,000	0,006	-0,045
-280,730	-30,358	0,029	-0,012
-279,716	-200,000	0,008	0,042
-278,701	154,923	0,091	-0,091
-277,686	609,803	-0,025	-0,045
-276,672	-64,369	0,075	0,022
-275,657	800,000	-0,045	0,093
-274,643	501,948	-0,047	-0,079
-273,628	169,821	0,027	-0,028
-272,613	198,431	-0,099	-0,110
-271,599	-200,000	-0,008	0,033
-270,584	-200,000	0,002	-0,019
-269,570	800,000	0,028	-0,070
-268,555	-3,186	-0,056	0,028
-267,540	161,280	0,037	0,037
-266,526	-200,000	-0,015	-0,051
-265,511	-146,656	-0,127	0,008
-264,497	9,627	0,023	0,012
-263,482	-200,000	-0,022	0,220
-262,467	13,914	0,056	0,031
-261,453	-82,532	0,104	-0,024
-260,438	800,000	-0,024	-0,064
-259,424	-95,062	-0,132	-0,026
-258,409	519,059	0,103	-0,175
-257,395	17,818	0,049	-0,028
-256,380	-106,317	0,092	0,015
-255,365	-185,833	0,120	0,001
-254,351	800,000	0,037	0,077
-253,336	222,866	0,041	0,048
-252,322	-131,733	0,093	-0,009
-251,307	34,882	-0,076	-0,048
-250,292	-80,206	-0,089	-0,021
-249,278	403,945	0,052	-0,079
-248,263	307,870	-0,094	-0,127
-247,249	-200,000	-0,033	0,116
-246,234	800,000	0,020	0,050
-245,219	-72,650	0,066	0,018
-244,205	-200,000	0,009	-0,036
-243,190	-72,370	0,085	0,023
-242,176	-28,788	-0,088	-0,037
-241,161	-200,000	0,030	-0,114
-240,146	19,132	0,059	-0,034
-239,132	-200,000	0,107	-0,000
-238,117	297,639	-0,085	0,114
-237,103	-200,000	0,001	-0,021
-236,088	-138,116	0,075	-0,006
-235,073	-141,342	0,055	0,004
-234,059	-131,144	0,090	-0,009
-233,044	-200,000	-0,011	-0,090
-232,030	613,610	-0,030	0,055
-231,015	-2,378	-0,038	0,019
-230,000	-200,000	-0,020	0,117
-228,986	-20,862	0,069	-0,030
-227,971	-110,672	-0,023	0,003
-226,957	-91,576	0,099	0,020
-225,942	443,292	0,042	-0,067
-224,927	-32,961	0,033	0,013
-223,913	63,905	-0,067	-0,049
-222,898	270,602	0,038	0,048
-221,884	-200,000	-0,029	-0,101
-220,869	98,842	0,159	-0,132
-219,855	-84,489	0,033	0,007
-218,840	-200,000	0,018	0,066
-217,825	-25,654	-0,091	0,039
-216,811	-200,000	-0,011	-0,141
-215,796	128,677	-0,083	-0,076
-214,782	-89,502	-0,061	0,013
-213,767	-196,291	0,130	-0,001
-212,752	800,000	-0,040	0,098
-211,738	-127,756	0,107	0,011
-210,723	800,000	-0,021	-0,053
-209,709	350,985	-0,060	-0,086
-208,694	-42,488	-0,168	-0,062
-207,679	-200,000	0,015	-0,121
-206,665	12,484	0,118	0,066
-205,650	15,020	-0,151	0,085
-204,636	210,921	0,049	-0,056
-203,621	-200,000	0,038	-0,165
-202,606	800,000	0,006	0,018
-201,592	-99,960	0,048	-0,009
-200,577	-200,000	0,022	-0,101
-199,563	78,155	0,035	0,027
-198,548	120,771	0,044	0,039
-197,533	-99,644	0,047	0,008
-196,519	21,262	0,144	0,084
-195,504	-200,000	0,005	-0,052
-194,490	680,685	-0,033	-0,063
-193,475	375,127	0,044	-0,065
-192,460	19,234	-0,107	0,062
-191,446	-174,737	0,169	0,003
-190,431	-67,511	0,019	0,005
-189,417	-11,592	0,066	-0,031
-188,402	-86,388	0,118	0,026
-187,387	434,602	-0,032	-0,051
-186,373	606,464	-0,074	-0,134
-185,358	-191,763	0,082	0,001
-184,344	158,962	-0,016	-0,016
-183,329	175,963	0,023	0,024
-182,315	136,326	-0,064	-0,060
-181,300	-200,000	0,000	0,027
-180,285	194,254	-0,071	-0,078
-179,271	-200,000	-0,027	-0,126
-178,256	800,000	0,010	-0,032
-177,242	89,058	0,045	0,036
-176,227	-200,000	0,019	-0,108
-175,212	252,621	0,028	0,035
-174,198	-142,160	0,053	0,004
-173,183	-200,000	0,021	-0,129
-172,169	800,000	-0,022	-0,063
-171,154	-63,642	0,088	0,026
-170,139	-18,096	0,051	-0,023
-169,125	800,000	0,056	0,155
-168,110	-114,378	-0,123	-0,017
-167,096	800,000	0,042	0,111
-166,081	230,619	-0,021	0,024
-165,066	35,351	0,069	-0,044
-164,052	-110,368	0,071	-0,011
-163,037	463,390	0,089	0,143
-162,023	644,249	-0,063	0,116
-161,008	89,316	-0,043	-0,035
-159,993	-115,392	0,166	-0,022
-158,979	64,319	-0,075	0,054
-157,964	-89,372	-0,086	0,018
-156,950	335,753	0,077	0,108
-155,935	-70,719	-0,084	-0,023
-154,920	308,057	-0,014	-0,018
-153,906	800,000	0,033	0,086
-152,891	85,600	0,028	0,022
-151,877	554,061	0,043	-0,075
-150,862	-125,267	-0,095	-0,010
-149,847	-58,291	-0,031	0,010
-148,833	800,000	-0,011	-0,033
-147,818	800,000	0,027	-0,071
-146,804	-200,000	-0,027	0,098
-145,789	-92,153	0,078	-0,016
-144,775	79,787	-0,057	0,044
-143,760	-57,837	-0,034	-0,011
-142,745	-200,000	-0,008	-0,033
-141,731	-200,000	0,001	-0,005
-140,716	136,372	0,030	0,028
-139,702	-9,631	0,120	0,057
-138,687	-148,374	0,043	0,003
-137,672	18,903	-0,072	0,041
-136,658	328,074	0,082	0,113
-135,643	545,021	0,094	-0,162
-134,629	800,000	0,087	-0,216
-133,614	800,000	-0,048	-0,112
-132,599	-200,000	-0,008	0,112
-131,585	-137,728	0,032	0,003
-130,570	-187,573	-0,176	0,002
-129,556	-129,600	-0,106	-0,010
-128,541	-53,347	-0,137	-0,045
-127,526	-200,000	0,007	-0,034
-126,512	622,796	-0,006	-0,012
-125,497	587,738	0,022	-0,039
-124,483	-63,013	-0,093	-0,028
-123,468	-200,000	-0,010	0,235
-122,453	800,000	0,036	-0,094
-121,439	34,378	0,113	0,071
-120,424	-73,558	-0,020	-0,005
-119,410	6,751	-0,066	0,035
