DTS Sentinel unit serial number:	SN410029Multiplexer serial number:	ORYXHardware model number:	OX2-SRSoftware version number:	ORYX F/W v4,00 Oryx Data Collector v3.7.2.0data status	okinstallation	B5 Nyhavnadifferential loss correction	single-endedforward channel	channel 2reverse channel	N/Adate	2023/12/14time	03:37:13forward acquisition time	300,00reverse acquisition time	0,00gamma	499,1914k internal	0,3156k external	0,3156temperature offset calibration	1,0000default loss term (dB/km)	0,3820temperature slope calibration	1,0000multiplexer offset coefficient	1,0000multiplexer slope coefficient	1,0000fibre end	0,00T internal ref (°C)	8,14T ext. ref 1 (°C)	-8,25T ext. ref 2 (°C)	-8,33length (m)	temperature (°C)	Stokes	anti-Stokes-744,400	504,274	0,026	-0,045
-743,385	-74,286	-0,246	-0,065
-742,371	-95,007	0,165	-0,033
-741,356	-99,767	-0,466	0,085
-740,342	-153,182	0,233	0,012
-739,327	-141,118	-0,305	0,023
-738,312	-51,974	0,078	0,027
-737,298	284,980	-0,243	-0,324
-736,283	-5,750	0,070	0,035
-735,269	-155,614	-0,306	0,014
-734,254	-69,287	0,130	0,037
-733,239	-74,064	-0,620	-0,165
-732,225	-10,707	0,291	0,141
-731,210	-200,000	0,012	0,111
-730,196	-16,018	0,113	-0,053
-729,181	798,545	-0,046	-0,093
-728,167	800,000	-0,060	-0,140
-727,152	209,557	-0,044	-0,051
-726,137	106,945	-0,039	-0,034
-725,123	-91,590	-0,126	-0,026
-724,108	332,539	0,036	-0,052
-723,094	590,751	-0,057	0,104
-722,079	183,581	-0,081	-0,088
-721,064	171,357	-0,078	-0,083
-720,050	196,405	0,068	-0,076
-719,035	727,005	0,014	0,029
-718,021	70,788	-0,077	-0,059
-717,006	-200,000	0,031	-0,113
-715,991	-200,000	-0,023	-0,203
-714,977	504,254	-0,045	-0,076
-713,962	-166,821	0,159	0,005
-712,948	-138,580	-0,033	-0,003
-711,933	-200,000	0,002	0,018
-710,918	238,389	-0,074	0,091
-709,904	254,184	-0,046	-0,058
-708,889	-200,000	0,022	-0,124
-707,875	5,280	-0,184	-0,100
-706,860	-200,000	0,017	0,114
-705,845	42,267	-0,065	-0,043
-704,831	48,592	0,049	0,034
-703,816	-200,000	-0,017	0,074
-702,802	131,469	-0,105	-0,099
-701,787	664,320	-0,031	0,059
-700,772	313,484	-0,077	-0,107
-699,758	0,655	0,071	-0,037
-698,743	-53,878	-0,140	0,047
-697,729	-84,603	0,085	0,020
-696,714	215,594	0,055	-0,064
-695,699	150,845	0,071	-0,072
-694,685	56,820	-0,098	0,070
-693,670	35,581	-0,112	-0,072
-692,656	269,197	-0,011	0,014
-691,641	109,779	0,085	0,075
-690,627	-200,000	-0,009	0,110
-689,612	108,098	-0,050	0,044
-688,597	-137,128	-0,183	0,015
-687,583	190,834	0,047	-0,052
-686,568	250,720	0,031	0,039
-685,554	605,319	-0,029	0,053
-684,539	-157,030	-0,122	0,005
-683,524	221,209	0,074	0,088
-682,510	595,659	-0,028	0,052
-681,495	81,181	0,077	0,061
-680,481	-117,259	-0,047	-0,006
-679,466	-200,000	0,020	-0,122
-678,451	-120,653	0,025	-0,003
-677,437	-200,000	-0,015	0,103
-676,422	-200,000	0,020	0,094
-675,408	145,049	0,122	0,120
-674,393	800,000	0,063	-0,149
-673,378	800,000	0,047	-0,138
-672,364	-200,000	0,009	-0,060
-671,349	-200,000	-0,003	-0,106
-670,335	-200,000	-0,014	-0,046
-669,320	-79,953	-0,090	-0,022
-668,305	161,547	-0,031	0,032
-667,291	800,000	-0,038	0,079
-666,276	511,059	-0,002	-0,004
-665,262	221,362	-0,160	-0,189
-664,247	-200,000	0,007	-0,033
-663,232	123,878	-0,054	0,050
-662,218	-6,419	0,107	-0,053
-661,203	-60,730	-0,013	-0,004
-660,189	-5,827	-0,051	-0,026
-659,174	171,692	-0,086	-0,091
-658,159	278,594	-0,047	-0,061
-657,145	119,768	-0,076	-0,070
-656,130	-200,000	-0,004	0,073
-655,116	65,008	0,064	-0,047
-654,101	76,432	0,014	-0,011
-653,086	378,375	-0,074	0,111
-652,072	-63,865	-0,169	0,051
-651,057	273,742	-0,053	-0,069
-650,043	214,470	-0,040	-0,047
-649,028	-200,000	-0,019	-0,078
-648,014	-200,000	0,023	-0,088
-646,999	-200,000	-0,001	-0,027
-645,984	800,000	-0,028	-0,077
-644,970	187,824	0,041	-0,045
-643,955	367,448	-0,123	-0,183
-642,941	131,020	-0,082	-0,077
-641,926	-200,000	-0,002	0,008
-640,911	-7,107	-0,130	-0,064
-639,897	-114,262	-0,060	0,008
-638,882	800,000	-0,031	-0,064
-637,868	527,205	-0,035	-0,060
-636,853	1,946	-0,233	-0,123
-635,838	-200,000	-0,003	0,050
-634,824	150,321	-0,037	-0,037
-633,809	654,491	0,036	0,068
-632,795	31,081	0,011	0,007
-631,780	536,365	0,035	-0,062
-630,765	19,937	-0,105	-0,062
-629,751	679,225	-0,071	-0,137
-628,736	503,839	-0,019	0,033
-627,722	-200,000	-0,009	-0,032
-626,707	-150,109	0,152	-0,009
-625,692	-200,000	-0,006	-0,044
-624,678	-200,000	-0,004	-0,027
-623,663	-8,089	-0,113	0,056
-622,649	26,826	0,069	0,043
-621,634	597,384	0,043	0,079
-620,619	176,641	-0,016	-0,017
-619,605	395,933	-0,019	0,029
-618,590	19,752	0,071	0,042
-617,576	-200,000	-0,013	0,073
-616,561	-91,971	-0,138	-0,028
-615,546	800,000	0,026	-0,057
-614,532	494,237	-0,068	-0,114
-613,517	-2,341	-0,077	-0,040
-612,503	-200,000	-0,013	-0,070
-611,488	-17,463	-0,023	0,011
-610,474	188,208	0,035	-0,039
-609,459	800,000	0,016	0,049
-608,444	2,522	-0,117	0,062
-607,430	444,759	-0,068	-0,110
-606,415	399,303	-0,013	0,019
-605,401	-200,000	-0,018	-0,113
-604,386	473,207	0,026	0,043
-603,371	193,883	0,067	0,074
-602,357	-186,056	0,039	0,000
-601,342	358,545	0,003	-0,005
-600,328	191,039	-0,121	-0,133
-599,313	800,000	0,019	0,060
-598,298	-60,219	-0,033	0,010
-597,284	-34,705	0,142	0,057
-596,269	30,608	-0,024	-0,015
-595,255	800,000	0,012	-0,030
-594,240	355,592	0,060	-0,087
-593,225	800,000	-0,033	0,084
-592,211	800,000	-0,044	-0,111
-591,196	27,028	-0,005	-0,003
-590,182	-200,000	0,031	-0,133
-589,167	800,000	-0,055	0,116
-588,152	-200,000	-0,019	-0,098
-587,138	165,625	0,092	0,096
-586,123	11,787	0,056	-0,031
-585,109	313,177	0,004	0,006
-584,094	-109,779	0,200	-0,030
-583,079	-127,951	0,063	-0,007
-582,065	415,851	0,028	-0,044
-581,050	-3,746	-0,062	0,032
-580,036	-37,885	-0,092	-0,036
-579,021	-164,600	-0,113	0,004
-578,006	282,367	-0,051	-0,067
-576,992	-62,838	0,173	-0,052
-575,977	-139,957	0,048	0,004
-574,963	299,039	0,086	0,116
-573,948	-200,000	-0,043	0,179
-572,934	134,413	-0,128	0,122
-571,919	800,000	-0,043	0,104
-570,904	800,000	-0,069	-0,146
-569,890	800,000	-0,012	-0,037
-568,875	84,919	-0,055	0,044
-567,861	-200,000	0,005	0,082
-566,846	800,000	0,028	0,076
-565,831	-200,000	0,014	0,073
-564,817	91,031	-0,021	-0,017
-563,802	800,000	-0,043	0,125
-562,788	208,143	0,047	-0,054
-561,773	-4,993	0,067	-0,033
-560,758	58,560	-0,081	0,058
-559,744	660,621	0,019	-0,037
-558,729	800,000	-0,031	-0,081
-557,715	800,000	0,040	0,083
-556,700	-200,000	-0,018	0,074
-555,685	641,429	-0,066	0,123
-554,671	-200,000	0,011	0,041
-553,656	-30,227	0,058	0,024
-552,642	254,167	-0,083	-0,105
-551,627	800,000	0,017	-0,041
-550,612	123,991	-0,083	-0,076
-549,598	87,698	0,016	-0,013
-548,583	-18,542	0,038	-0,017
-547,569	181,027	-0,103	-0,111
-546,554	-85,679	0,135	0,030
-545,539	-200,000	-0,028	-0,099
-544,525	-200,000	-0,000	-0,013
-543,510	800,000	-0,030	0,063
-542,496	-17,282	-0,059	0,027
-541,481	82,532	-0,092	0,073
-540,466	-61,660	-0,032	-0,010
-539,452	158,987	0,119	0,121
-538,437	-24,071	0,087	0,038
-537,423	157,930	-0,049	0,050
-536,408	-21,955	0,158	-0,070
-535,393	800,000	-0,073	-0,152
-534,379	184,102	0,015	0,016
-533,364	-64,939	-0,087	0,026
-532,350	289,033	0,041	-0,054
-531,335	156,899	0,142	0,144
-530,321	800,000	-0,045	0,123
-529,306	-27,625	-0,044	-0,019
-528,291	60,071	-0,065	0,047
-527,277	800,000	-0,008	0,021
-526,262	-200,000	0,033	0,171
-525,248	-200,000	0,005	0,061
-524,233	-200,000	-0,011	-0,071
-523,218	364,122	-0,053	0,079
-522,204	-31,553	-0,113	-0,046
-521,189	-200,000	-0,008	0,047
-520,175	-101,604	-0,068	-0,012
-519,160	10,255	0,107	0,059
-518,145	212,434	-0,030	0,035
-517,131	800,000	-0,030	0,075
-516,116	648,613	0,037	0,069
-515,102	-17,676	0,080	-0,036
-514,087	-123,584	-0,110	-0,013
-513,072	579,021	0,026	-0,047
-512,058	800,000	0,051	-0,132
-511,043	-88,136	-0,140	0,030
-510,029	479,308	-0,088	0,146
-509,014	5,831	0,093	0,050
-507,999	-200,000	-0,015	-0,104
-506,985	41,924	-0,062	-0,041
-505,970	800,000	-0,021	-0,044
-504,956	-200,000	0,015	-0,157
-503,941	-75,262	-0,116	-0,030
-502,926	-200,000	0,017	0,128
-501,912	-200,000	0,024	0,131
-500,897	-34,338	-0,038	-0,015
-499,883	800,000	-0,043	0,106
-498,868	210,663	-0,040	0,046
-497,853	-92,044	-0,038	-0,008
-496,839	-143,641	0,055	0,004
-495,824	38,673	0,120	0,078
-494,810	-68,112	-0,073	0,021
-493,795	-3,388	0,080	0,041
-492,781	-200,000	0,014	-0,092
-491,766	-23,385	-0,130	-0,057
-490,751	-17,861	-0,048	0,022
-489,737	-152,672	0,046	0,002
-488,722	-200,000	0,002	-0,086
-487,708	800,000	-0,050	0,143
-486,693	131,179	0,014	0,014
-485,678	800,000	-0,039	0,097
-484,664	114,631	-0,088	-0,078
-483,649	-22,074	-0,098	0,043
-482,635	-200,000	0,002	0,090
-481,620	-0,712	-0,049	-0,025
-480,605	-200,000	-0,015	0,058
-479,591	-200,000	0,054	0,211
-478,576	80,295	-0,052	-0,041
-477,562	-24,971	0,067	0,029
-476,547	-82,395	-0,096	0,023
-475,532	-200,000	0,001	-0,049
-474,518	800,000	0,048	0,101
-473,503	-200,000	0,016	-0,097
-472,489	605,642	0,042	-0,077
-471,474	102,455	-0,088	0,075
-470,459	102,196	-0,065	0,056
-469,445	559,437	-0,070	-0,124
-468,430	192,317	0,095	-0,105
-467,416	46,256	0,087	0,059
-466,401	-200,000	0,018	-0,063
-465,386	-200,000	0,003	0,028
-464,372	-200,000	-0,023	-0,113
-463,357	-200,000	-0,010	-0,076
-462,343	-13,092	-0,087	0,041
-461,328	-14,799	0,100	-0,046
-460,313	185,926	0,074	0,080
-459,299	-8,910	0,061	0,030
-458,284	-200,000	0,001	0,054
-457,270	-200,000	0,052	0,176
-456,255	800,000	0,013	-0,037
-455,241	122,647	0,135	-0,123
-454,226	9,184	0,056	-0,031
-453,211	-45,810	0,051	-0,018
-452,197	-2,180	0,044	-0,022
-451,182	-28,270	0,090	-0,038
-450,168	50,205	-0,066	0,045
-449,153	-200,000	0,001	0,078
-448,138	-200,000	-0,008	-0,048
-447,124	-200,000	-0,003	0,064
-446,109	518,597	0,014	0,024
-445,095	-200,000	0,008	0,048
-444,080	-200,000	0,019	0,071
-443,065	218,143	0,066	0,076
-442,051	26,282	-0,146	-0,088
-441,036	454,092	0,051	0,082
-440,022	-96,997	-0,054	0,010
-439,007	64,332	-0,041	-0,030
-437,992	137,653	0,075	0,071
-436,978	-76,052	-0,079	0,020
-435,963	-200,000	0,040	-0,176
-434,949	-200,000	-0,013	-0,123
-433,934	166,134	0,045	0,046
-432,919	148,880	-0,042	-0,041
-431,905	-129,257	0,102	-0,010
-430,890	-200,000	-0,016	0,072
-429,876	224,707	-0,065	0,077
-428,861	-187,916	0,024	-0,000
-427,846	-117,442	-0,119	0,016
-426,832	-126,469	0,170	0,018
-425,817	-200,000	0,003	0,064
-424,803	473,460	-0,025	-0,042
-423,788	-165,618	-0,070	-0,002
-422,773	-132,319	0,144	0,013
-421,759	-77,546	-0,052	0,013
-420,744	800,000	-0,037	0,098
-419,730	-200,000	-0,023	-0,123
-418,715	800,000	0,047	0,136
-417,701	-200,000	-0,005	0,045
-416,686	-85,392	0,075	-0,017
-415,671	634,347	0,044	0,082
-414,657	120,845	-0,065	-0,059
-413,642	338,327	-0,060	0,085
-412,628	-187,012	0,088	0,001
-411,613	-200,000	0,043	-0,143
-410,598	800,000	0,036	-0,114
-409,584	637,665	0,083	0,155
-408,569	-200,000	-0,014	0,057
-407,555	-200,000	0,007	0,134
-406,540	-95,141	0,192	-0,037
-405,525	38,024	-0,055	-0,036
-404,511	45,943	-0,193	-0,130
-403,496	36,416	0,107	0,069
-402,482	-102,353	0,152	-0,026
-401,467	-200,000	-0,013	-0,048
-400,452	-200,000	-0,002	0,056
-399,438	33,988	0,022	-0,014
-398,423	10,356	-0,043	0,024
-397,409	213,617	0,063	0,072
-396,394	-200,000	-0,005	-0,135
-395,379	27,901	-0,193	0,118
-394,365	-49,349	0,052	-0,018
-393,350	19,362	-0,093	-0,054
-392,336	111,747	0,060	-0,053
-391,321	800,000	-0,040	-0,119
-390,306	313,324	-0,086	-0,118
-389,292	-200,000	-0,014	-0,072
-388,277	-42,409	-0,066	0,024
-387,263	-131,386	-0,004	0,000
-386,248	800,000	-0,021	0,046
-385,233	30,075	-0,059	0,036
-384,219	164,093	0,078	0,080
-383,204	-200,000	-0,037	-0,132
-382,190	71,344	-0,046	-0,035
-381,175	-153,044	0,140	-0,007
-380,160	-71,628	0,025	-0,007
-379,146	137,525	0,060	0,057
-378,131	800,000	0,013	-0,032
-377,117	327,877	0,019	0,026
-376,102	-112,380	0,093	-0,013
-375,088	-37,514	0,067	0,026
-374,073	30,272	-0,077	0,048
-373,058	-81,995	0,160	-0,038
-372,044	149,070	0,080	0,078
-371,029	800,000	0,049	0,148
-370,015	50,703	-0,072	-0,050
-369,000	518,031	-0,031	-0,053
-367,985	-200,000	0,007	-0,071
-366,971	370,222	0,026	-0,038
-365,956	-87,331	-0,042	-0,009
-364,942	-147,105	0,165	-0,010
-363,927	-1,753	-0,041	0,021
-362,912	409,695	-0,042	0,065
-361,898	-44,905	0,035	-0,013
-360,883	507,550	-0,099	-0,168
-359,869	800,000	0,011	0,027
-358,854	-120,137	0,034	-0,004
-357,839	-130,073	0,104	-0,010
-356,825	245,721	-0,025	0,031
-355,810	665,125	-0,061	0,114
-354,796	19,261	0,171	0,100
-353,781	34,373	-0,052	0,033
-352,766	800,000	0,043	0,110
-351,752	151,747	-0,039	-0,039
-350,737	13,997	0,155	0,087
-349,723	-114,333	-0,087	-0,012
-348,708	-77,664	0,054	0,013
-347,693	205,524	-0,109	-0,123
-346,679	-127,552	-0,182	0,019
-345,664	418,801	0,063	-0,099
-344,650	-200,000	-0,009	-0,127
-343,635	-83,544	0,063	0,015
-342,620	25,202	-0,187	0,113
-341,606	567,655	0,056	0,100
-340,591	-166,442	-0,032	0,001
-339,577	-128,474	0,108	-0,011
-338,562	-1,313	-0,046	-0,024
-337,548	-76,561	-0,005	0,001
-336,533	62,768	0,177	0,128
-335,518	-200,000	-0,008	-0,100
-334,504	-200,000	0,012	0,075
-333,489	351,467	0,045	-0,065
-332,475	-16,475	-0,043	0,020
-331,460	617,184	-0,035	0,065
-330,445	134,520	0,041	-0,038
-329,431	-12,604	0,149	-0,070
-328,416	259,891	-0,052	-0,065
-327,402	800,000	0,053	-0,113
-326,387	271,238	0,033	0,042
-325,372	-173,759	-0,097	0,002
-324,358	202,097	0,053	-0,059
-323,343	35,777	0,046	-0,029
-322,329	-88,888	0,079	-0,017
-321,314	262,589	0,070	0,088
-320,299	351,103	-0,055	0,079
-319,285	248,565	-0,111	0,137
-318,270	-200,000	-0,021	0,078
-317,256	-44,812	-0,127	-0,046
-316,241	800,000	0,028	-0,076
-315,226	-86,971	0,101	-0,022
-314,212	-200,000	-0,017	-0,062
-313,197	800,000	-0,032	0,083
-312,183	-200,000	-0,014	0,056
-311,168	-116,173	-0,143	0,019
-310,153	18,639	0,137	-0,079
-309,139	-200,000	-0,021	0,101
-308,124	269,249	0,073	0,093
-307,110	-82,223	-0,009	-0,002
-306,095	800,000	-0,034	0,076
-305,080	48,900	0,052	0,035
-304,066	-84,153	-0,115	0,026
-303,051	-17,887	0,096	0,044
-302,037	326,605	0,107	-0,149
-301,022	137,681	-0,048	0,046
-300,008	800,000	-0,025	-0,072
-298,993	800,000	-0,016	-0,043
-297,978	53,343	-0,176	-0,122
-296,964	65,376	-0,079	-0,058
-295,949	-200,000	0,016	0,066
-294,935	-133,996	-0,061	0,005
-293,920	800,000	-0,006	-0,013
-292,905	-70,852	-0,138	0,038
-291,891	-200,000	-0,015	0,080
-290,876	449,929	0,019	0,030
-289,862	270,175	-0,120	0,153
-288,847	-200,000	0,012	-0,124
-287,832	68,246	-0,108	-0,080
-286,818	546,238	0,020	-0,034
-285,803	511,295	-0,036	-0,062
-284,789	52,660	0,106	0,073
-283,774	-200,000	0,021	0,097
-282,759	-27,434	0,029	-0,012
-281,745	-107,571	-0,099	-0,016
-280,730	-143,523	0,116	-0,008
-279,716	250,866	0,044	-0,055
-278,701	-65,545	-0,046	-0,013
-277,686	800,000	-0,021	0,062
-276,672	304,224	-0,058	0,078
-275,657	-8,321	0,190	-0,092
-274,643	-104,483	-0,173	0,029
-273,628	689,670	-0,057	-0,109
-272,613	-200,000	0,002	-0,025
-271,599	338,102	0,060	0,085
-270,584	800,000	0,086	0,178
-269,570	4,470	-0,052	-0,028
-268,555	-124,709	0,114	-0,013
-267,540	485,278	-0,036	-0,059
-266,526	-35,494	-0,064	0,025
-265,511	-13,122	-0,126	-0,059
-264,497	-28,523	0,102	-0,042
-263,482	800,000	0,042	-0,132
-262,467	425,389	0,004	0,007
-261,453	-90,625	0,017	0,004
-260,438	-200,000	-0,003	-0,077
-259,424	126,336	0,157	-0,144
-258,409	113,538	0,138	-0,121
-257,395	-96,008	-0,021	-0,004
-256,380	121,868	0,070	-0,063
-255,365	-44,828	0,045	0,016
-254,351	-12,948	-0,092	-0,043
-253,336	16,057	0,097	-0,055
-252,322	409,463	-0,040	0,061
-251,307	156,950	0,075	0,075
-250,292	-97,696	-0,174	-0,032
-249,278	-122,599	0,138	0,016
-248,263	790,798	0,018	0,036
-247,249	-200,000	-0,011	-0,061
-246,234	-101,644	-0,123	0,021
-245,219	271,380	0,009	-0,012
-244,205	28,687	0,111	-0,068
-243,190	-200,000	0,002	-0,073
-242,176	-200,000	-0,023	0,174
-241,161	158,012	-0,039	-0,040
-240,146	59,278	-0,049	0,035
-239,132	-200,000	-0,009	0,095
-238,117	22,563	-0,016	-0,009
-237,103	800,000	-0,025	-0,051
-236,088	70,439	0,034	0,026
-235,073	-200,000	0,033	0,125
-234,059	67,949	-0,066	-0,049
-233,044	114,666	-0,057	-0,050
-232,030	-200,000	0,027	-0,106
-231,015	122,939	-0,032	-0,029
-230,000	17,868	-0,082	-0,047
-228,986	143,527	0,078	0,075
-227,971	-72,895	0,113	0,030
-226,957	522,396	-0,015	-0,026
-225,942	-93,027	-0,037	0,007
-224,927	119,457	0,063	0,056
-223,913	-32,648	0,035	-0,014
-222,898	-200,000	0,007	-0,075
-221,884	-7,391	-0,064	0,031
-220,869	352,892	0,072	0,103
-219,855	-200,000	0,003	0,074
-218,840	184,471	-0,090	0,096
-217,825	800,000	-0,042	-0,092
-216,811	-91,064	-0,113	-0,023
-215,796	212,858	-0,106	-0,121
-214,782	800,000	-0,036	0,105
-213,767	444,440	0,067	-0,106
-212,752	-200,000	0,003	-0,018
-211,738	800,000	-0,022	-0,071
-210,723	-21,718	0,179	-0,078
-209,709	289,870	-0,081	-0,106
-208,694	-26,747	0,142	-0,060
-207,679	102,829	-0,114	-0,096
-206,665	352,499	0,082	0,118
-205,650	-200,000	-0,003	-0,054
-204,636	142,130	-0,062	-0,059
-203,621	-200,000	0,032	-0,124
-202,606	800,000	0,062	-0,142
-201,592	800,000	-0,032	-0,096
-200,577	-200,000	0,003	-0,022
-199,563	471,969	-0,026	0,042
-198,548	233,508	0,058	0,069
-197,533	-125,339	0,104	-0,011
-196,519	-200,000	0,004	0,023
-195,504	10,281	-0,143	-0,078
-194,490	705,449	-0,049	-0,093
-193,475	545,167	0,028	0,048
-192,460	26,058	0,114	0,068
-191,446	-200,000	0,002	0,173
-190,431	105,905	-0,026	0,022
-189,417	-144,812	0,124	-0,008
-188,402	525,828	-0,027	0,046
-187,387	-200,000	0,026	-0,175
-186,373	-200,000	0,001	0,032
-185,358	768,889	0,018	0,035
-184,344	-200,000	0,017	-0,073
-183,329	59,362	-0,060	0,042
-182,315	-200,000	-0,002	0,100
-181,300	603,734	0,041	-0,075
-180,285	111,593	0,135	0,118
-179,271	29,629	0,100	0,061
-178,256	-200,000	-0,017	0,146
-177,242	116,492	-0,141	-0,125
-176,227	-86,634	0,056	0,012
-175,212	440,966	0,043	0,069
-174,198	800,000	-0,059	-0,169
-173,183	-200,000	-0,000	0,002
-172,169	-7,615	-0,032	0,016
-171,154	800,000	0,012	-0,030
-170,139	-200,000	-0,023	0,142
-169,125	800,000	0,016	0,047
-168,110	279,693	0,098	-0,126
-167,096	800,000	0,071	0,188
-166,081	14,449	-0,197	-0,110
-165,066	383,881	-0,079	-0,117
-164,052	95,480	-0,046	0,038
-163,037	-81,171	0,103	-0,024
-162,023	-157,638	0,080	-0,003
-161,008	-200,000	-0,035	0,157
-159,993	571,412	-0,028	0,050
-158,979	227,784	0,018	-0,021
-157,964	800,000	0,011	0,029
-156,950	800,000	-0,031	0,066
-155,935	-44,347	0,125	-0,045
-154,920	-12,440	0,146	0,069
-153,906	800,000	0,058	0,141
-152,891	456,038	0,092	-0,148
-151,877	264,870	-0,089	-0,112
-150,862	800,000	0,026	-0,077
-149,847	-12,905	0,061	-0,028
-148,833	-20,289	0,037	0,016
-147,818	470,864	-0,065	0,106
-146,804	-58,994	0,058	0,018
-145,789	800,000	0,005	-0,012
-144,775	26,155	-0,059	0,035
-143,760	91,458	-0,059	0,048
-142,745	7,221	0,060	0,032
-141,731	297,706	-0,076	0,101
-140,716	-188,161	0,085	-0,001
-139,702	426,500	0,032	0,049
-138,687	800,000	-0,025	-0,060
-137,672	142,172	0,062	0,060
-136,658	-200,000	0,028	-0,194
-135,643	800,000	-0,055	-0,158
-134,629	90,151	-0,028	-0,023
-133,614	-18,515	0,049	0,022
-132,599	-200,000	0,026	0,208
-131,585	-32,489	-0,045	-0,018
-130,570	775,398	0,014	-0,028
-129,556	-200,000	0,025	0,092
-128,541	-200,000	-0,000	-0,028
-127,526	98,235	0,096	-0,080
-126,512	-137,595	-0,061	0,005
-125,497	-21,258	-0,110	-0,048
-124,483	519,178	0,051	0,087
-123,468	-200,000	0,010	-0,133
-122,453	551,095	0,035	-0,060
-121,439	-200,000	0,031	-0,105
-120,424	-36,064	-0,010	0,004
-119,410	-149,358	0,128	0,007
