DTS Sentinel unit serial number:	SN410029Multiplexer serial number:	ORYXHardware model number:	OX2-SRSoftware version number:	ORYX F/W v4,00 Oryx Data Collector v3.7.2.0data status	okinstallation	B5 Nyhavnadifferential loss correction	single-endedforward channel	channel 2reverse channel	N/Adate	2023/12/14time	10:07:13forward acquisition time	300,00reverse acquisition time	0,00gamma	499,1914k internal	0,3161k external	0,3161temperature offset calibration	1,0000default loss term (dB/km)	0,3820temperature slope calibration	1,0000multiplexer offset coefficient	1,0000multiplexer slope coefficient	1,0000fibre end	0,00T internal ref (°C)	6,87T ext. ref 1 (°C)	-9,26T ext. ref 2 (°C)	-9,27length (m)	temperature (°C)	Stokes	anti-Stokes-744,400	800,000	0,079	0,247
-743,385	-57,823	-0,433	-0,139
-742,371	-68,304	0,255	0,073
-741,356	-179,681	-0,331	-0,005
-740,342	800,000	0,100	0,252
-739,327	-14,430	-0,314	-0,148
-738,312	98,376	0,126	0,107
-737,298	58,670	-0,282	-0,204
-736,283	259,607	0,110	0,140
-735,269	16,646	-0,301	0,175
-734,254	-110,345	0,189	0,029
-733,239	-40,791	-0,660	-0,250
-732,225	-110,512	0,352	0,053
-731,210	-8,379	-0,136	0,067
-730,196	283,860	-0,024	-0,032
-729,181	64,183	-0,049	-0,036
-728,167	357,936	-0,045	-0,066
-727,152	-200,000	0,035	-0,166
-726,137	800,000	-0,017	0,044
-725,123	800,000	0,024	-0,069
-724,108	-200,000	-0,026	-0,265
-723,094	-200,000	0,004	-0,093
-722,079	800,000	0,046	-0,118
-721,064	437,649	-0,035	-0,056
-720,050	-82,018	-0,150	0,036
-719,035	-200,000	0,003	-0,026
-718,021	524,786	-0,037	0,065
-717,006	-143,921	-0,067	0,005
-715,991	328,414	-0,057	-0,081
-714,977	800,000	-0,013	0,032
-713,962	-73,569	-0,116	0,031
-712,948	-158,704	-0,070	-0,003
-711,933	-200,000	-0,008	-0,055
-710,918	800,000	-0,067	-0,161
-709,904	-200,000	0,026	-0,211
-708,889	481,463	-0,026	-0,043
-707,875	-38,226	-0,101	-0,039
-706,860	-200,000	0,009	-0,052
-705,845	-41,746	-0,063	0,024
-704,831	85,127	0,020	-0,016
-703,816	282,370	-0,064	0,085
-702,802	54,656	-0,064	0,045
-701,787	239,789	-0,029	0,035
-700,772	10,745	-0,101	0,056
-699,758	22,816	0,160	0,096
-698,743	800,000	-0,040	0,094
-697,729	800,000	0,034	0,069
-696,714	319,886	-0,022	0,031
-695,699	-68,110	-0,071	-0,020
-694,685	86,285	-0,063	-0,051
-693,670	743,785	-0,077	-0,153
-692,656	8,546	0,132	-0,073
-691,641	138,543	-0,033	0,031
-690,627	800,000	0,037	0,102
-689,612	521,799	-0,022	0,038
-688,597	-38,933	0,036	0,014
-687,583	493,611	-0,091	-0,153
-686,568	-200,000	0,006	0,041
-685,554	92,544	-0,054	-0,045
-684,539	82,387	-0,059	-0,047
-683,524	-200,000	-0,015	-0,063
-682,510	-200,000	-0,045	0,253
-681,495	370,411	-0,075	0,111
-680,481	-200,000	0,016	-0,148
-679,466	-64,477	-0,099	0,029
-678,451	-18,393	-0,031	-0,014
-677,437	120,523	0,049	0,045
-676,422	800,000	-0,045	-0,105
-675,408	-126,328	0,033	-0,004
-674,393	-71,936	-0,117	0,032
-673,378	36,005	-0,081	0,052
-672,364	-200,000	0,014	-0,075
-671,349	413,959	-0,042	-0,066
-670,335	-68,004	0,018	0,005
-669,320	-200,000	-0,002	0,098
-668,305	276,085	-0,055	0,072
-667,291	-103,033	-0,081	-0,014
-666,276	34,164	0,088	0,056
-665,262	-200,000	0,004	-0,041
-664,247	-133,438	0,110	-0,010
-663,232	-21,594	-0,071	0,032
-662,218	-200,000	-0,014	0,177
-661,203	20,614	-0,085	0,050
-660,189	409,530	0,032	-0,051
-659,174	-60,140	-0,114	0,035
-658,159	-12,022	-0,062	0,029
-657,145	87,862	-0,132	-0,107
-656,130	800,000	0,014	-0,030
-655,116	44,782	0,090	0,060
-654,101	124,982	-0,180	0,166
-653,086	-200,000	0,001	0,061
-652,072	426,972	-0,108	-0,171
-651,057	70,431	-0,063	0,047
-650,043	54,397	-0,084	-0,059
-649,028	-110,360	-0,035	-0,005
-648,014	164,613	-0,027	0,028
-646,999	652,615	0,061	0,115
-645,984	-200,000	-0,015	-0,070
-644,970	257,443	-0,049	0,062
-643,955	345,741	-0,042	-0,060
-642,941	272,844	0,017	0,022
-641,926	-103,690	-0,156	0,026
-640,911	279,489	0,077	0,101
-639,897	-11,732	0,070	-0,034
-638,882	-200,000	0,017	0,116
-637,868	38,314	0,119	0,077
-636,853	-200,000	-0,005	-0,077
-635,838	-32,763	-0,097	0,039
-634,824	308,283	0,028	0,039
-633,809	521,823	-0,069	-0,119
-632,795	-200,000	-0,011	-0,115
-631,780	720,391	-0,040	0,078
-630,765	-111,872	-0,105	-0,015
-629,751	-102,036	-0,111	0,019
-628,736	542,673	-0,065	-0,115
-627,722	308,950	-0,055	-0,075
-626,707	-59,111	0,091	0,029
-625,692	-112,417	0,179	-0,026
-624,678	-200,000	-0,036	0,174
-623,663	157,129	-0,064	-0,065
-622,649	-131,971	-0,188	-0,018
-621,634	319,066	-0,060	-0,084
-620,619	377,348	-0,071	0,106
-619,605	21,770	0,086	0,051
-618,590	-80,800	0,053	0,013
-617,576	121,342	-0,050	0,045
-616,561	800,000	-0,064	-0,145
-615,546	7,751	-0,066	-0,036
-614,532	800,000	-0,003	-0,008
-613,517	-104,483	0,073	0,012
-612,503	183,308	-0,061	-0,066
-611,488	64,638	-0,052	-0,039
-610,474	289,289	-0,030	0,040
-609,459	-200,000	0,015	0,066
-608,444	563,394	0,042	-0,075
-607,430	-5,172	-0,112	-0,056
-606,415	109,572	-0,067	0,058
-605,401	800,000	0,043	0,130
-604,386	14,721	-0,077	-0,044
-603,371	-54,636	-0,096	-0,032
-602,357	113,925	0,157	-0,140
-601,342	-200,000	-0,023	-0,080
-600,328	20,781	0,121	0,072
-599,313	608,762	0,051	-0,093
-598,298	800,000	-0,011	0,033
-597,284	-200,000	0,015	0,097
-596,269	-91,533	-0,083	0,017
-595,255	452,336	0,039	-0,063
-594,240	-200,000	0,010	0,040
-593,225	-34,575	0,033	-0,013
-592,211	57,531	-0,084	0,060
-591,196	-67,715	0,062	0,018
-590,182	-86,128	0,171	-0,038
-589,167	66,577	0,127	0,095
-588,152	-99,904	0,155	0,028
-587,138	-200,000	0,002	-0,120
-586,123	125,075	-0,071	-0,065
-585,109	-107,301	-0,199	-0,032
-584,094	-56,075	0,100	-0,033
-583,079	-200,000	0,004	-0,037
-582,065	-3,309	0,066	-0,033
-581,050	-13,713	0,060	0,028
-580,036	148,605	0,045	0,045
-579,021	208,771	-0,045	-0,051
-578,006	800,000	-0,006	-0,015
-576,992	549,351	-0,019	0,033
-575,977	-68,194	0,015	-0,004
-574,963	-200,000	0,032	0,126
-573,948	242,439	-0,096	0,118
-572,934	760,550	-0,023	-0,046
-571,919	-200,000	-0,009	-0,048
-570,904	-20,643	-0,166	0,074
-569,890	50,669	0,043	0,030
-568,875	56,463	0,066	0,047
-567,861	-116,169	-0,115	-0,015
-566,846	85,708	-0,094	-0,075
-565,831	476,198	0,026	-0,044
-564,817	248,998	-0,017	-0,021
-563,802	-18,583	-0,077	0,035
-562,788	-200,000	0,001	-0,054
-561,773	90,771	-0,087	0,071
-560,758	-200,000	0,008	-0,149
-559,744	-72,103	-0,040	0,011
-558,729	-200,000	0,011	0,070
-557,715	-26,315	-0,068	-0,029
-556,700	1,017	-0,034	-0,018
-555,685	800,000	-0,023	-0,072
-554,671	-96,777	0,045	-0,009
-553,656	224,880	-0,048	-0,056
-552,642	-75,476	0,107	0,028
-551,627	33,973	0,020	-0,013
-550,612	-200,000	-0,012	-0,038
-549,598	247,986	-0,055	0,068
-548,583	800,000	0,087	-0,185
-547,569	-200,000	-0,001	-0,072
-546,554	-200,000	-0,019	0,174
-545,539	253,643	0,060	0,075
-544,525	390,843	0,007	0,011
-543,510	638,973	-0,057	-0,107
-542,496	-131,710	-0,076	-0,007
-541,481	217,740	-0,040	-0,046
-540,466	-200,000	-0,001	0,024
-539,452	-145,142	0,095	0,006
-538,437	-72,719	-0,070	0,019
-537,423	-200,000	-0,002	0,111
-536,408	-95,276	0,084	0,016
-535,393	-5,782	0,074	0,037
-534,379	-26,862	-0,123	-0,052
-533,364	-172,082	0,058	-0,001
-532,350	-200,000	-0,013	-0,151
-531,335	800,000	-0,028	-0,067
-530,321	241,879	-0,117	0,143
-529,306	-110,838	-0,034	-0,005
-528,291	348,937	0,052	-0,076
-527,277	187,905	-0,076	-0,083
-526,262	800,000	0,045	-0,102
-525,248	319,813	0,019	0,026
-524,233	-200,000	0,009	0,125
-523,218	144,992	-0,036	-0,035
-522,204	-80,141	-0,171	-0,041
-521,189	36,296	-0,118	-0,076
-520,175	-200,000	-0,041	0,000
-519,160	310,653	-0,056	-0,077
-518,145	113,412	0,087	0,077
-517,131	800,000	-0,032	-0,082
-516,116	-200,000	0,023	0,122
-515,102	-200,000	0,033	-0,137
-514,087	22,332	0,107	-0,063
-513,072	56,542	-0,026	-0,018
-512,058	800,000	-0,034	-0,085
-511,043	-200,000	0,028	0,107
-510,029	-162,401	0,077	0,003
-509,014	-4,418	0,059	0,030
-507,999	800,000	-0,032	0,071
-506,985	229,031	-0,032	0,038
-505,970	-200,000	-0,011	0,037
-504,956	-200,000	-0,004	0,019
-503,941	-0,557	0,075	0,039
-502,926	-200,000	-0,054	0,176
-501,912	-200,000	-0,014	0,153
-500,897	-200,000	-0,003	0,085
-499,883	297,729	0,025	-0,033
-498,868	-70,282	-0,125	-0,034
-497,853	-200,000	-0,034	-0,116
-496,839	-200,000	-0,018	-0,105
-495,824	800,000	0,044	-0,121
-494,810	800,000	-0,032	0,067
-493,795	800,000	-0,063	0,146
-492,781	800,000	0,080	0,182
-491,766	800,000	0,013	-0,027
-490,751	-105,069	-0,090	-0,015
-489,737	-87,604	-0,089	0,019
-488,722	302,203	-0,057	0,077
-487,708	1,454	0,106	-0,055
-486,693	428,131	0,018	0,028
-485,678	-200,000	0,006	0,177
-484,664	-52,239	-0,129	0,043
-483,649	-200,000	0,025	-0,100
-482,635	22,528	-0,167	-0,099
-481,620	-12,195	0,123	0,059
-480,605	82,642	0,057	-0,045
-479,591	83,957	0,049	0,039
-478,576	-158,853	-0,015	0,001
-477,562	131,663	-0,075	-0,070
-476,547	269,708	-0,022	-0,028
-475,532	-200,000	-0,034	0,112
-474,518	-200,000	0,003	0,036
-473,503	180,536	0,078	-0,083
-472,489	-20,428	0,043	-0,019
-471,474	80,474	-0,023	-0,018
-470,459	668,644	-0,050	-0,095
-469,445	101,271	-0,074	-0,063
-468,430	800,000	-0,023	-0,053
-467,416	309,141	0,030	-0,040
-466,401	389,350	0,053	0,081
-465,386	-127,913	-0,027	0,003
-464,372	-200,000	0,013	0,054
-463,357	-200,000	0,018	0,125
-462,343	9,180	-0,117	-0,064
-461,328	-200,000	-0,041	-0,167
-460,313	18,032	0,036	0,021
-459,299	-200,000	-0,015	-0,112
-458,284	92,967	0,088	0,072
-457,270	96,347	-0,128	0,106
-456,255	-200,000	-0,000	-0,137
-455,241	-32,721	-0,145	0,058
-454,226	-31,135	-0,051	0,021
-453,211	-17,289	0,059	-0,027
-452,197	16,717	-0,120	0,069
-451,182	24,707	0,071	0,043
-450,168	50,406	0,084	-0,058
-449,153	-200,000	-0,056	0,207
-448,138	-34,036	-0,070	-0,028
-447,124	800,000	-0,033	-0,100
-446,109	-59,918	0,104	0,032
-445,095	-98,967	-0,089	-0,016
-444,080	-70,014	0,034	0,009
-443,065	48,744	0,115	0,079
-442,051	-200,000	-0,011	0,079
-441,036	-126,875	0,096	-0,010
-440,022	-80,634	-0,022	0,005
-439,007	-200,000	0,006	0,128
-437,992	800,000	-0,052	-0,165
-436,978	-112,310	0,050	0,007
-435,963	-200,000	-0,030	-0,125
-434,949	169,857	-0,012	-0,013
-433,934	264,842	-0,106	-0,135
-432,919	800,000	-0,021	-0,056
-431,905	-73,089	-0,099	-0,026
-430,890	-37,823	0,121	0,047
-429,876	-120,539	0,096	0,012
-428,861	105,850	0,096	0,082
-427,846	71,335	0,047	0,035
-426,832	-122,244	-0,059	0,007
-425,817	357,996	0,093	-0,135
-424,803	77,241	-0,062	0,048
-423,788	1,965	-0,049	-0,025
-422,773	-110,203	0,079	-0,012
-421,759	93,065	-0,048	-0,040
-420,744	-72,011	-0,154	-0,041
-419,730	112,941	0,103	0,091
-418,715	800,000	-0,037	-0,082
-417,701	800,000	-0,062	-0,154
-416,686	800,000	-0,007	-0,020
-415,671	33,562	0,134	-0,085
-414,657	-106,981	-0,089	0,014
-413,642	-200,000	-0,018	-0,111
-412,628	17,637	-0,075	0,043
-411,613	65,059	0,144	-0,106
-410,598	28,655	-0,040	-0,024
-409,584	282,373	-0,096	-0,125
-408,569	15,023	0,159	0,090
-407,555	320,567	0,070	0,097
-406,540	-200,000	-0,001	0,008
-405,525	2,618	0,041	-0,021
-404,511	21,263	-0,073	-0,043
-403,496	800,000	0,042	-0,086
-402,482	800,000	-0,030	0,061
-401,467	800,000	-0,060	0,192
-400,452	165,946	0,051	-0,053
-399,438	73,905	-0,121	0,092
-398,423	-123,073	-0,094	0,011
-397,409	-200,000	-0,013	0,042
-396,394	127,626	-0,150	-0,138
-395,379	267,721	0,049	0,063
-394,365	12,820	0,092	0,052
-393,350	-51,406	0,077	-0,026
-392,336	-198,460	-0,086	0,000
-391,321	760,390	-0,028	0,055
-390,306	-200,000	-0,017	-0,105
-389,292	800,000	0,010	0,019
-388,277	800,000	-0,011	0,026
-387,263	800,000	-0,031	0,081
-386,248	98,535	-0,087	0,073
-385,233	-180,211	0,083	-0,001
-384,219	-41,813	-0,043	-0,016
-383,204	183,139	0,074	-0,079
-382,190	739,456	0,023	-0,045
-381,175	-200,000	0,022	-0,114
-380,160	776,510	0,013	-0,026
-379,146	-153,182	-0,003	-0,000
-378,131	78,557	-0,105	-0,081
-377,117	252,172	-0,015	0,018
-376,102	114,003	0,033	-0,029
-375,088	-200,000	0,001	-0,115
-374,073	72,276	-0,058	-0,043
-373,058	42,164	-0,056	0,037
-372,044	19,803	0,154	0,090
-371,029	-200,000	0,005	0,021
-370,015	21,764	-0,018	-0,010
-369,000	-200,000	-0,017	-0,181
-367,985	256,126	-0,044	-0,055
-366,971	26,535	0,071	-0,043
-365,956	-140,163	0,065	0,005
-364,942	173,642	-0,066	0,069
-363,927	-200,000	0,009	0,085
-362,912	165,290	0,060	0,062
-361,898	-200,000	0,002	-0,028
-360,883	800,000	-0,037	-0,110
-359,869	325,152	-0,036	0,050
-358,854	800,000	0,010	-0,020
-357,839	-165,123	0,134	0,004
-356,825	-40,575	-0,040	0,015
-355,810	8,447	0,125	-0,068
-354,796	-200,000	-0,026	-0,184
-353,781	-27,048	-0,091	-0,038
-352,766	800,000	-0,057	-0,156
-351,752	61,435	0,107	0,077
-350,737	-26,426	0,114	-0,048
-349,723	-131,851	0,030	-0,003
-348,708	69,990	0,097	0,073
-347,693	-181,553	-0,077	-0,001
-346,679	-200,000	0,024	-0,236
-345,664	-75,911	0,041	-0,011
-344,650	800,000	0,013	0,037
-343,635	719,905	-0,013	-0,025
-342,620	116,863	0,027	0,024
-341,606	475,577	0,013	0,022
-340,591	-200,000	-0,005	0,089
-339,577	38,412	-0,130	0,084
-338,562	139,344	0,025	0,024
-337,548	-53,875	-0,073	-0,024
-336,533	-200,000	-0,005	-0,034
-335,518	66,028	0,069	-0,051
-334,504	180,843	0,016	0,017
-333,489	-200,000	0,000	0,039
-332,475	210,855	-0,040	0,045
-331,460	-178,200	-0,124	0,002
-330,445	800,000	0,049	-0,108
-329,431	-200,000	0,006	0,053
-328,416	800,000	0,051	0,135
-327,402	393,036	0,048	-0,073
-326,387	800,000	-0,040	0,109
-325,372	237,087	0,104	-0,126
-324,358	-23,597	0,106	-0,046
-323,343	800,000	0,017	0,050
-322,329	-15,965	-0,054	-0,025
-321,314	116,409	0,077	0,068
-320,299	-71,748	0,086	-0,023
-319,285	580,423	0,017	0,030
-318,270	435,933	-0,052	0,081
-317,256	0,280	0,070	-0,036
-316,241	55,831	-0,097	-0,068
-315,226	-173,963	0,144	-0,003
-314,212	-45,255	-0,050	0,018
-313,197	90,138	0,079	-0,064
-312,183	-98,453	0,127	-0,023
-311,168	265,703	-0,061	-0,077
-310,153	9,047	-0,139	0,076
-309,139	800,000	0,040	-0,099
-308,124	747,921	0,034	0,067
-307,110	11,997	0,083	0,046
-306,095	-200,000	-0,004	0,051
-305,080	-200,000	-0,004	0,074
-304,066	143,833	-0,108	0,104
-303,051	-200,000	0,011	-0,075
-302,037	-17,678	-0,098	-0,044
-301,022	-200,000	-0,000	0,090
-300,008	121,310	-0,065	0,059
-298,993	70,776	-0,023	-0,017
-297,978	800,000	0,068	0,138
-296,964	-70,474	-0,082	0,022
-295,949	-200,000	-0,004	-0,046
-294,935	-98,699	-0,128	0,023
-293,920	463,209	0,098	-0,158
-292,905	372,736	0,026	0,039
-291,891	-164,286	0,171	0,006
-290,876	800,000	0,051	0,139
-289,862	82,228	0,154	0,121
-288,847	800,000	-0,018	-0,045
-287,832	199,785	0,056	-0,063
-286,818	-13,193	0,034	-0,016
-285,803	800,000	0,084	0,183
-284,789	142,781	-0,025	0,024
-283,774	36,279	0,063	0,040
-282,759	659,555	0,079	-0,148
-281,745	-6,621	-0,205	0,100
-280,730	-5,965	-0,027	-0,013
-279,716	-200,000	0,000	0,096
-278,701	402,041	-0,083	0,127
-277,686	-104,203	0,018	-0,003
-276,672	-89,208	0,117	-0,025
-275,657	-200,000	0,001	-0,030
-274,643	31,284	-0,143	-0,089
-273,628	81,028	-0,028	0,022
-272,613	-200,000	-0,012	-0,093
-271,599	-39,625	-0,049	0,018
-270,584	800,000	-0,020	-0,057
-269,570	-200,000	-0,001	-0,095
-268,555	-192,549	-0,069	0,000
-267,540	-69,354	0,113	0,031
-266,526	800,000	0,020	-0,046
-265,511	-200,000	-0,008	0,070
-264,497	800,000	0,007	0,018
-263,482	800,000	0,026	0,060
-262,467	-163,009	0,031	-0,001
-261,453	-200,000	-0,037	-0,140
-260,438	800,000	-0,040	0,125
-259,424	-200,000	0,054	-0,000
-258,409	800,000	-0,027	0,070
-257,395	-44,180	0,049	-0,018
-256,380	-11,651	0,071	0,033
-255,365	-19,457	-0,096	-0,043
-254,351	-30,773	-0,149	-0,060
-253,336	107,203	-0,029	0,025
-252,322	330,174	-0,137	-0,191
-251,307	-93,315	0,216	-0,043
-250,292	800,000	0,029	0,058
-249,278	593,300	0,102	-0,183
-248,263	800,000	-0,017	0,036
-247,249	301,526	-0,018	-0,025
-246,234	477,233	0,048	-0,079
-245,219	-200,000	-0,002	-0,086
-244,205	-83,292	-0,056	0,013
-243,190	-65,711	0,088	0,025
-242,176	12,157	0,067	-0,037
-241,161	-55,108	0,061	0,020
-240,146	-200,000	0,007	0,063
-239,132	-85,982	0,047	-0,010
-238,117	-92,049	-0,050	0,010
-237,103	400,459	0,011	-0,016
-236,088	800,000	-0,052	0,111
-235,073	-11,148	0,078	0,037
-234,059	800,000	-0,060	0,137
-233,044	50,984	0,101	0,069
-232,030	544,189	-0,061	-0,106
-231,015	38,546	0,059	0,038
-230,000	-133,605	-0,071	-0,006
-228,986	9,873	-0,026	0,014
-227,971	800,000	-0,042	0,109
-226,957	-59,602	-0,059	0,018
-225,942	-200,000	0,027	0,087
-224,927	-200,000	0,007	0,080
-223,913	-200,000	-0,014	-0,070
-222,898	-88,616	0,089	0,019
-221,884	-200,000	0,006	-0,142
-220,869	800,000	0,103	0,239
-219,855	-173,928	0,087	-0,002
-218,840	-95,816	0,102	0,019
-217,825	370,926	0,054	0,079
-216,811	342,602	-0,093	0,132
-215,796	-147,020	0,078	-0,005
-214,782	-2,881	-0,112	-0,056
-213,767	-87,800	0,205	-0,044
-212,752	-200,000	0,034	0,116
-211,738	-200,000	-0,006	0,026
-210,723	-37,938	0,062	0,024
-209,709	-126,348	-0,095	0,010
-208,694	-200,000	0,006	-0,053
-207,679	90,178	0,084	0,068
-206,665	800,000	-0,055	0,123
-205,650	-89,877	0,142	0,030
-204,636	119,420	0,043	0,038
-203,621	-200,000	0,030	0,098
-202,606	-200,000	0,003	0,020
-201,592	10,521	-0,065	-0,036
-200,577	-14,909	-0,030	-0,014
-199,563	-200,000	0,017	-0,067
-198,548	1,995	0,084	0,043
-197,533	-98,377	0,079	0,014
-196,519	800,000	-0,063	-0,130
-195,504	-200,000	-0,015	0,095
-194,490	-200,000	0,007	0,109
-193,475	320,342	-0,049	-0,068
-192,460	800,000	-0,008	0,023
-191,446	-163,196	0,190	-0,006
-190,431	-93,902	-0,017	-0,003
-189,417	-43,050	0,147	-0,054
-188,402	171,695	-0,050	0,051
-187,387	-200,000	-0,002	0,028
-186,373	-79,651	-0,046	-0,011
-185,358	82,634	0,113	0,089
-184,344	800,000	-0,040	0,082
-183,329	-74,040	0,110	0,029
-182,315	-1,969	-0,101	0,051
-181,300	70,492	0,072	-0,053
-180,285	-200,000	0,003	0,016
-179,271	-48,257	-0,092	0,032
-178,256	-83,083	-0,059	0,014
-177,242	-29,663	0,120	0,049
-176,227	-200,000	-0,013	-0,084
-175,212	-200,000	0,019	0,104
-174,198	135,713	-0,088	-0,083
-173,183	427,373	-0,095	-0,149
-172,169	72,723	-0,105	-0,079
-171,154	-77,972	-0,018	0,004
-170,139	-116,472	0,022	0,003
-169,125	-20,940	0,162	0,071
-168,110	-89,737	-0,142	0,030
-167,096	-200,000	0,007	-0,074
-166,081	44,427	0,043	-0,028
-165,066	69,527	-0,094	-0,070
-164,052	427,990	0,011	-0,017
-163,037	136,804	0,032	0,030
-162,023	-149,347	0,030	-0,002
-161,008	-5,421	-0,130	0,064
-159,993	-132,583	0,068	-0,006
-158,979	171,260	-0,069	-0,072
-157,964	0,192	-0,087	-0,044
-156,950	800,000	0,040	0,110
-155,935	87,863	0,148	0,118
-154,920	-2,966	0,093	0,046
-153,906	364,586	0,077	-0,111
-152,891	310,640	0,080	-0,108
-151,877	786,756	-0,057	0,113
-150,862	-200,000	0,002	-0,067
-149,847	-162,370	-0,094	-0,003
-148,833	137,176	0,033	-0,031
-147,818	-131,614	0,016	-0,001
-146,804	-200,000	0,026	0,113
-145,789	800,000	-0,020	-0,040
-144,775	-200,000	0,003	0,032
-143,760	-200,000	-0,020	0,108
-142,745	423,512	0,025	-0,039
-141,731	-200,000	-0,055	-0,207
-140,716	684,985	0,015	-0,028
-139,702	-29,391	0,046	0,019
-138,687	-200,000	-0,020	0,101
-137,672	208,015	-0,136	0,153
-136,658	-48,268	0,098	0,034
-135,643	56,120	0,038	-0,027
-134,629	-49,762	-0,101	0,034
-133,614	-161,717	0,170	0,006
-132,599	677,323	-0,024	-0,046
-131,585	482,540	0,015	0,025
-130,570	645,920	-0,084	-0,154
-129,556	232,989	-0,096	-0,114
-128,541	-200,000	-0,019	-0,119
-127,526	693,745	-0,031	0,059
-126,512	-25,579	0,157	0,066
-125,497	800,000	-0,016	-0,034
-124,483	9,232	-0,106	0,057
-123,468	184,460	0,066	0,070
-122,453	-77,566	-0,137	-0,034
-121,439	-17,516	-0,109	-0,049
-120,424	-103,608	-0,034	-0,006
-119,410	-200,000	0,012	-0,056
-118,395	-1,528	-0,122	-0,061
