DTS Sentinel unit serial number:	SN410029Multiplexer serial number:	ORYXHardware model number:	OX2-SRSoftware version number:	ORYX F/W v4,00 Oryx Data Collector v3.7.2.0data status	okinstallation	B5 Nyhavnadifferential loss correction	single-endedforward channel	channel 2reverse channel	N/Adate	2023/12/14time	11:02:13forward acquisition time	300,00reverse acquisition time	0,00gamma	499,1914k internal	0,3161k external	0,3161temperature offset calibration	1,0000default loss term (dB/km)	0,3820temperature slope calibration	1,0000multiplexer offset coefficient	1,0000multiplexer slope coefficient	1,0000fibre end	0,00T internal ref (°C)	7,18T ext. ref 1 (°C)	-8,12T ext. ref 2 (°C)	-8,15length (m)	temperature (°C)	Stokes	anti-Stokes-744,400	-135,907	0,316	0,027
-743,385	-23,315	-0,423	-0,187
-742,371	-6,047	0,119	-0,060
-741,356	-108,118	-0,415	0,066
-740,342	-200,000	0,077	0,263
-739,327	-200,000	-0,249	0,000
-738,312	241,516	0,105	0,129
-737,298	-69,338	-0,481	-0,135
-736,283	203,252	0,129	0,147
-735,269	-31,463	-0,408	-0,168
-734,254	462,200	0,089	0,147
-733,239	-28,908	-0,598	-0,252
-732,225	-64,667	0,269	-0,080
-731,210	-79,043	-0,078	0,019
-730,196	-113,470	0,055	0,008
-729,181	27,339	-0,096	-0,059
-728,167	-114,302	0,071	0,010
-727,152	-16,376	-0,097	-0,045
-726,137	503,907	-0,045	0,077
-725,123	-183,036	-0,175	-0,002
-724,108	171,511	-0,101	-0,106
-723,094	92,822	-0,099	-0,082
-722,079	-200,000	-0,014	-0,051
-721,064	403,445	0,090	-0,140
-720,050	-200,000	0,001	0,047
-719,035	28,546	0,103	0,064
-718,021	-114,721	-0,186	-0,026
-717,006	138,960	-0,108	0,105
-715,991	-149,343	-0,052	0,003
-714,977	16,389	-0,066	0,038
-713,962	-200,000	0,000	0,007
-712,948	800,000	0,015	-0,040
-711,933	-179,397	-0,115	0,002
-710,918	176,567	0,038	-0,040
-709,904	-200,000	0,017	-0,138
-708,889	337,859	0,026	-0,037
-707,875	-200,000	-0,011	-0,145
-706,860	-8,136	0,093	0,046
-705,845	800,000	-0,054	0,145
-704,831	-200,000	-0,002	0,017
-703,816	-22,160	0,071	0,031
-702,802	800,000	0,016	-0,039
-701,787	-152,053	-0,052	-0,003
-700,772	-184,239	0,103	0,001
-699,758	800,000	0,007	0,020
-698,743	-22,364	-0,073	-0,032
-697,729	-75,073	0,093	-0,024
-696,714	800,000	-0,019	0,057
-695,699	56,004	-0,110	0,079
-694,685	-200,000	-0,021	-0,122
-693,670	-55,008	0,122	-0,040
-692,656	-200,000	-0,008	0,077
-691,641	145,138	0,065	0,064
-690,627	800,000	0,032	0,074
-689,612	-46,283	-0,084	0,030
-688,597	133,249	0,021	-0,020
-687,583	800,000	-0,050	-0,112
-686,568	-200,000	-0,014	-0,139
-685,554	-79,594	-0,117	-0,029
-684,539	-93,345	0,032	0,006
-683,524	-163,730	0,055	-0,002
-682,510	-116,485	-0,075	-0,010
-681,495	-27,542	-0,099	-0,042
-680,481	-29,143	-0,086	-0,036
-679,466	99,517	-0,018	-0,015
-678,451	22,087	0,104	-0,062
-677,437	371,593	-0,027	0,040
-676,422	-200,000	0,012	0,056
-675,408	-108,738	-0,115	-0,018
-674,393	-43,059	0,120	-0,044
-673,378	132,170	-0,041	-0,039
-672,364	151,130	-0,031	-0,031
-671,349	-200,000	0,007	-0,072
-670,335	164,200	0,113	-0,117
-669,320	-75,796	-0,129	0,033
-668,305	-200,000	-0,023	0,102
-667,291	443,901	0,015	0,025
-666,276	-96,051	-0,065	0,013
-665,262	800,000	-0,016	-0,041
-664,247	-200,000	-0,006	-0,104
-663,232	-200,000	-0,005	0,024
-662,218	-200,000	0,023	-0,152
-661,203	145,730	-0,108	-0,106
-660,189	77,800	0,067	-0,052
-659,174	-81,425	-0,121	0,029
-658,159	800,000	-0,037	0,084
-657,145	124,197	0,081	0,074
-656,130	-200,000	-0,006	0,029
-655,116	259,508	0,079	-0,101
-654,101	-132,810	0,061	0,006
-653,086	-107,131	-0,117	0,019
-652,072	-64,749	-0,146	0,043
-651,057	800,000	-0,030	-0,093
-650,043	-75,849	-0,094	-0,024
-649,028	-200,000	-0,005	0,030
-648,014	-200,000	0,012	0,125
-646,999	250,199	0,154	0,192
-645,984	-104,162	-0,103	0,017
-644,970	-200,000	0,014	0,052
-643,955	-89,905	-0,148	-0,032
-642,941	39,421	-0,086	-0,057
-641,926	800,000	-0,044	0,121
-640,911	10,007	0,027	0,015
-639,897	328,420	-0,012	0,017
-638,882	-86,230	-0,009	-0,002
-637,868	800,000	0,006	-0,016
-636,853	-145,526	-0,135	-0,009
-635,838	-30,894	0,088	-0,036
-634,824	-53,974	-0,142	-0,047
-633,809	126,205	-0,104	0,096
-632,795	-1,153	-0,025	-0,013
-631,780	84,381	0,045	0,036
-630,765	88,209	0,110	0,089
-629,751	460,746	-0,093	-0,152
-628,736	-38,357	-0,082	-0,032
-627,722	34,590	-0,049	-0,031
-626,707	-30,146	0,105	0,044
-625,692	-200,000	0,012	0,041
-624,678	215,623	-0,027	0,031
-623,663	-200,000	-0,010	0,057
-622,649	-59,466	-0,231	-0,072
-621,634	-200,000	0,001	-0,067
-620,619	320,435	-0,049	0,068
-619,605	800,000	-0,017	0,050
-618,590	332,997	0,050	0,071
-617,576	226,332	-0,057	0,068
-616,561	225,285	-0,080	0,095
-615,546	-110,022	-0,094	0,014
-614,532	442,134	0,035	-0,056
-613,517	800,000	-0,058	-0,131
-612,503	163,779	0,035	0,036
-611,488	450,151	0,032	-0,052
-610,474	663,633	0,068	0,130
-609,459	182,446	-0,013	0,014
-608,444	800,000	0,052	0,112
-607,430	800,000	0,028	0,090
-606,415	-200,000	0,008	0,091
-605,401	-187,575	0,106	0,001
-604,386	51,254	-0,042	-0,029
-603,371	480,153	0,022	0,038
-602,357	-200,000	-0,008	-0,105
-601,342	-200,000	-0,006	-0,179
-600,328	800,000	-0,019	-0,043
-599,313	-200,000	-0,017	0,074
-598,298	-200,000	0,002	0,063
-597,284	747,601	0,107	-0,212
-596,269	246,153	-0,022	0,027
-595,255	43,384	0,046	-0,031
-594,240	61,977	0,120	-0,088
-593,225	-9,621	-0,108	0,053
-592,211	-200,000	-0,015	-0,059
-591,196	62,953	0,041	-0,030
-590,182	-200,000	0,011	0,138
-589,167	-142,054	-0,115	0,008
-588,152	-200,000	-0,036	-0,145
-587,138	-157,492	-0,086	0,004
-586,123	-200,000	-0,026	-0,159
-585,109	-104,637	0,049	-0,008
-584,094	-200,000	-0,004	0,105
-583,079	-200,000	0,007	0,157
-582,065	88,059	0,085	-0,069
-581,050	3,522	0,048	0,025
-580,036	-200,000	0,003	0,037
-579,021	433,385	-0,068	-0,109
-578,006	488,657	-0,049	-0,083
-576,992	-4,116	-0,069	-0,035
-575,977	127,574	0,082	0,077
-574,963	-200,000	-0,029	0,131
-573,948	795,319	-0,029	0,058
-572,934	-200,000	0,033	0,130
-571,919	-174,802	-0,133	0,003
-570,904	51,486	-0,149	-0,103
-569,890	-200,000	-0,011	-0,085
-568,875	-17,444	-0,062	0,028
-567,861	-200,000	-0,010	-0,041
-566,846	228,374	-0,030	-0,036
-565,831	658,792	-0,042	0,079
-564,817	-130,417	0,194	0,019
-563,802	100,320	-0,092	-0,078
-562,788	224,270	-0,075	0,089
-561,773	-58,012	0,074	0,023
-560,758	-200,000	0,011	0,083
-559,744	19,535	0,076	0,045
-558,729	-200,000	-0,016	0,138
-557,715	151,807	-0,185	-0,185
-556,700	-200,000	-0,028	-0,126
-555,685	-47,141	0,093	-0,033
-554,671	-200,000	-0,003	0,059
-553,656	50,458	0,059	-0,041
-552,642	-74,710	0,074	0,019
-551,627	158,500	-0,074	-0,075
-550,612	8,061	-0,054	0,029
-549,598	-159,670	0,101	-0,004
-548,583	74,118	-0,022	0,017
-547,569	-81,566	0,088	-0,021
-546,554	494,030	-0,062	0,104
-545,539	30,773	-0,012	0,007
-544,525	-73,873	-0,126	0,033
-543,510	-46,757	-0,093	-0,033
-542,496	-96,625	-0,111	-0,021
-541,481	-200,000	0,004	-0,129
-540,466	346,197	0,066	0,096
-539,452	-200,000	0,007	0,032
-538,437	67,676	-0,072	-0,054
-537,423	-53,244	-0,036	-0,012
-536,408	-36,934	-0,041	0,016
-535,393	-154,810	-0,066	0,003
-534,379	-200,000	0,000	0,099
-533,364	193,746	-0,073	0,080
-532,350	130,702	0,086	0,080
-531,335	144,770	0,190	0,185
-530,321	-127,732	-0,178	-0,019
-529,306	20,984	0,024	-0,014
-528,291	-73,249	-0,091	0,024
-527,277	-200,000	0,004	-0,061
-526,262	-200,000	0,036	-0,136
-525,248	375,120	-0,040	0,060
-524,233	-9,828	0,137	-0,066
-523,218	245,205	-0,076	0,093
-522,204	-51,567	0,055	0,019
-521,189	-165,157	0,081	0,003
-520,175	-110,265	0,074	0,011
-519,160	-200,000	0,014	-0,223
-518,145	1,606	-0,096	0,050
-517,131	199,403	-0,043	-0,048
-516,116	81,825	-0,154	0,122
-515,102	-200,000	0,027	0,114
-514,087	800,000	0,057	0,139
-513,072	-200,000	-0,021	-0,106
-512,058	594,716	-0,041	-0,074
-511,043	-145,279	0,067	-0,004
-510,029	479,597	0,018	-0,030
-509,014	43,852	-0,022	-0,014
-507,999	-151,630	-0,115	0,006
-506,985	800,000	-0,016	0,051
-505,970	71,773	-0,132	-0,100
-504,956	-67,918	0,037	-0,010
-503,941	-102,028	-0,134	-0,023
-502,926	-200,000	-0,001	-0,040
-501,912	-200,000	0,014	0,080
-500,897	53,157	-0,063	-0,044
-499,883	-34,105	0,072	-0,029
-498,868	1,682	-0,061	0,032
-497,853	59,702	-0,085	-0,061
-496,839	320,129	0,038	0,052
-495,824	-200,000	0,012	-0,134
-494,810	416,032	0,055	-0,086
-493,795	393,664	0,034	0,052
-492,781	-156,918	-0,105	0,005
-491,766	800,000	0,065	-0,193
-490,751	-200,000	0,020	-0,104
-489,737	91,818	0,073	0,060
-488,722	800,000	0,033	0,071
-487,708	-172,775	-0,105	-0,002
-486,693	-200,000	-0,029	0,104
-485,678	49,407	0,073	0,050
-484,664	800,000	-0,051	-0,115
-483,649	147,007	0,035	0,034
-482,635	46,285	-0,051	0,034
-481,620	800,000	0,025	-0,062
-480,605	-28,751	-0,029	0,012
-479,591	-200,000	0,004	-0,043
-478,576	-93,602	-0,039	-0,008
-477,562	800,000	0,074	0,228
-476,547	-200,000	0,015	-0,099
-475,532	-68,870	-0,049	0,014
-474,518	107,605	0,063	0,055
-473,503	-88,408	-0,077	0,017
-472,489	184,700	0,024	0,026
-471,474	66,759	-0,099	-0,073
-470,459	147,227	0,061	0,060
-469,445	43,741	-0,058	-0,039
-468,430	615,311	-0,041	-0,075
-467,416	-181,504	0,111	0,002
-466,401	-200,000	0,013	-0,048
-465,386	25,008	0,105	-0,064
-464,372	-98,579	0,083	-0,015
-463,357	-98,154	-0,100	0,018
-462,343	-200,000	-0,043	-0,146
-461,328	800,000	0,038	-0,106
-460,313	-141,603	-0,120	-0,009
-459,299	-131,766	0,089	0,008
-458,284	76,484	0,112	0,087
-457,270	300,446	0,020	0,027
-456,255	321,708	-0,033	-0,046
-455,241	31,081	-0,053	-0,033
-454,226	-200,000	-0,005	-0,041
-453,211	21,450	0,098	-0,058
-452,197	-200,000	0,029	-0,102
-451,182	277,192	0,050	0,065
-450,168	175,954	0,009	-0,009
-449,153	17,479	-0,043	0,025
-448,138	-92,956	-0,083	-0,017
-447,124	-40,616	-0,113	0,042
-446,109	-200,000	-0,023	-0,088
-445,095	335,141	0,038	0,054
-444,080	382,653	0,085	0,128
-443,065	-109,773	-0,177	0,027
-442,051	441,326	0,090	-0,144
-441,036	11,431	0,060	-0,033
-440,022	-150,965	-0,028	0,001
-439,007	-200,000	0,000	-0,023
-437,992	-78,437	0,013	0,003
-436,978	604,819	0,036	0,065
-435,963	-200,000	-0,021	0,106
-434,949	-25,239	-0,071	-0,030
-433,934	515,233	-0,025	-0,043
-432,919	-200,000	-0,013	0,076
-431,905	52,304	0,075	-0,052
-430,890	800,000	0,037	0,085
-429,876	-142,070	0,040	-0,003
-428,861	53,082	0,042	-0,029
-427,846	-114,202	0,072	-0,010
-426,832	211,932	-0,023	-0,026
-425,817	261,022	-0,083	-0,104
-424,803	-17,944	0,071	-0,032
-423,788	-127,896	0,057	-0,006
-422,773	-53,331	0,069	0,023
-421,759	98,488	-0,176	-0,147
-420,744	33,669	-0,047	-0,030
-419,730	-200,000	-0,009	-0,068
-418,715	-57,943	0,056	0,018
-417,701	800,000	0,061	0,168
-416,686	-200,000	-0,064	0,230
-415,671	800,000	0,077	0,187
-414,657	-200,000	0,021	0,085
-413,642	-200,000	-0,009	0,198
-412,628	-200,000	0,006	-0,138
-411,613	-10,201	0,053	0,026
-410,598	484,655	-0,064	-0,106
-409,584	-68,173	0,084	0,024
-408,569	711,354	-0,076	0,148
-407,555	126,511	0,096	0,088
-406,540	-200,000	-0,007	-0,064
-405,525	-114,113	-0,058	-0,008
-404,511	328,489	0,036	-0,051
-403,496	178,043	0,068	-0,072
-402,482	-179,224	0,118	0,002
-401,467	-200,000	0,011	-0,093
-400,452	800,000	-0,033	-0,074
-399,438	340,976	0,070	0,100
-398,423	-200,000	-0,006	-0,075
-397,409	237,150	-0,141	0,170
-396,394	-77,326	-0,046	-0,012
-395,379	-77,348	-0,132	-0,033
-394,365	150,352	-0,033	-0,033
-393,350	34,201	0,092	-0,058
-392,336	-75,195	0,246	0,063
-391,321	-12,963	-0,093	-0,044
-390,306	-200,000	-0,007	0,030
-389,292	-200,000	0,000	0,144
-388,277	63,147	0,061	-0,044
-387,263	-86,563	-0,073	0,016
-386,248	-25,724	-0,015	-0,006
-385,233	359,925	-0,036	0,052
-384,219	412,975	0,069	-0,106
-383,204	-200,000	-0,003	0,126
-382,190	-68,108	0,024	-0,007
-381,175	-185,386	-0,108	0,001
-380,160	-200,000	0,003	-0,043
-379,146	-122,427	0,096	0,011
-378,131	772,731	0,064	0,126
-377,117	-29,864	-0,021	0,009
-376,102	84,679	0,084	-0,067
-375,088	-200,000	0,007	0,024
-374,073	-200,000	-0,006	0,034
-373,058	800,000	-0,049	0,103
-372,044	-138,923	0,100	0,008
-371,029	445,955	0,017	0,028
-370,015	-17,295	-0,032	0,014
-369,000	-74,815	0,026	-0,007
-367,985	-6,904	0,024	-0,012
-366,971	31,866	-0,049	0,031
-365,956	27,419	0,115	-0,070
-364,942	23,164	0,110	-0,066
-363,927	-200,000	-0,017	0,121
-362,912	-200,000	-0,001	0,123
-361,898	152,255	0,036	0,036
-360,883	150,491	-0,061	0,060
-359,869	591,437	-0,004	0,008
-358,854	48,584	0,123	-0,083
-357,839	582,521	-0,065	0,117
-356,825	308,855	0,086	0,117
-355,810	110,909	-0,047	-0,041
-354,796	-67,247	-0,047	0,013
-353,781	-42,132	-0,151	-0,056
-352,766	-71,198	0,052	-0,014
-351,752	-12,300	-0,150	-0,071
-350,737	-35,966	-0,175	0,068
-349,723	-104,351	-0,081	0,014
-348,708	-194,980	0,044	-0,000
-347,693	-131,904	0,034	-0,003
-346,679	261,045	0,030	-0,038
-345,664	-200,000	0,015	-0,065
-344,650	252,277	-0,052	0,065
-343,635	800,000	0,026	0,079
-342,620	-53,269	0,108	0,036
-341,606	-112,964	0,081	-0,012
-340,591	-200,000	0,025	-0,128
-339,577	429,959	-0,037	-0,059
-338,562	51,381	-0,135	-0,093
-337,548	319,021	-0,090	-0,124
-336,533	-148,695	0,156	0,009
-335,518	-4,307	-0,095	0,048
-334,504	-118,511	0,161	-0,020
-333,489	-200,000	-0,002	-0,047
-332,475	-41,841	0,015	0,005
-331,460	516,706	-0,012	0,020
-330,445	800,000	0,021	-0,062
-329,431	-200,000	0,002	-0,049
-328,416	370,276	0,025	0,037
-327,402	800,000	0,034	0,072
-326,387	-200,000	0,002	-0,121
-325,372	-53,697	0,046	0,015
-324,358	-200,000	0,007	-0,083
-323,343	3,436	-0,121	0,064
-322,329	318,095	0,069	0,096
-321,314	-108,575	0,067	0,010
-320,299	-1,772	0,099	0,050
-319,285	-200,000	-0,006	-0,111
-318,270	192,337	-0,086	-0,095
-317,256	800,000	-0,023	0,067
-316,241	-200,000	-0,015	-0,049
-315,226	-80,625	0,121	-0,029
-314,212	126,441	-0,093	0,086
-313,197	800,000	-0,005	0,011
-312,183	28,520	0,094	0,057
-311,168	87,629	0,127	0,102
-310,153	13,720	-0,115	-0,064
-309,139	11,873	0,046	-0,026
-308,124	-42,915	-0,050	-0,018
-307,110	-36,448	0,080	0,031
-306,095	-43,897	-0,206	0,075
-305,080	-135,735	0,110	0,009
-304,066	55,171	-0,089	0,062
-303,051	-30,456	0,067	-0,028
-302,037	-76,530	0,032	0,008
-301,022	724,079	0,059	-0,113
-300,008	65,638	0,097	-0,071
-298,993	800,000	0,010	-0,025
-297,978	157,106	0,111	-0,111
-296,964	-78,705	-0,210	-0,052
-295,949	669,641	0,031	0,059
-294,935	-200,000	0,010	0,100
-293,920	800,000	0,056	-0,120
-292,905	-64,577	0,066	0,019
-291,891	2,439	-0,054	0,028
-290,876	800,000	-0,017	0,039
-289,862	212,804	0,048	-0,055
-288,847	169,594	0,101	-0,105
-287,832	126,117	-0,191	-0,175
-286,818	176,999	-0,069	0,073
-285,803	31,221	0,125	-0,077
-284,789	-200,000	-0,026	0,092
-283,774	-33,717	-0,166	0,066
-282,759	216,317	-0,019	-0,022
-281,745	-200,000	0,019	0,081
-280,730	-200,000	-0,006	0,048
-279,716	40,589	-0,087	0,056
-278,701	224,537	0,052	0,061
-277,686	392,050	0,071	0,107
-276,672	800,000	0,043	0,134
-275,657	800,000	0,020	0,049
-274,643	-64,300	-0,097	-0,028
-273,628	-156,533	-0,041	0,002
-272,613	-200,000	0,034	-0,157
-271,599	100,658	0,110	0,092
-270,584	786,182	0,004	0,009
-269,570	-200,000	0,128	0,000
-268,555	800,000	-0,069	0,146
-267,540	90,675	0,030	-0,024
-266,526	-28,492	-0,133	-0,055
-265,511	-30,157	-0,125	0,051
-264,497	800,000	0,050	0,139
-263,482	497,634	-0,045	0,076
-262,467	-200,000	0,004	-0,107
-261,453	53,386	0,027	0,018
-260,438	-200,000	0,003	-0,032
-259,424	671,849	-0,069	-0,131
-258,409	-29,422	-0,095	0,039
-257,395	-135,127	0,117	0,010
-256,380	-109,264	0,048	0,007
-255,365	387,694	-0,010	0,014
-254,351	27,519	0,094	0,057
-253,336	800,000	0,063	-0,166
-252,322	475,578	0,064	-0,105
-251,307	800,000	-0,023	0,062
-250,292	-67,312	0,153	0,043
-249,278	369,539	-0,027	-0,040
-248,263	-200,000	0,006	-0,044
-247,249	-146,083	-0,065	0,004
-246,234	-104,347	-0,121	0,020
-245,219	40,327	0,076	0,049
-244,205	-4,436	-0,029	-0,014
-243,190	-121,069	0,107	0,013
-242,176	-64,077	0,083	-0,024
-241,161	331,334	0,083	0,116
-240,146	-139,482	0,043	0,003
-239,132	-168,170	0,102	0,003
-238,117	667,369	0,028	-0,052
-237,103	-49,431	-0,059	0,020
-236,088	224,487	-0,043	-0,051
-235,073	261,352	-0,074	0,093
-234,059	-130,671	-0,067	0,006
-233,044	800,000	-0,078	0,159
-232,030	610,080	-0,002	-0,004
-231,015	-200,000	-0,007	-0,123
-230,000	800,000	-0,039	-0,090
-228,986	-79,246	-0,108	0,026
-227,971	-95,831	0,092	-0,017
-226,957	-200,000	-0,033	-0,149
-225,942	-7,495	-0,148	-0,072
-224,927	800,000	-0,040	-0,083
-223,913	-200,000	-0,005	0,055
-222,898	-200,000	0,024	-0,091
-221,884	157,370	0,106	-0,106
-220,869	348,648	0,084	0,120
-219,855	-117,510	0,147	0,019
-218,840	-136,829	0,034	0,003
-217,825	-200,000	-0,026	-0,171
-216,811	468,207	-0,019	0,032
-215,796	536,428	0,063	-0,109
-214,782	31,763	-0,129	-0,080
-213,767	-142,745	0,100	0,007
-212,752	347,272	-0,015	-0,021
-211,738	315,040	-0,030	0,041
-210,723	800,000	-0,009	0,026
-209,709	-32,052	-0,129	-0,052
-208,694	-34,033	-0,047	-0,019
-207,679	198,959	0,141	-0,156
-206,665	-200,000	0,010	0,064
-205,650	267,046	0,025	0,031
-204,636	-27,318	0,097	-0,041
-203,621	353,931	0,014	0,020
-202,606	275,764	-0,043	-0,055
-201,592	-68,811	-0,090	0,025
-200,577	-61,067	0,008	0,002
-199,563	136,000	-0,075	-0,071
-198,548	-107,250	0,048	0,008
-197,533	-70,905	0,149	0,040
-196,519	-200,000	-0,025	-0,144
-195,504	206,422	-0,042	-0,047
-194,490	800,000	0,058	-0,121
-193,475	-200,000	0,005	-0,072
-192,460	-67,210	-0,100	0,028
-191,446	16,070	0,119	-0,068
-190,431	7,611	0,055	0,029
-189,417	-200,000	-0,000	0,127
-188,402	-141,431	0,159	-0,011
-187,387	61,421	-0,037	-0,027
-186,373	43,027	-0,054	0,036
-185,358	-59,062	0,056	0,017
-184,344	30,166	0,091	0,056
-183,329	64,755	0,177	0,129
-182,315	-59,732	0,056	0,017
-181,300	-200,000	-0,028	-0,198
-180,285	-200,000	0,004	0,158
-179,271	800,000	-0,008	0,015
-178,256	-200,000	0,005	0,017
-177,242	-145,260	0,120	0,008
-176,227	-200,000	0,004	-0,023
-175,212	800,000	0,045	0,127
-174,198	-200,000	0,045	-0,195
-173,183	181,587	-0,046	-0,049
-172,169	327,625	-0,024	-0,034
-171,154	-31,854	-0,027	-0,011
-170,139	-140,926	0,058	-0,004
-169,125	-86,502	0,048	-0,010
-168,110	800,000	0,035	-0,097
-167,096	-75,652	0,067	0,017
-166,081	-3,886	-0,087	-0,044
-165,066	-200,000	0,025	-0,109
-164,052	-129,214	-0,128	0,013
-163,037	14,860	0,023	0,013
-162,023	-200,000	-0,002	-0,025
-161,008	800,000	-0,008	-0,016
-159,993	-200,000	-0,015	0,116
-158,979	-135,821	-0,188	-0,016
-157,964	186,171	0,016	-0,017
-156,950	445,032	0,025	0,039
-155,935	-37,640	-0,038	-0,014
-154,920	-16,082	0,062	0,028
-153,906	-42,534	-0,006	-0,002
-152,891	-102,229	0,114	0,019
-151,877	-46,680	-0,052	0,018
-150,862	-51,942	0,029	0,010
-149,847	800,000	-0,022	0,050
-148,833	200,740	0,057	-0,064
-147,818	428,459	0,081	-0,127
-146,804	800,000	0,048	0,151
-145,789	800,000	0,042	-0,102
-144,775	-200,000	-0,001	-0,167
-143,760	-140,200	0,045	-0,003
-142,745	159,633	0,044	0,044
-141,731	94,205	-0,123	0,101
-140,716	205,623	0,105	-0,118
-139,702	233,639	-0,084	0,099
-138,687	-49,051	-0,070	-0,024
-137,672	75,759	0,075	-0,057
-136,658	-81,097	0,086	-0,020
-135,643	800,000	-0,043	0,117
-134,629	675,398	0,064	0,120
-133,614	562,900	0,106	-0,185
-132,599	-8,275	0,213	0,103
-131,585	-200,000	0,025	-0,118
-130,570	-96,926	0,096	-0,018
-129,556	800,000	-0,064	-0,131
-128,541	372,512	-0,073	0,107
-127,526	800,000	0,061	0,156
-126,512	-77,340	0,031	0,008
-125,497	800,000	-0,049	0,141
-124,483	375,147	-0,093	0,136
-123,468	7,542	0,027	-0,014
-122,453	95,130	-0,095	0,078
-121,439	62,571	0,130	0,093
-120,424	259,828	-0,081	-0,100
-119,410	-200,000	-0,002	0,105
-118,395	-200,000	0,024	0,121
