DTS Sentinel unit serial number:	SN410029Multiplexer serial number:	ORYXHardware model number:	OX2-SRSoftware version number:	ORYX F/W v4,00 Oryx Data Collector v3.7.2.0data status	okinstallation	B5 Nyhavnadifferential loss correction	single-endedforward channel	channel 2reverse channel	N/Adate	2023/12/13time	11:57:13forward acquisition time	300,00reverse acquisition time	0,00gamma	499,1914k internal	0,3161k external	0,3161temperature offset calibration	1,0000default loss term (dB/km)	0,3820temperature slope calibration	1,0000multiplexer offset coefficient	1,0000multiplexer slope coefficient	1,0000fibre end	0,00T internal ref (°C)	13,92T ext. ref 1 (°C)	-1,98T ext. ref 2 (°C)	-2,28length (m)	temperature (°C)	Stokes	anti-Stokes-744,400	127,499	0,057	0,053
-743,385	-92,429	-0,200	0,041
-742,371	-55,823	0,189	0,062
-741,356	-66,619	-0,436	0,126
-740,342	-158,764	0,265	0,011
-739,327	-113,298	-0,324	-0,046
-738,312	-200,000	0,031	0,118
-737,298	-160,317	-0,156	0,006
-736,283	37,506	0,138	0,090
-735,269	-52,370	-0,256	0,087
-734,254	800,000	0,059	0,142
-733,239	-90,149	-0,526	-0,112
-732,225	-152,387	0,132	0,007
-731,210	800,000	0,059	0,153
-730,196	116,445	-0,080	-0,072
-729,181	800,000	-0,058	-0,146
-728,167	-51,375	-0,051	0,018
-727,152	-20,811	-0,094	-0,042
-726,137	71,981	-0,145	-0,111
-725,123	-166,125	0,156	0,005
-724,108	800,000	-0,046	-0,140
-723,094	456,417	-0,043	-0,070
-722,079	507,907	-0,042	0,073
-721,064	-22,402	-0,040	0,018
-720,050	430,940	-0,030	-0,048
-719,035	96,953	-0,032	-0,027
-718,021	-55,406	-0,060	-0,020
-717,006	-200,000	0,005	0,086
-715,991	-200,000	0,022	-0,119
-714,977	-154,981	-0,079	-0,004
-713,962	-94,421	-0,076	0,015
-712,948	-133,791	0,152	0,014
-711,933	33,639	0,035	0,022
-710,918	-93,193	0,042	0,008
-709,904	-135,492	-0,095	-0,008
-708,889	-200,000	-0,004	0,027
-707,875	-200,000	-0,003	-0,023
-706,860	-55,909	0,067	0,022
-705,845	-45,579	0,064	-0,023
-704,831	-200,000	-0,019	-0,171
-703,816	-85,338	0,088	-0,020
-702,802	-10,674	0,033	0,016
-701,787	82,351	-0,059	-0,047
-700,772	-200,000	-0,004	-0,098
-699,758	317,686	0,057	-0,079
-698,743	71,500	0,028	-0,021
-697,729	311,713	-0,073	0,100
-696,714	251,542	0,023	0,029
-695,699	-129,873	0,110	0,011
-694,685	3,625	-0,133	0,071
-693,670	-155,222	0,031	0,001
-692,656	-137,985	-0,048	-0,004
-691,641	-200,000	0,019	-0,083
-690,627	800,000	-0,031	-0,081
-689,612	-200,000	-0,009	-0,064
-688,597	800,000	0,047	-0,108
-687,583	9,093	0,096	-0,053
-686,568	-200,000	0,018	-0,094
-685,554	-5,486	-0,043	-0,022
-684,539	413,275	-0,079	0,123
-683,524	-200,000	0,010	0,073
-682,510	-200,000	0,022	0,079
-681,495	-18,841	-0,042	-0,019
-680,481	800,000	0,039	-0,093
-679,466	432,976	0,040	-0,064
-678,451	-92,565	-0,068	-0,014
-677,437	64,771	0,080	0,059
-676,422	-103,438	0,135	-0,023
-675,408	22,164	-0,013	-0,008
-674,393	-200,000	0,013	-0,043
-673,378	-35,658	-0,103	0,041
-672,364	-41,084	-0,062	0,024
-671,349	800,000	0,016	-0,037
-670,335	-43,238	0,110	-0,041
-669,320	-200,000	0,016	-0,092
-668,305	104,792	-0,030	-0,026
-667,291	-43,420	-0,058	-0,021
-666,276	800,000	0,057	-0,117
-665,262	-200,000	-0,023	-0,102
-664,247	76,823	0,051	0,040
-663,232	-200,000	0,021	-0,143
-662,218	-117,669	0,037	-0,005
-661,203	719,788	-0,035	-0,068
-660,189	228,424	0,049	-0,059
-659,174	78,607	-0,074	-0,058
-658,159	-120,176	-0,065	0,008
-657,145	87,319	0,134	0,109
-656,130	800,000	0,030	0,067
-655,116	-51,447	-0,072	-0,025
-654,101	21,011	0,018	0,011
-653,086	-200,000	-0,025	-0,102
-652,072	-200,000	-0,012	-0,109
-651,057	80,313	0,082	-0,064
-650,043	800,000	0,064	-0,156
-649,028	-10,537	-0,174	-0,084
-648,014	-117,509	-0,056	-0,007
-646,999	78,952	-0,010	0,008
-645,984	734,423	-0,011	-0,022
-644,970	-49,486	-0,034	0,012
-643,955	-105,696	-0,096	-0,016
-642,941	-62,291	0,029	0,009
-641,926	-200,000	-0,003	-0,152
-640,911	800,000	0,033	-0,104
-639,897	-200,000	0,013	-0,048
-638,882	-200,000	-0,011	0,210
-637,868	8,274	0,026	0,014
-636,853	151,504	-0,048	-0,048
-635,838	657,917	-0,051	-0,096
-634,824	-51,505	0,043	0,015
-633,809	-135,033	0,124	0,011
-632,795	36,754	0,054	0,035
-631,780	112,759	0,032	0,029
-630,765	139,730	0,071	-0,069
-629,751	-200,000	-0,000	0,069
-628,736	80,826	-0,065	-0,051
-627,722	64,253	0,045	0,033
-626,707	-67,655	-0,181	-0,052
-625,692	800,000	0,011	0,031
-624,678	-98,358	0,073	0,014
-623,663	-113,575	-0,078	-0,011
-622,649	203,257	0,036	-0,041
-621,634	-75,945	-0,029	-0,007
-620,619	240,122	-0,068	-0,083
-619,605	146,350	0,034	-0,034
-618,590	245,012	-0,095	0,118
-617,576	-123,984	0,207	-0,024
-616,561	18,247	-0,138	0,080
-615,546	-200,000	-0,031	-0,121
-614,532	143,108	-0,132	-0,129
-613,517	-42,955	0,020	0,008
-612,503	-200,000	-0,013	0,067
-611,488	581,433	0,035	0,064
-610,474	-102,866	0,087	-0,015
-609,459	387,329	-0,047	0,071
-608,444	-10,581	-0,087	-0,042
-607,430	800,000	-0,020	0,048
-606,415	-200,000	-0,024	-0,112
-605,401	-200,000	0,031	0,103
-604,386	800,000	-0,038	-0,082
-603,371	-134,170	0,064	-0,006
-602,357	-63,397	-0,100	0,030
-601,342	-92,076	-0,194	0,040
-600,328	210,441	-0,057	-0,065
-599,313	-200,000	0,007	-0,030
-598,298	-200,000	0,001	0,026
-597,284	-200,000	-0,032	0,129
-596,269	23,351	-0,048	-0,029
-595,255	57,334	0,085	0,060
-594,240	-200,000	-0,015	-0,094
-593,225	800,000	0,058	-0,161
-592,211	-147,559	-0,171	-0,010
-591,196	-72,410	-0,091	-0,025
-590,182	-60,577	0,126	-0,039
-589,167	495,761	0,062	-0,104
-588,152	131,442	-0,058	0,055
-587,138	-200,000	0,027	-0,109
-586,123	-144,134	0,186	-0,013
-585,109	-104,218	-0,098	0,016
-584,094	-6,327	-0,046	0,023
-583,079	95,628	-0,091	0,076
-582,065	39,096	-0,037	0,024
-581,050	-200,000	-0,003	-0,139
-580,036	53,404	-0,128	0,089
-579,021	-50,922	-0,137	-0,047
-578,006	126,630	0,095	-0,088
-576,992	78,759	-0,085	-0,067
-575,977	-62,664	-0,077	0,023
-574,963	-121,634	-0,113	-0,014
-573,948	-2,941	-0,017	0,009
-572,934	153,498	0,046	-0,046
-571,919	763,922	0,074	-0,148
-570,904	299,398	-0,094	-0,127
-569,890	800,000	0,075	-0,158
-568,875	718,237	-0,073	0,142
-567,861	172,909	0,073	-0,077
-566,846	-200,000	0,009	-0,060
-565,831	-50,640	-0,088	0,030
-564,817	456,172	-0,089	-0,145
-563,802	-140,199	-0,137	0,010
-562,788	-76,289	-0,066	-0,017
-561,773	75,081	0,128	0,098
-560,758	800,000	0,007	-0,020
-559,744	-200,000	-0,016	-0,061
-558,729	62,112	0,093	0,068
-557,715	360,818	-0,080	0,117
-556,700	-95,773	0,056	0,011
-555,685	37,254	-0,210	-0,136
-554,671	25,139	-0,052	0,031
-553,656	-122,022	0,014	0,002
-552,642	162,400	0,068	0,070
-551,627	800,000	-0,015	-0,034
-550,612	-200,000	0,012	-0,057
-549,598	-47,505	-0,122	0,043
-548,583	29,764	0,133	-0,083
-547,569	800,000	0,044	-0,121
-546,554	-200,000	0,008	-0,113
-545,539	-37,509	-0,015	-0,006
-544,525	-104,436	-0,120	0,020
-543,510	-200,000	0,014	-0,125
-542,496	-200,000	0,021	-0,232
-541,481	189,685	-0,049	-0,053
-540,466	-165,174	0,102	-0,003
-539,452	470,557	0,027	0,044
-538,437	-70,319	0,191	0,053
-537,423	-3,989	-0,077	0,039
-536,408	323,614	0,068	0,095
-535,393	52,470	-0,084	-0,058
-534,379	-103,431	-0,147	-0,025
-533,364	-200,000	-0,016	0,104
-532,350	96,770	0,082	0,068
-531,335	43,165	0,098	-0,065
-530,321	44,616	0,101	0,067
-529,306	-54,764	0,115	0,038
-528,291	-67,513	-0,080	-0,023
-527,277	-200,000	0,001	-0,030
-526,262	173,183	-0,039	-0,041
-525,248	16,775	0,146	0,084
-524,233	-36,816	-0,068	0,027
-523,218	-32,508	-0,032	-0,013
-522,204	-200,000	0,012	-0,187
-521,189	-160,802	-0,153	0,006
-520,175	800,000	-0,048	-0,133
-519,160	-115,017	0,162	-0,022
-518,145	229,442	0,033	-0,039
-517,131	-104,954	0,110	-0,018
-516,116	422,352	0,025	-0,039
-515,102	-173,693	0,141	0,003
-514,087	-200,000	-0,016	0,101
-513,072	800,000	0,022	0,045
-512,058	49,605	-0,086	-0,059
-511,043	800,000	0,036	0,076
-510,029	800,000	0,126	0,278
-509,014	-52,282	-0,034	0,011
-507,999	455,867	0,070	-0,114
-506,985	54,662	-0,110	-0,077
-505,970	244,811	-0,089	0,109
-504,956	87,187	0,135	0,109
-503,941	253,440	-0,102	-0,128
-502,926	-100,083	0,171	-0,031
-501,912	-42,349	-0,019	-0,007
-500,897	221,800	-0,037	0,044
-499,883	38,207	0,029	0,019
-498,868	634,412	-0,052	-0,097
-497,853	-87,016	0,087	-0,019
-496,839	-200,000	0,018	-0,057
-495,824	-134,502	-0,140	0,012
-494,810	281,377	-0,077	0,100
-493,795	-200,000	-0,037	0,129
-492,781	-165,732	0,065	0,002
-491,766	202,761	-0,037	-0,041
-490,751	-91,577	-0,086	-0,018
-489,737	-114,588	-0,126	0,017
-488,722	-30,009	-0,116	0,048
-487,708	-200,000	0,015	0,065
-486,693	-155,768	0,150	0,007
-485,678	376,642	0,044	-0,066
-484,664	438,948	0,033	-0,053
-483,649	288,963	0,043	-0,056
-482,635	160,338	0,038	0,039
-481,620	-82,739	-0,086	-0,020
-480,605	213,568	0,140	0,162
-479,591	-71,783	-0,009	0,002
-478,576	470,083	0,087	-0,144
-477,562	55,622	-0,071	0,050
-476,547	-200,000	0,007	0,095
-475,532	86,247	-0,064	0,052
-474,518	169,961	-0,103	0,108
-473,503	714,486	-0,045	0,086
-472,489	73,044	0,101	0,077
-471,474	95,450	0,023	0,019
-470,459	390,908	-0,092	-0,139
-469,445	117,680	0,080	0,072
-468,430	6,826	-0,075	0,041
-467,416	94,930	0,055	-0,045
-466,401	-200,000	0,010	0,082
-465,386	800,000	0,010	-0,024
-464,372	-18,944	0,117	-0,053
-463,357	119,211	-0,052	-0,047
-462,343	582,885	-0,040	-0,072
-461,328	-188,875	0,165	0,001
-460,313	-153,870	0,217	-0,011
-459,299	25,412	0,092	-0,056
-458,284	800,000	-0,024	0,066
-457,270	466,970	0,037	-0,060
-456,255	-200,000	0,002	0,062
-455,241	800,000	-0,010	-0,031
-454,226	800,000	-0,040	-0,113
-453,211	94,067	-0,062	-0,051
-452,197	-200,000	0,009	0,080
-451,182	800,000	0,048	0,108
-450,168	-200,000	0,000	0,035
-449,153	-200,000	0,013	-0,047
-448,138	94,200	-0,089	-0,074
-447,124	60,478	0,052	-0,037
-446,109	26,303	-0,114	0,069
-445,095	-52,246	-0,107	0,036
-444,080	800,000	-0,055	0,111
-443,065	-8,422	-0,042	-0,020
-442,051	-26,511	-0,080	0,034
-441,036	-36,201	-0,171	-0,067
-440,022	552,469	0,122	-0,214
-439,007	346,684	0,053	0,076
-437,992	-61,204	-0,111	0,034
-436,978	-26,586	0,201	0,085
-435,963	-200,000	-0,019	-0,092
-434,949	59,012	0,018	0,013
-433,934	800,000	-0,017	0,050
-432,919	-200,000	-0,016	0,106
-431,905	209,367	0,002	-0,002
-430,890	-80,884	0,058	-0,014
-429,876	-180,684	-0,017	-0,000
-428,861	-25,258	0,168	0,072
-427,846	-121,846	-0,031	0,004
-426,832	-200,000	0,011	0,085
-425,817	381,431	-0,109	-0,163
-424,803	-200,000	-0,011	0,106
-423,788	-200,000	-0,029	0,099
-422,773	-125,633	0,084	-0,009
-421,759	-44,350	-0,053	0,019
-420,744	-35,369	0,087	-0,034
-419,730	709,900	-0,075	-0,144
-418,715	-34,817	-0,035	0,014
-417,701	94,810	-0,033	-0,027
-416,686	800,000	-0,020	-0,044
-415,671	16,332	-0,051	-0,029
-414,657	-96,880	0,132	-0,025
-413,642	-16,689	0,144	-0,066
-412,628	186,346	0,047	-0,051
-411,613	800,000	0,032	-0,086
-410,598	-200,000	0,001	-0,020
-409,584	800,000	-0,020	-0,061
-408,569	-200,000	0,016	0,076
-407,555	-64,330	0,184	-0,054
-406,540	800,000	0,065	-0,133
-405,525	62,068	0,049	-0,035
-404,511	-200,000	0,005	-0,070
-403,496	-200,000	0,000	-0,072
-402,482	-34,036	0,103	-0,041
-401,467	485,635	-0,050	-0,083
-400,452	-200,000	0,001	-0,007
-399,438	21,259	0,084	0,049
-398,423	-108,601	0,057	0,009
-397,409	-85,469	0,159	-0,036
-396,394	241,390	-0,097	-0,118
-395,379	-200,000	-0,012	0,095
-394,365	106,933	-0,045	0,039
-393,350	-36,356	0,145	-0,056
-392,336	-200,000	-0,028	0,185
-391,321	-124,625	0,126	-0,014
-390,306	4,180	0,070	-0,037
-389,292	-200,000	0,021	-0,181
-388,277	-23,608	-0,102	-0,044
-387,263	6,339	0,062	0,033
-386,248	-184,783	0,097	0,001
-385,233	161,608	0,033	0,033
-384,219	-200,000	0,006	-0,109
-383,204	161,016	0,047	-0,048
-382,190	-136,017	-0,104	-0,009
-381,175	220,103	-0,037	-0,043
-380,160	-57,915	0,035	-0,011
-379,146	-200,000	-0,006	0,089
-378,131	169,027	0,084	0,087
-377,117	-41,140	-0,126	0,047
-376,102	182,979	-0,103	-0,110
-375,088	454,974	-0,066	-0,107
-374,073	-200,000	-0,007	0,032
-373,058	800,000	-0,076	0,233
-372,044	51,423	0,121	0,083
-371,029	800,000	0,046	0,100
-370,015	52,463	0,050	-0,035
-369,000	800,000	-0,035	0,103
-367,985	-87,194	-0,117	-0,026
-366,971	-200,000	0,027	0,184
-365,956	-92,782	0,040	-0,008
-364,942	800,000	-0,009	0,020
-363,927	264,332	0,095	0,120
-362,912	-51,105	0,070	0,024
-361,898	-200,000	-0,016	-0,073
-360,883	-104,592	-0,120	0,020
-359,869	687,710	-0,014	-0,028
-358,854	-200,000	-0,016	0,184
-357,839	224,783	0,027	0,031
-356,825	-200,000	0,023	-0,075
-355,810	-47,851	0,139	0,048
-354,796	-37,325	-0,096	-0,037
-353,781	-0,442	-0,077	0,039
-352,766	-41,410	0,036	-0,013
-351,752	745,205	-0,054	0,106
-350,737	-63,104	-0,017	0,005
-349,723	-200,000	-0,021	-0,168
-348,708	43,975	0,142	0,094
-347,693	-200,000	-0,013	0,061
-346,679	396,544	0,017	-0,026
-345,664	-44,750	-0,082	-0,029
-344,650	487,582	0,074	-0,123
-343,635	7,941	0,021	0,012
-342,620	8,154	0,011	0,006
-341,606	-133,449	0,044	-0,004
-340,591	-200,000	0,032	0,108
-339,577	125,734	-0,088	0,081
-338,562	-200,000	-0,010	-0,113
-337,548	255,782	-0,042	-0,053
-336,533	42,933	-0,042	-0,028
-335,518	800,000	-0,037	0,092
-334,504	527,405	0,039	-0,066
-333,489	-134,048	0,117	0,010
-332,475	225,364	0,018	-0,022
-331,460	-55,320	-0,127	0,041
-330,445	89,939	0,096	0,078
-329,431	-200,000	0,000	0,014
-328,416	107,545	-0,024	-0,021
-327,402	-155,914	-0,108	0,005
-326,387	31,053	0,068	-0,042
-325,372	530,635	-0,030	0,051
-324,358	546,126	-0,064	-0,111
-323,343	-144,953	-0,114	-0,007
-322,329	205,472	0,129	0,146
-321,314	-22,329	0,038	0,017
-320,299	-92,532	0,037	-0,007
-319,285	55,485	-0,066	-0,047
-318,270	400,001	0,055	-0,084
-317,256	-76,273	-0,109	0,028
-316,241	102,607	-0,002	-0,001
-315,226	319,559	-0,009	0,013
-314,212	-52,728	0,127	0,042
-313,197	223,473	-0,138	0,162
-312,183	-200,000	0,026	0,114
-311,168	-200,000	-0,022	-0,093
-310,153	-200,000	0,025	0,094
-309,139	10,523	-0,032	0,018
-308,124	459,335	0,088	-0,143
-307,110	163,459	0,059	0,061
-306,095	-200,000	-0,007	0,139
-305,080	-98,877	0,127	0,023
-304,066	-200,000	0,015	0,062
-303,051	176,853	-0,115	-0,121
-302,037	-106,450	-0,083	-0,013
-301,022	-200,000	-0,009	0,054
-300,008	800,000	0,047	-0,104
-298,993	-200,000	0,005	-0,025
-297,978	768,083	0,064	-0,127
-296,964	-154,546	-0,050	0,002
-295,949	104,712	-0,110	-0,094
-294,935	-96,129	-0,023	-0,004
-293,920	112,225	-0,099	-0,086
-292,905	-124,309	-0,109	-0,012
-291,891	-82,058	-0,131	0,031
-290,876	772,108	0,066	0,132
-289,862	-200,000	-0,001	-0,124
-288,847	-200,000	0,001	-0,005
-287,832	165,693	-0,080	-0,081
-286,818	81,831	-0,079	0,062
-285,803	715,176	-0,050	0,095
-284,789	284,161	0,042	0,055
-283,774	149,755	0,053	-0,052
-282,759	-77,069	0,068	0,017
-281,745	300,085	-0,043	0,058
-280,730	-164,018	-0,096	0,003
-279,716	11,206	-0,139	0,077
-278,701	271,897	0,078	-0,100
-277,686	-68,137	-0,051	0,014
-276,672	-51,925	-0,076	-0,025
-275,657	483,306	0,041	0,067
-274,643	-73,977	-0,062	-0,016
-273,628	-87,093	-0,040	0,009
-272,613	-44,697	0,045	0,016
-271,599	172,071	0,054	0,056
-270,584	601,398	-0,066	-0,120
-269,570	-200,000	0,002	0,074
-268,555	-118,244	0,212	-0,027
-267,540	-37,110	-0,105	0,040
-266,526	64,181	-0,068	-0,049
-265,511	-127,184	-0,068	0,007
-264,497	339,122	0,035	0,049
-263,482	800,000	-0,087	0,188
-262,467	-12,435	0,055	-0,026
-261,453	-200,000	0,012	0,072
-260,438	60,809	-0,087	0,062
-259,424	-200,000	-0,009	-0,108
-258,409	236,147	-0,060	-0,072
-257,395	-58,329	0,152	0,047
-256,380	800,000	0,049	0,103
-255,365	331,851	0,083	0,116
-254,351	-0,812	-0,028	-0,014
-253,336	10,057	-0,051	-0,028
-252,322	294,543	-0,013	0,018
-251,307	-140,906	0,065	0,005
-250,292	-200,000	0,005	-0,114
-249,278	330,232	-0,042	0,059
-248,263	800,000	-0,020	-0,041
-247,249	-200,000	0,021	0,071
-246,234	244,672	-0,066	0,080
-245,219	-104,187	-0,151	0,025
-244,205	-4,686	0,018	-0,009
-243,190	-69,329	-0,079	0,022
-242,176	800,000	0,028	-0,056
-241,161	598,423	-0,034	0,061
-240,146	-103,786	0,144	-0,024
-239,132	79,524	-0,030	-0,023
-238,117	-200,000	0,005	-0,021
-237,103	-81,630	0,065	-0,015
-236,088	403,047	-0,042	0,065
-235,073	320,631	-0,050	-0,068
-234,059	-200,000	0,002	0,038
-233,044	-109,187	0,091	0,014
-232,030	-137,409	-0,082	0,007
-231,015	422,544	-0,048	-0,075
-230,000	130,027	-0,021	0,020
-228,986	-74,354	0,156	0,040
-227,971	-149,029	0,019	-0,001
-226,957	76,330	0,098	0,075
-225,942	-200,000	0,009	0,047
-224,927	-131,605	0,065	0,006
-223,913	69,912	0,103	0,077
-222,898	177,117	-0,119	-0,125
-221,884	800,000	0,056	-0,120
-220,869	73,739	-0,031	0,024
-219,855	590,307	0,051	0,092
-218,840	-152,424	0,071	0,004
-217,825	-142,132	0,035	0,003
-216,811	43,983	-0,015	0,010
-215,796	163,215	0,099	0,100
-214,782	22,584	0,076	0,045
-213,767	800,000	0,024	-0,050
-212,752	451,730	0,028	0,044
-211,738	2,664	-0,127	0,066
-210,723	-200,000	0,031	0,117
-209,709	92,579	-0,094	0,076
-208,694	-41,294	0,027	-0,010
-207,679	-200,000	0,022	-0,090
-206,665	-9,082	0,059	-0,028
-205,650	326,582	0,034	-0,047
-204,636	-200,000	-0,001	-0,069
-203,621	44,047	0,043	-0,028
-202,606	800,000	-0,028	-0,063
-201,592	800,000	0,010	-0,029
-200,577	1,361	-0,104	-0,054
-199,563	-90,839	-0,046	0,010
-198,548	800,000	0,008	0,016
-197,533	192,875	0,074	0,081
-196,519	308,658	0,031	-0,041
-195,504	-138,198	0,062	0,005
-194,490	434,756	0,042	0,067
-193,475	263,321	0,032	0,041
-192,460	12,382	0,038	0,021
-191,446	2,731	0,032	0,017
-190,431	800,000	-0,032	0,093
-189,417	138,048	0,017	0,016
-188,402	-200,000	-0,034	-0,159
-187,387	96,545	0,072	-0,059
-186,373	451,103	-0,048	-0,076
-185,358	800,000	0,024	-0,057
-184,344	-200,000	-0,014	-0,058
-183,329	131,180	0,052	0,048
-182,315	193,105	0,069	0,076
-181,300	-113,162	0,109	-0,015
-180,285	36,845	-0,032	0,020
-179,271	456,426	0,042	0,067
-178,256	-147,966	0,046	-0,003
-177,242	-70,168	-0,084	-0,023
-176,227	327,737	0,139	0,193
-175,212	357,421	-0,018	-0,025
-174,198	60,492	0,120	0,085
-173,183	2,530	-0,070	0,037
-172,169	-2,951	-0,218	-0,109
-171,154	-116,808	-0,040	-0,005
-170,139	63,006	0,058	-0,042
-169,125	800,000	-0,026	0,058
-168,110	-162,114	0,092	-0,003
-167,096	800,000	-0,011	-0,033
-166,081	-172,289	-0,071	0,002
-165,066	-200,000	0,012	0,127
-164,052	800,000	-0,021	0,067
-163,037	-200,000	0,026	0,136
-162,023	800,000	-0,025	0,065
-161,008	239,161	0,085	-0,102
-159,993	-64,021	0,041	-0,012
-158,979	184,571	-0,096	-0,103
-157,964	-200,000	0,002	-0,064
-156,950	-200,000	0,009	0,085
-155,935	-200,000	0,004	0,109
-154,920	-200,000	-0,004	0,142
-153,906	300,134	0,069	0,091
-152,891	800,000	-0,033	-0,074
-151,877	-200,000	0,020	0,139
-150,862	-200,000	-0,003	0,061
-149,847	-200,000	0,038	-0,140
-148,833	108,648	-0,111	-0,095
-147,818	-58,901	0,044	-0,014
-146,804	800,000	-0,027	0,068
-145,789	-200,000	0,049	0,000
-144,775	-200,000	-0,026	-0,097
-143,760	47,066	-0,091	-0,061
-142,745	55,597	-0,015	0,010
-141,731	384,733	0,059	0,088
-140,716	177,554	0,073	0,077
-139,702	51,244	-0,116	0,079
-138,687	-28,190	0,060	-0,025
-137,672	-200,000	0,017	0,104
-136,658	-135,061	0,025	-0,002
-135,643	61,561	-0,074	0,053
-134,629	-100,033	0,117	0,021
-133,614	-140,108	0,097	0,007
-132,599	-200,000	-0,014	0,147
-131,585	182,287	0,046	-0,048
-130,570	-111,002	0,041	0,006
-129,556	-81,561	-0,107	0,025
-128,541	173,681	-0,038	-0,039
-127,526	-200,000	0,011	-0,077
-126,512	800,000	-0,071	0,152
-125,497	-200,000	0,041	0,131
-124,483	346,848	-0,095	0,135
-123,468	-26,659	0,186	0,078
-122,453	800,000	-0,011	0,031
-121,439	-93,221	-0,130	-0,026
-120,424	26,387	-0,110	-0,066
-119,410	-103,143	-0,085	-0,014
-118,395	-200,000	0,017	0,116
