DTS Sentinel unit serial number:	SN410029Multiplexer serial number:	ORYXHardware model number:	OX2-SRSoftware version number:	ORYX F/W v4,00 Oryx Data Collector v3.7.2.0data status	okinstallation	B5 Nyhavnadifferential loss correction	single-endedforward channel	channel 2reverse channel	N/Adate	2023/12/13time	11:32:13forward acquisition time	300,00reverse acquisition time	0,00gamma	499,1914k internal	0,3161k external	0,3161temperature offset calibration	1,0000default loss term (dB/km)	0,3820temperature slope calibration	1,0000multiplexer offset coefficient	1,0000multiplexer slope coefficient	1,0000fibre end	0,00T internal ref (°C)	13,81T ext. ref 1 (°C)	-2,20T ext. ref 2 (°C)	-2,50length (m)	temperature (°C)	Stokes	anti-Stokes-744,400	-64,354	0,129	0,038
-743,385	-61,507	-0,299	0,092
-742,371	-200,000	0,027	0,114
-741,356	-140,276	-0,230	0,017
-740,342	265,329	0,088	0,113
-739,327	-59,690	-0,304	-0,095
-738,312	-60,936	0,134	0,041
-737,298	-174,122	-0,288	-0,006
-736,283	279,406	0,039	0,051
-735,269	-132,822	-0,312	-0,029
-734,254	-70,140	0,154	0,043
-733,239	0,457	-0,346	-0,181
-732,225	26,697	0,102	0,063
-731,210	-200,000	0,029	-0,098
-730,196	-200,000	0,014	-0,077
-729,181	-76,952	-0,108	-0,028
-728,167	110,432	-0,110	-0,097
-727,152	11,902	-0,055	0,031
-726,137	408,821	0,022	-0,034
-725,123	-200,000	-0,001	-0,137
-724,108	134,867	0,031	-0,029
-723,094	800,000	0,039	-0,109
-722,079	146,370	-0,049	-0,048
-721,064	575,162	-0,042	-0,077
-720,050	-118,413	-0,171	0,022
-719,035	800,000	-0,034	0,090
-718,021	-200,000	-0,017	-0,058
-717,006	132,679	-0,073	-0,069
-715,991	-200,000	-0,001	0,085
-714,977	-200,000	0,010	-0,069
-713,962	-200,000	-0,026	-0,098
-712,948	305,385	-0,008	0,010
-711,933	800,000	-0,062	0,156
-710,918	42,700	-0,107	-0,071
-709,904	129,021	-0,080	0,075
-708,889	-38,875	-0,039	-0,015
-707,875	-200,000	-0,013	-0,081
-706,860	-158,912	-0,087	0,004
-705,845	456,563	0,045	-0,074
-704,831	-68,447	-0,148	0,042
-703,816	-200,000	0,008	-0,052
-702,802	-200,000	-0,011	-0,083
-701,787	-6,709	-0,077	-0,038
-700,772	581,203	-0,064	-0,116
-699,758	142,217	0,164	-0,160
-698,743	-200,000	-0,017	0,129
-697,729	64,595	0,027	0,020
-696,714	-37,212	-0,067	0,026
-695,699	116,771	-0,137	-0,124
-694,685	-100,009	-0,056	-0,010
-693,670	-200,000	-0,002	-0,035
-692,656	800,000	-0,022	-0,072
-691,641	261,440	-0,055	-0,070
-690,627	152,871	0,040	0,041
-689,612	-128,565	0,104	0,011
-688,597	49,447	-0,086	-0,059
-687,583	380,456	-0,107	-0,161
-686,568	134,456	0,100	-0,095
-685,554	800,000	0,038	-0,078
-684,539	1,189	0,115	-0,060
-683,524	-116,738	0,090	-0,012
-682,510	-200,000	-0,002	0,036
-681,495	419,008	-0,050	-0,079
-680,481	-50,151	-0,075	0,026
-679,466	-200,000	-0,015	-0,114
-678,451	82,462	-0,071	0,056
-677,437	800,000	-0,031	0,069
-676,422	800,000	0,062	0,146
-675,408	-200,000	0,012	0,152
-674,393	9,939	-0,062	0,034
-673,378	-25,100	-0,081	0,035
-672,364	800,000	0,038	-0,117
-671,349	181,695	0,093	-0,100
-670,335	-10,161	-0,134	0,065
-669,320	-200,000	0,008	-0,028
-668,305	800,000	-0,026	-0,063
-667,291	-44,153	-0,103	0,038
-666,276	59,068	-0,085	-0,061
-665,262	-200,000	-0,013	-0,086
-664,247	731,580	0,011	0,023
-663,232	-129,195	-0,056	0,006
-662,218	217,084	0,052	-0,061
-661,203	800,000	-0,028	0,065
-660,189	490,215	-0,024	0,041
-659,174	800,000	0,019	-0,057
-658,159	-154,153	-0,197	0,010
-657,145	-2,650	-0,110	0,056
-656,130	178,660	-0,132	-0,142
-655,116	-6,845	-0,053	0,026
-654,101	2,116	0,087	-0,046
-653,086	-59,438	0,040	0,013
-652,072	800,000	-0,022	0,060
-651,057	219,041	-0,111	-0,131
-650,043	-157,389	-0,097	0,004
-649,028	271,939	0,072	0,093
-648,014	-24,548	0,085	-0,037
-646,999	-100,314	0,097	0,018
-645,984	-200,000	-0,007	0,073
-644,970	337,371	-0,102	0,146
-643,955	-200,000	0,002	0,012
-642,941	380,028	0,022	-0,033
-641,926	-200,000	0,015	-0,052
-640,911	369,442	0,075	-0,111
-639,897	133,391	-0,040	0,038
-638,882	100,509	-0,126	0,107
-637,868	-200,000	0,000	-0,034
-636,853	5,266	-0,094	-0,051
-635,838	800,000	-0,024	-0,063
-634,824	-83,013	-0,051	0,012
-633,809	97,685	-0,042	-0,035
-632,795	132,382	-0,048	-0,045
-631,780	281,074	-0,071	0,093
-630,765	75,145	0,060	0,046
-629,751	96,006	-0,153	-0,129
-628,736	-50,259	0,078	0,027
-627,722	195,231	0,025	-0,028
-626,707	-117,473	0,111	-0,014
-625,692	800,000	0,011	0,026
-624,678	-129,518	0,077	-0,008
-623,663	-103,494	0,076	-0,013
-622,649	-123,929	-0,090	-0,010
-621,634	-200,000	-0,046	-0,154
-620,619	737,573	0,048	-0,095
-619,605	800,000	-0,072	-0,157
-618,590	800,000	-0,019	0,055
-617,576	-200,000	-0,002	0,082
-616,561	-200,000	-0,013	-0,044
-615,546	-18,291	-0,063	-0,029
-614,532	-167,413	0,085	0,002
-613,517	800,000	-0,016	-0,042
-612,503	-55,237	-0,041	-0,013
-611,488	246,404	0,070	0,087
-610,474	655,015	0,040	-0,076
-609,459	-39,054	-0,032	-0,012
-608,444	-200,000	0,000	-0,056
-607,430	800,000	-0,061	0,132
-606,415	-122,630	0,046	-0,005
-605,401	-152,889	0,098	0,005
-604,386	-14,259	0,100	0,047
-603,371	-21,162	0,045	-0,020
-602,357	-200,000	0,014	-0,122
-601,342	102,252	-0,069	-0,059
-600,328	-200,000	-0,035	-0,125
-599,313	-200,000	-0,013	-0,055
-598,298	-200,000	-0,024	0,089
-597,284	-200,000	-0,026	0,092
-596,269	-138,565	-0,073	0,006
-595,255	-106,568	0,101	-0,016
-594,240	775,545	-0,070	-0,140
-593,225	318,421	0,080	-0,111
-592,211	-200,000	-0,022	-0,124
-591,196	-11,889	0,075	0,036
-590,182	-103,367	-0,149	-0,026
-589,167	223,229	0,109	-0,129
-588,152	691,811	-0,087	0,167
-587,138	30,113	-0,113	0,070
-586,123	238,048	-0,072	-0,088
-585,109	-200,000	-0,027	-0,190
-584,094	117,338	-0,072	0,065
-583,079	117,682	0,136	0,123
-582,065	-125,142	0,083	-0,009
-581,050	800,000	0,036	0,085
-580,036	20,619	0,065	-0,039
-579,021	317,604	0,062	-0,086
-578,006	-2,161	-0,121	-0,062
-576,992	258,063	-0,023	-0,030
-575,977	753,905	-0,046	-0,091
-574,963	-200,000	0,011	0,141
-573,948	161,798	0,052	0,053
-572,934	-200,000	0,031	-0,147
-571,919	-82,775	-0,157	0,037
-570,904	26,914	-0,047	0,029
-569,890	800,000	-0,082	-0,178
-568,875	800,000	-0,070	-0,154
-567,861	405,910	0,055	-0,085
-566,846	5,820	0,049	0,027
-565,831	292,187	-0,036	-0,049
-564,817	93,497	0,059	-0,049
-563,802	3,324	-0,046	-0,024
-562,788	800,000	0,038	0,109
-561,773	800,000	-0,063	0,177
-560,758	-200,000	0,046	0,167
-559,744	-200,000	0,006	0,111
-558,729	800,000	0,053	-0,138
-557,715	800,000	-0,075	-0,172
-556,700	-27,194	-0,025	-0,011
-555,685	26,805	-0,036	-0,022
-554,671	-200,000	0,033	-0,168
-553,656	-200,000	-0,008	-0,052
-552,642	747,755	-0,006	0,011
-551,627	-11,650	-0,088	-0,042
-550,612	800,000	-0,020	-0,048
-549,598	66,647	0,038	-0,028
-548,583	800,000	0,029	-0,089
-547,569	-200,000	-0,006	0,134
-546,554	800,000	0,060	0,175
-545,539	269,700	0,046	-0,059
-544,525	-13,575	-0,061	0,029
-543,510	83,486	-0,054	0,043
-542,496	-146,871	-0,024	-0,002
-541,481	-200,000	0,052	-0,181
-540,466	38,054	-0,036	-0,024
-539,452	158,360	-0,041	0,041
-538,437	98,861	0,015	-0,013
-537,423	215,151	0,084	-0,097
-536,408	169,231	-0,126	-0,132
-535,393	-14,383	0,135	-0,063
-534,379	-200,000	-0,007	-0,058
-533,364	-76,933	-0,202	0,051
-532,350	-200,000	0,001	0,026
-531,335	-101,044	0,127	0,022
-530,321	-200,000	0,009	0,056
-529,306	-166,470	-0,120	-0,004
-528,291	-200,000	-0,000	-0,046
-527,277	180,216	-0,015	-0,016
-526,262	-86,235	-0,116	0,026
-525,248	-200,000	0,010	0,034
-524,233	-200,000	-0,025	0,143
-523,218	-165,522	-0,084	-0,003
-522,204	800,000	-0,027	-0,071
-521,189	-128,799	-0,068	-0,007
-520,175	-200,000	-0,006	0,137
-519,160	-61,695	0,089	0,027
-518,145	-200,000	0,012	0,127
-517,131	-200,000	-0,037	0,149
-516,116	-20,488	0,117	0,052
-515,102	800,000	0,049	-0,141
-514,087	800,000	-0,055	0,136
-513,072	800,000	-0,039	-0,095
-512,058	-10,716	0,096	-0,046
-511,043	-84,516	-0,105	-0,024
-510,029	800,000	0,069	0,156
-509,014	311,225	-0,069	0,095
-507,999	-41,031	-0,109	0,041
-506,985	93,145	-0,029	0,024
-505,970	473,212	-0,014	-0,023
-504,956	-50,145	0,031	0,011
-503,941	-160,460	0,177	0,007
-502,926	15,118	-0,202	0,115
-501,912	800,000	0,074	0,183
-500,897	-32,113	0,063	0,026
-499,883	-200,000	-0,028	0,099
-498,868	361,715	0,029	-0,043
-497,853	-200,000	0,022	-0,100
-496,839	-84,630	0,077	0,017
-495,824	82,488	-0,107	0,085
-494,810	-85,432	0,153	0,035
-493,795	-200,000	-0,008	0,062
-492,781	-200,000	-0,016	-0,110
-491,766	-200,000	0,022	0,076
-490,751	-200,000	0,023	-0,087
-489,737	-192,156	-0,032	0,000
-488,722	205,412	0,025	0,028
-487,708	316,446	0,072	0,100
-486,693	-30,048	0,091	0,037
-485,678	-116,262	-0,142	-0,019
-484,664	-64,371	0,067	-0,020
-483,649	217,338	0,026	-0,030
-482,635	-200,000	0,002	0,043
-481,620	254,824	0,069	-0,086
-480,605	-118,262	-0,076	-0,010
-479,591	92,458	-0,087	0,071
-478,576	-200,000	0,003	0,098
-477,562	-167,503	-0,125	0,004
-476,547	-200,000	-0,010	-0,105
-475,532	-200,000	-0,011	0,201
-474,518	21,360	0,122	-0,072
-473,503	-18,139	0,102	0,046
-472,489	-200,000	-0,001	0,033
-471,474	158,468	0,045	0,045
-470,459	-200,000	0,027	-0,089
-469,445	-200,000	-0,017	0,172
-468,430	-200,000	-0,005	-0,134
-467,416	-120,563	-0,116	0,014
-466,401	16,722	0,039	-0,023
-465,386	76,852	0,032	-0,025
-464,372	36,680	0,066	0,042
-463,357	367,494	-0,022	-0,033
-462,343	-31,819	0,052	-0,021
-461,328	37,696	-0,184	-0,119
-460,313	-25,662	-0,063	-0,027
-459,299	-58,260	0,105	-0,033
-458,284	-200,000	-0,005	0,100
-457,270	557,607	-0,050	-0,089
-456,255	-200,000	-0,008	0,035
-455,241	157,709	0,035	0,035
-454,226	23,152	0,018	-0,011
-453,211	259,992	-0,056	-0,070
-452,197	-75,075	0,055	0,014
-451,182	-91,208	-0,069	0,014
-450,168	186,739	0,021	-0,023
-449,153	-8,082	0,049	-0,024
-448,138	-31,622	0,062	0,025
-447,124	-123,013	0,082	0,010
-446,109	-101,764	-0,125	0,022
-445,095	205,408	0,020	0,023
-444,080	-200,000	-0,004	-0,022
-443,065	-200,000	0,009	0,180
-442,051	-102,016	-0,154	0,027
-441,036	185,887	0,036	-0,039
-440,022	116,582	0,138	0,123
-439,007	139,156	-0,074	-0,071
-437,992	-200,000	-0,009	-0,110
-436,978	-76,193	-0,056	0,014
-435,963	-66,911	0,115	-0,033
-434,949	800,000	0,031	0,066
-433,934	-200,000	-0,015	-0,125
-432,919	-200,000	-0,058	-0,188
-431,905	-53,740	0,083	0,027
-430,890	-200,000	0,020	0,090
-429,876	490,173	0,100	0,167
-428,861	-102,301	0,147	-0,025
-427,846	-14,618	0,032	-0,015
-426,832	-152,629	-0,036	-0,002
-425,817	-43,264	0,028	0,010
-424,803	-200,000	0,005	-0,110
-423,788	800,000	0,063	0,170
-422,773	338,763	0,082	0,116
-421,759	91,407	-0,067	-0,055
-420,744	145,039	0,060	-0,059
-419,730	800,000	-0,033	0,075
-418,715	-33,290	0,068	-0,027
-417,701	800,000	-0,082	-0,173
-416,686	205,544	0,064	-0,072
-415,671	217,728	0,065	-0,075
-414,657	-200,000	-0,016	-0,130
-413,642	-24,205	0,044	-0,019
-412,628	-19,173	0,099	0,044
-411,613	800,000	-0,079	-0,177
-410,598	-200,000	-0,045	0,000
-409,584	291,266	-0,050	0,066
-408,569	-200,000	0,027	0,145
-407,555	-129,509	-0,053	0,005
-406,540	-77,283	0,059	0,015
-405,525	174,235	-0,007	0,008
-404,511	103,102	-0,080	-0,068
-403,496	-200,000	0,006	-0,081
-402,482	-24,043	0,120	0,052
-401,467	2,500	0,094	-0,049
-400,452	80,229	0,069	0,054
-399,438	82,693	-0,028	-0,022
-398,423	800,000	-0,040	-0,097
-397,409	800,000	0,035	-0,108
-396,394	800,000	-0,020	-0,056
-395,379	800,000	0,031	0,076
-394,365	-93,706	0,047	0,009
-393,350	800,000	0,037	-0,077
-392,336	326,414	0,068	0,095
-391,321	634,654	0,043	0,080
-390,306	-101,765	0,002	-0,000
-389,292	-55,763	-0,169	-0,055
-388,277	633,386	-0,028	0,052
-387,263	1,355	0,081	-0,042
-386,248	-200,000	0,014	0,048
-385,233	63,795	0,122	0,089
-384,219	-71,255	-0,028	-0,007
-383,204	425,587	0,012	0,019
-382,190	125,116	0,096	-0,088
-381,175	-28,069	-0,047	0,020
-380,160	-200,000	0,009	-0,058
-379,146	800,000	-0,018	-0,058
-378,131	-164,540	0,080	-0,003
-377,117	-200,000	0,004	0,031
-376,102	266,967	-0,010	-0,012
-375,088	-15,614	-0,095	-0,044
-374,073	-65,671	0,089	-0,026
-373,058	-200,000	0,003	0,096
-372,044	800,000	0,037	0,078
-371,029	182,100	0,117	0,125
-370,015	125,204	-0,083	0,076
-369,000	-200,000	-0,002	0,109
-367,985	-101,102	0,092	-0,016
-366,971	16,782	0,102	0,059
-365,956	-200,000	0,012	-0,107
-364,942	257,385	-0,087	0,109
-363,927	-67,918	0,089	0,025
-362,912	-35,904	0,043	0,017
-361,898	662,578	-0,065	-0,123
-360,883	160,767	-0,084	-0,085
-359,869	-200,000	0,003	-0,104
-358,854	-117,470	0,011	-0,001
-357,839	-59,449	-0,074	-0,023
-356,825	62,486	-0,034	0,024
-355,810	289,554	-0,046	-0,061
-354,796	-12,850	-0,095	-0,045
-353,781	800,000	-0,049	0,122
-352,766	612,591	-0,022	-0,039
-351,752	-200,000	0,001	-0,070
-350,737	-2,837	0,208	0,105
-349,723	800,000	-0,038	0,084
-348,708	37,690	0,061	0,039
-347,693	-42,923	-0,037	-0,014
-346,679	59,439	-0,221	-0,158
-345,664	-200,000	-0,019	-0,086
-344,650	-103,875	0,189	0,032
-343,635	-200,000	0,002	0,045
-342,620	194,635	-0,073	0,080
-341,606	522,202	0,048	-0,082
-340,591	416,221	0,031	0,048
-339,577	100,753	0,175	-0,148
-338,562	-47,456	0,088	-0,031
-337,548	354,540	0,105	-0,152
-336,533	190,688	0,094	0,102
-335,518	-165,186	0,041	0,001
-334,504	-50,371	0,075	0,025
-333,489	250,888	-0,143	0,176
-332,475	305,691	-0,060	0,080
-331,460	-200,000	-0,009	-0,165
-330,445	-13,886	0,036	0,017
-329,431	-200,000	-0,048	0,181
-328,416	-42,894	-0,067	0,025
-327,402	-200,000	0,030	0,113
-326,387	24,065	0,099	0,059
-325,372	-90,862	-0,116	0,024
-324,358	134,811	0,033	0,031
-323,343	185,255	-0,162	0,174
-322,329	323,839	-0,043	0,059
-321,314	-62,005	0,131	0,040
-320,299	-33,917	0,023	0,009
-319,285	-72,336	-0,098	-0,026
-318,270	-148,848	0,062	-0,004
-317,256	800,000	-0,020	-0,043
-316,241	800,000	0,033	-0,084
-315,226	-118,186	0,068	0,009
-314,212	-200,000	0,001	-0,053
-313,197	372,095	0,058	-0,086
-312,183	-167,147	0,085	0,002
-311,168	-112,936	-0,116	-0,016
-310,153	800,000	0,026	0,062
-309,139	800,000	-0,054	-0,160
-308,124	-59,570	0,200	-0,062
-307,110	701,895	-0,063	0,121
-306,095	-10,076	0,073	0,035
-305,080	416,755	0,017	0,027
-304,066	-4,291	0,093	-0,046
-303,051	34,135	-0,117	-0,074
-302,037	346,058	0,115	-0,164
-301,022	-200,000	0,003	0,042
-300,008	-51,403	0,020	0,007
-298,993	-200,000	-0,025	0,098
-297,978	-102,550	-0,065	-0,011
-296,964	151,019	0,036	0,035
-295,949	-85,743	0,035	-0,008
-294,935	-64,259	-0,062	0,018
-293,920	798,739	0,048	0,096
-292,905	10,813	0,152	-0,084
-291,891	-69,656	-0,078	0,021
-290,876	13,054	0,097	-0,054
-289,862	264,398	-0,058	-0,073
-288,847	-153,528	-0,048	-0,002
-287,832	326,187	0,052	0,072
-286,818	65,846	0,034	0,025
-285,803	-67,215	0,099	-0,028
-284,789	128,728	0,028	0,026
-283,774	800,000	-0,031	-0,075
-282,759	-95,317	-0,021	-0,004
-281,745	-102,090	-0,154	0,027
-280,730	370,439	-0,060	-0,089
-279,716	-200,000	0,022	0,074
-278,701	4,532	0,158	0,084
-277,686	-39,253	0,064	0,024
-276,672	197,694	0,051	0,056
-275,657	380,551	-0,086	0,128
-274,643	513,820	-0,060	0,101
-273,628	-200,000	-0,027	0,093
-272,613	-200,000	-0,007	-0,043
-271,599	-90,965	-0,066	0,014
-270,584	-151,847	0,172	-0,009
-269,570	70,278	0,068	0,051
-268,555	-96,267	-0,051	-0,010
-267,540	8,878	-0,078	-0,042
-266,526	494,908	-0,028	0,046
-265,511	257,291	0,059	0,074
-264,497	-200,000	0,001	0,098
-263,482	241,273	-0,060	0,073
-262,467	286,119	-0,043	-0,056
-261,453	-200,000	0,011	-0,103
-260,438	-157,899	0,046	-0,002
-259,424	-49,115	0,072	0,025
-258,409	-65,200	-0,043	-0,012
-257,395	-200,000	-0,007	-0,061
-256,380	800,000	0,024	0,067
-255,365	-200,000	0,006	0,145
-254,351	160,559	-0,070	-0,071
-253,336	-200,000	0,032	-0,113
-252,322	-200,000	-0,020	0,000
-251,307	-138,450	-0,113	-0,009
-250,292	-77,744	0,025	0,006
-249,278	-174,862	-0,093	-0,002
-248,263	-200,000	-0,010	-0,096
-247,249	800,000	-0,058	0,116
-246,234	10,101	-0,145	-0,079
-245,219	107,369	-0,055	-0,047
-244,205	226,677	-0,091	-0,107
-243,190	800,000	0,016	-0,041
-242,176	356,776	0,082	-0,119
-241,161	729,458	-0,084	0,162
-240,146	-52,291	-0,107	0,036
-239,132	800,000	0,041	-0,098
-238,117	-28,653	-0,196	-0,081
-237,103	48,193	-0,069	0,047
-236,088	-200,000	0,001	-0,016
-235,073	-200,000	0,010	0,049
-234,059	535,304	0,011	0,019
-233,044	29,798	-0,083	-0,051
-232,030	800,000	-0,034	-0,071
-231,015	800,000	-0,019	0,045
-230,000	-200,000	-0,030	0,174
-228,986	-64,852	0,115	-0,033
-227,971	-200,000	0,016	-0,074
-226,957	800,000	-0,076	0,184
-225,942	252,838	0,034	-0,042
-224,927	-1,698	0,139	0,070
-223,913	369,120	-0,042	-0,061
-222,898	130,603	-0,174	-0,161
-221,884	85,950	0,063	-0,050
-220,869	-104,121	-0,168	-0,028
-219,855	167,188	0,081	0,083
-218,840	-200,000	0,013	0,085
-217,825	-101,778	-0,141	0,024
-216,811	-200,000	0,001	0,011
-215,796	-59,543	-0,075	-0,023
-214,782	187,436	-0,068	-0,073
-213,767	-200,000	0,006	0,036
-212,752	-200,000	-0,029	0,108
-211,738	-48,133	0,173	0,060
-210,723	-132,604	0,103	0,009
-209,709	800,000	-0,017	-0,046
-208,694	-200,000	-0,004	0,029
-207,679	-200,000	-0,001	0,013
-206,665	48,017	-0,062	-0,042
-205,650	800,000	0,017	0,039
-204,636	45,361	0,041	-0,027
-203,621	-200,000	-0,003	0,249
-202,606	133,565	-0,026	-0,024
-201,592	-200,000	0,011	-0,150
-200,577	800,000	-0,034	0,070
-199,563	-178,294	0,105	0,002
-198,548	-7,929	0,078	0,038
-197,533	800,000	-0,057	0,155
-196,519	80,711	0,225	0,174
-195,504	-87,633	-0,110	-0,024
-194,490	120,177	-0,058	0,052
-193,475	800,000	-0,034	0,109
-192,460	-200,000	0,018	-0,139
-191,446	-200,000	0,020	-0,139
-190,431	546,059	0,028	-0,049
-189,417	22,570	-0,115	0,068
-188,402	22,805	-0,095	-0,056
-187,387	-87,456	0,137	-0,030
-186,373	-130,584	-0,097	-0,009
-185,358	-66,953	0,080	0,023
-184,344	-117,243	0,060	-0,008
-183,329	-54,471	0,069	0,022
-182,315	800,000	-0,035	0,081
-181,300	-200,000	0,016	0,100
-180,285	-200,000	-0,022	-0,118
-179,271	39,065	-0,052	-0,033
-178,256	616,646	-0,037	-0,067
-177,242	-200,000	-0,001	-0,100
-176,227	529,883	0,069	0,117
-175,212	176,105	-0,060	-0,063
-174,198	-10,914	-0,107	0,051
-173,183	-23,908	-0,228	-0,098
-172,169	11,382	-0,048	0,026
-171,154	800,000	-0,026	-0,069
-170,139	129,641	0,100	-0,092
-169,125	-62,680	0,091	0,027
-168,110	-200,000	-0,001	-0,088
-167,096	89,805	-0,065	-0,052
-166,081	-120,982	-0,154	-0,018
-165,066	-64,072	0,057	-0,017
-164,052	-200,000	0,006	-0,120
-163,037	-200,000	0,004	-0,057
-162,023	-200,000	0,027	-0,108
-161,008	95,186	-0,074	-0,061
-159,993	-93,023	0,054	-0,011
-158,979	111,137	0,063	-0,054
-157,964	-200,000	0,006	0,109
-156,950	-200,000	0,016	0,052
-155,935	-200,000	0,027	0,150
-154,920	307,921	-0,068	0,091
-153,906	241,456	-0,033	0,040
-152,891	-200,000	0,017	0,115
-151,877	-200,000	0,023	-0,158
-150,862	-200,000	0,008	-0,081
-149,847	800,000	0,045	-0,132
-148,833	-137,124	-0,027	-0,002
-147,818	98,062	0,071	-0,058
-146,804	68,675	-0,028	0,021
-145,789	-200,000	0,019	-0,070
-144,775	-23,201	0,061	-0,026
-143,760	-44,045	0,013	0,005
-142,745	35,581	-0,036	0,023
-141,731	-135,831	-0,119	-0,010
-140,716	-200,000	0,004	-0,026
-139,702	-200,000	0,003	-0,051
-138,687	-16,231	0,046	0,021
-137,672	-151,401	0,131	0,007
-136,658	585,192	-0,079	-0,140
-135,643	-5,412	-0,039	0,019
-134,629	481,424	0,081	0,132
-133,614	190,466	0,100	0,109
-132,599	104,562	0,056	0,048
-131,585	209,888	0,078	-0,088
-130,570	800,000	-0,045	-0,102
-129,556	160,008	-0,018	0,018
-128,541	769,216	-0,023	-0,045
-127,526	40,415	0,052	-0,034
-126,512	-122,644	0,048	0,006
-125,497	102,797	0,067	-0,056
-124,483	-200,000	-0,006	0,043
-123,468	-100,055	0,109	-0,019
-122,453	-200,000	-0,002	-0,090
-121,439	-164,131	-0,095	0,003
-120,424	-89,209	-0,037	0,008
