DTS Sentinel unit serial number:	SN410029Multiplexer serial number:	ORYXHardware model number:	OX2-SRSoftware version number:	ORYX F/W v4,00 Oryx Data Collector v3.7.2.0data status	okinstallation	B5 Nyhavnadifferential loss correction	single-endedforward channel	channel 2reverse channel	N/Adate	2023/12/11time	14:37:13forward acquisition time	300,00reverse acquisition time	0,00gamma	499,1914k internal	0,3167k external	0,3167temperature offset calibration	1,0000default loss term (dB/km)	0,3820temperature slope calibration	1,0000multiplexer offset coefficient	1,0000multiplexer slope coefficient	1,0000fibre end	0,00T internal ref (°C)	12,63T ext. ref 1 (°C)	-1,86T ext. ref 2 (°C)	-1,88length (m)	temperature (°C)	Stokes	anti-Stokes-744,400	579,416	-0,044	-0,079
-743,385	-88,268	-0,350	0,076
-742,371	106,431	0,112	0,098
-741,356	-64,361	-0,278	0,082
-740,342	800,000	-0,013	-0,038
-739,327	-131,129	-0,250	-0,024
-738,312	63,511	0,040	0,029
-737,298	-67,002	-0,263	-0,076
-736,283	147,505	0,130	0,129
-735,269	-130,083	-0,318	0,031
-734,254	800,000	0,041	-0,097
-733,239	-78,800	-0,482	-0,120
-732,225	76,276	0,182	0,141
-731,210	800,000	0,034	-0,092
-730,196	-200,000	-0,017	-0,166
-729,181	-71,213	-0,061	0,017
-728,167	800,000	0,040	0,085
-727,152	-200,000	0,000	-0,167
-726,137	800,000	0,041	-0,105
-725,123	800,000	-0,011	-0,024
-724,108	-200,000	-0,046	-0,152
-723,094	800,000	-0,058	-0,167
-722,079	226,056	-0,096	-0,114
-721,064	-28,240	-0,012	-0,005
-720,050	244,206	-0,105	-0,130
-719,035	-200,000	-0,011	0,061
-718,021	-74,761	0,134	-0,035
-717,006	104,874	-0,008	-0,007
-715,991	-200,000	-0,027	-0,150
-714,977	-200,000	-0,046	-0,162
-713,962	800,000	-0,044	-0,090
-712,948	444,752	0,043	0,070
-711,933	-23,574	-0,058	0,025
-710,918	800,000	-0,019	0,053
-709,904	-52,469	-0,127	-0,043
-708,889	-46,850	-0,102	0,036
-707,875	264,361	-0,079	-0,101
-706,860	-32,995	-0,068	0,027
-705,845	235,940	-0,040	0,048
-704,831	-61,943	-0,020	0,006
-703,816	149,694	-0,058	-0,058
-702,802	-78,338	-0,166	0,042
-701,787	-200,000	-0,031	-0,163
-700,772	-148,278	-0,106	0,006
-699,758	264,137	-0,031	0,039
-698,743	800,000	0,051	0,128
-697,729	-200,000	0,028	0,091
-696,714	-200,000	-0,001	0,019
-695,699	303,146	0,026	-0,035
-694,685	800,000	-0,040	-0,087
-693,670	707,768	0,074	-0,145
-692,656	-200,000	-0,012	-0,041
-691,641	614,353	0,028	-0,052
-690,627	149,052	0,024	0,024
-689,612	-46,457	-0,054	0,019
-688,597	71,549	-0,129	-0,098
-687,583	-89,543	-0,060	0,013
-686,568	-129,569	0,080	0,008
-685,554	-113,315	-0,045	-0,006
-684,539	-133,261	-0,063	0,006
-683,524	109,646	0,061	-0,053
-682,510	800,000	-0,020	0,047
-681,495	-55,106	0,048	0,016
-680,481	-200,000	0,003	-0,071
-679,466	-19,485	-0,114	-0,052
-678,451	-78,615	0,105	0,026
-677,437	-200,000	0,010	0,078
-676,422	42,058	-0,118	-0,078
-675,408	-96,853	0,093	-0,018
-674,393	147,692	-0,052	-0,051
-673,378	-129,930	-0,080	-0,008
-672,364	-131,980	0,036	-0,003
-671,349	-16,477	-0,109	-0,051
-670,335	58,293	-0,073	-0,052
-669,320	75,690	0,065	-0,051
-668,305	-162,400	-0,065	-0,002
-667,291	-154,179	-0,141	0,007
-666,276	-200,000	0,024	-0,118
-665,262	-44,602	0,157	-0,057
-664,247	-62,829	0,146	0,044
-663,232	-200,000	0,005	-0,027
-662,218	21,317	0,108	0,064
-661,203	-200,000	0,021	0,146
-660,189	22,913	-0,083	0,050
-659,174	61,490	0,056	-0,040
-658,159	127,004	0,061	-0,056
-657,145	64,388	-0,096	-0,070
-656,130	126,240	-0,067	-0,062
-655,116	800,000	0,043	0,088
-654,101	558,488	0,026	-0,046
-653,086	171,308	-0,095	0,100
-652,072	-200,000	0,015	-0,051
-651,057	-169,577	-0,106	0,003
-650,043	442,016	0,030	-0,049
-649,028	-51,455	0,112	-0,038
-648,014	-200,000	-0,014	0,087
-646,999	324,868	-0,051	0,072
-645,984	480,962	0,029	0,049
-644,970	543,388	0,124	-0,217
-643,955	-200,000	0,022	-0,130
-642,941	800,000	0,050	-0,117
-641,926	800,000	0,044	0,125
-640,911	800,000	0,009	0,026
-639,897	109,828	0,048	0,042
-638,882	800,000	-0,044	0,103
-637,868	388,229	-0,065	0,098
-636,853	2,117	-0,039	0,021
-635,838	800,000	-0,014	0,043
-634,824	800,000	-0,011	0,022
-633,809	-93,644	0,126	-0,025
-632,795	4,365	-0,049	0,026
-631,780	72,367	-0,091	0,070
-630,765	32,819	-0,068	-0,043
-629,751	156,968	-0,050	0,050
-628,736	88,488	-0,043	-0,035
-627,722	37,081	-0,049	-0,032
-626,707	114,529	0,045	-0,040
-625,692	-200,000	-0,019	0,093
-624,678	97,742	0,077	-0,065
-623,663	80,980	0,053	0,041
-622,649	-91,941	0,094	-0,019
-621,634	66,382	0,069	0,052
-620,619	557,951	-0,020	-0,036
-619,605	-200,000	0,013	0,063
-618,590	-200,000	-0,013	0,050
-617,576	-69,673	-0,075	0,021
-616,561	356,711	0,124	-0,181
-615,546	-200,000	-0,048	-0,156
-614,532	-53,903	-0,104	0,034
-613,517	92,267	0,040	-0,033
-612,503	-200,000	-0,006	0,028
-611,488	800,000	0,067	-0,138
-610,474	-200,000	0,009	-0,087
-609,459	-119,899	-0,078	0,010
-608,444	365,696	-0,054	0,080
-607,430	248,145	-0,032	0,040
-606,415	453,365	-0,090	-0,146
-605,401	526,252	0,028	0,048
-604,386	800,000	-0,035	0,080
-603,371	800,000	-0,034	-0,091
-602,357	-114,750	0,137	0,019
-601,342	-200,000	-0,003	-0,082
-600,328	24,351	0,108	0,065
-599,313	-14,376	-0,095	0,045
-598,298	179,063	-0,111	0,118
-597,284	800,000	-0,064	-0,146
-596,269	-200,000	0,043	0,224
-595,255	-200,000	0,000	0,115
-594,240	99,308	0,046	0,039
-593,225	289,453	-0,041	-0,054
-592,211	-23,327	-0,181	-0,079
-591,196	-13,367	0,070	0,033
-590,182	-200,000	0,024	0,088
-589,167	800,000	-0,009	0,022
-588,152	29,727	-0,051	0,032
-587,138	-102,491	-0,058	0,010
-586,123	92,747	-0,122	-0,101
-585,109	-100,833	0,038	-0,007
-584,094	800,000	-0,036	0,083
-583,079	145,812	-0,098	0,096
-582,065	-117,128	0,215	-0,028
-581,050	800,000	0,017	-0,039
-580,036	800,000	-0,005	0,013
-579,021	42,457	-0,046	-0,031
-578,006	-200,000	-0,008	-0,153
-576,992	-1,668	0,072	0,037
-575,977	-108,962	0,072	0,011
-574,963	800,000	-0,017	0,046
-573,948	-83,363	-0,101	-0,023
-572,934	-200,000	0,014	-0,112
-571,919	72,328	0,031	-0,023
-570,904	12,844	0,028	-0,016
-569,890	102,306	0,030	0,026
-568,875	-200,000	0,009	0,069
-567,861	-200,000	-0,013	-0,087
-566,846	-23,426	-0,090	0,039
-565,831	94,323	0,051	-0,042
-564,817	800,000	0,006	0,014
-563,802	-200,000	-0,011	-0,058
-562,788	241,649	-0,057	0,070
-561,773	800,000	-0,011	0,034
-560,758	-52,425	0,135	-0,045
-559,744	-200,000	-0,040	0,196
-558,729	311,397	0,034	0,046
-557,715	-200,000	-0,010	0,060
-556,700	-0,117	-0,112	-0,058
-555,685	-94,734	-0,109	-0,021
-554,671	-200,000	0,015	-0,076
-553,656	-200,000	0,041	0,154
-552,642	155,795	-0,030	0,030
-551,627	5,498	-0,037	0,020
-550,612	800,000	-0,015	-0,043
-549,598	124,440	0,070	-0,064
-548,583	136,723	-0,070	-0,067
-547,569	800,000	0,034	-0,072
-546,554	-69,869	0,070	-0,019
-545,539	-82,892	-0,047	-0,011
-544,525	-17,527	0,028	-0,013
-543,510	-200,000	-0,022	0,086
-542,496	2,129	-0,150	-0,079
-541,481	-124,297	0,035	-0,004
-540,466	-200,000	0,023	0,078
-539,452	-200,000	0,046	0,150
-538,437	-171,925	0,067	-0,002
-537,423	269,150	0,037	0,048
-536,408	441,672	-0,072	0,116
-535,393	-200,000	0,002	0,082
-534,379	-50,991	0,132	0,045
-533,364	-125,103	-0,085	0,009
-532,350	159,451	0,045	0,046
-531,335	-141,501	0,155	-0,011
-530,321	800,000	-0,045	0,142
-529,306	800,000	0,017	0,035
-528,291	-39,112	0,028	0,011
-527,277	-200,000	-0,004	-0,030
-526,262	89,537	-0,066	-0,054
-525,248	241,796	-0,107	0,131
-524,233	392,659	0,068	0,103
-523,218	-186,057	-0,034	-0,000
-522,204	-17,677	0,012	0,006
-521,189	-200,000	-0,016	-0,053
-520,175	-200,000	-0,025	-0,160
-519,160	439,150	-0,068	-0,108
-518,145	92,196	-0,148	-0,121
-517,131	-26,318	0,069	0,029
-516,116	88,990	0,084	0,068
-515,102	22,148	-0,052	-0,031
-514,087	-200,000	-0,008	-0,109
-513,072	-48,593	-0,065	-0,023
-512,058	-60,099	-0,022	0,007
-511,043	-72,240	-0,073	0,020
-510,029	16,187	-0,025	-0,014
-509,014	-200,000	0,008	0,052
-507,999	800,000	0,042	0,114
-506,985	-125,242	-0,060	-0,007
-505,970	522,314	-0,084	-0,144
-504,956	-174,851	0,088	-0,002
-503,941	460,531	0,058	0,095
-502,926	800,000	0,007	0,022
-501,912	424,522	-0,036	0,057
-500,897	103,651	0,171	0,146
-499,883	-200,000	-0,000	-0,223
-498,868	70,727	-0,025	-0,019
-497,853	-200,000	0,009	-0,039
-496,839	48,778	-0,067	-0,045
-495,824	-10,270	0,020	0,010
-494,810	-24,493	0,074	-0,032
-493,795	372,261	-0,035	-0,051
-492,781	-134,859	-0,172	-0,015
-491,766	112,109	-0,157	0,138
-490,751	280,119	0,042	0,055
-489,737	-88,782	0,093	0,020
-488,722	-119,508	-0,080	-0,010
-487,708	-59,238	0,218	-0,068
-486,693	-200,000	-0,003	0,046
-485,678	641,962	0,043	0,080
-484,664	-98,348	-0,038	-0,007
-483,649	89,142	0,106	-0,086
-482,635	8,569	0,128	-0,070
-481,620	237,142	-0,035	-0,042
-480,605	-20,013	0,151	0,067
-479,591	-200,000	0,004	0,042
-478,576	-105,092	0,055	0,009
-477,562	39,541	-0,066	0,043
-476,547	-84,226	-0,076	-0,017
-475,532	-200,000	0,002	-0,008
-474,518	-200,000	0,019	-0,118
-473,503	-139,366	-0,104	-0,008
-472,489	800,000	0,008	0,025
-471,474	263,296	-0,068	-0,086
-470,459	-66,574	-0,115	-0,033
-469,445	-172,565	0,118	0,003
-468,430	-114,419	-0,115	-0,016
-467,416	-200,000	0,052	0,181
-466,401	58,344	-0,084	-0,060
-465,386	800,000	0,042	0,086
-464,372	-30,567	-0,081	0,033
-463,357	190,012	-0,061	0,067
-462,343	-29,670	-0,116	-0,048
-461,328	485,267	0,052	-0,087
-460,313	10,808	-0,025	0,014
-459,299	26,637	0,068	0,041
-458,284	-63,398	0,109	0,032
-457,270	-5,911	-0,013	-0,007
-456,255	308,313	-0,109	-0,149
-455,241	58,548	-0,077	-0,055
-454,226	61,117	0,087	-0,062
-453,211	-200,000	0,032	0,128
-452,197	800,000	-0,031	0,086
-451,182	-81,492	0,147	-0,035
-450,168	800,000	-0,037	0,095
-449,153	119,043	0,032	-0,028
-448,138	-200,000	0,007	-0,114
-447,124	800,000	0,009	-0,019
-446,109	20,893	0,131	0,077
-445,095	-200,000	-0,005	-0,110
-444,080	-71,006	0,069	0,019
-443,065	-2,927	-0,134	0,068
-442,051	442,218	0,044	-0,071
-441,036	129,763	-0,169	-0,157
-440,022	717,477	-0,014	0,027
-439,007	397,834	-0,045	-0,069
-437,992	-200,000	0,012	-0,087
-436,978	356,886	-0,039	0,056
-435,963	88,720	0,058	-0,047
-434,949	312,354	0,040	-0,055
-433,934	-200,000	-0,020	-0,107
-432,919	517,275	-0,038	0,064
-431,905	282,824	-0,069	-0,090
-430,890	800,000	0,030	0,088
-429,876	-200,000	-0,005	0,086
-428,861	-177,525	0,052	-0,001
-427,846	-124,944	-0,096	0,011
-426,832	197,253	0,040	-0,044
-425,817	-79,967	-0,030	0,007
-424,803	142,412	0,065	0,063
-423,788	-200,000	0,028	0,126
-422,773	-200,000	0,002	-0,088
-421,759	456,168	0,042	0,067
-420,744	582,955	0,038	-0,068
-419,730	-200,000	-0,013	-0,062
-418,715	351,964	-0,091	-0,132
-417,701	-200,000	0,028	-0,105
-416,686	23,334	-0,020	-0,012
-415,671	-118,031	0,099	-0,013
-414,657	-200,000	0,034	0,177
-413,642	38,174	-0,104	0,067
-412,628	27,396	-0,083	-0,051
-411,613	800,000	0,039	-0,120
-410,598	86,754	-0,032	-0,026
-409,584	-30,151	0,103	-0,042
-408,569	236,553	-0,082	0,098
-407,555	32,599	0,099	-0,062
-406,540	800,000	0,030	0,068
-405,525	-200,000	0,084	0,000
-404,511	800,000	0,026	-0,066
-403,496	223,029	0,075	0,088
-402,482	175,980	-0,087	0,092
-401,467	-20,265	0,047	-0,021
-400,452	800,000	-0,034	0,093
-399,438	800,000	-0,062	0,164
-398,423	-28,514	-0,076	0,032
-397,409	191,013	0,056	-0,061
-396,394	415,248	-0,072	-0,111
-395,379	-200,000	0,026	-0,099
-394,365	-200,000	-0,042	0,154
-393,350	-17,560	-0,069	-0,031
-392,336	-200,000	0,004	0,073
-391,321	-200,000	0,003	-0,071
-390,306	50,937	-0,092	-0,063
-389,292	714,326	-0,034	0,066
-388,277	-110,826	-0,054	0,008
-387,263	-200,000	0,005	0,072
-386,248	-200,000	-0,005	-0,071
-385,233	800,000	0,042	0,113
-384,219	122,313	0,050	-0,045
-383,204	473,475	-0,018	-0,029
-382,190	-13,421	0,022	0,010
-381,175	-200,000	-0,006	0,101
-380,160	-200,000	-0,019	0,000
-379,146	-200,000	-0,031	0,238
-378,131	476,573	0,018	0,029
-377,117	50,474	-0,075	0,051
-376,102	-200,000	-0,028	0,140
-375,088	-200,000	0,005	0,076
-374,073	86,890	-0,032	0,026
-373,058	-131,147	0,132	-0,013
-372,044	2,789	0,068	0,035
-371,029	153,481	0,037	0,037
-370,015	-40,675	-0,052	-0,019
-369,000	260,700	-0,033	0,041
-367,985	-200,000	0,045	0,149
-366,971	800,000	-0,029	-0,070
-365,956	-200,000	-0,017	-0,072
-364,942	800,000	0,061	0,193
-363,927	-128,919	0,157	-0,016
-362,912	-104,232	-0,050	0,008
-361,898	-200,000	0,003	0,066
-360,883	-200,000	0,012	-0,090
-359,869	-56,246	-0,104	0,033
-358,854	15,677	0,050	-0,029
-357,839	369,110	0,069	-0,101
-356,825	-91,323	-0,087	-0,018
-355,810	-200,000	0,024	0,079
-354,796	309,501	0,046	0,062
-353,781	800,000	-0,072	-0,171
-352,766	800,000	0,034	-0,108
-351,752	-22,435	-0,030	0,013
-350,737	-200,000	-0,007	-0,135
-349,723	141,873	-0,087	0,084
-348,708	43,939	0,065	0,043
-347,693	-177,868	-0,017	0,000
-346,679	118,374	-0,122	-0,109
-345,664	171,628	-0,074	-0,077
-344,650	260,198	0,033	-0,041
-343,635	-200,000	-0,002	-0,075
-342,620	-200,000	-0,018	-0,096
-341,606	-39,659	0,074	0,028
-340,591	281,623	0,036	0,046
-339,577	-103,174	0,047	-0,008
-338,562	204,718	-0,028	-0,032
-337,548	-200,000	0,012	0,052
-336,533	138,667	0,093	0,088
-335,518	-200,000	-0,001	0,072
-334,504	294,295	-0,020	-0,026
-333,489	14,705	-0,079	0,044
-332,475	21,109	0,119	-0,070
-331,460	146,697	-0,088	0,086
-330,445	800,000	0,002	0,005
-329,431	-56,624	0,054	0,017
-328,416	-200,000	0,012	0,069
-327,402	260,690	0,148	0,185
-326,387	131,524	-0,076	0,070
-325,372	-179,193	-0,093	0,001
-324,358	295,414	0,096	0,128
-323,343	-200,000	-0,025	0,112
-322,329	-99,824	-0,082	-0,015
-321,314	800,000	-0,042	0,106
-320,299	-58,380	0,160	0,050
-319,285	-200,000	-0,028	-0,108
-318,270	-18,185	-0,038	0,017
-317,256	-111,928	0,146	0,021
-316,241	-37,022	-0,057	-0,022
-315,226	-153,256	0,060	-0,003
-314,212	800,000	0,063	0,145
-313,197	-118,256	0,103	0,013
-312,183	108,496	0,096	0,083
-311,168	-66,231	-0,082	-0,023
-310,153	624,526	-0,063	0,115
-309,139	363,670	0,064	-0,093
-308,124	38,864	-0,019	-0,012
-307,110	119,442	-0,038	-0,034
-306,095	-200,000	-0,003	0,020
-305,080	-57,602	0,106	0,033
-304,066	-94,985	-0,053	-0,010
-303,051	387,556	-0,075	-0,113
-302,037	-200,000	0,008	0,035
-301,022	800,000	-0,037	-0,094
-300,008	367,741	-0,028	0,042
-298,993	306,576	-0,032	0,043
-297,978	-200,000	-0,023	0,077
-296,964	-135,278	0,150	0,013
-295,949	-19,286	-0,081	0,036
-294,935	-148,269	-0,121	0,007
-293,920	800,000	-0,005	-0,014
-292,905	-168,830	0,083	-0,002
-291,891	-153,987	-0,095	0,005
-290,876	767,896	0,053	0,105
-289,862	800,000	-0,053	-0,124
-288,847	-200,000	-0,016	-0,050
-287,832	800,000	-0,035	-0,098
-286,818	-197,404	0,015	0,000
-285,803	-127,062	0,062	-0,007
-284,789	-85,081	0,059	0,013
-283,774	800,000	0,041	0,120
-282,759	212,731	-0,041	0,047
-281,745	-200,000	0,011	-0,064
-280,730	-200,000	-0,007	-0,046
-279,716	-200,000	-0,054	-0,178
-278,701	-29,764	-0,127	-0,052
-277,686	114,198	-0,106	0,093
-276,672	-200,000	-0,001	0,091
-275,657	800,000	-0,074	0,228
-274,643	-97,786	-0,024	-0,004
-273,628	121,043	0,085	-0,076
-272,613	-32,252	0,065	0,026
-271,599	-61,646	-0,031	-0,009
-270,584	800,000	-0,040	0,094
-269,570	800,000	0,028	0,081
-268,555	94,418	0,045	-0,037
-267,540	-178,317	-0,054	-0,001
-266,526	800,000	0,026	-0,056
-265,511	247,957	0,043	0,053
-264,497	-84,055	0,138	0,031
-263,482	-200,000	-0,018	0,089
-262,467	96,687	-0,041	-0,034
-261,453	-200,000	-0,016	0,054
-260,438	302,343	0,069	-0,092
-259,424	249,481	-0,066	0,081
-258,409	38,723	-0,065	-0,042
-257,395	-48,643	0,076	0,026
-256,380	349,955	0,077	0,111
-255,365	-101,272	0,098	-0,017
-254,351	-200,000	0,016	0,071
-253,336	215,708	-0,101	0,116
-252,322	800,000	0,017	-0,037
-251,307	-200,000	0,037	-0,128
-250,292	111,214	0,037	0,033
-249,278	83,591	0,040	-0,031
-248,263	-200,000	0,026	0,199
-247,249	313,775	-0,043	-0,058
-246,234	-200,000	-0,012	-0,063
-245,219	452,973	-0,063	-0,101
-244,205	-200,000	0,006	0,057
-243,190	-120,084	0,105	-0,013
-242,176	283,952	-0,043	0,056
-241,161	30,843	0,058	0,036
-240,146	-155,147	0,127	-0,006
-239,132	12,675	-0,156	-0,087
-238,117	-200,000	0,005	-0,071
-237,103	-200,000	-0,011	-0,050
-236,088	-89,992	-0,046	-0,010
-235,073	194,621	0,072	-0,079
-234,059	280,438	0,091	-0,118
-233,044	-72,211	-0,006	-0,002
-232,030	-77,683	-0,131	-0,032
-231,015	-128,295	-0,093	-0,009
-230,000	746,604	-0,080	-0,157
-228,986	-200,000	0,022	-0,076
-227,971	22,752	-0,084	0,049
-226,957	324,891	-0,061	0,084
-225,942	9,173	-0,036	0,019
-224,927	512,735	-0,036	-0,061
-223,913	337,006	0,051	-0,071
-222,898	-200,000	-0,006	-0,137
-221,884	-110,046	0,020	0,003
-220,869	-89,837	0,059	-0,012
-219,855	-157,210	0,062	0,003
-218,840	800,000	-0,053	-0,118
-217,825	800,000	0,012	0,029
-216,811	-55,131	0,055	0,018
-215,796	260,909	0,026	0,032
-214,782	-38,596	-0,017	0,006
-213,767	-200,000	-0,007	-0,025
-212,752	-200,000	-0,013	0,083
-211,738	372,390	0,017	-0,026
-210,723	-178,016	0,124	-0,002
-209,709	83,205	0,076	0,059
-208,694	1,301	0,011	0,006
-207,679	800,000	-0,014	-0,040
-206,665	297,148	0,105	0,139
-205,650	723,320	0,027	0,052
-204,636	329,908	-0,104	-0,144
-203,621	800,000	-0,072	0,157
-202,606	800,000	0,054	-0,136
-201,592	-25,421	-0,111	0,047
-200,577	-150,590	0,091	0,005
-199,563	800,000	0,057	-0,131
-198,548	248,024	0,088	0,107
-197,533	-42,381	0,042	-0,015
-196,519	12,242	0,160	-0,088
-195,504	114,569	0,107	0,094
-194,490	-100,443	-0,073	-0,013
-193,475	-200,000	0,028	-0,114
-192,460	220,607	-0,060	0,070
-191,446	-107,907	0,041	-0,006
-190,431	-104,942	0,032	0,005
-189,417	-200,000	0,002	-0,027
-188,402	-200,000	-0,003	-0,148
-187,387	-200,000	-0,027	-0,232
-186,373	-200,000	-0,008	-0,027
-185,358	83,219	0,070	-0,055
-184,344	-44,617	-0,076	-0,027
-183,329	75,192	0,156	0,118
-182,315	-195,923	-0,016	0,000
-181,300	800,000	-0,074	-0,172
-180,285	56,546	-0,133	-0,093
-179,271	800,000	-0,008	-0,024
-178,256	133,166	-0,108	-0,100
-177,242	800,000	0,064	-0,136
-176,227	172,861	0,106	-0,110
-175,212	-109,707	0,171	-0,026
-174,198	-153,786	-0,036	-0,002
-173,183	515,295	-0,064	-0,107
-172,169	800,000	0,033	-0,068
-171,154	800,000	-0,053	-0,159
-170,139	-71,640	0,094	0,025
-169,125	800,000	0,048	0,097
-168,110	-116,301	0,128	-0,017
-167,096	-91,194	-0,114	-0,023
-166,081	153,911	-0,081	-0,080
-165,066	104,392	-0,103	-0,087
-164,052	-200,000	-0,013	0,118
-163,037	-200,000	0,009	-0,097
-162,023	153,944	-0,054	0,054
-161,008	800,000	-0,027	-0,077
-159,993	198,060	-0,040	0,044
-158,979	-38,999	0,082	-0,031
-157,964	29,431	-0,034	-0,021
-156,950	257,972	0,041	0,051
-155,935	800,000	0,022	-0,064
-154,920	33,622	-0,098	-0,061
-153,906	-50,432	-0,102	-0,034
-152,891	29,585	0,090	0,055
-151,877	69,986	-0,105	-0,078
-150,862	800,000	-0,033	0,068
-149,847	800,000	0,019	-0,045
-148,833	800,000	-0,018	0,055
-147,818	5,180	0,138	0,073
-146,804	800,000	-0,057	0,156
-145,789	800,000	0,053	0,166
-144,775	-45,652	-0,061	0,022
-143,760	208,064	-0,053	0,060
-142,745	800,000	0,062	-0,174
-141,731	608,471	0,032	-0,058
-140,716	-42,644	0,127	0,046
-139,702	441,832	-0,033	-0,052
-138,687	-121,407	-0,095	-0,011
-137,672	105,384	-0,033	0,028
-136,658	57,153	-0,030	-0,021
-135,643	-51,941	-0,088	0,029
-134,629	-24,301	0,030	0,013
-133,614	5,206	0,076	-0,040
-132,599	-200,000	-0,011	0,046
-131,585	159,528	-0,029	0,029
-130,570	414,223	-0,052	0,079
-129,556	57,536	-0,069	-0,048
-128,541	800,000	0,042	-0,092
-127,526	755,741	0,103	-0,201
-126,512	3,137	-0,021	-0,011
-125,497	-200,000	-0,013	-0,117
-124,483	-73,333	-0,089	0,023
-123,468	-11,161	0,131	0,062
-122,453	156,540	-0,081	-0,080
-121,439	800,000	-0,018	0,056
-120,424	-94,625	0,078	-0,015
