DTS Sentinel unit serial number:	SN410029Multiplexer serial number:	ORYXHardware model number:	OX2-SRSoftware version number:	ORYX F/W v4,00 Oryx Data Collector v3.7.2.0data status	okinstallation	B5 Nyhavnadifferential loss correction	single-endedforward channel	channel 2reverse channel	N/Adate	2023/12/11time	21:57:13forward acquisition time	300,00reverse acquisition time	0,00gamma	499,1914k internal	0,3156k external	0,3156temperature offset calibration	1,0000default loss term (dB/km)	0,3820temperature slope calibration	1,0000multiplexer offset coefficient	1,0000multiplexer slope coefficient	1,0000fibre end	0,00T internal ref (°C)	16,28T ext. ref 1 (°C)	0,16T ext. ref 2 (°C)	-0,06length (m)	temperature (°C)	Stokes	anti-Stokes-744,400	-18,233	0,086	-0,040
-743,385	-83,366	-0,308	0,072
-742,371	-6,916	0,155	0,077
-741,356	-66,516	-0,339	-0,099
-740,342	800,000	-0,024	0,078
-739,327	-36,007	-0,195	0,077
-738,312	-113,858	0,120	0,017
-737,298	-6,713	-0,206	-0,103
-736,283	-43,638	0,062	0,023
-735,269	-27,071	-0,268	0,115
-734,254	-194,759	-0,106	0,001
-733,239	-97,058	-0,455	-0,087
-732,225	-78,433	0,127	-0,032
-731,210	10,663	-0,086	0,048
-730,196	-127,004	-0,122	-0,013
-729,181	-125,569	-0,084	-0,009
-728,167	800,000	0,020	0,046
-727,152	-200,000	0,003	-0,176
-726,137	-144,221	-0,063	0,004
-725,123	-122,201	-0,133	0,016
-724,108	-9,738	-0,079	0,038
-723,094	34,073	-0,076	-0,048
-722,079	-14,501	-0,136	-0,064
-721,064	800,000	-0,013	0,033
-720,050	522,078	0,014	0,024
-719,035	-51,210	-0,177	0,061
-718,021	-110,782	0,051	0,008
-717,006	800,000	0,023	-0,054
-715,991	29,681	-0,217	-0,136
-714,977	622,218	0,032	-0,059
-713,962	-104,371	0,035	0,006
-712,948	-62,693	-0,129	-0,039
-711,933	157,498	0,048	0,049
-710,918	-200,000	0,006	0,122
-709,904	800,000	0,022	-0,045
-708,889	-200,000	-0,003	-0,050
-707,875	321,003	-0,047	-0,066
-706,860	-63,693	-0,067	-0,020
-705,845	-77,828	0,029	-0,007
-704,831	-200,000	0,052	0,187
-703,816	713,506	-0,030	0,059
-702,802	-159,070	-0,145	-0,006
-701,787	-200,000	0,010	-0,055
-700,772	363,433	-0,043	-0,063
-699,758	8,736	-0,082	-0,046
-698,743	-200,000	-0,011	0,083
-697,729	-200,000	0,007	-0,024
-696,714	28,603	-0,077	0,048
-695,699	102,076	-0,042	-0,036
-694,685	-15,394	0,027	-0,013
-693,670	800,000	0,010	-0,033
-692,656	800,000	-0,014	0,043
-691,641	-200,000	0,002	-0,013
-690,627	118,832	0,082	-0,075
-689,612	-117,222	-0,148	0,020
-688,597	224,638	-0,113	-0,134
-687,583	-136,301	-0,077	-0,007
-686,568	-138,243	0,075	0,006
-685,554	-200,000	-0,024	0,103
-684,539	162,638	0,123	0,127
-683,524	114,919	-0,090	-0,081
-682,510	-200,000	-0,029	0,101
-681,495	229,990	-0,131	0,157
-680,481	-200,000	0,021	-0,081
-679,466	-74,237	-0,067	0,018
-678,451	117,177	0,108	-0,098
-677,437	-101,676	-0,054	-0,010
-676,422	-200,000	0,004	0,057
-675,408	-200,000	0,017	0,104
-674,393	-100,681	-0,082	0,015
-673,378	-94,359	-0,228	0,045
-672,364	490,239	-0,064	-0,108
-671,349	-57,129	-0,039	-0,013
-670,335	-185,558	-0,100	0,001
-669,320	-63,396	0,119	-0,036
-668,305	-124,948	0,062	-0,007
-667,291	605,525	-0,065	-0,120
-666,276	196,370	-0,032	0,036
-665,262	-128,605	-0,108	0,011
-664,247	-200,000	-0,008	0,059
-663,232	800,000	-0,034	-0,100
-662,218	-54,976	0,051	0,017
-661,203	800,000	-0,036	-0,079
-660,189	68,515	0,119	0,090
-659,174	-200,000	-0,011	-0,070
-658,159	31,434	-0,108	-0,068
-657,145	-39,309	0,027	-0,010
-656,130	-200,000	-0,035	-0,133
-655,116	-74,468	0,047	-0,012
-654,101	-91,362	-0,067	0,014
-653,086	248,127	-0,060	0,075
-652,072	443,237	0,033	-0,053
-651,057	-200,000	-0,006	-0,152
-650,043	-105,421	-0,078	0,013
-649,028	129,701	-0,069	-0,065
-648,014	-0,978	-0,113	-0,058
-646,999	800,000	0,034	0,085
-645,984	87,534	-0,107	0,087
-644,970	-60,001	-0,127	-0,039
-643,955	-200,000	0,009	-0,098
-642,941	-123,950	0,046	-0,005
-641,926	79,196	-0,068	0,053
-640,911	88,254	-0,028	0,023
-639,897	-200,000	-0,098	0,000
-638,882	-200,000	0,011	0,085
-637,868	141,308	-0,025	0,024
-636,853	-106,217	-0,238	-0,039
-635,838	24,738	-0,025	0,015
-634,824	20,177	0,075	-0,044
-633,809	-41,971	0,063	-0,024
-632,795	532,043	0,028	-0,049
-631,780	-162,246	-0,159	-0,006
-630,765	-127,067	0,065	-0,007
-629,751	800,000	-0,033	-0,072
-628,736	103,401	-0,060	0,052
-627,722	81,725	0,037	-0,029
-626,707	-200,000	0,001	0,153
-625,692	-13,885	-0,112	-0,053
-624,678	-200,000	-0,011	0,072
-623,663	40,351	0,052	0,034
-622,649	-185,000	-0,053	0,001
-621,634	9,890	-0,052	-0,029
-620,619	39,090	-0,050	-0,033
-619,605	-151,502	0,117	-0,006
-618,590	110,434	-0,162	0,142
-617,576	61,673	-0,085	-0,062
-616,561	288,644	0,087	-0,116
-615,546	-9,345	-0,162	-0,079
-614,532	-91,529	-0,100	0,021
-613,517	800,000	0,010	0,021
-612,503	322,876	0,060	-0,085
-611,488	-58,581	0,073	0,023
-610,474	-96,375	-0,100	0,019
-609,459	-87,143	-0,032	0,007
-608,444	-4,515	-0,136	-0,069
-607,430	800,000	0,021	0,064
-606,415	-111,282	-0,104	0,015
-605,401	800,000	-0,021	-0,046
-604,386	-75,977	0,045	0,012
-603,371	-200,000	0,023	0,210
-602,357	-200,000	-0,017	0,117
-601,342	59,033	0,119	-0,086
-600,328	-35,282	-0,076	-0,030
-599,313	337,313	-0,089	0,128
-598,298	425,752	0,029	-0,046
-597,284	-94,426	0,101	-0,020
-596,269	-45,981	-0,013	0,005
-595,255	800,000	0,044	-0,117
-594,240	289,680	-0,045	0,060
-593,225	-200,000	-0,026	-0,144
-592,211	-200,000	0,060	-0,207
-591,196	-87,064	0,072	-0,016
-590,182	-200,000	0,022	-0,137
-589,167	-7,054	-0,061	-0,030
-588,152	173,398	0,030	0,031
-587,138	800,000	-0,023	0,059
-586,123	56,846	0,019	0,014
-585,109	742,062	0,023	-0,046
-584,094	-85,635	0,058	-0,013
-583,079	-63,818	0,074	0,022
-582,065	173,524	0,032	-0,033
-581,050	220,260	-0,041	-0,048
-580,036	800,000	-0,042	-0,098
-579,021	-119,553	-0,108	0,014
-578,006	-164,066	-0,073	-0,002
-576,992	319,327	0,041	0,057
-575,977	100,609	0,125	0,106
-574,963	394,430	-0,035	-0,054
-573,948	-60,175	-0,095	-0,029
-572,934	-10,151	-0,027	-0,013
-571,919	-32,631	-0,089	0,036
-570,904	-7,694	-0,060	0,030
-569,890	242,519	-0,044	-0,054
-568,875	-10,354	-0,038	0,019
-567,861	-20,412	0,082	0,037
-566,846	79,594	-0,060	-0,047
-565,831	-34,068	-0,074	-0,030
-564,817	800,000	-0,057	-0,132
-563,802	-88,209	-0,123	-0,027
-562,788	-57,840	-0,039	0,012
-561,773	441,347	0,072	-0,116
-560,758	-131,183	0,083	-0,008
-559,744	-50,817	0,028	-0,010
-558,729	-200,000	0,019	-0,071
-557,715	800,000	-0,026	0,060
-556,700	492,499	-0,048	-0,080
-555,685	-200,000	0,015	-0,142
-554,671	-169,046	-0,089	0,002
-553,656	-107,950	-0,080	-0,013
-552,642	-200,000	-0,037	0,130
-551,627	-20,858	-0,060	0,027
-550,612	800,000	-0,017	-0,054
-549,598	140,318	0,042	-0,040
-548,583	800,000	-0,031	-0,092
-547,569	-200,000	-0,009	-0,051
-546,554	430,262	0,012	0,019
-545,539	188,655	0,012	0,014
-544,525	800,000	0,031	0,065
-543,510	86,004	-0,105	-0,085
-542,496	-200,000	-0,013	-0,122
-541,481	-174,808	0,061	0,001
-540,466	-47,559	-0,071	0,025
-539,452	-200,000	-0,001	-0,098
-538,437	800,000	-0,046	-0,111
-537,423	326,754	0,033	-0,046
-536,408	-65,841	-0,065	0,019
-535,393	324,948	0,037	0,051
-534,379	-103,968	0,086	-0,014
-533,364	-200,000	0,008	0,035
-532,350	13,439	-0,066	0,037
-531,335	800,000	-0,031	0,071
-530,321	-80,874	-0,013	-0,003
-529,306	-43,137	-0,058	-0,021
-528,291	19,268	0,088	-0,051
-527,277	-200,000	0,007	-0,070
-526,262	-50,892	-0,084	0,029
-525,248	468,399	0,027	0,044
-524,233	-200,000	-0,009	-0,090
-523,218	-86,358	0,067	-0,015
-522,204	800,000	-0,010	-0,032
-521,189	518,841	0,041	-0,070
-520,175	89,305	-0,030	-0,024
-519,160	52,187	0,012	-0,008
-518,145	610,896	0,032	0,059
-517,131	-200,000	0,002	0,037
-516,116	186,511	0,113	0,124
-515,102	-200,000	-0,019	0,099
-514,087	-200,000	-0,003	0,034
-513,072	800,000	0,035	0,103
-512,058	800,000	0,049	0,101
-511,043	-82,734	-0,115	-0,027
-510,029	800,000	0,016	-0,047
-509,014	236,821	0,072	0,087
-507,999	-40,298	0,039	0,015
-506,985	407,118	-0,011	-0,017
-505,970	-3,159	-0,192	-0,098
-504,956	800,000	-0,032	-0,086
-503,941	-200,000	0,009	0,067
-502,926	-141,593	0,118	-0,009
-501,912	-200,000	-0,002	0,010
-500,897	800,000	0,034	-0,069
-499,883	-142,737	0,069	0,005
-498,868	-22,508	-0,035	-0,015
-497,853	139,327	-0,083	-0,080
-496,839	-200,000	-0,015	-0,097
-495,824	-88,216	-0,021	-0,005
-494,810	-125,324	0,038	0,004
-493,795	10,745	0,082	0,045
-492,781	-3,746	-0,126	0,064
-491,766	471,105	-0,035	-0,058
-490,751	19,406	-0,153	0,090
-489,737	-99,439	-0,046	-0,008
-488,722	-127,511	0,116	0,012
-487,708	800,000	-0,041	0,084
-486,693	-200,000	0,007	0,035
-485,678	116,982	0,044	-0,039
-484,664	-22,604	-0,056	-0,025
-483,649	359,772	0,043	0,063
-482,635	37,405	-0,065	0,042
-481,620	-40,106	0,097	-0,037
-480,605	81,363	-0,107	0,084
-479,591	46,786	0,152	0,103
-478,576	-0,011	-0,095	0,049
-477,562	800,000	-0,015	-0,042
-476,547	313,419	-0,028	-0,038
-475,532	-200,000	-0,014	-0,059
-474,518	-104,979	0,040	-0,007
-473,503	-200,000	-0,012	-0,120
-472,489	-101,468	-0,049	0,009
-471,474	24,283	-0,027	0,016
-470,459	34,751	-0,091	0,058
-469,445	-0,997	-0,171	0,088
-468,430	241,215	0,132	-0,161
-467,416	38,942	-0,093	0,060
-466,401	800,000	-0,017	0,038
-465,386	-45,591	0,120	0,043
-464,372	55,308	-0,081	-0,057
-463,357	88,953	-0,062	0,050
-462,343	-103,953	-0,069	0,012
-461,328	24,527	-0,149	-0,090
-460,313	-58,439	0,051	0,016
-459,299	-200,000	-0,016	0,059
-458,284	-200,000	0,025	-0,093
-457,270	370,016	-0,092	0,136
-456,255	-200,000	0,009	-0,118
-455,241	136,163	-0,041	-0,039
-454,226	-41,256	0,034	0,013
-453,211	-16,013	0,171	-0,079
-452,197	-31,718	0,076	-0,031
-451,182	-200,000	0,007	-0,077
-450,168	-200,000	0,025	0,179
-449,153	-17,749	-0,036	-0,017
-448,138	192,747	-0,048	-0,053
-447,124	-200,000	0,015	-0,083
-446,109	800,000	0,031	0,079
-445,095	-162,230	0,121	-0,004
-444,080	178,339	-0,034	-0,037
-443,065	-200,000	-0,011	0,134
-442,051	75,887	0,059	-0,045
-441,036	8,163	-0,054	0,029
-440,022	-200,000	0,014	-0,075
-439,007	-200,000	-0,006	0,128
-437,992	-88,463	0,083	-0,018
-436,978	111,101	0,111	-0,098
-435,963	223,841	0,051	-0,061
-434,949	-200,000	0,018	0,079
-433,934	-100,108	-0,158	-0,028
-432,919	-96,691	0,035	-0,007
-431,905	164,892	0,011	0,012
-430,890	800,000	-0,037	0,084
-429,876	-200,000	-0,005	0,063
-428,861	800,000	-0,049	0,115
-427,846	-200,000	0,055	-0,231
-426,832	10,910	0,120	-0,067
-425,817	-200,000	-0,005	-0,019
-424,803	-43,567	0,033	0,012
-423,788	134,365	0,110	0,104
-422,773	618,097	0,043	0,078
-421,759	-162,900	0,067	0,002
-420,744	-3,659	0,076	0,038
-419,730	27,247	0,048	0,029
-418,715	360,902	-0,057	0,083
-417,701	-106,827	-0,069	0,011
-416,686	-83,726	0,065	-0,015
-415,671	610,319	0,057	-0,104
-414,657	259,400	0,063	0,079
-413,642	-200,000	0,004	-0,045
-412,628	-200,000	-0,037	-0,218
-411,613	173,641	-0,066	-0,070
-410,598	-34,194	-0,017	0,007
-409,584	-123,857	0,066	-0,008
-408,569	-112,478	0,058	0,008
-407,555	-91,881	0,060	0,012
-406,540	128,172	0,073	0,068
-405,525	800,000	-0,042	-0,112
-404,511	-200,000	0,001	-0,064
-403,496	220,052	0,030	-0,035
-402,482	800,000	-0,016	0,047
-401,467	-147,892	-0,104	-0,006
-400,452	312,905	-0,013	-0,017
-399,438	-36,789	0,099	-0,039
-398,423	-100,053	0,087	-0,016
-397,409	154,717	0,025	-0,025
-396,394	299,628	-0,035	0,047
-395,379	482,719	0,057	0,094
-394,365	-200,000	-0,000	-0,062
-393,350	-7,351	0,058	0,028
-392,336	-200,000	-0,007	0,148
-391,321	800,000	0,015	-0,038
-390,306	800,000	-0,107	-0,254
-389,292	-70,841	0,054	0,015
-388,277	453,832	-0,041	-0,066
-387,263	-31,841	0,172	-0,070
-386,248	64,094	0,058	0,042
-385,233	90,314	0,005	-0,004
-384,219	-200,000	0,005	0,093
-383,204	-200,000	-0,055	-0,195
-382,190	138,199	-0,046	0,044
-381,175	7,675	-0,082	-0,045
-380,160	-200,000	0,007	-0,029
-379,146	-200,000	0,004	0,096
-378,131	800,000	0,046	0,141
-377,117	-200,000	0,043	-0,143
-376,102	315,105	-0,099	0,136
-375,088	-200,000	-0,032	-0,112
-374,073	-68,639	0,070	-0,019
-373,058	-200,000	-0,028	0,127
-372,044	30,202	0,201	0,124
-371,029	468,119	-0,007	0,012
-370,015	302,306	-0,069	0,093
-369,000	250,350	0,070	-0,087
-367,985	11,944	-0,103	-0,058
-366,971	10,235	-0,037	0,020
-365,956	-118,711	-0,113	0,014
-364,942	-200,000	-0,013	-0,072
-363,927	800,000	-0,041	0,091
-362,912	-58,467	-0,065	-0,020
-361,898	-200,000	0,018	-0,064
-360,883	-131,085	0,062	-0,006
-359,869	97,042	-0,064	0,054
-358,854	-200,000	-0,010	-0,033
-357,839	-86,262	0,079	-0,017
-356,825	52,784	0,105	0,073
-355,810	51,920	-0,067	-0,046
-354,796	397,859	-0,015	-0,023
-353,781	800,000	0,018	0,044
-352,766	-200,000	0,000	-0,014
-351,752	-85,164	0,087	0,020
-350,737	483,808	0,052	0,086
-349,723	288,969	0,081	0,107
-348,708	-71,064	0,016	-0,004
-347,693	-200,000	0,012	-0,078
-346,679	-112,905	-0,171	-0,024
-345,664	100,771	0,070	-0,059
-344,650	218,785	0,049	-0,057
-343,635	61,579	0,142	0,103
-342,620	243,039	0,144	0,176
-341,606	800,000	0,048	0,114
-340,591	-200,000	-0,000	-0,102
-339,577	-200,000	0,002	-0,092
-338,562	-73,256	0,023	-0,006
-337,548	-157,573	0,104	-0,004
-336,533	-83,935	0,067	0,015
-335,518	-126,054	0,108	-0,012
-334,504	626,013	0,122	0,224
-333,489	800,000	-0,040	0,094
-332,475	-78,274	0,055	-0,014
-331,460	348,276	-0,061	0,088
-330,445	800,000	0,014	-0,039
-329,431	-116,611	0,079	0,010
-328,416	-200,000	-0,001	0,152
-327,402	475,095	-0,077	-0,126
-326,387	418,199	0,070	-0,110
-325,372	-200,000	0,005	0,033
-324,358	25,841	-0,084	-0,051
-323,343	-200,000	-0,017	-0,062
-322,329	490,877	-0,019	-0,032
-321,314	800,000	-0,038	0,091
-320,299	443,263	0,035	-0,056
-319,285	-72,895	-0,155	-0,041
-318,270	665,178	-0,091	0,172
-317,256	740,993	-0,033	-0,065
-316,241	-33,829	-0,080	0,032
-315,226	3,451	0,131	-0,069
-314,212	-200,000	-0,000	0,009
-313,197	-31,930	0,076	-0,031
-312,183	-142,041	0,212	0,015
-311,168	-83,934	-0,151	-0,035
-310,153	287,381	0,072	-0,095
-309,139	216,903	-0,016	-0,018
-308,124	15,048	-0,073	0,042
-307,110	-88,581	0,142	0,030
-306,095	12,409	0,127	0,071
-305,080	218,740	-0,058	0,067
-304,066	56,126	-0,106	0,074
-303,051	-200,000	0,030	-0,182
-302,037	-19,204	0,167	0,075
-301,022	81,755	0,143	-0,112
-300,008	2,252	0,054	-0,028
-298,993	308,063	0,109	-0,148
-297,978	-200,000	0,047	0,161
-296,964	-200,000	-0,032	0,119
-295,949	-200,000	-0,006	-0,042
-294,935	-46,877	-0,077	0,027
-293,920	-200,000	-0,031	-0,134
-292,905	-160,888	-0,132	-0,005
-291,891	-159,669	-0,100	0,004
-290,876	322,586	0,090	-0,124
-289,862	24,000	-0,187	0,111
-288,847	38,843	0,043	-0,028
-287,832	-149,669	-0,055	-0,003
-286,818	-158,488	0,092	0,004
-285,803	-200,000	-0,017	0,059
-284,789	180,320	0,019	-0,020
-283,774	-153,752	-0,039	0,002
-282,759	800,000	-0,085	0,180
-281,745	-200,000	-0,003	0,023
-280,730	653,279	-0,022	0,042
-279,716	-56,003	0,120	-0,039
-278,701	-9,608	-0,099	-0,048
-277,686	-200,000	-0,006	0,061
-276,672	-200,000	-0,007	0,042
-275,657	800,000	0,017	0,038
-274,643	-200,000	-0,014	-0,086
-273,628	213,425	0,069	-0,079
-272,613	208,635	0,050	-0,057
-271,599	15,838	0,030	0,017
-270,584	-88,053	-0,033	0,007
-269,570	-200,000	0,013	-0,050
-268,555	-63,705	0,107	0,032
-267,540	-46,270	-0,029	-0,010
-266,526	-88,183	-0,105	0,023
-265,511	-134,169	0,107	0,009
-264,497	158,381	-0,033	0,033
-263,482	-200,000	0,003	-0,060
-262,467	-41,834	0,111	-0,041
-261,453	81,533	0,080	0,062
-260,438	-22,695	0,076	0,033
-259,424	505,215	-0,062	-0,104
-258,409	-76,796	-0,177	0,044
-257,395	-47,597	0,045	-0,016
-256,380	-62,925	0,068	-0,020
-255,365	-51,404	-0,033	0,011
-254,351	-47,658	-0,156	0,054
-253,336	-89,858	0,069	0,014
-252,322	-200,000	-0,009	-0,046
-251,307	-200,000	-0,002	0,089
-250,292	294,580	0,012	0,016
-249,278	203,315	0,050	0,056
-248,263	-200,000	-0,046	0,158
-247,249	-200,000	0,014	0,062
-246,234	800,000	-0,048	0,136
-245,219	800,000	-0,031	-0,097
-244,205	233,808	-0,034	-0,040
-243,190	800,000	0,039	0,112
-242,176	84,456	-0,042	-0,033
-241,161	-143,404	0,099	-0,007
-240,146	-21,133	0,088	-0,039
-239,132	-200,000	0,010	0,068
-238,117	206,558	-0,010	-0,011
-237,103	-51,191	-0,088	0,030
-236,088	355,194	0,127	-0,183
-235,073	-67,187	0,111	0,031
-234,059	-56,193	0,098	-0,031
-233,044	800,000	-0,021	0,061
-232,030	186,840	0,028	0,030
-231,015	-150,106	-0,241	0,013
-230,000	-200,000	-0,025	-0,212
-228,986	-200,000	-0,028	-0,142
-227,971	63,821	0,065	0,047
-226,957	258,990	-0,059	0,073
-225,942	-200,000	0,001	-0,058
-224,927	207,879	-0,016	0,019
-223,913	-200,000	0,019	-0,112
-222,898	324,582	0,083	0,115
-221,884	-200,000	-0,007	-0,055
-220,869	-200,000	0,054	0,179
-219,855	316,301	0,080	0,109
-218,840	520,597	0,072	0,123
-217,825	-133,326	-0,072	-0,006
-216,811	-183,006	-0,082	0,001
-215,796	-51,735	-0,037	-0,012
-214,782	-3,484	-0,065	-0,033
-213,767	-106,597	-0,039	0,006
-212,752	375,585	0,064	0,095
-211,738	140,400	0,013	-0,013
-210,723	2,644	0,055	0,029
-209,709	-200,000	-0,008	-0,057
-208,694	-200,000	-0,021	-0,245
-207,679	150,674	-0,088	0,086
-206,665	54,489	0,069	-0,048
-205,650	156,680	0,049	-0,049
-204,636	800,000	-0,014	0,036
-203,621	800,000	-0,010	-0,025
-202,606	-29,869	-0,045	-0,018
-201,592	97,835	0,132	-0,109
-200,577	307,310	-0,071	0,096
-199,563	66,752	-0,137	0,100
-198,548	271,723	-0,021	0,026
-197,533	83,743	0,080	-0,063
-196,519	-200,000	0,008	-0,038
-195,504	-0,977	-0,136	-0,069
-194,490	11,289	-0,047	-0,026
-193,475	38,832	0,120	0,078
-192,460	-180,250	-0,040	-0,001
-191,446	-124,815	0,137	-0,015
-190,431	39,407	0,024	-0,015
-189,417	800,000	0,047	-0,133
-188,402	-200,000	-0,052	0,173
-187,387	-200,000	-0,009	0,054
-186,373	-26,943	0,098	0,041
-185,358	37,878	0,018	0,011
-184,344	35,235	0,059	0,037
-183,329	166,329	0,007	0,007
-182,315	-200,000	0,009	0,156
-181,300	308,994	-0,050	0,068
-180,285	-91,702	0,070	-0,014
-179,271	553,234	0,095	-0,165
-178,256	-5,688	0,063	-0,031
-177,242	-200,000	0,011	0,039
-176,227	-200,000	-0,006	0,019
-175,212	82,712	-0,080	0,063
-174,198	-16,747	-0,103	0,047
-173,183	800,000	0,013	-0,030
-172,169	526,289	-0,072	-0,122
-171,154	149,096	-0,048	-0,047
-170,139	-200,000	-0,003	0,074
-169,125	800,000	0,066	0,143
-168,110	376,720	-0,081	-0,120
-167,096	-200,000	-0,005	0,033
-166,081	-107,853	-0,065	-0,010
-165,066	105,768	-0,040	0,034
-164,052	-200,000	0,005	-0,166
-163,037	-200,000	0,056	0,180
-162,023	800,000	-0,042	0,093
-161,008	-200,000	-0,001	-0,005
-159,993	-173,748	0,090	0,002
-158,979	-17,512	-0,092	-0,042
-157,964	96,374	0,059	-0,049
-156,950	800,000	0,028	0,086
-155,935	-200,000	0,003	0,121
-154,920	-63,912	0,114	0,033
-153,906	691,737	0,058	0,110
-152,891	-25,346	0,119	0,050
-151,877	101,013	0,033	0,028
-150,862	796,742	-0,022	-0,044
-149,847	246,352	0,041	-0,050
-148,833	88,610	-0,079	0,064
-147,818	371,803	0,008	-0,012
-146,804	-178,821	-0,047	-0,001
-145,789	208,905	0,124	0,140
-144,775	266,999	-0,020	0,025
-143,760	276,988	-0,073	0,094
-142,745	121,646	0,083	0,074
-141,731	-136,160	0,094	0,008
-140,716	148,302	-0,018	-0,017
-139,702	-200,000	-0,005	0,053
-138,687	-63,935	0,039	-0,011
-137,672	800,000	-0,042	-0,112
-136,658	-138,180	0,116	-0,009
-135,643	335,031	-0,023	0,032
-134,629	5,234	-0,029	-0,015
-133,614	-72,319	0,107	-0,028
-132,599	-107,710	0,128	0,020
-131,585	800,000	-0,056	0,158
-130,570	15,971	-0,108	-0,061
-129,556	99,346	0,068	0,057
-128,541	397,967	-0,047	0,071
-127,526	-102,606	0,033	-0,006
-126,512	-158,360	0,076	-0,003
-125,497	800,000	-0,055	0,137
-124,483	-200,000	-0,026	-0,085
-123,468	800,000	0,057	-0,164
-122,453	800,000	0,040	-0,090
-121,439	-200,000	0,024	-0,137
-120,424	-125,824	-0,102	0,011
