DTS Sentinel unit serial number:	SN410029Multiplexer serial number:	ORYXHardware model number:	OX2-SRSoftware version number:	ORYX F/W v4,00 Oryx Data Collector v3.7.2.0data status	okinstallation	B5 Nyhavnadifferential loss correction	single-endedforward channel	channel 2reverse channel	N/Adate	2023/12/13time	15:22:13forward acquisition time	300,00reverse acquisition time	0,00gamma	499,1914k internal	0,3160k external	0,3160temperature offset calibration	1,0000default loss term (dB/km)	0,3820temperature slope calibration	1,0000multiplexer offset coefficient	1,0000multiplexer slope coefficient	1,0000fibre end	0,00T internal ref (°C)	14,99T ext. ref 1 (°C)	-1,36T ext. ref 2 (°C)	-1,66length (m)	temperature (°C)	Stokes	anti-Stokes-744,400	13,791	0,091	0,052
-743,385	-112,658	-0,236	-0,034
-742,371	-108,277	0,127	-0,020
-741,356	-40,498	-0,299	0,114
-740,342	308,724	0,046	0,063
-739,327	-40,576	-0,296	0,112
-738,312	800,000	0,059	-0,127
-737,298	-11,305	-0,314	-0,152
-736,283	100,021	0,111	0,095
-735,269	-134,340	-0,312	0,028
-734,254	364,366	0,055	-0,082
-733,239	-23,740	-0,355	-0,156
-732,225	-48,205	0,240	0,085
-731,210	800,000	-0,059	0,146
-730,196	-200,000	-0,017	0,075
-729,181	-200,000	0,003	-0,083
-728,167	-200,000	-0,020	-0,069
-727,152	-175,022	0,046	0,001
-726,137	118,417	-0,092	0,083
-725,123	-76,836	-0,080	-0,020
-724,108	-41,562	-0,050	-0,019
-723,094	-118,578	-0,073	0,009
-722,079	20,231	-0,024	0,014
-721,064	-200,000	-0,012	-0,088
-720,050	-200,000	-0,022	-0,145
-719,035	19,647	-0,122	-0,072
-718,021	800,000	-0,046	-0,118
-717,006	-200,000	-0,016	-0,111
-715,991	-200,000	0,023	-0,160
-714,977	-200,000	-0,124	0,000
-713,962	30,442	-0,157	0,098
-712,948	-200,000	0,020	0,102
-711,933	191,435	-0,018	0,020
-710,918	-81,046	0,106	-0,026
-709,904	9,402	-0,081	-0,045
-708,889	46,922	-0,122	0,083
-707,875	800,000	-0,104	-0,220
-706,860	480,182	-0,099	-0,165
-705,845	-200,000	0,001	0,029
-704,831	231,081	-0,022	0,026
-703,816	-44,729	-0,142	-0,052
-702,802	198,205	0,041	0,046
-701,787	14,297	-0,108	0,062
-700,772	-62,028	-0,165	0,050
-699,758	-177,283	0,014	0,000
-698,743	781,273	0,020	0,040
-697,729	632,465	-0,073	0,136
-696,714	-200,000	0,021	-0,220
-695,699	800,000	-0,070	0,152
-694,685	250,783	-0,045	-0,057
-693,670	121,750	0,124	-0,114
-692,656	93,484	0,083	-0,069
-691,641	-200,000	0,004	-0,182
-690,627	-58,085	0,108	0,035
-689,612	58,683	-0,119	-0,086
-688,597	221,365	-0,115	-0,136
-687,583	-56,516	0,105	0,034
-686,568	-100,951	-0,065	-0,012
-685,554	-200,000	-0,023	0,076
-684,539	513,277	-0,026	0,045
-683,524	-34,815	0,005	-0,002
-682,510	800,000	-0,034	0,102
-681,495	238,732	0,055	-0,067
-680,481	-200,000	0,018	-0,061
-679,466	131,666	0,062	-0,058
-678,451	268,843	-0,111	-0,144
-677,437	800,000	0,002	0,006
-676,422	-9,540	0,096	0,047
-675,408	-200,000	-0,009	0,093
-674,393	333,432	0,067	-0,096
-673,378	351,537	-0,056	-0,082
-672,364	-200,000	-0,018	-0,066
-671,349	800,000	-0,065	-0,172
-670,335	-36,164	0,056	-0,022
-669,320	317,174	-0,101	-0,141
-668,305	63,123	-0,050	0,037
-667,291	-150,502	-0,184	0,010
-666,276	-200,000	0,003	0,093
-665,262	252,001	-0,099	-0,124
-664,247	-200,000	-0,017	-0,135
-663,232	-200,000	0,007	0,083
-662,218	800,000	0,062	-0,169
-661,203	-200,000	0,003	0,040
-660,189	800,000	-0,023	0,066
-659,174	-200,000	-0,019	-0,118
-658,159	576,753	-0,046	0,083
-657,145	45,499	-0,036	-0,024
-656,130	-102,329	0,179	0,031
-655,116	733,616	0,072	-0,142
-654,101	-19,173	-0,188	-0,086
-653,086	-38,122	-0,057	0,022
-652,072	800,000	0,040	-0,085
-651,057	-200,000	-0,027	0,112
-650,043	-156,581	0,018	0,001
-649,028	159,500	-0,020	0,021
-648,014	16,366	0,110	-0,063
-646,999	800,000	0,038	0,091
-645,984	-200,000	0,004	0,062
-644,970	-200,000	-0,030	-0,143
-643,955	60,782	-0,064	-0,046
-642,941	433,657	0,049	-0,078
-641,926	4,888	-0,100	0,054
-640,911	591,037	0,028	-0,051
-639,897	365,607	0,070	0,103
-638,882	-145,567	-0,042	0,003
-637,868	155,499	-0,052	-0,052
-636,853	-150,813	-0,116	-0,006
-635,838	800,000	0,032	0,096
-634,824	-41,472	-0,097	0,036
-633,809	194,919	-0,082	-0,091
-632,795	399,019	0,039	-0,060
-631,780	-200,000	-0,010	0,101
-630,765	69,003	-0,243	-0,183
-629,751	800,000	-0,015	-0,037
-628,736	269,451	-0,050	-0,064
-627,722	-200,000	-0,005	-0,054
-626,707	181,351	0,135	0,145
-625,692	9,284	-0,054	0,030
-624,678	-42,005	0,015	0,006
-623,663	-200,000	0,041	0,140
-622,649	-20,791	-0,074	0,033
-621,634	-118,021	0,045	-0,006
-620,619	-200,000	-0,013	-0,085
-619,605	800,000	-0,007	-0,018
-618,590	208,461	0,013	0,015
-617,576	136,007	0,069	-0,065
-616,561	-34,788	-0,102	-0,041
-615,546	-84,316	-0,072	-0,017
-614,532	-200,000	-0,001	0,063
-613,517	399,448	0,034	-0,053
-612,503	328,661	0,051	0,072
-611,488	264,503	-0,047	0,060
-610,474	400,782	0,035	0,054
-609,459	9,673	0,072	0,040
-608,444	158,608	-0,075	-0,076
-607,430	-200,000	-0,031	-0,139
-606,415	-200,000	-0,016	-0,083
-605,401	-40,568	-0,063	-0,024
-604,386	-10,198	0,093	0,045
-603,371	800,000	0,012	-0,027
-602,357	-161,846	-0,066	0,002
-601,342	-200,000	-0,024	0,101
-600,328	-5,695	-0,071	-0,035
-599,313	-90,126	-0,096	-0,020
-598,298	-8,598	0,068	0,033
-597,284	84,081	0,018	0,014
-596,269	75,629	0,045	0,035
-595,255	-56,094	-0,091	-0,029
-594,240	-200,000	0,049	-0,170
-593,225	-32,590	-0,105	-0,042
-592,211	-200,000	-0,017	-0,093
-591,196	-81,045	-0,134	0,032
-590,182	-200,000	0,029	0,166
-589,167	800,000	0,031	-0,096
-588,152	262,758	-0,009	-0,011
-587,138	-200,000	-0,005	0,022
-586,123	-81,280	-0,102	0,025
-585,109	556,227	-0,074	-0,131
-584,094	-200,000	-0,012	0,087
-583,079	309,555	-0,001	-0,002
-582,065	-73,534	-0,057	-0,015
-581,050	-86,344	-0,183	-0,041
-580,036	259,104	-0,028	-0,035
-579,021	-34,274	-0,151	-0,060
-578,006	345,905	-0,066	-0,095
-576,992	47,394	0,068	-0,047
-575,977	83,773	0,064	-0,051
-574,963	194,198	-0,100	-0,111
-573,948	57,791	0,052	0,037
-572,934	-200,000	-0,000	0,015
-571,919	60,032	-0,112	0,081
-570,904	115,327	0,060	-0,054
-569,890	800,000	-0,033	-0,091
-568,875	-200,000	-0,001	0,098
-567,861	800,000	-0,020	0,054
-566,846	255,773	-0,090	-0,113
-565,831	-89,564	0,066	0,014
-564,817	-61,021	-0,098	0,030
-563,802	75,616	0,074	0,057
-562,788	27,815	-0,134	-0,082
-561,773	-200,000	-0,012	-0,091
-560,758	-200,000	-0,006	0,053
-559,744	-200,000	-0,024	0,182
-558,729	-157,106	-0,162	-0,007
-557,715	-200,000	-0,016	0,076
-556,700	-200,000	0,027	-0,098
-555,685	73,846	-0,062	-0,047
-554,671	-200,000	0,020	-0,081
-553,656	-200,000	-0,009	0,073
-552,642	5,886	0,055	-0,030
-551,627	-200,000	0,020	0,120
-550,612	-200,000	-0,004	-0,081
-549,598	-200,000	0,019	-0,157
-548,583	161,524	-0,115	-0,117
-547,569	762,954	-0,051	0,102
-546,554	-200,000	0,004	0,015
-545,539	-200,000	0,015	0,165
-544,525	271,341	-0,013	0,017
-543,510	438,030	-0,111	-0,178
-542,496	198,161	-0,072	-0,080
-541,481	-200,000	-0,026	-0,216
-540,466	163,898	0,032	-0,033
-539,452	81,562	0,043	-0,034
-538,437	135,357	0,099	0,094
-537,423	470,635	0,039	0,064
-536,408	105,622	0,045	0,039
-535,393	800,000	-0,051	-0,114
-534,379	800,000	0,025	-0,065
-533,364	164,535	-0,142	0,147
-532,350	-1,369	0,097	-0,050
-531,335	292,017	0,016	0,021
-530,321	347,048	-0,053	-0,077
-529,306	587,634	0,043	0,077
-528,291	800,000	0,011	-0,031
-527,277	-190,957	-0,135	0,001
-526,262	88,331	0,016	-0,013
-525,248	-109,804	0,087	-0,013
-524,233	-11,098	-0,030	-0,015
-523,218	-160,623	-0,111	0,004
-522,204	-200,000	0,037	-0,132
-521,189	-200,000	-0,041	-0,135
-520,175	-200,000	-0,029	-0,197
-519,160	-200,000	0,004	-0,053
-518,145	107,679	-0,052	-0,045
-517,131	330,937	0,027	0,039
-516,116	-200,000	0,005	0,064
-515,102	-45,858	0,076	-0,027
-514,087	192,758	-0,028	0,031
-513,072	800,000	-0,043	-0,104
-512,058	800,000	0,029	-0,062
-511,043	-76,697	-0,027	0,007
-510,029	-59,453	-0,066	-0,021
-509,014	-200,000	0,002	-0,029
-507,999	-200,000	0,008	-0,046
-506,985	80,797	0,078	-0,062
-505,970	273,226	-0,054	-0,070
-504,956	800,000	0,025	0,076
-503,941	-66,972	0,158	-0,045
-502,926	145,274	0,122	0,119
-501,912	-200,000	-0,012	0,054
-500,897	217,702	-0,071	-0,083
-499,883	163,550	0,039	0,040
-498,868	-89,317	0,116	-0,025
-497,853	305,465	0,037	-0,050
-496,839	542,805	-0,066	-0,116
-495,824	159,238	-0,036	-0,037
-494,810	800,000	0,018	-0,056
-493,795	638,673	0,062	-0,116
-492,781	800,000	-0,045	-0,106
-491,766	-90,428	-0,200	-0,042
-490,751	-175,439	-0,076	-0,001
-489,737	-53,704	-0,046	-0,015
-488,722	-35,824	0,095	0,037
-487,708	-56,968	-0,115	0,037
-486,693	-200,000	0,024	-0,104
-485,678	246,622	-0,064	0,079
-484,664	-200,000	-0,008	0,095
-483,649	230,294	-0,045	0,053
-482,635	48,423	-0,092	0,063
-481,620	800,000	0,065	-0,165
-480,605	-200,000	-0,002	-0,180
-479,591	-200,000	-0,038	0,194
-478,576	90,159	-0,059	-0,048
-477,562	-200,000	0,006	-0,050
-476,547	-200,000	0,007	0,109
-475,532	328,316	0,033	0,046
-474,518	-200,000	0,004	0,018
-473,503	669,800	0,065	0,123
-472,489	800,000	-0,029	0,091
-471,474	352,053	-0,036	0,053
-470,459	50,102	0,052	-0,036
-469,445	800,000	0,035	-0,072
-468,430	-111,413	0,092	-0,013
-467,416	800,000	0,022	-0,068
-466,401	-147,789	0,164	0,010
-465,386	-200,000	-0,024	-0,089
-464,372	421,983	0,014	0,022
-463,357	-57,620	-0,115	-0,036
-462,343	800,000	-0,025	-0,063
-461,328	800,000	0,009	-0,025
-460,313	-200,000	-0,013	-0,090
-459,299	-200,000	0,024	0,134
-458,284	-115,169	0,174	-0,024
-457,270	379,873	-0,065	0,097
-456,255	-200,000	-0,017	-0,083
-455,241	125,967	-0,054	0,050
-454,226	-22,705	-0,161	-0,071
-453,211	6,345	0,020	-0,011
-452,197	746,606	0,049	-0,096
-451,182	20,660	0,111	0,065
-450,168	-200,000	0,007	0,117
-449,153	-144,892	-0,053	-0,004
-448,138	-121,092	0,160	0,019
-447,124	-103,723	-0,046	-0,008
-446,109	-161,764	0,042	0,002
-445,095	305,375	0,032	0,043
-444,080	-200,000	-0,019	0,099
-443,065	140,665	-0,079	0,076
-442,051	260,076	-0,053	0,066
-441,036	135,924	0,116	0,110
-440,022	69,058	0,039	-0,029
-439,007	-200,000	-0,009	0,030
-437,992	800,000	-0,029	0,065
-436,978	-51,012	0,038	-0,013
-435,963	307,588	-0,049	0,067
-434,949	800,000	-0,050	-0,124
-433,934	-172,638	-0,090	-0,002
-432,919	800,000	-0,046	-0,107
-431,905	47,585	-0,041	0,028
-430,890	409,122	0,099	0,153
-429,876	800,000	0,059	0,130
-428,861	800,000	0,052	-0,162
-427,846	-24,964	-0,087	0,038
-426,832	183,528	-0,054	-0,058
-425,817	-200,000	0,012	-0,067
-424,803	732,324	-0,034	-0,067
-423,788	132,745	0,087	-0,082
-422,773	17,853	0,098	0,057
-421,759	800,000	0,008	-0,020
-420,744	-78,159	-0,083	-0,021
-419,730	-8,834	0,047	0,023
-418,715	800,000	0,051	-0,115
-417,701	98,563	-0,074	-0,062
-416,686	-52,715	-0,028	-0,009
-415,671	800,000	0,030	0,085
-414,657	-95,507	-0,148	0,029
-413,642	-44,451	-0,043	-0,016
-412,628	-122,969	-0,022	0,003
-411,613	-115,592	0,143	0,019
-410,598	800,000	-0,018	0,054
-409,584	99,900	0,073	-0,061
-408,569	27,483	0,090	0,055
-407,555	800,000	0,034	0,107
-406,540	-35,458	-0,056	-0,022
-405,525	-179,970	-0,005	0,000
-404,511	41,747	0,036	0,023
-403,496	-200,000	-0,030	0,104
-402,482	-58,724	0,111	0,035
-401,467	366,305	-0,043	0,064
-400,452	-139,020	0,102	0,008
-399,438	195,841	-0,043	0,047
-398,423	-200,000	-0,003	0,031
-397,409	4,384	0,107	0,057
-396,394	50,049	-0,091	-0,062
-395,379	49,130	0,251	-0,171
-394,365	596,417	-0,069	0,125
-393,350	425,357	0,021	-0,032
-392,336	203,559	-0,034	-0,039
-391,321	223,628	-0,066	-0,078
-390,306	19,847	-0,196	-0,115
-389,292	800,000	-0,019	0,049
-388,277	800,000	0,082	0,202
-387,263	-176,099	0,088	0,002
-386,248	-44,679	0,175	-0,063
-385,233	-10,583	0,084	-0,040
-384,219	-123,154	-0,148	0,017
-383,204	-200,000	-0,021	-0,172
-382,190	139,251	-0,154	-0,147
-381,175	-77,785	0,059	-0,015
-380,160	-200,000	0,009	0,038
-379,146	619,856	0,045	-0,083
-378,131	262,825	0,136	0,171
-377,117	-104,362	-0,117	-0,020
-376,102	800,000	0,054	-0,133
-375,088	49,012	0,037	-0,025
-374,073	-105,345	0,065	-0,011
-373,058	786,757	-0,034	-0,068
-372,044	380,214	-0,031	0,046
-371,029	-200,000	0,019	-0,111
-370,015	125,353	-0,052	0,048
-369,000	72,736	-0,068	0,052
-367,985	235,920	-0,055	0,066
-366,971	800,000	0,039	0,116
-365,956	549,214	0,024	0,042
-364,942	91,267	-0,043	0,035
-363,927	-200,000	0,015	0,143
-362,912	-200,000	-0,005	0,079
-361,898	160,758	-0,024	0,025
-360,883	3,553	-0,056	0,029
-359,869	-119,930	0,106	0,013
-358,854	-50,060	0,062	0,021
-357,839	-48,130	0,106	0,037
-356,825	242,054	-0,038	-0,047
-355,810	-142,743	0,119	0,008
-354,796	112,204	-0,047	0,041
-353,781	375,565	-0,037	0,054
-352,766	266,443	-0,030	-0,038
-351,752	634,231	-0,007	-0,013
-350,737	-200,000	-0,004	-0,071
-349,723	-200,000	-0,002	-0,031
-348,708	-200,000	-0,005	0,060
-347,693	-68,902	0,056	-0,016
-346,679	23,934	0,138	-0,082
-345,664	72,026	-0,093	-0,070
-344,650	-200,000	0,011	0,095
-343,635	-200,000	0,019	0,119
-342,620	-200,000	0,007	0,050
-341,606	-166,522	0,115	-0,003
-340,591	37,986	0,036	0,023
-339,577	800,000	-0,027	-0,055
-338,562	280,263	-0,032	-0,041
-337,548	2,520	0,120	0,063
-336,533	-186,321	0,018	-0,000
-335,518	133,905	0,039	0,037
-334,504	-200,000	-0,010	-0,034
-333,489	-200,000	-0,002	-0,070
-332,475	589,848	-0,086	-0,155
-331,460	27,097	0,168	-0,102
-330,445	364,942	-0,073	0,106
-329,431	-91,570	-0,109	-0,022
-328,416	99,229	0,025	-0,021
-327,402	7,851	-0,087	0,047
-326,387	800,000	0,026	-0,057
-325,372	222,873	0,130	-0,152
-324,358	-200,000	0,009	-0,059
-323,343	319,295	-0,038	0,053
-322,329	-200,000	0,003	0,150
-321,314	-41,671	0,089	0,033
-320,299	272,286	0,068	0,087
-319,285	-200,000	0,017	0,133
-318,270	106,099	-0,054	0,046
-317,256	21,811	0,106	-0,062
-316,241	-200,000	-0,041	0,230
-315,226	-115,728	0,050	0,007
-314,212	-200,000	0,010	0,074
-313,197	434,478	-0,021	-0,033
-312,183	-200,000	0,009	0,093
-311,168	-49,359	-0,119	-0,041
-310,153	3,247	0,116	-0,061
-309,139	800,000	-0,051	-0,108
-308,124	800,000	0,037	0,097
-307,110	-32,759	0,180	0,072
-306,095	-81,292	-0,054	0,013
-305,080	22,289	-0,054	-0,032
-304,066	-200,000	0,005	0,140
-303,051	-111,987	0,128	0,019
-302,037	214,987	-0,008	-0,009
-301,022	51,989	-0,025	0,017
-300,008	595,123	-0,054	0,098
-298,993	412,571	0,051	0,078
-297,978	-200,000	0,036	-0,166
-296,964	-13,607	0,031	0,014
-295,949	-200,000	-0,034	0,137
-294,935	800,000	-0,006	0,017
-293,920	800,000	0,085	-0,199
-292,905	-153,298	-0,064	-0,003
-291,891	64,096	0,097	0,071
-290,876	-83,112	-0,073	0,017
-289,862	754,815	-0,025	0,050
-288,847	-10,885	-0,071	0,034
-287,832	800,000	-0,027	0,082
-286,818	40,700	0,088	0,058
-285,803	49,481	0,097	0,066
-284,789	11,959	0,112	0,062
-283,774	-67,459	0,071	-0,020
-282,759	-94,005	0,113	-0,022
-281,745	-200,000	-0,005	-0,030
-280,730	-4,633	-0,055	-0,027
-279,716	-29,332	0,171	0,071
-278,701	216,929	0,133	0,153
-277,686	800,000	-0,047	0,144
-276,672	12,424	-0,131	-0,073
-275,657	-17,367	0,168	-0,076
-274,643	139,605	-0,057	-0,054
-273,628	80,952	-0,092	-0,072
-272,613	53,984	-0,134	-0,093
-271,599	189,796	0,066	0,071
-270,584	58,742	0,102	0,072
-269,570	-150,145	0,148	-0,008
-268,555	-80,680	-0,065	0,015
-267,540	-200,000	0,021	-0,131
-266,526	-200,000	0,031	-0,173
-265,511	800,000	0,018	-0,040
-264,497	18,480	0,027	0,016
-263,482	-135,813	-0,139	0,012
-262,467	571,024	0,038	0,067
-261,453	254,929	0,082	0,102
-260,438	-200,000	-0,044	-0,142
-259,424	800,000	-0,012	0,038
-258,409	250,595	-0,034	-0,042
-257,395	-160,839	0,093	0,003
-256,380	-165,698	-0,090	0,003
-255,365	150,800	0,081	0,079
-254,351	-200,000	0,056	0,204
-253,336	17,675	-0,139	-0,079
-252,322	396,532	-0,126	-0,191
-251,307	31,580	-0,111	-0,069
-250,292	-2,318	0,067	0,034
-249,278	-196,647	0,121	0,001
-248,263	-200,000	0,021	0,092
-247,249	-57,014	0,021	-0,007
-246,234	43,357	0,042	-0,027
-245,219	-200,000	-0,001	-0,095
-244,205	147,842	0,111	-0,108
-243,190	-200,000	0,019	0,068
-242,176	-47,747	0,134	-0,047
-241,161	655,932	0,080	0,150
-240,146	3,946	0,115	0,061
-239,132	721,316	0,023	-0,045
-238,117	19,961	-0,071	-0,041
-237,103	-102,333	-0,090	0,015
-236,088	569,233	0,023	-0,040
-235,073	-200,000	-0,026	0,091
-234,059	-70,600	0,068	-0,018
-233,044	800,000	-0,022	0,070
-232,030	-200,000	0,031	-0,122
-231,015	161,592	-0,131	-0,132
-230,000	-152,131	0,135	0,007
-228,986	800,000	-0,045	0,136
-227,971	-66,194	0,092	-0,026
-226,957	410,609	0,117	0,179
-225,942	264,376	0,123	0,155
-224,927	-57,298	0,083	0,026
-223,913	230,316	-0,039	0,046
-222,898	167,772	-0,046	-0,047
-221,884	-44,897	0,017	-0,006
-220,869	-75,481	0,032	-0,008
-219,855	136,031	-0,098	0,092
-218,840	-200,000	-0,034	0,111
-217,825	800,000	0,016	-0,048
-216,811	91,289	0,131	-0,106
-215,796	55,052	0,079	-0,055
-214,782	-105,042	-0,131	-0,021
-213,767	-200,000	0,022	0,097
-212,752	-112,158	0,008	-0,001
-211,738	-200,000	-0,037	0,194
-210,723	-136,488	-0,085	-0,007
-209,709	412,064	0,091	0,140
-208,694	27,225	-0,122	-0,074
-207,679	-81,659	0,066	-0,015
-206,665	-72,359	-0,182	0,048
-205,650	253,627	0,056	0,069
-204,636	785,305	0,043	-0,086
-203,621	382,537	-0,124	0,184
-202,606	800,000	-0,041	-0,107
-201,592	-12,912	-0,134	-0,063
-200,577	0,508	-0,084	-0,043
-199,563	-200,000	-0,006	-0,102
-198,548	93,820	-0,033	0,027
-197,533	-200,000	-0,001	0,061
-196,519	-20,567	0,149	0,066
-195,504	-100,440	-0,089	0,016
-194,490	-101,223	0,083	-0,015
-193,475	660,467	-0,042	0,079
-192,460	343,928	0,130	0,184
-191,446	195,929	0,060	-0,066
-190,431	46,396	-0,076	0,050
-189,417	260,113	0,143	0,179
-188,402	-162,827	-0,203	-0,007
-187,387	800,000	-0,009	-0,021
-186,373	-200,000	0,012	-0,150
-185,358	-80,048	-0,057	0,014
-184,344	-59,249	0,146	0,045
-183,329	145,441	0,048	-0,046
-182,315	-195,477	-0,089	0,000
-181,300	-200,000	-0,007	0,075
-180,285	-44,549	-0,096	0,034
-179,271	-200,000	0,042	-0,150
-178,256	2,428	-0,050	0,026
-177,242	110,631	0,079	0,068
-176,227	14,753	0,071	-0,040
-175,212	800,000	0,042	0,102
-174,198	123,665	-0,151	0,136
-173,183	-200,000	-0,002	-0,015
-172,169	-200,000	-0,002	-0,086
-171,154	-100,584	0,087	0,015
-170,139	-133,187	0,044	-0,004
-169,125	-200,000	-0,003	-0,113
-168,110	-121,131	0,063	0,007
-167,096	-200,000	0,010	0,051
-166,081	-30,115	-0,138	-0,056
-165,066	170,057	0,076	0,078
-164,052	340,393	0,031	-0,043
-163,037	-172,867	0,022	0,000
-162,023	156,896	0,138	-0,138
-161,008	-200,000	-0,040	0,175
-159,993	254,423	0,027	-0,033
-158,979	576,883	0,027	0,047
-157,964	-200,000	-0,008	-0,065
-156,950	-22,853	-0,086	0,037
-155,935	800,000	-0,044	-0,099
-154,920	321,628	-0,078	0,107
-153,906	-14,117	-0,124	-0,057
-152,891	105,026	0,030	-0,026
-151,877	-200,000	-0,018	-0,089
-150,862	-200,000	0,001	-0,056
-149,847	-92,750	-0,104	-0,021
-148,833	-22,724	-0,111	-0,048
-147,818	172,580	0,045	0,047
-146,804	-90,880	0,023	-0,005
-145,789	61,555	0,032	-0,023
-144,775	800,000	0,026	-0,068
-143,760	-200,000	-0,005	-0,042
-142,745	268,681	-0,027	-0,034
-141,731	161,583	0,103	0,104
-140,716	-200,000	0,009	-0,033
-139,702	-200,000	-0,012	-0,052
-138,687	99,704	0,082	-0,068
-137,672	131,703	-0,055	0,051
-136,658	-147,995	-0,030	-0,002
-135,643	-33,735	0,006	0,003
-134,629	-33,068	0,156	-0,062
-133,614	35,981	0,186	0,117
-132,599	19,138	-0,085	-0,049
-131,585	800,000	-0,038	-0,081
-130,570	-200,000	-0,026	-0,107
-129,556	44,373	0,090	-0,059
-128,541	-200,000	0,014	-0,149
-127,526	-102,637	-0,106	0,018
-126,512	86,923	-0,033	-0,027
-125,497	-65,771	0,023	-0,006
-124,483	-138,072	-0,045	0,004
-123,468	227,392	0,037	0,044
-122,453	611,668	-0,048	0,086
-121,439	-39,125	-0,131	-0,049
-120,424	-200,000	0,005	-0,090
-119,410	-200,000	-0,002	0,060
