DTS Sentinel unit serial number:	SN410029Multiplexer serial number:	ORYXHardware model number:	OX2-SRSoftware version number:	ORYX F/W v4,00 Oryx Data Collector v3.7.2.0data status	okinstallation	B5 Nyhavnadifferential loss correction	single-endedforward channel	channel 2reverse channel	N/Adate	2023/12/14time	14:07:13forward acquisition time	300,00reverse acquisition time	0,00gamma	499,1914k internal	0,3157k external	0,3157temperature offset calibration	1,0000default loss term (dB/km)	0,3820temperature slope calibration	1,0000multiplexer offset coefficient	1,0000multiplexer slope coefficient	1,0000fibre end	0,00T internal ref (°C)	8,06T ext. ref 1 (°C)	-7,97T ext. ref 2 (°C)	-8,03length (m)	temperature (°C)	Stokes	anti-Stokes-744,400	-114,983	0,212	0,029
-743,385	-85,468	-0,411	-0,094
-742,371	58,336	0,137	0,099
-741,356	-72,258	-0,225	0,061
-740,342	160,845	0,053	0,055
-739,327	-62,545	-0,403	-0,123
-738,312	12,751	0,131	0,074
-737,298	-189,052	-0,423	0,004
-736,283	800,000	0,010	0,030
-735,269	-106,633	-0,250	-0,041
-734,254	42,546	0,148	0,099
-733,239	-1,523	-0,666	-0,345
-732,225	-124,171	0,228	0,026
-731,210	-200,000	-0,041	0,289
-730,196	-32,978	-0,056	0,023
-729,181	-74,110	-0,152	-0,040
-728,167	798,621	0,094	0,191
-727,152	-77,651	0,019	-0,005
-726,137	758,631	-0,101	-0,202
-725,123	-200,000	0,036	-0,151
-724,108	513,319	-0,038	-0,065
-723,094	28,288	-0,077	-0,048
-722,079	-45,131	-0,161	0,059
-721,064	-200,000	0,004	0,023
-720,050	-151,447	-0,154	0,008
-719,035	-19,372	-0,079	0,036
-718,021	123,395	-0,105	-0,097
-717,006	-57,390	-0,115	-0,037
-715,991	59,118	-0,182	-0,131
-714,977	5,196	-0,095	0,051
-713,962	-57,584	0,168	0,054
-712,948	-86,876	0,014	-0,003
-711,933	-200,000	0,006	0,072
-710,918	66,112	-0,019	0,014
-709,904	67,493	-0,103	-0,078
-708,889	520,237	0,071	-0,123
-707,875	226,701	0,099	0,119
-706,860	-200,000	-0,016	-0,112
-705,845	26,132	0,147	-0,090
-704,831	-141,681	-0,063	-0,005
-703,816	-99,935	0,103	0,019
-702,802	-158,199	-0,101	0,004
-701,787	362,509	0,065	-0,096
-700,772	-57,764	-0,129	-0,041
-699,758	342,398	-0,057	0,082
-698,743	-114,491	-0,060	-0,008
-697,729	-123,919	0,061	0,007
-696,714	6,553	-0,123	0,067
-695,699	-160,053	0,089	0,004
-694,685	34,846	-0,033	-0,021
-693,670	293,649	0,063	-0,085
-692,656	-72,427	-0,066	-0,018
-691,641	14,986	0,156	0,090
-690,627	156,112	0,023	-0,024
-689,612	216,684	-0,014	-0,016
-688,597	480,287	0,045	0,075
-687,583	-87,891	-0,116	0,026
-686,568	-92,354	0,066	0,014
-685,554	-108,258	0,127	-0,020
-684,539	-46,242	0,096	0,035
-683,524	800,000	-0,037	0,090
-682,510	-200,000	-0,002	-0,098
-681,495	-200,000	-0,039	-0,141
-680,481	-86,122	-0,170	0,038
-679,466	-130,852	-0,052	0,005
-678,451	-200,000	0,014	-0,056
-677,437	-200,000	-0,011	-0,181
-676,422	-200,000	0,023	0,138
-675,408	-200,000	-0,022	0,162
-674,393	81,187	-0,105	0,084
-673,378	-28,895	-0,178	-0,075
-672,364	73,880	-0,038	0,029
-671,349	61,786	-0,078	-0,057
-670,335	171,277	0,079	0,083
-669,320	-200,000	0,007	-0,113
-668,305	374,740	-0,052	0,077
-667,291	800,000	0,036	-0,100
-666,276	800,000	-0,061	-0,149
-665,262	-10,620	0,098	-0,047
-664,247	40,638	-0,149	0,098
-663,232	278,679	0,042	-0,056
-662,218	-9,118	0,111	0,054
-661,203	308,832	-0,009	0,013
-660,189	-200,000	-0,009	0,039
-659,174	-200,000	0,044	-0,148
-658,159	800,000	-0,032	-0,068
-657,145	-29,457	-0,007	-0,003
-656,130	33,899	0,061	0,039
-655,116	53,979	-0,143	0,101
-654,101	-200,000	0,004	0,018
-653,086	800,000	-0,020	-0,042
-652,072	327,144	-0,040	-0,057
-651,057	105,106	-0,072	-0,063
-650,043	129,292	0,043	-0,041
-649,028	-118,237	0,091	-0,012
-648,014	-200,000	0,043	0,180
-646,999	122,507	0,086	-0,079
-645,984	-13,494	0,083	-0,039
-644,970	-200,000	0,024	-0,101
-643,955	800,000	-0,027	-0,080
-642,941	-200,000	-0,004	-0,192
-641,926	800,000	0,070	-0,145
-640,911	46,261	-0,034	-0,023
-639,897	-162,145	-0,126	-0,005
-638,882	-147,377	-0,052	-0,003
-637,868	-124,423	0,118	-0,013
-636,853	435,304	-0,053	-0,084
-635,838	-200,000	0,003	-0,168
-634,824	102,486	0,095	-0,082
-633,809	-67,100	0,034	0,010
-632,795	-176,802	0,038	-0,001
-631,780	800,000	-0,076	0,157
-630,765	-91,937	0,053	0,011
-629,751	323,854	0,040	0,056
-628,736	-200,000	0,002	-0,087
-627,722	13,678	0,054	-0,031
-626,707	-155,019	-0,129	-0,006
-625,692	-143,585	-0,097	0,007
-624,678	-133,946	0,020	0,002
-623,663	239,985	-0,075	-0,091
-622,649	-200,000	0,032	-0,150
-621,634	-98,549	-0,109	0,020
-620,619	192,178	-0,061	-0,067
-619,605	800,000	0,044	0,099
-618,590	-111,890	0,064	0,009
-617,576	-48,858	0,085	-0,030
-616,561	-103,306	-0,068	-0,012
-615,546	800,000	-0,011	0,035
-614,532	800,000	0,046	-0,122
-613,517	-74,140	-0,115	-0,030
-612,503	67,252	0,068	-0,050
-611,488	236,357	-0,030	-0,037
-610,474	331,188	0,025	0,036
-609,459	-200,000	0,018	-0,163
-608,444	-13,425	-0,218	-0,103
-607,430	-14,746	-0,088	-0,041
-606,415	348,834	-0,073	-0,106
-605,401	-200,000	-0,013	0,095
-604,386	228,365	-0,072	0,087
-603,371	269,071	0,009	0,011
-602,357	-66,691	-0,092	0,026
-601,342	204,184	0,017	-0,019
-600,328	-92,871	-0,036	0,007
-599,313	121,961	-0,091	-0,084
-598,298	33,825	-0,197	-0,126
-597,284	800,000	0,024	0,070
-596,269	-200,000	-0,002	-0,031
-595,255	191,561	-0,121	-0,134
-594,240	489,498	-0,053	0,089
-593,225	-32,970	-0,092	0,037
-592,211	-200,000	0,013	-0,055
-591,196	182,855	0,072	0,078
-590,182	800,000	0,036	0,117
-589,167	-200,000	0,011	-0,055
-588,152	243,762	-0,039	0,048
-587,138	-200,000	-0,022	-0,174
-586,123	-91,870	-0,115	-0,024
-585,109	74,280	-0,147	0,113
-584,094	374,544	0,007	-0,010
-583,079	37,419	-0,024	0,015
-582,065	80,882	0,059	-0,046
-581,050	420,207	-0,067	-0,105
-580,036	800,000	0,042	0,124
-579,021	800,000	-0,030	-0,067
-578,006	148,933	-0,063	0,062
-576,992	416,246	0,012	0,019
-575,977	21,114	0,184	0,109
-574,963	227,507	0,063	0,075
-573,948	41,732	-0,061	-0,041
-572,934	-61,294	-0,065	-0,020
-571,919	-17,104	-0,103	0,047
-570,904	-56,667	0,039	-0,013
-569,890	-20,680	0,045	-0,020
-568,875	31,820	-0,096	0,061
-567,861	800,000	0,092	-0,253
-566,846	-200,000	0,030	0,154
-565,831	435,727	0,107	0,171
-564,817	-70,543	-0,163	0,045
-563,802	200,204	-0,048	-0,054
-562,788	-7,616	-0,030	0,015
-561,773	318,170	-0,008	-0,011
-560,758	111,606	0,137	-0,121
-559,744	477,313	-0,065	0,109
-558,729	-7,733	-0,050	0,025
-557,715	-54,043	-0,121	-0,040
-556,700	-3,292	-0,127	-0,065
-555,685	-129,788	-0,088	-0,009
-554,671	-200,000	0,043	0,197
-553,656	-200,000	0,016	0,090
-552,642	224,364	-0,074	-0,087
-551,627	-143,989	-0,053	-0,004
-550,612	-67,133	0,129	-0,037
-549,598	-83,513	-0,036	-0,008
-548,583	753,378	-0,047	-0,094
-547,569	-91,661	0,120	-0,025
-546,554	-200,000	0,002	-0,025
-545,539	-15,195	0,059	-0,027
-544,525	-200,000	0,003	0,063
-543,510	-58,811	-0,035	-0,011
-542,496	535,401	0,017	0,030
-541,481	-200,000	0,015	-0,111
-540,466	51,445	0,012	0,008
-539,452	-174,217	-0,039	0,001
-538,437	-133,643	0,172	-0,015
-537,423	-148,521	0,052	0,003
-536,408	-128,798	0,044	0,005
-535,393	224,827	-0,119	0,141
-534,379	321,069	0,030	0,042
-533,364	3,599	0,077	-0,041
-532,350	290,537	0,023	-0,030
-531,335	-200,000	0,014	-0,068
-530,321	537,157	0,041	-0,072
-529,306	572,585	0,060	-0,107
-528,291	800,000	-0,040	0,100
-527,277	80,051	-0,130	-0,103
-526,262	800,000	-0,030	0,082
-525,248	122,132	0,054	0,050
-524,233	335,282	0,047	0,067
-523,218	800,000	-0,029	0,073
-522,204	-63,654	-0,108	-0,032
-521,189	-80,358	-0,100	0,024
-520,175	54,457	0,061	-0,043
-519,160	722,832	-0,074	-0,145
-518,145	675,101	0,045	0,086
-517,131	-4,577	0,079	-0,040
-516,116	118,015	-0,090	-0,081
-515,102	572,392	0,034	0,061
-514,087	5,364	-0,096	-0,052
-513,072	-200,000	-0,001	-0,059
-512,058	137,092	-0,062	0,059
-511,043	-63,119	-0,030	0,009
-510,029	516,613	-0,010	0,018
-509,014	15,231	0,137	-0,078
-507,999	80,604	-0,068	-0,053
-506,985	-200,000	0,006	0,081
-505,970	-124,515	-0,143	0,016
-504,956	31,796	0,033	0,021
-503,941	-52,892	0,036	0,012
-502,926	204,915	0,073	-0,083
-501,912	-57,435	0,042	0,013
-500,897	-17,634	0,101	0,046
-499,883	-100,123	-0,055	0,010
-498,868	642,434	0,043	-0,081
-497,853	159,009	-0,056	-0,057
-496,839	-48,882	-0,097	0,034
-495,824	-134,021	0,036	0,003
-494,810	266,833	0,076	0,097
-493,795	-54,364	0,122	0,040
-492,781	24,558	0,012	0,007
-491,766	59,922	0,091	-0,066
-490,751	-200,000	-0,001	0,111
-489,737	-136,080	0,161	0,014
-488,722	29,019	-0,063	0,039
-487,708	800,000	0,028	0,083
-486,693	613,719	-0,055	0,101
-485,678	800,000	-0,027	-0,075
-484,664	431,551	-0,056	-0,090
-483,649	-112,896	-0,101	-0,015
-482,635	-60,852	0,136	0,042
-481,620	551,495	0,027	0,047
-480,605	-200,000	0,031	0,106
-479,591	800,000	0,053	0,111
-478,576	-58,742	0,073	-0,023
-477,562	-71,437	-0,045	-0,012
-476,547	800,000	0,050	-0,146
-475,532	130,810	-0,086	-0,081
-474,518	62,748	-0,033	0,024
-473,503	51,031	0,030	-0,021
-472,489	-153,813	0,172	-0,008
-471,474	-4,853	0,121	-0,061
-470,459	-140,834	-0,058	-0,004
-469,445	-114,417	0,097	-0,013
-468,430	512,554	0,021	-0,036
-467,416	-200,000	0,015	0,060
-466,401	800,000	0,015	-0,038
-465,386	-200,000	0,007	0,040
-464,372	623,383	-0,010	0,019
-463,357	800,000	0,045	0,134
-462,343	-5,866	0,033	-0,016
-461,328	-67,054	-0,080	-0,023
-460,313	800,000	0,041	0,128
-459,299	-200,000	-0,019	0,153
-458,284	-78,005	0,072	-0,018
-457,270	-93,530	-0,117	-0,023
-456,255	157,570	-0,135	-0,136
-455,241	342,745	0,067	0,095
-454,226	154,235	0,014	0,014
-453,211	172,425	-0,036	0,038
-452,197	-200,000	-0,022	-0,112
-451,182	-200,000	-0,040	0,192
-450,168	-200,000	0,014	-0,059
-449,153	-80,369	-0,147	-0,036
-448,138	196,669	0,083	-0,092
-447,124	415,976	-0,034	0,053
-446,109	-61,959	0,052	-0,016
-445,095	-6,354	-0,151	0,075
-444,080	130,827	0,081	0,076
-443,065	-200,000	-0,013	-0,067
-442,051	339,048	0,035	0,050
-441,036	-200,000	0,045	0,168
-440,022	-119,482	-0,026	0,003
-439,007	164,354	0,036	-0,037
-437,992	-200,000	-0,013	0,043
-436,978	800,000	-0,016	0,047
-435,963	-16,057	0,062	0,029
-434,949	131,124	0,098	0,092
-433,934	117,413	-0,081	-0,073
-432,919	39,570	0,204	-0,133
-431,905	-103,727	-0,124	0,021
-430,890	-200,000	0,005	-0,195
-429,876	201,642	0,100	0,113
-428,861	-114,442	-0,084	-0,012
-427,846	112,263	-0,101	-0,089
-426,832	-104,574	-0,092	-0,015
-425,817	55,822	0,086	0,061
-424,803	-200,000	0,001	0,007
-423,788	215,542	0,051	0,060
-422,773	-117,409	0,152	0,020
-421,759	800,000	0,043	-0,107
-420,744	37,806	0,055	-0,035
-419,730	-15,249	0,061	-0,028
-418,715	13,196	0,158	-0,089
-417,701	800,000	0,021	0,053
-416,686	800,000	0,028	0,078
-415,671	-66,489	0,100	0,029
-414,657	163,047	0,022	0,022
-413,642	800,000	-0,025	0,058
-412,628	-90,636	0,037	0,008
-411,613	800,000	-0,013	0,034
-410,598	-169,963	-0,112	-0,003
-409,584	-86,634	-0,068	-0,015
-408,569	-200,000	-0,018	-0,086
-407,555	168,905	0,067	0,070
-406,540	-87,176	0,081	-0,018
-405,525	-118,548	-0,096	0,012
-404,511	-78,018	0,039	-0,010
-403,496	603,515	-0,032	0,058
-402,482	428,301	0,038	0,059
-401,467	400,071	0,041	0,062
-400,452	800,000	-0,062	0,147
-399,438	-34,360	0,045	0,018
-398,423	32,463	0,053	-0,033
-397,409	243,513	-0,078	-0,095
-396,394	-119,352	-0,083	-0,010
-395,379	30,694	-0,066	-0,041
-394,365	-85,657	-0,081	-0,018
-393,350	-200,000	-0,002	0,030
-392,336	-131,229	0,046	-0,004
-391,321	-90,402	-0,120	-0,025
-390,306	-200,000	0,012	-0,067
-389,292	258,769	0,033	-0,042
-388,277	267,277	0,082	-0,104
-387,263	-3,801	-0,128	0,064
-386,248	-33,082	0,072	0,029
-385,233	773,935	-0,025	0,050
-384,219	5,032	-0,127	0,068
-383,204	128,726	0,035	-0,033
-382,190	-200,000	-0,010	-0,082
-381,175	-39,268	-0,058	0,022
-380,160	-15,183	0,125	0,058
-379,146	800,000	-0,046	0,125
-378,131	547,774	0,039	0,069
-377,117	800,000	-0,057	-0,123
-376,102	-132,232	0,121	-0,011
-375,088	472,510	-0,086	-0,142
-374,073	166,631	-0,061	0,063
-373,058	-148,162	-0,162	0,010
-372,044	328,387	0,085	0,118
-371,029	305,486	-0,099	0,134
-370,015	800,000	0,014	0,044
-369,000	141,995	-0,036	-0,035
-367,985	800,000	-0,047	-0,111
-366,971	-3,257	-0,099	0,050
-365,956	-23,486	-0,071	0,031
-364,942	-155,446	0,043	-0,002
-363,927	531,918	0,077	0,133
-362,912	-5,908	-0,194	0,096
-361,898	34,043	-0,062	-0,039
-360,883	747,845	0,041	-0,080
-359,869	-200,000	-0,002	0,043
-358,854	-200,000	0,032	0,155
-357,839	182,115	0,044	0,047
-356,825	764,577	0,051	0,100
-355,810	800,000	-0,012	0,036
-354,796	659,742	0,044	-0,082
-353,781	-200,000	-0,019	0,062
-352,766	113,292	-0,032	0,028
-351,752	800,000	0,046	0,121
-350,737	800,000	-0,018	0,050
-349,723	278,357	0,038	-0,050
-348,708	-76,999	0,115	0,029
-347,693	-43,160	-0,090	-0,033
-346,679	-171,607	-0,057	-0,001
-345,664	310,062	0,040	0,055
-344,650	-200,000	-0,016	0,085
-343,635	267,508	0,112	-0,143
-342,620	41,833	-0,095	0,062
-341,606	-83,638	-0,014	0,003
-340,591	-56,572	-0,064	-0,021
-339,577	800,000	0,007	0,019
-338,562	193,861	-0,073	-0,080
-337,548	800,000	0,032	0,067
-336,533	460,013	0,107	0,174
-335,518	-157,455	-0,044	-0,002
-334,504	-200,000	-0,007	-0,037
-333,489	332,663	-0,052	-0,073
-332,475	-63,752	0,125	0,037
-331,460	177,183	-0,091	0,097
-330,445	267,624	0,021	-0,027
-329,431	129,627	0,039	0,036
-328,416	65,840	0,065	0,048
-327,402	800,000	0,054	-0,123
-326,387	800,000	-0,005	-0,015
-325,372	800,000	0,029	-0,063
-324,358	800,000	-0,019	0,039
-323,343	-200,000	0,023	-0,087
-322,329	39,942	0,078	-0,051
-321,314	-164,757	-0,122	-0,004
-320,299	502,128	0,031	-0,052
-319,285	81,610	0,051	0,040
-318,270	-200,000	-0,011	-0,069
-317,256	69,645	0,046	0,034
-316,241	-200,000	-0,011	-0,038
-315,226	-200,000	0,003	0,089
-314,212	40,581	0,055	0,036
-313,197	-200,000	-0,046	0,228
-312,183	296,923	-0,037	0,050
-311,168	-144,824	-0,032	-0,002
-310,153	-200,000	-0,007	-0,118
-309,139	121,344	-0,047	0,043
-308,124	20,417	0,099	0,058
-307,110	-200,000	-0,013	0,095
-306,095	27,672	0,089	0,054
-305,080	120,126	0,046	-0,041
-304,066	744,775	-0,021	-0,041
-303,051	800,000	0,020	0,046
-302,037	-13,261	0,148	0,069
-301,022	800,000	0,005	-0,016
-300,008	-90,717	0,121	0,025
-298,993	797,761	0,040	0,080
-297,978	541,908	-0,017	0,029
-296,964	19,065	0,083	-0,048
-295,949	-200,000	0,003	-0,044
-294,935	800,000	-0,022	0,057
-293,920	-31,041	-0,079	0,032
-292,905	74,992	0,131	0,100
-291,891	-115,866	0,105	0,014
-290,876	324,661	-0,008	-0,012
-289,862	-200,000	0,001	0,105
-288,847	800,000	0,009	-0,022
-287,832	49,878	-0,067	0,046
-286,818	7,011	0,063	0,034
-285,803	-7,446	-0,116	0,057
-284,789	800,000	0,040	0,123
-283,774	-200,000	-0,006	0,138
-282,759	-74,542	0,103	-0,027
-281,745	-200,000	-0,030	-0,180
-280,730	112,515	-0,093	-0,082
-279,716	-19,686	0,117	-0,052
-278,701	246,744	0,060	0,074
-277,686	-179,604	0,087	-0,001
-276,672	-200,000	-0,011	0,148
-275,657	592,450	-0,044	0,078
-274,643	729,546	0,030	-0,057
-273,628	-200,000	-0,004	0,092
-272,613	-200,000	-0,025	-0,085
-271,599	-200,000	-0,002	-0,114
-270,584	-200,000	0,000	-0,087
-269,570	-21,260	-0,022	0,010
-268,555	-65,470	-0,206	-0,059
-267,540	134,796	0,040	-0,037
-266,526	269,831	-0,125	-0,160
-265,511	800,000	-0,055	-0,131
-264,497	27,530	0,057	-0,035
-263,482	800,000	-0,005	-0,011
-262,467	-90,672	0,061	0,013
-261,453	301,450	0,063	0,084
-260,438	130,500	-0,050	-0,047
-259,424	800,000	-0,024	-0,067
-258,409	-200,000	0,023	-0,078
-257,395	-200,000	-0,010	0,046
-256,380	-200,000	0,001	-0,015
-255,365	413,006	-0,038	0,059
-254,351	-114,801	-0,105	-0,014
-253,336	-200,000	0,001	-0,019
-252,322	391,425	0,004	0,006
-251,307	201,056	-0,052	-0,058
-250,292	61,165	-0,119	0,085
-249,278	230,479	0,097	0,115
-248,263	-200,000	0,000	0,048
-247,249	-200,000	0,011	0,118
-246,234	41,849	-0,095	0,062
-245,219	-200,000	-0,017	-0,085
-244,205	406,969	0,059	-0,091
-243,190	800,000	0,022	-0,056
-242,176	-123,948	0,199	-0,022
-241,161	-125,555	-0,157	-0,017
-240,146	279,524	-0,061	-0,079
-239,132	-121,096	-0,049	-0,006
-238,117	-143,025	0,073	0,005
-237,103	-200,000	-0,007	0,146
-236,088	-200,000	-0,013	-0,122
-235,073	-200,000	-0,026	0,120
-234,059	202,128	0,027	-0,030
-233,044	266,238	0,035	0,044
-232,030	23,363	0,048	-0,029
-231,015	800,000	-0,020	-0,049
-230,000	360,871	-0,046	-0,066
-228,986	-200,000	-0,030	0,097
-227,971	-200,000	-0,017	-0,056
-226,957	-200,000	-0,009	-0,043
-225,942	800,000	0,029	-0,087
-224,927	-200,000	0,009	0,093
-223,913	-14,760	-0,048	0,022
-222,898	800,000	-0,011	-0,030
-221,884	-147,511	-0,057	0,003
-220,869	-22,623	0,145	0,063
-219,855	-64,756	0,099	0,029
-218,840	-200,000	0,011	0,126
-217,825	-200,000	0,036	0,130
-216,811	-17,046	0,080	-0,036
-215,796	800,000	-0,039	-0,095
-214,782	-79,831	-0,048	-0,012
-213,767	-106,180	-0,110	-0,018
-212,752	-73,885	0,024	-0,006
-211,738	157,107	0,051	0,050
-210,723	-147,862	0,090	-0,005
-209,709	-167,559	0,112	-0,003
-208,694	15,531	-0,063	-0,035
-207,679	-200,000	-0,001	-0,171
-206,665	-1,636	0,135	0,069
-205,650	-200,000	0,001	0,037
-204,636	30,761	0,041	0,025
-203,621	-200,000	-0,023	-0,131
-202,606	-200,000	0,021	-0,090
-201,592	-200,000	-0,003	-0,027
-200,577	-137,298	-0,097	0,008
-199,563	-52,047	-0,046	0,015
-198,548	-66,538	0,128	0,036
-197,533	-200,000	0,014	0,083
-196,519	378,334	0,040	0,060
-195,504	-200,000	-0,037	-0,152
-194,490	-5,879	-0,045	0,022
-193,475	-23,871	-0,098	-0,042
-192,460	5,151	0,008	-0,004
-191,446	-18,713	-0,151	0,068
-190,431	-200,000	-0,007	0,030
-189,417	656,430	0,036	-0,067
-188,402	800,000	0,015	0,043
-187,387	151,806	0,106	-0,105
-186,373	-21,955	0,063	-0,027
-185,358	-200,000	0,010	0,078
-184,344	-76,813	0,154	-0,038
-183,329	800,000	0,013	-0,037
-182,315	688,126	0,014	-0,026
-181,300	-127,545	0,082	-0,008
-180,285	-125,579	-0,083	-0,009
-179,271	160,254	-0,076	0,076
-178,256	-172,559	-0,055	-0,001
-177,242	198,828	0,065	0,072
-176,227	-39,361	0,049	-0,019
-175,212	-200,000	0,010	-0,061
-174,198	11,290	-0,132	0,073
-173,183	800,000	-0,018	-0,052
-172,169	800,000	-0,033	-0,094
-171,154	-52,623	-0,078	0,026
-170,139	-200,000	0,006	-0,027
-169,125	-143,567	0,084	-0,006
-168,110	229,567	0,040	0,048
-167,096	58,216	-0,064	0,045
-166,081	-69,281	-0,084	-0,023
-165,066	-200,000	0,035	-0,116
-164,052	-200,000	-0,018	-0,212
-163,037	-200,000	0,002	-0,113
-162,023	450,589	0,073	-0,117
-161,008	123,650	0,070	0,064
-159,993	72,638	-0,032	0,024
-158,979	319,575	0,048	-0,066
-157,964	800,000	-0,018	0,051
-156,950	-200,000	0,012	-0,050
-155,935	56,268	0,029	0,020
-154,920	-103,795	-0,056	-0,009
-153,906	-121,741	-0,037	0,004
-152,891	-71,362	0,039	0,010
-151,877	800,000	-0,033	-0,067
-150,862	-125,355	0,086	-0,009
-149,847	-200,000	-0,002	-0,052
-148,833	-185,181	-0,161	-0,002
-147,818	212,828	0,130	0,148
-146,804	49,282	0,108	-0,073
-145,789	-48,032	-0,055	-0,019
-144,775	256,731	-0,056	-0,069
-143,760	216,153	-0,071	0,082
-142,745	272,869	0,046	0,058
-141,731	800,000	0,018	-0,056
-140,716	2,918	-0,186	0,097
-139,702	-58,882	-0,089	0,027
-138,687	-155,453	0,131	-0,006
-137,672	-3,097	-0,041	0,020
-136,658	-69,015	-0,102	-0,028
-135,643	-200,000	0,010	0,032
-134,629	-169,322	-0,094	0,002
-133,614	-72,777	0,118	0,031
-132,599	-200,000	0,002	-0,079
-131,585	-200,000	-0,010	0,112
-130,570	800,000	-0,019	0,038
-129,556	-93,512	-0,020	-0,004
-128,541	469,227	0,054	-0,087
-127,526	-200,000	0,006	-0,164
-126,512	-200,000	0,016	0,157
-125,497	800,000	-0,046	0,105
-124,483	186,960	0,070	0,075
-123,468	-200,000	-0,029	0,126
-122,453	-200,000	-0,032	-0,159
-121,439	-200,000	0,014	-0,051
-120,424	-41,055	-0,059	-0,022
-119,410	-128,498	0,169	-0,017
