DTS Sentinel unit serial number:	SN410029Multiplexer serial number:	ORYXHardware model number:	OX2-SRSoftware version number:	ORYX F/W v4,00 Oryx Data Collector v3.7.2.0data status	okinstallation	B5 Nyhavnadifferential loss correction	single-endedforward channel	channel 2reverse channel	N/Adate	2023/12/12time	18:52:13forward acquisition time	300,00reverse acquisition time	0,00gamma	499,1914k internal	0,3157k external	0,3157temperature offset calibration	1,0000default loss term (dB/km)	0,3820temperature slope calibration	1,0000multiplexer offset coefficient	1,0000multiplexer slope coefficient	1,0000fibre end	0,00T internal ref (°C)	15,54T ext. ref 1 (°C)	-1,10T ext. ref 2 (°C)	-1,42length (m)	temperature (°C)	Stokes	anti-Stokes-744,400	-94,603	0,230	-0,046
-743,385	-152,882	-0,178	0,009
-742,371	-45,161	0,077	0,028
-741,356	-97,520	-0,181	0,034
-740,342	-139,694	0,101	-0,008
-739,327	-58,407	-0,217	0,069
-738,312	800,000	-0,028	-0,082
-737,298	-149,392	-0,233	-0,013
-736,283	-163,228	0,129	-0,004
-735,269	-19,761	-0,262	-0,119
-734,254	43,985	0,055	0,037
-733,239	-36,378	-0,388	-0,153
-732,225	-59,286	0,097	0,031
-731,210	443,782	0,101	0,163
-730,196	350,081	0,036	-0,053
-729,181	-200,000	-0,011	-0,128
-728,167	-129,791	-0,168	-0,017
-727,152	15,260	-0,090	-0,052
-726,137	14,062	-0,085	-0,049
-725,123	28,788	-0,075	-0,047
-724,108	-132,967	-0,130	0,012
-723,094	-93,907	-0,036	0,007
-722,079	-88,649	-0,163	-0,035
-721,064	-130,611	0,085	-0,008
-720,050	-102,212	-0,061	-0,011
-719,035	143,064	-0,079	0,077
-718,021	-119,007	0,053	-0,007
-717,006	-96,355	-0,104	-0,020
-715,991	89,775	-0,118	-0,097
-714,977	189,056	-0,103	0,114
-713,962	124,171	0,056	0,052
-712,948	421,713	-0,046	0,073
-711,933	-200,000	0,009	-0,066
-710,918	-200,000	-0,001	-0,037
-709,904	-200,000	-0,007	-0,075
-708,889	209,491	-0,125	0,145
-707,875	800,000	-0,050	-0,126
-706,860	14,139	0,157	-0,090
-705,845	800,000	0,036	0,107
-704,831	121,666	-0,115	-0,106
-703,816	-83,987	-0,049	-0,011
-702,802	-191,564	-0,099	-0,001
-701,787	-50,456	-0,142	-0,049
-700,772	33,694	0,050	-0,032
-699,758	-72,016	-0,079	-0,022
-698,743	40,313	0,022	0,015
-697,729	403,326	0,037	-0,057
-696,714	-39,936	0,091	0,035
-695,699	-66,604	-0,132	0,038
-694,685	88,268	0,054	-0,044
-693,670	-109,320	-0,157	-0,024
-692,656	278,312	0,092	-0,121
-691,641	800,000	0,023	0,063
-690,627	-71,321	-0,061	0,017
-689,612	-200,000	0,010	-0,034
-688,597	47,823	-0,037	0,025
-687,583	341,351	-0,096	-0,138
-686,568	185,651	-0,095	-0,104
-685,554	139,252	-0,067	0,065
-684,539	-7,315	0,075	0,037
-683,524	206,963	0,142	0,163
-682,510	85,798	-0,073	-0,059
-681,495	48,360	-0,122	-0,084
-680,481	21,608	-0,127	-0,076
-679,466	2,586	-0,067	-0,035
-678,451	-200,000	0,013	-0,136
-677,437	146,063	0,045	-0,044
-676,422	27,029	0,115	0,071
-675,408	63,054	0,059	0,044
-674,393	180,905	0,009	0,010
-673,378	654,303	0,063	-0,120
-672,364	-103,586	-0,141	-0,024
-671,349	-200,000	-0,002	-0,091
-670,335	219,600	0,066	0,078
-669,320	-121,662	0,097	0,012
-668,305	-200,000	0,003	0,012
-667,291	225,505	0,057	-0,068
-666,276	-200,000	-0,005	-0,074
-665,262	-200,000	-0,032	-0,144
-664,247	28,403	-0,060	-0,037
-663,232	-59,049	-0,023	-0,007
-662,218	-200,000	-0,028	0,154
-661,203	800,000	0,009	-0,019
-660,189	544,375	-0,110	0,194
-659,174	-142,422	-0,055	0,004
-658,159	202,866	-0,078	-0,088
-657,145	800,000	-0,052	-0,122
-656,130	519,518	-0,059	-0,102
-655,116	-12,283	-0,029	0,014
-654,101	528,376	0,043	-0,075
-653,086	635,063	-0,031	-0,059
-652,072	-200,000	-0,001	-0,066
-651,057	255,101	0,032	-0,040
-650,043	-200,000	0,005	-0,121
-649,028	-59,889	-0,186	-0,058
-648,014	800,000	0,032	0,069
-646,999	729,252	-0,087	0,171
-645,984	-200,000	0,008	-0,058
-644,970	-200,000	0,009	0,084
-643,955	-200,000	-0,012	-0,071
-642,941	5,291	-0,149	-0,081
-641,926	391,133	-0,032	0,049
-640,911	-200,000	0,006	0,019
-639,897	352,905	0,092	0,134
-638,882	237,259	0,045	0,055
-637,868	43,546	0,049	-0,033
-636,853	-70,958	-0,190	0,052
-635,838	175,387	0,075	-0,080
-634,824	-200,000	0,016	-0,109
-633,809	31,367	0,095	0,060
-632,795	-1,699	-0,108	-0,055
-631,780	800,000	0,049	-0,104
-630,765	-200,000	-0,001	0,053
-629,751	800,000	-0,019	0,039
-628,736	-176,811	-0,175	-0,003
-627,722	-200,000	0,023	-0,087
-626,707	-200,000	-0,005	0,047
-625,692	-105,165	0,048	0,008
-624,678	-51,001	-0,028	-0,010
-623,663	-130,270	0,235	0,023
-622,649	89,155	-0,059	0,048
-621,634	432,978	-0,057	-0,091
-620,619	271,370	0,046	-0,059
-619,605	800,000	0,066	-0,175
-618,590	208,277	0,039	0,045
-617,576	800,000	-0,024	0,061
-616,561	37,950	-0,107	-0,069
-615,546	-17,121	0,060	0,028
-614,532	-30,074	-0,067	-0,028
-613,517	84,326	0,082	-0,065
-612,503	-200,000	-0,015	-0,126
-611,488	23,091	-0,086	-0,052
-610,474	-64,999	0,034	-0,010
-609,459	-113,274	0,031	0,004
-608,444	-200,000	0,003	0,085
-607,430	236,631	0,041	-0,049
-606,415	800,000	0,048	0,103
-605,401	181,170	0,078	-0,084
-604,386	-50,871	0,075	0,026
-603,371	-127,754	0,153	-0,016
-602,357	-200,000	0,008	-0,080
-601,342	-134,562	-0,060	0,005
-600,328	576,761	0,050	-0,089
-599,313	-77,656	-0,050	-0,013
-598,298	-84,903	-0,055	0,013
-597,284	53,155	-0,057	0,040
-596,269	46,888	-0,073	0,050
-595,255	-92,941	-0,100	-0,020
-594,240	-122,417	-0,053	-0,006
-593,225	-200,000	-0,008	-0,123
-592,211	-200,000	-0,016	0,152
-591,196	-126,030	-0,028	-0,003
-590,182	567,017	0,016	-0,028
-589,167	-70,086	0,047	-0,013
-588,152	-63,823	-0,107	0,032
-587,138	800,000	0,029	-0,075
-586,123	-200,000	0,002	-0,197
-585,109	581,185	0,058	-0,105
-584,094	346,085	-0,031	0,045
-583,079	-200,000	-0,051	0,196
-582,065	-148,182	0,130	-0,008
-581,050	343,111	0,054	0,078
-580,036	144,399	-0,091	-0,089
-579,021	-200,000	0,015	0,049
-578,006	-200,000	0,033	-0,155
-576,992	800,000	-0,040	-0,086
-575,977	152,998	0,070	-0,070
-574,963	-200,000	-0,034	0,195
-573,948	54,446	-0,111	-0,079
-572,934	265,411	-0,065	-0,083
-571,919	800,000	-0,066	-0,149
-570,904	164,518	0,026	0,027
-569,890	-200,000	0,006	0,045
-568,875	-200,000	-0,046	-0,155
-567,861	-59,005	0,078	-0,025
-566,846	-106,422	-0,043	-0,007
-565,831	-200,000	0,021	0,106
-564,817	-164,804	-0,076	-0,002
-563,802	325,538	-0,071	-0,099
-562,788	518,236	-0,057	-0,098
-561,773	-200,000	0,022	-0,074
-560,758	125,775	0,168	-0,156
-559,744	247,780	0,070	0,087
-558,729	-136,223	-0,121	-0,010
-557,715	406,901	-0,029	-0,044
-556,700	-101,520	0,038	0,007
-555,685	-200,000	-0,071	-0,270
-554,671	-154,686	0,130	0,006
-553,656	767,275	-0,021	0,042
-552,642	-83,015	-0,088	0,021
-551,627	-200,000	0,003	0,030
-550,612	800,000	0,064	-0,131
-549,598	-81,675	-0,056	0,013
-548,583	134,041	-0,047	0,044
-547,569	-43,492	-0,093	-0,034
-546,554	146,361	0,037	-0,036
-545,539	-142,519	0,170	-0,012
-544,525	800,000	0,010	0,021
-543,510	800,000	-0,039	-0,104
-542,496	-1,503	0,094	-0,048
-541,481	800,000	0,044	-0,121
-540,466	-75,638	-0,110	-0,028
-539,452	229,877	0,070	0,084
-538,437	325,067	0,019	0,027
-537,423	800,000	0,011	0,034
-536,408	67,476	-0,093	-0,069
-535,393	49,854	0,072	-0,050
-534,379	57,326	-0,098	-0,070
-533,364	800,000	0,063	-0,137
-532,350	763,964	0,029	0,059
-531,335	191,450	0,025	0,027
-530,321	-118,205	-0,070	0,009
-529,306	166,293	-0,097	0,101
-528,291	-200,000	-0,013	-0,064
-527,277	235,573	-0,107	-0,130
-526,262	520,162	-0,032	0,055
-525,248	199,551	-0,013	0,014
-524,233	26,842	0,029	0,018
-523,218	136,840	0,064	-0,061
-522,204	-200,000	0,006	-0,055
-521,189	42,906	-0,049	0,033
-520,175	164,462	-0,058	-0,059
-519,160	272,834	0,057	0,074
-518,145	12,847	0,110	-0,062
-517,131	129,707	0,055	-0,052
-516,116	109,166	0,015	-0,013
-515,102	-108,268	-0,065	0,010
-514,087	381,795	0,039	-0,058
-513,072	-200,000	0,006	-0,070
-512,058	800,000	-0,042	0,092
-511,043	-19,191	-0,017	0,008
-510,029	-99,644	0,177	0,032
-509,014	-200,000	0,007	0,062
-507,999	81,959	0,049	0,038
-506,985	-101,597	-0,065	0,011
-505,970	800,000	-0,015	0,041
-504,956	-200,000	0,005	-0,074
-503,941	-108,966	0,061	-0,009
-502,926	-200,000	-0,010	0,137
-501,912	82,606	0,059	-0,047
-500,897	-89,970	-0,097	0,021
-499,883	-26,716	-0,085	0,036
-498,868	-55,857	-0,038	-0,012
-497,853	-200,000	-0,022	-0,077
-496,839	-89,620	0,095	-0,020
-495,824	-200,000	0,035	0,199
-494,810	265,075	0,065	0,082
-493,795	800,000	-0,044	0,104
-492,781	-118,472	-0,106	-0,014
-491,766	41,634	0,041	0,027
-490,751	237,101	-0,130	-0,158
-489,737	-200,000	0,001	-0,222
-488,722	-17,722	0,126	0,057
-487,708	-17,826	0,115	-0,053
-486,693	800,000	0,043	0,113
-485,678	-200,000	0,023	-0,081
-484,664	-200,000	-0,014	-0,051
-483,649	219,774	-0,028	-0,033
-482,635	67,259	0,075	0,056
-481,620	46,935	0,104	0,071
-480,605	-5,071	-0,062	-0,031
-479,591	800,000	-0,022	0,057
-478,576	-6,308	0,100	-0,050
-477,562	-200,000	-0,008	-0,066
-476,547	-144,142	-0,039	-0,003
-475,532	28,208	-0,033	-0,020
-474,518	109,232	-0,152	-0,132
-473,503	347,906	0,084	0,122
-472,489	-200,000	0,005	0,121
-471,474	479,651	0,077	0,128
-470,459	-32,530	0,079	0,032
-469,445	-132,144	-0,062	0,006
-468,430	-200,000	0,037	-0,123
-467,416	281,814	-0,084	0,110
-466,401	5,340	0,100	0,053
-465,386	-146,727	-0,060	-0,004
-464,372	126,442	0,079	-0,073
-463,357	-200,000	-0,007	-0,087
-462,343	-3,452	0,075	-0,038
-461,328	349,860	-0,031	-0,044
-460,313	-200,000	-0,011	-0,060
-459,299	-41,988	-0,045	-0,017
-458,284	368,976	0,060	0,089
-457,270	60,293	-0,058	-0,042
-456,255	-200,000	0,008	-0,046
-455,241	233,486	-0,072	-0,086
-454,226	800,000	0,031	0,086
-453,211	-200,000	-0,026	0,135
-452,197	178,122	0,023	-0,024
-451,182	-84,810	0,095	-0,022
-450,168	-200,000	0,012	-0,054
-449,153	158,152	-0,119	-0,120
-448,138	-158,889	-0,057	-0,002
-447,124	-200,000	-0,014	-0,061
-446,109	-37,719	-0,138	-0,053
-445,095	800,000	0,040	0,115
-444,080	-53,845	0,065	0,022
-443,065	337,739	-0,058	-0,083
-442,051	-200,000	0,013	-0,194
-441,036	37,005	-0,107	-0,069
-440,022	281,487	-0,044	-0,057
-439,007	114,990	0,017	0,015
-437,992	-136,252	0,154	-0,013
-436,978	-15,432	-0,083	0,039
-435,963	29,195	0,082	-0,050
-434,949	-13,688	-0,096	-0,045
-433,934	228,626	0,061	-0,072
-432,919	-200,000	-0,004	-0,102
-431,905	307,550	0,084	-0,115
-430,890	762,850	-0,056	-0,111
-429,876	385,988	0,056	-0,085
-428,861	-1,230	0,065	0,033
-427,846	-200,000	-0,021	0,080
-426,832	-154,381	-0,124	0,006
-425,817	0,493	-0,117	-0,061
-424,803	-50,298	-0,090	0,031
-423,788	422,934	0,066	0,104
-422,773	-99,782	0,082	0,015
-421,759	154,921	0,042	0,042
-420,744	-39,060	0,065	-0,025
-419,730	504,798	0,106	-0,180
-418,715	269,526	0,101	0,129
-417,701	-200,000	0,004	0,128
-416,686	-200,000	0,006	-0,084
-415,671	-200,000	0,005	0,089
-414,657	800,000	0,020	0,056
-413,642	-200,000	-0,005	0,183
-412,628	800,000	0,032	0,064
-411,613	-186,810	-0,093	0,001
-410,598	-13,320	-0,021	-0,010
-409,584	-10,795	-0,071	0,034
-408,569	141,129	0,046	-0,044
-407,555	-200,000	-0,009	-0,069
-406,540	800,000	-0,025	0,060
-405,525	800,000	-0,053	0,135
-404,511	-200,000	-0,033	-0,122
-403,496	-105,242	-0,080	-0,013
-402,482	690,432	-0,070	0,134
-401,467	118,949	-0,081	0,073
-400,452	-200,000	-0,011	0,128
-399,438	-47,225	0,095	0,033
-398,423	-152,469	0,049	0,003
-397,409	629,292	0,072	-0,134
-396,394	87,391	-0,063	-0,051
-395,379	-200,000	-0,017	-0,103
-394,365	-24,700	0,159	-0,069
-393,350	-193,896	0,137	-0,001
-392,336	-200,000	0,005	0,093
-391,321	81,272	-0,126	-0,099
-390,306	800,000	0,023	-0,051
-389,292	-11,190	-0,051	0,024
-388,277	-14,155	0,116	-0,054
-387,263	47,071	-0,134	0,091
-386,248	-53,152	-0,083	-0,028
-385,233	-200,000	0,005	0,193
-384,219	335,671	0,026	0,037
-383,204	-200,000	0,011	-0,060
-382,190	-62,720	-0,125	-0,038
-381,175	-200,000	-0,012	0,172
-380,160	800,000	0,008	0,023
-379,146	23,998	0,101	0,061
-378,131	242,987	-0,056	0,069
-377,117	-6,284	-0,138	0,068
-376,102	-2,453	0,139	-0,071
-375,088	428,558	0,020	-0,032
-374,073	-16,298	-0,064	-0,029
-373,058	-64,011	-0,098	0,029
-372,044	-78,009	-0,026	-0,007
-371,029	800,000	0,041	0,128
-370,015	-15,962	-0,077	0,035
-369,000	83,871	-0,025	-0,020
-367,985	-200,000	0,009	0,162
-366,971	800,000	-0,073	-0,152
-365,956	800,000	0,045	-0,093
-364,942	-200,000	0,009	0,188
-363,927	-200,000	-0,020	0,085
-362,912	-44,838	0,114	0,041
-361,898	298,718	-0,104	0,139
-360,883	-28,097	-0,118	-0,049
-359,869	142,924	-0,033	0,032
-358,854	184,431	0,072	0,078
-357,839	-200,000	-0,020	0,085
-356,825	405,222	0,010	0,015
-355,810	800,000	0,074	0,163
-354,796	748,222	0,043	0,085
-353,781	-135,125	-0,073	-0,006
-352,766	-56,154	-0,068	-0,022
-351,752	182,285	-0,016	0,017
-350,737	89,974	0,010	-0,008
-349,723	91,198	0,077	-0,063
-348,708	-200,000	0,018	0,176
-347,693	474,130	-0,087	-0,142
-346,679	-200,000	0,005	-0,114
-345,664	-42,023	0,045	0,017
-344,650	-200,000	-0,005	-0,108
-343,635	-105,111	0,154	-0,025
-342,620	-200,000	0,019	-0,158
-341,606	-200,000	-0,005	0,052
-340,591	521,882	-0,053	-0,090
-339,577	800,000	-0,010	0,020
-338,562	-200,000	0,013	-0,089
-337,548	-200,000	0,001	-0,035
-336,533	202,142	0,109	0,123
-335,518	188,850	-0,037	0,040
-334,504	205,709	0,041	0,047
-333,489	328,854	0,030	-0,041
-332,475	-200,000	-0,044	-0,168
-331,460	-200,000	-0,016	-0,087
-330,445	-103,122	0,075	0,013
-329,431	267,373	-0,004	0,005
-328,416	489,540	0,031	0,051
-327,402	-12,472	-0,046	0,022
-326,387	24,138	-0,046	-0,027
-325,372	55,362	0,013	0,009
-324,358	98,792	-0,039	-0,033
-323,343	769,322	0,048	-0,096
-322,329	800,000	-0,057	-0,150
-321,314	47,216	-0,051	0,035
-320,299	-105,876	0,099	0,016
-319,285	-44,639	-0,124	0,045
-318,270	800,000	0,034	-0,078
-317,256	-69,837	-0,142	-0,039
-316,241	264,650	0,088	0,111
-315,226	-200,000	-0,021	0,165
-314,212	-19,929	0,156	-0,069
-313,197	-200,000	-0,010	-0,038
-312,183	800,000	-0,032	-0,071
-311,168	-12,681	0,108	-0,051
-310,153	-200,000	0,006	-0,124
-309,139	313,557	0,067	0,092
-308,124	45,418	-0,109	0,073
-307,110	344,302	0,099	0,141
-306,095	274,480	0,069	0,089
-305,080	-22,476	0,094	-0,041
-304,066	-40,274	0,034	-0,013
-303,051	-59,448	-0,158	0,049
-302,037	-200,000	0,001	0,097
-301,022	80,794	0,123	0,096
-300,008	433,822	0,087	0,138
-298,993	800,000	-0,089	0,183
-297,978	800,000	-0,022	-0,066
-296,964	-200,000	0,013	0,089
-295,949	-91,630	-0,073	-0,015
-294,935	-200,000	0,011	-0,102
-293,920	800,000	0,022	0,047
-292,905	-12,650	-0,050	0,023
-291,891	69,890	0,065	0,049
-290,876	-200,000	-0,003	0,028
-289,862	-200,000	0,011	0,058
-288,847	39,647	-0,077	0,050
-287,832	-0,212	0,036	0,019
-286,818	24,451	-0,093	0,056
-285,803	800,000	0,051	0,103
-284,789	-200,000	-0,022	0,072
-283,774	-145,186	0,174	-0,011
-282,759	595,159	-0,017	0,031
-281,745	800,000	-0,078	-0,187
-280,730	800,000	-0,023	0,064
-279,716	-200,000	0,047	-0,195
-278,701	-200,000	0,018	0,064
-277,686	-48,388	0,073	-0,025
-276,672	45,940	-0,101	-0,068
-275,657	49,484	-0,016	-0,011
-274,643	-200,000	0,012	0,059
-273,628	-107,482	-0,070	0,011
-272,613	350,447	0,059	-0,084
-271,599	-176,112	-0,049	0,001
-270,584	-186,555	0,048	0,000
-269,570	48,126	0,066	-0,045
-268,555	-40,270	0,064	-0,024
-267,540	159,973	-0,140	-0,142
-266,526	-71,603	-0,085	-0,023
-265,511	-93,717	0,034	-0,007
-264,497	-200,000	0,000	0,059
-263,482	-8,822	-0,050	0,024
-262,467	-200,000	0,050	-0,172
-261,453	79,890	0,065	0,050
-260,438	-200,000	0,000	0,215
-259,424	75,580	-0,013	-0,010
-258,409	-200,000	-0,011	-0,070
-257,395	800,000	0,058	0,123
-256,380	-28,831	0,110	0,045
-255,365	20,017	-0,084	0,049
-254,351	-30,956	-0,086	0,035
-253,336	-200,000	-0,003	0,027
-252,322	-21,628	-0,098	-0,043
-251,307	-160,926	0,082	0,003
-250,292	-5,543	-0,028	0,014
-249,278	100,654	0,069	0,058
-248,263	-79,768	0,180	0,044
-247,249	522,963	-0,039	0,066
-246,234	-27,732	-0,064	0,027
-245,219	800,000	0,066	0,137
-244,205	800,000	0,014	0,033
-243,190	800,000	-0,066	0,141
-242,176	-87,406	-0,139	-0,030
-241,161	566,515	0,044	-0,078
-240,146	334,512	0,036	-0,050
-239,132	227,917	0,060	0,070
-238,117	800,000	0,041	0,090
-237,103	9,700	-0,125	-0,068
-236,088	198,346	0,067	-0,074
-235,073	274,158	0,060	-0,077
-234,059	-200,000	0,008	0,060
-233,044	800,000	0,026	0,073
-232,030	18,265	0,011	-0,006
-231,015	-200,000	-0,016	0,065
-230,000	800,000	-0,008	-0,023
-228,986	-200,000	-0,007	0,102
-227,971	134,820	0,084	-0,079
-226,957	409,082	-0,045	0,069
-225,942	-131,925	0,161	0,015
-224,927	430,661	-0,060	-0,094
-223,913	265,831	-0,071	0,090
-222,898	12,462	-0,150	-0,083
-221,884	86,031	-0,129	-0,103
-220,869	-60,270	0,135	-0,041
-219,855	-200,000	0,001	0,105
-218,840	-74,545	0,065	0,017
-217,825	-115,427	0,042	0,006
-216,811	148,178	0,014	0,014
-215,796	33,172	-0,063	0,039
-214,782	800,000	-0,048	0,123
-213,767	282,364	0,027	0,035
-212,752	-95,538	0,121	0,023
-211,738	-200,000	-0,016	-0,094
-210,723	-54,156	-0,060	0,020
-209,709	-200,000	0,018	-0,060
-208,694	-137,461	-0,074	-0,006
-207,679	216,304	0,038	0,044
-206,665	-200,000	-0,005	-0,038
-205,650	800,000	-0,015	0,032
-204,636	-4,021	-0,059	0,029
-203,621	-167,414	-0,078	-0,002
-202,606	-46,431	0,041	0,014
-201,592	97,274	-0,081	-0,067
-200,577	27,168	0,050	-0,030
-199,563	-200,000	-0,002	-0,153
-198,548	800,000	-0,012	0,039
-197,533	113,188	-0,041	-0,036
-196,519	32,263	-0,033	0,020
-195,504	-6,494	-0,075	-0,037
-194,490	-200,000	0,056	-0,204
-193,475	122,427	0,058	-0,053
-192,460	-200,000	0,009	-0,112
-191,446	-116,904	0,127	-0,017
-190,431	800,000	0,087	0,262
-189,417	334,019	0,046	-0,065
-188,402	-174,333	-0,045	0,001
-187,387	135,116	-0,048	0,045
-186,373	-83,527	-0,151	0,035
-185,358	-200,000	-0,021	0,118
-184,344	51,365	-0,039	-0,027
-183,329	-140,291	-0,108	-0,008
-182,315	-25,088	-0,029	0,012
-181,300	800,000	0,031	-0,083
-180,285	154,440	-0,082	-0,081
-179,271	-200,000	-0,002	-0,101
-178,256	-69,376	0,032	-0,009
-177,242	-22,191	0,043	0,019
-176,227	163,123	0,104	0,105
-175,212	800,000	0,031	0,099
-174,198	-163,949	-0,028	0,001
-173,183	109,716	-0,089	-0,077
-172,169	800,000	-0,007	-0,017
-171,154	800,000	0,042	-0,106
-170,139	-200,000	0,003	0,108
-169,125	-200,000	0,012	0,071
-168,110	378,181	-0,038	0,057
-167,096	-22,785	-0,012	0,005
-166,081	800,000	0,025	0,067
-165,066	504,793	-0,029	-0,048
-164,052	-149,332	-0,032	0,002
-163,037	-200,000	-0,007	0,231
-162,023	716,926	0,060	0,115
-161,008	3,409	0,089	0,046
-159,993	576,097	0,028	0,049
-158,979	-94,874	-0,039	-0,008
-157,964	-90,385	0,073	-0,015
-156,950	800,000	-0,030	0,065
-155,935	-200,000	0,053	0,172
-154,920	5,795	0,043	-0,023
-153,906	-34,215	0,173	0,068
-152,891	800,000	-0,023	0,047
-151,877	-200,000	-0,012	-0,120
-150,862	291,329	-0,021	-0,027
-149,847	99,796	0,058	0,048
-148,833	-200,000	0,009	0,053
-147,818	-19,550	-0,049	-0,022
-146,804	108,118	-0,067	0,057
-145,789	539,267	-0,034	0,058
-144,775	-200,000	0,017	-0,066
-143,760	103,030	-0,048	-0,041
-142,745	-137,424	0,056	0,004
-141,731	245,600	-0,036	-0,044
-140,716	158,564	0,020	0,020
-139,702	800,000	0,059	0,155
-138,687	17,568	-0,037	-0,021
-137,672	-200,000	0,022	-0,097
-136,658	128,959	-0,041	-0,038
-135,643	-47,701	-0,073	-0,025
-134,629	-127,385	-0,054	0,006
-133,614	-124,407	0,119	-0,013
-132,599	76,784	0,056	0,042
-131,585	368,424	-0,033	0,049
-130,570	-159,793	-0,140	0,005
-129,556	564,086	0,032	-0,056
-128,541	-200,000	0,010	-0,122
-127,526	127,984	-0,064	0,058
-126,512	-20,132	-0,032	-0,014
-125,497	151,622	0,094	-0,093
-124,483	30,747	-0,107	0,066
-123,468	-200,000	-0,016	-0,051
-122,453	606,143	0,069	0,125
-121,439	283,814	0,039	-0,051
-120,424	800,000	-0,027	-0,075
-119,410	-200,000	-0,008	0,121
