DTS Sentinel unit serial number:	SN410029Multiplexer serial number:	ORYXHardware model number:	OX2-SRSoftware version number:	ORYX F/W v4,00 Oryx Data Collector v3.7.2.0data status	okinstallation	B5 Nyhavnadifferential loss correction	single-endedforward channel	channel 2reverse channel	N/Adate	2023/12/14time	02:57:13forward acquisition time	300,00reverse acquisition time	0,00gamma	499,1914k internal	0,3155k external	0,3155temperature offset calibration	1,0000default loss term (dB/km)	0,3820temperature slope calibration	1,0000multiplexer offset coefficient	1,0000multiplexer slope coefficient	1,0000fibre end	0,00T internal ref (°C)	8,37T ext. ref 1 (°C)	-7,98T ext. ref 2 (°C)	-8,04length (m)	temperature (°C)	Stokes	anti-Stokes-744,400	46,757	0,149	0,102
-743,385	-75,846	-0,518	-0,134
-742,371	133,031	0,108	0,103
-741,356	-104,190	-0,326	-0,055
-740,342	157,086	0,088	0,090
-739,327	-98,910	-0,358	-0,066
-738,312	385,130	0,062	0,095
-737,298	79,954	-0,279	-0,221
-736,283	-60,754	0,217	0,067
-735,269	-112,791	-0,314	-0,046
-734,254	-73,833	0,095	-0,025
-733,239	-0,181	-0,567	-0,296
-732,225	-127,609	0,118	-0,012
-731,210	-200,000	0,017	0,087
-730,196	800,000	-0,007	0,019
-729,181	-160,369	-0,023	0,001
-728,167	-113,048	-0,125	-0,018
-727,152	-200,000	0,014	0,107
-726,137	-114,626	-0,073	-0,010
-725,123	800,000	-0,065	-0,134
-724,108	681,774	0,020	-0,038
-723,094	-22,771	-0,105	-0,047
-722,079	-88,063	0,037	0,008
-721,064	-197,640	-0,115	-0,001
-720,050	316,208	-0,037	0,052
-719,035	-1,434	-0,095	0,049
-718,021	-133,724	-0,140	-0,013
-717,006	105,379	0,065	0,057
-715,991	-200,000	-0,009	-0,143
-714,977	-111,485	-0,092	0,014
-713,962	252,249	-0,011	-0,014
-712,948	176,847	-0,015	0,016
-711,933	-200,000	-0,019	-0,105
-710,918	350,636	0,050	0,074
-709,904	-200,000	-0,017	-0,081
-708,889	99,950	0,038	-0,033
-707,875	459,504	-0,046	-0,075
-706,860	-200,000	-0,002	-0,115
-705,845	-200,000	-0,005	-0,073
-704,831	268,815	-0,016	0,020
-703,816	800,000	-0,036	-0,080
-702,802	41,370	0,124	-0,083
-701,787	-200,000	0,012	-0,228
-700,772	353,654	0,052	-0,077
-699,758	348,338	-0,133	-0,193
-698,743	800,000	-0,026	0,079
-697,729	160,115	0,045	-0,047
-696,714	658,622	-0,042	0,080
-695,699	-200,000	-0,014	0,049
-694,685	-200,000	0,003	-0,047
-693,670	96,534	-0,186	-0,157
-692,656	-200,000	0,008	0,033
-691,641	190,440	0,037	-0,041
-690,627	390,289	-0,051	-0,077
-689,612	61,405	-0,091	0,066
-688,597	800,000	0,040	-0,100
-687,583	-200,000	-0,010	-0,137
-686,568	800,000	0,023	-0,064
-685,554	-147,183	-0,115	-0,007
-684,539	-45,715	0,050	0,018
-683,524	-136,010	0,050	-0,004
-682,510	4,452	-0,047	0,025
-681,495	5,999	-0,168	-0,092
-680,481	-60,567	-0,076	-0,024
-679,466	-57,044	-0,092	-0,030
-678,451	-127,700	-0,125	0,013
-677,437	-200,000	0,000	-0,010
-676,422	193,444	0,016	0,018
-675,408	13,327	-0,122	-0,070
-674,393	-68,449	-0,139	-0,039
-673,378	10,771	-0,074	0,042
-672,364	-200,000	0,017	-0,071
-671,349	-130,128	-0,109	0,011
-670,335	-200,000	0,008	-0,088
-669,320	188,976	0,059	-0,065
-668,305	32,160	-0,070	0,044
-667,291	-77,598	-0,094	0,024
-666,276	-200,000	-0,016	0,056
-665,262	6,126	-0,199	-0,108
-664,247	129,467	0,061	-0,057
-663,232	75,284	-0,076	-0,059
-662,218	204,658	0,029	0,034
-661,203	800,000	0,017	-0,047
-660,189	70,516	-0,111	-0,085
-659,174	-197,585	0,044	-0,000
-658,159	242,273	0,077	-0,094
-657,145	74,053	-0,064	0,049
-656,130	272,894	-0,036	-0,047
-655,116	-200,000	0,008	0,072
-654,101	-200,000	0,024	0,089
-653,086	-200,000	0,014	-0,082
-652,072	14,852	0,080	0,046
-651,057	468,649	-0,124	-0,205
-650,043	30,751	0,068	0,043
-649,028	-42,670	-0,089	-0,033
-648,014	-166,028	0,178	-0,005
-646,999	-28,675	-0,119	0,050
-645,984	-200,000	0,006	0,024
-644,970	800,000	-0,047	-0,120
-643,955	328,955	-0,052	-0,073
-642,941	381,748	0,044	0,067
-641,926	111,376	0,065	0,058
-640,911	-79,796	0,079	0,019
-639,897	800,000	0,030	0,062
-638,882	800,000	-0,023	0,073
-637,868	-148,445	-0,114	-0,007
-636,853	-200,000	0,011	-0,227
-635,838	800,000	-0,028	-0,089
-634,824	-15,890	-0,040	0,019
-633,809	-200,000	0,023	0,145
-632,795	-133,134	0,139	0,013
-631,780	346,086	-0,029	-0,043
-630,765	168,110	-0,073	0,077
-629,751	-200,000	-0,029	-0,106
-628,736	-6,604	0,029	0,014
-627,722	273,859	0,039	0,051
-626,707	18,348	-0,126	-0,074
-625,692	-200,000	-0,003	-0,093
-624,678	-71,773	-0,175	-0,047
-623,663	-200,000	-0,013	-0,139
-622,649	120,977	-0,005	-0,005
-621,634	-121,896	-0,067	-0,008
-620,619	171,004	-0,055	0,058
-619,605	800,000	-0,052	-0,114
-618,590	249,769	-0,061	-0,076
-617,576	84,617	0,058	0,047
-616,561	800,000	-0,017	0,044
-615,546	800,000	0,021	0,047
-614,532	42,868	0,024	-0,016
-613,517	305,406	0,084	0,114
-612,503	-200,000	-0,023	-0,139
-611,488	-200,000	-0,020	0,087
-610,474	117,418	0,077	0,069
-609,459	-200,000	-0,000	-0,038
-608,444	-129,589	0,085	0,009
-607,430	450,440	-0,058	-0,094
-606,415	800,000	-0,044	-0,115
-605,401	136,469	0,031	0,030
-604,386	800,000	0,005	0,015
-603,371	-200,000	0,018	0,112
-602,357	131,117	-0,064	-0,060
-601,342	-50,538	0,035	0,012
-600,328	41,782	-0,131	-0,087
-599,313	-17,108	-0,090	-0,042
-598,298	-200,000	0,029	-0,181
-597,284	800,000	-0,075	-0,165
-596,269	-200,000	0,044	0,145
-595,255	-200,000	0,002	0,008
-594,240	-131,024	-0,060	-0,006
-593,225	-70,276	-0,157	-0,043
-592,211	366,715	-0,064	-0,095
-591,196	-17,838	-0,182	0,084
-590,182	-124,866	0,161	0,018
-589,167	12,402	0,026	0,014
-588,152	-99,177	0,134	0,025
-587,138	640,346	-0,030	-0,055
-586,123	363,547	0,028	-0,041
-585,109	-200,000	-0,002	-0,029
-584,094	200,600	0,080	0,091
-583,079	-200,000	-0,003	-0,035
-582,065	36,588	0,162	-0,105
-581,050	5,770	0,041	-0,022
-580,036	-200,000	0,009	-0,104
-579,021	378,670	0,083	-0,126
-578,006	576,997	-0,074	0,134
-576,992	-200,000	-0,011	-0,077
-575,977	-200,000	-0,008	-0,043
-574,963	78,763	0,160	0,125
-573,948	178,619	-0,081	-0,087
-572,934	-200,000	0,012	-0,077
-571,919	223,715	-0,060	0,072
-570,904	-76,535	0,073	0,019
-569,890	-92,080	-0,125	0,026
-568,875	92,385	-0,053	0,044
-567,861	-22,017	0,112	-0,050
-566,846	-200,000	-0,008	-0,033
-565,831	70,112	-0,057	-0,043
-564,817	-154,149	-0,041	-0,002
-563,802	-25,661	-0,095	0,041
-562,788	-175,109	-0,096	-0,002
-561,773	7,332	-0,059	0,032
-560,758	-15,350	-0,021	-0,010
-559,744	38,456	0,062	0,041
-558,729	518,109	0,059	0,102
-557,715	800,000	0,040	0,086
-556,700	-200,000	0,023	-0,089
-555,685	177,172	-0,043	-0,046
-554,671	-200,000	0,008	-0,072
-553,656	384,851	0,108	-0,164
-552,642	62,760	0,053	0,039
-551,627	-181,960	0,181	-0,002
-550,612	341,416	-0,076	-0,109
-549,598	49,336	0,077	-0,053
-548,583	510,680	-0,025	-0,043
-547,569	130,938	0,055	-0,051
-546,554	-200,000	-0,018	-0,062
-545,539	-200,000	0,038	0,221
-544,525	71,310	-0,082	0,063
-543,510	-200,000	0,034	0,147
-542,496	800,000	0,024	0,051
-541,481	663,940	0,049	-0,093
-540,466	800,000	-0,034	-0,076
-539,452	-44,374	0,023	0,009
-538,437	-200,000	-0,020	0,119
-537,423	-133,112	0,089	0,008
-536,408	-200,000	-0,001	0,070
-535,393	-126,082	-0,184	-0,020
-534,379	-200,000	-0,014	0,085
-533,364	800,000	-0,017	0,055
-532,350	-200,000	0,005	0,086
-531,335	-200,000	0,021	-0,079
-530,321	61,174	0,147	0,106
-529,306	-137,642	0,103	0,008
-528,291	-51,498	-0,154	-0,052
-527,277	-82,249	0,092	0,022
-526,262	800,000	0,021	0,046
-525,248	-36,528	-0,069	0,027
-524,233	-200,000	0,020	0,145
-523,218	522,305	0,043	0,075
-522,204	693,052	-0,032	0,061
-521,189	800,000	0,041	0,114
-520,175	-200,000	-0,010	-0,159
-519,160	-79,041	-0,090	0,022
-518,145	11,124	-0,117	-0,065
-517,131	156,053	-0,060	-0,060
-516,116	800,000	0,047	0,097
-515,102	-200,000	0,026	0,105
-514,087	-200,000	-0,028	-0,107
-513,072	62,800	0,143	-0,104
-512,058	-29,369	-0,091	0,038
-511,043	-200,000	0,001	-0,021
-510,029	-35,942	0,149	0,058
-509,014	-164,741	0,096	-0,003
-507,999	-148,219	-0,237	0,014
-506,985	800,000	-0,048	-0,109
-505,970	548,534	-0,034	0,060
-504,956	-92,938	0,132	-0,027
-503,941	800,000	0,008	0,020
-502,926	800,000	0,016	0,042
-501,912	800,000	0,015	0,041
-500,897	-120,467	-0,136	0,017
-499,883	-67,862	-0,106	0,030
-498,868	-114,545	-0,034	0,005
-497,853	-31,912	-0,058	0,023
-496,839	199,807	0,027	-0,030
-495,824	315,808	-0,024	-0,034
-494,810	99,271	0,170	0,144
-493,795	68,932	-0,086	-0,064
-492,781	-119,042	-0,315	-0,040
-491,766	-200,000	0,045	-0,205
-490,751	-7,998	-0,161	-0,079
-489,737	583,971	0,050	0,090
-488,722	166,885	-0,106	0,110
-487,708	-13,649	0,136	0,064
-486,693	-120,556	-0,055	-0,007
-485,678	-71,153	0,155	-0,042
-484,664	-200,000	0,004	0,028
-483,649	800,000	0,045	-0,118
-482,635	-65,690	-0,191	0,056
-481,620	-125,063	-0,048	0,005
-480,605	223,882	0,092	0,108
-479,591	-11,577	0,102	-0,049
-478,576	-18,349	-0,083	-0,038
-477,562	24,513	-0,121	-0,073
-476,547	306,175	0,027	0,037
-475,532	-29,689	0,062	0,026
-474,518	800,000	-0,039	-0,089
-473,503	64,299	0,098	0,072
-472,489	283,810	-0,049	0,064
-471,474	-73,783	0,113	0,030
-470,459	661,199	-0,040	-0,075
-469,445	283,166	0,063	0,083
-468,430	800,000	0,070	-0,174
-467,416	-20,878	0,034	0,015
-466,401	-83,319	0,101	-0,024
-465,386	-200,000	-0,026	0,095
-464,372	-12,899	0,066	0,031
-463,357	-152,234	0,069	0,004
-462,343	-171,581	-0,104	-0,002
-461,328	737,417	0,028	0,055
-460,313	98,994	0,045	0,038
-459,299	-200,000	-0,011	0,078
-458,284	-200,000	0,001	0,090
-457,270	-110,060	-0,021	-0,003
-456,255	710,841	-0,032	-0,061
-455,241	741,313	0,061	-0,121
-454,226	174,363	-0,098	0,103
-453,211	171,308	0,102	0,106
-452,197	-200,000	-0,017	-0,179
-451,182	-179,005	0,159	-0,003
-450,168	-200,000	-0,014	-0,244
-449,153	140,568	-0,080	-0,077
-448,138	-200,000	-0,010	0,038
-447,124	-200,000	-0,155	0,000
-446,109	331,055	-0,047	-0,067
-445,095	18,514	0,066	0,039
-444,080	566,276	-0,054	0,095
-443,065	103,268	-0,074	0,064
-442,051	117,387	-0,106	-0,095
-441,036	17,849	0,053	0,030
-440,022	800,000	-0,066	-0,135
-439,007	-200,000	0,015	0,106
-437,992	-200,000	0,002	0,077
-436,978	4,530	-0,075	0,040
-435,963	800,000	0,027	0,082
-434,949	-17,539	-0,056	0,025
-433,934	538,088	-0,079	-0,138
-432,919	-47,410	0,040	-0,014
-431,905	800,000	-0,011	-0,030
-430,890	183,805	-0,027	-0,030
-429,876	389,946	-0,083	0,126
-428,861	-102,032	0,192	0,033
-427,846	-19,190	0,025	-0,011
-426,832	591,977	0,032	-0,058
-425,817	-200,000	0,010	-0,118
-424,803	-200,000	-0,010	-0,106
-423,788	-200,000	0,010	-0,033
-422,773	231,888	0,088	-0,106
-421,759	18,872	0,018	0,010
-420,744	131,989	0,065	-0,061
-419,730	-200,000	-0,036	0,137
-418,715	665,466	-0,039	-0,075
-417,701	-97,636	-0,107	-0,020
-416,686	-99,003	0,017	-0,003
-415,671	611,952	0,042	-0,078
-414,657	237,436	0,082	0,099
-413,642	167,623	-0,043	0,045
-412,628	34,570	0,072	0,045
-411,613	1,715	-0,051	-0,027
-410,598	447,625	-0,034	-0,054
-409,584	-181,770	-0,038	-0,001
-408,569	800,000	0,037	0,090
-407,555	-63,317	-0,086	0,026
-406,540	573,420	0,084	0,150
-405,525	-129,092	-0,133	0,013
-404,511	-30,612	-0,124	-0,051
-403,496	20,833	0,097	0,057
-402,482	8,175	-0,116	0,063
-401,467	14,010	0,070	-0,039
-400,452	91,233	-0,109	0,089
-399,438	135,400	-0,035	-0,033
-398,423	-42,682	-0,096	0,035
-397,409	-5,049	0,058	-0,029
-396,394	800,000	0,039	-0,092
-395,379	21,046	0,092	-0,054
-394,365	637,537	-0,025	0,046
-393,350	-200,000	0,012	-0,054
-392,336	-200,000	-0,023	0,131
-391,321	-171,203	0,111	-0,003
-390,306	-33,401	-0,092	-0,037
-389,292	308,216	0,020	-0,027
-388,277	205,396	0,014	-0,016
-387,263	155,713	-0,036	-0,037
-386,248	-1,549	-0,014	-0,007
-385,233	-108,440	0,022	0,003
-384,219	41,352	-0,047	0,031
-383,204	49,208	0,056	0,038
-382,190	-127,881	0,022	0,002
-381,175	525,249	0,021	-0,037
-380,160	85,275	-0,054	-0,043
-379,146	-18,243	0,033	-0,015
-378,131	-22,794	-0,085	-0,037
-377,117	800,000	-0,019	0,051
-376,102	317,203	-0,023	-0,032
-375,088	39,923	0,069	-0,045
-374,073	-200,000	0,040	-0,157
-373,058	29,503	0,114	0,071
-372,044	312,166	-0,039	0,054
-371,029	-200,000	0,009	-0,051
-370,015	-200,000	-0,005	0,128
-369,000	-200,000	-0,002	0,167
-367,985	-200,000	0,006	-0,024
-366,971	-200,000	-0,001	0,024
-365,956	-200,000	-0,003	-0,087
-364,942	-72,932	0,174	0,046
-363,927	50,622	-0,153	0,105
-362,912	-153,437	0,107	0,005
-361,898	-189,530	0,084	0,001
-360,883	166,196	-0,136	-0,140
-359,869	-200,000	-0,002	0,034
-358,854	-200,000	-0,007	-0,036
-357,839	249,076	0,080	-0,099
-356,825	800,000	0,041	-0,104
-355,810	51,052	-0,077	-0,053
-354,796	-200,000	-0,001	-0,027
-353,781	-0,513	-0,156	-0,080
-352,766	43,109	-0,121	-0,080
-351,752	-200,000	0,038	-0,123
-350,737	-90,576	0,095	-0,020
-349,723	-200,000	0,050	0,249
-348,708	136,322	-0,052	-0,049
-347,693	53,763	0,102	-0,071
-346,679	800,000	0,041	-0,127
-345,664	-200,000	0,005	0,015
-344,650	74,765	0,106	-0,081
-343,635	134,642	0,055	-0,052
-342,620	-200,000	-0,002	0,021
-341,606	-160,533	0,052	0,002
-340,591	-96,271	-0,011	-0,002
-339,577	268,575	-0,071	-0,090
-338,562	-33,881	0,106	0,042
-337,548	-200,000	-0,021	0,091
-336,533	4,839	-0,058	0,031
-335,518	-200,000	0,005	0,124
-334,504	206,626	0,078	0,088
-333,489	209,910	-0,085	0,097
-332,475	800,000	-0,071	0,156
-331,460	-200,000	0,000	0,014
-330,445	800,000	-0,020	-0,058
-329,431	-200,000	-0,016	-0,221
-328,416	290,656	0,119	0,158
-327,402	-200,000	0,006	0,055
-326,387	-69,112	-0,066	0,018
-325,372	-200,000	0,010	0,084
-324,358	279,930	0,019	-0,025
-323,343	1,449	0,048	0,025
-322,329	-104,642	0,099	-0,016
-321,314	-65,949	0,170	-0,049
-320,299	-170,466	0,062	0,002
-319,285	-200,000	0,014	0,155
-318,270	150,949	-0,039	0,038
-317,256	193,961	0,040	0,044
-316,241	-198,598	-0,060	0,000
-315,226	800,000	0,014	0,041
-314,212	-142,438	0,126	0,009
-313,197	30,366	-0,140	0,086
-312,183	566,406	-0,029	0,051
-311,168	63,213	-0,103	-0,075
-310,153	-200,000	-0,001	-0,134
-309,139	71,251	-0,067	-0,050
-308,124	-102,638	0,076	0,013
-307,110	-48,347	0,079	0,028
-306,095	-200,000	-0,023	-0,075
-305,080	-132,732	0,037	0,003
-304,066	-200,000	0,045	0,242
-303,051	92,034	-0,049	0,040
-302,037	193,902	-0,005	-0,006
-301,022	800,000	-0,028	-0,079
-300,008	-102,086	-0,087	0,015
-298,993	73,996	0,051	-0,039
-297,978	268,461	0,067	0,085
-296,964	-108,483	-0,037	0,006
-295,949	-200,000	0,001	0,118
-294,935	130,819	-0,054	-0,050
-293,920	520,185	-0,042	0,072
-292,905	-84,116	-0,078	0,018
-291,891	270,184	-0,052	-0,067
-290,876	-64,356	0,092	0,027
-289,862	-138,627	-0,107	-0,008
-288,847	622,099	0,063	-0,115
-287,832	91,417	0,011	-0,009
-286,818	106,312	-0,008	-0,007
-285,803	-110,668	-0,017	-0,002
-284,789	800,000	0,021	0,051
-283,774	376,444	-0,096	0,142
-282,759	251,163	0,047	0,058
-281,745	392,745	0,067	-0,102
-280,730	-200,000	0,027	-0,096
-279,716	114,896	0,120	-0,106
-278,701	69,683	0,104	-0,078
-277,686	-16,003	0,030	0,014
-276,672	599,131	-0,043	0,077
-275,657	38,837	-0,038	-0,025
-274,643	-200,000	0,005	-0,100
-273,628	389,261	0,026	0,040
-272,613	-60,089	-0,086	-0,026
-271,599	-125,789	-0,070	0,008
-270,584	-162,642	0,113	-0,004
-269,570	-200,000	0,002	0,083
-268,555	800,000	0,050	0,150
-267,540	-149,325	0,103	0,006
-266,526	-200,000	0,003	-0,069
-265,511	-140,905	0,015	0,001
-264,497	-70,867	-0,135	-0,037
-263,482	-200,000	0,039	0,133
-262,467	136,236	0,020	0,019
-261,453	39,234	0,101	0,065
-260,438	706,237	-0,069	-0,133
-259,424	101,164	-0,066	-0,055
-258,409	-200,000	-0,016	-0,169
-257,395	-46,122	-0,038	-0,014
-256,380	-162,290	0,179	-0,006
-255,365	-200,000	-0,016	-0,058
-254,351	770,084	0,053	-0,104
-253,336	-39,585	-0,096	0,036
-252,322	285,752	-0,077	-0,101
-251,307	-200,000	0,002	0,045
-250,292	-135,716	0,113	-0,010
-249,278	32,483	-0,073	-0,045
-248,263	-107,922	-0,099	0,015
-247,249	-27,521	0,117	-0,049
-246,234	-30,351	0,065	0,027
-245,219	-200,000	-0,137	0,000
-244,205	-61,036	0,086	-0,026
-243,190	-200,000	0,003	0,047
-242,176	191,648	0,034	-0,038
-241,161	-41,515	-0,060	0,022
-240,146	-36,580	0,070	0,027
-239,132	-83,090	-0,082	0,019
-238,117	-79,993	-0,083	-0,020
-237,103	213,805	0,076	0,087
-236,088	-150,071	-0,195	-0,011
-235,073	-46,593	0,228	0,080
-234,059	-200,000	-0,005	0,077
-233,044	800,000	0,012	-0,024
-232,030	-31,901	0,027	-0,011
-231,015	790,607	0,028	-0,057
-230,000	51,895	-0,128	-0,088
-228,986	800,000	-0,020	0,060
-227,971	-67,929	0,100	0,028
-226,957	-94,089	-0,104	-0,020
-225,942	254,185	0,023	0,028
-224,927	-200,000	0,007	0,078
-223,913	-200,000	-0,001	0,037
-222,898	333,387	0,042	0,059
-221,884	-50,426	-0,147	0,050
-220,869	-127,327	0,164	0,017
-219,855	558,103	-0,009	0,016
-218,840	138,267	-0,039	0,037
-217,825	104,796	-0,047	-0,040
-216,811	-200,000	-0,032	-0,112
-215,796	394,688	0,082	0,124
-214,782	-34,523	-0,105	0,041
-213,767	-81,942	0,040	-0,009
-212,752	800,000	0,079	0,167
-211,738	648,213	0,063	-0,116
-210,723	27,623	-0,066	0,040
-209,709	800,000	-0,033	0,084
-208,694	134,248	0,016	-0,015
-207,679	776,590	0,059	-0,118
-206,665	-200,000	0,038	-0,174
-205,650	-159,137	0,153	-0,006
-204,636	21,750	-0,113	0,066
-203,621	-138,669	0,134	0,010
-202,606	-5,147	-0,150	0,074
-201,592	800,000	-0,023	-0,054
-200,577	76,015	0,109	-0,083
-199,563	350,334	0,023	-0,032
-198,548	63,154	0,109	0,079
-197,533	72,259	-0,088	-0,066
-196,519	-200,000	-0,027	0,199
-195,504	486,717	-0,075	-0,124
-194,490	800,000	0,011	0,030
-193,475	48,354	-0,040	0,027
-192,460	122,151	0,068	-0,061
-191,446	13,187	-0,027	0,015
-190,431	456,556	0,023	0,037
-189,417	-200,000	-0,024	0,125
-188,402	-100,392	-0,124	-0,022
-187,387	321,588	0,034	-0,047
-186,373	431,564	-0,067	-0,105
-185,358	39,470	-0,155	0,100
-184,344	-200,000	0,017	0,113
-183,329	-8,315	0,048	-0,023
-182,315	413,669	-0,050	-0,076
-181,300	-107,096	0,053	0,008
-180,285	-20,126	0,010	0,005
-179,271	-113,885	0,123	-0,017
-178,256	800,000	-0,006	-0,012
-177,242	-43,346	0,096	0,035
-176,227	31,446	-0,038	-0,023
-175,212	629,074	0,077	0,141
-174,198	800,000	-0,042	0,089
-173,183	37,779	-0,085	-0,055
-172,169	-127,639	-0,144	0,015
-171,154	553,411	-0,036	-0,063
-170,139	88,121	-0,005	-0,004
-169,125	119,024	-0,114	-0,101
-168,110	-145,101	0,069	0,004
-167,096	134,428	-0,091	0,085
-166,081	52,900	0,072	-0,050
-165,066	-89,007	0,020	-0,004
-164,052	339,604	-0,019	0,027
-163,037	349,254	-0,030	0,042
-162,023	-153,842	0,075	-0,004
-161,008	-200,000	0,023	0,095
-159,993	53,358	0,108	0,075
-158,979	-200,000	-0,010	0,061
-157,964	-200,000	0,012	-0,048
-156,950	-73,894	0,117	-0,030
-155,935	47,550	0,086	0,058
-154,920	800,000	0,044	0,092
-153,906	-200,000	0,029	-0,171
-152,891	-52,329	-0,037	0,012
-151,877	-200,000	-0,020	0,080
-150,862	-200,000	-0,007	-0,124
-149,847	-1,441	0,151	-0,076
-148,833	-200,000	-0,014	0,071
-147,818	-200,000	0,003	0,024
-146,804	-86,183	-0,144	0,032
-145,789	800,000	0,060	0,153
-144,775	47,490	-0,078	-0,053
-143,760	124,125	-0,064	-0,058
-142,745	800,000	-0,036	-0,104
-141,731	-124,714	-0,113	-0,013
-140,716	-200,000	0,009	0,094
-139,702	162,258	0,054	-0,055
-138,687	315,404	-0,045	0,061
-137,672	-200,000	-0,007	-0,092
-136,658	-25,837	-0,143	-0,061
-135,643	-7,655	-0,030	-0,015
-134,629	439,929	0,029	0,046
-133,614	-146,271	0,183	0,011
-132,599	313,548	-0,085	-0,116
-131,585	160,904	0,100	-0,101
-130,570	-14,528	0,107	0,049
-129,556	800,000	0,027	-0,058
-128,541	-95,570	0,075	-0,014
-127,526	32,118	0,026	-0,016
-126,512	269,039	-0,040	0,050
-125,497	-97,142	0,137	-0,025
-124,483	800,000	-0,025	-0,057
-123,468	-110,679	-0,066	0,010
-122,453	493,523	0,044	0,074
-121,439	185,035	0,016	-0,017
-120,424	-66,296	0,079	0,023
-119,410	-37,401	-0,072	0,028
