DTS Sentinel unit serial number:	SN410029Multiplexer serial number:	ORYXHardware model number:	OX2-SRSoftware version number:	ORYX F/W v4,00 Oryx Data Collector v3.7.2.0data status	okinstallation	B5 Nyhavnadifferential loss correction	single-endedforward channel	channel 2reverse channel	N/Adate	2023/12/13time	10:32:13forward acquisition time	300,00reverse acquisition time	0,00gamma	499,1914k internal	0,3160k external	0,3160temperature offset calibration	1,0000default loss term (dB/km)	0,3820temperature slope calibration	1,0000multiplexer offset coefficient	1,0000multiplexer slope coefficient	1,0000fibre end	0,00T internal ref (°C)	13,64T ext. ref 1 (°C)	-2,69T ext. ref 2 (°C)	-2,98length (m)	temperature (°C)	Stokes	anti-Stokes-744,400	-100,105	0,095	0,017
-743,385	-148,017	-0,312	0,019
-742,371	206,030	0,094	0,108
-741,356	-45,289	-0,294	-0,107
-740,342	85,201	0,097	0,078
-739,327	-64,047	-0,240	0,072
-738,312	800,000	0,022	-0,044
-737,298	-98,392	-0,270	-0,050
-736,283	-200,000	0,001	0,064
-735,269	-93,289	-0,238	-0,048
-734,254	-23,949	0,059	-0,026
-733,239	-120,522	-0,507	-0,063
-732,225	-40,880	0,270	0,102
-731,210	-106,837	-0,086	0,014
-730,196	-25,292	-0,091	0,040
-729,181	-81,682	-0,136	0,033
-728,167	359,894	0,048	-0,071
-727,152	178,938	0,088	-0,095
-726,137	-200,000	0,018	0,131
-725,123	143,604	-0,066	0,065
-724,108	-15,482	-0,073	-0,034
-723,094	800,000	-0,016	0,037
-722,079	53,105	-0,117	-0,082
-721,064	213,579	-0,136	-0,159
-720,050	425,718	-0,015	0,025
-719,035	-170,799	-0,104	0,003
-718,021	-102,703	0,056	-0,010
-717,006	-74,929	-0,171	-0,045
-715,991	800,000	0,024	0,056
-714,977	-200,000	0,003	-0,031
-713,962	288,712	-0,020	-0,026
-712,948	1,428	-0,105	0,055
-711,933	-90,405	-0,051	0,011
-710,918	800,000	0,010	-0,022
-709,904	30,028	0,035	0,022
-708,889	23,539	-0,020	-0,012
-707,875	-200,000	0,012	0,105
-706,860	-25,500	-0,033	0,014
-705,845	-139,891	0,172	0,013
-704,831	515,296	-0,036	-0,062
-703,816	800,000	-0,028	0,062
-702,802	54,275	-0,070	-0,050
-701,787	-200,000	0,013	0,123
-700,772	36,471	-0,067	-0,043
-699,758	-200,000	0,007	0,036
-698,743	183,788	-0,130	0,142
-697,729	800,000	-0,014	0,036
-696,714	800,000	-0,041	0,134
-695,699	57,837	-0,132	0,095
-694,685	357,422	0,046	-0,068
-693,670	-200,000	-0,005	-0,058
-692,656	145,605	-0,019	0,018
-691,641	776,241	-0,084	-0,170
-690,627	-200,000	0,007	-0,025
-689,612	192,286	-0,095	-0,106
-688,597	-100,213	-0,014	0,002
-687,583	227,698	-0,059	0,071
-686,568	-158,624	-0,013	0,001
-685,554	-200,000	-0,017	-0,061
-684,539	-135,318	0,034	-0,003
-683,524	-200,000	-0,006	0,055
-682,510	-200,000	-0,014	-0,110
-681,495	-200,000	-0,025	0,116
-680,481	47,405	-0,116	0,079
-679,466	800,000	-0,043	-0,116
-678,451	199,943	-0,124	-0,140
-677,437	6,839	0,066	-0,036
-676,422	-200,000	0,012	-0,121
-675,408	-154,704	0,078	-0,004
-674,393	255,381	-0,060	0,076
-673,378	84,828	0,135	0,109
-672,364	-81,876	-0,113	0,027
-671,349	-200,000	0,000	-0,020
-670,335	212,209	-0,049	-0,056
-669,320	-200,000	-0,035	0,131
-668,305	9,600	0,122	0,068
-667,291	-200,000	-0,017	0,083
-666,276	4,104	-0,169	0,091
-665,262	800,000	-0,065	-0,167
-664,247	800,000	-0,053	0,138
-663,232	285,851	0,042	0,055
-662,218	-64,184	0,130	-0,039
-661,203	-200,000	-0,007	0,105
-660,189	-62,347	-0,102	0,031
-659,174	-200,000	-0,014	-0,153
-658,159	59,261	-0,167	-0,121
-657,145	486,204	0,042	-0,071
-656,130	82,695	-0,099	0,079
-655,116	126,781	0,111	0,103
-654,101	11,834	-0,152	0,085
-653,086	-82,700	-0,153	0,036
-652,072	166,112	-0,109	-0,114
-651,057	5,774	-0,124	0,067
-650,043	800,000	-0,026	-0,066
-649,028	800,000	-0,049	-0,127
-648,014	-80,063	0,099	0,024
-646,999	-153,402	0,055	-0,003
-645,984	800,000	0,023	-0,062
-644,970	254,750	-0,125	0,157
-643,955	-55,138	0,058	-0,019
-642,941	184,119	-0,102	-0,111
-641,926	-200,000	0,002	0,072
-640,911	257,219	0,037	-0,046
-639,897	-134,209	-0,101	-0,009
-638,882	-149,213	-0,029	-0,002
-637,868	93,898	0,023	-0,019
-636,853	328,745	0,014	-0,019
-635,838	-200,000	0,024	-0,187
-634,824	800,000	-0,039	-0,082
-633,809	-8,491	-0,059	0,029
-632,795	-131,754	0,097	0,009
-631,780	60,404	-0,061	-0,045
-630,765	-70,203	-0,037	0,010
-629,751	-116,204	-0,129	0,017
-628,736	92,413	0,059	0,049
-627,722	-200,000	0,016	-0,097
-626,707	154,308	0,052	0,053
-625,692	800,000	0,027	0,061
-624,678	-200,000	-0,012	0,050
-623,663	-200,000	-0,024	0,109
-622,649	-68,742	-0,148	0,042
-621,634	-200,000	0,009	-0,110
-620,619	35,755	-0,120	-0,077
-619,605	-200,000	-0,020	0,076
-618,590	800,000	0,025	0,077
-617,576	-200,000	0,003	-0,057
-616,561	70,315	0,122	-0,092
-615,546	56,341	0,044	-0,032
-614,532	800,000	-0,064	-0,167
-613,517	38,109	-0,085	-0,056
-612,503	89,026	0,059	0,048
-611,488	-200,000	0,004	0,027
-610,474	119,278	0,111	0,100
-609,459	211,535	-0,065	-0,075
-608,444	674,470	-0,044	-0,084
-607,430	-200,000	0,008	-0,110
-606,415	-32,018	-0,078	0,032
-605,401	195,214	0,084	-0,093
-604,386	-43,831	0,191	-0,070
-603,371	74,207	-0,015	-0,012
-602,357	67,649	0,140	-0,104
-601,342	-51,557	-0,038	-0,013
-600,328	13,597	-0,067	-0,038
-599,313	-200,000	0,010	0,040
-598,298	-10,904	-0,078	-0,038
-597,284	-25,590	0,017	0,007
-596,269	-122,708	0,036	0,004
-595,255	-158,270	-0,110	0,005
-594,240	-40,670	0,043	0,016
-593,225	-200,000	0,010	-0,086
-592,211	-59,892	-0,142	-0,044
-591,196	800,000	0,025	-0,072
-590,182	800,000	0,047	-0,101
-589,167	146,705	0,032	-0,031
-588,152	-42,916	0,081	0,030
-587,138	543,071	-0,070	0,122
-586,123	176,117	-0,109	-0,116
-585,109	800,000	-0,051	0,132
-584,094	-93,283	-0,122	0,025
-583,079	-200,000	-0,002	0,067
-582,065	25,418	-0,049	-0,030
-581,050	-43,818	0,110	0,040
-580,036	-15,456	-0,115	-0,054
-579,021	38,377	0,041	-0,027
-578,006	-200,000	-0,025	0,110
-576,992	571,952	0,062	-0,111
-575,977	-200,000	0,024	0,085
-574,963	-149,903	-0,090	-0,005
-573,948	-114,619	0,129	-0,018
-572,934	268,205	-0,070	-0,090
-571,919	27,117	0,089	-0,054
-570,904	557,072	0,023	0,041
-569,890	-16,654	-0,071	-0,033
-568,875	-173,710	0,127	-0,003
-567,861	-200,000	-0,002	-0,059
-566,846	-200,000	-0,016	0,117
-565,831	-200,000	0,002	0,022
-564,817	-200,000	0,010	0,119
-563,802	-27,331	-0,118	0,050
-562,788	-200,000	0,004	-0,095
-561,773	-118,228	-0,053	0,007
-560,758	539,130	-0,069	0,121
-559,744	115,961	0,056	0,050
-558,729	-73,739	-0,101	-0,027
-557,715	-61,666	-0,045	0,014
-556,700	800,000	-0,027	-0,074
-555,685	117,083	-0,076	-0,068
-554,671	206,681	0,033	-0,037
-553,656	-117,963	0,089	-0,012
-552,642	315,406	-0,036	0,050
-551,627	-200,000	0,001	-0,010
-550,612	587,276	0,058	0,106
-549,598	-200,000	0,024	-0,087
-548,583	678,304	-0,049	-0,093
-547,569	81,743	-0,067	0,053
-546,554	484,478	-0,029	0,048
-545,539	371,140	0,086	0,127
-544,525	-52,933	-0,031	-0,010
-543,510	-38,321	0,122	0,047
-542,496	138,246	-0,067	0,065
-541,481	-6,078	-0,100	0,050
-540,466	800,000	0,037	-0,088
-539,452	517,532	0,018	-0,032
-538,437	259,668	0,105	0,133
-537,423	-200,000	0,011	-0,089
-536,408	800,000	0,007	0,015
-535,393	-1,878	0,044	-0,023
-534,379	-40,974	-0,049	0,019
-533,364	218,568	-0,034	-0,039
-532,350	-12,203	0,069	-0,033
-531,335	-19,665	0,095	-0,043
-530,321	-73,548	0,117	0,031
-529,306	-158,252	-0,179	-0,008
-528,291	93,163	-0,068	-0,056
-527,277	800,000	-0,042	-0,122
-526,262	235,934	-0,023	-0,028
-525,248	800,000	-0,020	-0,057
-524,233	-200,000	0,002	-0,042
-523,218	137,905	0,024	0,023
-522,204	492,914	-0,035	-0,058
-521,189	616,114	0,046	0,085
-520,175	-200,000	0,008	-0,052
-519,160	146,056	-0,117	0,115
-518,145	146,329	-0,046	-0,046
-517,131	-48,377	0,145	0,051
-516,116	-200,000	-0,009	-0,086
-515,102	-104,338	0,023	-0,004
-514,087	-200,000	-0,009	-0,198
-513,072	800,000	0,058	-0,142
-512,058	-200,000	-0,002	0,028
-511,043	-10,224	-0,044	-0,021
-510,029	238,567	0,066	0,081
-509,014	440,191	0,036	-0,058
-507,999	800,000	-0,038	0,110
-506,985	1,461	0,162	0,085
-505,970	-2,496	-0,171	0,087
-504,956	33,593	0,127	0,080
-503,941	-200,000	-0,010	0,087
-502,926	231,937	-0,076	-0,091
-501,912	0,302	0,061	-0,032
-500,897	425,229	-0,056	0,088
-499,883	-93,612	0,110	-0,022
-498,868	69,448	0,067	-0,050
-497,853	-200,000	0,000	0,029
-496,839	385,752	0,021	0,031
-495,824	78,453	0,149	0,116
-494,810	149,963	0,071	0,070
-493,795	24,175	0,104	-0,063
-492,781	25,396	0,129	-0,078
-491,766	-200,000	0,004	-0,067
-490,751	-200,000	0,005	0,061
-489,737	-200,000	0,023	-0,116
-488,722	223,186	0,032	-0,038
-487,708	-45,689	0,051	-0,018
-486,693	800,000	-0,001	0,004
-485,678	-179,627	-0,180	0,003
-484,664	-200,000	-0,035	-0,171
-483,649	416,664	-0,044	-0,069
-482,635	800,000	-0,057	0,143
-481,620	307,192	-0,026	0,036
-480,605	192,985	0,074	0,081
-479,591	-200,000	-0,017	0,106
-478,576	230,317	0,037	0,045
-477,562	-200,000	0,017	0,142
-476,547	20,619	0,042	-0,025
-475,532	707,492	-0,038	0,073
-474,518	-185,892	0,087	-0,001
-473,503	-41,183	0,113	0,042
-472,489	-16,353	-0,007	0,003
-471,474	800,000	0,041	0,113
-470,459	800,000	-0,049	0,116
-469,445	-102,536	-0,094	0,016
-468,430	579,146	-0,049	-0,088
-467,416	198,028	-0,067	0,075
-466,401	-82,894	0,106	0,025
-465,386	-24,493	0,091	0,039
-464,372	53,051	0,084	0,058
-463,357	540,422	-0,060	0,105
-462,343	-44,079	-0,097	0,035
-461,328	800,000	-0,057	0,126
-460,313	-8,391	-0,032	0,016
-459,299	-113,511	0,142	0,020
-458,284	-200,000	0,012	0,053
-457,270	-200,000	0,008	0,100
-456,255	362,246	-0,021	0,030
-455,241	19,977	0,011	-0,006
-454,226	-200,000	-0,010	-0,059
-453,211	-127,931	0,123	-0,013
-452,197	-53,994	-0,055	0,018
-451,182	68,549	0,087	0,065
-450,168	-170,627	-0,063	-0,002
-449,153	-200,000	-0,019	0,127
-448,138	182,874	-0,124	-0,134
-447,124	-81,623	-0,131	0,031
-446,109	-105,298	0,054	0,009
-445,095	451,834	0,037	0,059
-444,080	493,821	-0,069	0,115
-443,065	-64,860	0,021	-0,006
-442,051	-19,888	0,052	-0,023
-441,036	120,081	0,042	-0,038
-440,022	345,055	0,063	-0,091
-439,007	38,951	0,099	-0,064
-437,992	800,000	-0,016	0,042
-436,978	350,794	0,004	-0,006
-435,963	-23,736	0,022	0,010
-434,949	47,936	0,004	0,003
-433,934	-98,377	-0,167	-0,031
-432,919	59,940	0,007	-0,005
-431,905	-200,000	0,006	0,031
-430,890	-200,000	-0,009	0,081
-429,876	-200,000	0,025	0,099
-428,861	-86,168	0,228	0,051
-427,846	-3,334	0,094	0,048
-426,832	-62,717	-0,142	0,043
-425,817	-200,000	0,004	0,103
-424,803	-80,177	-0,144	0,035
-423,788	-23,015	0,145	-0,063
-422,773	-200,000	0,014	0,075
-421,759	12,227	0,038	-0,021
-420,744	147,044	-0,085	0,083
-419,730	-200,000	-0,016	-0,178
-418,715	-13,146	-0,020	0,009
-417,701	184,164	-0,028	-0,031
-416,686	-200,000	0,021	0,085
-415,671	-200,000	0,002	-0,040
-414,657	8,829	0,129	0,071
-413,642	80,061	-0,041	0,032
-412,628	-200,000	0,016	0,077
-411,613	156,784	-0,050	-0,050
-410,598	-200,000	-0,017	-0,140
-409,584	132,363	-0,042	0,040
-408,569	-147,849	0,181	-0,011
-407,555	-200,000	0,023	0,156
-406,540	384,363	0,029	-0,044
-405,525	-200,000	0,002	-0,105
-404,511	-25,236	0,092	-0,039
-403,496	578,358	0,025	-0,046
-402,482	-89,719	-0,076	0,016
-401,467	-200,000	-0,052	0,206
-400,452	-200,000	-0,053	0,266
-399,438	547,730	-0,064	0,112
-398,423	-200,000	-0,003	-0,019
-397,409	-200,000	-0,010	-0,144
-396,394	65,039	0,051	0,037
-395,379	-200,000	-0,003	0,046
-394,365	-200,000	0,035	0,171
-393,350	-31,365	0,210	-0,085
-392,336	351,559	0,068	0,099
-391,321	-144,766	-0,029	0,002
-390,306	800,000	0,037	-0,102
-389,292	-121,048	-0,110	-0,013
-388,277	-200,000	-0,002	0,084
-387,263	168,574	0,106	-0,110
-386,248	431,195	0,035	0,055
-385,233	-200,000	-0,010	0,108
-384,219	660,859	0,085	0,161
-383,204	-49,372	-0,123	0,042
-382,190	362,337	-0,042	-0,062
-381,175	-150,888	-0,127	-0,007
-380,160	-1,579	0,066	-0,034
-379,146	-200,000	0,049	0,254
-378,131	-54,363	0,038	-0,013
-377,117	-102,265	0,048	-0,008
-376,102	38,280	-0,085	0,055
-375,088	6,291	-0,090	-0,048
-374,073	-200,000	-0,020	0,073
-373,058	47,078	0,062	0,042
-372,044	44,489	-0,053	0,036
-371,029	800,000	0,060	0,125
-370,015	-200,000	-0,004	0,154
-369,000	-18,504	0,092	0,042
-367,985	-50,643	-0,091	-0,031
-366,971	-17,399	-0,154	-0,070
-365,956	800,000	-0,004	0,010
-364,942	-200,000	0,012	0,063
-363,927	800,000	-0,038	0,092
-362,912	-200,000	0,049	0,227
-361,898	399,087	0,017	0,026
-360,883	-85,598	-0,079	0,018
-359,869	-200,000	-0,034	-0,112
-358,854	-76,146	-0,185	-0,047
-357,839	-200,000	-0,003	0,026
-356,825	396,400	0,008	0,012
-355,810	38,628	0,110	0,071
-354,796	194,613	-0,024	-0,026
-353,781	361,987	-0,049	-0,072
-352,766	-200,000	-0,008	-0,125
-351,752	426,192	-0,031	-0,049
-350,737	-120,439	0,057	0,007
-349,723	70,845	-0,079	0,060
-348,708	-48,343	-0,127	-0,044
-347,693	800,000	0,027	-0,087
-346,679	-82,943	0,115	-0,027
-345,664	-200,000	-0,028	-0,174
-344,650	-200,000	0,025	-0,156
-343,635	-200,000	0,019	-0,124
-342,620	163,947	0,071	0,073
-341,606	800,000	0,070	-0,147
-340,591	-58,987	-0,095	-0,030
-339,577	-200,000	0,018	-0,129
-338,562	-200,000	-0,024	-0,127
-337,548	116,560	-0,054	0,048
-336,533	-200,000	0,019	0,078
-335,518	-200,000	-0,011	-0,086
-334,504	-153,182	0,094	-0,005
-333,489	91,671	-0,057	-0,047
-332,475	-148,361	0,064	-0,004
-331,460	-200,000	0,016	-0,071
-330,445	-51,850	0,147	-0,049
-329,431	566,709	-0,046	-0,081
-328,416	608,829	0,069	0,126
-327,402	-200,000	-0,003	-0,052
-326,387	-200,000	-0,000	0,005
-325,372	-200,000	-0,005	-0,126
-324,358	-100,969	-0,121	-0,021
-323,343	-200,000	0,004	0,053
-322,329	-144,035	0,130	-0,009
-321,314	97,783	0,140	0,117
-320,299	-200,000	-0,030	0,175
-319,285	-200,000	0,012	0,063
-318,270	52,611	0,131	-0,090
-317,256	109,724	-0,118	0,102
-316,241	-200,000	0,009	-0,029
-315,226	109,765	-0,077	0,067
-314,212	-200,000	-0,010	0,053
-313,197	800,000	0,039	0,086
-312,183	-200,000	0,001	-0,083
-311,168	800,000	-0,054	-0,128
-310,153	-80,182	-0,026	0,006
-309,139	-121,131	0,078	0,009
-308,124	737,392	-0,088	0,171
-307,110	-200,000	-0,018	-0,074
-306,095	-156,194	0,122	0,005
-305,080	-16,657	0,035	0,016
-304,066	800,000	0,023	-0,050
-303,051	-71,743	0,153	-0,041
-302,037	-146,383	-0,058	-0,004
-301,022	221,450	0,122	-0,142
-300,008	-200,000	-0,001	0,028
-298,993	-12,901	0,165	0,077
-297,978	-102,342	-0,067	0,012
-296,964	39,018	0,101	-0,065
-295,949	800,000	-0,068	-0,153
-294,935	-72,529	0,063	0,017
-293,920	800,000	-0,043	-0,119
-292,905	118,466	0,022	-0,019
-291,891	800,000	-0,068	0,143
-290,876	-122,680	0,042	-0,005
-289,862	230,950	-0,121	-0,144
-288,847	0,456	-0,084	-0,043
-287,832	339,629	0,036	-0,050
-286,818	-200,000	-0,002	-0,130
-285,803	-200,000	0,032	0,112
-284,789	-200,000	0,015	0,061
-283,774	-81,854	0,049	0,011
-282,759	143,269	-0,045	-0,043
-281,745	-3,298	0,044	0,022
-280,730	-200,000	-0,011	-0,066
-279,716	-20,808	-0,070	-0,031
-278,701	44,903	-0,081	0,054
-277,686	256,333	-0,098	0,122
-276,672	354,913	-0,069	-0,099
-275,657	-44,410	0,113	0,041
-274,643	132,526	-0,070	-0,065
-273,628	-95,546	-0,131	0,025
-272,613	-95,110	-0,082	-0,016
-271,599	156,155	0,096	0,096
-270,584	764,959	-0,015	-0,030
-269,570	782,974	-0,028	0,055
-268,555	247,476	0,056	-0,068
-267,540	-200,000	0,014	-0,114
-266,526	-200,000	-0,014	-0,091
-265,511	-200,000	0,019	-0,110
-264,497	6,196	-0,125	0,067
-263,482	-95,803	-0,090	-0,017
-262,467	8,998	0,093	-0,050
-261,453	571,593	-0,014	0,024
-260,438	693,927	0,032	0,061
-259,424	-200,000	0,005	-0,068
-258,409	441,092	0,025	0,040
-257,395	-56,833	-0,010	0,003
-256,380	-28,244	-0,039	0,016
-255,365	92,076	0,094	-0,076
-254,351	-108,830	-0,057	-0,009
-253,336	10,855	-0,053	-0,029
-252,322	350,622	0,063	-0,090
-251,307	-200,000	0,010	-0,106
-250,292	-88,402	-0,088	-0,019
-249,278	-13,925	0,068	0,032
-248,263	-200,000	0,005	-0,111
-247,249	800,000	0,065	0,150
-246,234	-200,000	0,003	-0,018
-245,219	-98,974	0,034	0,006
-244,205	-24,613	-0,122	-0,052
-243,190	-40,730	-0,025	-0,009
-242,176	177,977	0,023	-0,024
-241,161	-90,363	-0,090	0,019
-240,146	-200,000	0,035	0,115
-239,132	-200,000	0,018	-0,175
-238,117	273,889	-0,025	-0,031
-237,103	-36,962	-0,088	-0,034
-236,088	352,368	0,064	-0,092
-235,073	800,000	0,011	0,026
-234,059	147,650	-0,018	0,018
-233,044	-15,956	-0,044	0,020
-232,030	-64,603	-0,187	-0,055
-231,015	47,938	-0,107	0,072
-230,000	-160,865	-0,136	-0,005
-228,986	800,000	0,026	-0,059
-227,971	-200,000	0,009	0,112
-226,957	800,000	0,034	-0,079
-225,942	-200,000	-0,018	-0,066
-224,927	157,286	-0,107	0,107
-223,913	-200,000	0,009	-0,197
-222,898	-70,524	0,026	0,007
-221,884	800,000	-0,032	0,067
-220,869	-38,213	0,067	-0,025
-219,855	-200,000	-0,039	0,160
-218,840	-105,718	-0,096	-0,015
-217,825	-200,000	-0,007	0,150
-216,811	-200,000	0,016	-0,116
-215,796	58,393	-0,118	-0,083
-214,782	-5,025	-0,132	-0,065
-213,767	-200,000	-0,001	-0,057
-212,752	223,182	-0,063	-0,073
-211,738	-200,000	0,002	0,042
-210,723	20,875	0,110	-0,064
-209,709	-74,432	-0,084	-0,022
-208,694	289,919	-0,086	-0,113
-207,679	-200,000	-0,024	-0,091
-206,665	-43,266	-0,052	0,019
-205,650	122,329	0,098	0,089
-204,636	-200,000	-0,043	-0,154
-203,621	128,262	-0,073	-0,067
-202,606	34,442	-0,059	0,037
-201,592	-80,864	-0,114	-0,027
-200,577	-113,505	0,180	-0,025
-199,563	-188,280	0,059	0,001
-198,548	800,000	0,010	0,022
-197,533	-12,984	-0,023	-0,011
-196,519	722,532	0,023	-0,045
-195,504	74,108	-0,076	-0,057
-194,490	-67,236	-0,055	0,015
-193,475	312,461	0,021	-0,028
-192,460	660,008	0,021	0,039
-191,446	223,874	0,044	-0,051
-190,431	-200,000	0,013	0,055
-189,417	-109,487	0,183	-0,028
-188,402	313,312	0,053	0,072
-187,387	-131,376	-0,028	-0,003
-186,373	185,852	0,050	-0,053
-185,358	-136,316	0,138	-0,011
-184,344	800,000	0,041	0,109
-183,329	47,700	-0,066	0,044
-182,315	-200,000	-0,008	-0,062
-181,300	-200,000	0,019	-0,124
-180,285	94,921	0,048	-0,039
-179,271	51,350	-0,030	0,021
-178,256	-28,393	0,024	0,010
-177,242	164,153	-0,127	-0,129
-176,227	161,579	0,113	0,114
-175,212	1,692	0,206	0,106
-174,198	-28,673	-0,127	-0,052
-173,183	-172,777	-0,133	-0,003
-172,169	-200,000	-0,031	0,105
-171,154	-82,595	-0,053	-0,012
-170,139	-200,000	0,006	0,055
-169,125	452,858	0,067	0,108
-168,110	222,016	-0,053	0,061
-167,096	623,654	-0,027	0,049
-166,081	-65,849	0,076	0,022
-165,066	800,000	-0,039	-0,089
-164,052	309,514	-0,055	0,074
-163,037	-24,858	0,078	0,033
-162,023	27,311	0,043	0,026
-161,008	800,000	0,037	0,095
-159,993	-46,796	0,058	-0,020
-158,979	121,188	-0,085	0,076
-157,964	-200,000	0,003	0,120
-156,950	209,060	0,092	-0,103
-155,935	171,629	0,029	0,030
-154,920	-200,000	-0,007	-0,089
-153,906	226,283	0,065	0,076
-152,891	-172,477	0,049	-0,001
-151,877	66,007	0,030	-0,022
-150,862	162,540	0,094	0,095
-149,847	-86,558	-0,074	-0,016
-148,833	78,608	-0,026	0,020
-147,818	89,284	0,124	0,100
-146,804	163,650	-0,133	0,135
-145,789	692,956	-0,023	0,044
-144,775	-200,000	0,007	0,034
-143,760	90,096	0,089	0,072
-142,745	24,562	-0,064	-0,038
-141,731	11,938	-0,080	0,044
-140,716	800,000	0,020	0,041
-139,702	721,459	-0,040	0,077
-138,687	800,000	0,028	-0,090
-137,672	-33,915	0,133	-0,052
-136,658	-136,293	-0,140	-0,012
-135,643	294,266	0,052	-0,069
-134,629	46,031	-0,117	0,078
-133,614	-200,000	0,004	0,091
-132,599	800,000	0,026	-0,061
-131,585	185,122	-0,133	0,142
-130,570	273,543	0,070	-0,090
-129,556	800,000	0,032	-0,087
-128,541	-5,708	-0,128	-0,063
-127,526	63,260	-0,056	-0,040
-126,512	-200,000	0,014	-0,057
-125,497	54,452	0,049	0,034
-124,483	800,000	-0,025	0,065
-123,468	198,263	0,049	-0,054
-122,453	-200,000	0,043	-0,173
-121,439	-200,000	-0,009	-0,128
-120,424	800,000	0,057	-0,133
-119,410	-50,279	0,111	0,038
