DTS Sentinel unit serial number:	SN410029Multiplexer serial number:	ORYXHardware model number:	OX2-SRSoftware version number:	ORYX F/W v4,00 Oryx Data Collector v3.7.2.0data status	okinstallation	B5 Nyhavnadifferential loss correction	single-endedforward channel	channel 2reverse channel	N/Adate	2023/12/14time	12:52:13forward acquisition time	300,00reverse acquisition time	0,00gamma	499,1914k internal	0,3158k external	0,3158temperature offset calibration	1,0000default loss term (dB/km)	0,3820temperature slope calibration	1,0000multiplexer offset coefficient	1,0000multiplexer slope coefficient	1,0000fibre end	0,00T internal ref (°C)	7,97T ext. ref 1 (°C)	-7,56T ext. ref 2 (°C)	-7,62length (m)	temperature (°C)	Stokes	anti-Stokes-744,400	13,549	0,169	0,096
-743,385	-12,136	-0,230	0,110
-742,371	44,120	0,208	0,140
-741,356	-106,831	-0,350	-0,057
-740,342	-35,536	0,151	0,060
-739,327	-90,294	-0,368	-0,078
-738,312	74,743	0,198	0,154
-737,298	-84,255	-0,433	-0,100
-736,283	-8,186	0,209	-0,103
-735,269	-108,190	-0,390	0,062
-734,254	139,675	0,171	0,166
-733,239	37,628	-0,541	-0,353
-732,225	-159,177	0,172	-0,007
-731,210	-200,000	0,008	0,054
-730,196	-114,049	0,009	-0,001
-729,181	613,731	0,014	0,026
-728,167	8,653	-0,120	-0,066
-727,152	800,000	-0,058	-0,152
-726,137	-52,203	-0,056	0,019
-725,123	326,140	-0,165	-0,233
-724,108	147,187	-0,112	-0,111
-723,094	777,365	-0,052	-0,106
-722,079	25,278	-0,085	-0,052
-721,064	-200,000	0,019	-0,223
-720,050	-107,475	-0,076	0,012
-719,035	-68,905	-0,098	0,028
-718,021	800,000	-0,020	0,061
-717,006	-200,000	-0,020	-0,101
-715,991	-91,512	-0,123	0,026
-714,977	355,564	-0,023	-0,034
-713,962	-200,000	-0,012	0,039
-712,948	517,955	-0,056	0,097
-711,933	-84,865	0,053	0,012
-710,918	694,745	0,062	0,121
-709,904	18,767	-0,065	-0,038
-708,889	366,835	0,075	-0,111
-707,875	410,921	-0,085	-0,134
-706,860	38,822	-0,025	-0,016
-705,845	-114,230	-0,077	-0,011
-704,831	-200,000	0,003	0,118
-703,816	-82,019	0,202	0,048
-702,802	138,168	-0,052	-0,050
-701,787	-89,662	-0,057	0,012
-700,772	-200,000	-0,003	0,149
-699,758	-88,509	-0,073	-0,016
-698,743	-56,339	0,045	0,014
-697,729	-137,582	-0,028	-0,002
-696,714	800,000	0,022	-0,047
-695,699	-200,000	0,033	-0,110
-694,685	173,504	-0,040	-0,043
-693,670	467,992	0,039	-0,064
-692,656	723,318	0,034	-0,068
-691,641	626,500	-0,028	0,052
-690,627	137,685	0,103	0,099
-689,612	-112,473	0,074	-0,011
-688,597	-42,575	0,095	-0,036
-687,583	-50,423	-0,145	-0,050
-686,568	-200,000	0,002	-0,100
-685,554	-18,523	0,085	0,039
-684,539	-59,554	0,115	0,036
-683,524	-200,000	-0,003	0,035
-682,510	-200,000	0,016	-0,121
-681,495	-200,000	-0,037	-0,155
-680,481	-64,008	-0,086	0,026
-679,466	101,790	-0,032	-0,028
-678,451	352,637	-0,015	0,022
-677,437	-173,662	-0,101	0,002
-676,422	800,000	-0,024	0,064
-675,408	188,978	-0,084	0,093
-674,393	161,663	-0,045	0,046
-673,378	-126,102	0,067	0,007
-672,364	800,000	0,036	-0,092
-671,349	34,912	-0,077	-0,050
-670,335	-97,909	-0,083	-0,016
-669,320	163,588	0,106	0,110
-668,305	-200,000	-0,003	0,179
-667,291	179,006	-0,034	-0,036
-666,276	-53,249	-0,049	0,016
-665,262	67,984	-0,112	-0,084
-664,247	-6,587	-0,112	0,056
-663,232	55,702	0,126	0,090
-662,218	-168,378	0,094	0,003
-661,203	110,920	0,032	0,028
-660,189	-200,000	0,018	0,124
-659,174	12,295	0,067	-0,038
-658,159	800,000	-0,040	-0,083
-657,145	800,000	-0,041	-0,132
-656,130	98,069	-0,095	-0,080
-655,116	800,000	0,022	-0,057
-654,101	268,980	0,095	0,123
-653,086	640,288	-0,026	0,049
-652,072	-30,164	-0,131	-0,055
-651,057	75,570	-0,108	-0,083
-650,043	-200,000	-0,005	-0,025
-649,028	-200,000	-0,006	-0,158
-648,014	-200,000	0,010	0,103
-646,999	-200,000	0,020	0,137
-645,984	7,578	-0,074	-0,040
-644,970	-42,595	0,011	-0,004
-643,955	210,786	-0,037	-0,043
-642,941	-200,000	-0,056	-0,184
-641,926	-200,000	0,010	0,086
-640,911	-13,783	0,086	-0,041
-639,897	15,814	0,138	-0,079
-638,882	484,447	0,031	-0,052
-637,868	-29,599	-0,039	-0,016
-636,853	-9,019	-0,101	0,050
-635,838	44,242	0,081	0,055
-634,824	-50,316	-0,083	0,029
-633,809	-200,000	-0,009	0,072
-632,795	-117,781	0,096	0,013
-631,780	-127,347	-0,044	-0,005
-630,765	272,031	-0,083	-0,108
-629,751	-200,000	-0,003	-0,139
-628,736	-111,987	-0,055	-0,008
-627,722	-200,000	-0,017	-0,069
-626,707	139,371	-0,036	-0,035
-625,692	163,596	-0,066	-0,068
-624,678	279,242	0,110	0,145
-623,663	-200,000	-0,043	-0,166
-622,649	130,442	-0,089	0,084
-621,634	53,512	0,103	-0,073
-620,619	-22,012	0,010	0,005
-619,605	-80,994	0,151	-0,036
-618,590	15,687	-0,034	-0,020
-617,576	5,153	0,161	0,087
-616,561	-119,457	-0,112	0,014
-615,546	576,473	-0,047	-0,085
-614,532	-120,277	-0,168	-0,021
-613,517	-171,731	-0,082	-0,002
-612,503	422,547	-0,042	0,066
-611,488	479,220	0,049	0,082
-610,474	95,871	-0,041	0,034
-609,459	800,000	0,060	0,138
-608,444	-200,000	0,017	-0,186
-607,430	-48,720	-0,146	-0,051
-606,415	-118,666	0,134	-0,017
-605,401	-46,570	-0,145	0,052
-604,386	596,444	0,055	0,100
-603,371	-45,756	-0,146	0,052
-602,357	800,000	-0,059	0,128
-601,342	-125,398	0,098	-0,011
-600,328	-200,000	-0,004	0,060
-599,313	800,000	-0,056	-0,155
-598,298	-200,000	-0,016	-0,068
-597,284	-200,000	0,030	-0,101
-596,269	79,433	0,039	-0,031
-595,255	-200,000	0,001	-0,073
-594,240	-200,000	0,013	-0,053
-593,225	266,638	-0,066	-0,085
-592,211	-200,000	0,007	-0,045
-591,196	228,561	-0,046	-0,055
-590,182	-200,000	-0,007	-0,024
-589,167	-200,000	-0,002	0,085
-588,152	-200,000	-0,002	-0,024
-587,138	352,777	0,051	-0,075
-586,123	48,787	-0,078	-0,053
-585,109	-200,000	0,011	-0,054
-584,094	181,474	0,014	0,015
-583,079	156,321	0,097	0,098
-582,065	459,662	0,050	0,082
-581,050	53,910	0,043	-0,031
-580,036	-103,103	-0,065	-0,011
-579,021	-84,754	-0,121	0,028
-578,006	380,688	-0,002	0,002
-576,992	-99,288	-0,129	0,024
-575,977	322,155	0,051	-0,071
-574,963	181,070	0,088	-0,095
-573,948	148,444	0,028	0,028
-572,934	800,000	0,001	0,003
-571,919	-160,069	0,083	0,003
-570,904	800,000	-0,073	-0,152
-569,890	192,133	-0,045	0,049
-568,875	274,208	-0,078	0,102
-567,861	228,580	0,033	0,040
-566,846	-126,136	0,079	0,009
-565,831	398,011	0,075	0,115
-564,817	-35,050	-0,081	-0,032
-563,802	-200,000	-0,020	-0,072
-562,788	481,663	0,031	-0,052
-561,773	693,271	0,023	0,045
-560,758	361,891	0,072	0,106
-559,744	72,468	0,052	0,040
-558,729	105,819	0,116	-0,101
-557,715	800,000	-0,021	0,051
-556,700	800,000	0,019	-0,042
-555,685	800,000	-0,025	0,061
-554,671	-200,000	0,022	0,187
-553,656	117,333	0,063	-0,057
-552,642	-5,688	-0,110	0,055
-551,627	-56,863	-0,127	0,041
-550,612	354,472	-0,059	-0,087
-549,598	-200,000	-0,017	0,065
-548,583	130,747	0,029	-0,027
-547,569	629,407	0,023	-0,043
-546,554	-200,000	-0,022	0,091
-545,539	-162,440	0,091	0,003
-544,525	800,000	-0,013	-0,029
-543,510	-200,000	-0,014	-0,049
-542,496	262,447	-0,063	-0,081
-541,481	-53,353	-0,129	0,043
-540,466	255,649	-0,033	-0,042
-539,452	800,000	-0,039	0,108
-538,437	199,392	0,156	0,175
-537,423	-133,564	-0,068	0,006
-536,408	-108,282	-0,068	0,011
-535,393	-105,353	-0,054	-0,009
-534,379	341,911	-0,065	-0,094
-533,364	361,188	-0,096	-0,142
-532,350	-21,696	0,088	0,039
-531,335	800,000	0,019	-0,041
-530,321	-17,464	-0,133	-0,061
-529,306	359,951	0,096	-0,141
-528,291	493,325	-0,035	-0,060
-527,277	790,018	-0,043	-0,087
-526,262	232,809	-0,016	-0,019
-525,248	-120,331	0,057	-0,007
-524,233	69,310	0,059	0,044
-523,218	-12,594	0,112	0,053
-522,204	-152,314	-0,048	-0,002
-521,189	-200,000	-0,023	-0,124
-520,175	157,731	-0,119	-0,120
-519,160	26,002	-0,022	0,013
-518,145	301,688	0,090	-0,122
-517,131	-123,439	0,116	0,013
-516,116	-121,129	0,090	0,011
-515,102	-200,000	0,012	-0,197
-514,087	387,914	-0,064	-0,098
-513,072	101,357	-0,024	-0,021
-512,058	-74,216	0,073	-0,019
-511,043	-155,099	-0,147	0,007
-510,029	-37,636	0,044	0,017
-509,014	-52,507	-0,127	-0,043
-507,999	100,139	0,076	0,064
-506,985	-83,295	-0,030	0,007
-505,970	165,796	-0,146	-0,151
-504,956	-200,000	0,020	-0,108
-503,941	-17,631	0,080	0,037
-502,926	-49,423	0,015	0,005
-501,912	-200,000	0,022	0,091
-500,897	132,200	-0,081	0,076
-499,883	307,686	0,041	0,056
-498,868	7,555	-0,028	0,015
-497,853	305,585	-0,123	0,167
-496,839	-86,524	0,036	0,008
-495,824	-200,000	0,008	0,000
-494,810	-23,221	-0,065	0,028
-493,795	-38,377	0,054	0,021
-492,781	-200,000	0,006	-0,104
-491,766	248,961	-0,042	-0,052
-490,751	-23,874	0,041	-0,018
-489,737	77,878	0,107	-0,083
-488,722	-200,000	0,007	0,090
-487,708	29,030	-0,051	0,031
-486,693	800,000	0,050	-0,106
-485,678	129,055	0,046	0,043
-484,664	210,215	0,045	-0,052
-483,649	12,356	0,025	0,014
-482,635	-198,412	0,079	-0,000
-481,620	800,000	-0,031	0,073
-480,605	-93,586	0,175	-0,035
-479,591	-117,584	0,084	-0,011
-478,576	478,222	-0,056	-0,092
-477,562	-200,000	-0,004	-0,083
-476,547	-20,605	-0,062	-0,028
-475,532	55,521	-0,110	0,077
-474,518	-120,516	0,195	-0,024
-473,503	-200,000	0,004	-0,015
-472,489	88,987	0,042	0,034
-471,474	800,000	0,062	0,154
-470,459	213,384	-0,103	-0,119
-469,445	800,000	0,045	0,126
-468,430	62,592	-0,073	-0,053
-467,416	68,905	0,108	-0,081
-466,401	404,157	0,112	0,172
-465,386	-73,051	-0,107	-0,028
-464,372	203,113	-0,032	-0,036
-463,357	65,659	-0,083	0,061
-462,343	800,000	-0,021	-0,048
-461,328	218,815	0,089	-0,104
-460,313	-172,927	-0,054	0,001
-459,299	181,338	0,040	-0,043
-458,284	-93,336	0,093	-0,019
-457,270	-74,065	-0,018	-0,005
-456,255	-119,634	0,013	0,002
-455,241	238,732	-0,018	-0,022
-454,226	63,448	-0,035	-0,025
-453,211	90,917	0,014	-0,011
-452,197	-200,000	0,017	0,159
-451,182	-187,112	-0,089	0,001
-450,168	45,643	-0,040	-0,027
-449,153	123,709	0,083	0,076
-448,138	-200,000	-0,045	-0,172
-447,124	104,045	-0,089	0,076
-446,109	-200,000	0,019	-0,095
-445,095	-158,923	-0,148	-0,006
-444,080	-62,505	0,188	0,056
-443,065	110,301	0,144	0,126
-442,051	587,864	0,055	-0,100
-441,036	-95,471	0,091	0,018
-440,022	-200,000	-0,019	-0,111
-439,007	-18,131	0,136	-0,062
-437,992	-40,179	0,084	0,032
-436,978	209,062	0,040	0,046
-435,963	-59,165	0,136	0,043
-434,949	-200,000	-0,000	-0,048
-433,934	504,754	-0,016	0,027
-432,919	-200,000	0,021	-0,205
-431,905	14,409	-0,192	-0,109
-430,890	800,000	0,016	0,050
-429,876	284,725	0,078	0,103
-428,861	-200,000	0,036	0,215
-427,846	-200,000	-0,026	0,213
-426,832	-65,186	-0,104	-0,030
-425,817	-8,414	0,177	-0,086
-424,803	-195,925	-0,107	-0,001
-423,788	-125,342	0,127	0,014
-422,773	-200,000	0,018	0,058
-421,759	800,000	0,061	0,130
-420,744	202,354	0,050	0,056
-419,730	-6,532	0,055	-0,027
-418,715	295,711	0,049	0,065
-417,701	456,516	0,062	-0,101
-416,686	-117,600	-0,070	0,009
-415,671	304,947	-0,052	-0,071
-414,657	800,000	0,061	-0,140
-413,642	800,000	-0,016	-0,044
-412,628	7,168	-0,106	-0,057
-411,613	-200,000	0,001	0,040
-410,598	-7,001	0,090	-0,044
-409,584	90,287	-0,092	0,075
-408,569	319,871	0,067	-0,092
-407,555	429,138	-0,104	0,164
-406,540	-126,517	0,127	0,014
-405,525	-102,918	0,069	-0,012
-404,511	-92,015	-0,134	0,027
-403,496	-106,473	-0,052	0,008
-402,482	-200,000	0,002	0,166
-401,467	-40,987	0,051	-0,019
-400,452	-200,000	-0,014	0,068
-399,438	53,047	0,063	0,044
-398,423	19,973	0,102	0,060
-397,409	57,359	-0,063	-0,045
-396,394	800,000	-0,110	-0,226
-395,379	584,026	0,063	0,113
-394,365	310,897	-0,002	0,003
-393,350	83,305	0,068	0,054
-392,336	-200,000	-0,019	0,075
-391,321	-89,707	-0,016	-0,003
-390,306	275,086	0,039	0,051
-389,292	-73,491	0,039	0,010
-388,277	510,866	-0,073	-0,124
-387,263	207,104	0,124	0,141
-386,248	-98,443	-0,076	0,014
-385,233	-200,000	0,020	-0,077
-384,219	-200,000	0,018	-0,082
-383,204	158,882	0,042	-0,043
-382,190	36,262	0,082	0,052
-381,175	-78,905	-0,208	-0,051
-380,160	-108,459	0,093	0,014
-379,146	107,155	0,074	-0,064
-378,131	800,000	-0,061	0,150
-377,117	-91,065	0,064	0,013
-376,102	729,710	-0,016	-0,030
-375,088	-200,000	-0,015	-0,062
-374,073	46,439	0,105	0,071
-373,058	-81,671	0,083	-0,020
-372,044	179,120	0,114	0,121
-371,029	-33,482	0,041	-0,017
-370,015	-121,661	0,230	0,027
-369,000	-200,000	0,003	-0,083
-367,985	166,127	0,067	-0,069
-366,971	133,867	0,053	-0,049
-365,956	-94,550	-0,135	-0,026
-364,942	77,772	0,047	-0,036
-363,927	35,457	-0,046	-0,030
-362,912	274,821	0,028	-0,036
-361,898	-200,000	0,022	-0,084
-360,883	-200,000	-0,000	0,110
-359,869	-186,150	0,198	-0,002
-358,854	800,000	-0,044	0,105
-357,839	-200,000	0,000	0,140
-356,825	-200,000	-0,004	0,042
-355,810	77,640	-0,029	-0,022
-354,796	-55,397	-0,112	-0,036
-353,781	297,471	-0,064	0,085
-352,766	-200,000	0,000	-0,103
-351,752	190,713	0,020	0,022
-350,737	800,000	-0,028	-0,073
-349,723	-140,697	-0,067	0,005
-348,708	258,461	-0,003	-0,004
-347,693	-31,098	0,125	-0,051
-346,679	-20,596	-0,149	0,066
-345,664	-200,000	-0,021	-0,115
-344,650	-200,000	0,026	0,092
-343,635	-200,000	0,001	0,017
-342,620	381,825	-0,011	-0,017
-341,606	-185,929	-0,133	-0,001
-340,591	800,000	-0,036	0,100
-339,577	668,588	-0,035	-0,066
-338,562	183,077	-0,140	-0,151
-337,548	-69,723	-0,156	-0,043
-336,533	-200,000	-0,011	0,036
-335,518	277,443	-0,030	-0,038
-334,504	-200,000	0,039	-0,165
-333,489	-124,037	0,086	0,010
-332,475	-153,976	-0,069	-0,003
-331,460	800,000	0,016	-0,045
-330,445	101,958	-0,132	-0,112
-329,431	41,636	0,029	0,019
-328,416	50,179	0,081	0,055
-327,402	-24,815	0,156	0,067
-326,387	53,775	-0,098	0,068
-325,372	-77,023	-0,135	-0,034
-324,358	-200,000	0,004	0,033
-323,343	-50,711	-0,162	0,055
-322,329	-200,000	0,012	0,108
-321,314	63,011	0,071	-0,051
-320,299	800,000	0,026	0,073
-319,285	42,968	-0,089	-0,058
-318,270	46,731	0,053	-0,036
-317,256	800,000	-0,052	-0,129
-316,241	-91,558	-0,073	-0,015
-315,226	-200,000	0,000	-0,060
-314,212	658,573	0,052	0,098
-313,197	800,000	0,070	0,210
-312,183	22,520	0,054	0,032
-311,168	-200,000	0,003	0,092
-310,153	-91,053	-0,040	0,008
-309,139	164,607	0,077	0,079
-308,124	688,785	0,050	0,096
-307,110	-200,000	-0,018	-0,092
-306,095	541,301	-0,041	0,071
-305,080	133,636	-0,055	-0,052
-304,066	800,000	0,040	-0,098
-303,051	719,031	0,015	-0,029
-302,037	-28,779	0,016	0,006
-301,022	-96,343	-0,067	-0,013
-300,008	-54,243	-0,024	0,008
-298,993	-135,440	0,111	-0,009
-297,978	-118,301	-0,129	-0,016
-296,964	-71,223	0,039	0,010
-295,949	160,754	-0,058	-0,059
-294,935	-200,000	0,004	-0,082
-293,920	800,000	0,018	-0,054
-292,905	-90,628	0,094	0,019
-291,891	-14,379	0,019	0,009
-290,876	255,173	-0,048	-0,059
-289,862	-180,807	-0,053	0,001
-288,847	282,647	0,082	0,106
-287,832	576,387	-0,043	0,077
-286,818	-39,004	-0,117	-0,044
-285,803	-129,734	0,051	0,005
-284,789	800,000	-0,049	-0,101
-283,774	-49,813	-0,090	0,031
-282,759	-146,489	-0,148	0,009
-281,745	800,000	-0,021	-0,047
-280,730	-200,000	0,006	-0,080
-279,716	-35,640	-0,138	-0,054
-278,701	-200,000	0,016	0,062
-277,686	492,032	-0,030	-0,049
-276,672	-88,339	0,021	-0,005
-275,657	430,751	-0,019	-0,029
-274,643	-200,000	-0,036	-0,164
-273,628	-200,000	-0,002	-0,185
-272,613	14,374	-0,046	0,026
-271,599	-200,000	-0,000	0,025
-270,584	-155,424	0,075	0,003
-269,570	-161,877	0,099	-0,004
-268,555	-55,331	-0,079	-0,026
-267,540	-109,897	0,094	0,014
-266,526	-200,000	-0,005	0,039
-265,511	687,251	0,028	0,054
-264,497	-200,000	0,006	0,026
-263,482	-11,747	-0,113	0,054
-262,467	-28,230	-0,052	0,022
-261,453	604,238	-0,025	0,044
-260,438	211,974	-0,032	-0,037
-259,424	-88,448	0,064	0,014
-258,409	24,341	0,084	-0,050
-257,395	800,000	0,051	0,104
-256,380	-177,048	-0,019	0,000
-255,365	800,000	0,011	-0,028
-254,351	-200,000	-0,002	0,130
-253,336	7,572	0,164	-0,089
-252,322	-121,959	-0,096	-0,011
-251,307	-54,297	0,054	0,018
-250,292	-83,261	0,074	-0,017
-249,278	-21,072	0,091	-0,040
-248,263	1,563	0,125	0,065
-247,249	800,000	0,038	0,106
-246,234	100,478	-0,058	-0,048
-245,219	-200,000	0,001	0,025
-244,205	-91,058	0,082	-0,017
-243,190	-200,000	-0,011	0,052
-242,176	800,000	0,017	0,050
-241,161	800,000	-0,046	0,137
-240,146	26,397	0,050	0,030
-239,132	100,572	-0,196	-0,165
-238,117	-200,000	-0,015	-0,141
-237,103	58,279	0,023	-0,016
-236,088	-200,000	-0,022	0,101
-235,073	71,453	0,069	0,052
-234,059	-200,000	-0,024	0,080
-233,044	800,000	0,018	-0,038
-232,030	459,503	0,040	0,065
-231,015	347,159	0,022	-0,032
-230,000	800,000	-0,037	-0,078
-228,986	274,950	0,057	0,074
-227,971	-135,469	-0,060	-0,005
-226,957	-66,615	-0,050	-0,014
-225,942	132,670	-0,020	0,019
-224,927	251,730	-0,077	0,095
-223,913	-157,396	0,046	0,002
-222,898	484,532	-0,008	-0,013
-221,884	-200,000	-0,016	-0,180
-220,869	420,200	0,017	-0,027
-219,855	-200,000	-0,039	0,196
-218,840	-35,113	0,139	-0,054
-217,825	196,304	0,059	0,065
-216,811	6,681	-0,016	0,009
-215,796	10,383	-0,046	0,025
-214,782	47,288	0,065	0,043
-213,767	-200,000	-0,025	0,091
-212,752	-12,672	0,139	-0,065
-211,738	-200,000	-0,012	0,083
-210,723	-134,121	0,084	0,007
-209,709	-200,000	0,029	-0,127
-208,694	-200,000	-0,037	-0,122
-207,679	205,470	-0,095	-0,107
-206,665	-200,000	-0,005	0,060
-205,650	-200,000	0,058	0,195
-204,636	47,924	-0,077	-0,052
-203,621	-200,000	-0,003	0,119
-202,606	-200,000	0,035	0,155
-201,592	57,463	-0,088	-0,062
-200,577	-132,269	-0,057	-0,005
-199,563	711,156	0,032	-0,061
-198,548	97,488	-0,044	0,036
-197,533	-200,000	0,015	0,123
-196,519	-200,000	0,029	0,164
-195,504	-200,000	-0,004	-0,089
-194,490	-200,000	-0,019	-0,127
-193,475	100,958	-0,096	-0,080
-192,460	800,000	0,030	0,080
-191,446	-127,510	0,142	0,015
-190,431	-200,000	0,017	0,110
-189,417	800,000	0,028	0,082
-188,402	-141,278	0,157	0,011
-187,387	108,739	-0,101	0,087
-186,373	204,672	-0,138	-0,154
-185,358	-200,000	-0,009	-0,148
-184,344	-94,135	-0,024	-0,005
-183,329	-134,817	-0,195	-0,017
-182,315	800,000	-0,065	0,178
-181,300	-200,000	-0,028	0,115
-180,285	-92,885	-0,107	-0,021
-179,271	-200,000	0,010	-0,070
-178,256	-200,000	-0,008	0,031
-177,242	-158,032	0,060	0,002
-176,227	-200,000	-0,022	0,089
-175,212	-200,000	-0,017	0,080
-174,198	742,557	0,097	0,190
-173,183	1,580	0,061	0,032
-172,169	800,000	0,034	-0,085
-171,154	-200,000	0,016	-0,105
-170,139	-200,000	0,014	0,052
-169,125	800,000	-0,024	0,062
-168,110	51,456	-0,102	0,070
-167,096	516,507	0,071	0,120
-166,081	-80,303	-0,110	-0,026
-165,066	-200,000	0,011	0,126
-164,052	495,608	0,040	-0,066
-163,037	144,141	-0,024	-0,024
-162,023	330,214	0,071	0,099
-161,008	-115,250	0,107	0,014
-159,993	128,317	-0,096	-0,088
-158,979	396,211	-0,067	0,101
-157,964	-200,000	-0,088	0,000
-156,950	800,000	0,026	-0,071
-155,935	201,771	-0,045	0,050
-154,920	153,054	0,066	-0,065
-153,906	-200,000	0,015	0,064
-152,891	-36,699	-0,100	0,039
-151,877	-200,000	-0,019	-0,108
-150,862	328,099	-0,124	-0,172
-149,847	132,062	0,019	0,018
-148,833	314,439	0,052	0,070
-147,818	-200,000	0,002	0,119
-146,804	-83,454	0,064	0,015
-145,789	-158,330	0,058	-0,002
-144,775	179,656	-0,059	-0,062
-143,760	201,542	0,059	0,065
-142,745	50,437	0,063	-0,043
-141,731	219,445	0,079	0,091
-140,716	800,000	0,057	0,135
-139,702	48,723	0,046	0,031
-138,687	-200,000	0,002	0,052
-137,672	-200,000	0,012	-0,098
-136,658	-60,306	-0,127	0,039
-135,643	-135,867	0,058	-0,005
-134,629	21,840	0,069	0,040
-133,614	169,573	0,079	0,081
-132,599	380,651	0,124	0,184
-131,585	-91,363	-0,046	-0,009
-130,570	800,000	-0,006	0,016
-129,556	18,705	-0,076	-0,044
-128,541	-37,546	-0,111	0,042
-127,526	-64,755	0,033	-0,009
-126,512	86,568	0,105	0,083
-125,497	-200,000	-0,002	-0,036
-124,483	800,000	-0,027	-0,070
-123,468	145,717	-0,007	-0,007
-122,453	143,544	-0,041	0,039
-121,439	-112,943	-0,097	-0,014
-120,424	-200,000	0,009	0,111
-119,410	27,510	0,068	0,041
