DTS Sentinel unit serial number:	SN410029Multiplexer serial number:	ORYXHardware model number:	OX2-SRSoftware version number:	ORYX F/W v4,00 Oryx Data Collector v3.7.2.0data status	okinstallation	B5 Nyhavnadifferential loss correction	single-endedforward channel	channel 2reverse channel	N/Adate	2023/12/13time	11:22:13forward acquisition time	300,00reverse acquisition time	0,00gamma	499,1914k internal	0,3161k external	0,3161temperature offset calibration	1,0000default loss term (dB/km)	0,3820temperature slope calibration	1,0000multiplexer offset coefficient	1,0000multiplexer slope coefficient	1,0000fibre end	0,00T internal ref (°C)	13,76T ext. ref 1 (°C)	-2,28T ext. ref 2 (°C)	-2,56length (m)	temperature (°C)	Stokes	anti-Stokes-744,400	-17,054	0,027	0,013
-743,385	-163,990	-0,284	0,010
-742,371	800,000	0,088	0,181
-741,356	-143,876	-0,371	0,025
-740,342	718,665	0,096	0,189
-739,327	-130,403	-0,307	0,030
-738,312	-200,000	0,007	0,127
-737,298	-84,217	-0,268	0,062
-736,283	-134,998	0,227	-0,020
-735,269	-116,076	-0,294	0,040
-734,254	222,790	0,006	0,007
-733,239	-39,090	-0,513	-0,198
-732,225	-126,685	0,117	0,013
-731,210	-200,000	-0,023	0,095
-730,196	-200,000	0,028	-0,189
-729,181	-16,513	-0,091	0,042
-728,167	398,365	0,095	-0,146
-727,152	-200,000	0,032	-0,118
-726,137	143,708	-0,031	-0,030
-725,123	-128,682	0,067	0,007
-724,108	165,388	-0,126	0,131
-723,094	281,258	-0,066	-0,087
-722,079	398,818	0,043	0,067
-721,064	-200,000	0,013	0,125
-720,050	705,579	0,032	0,062
-719,035	606,428	-0,019	-0,036
-718,021	-1,685	-0,055	0,028
-717,006	-84,564	-0,058	0,013
-715,991	800,000	0,021	-0,054
-714,977	149,896	0,040	0,040
-713,962	-200,000	-0,025	-0,113
-712,948	-200,000	0,001	-0,083
-711,933	-200,000	-0,026	-0,129
-710,918	800,000	-0,065	-0,152
-709,904	-200,000	0,025	-0,117
-708,889	28,451	-0,191	-0,119
-707,875	-63,403	-0,066	0,020
-706,860	82,006	-0,063	0,050
-705,845	-200,000	0,010	0,178
-704,831	-171,357	0,153	0,004
-703,816	-200,000	0,012	-0,096
-702,802	102,686	-0,088	-0,075
-701,787	-200,000	-0,001	-0,014
-700,772	800,000	-0,067	0,192
-699,758	800,000	-0,048	-0,103
-698,743	-96,240	0,057	0,011
-697,729	-160,798	0,139	-0,005
-696,714	-200,000	0,069	0,265
-695,699	-175,299	-0,071	-0,001
-694,685	20,180	-0,052	0,031
-693,670	-200,000	-0,023	-0,171
-692,656	800,000	-0,054	0,117
-691,641	-60,778	-0,043	-0,013
-690,627	784,299	-0,020	-0,041
-689,612	-41,365	0,034	0,013
-688,597	-1,798	-0,032	0,017
-687,583	-31,347	-0,217	-0,090
-686,568	70,568	-0,110	0,084
-685,554	773,891	-0,018	-0,037
-684,539	-200,000	0,004	0,029
-683,524	-29,359	0,049	-0,021
-682,510	800,000	-0,030	-0,077
-681,495	-146,093	-0,100	0,006
-680,481	-200,000	-0,001	-0,005
-679,466	-76,367	0,057	-0,015
-678,451	800,000	-0,077	0,218
-677,437	800,000	-0,008	-0,021
-676,422	-27,009	0,035	-0,015
-675,408	-61,729	-0,137	-0,042
-674,393	516,962	0,034	-0,059
-673,378	480,236	-0,025	-0,041
-672,364	393,019	-0,020	-0,031
-671,349	391,592	0,016	0,024
-670,335	398,562	-0,036	-0,055
-669,320	-200,000	0,004	0,101
-668,305	-103,611	-0,125	-0,021
-667,291	-178,813	0,093	0,002
-666,276	54,668	-0,107	0,076
-665,262	800,000	-0,050	0,146
-664,247	-200,000	0,035	-0,118
-663,232	37,461	0,057	-0,037
-662,218	-200,000	0,026	0,115
-661,203	-56,618	-0,033	0,011
-660,189	-200,000	0,052	0,180
-659,174	-36,330	-0,090	-0,035
-658,159	800,000	-0,025	0,060
-657,145	292,676	0,022	-0,030
-656,130	538,202	-0,058	0,101
-655,116	279,385	0,090	0,119
-654,101	-200,000	0,006	0,075
-653,086	-200,000	-0,003	-0,058
-652,072	7,751	-0,110	-0,060
-651,057	191,190	-0,091	-0,101
-650,043	-200,000	0,011	0,072
-649,028	-52,592	-0,126	0,043
-648,014	8,455	0,021	-0,012
-646,999	-40,871	-0,103	-0,039
-645,984	108,390	-0,014	0,012
-644,970	146,358	-0,040	-0,039
-643,955	-45,391	-0,101	-0,037
-642,941	-34,814	-0,148	-0,059
-641,926	-182,258	-0,091	0,001
-640,911	530,967	-0,029	0,051
-639,897	-200,000	0,007	0,111
-638,882	800,000	-0,029	-0,081
-637,868	340,446	-0,048	0,069
-636,853	326,941	0,058	-0,082
-635,838	332,866	-0,065	-0,092
-634,824	-112,229	0,093	0,014
-633,809	-200,000	0,008	0,040
-632,795	800,000	0,042	0,101
-631,780	33,754	-0,048	0,030
-630,765	191,117	0,051	-0,056
-629,751	17,586	0,043	0,025
-628,736	39,363	-0,139	-0,091
-627,722	-200,000	-0,029	-0,100
-626,707	25,983	-0,121	-0,074
-625,692	-145,795	0,154	-0,010
-624,678	-200,000	0,004	0,030
-623,663	506,219	-0,039	0,067
-622,649	200,034	-0,091	0,102
-621,634	707,077	0,014	-0,026
-620,619	74,246	0,094	-0,072
-619,605	151,512	0,069	0,069
-618,590	-178,577	-0,104	-0,002
-617,576	308,053	-0,040	-0,055
-616,561	-81,400	-0,093	0,022
-615,546	800,000	0,012	-0,029
-614,532	-126,395	-0,029	0,003
-613,517	14,051	-0,089	0,051
-612,503	-200,000	-0,021	0,114
-611,488	517,261	0,078	-0,135
-610,474	-200,000	0,001	0,103
-609,459	-157,499	-0,153	0,007
-608,444	-200,000	0,020	-0,165
-607,430	-139,666	0,056	-0,004
-606,415	-21,766	-0,101	-0,045
-605,401	-88,290	-0,115	-0,025
-604,386	-125,300	0,112	0,012
-603,371	-98,207	0,111	0,021
-602,357	-200,000	0,015	0,157
-601,342	-152,207	-0,103	-0,005
-600,328	65,458	-0,101	-0,075
-599,313	-200,000	-0,002	0,041
-598,298	-50,415	0,066	-0,023
-597,284	143,705	0,023	-0,023
-596,269	-107,847	0,134	-0,021
-595,255	-200,000	-0,006	-0,101
-594,240	64,102	-0,041	0,030
-593,225	98,782	0,053	-0,045
-592,211	-126,550	-0,080	0,009
-591,196	245,195	-0,064	0,079
-590,182	800,000	0,010	0,025
-589,167	175,209	0,083	0,088
-588,152	-200,000	0,014	0,064
-587,138	5,327	-0,154	-0,083
-586,123	133,097	-0,066	-0,063
-585,109	590,538	0,043	-0,078
-584,094	-105,277	0,061	-0,010
-583,079	-79,258	-0,152	0,037
-582,065	-39,253	0,080	0,031
-581,050	800,000	0,017	0,046
-580,036	2,292	0,063	0,033
-579,021	132,972	0,087	-0,082
-578,006	800,000	-0,047	0,130
-576,992	-200,000	0,017	-0,097
-575,977	130,778	0,047	0,044
-574,963	773,988	-0,017	0,035
-573,948	-103,892	-0,063	0,011
-572,934	-137,548	-0,137	0,011
-571,919	75,409	-0,157	0,121
-570,904	800,000	-0,009	-0,021
-569,890	105,828	0,053	0,046
-568,875	-19,072	0,100	-0,045
-567,861	-56,436	-0,066	-0,021
-566,846	-200,000	-0,016	-0,062
-565,831	-200,000	-0,012	-0,113
-564,817	7,038	-0,072	0,039
-563,802	-200,000	0,039	-0,149
-562,788	-191,861	0,090	-0,001
-561,773	-23,084	-0,050	-0,022
-560,758	800,000	0,003	-0,008
-559,744	-41,795	-0,027	0,010
-558,729	-200,000	0,015	0,049
-557,715	545,619	-0,068	-0,119
-556,700	-28,943	-0,207	-0,086
-555,685	-200,000	-0,003	-0,032
-554,671	26,184	-0,063	0,038
-553,656	61,274	0,014	0,010
-552,642	167,347	0,022	-0,023
-551,627	212,049	0,082	0,094
-550,612	-200,000	-0,009	0,083
-549,598	-200,000	0,031	0,166
-548,583	-50,369	-0,113	-0,039
-547,569	800,000	0,009	0,024
-546,554	-79,936	0,153	0,037
-545,539	772,318	-0,087	0,174
-544,525	216,300	-0,072	0,084
-543,510	-200,000	-0,026	-0,097
-542,496	274,196	-0,039	-0,050
-541,481	255,468	-0,052	-0,066
-540,466	800,000	-0,062	-0,129
-539,452	-8,886	-0,032	0,016
-538,437	230,484	0,026	0,031
-537,423	238,527	-0,089	0,109
-536,408	-40,741	0,078	0,029
-535,393	-200,000	-0,031	0,176
-534,379	534,152	0,013	-0,023
-533,364	-105,121	0,061	0,010
-532,350	722,394	0,055	0,107
-531,335	84,238	-0,091	0,073
-530,321	-117,678	0,135	-0,018
-529,306	-96,152	-0,092	-0,018
-528,291	105,227	0,066	0,057
-527,277	214,093	-0,039	0,045
-526,262	-195,240	0,085	0,000
-525,248	-61,240	0,097	0,030
-524,233	-10,101	0,109	0,053
-523,218	-200,000	0,028	0,143
-522,204	29,384	-0,104	0,065
-521,189	-56,754	-0,118	-0,038
-520,175	-200,000	-0,015	-0,097
-519,160	800,000	0,090	0,203
-518,145	213,540	-0,053	0,061
-517,131	151,782	-0,133	-0,133
-516,116	-132,501	-0,049	-0,005
-515,102	133,568	-0,075	-0,071
-514,087	352,623	-0,086	-0,124
-513,072	163,027	-0,081	-0,083
-512,058	428,444	0,063	-0,099
-511,043	-200,000	-0,002	-0,077
-510,029	261,664	-0,035	-0,045
-509,014	25,304	0,047	0,028
-507,999	800,000	0,040	0,087
-506,985	800,000	0,022	0,065
-505,970	-121,205	-0,069	0,008
-504,956	511,694	-0,053	0,091
-503,941	386,667	0,049	0,074
-502,926	-127,258	0,126	-0,013
-501,912	748,652	0,099	0,195
-500,897	-64,375	0,067	0,020
-499,883	-200,000	-0,030	0,194
-498,868	800,000	-0,031	-0,088
-497,853	-200,000	0,002	-0,055
-496,839	326,141	-0,071	-0,100
-495,824	21,934	0,063	-0,037
-494,810	622,928	-0,044	0,080
-493,795	-120,847	-0,075	0,009
-492,781	773,904	0,066	-0,132
-491,766	-200,000	0,062	-0,213
-490,751	-164,173	-0,046	-0,002
-489,737	800,000	0,020	0,052
-488,722	485,543	0,056	0,093
-487,708	-200,000	0,027	0,146
-486,693	-41,165	0,092	-0,035
-485,678	-25,253	0,116	-0,050
-484,664	432,189	-0,067	-0,106
-483,649	91,358	0,053	0,044
-482,635	-186,519	-0,054	0,001
-481,620	-28,582	0,034	-0,014
-480,605	106,445	-0,104	-0,090
-479,591	-25,050	0,083	0,036
-478,576	-120,096	0,070	0,009
-477,562	309,337	-0,003	-0,004
-476,547	309,173	0,018	-0,024
-475,532	800,000	0,030	-0,064
-474,518	-125,136	0,149	-0,016
-473,503	-133,102	0,097	-0,009
-472,489	49,534	0,056	0,038
-471,474	-55,840	-0,109	-0,035
-470,459	-200,000	-0,004	-0,099
-469,445	43,078	-0,082	-0,054
-468,430	-200,000	-0,021	-0,111
-467,416	41,591	0,095	0,063
-466,401	334,157	0,024	-0,034
-465,386	4,589	0,042	0,022
-464,372	-200,000	0,001	-0,124
-463,357	69,310	-0,080	0,060
-462,343	-108,109	-0,146	-0,023
-461,328	-73,955	-0,077	0,020
-460,313	160,859	0,067	0,068
-459,299	-200,000	-0,045	0,158
-458,284	738,786	0,079	0,155
-457,270	1,910	0,052	-0,027
-456,255	685,115	-0,049	0,093
-455,241	521,662	-0,028	-0,047
-454,226	-33,867	-0,067	0,027
-453,211	138,360	0,083	-0,080
-452,197	-88,118	-0,006	-0,001
-451,182	87,358	-0,100	-0,080
-450,168	513,344	0,030	0,051
-449,153	-200,000	0,017	0,107
-448,138	134,246	0,075	0,071
-447,124	-200,000	-0,027	-0,124
-446,109	53,507	0,066	-0,046
-445,095	-33,970	0,080	-0,032
-444,080	127,533	-0,112	0,104
-443,065	-150,544	0,035	-0,002
-442,051	-200,000	0,008	-0,089
-441,036	-23,383	-0,155	0,067
-440,022	99,972	-0,059	0,050
-439,007	-24,644	0,090	0,039
-437,992	-200,000	-0,014	-0,122
-436,978	-200,000	-0,032	-0,104
-435,963	-200,000	0,002	-0,105
-434,949	171,355	0,002	-0,002
-433,934	800,000	0,010	-0,024
-432,919	-130,748	-0,041	0,004
-431,905	-200,000	-0,002	-0,024
-430,890	67,431	0,064	-0,047
-429,876	222,027	-0,068	-0,079
-428,861	-200,000	-0,005	0,040
-427,846	680,274	-0,081	-0,154
-426,832	117,404	-0,023	-0,020
-425,817	453,154	0,009	0,014
-424,803	136,782	-0,051	-0,048
-423,788	-200,000	0,009	-0,059
-422,773	-200,000	0,026	0,132
-421,759	166,318	0,053	-0,054
-420,744	82,363	-0,092	-0,073
-419,730	-200,000	-0,002	-0,098
-418,715	185,320	-0,012	-0,013
-417,701	2,439	-0,117	0,062
-416,686	-200,000	0,025	0,091
-415,671	-200,000	0,008	0,090
-414,657	-134,727	0,060	0,005
-413,642	355,407	-0,103	0,150
-412,628	78,695	0,053	-0,041
-411,613	185,742	-0,113	0,123
-410,598	171,969	0,066	-0,069
-409,584	-19,746	0,187	0,084
-408,569	-89,148	-0,047	-0,010
-407,555	306,969	0,051	0,069
-406,540	-200,000	-0,002	-0,117
-405,525	800,000	-0,012	0,034
-404,511	-200,000	-0,005	-0,046
-403,496	246,624	-0,023	0,028
-402,482	539,329	0,043	0,074
-401,467	66,101	0,086	0,063
-400,452	65,001	0,075	0,055
-399,438	167,260	0,148	-0,153
-398,423	-200,000	-0,005	-0,031
-397,409	-200,000	0,011	-0,091
-396,394	-39,700	0,091	0,035
-395,379	86,114	0,073	0,058
-394,365	800,000	-0,044	-0,117
-393,350	666,746	0,077	0,146
-392,336	-5,615	0,094	-0,047
-391,321	150,830	0,070	0,070
-390,306	-200,000	0,001	-0,061
-389,292	-166,034	-0,107	-0,003
-388,277	-164,923	0,182	-0,006
-387,263	279,210	0,055	-0,071
-386,248	14,960	0,173	0,098
-385,233	800,000	0,041	0,120
-384,219	202,928	0,035	0,040
-383,204	372,345	-0,074	-0,110
-382,190	-107,668	-0,027	-0,004
-381,175	43,275	0,120	-0,080
-380,160	-200,000	-0,015	0,139
-379,146	250,775	-0,054	0,067
-378,131	-200,000	0,009	0,125
-377,117	-119,443	0,132	-0,016
-376,102	62,147	0,039	0,028
-375,088	-200,000	0,014	-0,087
-374,073	65,045	-0,051	-0,038
-373,058	-200,000	0,153	-0,000
-372,044	-37,605	0,113	-0,044
-371,029	-67,268	-0,097	-0,027
-370,015	-176,934	-0,110	0,002
-369,000	205,723	0,112	0,127
-367,985	72,744	0,077	-0,059
-366,971	130,999	-0,073	0,068
-365,956	-200,000	0,001	0,013
-364,942	-146,365	0,095	0,006
-363,927	108,136	-0,049	0,042
-362,912	-200,000	-0,004	-0,106
-361,898	-109,131	-0,154	-0,024
-360,883	-3,547	0,024	0,012
-359,869	-200,000	-0,003	0,102
-358,854	-163,063	0,097	-0,003
-357,839	-19,757	0,133	0,060
-356,825	-58,382	0,128	-0,040
-355,810	68,895	-0,060	0,045
-354,796	409,551	-0,039	-0,060
-353,781	215,383	0,071	-0,081
-352,766	-152,624	-0,187	0,010
-351,752	313,538	-0,102	-0,139
-350,737	209,365	0,054	0,062
-349,723	-30,648	0,052	0,021
-348,708	658,225	0,017	0,033
-347,693	-67,764	-0,069	-0,019
-346,679	-200,000	-0,044	-0,254
-345,664	-200,000	-0,016	-0,125
-344,650	147,004	-0,037	0,036
-343,635	60,819	0,020	0,014
-342,620	672,922	0,071	0,135
-341,606	-125,042	-0,027	0,003
-340,591	-123,033	0,083	0,010
-339,577	686,668	0,024	-0,046
-338,562	-200,000	-0,011	-0,121
-337,548	-200,000	0,001	0,115
-336,533	800,000	0,045	0,116
-335,518	425,527	0,059	-0,093
-334,504	-34,844	0,116	0,046
-333,489	-26,619	-0,038	0,016
-332,475	61,515	-0,114	0,082
-331,460	37,233	0,060	-0,039
-330,445	800,000	0,011	-0,027
-329,431	488,226	-0,034	-0,056
-328,416	67,163	-0,018	-0,013
-327,402	-113,059	-0,079	0,011
-326,387	-200,000	-0,048	0,170
-325,372	-60,555	-0,151	-0,046
-324,358	800,000	-0,047	0,122
-323,343	43,720	-0,114	-0,076
-322,329	-200,000	-0,001	-0,070
-321,314	-56,629	0,066	0,021
-320,299	-86,742	0,106	-0,023
-319,285	782,963	-0,026	-0,051
-318,270	-200,000	0,008	0,043
-317,256	-11,028	0,040	0,019
-316,241	-200,000	-0,009	-0,113
-315,226	-118,972	-0,113	0,014
-314,212	-39,957	0,136	0,051
-313,197	227,418	0,065	-0,077
-312,183	181,979	-0,039	-0,042
-311,168	-200,000	0,001	0,009
-310,153	251,648	-0,095	-0,117
-309,139	11,310	-0,120	-0,066
-308,124	213,189	0,040	-0,046
-307,110	-157,147	0,065	0,003
-306,095	440,937	0,101	-0,160
-305,080	800,000	0,014	0,029
-304,066	800,000	0,006	-0,013
-303,051	-35,320	-0,054	-0,021
-302,037	91,798	-0,105	-0,085
-301,022	494,263	-0,055	-0,091
-300,008	-200,000	0,010	0,078
-298,993	104,906	0,111	0,095
-297,978	-200,000	-0,032	0,142
-296,964	4,685	-0,132	0,070
-295,949	453,814	-0,052	-0,084
-294,935	19,423	-0,053	0,031
-293,920	800,000	-0,043	-0,094
-292,905	142,099	-0,036	-0,035
-291,891	-70,764	0,049	-0,013
-290,876	40,142	-0,048	-0,031
-289,862	-200,000	-0,018	-0,104
-288,847	507,436	0,056	-0,094
-287,832	-200,000	-0,003	-0,060
-286,818	-157,200	-0,035	-0,001
-285,803	-50,485	0,113	-0,038
-284,789	43,556	0,134	0,088
-283,774	283,223	0,086	0,111
-282,759	-92,024	0,096	0,019
-281,745	-200,000	0,004	-0,089
-280,730	-45,375	-0,082	0,029
-279,716	-200,000	-0,004	-0,060
-278,701	-6,001	0,131	-0,065
-277,686	49,660	0,153	0,104
-276,672	122,277	0,055	-0,050
-275,657	-152,912	0,056	-0,003
-274,643	-69,580	-0,095	-0,026
-273,628	-78,166	0,123	0,030
-272,613	122,477	0,038	-0,035
-271,599	-32,070	-0,080	0,032
-270,584	-191,876	0,129	0,001
-269,570	-152,372	-0,105	-0,005
-268,555	800,000	0,046	-0,140
-267,540	139,917	-0,045	-0,043
-266,526	17,163	0,077	-0,044
-265,511	146,643	-0,063	-0,061
-264,497	-70,236	0,097	-0,026
-263,482	-200,000	-0,003	0,070
-262,467	800,000	-0,022	-0,046
-261,453	-166,498	0,179	0,005
-260,438	118,814	-0,079	-0,071
-259,424	-74,325	0,074	-0,019
-258,409	684,570	-0,067	-0,127
-257,395	-200,000	0,016	0,105
-256,380	52,124	-0,062	0,043
-255,365	800,000	0,045	0,120
-254,351	-1,177	0,046	-0,024
-253,336	800,000	0,046	-0,093
-252,322	141,402	-0,060	0,057
-251,307	-33,597	0,082	0,032
-250,292	-31,174	-0,088	-0,036
-249,278	785,334	0,107	0,212
-248,263	-200,000	0,004	0,062
-247,249	-200,000	-0,007	0,061
-246,234	713,304	-0,034	-0,066
-245,219	-74,914	-0,124	-0,032
-244,205	-50,620	0,076	0,026
-243,190	188,259	-0,018	-0,020
-242,176	90,926	-0,024	-0,019
-241,161	-200,000	-0,029	-0,097
-240,146	-18,287	0,101	-0,046
-239,132	-42,829	-0,089	-0,033
-238,117	-36,657	0,026	-0,010
-237,103	-68,071	-0,052	-0,014
-236,088	800,000	0,024	0,064
-235,073	281,876	-0,024	-0,031
-234,059	194,059	0,075	-0,082
-233,044	-200,000	0,032	-0,109
-232,030	140,073	-0,052	0,050
-231,015	-18,429	-0,178	0,080
-230,000	-200,000	-0,009	-0,047
-228,986	-46,083	0,115	-0,041
-227,971	-200,000	-0,005	-0,074
-226,957	133,414	-0,085	-0,079
-225,942	800,000	-0,046	-0,109
-224,927	-200,000	0,014	-0,145
-223,913	56,880	-0,045	0,032
-222,898	466,302	0,054	-0,088
-221,884	-21,560	-0,121	0,053
-220,869	-173,413	0,132	0,003
-219,855	217,059	-0,153	0,176
-218,840	89,128	0,089	0,072
-217,825	110,754	-0,087	0,076
-216,811	-118,484	-0,071	0,009
-215,796	233,519	-0,020	0,024
-214,782	148,341	0,062	0,061
-213,767	-143,987	0,132	-0,009
-212,752	-88,929	-0,075	-0,016
-211,738	-34,196	-0,031	-0,012
-210,723	-93,332	-0,028	0,006
-209,709	-200,000	-0,009	0,178
-208,694	433,202	-0,034	-0,054
-207,679	-56,422	-0,068	-0,022
-206,665	800,000	-0,040	-0,100
-205,650	120,300	0,058	-0,052
-204,636	603,281	0,017	-0,031
-203,621	138,590	-0,089	-0,084
-202,606	-113,559	0,149	0,021
-201,592	193,430	-0,019	0,021
-200,577	89,518	-0,072	-0,058
-199,563	254,080	-0,027	0,033
-198,548	484,209	0,032	-0,053
-197,533	164,813	-0,065	0,066
-196,519	800,000	0,046	-0,123
-195,504	-33,764	-0,094	0,037
-194,490	114,725	-0,109	-0,096
-193,475	800,000	0,026	-0,061
-192,460	-72,245	0,090	-0,024
-191,446	-200,000	0,011	0,153
-190,431	-200,000	-0,003	0,028
-189,417	-200,000	0,003	0,076
-188,402	-80,102	-0,069	-0,017
-187,387	218,070	0,034	-0,039
-186,373	644,082	0,078	0,145
-185,358	-200,000	-0,015	0,074
-184,344	-200,000	0,023	0,136
-183,329	271,198	0,111	0,142
-182,315	619,691	-0,055	0,099
-181,300	22,296	-0,043	-0,025
-180,285	-25,219	0,130	0,055
-179,271	-200,000	0,002	-0,052
-178,256	800,000	0,021	-0,052
-177,242	800,000	0,007	0,021
-176,227	688,438	0,033	-0,062
-175,212	-200,000	-0,010	0,061
-174,198	106,517	-0,022	0,018
-173,183	12,440	0,069	-0,038
-172,169	-28,367	0,126	0,052
-171,154	-200,000	-0,010	0,041
-170,139	55,012	-0,084	0,059
-169,125	-200,000	0,009	0,098
-168,110	-200,000	-0,002	0,133
-167,096	-125,644	0,116	0,013
-166,081	-114,852	-0,153	-0,021
-165,066	717,670	0,028	0,054
-164,052	-200,000	0,062	-0,209
-163,037	-200,000	-0,009	-0,063
-162,023	-27,048	0,088	0,037
-161,008	182,497	0,084	-0,089
-159,993	-53,089	-0,050	0,017
-158,979	464,203	0,019	0,030
-157,964	-80,399	-0,144	-0,034
-156,950	-128,924	0,044	0,004
-155,935	-0,734	-0,055	0,028
-154,920	-200,000	-0,014	0,211
-153,906	-200,000	0,012	0,133
-152,891	800,000	-0,030	0,066
-151,877	374,341	0,072	-0,106
-150,862	-200,000	0,009	-0,039
-149,847	116,057	-0,141	0,124
-148,833	293,202	-0,054	0,071
-147,818	-72,151	0,072	0,019
-146,804	-200,000	0,014	0,051
-145,789	205,661	0,050	0,056
-144,775	-200,000	-0,000	0,002
-143,760	39,239	-0,074	0,048
-142,745	314,155	-0,040	0,054
-141,731	62,918	-0,085	0,061
-140,716	531,259	0,054	0,092
-139,702	800,000	-0,011	0,033
-138,687	-62,490	0,096	-0,028
-137,672	101,964	-0,030	0,025
-136,658	-76,751	-0,067	-0,017
-135,643	800,000	-0,034	-0,072
-134,629	-156,643	-0,075	0,003
-133,614	-200,000	-0,003	0,115
-132,599	2,337	0,065	0,034
-131,585	89,925	0,077	0,061
-130,570	21,055	0,034	-0,020
-129,556	36,132	-0,037	-0,023
-128,541	-200,000	-0,019	0,087
-127,526	-68,200	0,082	-0,023
-126,512	788,816	0,024	0,047
-125,497	-200,000	-0,001	0,228
-124,483	-22,111	-0,103	0,045
-123,468	-200,000	-0,014	-0,072
-122,453	-22,978	0,113	0,049
-121,439	-143,445	-0,144	0,010
-120,424	-141,164	0,099	0,007
-119,410	789,310	-0,037	0,073
