DTS Sentinel unit serial number:	SN410029Multiplexer serial number:	ORYXHardware model number:	OX2-SRSoftware version number:	ORYX F/W v4,00 Oryx Data Collector v3.7.2.0data status	okinstallation	B5 Nyhavnadifferential loss correction	single-endedforward channel	channel 2reverse channel	N/Adate	2023/12/12time	04:07:13forward acquisition time	300,00reverse acquisition time	0,00gamma	499,1914k internal	0,3156k external	0,3156temperature offset calibration	1,0000default loss term (dB/km)	0,3820temperature slope calibration	1,0000multiplexer offset coefficient	1,0000multiplexer slope coefficient	1,0000fibre end	0,00T internal ref (°C)	15,56T ext. ref 1 (°C)	-0,83T ext. ref 2 (°C)	-1,10length (m)	temperature (°C)	Stokes	anti-Stokes-744,400	53,036	0,201	-0,142
-743,385	-98,072	-0,360	-0,068
-742,371	688,822	0,074	0,144
-741,356	-98,963	-0,292	-0,054
-740,342	171,406	0,015	0,016
-739,327	-25,053	-0,230	-0,100
-738,312	-126,098	0,111	-0,012
-737,298	-86,265	-0,218	0,049
-736,283	-200,000	0,017	0,082
-735,269	-64,237	-0,205	0,061
-734,254	-100,188	0,150	0,027
-733,239	-48,917	-0,552	-0,194
-732,225	-109,305	0,272	0,042
-731,210	-200,000	-0,003	0,093
-730,196	-108,007	-0,076	-0,012
-729,181	239,080	-0,103	0,126
-728,167	-200,000	0,005	-0,142
-727,152	27,538	-0,071	-0,044
-726,137	-163,065	-0,036	-0,001
-725,123	291,310	0,006	-0,009
-724,108	800,000	-0,072	-0,153
-723,094	-51,864	-0,076	0,026
-722,079	166,382	-0,020	0,021
-721,064	-199,076	-0,040	0,000
-720,050	-200,000	0,006	-0,025
-719,035	800,000	-0,008	-0,023
-718,021	-21,526	-0,089	-0,040
-717,006	37,389	-0,109	-0,071
-715,991	-51,211	-0,093	0,032
-714,977	397,445	-0,074	-0,114
-713,962	186,371	-0,072	-0,079
-712,948	-200,000	0,018	0,086
-711,933	418,212	0,038	0,061
-710,918	596,548	0,057	0,104
-709,904	412,693	-0,040	-0,062
-708,889	616,573	0,027	-0,050
-707,875	184,384	-0,155	-0,169
-706,860	-113,423	0,063	-0,009
-705,845	214,298	-0,069	0,081
-704,831	-200,000	0,013	0,077
-703,816	103,542	0,066	-0,057
-702,802	212,488	-0,139	-0,162
-701,787	-200,000	0,025	-0,152
-700,772	135,078	0,024	0,023
-699,758	-97,320	0,030	0,006
-698,743	22,921	-0,053	-0,032
-697,729	101,669	0,090	0,077
-696,714	800,000	0,020	0,049
-695,699	53,109	0,078	0,055
-694,685	-64,392	-0,127	-0,038
-693,670	82,813	-0,047	0,038
-692,656	20,862	-0,044	0,026
-691,641	-98,513	0,079	-0,015
-690,627	-37,804	-0,109	0,042
-689,612	326,033	0,089	0,126
-688,597	-40,713	0,039	0,015
-687,583	497,376	-0,065	-0,111
-686,568	63,503	-0,108	0,080
-685,554	181,591	0,024	0,026
-684,539	328,505	-0,109	-0,155
-683,524	-200,000	0,001	-0,041
-682,510	209,574	-0,086	0,099
-681,495	648,568	0,018	-0,034
-680,481	-50,854	-0,175	-0,060
-679,466	-200,000	-0,003	-0,178
-678,451	443,773	0,034	-0,055
-677,437	-73,518	0,034	0,009
-676,422	231,028	-0,037	0,045
-675,408	34,829	0,133	-0,086
-674,393	769,628	-0,056	-0,113
-673,378	-200,000	-0,011	-0,097
-672,364	-78,840	-0,097	0,024
-671,349	205,553	-0,035	0,040
-670,335	800,000	-0,028	-0,068
-669,320	30,710	0,139	-0,087
-668,305	216,782	0,045	0,053
-667,291	404,119	0,061	-0,095
-666,276	215,727	-0,063	0,074
-665,262	-200,000	-0,061	-0,229
-664,247	-151,301	0,061	0,003
-663,232	326,776	-0,029	0,041
-662,218	103,641	0,001	0,001
-661,203	800,000	-0,008	0,023
-660,189	267,970	-0,067	0,087
-659,174	197,690	-0,045	-0,050
-658,159	-122,065	-0,069	-0,008
-657,145	130,138	0,113	-0,107
-656,130	172,460	0,038	-0,040
-655,116	-35,218	-0,090	-0,036
-654,101	-200,000	0,008	-0,107
-653,086	204,434	-0,022	-0,025
-652,072	240,467	0,068	-0,083
-651,057	-21,129	-0,105	-0,047
-650,043	244,746	-0,068	-0,084
-649,028	-44,546	0,029	0,010
-648,014	-200,000	-0,001	0,090
-646,999	-112,276	-0,114	0,017
-645,984	-131,872	0,044	-0,004
-644,970	561,743	-0,038	-0,067
-643,955	163,271	0,031	0,032
-642,941	-7,997	-0,085	-0,042
-641,926	-200,000	-0,004	-0,035
-640,911	800,000	-0,037	-0,089
-639,897	152,580	0,094	-0,094
-638,882	-200,000	-0,006	-0,080
-637,868	142,555	-0,097	-0,095
-636,853	59,017	-0,180	-0,130
-635,838	-200,000	0,034	-0,184
-634,824	-112,064	-0,083	0,012
-633,809	-61,173	0,075	-0,023
-632,795	-200,000	0,013	0,172
-631,780	800,000	0,031	-0,097
-630,765	25,132	-0,122	-0,074
-629,751	800,000	0,022	-0,066
-628,736	150,961	-0,070	-0,070
-627,722	-124,337	-0,135	0,015
-626,707	392,820	0,054	-0,083
-625,692	-170,738	-0,055	-0,001
-624,678	-61,363	-0,106	0,033
-623,663	470,589	-0,068	-0,112
-622,649	397,670	-0,066	-0,101
-621,634	577,928	0,027	0,049
-620,619	-200,000	-0,020	-0,074
-619,605	794,488	-0,065	-0,132
-618,590	218,513	0,070	-0,083
-617,576	800,000	0,047	0,128
-616,561	422,481	-0,041	0,065
-615,546	321,247	-0,018	-0,025
-614,532	107,872	0,131	-0,114
-613,517	-200,000	0,002	-0,034
-612,503	-200,000	0,008	-0,088
-611,488	550,885	0,024	0,043
-610,474	-200,000	0,001	-0,108
-609,459	800,000	-0,029	-0,086
-608,444	-200,000	-0,025	-0,084
-607,430	38,154	-0,115	0,075
-606,415	-22,903	0,071	-0,031
-605,401	-6,961	-0,126	-0,063
-604,386	199,402	-0,052	-0,058
-603,371	-113,833	0,115	0,016
-602,357	-21,398	0,171	-0,076
-601,342	121,473	0,105	-0,096
-600,328	55,367	0,124	-0,088
-599,313	-200,000	-0,015	-0,080
-598,298	4,585	-0,038	0,020
-597,284	-200,000	-0,004	0,029
-596,269	65,559	0,055	0,041
-595,255	800,000	0,019	-0,043
-594,240	338,608	-0,026	-0,037
-593,225	-200,000	0,011	0,108
-592,211	-35,181	-0,102	-0,041
-591,196	751,642	0,013	-0,026
-590,182	-186,422	0,100	-0,001
-589,167	-200,000	-0,020	0,091
-588,152	35,495	-0,008	0,005
-587,138	-63,685	-0,194	-0,058
-586,123	273,004	0,035	-0,045
-585,109	-200,000	0,013	-0,084
-584,094	-200,000	-0,006	0,022
-583,079	353,463	0,079	0,115
-582,065	222,830	0,032	0,038
-581,050	-200,000	0,044	0,161
-580,036	641,693	-0,033	0,061
-579,021	-200,000	0,003	0,021
-578,006	-159,580	-0,196	0,008
-576,992	598,408	-0,013	0,023
-575,977	800,000	-0,033	0,101
-574,963	-200,000	0,032	0,106
-573,948	-29,620	0,019	0,008
-572,934	15,839	0,099	0,057
-571,919	-161,837	-0,147	-0,005
-570,904	-200,000	0,011	0,064
-569,890	-100,080	-0,066	0,012
-568,875	39,414	0,142	-0,093
-567,861	-70,548	-0,159	0,044
-566,846	800,000	0,025	-0,071
-565,831	-200,000	-0,015	-0,080
-564,817	226,708	-0,094	-0,112
-563,802	-110,619	-0,108	-0,016
-562,788	252,320	-0,076	-0,095
-561,773	65,117	0,108	0,080
-560,758	800,000	0,027	0,086
-559,744	-21,974	0,094	-0,042
-558,729	-200,000	0,006	-0,040
-557,715	-60,754	-0,127	-0,039
-556,700	10,312	-0,087	-0,049
-555,685	-54,608	-0,022	-0,007
-554,671	-200,000	0,010	0,036
-553,656	-127,198	-0,012	-0,001
-552,642	-39,436	0,111	-0,042
-551,627	-200,000	-0,009	0,091
-550,612	-200,000	-0,003	0,060
-549,598	275,480	-0,099	-0,129
-548,583	800,000	-0,053	-0,161
-547,569	-200,000	0,108	-0,000
-546,554	-93,826	0,098	-0,020
-545,539	43,446	0,082	-0,055
-544,525	540,086	0,026	0,046
-543,510	183,542	-0,097	-0,105
-542,496	-200,000	-0,022	-0,164
-541,481	-0,941	-0,056	0,029
-540,466	-4,913	0,113	-0,057
-539,452	93,621	0,029	0,024
-538,437	800,000	-0,051	0,133
-537,423	70,338	0,081	0,061
-536,408	-200,000	0,041	-0,164
-535,393	800,000	-0,042	-0,106
-534,379	800,000	-0,066	-0,198
-533,364	73,588	-0,116	-0,089
-532,350	800,000	-0,009	0,028
-531,335	-200,000	-0,016	0,054
-530,321	90,745	-0,052	-0,043
-529,306	386,109	-0,029	0,044
-528,291	-200,000	0,007	0,061
-527,277	34,264	0,069	-0,044
-526,262	33,433	-0,071	-0,045
-525,248	-200,000	-0,017	0,065
-524,233	-200,000	0,037	0,163
-523,218	671,747	0,005	-0,009
-522,204	703,995	0,042	0,081
-521,189	800,000	-0,040	0,101
-520,175	-54,203	0,019	0,006
-519,160	800,000	0,051	-0,156
-518,145	546,199	0,013	-0,023
-517,131	9,263	0,067	0,037
-516,116	-56,034	0,170	0,055
-515,102	-200,000	-0,003	-0,125
-514,087	-73,890	0,166	-0,044
-513,072	221,626	-0,082	-0,096
-512,058	-186,873	0,070	0,001
-511,043	-200,000	0,005	-0,081
-510,029	-150,592	-0,079	0,004
-509,014	423,015	-0,054	0,086
-507,999	291,670	-0,041	0,054
-506,985	-69,141	-0,072	0,020
-505,970	-42,561	0,038	0,014
-504,956	800,000	-0,036	-0,107
-503,941	-200,000	0,002	0,068
-502,926	-200,000	0,018	0,140
-501,912	-200,000	-0,002	0,110
-500,897	302,958	-0,020	-0,027
-499,883	90,998	-0,064	-0,053
-498,868	-200,000	-0,025	-0,091
-497,853	-114,286	-0,057	-0,008
-496,839	-90,398	-0,049	-0,010
-495,824	-169,665	0,098	-0,003
-494,810	68,558	0,047	-0,035
-493,795	-77,529	0,184	-0,046
-492,781	39,131	0,075	-0,049
-491,766	31,708	-0,033	0,020
-490,751	200,482	0,089	-0,100
-489,737	-200,000	-0,021	0,082
-488,722	-13,911	0,088	-0,042
-487,708	489,660	-0,013	-0,022
-486,693	-200,000	0,027	0,102
-485,678	464,544	-0,020	-0,033
-484,664	-104,792	-0,007	0,001
-483,649	41,603	-0,079	-0,052
-482,635	393,875	-0,068	0,104
-481,620	-86,184	-0,173	-0,039
-480,605	-200,000	-0,014	0,094
-479,591	357,849	0,051	-0,075
-478,576	58,054	-0,091	-0,065
-477,562	-17,175	-0,049	-0,023
-476,547	-131,660	-0,118	-0,011
-475,532	-112,681	0,060	-0,009
-474,518	371,070	0,046	0,069
-473,503	-200,000	0,015	-0,054
-472,489	800,000	0,034	0,099
-471,474	-9,841	-0,084	-0,041
-470,459	800,000	0,033	0,077
-469,445	800,000	0,043	-0,100
-468,430	800,000	0,039	-0,104
-467,416	-138,886	0,100	0,008
-466,401	22,169	0,070	0,042
-465,386	184,430	0,074	0,080
-464,372	22,587	0,023	0,013
-463,357	-10,031	-0,144	-0,070
-462,343	-154,702	-0,051	0,002
-461,328	25,412	-0,082	-0,050
-460,313	800,000	0,038	-0,104
-459,299	720,981	0,028	-0,055
-458,284	-24,178	0,055	0,024
-457,270	800,000	0,030	-0,069
-456,255	449,424	0,043	-0,070
-455,241	20,518	-0,123	0,072
-454,226	-22,461	-0,119	0,052
-453,211	-200,000	0,054	0,000
-452,197	-200,000	0,008	-0,069
-451,182	-122,508	0,165	0,019
-450,168	-200,000	0,019	-0,136
-449,153	-128,331	-0,109	0,011
-448,138	-200,000	-0,027	-0,091
-447,124	539,319	0,058	-0,101
-446,109	-127,408	-0,046	-0,005
-445,095	443,368	0,072	0,115
-444,080	-28,223	-0,117	0,049
-443,065	19,580	0,153	0,089
-442,051	89,529	-0,137	0,111
-441,036	89,806	0,026	-0,021
-440,022	63,042	-0,033	0,024
-439,007	196,096	0,044	-0,048
-437,992	109,025	-0,058	0,050
-436,978	13,873	0,160	0,090
-435,963	111,772	0,026	0,023
-434,949	169,634	0,047	0,049
-433,934	800,000	0,032	-0,065
-432,919	800,000	-0,013	0,027
-431,905	-44,419	0,103	0,037
-430,890	161,417	0,035	0,036
-429,876	70,479	0,093	0,070
-428,861	197,877	0,113	0,126
-427,846	120,321	-0,040	-0,036
-426,832	800,000	-0,047	-0,102
-425,817	455,791	-0,092	-0,149
-424,803	-200,000	0,001	0,027
-423,788	206,013	0,121	0,138
-422,773	800,000	-0,084	0,181
-421,759	52,775	0,046	0,032
-420,744	-200,000	-0,023	0,089
-419,730	-40,243	0,111	-0,042
-418,715	430,307	-0,013	-0,020
-417,701	139,860	-0,007	0,007
-416,686	-200,000	0,026	0,089
-415,671	800,000	-0,033	-0,077
-414,657	-200,000	0,011	0,037
-413,642	-60,154	-0,058	0,018
-412,628	141,659	0,103	-0,099
-411,613	-83,238	-0,084	0,020
-410,598	-123,041	-0,070	0,008
-409,584	13,317	0,016	-0,009
-408,569	-200,000	-0,026	0,120
-407,555	143,821	0,046	0,045
-406,540	-42,593	0,079	0,029
-405,525	325,105	0,056	-0,078
-404,511	-200,000	-0,019	-0,132
-403,496	-200,000	-0,011	-0,118
-402,482	-200,000	0,004	-0,059
-401,467	-200,000	0,002	-0,027
-400,452	-45,947	-0,017	0,006
-399,438	-200,000	-0,003	-0,015
-398,423	623,794	-0,053	-0,097
-397,409	-9,139	-0,061	-0,030
-396,394	-24,793	-0,126	-0,054
-395,379	289,387	0,097	0,129
-394,365	550,268	-0,042	0,073
-393,350	60,223	-0,079	-0,057
-392,336	-200,000	0,012	-0,051
-391,321	800,000	-0,045	0,122
-390,306	-119,280	0,081	0,010
-389,292	185,196	0,037	0,040
-388,277	491,306	-0,036	0,060
-387,263	-200,000	0,042	0,178
-386,248	-58,708	0,046	0,014
-385,233	-127,640	-0,069	-0,007
-384,219	-93,145	-0,064	-0,013
-383,204	95,644	0,060	-0,050
-382,190	-200,000	0,012	-0,044
-381,175	54,714	0,064	0,045
-380,160	-25,463	0,062	0,027
-379,146	6,495	-0,068	0,037
-378,131	800,000	-0,031	0,062
-377,117	-200,000	0,021	0,089
-376,102	-200,000	-0,009	-0,060
-375,088	-200,000	-0,002	0,123
-374,073	394,134	0,105	-0,159
-373,058	-200,000	0,005	-0,038
-372,044	-81,369	-0,001	0,000
-371,029	49,294	0,146	0,100
-370,015	12,066	-0,074	-0,041
-369,000	-200,000	-0,012	0,050
-367,985	-50,269	-0,110	-0,037
-366,971	-69,969	-0,063	-0,017
-365,956	308,140	-0,071	0,097
-364,942	155,938	0,147	0,148
-363,927	136,052	0,054	0,052
-362,912	16,484	-0,133	-0,076
-361,898	800,000	-0,019	0,047
-360,883	-104,099	0,074	-0,012
-359,869	-83,779	0,132	-0,030
-358,854	96,473	-0,080	0,066
-357,839	-69,385	0,045	0,012
-356,825	-90,096	0,174	0,037
-355,810	22,433	-0,082	0,048
-354,796	-77,402	0,073	-0,018
-353,781	36,815	-0,026	-0,016
-352,766	307,346	-0,006	0,009
-351,752	386,669	0,032	0,049
-350,737	779,304	-0,041	0,082
-349,723	24,199	0,055	-0,033
-348,708	742,778	-0,081	0,159
-347,693	-200,000	-0,018	-0,085
-346,679	115,416	0,028	0,025
-345,664	800,000	0,061	-0,153
-344,650	800,000	-0,027	0,059
-343,635	-88,698	-0,061	-0,013
-342,620	19,150	0,063	0,036
-341,606	-47,560	0,066	-0,023
-340,591	-155,071	-0,043	0,002
-339,577	-200,000	-0,013	-0,070
-338,562	169,548	-0,021	0,022
-337,548	97,476	-0,096	0,080
-336,533	-200,000	0,009	0,069
-335,518	-200,000	-0,001	0,072
-334,504	-25,394	-0,048	0,021
-333,489	92,976	-0,051	0,042
-332,475	69,342	-0,090	-0,067
-331,460	-200,000	0,023	-0,116
-330,445	560,485	-0,052	0,091
-329,431	1,009	0,044	-0,023
-328,416	47,898	-0,062	0,042
-327,402	136,924	0,022	0,021
-326,387	800,000	0,017	0,052
-325,372	99,358	-0,078	-0,066
-324,358	-200,000	0,004	-0,100
-323,343	-200,000	0,002	-0,033
-322,329	89,190	-0,059	0,047
-321,314	418,270	0,053	-0,083
-320,299	-200,000	-0,037	0,000
-319,285	36,872	-0,027	0,017
-318,270	800,000	0,041	0,117
-317,256	-124,106	-0,053	-0,006
-316,241	34,349	0,117	0,074
-315,226	800,000	0,009	0,022
-314,212	-94,177	0,030	-0,006
-313,197	-101,566	0,165	0,029
-312,183	389,332	-0,072	0,109
-311,168	-24,631	-0,127	-0,055
-310,153	800,000	-0,047	-0,109
-309,139	800,000	-0,061	-0,141
-308,124	-165,019	-0,043	0,001
-307,110	-123,436	0,020	-0,002
-306,095	-29,493	0,121	-0,050
-305,080	62,179	-0,073	0,053
-304,066	-45,897	-0,117	-0,042
-303,051	133,078	0,009	0,009
-302,037	18,791	-0,147	0,085
-301,022	-1,625	0,082	0,042
-300,008	289,992	0,075	0,098
-298,993	-24,471	0,069	0,030
-297,978	-200,000	0,000	0,087
-296,964	-200,000	0,007	0,233
-295,949	68,913	0,154	0,115
-294,935	35,146	-0,094	-0,059
-293,920	-200,000	-0,017	-0,094
-292,905	16,295	0,066	0,038
-291,891	98,822	0,057	0,048
-290,876	15,549	0,041	0,023
-289,862	-200,000	0,002	-0,034
-288,847	82,621	-0,074	0,058
-287,832	277,395	-0,077	-0,100
-286,818	26,098	-0,030	-0,018
-285,803	0,472	0,044	0,023
-284,789	-10,288	-0,089	-0,043
-283,774	-84,902	0,019	0,004
-282,759	800,000	0,036	0,096
-281,745	-200,000	-0,000	-0,037
-280,730	800,000	0,006	0,013
-279,716	-38,964	0,037	-0,014
-278,701	-200,000	0,019	0,111
-277,686	-200,000	-0,012	0,043
-276,672	-200,000	0,034	0,178
-275,657	13,572	-0,122	0,068
-274,643	-125,108	-0,089	0,010
-273,628	99,519	0,064	-0,053
-272,613	776,217	-0,022	0,044
-271,599	-200,000	0,000	0,087
-270,584	202,802	-0,055	0,062
-269,570	-200,000	0,005	-0,111
-268,555	-200,000	-0,015	0,082
-267,540	-200,000	-0,003	0,025
-266,526	143,335	-0,125	-0,121
-265,511	382,317	0,028	-0,042
-264,497	-131,216	-0,064	-0,006
-263,482	154,823	0,110	0,109
-262,467	-200,000	-0,031	0,161
-261,453	-200,000	-0,016	-0,094
-260,438	-200,000	0,015	-0,168
-259,424	-48,370	-0,143	-0,050
-258,409	0,271	-0,101	0,052
-257,395	-200,000	0,005	-0,067
-256,380	-200,000	-0,007	0,168
-255,365	324,094	0,039	0,053
-254,351	537,622	0,024	-0,042
-253,336	-95,359	0,094	-0,018
-252,322	160,505	0,057	0,057
-251,307	-89,806	0,176	0,037
-250,292	88,235	0,086	0,069
-249,278	800,000	0,029	0,059
-248,263	800,000	0,033	0,071
-247,249	-24,712	-0,020	-0,009
-246,234	-200,000	0,035	-0,145
-245,219	-153,716	0,123	-0,006
-244,205	216,297	-0,053	0,061
-243,190	116,129	0,060	-0,053
-242,176	536,925	-0,014	-0,024
-241,161	66,151	0,121	-0,089
-240,146	-200,000	-0,001	-0,023
-239,132	-128,148	-0,090	0,009
-238,117	-200,000	-0,007	0,072
-237,103	2,854	-0,049	0,025
-236,088	15,138	0,086	-0,048
-235,073	-200,000	0,010	-0,094
-234,059	-200,000	0,011	0,098
-233,044	800,000	-0,004	-0,008
-232,030	-72,597	0,039	-0,010
-231,015	551,558	-0,071	0,123
-230,000	-200,000	-0,015	0,083
-228,986	800,000	0,029	0,066
-227,971	492,864	-0,045	0,075
-226,957	401,382	0,043	0,065
-225,942	88,190	0,051	-0,041
-224,927	-200,000	-0,000	0,016
-223,913	-200,000	0,029	-0,109
-222,898	-50,899	0,055	-0,019
-221,884	93,911	-0,073	0,059
-220,869	-200,000	0,042	0,143
-219,855	31,762	-0,040	-0,025
-218,840	47,685	0,113	0,076
-217,825	217,707	-0,058	0,067
-216,811	-168,503	0,066	-0,002
-215,796	-200,000	0,014	0,050
-214,782	-179,116	-0,024	0,000
-213,767	62,499	0,066	0,048
-212,752	258,725	0,050	0,063
-211,738	192,704	0,098	-0,107
-210,723	518,290	-0,018	-0,031
-209,709	72,258	-0,094	-0,070
-208,694	39,475	0,046	0,030
-207,679	-200,000	0,035	0,151
-206,665	731,273	0,001	0,002
-205,650	232,470	0,072	0,086
-204,636	477,595	0,075	-0,123
-203,621	-200,000	-0,018	-0,129
-202,606	-22,498	-0,031	0,013
-201,592	-31,741	-0,054	0,022
-200,577	800,000	0,038	0,082
-199,563	-200,000	-0,004	0,073
-198,548	134,396	0,088	0,082
-197,533	-200,000	0,047	0,000
-196,519	41,846	0,132	-0,086
-195,504	-109,441	-0,118	0,018
-194,490	162,421	0,094	-0,095
-193,475	-200,000	-0,031	-0,106
-192,460	-200,000	-0,015	0,069
-191,446	-89,903	0,065	0,014
-190,431	-80,972	0,051	0,012
-189,417	800,000	0,044	0,138
-188,402	265,750	-0,063	-0,079
-187,387	-200,000	-0,038	-0,211
-186,373	52,606	-0,009	-0,006
-185,358	800,000	-0,060	0,161
-184,344	31,911	0,061	0,038
-183,329	124,313	-0,077	0,069
-182,315	-200,000	-0,003	-0,042
-181,300	800,000	-0,024	-0,055
-180,285	174,676	-0,044	0,046
-179,271	-200,000	-0,000	-0,037
-178,256	679,984	0,022	-0,042
-177,242	-200,000	0,043	0,173
-176,227	-144,437	-0,212	0,014
-175,212	-200,000	0,000	0,107
-174,198	800,000	0,029	-0,065
-173,183	128,230	-0,134	-0,123
-172,169	-200,000	0,001	-0,028
-171,154	-200,000	-0,038	0,149
-170,139	800,000	0,020	0,042
-169,125	-106,403	0,026	0,004
-168,110	-126,163	0,185	-0,020
-167,096	378,106	-0,176	-0,261
-166,081	193,287	0,059	-0,065
-165,066	-200,000	-0,032	-0,141
-164,052	384,568	-0,102	-0,152
-163,037	-70,232	-0,044	0,012
-162,023	800,000	0,038	0,079
-161,008	-200,000	0,019	-0,110
-159,993	800,000	0,038	-0,112
-158,979	725,713	-0,024	-0,047
-157,964	-167,199	-0,036	0,001
-156,950	-200,000	0,016	-0,105
-155,935	605,395	-0,055	0,100
-154,920	187,506	-0,023	0,025
-153,906	514,249	0,046	0,077
-152,891	800,000	0,067	0,181
-151,877	87,128	-0,008	-0,007
-150,862	291,864	-0,033	-0,043
-149,847	104,451	-0,090	-0,076
-148,833	33,537	0,023	-0,015
-147,818	800,000	0,034	0,072
-146,804	-200,000	0,000	0,030
-145,789	-200,000	0,004	0,088
-144,775	-200,000	-0,009	-0,123
-143,760	282,480	-0,116	-0,151
-142,745	106,891	-0,036	0,031
-141,731	-72,923	0,021	0,005
-140,716	215,353	-0,082	0,093
-139,702	-189,316	0,085	-0,001
-138,687	21,437	0,032	-0,018
-137,672	-200,000	-0,039	0,149
-136,658	-200,000	0,005	0,020
-135,643	-200,000	0,010	0,066
-134,629	73,914	0,020	-0,015
-133,614	198,808	-0,066	-0,073
-132,599	800,000	0,022	0,054
-131,585	-200,000	-0,013	0,121
-130,570	431,759	-0,130	0,203
-129,556	-23,236	0,150	0,065
-128,541	-54,581	-0,262	-0,085
-127,526	-150,678	-0,055	-0,003
-126,512	-200,000	-0,045	0,146
-125,497	-108,308	-0,083	0,013
-124,483	-200,000	0,013	-0,137
-123,468	-200,000	-0,021	-0,081
-122,453	411,939	-0,040	-0,061
-121,439	187,193	-0,050	-0,054
-120,424	27,610	-0,121	0,073
-119,410	204,455	0,095	-0,106
-118,395	2,242	-0,057	0,030
