DTS Sentinel unit serial number:	SN410029Multiplexer serial number:	ORYXHardware model number:	OX2-SRSoftware version number:	ORYX F/W v4,00 Oryx Data Collector v3.7.2.0data status	okinstallation	B5 Nyhavnadifferential loss correction	single-endedforward channel	channel 2reverse channel	N/Adate	2023/12/12time	01:17:13forward acquisition time	300,00reverse acquisition time	0,00gamma	499,1914k internal	0,3156k external	0,3156temperature offset calibration	1,0000default loss term (dB/km)	0,3820temperature slope calibration	1,0000multiplexer offset coefficient	1,0000multiplexer slope coefficient	1,0000fibre end	0,00T internal ref (°C)	15,94T ext. ref 1 (°C)	-0,43T ext. ref 2 (°C)	-0,73length (m)	temperature (°C)	Stokes	anti-Stokes-744,400	371,922	0,118	0,177
-743,385	-110,879	-0,231	-0,035
-742,371	358,793	0,051	0,076
-741,356	-120,300	-0,272	0,034
-740,342	-41,785	0,174	0,065
-739,327	-47,255	-0,300	-0,107
-738,312	-116,014	0,190	-0,026
-737,298	-101,803	-0,198	-0,035
-736,283	-198,647	0,117	0,000
-735,269	36,920	-0,209	0,136
-734,254	263,464	0,124	-0,160
-733,239	0,600	-0,431	-0,227
-732,225	-169,893	0,215	-0,006
-731,210	800,000	0,051	0,148
-730,196	-200,000	-0,009	-0,079
-729,181	-24,769	-0,096	-0,042
-728,167	-200,000	0,001	-0,056
-727,152	450,724	-0,018	0,029
-726,137	-200,000	-0,014	-0,078
-725,123	-51,179	0,074	-0,025
-724,108	-200,000	0,004	-0,117
-723,094	800,000	-0,086	-0,185
-722,079	170,767	-0,025	-0,027
-721,064	127,569	-0,019	0,018
-720,050	-200,000	0,001	-0,076
-719,035	791,826	-0,058	0,119
-718,021	-123,524	-0,237	-0,027
-717,006	-200,000	-0,011	-0,109
-715,991	16,560	-0,166	-0,096
-714,977	-53,992	-0,215	-0,072
-713,962	711,059	-0,045	-0,088
-712,948	-66,091	-0,120	0,035
-711,933	32,815	0,065	0,041
-710,918	-40,224	-0,036	0,014
-709,904	-200,000	-0,003	-0,015
-708,889	-200,000	-0,026	-0,083
-707,875	-86,110	0,014	0,003
-706,860	800,000	-0,028	0,077
-705,845	53,395	-0,115	0,081
-704,831	-200,000	0,027	-0,124
-703,816	-200,000	-0,014	0,081
-702,802	220,221	0,024	0,029
-701,787	800,000	0,054	-0,128
-700,772	-200,000	0,009	-0,031
-699,758	-155,061	-0,115	0,005
-698,743	245,223	0,104	0,129
-697,729	-200,000	0,007	-0,081
-696,714	382,619	-0,016	0,025
-695,699	-200,000	-0,027	0,090
-694,685	273,751	-0,095	-0,124
-693,670	-200,000	-0,037	-0,167
-692,656	94,886	0,106	-0,089
-691,641	21,252	0,077	0,046
-690,627	47,430	0,082	-0,056
-689,612	-172,745	-0,137	-0,003
-688,597	-104,685	-0,126	0,021
-687,583	13,386	-0,089	0,051
-686,568	-62,993	-0,004	-0,001
-685,554	800,000	0,034	0,091
-684,539	176,140	0,115	0,123
-683,524	218,260	-0,068	0,081
-682,510	-28,910	0,047	-0,020
-681,495	-104,946	-0,026	-0,004
-680,481	-26,842	-0,025	0,011
-679,466	-65,997	-0,202	-0,059
-678,451	160,006	0,107	-0,110
-677,437	111,434	0,122	0,108
-676,422	800,000	-0,012	-0,031
-675,408	277,621	0,078	0,102
-674,393	89,963	-0,067	-0,055
-673,378	-200,000	-0,008	-0,081
-672,364	109,481	0,051	-0,045
-671,349	132,605	-0,118	-0,112
-670,335	422,996	0,073	0,116
-669,320	143,686	0,069	0,068
-668,305	28,648	-0,026	-0,016
-667,291	-200,000	0,001	-0,038
-666,276	306,939	0,013	0,018
-665,262	150,580	0,059	-0,058
-664,247	668,036	-0,048	-0,091
-663,232	800,000	0,083	-0,176
-662,218	-200,000	0,024	0,098
-661,203	-200,000	0,002	-0,048
-660,189	-126,953	0,195	-0,021
-659,174	800,000	0,069	-0,153
-658,159	373,570	0,051	-0,076
-657,145	800,000	0,022	-0,055
-656,130	800,000	0,042	0,088
-655,116	193,536	0,080	-0,089
-654,101	-200,000	-0,006	-0,074
-653,086	800,000	0,035	0,108
-652,072	420,566	-0,050	0,079
-651,057	135,365	-0,073	-0,070
-650,043	34,842	-0,065	-0,042
-649,028	-200,000	-0,020	-0,105
-648,014	-7,540	0,102	0,050
-646,999	-121,674	-0,174	0,021
-645,984	-200,000	0,007	0,145
-644,970	3,211	-0,098	-0,052
-643,955	-20,131	-0,068	0,031
-642,941	800,000	0,038	-0,100
-641,926	32,822	0,055	-0,035
-640,911	129,929	-0,052	0,049
-639,897	-124,341	0,054	-0,006
-638,882	-200,000	-0,011	-0,073
-637,868	800,000	-0,036	-0,107
-636,853	-200,000	0,001	-0,026
-635,838	-101,088	-0,028	-0,005
-634,824	253,077	-0,014	0,018
-633,809	-200,000	0,044	-0,178
-632,795	142,636	0,120	0,117
-631,780	-200,000	-0,034	0,147
-630,765	-200,000	0,021	-0,104
-629,751	255,579	0,125	0,158
-628,736	-152,827	-0,100	0,005
-627,722	-66,226	-0,056	-0,016
-626,707	130,791	0,113	0,107
-625,692	592,581	0,049	0,089
-624,678	-200,000	0,029	0,102
-623,663	97,358	0,023	-0,020
-622,649	177,332	0,138	-0,147
-621,634	800,000	-0,038	-0,110
-620,619	-189,575	-0,083	0,001
-619,605	16,996	-0,097	0,056
-618,590	-200,000	-0,012	0,065
-617,576	-19,174	0,032	-0,014
-616,561	53,812	0,019	-0,013
-615,546	123,348	-0,106	-0,098
-614,532	126,301	-0,151	-0,140
-613,517	394,795	0,039	-0,060
-612,503	-200,000	0,015	-0,146
-611,488	382,534	-0,010	0,016
-610,474	-200,000	-0,002	-0,085
-609,459	-96,861	0,083	0,016
-608,444	363,192	-0,110	-0,163
-607,430	-83,742	0,104	0,024
-606,415	800,000	0,019	0,056
-605,401	217,208	-0,126	-0,147
-604,386	401,801	0,057	-0,088
-603,371	-51,435	0,055	0,019
-602,357	-124,862	0,163	0,018
-601,342	-0,672	-0,190	-0,099
-600,328	359,730	-0,014	0,020
-599,313	-172,241	-0,037	-0,001
-598,298	-67,118	0,063	0,018
-597,284	355,543	-0,032	0,047
-596,269	66,648	-0,066	0,049
-595,255	-63,396	-0,099	-0,030
-594,240	131,409	-0,022	-0,021
-593,225	-88,693	-0,141	-0,030
-592,211	-200,000	-0,017	-0,110
-591,196	646,113	0,020	0,038
-590,182	800,000	0,029	0,089
-589,167	-14,352	0,048	-0,022
-588,152	-147,980	-0,042	0,003
-587,138	-200,000	-0,004	0,093
-586,123	-36,495	0,084	-0,033
-585,109	-39,327	-0,121	-0,046
-584,094	-200,000	-0,011	0,050
-583,079	-89,057	0,016	-0,004
-582,065	800,000	-0,055	0,145
-581,050	-120,573	0,096	0,012
-580,036	-88,149	-0,099	-0,022
-579,021	352,174	-0,107	0,155
-578,006	-30,960	-0,129	-0,053
-576,992	240,805	-0,114	0,140
-575,977	306,394	-0,038	0,052
-574,963	-128,491	0,138	-0,014
-573,948	-86,625	0,159	-0,035
-572,934	-114,558	-0,096	0,013
-571,919	22,645	-0,106	-0,063
-570,904	-48,957	0,109	-0,038
-569,890	-200,000	-0,002	0,055
-568,875	-200,000	0,009	0,107
-567,861	113,062	-0,055	0,049
-566,846	-200,000	0,008	0,050
-565,831	800,000	-0,017	-0,041
-564,817	800,000	-0,027	0,070
-563,802	800,000	0,050	-0,146
-562,788	800,000	-0,023	-0,050
-561,773	0,739	-0,056	0,029
-560,758	12,378	-0,062	0,035
-559,744	-26,953	0,114	0,049
-558,729	-43,962	0,202	-0,074
-557,715	-200,000	-0,002	-0,074
-556,700	201,497	-0,080	-0,091
-555,685	-3,678	0,037	0,019
-554,671	-77,502	0,085	-0,021
-553,656	-147,603	-0,097	0,006
-552,642	14,036	0,037	0,021
-551,627	-200,000	-0,004	0,022
-550,612	-200,000	0,001	-0,128
-549,598	-200,000	0,000	-0,020
-548,583	800,000	-0,042	-0,106
-547,569	179,825	0,098	-0,105
-546,554	442,017	0,053	0,085
-545,539	610,691	0,020	-0,036
-544,525	530,341	0,034	0,059
-543,510	-200,000	0,001	-0,069
-542,496	-200,000	0,007	0,045
-541,481	181,304	-0,123	-0,133
-540,466	113,014	0,018	-0,016
-539,452	-200,000	-0,008	0,121
-538,437	-200,000	-0,004	-0,023
-537,423	-12,680	0,058	-0,028
-536,408	800,000	-0,056	-0,132
-535,393	-200,000	0,020	-0,163
-534,379	-51,814	-0,083	-0,028
-533,364	-17,942	-0,083	-0,038
-532,350	-200,000	-0,020	-0,100
-531,335	-200,000	0,010	-0,040
-530,321	149,789	0,112	-0,111
-529,306	-151,778	0,169	-0,009
-528,291	-81,114	-0,143	0,034
-527,277	246,326	-0,020	0,025
-526,262	-84,404	-0,047	0,011
-525,248	-200,000	0,004	-0,052
-524,233	142,228	-0,095	-0,092
-523,218	72,561	-0,055	-0,042
-522,204	18,165	0,079	0,046
-521,189	-200,000	-0,000	-0,155
-520,175	-200,000	-0,002	0,028
-519,160	-200,000	0,006	-0,064
-518,145	-77,780	-0,104	-0,026
-517,131	89,729	0,082	-0,067
-516,116	-200,000	0,001	-0,084
-515,102	-134,739	0,095	0,008
-514,087	117,110	0,023	-0,021
-513,072	-138,783	0,135	-0,011
-512,058	26,552	0,111	-0,067
-511,043	271,045	-0,045	0,059
-510,029	-171,155	0,094	0,002
-509,014	107,994	-0,083	-0,072
-507,999	355,600	-0,018	0,026
-506,985	-140,608	-0,061	0,005
-505,970	800,000	0,016	0,037
-504,956	-200,000	-0,011	-0,108
-503,941	-142,002	0,107	0,008
-502,926	-200,000	-0,007	0,107
-501,912	800,000	0,024	0,070
-500,897	38,088	0,098	0,064
-499,883	163,686	0,089	-0,092
-498,868	-99,682	-0,015	-0,003
-497,853	26,204	0,063	-0,039
-496,839	46,094	-0,064	0,043
-495,824	587,684	0,043	0,077
-494,810	219,429	0,038	0,044
-493,795	-200,000	0,019	0,063
-492,781	-33,517	-0,072	-0,029
-491,766	-48,217	-0,099	0,035
-490,751	-200,000	-0,021	0,109
-489,737	-51,080	-0,085	0,029
-488,722	438,014	0,031	0,049
-487,708	-78,877	-0,034	-0,008
-486,693	12,484	-0,021	0,012
-485,678	800,000	0,029	0,059
-484,664	800,000	-0,069	-0,216
-483,649	-200,000	0,015	-0,117
-482,635	4,078	-0,079	0,042
-481,620	-49,754	-0,077	0,027
-480,605	-104,991	0,069	-0,011
-479,591	-104,253	0,065	0,011
-478,576	-115,681	0,087	-0,012
-477,562	124,236	0,055	-0,051
-476,547	800,000	0,074	-0,183
-475,532	-82,535	-0,080	-0,019
-474,518	-69,360	0,069	-0,019
-473,503	-200,000	-0,034	-0,137
-472,489	800,000	0,020	0,056
-471,474	-200,000	0,008	0,049
-470,459	-200,000	-0,010	-0,033
-469,445	322,588	-0,064	-0,089
-468,430	3,225	-0,097	-0,052
-467,416	-95,213	0,106	0,021
-466,401	155,050	0,015	0,015
-465,386	108,120	0,051	-0,044
-464,372	800,000	-0,015	0,044
-463,357	-200,000	0,007	0,044
-462,343	-35,031	0,036	0,014
-461,328	22,555	0,049	-0,029
-460,313	-200,000	0,021	0,153
-459,299	379,884	0,027	0,040
-458,284	-152,309	-0,079	-0,004
-457,270	-136,561	0,051	0,004
-456,255	2,455	0,047	0,025
-455,241	-200,000	-0,007	-0,124
-454,226	-82,693	-0,138	0,032
-453,211	342,763	0,050	0,072
-452,197	-46,087	0,132	0,047
-451,182	-84,935	0,098	-0,022
-450,168	800,000	0,034	0,109
-449,153	66,878	0,065	0,048
-448,138	-142,311	-0,130	-0,009
-447,124	800,000	-0,010	0,022
-446,109	129,572	-0,111	-0,103
-445,095	19,410	0,092	-0,054
-444,080	-134,583	-0,019	-0,002
-443,065	194,463	0,035	-0,039
-442,051	-13,590	-0,137	-0,064
-441,036	-3,212	-0,067	0,034
-440,022	238,868	-0,035	0,043
-439,007	-200,000	0,001	0,029
-437,992	520,606	-0,029	0,050
-436,978	-200,000	-0,017	0,061
-435,963	-66,934	-0,058	0,017
-434,949	-187,116	0,165	-0,002
-433,934	433,790	0,043	0,068
-432,919	800,000	0,023	0,071
-431,905	395,551	0,070	-0,107
-430,890	123,088	0,036	0,032
-429,876	128,457	0,032	-0,030
-428,861	133,142	-0,111	0,105
-427,846	17,653	0,064	0,037
-426,832	64,165	-0,134	0,098
-425,817	800,000	-0,008	0,019
-424,803	366,692	-0,030	-0,044
-423,788	184,931	0,083	0,089
-422,773	-112,504	0,082	0,012
-421,759	-14,036	-0,062	-0,029
-420,744	618,782	-0,018	-0,034
-419,730	-200,000	-0,013	0,125
-418,715	-17,290	-0,111	-0,051
-417,701	98,801	-0,042	-0,036
-416,686	800,000	-0,017	0,049
-415,671	-200,000	-0,017	0,124
-414,657	-82,141	-0,081	-0,019
-413,642	-38,762	-0,026	0,010
-412,628	800,000	0,011	-0,034
-411,613	-200,000	-0,016	-0,146
-410,598	51,908	0,022	0,015
-409,584	602,519	-0,005	0,010
-408,569	-200,000	-0,014	0,053
-407,555	800,000	-0,007	0,019
-406,540	41,145	0,123	0,081
-405,525	-88,640	-0,193	0,041
-404,511	317,205	-0,041	-0,057
-403,496	556,099	0,056	0,099
-402,482	-200,000	0,012	0,067
-401,467	132,909	0,052	-0,049
-400,452	401,810	0,051	0,078
-399,438	-176,672	0,081	-0,001
-398,423	575,141	-0,069	-0,124
-397,409	30,208	-0,084	0,052
-396,394	-96,470	0,134	0,026
-395,379	-200,000	0,011	0,098
-394,365	-136,190	-0,008	0,001
-393,350	113,094	0,053	0,046
-392,336	797,203	0,023	-0,047
-391,321	-200,000	-0,022	0,251
-390,306	800,000	-0,026	-0,072
-389,292	-200,000	-0,000	0,178
-388,277	13,882	-0,034	0,019
-387,263	-126,031	-0,049	0,005
-386,248	-183,289	0,053	0,001
-385,233	-200,000	-0,002	-0,059
-384,219	-115,691	0,127	-0,017
-383,204	800,000	0,022	0,066
-382,190	-200,000	0,022	-0,076
-381,175	-32,595	0,032	-0,013
-380,160	195,263	-0,036	-0,040
-379,146	173,630	0,053	-0,056
-378,131	-62,288	-0,076	-0,023
-377,117	800,000	-0,020	0,046
-376,102	800,000	-0,032	-0,096
-375,088	-9,414	-0,116	-0,056
-374,073	-9,806	0,162	-0,078
-373,058	27,629	0,063	-0,038
-372,044	142,686	0,109	0,105
-371,029	-200,000	-0,018	0,098
-370,015	43,387	-0,062	0,041
-369,000	625,119	0,063	-0,116
-367,985	20,185	-0,096	-0,056
-366,971	123,578	-0,068	-0,062
-365,956	-200,000	0,015	0,092
-364,942	41,287	0,117	0,077
-363,927	-200,000	-0,034	0,184
-362,912	383,189	0,066	-0,099
-361,898	110,387	0,043	-0,038
-360,883	100,931	0,046	0,038
-359,869	-200,000	-0,038	-0,151
-358,854	-200,000	-0,034	-0,111
-357,839	-200,000	-0,004	-0,016
-356,825	26,259	-0,187	0,113
-355,810	-200,000	-0,009	0,062
-354,796	-45,730	-0,048	-0,017
-353,781	217,342	-0,009	-0,010
-352,766	-200,000	0,025	0,105
-351,752	44,925	0,061	0,041
-350,737	-200,000	0,003	0,021
-349,723	15,228	-0,023	-0,013
-348,708	114,383	0,144	0,128
-347,693	-26,970	-0,045	0,019
-346,679	13,590	-0,085	-0,048
-345,664	34,425	-0,064	-0,040
-344,650	7,065	0,048	-0,026
-343,635	-200,000	-0,012	-0,136
-342,620	309,151	-0,035	-0,048
-341,606	-11,026	-0,117	0,056
-340,591	-25,151	-0,114	-0,049
-339,577	28,315	-0,079	-0,048
-338,562	320,917	-0,088	-0,122
-337,548	-122,264	0,051	-0,006
-336,533	490,936	-0,045	0,076
-335,518	-200,000	-0,017	-0,103
-334,504	-62,375	0,076	-0,023
-333,489	-200,000	0,028	-0,102
-332,475	-200,000	0,003	-0,047
-331,460	-51,960	-0,104	-0,035
-330,445	800,000	0,043	0,102
-329,431	-27,735	-0,037	0,016
-328,416	-91,030	0,167	0,034
-327,402	56,537	-0,070	0,050
-326,387	225,672	-0,032	0,038
-325,372	-200,000	-0,011	-0,050
-324,358	800,000	-0,062	-0,175
-323,343	-67,045	-0,039	-0,011
-322,329	102,911	-0,035	-0,030
-321,314	-24,187	0,133	-0,057
-320,299	-16,492	-0,117	0,053
-319,285	-200,000	-0,004	-0,073
-318,270	-200,000	0,013	-0,124
-317,256	213,324	-0,097	-0,112
-316,241	531,938	-0,011	-0,019
-315,226	-4,365	-0,069	0,035
-314,212	-200,000	-0,012	0,078
-313,197	712,148	0,018	0,034
-312,183	-135,623	0,031	0,003
-311,168	-23,255	-0,170	-0,074
-310,153	-95,951	0,050	0,010
-309,139	800,000	-0,028	-0,088
-308,124	43,031	0,152	0,100
-307,110	-200,000	0,013	0,077
-306,095	-133,717	-0,114	0,010
-305,080	-52,114	0,126	0,042
-304,066	-94,631	-0,125	0,024
-303,051	44,620	-0,124	0,082
-302,037	-120,617	-0,131	0,016
-301,022	55,464	0,115	-0,080
-300,008	-102,881	-0,071	-0,012
-298,993	463,197	0,078	0,128
-297,978	345,955	-0,104	0,149
-296,964	0,477	-0,104	-0,054
-295,949	169,578	-0,054	-0,056
-294,935	570,595	0,024	-0,042
-293,920	333,752	0,007	-0,010
-292,905	78,655	-0,017	-0,013
-291,891	-200,000	0,014	0,058
-290,876	90,978	0,078	-0,064
-289,862	85,344	-0,155	0,124
-288,847	-200,000	-0,028	-0,147
-287,832	-64,189	-0,036	-0,010
-286,818	-200,000	-0,009	0,113
-285,803	-49,926	0,181	-0,062
-284,789	16,951	0,173	0,099
-283,774	800,000	-0,013	-0,033
-282,759	251,298	-0,046	0,057
-281,745	93,745	-0,060	-0,049
-280,730	439,492	0,067	-0,107
-279,716	-26,603	0,032	-0,013
-278,701	-200,000	0,005	0,030
-277,686	800,000	-0,034	0,080
-276,672	-200,000	0,011	0,124
-275,657	-138,998	0,081	0,006
-274,643	-200,000	0,017	0,113
-273,628	178,636	0,082	-0,087
-272,613	-26,943	0,034	-0,014
-271,599	36,647	0,063	0,040
-270,584	-123,494	-0,046	-0,005
-269,570	-200,000	0,001	0,089
-268,555	-200,000	-0,015	-0,066
-267,540	595,136	0,048	-0,087
-266,526	213,861	-0,059	0,067
-265,511	-200,000	0,019	-0,168
-264,497	-22,423	0,101	-0,044
-263,482	358,729	0,098	0,143
-262,467	-152,833	0,137	-0,007
-261,453	-200,000	0,004	0,071
-260,438	81,830	0,063	-0,050
-259,424	-130,576	-0,218	0,021
-258,409	8,452	-0,051	-0,028
-257,395	-56,439	0,107	-0,034
-256,380	-200,000	0,013	0,069
-255,365	81,416	0,079	0,062
-254,351	-35,462	0,038	-0,015
-253,336	174,455	-0,012	-0,013
-252,322	800,000	-0,046	0,107
-251,307	63,503	-0,060	-0,044
-250,292	365,783	0,020	0,030
-249,278	800,000	0,042	0,102
-248,263	394,226	0,141	0,214
-247,249	-200,000	0,025	-0,088
-246,234	-103,266	-0,063	0,011
-245,219	289,263	0,029	0,039
-244,205	192,599	-0,110	-0,120
-243,190	166,092	-0,086	0,088
-242,176	-67,034	-0,170	0,048
-241,161	273,560	0,063	0,080
-240,146	-200,000	-0,020	-0,088
-239,132	-118,496	-0,124	-0,016
-238,117	156,891	0,109	0,109
-237,103	-200,000	0,015	-0,084
-236,088	800,000	0,054	0,142
-235,073	-15,713	0,066	0,030
-234,059	68,762	0,050	0,037
-233,044	-139,913	0,065	-0,005
-232,030	-200,000	0,010	0,172
-231,015	-200,000	0,004	-0,109
-230,000	83,918	-0,041	0,032
-228,986	-12,914	0,115	0,054
-227,971	-200,000	0,015	-0,074
-226,957	-9,857	0,029	0,014
-225,942	-200,000	-0,003	0,024
-224,927	-200,000	0,016	-0,056
-223,913	37,698	0,069	0,044
-222,898	-200,000	-0,001	0,085
-221,884	105,900	-0,066	0,056
-220,869	326,938	-0,046	-0,065
-219,855	-200,000	-0,021	0,074
-218,840	-66,949	0,077	0,022
-217,825	-162,967	0,019	0,001
-216,811	42,324	0,116	0,076
-215,796	231,043	-0,054	-0,064
-214,782	-55,200	0,082	0,027
-213,767	-200,000	0,008	-0,041
-212,752	800,000	0,039	0,080
-211,738	-88,628	-0,081	0,017
-210,723	-33,520	-0,045	0,018
-209,709	-45,380	-0,155	-0,055
-208,694	-200,000	-0,025	-0,150
-207,679	-200,000	0,003	0,069
-206,665	-142,706	0,081	0,006
-205,650	-200,000	0,024	0,132
-204,636	213,644	-0,039	-0,045
-203,621	-85,403	0,023	-0,005
-202,606	117,195	-0,086	-0,077
-201,592	172,308	-0,091	-0,095
-200,577	800,000	0,040	-0,104
-199,563	-200,000	0,003	0,178
-198,548	-13,072	0,085	0,040
-197,533	-200,000	0,012	-0,048
-196,519	-86,861	0,143	0,031
-195,504	-110,141	-0,049	0,007
-194,490	87,781	0,046	-0,037
-193,475	4,959	-0,066	-0,035
-192,460	800,000	-0,055	0,124
-191,446	42,322	-0,031	0,020
-190,431	79,257	-0,090	0,070
-189,417	-200,000	-0,012	0,098
-188,402	-200,000	0,016	0,130
-187,387	-200,000	0,006	-0,135
-186,373	-89,662	0,131	-0,027
-185,358	-84,885	-0,167	-0,038
-184,344	-200,000	-0,003	0,121
-183,329	-99,107	0,148	-0,027
-182,315	182,491	0,087	0,092
-181,300	745,817	-0,040	-0,078
-180,285	-58,843	-0,061	0,019
-179,271	-200,000	0,005	0,091
-178,256	800,000	0,067	-0,155
-177,242	-200,000	-0,009	0,048
-176,227	18,729	-0,085	0,049
-175,212	800,000	0,043	0,093
-174,198	-200,000	0,007	0,127
-173,183	-69,000	-0,059	0,016
-172,169	32,175	0,085	0,053
-171,154	34,559	-0,078	-0,049
-170,139	341,779	-0,026	-0,037
-169,125	406,311	0,116	-0,177
-168,110	-153,112	-0,075	0,004
-167,096	100,982	0,120	0,101
-166,081	21,110	-0,135	-0,079
-165,066	-45,302	0,072	-0,026
-164,052	1,125	0,093	-0,048
-163,037	95,409	-0,017	-0,014
-162,023	29,704	0,104	0,064
-161,008	194,479	-0,061	-0,067
-159,993	-200,000	-0,014	-0,207
-158,979	-72,159	-0,047	0,013
-157,964	488,047	0,025	-0,041
-156,950	-19,917	-0,052	0,023
-155,935	800,000	-0,016	0,040
-154,920	-102,280	0,130	-0,022
-153,906	94,607	0,117	0,096
-152,891	-80,727	0,065	-0,015
-151,877	800,000	0,057	-0,130
-150,862	-200,000	0,009	-0,063
-149,847	-200,000	0,002	-0,040
-148,833	-95,830	-0,047	0,009
-147,818	128,862	0,054	0,050
-146,804	1,148	0,076	-0,039
-145,789	85,909	0,085	0,068
-144,775	95,499	0,008	0,006
-143,760	-200,000	-0,000	-0,069
-142,745	-74,830	0,095	-0,024
-141,731	3,063	0,060	-0,031
-140,716	-143,595	0,053	-0,004
-139,702	-149,297	0,055	-0,003
-138,687	-34,696	-0,060	0,023
-137,672	7,496	0,067	0,036
-136,658	531,606	-0,020	-0,034
-135,643	-103,346	0,060	-0,010
-134,629	154,817	-0,094	0,093
-133,614	682,812	-0,017	0,033
-132,599	2,398	-0,056	-0,029
-131,585	-200,000	0,028	0,096
-130,570	-200,000	-0,025	0,107
-129,556	-66,292	-0,076	0,022
-128,541	-200,000	-0,009	0,068
-127,526	-200,000	0,003	0,035
-126,512	318,756	0,083	0,114
-125,497	97,584	0,149	-0,123
-124,483	21,210	-0,088	0,051
-123,468	-200,000	0,017	0,074
-122,453	340,676	0,047	0,067
-121,439	29,893	0,082	0,050
-120,424	-92,230	0,015	0,003
-119,410	132,497	0,100	0,093
