DTS Sentinel unit serial number:	SN410029Multiplexer serial number:	ORYXHardware model number:	OX2-SRSoftware version number:	ORYX F/W v4,00 Oryx Data Collector v3.7.2.0data status	okinstallation	B5 Nyhavnadifferential loss correction	single-endedforward channel	channel 2reverse channel	N/Adate	2023/12/13time	12:37:13forward acquisition time	300,00reverse acquisition time	0,00gamma	499,1914k internal	0,3161k external	0,3161temperature offset calibration	1,0000default loss term (dB/km)	0,3820temperature slope calibration	1,0000multiplexer offset coefficient	1,0000multiplexer slope coefficient	1,0000fibre end	0,00T internal ref (°C)	14,18T ext. ref 1 (°C)	-1,62T ext. ref 2 (°C)	-1,94length (m)	temperature (°C)	Stokes	anti-Stokes-744,400	35,407	0,049	-0,032
-743,385	-122,122	-0,326	-0,039
-742,371	-105,118	0,087	-0,014
-741,356	3,770	-0,305	0,163
-740,342	-119,476	0,098	-0,012
-739,327	-106,265	-0,154	-0,025
-738,312	-83,316	0,141	-0,033
-737,298	-158,151	-0,250	0,011
-736,283	31,201	0,120	0,075
-735,269	-92,466	-0,319	0,065
-734,254	-155,112	0,089	0,004
-733,239	-32,597	-0,492	-0,201
-732,225	-156,708	0,169	0,008
-731,210	308,753	-0,026	0,035
-730,196	800,000	0,022	0,068
-729,181	-132,342	-0,086	-0,008
-728,167	51,414	0,077	-0,054
-727,152	695,769	-0,080	-0,156
-726,137	24,547	-0,142	-0,086
-725,123	800,000	0,040	-0,092
-724,108	800,000	-0,061	0,161
-723,094	21,133	-0,182	-0,108
-722,079	337,281	0,020	0,029
-721,064	-200,000	0,011	-0,047
-720,050	800,000	-0,028	0,086
-719,035	-200,000	-0,020	0,097
-718,021	-200,000	-0,043	-0,209
-717,006	-61,699	-0,039	-0,012
-715,991	800,000	-0,034	-0,104
-714,977	110,564	0,042	0,037
-713,962	-56,744	-0,157	-0,051
-712,948	-200,000	0,003	0,035
-711,933	69,351	0,123	0,093
-710,918	-200,000	-0,000	0,132
-709,904	-71,438	-0,139	-0,038
-708,889	-200,000	-0,003	0,000
-707,875	-200,000	-0,010	-0,053
-706,860	273,056	0,003	0,003
-705,845	22,170	-0,052	-0,031
-704,831	115,135	-0,038	-0,034
-703,816	-6,541	-0,039	0,020
-702,802	339,446	-0,068	-0,098
-701,787	45,000	-0,168	-0,113
-700,772	-82,730	0,070	-0,016
-699,758	277,199	0,050	0,065
-698,743	188,171	-0,032	0,035
-697,729	588,635	0,026	-0,047
-696,714	62,819	0,034	-0,025
-695,699	-55,995	0,066	0,022
-694,685	504,352	-0,043	-0,073
-693,670	-51,042	-0,075	-0,026
-692,656	-200,000	0,018	-0,187
-691,641	-132,948	-0,131	-0,012
-690,627	89,598	0,026	0,021
-689,612	577,286	0,076	-0,136
-688,597	-61,767	-0,082	0,025
-687,583	-200,000	-0,051	-0,191
-686,568	75,515	0,070	-0,054
-685,554	-200,000	-0,025	0,105
-684,539	40,590	0,048	-0,032
-683,524	214,142	-0,132	0,154
-682,510	800,000	0,047	0,124
-681,495	-200,000	0,002	0,010
-680,481	800,000	0,005	-0,011
-679,466	-24,346	-0,066	-0,029
-678,451	800,000	0,011	-0,024
-677,437	-71,727	0,056	0,015
-676,422	-69,620	0,094	-0,026
-675,408	800,000	0,039	-0,083
-674,393	800,000	0,033	-0,083
-673,378	91,568	0,023	-0,019
-672,364	62,548	-0,065	0,047
-671,349	-200,000	0,017	-0,120
-670,335	693,100	0,061	-0,117
-669,320	114,027	-0,077	0,069
-668,305	38,789	-0,172	-0,112
-667,291	-99,425	-0,051	0,009
-666,276	800,000	0,028	0,081
-665,262	201,091	-0,046	0,052
-664,247	-85,323	-0,044	0,010
-663,232	134,091	-0,078	-0,075
-662,218	161,356	-0,034	-0,035
-661,203	800,000	-0,024	-0,065
-660,189	-200,000	-0,009	-0,063
-659,174	263,571	-0,058	-0,074
-658,159	-200,000	-0,016	-0,092
-657,145	-145,106	0,052	0,003
-656,130	800,000	-0,012	0,029
-655,116	800,000	0,060	-0,148
-654,101	-200,000	0,016	-0,198
-653,086	-81,712	-0,099	-0,024
-652,072	382,727	0,058	-0,088
-651,057	-129,648	-0,082	0,008
-650,043	-118,618	-0,130	0,017
-649,028	800,000	0,023	-0,048
-648,014	344,923	0,015	-0,022
-646,999	387,241	-0,032	0,049
-645,984	486,222	0,011	-0,019
-644,970	18,421	-0,102	-0,060
-643,955	-200,000	0,002	0,060
-642,941	-62,966	-0,181	-0,054
-641,926	517,825	0,029	0,050
-640,911	-200,000	0,022	0,082
-639,897	0,383	-0,018	0,009
-638,882	800,000	-0,031	0,066
-637,868	64,642	-0,059	0,044
-636,853	800,000	-0,034	-0,108
-635,838	208,347	0,121	-0,139
-634,824	800,000	0,041	-0,104
-633,809	-83,201	-0,097	-0,023
-632,795	-113,589	0,012	-0,002
-631,780	-173,802	-0,168	-0,004
-630,765	424,681	-0,077	-0,122
-629,751	-81,740	0,184	-0,044
-628,736	5,834	-0,020	-0,011
-627,722	52,720	-0,115	-0,081
-626,707	-200,000	-0,028	0,140
-625,692	-200,000	0,009	0,064
-624,678	-41,212	-0,138	-0,052
-623,663	131,576	0,046	0,044
-622,649	-200,000	-0,020	0,125
-621,634	9,247	-0,059	0,033
-620,619	800,000	-0,022	-0,046
-619,605	800,000	-0,064	-0,156
-618,590	-92,253	0,066	0,013
-617,576	-25,806	0,154	-0,066
-616,561	359,245	-0,043	0,063
-615,546	98,016	-0,051	0,043
-614,532	765,882	-0,034	-0,067
-613,517	187,817	-0,022	-0,024
-612,503	172,007	-0,061	-0,065
-611,488	-200,000	0,019	0,064
-610,474	32,206	0,042	-0,026
-609,459	-200,000	0,016	-0,124
-608,444	-200,000	-0,007	-0,093
-607,430	4,194	-0,147	-0,079
-606,415	415,392	0,048	-0,076
-605,401	463,092	-0,043	-0,071
-604,386	777,034	-0,084	0,169
-603,371	304,984	0,097	0,132
-602,357	228,172	0,045	-0,053
-601,342	800,000	-0,050	-0,117
-600,328	800,000	-0,059	-0,129
-599,313	-200,000	0,012	0,041
-598,298	161,624	0,056	0,058
-597,284	17,370	0,104	0,060
-596,269	351,426	-0,061	-0,088
-595,255	590,710	-0,076	-0,139
-594,240	-3,891	0,027	0,014
-593,225	141,520	0,059	-0,057
-592,211	424,484	-0,052	-0,083
-591,196	-200,000	-0,024	-0,154
-590,182	253,237	0,061	0,076
-589,167	-29,169	-0,108	0,045
-588,152	69,404	-0,106	-0,080
-587,138	-138,705	0,088	-0,007
-586,123	767,617	-0,031	0,061
-585,109	-76,524	-0,114	-0,029
-584,094	476,379	0,080	-0,133
-583,079	-173,060	0,112	0,002
-582,065	-200,000	0,010	0,094
-581,050	-94,748	0,027	0,005
-580,036	629,556	-0,055	-0,102
-579,021	-145,303	-0,099	0,006
-578,006	32,407	-0,110	-0,070
-576,992	-63,805	0,147	0,044
-575,977	250,177	0,041	0,051
-574,963	-73,488	0,050	-0,013
-573,948	-17,772	0,077	-0,035
-572,934	-200,000	0,003	0,068
-571,919	98,153	-0,088	0,074
-570,904	-24,638	0,098	-0,043
-569,890	200,943	0,103	0,116
-568,875	-200,000	0,016	0,110
-567,861	-7,978	0,041	-0,020
-566,846	60,884	0,108	-0,079
-565,831	76,701	-0,213	0,165
-564,817	800,000	0,047	0,099
-563,802	185,351	-0,063	-0,068
-562,788	20,669	0,059	-0,035
-561,773	71,884	-0,017	-0,013
-560,758	-200,000	-0,028	0,257
-559,744	108,036	0,045	0,039
-558,729	103,399	-0,136	0,117
-557,715	409,648	-0,083	-0,129
-556,700	-83,817	0,080	-0,019
-555,685	-200,000	-0,019	-0,063
-554,671	104,839	0,125	-0,108
-553,656	-48,844	0,105	-0,037
-552,642	43,185	-0,127	0,085
-551,627	-200,000	-0,014	0,141
-550,612	-200,000	0,020	0,184
-549,598	-200,000	-0,000	-0,033
-548,583	21,423	-0,091	-0,054
-547,569	-200,000	0,005	-0,078
-546,554	-116,901	0,012	-0,002
-545,539	-147,311	-0,127	-0,008
-544,525	282,219	-0,030	-0,039
-543,510	339,487	0,037	0,053
-542,496	-57,409	-0,106	-0,034
-541,481	-200,000	0,002	0,059
-540,466	133,292	-0,065	0,062
-539,452	32,496	0,050	0,031
-538,437	648,980	0,004	0,007
-537,423	800,000	0,032	0,087
-536,408	-200,000	-0,018	-0,068
-535,393	-123,663	-0,164	-0,019
-534,379	800,000	0,036	-0,109
-533,364	562,227	-0,018	0,031
-532,350	8,520	-0,058	0,032
-531,335	181,071	-0,060	0,065
-530,321	-200,000	0,009	0,067
-529,306	732,945	0,045	0,088
-528,291	-37,212	-0,071	0,028
-527,277	-200,000	0,036	-0,280
-526,262	189,918	-0,071	-0,078
-525,248	240,564	-0,078	-0,095
-524,233	800,000	0,022	-0,057
-523,218	-200,000	-0,012	-0,060
-522,204	349,922	0,123	-0,178
-521,189	705,235	-0,043	-0,083
-520,175	43,060	0,092	-0,061
-519,160	-54,014	0,023	0,008
-518,145	-55,555	0,090	0,029
-517,131	-200,000	-0,015	-0,075
-516,116	-200,000	-0,001	0,051
-515,102	800,000	-0,047	0,103
-514,087	-106,271	-0,123	0,020
-513,072	305,661	0,040	-0,054
-512,058	800,000	-0,018	-0,041
-511,043	130,547	-0,059	-0,055
-510,029	44,720	0,061	0,041
-509,014	800,000	0,022	-0,048
-507,999	68,923	0,067	-0,050
-506,985	79,180	-0,029	-0,022
-505,970	-200,000	-0,012	-0,101
-504,956	-200,000	-0,008	0,128
-503,941	-200,000	0,000	-0,093
-502,926	-39,453	0,133	-0,051
-501,912	222,898	-0,099	-0,117
-500,897	1,770	-0,070	0,037
-499,883	179,463	0,074	0,079
-498,868	-89,879	0,108	0,023
-497,853	18,320	-0,105	-0,061
-496,839	528,678	0,028	-0,048
-495,824	-200,000	-0,002	0,153
-494,810	653,328	0,055	0,104
-493,795	754,779	-0,046	0,092
-492,781	-200,000	-0,026	-0,141
-491,766	222,825	0,083	-0,098
-490,751	-86,042	-0,083	0,019
-489,737	797,814	-0,022	-0,045
-488,722	-177,724	-0,288	0,005
-487,708	141,426	0,046	0,044
-486,693	27,070	-0,140	0,086
-485,678	-200,000	0,036	-0,142
-484,664	59,323	0,090	-0,064
-483,649	-72,541	-0,131	-0,035
-482,635	-200,000	-0,009	-0,097
-481,620	800,000	0,030	-0,065
-480,605	-200,000	0,006	0,116
-479,591	317,785	-0,051	0,070
-478,576	800,000	0,006	0,018
-477,562	164,162	0,017	0,018
-476,547	-200,000	0,015	-0,136
-475,532	598,444	0,040	0,072
-474,518	-54,481	-0,008	-0,002
-473,503	-200,000	-0,038	0,165
-472,489	284,950	0,045	0,060
-471,474	-200,000	0,004	0,056
-470,459	-36,421	-0,055	-0,022
-469,445	800,000	0,033	0,101
-468,430	27,767	0,049	0,030
-467,416	-200,000	-0,021	-0,085
-466,401	800,000	0,027	0,085
-465,386	12,524	-0,100	0,056
-464,372	-200,000	0,042	0,145
-463,357	475,880	-0,105	-0,173
-462,343	212,936	0,139	-0,160
-461,328	800,000	0,028	-0,083
-460,313	184,477	0,053	0,057
-459,299	800,000	0,040	0,101
-458,284	-27,663	0,045	0,019
-457,270	-200,000	-0,015	0,234
-456,255	-92,023	0,080	-0,016
-455,241	-88,858	-0,112	-0,024
-454,226	-108,954	0,133	0,020
-453,211	-200,000	-0,008	0,062
-452,197	-32,088	0,123	0,050
-451,182	-25,460	0,098	0,042
-450,168	800,000	-0,011	0,035
-449,153	-114,005	-0,203	0,028
-448,138	-200,000	0,048	-0,170
-447,124	43,597	0,077	0,051
-446,109	800,000	-0,062	-0,173
-445,095	-73,669	0,195	0,051
-444,080	-140,575	0,211	-0,016
-443,065	-44,692	0,107	0,039
-442,051	800,000	0,030	-0,075
-441,036	-51,370	0,091	-0,031
-440,022	315,199	-0,073	-0,101
-439,007	-200,000	-0,002	-0,104
-437,992	-42,688	0,096	-0,036
-436,978	21,141	0,075	0,044
-435,963	800,000	-0,037	0,113
-434,949	800,000	-0,028	-0,062
-433,934	-0,817	0,071	0,037
-432,919	-200,000	0,014	-0,049
-431,905	-157,216	-0,065	-0,003
-430,890	597,266	-0,013	-0,024
-429,876	61,258	0,083	-0,060
-428,861	800,000	-0,033	0,101
-427,846	-15,346	0,043	-0,020
-426,832	329,183	0,031	0,043
-425,817	-200,000	-0,016	-0,071
-424,803	-200,000	0,058	-0,249
-423,788	767,248	0,062	0,124
-422,773	-47,535	0,124	0,044
-421,759	-99,956	-0,034	0,006
-420,744	-101,207	-0,034	-0,006
-419,730	104,942	0,041	0,035
-418,715	219,587	0,057	0,066
-417,701	93,492	-0,084	-0,069
-416,686	-200,000	0,000	-0,028
-415,671	-70,832	0,079	0,021
-414,657	800,000	-0,046	-0,106
-413,642	800,000	-0,008	-0,018
-412,628	78,198	0,086	0,067
-411,613	-200,000	0,002	0,011
-410,598	65,562	-0,134	0,098
-409,584	182,224	0,135	0,145
-408,569	134,938	-0,053	0,051
-407,555	10,746	0,132	-0,073
-406,540	-80,000	-0,023	0,006
-405,525	-42,940	-0,185	-0,068
-404,511	-175,893	-0,057	-0,001
-403,496	-163,384	0,152	0,005
-402,482	58,512	0,060	-0,043
-401,467	-200,000	-0,005	0,096
-400,452	-200,000	0,032	0,128
-399,438	74,291	-0,070	0,053
-398,423	-86,582	0,075	-0,017
-397,409	800,000	0,044	-0,129
-396,394	-129,544	-0,063	-0,006
-395,379	-200,000	0,014	0,050
-394,365	291,081	0,091	0,120
-393,350	32,630	0,091	0,057
-392,336	-104,534	0,096	0,016
-391,321	-78,790	-0,117	-0,029
-390,306	173,401	0,057	-0,060
-389,292	197,763	-0,074	-0,082
-388,277	28,132	0,022	0,014
-387,263	-62,828	0,065	0,020
-386,248	-9,772	-0,130	0,062
-385,233	114,416	-0,095	-0,084
-384,219	-200,000	0,002	0,023
-383,204	325,981	0,022	0,031
-382,190	-117,486	0,048	-0,006
-381,175	-200,000	0,021	-0,078
-380,160	-9,209	0,143	-0,069
-379,146	148,437	0,094	-0,092
-378,131	800,000	0,050	0,104
-377,117	-112,369	0,020	-0,003
-376,102	496,903	0,052	-0,087
-375,088	125,806	-0,102	-0,094
-374,073	113,470	-0,117	-0,103
-373,058	-6,876	-0,040	-0,020
-372,044	-200,000	-0,011	-0,060
-371,029	567,075	0,005	0,009
-370,015	-35,417	0,094	-0,037
-369,000	143,229	-0,138	-0,133
-367,985	-185,747	-0,113	-0,001
-366,971	-10,643	-0,056	-0,027
-365,956	37,339	-0,062	-0,040
-364,942	329,066	0,052	-0,073
-363,927	762,311	-0,035	0,069
-362,912	800,000	0,017	0,054
-361,898	298,215	-0,037	0,049
-360,883	-78,618	0,078	-0,019
-359,869	-109,141	-0,090	-0,014
-358,854	25,478	-0,080	-0,048
-357,839	279,140	-0,058	-0,076
-356,825	675,632	0,089	0,168
-355,810	-200,000	0,001	-0,099
-354,796	105,955	-0,032	-0,028
-353,781	-200,000	0,016	-0,141
-352,766	93,883	-0,060	0,050
-351,752	-194,481	-0,059	-0,000
-350,737	108,211	0,103	-0,089
-349,723	-82,003	-0,067	0,016
-348,708	-2,714	-0,102	0,052
-347,693	-125,859	-0,057	-0,006
-346,679	-84,111	-0,087	-0,020
-345,664	202,561	0,024	0,027
-344,650	73,099	-0,042	-0,032
-343,635	-4,973	0,060	0,030
-342,620	-186,842	0,141	0,001
-341,606	800,000	0,034	0,105
-340,591	-73,261	0,042	-0,011
-339,577	144,413	-0,083	-0,081
-338,562	85,511	-0,156	-0,124
-337,548	34,206	0,076	-0,048
-336,533	84,854	0,070	0,056
-335,518	152,667	-0,042	0,042
-334,504	800,000	0,054	0,122
-333,489	-11,074	0,090	0,043
-332,475	-87,845	-0,132	0,029
-331,460	391,595	-0,075	-0,113
-330,445	726,382	-0,029	0,057
-329,431	381,979	0,054	0,080
-328,416	236,150	0,177	0,212
-327,402	789,332	0,042	0,084
-326,387	-200,000	-0,009	0,031
-325,372	-101,702	-0,096	0,017
-324,358	800,000	-0,039	-0,094
-323,343	-200,000	0,034	-0,188
-322,329	-200,000	-0,037	-0,136
-321,314	-131,499	-0,103	-0,010
-320,299	-88,929	-0,052	-0,011
-319,285	18,497	0,016	0,009
-318,270	21,992	-0,070	0,041
-317,256	81,936	-0,150	-0,118
-316,241	-200,000	0,030	0,000
-315,226	800,000	-0,039	0,124
-314,212	621,557	-0,056	0,102
-313,197	-200,000	0,013	0,063
-312,183	-200,000	-0,009	0,094
-311,168	-125,612	0,056	0,006
-310,153	800,000	-0,002	-0,004
-309,139	-36,478	-0,158	-0,061
-308,124	753,611	-0,085	0,167
-307,110	-200,000	0,008	0,171
-306,095	800,000	0,013	0,042
-305,080	193,259	0,059	-0,065
-304,066	65,927	-0,141	0,103
-303,051	58,441	0,031	-0,022
-302,037	625,041	0,029	0,053
-301,022	-135,081	0,066	0,006
-300,008	106,294	0,094	0,081
-298,993	-157,879	0,111	-0,005
-297,978	-200,000	-0,002	0,078
-296,964	-126,101	-0,093	0,010
-295,949	-86,115	-0,077	0,017
-294,935	-27,671	0,046	0,019
-293,920	-4,406	-0,084	-0,042
-292,905	-4,267	-0,093	0,046
-291,891	800,000	0,029	0,083
-290,876	-36,057	0,033	-0,013
-289,862	-12,620	-0,028	0,013
-288,847	-12,683	-0,071	-0,033
-287,832	87,884	-0,075	0,060
-286,818	-20,542	0,063	-0,028
-285,803	-56,611	0,085	0,027
-284,789	-14,275	-0,036	0,017
-283,774	94,281	0,114	0,094
-282,759	-103,643	0,150	-0,025
-281,745	-77,317	0,074	-0,019
-280,730	800,000	0,046	-0,094
-279,716	-18,322	-0,053	0,024
-278,701	800,000	-0,022	-0,063
-277,686	27,076	0,114	0,069
-276,672	-28,576	0,085	0,035
-275,657	-200,000	0,000	0,065
-274,643	-69,421	0,064	-0,018
-273,628	293,576	-0,055	0,073
-272,613	-200,000	0,001	0,157
-271,599	-15,811	0,099	0,046
-270,584	205,884	-0,037	-0,042
-269,570	36,448	0,087	-0,055
-268,555	-200,000	0,009	0,107
-267,540	800,000	-0,051	-0,120
-266,526	-33,808	-0,137	-0,054
-265,511	-200,000	-0,019	0,103
-264,497	-200,000	-0,033	0,131
-263,482	-119,687	0,070	0,009
-262,467	-200,000	-0,002	-0,037
-261,453	-81,751	0,047	-0,011
-260,438	61,999	-0,054	0,039
-259,424	800,000	0,016	-0,052
-258,409	46,788	-0,043	-0,029
-257,395	-18,505	0,092	-0,041
-256,380	-2,979	0,026	0,013
-255,365	61,878	-0,047	0,034
-254,351	-161,161	-0,044	0,002
-253,336	-200,000	-0,001	-0,007
-252,322	71,020	0,024	0,018
-251,307	-89,732	0,048	-0,010
-250,292	483,998	-0,031	0,051
-249,278	-25,834	0,058	-0,024
-248,263	86,939	-0,066	0,052
-247,249	462,441	-0,031	-0,050
-246,234	48,999	-0,018	-0,012
-245,219	317,002	0,016	-0,022
-244,205	121,552	-0,145	-0,131
-243,190	176,376	-0,050	0,053
-242,176	20,574	0,054	0,031
-241,161	-55,200	0,207	0,067
-240,146	728,605	0,074	0,143
-239,132	-34,880	-0,051	0,020
-238,117	49,783	-0,073	0,049
-237,103	357,654	0,050	0,072
-236,088	-200,000	-0,001	0,066
-235,073	800,000	0,033	-0,086
-234,059	113,196	0,067	0,059
-233,044	800,000	0,086	0,228
-232,030	-200,000	0,005	0,058
-231,015	168,828	-0,013	0,013
-230,000	-200,000	-0,011	-0,125
-228,986	800,000	0,057	-0,139
-227,971	800,000	-0,045	-0,117
-226,957	47,243	-0,084	0,057
-225,942	-200,000	-0,016	0,190
-224,927	210,790	0,031	-0,035
-223,913	-200,000	-0,023	-0,165
-222,898	-200,000	0,004	-0,180
-221,884	6,865	-0,063	-0,034
-220,869	800,000	0,058	-0,138
-219,855	2,638	0,068	-0,035
-218,840	-32,123	0,047	-0,019
-217,825	-200,000	-0,004	-0,157
-216,811	785,290	0,027	-0,053
-215,796	-200,000	0,004	-0,078
-214,782	-200,000	0,006	0,092
-213,767	-57,495	0,115	0,036
-212,752	800,000	0,041	0,129
-211,738	232,944	0,053	0,063
-210,723	800,000	0,065	-0,159
-209,709	-200,000	0,029	-0,107
-208,694	-37,281	-0,102	-0,039
-207,679	74,714	-0,049	-0,037
-206,665	124,778	0,042	0,038
-205,650	-200,000	-0,012	0,077
-204,636	-10,427	0,089	-0,042
-203,621	238,375	0,041	0,050
-202,606	-200,000	-0,036	0,000
-201,592	41,971	-0,035	0,023
-200,577	-72,991	-0,116	0,030
-199,563	-48,092	0,023	0,008
-198,548	-160,243	-0,116	-0,004
-197,533	800,000	0,023	0,064
-196,519	419,628	0,062	0,095
-195,504	-200,000	-0,002	-0,096
-194,490	260,071	-0,094	0,118
-193,475	-200,000	0,007	0,048
-192,460	136,518	0,036	-0,033
-191,446	-200,000	0,021	0,075
-190,431	-200,000	-0,007	0,039
-189,417	-200,000	-0,003	0,107
-188,402	506,824	0,050	-0,084
-187,387	-200,000	0,033	-0,108
-186,373	59,589	-0,033	0,023
-185,358	-31,619	-0,132	0,053
-184,344	-116,492	0,131	0,017
-183,329	237,171	0,053	-0,063
-182,315	111,702	0,068	0,059
-181,300	-129,690	0,058	-0,006
-180,285	800,000	-0,003	0,008
-179,271	-156,726	-0,059	0,003
-178,256	-200,000	0,027	0,087
-177,242	249,285	-0,056	-0,069
-176,227	275,608	-0,095	0,122
-175,212	111,527	0,073	0,063
-174,198	-200,000	0,001	-0,012
-173,183	-74,646	-0,041	-0,010
-172,169	624,502	0,036	0,066
-171,154	345,607	-0,046	0,065
-170,139	4,200	-0,073	-0,039
-169,125	-50,556	0,027	0,009
-168,110	-200,000	-0,004	-0,033
-167,096	198,860	0,090	0,099
-166,081	-200,000	0,004	0,032
-165,066	-200,000	0,006	-0,162
-164,052	-200,000	0,012	0,093
-163,037	-200,000	0,010	0,117
-162,023	169,326	-0,071	-0,073
-161,008	96,516	0,117	0,096
-159,993	-200,000	0,031	-0,139
-158,979	157,814	0,023	-0,023
-157,964	6,620	-0,086	0,046
-156,950	-25,914	-0,044	-0,018
-155,935	-106,464	0,026	0,004
-154,920	201,348	0,057	0,063
-153,906	101,624	0,036	-0,030
-152,891	293,330	-0,069	-0,091
-151,877	-172,438	0,140	0,003
-150,862	176,139	-0,197	-0,206
-149,847	-52,813	-0,167	-0,055
-148,833	266,505	0,092	-0,116
-147,818	800,000	0,058	0,140
-146,804	-200,000	0,028	0,123
-145,789	-200,000	-0,010	0,158
-144,775	800,000	0,046	-0,123
-143,760	-8,933	0,103	0,049
-142,745	-148,984	-0,087	-0,005
-141,731	0,083	-0,068	-0,035
-140,716	-200,000	-0,000	0,038
-139,702	67,388	-0,036	0,027
-138,687	-99,386	0,031	-0,006
-137,672	800,000	-0,027	-0,061
-136,658	-126,136	0,051	-0,005
-135,643	238,328	0,025	0,030
-134,629	-200,000	-0,011	-0,038
-133,614	-200,000	-0,003	-0,035
-132,599	122,673	0,051	0,046
-131,585	-119,145	0,070	0,009
-130,570	-4,592	-0,089	0,044
-129,556	269,675	0,043	0,054
-128,541	-85,458	-0,131	-0,029
-127,526	800,000	0,042	-0,122
-126,512	-200,000	-0,023	-0,111
-125,497	-200,000	0,029	-0,104
-124,483	-5,341	0,052	0,026
-123,468	101,859	-0,087	0,073
-122,453	-200,000	0,015	-0,109
-121,439	-200,000	0,012	-0,078
-120,424	-12,980	-0,177	-0,083
-119,410	-11,102	0,025	0,012
-118,395	-75,366	0,083	0,021
