DTS Sentinel unit serial number:	SN410029Multiplexer serial number:	ORYXHardware model number:	OX2-SRSoftware version number:	ORYX F/W v4,00 Oryx Data Collector v3.7.2.0data status	okinstallation	B5 Nyhavnadifferential loss correction	single-endedforward channel	channel 2reverse channel	N/Adate	2023/12/13time	06:47:13forward acquisition time	300,00reverse acquisition time	0,00gamma	499,1914k internal	0,3160k external	0,3160temperature offset calibration	1,0000default loss term (dB/km)	0,3820temperature slope calibration	1,0000multiplexer offset coefficient	1,0000multiplexer slope coefficient	1,0000fibre end	0,00T internal ref (°C)	13,75T ext. ref 1 (°C)	-2,75T ext. ref 2 (°C)	-3,06length (m)	temperature (°C)	Stokes	anti-Stokes-744,400	-105,009	0,143	-0,024
-743,385	-20,191	-0,306	-0,138
-742,371	706,835	0,137	0,267
-741,356	-114,466	-0,277	0,039
-740,342	-108,663	0,259	-0,040
-739,327	-156,113	-0,372	-0,017
-738,312	-50,009	0,119	-0,041
-737,298	-152,645	-0,329	-0,017
-736,283	286,186	0,067	-0,089
-735,269	-130,033	-0,320	-0,032
-734,254	16,175	0,010	0,006
-733,239	-75,857	-0,391	-0,101
-732,225	-83,569	0,263	-0,061
-731,210	353,301	-0,040	-0,059
-730,196	409,005	-0,055	-0,086
-729,181	76,165	0,066	-0,051
-728,167	-200,000	-0,025	-0,125
-727,152	580,469	-0,044	-0,080
-726,137	-200,000	-0,017	-0,056
-725,123	-90,239	-0,062	0,013
-724,108	-34,987	-0,172	-0,069
-723,094	-200,000	-0,044	-0,170
-722,079	382,845	0,070	-0,106
-721,064	-200,000	-0,001	-0,058
-720,050	302,488	-0,032	0,044
-719,035	119,820	0,095	-0,086
-718,021	548,958	0,083	0,147
-717,006	-41,080	-0,079	0,030
-715,991	182,681	-0,059	-0,064
-714,977	530,419	-0,039	-0,069
-713,962	-200,000	-0,020	-0,104
-712,948	800,000	-0,021	0,063
-711,933	800,000	-0,032	-0,081
-710,918	800,000	-0,038	-0,112
-709,904	-200,000	-0,006	-0,082
-708,889	-33,164	-0,117	-0,048
-707,875	15,381	0,059	-0,034
-706,860	-134,179	0,133	-0,012
-705,845	3,308	-0,039	-0,021
-704,831	-23,617	-0,035	0,015
-703,816	307,715	-0,075	-0,103
-702,802	-200,000	-0,014	0,065
-701,787	800,000	-0,041	-0,088
-700,772	-200,000	0,017	-0,134
-699,758	800,000	-0,047	-0,107
-698,743	-200,000	0,002	0,102
-697,729	140,327	0,056	-0,055
-696,714	-200,000	-0,028	-0,155
-695,699	32,587	0,028	-0,018
-694,685	633,999	-0,061	-0,114
-693,670	370,554	-0,019	0,029
-692,656	377,918	0,026	0,039
-691,641	345,929	-0,033	-0,048
-690,627	130,762	-0,031	-0,029
-689,612	800,000	-0,012	0,032
-688,597	195,186	0,060	0,067
-687,583	-200,000	0,012	-0,151
-686,568	-200,000	-0,015	0,103
-685,554	800,000	-0,036	0,084
-684,539	185,921	-0,030	-0,033
-683,524	369,705	-0,095	0,142
-682,510	-83,637	0,228	-0,053
-681,495	64,542	-0,070	-0,052
-680,481	-200,000	0,003	0,082
-679,466	-200,000	-0,011	-0,107
-678,451	678,502	0,038	-0,073
-677,437	40,710	0,119	0,078
-676,422	61,526	-0,056	-0,041
-675,408	48,917	-0,079	-0,054
-674,393	6,350	-0,151	-0,082
-673,378	25,365	-0,031	-0,019
-672,364	-73,420	-0,035	0,009
-671,349	205,860	-0,164	-0,188
-670,335	-200,000	-0,030	0,113
-669,320	-200,000	0,017	-0,100
-668,305	-200,000	0,010	0,054
-667,291	665,804	0,022	-0,041
-666,276	-200,000	-0,020	-0,073
-665,262	144,270	0,012	0,012
-664,247	-111,376	0,116	0,017
-663,232	-79,282	-0,064	0,016
-662,218	-200,000	0,014	-0,076
-661,203	181,509	0,083	-0,090
-660,189	42,793	0,120	0,080
-659,174	-95,561	-0,125	-0,024
-658,159	-107,323	0,105	0,017
-657,145	479,947	-0,089	-0,149
-656,130	-8,865	0,152	0,075
-655,116	-113,045	0,043	-0,006
-654,101	800,000	0,041	0,107
-653,086	-200,000	0,005	-0,022
-652,072	-115,208	0,119	0,016
-651,057	735,819	-0,100	-0,197
-650,043	-124,929	-0,167	-0,019
-649,028	-200,000	-0,004	-0,038
-648,014	-200,000	0,004	-0,034
-646,999	211,302	-0,064	0,074
-645,984	-138,485	-0,157	0,012
-644,970	16,662	0,085	-0,049
-643,955	-143,110	-0,115	-0,008
-642,941	199,964	0,061	-0,069
-641,926	451,753	0,043	0,070
-640,911	-153,494	-0,126	-0,006
-639,897	-136,178	-0,112	-0,009
-638,882	-5,220	-0,013	-0,007
-637,868	-95,933	-0,011	0,002
-636,853	-200,000	-0,001	-0,065
-635,838	-145,008	-0,062	-0,004
-634,824	322,724	0,069	-0,097
-633,809	81,199	-0,070	-0,055
-632,795	-200,000	0,018	-0,129
-631,780	-10,966	0,109	0,053
-630,765	-200,000	-0,023	-0,140
-629,751	172,797	-0,062	0,066
-628,736	91,374	-0,080	-0,066
-627,722	-200,000	0,023	0,155
-626,707	3,546	0,077	-0,041
-625,692	91,297	-0,070	0,057
-624,678	-128,914	-0,091	0,009
-623,663	177,663	-0,025	-0,026
-622,649	-200,000	-0,002	0,046
-621,634	-188,435	-0,042	0,000
-620,619	-2,533	-0,059	0,030
-619,605	-135,683	0,130	0,011
-618,590	800,000	-0,060	0,187
-617,576	-87,105	0,097	-0,021
-616,561	-38,134	-0,132	0,051
-615,546	222,354	0,110	0,130
-614,532	-94,627	0,062	0,012
-613,517	71,276	-0,028	0,022
-612,503	-54,888	0,087	-0,028
-611,488	-166,050	-0,093	0,003
-610,474	172,736	-0,025	-0,027
-609,459	459,726	-0,063	-0,104
-608,444	-200,000	0,015	-0,249
-607,430	753,266	-0,028	-0,055
-606,415	800,000	-0,010	0,028
-605,401	95,921	0,130	0,109
-604,386	800,000	0,035	0,088
-603,371	-74,354	-0,046	-0,012
-602,357	177,949	0,035	0,038
-601,342	-109,992	-0,031	0,005
-600,328	-56,080	0,098	-0,032
-599,313	-112,319	-0,032	0,005
-598,298	-200,000	0,025	-0,128
-597,284	306,274	0,093	0,128
-596,269	54,817	0,064	0,045
-595,255	193,273	0,013	0,014
-594,240	-200,000	0,002	0,017
-593,225	28,760	-0,099	-0,061
-592,211	-200,000	-0,014	-0,149
-591,196	-50,993	-0,033	0,011
-590,182	800,000	-0,065	-0,144
-589,167	-200,000	-0,011	-0,038
-588,152	244,966	0,080	-0,099
-587,138	277,613	-0,084	-0,110
-586,123	172,709	-0,047	-0,050
-585,109	6,384	-0,147	-0,080
-584,094	76,348	0,142	-0,110
-583,079	-200,000	0,013	-0,056
-582,065	800,000	-0,036	-0,109
-581,050	573,213	0,050	-0,090
-580,036	125,003	0,063	0,058
-579,021	645,492	-0,046	0,087
-578,006	-131,011	-0,032	-0,003
-576,992	-35,949	0,104	-0,041
-575,977	610,108	0,019	-0,035
-574,963	-85,064	-0,192	0,044
-573,948	-93,237	0,182	0,037
-572,934	-129,832	-0,035	-0,004
-571,919	-200,000	-0,007	0,051
-570,904	40,932	-0,115	-0,076
-569,890	407,658	-0,045	-0,070
-568,875	491,753	-0,036	0,060
-567,861	-200,000	0,005	-0,029
-566,846	800,000	-0,037	-0,107
-565,831	-200,000	0,004	0,045
-564,817	-200,000	0,008	-0,030
-563,802	330,977	-0,045	-0,064
-562,788	-147,868	-0,163	-0,010
-561,773	-200,000	-0,020	-0,115
-560,758	800,000	-0,036	0,081
-559,744	-200,000	-0,034	0,000
-558,729	-77,534	0,058	0,015
-557,715	-104,456	-0,176	0,030
-556,700	-200,000	0,010	-0,038
-555,685	-17,776	-0,034	0,016
-554,671	-119,649	0,060	-0,008
-553,656	-98,653	0,110	-0,020
-552,642	-158,974	-0,046	-0,002
-551,627	592,905	-0,030	-0,055
-550,612	110,051	-0,031	0,027
-549,598	102,372	-0,052	-0,044
-548,583	-200,000	-0,020	-0,108
-547,569	-200,000	0,015	-0,058
-546,554	58,095	-0,077	0,055
-545,539	487,930	-0,026	0,044
-544,525	-102,968	-0,040	0,007
-543,510	-39,463	-0,037	-0,014
-542,496	304,394	-0,057	0,078
-541,481	-200,000	0,005	-0,037
-540,466	641,325	-0,083	-0,156
-539,452	-55,800	0,070	0,023
-538,437	-85,528	-0,120	-0,027
-537,423	13,075	-0,114	-0,065
-536,408	-99,653	-0,031	-0,006
-535,393	122,575	-0,129	0,118
-534,379	16,330	-0,084	-0,048
-533,364	211,090	-0,083	-0,095
-532,350	-200,000	0,001	-0,096
-531,335	285,481	0,049	0,065
-530,321	-200,000	-0,003	-0,028
-529,306	168,629	-0,070	-0,073
-528,291	99,412	-0,090	0,076
-527,277	-36,185	-0,068	-0,027
-526,262	304,879	0,049	-0,067
-525,248	26,060	0,153	-0,093
-524,233	-78,063	-0,044	0,011
-523,218	519,075	-0,042	0,072
-522,204	56,192	-0,030	-0,021
-521,189	172,373	0,115	0,121
-520,175	241,260	-0,122	0,149
-519,160	481,085	-0,064	0,107
-518,145	-200,000	-0,001	0,014
-517,131	-200,000	0,001	-0,081
-516,116	387,748	0,047	-0,072
-515,102	-200,000	0,000	0,124
-514,087	653,362	0,022	-0,041
-513,072	95,541	-0,048	-0,040
-512,058	576,300	-0,050	0,090
-511,043	109,942	-0,013	-0,011
-510,029	-200,000	0,023	0,236
-509,014	529,373	-0,076	0,132
-507,999	350,252	0,064	-0,093
-506,985	-200,000	-0,011	-0,079
-505,970	-200,000	-0,001	0,005
-504,956	-200,000	-0,008	0,057
-503,941	398,523	0,086	0,132
-502,926	-58,782	-0,109	0,034
-501,912	77,226	0,060	0,046
-500,897	277,064	-0,059	0,076
-499,883	310,379	0,060	0,082
-498,868	-101,500	-0,174	-0,031
-497,853	-98,864	0,082	-0,015
-496,839	800,000	0,033	-0,076
-495,824	-13,427	-0,056	0,026
-494,810	178,907	0,107	0,114
-493,795	-200,000	0,043	0,159
-492,781	-200,000	-0,007	0,075
-491,766	-55,998	-0,047	-0,015
-490,751	263,999	0,042	0,054
-489,737	36,107	0,054	0,034
-488,722	800,000	0,046	0,119
-487,708	-200,000	0,000	0,114
-486,693	405,458	-0,052	0,080
-485,678	-106,002	0,178	0,029
-484,664	102,958	-0,063	0,054
-483,649	19,093	0,050	-0,029
-482,635	-93,430	-0,106	-0,021
-481,620	-70,313	0,088	0,024
-480,605	40,780	-0,099	-0,065
-479,591	-66,398	0,048	0,014
-478,576	-200,000	0,024	0,135
-477,562	-29,830	-0,151	0,063
-476,547	-200,000	0,041	-0,151
-475,532	422,238	0,018	-0,028
-474,518	-200,000	-0,000	0,046
-473,503	96,912	0,086	0,072
-472,489	172,655	-0,037	0,039
-471,474	-160,467	0,159	0,006
-470,459	8,306	0,131	0,072
-469,445	181,458	0,027	0,029
-468,430	-48,588	-0,155	0,054
-467,416	132,470	0,093	-0,088
-466,401	179,167	0,085	0,091
-465,386	272,805	-0,053	0,068
-464,372	-48,619	-0,106	-0,037
-463,357	567,969	0,070	0,124
-462,343	46,858	-0,145	-0,098
-461,328	74,056	0,010	-0,007
-460,313	-166,091	0,137	0,004
-459,299	-200,000	-0,000	0,051
-458,284	176,429	0,086	-0,092
-457,270	591,706	-0,098	-0,178
-456,255	-13,232	-0,072	0,034
-455,241	800,000	-0,044	-0,136
-454,226	-200,000	-0,021	-0,147
-453,211	-200,000	-0,003	-0,053
-452,197	331,318	0,007	-0,009
-451,182	0,409	0,127	0,066
-450,168	-200,000	0,012	0,070
-449,153	236,931	0,062	0,075
-448,138	-200,000	-0,000	0,082
-447,124	-200,000	-0,003	0,039
-446,109	685,151	0,055	0,105
-445,095	800,000	-0,022	-0,048
-444,080	800,000	-0,048	-0,136
-443,065	114,252	0,038	0,034
-442,051	605,028	0,078	-0,142
-441,036	48,993	-0,126	-0,086
-440,022	296,533	-0,062	0,083
-439,007	436,583	0,083	-0,131
-437,992	83,206	0,113	-0,090
-436,978	800,000	-0,033	0,092
-435,963	337,542	0,083	0,118
-434,949	40,650	-0,166	-0,109
-433,934	-29,909	0,090	0,037
-432,919	301,256	-0,038	-0,051
-431,905	-200,000	-0,016	0,079
-430,890	800,000	0,017	0,048
-429,876	-200,000	-0,001	0,046
-428,861	-92,959	-0,014	0,003
-427,846	63,946	0,065	-0,047
-426,832	13,192	0,087	0,049
-425,817	-200,000	-0,030	-0,129
-424,803	176,615	0,042	0,045
-423,788	31,656	-0,063	0,039
-422,773	50,210	0,092	0,063
-421,759	86,179	0,132	0,105
-420,744	486,638	-0,057	0,095
-419,730	-151,440	-0,052	0,003
-418,715	-200,000	0,003	0,040
-417,701	141,305	-0,052	-0,050
-416,686	-170,689	0,059	-0,001
-415,671	-29,925	0,100	0,041
-414,657	232,521	0,103	-0,124
-413,642	-49,400	-0,057	0,020
-412,628	800,000	-0,025	0,068
-411,613	-2,826	0,076	-0,039
-410,598	-8,086	-0,035	-0,017
-409,584	-200,000	-0,005	-0,042
-408,569	-200,000	0,037	0,121
-407,555	273,698	0,061	-0,079
-406,540	800,000	0,057	-0,154
-405,525	800,000	-0,025	0,054
-404,511	-200,000	-0,007	0,065
-403,496	623,410	-0,045	0,083
-402,482	42,154	-0,013	-0,008
-401,467	-80,944	0,110	-0,026
-400,452	-113,646	0,153	0,022
-399,438	561,226	0,042	0,074
-398,423	-99,200	-0,131	-0,024
-397,409	-5,480	-0,099	-0,049
-396,394	-72,579	-0,063	-0,017
-395,379	-200,000	0,014	0,080
-394,365	351,879	0,077	0,111
-393,350	-200,000	-0,007	-0,093
-392,336	-200,000	0,012	-0,076
-391,321	-151,371	-0,056	0,003
-390,306	-200,000	0,032	-0,187
-389,292	800,000	0,026	-0,054
-388,277	-57,846	0,116	0,037
-387,263	272,551	-0,085	0,110
-386,248	-200,000	0,031	-0,151
-385,233	98,876	0,074	-0,062
-384,219	-200,000	0,025	-0,143
-383,204	227,183	0,071	-0,084
-382,190	-67,274	-0,039	0,011
-381,175	33,430	-0,106	0,067
-380,160	-200,000	0,008	0,105
-379,146	-200,000	0,025	0,178
-378,131	-29,226	-0,075	0,031
-377,117	-31,607	-0,044	0,018
-376,102	6,164	-0,135	0,073
-375,088	-52,698	-0,127	-0,042
-374,073	-1,270	0,066	0,034
-373,058	136,045	-0,016	0,015
-372,044	800,000	-0,046	0,108
-371,029	-200,000	-0,034	0,114
-370,015	264,840	-0,054	0,069
-369,000	-200,000	0,017	-0,058
-367,985	130,825	-0,144	-0,134
-366,971	388,370	-0,008	-0,012
-365,956	800,000	-0,029	-0,071
-364,942	333,587	-0,036	0,050
-363,927	33,169	-0,051	0,032
-362,912	800,000	-0,038	0,109
-361,898	44,429	0,122	-0,081
-360,883	-56,056	0,112	0,036
-359,869	-149,779	-0,103	0,006
-358,854	-133,889	0,122	0,011
-357,839	-62,721	-0,037	0,011
-356,825	680,142	0,029	0,056
-355,810	19,362	-0,040	0,023
-354,796	-200,000	0,019	0,070
-353,781	-38,755	0,156	0,059
-352,766	800,000	-0,023	-0,065
-351,752	315,511	0,060	0,082
-350,737	-63,003	0,092	0,027
-349,723	-144,838	-0,035	-0,002
-348,708	325,531	0,025	0,035
-347,693	120,179	0,109	-0,098
-346,679	83,637	-0,058	0,046
-345,664	120,005	0,007	-0,007
-344,650	-143,368	-0,015	0,001
-343,635	-170,783	0,188	-0,005
-342,620	145,119	0,056	0,054
-341,606	98,700	0,030	0,025
-340,591	-200,000	-0,016	-0,072
-339,577	800,000	-0,050	-0,134
-338,562	201,348	0,125	-0,140
-337,548	-200,000	0,024	-0,136
-336,533	311,043	0,082	0,112
-335,518	-126,330	0,047	-0,005
-334,504	-200,000	-0,030	0,168
-333,489	285,177	0,049	-0,064
-332,475	-200,000	0,018	-0,085
-331,460	-200,000	-0,035	-0,134
-330,445	800,000	-0,025	-0,074
-329,431	800,000	0,033	-0,096
-328,416	166,678	0,082	0,085
-327,402	-200,000	-0,013	0,100
-326,387	-157,384	-0,074	0,003
-325,372	-200,000	0,017	-0,095
-324,358	102,283	-0,081	-0,068
-323,343	-200,000	-0,008	-0,032
-322,329	-2,595	0,031	-0,016
-321,314	800,000	-0,035	-0,072
-320,299	800,000	0,036	0,099
-319,285	-200,000	-0,007	0,065
-318,270	37,501	-0,096	-0,061
-317,256	-200,000	-0,007	-0,090
-316,241	-6,228	-0,063	0,031
-315,226	79,472	0,068	0,053
-314,212	95,307	0,058	0,048
-313,197	146,017	0,065	0,064
-312,183	-200,000	0,018	-0,141
-311,168	800,000	-0,027	-0,083
-310,153	186,255	-0,037	0,040
-309,139	-200,000	-0,011	-0,066
-308,124	5,275	-0,060	-0,032
-307,110	113,804	0,135	-0,119
-306,095	-6,702	0,107	-0,053
-305,080	-53,044	-0,110	0,036
-304,066	263,642	-0,111	-0,140
-303,051	0,867	-0,118	-0,061
-302,037	0,817	-0,085	-0,044
-301,022	609,072	-0,028	-0,051
-300,008	800,000	-0,015	-0,036
-298,993	-200,000	0,009	-0,110
-297,978	-104,710	-0,127	-0,021
-296,964	602,323	-0,005	0,010
-295,949	-8,631	0,102	-0,049
-294,935	326,455	0,063	-0,088
-293,920	-24,108	-0,090	0,039
-292,905	-200,000	0,009	0,088
-291,891	-200,000	0,004	0,092
-290,876	-194,279	0,123	-0,001
-289,862	-12,070	-0,061	0,029
-288,847	329,749	0,111	-0,155
-287,832	800,000	-0,039	0,083
-286,818	67,823	0,177	0,131
-285,803	800,000	-0,032	0,068
-284,789	-173,319	0,073	0,002
-283,774	17,288	0,052	-0,030
-282,759	-73,471	0,138	0,036
-281,745	-130,388	0,085	0,008
-280,730	144,461	-0,055	0,054
-279,716	-56,070	0,075	0,024
-278,701	-81,393	0,146	0,035
-277,686	800,000	0,022	0,063
-276,672	32,337	-0,129	0,080
-275,657	-16,250	0,029	-0,013
-274,643	498,628	-0,052	0,086
-273,628	14,212	-0,069	-0,039
-272,613	800,000	-0,030	0,078
-271,599	51,418	-0,054	0,037
-270,584	-96,689	0,119	-0,023
-269,570	800,000	-0,004	0,012
-268,555	107,022	-0,070	0,061
-267,540	5,776	-0,126	-0,067
-266,526	-200,000	0,038	-0,145
-265,511	-200,000	-0,015	-0,097
-264,497	0,895	0,071	-0,037
-263,482	265,662	0,069	0,087
-262,467	-111,112	0,038	-0,006
-261,453	224,670	0,050	-0,058
-260,438	800,000	0,055	-0,114
-259,424	-200,000	0,006	-0,106
-258,409	246,045	0,109	-0,134
-257,395	142,914	-0,025	0,024
-256,380	191,900	-0,037	0,040
-255,365	242,764	0,084	-0,102
-254,351	772,411	0,049	0,097
-253,336	336,079	-0,022	-0,031
-252,322	-200,000	-0,021	-0,173
-251,307	800,000	0,057	-0,153
-250,292	-200,000	-0,003	0,013
-249,278	-200,000	-0,027	0,129
-248,263	-200,000	0,016	0,051
-247,249	-200,000	-0,021	0,085
-246,234	255,987	-0,083	-0,103
-245,219	163,428	-0,027	-0,027
-244,205	-108,683	-0,180	-0,028
-243,190	-100,973	0,061	-0,011
-242,176	345,372	-0,022	0,031
-241,161	196,209	-0,026	-0,028
-240,146	800,000	0,020	0,057
-239,132	187,325	-0,064	0,069
-238,117	675,729	-0,112	-0,211
-237,103	-200,000	0,013	0,082
-236,088	-200,000	-0,006	-0,046
-235,073	47,484	0,087	0,058
-234,059	-200,000	-0,017	0,091
-233,044	-100,407	-0,110	-0,019
-232,030	800,000	-0,036	0,080
-231,015	-200,000	0,034	-0,122
-230,000	126,062	-0,070	-0,064
-228,986	71,091	0,035	0,026
-227,971	-18,668	-0,022	0,010
-226,957	-102,584	0,173	0,030
-225,942	168,643	0,099	0,101
-224,927	93,005	0,042	-0,034
-223,913	-200,000	-0,041	0,133
-222,898	102,636	0,087	0,073
-221,884	-58,335	0,081	0,025
-220,869	586,965	0,044	0,079
-219,855	-120,861	-0,052	-0,006
-218,840	-200,000	0,025	0,144
-217,825	-200,000	0,018	0,061
-216,811	-110,175	0,055	-0,008
-215,796	201,279	-0,096	0,107
-214,782	300,794	-0,028	0,038
-213,767	52,414	0,091	-0,062
-212,752	47,455	-0,029	-0,019
-211,738	800,000	0,043	0,130
-210,723	-23,240	0,096	0,042
-209,709	185,174	-0,066	-0,071
-208,694	143,065	0,014	-0,014
-207,679	-200,000	0,004	-0,041
-206,665	730,254	0,041	-0,079
-205,650	235,851	0,119	-0,143
-204,636	227,032	0,050	0,059
-203,621	800,000	-0,047	0,116
-202,606	116,360	0,033	-0,029
-201,592	-58,298	-0,064	-0,020
-200,577	345,732	0,038	-0,054
-199,563	-200,000	-0,005	-0,037
-198,548	-200,000	0,006	0,031
-197,533	115,032	0,058	-0,051
-196,519	382,908	-0,035	-0,051
-195,504	-200,000	-0,004	0,048
-194,490	-200,000	0,044	-0,146
-193,475	191,828	-0,123	0,133
-192,460	392,544	0,040	-0,060
-191,446	800,000	0,005	0,013
-190,431	221,665	0,057	-0,066
-189,417	793,600	-0,045	-0,089
-188,402	-5,310	0,073	0,036
-187,387	218,474	0,045	-0,052
-186,373	-138,964	-0,169	-0,013
-185,358	-200,000	0,016	0,112
-184,344	-200,000	0,008	0,091
-183,329	-104,662	0,132	-0,022
-182,315	170,108	0,071	0,073
-181,300	-200,000	-0,012	0,048
-180,285	23,169	-0,026	-0,015
-179,271	-127,448	-0,077	-0,008
-178,256	212,711	0,031	-0,035
-177,242	293,052	0,032	0,042
-176,227	17,940	-0,103	0,059
-175,212	317,786	0,086	0,118
-174,198	207,547	-0,053	-0,060
-173,183	125,304	-0,107	-0,097
-172,169	-84,209	-0,090	0,020
-171,154	-13,371	-0,090	0,042
-170,139	71,492	-0,037	0,027
-169,125	-200,000	-0,007	0,059
-168,110	-200,000	0,033	0,184
-167,096	-200,000	0,015	0,072
-166,081	-200,000	-0,002	0,057
-165,066	-200,000	-0,011	-0,041
-164,052	-200,000	-0,004	0,054
-163,037	-200,000	0,026	-0,101
-162,023	-134,814	-0,078	-0,007
-161,008	153,648	0,075	0,074
-159,993	800,000	-0,028	0,078
-158,979	-200,000	-0,023	-0,098
-157,964	20,759	0,102	-0,059
-156,950	126,162	-0,028	-0,025
-155,935	-115,854	0,061	0,008
-154,920	3,527	0,074	0,038
-153,906	-200,000	0,005	-0,050
-152,891	-200,000	-0,017	0,131
-151,877	-200,000	0,029	0,107
-150,862	127,145	-0,018	-0,016
-149,847	-200,000	-0,014	-0,107
-148,833	261,137	0,117	-0,146
-147,818	-200,000	0,011	0,097
-146,804	115,728	-0,027	0,024
-145,789	-119,432	-0,083	0,010
-144,775	-83,456	-0,068	-0,015
-143,760	-128,597	-0,020	0,002
-142,745	145,731	-0,077	-0,074
-141,731	-40,542	-0,053	0,020
-140,716	693,115	0,031	0,059
-139,702	215,531	0,035	0,040
-138,687	195,145	0,048	-0,053
-137,672	634,778	0,044	-0,080
-136,658	39,614	-0,118	-0,076
-135,643	800,000	0,075	-0,189
-134,629	619,389	0,083	-0,150
-133,614	587,453	0,093	0,166
-132,599	-62,018	-0,082	0,024
-131,585	800,000	0,009	0,026
-130,570	800,000	0,062	0,132
-129,556	800,000	0,008	0,023
-128,541	-200,000	-0,024	0,091
-127,526	-91,859	0,152	0,031
-126,512	298,499	0,005	-0,006
-125,497	578,790	0,075	0,132
-124,483	-200,000	-0,027	-0,092
-123,468	43,989	-0,045	0,029
-122,453	271,267	-0,024	-0,031
-121,439	-200,000	0,021	0,067
-120,424	800,000	-0,027	-0,068
