DTS Sentinel unit serial number:	SN410029Multiplexer serial number:	ORYXHardware model number:	OX2-SRSoftware version number:	ORYX F/W v4,00 Oryx Data Collector v3.7.2.0data status	okinstallation	B5 Nyhavnadifferential loss correction	single-endedforward channel	channel 2reverse channel	N/Adate	2023/12/14time	09:47:13forward acquisition time	300,00reverse acquisition time	0,00gamma	499,1914k internal	0,3160k external	0,3160temperature offset calibration	1,0000default loss term (dB/km)	0,3820temperature slope calibration	1,0000multiplexer offset coefficient	1,0000multiplexer slope coefficient	1,0000fibre end	0,00T internal ref (°C)	6,89T ext. ref 1 (°C)	-9,31T ext. ref 2 (°C)	-9,37length (m)	temperature (°C)	Stokes	anti-Stokes-744,400	207,628	0,124	0,143
-743,385	-155,977	-0,374	-0,017
-742,371	-54,489	0,227	0,075
-741,356	-187,382	-0,337	0,003
-740,342	-30,666	0,236	0,098
-739,327	-60,316	-0,499	-0,155
-738,312	800,000	0,046	0,111
-737,298	77,730	-0,307	-0,240
-736,283	-200,000	0,057	0,213
-735,269	-97,977	-0,279	-0,052
-734,254	93,747	0,072	0,060
-733,239	-38,602	-0,489	-0,189
-732,225	2,531	0,203	0,108
-731,210	-16,199	-0,070	0,033
-730,196	98,970	-0,104	0,088
-729,181	-125,928	0,065	-0,007
-728,167	-166,318	-0,052	0,002
-727,152	110,117	0,038	0,034
-726,137	234,440	-0,024	-0,029
-725,123	-200,000	-0,003	-0,092
-724,108	800,000	-0,036	0,084
-723,094	-95,505	-0,140	-0,027
-722,079	800,000	-0,032	-0,097
-721,064	101,870	0,023	-0,020
-720,050	-200,000	-0,006	-0,024
-719,035	-150,625	-0,041	-0,002
-718,021	-126,318	-0,048	-0,005
-717,006	-6,483	0,055	0,028
-715,991	-53,563	-0,040	-0,013
-714,977	62,204	-0,099	-0,072
-713,962	50,854	-0,122	0,085
-712,948	131,578	-0,069	0,065
-711,933	-134,070	-0,204	0,018
-710,918	-109,474	-0,097	-0,015
-709,904	128,014	-0,065	-0,061
-708,889	368,711	-0,016	0,024
-707,875	-200,000	0,003	-0,043
-706,860	-200,000	-0,017	-0,086
-705,845	-64,640	0,082	0,024
-704,831	153,954	-0,078	0,079
-703,816	373,638	-0,031	0,046
-702,802	22,163	0,038	0,022
-701,787	-16,238	-0,083	-0,038
-700,772	-127,181	0,078	-0,008
-699,758	-200,000	-0,047	0,267
-698,743	-55,585	-0,036	-0,012
-697,729	110,433	0,060	0,053
-696,714	313,868	0,050	0,069
-695,699	800,000	0,021	-0,060
-694,685	218,071	0,027	-0,032
-693,670	-200,000	-0,001	0,013
-692,656	235,855	0,093	0,113
-691,641	4,072	0,093	0,050
-690,627	709,012	-0,089	-0,174
-689,612	151,032	-0,075	-0,075
-688,597	-200,000	0,006	0,064
-687,583	-200,000	0,000	-0,092
-686,568	-151,345	0,100	-0,005
-685,554	215,226	-0,122	-0,142
-684,539	407,486	-0,101	-0,157
-683,524	-41,091	-0,045	0,017
-682,510	-200,000	-0,016	-0,075
-681,495	-200,000	0,035	0,152
-680,481	-200,000	-0,002	0,145
-679,466	-123,627	-0,159	-0,018
-678,451	-70,212	-0,087	0,024
-677,437	800,000	-0,034	0,105
-676,422	324,143	0,061	0,086
-675,408	-28,153	-0,048	0,020
-674,393	-178,551	0,040	0,001
-673,378	68,656	-0,051	0,038
-672,364	-107,183	-0,063	0,010
-671,349	-200,000	-0,050	-0,165
-670,335	514,852	0,051	0,087
-669,320	329,869	0,056	0,079
-668,305	60,891	-0,085	0,062
-667,291	-168,797	-0,129	-0,004
-666,276	-200,000	0,051	-0,183
-665,262	800,000	-0,052	0,120
-664,247	524,266	-0,069	-0,119
-663,232	398,905	0,084	-0,130
-662,218	800,000	0,073	0,226
-661,203	-25,311	0,088	0,038
-660,189	800,000	0,024	0,072
-659,174	-200,000	-0,073	-0,000
-658,159	-150,208	-0,035	0,002
-657,145	737,476	0,035	0,070
-656,130	-82,650	-0,071	-0,017
-655,116	422,862	0,045	0,071
-654,101	189,669	0,092	-0,102
-653,086	-18,120	-0,132	0,060
-652,072	315,626	-0,109	-0,151
-651,057	-200,000	-0,005	0,105
-650,043	136,323	-0,082	0,079
-649,028	-196,338	-0,077	0,000
-648,014	-71,839	0,099	-0,027
-646,999	433,749	-0,072	-0,115
-645,984	-107,223	0,045	0,007
-644,970	59,147	-0,054	0,039
-643,955	-113,611	-0,037	0,005
-642,941	85,424	0,125	-0,101
-641,926	-200,000	-0,001	-0,117
-640,911	800,000	-0,038	0,101
-639,897	217,151	0,047	0,055
-638,882	-154,143	0,083	0,004
-637,868	-200,000	0,010	-0,037
-636,853	-200,000	0,024	-0,109
-635,838	-18,633	0,028	-0,013
-634,824	800,000	0,039	-0,125
-633,809	237,362	0,108	-0,131
-632,795	-200,000	-0,007	0,146
-631,780	-152,151	-0,087	0,005
-630,765	522,389	-0,026	0,045
-629,751	-9,372	0,053	-0,026
-628,736	85,393	-0,083	0,067
-627,722	-200,000	-0,002	-0,014
-626,707	88,840	-0,169	-0,138
-625,692	54,489	0,101	-0,072
-624,678	124,757	0,041	0,038
-623,663	800,000	0,019	0,039
-622,649	-200,000	0,031	-0,157
-621,634	128,805	-0,092	0,086
-620,619	83,369	-0,069	0,055
-619,605	800,000	0,027	0,070
-618,590	375,232	0,024	0,036
-617,576	-128,313	-0,069	0,007
-616,561	208,349	0,105	0,121
-615,546	564,695	-0,042	-0,076
-614,532	164,453	-0,074	-0,076
-613,517	800,000	-0,046	-0,103
-612,503	-200,000	-0,004	-0,107
-611,488	-64,858	0,117	0,034
-610,474	161,419	-0,043	-0,044
-609,459	-34,911	0,059	0,023
-608,444	100,734	0,036	0,031
-607,430	-9,276	-0,066	-0,032
-606,415	103,247	0,031	0,027
-605,401	-200,000	0,008	0,088
-604,386	-200,000	-0,002	-0,055
-603,371	328,580	0,039	-0,055
-602,357	164,568	0,116	-0,120
-601,342	32,611	-0,117	-0,074
-600,328	-21,842	0,049	0,022
-599,313	-189,462	0,154	-0,001
-598,298	-2,911	-0,037	0,019
-597,284	134,979	-0,099	0,095
-596,269	-200,000	0,012	0,051
-595,255	-200,000	0,011	0,067
-594,240	98,685	-0,060	0,050
-593,225	700,607	-0,047	0,092
-592,211	-200,000	-0,005	0,032
-591,196	-114,586	-0,120	-0,017
-590,182	-131,522	-0,080	-0,008
-589,167	-72,924	0,108	0,029
-588,152	363,805	0,102	0,151
-587,138	276,160	-0,026	0,033
-586,123	621,423	-0,052	-0,096
-585,109	100,678	-0,070	-0,060
-584,094	-16,330	-0,038	-0,018
-583,079	284,976	-0,017	-0,022
-582,065	488,499	0,048	0,080
-581,050	385,253	-0,094	0,142
-580,036	-200,000	0,025	0,102
-579,021	641,642	0,053	-0,099
-578,006	16,461	-0,147	0,085
-576,992	-200,000	0,023	0,078
-575,977	-47,561	-0,079	-0,028
-574,963	-152,058	0,060	0,003
-573,948	-200,000	-0,002	0,008
-572,934	-200,000	-0,016	0,175
-571,919	-62,944	0,083	0,025
-570,904	384,197	-0,033	-0,050
-569,890	-67,799	0,090	-0,026
-568,875	27,712	0,063	0,039
-567,861	-84,401	0,031	0,007
-566,846	-73,806	-0,219	0,058
-565,831	-200,000	-0,000	0,054
-564,817	-118,045	0,042	-0,005
-563,802	-200,000	0,014	0,122
-562,788	23,409	-0,092	-0,055
-561,773	103,717	0,023	-0,020
-560,758	-200,000	0,019	0,095
-559,744	-58,525	0,067	-0,021
-558,729	800,000	0,027	0,074
-557,715	-200,000	-0,013	-0,085
-556,700	76,693	-0,051	0,039
-555,685	218,825	-0,065	0,077
-554,671	-200,000	0,002	0,077
-553,656	15,508	-0,105	0,060
-552,642	800,000	-0,032	-0,081
-551,627	-200,000	0,018	0,088
-550,612	-200,000	-0,000	-0,057
-549,598	262,972	0,061	0,077
-548,583	-200,000	0,008	-0,052
-547,569	208,629	-0,111	-0,127
-546,554	-200,000	0,006	-0,044
-545,539	-200,000	0,001	0,048
-544,525	93,243	-0,076	0,063
-543,510	100,041	-0,083	0,070
-542,496	517,226	-0,053	0,091
-541,481	800,000	-0,033	0,097
-540,466	-200,000	0,019	0,134
-539,452	-200,000	-0,001	0,041
-538,437	-64,683	0,068	0,020
-537,423	-55,518	0,149	0,048
-536,408	369,945	-0,015	0,022
-535,393	243,695	0,050	0,061
-534,379	-122,682	0,046	-0,005
-533,364	261,143	-0,103	0,131
-532,350	800,000	-0,035	-0,090
-531,335	-164,804	-0,075	-0,002
-530,321	-200,000	-0,017	-0,075
-529,306	655,000	0,050	0,095
-528,291	800,000	-0,043	-0,123
-527,277	675,365	-0,116	-0,221
-526,262	-31,038	0,055	-0,023
-525,248	-21,570	0,134	0,060
-524,233	59,573	0,121	0,087
-523,218	163,909	0,025	0,025
-522,204	-200,000	0,003	-0,015
-521,189	-62,918	0,067	0,020
-520,175	-94,342	-0,039	-0,008
-519,160	-111,982	-0,080	0,012
-518,145	81,253	0,135	0,106
-517,131	800,000	-0,056	-0,125
-516,116	18,844	-0,062	-0,036
-515,102	46,758	0,127	0,086
-514,087	198,402	0,040	-0,044
-513,072	-200,000	-0,009	0,055
-512,058	-200,000	0,005	0,046
-511,043	358,660	-0,057	-0,083
-510,029	4,287	0,133	0,071
-509,014	800,000	-0,062	0,127
-507,999	421,514	0,036	-0,057
-506,985	-50,050	-0,144	-0,050
-505,970	791,776	0,014	0,028
-504,956	-200,000	0,015	-0,256
-503,941	90,430	-0,070	0,057
-502,926	159,234	-0,113	0,115
-501,912	-52,901	0,099	0,033
-500,897	-2,765	0,134	-0,068
-499,883	-200,000	0,026	-0,089
-498,868	-200,000	-0,039	0,179
-497,853	-75,673	-0,068	-0,017
-496,839	-57,708	-0,095	0,030
-495,824	376,880	-0,018	-0,027
-494,810	800,000	-0,020	-0,062
-493,795	800,000	0,020	0,058
-492,781	0,152	0,097	0,050
-491,766	1,754	-0,067	0,035
-490,751	-200,000	0,001	-0,024
-489,737	227,777	-0,046	-0,055
-488,722	-54,495	-0,041	0,014
-487,708	98,036	0,085	0,072
-486,693	76,721	0,128	-0,099
-485,678	177,256	0,100	-0,106
-484,664	800,000	-0,071	-0,159
-483,649	2,814	-0,100	0,053
-482,635	134,058	0,085	-0,080
-481,620	353,367	0,022	-0,032
-480,605	133,026	-0,105	-0,099
-479,591	-200,000	-0,003	0,128
-478,576	329,445	-0,093	0,131
-477,562	-129,448	-0,094	-0,009
-476,547	-200,000	0,018	0,098
-475,532	-163,976	0,062	0,002
-474,518	223,561	0,041	-0,048
-473,503	-77,359	0,154	-0,039
-472,489	6,611	0,103	-0,056
-471,474	-200,000	0,018	0,090
-470,459	800,000	-0,064	-0,187
-469,445	-112,790	-0,033	-0,005
-468,430	-200,000	0,072	-0,248
-467,416	-4,981	-0,076	-0,038
-466,401	70,619	0,099	-0,075
-465,386	71,334	0,111	0,084
-464,372	-4,702	-0,094	-0,047
-463,357	293,239	-0,070	-0,093
-462,343	257,771	-0,112	-0,140
-461,328	-33,858	0,101	-0,040
-460,313	-49,096	-0,074	-0,026
-459,299	800,000	-0,064	-0,147
-458,284	36,526	-0,016	0,010
-457,270	-106,217	0,073	-0,012
-456,255	-108,192	-0,164	-0,026
-455,241	250,122	0,029	0,036
-454,226	115,924	-0,057	0,051
-453,211	-77,012	-0,128	0,032
-452,197	-12,561	0,069	0,033
-451,182	12,008	0,026	-0,015
-450,168	800,000	0,013	0,039
-449,153	119,305	0,036	0,033
-448,138	15,500	-0,200	-0,114
-447,124	89,834	0,120	-0,097
-446,109	-2,790	-0,139	-0,070
-445,095	15,442	-0,069	0,039
-444,080	-200,000	0,011	0,139
-443,065	-115,827	0,130	0,018
-442,051	12,660	0,059	-0,033
-441,036	-99,669	-0,111	-0,020
-440,022	226,549	-0,057	-0,068
-439,007	-195,998	-0,105	-0,001
-437,992	-200,000	0,011	-0,052
-436,978	-35,261	-0,054	-0,021
-435,963	225,805	0,097	-0,115
-434,949	559,357	0,034	0,060
-433,934	800,000	0,043	-0,090
-432,919	-78,943	-0,077	0,019
-431,905	151,068	-0,007	-0,007
-430,890	-200,000	-0,002	0,065
-429,876	-177,694	0,110	0,002
-428,861	-169,981	-0,123	-0,003
-427,846	-0,712	0,115	0,059
-426,832	119,980	0,060	-0,055
-425,817	-119,554	-0,126	0,016
-424,803	-200,000	0,000	-0,031
-423,788	-90,765	-0,041	0,009
-422,773	13,426	0,138	0,077
-421,759	-45,619	-0,088	-0,031
-420,744	-164,628	-0,023	-0,001
-419,730	-3,000	0,028	-0,014
-418,715	35,478	-0,097	-0,062
-417,701	124,105	0,106	-0,097
-416,686	-172,304	-0,081	0,002
-415,671	579,343	-0,043	0,076
-414,657	-153,256	0,106	-0,005
-413,642	205,863	0,040	-0,046
-412,628	130,260	-0,056	0,052
-411,613	-60,112	-0,056	-0,017
-410,598	115,358	-0,054	0,048
-409,584	-200,000	-0,011	-0,106
-408,569	800,000	0,013	-0,034
-407,555	390,302	0,045	0,067
-406,540	800,000	-0,035	0,095
-405,525	-200,000	0,026	0,107
-404,511	326,896	-0,048	0,067
-403,496	-200,000	0,002	0,181
-402,482	-200,000	-0,038	0,144
-401,467	-138,584	0,058	-0,005
-400,452	-54,049	0,175	0,057
-399,438	145,859	0,040	0,039
-398,423	244,342	-0,096	-0,117
-397,409	172,494	-0,100	0,105
-396,394	483,831	-0,029	-0,048
-395,379	-112,237	0,042	-0,006
-394,365	-200,000	0,001	0,025
-393,350	-200,000	-0,024	-0,119
-392,336	715,711	0,077	-0,149
-391,321	17,775	0,072	0,041
-390,306	800,000	0,025	0,062
-389,292	800,000	-0,018	-0,053
-388,277	-66,727	-0,072	-0,021
-387,263	-25,743	0,118	0,050
-386,248	-97,298	0,185	0,035
-385,233	800,000	0,021	0,059
-384,219	-200,000	0,023	-0,120
-383,204	91,736	0,024	-0,019
-382,190	39,356	-0,184	0,120
-381,175	616,878	-0,015	-0,028
-380,160	28,956	-0,068	0,042
-379,146	-16,114	0,157	-0,072
-378,131	390,884	-0,058	0,087
-377,117	261,250	0,082	-0,103
-376,102	-87,322	0,118	-0,026
-375,088	-153,955	-0,141	-0,007
-374,073	77,982	-0,051	-0,040
-373,058	-200,000	0,007	-0,129
-372,044	-120,942	0,026	0,003
-371,029	-28,301	0,080	0,033
-370,015	-200,000	-0,013	0,084
-369,000	800,000	-0,063	-0,134
-367,985	-200,000	-0,025	-0,152
-366,971	75,521	-0,082	-0,063
-365,956	-200,000	0,008	-0,053
-364,942	-2,398	0,093	0,047
-363,927	800,000	0,019	0,051
-362,912	-61,378	0,077	0,023
-361,898	191,335	-0,047	0,051
-360,883	-161,070	-0,106	0,004
-359,869	429,350	-0,055	0,087
-358,854	431,136	0,074	0,116
-357,839	-122,771	0,178	0,021
-356,825	-67,104	-0,171	0,049
-355,810	-71,171	-0,059	0,016
-354,796	-200,000	-0,005	-0,023
-353,781	182,331	-0,080	-0,086
-352,766	-200,000	-0,025	0,224
-351,752	-148,788	0,110	-0,006
-350,737	115,210	0,097	0,086
-349,723	-43,910	-0,145	0,052
-348,708	131,908	0,180	-0,168
-347,693	287,556	0,010	-0,014
-346,679	-200,000	0,000	-0,008
-345,664	800,000	-0,035	0,079
-344,650	77,909	0,115	0,088
-343,635	-73,188	0,100	-0,026
-342,620	-96,414	-0,034	0,006
-341,606	-99,539	-0,036	-0,006
-340,591	800,000	-0,041	0,093
-339,577	689,856	-0,035	-0,066
-338,562	-200,000	-0,000	-0,025
-337,548	-200,000	-0,003	-0,080
-336,533	5,840	-0,082	0,044
-335,518	34,549	0,101	-0,064
-334,504	532,767	-0,019	-0,033
-333,489	2,615	0,025	0,013
-332,475	-42,232	0,090	-0,033
-331,460	-45,009	-0,139	0,050
-330,445	-119,000	0,128	-0,016
-329,431	43,636	0,056	-0,037
-328,416	-200,000	-0,009	-0,035
-327,402	800,000	-0,032	0,076
-326,387	152,768	-0,117	0,116
-325,372	263,728	0,057	-0,072
-324,358	25,074	0,039	-0,023
-323,343	1,406	-0,054	-0,028
-322,329	-200,000	0,011	-0,080
-321,314	800,000	-0,046	0,099
-320,299	-21,274	0,140	0,062
-319,285	40,050	-0,089	-0,058
-318,270	-200,000	0,006	-0,205
-317,256	-200,000	-0,034	-0,118
-316,241	-119,941	-0,014	-0,002
-315,226	366,638	0,008	-0,011
-314,212	51,752	0,095	0,066
-313,197	40,516	-0,088	0,057
-312,183	621,910	-0,028	-0,051
-311,168	-200,000	-0,008	-0,063
-310,153	2,903	0,103	-0,054
-309,139	353,496	-0,043	-0,063
-308,124	-200,000	-0,003	0,061
-307,110	-200,000	-0,025	0,088
-306,095	-200,000	0,037	0,190
-305,080	-50,445	-0,027	0,009
-304,066	-96,884	-0,125	0,023
-303,051	-200,000	0,014	-0,068
-302,037	-200,000	0,007	-0,030
-301,022	204,195	-0,014	-0,016
-300,008	-138,677	0,106	0,008
-298,993	-108,816	-0,088	0,014
-297,978	217,116	0,070	0,081
-296,964	3,963	0,133	0,070
-295,949	-11,687	0,020	0,010
-294,935	-155,127	-0,002	0,000
-293,920	360,911	0,096	0,140
-292,905	-10,163	0,137	-0,066
-291,891	-200,000	0,021	0,109
-290,876	278,507	0,051	0,066
-289,862	-20,863	-0,014	0,006
-288,847	-186,205	-0,149	0,002
-287,832	-45,190	-0,035	-0,012
-286,818	686,078	-0,033	-0,063
-285,803	-118,401	-0,176	-0,022
-284,789	800,000	-0,034	0,101
-283,774	-200,000	-0,006	0,064
-282,759	-200,000	0,004	-0,022
-281,745	322,648	0,015	0,021
-280,730	-53,234	0,033	0,011
-279,716	-72,041	0,130	0,035
-278,701	25,243	0,117	0,070
-277,686	-200,000	-0,007	-0,029
-276,672	-200,000	0,009	0,169
-275,657	-93,112	0,067	-0,013
-274,643	-53,088	-0,099	-0,033
-273,628	800,000	0,015	0,037
-272,613	186,329	-0,017	-0,019
-271,599	-19,434	0,074	0,033
-270,584	90,189	0,112	-0,090
-269,570	800,000	0,018	-0,057
-268,555	85,330	-0,011	0,008
-267,540	61,954	-0,039	-0,028
-266,526	111,946	-0,058	0,051
-265,511	-48,325	0,148	-0,051
-264,497	64,491	0,052	0,038
-263,482	-137,289	0,030	0,002
-262,467	800,000	-0,033	0,091
-261,453	-50,474	0,022	0,008
-260,438	-141,177	-0,104	-0,008
-259,424	-103,953	-0,104	0,017
-258,409	-200,000	-0,026	-0,111
-257,395	-29,390	-0,052	-0,021
-256,380	-100,544	0,123	0,022
-255,365	800,000	0,023	0,050
-254,351	15,078	-0,057	0,032
-253,336	-137,853	-0,013	0,001
-252,322	62,628	-0,162	-0,117
-251,307	304,296	-0,070	-0,094
-250,292	34,172	0,102	-0,064
-249,278	-200,000	0,011	0,073
-248,263	-157,053	-0,085	0,004
-247,249	-99,665	0,108	-0,019
-246,234	-114,392	-0,096	0,013
-245,219	-41,287	-0,188	-0,070
-244,205	-200,000	0,010	0,157
-243,190	133,466	0,050	0,047
-242,176	-64,457	-0,132	0,039
-241,161	383,111	0,049	0,072
-240,146	800,000	0,074	-0,192
-239,132	106,309	-0,133	0,114
-238,117	-9,792	0,099	0,047
-237,103	198,179	-0,065	-0,072
-236,088	-200,000	-0,011	-0,060
-235,073	-200,000	-0,033	-0,110
-234,059	187,837	-0,063	0,068
-233,044	800,000	-0,023	0,051
-232,030	800,000	0,011	0,033
-231,015	-146,801	0,040	0,002
-230,000	-140,822	-0,059	0,004
-228,986	-106,023	0,141	0,023
-227,971	800,000	0,062	0,191
-226,957	114,290	-0,067	0,059
-225,942	-200,000	-0,008	0,039
-224,927	-110,335	0,021	0,003
-223,913	-60,484	-0,014	-0,004
-222,898	-13,337	-0,168	0,079
-221,884	-151,143	0,008	-0,000
-220,869	65,866	-0,033	0,024
-219,855	51,100	0,157	0,108
-218,840	-48,052	-0,043	-0,015
-217,825	647,396	0,042	-0,078
-216,811	412,697	0,045	-0,070
-215,796	292,414	-0,095	-0,125
-214,782	800,000	-0,013	0,027
-213,767	-200,000	0,040	0,146
-212,752	-200,000	0,034	-0,179
-211,738	-138,458	-0,026	0,002
-210,723	-200,000	0,010	0,101
-209,709	-154,762	-0,069	0,003
-208,694	133,114	-0,073	-0,068
-207,679	396,985	0,014	-0,022
-206,665	449,988	0,002	0,003
-205,650	82,906	-0,038	-0,030
-204,636	-200,000	0,029	0,142
-203,621	588,818	-0,045	-0,081
-202,606	147,928	0,038	0,037
-201,592	-200,000	0,013	-0,056
-200,577	800,000	-0,031	0,074
-199,563	-3,461	0,081	-0,041
-198,548	34,665	0,070	0,044
-197,533	623,269	0,086	-0,157
-196,519	-200,000	-0,024	0,141
-195,504	585,828	0,050	-0,089
-194,490	-86,043	-0,108	-0,024
-193,475	29,934	0,068	0,041
-192,460	-46,440	-0,143	-0,050
-191,446	-200,000	0,012	0,112
-190,431	-86,227	-0,017	-0,004
-189,417	-200,000	-0,017	-0,088
-188,402	462,206	-0,056	-0,091
-187,387	800,000	0,013	0,041
-186,373	-200,000	0,005	-0,062
-185,358	-200,000	0,003	0,095
-184,344	-200,000	-0,012	0,156
-183,329	8,075	0,142	-0,077
-182,315	58,792	0,076	0,054
-181,300	227,223	-0,007	-0,008
-180,285	-200,000	-0,039	-0,129
-179,271	291,493	-0,035	-0,046
-178,256	537,877	0,033	-0,057
-177,242	-165,114	-0,042	0,001
-176,227	134,977	-0,028	-0,026
-175,212	-144,777	0,081	0,005
-174,198	-200,000	-0,019	-0,089
-173,183	-145,031	0,044	0,003
-172,169	504,350	-0,009	-0,015
-171,154	800,000	-0,016	-0,040
-170,139	-74,616	0,082	-0,021
-169,125	44,571	0,047	0,031
-168,110	29,745	-0,091	0,055
-167,096	-108,018	0,068	-0,011
-166,081	-200,000	-0,013	-0,085
-165,066	367,189	-0,142	-0,207
-164,052	-200,000	0,001	-0,048
-163,037	800,000	-0,059	-0,168
-162,023	-71,093	0,099	-0,027
-161,008	-200,000	0,015	-0,084
-159,993	-107,672	0,168	0,026
-158,979	800,000	-0,035	0,089
-157,964	-134,751	-0,113	-0,010
-156,950	-200,000	0,012	-0,052
-155,935	228,750	0,090	-0,106
-154,920	-84,496	0,181	-0,041
-153,906	367,504	0,041	0,059
-152,891	72,649	0,085	-0,063
-151,877	-54,175	-0,122	0,040
-150,862	622,324	0,055	-0,101
-149,847	800,000	0,024	0,050
-148,833	-14,985	0,094	0,043
-147,818	800,000	-0,059	0,156
-146,804	305,899	0,028	-0,038
-145,789	-65,652	0,014	0,004
-144,775	175,503	-0,059	-0,062
-143,760	378,461	0,020	-0,029
-142,745	-200,000	0,004	-0,092
-141,731	-139,243	-0,040	-0,003
-140,716	-200,000	0,004	0,019
-139,702	800,000	0,021	0,049
-138,687	342,536	0,053	0,075
-137,672	1,452	0,100	0,052
-136,658	-98,242	-0,088	-0,016
-135,643	44,429	0,152	-0,100
-134,629	327,082	-0,049	-0,067
-133,614	46,735	-0,021	-0,014
-132,599	-200,000	0,015	0,180
-131,585	-38,127	-0,164	0,062
-130,570	363,636	-0,055	-0,079
-129,556	17,694	-0,205	-0,117
-128,541	723,321	0,044	-0,085
-127,526	-72,494	-0,074	0,019
-126,512	-200,000	0,009	0,102
-125,497	28,436	-0,023	-0,014
-124,483	340,749	0,088	-0,124
-123,468	200,777	0,077	0,085
-122,453	358,668	-0,046	-0,067
-121,439	162,452	0,055	-0,055
-120,424	343,342	0,036	-0,051
-119,410	800,000	-0,007	0,019
-118,395	-45,485	-0,125	0,044
