DTS Sentinel unit serial number:	SN410029Multiplexer serial number:	ORYXHardware model number:	OX2-SRSoftware version number:	ORYX F/W v4,00 Oryx Data Collector v3.7.2.0data status	okinstallation	B5 Nyhavnadifferential loss correction	single-endedforward channel	channel 2reverse channel	N/Adate	2023/12/12time	19:37:13forward acquisition time	300,00reverse acquisition time	0,00gamma	499,1914k internal	0,3157k external	0,3157temperature offset calibration	1,0000default loss term (dB/km)	0,3820temperature slope calibration	1,0000multiplexer offset coefficient	1,0000multiplexer slope coefficient	1,0000fibre end	0,00T internal ref (°C)	15,44T ext. ref 1 (°C)	-1,22T ext. ref 2 (°C)	-1,52length (m)	temperature (°C)	Stokes	anti-Stokes-744,400	138,034	-0,042	0,041
-743,385	-140,050	-0,193	0,015
-742,371	-111,183	0,147	0,022
-741,356	-111,760	-0,267	0,039
-740,342	105,553	0,065	0,056
-739,327	23,582	-0,250	0,152
-738,312	-3,060	0,056	0,029
-737,298	-64,439	-0,331	-0,098
-736,283	-32,977	0,142	-0,058
-735,269	-136,486	-0,342	-0,029
-734,254	-7,743	-0,069	0,034
-733,239	-42,252	-0,518	-0,194
-732,225	-129,096	0,160	0,016
-731,210	94,907	-0,099	-0,083
-730,196	800,000	-0,023	0,062
-729,181	-100,714	0,095	-0,017
-728,167	-38,521	-0,050	-0,019
-727,152	-19,744	0,092	-0,042
-726,137	140,177	-0,115	-0,112
-725,123	-200,000	0,006	-0,069
-724,108	-86,155	-0,141	-0,032
-723,094	91,627	0,065	-0,054
-722,079	-12,230	-0,036	-0,017
-721,064	50,444	0,083	-0,058
-720,050	253,030	-0,062	-0,078
-719,035	70,889	-0,091	0,069
-718,021	284,708	0,023	-0,030
-717,006	163,192	-0,079	-0,082
-715,991	-33,892	-0,055	0,022
-714,977	-5,754	-0,101	-0,051
-713,962	-200,000	-0,020	-0,068
-712,948	-8,234	0,061	-0,030
-711,933	-200,000	0,013	0,080
-710,918	800,000	-0,044	0,113
-709,904	7,340	-0,093	-0,051
-708,889	-136,958	-0,077	0,006
-707,875	160,460	-0,054	0,055
-706,860	-62,640	0,066	-0,020
-705,845	11,845	0,153	0,087
-704,831	383,323	-0,028	-0,043
-703,816	188,731	-0,095	-0,105
-702,802	-85,942	-0,179	-0,040
-701,787	105,200	-0,072	-0,062
-700,772	-135,119	0,080	0,007
-699,758	-34,326	-0,166	-0,067
-698,743	501,832	-0,058	0,099
-697,729	800,000	0,008	-0,018
-696,714	495,359	0,040	-0,067
-695,699	-200,000	0,026	-0,194
-694,685	131,862	-0,084	-0,079
-693,670	-110,297	-0,145	-0,022
-692,656	-26,497	0,121	-0,052
-691,641	577,921	0,024	0,043
-690,627	800,000	-0,015	0,045
-689,612	279,124	-0,016	0,021
-688,597	800,000	0,008	0,021
-687,583	800,000	-0,040	-0,107
-686,568	27,173	-0,113	-0,070
-685,554	-200,000	-0,028	-0,105
-684,539	166,546	0,014	0,014
-683,524	-104,162	-0,125	0,021
-682,510	-68,111	-0,054	0,015
-681,495	800,000	0,014	-0,032
-680,481	75,198	-0,065	0,050
-679,466	-200,000	-0,013	0,141
-678,451	-200,000	-0,026	0,122
-677,437	-200,000	0,050	-0,182
-676,422	800,000	0,003	-0,008
-675,408	-160,912	0,048	-0,002
-674,393	328,274	0,028	-0,040
-673,378	-71,673	-0,168	-0,046
-672,364	156,938	0,071	-0,072
-671,349	213,904	-0,039	0,045
-670,335	215,247	0,036	0,042
-669,320	-200,000	0,011	-0,067
-668,305	98,592	0,097	0,082
-667,291	800,000	-0,005	0,012
-666,276	-4,306	-0,105	0,053
-665,262	179,951	-0,052	0,056
-664,247	6,859	-0,072	-0,039
-663,232	-200,000	-0,001	-0,072
-662,218	-3,598	0,158	0,080
-661,203	-200,000	0,002	0,120
-660,189	106,763	0,092	-0,080
-659,174	703,927	0,033	0,064
-658,159	-200,000	0,011	-0,042
-657,145	-185,510	-0,108	-0,001
-656,130	800,000	-0,031	-0,065
-655,116	-95,849	0,052	-0,010
-654,101	-149,687	0,152	-0,009
-653,086	-200,000	0,027	0,110
-652,072	-200,000	0,010	0,108
-651,057	-200,000	0,006	-0,056
-650,043	32,218	0,068	-0,043
-649,028	-200,000	0,027	-0,093
-648,014	597,353	0,104	0,191
-646,999	-200,000	-0,000	0,052
-645,984	156,663	0,073	0,074
-644,970	-163,519	-0,028	-0,001
-643,955	65,747	0,079	-0,059
-642,941	22,086	-0,137	-0,082
-641,926	13,801	0,052	-0,030
-640,911	-72,686	-0,067	-0,018
-639,897	-175,643	0,100	-0,002
-638,882	182,987	-0,003	0,003
-637,868	52,020	-0,099	-0,069
-636,853	800,000	-0,061	-0,160
-635,838	-150,118	0,029	-0,002
-634,824	689,800	-0,063	-0,121
-633,809	423,513	0,047	-0,075
-632,795	81,232	-0,099	-0,078
-631,780	397,052	-0,028	0,044
-630,765	-41,837	-0,031	-0,012
-629,751	33,880	-0,041	-0,026
-628,736	-6,310	-0,090	-0,045
-627,722	-11,534	0,010	-0,005
-626,707	211,460	-0,057	0,066
-625,692	133,250	0,069	-0,066
-624,678	67,648	-0,048	0,036
-623,663	-200,000	-0,005	-0,042
-622,649	17,888	-0,115	-0,067
-621,634	-108,664	-0,053	0,008
-620,619	28,430	0,127	0,079
-619,605	320,177	0,069	-0,096
-618,590	800,000	0,027	0,056
-617,576	-200,000	0,019	0,067
-616,561	30,762	0,020	0,012
-615,546	75,804	-0,068	0,053
-614,532	800,000	0,005	0,014
-613,517	-2,846	-0,105	0,054
-612,503	800,000	0,077	-0,191
-611,488	-92,552	0,037	-0,008
-610,474	-104,137	-0,108	0,018
-609,459	8,791	0,059	0,033
-608,444	13,704	-0,122	-0,069
-607,430	800,000	-0,019	0,045
-606,415	-200,000	0,006	-0,096
-605,401	-58,482	0,020	0,006
-604,386	-70,609	-0,096	0,026
-603,371	-66,155	0,022	-0,006
-602,357	296,437	-0,089	0,120
-601,342	-200,000	-0,001	-0,025
-600,328	500,601	0,030	-0,051
-599,313	89,711	0,058	0,048
-598,298	-44,746	0,044	-0,016
-597,284	-134,185	0,136	-0,012
-596,269	800,000	-0,032	0,094
-595,255	-200,000	-0,001	-0,051
-594,240	-200,000	-0,000	-0,060
-593,225	-200,000	-0,007	-0,039
-592,211	-200,000	0,033	-0,123
-591,196	270,243	-0,093	-0,120
-590,182	-27,764	0,087	-0,037
-589,167	-72,422	0,045	0,012
-588,152	-200,000	0,014	0,067
-587,138	800,000	-0,030	-0,069
-586,123	-200,000	-0,023	-0,135
-585,109	384,613	-0,062	-0,094
-584,094	204,984	0,043	-0,048
-583,079	464,189	0,075	0,123
-582,065	64,989	0,019	-0,014
-581,050	67,071	0,064	0,048
-580,036	-37,266	0,125	-0,049
-579,021	-11,006	-0,026	-0,012
-578,006	-200,000	0,010	-0,059
-576,992	-200,000	-0,031	0,105
-575,977	203,124	-0,060	-0,068
-574,963	23,370	0,123	0,074
-573,948	-200,000	-0,012	-0,061
-572,934	-4,547	0,069	0,035
-571,919	130,014	0,041	0,039
-570,904	300,618	-0,045	0,061
-569,890	800,000	0,012	-0,026
-568,875	-115,856	-0,164	-0,022
-567,861	315,997	-0,022	-0,031
-566,846	385,272	-0,024	0,036
-565,831	-200,000	-0,009	-0,073
-564,817	217,555	-0,073	-0,085
-563,802	-99,818	0,078	-0,014
-562,788	-200,000	0,001	-0,054
-561,773	95,016	-0,096	0,080
-560,758	-200,000	-0,010	0,086
-559,744	209,445	0,012	-0,014
-558,729	800,000	-0,004	-0,009
-557,715	800,000	-0,031	-0,071
-556,700	-200,000	0,020	0,068
-555,685	-200,000	-0,036	-0,133
-554,671	-27,036	-0,153	-0,065
-553,656	800,000	0,039	0,094
-552,642	159,074	0,009	0,009
-551,627	182,354	0,038	0,041
-550,612	293,046	0,015	0,019
-549,598	166,889	-0,080	0,083
-548,583	800,000	0,043	-0,092
-547,569	-200,000	0,002	0,023
-546,554	-21,455	0,017	0,008
-545,539	225,255	-0,050	0,059
-544,525	-61,142	-0,080	0,025
-543,510	-26,330	0,109	0,047
-542,496	-29,394	-0,087	0,036
-541,481	118,790	0,074	-0,067
-540,466	-200,000	0,048	-0,190
-539,452	-188,700	0,073	-0,001
-538,437	426,475	0,046	0,073
-537,423	292,163	-0,069	-0,092
-536,408	-36,277	-0,011	0,004
-535,393	455,226	0,024	0,039
-534,379	142,166	0,080	-0,078
-533,364	-86,526	0,132	0,029
-532,350	800,000	0,023	-0,047
-531,335	-200,000	0,015	-0,053
-530,321	629,664	0,068	-0,127
-529,306	800,000	-0,040	-0,088
-528,291	-107,791	-0,064	-0,010
-527,277	545,872	0,062	-0,109
-526,262	-76,524	-0,045	-0,012
-525,248	74,159	-0,039	0,030
-524,233	-171,354	0,086	0,002
-523,218	-6,857	-0,071	-0,035
-522,204	187,000	0,088	0,096
-521,189	-38,186	-0,072	0,028
-520,175	800,000	0,039	-0,094
-519,160	39,303	0,037	0,024
-518,145	422,662	0,052	-0,082
-517,131	-130,076	0,113	-0,011
-516,116	-200,000	0,043	0,176
-515,102	33,752	0,051	-0,032
-514,087	800,000	0,021	-0,048
-513,072	8,315	-0,066	0,036
-512,058	374,745	0,080	-0,120
-511,043	109,632	-0,066	0,058
-510,029	432,580	0,095	0,151
-509,014	73,453	0,069	-0,053
-507,999	-200,000	0,014	-0,089
-506,985	-62,052	-0,099	0,030
-505,970	800,000	-0,060	-0,135
-504,956	-200,000	-0,025	-0,116
-503,941	287,131	-0,043	0,057
-502,926	-42,779	-0,105	0,039
-501,912	-200,000	-0,004	0,069
-500,897	72,208	0,103	-0,078
-499,883	-43,003	-0,093	-0,034
-498,868	-182,943	-0,103	0,001
-497,853	504,304	0,058	0,099
-496,839	26,351	0,039	0,024
-495,824	-81,218	-0,078	-0,019
-494,810	162,221	-0,080	0,082
-493,795	788,475	0,029	0,058
-492,781	219,460	-0,025	-0,030
-491,766	800,000	0,022	-0,059
-490,751	-200,000	0,006	0,026
-489,737	-33,879	0,129	-0,052
-488,722	-41,169	0,109	0,041
-487,708	-117,305	-0,126	-0,017
-486,693	578,978	0,054	0,097
-485,678	-29,126	-0,064	-0,027
-484,664	-113,692	-0,160	-0,023
-483,649	-200,000	-0,018	-0,117
-482,635	-200,000	-0,006	-0,060
-481,620	504,186	0,028	0,047
-480,605	-200,000	0,007	0,073
-479,591	260,843	-0,048	-0,060
-478,576	-200,000	-0,007	0,108
-477,562	106,731	-0,099	-0,086
-476,547	-134,091	-0,027	-0,002
-475,532	314,922	0,099	-0,137
-474,518	-200,000	-0,030	0,164
-473,503	79,245	0,124	0,097
-472,489	-130,590	0,012	-0,001
-471,474	-200,000	-0,011	-0,166
-470,459	212,472	-0,060	0,069
-469,445	800,000	-0,053	0,128
-468,430	9,839	-0,078	0,043
-467,416	331,987	-0,049	0,069
-466,401	285,910	-0,019	0,025
-465,386	23,213	0,079	0,047
-464,372	107,938	0,070	0,061
-463,357	113,625	-0,132	0,117
-462,343	-200,000	0,003	-0,050
-461,328	-9,249	-0,055	-0,027
-460,313	800,000	0,030	-0,072
-459,299	414,625	0,041	0,064
-458,284	-111,975	0,111	0,016
-457,270	112,891	-0,115	0,102
-456,255	216,730	-0,109	-0,127
-455,241	-130,622	-0,061	-0,006
-454,226	40,656	0,057	0,037
-453,211	800,000	0,022	-0,050
-452,197	-94,274	0,076	0,015
-451,182	173,085	0,089	0,093
-450,168	-200,000	0,032	0,164
-449,153	64,418	-0,042	-0,031
-448,138	439,519	-0,071	0,113
-447,124	-34,572	0,083	0,033
-446,109	216,066	-0,013	-0,015
-445,095	-101,478	-0,030	0,005
-444,080	800,000	0,041	0,125
-443,065	-27,784	0,118	0,049
-442,051	-200,000	0,000	-0,080
-441,036	-200,000	-0,004	-0,086
-440,022	-121,610	-0,099	0,012
-439,007	-200,000	-0,000	-0,053
-437,992	676,933	-0,039	0,074
-436,978	-200,000	0,028	0,096
-435,963	-200,000	0,004	0,033
-434,949	-93,110	-0,127	-0,025
-433,934	-200,000	0,007	-0,097
-432,919	-200,000	0,023	0,083
-431,905	800,000	-0,016	0,050
-430,890	362,436	0,035	0,051
-429,876	-200,000	0,129	-0,000
-428,861	54,535	-0,107	-0,075
-427,846	-109,234	-0,167	0,025
-426,832	-200,000	-0,009	-0,162
-425,817	800,000	-0,038	-0,119
-424,803	771,028	0,018	0,036
-423,788	-101,515	0,076	-0,013
-422,773	33,666	-0,095	0,060
-421,759	800,000	-0,048	0,126
-420,744	-200,000	-0,002	0,047
-419,730	138,512	0,075	-0,071
-418,715	154,798	-0,036	-0,036
-417,701	-52,256	-0,124	-0,042
-416,686	607,714	0,070	0,128
-415,671	6,135	-0,039	-0,021
-414,657	-200,000	0,011	0,070
-413,642	416,200	0,029	-0,046
-412,628	-200,000	-0,204	0,000
-411,613	141,172	0,048	-0,046
-410,598	145,641	-0,065	0,063
-409,584	-48,549	-0,088	0,031
-408,569	-47,996	0,085	0,030
-407,555	-200,000	0,005	0,058
-406,540	-200,000	0,014	0,111
-405,525	800,000	-0,048	0,145
-404,511	443,370	-0,031	0,049
-403,496	739,273	-0,012	-0,023
-402,482	55,797	-0,113	-0,080
-401,467	98,331	0,098	-0,082
-400,452	-14,606	0,064	0,030
-399,438	-89,998	0,143	-0,030
-398,423	-200,000	-0,003	0,084
-397,409	127,449	0,037	-0,034
-396,394	-66,557	-0,068	0,020
-395,379	-16,903	0,079	0,036
-394,365	-17,849	-0,044	0,020
-393,350	80,683	-0,044	0,034
-392,336	-200,000	0,005	0,095
-391,321	532,094	-0,031	-0,054
-390,306	-100,577	-0,084	0,015
-389,292	83,361	0,080	0,064
-388,277	-71,809	0,041	-0,011
-387,263	-200,000	0,003	0,123
-386,248	800,000	0,025	0,075
-385,233	92,087	0,071	0,058
-384,219	-200,000	-0,012	0,085
-383,204	-88,951	-0,101	-0,021
-382,190	-200,000	0,019	-0,170
-381,175	800,000	0,078	-0,170
-380,160	-66,060	0,138	0,040
-379,146	-130,442	-0,061	-0,006
-378,131	-200,000	0,007	0,083
-377,117	-200,000	-0,040	0,166
-376,102	375,954	-0,023	0,034
-375,088	104,294	-0,083	0,071
-374,073	800,000	0,045	-0,104
-373,058	-200,000	0,003	-0,010
-372,044	800,000	0,068	0,144
-371,029	-200,000	0,004	0,110
-370,015	2,733	-0,018	0,010
-369,000	114,671	-0,154	-0,137
-367,985	187,293	-0,116	-0,126
-366,971	97,603	0,086	-0,072
-365,956	800,000	0,054	-0,155
-364,942	161,377	0,007	0,007
-363,927	800,000	0,049	0,115
-362,912	228,013	0,067	0,079
-361,898	800,000	0,041	0,095
-360,883	-200,000	0,020	0,116
-359,869	-200,000	0,031	-0,133
-358,854	167,043	0,040	-0,041
-357,839	-134,896	-0,014	0,001
-356,825	-111,145	-0,042	0,006
-355,810	-200,000	0,035	-0,000
-354,796	-200,000	-0,011	-0,101
-353,781	-7,661	-0,083	-0,041
-352,766	707,116	-0,083	-0,160
-351,752	-0,142	0,122	-0,063
-350,737	-82,118	0,088	-0,021
-349,723	144,335	-0,117	0,113
-348,708	-174,435	0,148	-0,003
-347,693	75,920	-0,059	0,045
-346,679	800,000	0,038	-0,077
-345,664	-106,212	0,042	-0,007
-344,650	-200,000	0,001	0,029
-343,635	-15,262	0,069	0,032
-342,620	318,476	-0,019	0,026
-341,606	-92,244	0,138	-0,028
-340,591	800,000	-0,040	-0,109
-339,577	-200,000	0,019	0,068
-338,562	213,659	-0,033	-0,038
-337,548	-200,000	-0,005	-0,040
-336,533	-97,188	0,079	0,015
-335,518	306,065	-0,045	0,061
-334,504	177,974	0,011	-0,011
-333,489	207,592	0,007	-0,008
-332,475	-82,625	-0,025	-0,006
-331,460	761,773	-0,019	0,038
-330,445	107,034	0,034	0,030
-329,431	-100,937	-0,073	-0,013
-328,416	-200,000	0,026	0,100
-327,402	75,834	-0,095	-0,072
-326,387	800,000	-0,003	-0,007
-325,372	-52,111	-0,081	-0,027
-324,358	4,005	0,056	-0,029
-323,343	250,196	-0,020	-0,024
-322,329	-167,261	0,064	0,002
-321,314	-200,000	0,012	0,044
-320,299	-91,286	0,098	-0,020
-319,285	-200,000	-0,025	0,084
-318,270	537,667	0,081	-0,139
-317,256	800,000	0,077	-0,156
-316,241	-200,000	0,006	0,055
-315,226	-143,345	0,096	-0,007
-314,212	-149,705	0,043	0,002
-313,197	-136,253	-0,092	-0,008
-312,183	51,842	0,031	0,021
-311,168	800,000	-0,045	-0,111
-310,153	317,501	-0,041	-0,057
-309,139	-29,587	-0,108	-0,045
-308,124	353,932	0,054	0,078
-307,110	-98,058	0,063	-0,012
-306,095	-200,000	-0,045	0,161
-305,080	280,761	-0,043	0,056
-304,066	19,184	-0,111	-0,065
-303,051	7,621	-0,147	-0,080
-302,037	-50,476	-0,078	-0,026
-301,022	-200,000	0,026	-0,098
-300,008	-60,529	-0,076	0,023
-298,993	18,673	0,119	-0,069
-297,978	82,754	0,056	-0,044
-296,964	-200,000	-0,007	-0,181
-295,949	-35,698	0,092	-0,036
-294,935	160,120	-0,084	0,085
-293,920	326,730	0,024	-0,034
-292,905	-200,000	0,000	0,093
-291,891	4,745	0,169	0,090
-290,876	-200,000	0,002	-0,112
-289,862	-125,459	-0,088	-0,010
-288,847	672,896	0,005	0,009
-287,832	526,177	0,052	-0,088
-286,818	-200,000	-0,128	0,000
-285,803	341,098	0,038	-0,053
-284,789	-200,000	0,018	0,167
-283,774	5,257	-0,054	0,029
-282,759	-11,150	-0,053	-0,025
-281,745	-200,000	-0,015	0,190
-280,730	-53,596	-0,141	0,047
-279,716	-152,424	0,099	-0,005
-278,701	-200,000	-0,011	-0,052
-277,686	688,482	0,011	0,021
-276,672	298,427	0,021	0,028
-275,657	-200,000	-0,013	0,055
-274,643	336,455	0,062	-0,087
-273,628	-79,473	-0,051	0,012
-272,613	473,448	0,031	-0,051
-271,599	97,357	0,098	-0,081
-270,584	275,004	0,050	0,064
-269,570	-63,301	-0,122	-0,036
-268,555	-200,000	-0,011	0,086
-267,540	-200,000	-0,005	-0,095
-266,526	-51,694	0,061	0,020
-265,511	-200,000	0,003	0,015
-264,497	-162,754	-0,016	0,001
-263,482	-25,438	-0,102	0,043
-262,467	-88,963	-0,039	0,008
-261,453	-187,770	0,069	-0,001
-260,438	800,000	-0,051	-0,108
-259,424	-20,873	0,044	0,020
-258,409	-84,504	0,102	-0,023
-257,395	359,573	-0,079	-0,115
-256,380	-87,948	-0,102	-0,022
-255,365	800,000	0,047	-0,098
-254,351	-90,803	0,119	-0,025
-253,336	-111,503	-0,111	0,016
-252,322	-200,000	-0,013	-0,177
-251,307	-135,924	0,055	0,005
-250,292	-200,000	0,006	-0,029
-249,278	566,390	0,116	0,204
-248,263	218,995	0,063	0,073
-247,249	800,000	-0,058	0,132
-246,234	-40,897	-0,127	-0,047
-245,219	3,229	0,045	-0,024
-244,205	29,358	-0,083	0,051
-243,190	-200,000	0,002	-0,017
-242,176	-33,143	0,132	-0,053
-241,161	-200,000	-0,001	-0,039
-240,146	-186,265	0,063	-0,001
-239,132	123,449	0,055	-0,050
-238,117	-200,000	-0,002	-0,084
-237,103	-33,972	-0,057	-0,023
-236,088	84,970	-0,102	0,081
-235,073	-17,041	0,079	0,036
-234,059	389,003	0,040	0,061
-233,044	-200,000	0,006	-0,068
-232,030	272,090	0,032	0,040
-231,015	20,375	0,036	-0,021
-230,000	382,558	0,061	0,091
-228,986	-200,000	-0,010	0,082
-227,971	205,844	-0,056	-0,063
-226,957	-5,934	-0,133	0,065
-225,942	-200,000	0,024	0,110
-224,927	-53,915	-0,052	0,017
-223,913	-33,259	0,042	-0,017
-222,898	-200,000	-0,029	0,104
-221,884	34,666	-0,071	-0,045
-220,869	-200,000	-0,001	-0,049
-219,855	-200,000	-0,001	-0,012
-218,840	-68,343	0,040	-0,011
-217,825	475,033	0,015	0,025
-216,811	-53,146	-0,202	-0,067
-215,796	-32,949	0,050	0,020
-214,782	380,028	-0,041	-0,061
-213,767	209,115	-0,091	0,103
-212,752	-84,117	0,108	0,025
-211,738	-200,000	0,005	0,058
-210,723	800,000	-0,052	0,135
-209,709	-200,000	0,002	0,066
-208,694	-42,298	-0,028	0,010
-207,679	-70,665	-0,090	-0,025
-206,665	505,813	-0,042	0,070
-205,650	215,349	-0,045	-0,052
-204,636	-193,359	0,157	-0,001
-203,621	0,869	-0,095	0,049
-202,606	105,504	-0,012	0,010
-201,592	52,661	-0,125	-0,086
-200,577	-174,269	-0,185	0,004
-199,563	213,747	0,074	0,085
-198,548	-200,000	-0,012	-0,080
-197,533	-146,719	-0,009	-0,001
-196,519	800,000	-0,027	0,083
-195,504	-85,980	0,137	-0,030
-194,490	468,720	-0,101	0,164
-193,475	-200,000	0,010	-0,057
-192,460	315,151	0,045	-0,061
-191,446	558,866	0,042	0,073
-190,431	252,956	0,033	0,041
-189,417	589,933	-0,032	-0,058
-188,402	-111,518	0,071	0,010
-187,387	0,582	-0,084	-0,043
-186,373	84,308	-0,014	0,011
-185,358	212,275	-0,041	0,046
-184,344	-200,000	-0,004	-0,012
-183,329	-70,943	0,061	0,016
-182,315	-94,742	0,122	0,024
-181,300	370,257	-0,033	0,048
-180,285	129,089	-0,087	-0,081
-179,271	-200,000	-0,035	-0,175
-178,256	-200,000	-0,018	-0,071
-177,242	-58,294	0,080	-0,025
-176,227	-200,000	-0,010	0,048
-175,212	-200,000	0,001	0,090
-174,198	-200,000	0,003	0,097
-173,183	-154,043	-0,141	-0,007
-172,169	800,000	0,019	0,049
-171,154	800,000	-0,034	-0,068
-170,139	-200,000	0,005	0,021
-169,125	74,945	0,168	-0,127
-168,110	73,642	0,071	-0,053
-167,096	147,420	0,025	-0,024
-166,081	44,909	0,106	0,070
-165,066	-34,207	0,071	-0,028
-164,052	644,485	-0,042	-0,077
-163,037	-200,000	0,016	0,115
-162,023	178,388	0,077	0,081
-161,008	-200,000	0,002	0,100
-159,993	-200,000	0,024	-0,115
-158,979	67,673	0,063	0,046
-157,964	25,013	-0,059	0,035
-156,950	418,388	0,093	-0,143
-155,935	-44,513	0,179	0,064
-154,920	53,735	0,081	0,056
-153,906	158,124	0,135	0,135
-152,891	-200,000	0,001	0,012
-151,877	-200,000	-0,010	-0,040
-150,862	265,225	0,174	-0,219
-149,847	-5,445	-0,144	0,071
-148,833	800,000	0,048	-0,128
-147,818	326,132	0,038	0,052
-146,804	36,166	0,044	0,028
-145,789	16,757	-0,177	0,101
-144,775	265,944	-0,085	0,107
-143,760	-125,704	-0,116	-0,013
-142,745	91,380	0,086	-0,069
-141,731	-53,215	-0,036	0,012
-140,716	-33,536	0,062	-0,024
-139,702	800,000	-0,045	0,123
-138,687	-51,705	0,213	0,071
-137,672	44,560	-0,071	0,047
-136,658	162,786	-0,096	0,098
-135,643	124,923	-0,076	-0,069
-134,629	126,214	0,086	-0,078
-133,614	19,023	0,051	0,029
-132,599	800,000	0,044	0,112
-131,585	-200,000	-0,002	0,049
-130,570	800,000	-0,039	-0,080
-129,556	538,000	-0,071	-0,122
-128,541	-200,000	-0,018	-0,129
-127,526	-102,574	-0,105	-0,018
-126,512	392,218	0,023	0,035
-125,497	564,148	-0,063	0,111
-124,483	-118,018	-0,131	-0,017
-123,468	-112,456	-0,055	0,008
-122,453	-109,092	-0,103	-0,016
-121,439	800,000	-0,082	-0,205
-120,424	-200,000	-0,001	0,109
-119,410	-175,335	-0,050	-0,001
