DTS Sentinel unit serial number:	SN410029Multiplexer serial number:	ORYXHardware model number:	OX2-SRSoftware version number:	ORYX F/W v4,00 Oryx Data Collector v3.7.2.0data status	okinstallation	B5 Nyhavnadifferential loss correction	single-endedforward channel	channel 2reverse channel	N/Adate	2023/12/14time	15:22:13forward acquisition time	300,00reverse acquisition time	0,00gamma	499,1914k internal	0,3157k external	0,3157temperature offset calibration	1,0000default loss term (dB/km)	0,3820temperature slope calibration	1,0000multiplexer offset coefficient	1,0000multiplexer slope coefficient	1,0000fibre end	0,00T internal ref (°C)	7,90T ext. ref 1 (°C)	-8,27T ext. ref 2 (°C)	-8,30length (m)	temperature (°C)	Stokes	anti-Stokes-744,400	-156,857	0,169	0,008
-743,385	-160,236	-0,372	0,015
-742,371	176,079	0,202	0,216
-741,356	-107,154	-0,326	-0,053
-740,342	-78,123	0,092	-0,023
-739,327	-72,760	-0,341	-0,092
-738,312	-59,881	0,237	-0,074
-737,298	-81,503	-0,434	-0,104
-736,283	-200,000	-0,002	0,011
-735,269	-180,788	-0,463	0,007
-734,254	-83,758	0,237	0,055
-733,239	17,444	-0,482	-0,281
-732,225	15,751	0,250	0,145
-731,210	48,087	-0,075	0,052
-730,196	-53,911	-0,111	-0,037
-729,181	-51,678	-0,088	-0,030
-728,167	-200,000	0,005	0,073
-727,152	-200,000	-0,003	-0,037
-726,137	800,000	-0,030	0,066
-725,123	-127,127	-0,207	0,022
-724,108	325,193	-0,088	-0,125
-723,094	-67,071	-0,179	-0,052
-722,079	-42,503	-0,177	0,066
-721,064	800,000	-0,015	0,044
-720,050	318,083	0,047	-0,066
-719,035	800,000	-0,007	0,022
-718,021	122,169	-0,090	0,083
-717,006	800,000	-0,022	-0,058
-715,991	-200,000	-0,033	-0,238
-714,977	192,356	-0,093	-0,103
-713,962	701,823	-0,086	-0,168
-712,948	800,000	0,029	0,063
-711,933	452,757	-0,022	-0,036
-710,918	-89,459	-0,133	-0,029
-709,904	183,676	0,145	0,158
-708,889	-200,000	0,038	-0,231
-707,875	-200,000	-0,019	-0,120
-706,860	52,167	-0,090	0,063
-705,845	-61,895	0,092	-0,028
-704,831	-86,520	-0,105	-0,023
-703,816	44,602	-0,105	-0,071
-702,802	14,029	-0,103	-0,059
-701,787	208,800	-0,042	-0,049
-700,772	29,137	-0,077	-0,048
-699,758	49,713	-0,014	0,009
-698,743	723,727	-0,072	0,141
-697,729	41,557	0,087	0,058
-696,714	800,000	0,052	0,129
-695,699	350,605	0,033	-0,049
-694,685	26,030	-0,107	-0,066
-693,670	117,492	-0,112	-0,101
-692,656	42,380	-0,047	0,032
-691,641	-200,000	-0,010	0,086
-690,627	-28,292	-0,074	-0,031
-689,612	68,427	-0,115	0,087
-688,597	90,123	-0,030	-0,025
-687,583	96,337	-0,134	-0,113
-686,568	-11,530	-0,159	-0,077
-685,554	-200,000	-0,013	-0,161
-684,539	151,231	0,175	0,175
-683,524	128,917	-0,009	0,008
-682,510	-200,000	-0,007	0,027
-681,495	-128,804	-0,103	-0,011
-680,481	-113,217	0,035	0,005
-679,466	-57,743	-0,053	0,017
-678,451	148,895	0,033	-0,032
-677,437	-200,000	-0,004	-0,140
-676,422	86,812	0,035	-0,028
-675,408	-200,000	-0,027	-0,094
-674,393	133,531	0,054	-0,052
-673,378	800,000	-0,047	-0,126
-672,364	86,203	-0,168	-0,136
-671,349	-200,000	0,003	0,036
-670,335	224,441	0,046	-0,054
-669,320	-70,538	0,136	0,038
-668,305	-188,966	0,115	-0,001
-667,291	22,451	0,053	-0,032
-666,276	-200,000	-0,001	-0,050
-665,262	-200,000	0,009	-0,076
-664,247	98,314	-0,078	-0,066
-663,232	58,577	-0,082	-0,059
-662,218	800,000	0,020	-0,058
-661,203	103,288	0,067	0,058
-660,189	-177,910	-0,099	0,002
-659,174	-200,000	-0,035	0,142
-658,159	560,175	-0,066	-0,118
-657,145	-200,000	-0,044	-0,184
-656,130	-67,526	-0,120	0,034
-655,116	133,481	0,055	0,052
-654,101	800,000	0,017	0,043
-653,086	1,904	-0,127	0,067
-652,072	-56,833	0,096	-0,031
-651,057	47,065	-0,059	0,040
-650,043	74,369	0,028	-0,021
-649,028	-200,000	-0,009	0,127
-648,014	-200,000	0,007	0,096
-646,999	86,560	-0,117	0,095
-645,984	66,699	-0,071	0,053
-644,970	-150,994	-0,007	-0,000
-643,955	18,573	0,069	-0,040
-642,941	-200,000	-0,017	-0,087
-641,926	-200,000	-0,003	-0,065
-640,911	-101,577	0,013	0,002
-639,897	-152,096	0,027	-0,001
-638,882	279,898	-0,133	-0,174
-637,868	203,894	-0,016	0,018
-636,853	67,621	-0,118	-0,088
-635,838	205,996	0,117	-0,134
-634,824	-200,000	0,017	-0,129
-633,809	-200,000	-0,004	-0,015
-632,795	-200,000	-0,003	-0,102
-631,780	154,405	-0,043	0,043
-630,765	-163,497	-0,093	-0,003
-629,751	-200,000	-0,005	0,033
-628,736	-200,000	-0,027	0,127
-627,722	192,764	0,023	-0,026
-626,707	-200,000	0,019	0,106
-625,692	800,000	0,023	-0,069
-624,678	152,903	0,074	-0,074
-623,663	800,000	-0,043	-0,108
-622,649	-200,000	0,032	-0,172
-621,634	-22,402	-0,115	-0,051
-620,619	-84,955	0,150	-0,034
-619,605	676,964	0,009	-0,018
-618,590	145,973	-0,029	-0,028
-617,576	351,067	0,004	-0,006
-616,561	-115,593	-0,164	-0,022
-615,546	-118,162	0,044	-0,006
-614,532	5,235	-0,051	0,027
-613,517	-97,294	-0,174	-0,033
-612,503	-1,474	0,030	0,015
-611,488	-125,049	-0,084	-0,009
-610,474	-200,000	0,018	0,154
-609,459	675,954	0,017	0,033
-608,444	426,131	0,022	0,035
-607,430	-200,000	-0,031	-0,127
-606,415	552,001	0,036	-0,064
-605,401	282,526	0,068	0,089
-604,386	45,350	0,110	-0,074
-603,371	-84,737	0,100	-0,023
-602,357	-200,000	0,037	0,133
-601,342	132,504	0,038	0,036
-600,328	-200,000	0,017	-0,160
-599,313	800,000	0,019	-0,045
-598,298	-11,176	0,078	-0,038
-597,284	93,312	0,139	0,115
-596,269	163,403	0,044	0,046
-595,255	800,000	0,019	-0,046
-594,240	800,000	0,006	-0,018
-593,225	-34,217	0,053	0,021
-592,211	464,624	-0,017	-0,028
-591,196	57,465	0,099	0,071
-590,182	96,377	-0,051	0,043
-589,167	-200,000	0,001	0,079
-588,152	656,929	-0,006	-0,011
-587,138	-200,000	0,007	-0,030
-586,123	-200,000	-0,002	-0,054
-585,109	-154,484	-0,056	0,003
-584,094	520,950	0,054	0,093
-583,079	-100,534	-0,153	-0,027
-582,065	-50,749	0,061	0,021
-581,050	-200,000	0,008	-0,030
-580,036	-54,378	0,093	0,031
-579,021	598,076	0,001	0,002
-578,006	-89,982	-0,136	-0,029
-576,992	349,247	0,010	-0,015
-575,977	-98,463	-0,131	-0,024
-574,963	215,857	-0,017	-0,020
-573,948	-200,000	0,017	0,072
-572,934	572,543	-0,049	0,088
-571,919	-200,000	0,015	-0,090
-570,904	-151,924	-0,197	-0,010
-569,890	-3,914	0,031	0,016
-568,875	358,910	-0,052	-0,076
-567,861	-200,000	0,002	0,068
-566,846	-200,000	0,024	0,103
-565,831	321,676	-0,089	-0,125
-564,817	272,568	0,015	0,020
-563,802	180,100	-0,123	-0,132
-562,788	67,593	-0,048	-0,036
-561,773	743,140	0,053	-0,105
-560,758	-86,345	-0,075	-0,017
-559,744	381,956	0,041	0,061
-558,729	-200,000	-0,022	0,105
-557,715	-200,000	0,002	-0,022
-556,700	-200,000	0,009	-0,098
-555,685	-27,447	-0,094	0,040
-554,671	45,391	-0,083	0,056
-553,656	208,980	-0,023	-0,026
-552,642	-29,647	-0,060	-0,025
-551,627	-200,000	-0,021	-0,084
-550,612	-200,000	-0,016	-0,128
-549,598	25,905	-0,090	-0,055
-548,583	151,233	-0,082	0,081
-547,569	-200,000	0,030	-0,143
-546,554	46,654	0,087	0,059
-545,539	294,970	-0,031	-0,041
-544,525	800,000	0,085	0,201
-543,510	-53,757	-0,072	0,024
-542,496	149,623	-0,096	-0,095
-541,481	-200,000	0,041	-0,209
-540,466	-200,000	0,005	-0,025
-539,452	-200,000	-0,006	0,057
-538,437	-81,186	0,124	-0,030
-537,423	69,465	0,101	0,076
-536,408	800,000	-0,017	-0,040
-535,393	-65,280	-0,050	0,015
-534,379	-107,545	-0,179	-0,028
-533,364	27,329	0,104	-0,064
-532,350	-8,839	-0,014	-0,007
-531,335	-147,726	-0,028	0,002
-530,321	583,674	0,027	0,049
-529,306	-124,384	-0,038	0,004
-528,291	67,005	-0,013	0,010
-527,277	49,068	-0,138	-0,095
-526,262	-200,000	0,003	0,011
-525,248	494,876	-0,073	-0,122
-524,233	-200,000	0,006	-0,088
-523,218	67,041	0,051	-0,038
-522,204	-87,506	0,006	-0,001
-521,189	-61,971	-0,077	-0,023
-520,175	212,420	-0,052	-0,060
-519,160	800,000	0,007	-0,021
-518,145	238,741	0,069	-0,084
-517,131	87,991	0,023	-0,019
-516,116	112,890	-0,065	-0,058
-515,102	269,108	-0,095	-0,122
-514,087	154,878	-0,018	-0,018
-513,072	-142,330	-0,078	-0,006
-512,058	73,820	-0,017	-0,013
-511,043	19,727	-0,081	-0,048
-510,029	412,107	0,033	-0,052
-509,014	800,000	0,057	-0,146
-507,999	800,000	0,022	-0,055
-506,985	216,771	-0,118	0,137
-505,970	52,467	-0,097	-0,067
-504,956	377,454	0,041	-0,061
-503,941	440,201	-0,063	-0,100
-502,926	-142,808	0,029	0,002
-501,912	-66,062	0,122	0,035
-500,897	20,331	-0,031	-0,018
-499,883	425,815	-0,067	0,105
-498,868	-200,000	0,006	-0,227
-497,853	-200,000	-0,048	-0,192
-496,839	50,229	-0,105	0,073
-495,824	-11,797	0,055	0,026
-494,810	-113,239	0,080	-0,011
-493,795	453,899	0,087	0,141
-492,781	77,974	-0,048	0,037
-491,766	-167,243	-0,089	0,003
-490,751	145,588	-0,035	0,034
-489,737	800,000	0,009	0,028
-488,722	395,326	-0,055	-0,084
-487,708	-101,364	0,066	-0,012
-486,693	-80,716	-0,073	-0,018
-485,678	800,000	-0,061	0,130
-484,664	-72,207	-0,017	0,005
-483,649	800,000	-0,042	-0,087
-482,635	800,000	-0,069	0,147
-481,620	-170,113	0,067	0,002
-480,605	-79,586	0,077	-0,019
-479,591	-102,686	0,015	-0,003
-478,576	293,582	0,068	-0,090
-477,562	417,616	0,023	0,036
-476,547	254,826	-0,123	-0,153
-475,532	3,078	0,067	0,036
-474,518	-200,000	0,006	0,053
-473,503	-163,254	0,139	-0,005
-472,489	79,514	-0,105	0,082
-471,474	-200,000	-0,019	-0,098
-470,459	73,567	-0,070	0,054
-469,445	170,595	-0,068	-0,071
-468,430	673,605	0,037	-0,070
-467,416	800,000	-0,013	0,035
-466,401	150,081	0,043	0,043
-465,386	5,553	-0,042	-0,023
-464,372	360,351	-0,034	0,050
-463,357	127,107	-0,091	-0,084
-462,343	95,589	-0,022	-0,018
-461,328	122,717	0,028	-0,025
-460,313	282,227	0,067	0,088
-459,299	800,000	0,011	-0,023
-458,284	-61,994	-0,149	0,045
-457,270	-164,827	0,176	-0,006
-456,255	-200,000	-0,013	-0,111
-455,241	325,851	0,065	-0,091
-454,226	404,899	0,034	-0,052
-453,211	24,326	0,114	0,068
-452,197	-30,235	-0,049	-0,020
-451,182	72,184	-0,039	0,029
-450,168	-3,725	0,134	0,067
-449,153	-76,754	-0,094	0,024
-448,138	-73,046	0,152	0,040
-447,124	46,847	-0,070	0,047
-446,109	302,792	0,073	-0,098
-445,095	800,000	0,037	-0,080
-444,080	-60,632	0,024	0,008
-443,065	26,241	0,059	-0,036
-442,051	32,683	0,165	-0,103
-441,036	800,000	-0,052	-0,114
-440,022	800,000	-0,017	-0,048
-439,007	376,474	-0,064	0,096
-437,992	193,849	0,030	0,033
-436,978	48,641	-0,014	-0,010
-435,963	262,830	0,116	0,147
-434,949	367,239	-0,054	-0,080
-433,934	-117,025	0,085	-0,011
-432,919	-50,544	-0,092	0,031
-431,905	535,498	0,088	-0,153
-430,890	61,627	-0,022	0,016
-429,876	-112,974	0,107	0,015
-428,861	-70,375	-0,143	0,039
-427,846	-200,000	0,014	0,103
-426,832	608,312	-0,088	-0,160
-425,817	-200,000	0,011	0,087
-424,803	67,756	0,055	-0,041
-423,788	-71,047	-0,107	-0,029
-422,773	-15,000	0,020	0,009
-421,759	-136,319	-0,063	0,005
-420,744	-37,167	-0,098	0,038
-419,730	480,840	0,062	-0,103
-418,715	-57,853	-0,114	-0,036
-417,701	-37,626	0,043	-0,017
-416,686	-185,126	-0,125	0,001
-415,671	-142,661	-0,144	-0,010
-414,657	54,211	0,068	-0,048
-413,642	-74,048	0,131	-0,034
-412,628	-200,000	0,022	0,074
-411,613	201,873	-0,048	0,054
-410,598	800,000	0,060	-0,127
-409,584	-200,000	0,035	0,139
-408,569	217,237	0,046	0,053
-407,555	800,000	0,068	0,145
-406,540	-197,362	0,127	-0,001
-405,525	-200,000	-0,019	0,098
-404,511	104,493	0,016	0,013
-403,496	209,819	-0,146	-0,167
-402,482	-200,000	0,057	0,191
-401,467	-200,000	0,011	0,107
-400,452	800,000	0,043	0,103
-399,438	279,507	-0,033	0,043
-398,423	240,519	0,065	-0,080
-397,409	73,712	0,076	-0,058
-396,394	382,779	-0,033	-0,049
-395,379	-18,319	0,061	0,028
-394,365	-89,537	0,079	0,017
-393,350	-200,000	-0,001	-0,081
-392,336	-200,000	-0,025	-0,098
-391,321	-8,093	0,152	-0,074
-390,306	359,490	-0,027	-0,039
-389,292	800,000	-0,030	-0,075
-388,277	12,989	0,017	-0,009
-387,263	-200,000	0,018	0,115
-386,248	273,619	-0,019	0,024
-385,233	23,236	0,029	0,017
-384,219	800,000	-0,034	0,107
-383,204	800,000	-0,010	-0,021
-382,190	561,052	0,086	0,151
-381,175	-99,583	-0,091	0,016
-380,160	415,652	-0,028	-0,043
-379,146	-86,641	-0,032	0,007
-378,131	-126,486	0,115	-0,012
-377,117	800,000	0,038	0,091
-376,102	152,423	-0,018	-0,018
-375,088	59,430	0,128	0,092
-374,073	-200,000	-0,007	0,049
-373,058	136,660	0,085	-0,081
-372,044	-200,000	0,008	0,100
-371,029	-72,947	0,062	0,016
-370,015	-75,106	-0,097	0,025
-369,000	-200,000	0,000	-0,037
-367,985	44,847	-0,070	-0,047
-366,971	-68,063	-0,179	-0,050
-365,956	419,001	-0,020	-0,032
-364,942	-200,000	-0,028	0,167
-363,927	125,974	0,051	0,047
-362,912	162,359	0,089	0,090
-361,898	-200,000	0,019	0,118
-360,883	161,343	-0,059	0,060
-359,869	800,000	0,065	0,137
-358,854	125,906	0,013	-0,012
-357,839	277,418	-0,075	0,097
-356,825	800,000	-0,034	0,091
-355,810	69,114	0,166	-0,124
-354,796	-180,297	-0,025	-0,000
-353,781	376,043	0,054	-0,080
-352,766	16,530	-0,050	-0,028
-351,752	191,671	0,129	0,141
-350,737	364,573	-0,052	0,077
-349,723	718,605	-0,085	0,166
-348,708	22,403	0,051	0,030
-347,693	-4,372	-0,009	-0,004
-346,679	800,000	-0,073	-0,160
-345,664	800,000	0,038	-0,105
-344,650	140,633	0,030	-0,028
-343,635	-80,051	0,090	-0,022
-342,620	315,934	-0,081	0,112
-341,606	-200,000	0,013	0,058
-340,591	-98,897	-0,006	-0,001
-339,577	186,910	0,044	-0,047
-338,562	-200,000	-0,016	0,109
-337,548	63,643	-0,129	-0,094
-336,533	-200,000	0,023	0,167
-335,518	-121,540	0,171	-0,020
-334,504	653,037	-0,057	0,107
-333,489	135,741	0,049	0,046
-332,475	-103,233	-0,134	-0,023
-331,460	-125,233	-0,092	0,010
-330,445	-200,000	-0,032	-0,134
-329,431	-54,870	-0,077	0,025
-328,416	-181,573	0,146	0,002
-327,402	-200,000	-0,029	0,199
-326,387	448,256	-0,068	-0,109
-325,372	-114,862	0,018	0,002
-324,358	90,089	0,103	0,084
-323,343	-200,000	0,005	-0,056
-322,329	96,443	0,035	0,029
-321,314	-200,000	-0,011	0,096
-320,299	285,031	0,055	0,072
-319,285	-200,000	-0,031	0,231
-318,270	188,131	0,051	-0,055
-317,256	94,230	0,055	-0,045
-316,241	-108,387	0,071	0,011
-315,226	-17,166	0,075	0,034
-314,212	800,000	-0,023	-0,052
-313,197	-200,000	-0,032	0,134
-312,183	800,000	-0,029	0,081
-311,168	-200,000	0,052	-0,179
-310,153	164,784	0,008	-0,009
-309,139	106,618	0,076	0,066
-308,124	321,263	0,026	0,036
-307,110	-16,167	0,114	-0,053
-306,095	-200,000	-0,003	0,135
-305,080	-200,000	-0,009	0,101
-304,066	-94,658	0,062	-0,012
-303,051	-200,000	-0,021	-0,118
-302,037	-200,000	0,001	0,006
-301,022	285,211	0,074	-0,096
-300,008	13,106	0,039	0,022
-298,993	389,932	0,079	0,119
-297,978	-65,500	-0,031	-0,009
-296,964	-200,000	0,018	0,118
-295,949	800,000	0,023	-0,049
-294,935	-32,159	0,012	-0,005
-293,920	26,632	0,019	-0,011
-292,905	90,344	0,170	0,137
-291,891	800,000	-0,086	-0,185
-290,876	285,653	-0,039	0,051
-289,862	128,148	0,036	0,033
-288,847	-66,542	0,066	0,019
-287,832	-96,553	-0,123	0,023
-286,818	70,339	0,050	-0,038
-285,803	235,199	0,055	0,065
-284,789	31,144	0,095	-0,059
-283,774	147,216	-0,061	0,059
-282,759	11,812	-0,109	0,060
-281,745	-200,000	-0,030	0,108
-280,730	-200,000	0,001	-0,076
-279,716	-200,000	0,001	0,021
-278,701	-140,156	0,067	-0,005
-277,686	-71,473	0,088	-0,024
-276,672	56,101	0,102	-0,072
-275,657	800,000	0,028	0,084
-274,643	800,000	-0,034	-0,070
-273,628	-200,000	-0,026	-0,143
-272,613	177,985	0,031	-0,033
-271,599	-121,479	0,078	-0,009
-270,584	-75,177	0,092	-0,024
-269,570	70,040	0,139	-0,104
-268,555	-147,337	-0,101	0,006
-267,540	326,671	0,081	0,113
-266,526	483,148	0,071	-0,118
-265,511	-200,000	-0,001	0,070
-264,497	-15,592	-0,019	-0,009
-263,482	-91,496	0,164	-0,034
-262,467	-200,000	-0,039	0,000
-261,453	-5,778	0,069	-0,034
-260,438	-114,947	0,037	-0,005
-259,424	60,148	-0,054	0,039
-258,409	147,636	0,020	-0,019
-257,395	-200,000	0,017	-0,110
-256,380	800,000	0,017	0,044
-255,365	-200,000	-0,002	0,123
-254,351	-113,016	-0,182	0,026
-253,336	-200,000	-0,022	0,095
-252,322	332,623	-0,031	0,044
-251,307	-200,000	-0,003	0,023
-250,292	-200,000	0,040	-0,147
-249,278	800,000	0,035	0,100
-248,263	146,122	-0,110	0,107
-247,249	800,000	-0,027	0,064
-246,234	102,043	0,194	0,164
-245,219	509,356	0,037	0,063
-244,205	-200,000	-0,054	-0,194
-243,190	-200,000	0,012	0,049
-242,176	-22,921	-0,069	0,030
-241,161	153,659	-0,013	-0,013
-240,146	51,964	0,057	0,039
-239,132	65,937	-0,034	-0,025
-238,117	82,962	-0,107	0,084
-237,103	-44,902	0,119	-0,043
-236,088	106,709	-0,038	-0,033
-235,073	-34,961	0,214	-0,084
-234,059	204,103	-0,079	0,088
-233,044	-18,963	0,114	0,051
-232,030	201,496	-0,086	-0,096
-231,015	182,734	-0,134	-0,143
-230,000	-105,530	0,126	0,020
-228,986	-144,470	-0,114	-0,007
-227,971	-200,000	-0,004	-0,026
-226,957	77,383	0,110	0,084
-225,942	-200,000	0,016	0,071
-224,927	-95,111	-0,175	0,034
-223,913	-91,243	0,085	0,017
-222,898	-200,000	0,006	-0,074
-221,884	289,048	-0,087	-0,115
-220,869	119,836	0,042	-0,037
-219,855	93,473	-0,078	-0,063
-218,840	389,543	-0,022	0,033
-217,825	800,000	0,036	0,089
-216,811	-101,084	-0,079	-0,014
-215,796	-57,859	-0,212	-0,067
-214,782	800,000	-0,001	0,002
-213,767	800,000	-0,028	0,057
-212,752	-185,141	-0,053	-0,001
-211,738	-200,000	-0,039	0,197
-210,723	-200,000	0,021	0,120
-209,709	-200,000	-0,025	0,092
-208,694	301,799	-0,024	-0,032
-207,679	31,235	-0,036	0,022
-206,665	-118,455	-0,132	-0,017
-205,650	-105,812	0,053	-0,009
-204,636	-118,858	0,192	0,024
-203,621	-162,386	0,082	0,003
-202,606	328,711	-0,117	0,163
-201,592	275,635	-0,071	-0,091
-200,577	94,568	-0,096	-0,078
-199,563	153,865	0,016	-0,016
-198,548	-39,990	0,088	-0,033
-197,533	66,634	0,039	0,028
-196,519	-200,000	0,012	0,075
-195,504	-84,902	0,121	-0,027
-194,490	800,000	0,007	-0,022
-193,475	-96,117	-0,167	0,032
-192,460	-200,000	-0,019	0,084
-191,446	800,000	0,016	0,044
-190,431	16,333	0,079	-0,045
-189,417	-5,249	-0,171	-0,085
-188,402	800,000	0,031	0,097
-187,387	-200,000	-0,002	0,034
-186,373	-200,000	0,004	-0,030
-185,358	-162,166	0,054	0,002
-184,344	166,783	0,022	-0,022
-183,329	-200,000	0,003	-0,029
-182,315	193,899	-0,059	0,064
-181,300	800,000	0,035	0,111
-180,285	27,172	-0,053	0,032
-179,271	28,771	-0,052	-0,032
-178,256	349,472	0,016	0,023
-177,242	160,882	0,046	-0,047
-176,227	352,495	0,026	0,037
-175,212	-200,000	-0,014	-0,080
-174,198	238,150	-0,038	-0,045
-173,183	262,963	0,096	-0,121
-172,169	-200,000	-0,032	-0,160
-171,154	-120,800	0,045	-0,005
-170,139	-93,835	0,077	-0,015
-169,125	-54,971	-0,045	0,015
-168,110	-200,000	0,020	0,109
-167,096	4,474	0,022	0,011
-166,081	-200,000	0,013	0,047
-165,066	162,070	-0,117	-0,118
-164,052	208,114	-0,049	0,055
-163,037	-80,441	-0,034	0,008
-162,023	-95,770	0,053	-0,010
-161,008	216,733	-0,108	0,125
-159,993	584,023	-0,036	0,064
-158,979	800,000	0,030	-0,059
-157,964	-200,000	-0,054	-0,225
-156,950	176,682	-0,022	-0,023
-155,935	456,602	0,096	0,155
-154,920	49,466	0,101	-0,068
-153,906	110,522	-0,096	0,083
-152,891	-57,957	0,081	-0,025
-151,877	233,866	-0,062	-0,074
-150,862	550,430	-0,065	-0,114
-149,847	-49,443	-0,084	0,029
-148,833	800,000	0,052	0,106
-147,818	214,049	0,086	0,098
-146,804	-113,205	0,074	-0,010
-145,789	-133,986	-0,133	0,012
-144,775	-158,980	0,064	0,003
-143,760	-84,438	-0,099	0,022
-142,745	-31,036	-0,085	0,035
-141,731	800,000	0,016	-0,048
-140,716	250,789	0,108	-0,133
-139,702	101,074	-0,025	-0,021
-138,687	-168,754	-0,032	0,001
-137,672	-200,000	0,050	-0,221
-136,658	523,664	-0,069	-0,118
-135,643	-27,466	0,076	-0,032
-134,629	-200,000	-0,032	0,125
-133,614	-109,029	0,113	0,017
-132,599	93,322	0,110	-0,090
-131,585	800,000	0,035	0,108
-130,570	-200,000	-0,027	-0,116
-129,556	287,097	0,067	-0,088
-128,541	33,762	-0,026	-0,016
-127,526	800,000	0,053	-0,111
-126,512	72,684	0,070	0,053
-125,497	-117,283	-0,092	-0,012
-124,483	707,104	-0,080	0,153
-123,468	109,905	-0,107	-0,092
-122,453	64,190	-0,091	-0,066
-121,439	800,000	0,009	-0,025
-120,424	-19,400	0,107	-0,048
-119,410	-200,000	-0,002	-0,025
