DTS Sentinel unit serial number:	SN410029Multiplexer serial number:	ORYXHardware model number:	OX2-SRSoftware version number:	ORYX F/W v4,00 Oryx Data Collector v3.7.2.0data status	okinstallation	B5 Nyhavnadifferential loss correction	single-endedforward channel	channel 2reverse channel	N/Adate	2023/12/12time	13:42:13forward acquisition time	300,00reverse acquisition time	0,00gamma	499,1914k internal	0,3157k external	0,3157temperature offset calibration	1,0000default loss term (dB/km)	0,3820temperature slope calibration	1,0000multiplexer offset coefficient	1,0000multiplexer slope coefficient	1,0000fibre end	0,00T internal ref (°C)	15,68T ext. ref 1 (°C)	-0,29T ext. ref 2 (°C)	-0,54length (m)	temperature (°C)	Stokes	anti-Stokes-744,400	715,045	-0,007	-0,014
-743,385	-87,549	-0,412	0,091
-742,371	-200,000	-0,015	0,132
-741,356	-175,008	-0,199	-0,004
-740,342	-37,327	0,071	0,028
-739,327	-61,421	-0,283	-0,087
-738,312	176,311	-0,019	0,020
-737,298	-30,823	-0,189	-0,078
-736,283	620,675	-0,018	-0,034
-735,269	91,686	-0,121	-0,100
-734,254	54,500	0,054	0,038
-733,239	10,551	-0,435	-0,243
-732,225	-6,014	0,115	0,058
-731,210	-1,447	-0,134	-0,070
-730,196	206,802	-0,040	-0,047
-729,181	-59,942	-0,103	0,032
-728,167	-200,000	0,004	-0,029
-727,152	-29,800	-0,049	0,021
-726,137	-162,471	-0,157	-0,006
-725,123	-26,127	-0,152	0,065
-724,108	-200,000	0,000	-0,007
-723,094	31,696	-0,132	-0,084
-722,079	627,562	0,028	-0,052
-721,064	10,866	0,080	-0,045
-720,050	800,000	0,036	0,103
-719,035	-200,000	0,002	-0,035
-718,021	-94,884	-0,040	0,008
-717,006	741,257	-0,042	-0,083
-715,991	-200,000	-0,060	-0,256
-714,977	-123,526	-0,136	-0,016
-713,962	-77,464	-0,109	-0,028
-712,948	-135,286	-0,191	0,017
-711,933	492,415	0,075	0,127
-710,918	-70,023	-0,048	-0,013
-709,904	-200,000	-0,056	-0,186
-708,889	-28,363	-0,052	-0,022
-707,875	-200,000	-0,027	-0,109
-706,860	307,597	-0,037	0,051
-705,845	167,765	0,085	0,089
-704,831	800,000	-0,046	-0,106
-703,816	143,529	-0,107	-0,105
-702,802	98,779	-0,073	-0,062
-701,787	1,958	-0,123	-0,065
-700,772	-200,000	-0,007	0,060
-699,758	744,256	-0,056	0,112
-698,743	-58,573	0,123	0,039
-697,729	26,122	-0,085	0,052
-696,714	261,633	-0,036	0,046
-695,699	-200,000	0,018	-0,182
-694,685	394,589	-0,094	-0,145
-693,670	800,000	-0,039	-0,105
-692,656	-200,000	-0,003	-0,072
-691,641	217,535	-0,024	0,029
-690,627	575,163	0,032	-0,058
-689,612	-200,000	0,006	-0,078
-688,597	-80,835	-0,083	0,020
-687,583	575,532	-0,055	-0,099
-686,568	34,832	0,052	0,033
-685,554	-200,000	-0,007	0,128
-684,539	-200,000	-0,009	-0,073
-683,524	116,020	-0,062	-0,056
-682,510	-140,024	-0,077	-0,006
-681,495	-67,326	0,094	-0,027
-680,481	94,569	-0,144	-0,121
-679,466	-16,020	-0,149	0,069
-678,451	800,000	-0,019	0,053
-677,437	35,149	0,044	0,028
-676,422	-34,392	0,060	0,024
-675,408	258,358	0,089	0,113
-674,393	-159,829	-0,049	0,002
-673,378	379,743	-0,051	-0,076
-672,364	-200,000	0,006	0,022
-671,349	136,840	0,057	-0,054
-670,335	800,000	-0,068	0,163
-669,320	-22,167	0,038	0,017
-668,305	210,344	0,025	-0,029
-667,291	-6,864	-0,159	-0,079
-666,276	-32,474	-0,191	-0,078
-665,262	413,549	-0,085	-0,133
-664,247	-200,000	0,005	-0,064
-663,232	800,000	-0,022	0,068
-662,218	800,000	0,030	0,070
-661,203	-200,000	0,012	-0,038
-660,189	648,449	-0,033	-0,063
-659,174	723,366	-0,024	-0,047
-658,159	-101,145	-0,121	-0,022
-657,145	-137,939	-0,080	-0,006
-656,130	527,591	0,083	-0,145
-655,116	-200,000	-0,002	-0,043
-654,101	-200,000	0,006	-0,102
-653,086	671,163	-0,046	-0,088
-652,072	-144,985	-0,122	0,008
-651,057	80,157	0,148	-0,117
-650,043	-30,619	-0,110	-0,045
-649,028	359,957	0,047	-0,070
-648,014	-41,612	0,169	-0,063
-646,999	-200,000	-0,010	-0,074
-645,984	91,937	-0,047	-0,039
-644,970	152,396	-0,068	-0,068
-643,955	800,000	0,011	-0,034
-642,941	800,000	-0,057	-0,150
-641,926	233,072	0,096	-0,116
-640,911	135,143	0,034	0,033
-639,897	68,678	-0,057	0,043
-638,882	-114,436	-0,038	0,005
-637,868	-200,000	0,005	0,018
-636,853	78,071	-0,081	-0,064
-635,838	608,872	0,018	0,033
-634,824	35,860	0,024	-0,016
-633,809	444,798	-0,005	-0,009
-632,795	284,857	0,092	-0,122
-631,780	215,836	-0,033	-0,039
-630,765	657,395	-0,011	-0,020
-629,751	-163,738	-0,058	-0,002
-628,736	706,774	-0,054	-0,106
-627,722	224,109	-0,147	-0,174
-626,707	35,576	-0,152	0,098
-625,692	57,682	0,185	0,132
-624,678	-184,537	0,066	0,001
-623,663	504,797	-0,018	0,031
-622,649	-15,373	-0,044	0,020
-621,634	-7,940	-0,150	-0,074
-620,619	113,262	0,066	0,059
-619,605	44,208	0,139	0,093
-618,590	-200,000	-0,004	0,132
-617,576	800,000	0,037	0,085
-616,561	-46,949	-0,088	0,031
-615,546	527,516	-0,019	0,033
-614,532	800,000	0,018	0,042
-613,517	86,663	-0,110	0,089
-612,503	-200,000	0,014	-0,082
-611,488	-35,949	0,074	-0,029
-610,474	133,266	-0,096	-0,091
-609,459	147,969	-0,039	-0,039
-608,444	-138,007	0,021	-0,002
-607,430	168,636	0,098	-0,102
-606,415	-94,438	-0,077	0,015
-605,401	800,000	0,025	-0,070
-604,386	-200,000	-0,006	-0,040
-603,371	406,820	-0,022	-0,034
-602,357	-200,000	-0,014	0,060
-601,342	-40,978	-0,021	0,008
-600,328	236,214	-0,065	0,079
-599,313	-200,000	0,002	-0,016
-598,298	-200,000	0,003	-0,096
-597,284	-200,000	0,001	-0,011
-596,269	610,837	0,057	0,104
-595,255	-200,000	0,043	0,149
-594,240	-200,000	0,004	0,087
-593,225	257,797	0,022	0,027
-592,211	35,434	-0,116	-0,075
-591,196	-100,521	0,113	-0,020
-590,182	-130,865	0,117	-0,011
-589,167	-200,000	0,023	-0,101
-588,152	-92,792	-0,132	-0,027
-587,138	-200,000	0,011	0,088
-586,123	-171,363	-0,198	-0,005
-585,109	-68,814	0,145	0,041
-584,094	-22,041	-0,017	0,007
-583,079	-113,852	-0,047	0,007
-582,065	755,621	0,021	0,042
-581,050	-200,000	0,007	0,081
-580,036	800,000	0,036	-0,077
-579,021	53,644	-0,096	-0,067
-578,006	222,260	-0,121	-0,143
-576,992	-200,000	0,014	-0,102
-575,977	66,380	-0,098	-0,073
-574,963	-200,000	0,059	0,215
-573,948	-200,000	0,006	-0,140
-572,934	58,495	-0,030	-0,022
-571,919	71,303	-0,113	-0,086
-570,904	-23,834	-0,077	-0,034
-569,890	142,860	0,039	-0,038
-568,875	-133,467	0,023	-0,002
-567,861	-85,422	0,115	0,026
-566,846	73,656	-0,107	0,082
-565,831	252,273	0,051	-0,063
-564,817	242,603	0,028	-0,034
-563,802	800,000	0,036	-0,105
-562,788	523,253	-0,012	0,021
-561,773	-200,000	0,037	0,121
-560,758	-200,000	-0,021	-0,099
-559,744	-200,000	0,000	-0,061
-558,729	800,000	0,046	-0,125
-557,715	609,860	0,019	-0,035
-556,700	151,456	0,016	0,016
-555,685	-45,374	-0,177	0,064
-554,671	-2,960	-0,009	-0,004
-553,656	52,859	-0,005	-0,003
-552,642	198,942	0,040	0,045
-551,627	-200,000	0,001	0,158
-550,612	358,085	-0,070	-0,103
-549,598	220,458	0,047	-0,055
-548,583	85,891	-0,114	0,092
-547,569	-68,642	0,104	-0,029
-546,554	171,142	0,077	-0,081
-545,539	-200,000	0,019	-0,073
-544,525	-124,347	-0,075	-0,008
-543,510	-32,900	-0,078	-0,032
-542,496	-68,231	-0,065	0,018
-541,481	800,000	-0,021	0,050
-540,466	-200,000	-0,003	0,146
-539,452	6,386	-0,108	0,059
-538,437	800,000	-0,015	-0,046
-537,423	28,623	0,007	-0,004
-536,408	-200,000	-0,004	0,027
-535,393	-200,000	-0,001	0,113
-534,379	-48,225	-0,095	0,033
-533,364	225,286	0,034	-0,040
-532,350	800,000	0,072	0,171
-531,335	12,749	-0,069	0,039
-530,321	800,000	-0,031	-0,068
-529,306	-10,958	0,087	-0,042
-528,291	-200,000	0,001	-0,068
-527,277	364,158	-0,020	-0,029
-526,262	51,706	0,055	0,038
-525,248	28,266	-0,042	0,026
-524,233	165,540	0,040	-0,042
-523,218	-172,642	0,120	-0,003
-522,204	-74,796	-0,153	-0,040
-521,189	67,079	0,016	-0,012
-520,175	198,703	0,084	-0,094
-519,160	102,827	0,087	-0,075
-518,145	-151,103	-0,132	-0,007
-517,131	-127,808	0,101	-0,010
-516,116	742,941	-0,029	0,056
-515,102	772,678	-0,088	0,176
-514,087	-200,000	0,006	-0,108
-513,072	221,090	0,077	-0,091
-512,058	-200,000	0,007	-0,069
-511,043	-82,334	0,110	0,026
-510,029	206,698	0,054	0,061
-509,014	0,020	-0,093	0,048
-507,999	334,636	0,044	0,062
-506,985	800,000	-0,087	-0,225
-505,970	124,873	-0,042	0,039
-504,956	800,000	-0,029	-0,077
-503,941	-2,868	0,015	0,008
-502,926	-28,063	-0,064	0,027
-501,912	-200,000	0,000	0,058
-500,897	244,806	0,070	-0,086
-499,883	-74,733	-0,143	-0,037
-498,868	-200,000	0,032	-0,128
-497,853	288,367	-0,106	-0,141
-496,839	704,018	0,044	-0,086
-495,824	800,000	0,049	-0,107
-494,810	-21,880	0,074	0,033
-493,795	207,952	-0,043	-0,049
-492,781	-8,806	-0,048	-0,024
-491,766	19,377	-0,085	0,050
-490,751	95,411	0,166	-0,138
-489,737	-39,821	0,072	0,027
-488,722	-200,000	-0,003	0,085
-487,708	-200,000	0,001	0,120
-486,693	229,918	0,046	0,055
-485,678	-200,000	-0,008	-0,106
-484,664	-76,550	-0,078	0,020
-483,649	-200,000	-0,037	-0,124
-482,635	-200,000	0,007	-0,057
-481,620	198,477	-0,111	-0,124
-480,605	455,648	0,016	-0,027
-479,591	-147,607	-0,057	0,003
-478,576	-50,127	0,059	0,020
-477,562	260,946	-0,090	-0,114
-476,547	143,063	-0,066	0,064
-475,532	-200,000	0,004	0,094
-474,518	-200,000	-0,012	-0,102
-473,503	-200,000	0,003	-0,017
-472,489	12,973	-0,016	0,009
-471,474	44,989	0,018	0,012
-470,459	164,367	0,032	0,033
-469,445	-27,810	-0,097	-0,041
-468,430	-182,704	-0,059	0,001
-467,416	-99,042	0,109	0,020
-466,401	-97,639	-0,149	0,028
-465,386	-56,879	0,201	-0,064
-464,372	-200,000	0,010	0,061
-463,357	800,000	-0,026	0,075
-462,343	14,685	-0,038	-0,022
-461,328	70,019	0,025	0,019
-460,313	-146,862	0,119	0,007
-459,299	-200,000	-0,038	0,138
-458,284	476,283	-0,031	0,052
-457,270	224,633	0,065	0,077
-456,255	81,031	-0,122	-0,096
-455,241	83,838	-0,161	-0,128
-454,226	84,652	0,057	-0,045
-453,211	227,358	0,037	-0,044
-452,197	-200,000	0,013	0,089
-451,182	800,000	-0,046	-0,115
-450,168	-200,000	-0,028	0,100
-449,153	800,000	0,078	-0,161
-448,138	211,032	0,087	-0,099
-447,124	800,000	-0,014	0,028
-446,109	204,401	-0,041	0,047
-445,095	554,361	0,016	-0,028
-444,080	240,976	-0,018	0,022
-443,065	-200,000	-0,024	0,112
-442,051	-200,000	-0,012	0,098
-441,036	77,224	-0,111	-0,086
-440,022	185,174	0,159	-0,172
-439,007	800,000	-0,025	-0,058
-437,992	-200,000	-0,015	0,056
-436,978	-86,276	0,128	0,028
-435,963	-99,080	-0,126	0,023
-434,949	-200,000	-0,011	0,097
-433,934	-200,000	-0,043	-0,149
-432,919	781,459	0,012	0,024
-431,905	362,396	-0,025	0,037
-430,890	-200,000	0,006	0,039
-429,876	-157,200	0,117	-0,005
-428,861	-200,000	0,019	-0,118
-427,846	-200,000	0,006	0,079
-426,832	-86,510	0,019	0,004
-425,817	-200,000	-0,008	-0,106
-424,803	345,477	-0,086	-0,123
-423,788	287,485	0,043	0,057
-422,773	238,950	0,089	0,108
-421,759	588,537	-0,040	0,072
-420,744	-89,242	-0,046	0,010
-419,730	105,767	0,059	-0,051
-418,715	-89,977	-0,186	-0,039
-417,701	139,497	0,016	0,016
-416,686	-168,707	-0,079	0,002
-415,671	397,206	-0,051	0,078
-414,657	306,508	-0,109	0,148
-413,642	143,339	0,058	0,056
-412,628	176,799	-0,058	-0,062
-411,613	48,055	0,031	-0,021
-410,598	-200,000	-0,020	-0,086
-409,584	800,000	-0,014	0,036
-408,569	-200,000	-0,000	0,003
-407,555	88,987	0,054	-0,043
-406,540	-200,000	0,038	-0,227
-405,525	168,527	-0,058	0,061
-404,511	269,263	-0,074	-0,095
-403,496	800,000	0,013	0,028
-402,482	-200,000	-0,001	-0,086
-401,467	-43,355	0,036	-0,013
-400,452	-41,326	-0,074	-0,028
-399,438	85,594	-0,022	-0,017
-398,423	47,412	-0,017	0,012
-397,409	-200,000	0,015	-0,136
-396,394	-200,000	-0,013	-0,178
-395,379	-85,300	0,061	-0,014
-394,365	64,797	-0,008	0,006
-393,350	24,565	0,017	0,010
-392,336	31,488	-0,031	-0,019
-391,321	-54,285	0,096	-0,032
-390,306	52,542	-0,098	-0,068
-389,292	800,000	-0,039	0,090
-388,277	293,673	-0,042	-0,055
-387,263	-20,456	-0,127	-0,057
-386,248	193,587	-0,068	0,075
-385,233	-161,642	-0,015	0,001
-384,219	4,725	-0,009	-0,005
-383,204	-200,000	-0,007	-0,060
-382,190	214,683	0,055	-0,064
-381,175	159,062	0,083	0,083
-380,160	-200,000	-0,036	0,145
-379,146	-200,000	0,004	-0,013
-378,131	394,449	-0,086	0,131
-377,117	167,961	0,030	0,031
-376,102	107,319	-0,044	-0,038
-375,088	-188,168	-0,085	0,001
-374,073	800,000	0,015	0,031
-373,058	234,920	0,036	0,043
-372,044	-200,000	0,015	0,209
-371,029	-200,000	-0,016	0,067
-370,015	-200,000	-0,006	0,088
-369,000	-19,021	-0,048	0,022
-367,985	800,000	-0,006	-0,014
-366,971	451,530	-0,049	0,079
-365,956	-200,000	0,009	0,072
-364,942	482,496	0,092	0,153
-363,927	512,240	0,013	0,022
-362,912	49,989	-0,080	-0,055
-361,898	-87,921	0,121	0,026
-360,883	25,607	0,088	-0,053
-359,869	800,000	-0,033	-0,072
-358,854	618,740	0,041	-0,074
-357,839	240,320	-0,025	0,031
-356,825	-200,000	0,031	0,113
-355,810	-110,079	-0,135	-0,020
-354,796	124,767	-0,058	0,053
-353,781	-33,618	0,101	-0,040
-352,766	792,712	-0,023	-0,047
-351,752	33,793	0,087	0,055
-350,737	-91,592	0,124	0,025
-349,723	-200,000	0,019	-0,066
-348,708	80,518	-0,114	0,089
-347,693	-183,956	0,071	0,001
-346,679	-10,650	0,052	-0,025
-345,664	-200,000	-0,007	-0,064
-344,650	28,738	0,039	-0,024
-343,635	800,000	0,044	0,139
-342,620	91,389	0,075	0,061
-341,606	-56,594	-0,064	-0,021
-340,591	-61,256	-0,053	0,016
-339,577	-200,000	-0,003	0,072
-338,562	-200,000	0,006	-0,055
-337,548	168,087	0,045	-0,046
-336,533	241,190	-0,071	-0,086
-335,518	29,749	-0,032	-0,020
-334,504	182,725	0,144	0,154
-333,489	-17,600	0,036	0,016
-332,475	-18,307	-0,129	-0,058
-331,460	-200,000	-0,003	-0,083
-330,445	800,000	0,016	-0,050
-329,431	730,753	-0,044	0,085
-328,416	800,000	0,057	-0,128
-327,402	-106,181	0,186	-0,030
-326,387	173,109	0,156	-0,164
-325,372	-74,968	0,065	-0,017
-324,358	148,323	-0,014	0,013
-323,343	-200,000	-0,001	-0,091
-322,329	-0,227	0,136	0,070
-321,314	-51,835	-0,087	-0,029
-320,299	800,000	0,056	0,126
-319,285	-162,579	-0,161	-0,006
-318,270	-94,589	-0,045	-0,009
-317,256	79,675	0,006	0,004
-316,241	561,335	0,059	-0,105
-315,226	406,602	-0,042	-0,064
-314,212	-165,631	0,067	0,002
-313,197	246,776	0,055	0,068
-312,183	278,899	0,030	-0,039
-311,168	9,885	-0,205	-0,113
-310,153	800,000	0,026	0,084
-309,139	-200,000	-0,001	-0,182
-308,124	274,399	0,077	-0,099
-307,110	-58,792	0,095	0,030
-306,095	-85,147	0,088	0,020
-305,080	-200,000	-0,003	-0,082
-304,066	-200,000	0,023	0,114
-303,051	-200,000	0,014	0,067
-302,037	800,000	0,014	-0,033
-301,022	650,562	0,062	0,116
-300,008	214,145	0,085	0,097
-298,993	619,482	-0,042	0,077
-297,978	537,361	-0,061	0,106
-296,964	-200,000	-0,016	0,053
-295,949	-200,000	0,022	0,134
-294,935	-200,000	0,010	-0,079
-293,920	-200,000	0,009	-0,053
-292,905	431,971	0,042	0,066
-291,891	-88,089	0,014	0,003
-290,876	-200,000	-0,013	0,080
-289,862	-156,070	-0,115	0,005
-288,847	49,851	-0,080	0,054
-287,832	-8,080	-0,083	-0,040
-286,818	-6,191	0,181	0,089
-285,803	-91,261	-0,034	0,007
-284,789	-79,911	-0,043	0,010
-283,774	38,752	-0,128	0,083
-282,759	250,377	0,115	0,141
-281,745	218,773	-0,065	-0,075
-280,730	312,345	0,029	-0,039
-279,716	-200,000	-0,038	0,127
-278,701	800,000	0,006	-0,012
-277,686	-93,343	0,045	0,009
-276,672	-44,771	0,056	0,020
-275,657	800,000	-0,030	-0,071
-274,643	800,000	0,043	0,112
-273,628	670,686	0,023	-0,043
-272,613	162,553	0,059	-0,060
-271,599	126,901	0,078	-0,072
-270,584	-200,000	0,003	0,103
-269,570	-6,379	0,038	-0,018
-268,555	-12,433	0,067	-0,032
-267,540	-11,584	-0,096	0,046
-266,526	439,151	-0,053	0,084
-265,511	-47,866	-0,127	0,044
-264,497	-89,370	0,097	-0,020
-263,482	-159,044	0,078	-0,003
-262,467	800,000	0,045	0,090
-261,453	58,576	0,123	0,087
-260,438	99,412	0,154	-0,129
-259,424	-120,725	-0,045	0,005
-258,409	160,490	0,031	-0,031
-257,395	-200,000	0,012	0,099
-256,380	-63,800	0,153	0,045
-255,365	-200,000	0,007	-0,080
-254,351	-200,000	-0,010	-0,060
-253,336	-200,000	0,010	-0,086
-252,322	-200,000	0,012	-0,055
-251,307	-200,000	0,021	0,110
-250,292	585,446	-0,012	0,021
-249,278	119,611	0,106	0,095
-248,263	152,233	0,100	0,099
-247,249	205,720	0,049	0,055
-246,234	-190,699	0,146	-0,001
-245,219	-175,843	0,039	-0,001
-244,205	-43,431	0,061	-0,022
-243,190	-44,859	0,130	0,047
-242,176	-103,569	-0,099	0,017
-241,161	501,722	-0,071	0,119
-240,146	630,415	0,119	0,218
-239,132	-50,158	-0,065	0,022
-238,117	-6,853	0,056	0,027
-237,103	124,388	-0,169	0,153
-236,088	800,000	0,023	0,063
-235,073	-39,621	0,141	-0,053
-234,059	347,828	0,015	-0,021
-233,044	519,643	0,023	-0,040
-232,030	224,745	0,064	-0,075
-231,015	-200,000	-0,012	-0,162
-230,000	-200,000	0,025	-0,129
-228,986	-68,795	-0,074	-0,021
-227,971	-174,056	0,173	-0,004
-226,957	198,698	0,053	0,059
-225,942	331,373	0,065	0,090
-224,927	52,430	-0,056	0,038
-223,913	-200,000	-0,008	0,027
-222,898	179,698	-0,091	-0,097
-221,884	-76,167	-0,093	0,024
-220,869	59,366	0,011	-0,008
-219,855	11,749	0,121	0,067
-218,840	-200,000	0,050	0,202
-217,825	-186,485	0,141	-0,001
-216,811	-111,994	-0,048	-0,007
-215,796	275,515	-0,085	-0,109
-214,782	5,434	0,080	-0,042
-213,767	256,867	-0,061	0,076
-212,752	131,491	-0,136	0,126
-211,738	-108,945	0,161	-0,025
-210,723	336,776	0,071	-0,100
-209,709	-24,178	0,042	0,018
-208,694	16,984	-0,125	-0,071
-207,679	50,205	-0,043	-0,029
-206,665	800,000	0,074	-0,156
-205,650	-200,000	0,026	0,155
-204,636	239,532	-0,030	-0,036
-203,621	-80,478	-0,123	-0,029
-202,606	800,000	-0,007	0,018
-201,592	-200,000	0,032	-0,113
-200,577	70,429	0,136	-0,101
-199,563	-200,000	0,010	0,119
-198,548	-36,963	-0,039	0,015
-197,533	800,000	-0,035	0,078
-196,519	-200,000	-0,036	0,197
-195,504	-200,000	-0,003	0,015
-194,490	40,679	-0,113	0,073
-193,475	-200,000	0,007	-0,041
-192,460	71,824	-0,047	0,035
-191,446	397,004	-0,127	0,192
-190,431	-200,000	0,009	0,107
-189,417	151,250	0,040	0,039
-188,402	-168,831	0,061	0,002
-187,387	-119,311	-0,186	-0,023
-186,373	-84,071	-0,073	-0,017
-185,358	64,924	0,063	0,046
-184,344	89,664	-0,055	-0,044
-183,329	-28,795	-0,042	-0,017
-182,315	393,841	0,078	0,117
-181,300	800,000	0,080	-0,204
-180,285	777,739	0,038	-0,076
-179,271	-111,513	0,013	-0,002
-178,256	208,773	0,009	0,010
-177,242	-53,258	-0,010	0,003
-176,227	10,398	0,027	0,015
-175,212	-43,160	-0,085	0,031
-174,198	160,834	-0,033	0,033
-173,183	-61,599	-0,162	-0,049
-172,169	-135,415	-0,083	0,007
-171,154	-164,829	0,074	0,002
-170,139	-79,296	0,093	0,022
-169,125	-57,059	-0,065	0,021
-168,110	-200,000	0,024	0,123
-167,096	80,513	-0,021	0,016
-166,081	800,000	-0,038	0,093
-165,066	42,213	0,145	-0,095
-164,052	-200,000	-0,032	-0,102
-163,037	8,379	-0,065	-0,035
-162,023	342,468	0,032	-0,046
-161,008	800,000	-0,017	0,049
-159,993	18,716	-0,066	0,038
-158,979	300,478	-0,063	0,083
-157,964	800,000	0,047	-0,127
-156,950	-56,601	-0,062	0,020
-155,935	28,508	0,038	-0,023
-154,920	800,000	-0,007	0,020
-153,906	372,251	-0,027	0,039
-152,891	564,236	0,046	0,080
-151,877	94,716	-0,188	0,154
-150,862	-129,809	-0,175	-0,017
-149,847	13,683	0,011	-0,006
-148,833	17,804	-0,093	-0,053
-147,818	52,024	0,110	-0,076
-146,804	800,000	0,036	0,093
-145,789	-12,280	0,102	0,048
-144,775	144,182	0,082	-0,079
-143,760	68,983	-0,092	-0,068
-142,745	-29,423	-0,092	-0,038
-141,731	76,578	0,085	0,065
-140,716	30,647	0,086	0,053
-139,702	-200,000	0,006	0,040
-138,687	-200,000	0,003	0,101
-137,672	-200,000	-0,007	0,036
-136,658	7,613	-0,011	0,006
-135,643	489,212	0,060	0,099
-134,629	800,000	0,044	0,126
-133,614	77,191	-0,074	0,057
-132,599	-70,571	-0,086	-0,023
-131,585	151,102	0,088	0,087
-130,570	800,000	-0,036	-0,077
-129,556	-63,649	-0,103	-0,030
-128,541	71,762	-0,008	-0,006
-127,526	-120,698	0,135	-0,016
-126,512	-87,786	-0,103	-0,022
-125,497	-72,752	0,069	0,018
-124,483	-200,000	0,013	-0,072
-123,468	28,263	0,149	-0,090
-122,453	81,006	-0,101	-0,079
-121,439	99,551	-0,111	0,093
-120,424	-200,000	0,011	-0,065
-119,410	-27,730	0,157	-0,065
-118,395	665,718	0,049	-0,091
