DTS Sentinel unit serial number:	SN410029Multiplexer serial number:	ORYXHardware model number:	OX2-SRSoftware version number:	ORYX F/W v4,00 Oryx Data Collector v3.7.2.0data status	okinstallation	B5 Nyhavnadifferential loss correction	single-endedforward channel	channel 2reverse channel	N/Adate	2023/12/11time	16:57:14forward acquisition time	300,00reverse acquisition time	0,00gamma	499,1914k internal	0,3164k external	0,3164temperature offset calibration	1,0000default loss term (dB/km)	0,3820temperature slope calibration	1,0000multiplexer offset coefficient	1,0000multiplexer slope coefficient	1,0000fibre end	0,00T internal ref (°C)	14,38T ext. ref 1 (°C)	-0,70T ext. ref 2 (°C)	-0,87length (m)	temperature (°C)	Stokes	anti-Stokes-744,400	220,250	0,035	0,042
-743,385	-87,928	-0,225	0,049
-742,371	14,343	0,101	0,058
-741,356	-191,905	-0,339	-0,002
-740,342	74,071	0,054	0,041
-739,327	34,064	-0,289	0,185
-738,312	32,733	0,034	0,021
-737,298	-110,909	-0,304	0,046
-736,283	-200,000	0,010	0,092
-735,269	-94,123	-0,158	-0,032
-734,254	-65,748	0,103	-0,030
-733,239	-71,963	-0,543	-0,148
-732,225	-102,243	0,259	0,045
-731,210	44,375	-0,088	0,059
-730,196	-23,039	0,037	-0,016
-729,181	118,366	0,043	-0,039
-728,167	-105,375	-0,150	-0,025
-727,152	449,079	-0,049	0,079
-726,137	393,583	-0,081	-0,124
-725,123	-61,596	-0,075	-0,023
-724,108	179,799	-0,061	-0,065
-723,094	-98,941	-0,141	-0,026
-722,079	-200,000	0,015	0,079
-721,064	-31,808	-0,034	0,014
-720,050	-200,000	0,005	-0,098
-719,035	330,400	0,070	0,100
-718,021	-38,004	-0,107	0,041
-717,006	-13,107	-0,116	0,055
-715,991	340,368	-0,052	0,075
-714,977	-94,608	0,107	0,021
-713,962	800,000	0,038	-0,083
-712,948	12,816	0,068	0,038
-711,933	24,459	-0,035	-0,021
-710,918	-30,894	-0,057	-0,024
-709,904	800,000	-0,041	-0,093
-708,889	-38,218	-0,150	-0,058
-707,875	-147,761	-0,117	-0,007
-706,860	670,270	0,055	-0,106
-705,845	-124,877	0,107	0,012
-704,831	126,487	0,125	0,116
-703,816	-200,000	-0,010	0,152
-702,802	-86,219	0,182	-0,041
-701,787	70,718	-0,044	-0,034
-700,772	-76,618	0,055	-0,014
-699,758	369,552	-0,056	0,083
-698,743	47,617	0,063	-0,043
-697,729	-200,000	-0,007	-0,038
-696,714	246,152	-0,065	0,081
-695,699	20,009	0,033	0,019
-694,685	101,917	0,023	-0,020
-693,670	-200,000	0,005	-0,146
-692,656	-92,897	0,110	0,022
-691,641	45,660	-0,094	-0,063
-690,627	119,955	0,068	0,062
-689,612	51,140	0,119	-0,083
-688,597	-91,668	-0,108	-0,022
-687,583	-200,000	0,021	-0,092
-686,568	148,891	-0,083	-0,082
-685,554	800,000	-0,019	-0,044
-684,539	-64,814	-0,023	0,007
-683,524	334,816	0,044	0,063
-682,510	-67,082	-0,083	0,024
-681,495	-200,000	0,001	-0,143
-680,481	-200,000	-0,001	-0,139
-679,466	85,528	-0,078	-0,063
-678,451	800,000	-0,049	-0,105
-677,437	-151,662	-0,070	-0,004
-676,422	584,175	-0,033	-0,060
-675,408	39,942	-0,088	0,058
-674,393	-83,785	-0,117	-0,027
-673,378	-200,000	-0,026	-0,127
-672,364	-200,000	0,009	-0,069
-671,349	-12,001	0,056	0,027
-670,335	142,072	-0,053	0,052
-669,320	-200,000	-0,023	0,164
-668,305	541,766	-0,039	-0,068
-667,291	0,877	0,039	0,021
-666,276	-92,063	-0,162	-0,033
-665,262	800,000	-0,047	-0,101
-664,247	-93,708	-0,142	-0,028
-663,232	332,396	-0,025	-0,035
-662,218	-93,659	0,056	-0,011
-661,203	24,844	-0,098	0,059
-660,189	132,038	0,060	0,056
-659,174	-69,572	-0,113	-0,031
-658,159	201,388	-0,082	-0,093
-657,145	-142,421	0,035	0,003
-656,130	67,637	0,118	-0,088
-655,116	426,873	-0,096	-0,152
-654,101	-128,798	-0,117	0,012
-653,086	-44,321	0,058	0,021
-652,072	548,494	-0,030	0,052
-651,057	-200,000	0,025	-0,155
-650,043	-200,000	-0,024	0,093
-649,028	-102,103	-0,108	0,019
-648,014	800,000	0,049	0,133
-646,999	-153,937	0,126	0,006
-645,984	-200,000	-0,001	-0,037
-644,970	435,211	0,026	-0,042
-643,955	-78,800	-0,065	0,016
-642,941	800,000	-0,032	-0,101
-641,926	163,577	0,109	-0,113
-640,911	219,446	0,049	-0,058
-639,897	-200,000	0,000	0,012
-638,882	-135,728	0,035	-0,003
-637,868	800,000	-0,037	-0,101
-636,853	78,306	-0,041	-0,032
-635,838	-63,400	-0,131	-0,039
-634,824	-176,632	0,072	0,001
-633,809	-200,000	-0,002	-0,056
-632,795	55,369	0,160	0,113
-631,780	-158,834	-0,145	0,006
-630,765	47,330	-0,046	-0,031
-629,751	-183,308	-0,112	-0,001
-628,736	-200,000	-0,006	-0,119
-627,722	57,013	-0,074	-0,053
-626,707	43,079	0,047	0,032
-625,692	219,548	0,029	-0,034
-624,678	-200,000	0,027	-0,159
-623,663	-200,000	-0,003	-0,088
-622,649	-88,528	-0,104	-0,022
-621,634	710,948	-0,060	-0,116
-620,619	-31,591	0,070	-0,029
-619,605	314,189	0,047	0,065
-618,590	602,222	-0,057	0,105
-617,576	800,000	-0,032	0,067
-616,561	400,425	0,016	-0,024
-615,546	457,703	-0,050	0,082
-614,532	-89,036	-0,129	-0,028
-613,517	-200,000	0,028	0,107
-612,503	-200,000	0,004	-0,015
-611,488	71,722	-0,057	0,043
-610,474	-38,210	0,073	0,028
-609,459	61,266	-0,091	-0,066
-608,444	-200,000	0,010	-0,046
-607,430	25,453	-0,097	-0,059
-606,415	137,808	-0,016	-0,015
-605,401	-200,000	-0,013	0,069
-604,386	800,000	-0,020	-0,045
-603,371	265,526	-0,061	-0,078
-602,357	100,772	-0,056	-0,048
-601,342	-200,000	0,011	0,042
-600,328	800,000	-0,052	-0,121
-599,313	-200,000	-0,004	0,061
-598,298	20,809	-0,027	0,016
-597,284	314,295	-0,043	-0,060
-596,269	461,706	0,035	0,057
-595,255	-85,382	0,109	-0,025
-594,240	49,165	-0,037	0,025
-593,225	280,381	0,025	-0,032
-592,211	800,000	-0,046	0,121
-591,196	-40,630	-0,116	-0,044
-590,182	-46,753	-0,039	-0,014
-589,167	-200,000	0,002	-0,035
-588,152	-200,000	-0,009	0,060
-587,138	-60,835	-0,128	0,039
-586,123	28,457	0,119	-0,074
-585,109	800,000	0,016	0,051
-584,094	-118,470	0,066	0,008
-583,079	73,907	0,096	-0,074
-582,065	340,567	0,038	-0,055
-581,050	-200,000	-0,012	-0,043
-580,036	-140,368	-0,087	-0,007
-579,021	-38,267	-0,056	-0,021
-578,006	705,358	-0,037	0,072
-576,992	-99,491	0,038	-0,007
-575,977	106,822	0,112	0,097
-574,963	417,379	-0,018	0,028
-573,948	72,974	-0,104	-0,080
-572,934	255,065	0,060	0,076
-571,919	-200,000	-0,021	0,108
-570,904	303,595	-0,058	-0,078
-569,890	298,902	0,081	-0,110
-568,875	-200,000	0,025	-0,137
-567,861	154,503	0,096	-0,096
-566,846	63,607	-0,062	-0,045
-565,831	370,563	-0,040	0,060
-564,817	-37,262	0,056	0,022
-563,802	122,168	-0,120	0,110
-562,788	381,036	-0,081	0,122
-561,773	-129,229	-0,118	-0,012
-560,758	-200,000	0,021	0,120
-559,744	-200,000	-0,004	-0,134
-558,729	-29,060	-0,074	0,031
-557,715	265,304	-0,082	-0,104
-556,700	179,021	0,074	-0,079
-555,685	128,949	-0,070	-0,065
-554,671	-200,000	-0,016	-0,141
-553,656	-40,333	0,162	0,061
-552,642	800,000	0,003	-0,009
-551,627	-200,000	-0,009	0,096
-550,612	46,050	-0,101	0,068
-549,598	800,000	-0,062	-0,132
-548,583	552,333	0,039	-0,069
-547,569	-200,000	-0,003	0,079
-546,554	-200,000	0,005	-0,086
-545,539	800,000	0,008	0,021
-544,525	-90,383	0,069	-0,014
-543,510	-200,000	-0,033	-0,120
-542,496	-200,000	-0,017	-0,097
-541,481	800,000	-0,011	0,026
-540,466	800,000	-0,008	-0,024
-539,452	531,350	0,053	0,092
-538,437	-200,000	-0,015	0,066
-537,423	-135,595	0,093	-0,008
-536,408	-120,467	0,183	-0,022
-535,393	-200,000	-0,006	0,038
-534,379	-12,127	0,105	-0,050
-533,364	209,698	-0,055	0,063
-532,350	130,763	0,025	-0,024
-531,335	311,879	-0,026	-0,035
-530,321	68,015	-0,062	-0,046
-529,306	-200,000	0,009	-0,068
-528,291	20,405	-0,133	0,078
-527,277	-39,444	0,078	0,030
-526,262	486,286	0,080	-0,133
-525,248	-15,508	0,158	0,073
-524,233	124,725	0,121	0,112
-523,218	-200,000	0,031	0,148
-522,204	-110,497	0,035	-0,005
-521,189	-49,544	0,055	0,019
-520,175	-22,292	-0,081	0,036
-519,160	20,485	-0,102	-0,060
-518,145	49,577	-0,061	0,042
-517,131	-200,000	0,034	0,137
-516,116	362,998	0,006	0,009
-515,102	-200,000	0,036	0,123
-514,087	-146,478	-0,157	0,010
-513,072	-200,000	0,031	-0,118
-512,058	-200,000	-0,155	0,000
-511,043	-200,000	-0,012	0,078
-510,029	104,163	0,037	-0,032
-509,014	-200,000	-0,005	0,031
-507,999	111,299	0,073	0,064
-506,985	-137,872	0,121	0,010
-505,970	-200,000	-0,001	-0,038
-504,956	800,000	-0,057	0,159
-503,941	-200,000	-0,044	0,146
-502,926	483,825	-0,053	-0,088
-501,912	-179,506	0,063	0,001
-500,897	403,895	0,037	-0,057
-499,883	275,641	0,047	0,061
-498,868	440,181	-0,084	-0,135
-497,853	-30,479	-0,167	0,069
-496,839	270,445	0,069	-0,088
-495,824	-115,024	0,095	-0,013
-494,810	286,834	-0,030	-0,040
-493,795	-200,000	-0,035	0,146
-492,781	800,000	0,029	0,069
-491,766	241,999	0,064	-0,078
-490,751	88,215	0,010	0,008
-489,737	-200,000	0,015	-0,070
-488,722	24,237	-0,114	-0,068
-487,708	-200,000	0,006	0,070
-486,693	-200,000	0,003	-0,024
-485,678	-5,747	-0,115	0,057
-484,664	289,249	-0,097	-0,128
-483,649	321,411	-0,018	-0,025
-482,635	153,928	-0,064	0,064
-481,620	80,084	0,064	0,050
-480,605	-166,280	0,123	0,004
-479,591	438,346	-0,059	-0,095
-478,576	-59,083	-0,082	0,026
-477,562	63,003	-0,032	0,023
-476,547	-200,000	-0,003	0,081
-475,532	800,000	0,014	0,028
-474,518	8,533	-0,035	0,019
-473,503	-43,573	0,043	0,016
-472,489	-99,923	0,026	0,005
-471,474	-15,731	-0,072	-0,033
-470,459	1,002	-0,207	-0,108
-469,445	245,844	0,032	-0,039
-468,430	-200,000	-0,011	0,085
-467,416	-200,000	-0,018	-0,073
-466,401	214,327	-0,022	-0,025
-465,386	-96,286	0,095	-0,018
-464,372	148,422	-0,097	-0,095
-463,357	-48,956	0,098	0,034
-462,343	-200,000	0,008	-0,091
-461,328	45,040	0,110	0,074
-460,313	66,360	-0,120	-0,088
-459,299	67,213	0,063	-0,047
-458,284	800,000	-0,022	0,052
-457,270	-200,000	0,021	0,093
-456,255	-85,020	-0,014	0,003
-455,241	-200,000	-0,025	0,084
-454,226	73,951	-0,124	0,094
-453,211	-200,000	-0,006	-0,123
-452,197	229,512	0,141	0,168
-451,182	-200,000	-0,010	0,063
-450,168	800,000	-0,002	0,005
-449,153	-200,000	-0,031	-0,126
-448,138	800,000	-0,040	-0,090
-447,124	-18,674	-0,136	-0,062
-446,109	-48,485	0,098	-0,034
-445,095	-200,000	0,007	0,043
-444,080	-152,004	-0,053	-0,003
-443,065	800,000	0,026	-0,061
-442,051	-200,000	-0,020	-0,097
-441,036	800,000	0,038	-0,088
-440,022	-178,920	-0,052	-0,001
-439,007	-200,000	-0,013	-0,065
-437,992	-200,000	0,018	0,098
-436,978	-179,228	0,034	-0,001
-435,963	-200,000	-0,004	0,016
-434,949	-200,000	-0,006	-0,110
-433,934	-1,445	0,045	0,023
-432,919	-123,785	-0,090	0,010
-431,905	39,340	0,019	-0,012
-430,890	291,316	0,111	0,147
-429,876	-200,000	-0,020	0,177
-428,861	-89,021	0,174	0,037
-427,846	265,225	0,040	-0,051
-426,832	5,729	-0,072	-0,039
-425,817	-41,708	0,104	-0,039
-424,803	-86,312	-0,171	0,038
-423,788	34,522	-0,068	-0,043
-422,773	-200,000	0,003	0,019
-421,759	-32,123	0,140	0,057
-420,744	103,616	0,078	-0,066
-419,730	63,054	-0,056	0,041
-418,715	-34,062	-0,068	-0,027
-417,701	99,466	-0,063	0,053
-416,686	-11,609	0,059	0,028
-415,671	66,249	-0,147	0,109
-414,657	448,931	0,081	0,130
-413,642	-200,000	-0,016	-0,053
-412,628	196,010	-0,035	0,039
-411,613	-200,000	0,007	-0,049
-410,598	800,000	-0,028	-0,071
-409,584	88,422	-0,023	-0,018
-408,569	800,000	0,063	0,179
-407,555	-164,648	0,128	0,004
-406,540	-40,865	-0,146	-0,054
-405,525	-200,000	0,001	-0,003
-404,511	-200,000	0,005	-0,035
-403,496	34,639	-0,066	-0,042
-402,482	-104,907	0,066	-0,011
-401,467	187,029	-0,078	-0,084
-400,452	259,405	0,083	0,104
-399,438	-54,540	0,097	-0,032
-398,423	271,537	0,028	-0,035
-397,409	45,478	0,038	0,026
-396,394	-88,149	-0,087	-0,019
-395,379	109,173	0,126	0,110
-394,365	-200,000	0,046	0,190
-393,350	-200,000	-0,012	0,131
-392,336	800,000	-0,048	0,099
-391,321	-200,000	0,005	0,035
-390,306	22,900	-0,020	0,012
-389,292	36,212	0,028	-0,018
-388,277	-37,870	0,044	0,017
-387,263	-200,000	0,025	-0,101
-386,248	584,941	-0,049	0,088
-385,233	-200,000	-0,006	0,104
-384,219	-157,832	-0,041	0,002
-383,204	374,373	-0,064	-0,095
-382,190	-200,000	-0,015	0,055
-381,175	800,000	0,036	-0,075
-380,160	800,000	0,017	0,042
-379,146	-200,000	-0,016	0,148
-378,131	176,128	-0,070	0,073
-377,117	107,498	0,080	-0,069
-376,102	-200,000	-0,010	0,075
-375,088	121,626	-0,089	-0,081
-374,073	682,270	-0,017	0,033
-373,058	29,317	0,066	0,041
-372,044	-200,000	-0,003	0,137
-371,029	137,491	0,107	-0,102
-370,015	-200,000	0,066	0,000
-369,000	-200,000	-0,013	-0,084
-367,985	-28,432	-0,065	-0,027
-366,971	-37,067	-0,016	0,006
-365,956	-200,000	0,034	0,123
-364,942	-110,792	0,074	-0,011
-363,927	-200,000	0,005	0,051
-362,912	88,859	0,085	0,069
-361,898	800,000	-0,021	-0,056
-360,883	190,164	-0,053	-0,058
-359,869	800,000	0,016	0,039
-358,854	-30,778	-0,049	-0,020
-357,839	75,280	0,099	0,075
-356,825	150,814	-0,049	0,049
-355,810	-200,000	0,001	-0,020
-354,796	-200,000	-0,001	0,056
-353,781	162,538	-0,073	-0,075
-352,766	13,143	0,073	-0,041
-351,752	-43,989	0,051	-0,018
-350,737	-200,000	0,026	-0,089
-349,723	-200,000	0,001	-0,064
-348,708	87,959	0,039	-0,031
-347,693	7,338	0,101	-0,055
-346,679	-200,000	0,002	-0,039
-345,664	-200,000	-0,107	0,000
-344,650	-200,000	-0,001	-0,007
-343,635	800,000	0,043	0,122
-342,620	-54,089	0,095	0,031
-341,606	800,000	-0,028	-0,060
-340,591	744,445	0,054	0,106
-339,577	-108,021	-0,067	0,010
-338,562	800,000	0,014	0,042
-337,548	-95,632	0,162	-0,031
-336,533	-85,255	0,084	0,019
-335,518	214,842	-0,058	0,066
-334,504	184,016	-0,043	-0,046
-333,489	139,110	0,047	-0,045
-332,475	72,955	-0,138	-0,104
-331,460	-200,000	-0,043	-0,204
-330,445	-124,601	-0,039	0,004
-329,431	-143,712	0,165	0,011
-328,416	321,109	0,017	-0,023
-327,402	-200,000	-0,008	0,067
-326,387	-11,285	0,150	0,071
-325,372	42,958	0,041	-0,027
-324,358	-160,205	0,033	-0,001
-323,343	800,000	-0,035	0,078
-322,329	-101,740	-0,138	0,024
-321,314	-8,048	0,103	0,050
-320,299	-200,000	0,015	0,091
-319,285	23,290	-0,065	-0,039
-318,270	-200,000	0,064	-0,207
-317,256	139,232	0,079	-0,075
-316,241	-47,137	-0,082	0,029
-315,226	310,266	0,042	-0,057
-314,212	50,834	0,137	-0,094
-313,197	-80,118	0,058	-0,014
-312,183	-200,000	-0,003	0,058
-311,168	-200,000	-0,009	-0,056
-310,153	-105,418	0,088	0,014
-309,139	-200,000	0,020	0,126
-308,124	-200,000	0,024	0,095
-307,110	-200,000	0,010	-0,076
-306,095	127,814	0,137	-0,126
-305,080	-200,000	0,011	0,045
-304,066	107,288	0,080	-0,068
-303,051	436,148	0,059	-0,094
-302,037	-18,278	-0,070	-0,032
-301,022	-76,261	0,071	-0,018
-300,008	153,860	-0,086	0,085
-298,993	306,037	0,086	0,116
-297,978	-77,528	-0,040	0,010
-296,964	-54,278	0,072	-0,023
-295,949	35,437	-0,121	-0,076
-294,935	149,328	-0,053	-0,052
-293,920	37,653	-0,064	-0,041
-292,905	183,893	0,034	0,036
-291,891	-200,000	-0,008	0,128
-290,876	-200,000	0,007	-0,026
-289,862	-200,000	0,035	-0,167
-288,847	418,963	0,036	0,057
-287,832	-200,000	0,016	-0,077
-286,818	-29,117	0,027	-0,011
-285,803	-95,401	0,082	0,016
-284,789	-27,499	-0,118	0,049
-283,774	-200,000	0,022	0,099
-282,759	-108,738	-0,026	0,004
-281,745	-9,519	-0,066	-0,032
-280,730	-200,000	0,002	-0,091
-279,716	194,218	0,077	-0,084
-278,701	165,797	-0,074	-0,076
-277,686	800,000	-0,012	0,024
-276,672	274,168	0,042	-0,054
-275,657	-40,789	-0,161	0,060
-274,643	256,936	-0,112	-0,139
-273,628	-144,621	0,130	0,009
-272,613	-200,000	-0,042	0,167
-271,599	-11,255	-0,055	0,026
-270,584	493,872	-0,048	0,080
-269,570	-200,000	-0,002	-0,095
-268,555	84,710	-0,071	-0,056
-267,540	489,194	-0,070	-0,116
-266,526	524,831	-0,063	-0,107
-265,511	-200,000	0,028	0,090
-264,497	-144,974	-0,092	0,006
-263,482	-141,267	0,117	0,008
-262,467	85,095	0,059	-0,047
-261,453	397,806	-0,044	-0,067
-260,438	64,661	-0,065	0,048
-259,424	-200,000	-0,006	-0,035
-258,409	-126,228	0,080	0,009
-257,395	-200,000	0,001	0,010
-256,380	3,124	0,061	0,032
-255,365	58,322	0,087	0,062
-254,351	19,946	0,089	0,052
-253,336	-122,765	0,101	0,012
-252,322	-200,000	-0,019	-0,074
-251,307	800,000	-0,030	0,061
-250,292	-200,000	-0,002	-0,074
-249,278	210,449	0,030	0,035
-248,263	-77,845	0,134	0,033
-247,249	-200,000	-0,014	0,109
-246,234	411,023	-0,035	-0,054
-245,219	-200,000	0,023	0,124
-244,205	139,276	0,025	0,024
-243,190	91,303	-0,030	-0,024
-242,176	800,000	0,030	-0,087
-241,161	-200,000	-0,033	0,137
-240,146	-200,000	-0,007	0,204
-239,132	27,377	-0,063	-0,038
-238,117	199,415	-0,024	-0,026
-237,103	122,170	0,073	-0,066
-236,088	-128,977	-0,083	0,008
-235,073	-177,462	0,058	0,001
-234,059	32,435	0,079	0,049
-233,044	-80,757	-0,055	0,013
-232,030	-151,884	-0,135	0,007
-231,015	-66,493	-0,108	-0,031
-230,000	50,525	-0,154	-0,105
-228,986	-138,583	-0,087	-0,007
-227,971	161,351	0,036	-0,037
-226,957	-68,390	-0,016	0,004
-225,942	174,380	0,080	0,084
-224,927	-200,000	0,001	-0,059
-223,913	-200,000	0,005	-0,149
-222,898	23,732	-0,059	0,035
-221,884	-76,740	0,156	0,039
-220,869	-31,645	0,126	-0,051
-219,855	44,023	0,075	-0,050
-218,840	800,000	-0,026	0,080
-217,825	331,011	0,031	-0,043
-216,811	800,000	0,022	-0,058
-215,796	136,980	-0,050	0,048
-214,782	800,000	-0,042	-0,095
-213,767	-97,656	0,053	0,010
-212,752	-200,000	-0,003	0,119
-211,738	-200,000	-0,005	0,161
-210,723	343,947	-0,019	-0,028
-209,709	255,234	-0,096	-0,119
-208,694	-200,000	-0,012	-0,054
-207,679	-200,000	-0,023	-0,132
-206,665	800,000	0,077	0,192
-205,650	-21,396	0,094	0,041
-204,636	800,000	-0,037	0,088
-203,621	-133,702	0,074	-0,007
-202,606	-104,221	-0,058	-0,010
-201,592	99,516	0,145	-0,121
-200,577	128,865	-0,059	-0,054
-199,563	-68,338	0,022	0,006
-198,548	146,857	-0,083	-0,081
-197,533	-124,706	-0,078	0,009
-196,519	86,559	0,111	0,088
-195,504	70,666	-0,087	0,064
-194,490	92,089	-0,083	-0,067
-193,475	456,963	0,032	-0,051
-192,460	-200,000	0,012	-0,039
-191,446	9,402	-0,133	-0,072
-190,431	408,636	0,047	0,072
-189,417	-23,652	0,046	-0,020
-188,402	127,113	0,068	0,062
-187,387	-62,021	-0,102	-0,030
-186,373	-75,728	0,075	0,019
-185,358	246,412	0,054	-0,065
-184,344	48,542	0,056	0,038
-183,329	598,443	0,045	0,081
-182,315	319,893	0,027	0,037
-181,300	-200,000	0,000	-0,064
-180,285	-48,699	-0,118	0,041
-179,271	-36,790	-0,078	0,030
-178,256	15,421	0,051	0,029
-177,242	-94,802	0,070	-0,013
-176,227	-200,000	0,009	-0,109
-175,212	-200,000	-0,004	-0,093
-174,198	-33,592	-0,090	0,036
-173,183	3,141	0,032	-0,017
-172,169	800,000	-0,063	-0,128
-171,154	321,278	-0,053	-0,072
-170,139	800,000	0,052	0,110
-169,125	265,212	-0,072	0,090
-168,110	309,362	-0,021	0,028
-167,096	-200,000	0,008	0,034
-166,081	233,197	0,074	0,088
-165,066	-200,000	-0,011	-0,063
-164,052	209,942	0,009	-0,010
-163,037	-4,996	0,064	0,032
-162,023	-99,161	-0,053	0,010
-161,008	588,301	0,086	0,153
-159,993	-3,462	0,030	-0,015
-158,979	-43,666	0,101	0,036
-157,964	-117,553	-0,062	0,008
-156,950	-101,121	0,060	0,010
-155,935	-200,000	-0,014	0,051
-154,920	-200,000	-0,053	0,194
-153,906	90,393	-0,075	0,060
-152,891	800,000	0,014	-0,028
-151,877	528,412	0,070	0,119
-150,862	124,828	-0,073	-0,066
-149,847	-200,000	-0,013	-0,078
-148,833	-200,000	-0,020	0,118
-147,818	492,700	0,064	0,106
-146,804	-200,000	-0,002	-0,014
-145,789	-200,000	-0,044	0,187
-144,775	429,661	-0,050	0,077
-143,760	-36,134	-0,078	-0,030
-142,745	77,817	-0,173	0,132
-141,731	-109,208	-0,071	-0,011
-140,716	-63,855	0,082	0,024
-139,702	437,570	0,049	0,077
-138,687	-86,837	-0,126	-0,028
-137,672	423,839	-0,068	0,106
-136,658	-138,335	-0,149	0,012
-135,643	158,576	-0,060	-0,060
-134,629	-84,013	-0,195	0,044
-133,614	800,000	0,026	0,083
-132,599	800,000	0,049	0,109
-131,585	69,110	-0,049	0,036
-130,570	-133,925	-0,047	-0,004
-129,556	43,353	0,048	0,032
-128,541	738,933	-0,014	-0,028
-127,526	-200,000	0,036	-0,166
-126,512	-44,056	0,039	-0,014
-125,497	17,257	-0,031	-0,017
-124,483	-160,862	-0,061	-0,002
-123,468	37,009	0,121	-0,076
-122,453	-200,000	-0,003	-0,010
-121,439	-200,000	-0,000	0,088
-120,424	216,027	-0,048	-0,054
