DTS Sentinel unit serial number:	SN410029Multiplexer serial number:	ORYXHardware model number:	OX2-SRSoftware version number:	ORYX F/W v4,00 Oryx Data Collector v3.7.2.0data status	okinstallation	B5 Nyhavnadifferential loss correction	single-endedforward channel	channel 2reverse channel	N/Adate	2023/12/13time	03:32:13forward acquisition time	300,00reverse acquisition time	0,00gamma	499,1914k internal	0,3160k external	0,3160temperature offset calibration	1,0000default loss term (dB/km)	0,3820temperature slope calibration	1,0000multiplexer offset coefficient	1,0000multiplexer slope coefficient	1,0000fibre end	0,00T internal ref (°C)	13,95T ext. ref 1 (°C)	-2,42T ext. ref 2 (°C)	-2,74length (m)	temperature (°C)	Stokes	anti-Stokes-744,400	1,786	0,045	0,024
-743,385	-100,958	-0,286	-0,051
-742,371	120,893	0,063	0,058
-741,356	-174,568	-0,146	0,003
-740,342	16,027	0,101	0,058
-739,327	-44,456	-0,360	-0,132
-738,312	422,949	0,065	-0,103
-737,298	-49,855	-0,305	-0,106
-736,283	-74,197	0,274	0,073
-735,269	-85,854	-0,286	0,065
-734,254	37,876	0,130	0,085
-733,239	-72,486	-0,470	-0,127
-732,225	92,745	0,148	0,123
-731,210	138,122	0,024	0,023
-730,196	-200,000	-0,009	-0,174
-729,181	-92,249	-0,121	-0,025
-728,167	108,900	0,030	0,027
-727,152	19,497	0,053	-0,031
-726,137	800,000	0,009	-0,027
-725,123	139,805	0,024	0,023
-724,108	99,014	-0,144	-0,123
-723,094	800,000	-0,031	-0,067
-722,079	-200,000	-0,020	-0,139
-721,064	-200,000	0,006	-0,083
-720,050	248,877	0,073	0,091
-719,035	-8,574	-0,058	0,029
-718,021	86,979	-0,133	-0,108
-717,006	800,000	-0,068	-0,148
-715,991	319,941	-0,061	-0,085
-714,977	49,324	-0,074	-0,051
-713,962	129,038	-0,131	0,123
-712,948	-35,541	-0,077	-0,031
-711,933	-200,000	0,001	0,045
-710,918	97,567	0,084	0,071
-709,904	800,000	-0,042	-0,087
-708,889	-132,999	-0,132	-0,012
-707,875	86,112	-0,150	-0,121
-706,860	681,958	0,077	-0,148
-705,845	-25,384	-0,109	0,047
-704,831	30,373	0,026	0,017
-703,816	-113,557	-0,107	-0,015
-702,802	288,235	-0,037	-0,049
-701,787	-200,000	0,024	-0,104
-700,772	36,538	0,041	-0,026
-699,758	329,001	-0,072	0,102
-698,743	-62,274	0,052	-0,016
-697,729	465,406	0,065	0,107
-696,714	1,829	0,167	0,088
-695,699	8,722	0,135	-0,075
-694,685	-200,000	-0,025	-0,113
-693,670	571,722	0,040	0,071
-692,656	59,000	-0,133	0,096
-691,641	-26,599	0,100	0,043
-690,627	800,000	0,031	-0,075
-689,612	-200,000	-0,031	-0,109
-688,597	-6,990	0,036	0,018
-687,583	-34,831	-0,082	-0,033
-686,568	230,635	-0,072	0,087
-685,554	95,492	0,040	-0,033
-684,539	-200,000	0,021	-0,090
-683,524	557,418	-0,033	0,059
-682,510	74,208	0,101	0,078
-681,495	-200,000	0,006	-0,043
-680,481	-28,619	-0,047	0,020
-679,466	-99,735	0,142	0,026
-678,451	800,000	-0,036	-0,111
-677,437	44,031	0,091	0,061
-676,422	800,000	-0,081	0,253
-675,408	800,000	0,095	0,205
-674,393	-200,000	-0,001	-0,010
-673,378	-46,359	-0,136	-0,049
-672,364	85,773	-0,064	-0,051
-671,349	44,643	0,064	0,043
-670,335	800,000	0,027	-0,077
-669,320	306,785	-0,043	0,059
-668,305	195,749	-0,101	0,113
-667,291	26,220	0,069	-0,042
-666,276	-200,000	-0,004	0,049
-665,262	-200,000	-0,036	-0,199
-664,247	800,000	-0,018	0,050
-663,232	236,350	-0,079	-0,096
-662,218	0,328	-0,101	-0,053
-661,203	65,650	-0,019	-0,014
-660,189	-200,000	0,014	0,092
-659,174	440,516	-0,019	-0,031
-658,159	-99,470	-0,079	-0,014
-657,145	-69,342	-0,137	-0,038
-656,130	731,094	-0,041	0,081
-655,116	387,831	0,072	0,110
-654,101	-69,259	0,151	-0,042
-653,086	589,483	-0,021	-0,038
-652,072	72,537	0,091	0,070
-651,057	-0,130	-0,149	-0,078
-650,043	-160,128	-0,171	0,007
-649,028	-200,000	0,002	0,018
-648,014	-170,479	-0,030	0,001
-646,999	-200,000	-0,008	0,115
-645,984	-137,781	-0,004	-0,000
-644,970	800,000	-0,045	0,112
-643,955	28,751	0,044	-0,027
-642,941	295,824	-0,053	-0,072
-641,926	-70,028	-0,114	-0,032
-640,911	399,758	-0,072	0,111
-639,897	-108,499	-0,180	-0,028
-638,882	800,000	0,028	-0,072
-637,868	-200,000	-0,044	0,161
-636,853	457,486	0,078	-0,127
-635,838	-52,413	-0,108	-0,037
-634,824	104,691	-0,043	-0,037
-633,809	350,140	0,053	-0,077
-632,795	-200,000	0,000	0,133
-631,780	-200,000	0,002	0,122
-630,765	-200,000	0,000	-0,064
-629,751	288,793	-0,083	-0,110
-628,736	83,540	0,042	0,033
-627,722	-156,089	-0,073	0,003
-626,707	-200,000	0,014	0,115
-625,692	800,000	0,017	0,036
-624,678	-101,669	-0,238	-0,042
-623,663	-200,000	0,017	-0,061
-622,649	180,747	-0,128	0,138
-621,634	-200,000	-0,005	-0,167
-620,619	-200,000	-0,011	-0,221
-619,605	-59,835	0,053	-0,017
-618,590	-200,000	0,011	0,042
-617,576	173,103	-0,048	-0,050
-616,561	398,146	-0,015	0,023
-615,546	63,646	0,065	-0,048
-614,532	800,000	-0,067	-0,170
-613,517	680,535	0,052	-0,099
-612,503	-128,731	0,059	-0,006
-611,488	1,603	0,077	-0,040
-610,474	120,883	-0,042	-0,038
-609,459	-200,000	0,021	-0,089
-608,444	-35,127	-0,118	-0,047
-607,430	-0,411	-0,085	0,044
-606,415	-29,896	-0,139	-0,058
-605,401	-164,119	0,165	0,005
-604,386	217,533	0,008	0,009
-603,371	75,222	-0,078	0,060
-602,357	88,633	0,027	-0,022
-601,342	16,174	-0,145	0,084
-600,328	800,000	-0,058	-0,137
-599,313	150,838	-0,060	0,059
-598,298	800,000	-0,027	0,057
-597,284	45,814	-0,038	0,026
-596,269	169,869	-0,040	-0,042
-595,255	-73,907	-0,032	-0,009
-594,240	-200,000	0,007	-0,096
-593,225	-16,514	0,022	0,010
-592,211	-200,000	-0,012	-0,128
-591,196	164,711	0,068	0,070
-590,182	-200,000	-0,031	0,269
-589,167	420,744	0,085	0,134
-588,152	179,271	0,057	-0,062
-587,138	-64,961	0,060	-0,018
-586,123	126,241	-0,067	0,062
-585,109	-1,056	-0,032	-0,016
-584,094	800,000	0,051	-0,136
-583,079	800,000	0,055	-0,129
-582,065	800,000	0,025	-0,075
-581,050	-58,226	0,194	0,061
-580,036	-200,000	0,010	-0,097
-579,021	800,000	-0,071	0,168
-578,006	132,557	-0,043	-0,041
-576,992	79,211	-0,069	0,054
-575,977	-157,806	0,227	-0,010
-574,963	508,121	0,083	0,142
-573,948	-200,000	-0,003	0,129
-572,934	191,912	-0,067	-0,075
-571,919	771,096	-0,024	-0,047
-570,904	800,000	-0,024	-0,069
-569,890	-200,000	-0,018	-0,193
-568,875	-200,000	0,015	-0,058
-567,861	-200,000	0,121	0,000
-566,846	236,176	-0,076	0,093
-565,831	-94,540	-0,091	0,018
-564,817	-54,251	0,165	-0,054
-563,802	-200,000	0,010	-0,176
-562,788	-42,616	-0,039	-0,015
-561,773	-5,902	0,125	0,062
-560,758	38,595	-0,115	0,075
-559,744	698,121	-0,023	-0,044
-558,729	203,395	0,064	-0,072
-557,715	-123,244	-0,036	0,004
-556,700	408,191	-0,033	0,051
-555,685	153,447	0,061	0,061
-554,671	31,410	-0,031	-0,019
-553,656	-200,000	-0,001	0,123
-552,642	-190,464	0,114	-0,001
-551,627	436,595	-0,048	-0,077
-550,612	14,262	-0,089	0,051
-549,598	140,162	-0,019	-0,019
-548,583	-200,000	0,006	-0,067
-547,569	800,000	-0,006	0,014
-546,554	127,780	0,106	0,099
-545,539	-137,897	0,136	-0,011
-544,525	800,000	0,036	0,110
-543,510	199,062	0,013	-0,015
-542,496	-21,691	-0,073	-0,032
-541,481	-72,817	0,154	-0,041
-540,466	-36,143	-0,087	0,034
-539,452	-200,000	0,003	0,023
-538,437	-200,000	-0,012	0,167
-537,423	-200,000	-0,005	0,038
-536,408	-200,000	0,000	0,053
-535,393	146,827	0,066	-0,065
-534,379	-18,588	-0,063	0,029
-533,364	78,018	-0,095	-0,074
-532,350	-19,946	0,051	0,023
-531,335	-200,000	-0,002	-0,087
-530,321	323,788	0,044	0,061
-529,306	800,000	-0,018	-0,057
-528,291	-106,672	-0,120	-0,019
-527,277	800,000	-0,018	0,049
-526,262	800,000	0,015	-0,032
-525,248	800,000	-0,060	0,152
-524,233	-103,593	-0,054	0,009
-523,218	364,755	-0,059	0,087
-522,204	-15,199	-0,089	-0,041
-521,189	261,772	0,051	-0,065
-520,175	571,489	0,006	-0,011
-519,160	-128,229	-0,017	0,002
-518,145	-200,000	-0,004	0,087
-517,131	80,342	0,093	0,073
-516,116	-41,671	-0,023	0,009
-515,102	-116,552	0,130	-0,017
-514,087	-200,000	0,002	-0,122
-513,072	800,000	0,029	-0,089
-512,058	800,000	-0,017	0,046
-511,043	-52,408	0,127	-0,043
-510,029	291,699	-0,067	0,089
-509,014	800,000	-0,028	0,069
-507,999	190,501	-0,041	-0,045
-506,985	70,390	-0,150	0,113
-505,970	232,373	0,013	0,016
-504,956	760,234	0,058	-0,116
-503,941	-114,658	0,139	0,019
-502,926	-43,449	-0,066	-0,024
-501,912	134,296	0,120	0,114
-500,897	-200,000	-0,025	0,086
-499,883	-200,000	-0,005	0,077
-498,868	46,741	-0,093	-0,063
-497,853	800,000	-0,077	0,169
-496,839	-200,000	-0,024	0,100
-495,824	61,443	0,070	0,051
-494,810	-200,000	-0,000	-0,071
-493,795	353,285	0,043	0,063
-492,781	-200,000	0,014	-0,081
-491,766	172,800	-0,055	0,057
-490,751	127,973	-0,030	0,027
-489,737	-93,534	0,073	0,015
-488,722	-200,000	-0,020	0,144
-487,708	-69,829	0,123	-0,034
-486,693	-200,000	-0,016	-0,095
-485,678	145,904	-0,063	-0,062
-484,664	-60,910	-0,061	0,019
-483,649	-144,993	-0,084	-0,006
-482,635	-60,813	-0,051	-0,016
-481,620	-11,401	0,066	0,032
-480,605	-200,000	0,007	0,154
-479,591	-200,000	-0,036	0,125
-478,576	153,916	0,058	0,058
-477,562	-200,000	-0,014	-0,058
-476,547	-200,000	0,027	0,112
-475,532	-96,637	-0,036	-0,007
-474,518	246,950	0,040	-0,049
-473,503	27,231	-0,121	0,074
-472,489	-62,621	0,117	-0,035
-471,474	-42,192	-0,111	0,041
-470,459	32,641	-0,167	-0,105
-469,445	-200,000	0,004	-0,052
-468,430	-123,311	-0,066	-0,008
-467,416	-19,438	0,157	-0,071
-466,401	116,180	0,101	-0,090
-465,386	-55,216	0,051	-0,017
-464,372	-82,321	0,082	0,019
-463,357	-76,197	-0,072	0,018
-462,343	164,991	0,059	0,061
-461,328	-3,761	-0,118	-0,059
-460,313	-200,000	-0,025	0,084
-459,299	61,606	-0,055	0,040
-458,284	-114,626	-0,076	-0,010
-457,270	-149,637	0,132	0,007
-456,255	-28,958	-0,114	0,048
-455,241	-200,000	0,003	0,036
-454,226	-200,000	-0,014	-0,116
-453,211	201,547	0,056	0,063
-452,197	154,646	-0,022	0,022
-451,182	504,318	-0,055	0,092
-450,168	86,692	0,187	-0,151
-449,153	-200,000	0,019	0,102
-448,138	62,216	0,045	0,033
-447,124	197,053	-0,152	-0,169
-446,109	-200,000	-0,028	-0,142
-445,095	181,370	0,023	0,025
-444,080	-179,427	0,126	0,002
-443,065	43,303	-0,053	-0,035
-442,051	41,396	-0,036	0,024
-441,036	-16,790	0,139	0,064
-440,022	-118,234	0,107	0,014
-439,007	-97,001	0,100	0,019
-437,992	-173,149	0,095	0,002
-436,978	-9,499	0,029	0,014
-435,963	-200,000	0,115	0,000
-434,949	281,331	0,086	-0,112
-433,934	26,735	-0,139	-0,085
-432,919	-76,680	-0,131	-0,033
-431,905	280,562	0,071	-0,093
-430,890	-32,949	-0,032	-0,013
-429,876	26,742	-0,007	-0,004
-428,861	-93,431	0,136	0,027
-427,846	-157,048	0,033	0,001
-426,832	-200,000	-0,028	-0,100
-425,817	-132,905	-0,224	0,020
-424,803	-200,000	0,002	-0,130
-423,788	-35,133	0,093	0,037
-422,773	-30,324	0,042	0,017
-421,759	-200,000	0,002	0,084
-420,744	267,135	-0,050	0,064
-419,730	723,889	-0,094	-0,184
-418,715	-119,687	-0,178	-0,022
-417,701	-200,000	0,018	-0,071
-416,686	321,769	-0,011	-0,015
-415,671	-200,000	0,014	0,057
-414,657	92,431	0,063	0,052
-413,642	800,000	0,021	0,049
-412,628	-125,260	0,186	0,020
-411,613	-200,000	0,021	0,103
-410,598	-18,468	-0,158	-0,071
-409,584	475,916	-0,029	0,048
-408,569	-200,000	-0,002	0,121
-407,555	-12,326	0,103	-0,049
-406,540	81,450	-0,074	-0,058
-405,525	293,152	-0,091	0,121
-404,511	-200,000	-0,011	0,131
-403,496	291,182	-0,024	0,031
-402,482	126,867	-0,015	-0,013
-401,467	175,622	0,064	-0,067
-400,452	-200,000	0,017	0,124
-399,438	229,848	-0,078	0,092
-398,423	-44,334	0,196	-0,071
-397,409	57,843	0,148	-0,105
-396,394	-28,901	-0,119	0,050
-395,379	137,849	-0,056	0,054
-394,365	147,955	0,104	0,102
-393,350	128,571	-0,034	-0,032
-392,336	-139,328	-0,085	0,007
-391,321	-122,490	-0,150	-0,017
-390,306	-116,973	0,068	-0,009
-389,292	3,681	-0,010	-0,005
-388,277	800,000	-0,066	0,187
-387,263	-200,000	-0,008	-0,070
-386,248	-18,680	-0,199	0,090
-385,233	-60,665	0,118	0,036
-384,219	-200,000	-0,001	-0,058
-383,204	-200,000	0,033	-0,108
-382,190	-115,500	-0,201	0,027
-381,175	-58,484	0,040	0,013
-380,160	159,054	0,067	0,068
-379,146	-85,845	0,102	0,023
-378,131	-200,000	0,015	-0,075
-377,117	800,000	0,016	-0,041
-376,102	-200,000	-0,034	-0,126
-375,088	460,111	-0,062	0,101
-374,073	-15,733	-0,008	-0,003
-373,058	-31,339	-0,061	0,025
-372,044	-114,140	0,090	0,013
-371,029	800,000	0,016	0,039
-370,015	293,457	0,072	0,096
-369,000	800,000	-0,017	0,037
-367,985	-200,000	0,041	-0,167
-366,971	-200,000	0,009	-0,029
-365,956	77,071	0,040	0,031
-364,942	166,254	-0,005	0,005
-363,927	-62,096	0,075	-0,022
-362,912	290,361	-0,058	-0,077
-361,898	-30,216	0,071	-0,029
-360,883	-38,779	-0,160	0,061
-359,869	58,482	0,114	0,081
-358,854	800,000	0,061	0,165
-357,839	35,599	-0,020	-0,013
-356,825	24,274	0,045	0,027
-355,810	-200,000	0,027	0,103
-354,796	-200,000	0,003	-0,105
-353,781	800,000	0,025	-0,070
-352,766	800,000	-0,023	0,052
-351,752	-200,000	0,020	-0,093
-350,737	45,000	0,012	-0,008
-349,723	-150,051	0,159	0,009
-348,708	783,509	-0,049	-0,099
-347,693	281,277	0,075	-0,098
-346,679	-200,000	0,012	-0,082
-345,664	-200,000	0,008	-0,055
-344,650	-85,104	0,014	-0,003
-343,635	715,750	-0,034	-0,067
-342,620	257,268	-0,068	0,086
-341,606	75,799	-0,117	0,090
-340,591	232,510	0,025	0,030
-339,577	11,184	-0,080	0,044
-338,562	-152,656	-0,114	-0,006
-337,548	676,055	0,096	-0,182
-336,533	38,362	0,043	-0,028
-335,518	138,810	-0,057	-0,054
-334,504	122,625	0,124	0,112
-333,489	130,029	0,068	-0,063
-332,475	155,627	-0,042	-0,042
-331,460	800,000	-0,026	-0,082
-330,445	-32,226	0,018	-0,007
-329,431	65,787	0,076	0,056
-328,416	-2,933	0,110	-0,056
-327,402	-25,741	0,010	0,004
-326,387	-114,790	-0,094	-0,013
-325,372	70,837	0,077	-0,058
-324,358	-200,000	0,001	-0,091
-323,343	800,000	0,030	0,065
-322,329	-8,328	0,124	0,060
-321,314	120,804	-0,063	0,057
-320,299	-182,495	-0,035	0,000
-319,285	-0,860	-0,098	0,050
-318,270	-200,000	-0,000	-0,002
-317,256	547,723	-0,076	-0,133
-316,241	250,710	0,095	-0,117
-315,226	-102,997	0,100	-0,017
-314,212	-43,722	-0,036	-0,013
-313,197	-200,000	-0,011	0,117
-312,183	-200,000	0,014	0,142
-311,168	439,872	0,022	0,036
-310,153	267,823	-0,029	-0,037
-309,139	800,000	0,038	-0,121
-308,124	630,399	0,042	0,077
-307,110	-200,000	0,008	0,092
-306,095	-200,000	0,006	-0,051
-305,080	-125,687	-0,101	-0,011
-304,066	38,610	-0,053	0,034
-303,051	356,536	-0,026	-0,038
-302,037	-41,351	-0,063	0,023
-301,022	-200,000	-0,002	-0,013
-300,008	-39,321	0,138	0,052
-298,993	20,516	0,059	-0,034
-297,978	-103,703	0,101	0,017
-296,964	80,579	-0,056	-0,044
-295,949	40,552	0,049	0,032
-294,935	222,085	-0,026	-0,031
-293,920	-21,233	0,034	0,015
-292,905	162,540	0,043	0,044
-291,891	-200,000	-0,008	0,093
-290,876	800,000	0,042	0,111
-289,862	-200,000	-0,003	-0,103
-288,847	-200,000	0,015	-0,082
-287,832	564,678	-0,039	0,068
-286,818	-50,541	-0,023	0,008
-285,803	360,426	-0,073	0,107
-284,789	483,648	0,067	0,111
-283,774	-150,761	-0,027	-0,001
-282,759	698,262	0,026	0,051
-281,745	-93,676	-0,150	-0,030
-280,730	520,918	0,080	-0,136
-279,716	-200,000	-0,001	-0,025
-278,701	-200,000	-0,013	0,046
-277,686	19,175	-0,036	-0,021
-276,672	49,139	0,095	-0,064
-275,657	41,468	-0,111	0,072
-274,643	720,563	-0,031	0,061
-273,628	730,526	-0,092	-0,179
-272,613	483,267	-0,059	-0,098
-271,599	-200,000	-0,006	-0,029
-270,584	-147,045	0,062	-0,004
-269,570	-15,956	0,062	-0,028
-268,555	800,000	-0,104	-0,227
-267,540	-200,000	-0,001	-0,073
-266,526	61,149	-0,134	-0,096
-265,511	193,169	-0,078	-0,086
-264,497	-170,886	-0,022	0,001
-263,482	-95,572	0,075	0,014
-262,467	214,139	-0,090	0,103
-261,453	-114,233	-0,029	0,004
-260,438	75,726	-0,054	-0,041
-259,424	-200,000	-0,006	-0,054
-258,409	101,898	0,111	-0,094
-257,395	-200,000	0,012	0,233
-256,380	800,000	0,048	-0,128
-255,365	-47,114	0,056	0,019
-254,351	-23,573	0,038	0,016
-253,336	308,565	-0,049	0,066
-252,322	-27,652	-0,120	-0,050
-251,307	-200,000	0,022	-0,095
-250,292	269,541	-0,039	-0,050
-249,278	22,184	0,078	0,046
-248,263	93,771	-0,103	0,084
-247,249	800,000	0,031	-0,078
-246,234	383,941	0,078	-0,116
-245,219	220,923	0,049	-0,057
-244,205	-200,000	-0,009	-0,048
-243,190	-25,444	0,050	-0,021
-242,176	-146,207	0,190	0,012
-241,161	646,222	0,078	0,145
-240,146	27,184	-0,097	-0,059
-239,132	-78,635	-0,103	0,025
-238,117	16,119	0,089	-0,051
-237,103	-200,000	0,020	0,132
-236,088	-17,404	0,084	0,038
-235,073	-200,000	0,025	0,127
-234,059	64,161	-0,056	0,041
-233,044	-151,821	0,064	-0,003
-232,030	708,781	0,063	-0,120
-231,015	-126,475	-0,143	-0,015
-230,000	-84,529	0,088	0,020
-228,986	90,807	-0,119	0,096
-227,971	-171,329	0,069	-0,002
-226,957	-168,267	0,062	-0,002
-225,942	329,690	-0,146	-0,203
-224,927	-101,294	-0,042	0,007
-223,913	735,105	-0,020	0,039
-222,898	-200,000	-0,002	0,029
-221,884	761,232	-0,065	0,127
-220,869	-200,000	-0,001	0,074
-219,855	-19,747	-0,071	-0,032
-218,840	329,792	0,038	0,053
-217,825	-63,461	-0,173	0,051
-216,811	-200,000	0,022	-0,103
-215,796	800,000	0,070	0,151
-214,782	280,782	-0,042	0,055
-213,767	-91,325	-0,091	0,019
-212,752	101,675	0,056	0,047
-211,738	-57,419	0,057	0,018
-210,723	-200,000	0,001	-0,015
-209,709	800,000	0,032	-0,088
-208,694	800,000	-0,043	-0,101
-207,679	13,497	0,065	0,036
-206,665	4,524	-0,055	-0,029
-205,650	-35,850	0,139	-0,054
-204,636	565,139	0,057	0,099
-203,621	800,000	-0,058	-0,146
-202,606	-72,520	0,035	0,009
-201,592	62,457	0,084	-0,060
-200,577	-200,000	0,006	0,023
-199,563	-200,000	-0,020	-0,117
-198,548	-200,000	0,008	0,040
-197,533	-58,571	0,149	0,046
-196,519	61,070	-0,055	0,039
-195,504	-88,766	-0,150	0,032
-194,490	-117,596	0,067	0,009
-193,475	628,956	0,026	-0,048
-192,460	-200,000	-0,002	0,082
-191,446	252,549	0,040	0,050
-190,431	-78,669	-0,009	0,002
-189,417	-200,000	0,043	0,146
-188,402	-200,000	0,013	0,087
-187,387	145,516	-0,105	0,101
-186,373	-55,791	0,141	0,045
-185,358	10,644	0,149	0,082
-184,344	371,172	0,040	-0,059
-183,329	21,707	-0,093	-0,055
-182,315	-200,000	-0,012	-0,069
-181,300	78,619	-0,055	-0,042
-180,285	-119,852	-0,057	-0,007
-179,271	228,650	0,058	-0,068
-178,256	-200,000	0,018	-0,089
-177,242	117,126	-0,069	-0,061
-176,227	88,339	0,037	-0,030
-175,212	169,026	0,114	0,117
-174,198	-64,066	-0,097	-0,028
-173,183	-177,299	0,063	-0,001
-172,169	21,715	0,041	0,024
-171,154	-200,000	0,021	0,072
-170,139	-168,591	-0,041	0,001
-169,125	-119,297	0,003	-0,000
-168,110	503,544	-0,076	0,128
-167,096	751,953	-0,074	-0,145
-166,081	430,551	0,038	0,059
-165,066	800,000	-0,018	-0,046
-164,052	-57,746	-0,074	0,023
-163,037	63,969	-0,028	-0,020
-162,023	112,156	0,064	-0,056
-161,008	-70,006	-0,050	0,014
-159,993	-83,156	0,090	-0,021
-158,979	-200,000	-0,035	-0,164
-157,964	800,000	0,022	-0,059
-156,950	350,772	0,071	-0,101
-155,935	-160,088	-0,048	0,002
-154,920	-43,820	0,066	0,024
-153,906	7,158	0,083	0,044
-152,891	800,000	-0,040	0,122
-151,877	-27,832	0,100	-0,042
-150,862	-200,000	-0,010	-0,065
-149,847	125,789	-0,077	-0,070
-148,833	29,335	-0,043	0,026
-147,818	-200,000	-0,024	-0,112
-146,804	-151,126	0,167	-0,009
-145,789	473,756	0,026	-0,042
-144,775	-200,000	0,007	0,041
-143,760	-76,279	-0,032	0,008
-142,745	-90,743	-0,029	-0,006
-141,731	-200,000	0,009	-0,072
-140,716	582,715	0,092	0,163
-139,702	-19,114	0,049	-0,022
-138,687	800,000	-0,033	0,096
-137,672	-0,928	-0,060	0,030
-136,658	40,439	0,029	0,019
-135,643	-200,000	0,001	-0,150
-134,629	-200,000	-0,006	-0,050
-133,614	-23,856	0,141	0,060
-132,599	-200,000	-0,001	-0,072
-131,585	57,692	-0,025	0,018
-130,570	47,682	-0,135	0,091
-129,556	-200,000	0,016	-0,058
-128,541	800,000	0,037	0,093
-127,526	-200,000	0,009	-0,050
-126,512	-80,844	-0,144	-0,034
-125,497	-146,794	-0,068	-0,004
-124,483	63,719	-0,108	0,078
-123,468	800,000	-0,036	0,097
-122,453	-134,799	-0,055	0,005
-121,439	-200,000	-0,002	-0,094
-120,424	-200,000	-0,014	0,093
-119,410	97,122	-0,079	0,065
