DTS Sentinel unit serial number:	SN410029Multiplexer serial number:	ORYXHardware model number:	OX2-SRSoftware version number:	ORYX F/W v4,00 Oryx Data Collector v3.7.2.0data status	okinstallation	B5 Nyhavnadifferential loss correction	single-endedforward channel	channel 2reverse channel	N/Adate	2023/12/13time	04:12:13forward acquisition time	300,00reverse acquisition time	0,00gamma	499,1914k internal	0,3160k external	0,3160temperature offset calibration	1,0000default loss term (dB/km)	0,3820temperature slope calibration	1,0000multiplexer offset coefficient	1,0000multiplexer slope coefficient	1,0000fibre end	0,00T internal ref (°C)	13,94T ext. ref 1 (°C)	-2,43T ext. ref 2 (°C)	-2,73length (m)	temperature (°C)	Stokes	anti-Stokes-744,400	-61,726	0,051	0,015
-743,385	-193,185	-0,227	-0,001
-742,371	-23,549	0,214	0,094
-741,356	-27,927	-0,278	-0,118
-740,342	71,436	0,127	0,097
-739,327	-142,147	-0,254	-0,018
-738,312	177,695	0,098	0,105
-737,298	-170,130	-0,151	0,004
-736,283	-200,000	-0,012	0,081
-735,269	-58,865	-0,318	-0,101
-734,254	-8,722	0,146	0,072
-733,239	-103,906	-0,356	-0,061
-732,225	40,072	0,155	0,102
-731,210	800,000	-0,051	0,139
-730,196	-74,293	0,119	0,031
-729,181	-53,989	-0,046	0,015
-728,167	-200,000	0,001	0,055
-727,152	741,256	-0,022	0,044
-726,137	399,036	-0,022	-0,034
-725,123	102,741	-0,058	-0,050
-724,108	-124,368	0,091	-0,010
-723,094	800,000	-0,057	-0,119
-722,079	-85,845	-0,078	-0,018
-721,064	-44,240	0,030	-0,011
-720,050	8,278	0,065	-0,036
-719,035	-200,000	-0,015	0,086
-718,021	-200,000	-0,004	-0,086
-717,006	-200,000	0,000	-0,040
-715,991	136,966	-0,174	-0,167
-714,977	43,438	0,060	-0,041
-713,962	-200,000	-0,001	-0,005
-712,948	-200,000	-0,002	0,045
-711,933	325,382	0,066	0,093
-710,918	-11,802	-0,050	-0,024
-709,904	-106,904	0,130	-0,021
-708,889	198,170	-0,104	-0,117
-707,875	-57,181	-0,089	-0,029
-706,860	287,799	-0,057	-0,076
-705,845	220,417	0,033	0,039
-704,831	800,000	-0,039	-0,095
-703,816	141,657	-0,099	0,096
-702,802	800,000	-0,038	0,101
-701,787	-200,000	-0,019	-0,211
-700,772	-200,000	0,020	-0,081
-699,758	-36,790	0,030	0,012
-698,743	800,000	0,047	0,138
-697,729	-200,000	0,009	-0,119
-696,714	54,095	-0,081	0,058
-695,699	117,155	0,057	-0,052
-694,685	-200,000	0,005	-0,040
-693,670	800,000	-0,031	0,069
-692,656	259,970	-0,047	0,060
-691,641	711,349	0,067	-0,132
-690,627	93,258	-0,030	0,025
-689,612	800,000	0,046	-0,131
-688,597	249,213	-0,128	-0,160
-687,583	800,000	0,012	0,030
-686,568	800,000	-0,032	-0,070
-685,554	235,070	-0,081	-0,099
-684,539	55,038	-0,032	0,023
-683,524	18,644	-0,035	-0,020
-682,510	39,137	0,120	0,079
-681,495	-109,789	-0,050	0,008
-680,481	-64,062	-0,134	0,040
-679,466	-200,000	0,004	-0,039
-678,451	115,583	0,028	0,025
-677,437	800,000	0,060	0,141
-676,422	62,310	0,068	0,050
-675,408	6,878	-0,122	0,067
-674,393	-80,664	0,075	-0,018
-673,378	800,000	-0,042	-0,098
-672,364	-200,000	0,017	-0,061
-671,349	9,201	-0,060	-0,033
-670,335	261,691	-0,058	-0,075
-669,320	78,819	0,092	-0,072
-668,305	-125,372	-0,048	0,005
-667,291	215,421	0,027	-0,031
-666,276	800,000	0,039	0,121
-665,262	365,204	-0,107	-0,159
-664,247	-171,490	-0,119	-0,003
-663,232	238,232	-0,045	-0,055
-662,218	-84,403	-0,059	0,014
-661,203	-91,242	-0,079	-0,016
-660,189	-72,231	-0,097	0,026
-659,174	192,713	0,084	-0,093
-658,159	170,967	0,021	-0,022
-657,145	800,000	-0,053	-0,165
-656,130	-101,918	0,127	-0,022
-655,116	153,682	-0,019	-0,019
-654,101	3,273	-0,105	-0,056
-653,086	16,085	-0,047	0,027
-652,072	-42,272	0,044	-0,016
-651,057	-200,000	-0,003	0,011
-650,043	-97,422	0,035	-0,007
-649,028	800,000	-0,007	-0,019
-648,014	629,031	0,013	-0,024
-646,999	-200,000	0,003	-0,128
-645,984	11,882	-0,080	0,045
-644,970	-200,000	-0,024	0,142
-643,955	-200,000	0,021	-0,099
-642,941	531,736	-0,040	0,069
-641,926	501,386	0,067	-0,113
-640,911	19,385	0,083	-0,049
-639,897	800,000	-0,023	0,059
-638,882	-40,715	-0,082	0,031
-637,868	-2,738	-0,059	-0,030
-636,853	-182,344	-0,150	-0,002
-635,838	-200,000	-0,036	-0,123
-634,824	-200,000	-0,025	-0,100
-633,809	749,548	-0,097	0,193
-632,795	800,000	-0,004	-0,008
-631,780	139,882	-0,118	-0,114
-630,765	-146,788	0,193	-0,012
-629,751	49,095	-0,096	0,066
-628,736	80,124	-0,063	-0,049
-627,722	-200,000	0,055	-0,217
-626,707	-94,543	0,158	0,031
-625,692	-87,057	0,099	-0,022
-624,678	-200,000	0,020	0,108
-623,663	-70,915	0,092	0,025
-622,649	-200,000	-0,013	-0,047
-621,634	-165,400	-0,073	-0,002
-620,619	62,122	0,111	-0,081
-619,605	-200,000	-0,003	-0,072
-618,590	131,466	-0,056	0,053
-617,576	-75,693	-0,081	-0,021
-616,561	-149,028	0,064	-0,004
-615,546	-200,000	-0,014	-0,106
-614,532	-200,000	-0,017	-0,124
-613,517	-8,936	0,118	-0,058
-612,503	242,341	-0,074	-0,091
-611,488	-200,000	0,001	0,030
-610,474	-200,000	0,025	0,119
-609,459	80,108	-0,030	0,023
-608,444	-47,170	0,036	0,013
-607,430	800,000	0,047	-0,115
-606,415	117,613	0,039	-0,035
-605,401	115,405	0,047	-0,042
-604,386	-63,227	-0,147	-0,044
-603,371	-143,426	-0,051	0,004
-602,357	-200,000	-0,016	-0,058
-601,342	53,759	-0,082	-0,057
-600,328	122,090	0,047	-0,043
-599,313	-189,406	0,069	-0,001
-598,298	319,115	0,111	0,154
-597,284	231,507	-0,100	-0,120
-596,269	800,000	-0,048	0,109
-595,255	-190,457	0,136	0,001
-594,240	-200,000	-0,021	-0,087
-593,225	-200,000	0,009	-0,111
-592,211	597,428	-0,027	0,049
-591,196	800,000	0,026	-0,075
-590,182	-200,000	-0,001	-0,046
-589,167	-160,187	0,142	-0,006
-588,152	76,727	0,143	0,111
-587,138	455,393	0,046	-0,075
-586,123	-72,264	-0,091	-0,025
-585,109	285,733	0,076	-0,100
-584,094	685,336	-0,021	-0,040
-583,079	42,301	0,118	-0,079
-582,065	605,671	0,039	0,072
-581,050	-200,000	0,000	-0,077
-580,036	-200,000	-0,016	-0,082
-579,021	-78,190	0,080	-0,020
-578,006	323,970	-0,064	-0,090
-576,992	-94,265	-0,063	-0,013
-575,977	-81,098	-0,098	-0,023
-574,963	-105,939	0,120	0,020
-573,948	296,262	-0,053	-0,071
-572,934	800,000	0,020	0,063
-571,919	-127,992	0,155	0,016
-570,904	-200,000	-0,003	-0,118
-569,890	-54,294	0,048	-0,016
-568,875	57,578	0,179	0,128
-567,861	-68,351	-0,046	0,013
-566,846	192,724	0,101	0,112
-565,831	-200,000	-0,023	0,000
-564,817	-83,372	-0,064	-0,015
-563,802	-16,269	-0,073	-0,034
-562,788	-200,000	0,003	0,098
-561,773	-67,267	0,092	-0,026
-560,758	-200,000	0,016	0,074
-559,744	342,988	0,015	0,022
-558,729	-16,508	-0,080	0,037
-557,715	43,031	-0,126	0,084
-556,700	140,433	-0,091	-0,088
-555,685	-200,000	0,009	0,223
-554,671	-88,054	-0,079	-0,017
-553,656	-112,751	0,070	0,010
-552,642	-200,000	0,012	-0,056
-551,627	-200,000	0,001	-0,092
-550,612	138,406	0,085	-0,082
-549,598	-200,000	-0,006	-0,037
-548,583	-200,000	0,018	0,108
-547,569	771,387	-0,045	-0,091
-546,554	557,558	0,062	-0,109
-545,539	49,802	-0,077	-0,053
-544,525	800,000	0,053	-0,119
-543,510	-200,000	0,016	-0,196
-542,496	-200,000	0,019	0,088
-541,481	308,797	0,071	-0,097
-540,466	641,021	0,041	0,076
-539,452	-45,663	0,052	-0,019
-538,437	-200,000	0,002	-0,041
-537,423	654,186	0,016	0,029
-536,408	-69,756	-0,083	0,023
-535,393	-200,000	-0,031	-0,179
-534,379	800,000	-0,041	-0,123
-533,364	236,796	0,036	-0,044
-532,350	63,412	0,109	0,079
-531,335	-200,000	-0,032	0,183
-530,321	531,459	-0,045	0,077
-529,306	800,000	-0,046	0,115
-528,291	408,643	-0,059	-0,092
-527,277	21,014	-0,062	-0,037
-526,262	594,820	-0,002	0,004
-525,248	129,366	-0,055	0,051
-524,233	-127,228	0,106	-0,011
-523,218	-106,818	0,042	-0,007
-522,204	263,140	-0,060	-0,076
-521,189	50,694	-0,042	-0,029
-520,175	62,880	-0,136	0,099
-519,160	-150,358	0,069	0,004
-518,145	39,174	-0,058	-0,038
-517,131	23,969	0,106	0,064
-516,116	195,193	-0,021	0,023
-515,102	-71,166	0,114	-0,031
-514,087	190,658	0,074	-0,081
-513,072	-88,228	-0,261	0,057
-512,058	615,889	0,033	-0,061
-511,043	-200,000	0,011	-0,097
-510,029	-130,977	0,060	0,006
-509,014	-18,342	-0,044	-0,020
-507,999	-83,785	0,117	-0,027
-506,985	-200,000	0,000	0,015
-505,970	800,000	0,065	-0,194
-504,956	-173,062	0,106	-0,002
-503,941	190,389	-0,084	-0,092
-502,926	205,440	0,072	0,082
-501,912	241,069	0,024	-0,030
-500,897	271,921	-0,088	-0,114
-499,883	-200,000	0,005	-0,117
-498,868	40,984	0,051	-0,034
-497,853	386,129	0,004	0,006
-496,839	-106,673	-0,067	-0,011
-495,824	-2,359	0,052	0,026
-494,810	-65,936	0,115	-0,033
-493,795	193,881	0,059	0,065
-492,781	800,000	-0,037	-0,101
-491,766	-125,339	-0,144	-0,016
-490,751	-173,330	0,032	-0,001
-489,737	-97,940	-0,105	-0,020
-488,722	457,362	0,044	-0,071
-487,708	26,792	0,059	0,036
-486,693	-82,777	-0,048	-0,011
-485,678	-120,490	-0,020	-0,002
-484,664	-152,097	-0,032	-0,002
-483,649	-200,000	-0,010	0,238
-482,635	-200,000	-0,025	-0,109
-481,620	297,692	-0,024	-0,032
-480,605	-16,277	0,127	0,059
-479,591	800,000	0,008	0,020
-478,576	-91,627	-0,030	-0,006
-477,562	-156,454	-0,148	-0,007
-476,547	-160,640	0,052	0,002
-475,532	197,266	-0,073	0,082
-474,518	800,000	0,029	-0,089
-473,503	74,309	-0,029	0,022
-472,489	76,097	-0,036	0,028
-471,474	-50,456	0,050	0,017
-470,459	304,099	-0,071	-0,097
-469,445	-200,000	-0,004	-0,194
-468,430	388,381	-0,032	-0,049
-467,416	46,261	0,109	0,074
-466,401	800,000	-0,042	0,132
-465,386	105,255	0,075	0,065
-464,372	-200,000	0,004	-0,017
-463,357	-200,000	-0,008	0,088
-462,343	119,634	0,024	0,021
-461,328	-62,857	-0,071	0,021
-460,313	5,877	-0,087	0,047
-459,299	-115,087	-0,066	0,009
-458,284	800,000	0,012	0,038
-457,270	419,314	-0,039	-0,061
-456,255	513,215	-0,095	-0,162
-455,241	52,548	-0,052	0,036
-454,226	65,614	-0,075	0,055
-453,211	459,952	-0,080	0,130
-452,197	176,216	-0,055	-0,058
-451,182	144,162	0,087	0,084
-450,168	-87,725	-0,141	-0,031
-449,153	-116,987	0,090	-0,012
-448,138	44,481	0,115	0,077
-447,124	-24,136	-0,042	-0,018
-446,109	153,344	0,052	0,051
-445,095	155,202	0,116	0,116
-444,080	-85,423	-0,020	-0,004
-443,065	-62,515	-0,049	0,015
-442,051	652,321	-0,011	0,021
-441,036	293,564	-0,053	0,071
-440,022	-15,449	0,035	-0,016
-439,007	229,106	0,019	0,022
-437,992	-93,881	-0,056	-0,011
-436,978	69,596	-0,006	-0,005
-435,963	800,000	0,016	0,039
-434,949	-200,000	0,007	-0,093
-433,934	160,555	-0,040	0,040
-432,919	-25,797	0,050	-0,021
-431,905	800,000	-0,032	0,086
-430,890	383,819	0,050	-0,075
-429,876	800,000	-0,039	0,125
-428,861	-200,000	0,032	0,131
-427,846	450,075	0,067	0,108
-426,832	7,172	0,116	-0,063
-425,817	800,000	-0,039	-0,078
-424,803	-69,203	0,084	-0,023
-423,788	392,410	0,080	0,121
-422,773	299,719	0,035	0,048
-421,759	619,234	0,087	0,160
-420,744	-139,388	-0,106	0,008
-419,730	70,924	0,038	0,028
-418,715	-97,306	0,079	0,015
-417,701	1,246	-0,066	-0,035
-416,686	-89,181	0,146	0,031
-415,671	-55,107	0,028	0,009
-414,657	-154,961	-0,079	-0,004
-413,642	-200,000	-0,037	0,122
-412,628	-200,000	-0,005	-0,093
-411,613	113,561	-0,162	-0,143
-410,598	800,000	0,047	-0,124
-409,584	-82,106	0,044	0,010
-408,569	800,000	0,035	0,080
-407,555	-142,723	-0,052	0,004
-406,540	-200,000	-0,017	0,118
-405,525	800,000	-0,021	0,061
-404,511	379,258	0,026	-0,039
-403,496	-9,917	-0,114	0,055
-402,482	-144,720	0,056	-0,004
-401,467	173,497	0,099	0,104
-400,452	82,278	-0,079	-0,063
-399,438	204,283	-0,062	0,070
-398,423	-200,000	-0,012	-0,048
-397,409	115,581	0,040	0,035
-396,394	250,458	-0,085	0,105
-395,379	286,159	-0,034	0,045
-394,365	463,447	0,036	0,059
-393,350	-200,000	-0,039	0,213
-392,336	-80,853	-0,082	0,020
-391,321	147,693	0,028	0,027
-390,306	-166,945	-0,083	-0,002
-389,292	248,327	-0,029	0,036
-388,277	-200,000	0,036	0,220
-387,263	-200,000	-0,014	-0,107
-386,248	800,000	0,023	-0,049
-385,233	12,465	0,043	-0,024
-384,219	6,561	-0,048	-0,026
-383,204	-152,267	-0,116	0,006
-382,190	348,230	-0,087	0,126
-381,175	81,791	0,069	-0,054
-380,160	-76,110	-0,086	0,022
-379,146	-200,000	-0,007	0,035
-378,131	201,838	-0,038	-0,043
-377,117	-22,477	0,112	0,049
-376,102	-140,589	-0,068	0,005
-375,088	52,896	0,035	0,024
-374,073	364,786	-0,075	-0,110
-373,058	-200,000	-0,020	0,087
-372,044	24,648	-0,105	-0,063
-371,029	-200,000	-0,019	-0,147
-370,015	-62,056	0,283	0,085
-369,000	-158,309	-0,040	-0,002
-367,985	183,606	-0,057	-0,061
-366,971	800,000	-0,062	-0,133
-365,956	41,827	0,093	-0,061
-364,942	253,386	0,032	0,039
-363,927	-200,000	-0,006	-0,027
-362,912	-200,000	-0,028	-0,120
-361,898	-162,881	0,121	0,004
-360,883	48,095	-0,049	0,033
-359,869	-56,732	0,079	-0,025
-358,854	155,773	0,115	0,115
-357,839	499,660	0,054	0,091
-356,825	245,606	-0,016	-0,020
-355,810	34,879	-0,076	0,048
-354,796	800,000	0,040	0,112
-353,781	627,681	-0,009	0,017
-352,766	-18,406	0,196	-0,088
-351,752	-140,033	0,098	0,007
-350,737	-200,000	-0,003	0,052
-349,723	-106,575	-0,094	0,015
-348,708	101,948	-0,079	-0,067
-347,693	800,000	0,039	-0,115
-346,679	-200,000	0,006	-0,071
-345,664	179,208	0,028	-0,030
-344,650	82,277	-0,028	-0,022
-343,635	21,032	0,018	0,011
-342,620	301,185	0,079	0,106
-341,606	-200,000	-0,024	0,124
-340,591	-78,154	-0,137	-0,034
-339,577	-200,000	0,001	-0,231
-338,562	800,000	-0,042	-0,098
-337,548	160,056	0,064	0,065
-336,533	-50,341	0,116	-0,040
-335,518	8,008	0,165	0,089
-334,504	49,534	0,124	0,084
-333,489	-58,195	-0,049	-0,015
-332,475	95,138	0,151	-0,125
-331,460	-151,266	-0,141	0,008
-330,445	-138,280	-0,087	-0,007
-329,431	800,000	0,077	0,173
-328,416	-114,658	0,121	-0,017
-327,402	31,470	-0,062	-0,038
-326,387	415,312	-0,042	-0,065
-325,372	199,993	-0,091	-0,101
-324,358	5,462	0,102	0,055
-323,343	-200,000	0,047	0,158
-322,329	417,160	0,025	-0,038
-321,314	-102,441	-0,061	-0,011
-320,299	100,241	-0,094	-0,079
-319,285	172,688	0,089	-0,093
-318,270	-1,591	-0,105	0,054
-317,256	-50,169	-0,036	-0,012
-316,241	251,951	0,051	-0,063
-315,226	136,099	0,059	0,056
-314,212	-38,825	0,067	-0,025
-313,197	311,734	-0,072	0,098
-312,183	10,567	-0,103	0,057
-311,168	-50,610	-0,110	-0,037
-310,153	27,328	-0,034	-0,020
-309,139	-200,000	0,003	-0,048
-308,124	377,083	0,055	-0,081
-307,110	13,533	0,090	0,050
-306,095	463,936	-0,021	0,034
-305,080	800,000	0,044	0,101
-304,066	-200,000	-0,005	-0,105
-303,051	214,046	-0,104	-0,119
-302,037	800,000	-0,030	-0,073
-301,022	743,259	-0,010	-0,019
-300,008	-86,183	-0,049	0,011
-298,993	-200,000	-0,028	0,098
-297,978	-73,968	-0,042	0,011
-296,964	-200,000	-0,032	-0,106
-295,949	-200,000	-0,050	-0,189
-294,935	-60,736	-0,042	0,013
-293,920	-176,215	0,201	0,004
-292,905	-63,712	0,172	-0,051
-291,891	-200,000	-0,010	-0,038
-290,876	-111,471	0,121	0,018
-289,862	800,000	-0,048	0,143
-288,847	-200,000	0,027	-0,194
-287,832	-200,000	-0,001	-0,057
-286,818	381,129	-0,092	0,138
-285,803	-102,196	0,201	-0,035
-284,789	463,030	0,012	0,020
-283,774	-200,000	-0,011	0,052
-282,759	-200,000	-0,005	0,075
-281,745	104,530	-0,053	-0,045
-280,730	-200,000	-0,026	0,115
-279,716	-200,000	0,011	0,067
-278,701	775,715	-0,028	-0,056
-277,686	800,000	-0,007	-0,019
-276,672	720,359	-0,102	0,197
-275,657	800,000	0,020	-0,044
-274,643	800,000	-0,075	-0,165
-273,628	28,226	0,121	-0,074
-272,613	131,358	0,074	0,069
-271,599	-106,876	0,004	-0,001
-270,584	800,000	-0,047	0,145
-269,570	-27,054	0,150	0,063
-268,555	-159,757	0,016	0,001
-267,540	412,865	-0,041	0,063
-266,526	-81,718	-0,054	0,013
-265,511	680,993	-0,030	-0,057
-264,497	500,964	-0,034	-0,057
-263,482	181,497	0,075	0,079
-262,467	-60,046	0,088	-0,027
-261,453	-57,863	0,081	-0,025
-260,438	207,231	-0,080	0,090
-259,424	-82,104	0,098	0,023
-258,409	-33,810	0,020	0,008
-257,395	-153,763	-0,068	-0,003
-256,380	89,179	-0,134	0,108
-255,365	202,619	0,054	0,060
-254,351	59,304	0,059	0,042
-253,336	800,000	-0,018	0,056
-252,322	58,322	-0,037	-0,026
-251,307	-89,872	-0,089	-0,019
-250,292	-56,395	-0,066	-0,021
-249,278	800,000	-0,061	0,124
-248,263	716,710	0,055	0,106
-247,249	706,437	-0,065	0,125
-246,234	-200,000	-0,014	-0,053
-245,219	75,479	-0,056	0,042
-244,205	-200,000	0,030	-0,097
-243,190	-106,517	-0,114	-0,018
-242,176	-200,000	0,012	0,185
-241,161	-72,760	0,012	-0,003
-240,146	-200,000	0,032	0,126
-239,132	-138,113	-0,031	-0,002
-238,117	425,132	-0,039	-0,060
-237,103	117,378	0,061	-0,054
-236,088	-84,927	-0,079	-0,018
-235,073	-200,000	-0,007	0,090
-234,059	-200,000	0,032	0,153
-233,044	-200,000	0,012	0,046
-232,030	-22,494	-0,110	-0,048
-231,015	231,663	0,018	-0,021
-230,000	99,280	0,068	0,057
-228,986	800,000	-0,052	-0,111
-227,971	-28,647	-0,078	-0,032
-226,957	112,857	0,109	-0,095
-225,942	800,000	-0,026	0,058
-224,927	-200,000	-0,001	-0,007
-223,913	800,000	-0,048	-0,124
-222,898	82,823	-0,110	0,086
-221,884	630,124	0,063	-0,116
-220,869	800,000	-0,032	0,084
-219,855	-200,000	-0,018	-0,139
-218,840	79,851	0,076	0,059
-217,825	349,236	-0,050	0,072
-216,811	-57,511	-0,048	0,015
-215,796	-200,000	0,010	-0,102
-214,782	-12,463	0,086	-0,041
-213,767	-19,146	0,052	0,023
-212,752	-27,175	0,099	0,042
-211,738	-55,074	0,128	0,041
-210,723	58,926	-0,091	-0,064
-209,709	800,000	0,018	0,048
-208,694	-91,500	-0,198	-0,040
-207,679	152,504	-0,076	-0,075
-206,665	800,000	0,056	-0,122
-205,650	9,005	0,087	0,047
-204,636	-200,000	0,003	0,033
-203,621	154,382	0,067	-0,066
-202,606	-136,473	-0,090	-0,007
-201,592	800,000	0,086	0,181
-200,577	-16,037	0,101	-0,046
-199,563	20,961	0,052	0,030
-198,548	-79,641	-0,039	0,009
-197,533	-200,000	-0,008	-0,055
-196,519	800,000	0,051	-0,161
-195,504	-146,403	-0,139	0,009
-194,490	-114,259	0,097	0,013
-193,475	-129,954	-0,147	0,014
-192,460	677,372	-0,036	0,068
-191,446	800,000	-0,047	0,099
-190,431	-172,815	0,106	-0,002
-189,417	-122,749	0,119	0,014
-188,402	99,585	-0,113	-0,094
-187,387	-200,000	0,013	0,077
-186,373	-200,000	0,034	0,129
-185,358	800,000	0,051	-0,121
-184,344	22,940	-0,030	-0,018
-183,329	800,000	-0,055	0,115
-182,315	43,654	0,047	0,031
-181,300	361,883	-0,049	-0,072
-180,285	-200,000	0,009	-0,185
-179,271	164,538	-0,120	-0,122
-178,256	-200,000	0,011	-0,111
-177,242	77,158	-0,047	-0,036
-176,227	-161,941	-0,071	-0,003
-175,212	263,426	0,091	-0,115
-174,198	-107,885	0,045	0,007
-173,183	172,102	-0,034	0,035
-172,169	-200,000	-0,028	-0,089
-171,154	240,880	-0,027	0,033
-170,139	-107,327	-0,042	-0,007
-169,125	484,271	0,088	0,144
-168,110	-149,799	0,055	-0,003
-167,096	800,000	-0,021	-0,066
-166,081	22,207	-0,102	0,060
-165,066	-200,000	-0,021	0,100
-164,052	559,653	0,088	0,154
-163,037	323,734	-0,024	0,033
-162,023	-76,179	-0,081	0,020
-161,008	-200,000	0,006	0,083
-159,993	-200,000	-0,004	0,162
-158,979	187,799	-0,054	-0,058
-157,964	287,957	0,031	0,040
-156,950	207,679	-0,116	-0,131
-155,935	-200,000	-0,059	0,197
-154,920	-39,658	0,077	0,029
-153,906	795,550	0,056	0,112
-152,891	401,321	-0,124	0,188
-151,877	225,708	-0,023	-0,027
-150,862	-130,326	0,216	0,021
-149,847	454,501	-0,024	-0,038
-148,833	-200,000	0,012	0,038
-147,818	-68,926	0,081	0,022
-146,804	800,000	0,021	0,054
-145,789	-200,000	0,019	0,125
-144,775	-200,000	0,026	-0,119
-143,760	159,927	-0,096	-0,096
-142,745	54,113	-0,057	0,039
-141,731	-200,000	-0,032	0,165
-140,716	-16,103	0,144	-0,066
-139,702	161,948	0,023	0,023
-138,687	-200,000	-0,035	-0,121
-137,672	115,380	-0,193	0,169
-136,658	147,223	0,008	0,007
-135,643	413,529	0,039	-0,061
-134,629	-200,000	-0,000	0,045
-133,614	25,018	0,146	0,087
-132,599	122,779	-0,069	-0,062
-131,585	-157,113	0,062	0,003
-130,570	-71,153	0,035	0,009
-129,556	276,285	0,038	0,049
-128,541	294,217	-0,047	-0,062
-127,526	262,972	0,029	0,036
-126,512	88,856	-0,097	-0,078
-125,497	-31,138	0,196	0,079
-124,483	262,800	-0,102	0,127
-123,468	37,167	0,112	-0,071
-122,453	-16,857	0,162	-0,073
-121,439	616,907	0,064	0,115
-120,424	-200,000	-0,007	0,112
