DTS Sentinel unit serial number:	SN410029Multiplexer serial number:	ORYXHardware model number:	OX2-SRSoftware version number:	ORYX F/W v4,00 Oryx Data Collector v3.7.2.0data status	okinstallation	B5 Nyhavnadifferential loss correction	single-endedforward channel	channel 2reverse channel	N/Adate	2023/12/12time	17:27:13forward acquisition time	300,00reverse acquisition time	0,00gamma	499,1914k internal	0,3156k external	0,3156temperature offset calibration	1,0000default loss term (dB/km)	0,3820temperature slope calibration	1,0000multiplexer offset coefficient	1,0000multiplexer slope coefficient	1,0000fibre end	0,00T internal ref (°C)	15,71T ext. ref 1 (°C)	-0,86T ext. ref 2 (°C)	-1,17length (m)	temperature (°C)	Stokes	anti-Stokes-744,400	97,660	0,051	-0,044
-743,385	-85,907	-0,213	0,048
-742,371	167,481	-0,041	-0,044
-741,356	-174,867	-0,283	-0,006
-740,342	538,605	0,033	-0,057
-739,327	-197,248	-0,308	0,001
-738,312	800,000	0,021	0,047
-737,298	-139,166	-0,334	0,026
-736,283	-151,388	0,146	-0,008
-735,269	-8,656	-0,232	0,115
-734,254	771,417	0,020	0,040
-733,239	-27,094	-0,366	-0,157
-732,225	29,637	0,075	-0,047
-731,210	20,144	-0,033	-0,020
-730,196	31,402	-0,046	0,029
-729,181	1,671	-0,101	-0,054
-728,167	-200,000	0,009	-0,071
-727,152	-13,827	0,032	-0,015
-726,137	246,846	-0,057	-0,071
-725,123	800,000	0,016	-0,037
-724,108	-200,000	-0,000	-0,062
-723,094	-81,516	-0,084	0,020
-722,079	-104,829	0,078	-0,013
-721,064	800,000	-0,057	-0,154
-720,050	397,915	-0,021	-0,033
-719,035	-15,751	-0,102	-0,048
-718,021	-43,293	-0,044	-0,016
-717,006	-52,165	0,065	0,022
-715,991	800,000	-0,079	-0,164
-714,977	-56,371	-0,024	0,008
-713,962	16,925	0,039	-0,022
-712,948	-2,828	-0,040	0,020
-711,933	172,071	-0,030	-0,032
-710,918	-143,445	-0,015	0,001
-709,904	152,886	0,035	-0,035
-708,889	299,085	0,032	-0,044
-707,875	-112,808	-0,079	-0,011
-706,860	-58,227	0,152	-0,049
-705,845	-200,000	-0,017	0,216
-704,831	309,299	0,069	-0,095
-703,816	350,069	0,057	0,083
-702,802	-200,000	-0,019	0,119
-701,787	-7,368	-0,110	-0,055
-700,772	7,721	-0,053	0,029
-699,758	66,751	0,014	0,011
-698,743	-200,000	0,019	-0,131
-697,729	-200,000	-0,002	0,120
-696,714	-5,892	-0,143	0,072
-695,699	-200,000	0,006	-0,129
-694,685	-111,323	-0,054	0,008
-693,670	152,752	-0,103	0,104
-692,656	416,948	0,019	-0,029
-691,641	-136,011	0,047	-0,004
-690,627	-162,785	-0,169	-0,006
-689,612	-125,526	-0,112	-0,012
-688,597	43,007	-0,151	0,101
-687,583	-18,529	-0,030	-0,014
-686,568	-90,910	-0,141	-0,030
-685,554	-166,201	-0,093	-0,003
-684,539	800,000	0,054	-0,147
-683,524	-157,976	-0,136	0,006
-682,510	800,000	-0,035	-0,093
-681,495	127,435	0,039	-0,036
-680,481	10,156	-0,111	-0,062
-679,466	800,000	0,042	-0,130
-678,451	-56,719	-0,079	0,026
-677,437	-72,889	0,036	0,010
-676,422	-200,000	0,062	0,201
-675,408	-100,050	0,024	-0,004
-674,393	733,679	0,035	0,068
-673,378	800,000	-0,039	0,083
-672,364	-76,268	0,018	0,005
-671,349	244,498	-0,112	-0,139
-670,335	800,000	0,024	-0,052
-669,320	775,909	0,027	0,054
-668,305	361,914	0,063	0,094
-667,291	81,991	-0,118	0,094
-666,276	-200,000	-0,016	-0,066
-665,262	272,900	-0,106	-0,138
-664,247	279,336	0,038	0,050
-663,232	-125,977	-0,096	0,010
-662,218	-101,145	0,228	0,041
-661,203	51,317	-0,106	0,074
-660,189	800,000	0,043	0,101
-659,174	-200,000	0,001	-0,042
-658,159	800,000	-0,065	-0,154
-657,145	363,548	-0,067	0,099
-656,130	-170,662	0,113	-0,003
-655,116	-200,000	-0,003	-0,070
-654,101	-108,951	0,079	-0,012
-653,086	-118,716	-0,098	0,013
-652,072	-200,000	0,036	-0,151
-651,057	92,755	-0,076	0,063
-650,043	84,729	-0,124	-0,099
-649,028	-200,000	-0,000	-0,008
-648,014	-200,000	-0,015	-0,051
-646,999	800,000	-0,053	-0,115
-645,984	-72,495	-0,114	0,031
-644,970	-200,000	-0,020	-0,139
-643,955	-200,000	0,000	0,011
-642,941	-200,000	0,042	-0,148
-641,926	-62,572	-0,077	0,023
-640,911	-57,085	0,066	-0,021
-639,897	-200,000	-0,023	0,128
-638,882	-200,000	0,024	0,152
-637,868	576,180	-0,060	0,107
-636,853	13,175	-0,148	-0,084
-635,838	18,428	-0,019	0,011
-634,824	800,000	0,044	-0,104
-633,809	800,000	0,046	0,094
-632,795	-200,000	0,014	-0,191
-631,780	104,783	0,116	0,100
-630,765	219,605	0,042	-0,050
-629,751	-159,722	0,074	-0,003
-628,736	97,444	-0,172	-0,145
-627,722	63,380	0,056	0,041
-626,707	121,385	0,105	-0,096
-625,692	358,575	-0,016	0,023
-624,678	-22,074	-0,066	-0,029
-623,663	197,060	-0,060	0,068
-622,649	272,844	0,060	-0,079
-621,634	-2,753	-0,033	-0,017
-620,619	800,000	-0,050	-0,132
-619,605	300,569	-0,012	0,017
-618,590	108,526	-0,052	0,046
-617,576	800,000	0,016	-0,033
-616,561	223,187	0,061	0,072
-615,546	-200,000	0,000	0,085
-614,532	64,221	-0,082	0,061
-613,517	619,828	-0,035	-0,064
-612,503	34,583	0,054	-0,034
-611,488	800,000	-0,042	0,091
-610,474	306,036	0,064	0,088
-609,459	800,000	0,020	-0,058
-608,444	377,848	0,015	-0,022
-607,430	800,000	0,045	-0,091
-606,415	-127,570	0,113	0,012
-605,401	-200,000	0,022	-0,123
-604,386	116,091	0,009	-0,008
-603,371	154,050	-0,076	0,077
-602,357	36,541	-0,020	0,013
-601,342	268,365	-0,055	-0,071
-600,328	437,801	-0,093	-0,150
-599,313	800,000	-0,022	-0,059
-598,298	36,682	-0,077	0,050
-597,284	-180,705	-0,095	0,001
-596,269	-200,000	0,014	0,056
-595,255	-146,471	-0,218	-0,014
-594,240	171,856	0,078	-0,082
-593,225	-57,548	-0,052	-0,017
-592,211	-200,000	-0,011	-0,122
-591,196	-85,917	0,100	-0,023
-590,182	-100,521	0,042	-0,008
-589,167	-67,584	-0,179	0,051
-588,152	586,547	-0,055	0,100
-587,138	-7,545	-0,065	-0,032
-586,123	45,133	0,019	0,013
-585,109	800,000	0,045	-0,145
-584,094	-50,915	-0,143	0,049
-583,079	-200,000	0,010	0,044
-582,065	-200,000	-0,025	0,089
-581,050	-99,165	-0,106	0,020
-580,036	-200,000	0,007	-0,074
-579,021	800,000	-0,023	-0,056
-578,006	800,000	0,007	0,021
-576,992	800,000	-0,035	-0,110
-575,977	158,315	-0,080	-0,081
-574,963	611,050	0,060	0,110
-573,948	-200,000	0,010	0,087
-572,934	800,000	0,056	0,137
-571,919	41,822	-0,063	-0,041
-570,904	-200,000	-0,007	-0,063
-569,890	-200,000	0,003	-0,059
-568,875	-56,099	0,011	-0,003
-567,861	-46,712	0,063	0,022
-566,846	1,833	0,116	0,061
-565,831	-80,549	-0,066	0,016
-564,817	-107,272	0,006	0,001
-563,802	331,610	-0,046	0,066
-562,788	-124,639	-0,102	0,011
-561,773	-200,000	0,016	-0,084
-560,758	-61,736	0,057	-0,017
-559,744	-31,475	0,126	0,052
-558,729	-200,000	-0,010	0,120
-557,715	-200,000	0,024	-0,094
-556,700	232,958	-0,084	-0,102
-555,685	183,684	-0,010	-0,011
-554,671	287,528	-0,018	-0,025
-553,656	69,687	0,009	0,007
-552,642	350,684	-0,047	-0,068
-551,627	-162,997	0,091	-0,003
-550,612	-200,000	-0,009	0,033
-549,598	48,456	-0,114	0,078
-548,583	-200,000	-0,012	-0,057
-547,569	-44,412	-0,088	0,032
-546,554	171,281	0,127	0,133
-545,539	-200,000	0,005	0,223
-544,525	352,218	-0,025	-0,037
-543,510	-145,412	-0,080	-0,005
-542,496	-93,790	-0,069	0,014
-541,481	-200,000	0,008	-0,132
-540,466	-19,171	0,029	-0,013
-539,452	-20,959	-0,014	-0,006
-538,437	-141,392	0,041	0,003
-537,423	238,370	0,054	0,066
-536,408	12,633	-0,058	-0,033
-535,393	238,617	-0,063	-0,077
-534,379	423,378	-0,024	-0,037
-533,364	800,000	0,023	0,058
-532,350	-47,668	0,025	0,009
-531,335	54,465	0,097	0,068
-530,321	-68,551	0,087	0,025
-529,306	254,503	-0,064	0,081
-528,291	91,475	-0,093	-0,076
-527,277	21,486	0,023	0,013
-526,262	287,131	-0,095	-0,125
-525,248	-200,000	-0,013	0,120
-524,233	-200,000	0,006	0,119
-523,218	-5,051	-0,170	0,085
-522,204	187,779	-0,080	0,087
-521,189	-19,498	-0,232	-0,105
-520,175	26,659	-0,074	-0,045
-519,160	-200,000	-0,023	0,081
-518,145	-26,641	0,153	0,065
-517,131	269,114	0,025	-0,032
-516,116	221,447	-0,034	0,040
-515,102	-200,000	0,021	-0,108
-514,087	694,741	0,043	-0,082
-513,072	-200,000	0,037	-0,150
-512,058	80,606	-0,032	0,025
-511,043	20,827	0,124	0,073
-510,029	195,473	0,111	0,123
-509,014	283,702	-0,087	-0,114
-507,999	9,080	-0,064	-0,035
-506,985	110,348	-0,046	0,041
-505,970	800,000	0,055	-0,153
-504,956	-147,303	0,082	-0,005
-503,941	-200,000	0,022	-0,093
-502,926	800,000	0,022	0,058
-501,912	-49,138	0,059	-0,021
-500,897	485,383	-0,026	0,043
-499,883	-200,000	0,009	-0,109
-498,868	343,700	-0,122	-0,175
-497,853	320,596	0,017	0,024
-496,839	-200,000	0,011	-0,149
-495,824	-196,424	0,047	-0,000
-494,810	-200,000	0,025	0,161
-493,795	-182,285	-0,082	-0,001
-492,781	-200,000	0,011	-0,092
-491,766	301,183	-0,057	-0,077
-490,751	-42,305	0,066	0,024
-489,737	-52,452	0,167	0,056
-488,722	137,438	0,068	-0,065
-487,708	116,186	-0,054	-0,049
-486,693	-40,838	0,069	-0,026
-485,678	18,615	0,081	-0,047
-484,664	800,000	-0,045	-0,107
-483,649	-76,240	-0,114	-0,029
-482,635	-69,842	0,071	0,020
-481,620	-70,178	-0,060	-0,017
-480,605	-93,595	-0,119	0,024
-479,591	-84,403	0,090	0,021
-478,576	63,673	0,068	0,050
-477,562	157,064	0,011	0,011
-476,547	461,770	0,014	-0,023
-475,532	29,183	0,102	-0,063
-474,518	-92,144	-0,053	0,011
-473,503	-200,000	-0,002	0,126
-472,489	-5,247	-0,080	-0,040
-471,474	78,400	-0,118	0,092
-470,459	309,086	-0,022	0,031
-469,445	800,000	-0,009	0,019
-468,430	13,614	-0,014	0,008
-467,416	-200,000	0,005	0,030
-466,401	65,374	-0,042	0,031
-465,386	-75,601	-0,106	-0,027
-464,372	-45,130	0,111	-0,040
-463,357	800,000	0,058	-0,135
-462,343	273,948	-0,024	-0,031
-461,328	800,000	0,032	-0,071
-460,313	-121,583	-0,057	-0,007
-459,299	-164,268	0,082	-0,003
-458,284	-200,000	-0,008	-0,117
-457,270	-200,000	0,031	-0,130
-456,255	307,152	-0,045	-0,061
-455,241	11,112	-0,022	-0,012
-454,226	177,604	0,046	-0,049
-453,211	10,020	0,207	-0,114
-452,197	-28,254	-0,140	0,059
-451,182	17,873	0,070	0,041
-450,168	145,199	-0,149	0,145
-449,153	228,484	0,022	-0,026
-448,138	800,000	-0,037	-0,104
-447,124	-200,000	0,016	0,100
-446,109	800,000	-0,081	0,193
-445,095	41,626	0,150	0,099
-444,080	-200,000	0,036	0,130
-443,065	602,985	-0,030	-0,054
-442,051	307,555	-0,046	0,062
-441,036	-131,253	-0,047	0,005
-440,022	461,094	0,048	-0,078
-439,007	689,387	0,013	0,024
-437,992	-90,310	0,102	0,021
-436,978	-131,109	0,079	0,008
-435,963	-200,000	-0,017	-0,128
-434,949	-49,562	-0,036	0,012
-433,934	224,644	-0,017	-0,020
-432,919	4,135	0,148	-0,079
-431,905	-34,548	0,107	0,042
-430,890	32,839	0,020	0,013
-429,876	58,453	0,094	0,067
-428,861	-64,217	-0,148	-0,044
-427,846	87,359	0,068	0,055
-426,832	-200,000	-0,027	-0,187
-425,817	370,734	-0,110	-0,163
-424,803	-200,000	-0,009	0,077
-423,788	-136,492	0,067	0,006
-422,773	87,619	0,087	0,070
-421,759	-200,000	0,006	0,231
-420,744	67,657	-0,039	0,029
-419,730	-67,165	-0,083	0,024
-418,715	144,040	-0,004	-0,004
-417,701	643,442	0,018	-0,033
-416,686	-200,000	-0,004	-0,037
-415,671	682,045	-0,082	0,156
-414,657	-143,615	0,208	-0,014
-413,642	-33,615	0,144	-0,058
-412,628	800,000	-0,030	0,087
-411,613	751,842	-0,068	-0,135
-410,598	-160,967	0,072	-0,003
-409,584	-200,000	0,029	-0,201
-408,569	385,188	0,022	-0,033
-407,555	70,362	0,105	0,079
-406,540	74,592	0,106	0,081
-405,525	800,000	-0,055	0,177
-404,511	70,545	0,046	-0,035
-403,496	-200,000	-0,018	-0,074
-402,482	135,326	0,087	0,083
-401,467	-32,462	0,026	0,011
-400,452	-200,000	-0,013	0,069
-399,438	-200,000	0,028	0,102
-398,423	150,836	-0,130	-0,128
-397,409	-81,745	-0,038	-0,009
-396,394	-200,000	-0,009	0,186
-395,379	243,453	-0,078	0,095
-394,365	176,941	0,042	0,044
-393,350	446,237	-0,078	0,125
-392,336	40,065	0,079	-0,051
-391,321	800,000	-0,005	0,014
-390,306	504,033	-0,067	0,113
-389,292	-143,905	-0,187	0,013
-388,277	46,904	0,125	-0,084
-387,263	248,424	-0,047	-0,058
-386,248	800,000	0,053	-0,155
-385,233	800,000	-0,033	-0,072
-384,219	131,203	-0,079	0,074
-383,204	-137,870	-0,067	0,005
-382,190	-116,555	0,114	0,015
-381,175	800,000	0,025	0,051
-380,160	269,943	0,058	0,074
-379,146	-55,930	0,104	0,034
-378,131	106,400	0,083	-0,071
-377,117	221,362	-0,020	-0,024
-376,102	634,087	0,080	-0,148
-375,088	138,577	-0,116	-0,110
-374,073	-200,000	0,011	-0,086
-373,058	383,541	0,084	0,126
-372,044	-200,000	-0,019	0,087
-371,029	-200,000	-0,007	0,053
-370,015	29,337	-0,069	-0,043
-369,000	463,406	-0,077	-0,126
-367,985	15,589	-0,077	0,044
-366,971	-200,000	-0,017	-0,123
-365,956	321,113	0,096	-0,134
-364,942	127,627	0,059	-0,054
-363,927	800,000	0,071	0,174
-362,912	-200,000	0,017	0,086
-361,898	276,905	0,023	-0,029
-360,883	302,381	-0,102	-0,138
-359,869	60,047	0,063	0,045
-358,854	-67,930	-0,089	0,025
-357,839	-200,000	-0,029	-0,177
-356,825	-200,000	-0,002	0,109
-355,810	-165,062	0,078	0,002
-354,796	-34,975	-0,135	-0,053
-353,781	455,640	-0,040	-0,065
-352,766	206,814	-0,022	-0,026
-351,752	189,225	-0,071	0,077
-350,737	355,429	-0,054	-0,079
-349,723	-200,000	-0,013	0,088
-348,708	-60,058	0,057	0,018
-347,693	-33,164	-0,043	-0,017
-346,679	800,000	0,016	0,036
-345,664	-164,122	-0,157	0,005
-344,650	75,147	0,078	0,060
-343,635	-41,544	0,087	0,032
-342,620	93,550	0,067	0,055
-341,606	79,467	0,104	0,081
-340,591	-62,427	-0,125	0,038
-339,577	-200,000	-0,006	-0,044
-338,562	38,737	0,053	0,034
-337,548	-92,441	0,022	-0,005
-336,533	800,000	0,020	-0,046
-335,518	-200,000	0,005	-0,029
-334,504	-104,578	0,154	0,026
-333,489	-92,066	0,016	0,003
-332,475	-200,000	0,012	-0,100
-331,460	-200,000	-0,014	-0,083
-330,445	218,503	0,069	-0,081
-329,431	453,398	-0,023	0,037
-328,416	-200,000	-0,029	0,119
-327,402	-13,815	0,154	-0,072
-326,387	-16,133	0,128	0,059
-325,372	-200,000	-0,045	-0,145
-324,358	386,477	-0,056	-0,084
-323,343	-14,041	0,035	-0,016
-322,329	-200,000	0,013	-0,062
-321,314	800,000	0,041	-0,121
-320,299	591,799	-0,056	-0,100
-319,285	-97,401	-0,126	0,024
-318,270	800,000	-0,041	-0,106
-317,256	705,871	-0,023	-0,044
-316,241	-200,000	-0,020	0,079
-315,226	-1,020	0,042	0,021
-314,212	-200,000	0,020	0,079
-313,197	-200,000	0,048	0,204
-312,183	189,014	0,012	-0,013
-311,168	-171,940	-0,145	-0,003
-310,153	157,990	0,027	-0,027
-309,139	398,833	-0,044	-0,066
-308,124	231,139	0,098	0,117
-307,110	-200,000	0,029	0,146
-306,095	40,997	0,085	0,055
-305,080	-133,285	-0,043	0,004
-304,066	42,278	-0,077	-0,051
-303,051	-6,747	-0,089	-0,044
-302,037	-200,000	-0,037	0,135
-301,022	-200,000	0,007	0,028
-300,008	91,779	0,035	0,028
-298,993	-200,000	-0,016	-0,167
-297,978	-183,615	0,185	0,002
-296,964	41,111	-0,150	-0,098
-295,949	800,000	-0,027	-0,073
-294,935	-200,000	0,001	-0,006
-293,920	287,014	0,098	-0,129
-292,905	-200,000	0,005	-0,104
-291,891	230,591	0,059	0,070
-290,876	69,375	0,019	-0,014
-289,862	-200,000	-0,022	-0,087
-288,847	-200,000	-0,006	-0,129
-287,832	1,402	-0,089	-0,046
-286,818	-200,000	0,042	0,164
-285,803	800,000	-0,053	-0,145
-284,789	-200,000	0,032	0,115
-283,774	-200,000	-0,012	0,088
-282,759	-200,000	-0,014	0,064
-281,745	800,000	0,041	-0,097
-280,730	132,636	-0,101	-0,094
-279,716	-0,840	-0,124	0,063
-278,701	15,288	0,097	0,055
-277,686	-45,767	0,231	0,082
-276,672	-200,000	-0,013	0,062
-275,657	800,000	0,070	0,174
-274,643	-200,000	0,003	0,026
-273,628	100,563	-0,118	-0,099
-272,613	-112,575	0,111	0,016
-271,599	-200,000	0,000	0,040
-270,584	126,699	0,034	-0,031
-269,570	800,000	0,057	0,133
-268,555	53,207	-0,007	-0,005
-267,540	566,386	0,047	0,084
-266,526	-99,362	-0,101	-0,018
-265,511	200,320	0,079	-0,088
-264,497	534,057	0,038	0,065
-263,482	415,225	0,056	0,087
-262,467	37,187	0,090	0,058
-261,453	-121,930	-0,078	-0,009
-260,438	172,090	0,037	-0,038
-259,424	-200,000	-0,005	0,049
-258,409	-83,472	0,047	-0,011
-257,395	-36,244	-0,026	0,010
-256,380	-200,000	0,051	0,186
-255,365	261,518	-0,103	0,130
-254,351	-200,000	0,039	0,146
-253,336	207,917	-0,038	0,043
-252,322	2,227	-0,146	-0,076
-251,307	-200,000	0,031	-0,119
-250,292	-200,000	-0,008	-0,077
-249,278	254,290	0,069	-0,085
-248,263	-139,943	0,030	-0,002
-247,249	-63,776	0,171	0,050
-246,234	-66,509	-0,059	0,017
-245,219	-33,930	-0,052	-0,021
-244,205	2,638	-0,045	0,023
-243,190	-98,418	-0,049	-0,009
-242,176	176,147	-0,025	-0,026
-241,161	800,000	0,062	0,132
-240,146	15,755	-0,144	0,082
-239,132	-57,062	-0,048	0,015
-238,117	-52,811	-0,181	-0,060
-237,103	135,798	-0,062	-0,058
-236,088	-200,000	0,009	-0,090
-235,073	-200,000	-0,021	0,141
-234,059	800,000	0,024	-0,076
-233,044	-200,000	0,007	0,039
-232,030	25,863	-0,102	-0,061
-231,015	98,481	-0,092	0,077
-230,000	-9,932	-0,090	-0,043
-228,986	800,000	-0,011	0,028
-227,971	-200,000	-0,012	0,089
-226,957	-145,530	0,165	0,011
-225,942	-128,956	0,025	0,002
-224,927	781,753	0,029	-0,059
-223,913	800,000	0,022	0,065
-222,898	-35,476	0,031	0,012
-221,884	-200,000	0,039	-0,207
-220,869	-8,620	0,125	-0,061
-219,855	800,000	0,071	0,177
-218,840	-200,000	-0,006	0,018
-217,825	214,830	0,073	0,083
-216,811	-45,234	0,047	-0,017
-215,796	-200,000	0,021	-0,109
-214,782	-6,927	-0,103	0,051
-213,767	-200,000	-0,004	0,036
-212,752	800,000	0,051	0,141
-211,738	-89,369	-0,127	0,027
-210,723	-149,401	0,197	0,011
-209,709	109,330	-0,108	0,093
-208,694	551,048	0,036	0,062
-207,679	-160,920	-0,107	0,004
-206,665	-200,000	0,008	-0,031
-205,650	170,044	0,019	0,020
-204,636	800,000	0,021	0,066
-203,621	-200,000	-0,005	0,146
-202,606	800,000	-0,051	-0,138
-201,592	267,181	-0,045	0,056
-200,577	-200,000	0,009	0,060
-199,563	-200,000	0,018	0,081
-198,548	-150,024	0,207	-0,011
-197,533	800,000	0,023	-0,060
-196,519	20,371	0,053	0,031
-195,504	65,344	-0,049	-0,036
-194,490	-140,834	-0,212	-0,016
-193,475	345,890	-0,053	0,075
-192,460	516,784	-0,010	0,017
-191,446	-56,213	-0,121	0,039
-190,431	-200,000	0,025	0,098
-189,417	800,000	0,017	-0,035
-188,402	-63,060	-0,156	-0,046
-187,387	98,238	-0,150	-0,124
-186,373	-45,300	0,047	0,017
-185,358	-69,755	-0,044	0,012
-184,344	800,000	-0,019	0,038
-183,329	9,564	-0,118	0,064
-182,315	-113,802	-0,100	0,014
-181,300	54,307	0,034	-0,023
-180,285	800,000	-0,025	-0,054
-179,271	41,149	0,057	0,037
-178,256	-57,861	-0,107	0,033
-177,242	437,000	-0,033	0,051
-176,227	41,112	0,121	0,079
-175,212	800,000	0,026	0,074
-174,198	-121,151	0,077	0,009
-173,183	-33,838	0,059	0,024
-172,169	-200,000	-0,010	-0,144
-171,154	-32,781	-0,094	0,038
-170,139	800,000	0,017	0,051
-169,125	345,765	0,010	0,015
-168,110	-107,854	0,063	-0,010
-167,096	800,000	0,008	0,024
-166,081	70,777	0,054	-0,040
-165,066	-200,000	-0,005	-0,016
-164,052	-87,002	0,083	-0,018
-163,037	-144,648	0,210	-0,014
-162,023	8,686	-0,087	0,047
-161,008	637,032	0,033	0,061
-159,993	-129,905	0,103	-0,010
-158,979	800,000	0,052	-0,109
-157,964	-7,409	0,104	0,051
-156,950	-129,259	0,182	0,018
-155,935	326,564	0,049	-0,068
-154,920	-200,000	-0,016	-0,128
-153,906	51,044	0,023	0,016
-152,891	-108,713	0,067	-0,010
-151,877	-200,000	-0,002	-0,012
-150,862	-200,000	-0,019	-0,065
-149,847	-60,326	0,137	0,042
-148,833	642,994	0,068	-0,126
-147,818	-200,000	0,010	0,126
-146,804	138,739	0,112	0,106
-145,789	800,000	-0,014	0,028
-144,775	141,746	0,099	0,094
-143,760	800,000	0,026	0,078
-142,745	-200,000	0,024	-0,131
-141,731	-200,000	-0,031	0,178
-140,716	-200,000	-0,041	0,133
-139,702	13,407	0,198	0,110
-138,687	43,168	-0,075	0,049
-137,672	-200,000	0,028	-0,119
-136,658	800,000	0,030	0,084
-135,643	249,769	0,012	-0,015
-134,629	-200,000	-0,011	-0,142
-133,614	129,811	0,047	0,043
-132,599	260,700	-0,096	0,119
-131,585	-200,000	-0,002	0,090
-130,570	-134,215	-0,086	0,008
-129,556	291,984	-0,074	0,098
-128,541	-200,000	-0,002	0,028
-127,526	187,451	-0,074	-0,080
-126,512	800,000	-0,019	0,048
-125,497	-200,000	-0,009	-0,088
-124,483	-129,524	0,124	0,012
-123,468	800,000	0,021	0,041
-122,453	-106,053	0,071	-0,011
-121,439	-43,163	0,084	0,031
-120,424	718,878	0,041	-0,079
-119,410	67,021	0,072	-0,053
-118,395	533,831	0,061	-0,104
