DTS Sentinel unit serial number:	SN410029Multiplexer serial number:	ORYXHardware model number:	OX2-SRSoftware version number:	ORYX F/W v4,00 Oryx Data Collector v3.7.2.0data status	okinstallation	B5 Nyhavnadifferential loss correction	single-endedforward channel	channel 2reverse channel	N/Adate	2023/12/14time	12:22:13forward acquisition time	300,00reverse acquisition time	0,00gamma	499,1914k internal	0,3158k external	0,3158temperature offset calibration	1,0000default loss term (dB/km)	0,3820temperature slope calibration	1,0000multiplexer offset coefficient	1,0000multiplexer slope coefficient	1,0000fibre end	0,00T internal ref (°C)	7,76T ext. ref 1 (°C)	-7,71T ext. ref 2 (°C)	-7,76length (m)	temperature (°C)	Stokes	anti-Stokes-744,400	800,000	-0,034	0,078
-743,385	-121,349	-0,244	0,030
-742,371	-79,718	0,230	0,057
-741,356	-128,340	-0,359	-0,037
-740,342	245,506	0,152	0,189
-739,327	-43,513	-0,282	-0,104
-738,312	-130,147	0,137	0,014
-737,298	-102,397	-0,322	-0,056
-736,283	-29,695	0,197	0,082
-735,269	-150,868	-0,248	-0,014
-734,254	776,821	0,077	0,157
-733,239	9,002	-0,491	-0,272
-732,225	7,048	0,149	0,081
-731,210	561,592	0,070	0,125
-730,196	169,959	0,107	0,113
-729,181	-89,280	-0,042	-0,009
-728,167	274,386	0,030	0,039
-727,152	8,150	-0,124	-0,068
-726,137	175,498	-0,116	0,124
-725,123	800,000	0,010	0,027
-724,108	123,478	-0,094	-0,086
-723,094	211,660	-0,069	-0,080
-722,079	-200,000	-0,046	-0,149
-721,064	20,523	0,065	0,039
-720,050	340,611	-0,133	-0,192
-719,035	-200,000	0,000	-0,050
-718,021	-46,825	-0,064	0,023
-717,006	103,563	0,053	-0,046
-715,991	-15,986	-0,189	-0,088
-714,977	800,000	-0,026	-0,082
-713,962	567,337	-0,035	-0,063
-712,948	-200,000	0,020	0,076
-711,933	-125,833	0,074	-0,008
-710,918	-200,000	0,030	0,119
-709,904	-200,000	-0,014	-0,075
-708,889	-49,909	0,101	-0,035
-707,875	18,068	-0,107	-0,063
-706,860	17,573	-0,075	-0,044
-705,845	4,305	-0,101	-0,054
-704,831	800,000	0,052	0,110
-703,816	-14,446	-0,069	0,033
-702,802	-200,000	-0,032	-0,127
-701,787	338,772	-0,033	-0,047
-700,772	-14,498	0,195	0,092
-699,758	74,174	0,028	0,021
-698,743	-200,000	-0,006	-0,054
-697,729	-105,497	-0,036	0,006
-696,714	107,328	-0,042	0,037
-695,699	382,928	-0,034	0,052
-694,685	-200,000	-0,036	-0,157
-693,670	-200,000	0,019	-0,100
-692,656	800,000	-0,039	-0,119
-691,641	800,000	0,020	-0,047
-690,627	800,000	-0,003	-0,010
-689,612	-200,000	0,031	0,124
-688,597	-200,000	0,021	0,084
-687,583	185,631	-0,045	-0,049
-686,568	-68,496	-0,201	-0,057
-685,554	-10,653	0,129	-0,062
-684,539	-54,272	0,096	0,032
-683,524	192,092	0,041	-0,045
-682,510	146,021	-0,042	0,041
-681,495	101,511	-0,124	-0,106
-680,481	-200,000	0,016	-0,078
-679,466	-200,000	-0,034	-0,130
-678,451	-128,558	0,088	0,009
-677,437	800,000	-0,054	0,149
-676,422	-200,000	0,001	0,156
-675,408	-182,067	0,019	-0,000
-674,393	164,366	-0,039	-0,040
-673,378	83,987	0,051	0,041
-672,364	-194,811	-0,113	0,001
-671,349	800,000	-0,052	-0,133
-670,335	464,184	-0,016	0,026
-669,320	744,604	-0,076	0,152
-668,305	356,731	0,089	0,131
-667,291	-200,000	-0,000	-0,082
-666,276	-200,000	0,031	0,147
-665,262	590,545	0,016	0,028
-664,247	419,883	-0,046	0,072
-663,232	776,042	0,079	-0,160
-662,218	96,612	0,127	0,107
-661,203	19,787	-0,030	0,018
-660,189	159,954	-0,015	-0,015
-659,174	532,008	-0,106	-0,184
-658,159	-200,000	0,003	-0,153
-657,145	239,695	-0,153	-0,187
-656,130	47,362	0,181	-0,124
-655,116	-45,550	-0,050	0,018
-654,101	800,000	0,076	0,207
-653,086	9,236	-0,086	-0,048
-652,072	32,504	0,138	-0,088
-651,057	73,596	-0,049	-0,037
-650,043	-200,000	-0,007	-0,025
-649,028	159,467	0,036	-0,037
-648,014	205,293	-0,012	-0,014
-646,999	122,038	0,072	0,066
-645,984	800,000	0,058	-0,154
-644,970	-200,000	-0,004	-0,064
-643,955	-48,414	0,073	0,026
-642,941	-63,145	0,040	-0,012
-641,926	-11,932	-0,070	-0,034
-640,911	-200,000	0,022	-0,100
-639,897	-88,886	0,068	-0,015
-638,882	184,368	-0,043	-0,046
-637,868	-24,030	-0,113	-0,049
-636,853	-45,019	-0,199	-0,072
-635,838	-56,708	-0,129	-0,042
-634,824	-111,715	0,168	0,025
-633,809	-8,711	0,133	-0,065
-632,795	76,883	0,026	0,020
-631,780	-183,393	0,071	-0,001
-630,765	451,349	0,018	-0,029
-629,751	-200,000	0,019	0,116
-628,736	338,287	-0,019	-0,028
-627,722	800,000	-0,036	-0,089
-626,707	800,000	0,032	0,067
-625,692	-78,845	0,088	0,022
-624,678	-200,000	0,005	0,020
-623,663	-200,000	-0,006	-0,086
-622,649	-143,988	-0,207	-0,014
-621,634	-83,064	-0,096	0,023
-620,619	800,000	0,052	-0,112
-619,605	-29,047	0,046	-0,019
-618,590	-200,000	-0,019	0,097
-617,576	800,000	-0,046	-0,101
-616,561	746,472	-0,086	0,171
-615,546	-200,000	0,007	-0,056
-614,532	395,522	-0,072	-0,111
-613,517	-101,792	0,080	0,014
-612,503	175,698	0,028	0,030
-611,488	240,196	-0,118	0,144
-610,474	207,183	-0,094	-0,107
-609,459	-200,000	-0,001	0,076
-608,444	-200,000	0,013	-0,067
-607,430	-200,000	0,003	-0,010
-606,415	-78,619	-0,061	-0,015
-605,401	62,324	-0,057	0,042
-604,386	571,448	0,021	0,038
-603,371	21,664	-0,064	-0,038
-602,357	36,911	0,025	0,016
-601,342	-104,713	-0,082	0,014
-600,328	-200,000	-0,009	-0,128
-599,313	-200,000	-0,022	0,126
-598,298	11,779	-0,095	-0,054
-597,284	-38,876	0,084	0,032
-596,269	127,613	-0,094	-0,088
-595,255	32,100	0,047	0,030
-594,240	-200,000	0,012	-0,098
-593,225	800,000	-0,044	-0,131
-592,211	-43,039	-0,206	0,076
-591,196	194,842	-0,031	-0,034
-590,182	-200,000	0,005	0,147
-589,167	151,147	0,107	0,107
-588,152	800,000	-0,023	0,053
-587,138	-109,331	-0,052	-0,008
-586,123	231,133	-0,120	-0,145
-585,109	-200,000	0,014	0,054
-584,094	800,000	-0,009	-0,027
-583,079	95,848	0,046	-0,039
-582,065	-58,985	-0,024	0,007
-581,050	-200,000	0,032	0,113
-580,036	-109,587	-0,185	-0,028
-579,021	-87,924	-0,188	0,041
-578,006	-200,000	-0,003	0,016
-576,992	-72,196	-0,008	-0,002
-575,977	-34,370	0,131	-0,052
-574,963	-200,000	-0,020	0,084
-573,948	-94,198	-0,085	0,017
-572,934	-162,944	0,069	-0,002
-571,919	77,913	-0,055	-0,043
-570,904	-200,000	0,001	-0,155
-569,890	800,000	-0,021	-0,046
-568,875	800,000	-0,036	0,074
-567,861	-64,351	0,087	-0,026
-566,846	-200,000	0,016	0,000
-565,831	-200,000	0,004	0,058
-564,817	-200,000	-0,015	-0,103
-563,802	-200,000	-0,040	-0,275
-562,788	5,469	-0,172	-0,093
-561,773	275,267	0,055	0,071
-560,758	-174,254	0,043	-0,001
-559,744	392,397	-0,066	0,101
-558,729	580,493	-0,017	0,030
-557,715	146,240	0,026	0,025
-556,700	309,778	-0,065	0,089
-555,685	-200,000	0,001	0,086
-554,671	-69,263	0,074	-0,021
-553,656	-101,587	0,202	-0,036
-552,642	-75,256	-0,022	0,006
-551,627	95,030	-0,068	0,057
-550,612	306,743	-0,041	0,056
-549,598	-29,423	-0,022	-0,009
-548,583	538,904	-0,079	-0,138
-547,569	-110,135	-0,053	0,008
-546,554	-200,000	-0,007	-0,103
-545,539	-200,000	0,013	-0,109
-544,525	110,634	-0,073	0,064
-543,510	-24,140	0,010	0,004
-542,496	219,905	-0,024	0,028
-541,481	191,834	-0,076	-0,084
-540,466	-45,771	0,095	0,034
-539,452	800,000	-0,009	-0,024
-538,437	-64,220	0,081	0,024
-537,423	1,764	-0,064	0,034
-536,408	-200,000	0,021	0,105
-535,393	133,580	-0,080	0,075
-534,379	193,172	-0,107	0,119
-533,364	-200,000	0,045	-0,155
-532,350	-85,383	-0,074	-0,017
-531,335	25,941	0,102	0,062
-530,321	299,848	0,072	0,097
-529,306	442,412	0,042	-0,068
-528,291	-47,502	-0,151	-0,053
-527,277	800,000	-0,038	0,105
-526,262	-54,242	-0,035	-0,012
-525,248	-200,000	0,014	-0,067
-524,233	281,349	-0,066	0,087
-523,218	-2,096	0,083	-0,043
-522,204	-90,353	0,027	-0,006
-521,189	476,635	-0,027	-0,045
-520,175	316,412	0,057	-0,079
-519,160	-69,435	-0,069	-0,019
-518,145	25,160	-0,055	-0,033
-517,131	-76,899	0,013	-0,003
-516,116	-166,443	0,137	-0,004
-515,102	429,876	0,048	0,077
-514,087	-200,000	0,003	-0,076
-513,072	351,647	-0,042	0,062
-512,058	-18,070	-0,065	-0,030
-511,043	800,000	-0,071	-0,152
-510,029	302,489	0,021	0,029
-509,014	800,000	0,046	-0,107
-507,999	-120,856	-0,117	-0,014
-506,985	311,040	-0,025	0,034
-505,970	-200,000	0,026	-0,121
-504,956	800,000	-0,018	0,040
-503,941	-186,066	-0,132	0,001
-502,926	359,419	0,069	0,100
-501,912	-141,826	0,030	-0,002
-500,897	0,004	-0,057	-0,029
-499,883	-50,748	0,027	0,009
-498,868	-130,806	0,072	-0,007
-497,853	-66,341	-0,073	0,021
-496,839	-171,257	0,078	-0,002
-495,824	-116,642	0,033	-0,004
-494,810	291,438	-0,040	-0,053
-493,795	733,519	-0,070	0,137
-492,781	177,697	0,077	-0,082
-491,766	266,293	0,030	0,038
-490,751	157,971	-0,113	-0,114
-489,737	-200,000	0,010	-0,136
-488,722	19,565	0,062	-0,036
-487,708	-200,000	0,016	-0,072
-486,693	8,893	-0,040	-0,022
-485,678	50,252	-0,103	0,071
-484,664	-57,344	0,121	0,039
-483,649	-86,209	-0,028	-0,006
-482,635	-200,000	-0,005	0,124
-481,620	785,821	-0,021	0,043
-480,605	9,649	0,128	-0,071
-479,591	193,207	-0,066	0,073
-478,576	85,383	0,082	-0,066
-477,562	105,477	0,073	-0,063
-476,547	100,732	-0,066	0,056
-475,532	747,623	-0,034	0,068
-474,518	-200,000	0,000	-0,006
-473,503	-200,000	0,015	0,062
-472,489	-49,344	-0,066	0,023
-471,474	-19,188	-0,020	-0,009
-470,459	-200,000	-0,008	-0,049
-469,445	445,856	0,059	-0,094
-468,430	290,889	-0,050	-0,066
-467,416	426,163	0,085	0,134
-466,401	116,269	-0,044	-0,039
-465,386	-200,000	0,018	0,100
-464,372	-103,046	-0,173	-0,030
-463,357	-158,309	0,055	-0,002
-462,343	34,899	-0,113	0,072
-461,328	800,000	-0,018	-0,041
-460,313	-9,771	0,098	0,047
-459,299	769,577	0,067	0,134
-458,284	436,212	0,062	0,099
-457,270	-51,318	-0,016	0,005
-456,255	105,317	0,027	-0,024
-455,241	-90,383	-0,095	0,020
-454,226	-88,839	-0,164	0,035
-453,211	-85,229	0,065	0,015
-452,197	204,111	-0,072	0,082
-451,182	507,164	0,042	0,071
-450,168	333,353	0,057	-0,080
-449,153	170,411	-0,040	-0,042
-448,138	749,222	-0,069	-0,136
-447,124	44,401	-0,102	-0,068
-446,109	646,705	0,044	-0,082
-445,095	-200,000	-0,004	0,030
-444,080	-37,886	-0,058	0,023
-443,065	183,511	0,041	0,044
-442,051	-200,000	-0,032	-0,104
-441,036	800,000	-0,011	0,032
-440,022	190,282	-0,018	0,020
-439,007	-171,376	0,013	0,000
-437,992	35,037	0,035	-0,022
-436,978	-200,000	0,034	0,142
-435,963	-200,000	0,020	-0,098
-434,949	800,000	-0,024	0,073
-433,934	276,212	-0,037	-0,048
-432,919	512,462	0,032	-0,055
-431,905	-200,000	0,018	0,134
-430,890	128,682	-0,017	0,015
-429,876	-200,000	-0,007	0,044
-428,861	-200,000	0,012	0,124
-427,846	69,262	0,070	0,053
-426,832	-83,937	0,124	-0,028
-425,817	800,000	0,033	0,083
-424,803	-37,455	0,080	-0,031
-423,788	800,000	-0,065	0,147
-422,773	231,844	-0,051	-0,061
-421,759	112,495	-0,071	0,063
-420,744	-200,000	0,000	0,170
-419,730	114,564	-0,119	0,106
-418,715	-171,519	0,063	0,001
-417,701	358,728	-0,060	-0,088
-416,686	7,200	0,046	0,025
-415,671	800,000	-0,046	0,130
-414,657	-200,000	0,022	0,109
-413,642	-45,611	0,125	-0,045
-412,628	-159,850	-0,096	0,004
-411,613	237,641	-0,085	-0,103
-410,598	-47,734	-0,119	-0,042
-409,584	452,012	0,035	0,056
-408,569	-106,156	-0,129	0,021
-407,555	158,477	-0,083	-0,083
-406,540	-200,000	0,010	0,044
-405,525	-109,559	0,037	-0,006
-404,511	119,040	0,079	-0,071
-403,496	-107,941	0,135	-0,021
-402,482	-80,335	0,121	-0,029
-401,467	46,424	0,139	0,094
-400,452	596,496	0,030	-0,054
-399,438	-38,238	-0,064	0,024
-398,423	670,419	-0,016	0,030
-397,409	112,896	0,104	-0,092
-396,394	-200,000	-0,008	0,056
-395,379	43,520	0,129	-0,085
-394,365	-147,379	0,103	0,006
-393,350	306,778	0,098	-0,133
-392,336	233,508	0,033	-0,039
-391,321	42,486	-0,054	0,036
-390,306	87,180	-0,101	-0,081
-389,292	800,000	-0,021	-0,043
-388,277	-200,000	0,008	0,031
-387,263	76,066	0,049	0,037
-386,248	129,894	-0,040	0,037
-385,233	132,092	-0,052	0,049
-384,219	111,269	0,019	0,017
-383,204	160,985	-0,009	0,009
-382,190	-77,124	-0,035	-0,009
-381,175	800,000	0,057	-0,147
-380,160	12,798	0,020	0,011
-379,146	10,783	0,205	0,113
-378,131	-108,406	0,194	0,030
-377,117	-91,161	-0,206	-0,042
-376,102	-66,565	-0,040	-0,011
-375,088	-175,115	-0,042	0,001
-374,073	-200,000	0,005	-0,035
-373,058	800,000	-0,039	0,093
-372,044	38,020	-0,136	0,088
-371,029	15,950	0,115	-0,065
-370,015	-25,052	-0,080	-0,034
-369,000	363,241	0,043	-0,062
-367,985	-157,907	-0,061	0,003
-366,971	69,833	-0,114	0,086
-365,956	42,362	0,086	-0,056
-364,942	800,000	-0,021	0,043
-363,927	-89,781	-0,051	0,011
-362,912	-101,551	0,068	0,012
-361,898	800,000	-0,017	-0,047
-360,883	800,000	-0,041	-0,084
-359,869	185,626	0,073	-0,079
-358,854	329,277	-0,079	0,111
-357,839	-104,659	0,116	0,019
-356,825	-145,352	-0,089	-0,006
-355,810	800,000	-0,046	0,135
-354,796	-171,277	0,175	0,004
-353,781	118,092	-0,033	0,029
-352,766	-200,000	0,001	-0,050
-351,752	800,000	0,042	-0,085
-350,737	-91,374	0,089	0,018
-349,723	-74,002	-0,113	0,029
-348,708	-132,989	0,029	0,003
-347,693	800,000	-0,008	0,024
-346,679	-75,932	0,096	0,025
-345,664	174,994	-0,067	-0,071
-344,650	166,759	0,110	0,114
-343,635	41,659	0,062	0,041
-342,620	441,217	0,055	0,088
-341,606	-60,582	-0,025	-0,008
-340,591	-200,000	-0,037	-0,134
-339,577	-200,000	-0,010	-0,191
-338,562	-200,000	0,003	0,044
-337,548	483,767	0,019	-0,031
-336,533	-26,532	0,054	0,023
-335,518	-92,615	0,097	-0,020
-334,504	123,873	0,060	0,054
-333,489	78,861	-0,067	0,052
-332,475	-200,000	0,016	0,087
-331,460	259,708	0,063	-0,079
-330,445	-14,332	0,159	0,074
-329,431	800,000	0,043	0,108
-328,416	-74,662	0,044	-0,011
-327,402	311,830	0,045	0,062
-326,387	191,444	-0,040	0,043
-325,372	800,000	-0,040	0,080
-324,358	-200,000	-0,006	-0,082
-323,343	326,941	-0,043	0,060
-322,329	-200,000	-0,010	-0,050
-321,314	204,027	-0,051	-0,057
-320,299	248,055	-0,064	-0,079
-319,285	-200,000	-0,000	0,078
-318,270	-115,523	-0,046	-0,006
-317,256	-108,778	-0,067	0,010
-316,241	-200,000	0,004	-0,023
-315,226	-26,000	0,105	-0,044
-314,212	-200,000	0,032	0,121
-313,197	800,000	0,028	0,058
-312,183	324,802	0,031	-0,043
-311,168	-59,452	0,072	0,022
-310,153	743,678	0,071	-0,139
-309,139	-121,973	0,035	-0,004
-308,124	1,843	0,156	0,081
-307,110	155,641	0,099	-0,099
-306,095	158,356	0,016	0,016
-305,080	800,000	0,042	-0,133
-304,066	123,577	-0,041	0,037
-303,051	-200,000	-0,000	0,002
-302,037	18,819	-0,072	0,042
-301,022	63,762	0,092	0,067
-300,008	-46,296	0,184	-0,065
-298,993	800,000	0,028	0,086
-297,978	-200,000	-0,027	-0,139
-296,964	325,672	-0,084	-0,116
-295,949	234,917	-0,165	-0,197
-294,935	800,000	0,022	-0,053
-293,920	-65,175	-0,032	-0,009
-292,905	-200,000	-0,010	0,152
-291,891	-200,000	-0,009	0,228
-290,876	177,548	0,036	-0,038
-289,862	800,000	-0,034	0,071
-288,847	6,269	-0,122	0,065
-287,832	-200,000	0,008	-0,129
-286,818	198,929	0,067	-0,075
-285,803	-92,701	-0,018	0,004
-284,789	393,511	0,068	0,103
-283,774	800,000	0,051	0,140
-282,759	159,956	-0,094	-0,095
-281,745	-74,882	0,055	-0,014
-280,730	186,915	0,066	-0,071
-279,716	-200,000	-0,009	0,053
-278,701	-200,000	-0,008	-0,067
-277,686	136,713	0,127	0,120
-276,672	105,868	-0,132	0,113
-275,657	800,000	-0,044	-0,111
-274,643	800,000	-0,060	-0,121
-273,628	232,346	-0,085	-0,101
-272,613	11,263	0,052	0,029
-271,599	-92,681	0,095	0,019
-270,584	212,621	-0,015	-0,018
-269,570	549,493	0,066	0,115
-268,555	419,615	-0,086	-0,134
-267,540	8,717	0,105	0,057
-266,526	-200,000	-0,003	-0,153
-265,511	82,531	-0,048	-0,038
-264,497	-111,591	0,086	-0,013
-263,482	540,157	0,039	-0,068
-262,467	-154,051	0,044	0,002
-261,453	52,042	0,128	0,088
-260,438	-67,761	0,047	-0,013
-259,424	-200,000	0,035	0,123
-258,409	303,121	-0,130	-0,175
-257,395	67,591	0,046	0,034
-256,380	329,320	0,009	-0,012
-255,365	-29,780	0,104	-0,043
-254,351	674,657	0,075	-0,141
-253,336	111,880	0,126	-0,110
-252,322	-8,243	-0,135	0,065
-251,307	476,953	0,053	0,087
-250,292	48,366	0,071	0,048
-249,278	800,000	-0,022	-0,054
-248,263	-200,000	0,008	0,059
-247,249	-55,453	0,029	0,009
-246,234	596,732	0,033	-0,060
-245,219	475,300	-0,062	-0,101
-244,205	550,183	-0,052	0,090
-243,190	800,000	-0,052	0,141
-242,176	199,352	0,019	0,021
-241,161	800,000	-0,031	0,092
-240,146	-162,267	-0,082	0,003
-239,132	81,700	0,021	0,016
-238,117	234,068	-0,039	-0,046
-237,103	201,028	-0,040	-0,045
-236,088	-48,522	0,117	-0,040
-235,073	-174,884	0,139	0,003
-234,059	114,377	0,015	0,013
-233,044	46,998	-0,053	0,036
-232,030	-200,000	0,035	0,168
-231,015	386,129	0,006	-0,009
-230,000	800,000	-0,033	-0,079
-228,986	252,644	0,094	0,116
-227,971	49,438	0,036	-0,025
-226,957	45,964	-0,024	-0,016
-225,942	-51,020	0,071	-0,024
-224,927	800,000	-0,046	0,110
-223,913	228,710	0,093	-0,110
-222,898	300,263	-0,033	-0,044
-221,884	-200,000	0,003	-0,143
-220,869	-30,701	0,112	0,046
-219,855	-156,847	0,094	0,004
-218,840	-1,134	0,103	-0,053
-217,825	-137,399	-0,066	-0,005
-216,811	-90,884	-0,181	-0,037
-215,796	-73,182	0,051	0,013
-214,782	-200,000	0,004	0,102
-213,767	-200,000	-0,013	-0,125
-212,752	-200,000	-0,009	0,060
-211,738	-129,288	-0,077	0,008
-210,723	-88,239	-0,049	-0,011
-209,709	-200,000	0,001	0,002
-208,694	28,315	-0,108	-0,066
-207,679	-200,000	0,014	0,096
-206,665	-200,000	0,003	0,098
-205,650	81,292	-0,056	0,043
-204,636	800,000	-0,014	-0,039
-203,621	629,912	-0,060	-0,110
-202,606	3,253	-0,118	-0,062
-201,592	61,684	0,091	-0,066
-200,577	425,479	-0,042	-0,066
-199,563	180,684	-0,047	-0,050
-198,548	21,789	0,114	-0,067
-197,533	-200,000	0,017	0,085
-196,519	223,694	0,025	0,029
-195,504	800,000	0,043	0,123
-194,490	56,050	-0,083	-0,058
-193,475	127,929	0,088	-0,081
-192,460	-200,000	0,017	0,135
-191,446	800,000	0,031	0,088
-190,431	122,794	-0,056	0,051
-189,417	151,895	-0,075	0,074
-188,402	-200,000	-0,001	0,072
-187,387	63,325	0,071	-0,051
-186,373	800,000	0,028	-0,067
-185,358	-200,000	-0,001	-0,008
-184,344	-200,000	-0,004	-0,031
-183,329	-45,936	0,072	0,026
-182,315	-200,000	-0,003	0,047
-181,300	196,027	0,062	-0,068
-180,285	-8,512	-0,058	-0,028
-179,271	-51,788	-0,114	-0,038
-178,256	73,908	0,040	-0,030
-177,242	-0,145	0,133	-0,068
-176,227	800,000	0,033	0,081
-175,212	-106,113	-0,070	-0,011
-174,198	152,276	0,085	0,084
-173,183	-163,730	-0,046	-0,002
-172,169	-200,000	0,023	-0,152
-171,154	800,000	-0,024	-0,066
-170,139	-72,866	-0,109	0,029
-169,125	102,380	0,152	0,128
-168,110	-200,000	0,017	0,053
-167,096	800,000	-0,009	0,018
-166,081	16,047	-0,078	0,044
-165,066	800,000	0,002	0,005
-164,052	80,145	-0,053	0,041
-163,037	302,440	0,041	0,054
-162,023	208,258	0,025	0,028
-161,008	126,230	0,098	0,089
-159,993	327,649	0,094	0,131
-158,979	-200,000	-0,001	0,007
-157,964	-68,936	-0,145	-0,040
-156,950	155,341	0,042	-0,041
-155,935	650,464	-0,048	0,088
-154,920	-200,000	0,001	-0,012
-153,906	-200,000	-0,021	0,076
-152,891	-114,228	-0,169	-0,023
-151,877	-200,000	-0,001	0,020
-150,862	798,054	-0,037	-0,074
-149,847	-155,226	0,140	0,006
-148,833	-73,362	-0,090	-0,023
-147,818	800,000	-0,025	-0,074
-146,804	-200,000	0,041	0,154
-145,789	-200,000	0,002	0,122
-144,775	94,422	0,083	0,067
-143,760	477,102	0,079	-0,129
-142,745	309,972	-0,048	-0,065
-141,731	176,773	-0,018	-0,019
-140,716	800,000	0,071	0,165
-139,702	-34,447	0,040	-0,016
-138,687	379,100	0,043	0,063
-137,672	685,715	-0,011	0,020
-136,658	-4,449	0,060	0,030
-135,643	-82,015	-0,052	-0,012
-134,629	-136,405	0,093	-0,008
-133,614	-35,986	-0,109	-0,042
-132,599	-158,539	0,121	0,005
-131,585	800,000	-0,017	0,037
-130,570	-200,000	0,013	0,054
-129,556	786,621	0,026	0,051
-128,541	136,844	0,071	-0,066
-127,526	-200,000	-0,002	-0,024
-126,512	269,849	0,080	-0,102
-125,497	91,030	0,145	0,117
-124,483	104,260	-0,041	0,035
-123,468	249,985	-0,049	-0,060
-122,453	256,337	0,108	-0,134
-121,439	424,574	-0,079	-0,122
-120,424	-118,410	-0,055	0,007
-119,410	188,993	0,121	0,130
-118,395	-67,586	0,067	0,019
