DTS Sentinel unit serial number:	SN410029Multiplexer serial number:	ORYXHardware model number:	OX2-SRSoftware version number:	ORYX F/W v4,00 Oryx Data Collector v3.7.2.0data status	okinstallation	B5 Nyhavnadifferential loss correction	single-endedforward channel	channel 2reverse channel	N/Adate	2023/12/13time	00:22:13forward acquisition time	300,00reverse acquisition time	0,00gamma	499,1914k internal	0,3159k external	0,3159temperature offset calibration	1,0000default loss term (dB/km)	0,3820temperature slope calibration	1,0000multiplexer offset coefficient	1,0000multiplexer slope coefficient	1,0000fibre end	0,00T internal ref (°C)	14,30T ext. ref 1 (°C)	-2,23T ext. ref 2 (°C)	-2,55length (m)	temperature (°C)	Stokes	anti-Stokes-744,400	-5,793	0,113	0,057
-743,385	-171,042	-0,289	0,007
-742,371	-140,862	0,225	0,017
-741,356	-25,608	-0,184	0,080
-740,342	-200,000	0,035	0,151
-739,327	-95,430	-0,355	-0,070
-738,312	-64,458	0,077	-0,023
-737,298	-71,845	-0,181	-0,049
-736,283	-200,000	0,017	-0,091
-735,269	-66,254	-0,244	0,071
-734,254	-151,160	0,243	-0,013
-733,239	-77,667	-0,427	-0,108
-732,225	61,819	0,181	0,133
-731,210	-200,000	-0,009	0,042
-730,196	104,670	-0,035	0,030
-729,181	-200,000	0,004	0,023
-728,167	-70,255	-0,038	-0,010
-727,152	-92,826	0,110	-0,022
-726,137	-200,000	-0,031	-0,102
-725,123	800,000	0,008	0,024
-724,108	800,000	-0,041	-0,131
-723,094	800,000	-0,022	-0,065
-722,079	44,271	-0,164	-0,111
-721,064	15,721	0,067	-0,039
-720,050	-200,000	0,001	0,040
-719,035	-61,229	-0,109	-0,034
-718,021	74,683	0,077	-0,059
-717,006	19,304	-0,171	-0,101
-715,991	800,000	-0,050	-0,152
-714,977	-200,000	-0,015	-0,105
-713,962	158,960	0,065	-0,067
-712,948	-28,445	-0,102	-0,043
-711,933	-200,000	-0,008	-0,143
-710,918	-152,572	-0,137	-0,007
-709,904	176,184	-0,087	0,094
-708,889	-180,647	-0,121	-0,002
-707,875	3,481	-0,066	-0,036
-706,860	-200,000	-0,032	-0,141
-705,845	366,545	0,088	-0,131
-704,831	192,907	0,158	-0,176
-703,816	-200,000	0,009	0,109
-702,802	-200,000	0,028	0,103
-701,787	497,220	-0,064	-0,109
-700,772	-62,336	0,179	-0,054
-699,758	114,442	0,090	-0,081
-698,743	-200,000	-0,006	0,084
-697,729	258,607	-0,057	-0,073
-696,714	-92,983	-0,032	0,007
-695,699	389,133	-0,051	-0,078
-694,685	205,403	-0,015	0,017
-693,670	-35,237	-0,117	-0,046
-692,656	-189,980	-0,007	0,000
-691,641	-200,000	0,007	0,063
-690,627	-57,612	-0,056	-0,018
-689,612	-200,000	0,013	-0,121
-688,597	143,478	-0,037	0,037
-687,583	50,091	-0,060	0,042
-686,568	-19,311	-0,048	0,022
-685,554	220,007	-0,091	-0,107
-684,539	-20,751	-0,089	0,040
-683,524	-15,528	0,098	-0,046
-682,510	-64,784	-0,039	0,012
-681,495	193,627	-0,098	0,109
-680,481	800,000	-0,044	-0,121
-679,466	-200,000	-0,008	-0,265
-678,451	-200,000	0,019	-0,063
-677,437	117,634	-0,147	0,133
-676,422	-200,000	0,019	0,093
-675,408	-200,000	0,005	0,060
-674,393	800,000	-0,026	-0,068
-673,378	84,708	0,017	-0,014
-672,364	-36,940	-0,056	-0,022
-671,349	-200,000	-0,001	0,043
-670,335	18,397	0,079	0,046
-669,320	-200,000	0,007	-0,059
-668,305	72,257	-0,047	0,036
-667,291	-16,806	-0,069	0,032
-666,276	-147,312	-0,198	-0,012
-665,262	150,168	-0,059	-0,059
-664,247	214,149	-0,103	-0,120
-663,232	-200,000	-0,024	-0,080
-662,218	-14,723	0,089	-0,042
-661,203	-112,419	0,054	-0,008
-660,189	14,487	-0,018	0,011
-659,174	392,726	-0,076	-0,117
-658,159	800,000	0,021	0,052
-657,145	330,050	0,078	-0,110
-656,130	236,051	-0,090	-0,109
-655,116	751,694	-0,081	0,162
-654,101	800,000	-0,035	0,079
-653,086	156,347	-0,126	0,128
-652,072	206,887	-0,062	-0,071
-651,057	716,718	-0,010	0,019
-650,043	-200,000	-0,003	-0,042
-649,028	119,380	0,052	0,047
-648,014	-165,184	0,124	-0,004
-646,999	800,000	-0,031	0,068
-645,984	-54,749	-0,010	-0,003
-644,970	-200,000	0,016	-0,087
-643,955	-81,243	-0,165	0,040
-642,941	-200,000	0,006	-0,144
-641,926	-92,123	-0,092	-0,019
-640,911	450,780	0,106	-0,172
-639,897	58,189	0,101	-0,073
-638,882	186,067	-0,058	-0,063
-637,868	31,621	-0,095	0,060
-636,853	-58,939	-0,144	0,045
-635,838	34,356	0,082	-0,052
-634,824	161,231	0,086	0,088
-633,809	-200,000	0,020	0,099
-632,795	-39,162	0,109	0,042
-631,780	106,391	-0,161	0,140
-630,765	732,310	-0,029	-0,058
-629,751	-60,114	0,044	0,014
-628,736	273,832	-0,038	-0,049
-627,722	-200,000	-0,038	-0,176
-626,707	405,959	-0,042	-0,065
-625,692	-200,000	0,007	0,168
-624,678	-169,959	-0,046	0,001
-623,663	221,221	-0,068	0,081
-622,649	-200,000	-0,016	-0,071
-621,634	96,830	0,080	-0,067
-620,619	-71,237	0,029	0,008
-619,605	-200,000	-0,001	0,171
-618,590	407,360	-0,041	0,064
-617,576	-200,000	-0,013	-0,067
-616,561	-14,622	-0,075	0,035
-615,546	-200,000	-0,018	-0,061
-614,532	176,454	-0,014	-0,015
-613,517	429,125	-0,058	0,092
-612,503	-200,000	-0,008	-0,125
-611,488	-200,000	0,001	-0,043
-610,474	285,544	0,024	0,032
-609,459	-200,000	-0,008	0,062
-608,444	-184,031	-0,136	-0,002
-607,430	-200,000	0,003	0,038
-606,415	-200,000	0,008	-0,046
-605,401	137,264	0,053	-0,051
-604,386	409,806	0,022	-0,035
-603,371	30,205	0,048	-0,030
-602,357	246,382	-0,013	-0,016
-601,342	-200,000	0,004	-0,064
-600,328	-200,000	-0,037	0,154
-599,313	-92,904	-0,038	0,008
-598,298	-200,000	0,024	-0,122
-597,284	187,161	0,089	0,097
-596,269	-200,000	0,014	0,046
-595,255	-200,000	0,016	0,054
-594,240	553,104	0,020	0,035
-593,225	-200,000	-0,026	-0,093
-592,211	800,000	-0,014	-0,038
-591,196	-79,441	0,126	0,031
-590,182	-15,288	-0,022	0,010
-589,167	10,181	0,108	-0,060
-588,152	80,211	0,086	-0,067
-587,138	269,574	-0,071	-0,091
-586,123	120,471	0,159	-0,145
-585,109	-200,000	-0,013	-0,083
-584,094	225,189	0,042	-0,049
-583,079	-96,290	0,067	-0,013
-582,065	735,906	-0,037	-0,072
-581,050	-74,599	-0,108	0,028
-580,036	-160,832	-0,094	0,004
-579,021	517,623	0,038	-0,065
-578,006	-200,000	-0,023	-0,078
-576,992	-200,000	-0,010	-0,168
-575,977	179,470	0,144	-0,155
-574,963	96,225	0,091	0,076
-573,948	-50,665	0,016	0,006
-572,934	-169,551	-0,027	-0,001
-571,919	-122,538	-0,100	0,012
-570,904	190,759	-0,051	-0,056
-569,890	-200,000	0,015	-0,102
-568,875	-3,612	0,080	0,040
-567,861	800,000	0,033	-0,070
-566,846	283,616	0,073	0,097
-565,831	216,180	-0,059	-0,069
-564,817	281,368	-0,048	-0,063
-563,802	49,581	-0,145	0,100
-562,788	-200,000	0,004	0,210
-561,773	340,002	0,052	-0,074
-560,758	238,700	0,040	0,048
-559,744	145,608	0,088	0,087
-558,729	20,292	0,129	0,076
-557,715	400,434	-0,090	-0,139
-556,700	-94,320	-0,139	-0,028
-555,685	452,072	0,009	-0,015
-554,671	-62,037	0,017	0,005
-553,656	393,067	0,036	-0,056
-552,642	-200,000	-0,002	0,057
-551,627	386,638	0,021	0,031
-550,612	689,918	-0,026	-0,050
-549,598	455,205	0,038	-0,061
-548,583	-200,000	-0,003	0,030
-547,569	-200,000	0,002	0,060
-546,554	328,001	0,075	-0,106
-545,539	510,428	-0,021	0,036
-544,525	-0,081	-0,053	0,027
-543,510	-126,135	-0,084	-0,009
-542,496	-200,000	0,009	-0,094
-541,481	102,705	-0,061	-0,053
-540,466	-176,132	-0,123	-0,002
-539,452	-99,049	0,142	-0,026
-538,437	470,437	0,029	0,049
-537,423	800,000	-0,104	0,230
-536,408	-200,000	-0,011	-0,069
-535,393	227,034	-0,063	-0,075
-534,379	-41,046	0,146	-0,055
-533,364	-200,000	0,027	-0,132
-532,350	800,000	0,015	-0,043
-531,335	-200,000	-0,014	0,058
-530,321	-106,061	0,097	0,016
-529,306	-24,408	0,059	0,026
-528,291	334,510	-0,061	-0,087
-527,277	150,717	0,046	-0,045
-526,262	166,610	0,073	0,076
-525,248	53,813	0,067	-0,047
-524,233	-200,000	-0,007	-0,038
-523,218	345,859	-0,038	-0,055
-522,204	-200,000	0,027	-0,107
-521,189	61,760	-0,063	0,045
-520,175	-200,000	0,000	-0,007
-519,160	386,620	-0,051	0,078
-518,145	-27,454	-0,117	0,049
-517,131	181,982	-0,093	-0,101
-516,116	148,937	0,046	0,046
-515,102	401,132	-0,041	0,063
-514,087	380,766	0,061	0,092
-513,072	800,000	-0,023	-0,052
-512,058	415,966	-0,027	-0,042
-511,043	-200,000	-0,003	-0,064
-510,029	-1,439	0,082	0,042
-509,014	60,675	0,082	0,060
-507,999	800,000	-0,021	0,063
-506,985	536,842	0,022	-0,039
-505,970	124,826	-0,093	-0,085
-504,956	-90,697	-0,081	-0,017
-503,941	39,910	0,040	-0,026
-502,926	800,000	-0,047	0,100
-501,912	800,000	-0,030	0,070
-500,897	100,240	0,054	-0,046
-499,883	-200,000	-0,002	-0,064
-498,868	800,000	0,044	-0,113
-497,853	250,105	-0,087	-0,108
-496,839	800,000	-0,066	0,139
-495,824	435,437	0,080	0,128
-494,810	590,225	0,039	0,071
-493,795	-200,000	-0,018	0,184
-492,781	-83,192	-0,119	-0,028
-491,766	-46,544	0,078	-0,028
-490,751	-200,000	0,014	0,213
-489,737	-19,457	0,082	-0,037
-488,722	405,707	-0,083	-0,128
-487,708	501,118	0,081	0,137
-486,693	-116,905	0,181	-0,024
-485,678	692,099	-0,066	-0,127
-484,664	-200,000	-0,012	-0,081
-483,649	-170,715	-0,090	0,002
-482,635	-125,748	-0,159	0,017
-481,620	800,000	0,101	0,205
-480,605	4,693	-0,110	-0,059
-479,591	588,797	-0,045	-0,080
-478,576	78,008	-0,057	0,045
-477,562	605,700	-0,033	0,060
-476,547	487,597	-0,074	-0,124
-475,532	800,000	0,039	-0,104
-474,518	101,904	0,008	0,007
-473,503	-200,000	-0,004	0,073
-472,489	-200,000	0,033	0,128
-471,474	-15,589	-0,165	0,077
-470,459	331,755	0,039	0,055
-469,445	67,746	-0,099	-0,074
-468,430	8,327	-0,245	0,134
-467,416	55,346	-0,059	0,041
-466,401	40,291	-0,029	-0,019
-465,386	800,000	-0,029	0,072
-464,372	800,000	-0,030	-0,067
-463,357	800,000	-0,036	-0,077
-462,343	99,281	0,031	0,026
-461,328	-200,000	0,014	-0,062
-460,313	-87,127	-0,020	0,004
-459,299	-103,597	0,148	0,025
-458,284	800,000	0,051	0,128
-457,270	800,000	-0,020	-0,062
-456,255	-51,316	0,058	0,020
-455,241	-33,974	-0,063	-0,025
-454,226	766,066	-0,030	0,059
-453,211	-200,000	-0,025	0,119
-452,197	121,385	-0,027	0,025
-451,182	-98,626	0,081	-0,015
-450,168	482,822	0,043	0,071
-449,153	32,404	-0,039	-0,024
-448,138	25,853	-0,093	-0,056
-447,124	128,026	0,084	0,078
-446,109	800,000	-0,032	-0,087
-445,095	201,271	0,112	-0,126
-444,080	32,675	-0,082	-0,052
-443,065	155,345	-0,034	0,034
-442,051	379,356	0,076	0,114
-441,036	146,180	0,063	-0,062
-440,022	-26,210	0,042	0,018
-439,007	800,000	-0,028	-0,057
-437,992	313,899	0,095	-0,130
-436,978	234,500	-0,092	0,110
-435,963	31,319	0,072	0,045
-434,949	194,555	0,048	-0,053
-433,934	-200,000	0,003	0,156
-432,919	800,000	-0,014	0,036
-431,905	-200,000	-0,021	0,092
-430,890	-3,984	0,044	0,022
-429,876	-200,000	0,007	0,099
-428,861	-42,978	0,071	-0,026
-427,846	-26,817	0,054	0,023
-426,832	-133,352	-0,179	0,016
-425,817	-124,104	0,098	0,011
-424,803	-58,382	0,153	-0,048
-423,788	169,678	0,088	0,091
-422,773	-53,563	0,103	0,034
-421,759	671,708	0,084	-0,160
-420,744	277,947	-0,079	0,102
-419,730	222,120	0,052	-0,061
-418,715	621,295	0,015	-0,028
-417,701	-200,000	0,025	0,081
-416,686	-44,117	0,148	-0,054
-415,671	800,000	-0,027	0,072
-414,657	-200,000	-0,017	0,123
-413,642	321,729	-0,112	-0,155
-412,628	-131,773	0,059	-0,006
-411,613	800,000	0,056	0,144
-410,598	-95,472	0,175	0,034
-409,584	-200,000	0,039	0,174
-408,569	800,000	-0,025	-0,072
-407,555	9,386	0,088	0,048
-406,540	550,061	0,011	-0,020
-405,525	-200,000	0,008	-0,042
-404,511	-49,585	-0,128	-0,044
-403,496	540,135	0,020	0,035
-402,482	312,053	0,051	-0,070
-401,467	-33,564	0,034	0,014
-400,452	-142,872	0,140	-0,010
-399,438	179,660	-0,076	-0,081
-398,423	-200,000	-0,004	-0,153
-397,409	62,552	0,010	0,007
-396,394	800,000	0,029	-0,075
-395,379	-163,082	0,116	-0,004
-394,365	186,000	-0,039	-0,043
-393,350	-107,475	-0,085	-0,013
-392,336	-200,000	0,013	0,213
-391,321	-200,000	0,008	0,084
-390,306	800,000	-0,040	-0,085
-389,292	253,557	0,014	-0,018
-388,277	165,968	-0,040	-0,041
-387,263	-200,000	0,004	0,073
-386,248	77,935	0,033	0,026
-385,233	-200,000	0,006	0,118
-384,219	17,885	0,086	0,049
-383,204	248,653	-0,042	0,051
-382,190	60,658	-0,041	-0,029
-381,175	-38,570	0,034	0,013
-380,160	-200,000	-0,006	0,036
-379,146	171,723	0,035	-0,036
-378,131	-63,198	-0,092	0,027
-377,117	36,128	0,034	-0,021
-376,102	-141,619	0,050	-0,004
-375,088	165,449	-0,069	-0,071
-374,073	-2,808	-0,031	-0,016
-373,058	-93,152	0,013	0,003
-372,044	-84,214	-0,052	0,012
-371,029	342,633	-0,003	0,004
-370,015	-57,588	-0,083	-0,026
-369,000	358,777	0,074	-0,107
-367,985	673,248	0,008	-0,014
-366,971	98,954	0,021	-0,018
-365,956	-65,086	0,033	0,010
-364,942	12,665	-0,021	0,012
-363,927	-200,000	-0,019	0,160
-362,912	-118,267	-0,077	0,010
-361,898	-200,000	0,023	0,109
-360,883	44,591	-0,062	0,041
-359,869	800,000	0,024	-0,073
-358,854	-200,000	0,026	-0,091
-357,839	-151,475	-0,036	0,002
-356,825	290,191	0,065	0,086
-355,810	34,666	0,040	-0,026
-354,796	-200,000	-0,006	-0,052
-353,781	-200,000	-0,003	-0,056
-352,766	610,497	-0,032	0,058
-351,752	800,000	0,071	-0,157
-350,737	-165,330	0,110	0,003
-349,723	133,221	0,078	0,074
-348,708	-19,404	-0,038	0,017
-347,693	-103,479	-0,119	0,020
-346,679	-69,041	-0,062	-0,017
-345,664	-200,000	0,008	0,104
-344,650	374,078	0,058	0,086
-343,635	-67,246	0,128	0,036
-342,620	800,000	0,019	-0,046
-341,606	-200,000	-0,007	0,078
-340,591	800,000	-0,018	-0,052
-339,577	-200,000	0,024	-0,094
-338,562	-61,717	0,042	-0,013
-337,548	800,000	-0,024	-0,061
-336,533	661,746	-0,054	0,102
-335,518	158,436	-0,044	0,045
-334,504	-200,000	0,012	0,068
-333,489	262,571	-0,074	0,093
-332,475	800,000	-0,039	0,114
-331,460	101,433	0,049	-0,041
-330,445	-103,491	-0,056	-0,009
-329,431	274,095	0,069	0,089
-328,416	-38,201	0,156	0,060
-327,402	-103,297	-0,062	-0,010
-326,387	-164,560	0,087	0,003
-325,372	440,585	0,072	0,115
-324,358	-200,000	-0,016	0,087
-323,343	256,515	0,065	0,081
-322,329	-200,000	-0,004	-0,015
-321,314	-89,625	0,060	-0,013
-320,299	800,000	-0,089	0,186
-319,285	-23,456	-0,122	-0,053
-318,270	-200,000	-0,042	-0,192
-317,256	800,000	-0,031	0,074
-316,241	-187,511	-0,104	-0,001
-315,226	-200,000	0,019	0,070
-314,212	-31,972	0,126	0,051
-313,197	-108,376	0,128	0,020
-312,183	-142,052	-0,132	-0,009
-311,168	-67,589	-0,110	-0,031
-310,153	-200,000	0,004	-0,056
-309,139	-200,000	-0,021	0,161
-308,124	-200,000	0,020	0,067
-307,110	-200,000	-0,023	0,093
-306,095	40,534	-0,046	-0,030
-305,080	800,000	-0,021	0,062
-304,066	220,115	-0,034	0,039
-303,051	800,000	0,029	0,067
-302,037	602,476	-0,076	-0,137
-301,022	-95,741	0,129	0,025
-300,008	-105,652	-0,026	-0,004
-298,993	-200,000	-0,008	-0,128
-297,978	97,452	-0,078	0,065
-296,964	54,911	-0,108	-0,075
-295,949	-77,691	0,016	0,004
-294,935	-200,000	-0,019	-0,107
-293,920	404,793	-0,011	-0,016
-292,905	-200,000	0,010	0,055
-291,891	800,000	0,061	-0,122
-290,876	-84,036	0,007	-0,002
-289,862	272,448	-0,053	0,068
-288,847	71,251	0,050	-0,038
-287,832	-200,000	0,026	-0,106
-286,818	91,926	-0,059	0,048
-285,803	124,496	0,034	0,031
-284,789	337,330	-0,053	-0,075
-283,774	-200,000	-0,004	-0,037
-282,759	-45,546	0,202	0,072
-281,745	-15,759	-0,071	0,033
-280,730	-114,613	-0,191	-0,026
-279,716	429,130	-0,014	-0,022
-278,701	-175,007	0,172	0,003
-277,686	-3,022	0,085	-0,043
-276,672	-200,000	-0,003	-0,135
-275,657	800,000	0,027	-0,081
-274,643	265,158	-0,047	0,060
-273,628	45,128	0,129	0,086
-272,613	311,181	0,062	0,085
-271,599	-200,000	0,013	0,123
-270,584	-24,443	0,026	0,011
-269,570	-200,000	0,040	0,144
-268,555	800,000	-0,034	-0,070
-267,540	26,104	-0,037	-0,022
-266,526	51,949	0,147	-0,101
-265,511	-38,987	-0,169	-0,064
-264,497	272,069	0,057	-0,072
-263,482	-200,000	0,024	0,107
-262,467	-200,000	0,013	0,112
-261,453	338,532	0,064	-0,091
-260,438	671,642	0,028	0,053
-259,424	-129,277	-0,142	-0,014
-258,409	-116,007	-0,088	0,012
-257,395	800,000	-0,020	-0,052
-256,380	242,809	-0,030	-0,036
-255,365	-120,850	0,125	-0,015
-254,351	72,573	-0,043	-0,032
-253,336	-37,158	-0,107	-0,041
-252,322	800,000	-0,056	-0,125
-251,307	-20,791	0,193	-0,085
-250,292	-200,000	0,013	0,113
-249,278	369,880	0,050	-0,073
-248,263	-200,000	0,026	-0,115
-247,249	20,127	0,078	-0,045
-246,234	-68,137	0,109	0,031
-245,219	-49,458	-0,119	-0,041
-244,205	-200,000	-0,027	-0,089
-243,190	-114,634	-0,116	-0,016
-242,176	74,635	-0,137	0,104
-241,161	-10,785	0,143	0,068
-240,146	542,965	-0,121	-0,210
-239,132	-137,625	0,149	0,012
-238,117	-200,000	-0,002	-0,032
-237,103	218,737	0,015	-0,017
-236,088	-200,000	-0,008	-0,171
-235,073	121,661	0,069	0,063
-234,059	-200,000	0,031	-0,119
-233,044	30,659	-0,104	0,064
-232,030	121,694	-0,068	0,061
-231,015	800,000	-0,023	-0,067
-230,000	577,097	0,087	-0,155
-228,986	-200,000	-0,016	0,113
-227,971	800,000	0,099	0,201
-226,957	-23,756	0,126	0,054
-225,942	800,000	-0,080	0,165
-224,927	15,746	0,081	0,046
-223,913	-84,787	-0,089	-0,020
-222,898	146,070	-0,072	0,069
-221,884	536,750	-0,029	-0,050
-220,869	-31,825	-0,069	0,028
-219,855	-200,000	-0,011	0,057
-218,840	320,816	0,070	0,096
-217,825	332,479	0,055	-0,077
-216,811	472,624	0,044	-0,072
-215,796	160,519	-0,105	0,106
-214,782	141,332	-0,130	-0,125
-213,767	118,466	-0,020	-0,018
-212,752	478,123	0,133	0,218
-211,738	181,918	-0,128	0,136
-210,723	-47,274	-0,172	-0,060
-209,709	277,457	-0,042	-0,055
-208,694	59,259	-0,119	-0,084
-207,679	111,010	-0,044	-0,038
-206,665	-200,000	0,053	-0,172
-205,650	567,306	0,080	-0,141
-204,636	-12,866	-0,126	0,059
-203,621	-200,000	0,048	-0,184
-202,606	-200,000	-0,027	-0,146
-201,592	-200,000	-0,029	-0,185
-200,577	358,341	0,021	0,030
-199,563	46,487	0,013	0,008
-198,548	30,206	0,091	-0,056
-197,533	213,305	-0,040	0,046
-196,519	-40,928	0,189	-0,070
-195,504	90,772	-0,107	-0,086
-194,490	31,124	0,030	0,018
-193,475	111,516	-0,130	-0,113
-192,460	110,408	0,060	-0,052
-191,446	-115,259	0,077	0,010
-190,431	-30,598	0,184	0,075
-189,417	-20,004	-0,111	0,049
-188,402	800,000	-0,049	0,120
-187,387	183,179	-0,073	0,078
-186,373	-200,000	0,013	0,049
-185,358	-200,000	-0,004	0,065
-184,344	-49,144	-0,029	-0,010
-183,329	-200,000	-0,013	0,066
-182,315	-200,000	0,013	0,076
-181,300	-140,921	0,129	-0,009
-180,285	800,000	-0,041	-0,112
-179,271	720,792	-0,030	-0,058
-178,256	-200,000	0,015	-0,145
-177,242	-200,000	0,008	0,053
-176,227	300,678	0,074	0,098
-175,212	-200,000	-0,019	0,146
-174,198	126,912	-0,035	-0,032
-173,183	-200,000	0,012	-0,102
-172,169	168,201	-0,079	0,081
-171,154	800,000	-0,074	-0,208
-170,139	-124,673	0,123	-0,014
-169,125	-200,000	0,002	0,142
-168,110	325,048	0,063	0,087
-167,096	-200,000	-0,004	0,062
-166,081	-200,000	0,013	-0,050
-165,066	-200,000	-0,013	-0,161
-164,052	29,860	-0,047	-0,029
-163,037	253,636	-0,071	0,088
-162,023	-200,000	0,018	0,097
-161,008	800,000	0,056	0,148
-159,993	409,711	-0,078	-0,119
-158,979	800,000	0,029	0,059
-157,964	130,798	-0,076	0,070
-156,950	-200,000	-0,014	-0,197
-155,935	-200,000	0,029	0,106
-154,920	-101,914	-0,103	-0,018
-153,906	-60,976	-0,046	-0,014
-152,891	-126,619	-0,107	0,011
-151,877	334,713	0,074	-0,104
-150,862	766,744	-0,091	-0,179
-149,847	800,000	-0,036	-0,104
-148,833	-39,297	-0,096	0,036
-147,818	593,247	-0,087	0,155
-146,804	-200,000	-0,024	0,116
-145,789	800,000	-0,028	-0,075
-144,775	800,000	0,035	0,089
-143,760	-200,000	0,002	0,014
-142,745	-27,586	0,074	0,031
-141,731	133,150	0,009	0,008
-140,716	-62,097	-0,149	0,044
-139,702	16,209	-0,025	0,014
-138,687	313,809	-0,061	-0,083
-137,672	-200,000	-0,010	0,056
-136,658	-200,000	-0,003	-0,074
-135,643	800,000	-0,049	0,105
-134,629	-200,000	-0,006	0,053
-133,614	-112,712	0,010	0,001
-132,599	-85,065	0,013	-0,003
-131,585	-95,034	0,102	-0,020
-130,570	-139,896	0,199	-0,015
-129,556	347,463	0,018	-0,025
-128,541	-200,000	0,011	-0,192
-127,526	-200,000	-0,001	-0,094
-126,512	-93,945	0,091	0,018
-125,497	-200,000	-0,027	0,098
-124,483	-200,000	0,021	0,235
-123,468	236,789	-0,090	-0,107
-122,453	-45,664	-0,170	-0,060
-121,439	313,194	0,049	-0,067
