DTS Sentinel unit serial number:	SN410029Multiplexer serial number:	ORYXHardware model number:	OX2-SRSoftware version number:	ORYX F/W v4,00 Oryx Data Collector v3.7.2.0data status	okinstallation	B5 Nyhavnadifferential loss correction	single-endedforward channel	channel 2reverse channel	N/Adate	2023/12/12time	00:57:13forward acquisition time	300,00reverse acquisition time	0,00gamma	499,1914k internal	0,3156k external	0,3156temperature offset calibration	1,0000default loss term (dB/km)	0,3820temperature slope calibration	1,0000multiplexer offset coefficient	1,0000multiplexer slope coefficient	1,0000fibre end	0,00T internal ref (°C)	16,01T ext. ref 1 (°C)	-0,41T ext. ref 2 (°C)	-0,69length (m)	temperature (°C)	Stokes	anti-Stokes-744,400	-200,000	0,013	-0,045
-743,385	-116,616	-0,303	0,041
-742,371	-70,003	0,140	0,039
-741,356	39,227	-0,276	0,182
-740,342	-200,000	0,016	0,060
-739,327	-50,488	-0,256	0,089
-738,312	-159,998	0,094	0,004
-737,298	-13,046	-0,221	0,105
-736,283	37,980	0,166	0,109
-735,269	-35,878	-0,165	0,065
-734,254	-7,880	0,059	-0,029
-733,239	-55,573	-0,454	-0,149
-732,225	-37,344	0,085	-0,033
-731,210	-200,000	-0,013	0,120
-730,196	-23,477	-0,077	0,034
-729,181	472,807	0,084	-0,141
-728,167	583,721	0,050	-0,091
-727,152	263,140	-0,044	0,056
-726,137	670,318	-0,049	-0,093
-725,123	800,000	0,022	-0,048
-724,108	-200,000	0,016	-0,165
-723,094	28,142	-0,022	0,013
-722,079	-36,601	-0,040	-0,016
-721,064	-20,558	0,036	-0,016
-720,050	141,581	-0,047	-0,046
-719,035	800,000	-0,059	-0,151
-718,021	800,000	0,026	-0,059
-717,006	-157,229	-0,056	-0,002
-715,991	183,536	-0,107	-0,117
-714,977	39,338	0,043	0,028
-713,962	-200,000	0,002	-0,011
-712,948	21,655	-0,061	-0,036
-711,933	800,000	0,058	-0,162
-710,918	-177,608	-0,159	-0,003
-709,904	299,265	-0,044	-0,059
-708,889	148,768	0,027	0,027
-707,875	-52,471	-0,066	0,022
-706,860	199,558	0,058	0,066
-705,845	9,263	0,023	-0,013
-704,831	64,369	0,096	-0,071
-703,816	219,948	-0,082	0,097
-702,802	126,960	0,062	0,058
-701,787	-20,746	-0,099	-0,045
-700,772	-140,945	-0,037	-0,003
-699,758	44,440	0,091	-0,061
-698,743	-56,722	-0,047	-0,015
-697,729	-10,520	-0,099	-0,048
-696,714	-174,303	-0,103	-0,002
-695,699	-25,887	-0,046	0,020
-694,685	-70,155	-0,094	-0,026
-693,670	-200,000	-0,008	-0,126
-692,656	-200,000	-0,030	-0,134
-691,641	800,000	-0,046	0,126
-690,627	-117,166	0,141	0,019
-689,612	-200,000	0,025	0,106
-688,597	-152,169	-0,192	0,010
-687,583	-200,000	-0,007	-0,154
-686,568	-96,554	-0,085	-0,016
-685,554	158,400	0,035	-0,036
-684,539	301,392	0,038	0,052
-683,524	-28,263	-0,012	0,005
-682,510	267,993	0,107	0,139
-681,495	-129,254	-0,052	-0,005
-680,481	-200,000	0,001	0,044
-679,466	-160,366	-0,099	0,004
-678,451	-197,762	-0,121	-0,001
-677,437	177,200	0,068	0,072
-676,422	-70,931	-0,042	0,012
-675,408	560,519	0,048	-0,086
-674,393	302,116	-0,025	0,034
-673,378	800,000	-0,023	-0,063
-672,364	20,346	-0,130	-0,077
-671,349	-165,701	0,050	-0,002
-670,335	-200,000	-0,018	0,161
-669,320	216,183	0,069	-0,081
-668,305	-166,805	-0,138	-0,004
-667,291	-200,000	-0,021	0,115
-666,276	-200,000	-0,035	-0,136
-665,262	-200,000	-0,039	-0,141
-664,247	291,658	-0,088	-0,118
-663,232	76,190	-0,102	-0,080
-662,218	-61,011	0,080	0,025
-661,203	-76,448	0,118	0,030
-660,189	-90,595	-0,057	0,012
-659,174	-200,000	-0,004	-0,050
-658,159	132,040	-0,138	0,131
-657,145	-200,000	-0,013	-0,072
-656,130	777,141	-0,060	0,122
-655,116	606,514	0,069	0,127
-654,101	800,000	0,034	-0,084
-653,086	31,672	-0,152	0,096
-652,072	-150,339	-0,093	0,005
-651,057	-200,000	-0,023	-0,148
-650,043	89,909	-0,083	-0,068
-649,028	-169,923	-0,082	0,002
-648,014	-20,592	0,079	0,036
-646,999	-200,000	-0,008	0,062
-645,984	-14,918	-0,069	0,032
-644,970	4,075	0,068	-0,037
-643,955	665,711	-0,023	-0,044
-642,941	50,928	-0,089	0,062
-641,926	800,000	-0,024	-0,061
-640,911	9,908	-0,064	0,035
-639,897	-25,216	0,083	-0,036
-638,882	-200,000	-0,007	-0,131
-637,868	-14,834	-0,072	-0,034
-636,853	-179,293	-0,174	0,003
-635,838	176,088	-0,099	-0,105
-634,824	49,324	-0,081	0,056
-633,809	-87,182	-0,094	-0,021
-632,795	37,767	-0,084	-0,055
-631,780	40,760	0,056	-0,037
-630,765	-48,857	0,107	0,038
-629,751	223,334	0,042	-0,049
-628,736	221,576	0,075	-0,088
-627,722	239,571	-0,088	-0,108
-626,707	73,086	0,063	0,048
-625,692	-200,000	0,005	0,016
-624,678	-200,000	0,021	0,158
-623,663	-200,000	0,001	-0,011
-622,649	302,924	-0,025	0,034
-621,634	-6,960	0,042	-0,021
-620,619	39,349	0,086	0,056
-619,605	29,366	0,098	-0,061
-618,590	-200,000	0,014	0,130
-617,576	-43,353	0,073	0,027
-616,561	-200,000	0,037	-0,146
-615,546	420,785	-0,067	-0,106
-614,532	-200,000	0,002	-0,051
-613,517	800,000	-0,011	-0,025
-612,503	173,909	-0,049	-0,052
-611,488	143,007	0,019	-0,019
-610,474	75,264	-0,054	0,042
-609,459	-200,000	0,044	0,182
-608,444	-127,334	-0,093	-0,010
-607,430	-200,000	-0,001	-0,109
-606,415	-4,200	-0,112	-0,057
-605,401	-200,000	0,004	0,112
-604,386	149,682	0,039	-0,039
-603,371	320,443	-0,031	0,044
-602,357	-63,460	-0,048	0,014
-601,342	-29,007	-0,132	0,055
-600,328	-110,429	-0,076	-0,011
-599,313	-138,134	-0,182	0,015
-598,298	345,299	0,053	0,076
-597,284	15,110	0,103	0,059
-596,269	-200,000	0,007	0,055
-595,255	-56,626	-0,070	-0,023
-594,240	-200,000	-0,031	-0,101
-593,225	-50,089	-0,102	0,035
-592,211	522,179	0,032	-0,055
-591,196	29,691	0,019	0,012
-590,182	-58,585	0,112	0,035
-589,167	110,199	0,024	-0,021
-588,152	-24,072	0,016	-0,007
-587,138	289,710	0,030	0,041
-586,123	-60,982	-0,057	0,017
-585,109	-200,000	0,003	0,109
-584,094	244,334	0,054	-0,067
-583,079	216,550	0,063	0,074
-582,065	-200,000	0,020	0,099
-581,050	-200,000	0,022	0,169
-580,036	-31,830	-0,070	0,029
-579,021	-200,000	0,002	-0,086
-578,006	-200,000	0,015	-0,075
-576,992	79,724	-0,057	-0,045
-575,977	30,755	0,038	-0,024
-574,963	354,752	-0,085	0,124
-573,948	-46,381	-0,109	0,039
-572,934	-187,853	0,068	-0,001
-571,919	-82,200	-0,093	-0,022
-570,904	41,410	-0,062	-0,041
-569,890	-200,000	0,036	-0,134
-568,875	-124,891	-0,083	0,009
-567,861	-43,846	-0,069	0,025
-566,846	800,000	-0,108	-0,254
-565,831	-200,000	0,006	-0,073
-564,817	-24,677	0,164	0,071
-563,802	118,353	-0,086	-0,077
-562,788	402,894	-0,091	-0,140
-561,773	-77,584	-0,072	-0,018
-560,758	22,886	-0,057	-0,034
-559,744	-161,155	-0,028	0,001
-558,729	113,608	0,052	0,046
-557,715	-103,065	-0,086	0,015
-556,700	-200,000	-0,002	0,041
-555,685	800,000	0,067	0,162
-554,671	-14,977	0,071	0,033
-553,656	9,585	0,078	0,043
-552,642	-81,624	-0,172	-0,041
-551,627	422,499	0,035	0,055
-550,612	348,102	0,007	0,010
-549,598	-115,970	-0,119	-0,016
-548,583	-200,000	-0,001	0,077
-547,569	158,087	0,009	0,009
-546,554	-24,275	0,123	0,054
-545,539	358,353	0,033	0,049
-544,525	-200,000	0,004	0,044
-543,510	33,464	0,051	0,033
-542,496	42,299	-0,087	-0,058
-541,481	169,512	-0,018	-0,019
-540,466	322,378	-0,018	0,025
-539,452	39,453	0,071	0,046
-538,437	112,356	0,045	0,040
-537,423	800,000	-0,017	-0,052
-536,408	-200,000	0,004	-0,106
-535,393	-200,000	0,003	0,016
-534,379	-59,758	-0,111	0,035
-533,364	-54,572	-0,047	-0,015
-532,350	-120,584	0,298	-0,036
-531,335	456,992	-0,027	-0,044
-530,321	-200,000	-0,015	0,063
-529,306	-200,000	-0,012	0,108
-528,291	-119,118	-0,067	-0,008
-527,277	208,080	0,030	0,034
-526,262	217,278	0,070	-0,082
-525,248	800,000	-0,015	0,048
-524,233	23,038	-0,043	-0,025
-523,218	354,692	0,071	0,103
-522,204	800,000	0,075	0,205
-521,189	381,572	-0,058	0,087
-520,175	345,542	-0,020	-0,029
-519,160	-200,000	0,017	-0,121
-518,145	-56,126	0,058	0,019
-517,131	-200,000	0,015	0,121
-516,116	-147,917	0,108	0,006
-515,102	429,404	0,042	0,067
-514,087	-200,000	0,003	-0,061
-513,072	-179,853	-0,116	-0,002
-512,058	40,982	-0,057	-0,038
-511,043	90,859	-0,080	0,066
-510,029	579,039	0,048	-0,086
-509,014	-200,000	0,022	-0,120
-507,999	800,000	0,016	0,036
-506,985	268,796	-0,037	-0,048
-505,970	491,712	-0,081	-0,136
-504,956	-27,853	0,107	-0,045
-503,941	-73,622	0,074	-0,020
-502,926	69,099	0,109	-0,082
-501,912	-87,766	-0,110	0,024
-500,897	-114,181	0,102	0,014
-499,883	12,027	-0,082	0,046
-498,868	196,890	-0,100	-0,111
-497,853	-21,623	0,111	0,049
-496,839	-200,000	0,012	-0,113
-495,824	137,412	0,112	-0,107
-494,810	-29,369	-0,104	0,043
-493,795	-200,000	-0,005	0,029
-492,781	30,828	-0,081	-0,050
-491,766	-68,310	0,124	-0,035
-490,751	-200,000	0,048	-0,159
-489,737	116,567	-0,019	-0,017
-488,722	-25,002	0,105	-0,045
-487,708	800,000	0,066	-0,146
-486,693	-66,041	-0,175	-0,051
-485,678	241,061	-0,141	-0,173
-484,664	-110,191	0,017	0,003
-483,649	-63,590	-0,056	0,017
-482,635	105,537	0,093	-0,080
-481,620	217,288	0,075	0,088
-480,605	474,524	-0,048	-0,079
-479,591	-103,785	0,108	-0,018
-478,576	204,259	-0,014	-0,015
-477,562	540,768	-0,014	0,024
-476,547	-75,394	-0,128	-0,033
-475,532	-200,000	0,018	-0,105
-474,518	800,000	0,018	0,058
-473,503	-39,695	-0,089	0,034
-472,489	-200,000	0,001	0,039
-471,474	800,000	0,043	0,131
-470,459	27,685	-0,108	0,066
-469,445	-115,231	-0,022	-0,003
-468,430	-80,469	-0,117	0,028
-467,416	595,361	0,035	0,064
-466,401	-120,684	0,035	0,004
-465,386	654,600	-0,053	0,099
-464,372	41,252	0,022	0,014
-463,357	-124,828	0,085	0,009
-462,343	800,000	0,018	-0,054
-461,328	800,000	-0,021	0,067
-460,313	-200,000	-0,001	-0,025
-459,299	800,000	0,077	0,156
-458,284	-143,700	-0,077	0,005
-457,270	-111,834	-0,071	-0,010
-456,255	-200,000	0,001	0,077
-455,241	800,000	-0,026	0,075
-454,226	214,383	0,080	0,093
-453,211	-104,127	-0,066	0,011
-452,197	-200,000	-0,023	0,089
-451,182	-35,538	-0,055	0,022
-450,168	-200,000	-0,001	-0,026
-449,153	800,000	-0,039	-0,099
-448,138	800,000	0,032	-0,081
-447,124	-47,690	-0,040	0,014
-446,109	-110,216	-0,119	-0,018
-445,095	5,584	0,036	-0,019
-444,080	272,970	0,018	-0,023
-443,065	696,463	0,041	0,079
-442,051	276,737	-0,039	-0,051
-441,036	17,714	0,101	-0,058
-440,022	-48,581	0,027	0,009
-439,007	102,425	0,091	-0,078
-437,992	-96,555	-0,033	-0,006
-436,978	204,173	-0,045	-0,051
-435,963	-111,676	0,121	0,018
-434,949	102,182	-0,090	0,076
-433,934	123,221	0,032	-0,029
-432,919	140,123	-0,051	-0,049
-431,905	635,774	-0,026	0,048
-430,890	800,000	-0,020	-0,050
-429,876	800,000	-0,028	0,086
-428,861	618,655	0,016	0,029
-427,846	-153,039	0,035	-0,002
-426,832	-200,000	-0,004	0,161
-425,817	454,922	-0,040	-0,065
-424,803	607,654	0,061	-0,111
-423,788	-101,336	0,033	-0,006
-422,773	800,000	-0,032	0,075
-421,759	-17,969	0,095	-0,043
-420,744	-120,853	0,054	0,007
-419,730	-96,242	-0,111	-0,021
-418,715	800,000	0,054	-0,141
-417,701	292,531	0,080	-0,106
-416,686	273,588	0,075	0,096
-415,671	402,842	-0,129	0,199
-414,657	-162,953	0,022	0,001
-413,642	-18,127	0,056	-0,025
-412,628	-200,000	-0,001	0,158
-411,613	56,636	0,064	-0,045
-410,598	409,513	-0,081	0,125
-409,584	-46,789	0,053	-0,019
-408,569	270,889	0,106	0,137
-407,555	-40,626	0,011	0,004
-406,540	-161,078	0,044	0,002
-405,525	-200,000	-0,001	-0,006
-404,511	122,810	-0,061	-0,055
-403,496	345,873	0,051	-0,073
-402,482	-30,256	-0,116	-0,048
-401,467	175,843	0,104	-0,110
-400,452	-143,907	-0,105	-0,007
-399,438	367,937	0,054	-0,080
-398,423	-200,000	-0,020	0,100
-397,409	-9,406	0,008	-0,004
-396,394	-200,000	-0,006	0,021
-395,379	-153,104	0,040	0,002
-394,365	260,156	0,088	-0,111
-393,350	624,205	-0,040	-0,074
-392,336	148,295	0,056	0,055
-391,321	-29,756	-0,029	-0,012
-390,306	614,971	-0,087	0,159
-389,292	-200,000	0,010	-0,083
-388,277	212,019	0,046	0,053
-387,263	800,000	0,024	0,075
-386,248	165,321	0,037	-0,038
-385,233	-200,000	-0,017	0,130
-384,219	11,172	-0,051	0,029
-383,204	-200,000	-0,011	-0,071
-382,190	-200,000	0,013	0,095
-381,175	149,738	0,046	-0,046
-380,160	800,000	0,020	-0,043
-379,146	-88,666	0,071	-0,015
-378,131	625,405	-0,070	0,128
-377,117	-200,000	0,017	0,074
-376,102	-45,148	-0,150	0,054
-375,088	94,161	-0,183	-0,151
-374,073	-200,000	0,003	-0,016
-373,058	-74,132	0,038	0,010
-372,044	-200,000	-0,020	0,117
-371,029	-139,138	0,083	0,006
-370,015	-116,955	0,067	-0,009
-369,000	-133,845	0,126	-0,011
-367,985	351,832	-0,031	-0,045
-366,971	256,753	-0,056	0,070
-365,956	-200,000	0,028	0,108
-364,942	-119,694	0,071	0,009
-363,927	-76,057	0,265	0,067
-362,912	-120,120	0,077	-0,009
-361,898	388,204	0,064	0,096
-360,883	195,529	-0,056	0,062
-359,869	-50,153	0,141	0,048
-358,854	800,000	-0,046	0,139
-357,839	-200,000	0,017	-0,136
-356,825	800,000	-0,053	0,137
-355,810	-200,000	0,023	0,079
-354,796	-141,569	-0,054	-0,004
-353,781	-200,000	0,008	0,137
-352,766	146,670	-0,080	0,078
-351,752	-109,585	-0,026	0,004
-350,737	229,352	0,066	0,078
-349,723	-200,000	0,002	-0,022
-348,708	-200,000	-0,014	-0,050
-347,693	44,373	0,072	0,048
-346,679	-200,000	-0,007	0,029
-345,664	-94,877	-0,079	0,015
-344,650	0,583	0,060	0,031
-343,635	-4,638	-0,109	0,054
-342,620	-110,280	0,150	-0,023
-341,606	124,699	0,105	0,096
-340,591	-200,000	0,013	-0,108
-339,577	91,702	0,049	-0,040
-338,562	-200,000	-0,000	-0,017
-337,548	267,007	-0,057	-0,073
-336,533	52,405	0,084	0,058
-335,518	-181,796	0,105	0,001
-334,504	-134,174	0,020	-0,002
-333,489	765,071	-0,036	-0,072
-332,475	-200,000	-0,003	0,065
-331,460	17,726	-0,056	-0,032
-330,445	-200,000	-0,021	0,117
-329,431	204,147	-0,091	-0,103
-328,416	-200,000	0,013	0,144
-327,402	-200,000	0,002	0,029
-326,387	-200,000	0,034	-0,185
-325,372	107,617	0,041	-0,036
-324,358	-27,941	-0,065	-0,027
-323,343	800,000	0,040	-0,081
-322,329	188,247	0,019	-0,021
-321,314	-200,000	-0,021	0,101
-320,299	301,326	0,085	0,115
-319,285	-84,329	-0,030	-0,007
-318,270	-200,000	-0,003	0,033
-317,256	113,850	0,118	-0,104
-316,241	-200,000	0,017	0,142
-315,226	-9,450	0,055	0,026
-314,212	65,873	0,056	-0,042
-313,197	-19,360	0,104	0,046
-312,183	-33,718	-0,157	-0,062
-311,168	-200,000	0,005	-0,076
-310,153	159,494	0,023	-0,023
-309,139	7,551	-0,068	-0,037
-308,124	654,803	0,037	0,070
-307,110	218,034	0,015	0,017
-306,095	178,993	0,095	0,101
-305,080	137,971	0,061	0,058
-304,066	358,362	-0,059	-0,086
-303,051	89,155	0,029	0,023
-302,037	-175,629	-0,149	-0,003
-301,022	436,129	0,081	0,128
-300,008	800,000	-0,018	0,049
-298,993	800,000	0,037	0,107
-297,978	-10,333	0,078	0,037
-296,964	-131,654	0,075	0,007
-295,949	-97,946	0,052	0,010
-294,935	5,865	-0,143	0,076
-293,920	18,993	-0,081	0,047
-292,905	203,602	0,071	0,080
-291,891	486,930	0,040	-0,067
-290,876	4,179	-0,184	-0,097
-289,862	-21,283	0,045	-0,020
-288,847	-200,000	0,029	-0,134
-287,832	-177,612	-0,054	0,001
-286,818	800,000	-0,022	0,053
-285,803	25,524	0,100	0,060
-284,789	-76,822	0,155	0,039
-283,774	800,000	0,073	0,179
-282,759	-45,503	0,013	0,005
-281,745	118,245	-0,104	-0,093
-280,730	800,000	-0,029	0,061
-279,716	135,670	-0,081	-0,076
-278,701	8,579	-0,044	-0,024
-277,686	302,735	-0,029	0,039
-276,672	-99,106	0,035	0,006
-275,657	-136,868	0,118	0,010
-274,643	-156,668	-0,089	0,004
-273,628	-200,000	0,018	-0,067
-272,613	117,296	0,084	0,075
-271,599	204,014	-0,041	0,046
-270,584	800,000	0,042	0,113
-269,570	-15,083	-0,101	0,046
-268,555	-164,720	-0,095	0,003
-267,540	300,111	0,051	-0,068
-266,526	-200,000	-0,072	-0,239
-265,511	-4,219	0,050	-0,025
-264,497	129,955	-0,094	-0,087
-263,482	-33,624	0,089	-0,036
-262,467	800,000	-0,032	0,074
-261,453	-74,898	-0,028	-0,007
-260,438	-145,025	-0,100	0,006
-259,424	121,697	0,031	-0,028
-258,409	-0,428	0,053	0,027
-257,395	-200,000	0,018	0,150
-256,380	-35,595	-0,120	0,047
-255,365	-103,388	-0,005	0,001
-254,351	266,675	0,021	0,026
-253,336	-60,983	0,038	-0,011
-252,322	-36,404	-0,164	-0,064
-251,307	-200,000	0,017	0,056
-250,292	-85,339	0,022	0,005
-249,278	800,000	-0,026	0,078
-248,263	417,207	0,046	0,072
-247,249	-107,856	0,184	0,029
-246,234	315,971	-0,029	-0,040
-245,219	-200,000	0,000	0,037
-244,205	-76,199	-0,110	-0,028
-243,190	-60,469	-0,063	0,019
-242,176	-200,000	0,008	-0,189
-241,161	-200,000	0,029	-0,122
-240,146	800,000	0,042	-0,089
-239,132	-32,082	-0,162	0,065
-238,117	800,000	-0,049	-0,113
-237,103	-200,000	-0,002	-0,011
-236,088	-5,832	0,036	-0,018
-235,073	-31,644	0,050	-0,020
-234,059	-200,000	-0,025	-0,116
-233,044	800,000	0,010	-0,023
-232,030	108,532	0,089	0,077
-231,015	-200,000	0,005	-0,027
-230,000	115,174	-0,089	-0,078
-228,986	-152,375	-0,052	0,003
-227,971	-200,000	-0,013	0,046
-226,957	-25,967	0,109	-0,046
-225,942	-5,494	0,036	0,018
-224,927	77,915	-0,101	0,078
-223,913	800,000	-0,050	-0,148
-222,898	-200,000	0,018	-0,061
-221,884	-200,000	0,016	-0,053
-220,869	19,525	0,114	0,066
-219,855	800,000	0,038	0,086
-218,840	412,937	-0,041	-0,064
-217,825	-159,796	-0,149	-0,006
-216,811	-49,866	-0,059	0,020
-215,796	-200,000	-0,019	-0,076
-214,782	-118,666	-0,076	-0,010
-213,767	800,000	0,021	-0,062
-212,752	54,382	0,093	-0,064
-211,738	479,051	-0,091	-0,150
-210,723	-46,738	-0,066	0,023
-209,709	800,000	-0,053	-0,129
-208,694	-200,000	0,021	-0,143
-207,679	-200,000	-0,005	0,081
-206,665	245,162	0,105	0,128
-205,650	739,003	-0,037	-0,073
-204,636	-200,000	0,001	0,054
-203,621	800,000	0,045	-0,112
-202,606	152,287	0,038	0,037
-201,592	-200,000	-0,005	0,112
-200,577	-143,023	-0,103	0,007
-199,563	-180,966	0,032	0,000
-198,548	-200,000	0,001	0,065
-197,533	-200,000	0,005	-0,016
-196,519	-200,000	-0,003	-0,089
-195,504	-51,002	-0,083	0,028
-194,490	125,623	-0,091	-0,083
-193,475	-39,778	0,053	-0,020
-192,460	-83,579	-0,172	0,039
-191,446	-13,338	0,126	0,059
-190,431	137,164	0,073	0,069
-189,417	-177,926	-0,129	0,002
-188,402	-46,886	-0,077	-0,027
-187,387	-200,000	0,012	-0,093
-186,373	-200,000	0,001	-0,167
-185,358	-1,534	0,035	-0,018
-184,344	252,911	-0,028	-0,035
-183,329	800,000	-0,038	0,102
-182,315	800,000	0,004	-0,008
-181,300	-60,765	0,119	-0,036
-180,285	392,117	-0,009	-0,013
-179,271	103,650	-0,122	-0,104
-178,256	-157,269	-0,051	-0,002
-177,242	-200,000	0,018	0,112
-176,227	-110,022	-0,102	0,015
-175,212	800,000	-0,013	-0,031
-174,198	271,025	0,056	0,072
-173,183	159,186	0,022	-0,022
-172,169	301,091	0,072	-0,096
-171,154	-200,000	0,006	-0,084
-170,139	80,835	0,114	-0,089
-169,125	800,000	-0,032	0,075
-168,110	664,789	0,044	0,083
-167,096	381,171	0,014	0,021
-166,081	269,004	0,023	0,030
-165,066	222,283	0,051	0,060
-164,052	394,663	0,055	-0,082
-163,037	161,803	0,021	0,022
-162,023	-11,468	0,060	0,028
-161,008	-53,286	0,035	-0,012
-159,993	800,000	0,022	-0,048
-158,979	-200,000	-0,004	-0,113
-157,964	800,000	-0,028	-0,079
-156,950	-200,000	-0,009	-0,087
-155,935	-108,597	0,033	0,005
-154,920	-23,218	0,149	-0,065
-153,906	-27,366	0,131	-0,055
-152,891	-200,000	0,024	-0,139
-151,877	-200,000	-0,003	-0,042
-150,862	-22,199	-0,097	-0,042
-149,847	383,187	0,107	0,160
-148,833	788,819	-0,049	-0,098
-147,818	-40,037	0,173	-0,065
-146,804	16,619	0,133	0,076
-145,789	800,000	0,044	0,101
-144,775	-73,414	-0,077	0,020
-143,760	-74,479	-0,164	-0,042
-142,745	-163,302	0,095	-0,003
-141,731	61,136	-0,022	-0,015
-140,716	800,000	-0,034	-0,082
-139,702	-200,000	-0,000	0,221
-138,687	113,420	-0,131	0,114
-137,672	674,258	0,047	0,088
-136,658	-200,000	0,010	0,060
-135,643	-156,391	-0,155	0,007
-134,629	-45,654	0,044	-0,015
-133,614	743,196	-0,046	0,089
-132,599	313,974	0,086	0,117
-131,585	201,109	-0,025	0,028
-130,570	-11,579	-0,094	-0,044
-129,556	800,000	-0,047	0,144
-128,541	-12,544	-0,037	0,017
-127,526	673,709	0,030	0,056
-126,512	800,000	-0,040	-0,089
-125,497	-200,000	0,000	0,004
-124,483	114,909	0,022	-0,020
-123,468	800,000	0,021	0,053
-122,453	38,820	0,002	0,002
-121,439	-54,322	0,117	-0,038
-120,424	-116,992	-0,095	0,012
-119,410	326,714	0,082	0,114
