DTS Sentinel unit serial number:	SN410029Multiplexer serial number:	ORYXHardware model number:	OX2-SRSoftware version number:	ORYX F/W v4,00 Oryx Data Collector v3.7.2.0data status	okinstallation	B5 Nyhavnadifferential loss correction	single-endedforward channel	channel 2reverse channel	N/Adate	2023/12/12time	08:12:13forward acquisition time	300,00reverse acquisition time	0,00gamma	499,1914k internal	0,3158k external	0,3158temperature offset calibration	1,0000default loss term (dB/km)	0,3820temperature slope calibration	1,0000multiplexer offset coefficient	1,0000multiplexer slope coefficient	1,0000fibre end	0,00T internal ref (°C)	15,10T ext. ref 1 (°C)	-1,28T ext. ref 2 (°C)	-1,57length (m)	temperature (°C)	Stokes	anti-Stokes-744,400	-200,000	-0,034	-0,111
-743,385	-147,855	-0,271	-0,016
-742,371	-75,662	0,144	-0,038
-741,356	-21,144	-0,292	0,131
-740,342	379,837	0,087	0,132
-739,327	-65,670	-0,389	0,114
-738,312	176,529	0,103	0,111
-737,298	-192,655	-0,314	0,002
-736,283	-60,927	-0,065	-0,020
-735,269	182,467	-0,193	0,210
-734,254	800,000	0,024	-0,067
-733,239	-79,441	-0,431	-0,107
-732,225	153,389	0,174	0,176
-731,210	148,002	-0,026	-0,026
-730,196	446,733	0,036	-0,059
-729,181	-40,985	0,140	0,053
-728,167	-18,107	0,093	0,043
-727,152	398,519	0,057	0,088
-726,137	800,000	-0,030	0,077
-725,123	-136,731	-0,096	-0,008
-724,108	3,782	-0,161	-0,086
-723,094	46,920	0,037	0,026
-722,079	800,000	-0,051	-0,154
-721,064	800,000	-0,003	-0,010
-720,050	-200,000	-0,011	-0,119
-719,035	260,997	-0,051	-0,065
-718,021	-200,000	0,019	-0,156
-717,006	-108,224	-0,044	0,007
-715,991	344,933	0,045	-0,066
-714,977	-59,098	-0,104	-0,033
-713,962	45,607	-0,042	-0,028
-712,948	800,000	0,039	0,084
-711,933	-200,000	-0,020	0,124
-710,918	-200,000	0,016	0,063
-709,904	-200,000	-0,041	-0,212
-708,889	238,325	-0,105	-0,129
-707,875	-11,761	-0,134	-0,065
-706,860	95,272	-0,104	-0,087
-705,845	-200,000	0,027	0,099
-704,831	-23,528	0,141	-0,062
-703,816	-200,000	-0,012	-0,076
-702,802	800,000	0,026	0,057
-701,787	-20,282	0,042	-0,019
-700,772	41,044	-0,044	-0,029
-699,758	75,840	0,021	-0,016
-698,743	-200,000	0,000	0,122
-697,729	800,000	0,062	0,175
-696,714	800,000	-0,044	-0,105
-695,699	380,244	0,044	-0,066
-694,685	-3,668	-0,103	-0,053
-693,670	-15,778	0,056	-0,026
-692,656	800,000	-0,070	0,162
-691,641	200,254	0,037	0,042
-690,627	321,160	0,007	0,010
-689,612	-131,250	-0,053	-0,005
-688,597	-13,736	0,007	0,003
-687,583	52,555	0,056	-0,039
-686,568	52,437	-0,087	0,061
-685,554	86,899	-0,052	0,042
-684,539	800,000	0,099	-0,221
-683,524	134,965	-0,067	0,064
-682,510	-36,038	0,047	-0,019
-681,495	-9,049	-0,068	0,034
-680,481	293,207	-0,052	-0,070
-679,466	274,596	0,066	-0,087
-678,451	-116,519	-0,061	0,008
-677,437	-2,114	0,099	-0,051
-676,422	654,944	0,030	0,056
-675,408	505,882	-0,010	-0,016
-674,393	-200,000	-0,010	-0,075
-673,378	100,029	-0,077	-0,066
-672,364	800,000	-0,047	-0,109
-671,349	554,821	-0,010	0,018
-670,335	-74,290	-0,017	0,004
-669,320	800,000	-0,041	-0,099
-668,305	442,121	0,038	0,062
-667,291	-200,000	-0,020	-0,120
-666,276	800,000	0,045	0,101
-665,262	673,544	-0,079	-0,150
-664,247	-200,000	0,001	-0,119
-663,232	443,199	0,055	0,089
-662,218	-3,295	0,060	0,031
-661,203	-200,000	-0,012	-0,197
-660,189	679,586	-0,043	0,082
-659,174	63,546	-0,042	-0,031
-658,159	142,474	0,027	-0,027
-657,145	88,683	-0,056	-0,045
-656,130	239,655	-0,035	-0,043
-655,116	344,999	0,022	-0,032
-654,101	549,978	0,012	0,022
-653,086	82,256	0,085	0,068
-652,072	-129,988	-0,214	-0,021
-651,057	179,937	0,020	0,022
-650,043	-200,000	-0,006	0,085
-649,028	416,121	-0,066	-0,104
-648,014	-200,000	-0,004	-0,034
-646,999	151,357	0,084	0,085
-645,984	-200,000	-0,014	-0,083
-644,970	300,026	-0,083	0,113
-643,955	483,964	0,042	-0,070
-642,941	274,299	-0,089	-0,116
-641,926	-200,000	0,022	0,086
-640,911	153,493	0,008	0,008
-639,897	64,818	0,124	0,092
-638,882	-200,000	0,024	-0,078
-637,868	139,256	-0,068	-0,066
-636,853	-112,405	0,035	0,005
-635,838	59,343	-0,070	0,051
-634,824	392,599	-0,040	0,061
-633,809	-6,614	0,181	-0,090
-632,795	-18,083	-0,069	-0,032
-631,780	800,000	0,046	0,109
-630,765	-62,272	-0,102	-0,031
-629,751	-200,000	0,001	0,083
-628,736	-200,000	-0,012	0,123
-627,722	-54,018	-0,169	-0,056
-626,707	-82,645	0,063	0,015
-625,692	-200,000	0,031	0,160
-624,678	800,000	-0,050	0,104
-623,663	-66,578	0,154	-0,045
-622,649	28,090	0,042	0,026
-621,634	82,462	-0,088	-0,070
-620,619	-119,786	-0,112	0,014
-619,605	-192,653	0,085	0,001
-618,590	-17,702	0,103	0,047
-617,576	528,984	0,036	0,063
-616,561	-178,558	0,016	0,000
-615,546	-25,490	-0,125	-0,054
-614,532	623,354	-0,102	-0,190
-613,517	-16,375	0,121	0,056
-612,503	-91,703	-0,135	-0,028
-611,488	-198,174	0,047	-0,000
-610,474	-90,702	0,121	-0,025
-609,459	6,778	-0,016	0,009
-608,444	-200,000	0,021	-0,159
-607,430	-200,000	0,031	-0,162
-606,415	800,000	0,006	-0,013
-605,401	177,996	-0,082	0,088
-604,386	-200,000	0,003	-0,032
-603,371	734,004	-0,082	0,162
-602,357	4,878	0,016	0,008
-601,342	21,829	-0,082	-0,049
-600,328	-40,090	-0,118	0,045
-599,313	12,081	0,225	-0,126
-598,298	800,000	-0,013	-0,041
-597,284	323,526	0,083	-0,116
-596,269	229,763	-0,019	0,023
-595,255	-200,000	-0,007	-0,060
-594,240	-18,891	0,036	0,016
-593,225	8,452	-0,075	-0,041
-592,211	446,354	-0,015	-0,024
-591,196	173,649	-0,055	-0,058
-590,182	-200,000	0,007	-0,104
-589,167	44,551	-0,027	0,018
-588,152	800,000	-0,057	0,141
-587,138	563,774	-0,075	0,133
-586,123	285,901	-0,090	-0,119
-585,109	346,209	0,143	-0,207
-584,094	-142,771	0,111	-0,008
-583,079	800,000	-0,060	0,146
-582,065	-200,000	0,001	0,134
-581,050	420,713	0,038	0,060
-580,036	-200,000	0,001	0,092
-579,021	-109,629	-0,127	-0,019
-578,006	-48,171	-0,109	-0,038
-576,992	381,565	-0,093	-0,140
-575,977	-200,000	-0,005	-0,080
-574,963	779,915	-0,024	0,048
-573,948	567,144	-0,074	-0,132
-572,934	800,000	-0,058	0,188
-571,919	800,000	-0,062	-0,127
-570,904	-200,000	0,010	-0,111
-569,890	460,279	0,059	-0,097
-568,875	-200,000	0,011	0,085
-567,861	-200,000	0,009	-0,042
-566,846	800,000	0,055	-0,118
-565,831	-31,931	-0,009	-0,004
-564,817	-200,000	0,049	0,000
-563,802	384,089	0,056	-0,085
-562,788	727,794	0,014	-0,028
-561,773	103,268	0,021	-0,018
-560,758	-146,222	0,177	-0,011
-559,744	-56,520	-0,045	-0,015
-558,729	11,437	0,114	-0,064
-557,715	-96,102	0,117	0,023
-556,700	619,040	-0,046	0,085
-555,685	-200,000	0,005	-0,045
-554,671	-123,571	0,103	0,012
-553,656	-1,980	-0,072	0,037
-552,642	3,105	0,145	0,077
-551,627	233,992	0,048	0,058
-550,612	800,000	-0,037	-0,107
-549,598	59,727	0,052	0,038
-548,583	-200,000	0,006	-0,075
-547,569	68,135	0,078	0,058
-546,554	321,205	0,057	-0,080
-545,539	-85,783	0,110	-0,025
-544,525	-164,957	-0,038	0,001
-543,510	298,890	0,023	-0,031
-542,496	-174,586	-0,096	0,002
-541,481	-51,531	-0,141	0,048
-540,466	-132,098	0,174	0,016
-539,452	308,583	0,021	0,029
-538,437	-66,883	0,055	-0,016
-537,423	19,105	0,062	0,036
-536,408	-47,824	-0,092	-0,032
-535,393	-20,740	0,112	-0,050
-534,379	-200,000	-0,075	-0,243
-533,364	-91,194	-0,102	0,021
-532,350	-200,000	0,016	0,096
-531,335	237,553	0,011	-0,013
-530,321	800,000	0,028	0,074
-529,306	-26,421	0,113	-0,048
-528,291	-32,384	-0,108	-0,044
-527,277	800,000	0,053	0,115
-526,262	83,360	-0,070	0,056
-525,248	800,000	0,043	-0,132
-524,233	385,906	-0,066	-0,100
-523,218	-200,000	-0,009	0,077
-522,204	346,658	0,060	0,087
-521,189	105,937	-0,111	-0,096
-520,175	237,216	-0,102	-0,123
-519,160	285,886	-0,028	-0,037
-518,145	133,541	-0,086	-0,081
-517,131	666,241	-0,046	0,088
-516,116	-27,466	-0,083	0,035
-515,102	-200,000	-0,015	0,098
-514,087	-200,000	-0,018	-0,128
-513,072	-139,632	0,150	-0,012
-512,058	-200,000	-0,010	0,132
-511,043	-200,000	0,022	0,106
-510,029	-114,245	0,108	-0,015
-509,014	-4,648	0,042	0,021
-507,999	-200,000	0,011	-0,128
-506,985	571,862	-0,075	-0,133
-505,970	-200,000	-0,015	-0,133
-504,956	-200,000	-0,001	-0,094
-503,941	62,078	0,100	-0,073
-502,926	-111,031	-0,032	0,005
-501,912	323,951	-0,029	0,041
-500,897	-191,419	0,098	-0,001
-499,883	305,445	-0,010	0,014
-498,868	800,000	-0,040	-0,126
-497,853	14,191	-0,036	0,021
-496,839	594,433	-0,062	0,112
-495,824	485,583	0,072	0,120
-494,810	-86,085	-0,154	-0,035
-493,795	-200,000	0,001	-0,143
-492,781	-200,000	-0,008	-0,160
-491,766	-77,794	0,104	-0,026
-490,751	800,000	-0,021	0,059
-489,737	-7,151	-0,073	0,036
-488,722	800,000	0,046	0,112
-487,708	800,000	0,030	0,087
-486,693	20,020	-0,125	0,073
-485,678	-53,940	0,082	0,027
-484,664	-30,924	0,049	-0,020
-483,649	-90,270	-0,126	0,026
-482,635	-33,712	-0,088	0,035
-481,620	47,542	-0,006	-0,004
-480,605	71,118	-0,042	-0,032
-479,591	-200,000	-0,017	0,126
-478,576	-114,486	0,110	0,015
-477,562	305,630	-0,011	-0,015
-476,547	191,738	-0,117	-0,129
-475,532	-200,000	-0,011	-0,098
-474,518	-154,773	-0,140	-0,007
-473,503	51,395	-0,085	-0,059
-472,489	-29,207	-0,073	0,030
-471,474	40,844	0,041	0,027
-470,459	-13,942	0,042	-0,020
-469,445	90,980	-0,114	-0,094
-468,430	-144,919	-0,081	-0,005
-467,416	-160,093	0,200	0,008
-466,401	472,459	0,031	0,051
-465,386	527,658	-0,117	0,203
-464,372	-200,000	0,004	0,134
-463,357	800,000	0,031	0,069
-462,343	100,435	0,080	0,068
-461,328	800,000	-0,027	0,066
-460,313	145,058	0,025	0,024
-459,299	-200,000	-0,012	0,108
-458,284	249,371	0,072	-0,089
-457,270	357,916	0,012	0,018
-456,255	205,219	0,084	0,096
-455,241	154,361	0,104	0,104
-454,226	-200,000	0,002	0,062
-453,211	32,640	0,150	0,094
-452,197	-19,732	0,135	-0,061
-451,182	-200,000	-0,007	0,071
-450,168	-200,000	-0,041	0,147
-449,153	800,000	-0,045	0,093
-448,138	-186,315	0,068	-0,001
-447,124	210,549	-0,062	-0,072
-446,109	340,006	0,060	0,085
-445,095	-200,000	-0,001	-0,054
-444,080	-6,691	0,121	0,060
-443,065	115,234	-0,020	0,017
-442,051	-73,870	-0,154	-0,041
-441,036	202,167	0,017	0,020
-440,022	-60,356	-0,102	0,031
-439,007	554,998	0,029	-0,051
-437,992	270,767	0,078	-0,100
-436,978	28,537	0,025	0,015
-435,963	-4,227	-0,042	0,021
-434,949	45,907	0,010	-0,007
-433,934	27,499	-0,104	0,064
-432,919	800,000	0,033	0,077
-431,905	-200,000	0,022	0,080
-430,890	-200,000	-0,002	0,057
-429,876	-165,389	0,071	0,002
-428,861	521,423	-0,031	0,053
-427,846	17,737	-0,057	0,033
-426,832	-17,119	0,102	0,047
-425,817	13,776	-0,063	0,035
-424,803	12,613	-0,083	0,047
-423,788	800,000	0,057	0,129
-422,773	-200,000	0,013	-0,066
-421,759	225,679	-0,034	-0,040
-420,744	206,476	0,099	0,113
-419,730	224,846	-0,075	0,088
-418,715	800,000	0,030	-0,067
-417,701	-146,932	0,052	0,003
-416,686	-103,072	-0,083	-0,014
-415,671	14,510	-0,123	0,070
-414,657	800,000	0,059	-0,137
-413,642	-87,023	0,049	0,011
-412,628	-200,000	0,029	0,127
-411,613	-17,051	0,109	-0,050
-410,598	-46,180	-0,107	-0,038
-409,584	12,332	-0,052	0,029
-408,569	179,107	0,062	0,066
-407,555	-75,333	0,089	0,023
-406,540	555,992	0,035	-0,061
-405,525	-200,000	0,008	-0,079
-404,511	189,255	0,105	-0,115
-403,496	-200,000	-0,005	0,111
-402,482	61,359	-0,042	0,030
-401,467	-24,005	-0,110	0,048
-400,452	-36,425	-0,075	-0,029
-399,438	3,511	0,045	-0,024
-398,423	800,000	-0,063	0,158
-397,409	-174,883	-0,100	0,002
-396,394	-97,141	-0,093	-0,017
-395,379	213,140	-0,018	-0,020
-394,365	225,110	0,045	0,053
-393,350	800,000	0,005	0,013
-392,336	-114,539	0,068	0,009
-391,321	-34,324	-0,077	0,031
-390,306	247,056	-0,122	-0,151
-389,292	82,430	0,110	-0,086
-388,277	11,582	-0,063	0,035
-387,263	800,000	0,017	0,047
-386,248	800,000	-0,031	-0,064
-385,233	72,646	0,052	0,039
-384,219	25,873	0,096	-0,058
-383,204	-32,406	0,063	-0,025
-382,190	55,861	-0,009	-0,006
-381,175	800,000	0,008	-0,019
-380,160	-21,386	-0,114	-0,050
-379,146	41,644	0,071	-0,046
-378,131	-129,557	0,037	-0,004
-377,117	-200,000	0,024	0,184
-376,102	405,935	0,009	0,015
-375,088	800,000	-0,013	0,035
-374,073	-166,352	0,055	0,002
-373,058	292,146	0,053	0,070
-372,044	12,922	0,119	0,066
-371,029	800,000	-0,032	0,078
-370,015	800,000	0,033	-0,081
-369,000	133,497	-0,064	0,060
-367,985	800,000	-0,062	-0,145
-366,971	-123,590	0,074	-0,008
-365,956	-200,000	0,003	0,114
-364,942	800,000	0,028	0,083
-363,927	138,658	0,028	0,026
-362,912	80,014	0,092	-0,072
-361,898	-69,433	-0,037	-0,010
-360,883	800,000	0,011	0,024
-359,869	-169,568	-0,088	0,002
-358,854	-29,927	0,030	0,012
-357,839	82,282	0,128	0,101
-356,825	72,984	-0,111	-0,084
-355,810	104,941	-0,074	-0,063
-354,796	-200,000	0,017	-0,088
-353,781	81,105	0,047	-0,037
-352,766	166,457	-0,060	0,061
-351,752	-43,966	-0,010	0,004
-350,737	800,000	0,059	0,169
-349,723	8,487	0,015	0,008
-348,708	7,954	0,115	0,062
-347,693	75,240	-0,113	0,086
-346,679	-200,000	-0,004	0,021
-345,664	161,649	0,047	0,048
-344,650	-32,536	-0,055	0,022
-343,635	-200,000	0,019	0,069
-342,620	32,050	-0,020	0,012
-341,606	-95,002	0,078	0,015
-340,591	-200,000	0,022	-0,115
-339,577	-200,000	0,004	-0,039
-338,562	-200,000	0,007	-0,095
-337,548	-170,961	0,117	0,003
-336,533	19,307	0,098	-0,057
-335,518	-98,374	0,130	0,024
-334,504	-200,000	0,010	-0,040
-333,489	27,563	-0,070	0,043
-332,475	-192,210	0,024	0,000
-331,460	270,197	-0,036	-0,046
-330,445	-200,000	0,018	-0,094
-329,431	137,756	-0,030	0,029
-328,416	127,431	0,047	0,044
-327,402	206,121	-0,046	0,053
-326,387	800,000	0,021	0,064
-325,372	476,055	0,029	-0,048
-324,358	-168,048	-0,053	0,001
-323,343	407,769	-0,027	-0,042
-322,329	237,886	0,105	0,126
-321,314	140,507	-0,106	-0,102
-320,299	-121,787	0,124	0,015
-319,285	-100,583	-0,151	-0,027
-318,270	-200,000	-0,036	-0,221
-317,256	-200,000	0,007	-0,074
-316,241	380,325	0,025	-0,038
-315,226	-200,000	-0,014	0,071
-314,212	-200,000	0,049	0,163
-313,197	146,760	0,111	0,108
-312,183	266,266	0,127	-0,161
-311,168	-74,388	-0,111	-0,029
-310,153	25,424	0,039	-0,023
-309,139	-48,756	0,030	0,010
-308,124	-117,537	-0,067	-0,009
-307,110	262,195	0,087	-0,110
-306,095	628,607	0,025	0,045
-305,080	-200,000	-0,010	-0,050
-304,066	-200,000	-0,009	-0,059
-303,051	800,000	0,022	-0,067
-302,037	-48,129	-0,075	-0,026
-301,022	-88,086	0,077	-0,017
-300,008	-200,000	0,021	0,126
-298,993	723,924	0,062	-0,120
-297,978	200,320	0,119	-0,133
-296,964	175,610	-0,054	0,057
-295,949	77,673	-0,099	-0,077
-294,935	-200,000	-0,021	-0,187
-293,920	19,506	-0,088	-0,051
-292,905	-71,791	0,050	-0,013
-291,891	178,777	-0,059	0,062
-290,876	800,000	0,045	0,141
-289,862	210,519	-0,024	0,027
-288,847	244,547	0,032	0,039
-287,832	57,652	-0,096	0,068
-286,818	275,725	-0,025	-0,033
-285,803	-9,344	0,108	-0,052
-284,789	-127,054	0,036	-0,004
-283,774	344,671	0,022	-0,031
-282,759	556,690	-0,018	-0,032
-281,745	80,662	0,100	-0,078
-280,730	-160,673	-0,145	-0,005
-279,716	123,253	0,069	0,063
-278,701	36,787	0,093	-0,059
-277,686	-24,794	-0,147	-0,063
-276,672	479,610	0,087	0,143
-275,657	36,611	-0,092	-0,059
-274,643	228,282	-0,105	-0,124
-273,628	58,409	0,089	0,063
-272,613	-18,915	0,125	0,056
-271,599	144,016	0,036	-0,035
-270,584	84,326	-0,067	-0,053
-269,570	513,881	0,045	0,077
-268,555	-105,604	-0,072	0,012
-267,540	-200,000	-0,017	0,067
-266,526	640,661	-0,050	-0,093
-265,511	-43,609	-0,061	0,022
-264,497	351,190	0,032	0,045
-263,482	50,340	0,050	0,034
-262,467	800,000	-0,029	-0,062
-261,453	-200,000	0,001	0,003
-260,438	546,202	-0,030	0,051
-259,424	133,283	-0,043	-0,040
-258,409	269,975	-0,058	0,074
-257,395	346,861	-0,027	-0,038
-256,380	115,124	-0,085	-0,075
-255,365	57,939	0,112	-0,079
-254,351	16,138	0,103	0,058
-253,336	72,583	-0,167	-0,126
-252,322	33,320	0,050	-0,032
-251,307	76,770	-0,015	-0,011
-250,292	-200,000	-0,002	0,007
-249,278	-200,000	0,045	-0,152
-248,263	468,580	-0,075	-0,122
-247,249	-183,928	0,096	-0,001
-246,234	27,376	-0,107	-0,065
-245,219	-106,039	-0,063	-0,010
-244,205	571,238	0,032	0,056
-243,190	-37,633	0,063	0,024
-242,176	-200,000	-0,002	-0,013
-241,161	248,244	0,081	-0,100
-240,146	375,998	0,023	-0,035
-239,132	-200,000	-0,011	-0,106
-238,117	15,170	-0,111	-0,063
-237,103	39,311	-0,018	0,012
-236,088	-200,000	-0,014	-0,129
-235,073	-200,000	-0,014	-0,170
-234,059	290,510	-0,067	0,089
-233,044	-200,000	-0,019	0,197
-232,030	800,000	-0,017	0,053
-231,015	-200,000	-0,057	-0,204
-230,000	-114,249	0,059	-0,008
-228,986	649,246	-0,038	-0,071
-227,971	439,053	0,042	0,066
-226,957	-200,000	0,007	-0,035
-225,942	-200,000	-0,014	0,122
-224,927	183,412	-0,070	-0,075
-223,913	68,578	-0,191	-0,141
-222,898	-200,000	0,037	-0,137
-221,884	-200,000	-0,013	-0,108
-220,869	-163,703	0,102	-0,003
-219,855	-29,415	-0,047	0,019
-218,840	-5,648	0,107	0,053
-217,825	-200,000	0,016	0,087
-216,811	-200,000	0,009	-0,042
-215,796	421,021	-0,015	-0,024
-214,782	-44,022	0,075	-0,027
-213,767	-200,000	-0,009	0,040
-212,752	-200,000	-0,016	0,104
-211,738	416,282	0,070	-0,108
-210,723	-139,757	-0,101	0,008
-209,709	-25,785	-0,087	0,037
-208,694	38,888	-0,101	-0,065
-207,679	-183,989	0,062	-0,001
-206,665	191,958	-0,085	0,092
-205,650	-200,000	0,028	0,094
-204,636	97,389	0,138	0,115
-203,621	800,000	0,058	0,164
-202,606	-200,000	-0,013	0,048
-201,592	333,678	0,090	-0,126
-200,577	-57,106	-0,135	0,043
-199,563	208,189	0,077	0,087
-198,548	-166,641	0,149	0,004
-197,533	-49,419	-0,074	-0,025
-196,519	800,000	-0,051	0,130
-195,504	650,131	-0,070	-0,130
-194,490	-200,000	-0,017	0,066
-193,475	487,855	-0,057	0,095
-192,460	-37,364	0,065	0,025
-191,446	451,681	0,015	0,024
-190,431	800,000	0,010	0,030
-189,417	800,000	0,040	0,119
-188,402	-46,322	-0,111	-0,039
-187,387	250,249	-0,086	0,105
-186,373	-116,317	-0,076	-0,010
-185,358	15,295	0,042	0,023
-184,344	41,632	0,024	0,015
-183,329	-200,000	-0,008	0,069
-182,315	-172,816	0,047	-0,001
-181,300	-6,579	-0,033	-0,016
-180,285	336,179	-0,058	-0,082
-179,271	-119,329	0,092	0,011
-178,256	115,297	0,053	-0,047
-177,242	-200,000	0,011	-0,042
-176,227	800,000	-0,025	-0,061
-175,212	77,635	-0,074	0,057
-174,198	333,584	-0,057	0,079
-173,183	-48,796	-0,068	-0,024
-172,169	-20,835	-0,115	-0,050
-171,154	-200,000	-0,036	0,170
-170,139	72,463	0,119	0,089
-169,125	44,649	0,088	0,058
-168,110	196,155	0,060	0,065
-167,096	2,110	0,021	0,011
-166,081	-24,043	-0,019	-0,008
-165,066	800,000	-0,022	-0,066
-164,052	-8,269	-0,065	-0,031
-163,037	61,367	0,029	-0,021
-162,023	121,005	-0,030	0,027
-161,008	351,679	0,040	-0,057
-159,993	-121,479	-0,082	0,010
-158,979	163,427	-0,077	0,078
-157,964	-200,000	0,003	0,084
-156,950	-169,049	-0,112	0,003
-155,935	14,127	-0,048	0,027
-154,920	-200,000	0,006	-0,040
-153,906	-34,426	0,101	-0,040
-152,891	800,000	0,028	0,086
-151,877	739,600	-0,065	-0,127
-150,862	-154,467	-0,130	0,006
-149,847	-200,000	-0,005	-0,018
-148,833	-200,000	-0,010	-0,061
-147,818	-124,777	0,027	0,003
-146,804	115,273	-0,059	0,052
-145,789	82,672	0,047	0,037
-144,775	-64,442	0,024	-0,007
-143,760	619,999	0,004	0,007
-142,745	-200,000	0,000	0,014
-141,731	-157,043	-0,114	0,005
-140,716	575,914	0,076	0,135
-139,702	-114,158	-0,073	0,010
-138,687	233,770	0,068	0,081
-137,672	160,843	-0,026	-0,026
-136,658	-153,549	-0,069	0,003
-135,643	-200,000	-0,021	-0,068
-134,629	-200,000	0,012	-0,042
-133,614	13,548	0,031	-0,017
-132,599	-200,000	-0,013	-0,057
-131,585	-141,962	0,056	-0,004
-130,570	-37,969	-0,045	-0,017
-129,556	-42,313	0,047	-0,017
-128,541	-112,383	0,116	-0,017
-127,526	-161,101	0,086	-0,003
-126,512	-112,448	0,118	0,017
-125,497	-200,000	-0,003	-0,090
-124,483	156,382	-0,017	0,017
-123,468	-28,087	0,032	0,013
-122,453	-102,695	-0,199	-0,034
-121,439	-68,433	0,086	0,024
-120,424	800,000	-0,048	-0,129
-119,410	-200,000	0,007	-0,140
-118,395	800,000	-0,032	0,079
