DTS Sentinel unit serial number:	SN410029Multiplexer serial number:	ORYXHardware model number:	OX2-SRSoftware version number:	ORYX F/W v4,00 Oryx Data Collector v3.7.2.0data status	okinstallation	B5 Nyhavnadifferential loss correction	single-endedforward channel	channel 2reverse channel	N/Adate	2023/12/14time	01:07:13forward acquisition time	300,00reverse acquisition time	0,00gamma	499,1914k internal	0,3155k external	0,3155temperature offset calibration	1,0000default loss term (dB/km)	0,3820temperature slope calibration	1,0000multiplexer offset coefficient	1,0000multiplexer slope coefficient	1,0000fibre end	0,00T internal ref (°C)	8,69T ext. ref 1 (°C)	-7,15T ext. ref 2 (°C)	-7,15length (m)	temperature (°C)	Stokes	anti-Stokes-744,400	-45,044	0,172	0,063
-743,385	-14,367	-0,324	-0,153
-742,371	-107,114	0,158	-0,026
-741,356	-56,735	-0,288	-0,093
-740,342	86,926	0,104	0,085
-739,327	-113,343	-0,277	-0,040
-738,312	35,605	0,187	0,121
-737,298	-21,370	-0,393	-0,176
-736,283	16,741	0,189	0,110
-735,269	-163,516	-0,352	-0,012
-734,254	71,712	0,066	0,050
-733,239	-79,500	-0,609	-0,151
-732,225	140,135	0,279	0,271
-731,210	494,200	-0,052	0,088
-730,196	-160,835	-0,059	0,002
-729,181	-71,110	0,027	0,007
-728,167	800,000	-0,018	-0,048
-727,152	-145,356	-0,061	0,004
-726,137	493,150	-0,109	-0,184
-725,123	800,000	-0,052	-0,107
-724,108	-23,116	-0,121	0,054
-723,094	453,715	-0,008	0,013
-722,079	800,000	-0,048	-0,152
-721,064	147,673	-0,072	0,072
-720,050	322,199	-0,034	-0,048
-719,035	28,669	-0,044	-0,028
-718,021	800,000	-0,072	-0,176
-717,006	-200,000	0,003	-0,024
-715,991	-109,299	-0,087	-0,013
-714,977	461,192	0,058	-0,095
-713,962	-200,000	0,024	0,084
-712,948	-200,000	-0,021	0,187
-711,933	800,000	0,066	0,139
-710,918	-15,890	-0,094	0,044
-709,904	-35,572	-0,035	-0,014
-708,889	-200,000	0,006	0,040
-707,875	-185,047	-0,136	-0,002
-706,860	379,246	-0,055	0,083
-705,845	-19,578	0,172	-0,078
-704,831	-200,000	0,036	-0,148
-703,816	-200,000	0,003	-0,013
-702,802	800,000	0,047	-0,099
-701,787	-200,000	0,006	-0,061
-700,772	-200,000	-0,002	-0,071
-699,758	511,301	-0,009	0,015
-698,743	-108,768	-0,122	-0,019
-697,729	72,810	-0,037	0,029
-696,714	-8,569	0,018	0,009
-695,699	800,000	-0,019	0,050
-694,685	449,838	-0,069	0,112
-693,670	800,000	-0,015	0,050
-692,656	800,000	0,042	0,131
-691,641	-55,185	-0,095	0,031
-690,627	800,000	0,012	0,037
-689,612	-97,249	-0,075	0,014
-688,597	-24,820	-0,027	0,012
-687,583	334,414	-0,051	0,074
-686,568	-43,457	-0,110	0,041
-685,554	-200,000	0,009	-0,052
-684,539	-35,906	0,064	0,026
-683,524	153,905	0,043	0,043
-682,510	800,000	-0,021	0,050
-681,495	-106,719	-0,219	0,035
-680,481	44,687	-0,043	-0,029
-679,466	26,489	0,042	-0,026
-678,451	785,691	-0,025	-0,050
-677,437	35,664	0,174	-0,113
-676,422	429,250	0,044	-0,070
-675,408	66,503	0,055	0,041
-674,393	151,896	-0,107	0,108
-673,378	61,050	-0,050	0,036
-672,364	-200,000	-0,014	-0,055
-671,349	33,193	0,088	-0,056
-670,335	-200,000	0,002	-0,063
-669,320	675,104	-0,034	-0,064
-668,305	-200,000	-0,035	0,130
-667,291	686,786	0,056	0,109
-666,276	-102,709	-0,068	-0,012
-665,262	-200,000	-0,007	0,085
-664,247	114,366	-0,116	-0,104
-663,232	208,837	-0,188	-0,217
-662,218	800,000	0,030	-0,079
-661,203	123,060	-0,083	0,076
-660,189	-173,637	-0,091	0,002
-659,174	-161,934	-0,150	0,005
-658,159	380,517	0,049	0,074
-657,145	-30,047	-0,045	-0,019
-656,130	-200,000	0,021	-0,194
-655,116	-96,782	0,087	0,017
-654,101	8,333	0,074	0,041
-653,086	180,836	-0,053	0,057
-652,072	-200,000	-0,052	-0,180
-651,057	115,648	-0,128	-0,115
-650,043	-1,129	0,157	0,081
-649,028	471,069	-0,099	0,165
-648,014	800,000	0,005	-0,015
-646,999	34,375	-0,118	0,075
-645,984	382,241	0,052	0,079
-644,970	800,000	-0,068	-0,207
-643,955	680,639	-0,068	-0,131
-642,941	74,707	-0,071	0,055
-641,926	6,795	0,030	0,017
-640,911	207,216	0,019	-0,021
-639,897	3,300	0,158	0,084
-638,882	199,052	-0,090	0,102
-637,868	-115,323	-0,140	-0,019
-636,853	183,470	0,037	0,040
-635,838	800,000	-0,033	-0,078
-634,824	800,000	0,048	-0,152
-633,809	-200,000	-0,010	0,144
-632,795	-200,000	-0,002	-0,018
-631,780	800,000	0,030	-0,075
-630,765	172,220	0,078	-0,082
-629,751	-16,997	0,059	0,027
-628,736	25,133	0,020	-0,012
-627,722	-28,767	0,105	0,044
-626,707	-200,000	-0,006	0,116
-625,692	126,272	0,064	0,059
-624,678	136,266	-0,060	0,058
-623,663	190,232	-0,095	-0,105
-622,649	14,616	-0,055	-0,031
-621,634	-200,000	-0,016	-0,117
-620,619	800,000	-0,043	-0,127
-619,605	305,172	0,071	-0,097
-618,590	800,000	0,038	-0,098
-617,576	-59,070	-0,050	0,016
-616,561	-16,714	-0,180	-0,083
-615,546	468,862	-0,069	-0,114
-614,532	-200,000	0,000	-0,079
-613,517	-1,509	-0,119	0,061
-612,503	275,921	-0,035	0,045
-611,488	247,816	-0,073	0,091
-610,474	-137,238	0,019	-0,002
-609,459	528,004	-0,076	0,133
-608,444	30,658	-0,030	-0,018
-607,430	107,182	-0,117	0,102
-606,415	592,615	0,055	0,100
-605,401	-180,290	-0,030	0,000
-604,386	27,763	0,129	-0,080
-603,371	-200,000	-0,007	0,030
-602,357	-200,000	0,031	0,125
-601,342	-200,000	0,013	0,102
-600,328	800,000	-0,073	0,186
-599,313	-200,000	0,018	-0,110
-598,298	69,757	-0,002	0,002
-597,284	-16,699	0,077	-0,036
-596,269	232,420	0,047	0,057
-595,255	105,970	-0,148	0,129
-594,240	71,565	-0,032	0,025
-593,225	83,446	0,085	-0,068
-592,211	800,000	-0,051	-0,125
-591,196	583,223	-0,041	0,074
-590,182	-94,239	-0,040	-0,008
-589,167	55,356	-0,031	-0,022
-588,152	-30,444	0,036	-0,015
-587,138	-161,156	0,024	0,001
-586,123	-200,000	-0,004	0,142
-585,109	-200,000	-0,007	-0,067
-584,094	-93,184	-0,192	-0,039
-583,079	222,296	0,096	-0,113
-582,065	-200,000	0,003	0,184
-581,050	-200,000	0,020	0,127
-580,036	800,000	-0,076	-0,213
-579,021	800,000	0,031	0,064
-578,006	-148,294	-0,109	0,006
-576,992	381,358	0,017	-0,025
-575,977	44,845	0,087	0,059
-574,963	-200,000	0,041	0,150
-573,948	-200,000	-0,036	0,120
-572,934	-39,188	0,096	-0,037
-571,919	103,875	-0,196	-0,169
-570,904	313,339	0,015	0,021
-569,890	-200,000	-0,020	0,066
-568,875	97,247	0,066	-0,055
-567,861	107,835	0,153	-0,134
-566,846	63,261	-0,059	0,043
-565,831	282,921	-0,067	0,088
-564,817	800,000	0,061	-0,135
-563,802	282,253	-0,097	-0,128
-562,788	92,240	-0,132	-0,109
-561,773	-7,254	-0,008	-0,004
-560,758	-200,000	0,008	0,071
-559,744	-8,734	-0,035	0,017
-558,729	476,082	-0,066	-0,109
-557,715	248,229	-0,039	-0,049
-556,700	-200,000	0,024	0,108
-555,685	-129,936	0,155	0,015
-554,671	-125,710	-0,083	0,009
-553,656	-152,410	0,057	-0,003
-552,642	-50,216	-0,071	-0,024
-551,627	-115,494	0,081	0,011
-550,612	-33,872	0,003	-0,001
-549,598	55,177	-0,052	0,037
-548,583	276,548	-0,072	-0,093
-547,569	19,696	0,076	-0,045
-546,554	52,355	0,085	0,059
-545,539	300,630	-0,038	0,052
-544,525	-200,000	-0,008	0,104
-543,510	16,380	-0,029	0,017
-542,496	-33,715	0,138	-0,056
-541,481	127,481	0,014	0,013
-540,466	800,000	0,053	-0,128
-539,452	109,969	0,062	-0,054
-538,437	-200,000	0,025	0,094
-537,423	422,436	0,016	0,024
-536,408	300,294	-0,075	0,102
-535,393	-53,137	-0,019	-0,006
-534,379	-77,079	-0,040	-0,010
-533,364	258,139	0,063	-0,079
-532,350	-51,920	0,159	-0,054
-531,335	-200,000	-0,021	0,073
-530,321	16,755	0,049	-0,028
-529,306	-56,734	-0,067	-0,022
-528,291	-109,865	-0,067	0,010
-527,277	-76,976	0,083	-0,021
-526,262	-200,000	-0,021	-0,129
-525,248	50,195	0,126	0,087
-524,233	-200,000	0,026	0,190
-523,218	-200,000	0,016	-0,235
-522,204	-200,000	0,016	-0,207
-521,189	-51,298	0,020	-0,007
-520,175	-85,018	0,116	0,026
-519,160	688,908	0,048	-0,092
-518,145	-25,986	-0,087	0,037
-517,131	800,000	0,019	0,059
-516,116	800,000	0,016	-0,041
-515,102	158,800	-0,055	0,056
-514,087	283,554	-0,054	-0,072
-513,072	102,616	0,112	-0,096
-512,058	75,830	0,093	0,072
-511,043	800,000	-0,056	0,159
-510,029	65,066	-0,070	-0,052
-509,014	432,776	0,062	0,099
-507,999	800,000	-0,025	0,078
-506,985	142,895	0,045	-0,044
-505,970	524,383	0,068	0,118
-504,956	-200,000	-0,093	-0,000
-503,941	-28,430	0,076	-0,032
-502,926	7,677	-0,116	0,063
-501,912	-3,837	0,149	-0,075
-500,897	533,926	-0,023	-0,040
-499,883	-200,000	0,001	-0,057
-498,868	201,849	-0,041	-0,047
-497,853	-151,678	0,067	-0,004
-496,839	800,000	-0,026	0,082
-495,824	-200,000	-0,005	-0,031
-494,810	765,649	-0,015	0,030
-493,795	-35,010	0,056	-0,022
-492,781	424,236	-0,042	-0,066
-491,766	35,506	-0,077	0,049
-490,751	-118,910	0,038	-0,005
-489,737	-63,913	-0,025	0,007
-488,722	463,843	0,076	0,124
-487,708	66,900	-0,121	0,090
-486,693	108,333	0,054	0,047
-485,678	800,000	-0,025	-0,053
-484,664	800,000	0,020	-0,045
-483,649	91,681	0,020	0,017
-482,635	-118,844	-0,035	0,004
-481,620	242,051	0,077	0,094
-480,605	146,587	0,083	0,082
-479,591	-182,172	-0,047	-0,001
-478,576	249,318	-0,064	0,079
-477,562	-11,530	-0,129	-0,062
-476,547	800,000	0,047	-0,131
-475,532	63,899	0,026	-0,019
-474,518	577,962	-0,040	0,071
-473,503	343,747	0,009	0,013
-472,489	-200,000	0,010	0,098
-471,474	800,000	-0,080	0,215
-470,459	124,849	-0,011	-0,010
-469,445	-200,000	-0,018	-0,146
-468,430	-9,541	0,085	0,041
-467,416	-14,710	-0,026	-0,012
-466,401	45,205	0,007	-0,005
-465,386	-39,030	-0,131	-0,050
-464,372	50,151	0,050	-0,035
-463,357	80,149	-0,050	-0,039
-462,343	347,524	-0,049	0,071
-461,328	-200,000	0,017	0,073
-460,313	-53,561	0,107	0,035
-459,299	-200,000	0,008	0,100
-458,284	31,452	0,173	-0,108
-457,270	148,908	-0,114	-0,113
-456,255	80,016	0,099	-0,078
-455,241	105,319	-0,160	-0,138
-454,226	-64,230	-0,110	-0,033
-453,211	202,587	-0,049	0,055
-452,197	124,903	0,080	0,074
-451,182	77,499	-0,092	-0,071
-450,168	800,000	-0,026	0,079
-449,153	164,263	-0,029	-0,029
-448,138	83,613	-0,088	0,070
-447,124	-200,000	0,019	0,154
-446,109	0,657	0,114	0,059
-445,095	217,315	0,081	0,094
-444,080	-98,295	-0,061	0,011
-443,065	800,000	-0,005	-0,010
-442,051	-200,000	-0,005	0,077
-441,036	800,000	-0,078	-0,173
-440,022	-5,037	-0,046	-0,023
-439,007	-176,075	0,093	0,002
-437,992	-56,101	0,158	-0,051
-436,978	800,000	0,011	-0,033
-435,963	306,489	-0,084	0,114
-434,949	132,569	0,109	-0,103
-433,934	800,000	-0,037	0,096
-432,919	181,922	0,079	-0,085
-431,905	-137,190	-0,055	0,005
-430,890	55,237	0,075	-0,053
-429,876	800,000	-0,028	-0,091
-428,861	122,243	0,065	-0,059
-427,846	130,155	-0,053	-0,050
-426,832	-175,522	0,085	0,002
-425,817	-151,765	-0,065	0,003
-424,803	215,781	-0,061	-0,071
-423,788	-200,000	-0,021	0,071
-422,773	800,000	-0,064	0,171
-421,759	522,719	-0,023	-0,040
-420,744	800,000	-0,012	0,025
-419,730	-98,774	-0,072	-0,013
-418,715	-145,915	-0,190	-0,012
-417,701	-53,062	0,113	-0,038
-416,686	-200,000	0,001	0,011
-415,671	348,789	0,061	0,088
-414,657	-200,000	0,017	0,116
-413,642	90,318	-0,039	0,032
-412,628	249,644	-0,117	-0,145
-411,613	10,199	0,095	0,052
-410,598	-1,198	-0,056	-0,028
-409,584	88,299	0,099	0,080
-408,569	-141,039	0,083	0,006
-407,555	587,937	-0,024	0,043
-406,540	800,000	0,020	0,047
-405,525	-200,000	-0,008	0,134
-404,511	-5,555	-0,113	-0,056
-403,496	70,116	-0,116	-0,087
-402,482	-200,000	0,024	0,182
-401,467	-200,000	-0,008	0,159
-400,452	10,909	-0,021	-0,012
-399,438	626,395	-0,041	-0,076
-398,423	329,036	0,021	-0,029
-397,409	10,005	-0,029	-0,016
-396,394	-200,000	0,034	-0,224
-395,379	800,000	-0,037	-0,092
-394,365	19,306	0,108	-0,063
-393,350	-200,000	0,009	-0,068
-392,336	800,000	-0,043	0,111
-391,321	798,695	-0,018	-0,036
-390,306	800,000	-0,045	0,096
-389,292	630,153	-0,048	-0,089
-388,277	141,895	-0,059	0,057
-387,263	-200,000	0,001	-0,053
-386,248	95,745	0,050	-0,042
-385,233	275,992	0,037	0,048
-384,219	-58,696	0,078	0,024
-383,204	183,360	0,067	-0,072
-382,190	-87,268	-0,077	0,017
-381,175	-200,000	0,016	-0,073
-380,160	115,347	-0,028	0,025
-379,146	-200,000	-0,003	0,040
-378,131	42,790	-0,035	-0,023
-377,117	427,916	-0,102	-0,160
-376,102	467,675	0,109	-0,178
-375,088	85,547	0,063	-0,050
-374,073	-164,398	-0,077	0,003
-373,058	800,000	0,025	-0,075
-372,044	-200,000	0,011	0,056
-371,029	248,851	0,088	0,109
-370,015	194,468	-0,006	0,007
-369,000	135,008	-0,015	0,014
-367,985	800,000	-0,006	-0,017
-366,971	-74,026	-0,022	-0,006
-365,956	266,222	-0,061	0,078
-364,942	12,799	0,145	0,081
-363,927	326,939	-0,024	0,033
-362,912	-83,028	-0,155	-0,036
-361,898	161,657	0,073	0,074
-360,883	139,107	0,104	0,099
-359,869	-200,000	0,003	0,092
-358,854	210,272	-0,082	-0,093
-357,839	261,770	0,096	0,121
-356,825	208,028	0,080	-0,091
-355,810	800,000	-0,021	-0,054
-354,796	-54,633	-0,109	0,036
-353,781	85,247	0,125	0,099
-352,766	-98,401	0,065	-0,012
-351,752	800,000	0,042	0,094
-350,737	-103,613	0,070	-0,012
-349,723	420,150	0,073	0,113
-348,708	800,000	0,029	0,078
-347,693	-11,780	-0,101	0,048
-346,679	-32,520	-0,005	-0,002
-345,664	243,078	0,035	-0,043
-344,650	508,454	-0,034	0,057
-343,635	800,000	0,044	0,102
-342,620	-151,371	0,145	-0,008
-341,606	201,459	0,020	0,022
-340,591	800,000	0,027	-0,069
-339,577	221,414	-0,086	-0,101
-338,562	-1,668	0,145	0,074
-337,548	226,360	-0,057	-0,067
-336,533	96,265	0,021	-0,018
-335,518	30,918	0,060	-0,037
-334,504	-25,651	0,088	-0,037
-333,489	195,143	-0,048	-0,053
-332,475	280,361	0,063	-0,082
-331,460	19,739	-0,091	-0,053
-330,445	-200,000	0,021	-0,126
-329,431	-200,000	0,029	0,096
-328,416	218,920	0,059	0,069
-327,402	-123,586	0,088	-0,010
-326,387	-103,145	-0,097	0,016
-325,372	644,494	-0,048	-0,089
-324,358	-77,168	-0,101	-0,025
-323,343	800,000	-0,023	0,068
-322,329	-169,625	-0,097	-0,003
-321,314	-149,118	0,043	-0,002
-320,299	-200,000	-0,001	0,055
-319,285	-128,747	0,213	0,022
-318,270	14,155	-0,088	-0,050
-317,256	800,000	0,005	-0,015
-316,241	-119,507	-0,064	0,008
-315,226	-200,000	0,006	0,061
-314,212	-51,974	-0,056	0,019
-313,197	-200,000	0,031	-0,163
-312,183	-87,881	-0,106	-0,023
-311,168	285,613	-0,119	-0,156
-310,153	800,000	0,029	-0,094
-309,139	-200,000	0,007	-0,203
-308,124	800,000	-0,055	0,126
-307,110	317,866	0,066	-0,091
-306,095	788,127	0,058	-0,116
-305,080	-118,354	0,100	-0,013
-304,066	18,441	0,137	-0,079
-303,051	800,000	-0,055	-0,119
-302,037	-47,170	-0,140	0,049
-301,022	-200,000	0,004	0,030
-300,008	-77,368	0,072	0,018
-298,993	22,563	0,141	0,084
-297,978	-60,901	-0,105	-0,032
-296,964	-200,000	0,016	0,122
-295,949	-200,000	0,010	-0,122
-294,935	-113,313	0,051	0,007
-293,920	23,039	-0,085	0,051
-292,905	-135,651	0,075	-0,006
-291,891	-61,496	0,137	0,041
-290,876	152,075	0,048	0,048
-289,862	-200,000	0,010	-0,037
-288,847	27,958	0,047	0,029
-287,832	267,092	0,080	-0,102
-286,818	800,000	-0,028	-0,075
-285,803	454,499	0,009	-0,014
-284,789	427,136	-0,052	0,081
-283,774	-200,000	-0,042	0,153
-282,759	-15,248	-0,097	-0,045
-281,745	137,194	0,086	-0,082
-280,730	-88,326	-0,116	0,025
-279,716	162,764	-0,120	-0,122
-278,701	800,000	-0,021	-0,059
-277,686	798,136	0,030	0,061
-276,672	129,852	-0,056	0,052
-275,657	800,000	0,031	-0,095
-274,643	800,000	-0,057	-0,131
-273,628	-200,000	-0,004	-0,089
-272,613	-185,293	-0,151	0,002
-271,599	-72,465	0,116	0,031
-270,584	-31,292	0,097	-0,039
-269,570	221,040	-0,122	0,142
-268,555	278,578	0,059	0,076
-267,540	-192,273	0,052	-0,000
-266,526	-62,581	-0,055	0,016
-265,511	-50,447	0,201	-0,068
-264,497	800,000	0,007	-0,016
-263,482	-47,850	0,090	-0,032
-262,467	-200,000	-0,009	0,163
-261,453	800,000	0,032	0,084
-260,438	-200,000	-0,009	0,037
-259,424	36,706	0,120	-0,076
-258,409	-78,543	-0,059	-0,015
-257,395	105,048	0,073	0,062
-256,380	89,677	0,130	0,105
-255,365	-1,036	-0,115	0,059
-254,351	-112,304	0,113	-0,016
-253,336	218,586	0,069	-0,079
-252,322	772,645	-0,007	0,014
-251,307	-200,000	-0,013	-0,080
-250,292	127,493	-0,069	-0,063
-249,278	-31,905	0,134	0,054
-248,263	800,000	0,016	0,038
-247,249	41,055	0,018	-0,011
-246,234	800,000	0,037	0,087
-245,219	322,600	-0,053	0,074
-244,205	-139,294	0,107	-0,008
-243,190	625,914	-0,018	0,033
-242,176	185,796	-0,052	0,056
-241,161	635,860	0,046	-0,085
-240,146	-200,000	0,023	0,079
-239,132	438,529	-0,028	0,045
-238,117	304,293	-0,133	-0,178
-237,103	122,838	0,150	-0,136
-236,088	-9,747	-0,040	-0,019
-235,073	-200,000	-0,006	0,039
-234,059	800,000	0,052	0,139
-233,044	17,675	-0,108	0,062
-232,030	145,043	0,098	-0,095
-231,015	-156,014	-0,071	0,003
-230,000	800,000	0,026	-0,069
-228,986	800,000	-0,051	-0,106
-227,971	800,000	-0,039	-0,105
-226,957	-116,535	0,119	-0,016
-225,942	-2,159	0,060	-0,030
-224,927	-200,000	-0,011	-0,056
-223,913	64,947	-0,118	0,086
-222,898	11,327	0,074	0,041
-221,884	422,661	-0,079	-0,124
-220,869	-53,373	0,204	0,067
-219,855	-200,000	-0,041	0,136
-218,840	-200,000	0,006	0,074
-217,825	282,922	-0,031	0,040
-216,811	230,584	-0,029	0,034
-215,796	-200,000	-0,046	0,165
-214,782	-21,253	-0,105	-0,046
-213,767	344,644	0,054	-0,076
-212,752	-200,000	0,036	0,163
-211,738	251,450	0,038	-0,047
-210,723	16,896	-0,009	0,005
-209,709	-200,000	-0,050	-0,166
-208,694	268,733	-0,078	0,099
-207,679	141,822	0,078	-0,074
-206,665	125,931	0,070	-0,064
-205,650	192,915	-0,038	-0,041
-204,636	176,780	-0,037	-0,039
-203,621	636,654	0,034	-0,063
-202,606	98,695	-0,068	0,057
-201,592	126,487	0,051	-0,046
-200,577	-200,000	-0,033	-0,153
-199,563	-15,516	-0,079	-0,036
-198,548	616,247	0,093	0,170
-197,533	368,076	-0,060	0,089
-196,519	-97,900	0,056	-0,010
-195,504	-60,140	-0,063	0,019
-194,490	-174,345	-0,200	0,004
-193,475	-132,340	0,082	0,008
-192,460	31,775	-0,093	0,057
-191,446	165,811	0,040	0,041
-190,431	-200,000	-0,017	0,067
-189,417	102,265	-0,074	-0,062
-188,402	-200,000	-0,031	-0,154
-187,387	559,360	0,019	-0,032
-186,373	113,884	-0,125	-0,109
-185,358	336,579	0,008	0,011
-184,344	78,671	0,065	-0,050
-183,329	217,771	-0,061	0,070
-182,315	82,103	0,084	-0,066
-181,300	800,000	0,014	-0,032
-180,285	29,765	-0,130	-0,080
-179,271	-98,781	-0,055	0,010
-178,256	800,000	-0,050	0,151
-177,242	35,231	0,214	0,135
-176,227	111,284	0,056	0,048
-175,212	800,000	0,082	0,186
-174,198	2,981	-0,065	0,034
-173,183	-200,000	-0,031	-0,192
-172,169	-200,000	0,017	-0,123
-171,154	-62,771	-0,037	0,011
-170,139	32,254	-0,112	0,070
-169,125	-165,807	0,097	0,003
-168,110	46,596	0,141	0,094
-167,096	449,454	-0,051	0,081
-166,081	194,859	-0,062	-0,068
-165,066	-200,000	-0,027	0,089
-164,052	399,776	-0,066	-0,101
-163,037	800,000	0,064	-0,149
-162,023	-200,000	-0,006	-0,047
-161,008	-76,862	0,090	-0,023
-159,993	24,440	-0,100	0,059
-158,979	452,417	-0,033	0,053
-157,964	12,984	0,043	0,024
-156,950	-200,000	-0,005	-0,032
-155,935	221,301	-0,047	0,054
-154,920	16,013	-0,080	0,045
-153,906	-92,020	0,075	0,015
-152,891	110,548	0,056	0,049
-151,877	-200,000	-0,004	-0,045
-150,862	140,267	-0,030	-0,028
-149,847	-119,133	0,144	-0,018
-148,833	-200,000	0,007	-0,048
-147,818	-4,780	0,135	0,067
-146,804	-82,460	0,170	0,040
-145,789	421,484	0,074	0,114
-144,775	574,653	0,067	0,119
-143,760	800,000	0,022	-0,054
-142,745	-200,000	-0,009	-0,047
-141,731	43,998	-0,015	0,010
-140,716	316,701	0,025	-0,034
-139,702	601,385	0,075	0,135
-138,687	800,000	-0,059	0,154
-137,672	-32,486	0,058	-0,023
-136,658	-200,000	0,007	-0,095
-135,643	243,809	-0,071	0,086
-134,629	800,000	0,064	-0,149
-133,614	-2,851	0,110	0,055
-132,599	159,703	0,052	-0,052
-131,585	187,375	0,021	0,023
-130,570	41,115	0,087	0,057
-129,556	203,092	-0,047	0,053
-128,541	-200,000	-0,025	-0,089
-127,526	800,000	-0,016	-0,045
-126,512	184,272	0,044	0,046
-125,497	-14,257	0,126	0,058
-124,483	220,679	-0,096	0,111
-123,468	143,788	0,120	0,116
-122,453	518,247	-0,040	0,068
-121,439	-200,000	-0,026	-0,083
-120,424	144,736	-0,059	-0,057
-119,410	-124,499	0,101	0,011
-118,395	-100,676	-0,026	-0,005
-117,380	-83,360	0,083	-0,019
