DTS Sentinel unit serial number:	SN410029Multiplexer serial number:	ORYXHardware model number:	OX2-SRSoftware version number:	ORYX F/W v4,00 Oryx Data Collector v3.7.2.0data status	okinstallation	B5 Nyhavnadifferential loss correction	single-endedforward channel	channel 2reverse channel	N/Adate	2023/12/11time	22:22:13forward acquisition time	300,00reverse acquisition time	0,00gamma	499,1914k internal	0,3155k external	0,3155temperature offset calibration	1,0000default loss term (dB/km)	0,3820temperature slope calibration	1,0000multiplexer offset coefficient	1,0000multiplexer slope coefficient	1,0000fibre end	0,00T internal ref (°C)	16,31T ext. ref 1 (°C)	0,14T ext. ref 2 (°C)	-0,12length (m)	temperature (°C)	Stokes	anti-Stokes-744,400	32,260	0,033	0,021
-743,385	-3,299	-0,280	0,143
-742,371	-140,626	0,114	0,009
-741,356	-84,068	-0,333	0,077
-740,342	-162,531	0,111	-0,004
-739,327	-61,049	-0,221	0,068
-738,312	-200,000	0,010	-0,039
-737,298	-69,240	-0,346	0,097
-736,283	67,023	0,020	-0,015
-735,269	-152,234	-0,188	0,010
-734,254	618,412	0,095	0,177
-733,239	-8,589	-0,381	-0,188
-732,225	173,442	-0,056	0,059
-731,210	-200,000	0,024	-0,137
-730,196	64,876	0,124	-0,093
-729,181	-59,302	0,073	-0,023
-728,167	-200,000	0,015	0,115
-727,152	800,000	0,034	0,080
-726,137	-31,176	0,051	-0,021
-725,123	364,192	0,014	0,022
-724,108	-4,367	0,128	-0,065
-723,094	66,421	-0,041	-0,031
-722,079	-200,000	-0,016	-0,119
-721,064	153,750	0,093	0,094
-720,050	-38,923	0,091	0,035
-719,035	23,785	-0,103	-0,062
-718,021	-157,847	-0,187	0,008
-717,006	-104,336	-0,107	-0,018
-715,991	800,000	-0,030	-0,071
-714,977	-200,000	-0,011	-0,076
-713,962	-67,319	-0,046	-0,013
-712,948	-200,000	0,038	0,161
-711,933	-200,000	0,000	-0,037
-710,918	-53,240	-0,113	-0,038
-709,904	-200,000	-0,013	0,041
-708,889	430,441	0,046	-0,073
-707,875	-200,000	0,004	0,016
-706,860	-4,689	-0,123	-0,062
-705,845	13,291	-0,028	0,016
-704,831	789,451	-0,040	0,082
-703,816	597,655	-0,002	0,004
-702,802	731,878	-0,060	0,119
-701,787	-66,851	0,056	-0,016
-700,772	800,000	-0,059	0,160
-699,758	-112,349	-0,041	0,006
-698,743	-200,000	-0,026	0,119
-697,729	-200,000	-0,002	0,109
-696,714	-200,000	0,009	0,078
-695,699	-200,000	0,012	-0,061
-694,685	800,000	0,028	-0,081
-693,670	-41,764	-0,102	-0,039
-692,656	50,559	-0,141	0,098
-691,641	-200,000	0,066	0,000
-690,627	92,060	0,123	-0,102
-689,612	204,214	0,008	0,010
-688,597	-37,893	0,039	-0,015
-687,583	9,524	-0,193	-0,107
-686,568	-200,000	-0,003	-0,144
-685,554	-77,283	-0,098	-0,025
-684,539	-152,377	0,125	0,007
-683,524	-200,000	0,002	-0,008
-682,510	12,541	-0,107	-0,061
-681,495	-69,542	-0,093	-0,026
-680,481	-200,000	-0,030	-0,124
-679,466	-144,732	-0,144	-0,010
-678,451	800,000	0,065	0,143
-677,437	417,969	0,087	0,138
-676,422	-200,000	-0,007	0,060
-675,408	-200,000	0,010	0,046
-674,393	113,346	-0,047	-0,042
-673,378	81,495	0,036	0,029
-672,364	-200,000	-0,167	0,000
-671,349	-200,000	-0,003	-0,086
-670,335	-200,000	0,045	0,153
-669,320	14,741	0,129	0,074
-668,305	-153,958	0,052	-0,003
-667,291	800,000	-0,018	-0,052
-666,276	-37,295	-0,042	0,016
-665,262	194,677	-0,086	-0,097
-664,247	-55,094	-0,052	-0,017
-663,232	450,588	0,023	0,037
-662,218	-200,000	-0,015	0,120
-661,203	-200,000	-0,001	0,014
-660,189	-200,000	0,006	0,073
-659,174	93,021	-0,156	-0,129
-658,159	-200,000	0,014	-0,091
-657,145	-113,194	-0,088	-0,013
-656,130	-69,905	-0,124	0,034
-655,116	90,630	0,087	0,071
-654,101	-26,662	0,087	-0,037
-653,086	54,248	-0,073	-0,052
-652,072	-200,000	-0,010	0,053
-651,057	390,025	-0,103	-0,158
-650,043	-37,964	-0,108	-0,042
-649,028	697,021	0,013	0,025
-648,014	-9,181	-0,107	0,052
-646,999	59,256	0,122	0,088
-645,984	255,587	0,089	0,112
-644,970	-9,333	0,078	-0,038
-643,955	-200,000	0,005	-0,046
-642,941	-200,000	-0,011	0,054
-641,926	-200,000	-0,006	-0,169
-640,911	-107,768	0,061	0,010
-639,897	137,418	0,093	0,089
-638,882	-200,000	-0,015	0,174
-637,868	186,610	0,077	0,085
-636,853	-134,444	-0,090	0,008
-635,838	150,659	-0,143	-0,143
-634,824	226,544	0,125	-0,149
-633,809	-3,329	0,071	-0,036
-632,795	-126,308	-0,040	-0,004
-631,780	725,509	0,048	-0,095
-630,765	-65,173	-0,117	-0,035
-629,751	-200,000	-0,019	-0,109
-628,736	-200,000	0,002	-0,076
-627,722	800,000	0,053	-0,141
-626,707	98,058	-0,032	-0,027
-625,692	800,000	0,011	-0,025
-624,678	64,775	0,034	0,025
-623,663	-200,000	-0,041	0,173
-622,649	-200,000	-0,001	-0,019
-621,634	-133,694	0,087	-0,008
-620,619	201,264	-0,094	-0,106
-619,605	75,248	0,040	-0,031
-618,590	371,037	-0,018	-0,027
-617,576	268,469	0,081	0,104
-616,561	-200,000	0,001	-0,023
-615,546	99,536	-0,081	-0,069
-614,532	131,417	0,062	-0,059
-613,517	-161,326	0,063	-0,002
-612,503	-121,455	0,072	-0,009
-611,488	8,251	-0,128	0,070
-610,474	-67,362	-0,096	0,028
-609,459	-96,467	0,028	0,005
-608,444	-98,951	-0,076	0,014
-607,430	800,000	-0,019	0,042
-606,415	-5,296	0,050	0,025
-605,401	51,566	0,056	-0,039
-604,386	-115,388	0,101	-0,014
-603,371	-109,334	-0,061	0,009
-602,357	-200,000	-0,021	-0,108
-601,342	461,774	0,014	0,022
-600,328	524,046	-0,057	-0,099
-599,313	129,404	0,132	-0,124
-598,298	25,967	-0,070	-0,043
-597,284	112,105	0,077	-0,068
-596,269	450,088	-0,048	-0,077
-595,255	800,000	-0,042	0,111
-594,240	-7,809	0,081	0,040
-593,225	-54,385	-0,064	0,021
-592,211	-200,000	0,008	-0,192
-591,196	17,370	-0,050	-0,029
-590,182	-56,294	-0,065	-0,021
-589,167	572,603	-0,046	-0,083
-588,152	736,557	-0,039	-0,077
-587,138	247,319	-0,120	-0,148
-586,123	-62,425	0,119	-0,036
-585,109	-57,223	0,049	-0,016
-584,094	101,770	-0,102	-0,087
-583,079	665,458	-0,014	0,026
-582,065	-105,428	0,150	0,025
-581,050	-97,693	0,097	-0,018
-580,036	-145,685	-0,173	0,011
-579,021	-6,192	-0,110	0,055
-578,006	-200,000	-0,021	-0,122
-576,992	800,000	-0,039	-0,118
-575,977	-122,478	-0,101	0,012
-574,963	226,808	0,021	-0,024
-573,948	-17,629	-0,122	-0,056
-572,934	-84,618	0,093	0,021
-571,919	-200,000	-0,015	0,091
-570,904	254,665	0,101	-0,127
-569,890	-200,000	-0,012	0,110
-568,875	-129,104	-0,075	0,008
-567,861	389,544	-0,037	0,056
-566,846	-200,000	-0,003	0,045
-565,831	603,126	0,075	-0,138
-564,817	-119,049	-0,151	-0,019
-563,802	800,000	0,028	-0,058
-562,788	-200,000	-0,012	-0,064
-561,773	800,000	0,040	0,124
-560,758	-200,000	-0,013	0,173
-559,744	-68,651	-0,078	-0,022
-558,729	80,739	0,078	-0,062
-557,715	-200,000	-0,012	-0,056
-556,700	-122,673	-0,083	-0,010
-555,685	-38,558	-0,067	0,026
-554,671	800,000	0,036	-0,080
-553,656	369,689	-0,052	0,078
-552,642	129,758	0,084	-0,079
-551,627	-3,767	-0,131	0,067
-550,612	120,775	0,056	-0,051
-549,598	-200,000	-0,024	-0,081
-548,583	-150,637	-0,040	0,002
-547,569	800,000	0,041	-0,128
-546,554	-18,742	0,057	0,026
-545,539	-60,243	0,110	0,034
-544,525	67,496	0,062	-0,046
-543,510	439,245	-0,058	-0,092
-542,496	-29,327	0,019	-0,008
-541,481	-82,756	-0,089	0,021
-540,466	-200,000	-0,024	0,148
-539,452	-127,232	-0,053	0,006
-538,437	800,000	0,031	-0,068
-537,423	626,132	-0,069	0,128
-536,408	-56,183	-0,079	-0,026
-535,393	356,619	-0,036	0,053
-534,379	-11,017	-0,058	0,028
-533,364	226,935	-0,121	-0,144
-532,350	-200,000	-0,015	0,059
-531,335	-12,013	-0,090	0,043
-530,321	-116,057	0,036	0,005
-529,306	198,737	-0,036	-0,041
-528,291	97,135	0,010	0,008
-527,277	446,097	0,072	-0,116
-526,262	31,210	-0,072	-0,045
-525,248	-200,000	-0,009	0,061
-524,233	-97,469	0,109	0,020
-523,218	170,347	0,039	0,040
-522,204	705,616	0,042	0,082
-521,189	-200,000	-0,012	-0,043
-520,175	243,529	-0,066	0,081
-519,160	-200,000	0,014	0,088
-518,145	-15,498	0,063	0,029
-517,131	-200,000	0,008	0,036
-516,116	-110,743	-0,144	-0,021
-515,102	-171,611	-0,067	-0,002
-514,087	-95,574	-0,103	-0,020
-513,072	-9,049	-0,046	-0,022
-512,058	800,000	0,043	0,097
-511,043	308,082	0,087	0,119
-510,029	124,622	-0,119	0,109
-509,014	372,221	0,045	0,067
-507,999	-191,697	0,113	0,001
-506,985	147,268	-0,113	-0,111
-505,970	-66,246	0,082	-0,024
-504,956	-23,220	-0,124	-0,054
-503,941	28,207	-0,081	-0,050
-502,926	-200,000	-0,009	0,090
-501,912	-200,000	-0,013	0,059
-500,897	-200,000	0,010	0,052
-499,883	800,000	-0,011	0,028
-498,868	-200,000	0,012	-0,077
-497,853	-200,000	-0,006	0,072
-496,839	361,365	0,122	0,180
-495,824	-154,871	0,140	0,007
-494,810	-200,000	-0,013	0,043
-493,795	-143,058	0,145	0,010
-492,781	616,633	-0,083	-0,154
-491,766	618,675	-0,044	-0,082
-490,751	-200,000	0,035	-0,135
-489,737	-200,000	0,004	0,056
-488,722	-200,000	0,028	0,095
-487,708	106,103	-0,009	-0,008
-486,693	46,279	-0,074	0,050
-485,678	597,196	0,027	-0,049
-484,664	594,870	0,056	-0,101
-483,649	86,688	-0,072	0,058
-482,635	264,047	0,109	-0,139
-481,620	-200,000	-0,026	0,113
-480,605	85,486	0,065	0,052
-479,591	-65,257	0,073	0,021
-478,576	800,000	-0,048	0,127
-477,562	-200,000	-0,031	0,148
-476,547	363,984	-0,038	0,056
-475,532	197,593	-0,083	-0,093
-474,518	-99,379	0,118	0,022
-473,503	33,475	0,075	0,048
-472,489	-165,492	-0,067	0,002
-471,474	3,921	0,054	0,029
-470,459	190,823	-0,026	-0,029
-469,445	-57,011	-0,120	-0,038
-468,430	178,955	0,063	-0,067
-467,416	221,995	-0,035	-0,041
-466,401	136,352	0,087	-0,083
-465,386	-200,000	-0,036	0,156
-464,372	134,837	-0,094	-0,089
-463,357	-52,291	-0,011	-0,004
-462,343	-36,457	-0,117	0,046
-461,328	-184,704	-0,070	0,001
-460,313	55,419	0,118	-0,083
-459,299	-200,000	0,026	-0,162
-458,284	-37,952	-0,160	0,062
-457,270	757,977	-0,033	0,066
-456,255	-22,830	-0,078	-0,034
-455,241	-200,000	0,001	-0,162
-454,226	-136,776	-0,131	-0,011
-453,211	411,935	0,099	0,154
-452,197	-102,564	0,110	0,019
-451,182	49,544	-0,061	0,042
-450,168	800,000	0,045	0,100
-449,153	81,651	-0,005	-0,004
-448,138	686,895	-0,046	-0,087
-447,124	257,592	0,027	0,034
-446,109	-41,872	0,064	-0,024
-445,095	-200,000	0,016	0,166
-444,080	-200,000	-0,021	0,120
-443,065	-200,000	0,014	0,118
-442,051	-60,205	0,058	0,018
-441,036	-200,000	-0,027	-0,120
-440,022	800,000	0,008	-0,023
-439,007	-200,000	-0,008	0,072
-437,992	107,894	0,125	0,108
-436,978	-9,674	0,047	-0,023
-435,963	-69,401	0,136	-0,038
-434,949	116,100	-0,130	-0,116
-433,934	213,895	-0,091	-0,105
-432,919	-200,000	0,015	-0,053
-431,905	-200,000	0,023	-0,081
-430,890	-200,000	-0,056	0,225
-429,876	302,598	0,103	0,140
-428,861	-132,919	0,082	0,007
-427,846	-200,000	-0,003	0,093
-426,832	487,984	-0,047	0,079
-425,817	74,265	-0,078	-0,059
-424,803	-50,627	0,130	0,044
-423,788	-146,020	0,049	-0,003
-422,773	-34,203	-0,037	0,015
-421,759	-200,000	0,031	-0,194
-420,744	-200,000	-0,005	0,150
-419,730	52,369	-0,081	0,056
-418,715	-31,950	0,139	-0,056
-417,701	-200,000	-0,020	-0,162
-416,686	-109,393	0,040	-0,006
-415,671	800,000	-0,043	0,089
-414,657	-200,000	0,002	-0,138
-413,642	800,000	0,022	0,054
-412,628	-200,000	-0,020	0,121
-411,613	153,385	-0,077	0,076
-410,598	-200,000	0,001	-0,053
-409,584	128,564	0,067	-0,062
-408,569	-83,494	-0,133	0,031
-407,555	-198,160	0,190	0,001
-406,540	363,092	0,056	-0,082
-405,525	293,173	-0,068	-0,090
-404,511	-121,805	-0,060	0,007
-403,496	-200,000	-0,005	-0,059
-402,482	584,672	0,038	-0,068
-401,467	-84,966	0,152	0,034
-400,452	126,064	0,070	0,065
-399,438	-19,161	0,129	-0,058
-398,423	800,000	-0,032	0,080
-397,409	800,000	-0,011	0,023
-396,394	-64,953	-0,143	-0,042
-395,379	-73,773	-0,087	0,023
-394,365	25,078	-0,125	-0,075
-393,350	25,322	0,107	0,064
-392,336	800,000	0,035	-0,074
-391,321	-129,652	0,108	-0,011
-390,306	74,997	-0,045	-0,034
-389,292	289,199	-0,067	-0,089
-388,277	800,000	-0,034	-0,087
-387,263	800,000	-0,040	0,112
-386,248	800,000	-0,052	0,111
-385,233	800,000	-0,043	0,107
-384,219	800,000	-0,041	0,100
-383,204	326,334	0,079	-0,110
-382,190	-200,000	-0,005	-0,069
-381,175	-187,364	-0,076	-0,001
-380,160	-18,796	-0,033	-0,015
-379,146	-49,833	0,167	-0,057
-378,131	769,107	0,025	-0,050
-377,117	800,000	0,036	0,080
-376,102	800,000	0,028	-0,073
-375,088	-200,000	0,026	-0,099
-374,073	472,922	0,059	0,097
-373,058	99,731	0,042	0,036
-372,044	2,109	0,137	0,072
-371,029	423,693	0,088	0,137
-370,015	-200,000	0,001	-0,030
-369,000	-200,000	-0,008	-0,026
-367,985	-200,000	0,031	-0,214
-366,971	-61,755	0,126	0,038
-365,956	-9,022	0,058	0,028
-364,942	-200,000	0,006	0,118
-363,927	-200,000	0,003	0,061
-362,912	227,571	-0,048	0,057
-361,898	50,691	-0,072	-0,050
-360,883	90,808	-0,074	-0,061
-359,869	183,467	0,045	0,048
-358,854	-200,000	0,013	0,042
-357,839	-48,123	-0,075	-0,026
-356,825	578,250	-0,021	0,038
-355,810	-58,685	0,152	0,047
-354,796	161,108	-0,035	0,036
-353,781	-21,384	0,043	-0,019
-352,766	172,929	-0,061	-0,064
-351,752	-200,000	-0,017	0,055
-350,737	387,974	-0,013	-0,020
-349,723	197,092	0,059	-0,065
-348,708	695,351	0,068	0,130
-347,693	-158,337	-0,007	-0,000
-346,679	-32,969	-0,151	0,060
-345,664	418,912	0,046	-0,071
-344,650	-200,000	0,005	0,121
-343,635	-93,177	0,095	-0,019
-342,620	532,898	0,066	0,114
-341,606	800,000	0,048	-0,105
-340,591	-40,436	-0,044	-0,016
-339,577	-200,000	0,012	-0,077
-338,562	-55,010	-0,079	-0,026
-337,548	82,008	-0,038	-0,030
-336,533	51,724	-0,079	-0,054
-335,518	-180,689	0,086	-0,001
-334,504	-119,608	-0,045	0,006
-333,489	-45,252	-0,142	-0,051
-332,475	731,950	0,043	-0,084
-331,460	226,629	-0,064	0,075
-330,445	800,000	0,037	0,098
-329,431	800,000	0,057	0,149
-328,416	-200,000	-0,050	0,000
-327,402	76,115	0,140	-0,108
-326,387	-56,906	-0,055	-0,018
-325,372	-200,000	-0,001	-0,114
-324,358	32,426	0,050	0,032
-323,343	-200,000	-0,005	0,096
-322,329	800,000	0,013	0,039
-321,314	-200,000	0,031	-0,154
-320,299	-145,684	-0,022	0,001
-319,285	-200,000	0,026	0,112
-318,270	-200,000	0,043	-0,142
-317,256	629,563	-0,058	-0,107
-316,241	-200,000	-0,095	-0,000
-315,226	464,699	-0,068	-0,111
-314,212	-200,000	0,037	-0,277
-313,197	174,402	0,040	-0,042
-312,183	-151,048	-0,127	0,007
-311,168	39,167	-0,080	0,052
-310,153	405,874	0,050	-0,077
-309,139	401,975	0,009	0,013
-308,124	251,546	-0,040	0,049
-307,110	164,974	0,062	0,064
-306,095	-83,938	0,036	0,008
-305,080	-3,488	0,150	-0,075
-304,066	-111,605	-0,087	0,013
-303,051	800,000	-0,046	-0,119
-302,037	-143,085	-0,035	0,002
-301,022	68,428	0,064	-0,047
-300,008	-145,329	-0,062	-0,004
-298,993	-200,000	0,015	0,063
-297,978	0,222	-0,047	-0,024
-296,964	63,204	-0,184	0,134
-295,949	124,100	-0,055	-0,050
-294,935	-200,000	0,004	-0,025
-293,920	617,948	0,055	-0,100
-292,905	19,548	-0,037	-0,022
-291,891	-1,958	0,091	0,046
-290,876	800,000	0,021	0,053
-289,862	-200,000	-0,020	0,070
-288,847	-13,573	-0,043	-0,020
-287,832	220,043	0,017	0,019
-286,818	800,000	0,029	0,083
-285,803	228,197	0,068	0,080
-284,789	-23,165	0,118	0,051
-283,774	97,741	0,010	-0,008
-282,759	-200,000	0,016	0,053
-281,745	716,947	0,074	-0,144
-280,730	-79,775	-0,097	-0,023
-279,716	-200,000	0,006	0,100
-278,701	144,997	0,048	0,047
-277,686	-200,000	-0,012	0,046
-276,672	-167,695	-0,136	0,004
-275,657	364,180	0,045	-0,066
-274,643	-44,500	0,076	0,027
-273,628	709,859	-0,045	0,087
-272,613	313,688	0,091	-0,124
-271,599	197,834	0,024	0,027
-270,584	-200,000	-0,025	0,127
-269,570	-200,000	0,005	0,128
-268,555	522,912	-0,045	0,076
-267,540	-1,988	-0,063	-0,032
-266,526	-200,000	0,006	0,054
-265,511	-106,843	0,025	-0,004
-264,497	-22,778	0,088	-0,039
-263,482	86,261	0,118	0,094
-262,467	220,516	0,084	0,098
-261,453	-200,000	-0,004	0,075
-260,438	800,000	0,014	-0,039
-259,424	258,681	0,025	0,032
-258,409	-117,872	-0,080	-0,010
-257,395	214,215	0,082	0,094
-256,380	-200,000	0,022	-0,085
-255,365	16,956	0,137	0,078
-254,351	242,900	0,070	0,084
-253,336	225,588	-0,073	-0,086
-252,322	538,777	0,036	-0,061
-251,307	-136,479	0,055	0,005
-250,292	222,367	-0,049	0,057
-249,278	-200,000	0,009	-0,167
-248,263	184,783	0,038	0,041
-247,249	-172,870	0,023	-0,001
-246,234	266,636	0,060	-0,076
-245,219	800,000	-0,051	-0,107
-244,205	-72,832	-0,071	-0,019
-243,190	-200,000	-0,017	0,098
-242,176	-39,082	0,111	-0,042
-241,161	95,755	-0,075	0,062
-240,146	362,325	-0,050	-0,073
-239,132	-200,000	0,029	-0,142
-238,117	606,261	-0,023	0,042
-237,103	162,850	0,145	0,148
-236,088	-17,312	-0,071	-0,032
-235,073	495,333	0,033	0,054
-234,059	325,541	-0,018	0,025
-233,044	-31,437	0,033	-0,013
-232,030	800,000	0,031	0,072
-231,015	538,679	0,060	0,103
-230,000	800,000	-0,068	-0,164
-228,986	315,322	-0,093	-0,127
-227,971	-200,000	-0,003	0,080
-226,957	-97,213	0,103	0,019
-225,942	108,500	0,013	-0,011
-224,927	-62,701	0,149	-0,044
-223,913	30,166	0,107	-0,066
-222,898	-200,000	-0,004	0,046
-221,884	800,000	0,071	-0,206
-220,869	63,216	0,070	-0,051
-219,855	79,723	0,083	0,064
-218,840	-200,000	0,000	0,060
-217,825	-200,000	0,009	0,072
-216,811	800,000	-0,044	-0,117
-215,796	464,421	0,073	-0,118
-214,782	-200,000	0,003	0,017
-213,767	-200,000	0,006	0,021
-212,752	29,935	0,050	0,031
-211,738	188,791	-0,022	-0,023
-210,723	-136,039	-0,148	-0,012
-209,709	-121,792	-0,088	-0,010
-208,694	-200,000	0,003	0,037
-207,679	557,575	0,065	-0,114
-206,665	-3,306	-0,086	-0,043
-205,650	-110,074	-0,120	0,018
-204,636	95,936	0,075	0,061
-203,621	95,959	0,023	0,019
-202,606	-151,063	-0,029	0,002
-201,592	-200,000	-0,002	-0,075
-200,577	619,560	-0,011	-0,020
-199,563	800,000	0,018	0,042
-198,548	-15,398	0,144	0,066
-197,533	20,305	-0,080	-0,046
-196,519	-37,467	-0,043	-0,017
-195,504	-200,000	-0,029	-0,105
-194,490	-45,661	-0,210	-0,075
-193,475	-14,887	-0,094	-0,043
-192,460	800,000	0,051	0,148
-191,446	151,739	0,089	0,088
-190,431	66,483	0,062	-0,045
-189,417	408,193	-0,053	0,082
-188,402	800,000	-0,008	0,026
-187,387	256,698	-0,139	-0,172
-186,373	-200,000	0,011	-0,147
-185,358	-82,497	-0,050	-0,012
-184,344	-200,000	0,004	0,170
-183,329	-200,000	-0,015	-0,064
-182,315	-200,000	-0,002	-0,102
-181,300	-106,069	-0,099	-0,016
-180,285	37,318	-0,048	0,031
-179,271	752,336	0,040	-0,079
-178,256	72,330	-0,137	0,103
-177,242	140,177	0,180	0,172
-176,227	-200,000	-0,039	0,140
-175,212	652,483	0,089	0,165
-174,198	-4,244	0,039	0,019
-173,183	34,345	-0,074	0,046
-172,169	-200,000	0,004	0,032
-171,154	-106,248	-0,154	0,025
-170,139	800,000	0,030	0,065
-169,125	-190,332	-0,118	0,001
-168,110	-200,000	0,009	-0,128
-167,096	-194,514	-0,027	0,000
-166,081	-31,313	-0,020	-0,008
-165,066	38,294	-0,075	-0,048
-164,052	402,652	-0,012	-0,019
-163,037	629,315	-0,076	0,139
-162,023	636,390	0,068	-0,124
-161,008	232,802	-0,062	-0,074
-159,993	-200,000	0,003	-0,012
-158,979	-200,000	0,004	0,112
-157,964	-85,706	0,051	0,011
-156,950	-200,000	-0,000	-0,019
-155,935	-200,000	0,012	0,105
-154,920	135,757	0,063	0,059
-153,906	800,000	0,059	0,130
-152,891	800,000	-0,106	0,229
-151,877	251,425	0,113	-0,139
-150,862	-200,000	0,008	-0,035
-149,847	12,956	-0,058	-0,032
-148,833	247,211	0,094	0,114
-147,818	107,146	0,095	0,082
-146,804	225,183	0,037	-0,043
-145,789	106,294	0,033	0,028
-144,775	88,034	-0,057	-0,045
-143,760	105,469	0,029	-0,024
-142,745	-88,445	0,091	0,019
-141,731	-99,815	-0,067	0,012
-140,716	-84,679	0,197	-0,044
-139,702	-79,827	0,072	-0,017
-138,687	315,053	0,042	0,057
-137,672	-200,000	-0,000	-0,070
-136,658	-200,000	0,006	-0,139
-135,643	434,714	-0,072	-0,114
-134,629	800,000	-0,048	-0,117
-133,614	-86,404	-0,112	0,025
-132,599	-200,000	0,013	0,140
-131,585	593,753	-0,047	0,084
-130,570	-73,310	0,099	0,026
-129,556	181,158	0,045	0,048
-128,541	254,564	0,025	0,030
-127,526	549,898	0,049	-0,085
-126,512	-89,858	0,148	0,031
-125,497	-14,196	-0,078	0,036
-124,483	-200,000	-0,004	-0,096
-123,468	-191,622	-0,128	0,001
-122,453	-75,201	0,133	0,034
-121,439	795,406	-0,060	-0,120
-120,424	451,842	-0,099	0,158
-119,410	-200,000	-0,013	0,049
