DTS Sentinel unit serial number:	SN410029Multiplexer serial number:	ORYXHardware model number:	OX2-SRSoftware version number:	ORYX F/W v4,00 Oryx Data Collector v3.7.2.0data status	okinstallation	B5 Nyhavnadifferential loss correction	single-endedforward channel	channel 2reverse channel	N/Adate	2023/12/12time	05:02:13forward acquisition time	300,00reverse acquisition time	0,00gamma	499,1914k internal	0,3157k external	0,3157temperature offset calibration	1,0000default loss term (dB/km)	0,3820temperature slope calibration	1,0000multiplexer offset coefficient	1,0000multiplexer slope coefficient	1,0000fibre end	0,00T internal ref (°C)	15,40T ext. ref 1 (°C)	-1,01T ext. ref 2 (°C)	-1,29length (m)	temperature (°C)	Stokes	anti-Stokes-744,400	-200,000	0,029	0,109
-743,385	-131,116	-0,151	-0,015
-742,371	10,727	0,060	-0,033
-741,356	-35,306	-0,130	-0,052
-740,342	-129,299	0,088	-0,009
-739,327	-85,187	-0,182	-0,042
-738,312	-200,000	-0,021	0,085
-737,298	-54,744	-0,262	0,087
-736,283	-200,000	-0,002	0,015
-735,269	-157,602	-0,156	-0,007
-734,254	44,289	0,053	-0,036
-733,239	-10,627	-0,496	-0,241
-732,225	106,306	0,085	0,075
-731,210	-200,000	0,001	-0,031
-730,196	-21,592	-0,076	0,034
-729,181	113,680	-0,047	-0,042
-728,167	31,291	0,093	-0,059
-727,152	-71,829	-0,097	-0,027
-726,137	45,159	-0,077	-0,052
-725,123	-200,000	-0,004	-0,233
-724,108	297,895	-0,017	-0,023
-723,094	-172,862	-0,153	-0,003
-722,079	201,695	-0,068	-0,077
-721,064	426,576	0,035	0,055
-720,050	68,010	-0,077	-0,058
-719,035	-37,794	-0,078	0,030
-718,021	800,000	-0,014	-0,029
-717,006	800,000	-0,003	0,006
-715,991	-198,271	0,081	0,000
-714,977	138,838	-0,080	-0,078
-713,962	653,621	-0,014	0,026
-712,948	392,200	0,018	-0,028
-711,933	-17,237	0,032	-0,015
-710,918	316,831	-0,061	-0,084
-709,904	-36,574	-0,171	-0,067
-708,889	800,000	-0,047	-0,139
-707,875	-103,109	-0,018	0,003
-706,860	55,837	-0,087	-0,062
-705,845	-200,000	0,004	0,090
-704,831	-80,887	0,111	0,027
-703,816	-124,133	-0,139	0,016
-702,802	35,990	0,077	0,050
-701,787	-83,474	-0,087	-0,020
-700,772	111,152	0,024	-0,021
-699,758	191,005	0,030	0,034
-698,743	800,000	0,051	0,111
-697,729	666,415	-0,085	0,162
-696,714	506,271	0,030	-0,052
-695,699	257,681	0,065	-0,082
-694,685	237,892	-0,068	-0,083
-693,670	-54,073	-0,072	-0,024
-692,656	-79,307	0,068	0,017
-691,641	-200,000	-0,017	-0,071
-690,627	132,344	-0,063	0,060
-689,612	-41,869	-0,168	0,063
-688,597	-200,000	-0,000	-0,004
-687,583	204,465	-0,062	-0,071
-686,568	800,000	-0,048	-0,120
-685,554	-200,000	0,027	-0,088
-684,539	167,421	0,054	-0,056
-683,524	794,291	-0,043	0,087
-682,510	579,906	-0,022	-0,040
-681,495	-130,248	-0,162	-0,016
-680,481	-200,000	-0,052	-0,212
-679,466	220,449	0,024	-0,028
-678,451	-200,000	0,054	0,179
-677,437	800,000	0,062	-0,156
-676,422	90,376	0,137	-0,113
-675,408	-44,948	-0,059	-0,022
-674,393	-88,770	0,004	0,001
-673,378	-200,000	-0,024	-0,084
-672,364	682,311	0,020	-0,039
-671,349	-42,756	-0,004	0,002
-670,335	-200,000	0,001	0,064
-669,320	145,804	0,104	0,102
-668,305	-200,000	-0,011	0,080
-667,291	-200,000	0,014	-0,096
-666,276	-48,167	-0,036	-0,013
-665,262	800,000	0,013	0,031
-664,247	-96,499	-0,172	-0,033
-663,232	4,417	-0,030	0,016
-662,218	-200,000	0,038	0,126
-661,203	-200,000	-0,005	0,152
-660,189	-96,247	0,113	0,022
-659,174	-200,000	-0,011	-0,211
-658,159	800,000	-0,024	-0,060
-657,145	385,269	-0,050	-0,076
-656,130	-200,000	-0,008	0,057
-655,116	11,529	0,181	0,101
-654,101	428,216	0,091	-0,145
-653,086	645,053	-0,035	-0,065
-652,072	-80,986	-0,059	-0,014
-651,057	-11,850	0,025	0,012
-650,043	-105,624	-0,128	-0,021
-649,028	480,392	-0,089	-0,149
-648,014	-120,048	-0,117	0,015
-646,999	233,326	-0,040	-0,049
-645,984	-200,000	-0,014	-0,065
-644,970	-200,000	-0,007	-0,089
-643,955	245,096	-0,094	-0,117
-642,941	-112,632	-0,133	-0,019
-641,926	-8,284	-0,057	-0,028
-640,911	322,415	0,008	0,011
-639,897	800,000	-0,069	-0,165
-638,882	-16,628	-0,093	0,043
-637,868	-27,411	-0,039	0,017
-636,853	-200,000	-0,037	-0,139
-635,838	-200,000	-0,012	0,044
-634,824	298,425	-0,051	-0,070
-633,809	-70,848	-0,103	0,028
-632,795	-96,831	-0,049	0,009
-631,780	-200,000	0,019	-0,100
-630,765	96,679	-0,063	-0,053
-629,751	-1,050	0,055	0,028
-628,736	133,192	0,050	-0,047
-627,722	239,608	0,051	0,063
-626,707	-14,458	0,042	-0,020
-625,692	-63,138	-0,027	-0,008
-624,678	-95,442	0,036	0,007
-623,663	354,725	-0,097	0,143
-622,649	35,308	0,131	-0,084
-621,634	482,771	-0,014	0,023
-620,619	-12,939	-0,041	0,020
-619,605	-200,000	-0,003	-0,149
-618,590	-200,000	0,027	0,120
-617,576	7,576	0,014	-0,008
-616,561	489,631	-0,034	0,057
-615,546	-200,000	-0,023	-0,087
-614,532	-136,862	-0,059	0,005
-613,517	193,274	0,056	0,062
-612,503	-200,000	-0,014	-0,104
-611,488	-35,945	0,073	-0,029
-610,474	-133,974	0,053	-0,005
-609,459	57,010	0,065	0,046
-608,444	-117,441	-0,248	-0,032
-607,430	5,595	0,061	-0,033
-606,415	111,288	0,053	-0,047
-605,401	-104,248	0,171	0,029
-604,386	-200,000	0,012	-0,067
-603,371	-200,000	-0,000	-0,029
-602,357	622,159	0,016	0,030
-601,342	24,091	0,109	0,066
-600,328	220,833	-0,122	-0,143
-599,313	-47,976	-0,118	0,042
-598,298	179,653	-0,064	0,069
-597,284	-80,289	0,197	-0,048
-596,269	800,000	-0,050	0,140
-595,255	95,734	0,007	-0,006
-594,240	-200,000	0,009	0,049
-593,225	48,476	-0,066	-0,045
-592,211	800,000	-0,007	-0,017
-591,196	330,331	-0,073	0,104
-590,182	148,822	-0,032	0,032
-589,167	-200,000	0,021	0,102
-588,152	800,000	-0,074	0,167
-587,138	-62,503	-0,107	0,032
-586,123	411,810	-0,017	0,027
-585,109	297,562	-0,061	-0,082
-584,094	-200,000	0,034	-0,115
-583,079	-14,391	-0,083	-0,039
-582,065	-36,508	0,073	-0,028
-581,050	177,853	0,048	-0,051
-580,036	800,000	-0,022	-0,069
-579,021	800,000	0,015	0,036
-578,006	192,810	-0,054	-0,060
-576,992	-164,435	-0,044	0,001
-575,977	800,000	0,031	-0,075
-574,963	-185,105	0,123	-0,001
-573,948	-102,468	-0,085	-0,015
-572,934	97,304	0,072	0,061
-571,919	-200,000	-0,014	-0,135
-570,904	-200,000	-0,008	-0,114
-569,890	-153,247	0,060	-0,003
-568,875	56,193	-0,040	-0,028
-567,861	-83,421	0,014	-0,003
-566,846	92,939	-0,045	-0,037
-565,831	144,485	0,188	-0,184
-564,817	96,145	-0,053	-0,044
-563,802	800,000	0,020	0,047
-562,788	506,653	-0,036	-0,062
-561,773	-193,604	0,069	-0,000
-560,758	59,327	-0,029	0,021
-559,744	800,000	0,053	-0,132
-558,729	195,512	-0,058	-0,065
-557,715	-32,998	0,038	0,016
-556,700	593,063	-0,092	-0,168
-555,685	70,651	0,176	-0,133
-554,671	282,500	0,051	0,067
-553,656	-28,544	-0,014	0,006
-552,642	-200,000	0,006	0,156
-551,627	48,398	0,065	0,044
-550,612	-63,946	-0,129	-0,038
-549,598	-200,000	-0,014	-0,074
-548,583	6,827	-0,145	0,079
-547,569	312,548	0,041	0,057
-546,554	-200,000	0,018	0,086
-545,539	96,240	-0,050	0,042
-544,525	-1,355	0,200	0,103
-543,510	756,194	0,069	-0,136
-542,496	-200,000	0,013	-0,058
-541,481	197,221	-0,066	-0,074
-540,466	52,239	-0,122	-0,085
-539,452	-200,000	0,026	0,096
-538,437	-200,000	-0,004	0,090
-537,423	-114,680	-0,038	0,005
-536,408	61,755	-0,033	0,024
-535,393	132,391	0,052	0,049
-534,379	537,260	0,020	0,035
-533,364	243,485	0,113	-0,138
-532,350	800,000	0,085	0,182
-531,335	-200,000	0,035	0,187
-530,321	-200,000	0,003	0,068
-529,306	162,615	-0,082	0,084
-528,291	-200,000	0,038	-0,141
-527,277	650,277	0,013	0,025
-526,262	-54,221	0,077	-0,025
-525,248	-200,000	0,007	0,055
-524,233	800,000	0,017	0,035
-523,218	-78,703	-0,122	0,030
-522,204	800,000	0,007	-0,019
-521,189	-75,031	0,047	0,012
-520,175	800,000	0,072	-0,176
-519,160	98,503	-0,066	0,056
-518,145	-200,000	-0,044	-0,182
-517,131	800,000	0,016	-0,040
-516,116	-57,059	0,165	0,053
-515,102	800,000	0,003	-0,007
-514,087	-200,000	-0,001	0,025
-513,072	294,496	0,030	0,040
-512,058	751,441	0,018	-0,035
-511,043	-200,000	-0,053	-0,178
-510,029	87,353	0,069	-0,056
-509,014	-25,600	-0,169	0,072
-507,999	78,395	-0,063	-0,049
-506,985	-129,330	-0,085	-0,009
-505,970	800,000	0,060	-0,128
-504,956	-166,790	-0,055	0,002
-503,941	195,039	0,091	-0,101
-502,926	-82,843	0,078	0,018
-501,912	-62,290	-0,043	-0,013
-500,897	-109,323	-0,073	-0,011
-499,883	-200,000	-0,026	0,144
-498,868	98,911	0,073	-0,062
-497,853	430,109	0,045	-0,072
-496,839	658,519	-0,045	0,085
-495,824	800,000	0,037	0,094
-494,810	800,000	-0,025	-0,053
-493,795	96,006	0,106	0,089
-492,781	-137,409	-0,040	-0,003
-491,766	210,869	-0,014	-0,016
-490,751	86,581	0,062	-0,050
-489,737	409,537	0,041	0,064
-488,722	-100,718	0,112	0,020
-487,708	54,255	-0,085	0,059
-486,693	20,075	-0,109	0,064
-485,678	800,000	0,024	0,072
-484,664	-200,000	0,034	-0,116
-483,649	-81,480	-0,091	-0,022
-482,635	-25,554	0,066	0,028
-481,620	-68,248	0,032	-0,009
-480,605	31,719	0,076	0,048
-479,591	-200,000	-0,013	0,183
-478,576	100,677	0,097	0,083
-477,562	-200,000	0,011	-0,178
-476,547	-200,000	0,040	-0,143
-475,532	-75,767	-0,107	-0,028
-474,518	-200,000	0,001	0,122
-473,503	-10,375	0,155	-0,074
-472,489	-200,000	-0,001	0,007
-471,474	-200,000	-0,001	0,106
-470,459	-55,842	0,045	-0,014
-469,445	157,969	0,107	-0,109
-468,430	-173,914	-0,112	-0,002
-467,416	698,625	-0,028	-0,054
-466,401	-200,000	-0,005	0,050
-465,386	170,804	0,099	0,104
-464,372	-22,174	-0,177	-0,078
-463,357	88,772	-0,095	-0,077
-462,343	800,000	-0,084	-0,180
-461,328	327,784	0,046	-0,065
-460,313	-44,747	0,123	-0,045
-459,299	-62,741	0,075	0,022
-458,284	-182,805	0,035	0,000
-457,270	800,000	-0,016	-0,042
-456,255	382,263	-0,022	0,034
-455,241	-161,636	-0,148	0,005
-454,226	-149,402	-0,072	0,004
-453,211	-80,493	0,091	0,022
-452,197	-200,000	-0,004	-0,085
-451,182	280,770	-0,058	0,075
-450,168	309,711	0,080	-0,110
-449,153	-89,002	0,021	-0,005
-448,138	13,495	-0,086	0,048
-447,124	-6,998	-0,168	-0,083
-446,109	676,583	0,036	0,069
-445,095	252,418	0,074	-0,093
-444,080	66,356	-0,095	0,070
-443,065	-200,000	-0,042	0,136
-442,051	154,582	0,114	0,114
-441,036	800,000	-0,041	0,118
-440,022	192,344	-0,063	-0,070
-439,007	-200,000	-0,016	0,063
-437,992	250,343	0,049	0,061
-436,978	-200,000	-0,005	0,204
-435,963	604,919	-0,032	0,059
-434,949	222,765	-0,023	0,027
-433,934	93,617	-0,023	-0,019
-432,919	59,502	-0,060	-0,043
-431,905	14,458	0,124	-0,070
-430,890	-73,056	0,051	-0,013
-429,876	-98,112	0,041	-0,008
-428,861	37,611	0,115	0,074
-427,846	-200,000	-0,000	-0,020
-426,832	-119,806	-0,108	-0,013
-425,817	16,712	-0,060	0,034
-424,803	634,660	-0,052	0,097
-423,788	-103,201	-0,056	-0,009
-422,773	800,000	0,080	0,185
-421,759	714,366	0,024	0,047
-420,744	614,052	-0,037	0,068
-419,730	161,284	-0,127	-0,129
-418,715	2,627	-0,071	0,038
-417,701	-200,000	-0,006	0,185
-416,686	-200,000	-0,011	0,114
-415,671	800,000	-0,049	0,121
-414,657	44,687	0,115	0,077
-413,642	33,909	-0,074	0,047
-412,628	-200,000	0,018	0,068
-411,613	-200,000	0,012	-0,044
-410,598	96,480	-0,096	0,080
-409,584	-200,000	0,030	0,141
-408,569	-200,000	-0,008	0,117
-407,555	-109,049	-0,073	0,011
-406,540	-182,156	0,062	-0,001
-405,525	-41,302	-0,013	-0,005
-404,511	399,301	0,061	-0,093
-403,496	-200,000	0,044	-0,155
-402,482	429,462	0,072	0,114
-401,467	-67,977	0,188	-0,053
-400,452	-200,000	0,018	0,138
-399,438	135,474	-0,070	0,066
-398,423	-119,029	0,040	0,005
-397,409	377,676	-0,060	-0,089
-396,394	800,000	-0,028	-0,088
-395,379	-139,149	-0,046	0,004
-394,365	650,902	0,037	0,069
-393,350	-5,605	0,040	0,020
-392,336	332,862	-0,049	-0,069
-391,321	50,986	0,066	-0,045
-390,306	800,000	-0,040	-0,084
-389,292	-130,836	-0,182	0,018
-388,277	-200,000	0,039	0,128
-387,263	-6,453	-0,107	-0,053
-386,248	-200,000	-0,021	0,076
-385,233	-200,000	0,010	0,250
-384,219	354,555	0,112	0,162
-383,204	-50,140	0,044	0,015
-382,190	-120,581	0,060	0,007
-381,175	800,000	-0,008	-0,018
-380,160	-200,000	0,027	0,149
-379,146	49,100	0,169	0,115
-378,131	724,833	-0,038	-0,074
-377,117	10,402	-0,067	-0,037
-376,102	-58,553	-0,089	-0,028
-375,088	796,383	-0,040	-0,081
-374,073	148,684	0,057	-0,056
-373,058	800,000	0,039	0,098
-372,044	-57,256	-0,091	0,029
-371,029	-200,000	0,020	0,170
-370,015	62,468	-0,055	0,040
-369,000	-200,000	0,016	-0,135
-367,985	-200,000	0,007	-0,071
-366,971	574,832	-0,035	-0,063
-365,956	164,516	-0,072	0,074
-364,942	14,525	0,039	-0,022
-363,927	629,597	0,083	0,152
-362,912	146,037	0,027	0,026
-361,898	492,780	-0,057	-0,096
-360,883	-200,000	0,009	0,040
-359,869	-69,381	0,127	-0,035
-358,854	800,000	0,024	-0,048
-357,839	-85,651	0,010	0,002
-356,825	68,706	0,099	0,074
-355,810	-200,000	0,006	0,039
-354,796	-98,050	0,031	-0,006
-353,781	427,030	-0,026	0,040
-352,766	361,911	-0,040	-0,059
-351,752	-200,000	0,003	-0,024
-350,737	91,759	0,047	-0,039
-349,723	237,109	0,052	0,062
-348,708	242,853	0,017	0,020
-347,693	-200,000	0,007	-0,130
-346,679	247,938	0,080	0,099
-345,664	-200,000	0,009	0,139
-344,650	-58,904	0,113	0,035
-343,635	56,314	0,080	-0,057
-342,620	-200,000	0,008	-0,052
-341,606	117,901	0,100	-0,090
-340,591	38,472	0,005	-0,003
-339,577	-92,593	0,053	-0,011
-338,562	800,000	0,030	-0,094
-337,548	-104,810	-0,122	-0,020
-336,533	-148,167	0,022	-0,001
-335,518	800,000	-0,025	-0,062
-334,504	51,909	0,062	-0,043
-333,489	-5,276	0,094	0,047
-332,475	22,214	-0,067	-0,040
-331,460	541,287	-0,081	-0,141
-330,445	800,000	0,085	-0,239
-329,431	-200,000	-0,024	0,103
-328,416	306,929	0,063	0,086
-327,402	89,781	-0,044	-0,036
-326,387	66,998	-0,058	-0,043
-325,372	259,015	-0,067	0,084
-324,358	-117,380	-0,052	0,007
-323,343	471,373	0,062	-0,101
-322,329	800,000	0,041	0,085
-321,314	62,914	0,067	0,049
-320,299	-82,134	0,037	-0,009
-319,285	306,876	0,074	-0,100
-318,270	573,893	0,008	-0,014
-317,256	269,122	-0,086	-0,109
-316,241	-200,000	-0,030	0,190
-315,226	800,000	0,024	0,056
-314,212	154,831	0,051	0,051
-313,197	-200,000	-0,010	-0,038
-312,183	292,847	0,037	0,049
-311,168	-200,000	0,002	0,035
-310,153	79,897	0,040	-0,031
-309,139	18,554	0,108	-0,062
-308,124	526,421	0,076	0,129
-307,110	800,000	0,022	0,068
-306,095	-35,347	0,073	0,029
-305,080	692,941	0,018	0,035
-304,066	-116,568	0,078	0,010
-303,051	-28,742	-0,168	-0,070
-302,037	-200,000	0,023	-0,112
-301,022	12,931	0,165	-0,092
-300,008	-95,419	-0,055	-0,011
-298,993	165,891	0,069	-0,071
-297,978	-200,000	0,011	-0,106
-296,964	-200,000	0,026	-0,128
-295,949	-200,000	0,013	-0,056
-294,935	11,146	-0,022	0,012
-293,920	103,230	0,071	-0,060
-292,905	84,864	0,044	0,035
-291,891	11,052	-0,108	0,060
-290,876	-83,383	-0,020	-0,005
-289,862	-74,218	-0,077	0,020
-288,847	38,325	-0,093	-0,060
-287,832	10,298	-0,010	0,006
-286,818	-133,192	0,075	-0,007
-285,803	-69,412	0,104	0,029
-284,789	-200,000	-0,030	-0,126
-283,774	800,000	-0,020	0,052
-282,759	228,031	0,037	-0,044
-281,745	800,000	-0,019	-0,056
-280,730	-200,000	-0,027	-0,099
-279,716	38,885	-0,032	0,021
-278,701	233,772	0,095	0,114
-277,686	-200,000	0,044	0,188
-276,672	-200,000	0,012	0,099
-275,657	-200,000	0,003	0,037
-274,643	485,451	-0,036	-0,059
-273,628	-114,140	-0,070	0,010
-272,613	-69,543	0,045	0,012
-271,599	-200,000	0,029	0,095
-270,584	136,731	0,050	-0,047
-269,570	359,324	0,064	0,092
-268,555	-174,147	0,054	0,001
-267,540	-44,434	0,043	0,015
-266,526	-200,000	-0,030	-0,125
-265,511	65,864	0,009	0,007
-264,497	136,241	0,016	-0,015
-263,482	800,000	0,024	0,066
-262,467	-200,000	-0,004	-0,062
-261,453	-200,000	-0,030	-0,104
-260,438	295,074	0,031	0,041
-259,424	-184,548	0,065	-0,001
-258,409	-200,000	-0,017	0,102
-257,395	-200,000	-0,012	-0,055
-256,380	-147,407	0,085	-0,005
-255,365	-200,000	0,028	0,139
-254,351	590,150	0,009	0,016
-253,336	-200,000	-0,010	-0,066
-252,322	212,326	-0,026	-0,030
-251,307	529,937	0,023	-0,040
-250,292	599,053	-0,071	-0,128
-249,278	384,396	-0,032	-0,048
-248,263	-44,620	0,100	0,036
-247,249	-145,158	-0,159	0,010
-246,234	800,000	0,037	0,111
-245,219	273,284	0,049	0,062
-244,205	800,000	-0,017	-0,052
-243,190	193,474	-0,038	-0,041
-242,176	394,547	0,032	-0,049
-241,161	-5,138	-0,094	0,046
-240,146	-126,827	-0,063	0,007
-239,132	-189,767	0,039	-0,000
-238,117	800,000	-0,033	-0,073
-237,103	-0,824	-0,029	0,015
-236,088	-52,465	0,029	-0,010
-235,073	150,244	0,073	0,071
-234,059	-155,117	0,077	0,004
-233,044	125,966	0,078	-0,071
-232,030	-200,000	-0,017	0,169
-231,015	55,038	-0,060	0,042
-230,000	-76,873	-0,080	-0,020
-228,986	221,649	0,066	-0,076
-227,971	-200,000	0,008	-0,114
-226,957	-66,776	-0,144	0,041
-225,942	-200,000	-0,000	-0,056
-224,927	800,000	0,027	0,057
-223,913	265,617	0,041	-0,051
-222,898	-200,000	0,000	-0,066
-221,884	-64,020	-0,190	-0,056
-220,869	-137,344	0,043	0,003
-219,855	187,922	-0,065	0,070
-218,840	-200,000	-0,006	0,154
-217,825	267,438	-0,051	-0,064
-216,811	255,644	0,084	-0,105
-215,796	195,744	-0,028	0,031
-214,782	270,727	0,043	-0,055
-213,767	-92,577	0,132	0,027
-212,752	390,883	0,052	-0,079
-211,738	-79,579	0,095	0,023
-210,723	217,698	0,085	0,098
-209,709	589,217	-0,042	-0,075
-208,694	-200,000	-0,026	-0,189
-207,679	195,280	-0,029	0,031
-206,665	32,853	-0,071	-0,044
-205,650	52,321	-0,042	0,029
-204,636	-200,000	-0,004	0,168
-203,621	-123,437	-0,008	0,001
-202,606	-200,000	0,008	0,080
-201,592	236,967	-0,109	0,131
-200,577	1,639	0,056	0,029
-199,563	78,000	-0,068	0,053
-198,548	-65,154	0,020	-0,006
-197,533	317,233	0,033	-0,045
-196,519	397,320	-0,076	0,115
-195,504	-200,000	0,008	0,036
-194,490	-0,634	-0,160	0,082
-193,475	800,000	-0,047	-0,136
-192,460	-119,622	0,062	0,008
-191,446	76,173	0,030	0,023
-190,431	368,157	0,112	0,164
-189,417	438,355	-0,034	-0,054
-188,402	-85,571	-0,157	0,035
-187,387	174,864	-0,079	0,082
-186,373	31,545	0,031	-0,019
-185,358	458,339	0,046	-0,074
-184,344	32,474	-0,078	-0,048
-183,329	-171,086	-0,233	-0,006
-182,315	134,489	0,038	0,035
-181,300	48,085	0,051	-0,034
-180,285	6,838	-0,114	-0,061
-179,271	800,000	0,044	0,103
-178,256	-76,741	0,041	-0,010
-177,242	497,790	0,063	0,104
-176,227	-38,279	-0,131	-0,050
-175,212	110,976	-0,052	-0,045
-174,198	-38,383	-0,037	-0,014
-173,183	-200,000	-0,004	-0,061
-172,169	-19,662	0,065	0,029
-171,154	416,771	-0,119	-0,184
-170,139	44,678	-0,106	0,070
-169,125	4,203	0,057	0,030
-168,110	800,000	-0,033	0,067
-167,096	-176,674	-0,214	-0,004
-166,081	272,763	-0,030	-0,038
-165,066	49,861	-0,109	-0,074
-164,052	417,916	0,032	0,049
-163,037	-66,232	0,093	0,026
-162,023	-92,649	0,072	-0,014
-161,008	-200,000	0,064	0,000
-159,993	60,254	-0,048	-0,034
-158,979	-9,853	-0,058	0,028
-157,964	-56,564	0,140	-0,045
-156,950	239,907	-0,042	0,051
-155,935	-147,795	0,111	-0,007
-154,920	800,000	0,041	0,101
-153,906	-155,472	-0,099	-0,005
-152,891	-200,000	-0,004	-0,217
-151,877	-38,636	-0,056	0,021
-150,862	-6,497	0,048	-0,023
-149,847	800,000	0,023	0,067
-148,833	57,750	0,062	-0,043
-147,818	305,176	0,050	0,067
-146,804	50,378	0,151	0,102
-145,789	471,708	0,041	0,066
-144,775	-200,000	0,010	-0,053
-143,760	182,098	-0,105	0,111
-142,745	264,543	0,045	0,056
-141,731	-200,000	0,023	-0,074
-140,716	58,074	-0,091	-0,064
-139,702	324,419	0,102	0,141
-138,687	749,023	-0,047	0,091
-137,672	-6,641	-0,065	-0,032
-136,658	391,864	-0,095	-0,143
-135,643	800,000	0,058	-0,137
-134,629	-19,056	-0,127	-0,057
-133,614	800,000	-0,072	0,183
-132,599	-152,781	0,059	-0,003
-131,585	-115,612	0,116	0,015
-130,570	-200,000	-0,009	-0,092
-129,556	-131,305	-0,138	0,013
-128,541	48,113	0,043	-0,029
-127,526	104,711	0,031	-0,026
-126,512	108,420	0,044	0,038
-125,497	-32,438	-0,031	0,013
-124,483	-62,028	-0,093	-0,028
-123,468	541,104	0,021	-0,036
-122,453	-200,000	-0,020	-0,066
-121,439	-0,246	-0,112	-0,057
-120,424	195,654	0,080	0,087
-119,410	-105,040	-0,050	0,008
-118,395	-114,518	0,081	-0,011
