DTS Sentinel unit serial number:	SN410029Multiplexer serial number:	ORYXHardware model number:	OX2-SRSoftware version number:	ORYX F/W v4,00 Oryx Data Collector v3.7.2.0data status	okinstallation	B5 Nyhavnadifferential loss correction	single-endedforward channel	channel 2reverse channel	N/Adate	2023/12/14time	19:02:13forward acquisition time	300,00reverse acquisition time	0,00gamma	499,1914k internal	0,3156k external	0,3156temperature offset calibration	1,0000default loss term (dB/km)	0,3820temperature slope calibration	1,0000multiplexer offset coefficient	1,0000multiplexer slope coefficient	1,0000fibre end	0,00T internal ref (°C)	8,70T ext. ref 1 (°C)	-6,06T ext. ref 2 (°C)	-6,13length (m)	temperature (°C)	Stokes	anti-Stokes-744,400	779,403	0,091	0,184
-743,385	-106,947	-0,409	-0,066
-742,371	86,469	0,143	0,116
-741,356	-158,942	-0,403	0,017
-740,342	89,114	0,151	0,124
-739,327	-142,188	-0,279	-0,020
-738,312	103,119	0,050	0,043
-737,298	-138,692	-0,565	-0,045
-736,283	154,852	0,090	0,091
-735,269	-63,684	-0,355	-0,107
-734,254	25,040	0,103	0,063
-733,239	-40,468	-0,556	-0,212
-732,225	9,398	0,259	0,144
-731,210	800,000	0,010	-0,023
-730,196	92,855	0,021	0,017
-729,181	-151,990	-0,166	-0,009
-728,167	-200,000	0,031	-0,119
-727,152	297,588	-0,045	-0,061
-726,137	-148,447	0,083	-0,005
-725,123	800,000	0,020	0,042
-724,108	-130,145	-0,060	0,006
-723,094	0,482	-0,036	0,019
-722,079	122,602	-0,009	0,009
-721,064	-200,000	0,007	-0,034
-720,050	58,951	0,058	-0,042
-719,035	708,400	0,068	0,133
-718,021	-200,000	-0,001	0,063
-717,006	-33,269	-0,142	-0,057
-715,991	295,097	0,031	0,042
-714,977	98,207	-0,047	-0,040
-713,962	-27,399	-0,128	-0,055
-712,948	-200,000	-0,009	-0,041
-711,933	-76,115	0,131	0,034
-710,918	-58,408	-0,115	0,037
-709,904	397,217	-0,068	-0,104
-708,889	-33,387	-0,045	0,018
-707,875	-76,882	-0,097	0,025
-706,860	433,741	-0,024	0,038
-705,845	-179,977	0,063	-0,001
-704,831	182,057	-0,064	0,070
-703,816	15,721	-0,076	-0,044
-702,802	26,872	-0,075	-0,046
-701,787	-149,957	-0,067	0,004
-700,772	567,945	0,030	-0,055
-699,758	-15,206	0,046	0,022
-698,743	182,893	-0,037	0,040
-697,729	-200,000	0,000	-0,095
-696,714	-200,000	0,000	-0,017
-695,699	213,781	-0,088	-0,102
-694,685	161,797	-0,057	-0,058
-693,670	96,869	-0,053	-0,045
-692,656	163,540	-0,109	-0,113
-691,641	-28,389	0,084	0,036
-690,627	361,759	-0,032	0,047
-689,612	800,000	-0,042	0,112
-688,597	-200,000	0,006	0,029
-687,583	145,766	0,077	-0,076
-686,568	-200,000	0,017	-0,075
-685,554	-50,722	0,074	0,026
-684,539	-200,000	-0,019	0,084
-683,524	-4,192	-0,165	0,084
-682,510	43,942	-0,055	0,037
-681,495	78,147	0,070	-0,055
-680,481	-77,819	0,054	0,014
-679,466	-35,718	-0,175	-0,069
-678,451	-171,089	0,167	0,004
-677,437	-80,973	-0,122	0,030
-676,422	800,000	-0,038	0,123
-675,408	-104,431	-0,065	-0,011
-674,393	423,637	-0,051	0,081
-673,378	52,402	0,115	-0,081
-672,364	184,922	-0,053	0,058
-671,349	-102,511	-0,065	0,011
-670,335	2,471	-0,057	-0,030
-669,320	-200,000	0,012	-0,085
-668,305	254,151	0,101	-0,127
-667,291	121,344	-0,098	-0,090
-666,276	-144,997	-0,098	0,006
-665,262	-71,480	-0,192	0,052
-664,247	108,982	0,023	-0,020
-663,232	-200,000	0,006	-0,078
-662,218	194,135	0,018	0,020
-661,203	-200,000	-0,023	0,083
-660,189	-96,170	0,028	0,005
-659,174	138,101	-0,088	-0,085
-658,159	98,144	-0,165	-0,139
-657,145	-89,488	-0,123	0,026
-656,130	-156,109	0,131	-0,006
-655,116	278,367	-0,061	0,080
-654,101	779,341	0,046	-0,092
-653,086	612,180	0,014	-0,026
-652,072	-90,106	-0,090	0,019
-651,057	756,873	0,024	-0,047
-650,043	-32,514	0,116	-0,047
-649,028	-200,000	0,008	-0,101
-648,014	307,005	0,058	0,080
-646,999	-67,223	0,060	-0,017
-645,984	34,218	0,179	-0,115
-644,970	-200,000	0,020	-0,071
-643,955	-61,769	-0,134	-0,041
-642,941	-200,000	-0,036	-0,169
-641,926	469,119	0,036	0,060
-640,911	-3,645	0,108	0,055
-639,897	55,434	-0,063	-0,045
-638,882	70,206	0,076	-0,058
-637,868	-125,342	-0,193	0,021
-636,853	-200,000	0,003	-0,033
-635,838	800,000	-0,027	-0,075
-634,824	122,031	-0,117	0,107
-633,809	-200,000	0,007	-0,091
-632,795	-69,154	0,141	0,040
-631,780	1,101	-0,113	0,059
-630,765	13,296	0,086	0,049
-629,751	3,244	0,038	0,020
-628,736	-200,000	-0,005	-0,104
-627,722	22,817	0,072	-0,043
-626,707	-200,000	-0,006	0,080
-625,692	-200,000	0,016	0,148
-624,678	-200,000	-0,022	0,164
-623,663	-200,000	0,007	0,038
-622,649	-200,000	-0,050	-0,174
-621,634	-149,617	0,075	0,004
-620,619	479,027	-0,111	-0,186
-619,605	800,000	0,033	0,086
-618,590	325,061	-0,033	0,046
-617,576	144,666	0,068	0,066
-616,561	65,279	-0,059	0,044
-615,546	-83,635	-0,111	-0,026
-614,532	184,768	0,066	0,072
-613,517	11,510	0,105	0,059
-612,503	101,635	0,052	-0,045
-611,488	78,832	0,176	0,138
-610,474	584,900	0,056	0,101
-609,459	-200,000	0,015	0,081
-608,444	-200,000	0,023	-0,092
-607,430	-200,000	-0,014	-0,146
-606,415	-200,000	0,009	-0,189
-605,401	800,000	0,036	-0,098
-604,386	64,286	0,088	-0,065
-603,371	218,382	-0,082	0,096
-602,357	-200,000	0,000	-0,008
-601,342	333,744	-0,039	0,055
-600,328	-110,007	-0,214	0,033
-599,313	142,831	0,071	-0,069
-598,298	-52,402	0,052	0,018
-597,284	-200,000	-0,011	-0,118
-596,269	-88,600	-0,062	-0,013
-595,255	-200,000	-0,014	0,047
-594,240	-29,568	-0,113	0,047
-593,225	-200,000	0,009	0,180
-592,211	-122,584	-0,140	0,016
-591,196	484,543	0,044	-0,074
-590,182	-60,294	0,120	0,037
-589,167	432,162	-0,012	-0,020
-588,152	74,701	-0,048	0,037
-587,138	-200,000	0,001	-0,102
-586,123	-200,000	-0,021	-0,164
-585,109	-200,000	-0,008	-0,094
-584,094	-200,000	0,006	-0,041
-583,079	-122,179	-0,073	-0,009
-582,065	-200,000	0,035	0,194
-581,050	-37,559	0,100	0,039
-580,036	-44,956	-0,077	-0,028
-579,021	90,026	-0,072	0,059
-578,006	-5,082	0,040	0,020
-576,992	800,000	0,015	-0,048
-575,977	-200,000	0,020	0,070
-574,963	-200,000	-0,004	0,035
-573,948	-124,806	-0,127	0,014
-572,934	-200,000	-0,013	0,119
-571,919	139,639	-0,109	-0,106
-570,904	671,966	0,077	0,148
-569,890	20,642	0,014	-0,008
-568,875	-196,258	-0,028	-0,000
-567,861	-7,544	0,064	-0,031
-566,846	98,588	0,122	0,103
-565,831	18,272	0,040	0,023
-564,817	477,580	-0,050	-0,083
-563,802	26,681	-0,026	0,016
-562,788	-200,000	0,000	-0,142
-561,773	198,080	0,084	-0,094
-560,758	168,725	-0,040	-0,042
-559,744	-85,083	-0,052	-0,012
-558,729	-88,994	-0,092	-0,020
-557,715	2,867	-0,157	-0,083
-556,700	197,684	0,053	-0,059
-555,685	-92,863	-0,090	-0,018
-554,671	-129,084	-0,116	-0,012
-553,656	800,000	0,054	0,112
-552,642	347,239	0,049	-0,070
-551,627	-83,560	-0,089	-0,021
-550,612	394,997	-0,061	0,094
-549,598	49,454	-0,034	-0,023
-548,583	-72,008	-0,147	0,040
-547,569	-200,000	-0,044	-0,144
-546,554	-101,952	0,060	0,011
-545,539	-157,560	-0,128	0,006
-544,525	-22,141	0,074	0,033
-543,510	97,950	-0,075	0,063
-542,496	-28,311	-0,100	-0,042
-541,481	-22,321	-0,214	0,094
-540,466	4,031	0,104	-0,056
-539,452	571,515	0,036	0,064
-538,437	-200,000	0,002	0,013
-537,423	-12,465	0,064	-0,030
-536,408	800,000	0,032	-0,070
-535,393	-31,825	-0,038	0,015
-534,379	-81,300	-0,145	-0,035
-533,364	-58,582	0,104	0,033
-532,350	-144,258	-0,022	0,001
-531,335	-32,348	0,080	-0,032
-530,321	108,812	0,070	0,061
-529,306	-96,482	0,040	0,008
-528,291	-144,212	-0,074	-0,005
-527,277	94,774	0,115	-0,096
-526,262	480,417	-0,033	-0,054
-525,248	160,635	-0,105	0,107
-524,233	800,000	0,030	0,078
-523,218	69,123	0,013	-0,010
-522,204	-34,664	-0,163	-0,065
-521,189	66,129	-0,041	-0,030
-520,175	751,934	-0,054	-0,108
-519,160	283,664	-0,037	0,049
-518,145	-10,156	0,053	0,026
-517,131	-7,199	0,038	-0,019
-516,116	45,608	0,009	-0,006
-515,102	13,087	-0,068	-0,038
-514,087	127,555	0,084	-0,078
-513,072	-61,815	-0,056	0,017
-512,058	-200,000	0,020	0,158
-511,043	-200,000	-0,001	-0,042
-510,029	-200,000	-0,014	0,072
-509,014	-200,000	-0,003	-0,066
-507,999	354,955	-0,080	0,116
-506,985	800,000	0,044	0,121
-505,970	-51,442	0,057	0,019
-504,956	-200,000	0,007	-0,044
-503,941	172,031	0,057	0,060
-502,926	-54,736	-0,106	-0,035
-501,912	176,830	-0,055	-0,059
-500,897	-124,161	0,156	-0,018
-499,883	-89,336	-0,132	0,028
-498,868	-75,289	0,027	-0,007
-497,853	-200,000	0,025	-0,116
-496,839	-200,000	-0,002	0,044
-495,824	129,818	-0,129	0,120
-494,810	800,000	0,056	0,171
-493,795	-200,000	-0,011	0,058
-492,781	-147,827	0,090	0,005
-491,766	-200,000	-0,012	-0,066
-490,751	224,463	0,067	-0,080
-489,737	-200,000	0,015	-0,077
-488,722	245,911	0,027	0,033
-487,708	71,532	-0,073	0,056
-486,693	28,450	0,055	0,034
-485,678	-200,000	-0,000	0,103
-484,664	-56,821	-0,084	-0,027
-483,649	-200,000	-0,023	-0,220
-482,635	168,118	-0,081	-0,084
-481,620	-200,000	0,003	-0,175
-480,605	169,694	0,100	0,104
-479,591	-200,000	0,032	0,173
-478,576	586,903	0,051	-0,093
-477,562	-200,000	0,003	0,032
-476,547	-102,320	-0,182	-0,032
-475,532	82,868	0,056	0,045
-474,518	800,000	-0,023	0,046
-473,503	-1,706	0,075	-0,038
-472,489	467,495	0,078	0,129
-471,474	-104,900	0,107	0,018
-470,459	-141,103	-0,145	-0,011
-469,445	800,000	0,032	-0,090
-468,430	87,615	-0,047	0,038
-467,416	-200,000	-0,010	0,082
-466,401	153,619	-0,041	0,041
-465,386	-200,000	-0,011	-0,072
-464,372	235,393	0,016	-0,019
-463,357	800,000	0,005	0,013
-462,343	12,304	0,053	-0,030
-461,328	-5,097	-0,133	0,066
-460,313	15,398	0,079	-0,045
-459,299	398,087	-0,043	-0,065
-458,284	-200,000	0,007	-0,074
-457,270	449,549	0,050	-0,080
-456,255	-113,698	-0,055	0,008
-455,241	381,618	0,068	-0,103
-454,226	331,271	-0,069	-0,097
-453,211	249,801	-0,109	0,135
-452,197	184,814	-0,051	-0,055
-451,182	0,820	0,039	-0,021
-450,168	2,891	-0,022	0,011
-449,153	135,349	-0,049	-0,047
-448,138	49,253	-0,054	-0,037
-447,124	-200,000	-0,018	-0,069
-446,109	-200,000	-0,034	0,159
-445,095	800,000	-0,045	0,120
-444,080	501,122	0,094	0,159
-443,065	-200,000	0,028	0,102
-442,051	-50,269	0,140	-0,048
-441,036	103,599	-0,110	-0,094
-440,022	-108,094	-0,136	0,021
-439,007	-200,000	0,005	0,048
-437,992	6,300	0,072	-0,039
-436,978	273,717	-0,048	-0,062
-435,963	-200,000	-0,016	0,157
-434,949	-130,788	0,131	-0,013
-433,934	250,844	0,019	0,024
-432,919	-41,694	-0,100	-0,037
-431,905	105,517	-0,083	-0,072
-430,890	-161,990	0,101	0,004
-429,876	-200,000	-0,019	-0,079
-428,861	90,094	-0,046	0,038
-427,846	-1,671	0,047	0,024
-426,832	-15,050	-0,016	-0,007
-425,817	-200,000	-0,022	-0,111
-424,803	-200,000	0,005	-0,071
-423,788	555,638	0,047	0,082
-422,773	-122,988	0,118	-0,014
-421,759	97,176	0,056	0,047
-420,744	53,445	0,027	0,019
-419,730	528,955	-0,127	-0,220
-418,715	342,816	0,117	-0,168
-417,701	-88,504	0,099	-0,021
-416,686	104,435	-0,100	-0,086
-415,671	-78,962	0,146	0,036
-414,657	39,247	0,037	0,024
-413,642	-200,000	-0,006	-0,063
-412,628	133,713	-0,104	-0,098
-411,613	460,373	0,038	-0,062
-410,598	47,409	-0,062	-0,042
-409,584	70,307	-0,105	-0,079
-408,569	28,112	0,109	-0,067
-407,555	424,165	-0,065	0,102
-406,540	-200,000	0,013	-0,049
-405,525	243,272	0,043	-0,053
-404,511	-132,502	-0,100	-0,009
-403,496	731,372	-0,085	-0,166
-402,482	-105,832	0,158	0,026
-401,467	-200,000	0,036	0,179
-400,452	-148,052	0,087	0,005
-399,438	83,317	0,133	0,105
-398,423	-200,000	-0,073	-0,236
-397,409	-200,000	-0,010	-0,106
-396,394	-200,000	-0,008	0,079
-395,379	721,547	-0,021	-0,042
-394,365	-200,000	-0,022	-0,180
-393,350	800,000	-0,107	0,270
-392,336	-98,005	0,097	0,018
-391,321	800,000	0,066	-0,141
-390,306	109,740	0,028	-0,024
-389,292	800,000	-0,035	0,080
-388,277	6,945	0,173	0,094
-387,263	800,000	0,038	0,108
-386,248	-200,000	0,025	0,081
-385,233	67,527	-0,084	-0,062
-384,219	800,000	-0,040	-0,084
-383,204	-200,000	-0,010	0,082
-382,190	62,000	0,081	-0,058
-381,175	295,523	-0,033	0,044
-380,160	686,857	0,049	-0,094
-379,146	131,493	0,057	0,053
-378,131	124,294	-0,101	-0,093
-377,117	-62,211	-0,052	-0,016
-376,102	703,063	-0,017	-0,033
-375,088	-76,639	-0,145	-0,037
-374,073	384,690	0,056	0,084
-373,058	-191,731	0,063	0,000
-372,044	-181,535	0,162	0,002
-371,029	800,000	-0,048	0,120
-370,015	-61,199	0,224	0,068
-369,000	66,956	0,012	-0,009
-367,985	-200,000	0,011	-0,122
-366,971	-2,392	0,108	-0,055
-365,956	-200,000	-0,021	-0,100
-364,942	-200,000	0,025	-0,085
-363,927	-200,000	-0,007	0,091
-362,912	29,801	0,122	0,075
-361,898	-200,000	0,004	-0,057
-360,883	516,684	0,091	-0,155
-359,869	246,869	0,123	-0,151
-358,854	-138,330	-0,135	0,011
-357,839	800,000	-0,070	0,213
-356,825	800,000	0,002	0,005
-355,810	17,441	0,081	0,047
-354,796	-200,000	-0,011	0,083
-353,781	98,270	-0,155	0,129
-352,766	800,000	-0,018	0,056
-351,752	363,731	-0,047	-0,068
-350,737	-6,761	-0,007	-0,004
-349,723	232,176	0,133	0,159
-348,708	591,286	-0,065	0,118
-347,693	-87,139	-0,057	-0,013
-346,679	625,777	-0,072	-0,132
-345,664	-22,021	-0,076	-0,033
-344,650	-200,000	-0,001	-0,034
-343,635	-159,411	-0,074	-0,003
-342,620	-5,206	0,138	0,069
-341,606	-200,000	0,003	0,083
-340,591	-40,641	0,031	0,011
-339,577	4,492	-0,095	-0,051
-338,562	-88,146	-0,117	-0,025
-337,548	486,305	0,040	0,066
-336,533	53,657	0,144	-0,100
-335,518	-200,000	-0,007	0,063
-334,504	200,872	-0,094	0,105
-333,489	-76,585	-0,152	0,038
-332,475	241,782	0,004	-0,005
-331,460	180,512	-0,108	-0,115
-330,445	64,944	0,164	-0,120
-329,431	-143,536	-0,121	-0,008
-328,416	239,410	0,104	0,126
-327,402	-65,968	0,186	0,054
-326,387	-57,584	0,030	-0,009
-325,372	-61,926	-0,039	-0,012
-324,358	-200,000	-0,005	0,089
-323,343	231,737	0,059	0,071
-322,329	-200,000	-0,005	-0,119
-321,314	800,000	0,012	0,036
-320,299	-182,444	0,140	-0,002
-319,285	65,659	-0,041	0,030
-318,270	-124,432	-0,034	0,004
-317,256	90,829	-0,044	0,036
-316,241	-125,935	0,058	0,006
-315,226	-79,028	0,168	0,041
-314,212	285,490	0,040	0,052
-313,197	-90,139	0,146	0,031
-312,183	-37,569	0,127	0,049
-311,168	-16,461	0,053	-0,024
-310,153	-59,041	-0,125	-0,039
-309,139	800,000	0,068	-0,160
-308,124	-36,293	0,113	-0,044
-307,110	-163,514	-0,034	0,001
-306,095	124,375	0,009	0,008
-305,080	23,993	-0,081	0,048
-304,066	-110,041	-0,127	0,019
-303,051	-122,490	-0,135	-0,016
-302,037	-200,000	0,020	-0,109
-301,022	568,057	0,112	0,199
-300,008	-200,000	-0,007	0,117
-298,993	-120,391	-0,047	0,006
-297,978	800,000	0,029	0,089
-296,964	800,000	0,047	-0,105
-295,949	704,279	-0,042	0,080
-294,935	800,000	-0,092	-0,224
-293,920	-25,373	-0,072	-0,031
-292,905	-91,148	0,143	0,030
-291,891	5,976	0,055	0,030
-290,876	-109,404	-0,120	-0,018
-289,862	-126,818	-0,127	-0,013
-288,847	-157,429	-0,099	-0,004
-287,832	134,930	0,093	-0,087
-286,818	-152,832	-0,103	-0,005
-285,803	78,867	0,094	0,073
-284,789	47,198	0,040	0,027
-283,774	155,231	-0,130	0,129
-282,759	645,716	0,077	0,143
-281,745	375,693	-0,011	0,016
-280,730	161,595	-0,130	-0,132
-279,716	-71,911	-0,087	-0,023
-278,701	-200,000	0,000	-0,019
-277,686	148,535	0,134	0,132
-276,672	358,503	-0,088	0,127
-275,657	-100,391	0,098	-0,017
-274,643	-35,276	-0,166	-0,065
-273,628	-200,000	0,005	-0,055
-272,613	60,831	0,173	0,124
-271,599	-43,827	-0,118	0,043
-270,584	104,713	0,032	0,027
-269,570	-8,337	0,052	0,025
-268,555	-200,000	0,039	-0,141
-267,540	-108,352	-0,147	-0,023
-266,526	800,000	-0,062	-0,152
-265,511	-200,000	-0,008	-0,027
-264,497	800,000	0,030	0,091
-263,482	-40,997	0,052	-0,020
-262,467	553,200	0,082	-0,144
-261,453	-24,874	0,109	0,047
-260,438	-97,040	0,070	0,013
-259,424	-42,047	0,155	-0,057
-258,409	-125,934	-0,055	0,006
-257,395	269,972	0,049	-0,063
-256,380	-110,580	0,128	0,019
-255,365	420,490	0,033	0,051
-254,351	800,000	-0,021	-0,050
-253,336	19,576	-0,013	-0,008
-252,322	-41,597	-0,035	0,013
-251,307	-49,704	0,154	-0,053
-250,292	800,000	-0,028	-0,085
-249,278	224,205	0,075	-0,088
-248,263	-44,017	-0,062	-0,023
-247,249	58,744	-0,088	-0,063
-246,234	261,097	-0,055	0,069
-245,219	-200,000	-0,003	0,159
-244,205	129,596	0,063	-0,059
-243,190	-200,000	-0,007	-0,082
-242,176	-200,000	0,032	0,135
-241,161	11,851	0,094	-0,052
-240,146	800,000	0,027	0,078
-239,132	288,820	-0,071	-0,094
-238,117	-180,713	0,062	-0,001
-237,103	68,941	-0,048	-0,036
-236,088	-200,000	-0,019	0,113
-235,073	-135,203	0,092	0,008
-234,059	-200,000	-0,015	0,057
-233,044	312,615	-0,082	-0,111
-232,030	137,276	0,053	0,051
-231,015	-2,179	-0,064	-0,032
-230,000	-200,000	-0,032	-0,125
-228,986	800,000	0,020	0,062
-227,971	-98,355	-0,129	0,024
-226,957	-200,000	0,011	-0,070
-225,942	-121,319	0,114	-0,014
-224,927	-200,000	0,006	-0,096
-223,913	259,308	-0,016	0,020
-222,898	800,000	0,011	-0,028
-221,884	-121,901	-0,053	-0,006
-220,869	134,153	0,029	0,027
-219,855	106,967	-0,043	-0,037
-218,840	-130,921	0,188	0,018
-217,825	-122,245	-0,111	0,013
-216,811	-200,000	-0,040	-0,147
-215,796	-200,000	0,033	0,115
-214,782	214,251	0,058	0,066
-213,767	800,000	-0,061	0,138
-212,752	369,119	0,110	0,161
-211,738	-93,475	0,095	0,019
-210,723	-6,758	0,080	-0,039
-209,709	-200,000	0,010	-0,151
-208,694	-99,022	-0,111	0,020
-207,679	-200,000	0,003	0,054
-206,665	732,364	0,046	0,090
-205,650	328,129	-0,058	0,080
-204,636	93,227	0,067	0,054
-203,621	-200,000	-0,002	-0,025
-202,606	30,733	-0,112	-0,069
-201,592	623,863	0,072	-0,133
-200,577	800,000	0,038	-0,093
-199,563	-200,000	-0,006	0,065
-198,548	-8,562	0,030	-0,014
-197,533	620,767	-0,014	-0,026
-196,519	776,172	-0,028	0,055
-195,504	219,798	-0,063	-0,072
-194,490	151,749	-0,056	-0,055
-193,475	57,926	-0,088	-0,062
-192,460	146,213	-0,039	-0,038
-191,446	-200,000	0,015	0,092
-190,431	-168,896	0,163	-0,004
-189,417	-200,000	0,004	0,087
-188,402	-200,000	-0,007	0,022
-187,387	-110,062	0,032	-0,005
-186,373	-200,000	0,010	-0,083
-185,358	-28,659	0,174	0,072
-184,344	-18,568	-0,088	-0,040
-183,329	-200,000	-0,031	0,100
-182,315	-69,426	0,047	0,013
-181,300	-200,000	0,001	0,100
-180,285	695,265	-0,071	0,135
-179,271	800,000	-0,039	0,098
-178,256	-115,313	-0,122	0,016
-177,242	800,000	-0,021	0,053
-176,227	-142,243	0,061	-0,004
-175,212	570,160	0,040	0,070
-174,198	-200,000	0,005	-0,049
-173,183	-200,000	-0,036	-0,145
-172,169	800,000	-0,025	0,054
-171,154	561,734	-0,043	-0,076
-170,139	800,000	-0,038	0,086
-169,125	-200,000	-0,025	-0,094
-168,110	800,000	0,035	0,094
-167,096	316,672	-0,012	0,016
-166,081	-200,000	0,003	-0,152
-165,066	-200,000	-0,002	-0,056
-164,052	50,564	0,119	0,081
-163,037	-200,000	0,022	0,101
-162,023	-200,000	0,007	0,114
-161,008	572,662	-0,003	-0,006
-159,993	-171,572	-0,093	0,002
-158,979	214,955	0,046	0,053
-157,964	-24,301	-0,220	0,094
-156,950	-37,732	0,064	-0,024
-155,935	-59,801	-0,117	0,036
-154,920	-31,729	0,042	0,017
-153,906	-200,000	-0,000	0,051
-152,891	230,914	-0,068	0,081
-151,877	300,827	-0,091	-0,121
-150,862	-200,000	-0,088	-0,000
-149,847	-200,000	-0,036	-0,120
-148,833	39,969	0,094	0,061
-147,818	800,000	0,063	0,163
-146,804	-200,000	0,008	-0,053
-145,789	59,266	-0,116	0,082
-144,775	125,390	0,016	0,015
-143,760	-16,936	-0,107	-0,048
-142,745	791,203	0,063	-0,125
-141,731	676,239	0,010	0,019
-140,716	338,559	-0,018	0,025
-139,702	61,847	0,011	0,008
-138,687	111,913	0,120	0,105
-137,672	-200,000	0,044	-0,151
-136,658	470,601	-0,073	-0,119
-135,643	-49,604	0,033	0,011
-134,629	72,659	0,054	0,041
-133,614	-200,000	-0,000	0,069
-132,599	800,000	0,084	0,255
-131,585	118,667	-0,103	-0,091
-130,570	335,243	-0,004	-0,006
-129,556	528,442	0,065	-0,112
-128,541	91,149	-0,023	0,019
-127,526	-33,886	0,090	0,035
-126,512	-200,000	-0,022	-0,075
-125,497	-143,177	0,229	0,016
-124,483	-102,715	-0,120	0,020
-123,468	-40,207	0,065	0,024
-122,453	-133,111	-0,186	0,017
-121,439	-125,120	0,039	-0,004
-120,424	-107,083	-0,060	-0,009
-119,410	-200,000	-0,040	0,137
