DTS Sentinel unit serial number:	SN410029Multiplexer serial number:	ORYXHardware model number:	OX2-SRSoftware version number:	ORYX F/W v4,00 Oryx Data Collector v3.7.2.0data status	okinstallation	B5 Nyhavnadifferential loss correction	single-endedforward channel	channel 2reverse channel	N/Adate	2023/12/14time	10:27:13forward acquisition time	300,00reverse acquisition time	0,00gamma	499,1914k internal	0,3161k external	0,3161temperature offset calibration	1,0000default loss term (dB/km)	0,3820temperature slope calibration	1,0000multiplexer offset coefficient	1,0000multiplexer slope coefficient	1,0000fibre end	0,00T internal ref (°C)	6,91T ext. ref 1 (°C)	-8,75T ext. ref 2 (°C)	-8,91length (m)	temperature (°C)	Stokes	anti-Stokes-744,400	316,401	0,138	0,192
-743,385	-0,244	-0,269	-0,140
-742,371	253,935	0,135	0,170
-741,356	-176,846	-0,255	-0,005
-740,342	463,191	0,150	0,248
-739,327	-109,334	-0,424	-0,065
-738,312	-97,104	0,152	0,029
-737,298	-22,277	-0,330	-0,147
-736,283	-84,645	0,257	0,059
-735,269	-116,432	-0,388	-0,052
-734,254	-112,699	0,191	0,028
-733,239	2,405	-0,532	-0,283
-732,225	-96,977	0,177	-0,034
-731,210	166,830	-0,058	0,061
-730,196	-162,519	-0,066	0,002
-729,181	35,173	0,004	-0,003
-728,167	800,000	-0,007	-0,018
-727,152	300,084	-0,033	0,045
-726,137	-200,000	-0,011	-0,184
-725,123	126,771	-0,132	0,123
-724,108	395,532	-0,077	-0,119
-723,094	-85,856	-0,079	0,018
-722,079	-63,956	-0,079	0,024
-721,064	-200,000	-0,009	-0,166
-720,050	379,375	0,039	0,058
-719,035	46,136	0,018	0,012
-718,021	-97,553	-0,158	-0,030
-717,006	800,000	0,022	-0,055
-715,991	-179,972	-0,105	0,002
-714,977	-200,000	0,036	0,133
-713,962	-35,496	-0,046	-0,018
-712,948	-200,000	0,006	-0,019
-711,933	-200,000	0,003	0,136
-710,918	-78,414	-0,116	-0,029
-709,904	0,834	-0,061	-0,032
-708,889	-200,000	0,007	-0,130
-707,875	-200,000	-0,008	-0,136
-706,860	-58,008	0,048	-0,015
-705,845	-200,000	0,017	-0,132
-704,831	-200,000	0,013	-0,164
-703,816	97,859	0,111	-0,094
-702,802	-200,000	-0,040	-0,195
-701,787	-100,287	-0,029	0,005
-700,772	-100,139	-0,086	0,016
-699,758	-47,721	-0,198	0,070
-698,743	45,467	0,085	0,058
-697,729	-200,000	-0,013	0,071
-696,714	-200,000	0,008	-0,164
-695,699	24,759	-0,051	0,031
-694,685	-48,667	-0,106	-0,037
-693,670	117,762	-0,047	-0,043
-692,656	199,007	-0,077	0,087
-691,641	202,987	0,024	-0,027
-690,627	25,754	0,046	-0,028
-689,612	-115,562	-0,021	0,003
-688,597	-66,563	-0,070	0,020
-687,583	101,381	-0,101	-0,086
-686,568	-200,000	0,001	0,011
-685,554	-81,398	0,046	-0,011
-684,539	800,000	-0,058	0,151
-683,524	-28,959	-0,033	0,014
-682,510	-163,550	0,215	0,007
-681,495	-138,244	-0,137	0,011
-680,481	774,454	-0,053	0,106
-679,466	674,526	-0,040	-0,077
-678,451	-24,670	0,112	0,049
-677,437	-200,000	-0,018	0,151
-676,422	-200,000	0,002	-0,129
-675,408	675,224	0,026	0,050
-674,393	391,775	-0,052	-0,080
-673,378	77,664	-0,070	-0,055
-672,364	339,333	-0,061	-0,088
-671,349	-200,000	-0,008	-0,028
-670,335	-111,440	-0,078	0,012
-669,320	-200,000	0,001	0,054
-668,305	-86,428	0,170	-0,038
-667,291	566,185	0,032	0,057
-666,276	-200,000	-0,005	0,036
-665,262	800,000	-0,037	-0,110
-664,247	-200,000	-0,011	0,099
-663,232	-200,000	0,012	0,057
-662,218	800,000	-0,018	-0,045
-661,203	800,000	-0,027	-0,065
-660,189	143,610	-0,008	0,008
-659,174	12,640	-0,147	-0,083
-658,159	-200,000	0,010	-0,105
-657,145	-200,000	-0,018	-0,118
-656,130	-46,422	-0,057	-0,020
-655,116	-181,007	0,166	-0,002
-654,101	139,116	0,064	-0,062
-653,086	-30,516	0,072	0,030
-652,072	314,924	-0,024	-0,033
-651,057	-42,733	-0,042	-0,016
-650,043	14,068	-0,230	-0,131
-649,028	234,633	-0,056	-0,067
-648,014	301,333	-0,100	-0,136
-646,999	115,137	0,011	0,009
-645,984	62,856	-0,160	-0,117
-644,970	182,396	0,104	-0,113
-643,955	-200,000	-0,023	-0,208
-642,941	490,103	0,014	-0,023
-641,926	-200,000	0,027	0,114
-640,911	-85,603	0,112	-0,025
-639,897	22,693	0,025	0,015
-638,882	-200,000	-0,015	-0,060
-637,868	-200,000	-0,006	0,037
-636,853	148,040	-0,115	-0,114
-635,838	-200,000	-0,001	-0,120
-634,824	-195,679	-0,061	0,000
-633,809	-183,160	-0,078	-0,001
-632,795	-200,000	-0,054	0,193
-631,780	100,357	-0,109	-0,093
-630,765	-200,000	-0,004	-0,107
-629,751	800,000	-0,023	-0,049
-628,736	99,400	-0,053	-0,045
-627,722	-200,000	0,008	-0,076
-626,707	25,542	0,129	0,078
-625,692	139,798	-0,117	0,113
-624,678	-200,000	0,060	0,207
-623,663	-120,107	0,141	0,017
-622,649	5,431	-0,022	-0,012
-621,634	4,398	-0,077	-0,041
-620,619	-82,792	-0,107	0,025
-619,605	-76,847	-0,029	-0,007
-618,590	777,500	-0,046	0,093
-617,576	64,408	-0,073	-0,054
-616,561	-101,813	-0,068	-0,012
-615,546	800,000	0,033	0,096
-614,532	309,979	-0,072	-0,098
-613,517	-200,000	0,002	0,076
-612,503	103,474	0,119	0,103
-611,488	-200,000	0,003	0,013
-610,474	-200,000	-0,001	0,135
-609,459	-34,022	-0,129	-0,052
-608,444	800,000	-0,026	0,063
-607,430	60,904	0,087	0,063
-606,415	23,028	-0,097	0,058
-605,401	23,725	-0,080	-0,048
-604,386	69,903	0,040	-0,030
-603,371	-142,163	0,021	0,002
-602,357	-101,841	0,115	0,020
-601,342	800,000	-0,031	-0,089
-600,328	-95,796	-0,064	-0,012
-599,313	-150,218	-0,033	-0,002
-598,298	65,039	-0,071	0,052
-597,284	-56,584	0,041	-0,013
-596,269	-95,018	-0,069	0,014
-595,255	-49,026	-0,027	0,009
-594,240	-103,075	0,104	0,018
-593,225	-99,262	-0,149	0,027
-592,211	-116,346	0,164	0,022
-591,196	21,695	-0,036	-0,022
-590,182	169,319	0,039	0,041
-589,167	717,749	-0,039	-0,076
-588,152	-46,874	-0,088	-0,031
-587,138	15,544	0,057	-0,033
-586,123	-200,000	-0,029	-0,122
-585,109	730,480	0,047	0,092
-584,094	-103,198	-0,139	-0,024
-583,079	-57,189	0,123	0,040
-582,065	443,166	0,055	0,088
-581,050	-90,931	-0,017	-0,004
-580,036	-134,788	-0,139	0,012
-579,021	-200,000	-0,004	-0,058
-578,006	25,900	-0,195	-0,119
-576,992	800,000	0,056	-0,159
-575,977	56,062	0,094	0,067
-574,963	-79,166	0,081	0,020
-573,948	-102,295	-0,096	0,017
-572,934	496,017	0,021	-0,036
-571,919	-200,000	0,011	0,059
-570,904	-184,314	0,064	0,001
-569,890	-90,101	-0,051	-0,011
-568,875	-200,000	-0,014	0,067
-567,861	-66,665	0,107	0,031
-566,846	414,531	0,042	0,066
-565,831	-180,836	-0,143	-0,002
-564,817	735,346	0,028	0,055
-563,802	-106,973	-0,042	-0,007
-562,788	800,000	-0,001	-0,002
-561,773	190,122	0,045	0,050
-560,758	234,074	-0,077	0,092
-559,744	-200,000	0,019	0,115
-558,729	-200,000	-0,015	-0,050
-557,715	-3,466	-0,068	0,035
-556,700	-132,603	-0,051	0,005
-555,685	355,598	0,014	0,021
-554,671	515,997	0,010	0,017
-553,656	51,049	-0,060	-0,042
-552,642	2,046	0,106	0,056
-551,627	72,925	-0,057	0,043
-550,612	800,000	-0,066	0,190
-549,598	800,000	-0,029	-0,085
-548,583	587,932	0,035	0,064
-547,569	536,767	0,050	0,087
-546,554	800,000	-0,064	-0,153
-545,539	157,865	-0,075	-0,076
-544,525	467,260	-0,037	-0,061
-543,510	282,444	-0,066	0,086
-542,496	227,917	0,084	-0,100
-541,481	14,495	-0,055	0,031
-540,466	-63,377	-0,078	-0,023
-539,452	-179,918	0,113	0,002
-538,437	-200,000	0,011	0,065
-537,423	267,246	0,040	0,051
-536,408	-38,679	-0,039	-0,015
-535,393	-42,133	-0,076	-0,028
-534,379	-37,732	-0,034	0,013
-533,364	-200,000	0,002	0,087
-532,350	-165,767	0,035	-0,001
-531,335	800,000	-0,012	0,025
-530,321	393,467	0,059	0,090
-529,306	541,820	0,064	-0,112
-528,291	46,329	-0,146	-0,098
-527,277	-112,789	-0,302	0,043
-526,262	800,000	-0,013	0,043
-525,248	-200,000	-0,011	0,079
-524,233	557,360	-0,081	0,143
-523,218	297,513	-0,059	-0,079
-522,204	-167,371	0,139	0,004
-521,189	-19,804	0,147	-0,066
-520,175	-200,000	-0,035	-0,164
-519,160	-76,714	0,127	-0,032
-518,145	7,437	0,035	0,019
-517,131	-200,000	-0,000	0,037
-516,116	-70,365	0,106	-0,029
-515,102	117,624	-0,032	0,029
-514,087	97,484	-0,182	-0,153
-513,072	-200,000	-0,006	-0,023
-512,058	28,461	-0,125	-0,077
-511,043	-71,771	0,105	0,028
-510,029	-101,282	-0,038	0,007
-509,014	-200,000	-0,000	-0,079
-507,999	-37,554	0,102	-0,040
-506,985	-108,258	0,001	0,000
-505,970	25,328	-0,083	0,050
-504,956	800,000	0,049	-0,148
-503,941	6,620	0,058	0,032
-502,926	-200,000	-0,010	-0,165
-501,912	-200,000	0,021	-0,113
-500,897	-72,750	-0,054	0,014
-499,883	85,942	-0,066	-0,053
-498,868	-200,000	0,001	0,030
-497,853	-161,681	-0,104	-0,004
-496,839	695,964	-0,017	0,032
-495,824	-200,000	0,022	-0,098
-494,810	71,657	0,138	0,104
-493,795	-100,859	-0,120	0,021
-492,781	-200,000	-0,023	0,131
-491,766	-160,913	-0,169	-0,006
-490,751	115,853	0,105	-0,094
-489,737	-200,000	-0,037	0,227
-488,722	-12,438	0,138	0,066
-487,708	-200,000	-0,021	0,081
-486,693	-13,297	0,095	0,045
-485,678	-200,000	-0,006	0,085
-484,664	195,658	-0,075	-0,083
-483,649	42,075	-0,105	-0,070
-482,635	-48,022	-0,011	-0,004
-481,620	50,808	0,101	0,070
-480,605	-101,964	0,067	0,012
-479,591	-200,000	0,027	0,098
-478,576	26,977	0,103	-0,063
-477,562	-130,359	-0,110	-0,011
-476,547	-200,000	-0,015	0,070
-475,532	-163,841	0,033	-0,001
-474,518	-108,788	-0,112	0,017
-473,503	-82,638	0,067	-0,016
-472,489	-200,000	0,023	0,101
-471,474	76,476	-0,104	0,080
-470,459	56,687	-0,132	-0,094
-469,445	3,605	-0,066	-0,035
-468,430	427,280	-0,039	0,061
-467,416	342,339	0,023	-0,033
-466,401	-75,803	0,197	0,051
-465,386	39,006	0,031	0,020
-464,372	-200,000	-0,016	0,102
-463,357	-121,145	0,166	-0,020
-462,343	79,753	-0,108	0,085
-461,328	-152,658	0,159	-0,008
-460,313	-200,000	0,015	0,072
-459,299	-133,505	0,107	-0,010
-458,284	246,248	0,034	0,041
-457,270	-200,000	0,028	0,154
-456,255	520,916	0,079	0,136
-455,241	-200,000	0,002	-0,018
-454,226	-71,439	-0,079	0,021
-453,211	22,154	0,083	-0,049
-452,197	123,857	0,096	-0,088
-451,182	-101,661	-0,122	0,021
-450,168	-200,000	0,013	-0,062
-449,153	314,315	-0,038	0,052
-448,138	-92,310	0,022	-0,004
-447,124	800,000	-0,023	0,073
-446,109	229,791	-0,014	0,017
-445,095	-108,278	0,111	0,017
-444,080	186,806	-0,107	0,116
-443,065	-200,000	0,001	0,152
-442,051	800,000	-0,050	-0,152
-441,036	-200,000	-0,041	0,166
-440,022	74,541	-0,055	0,042
-439,007	-132,023	0,158	0,015
-437,992	800,000	0,019	0,050
-436,978	762,273	0,048	0,095
-435,963	-12,476	0,080	0,038
-434,949	800,000	0,028	0,074
-433,934	-10,617	-0,085	-0,041
-432,919	-111,463	-0,083	0,012
-431,905	-58,490	0,142	0,045
-430,890	-62,415	0,079	0,024
-429,876	-161,655	0,083	0,003
-428,861	97,309	0,025	0,021
-427,846	-200,000	0,000	-0,041
-426,832	-85,135	-0,079	0,018
-425,817	208,939	-0,037	-0,042
-424,803	-200,000	-0,002	-0,088
-423,788	800,000	-0,013	-0,038
-422,773	279,713	0,099	-0,129
-421,759	-115,330	-0,080	0,011
-420,744	179,432	0,073	0,078
-419,730	-200,000	0,013	-0,083
-418,715	800,000	0,008	-0,019
-417,701	215,147	0,052	-0,060
-416,686	-44,551	0,081	0,029
-415,671	-121,265	0,086	0,010
-414,657	800,000	0,041	0,086
-413,642	137,842	-0,194	-0,185
-412,628	-122,989	-0,197	0,023
-411,613	800,000	-0,048	-0,121
-410,598	129,331	-0,088	-0,082
-409,584	-50,278	-0,049	-0,017
-408,569	-200,000	-0,001	0,023
-407,555	-15,955	0,131	0,060
-406,540	-200,000	-0,017	-0,103
-405,525	51,405	-0,081	-0,056
-404,511	45,152	0,073	-0,049
-403,496	370,952	0,046	0,068
-402,482	-200,000	0,039	0,145
-401,467	178,088	0,052	0,056
-400,452	800,000	-0,090	-0,216
-399,438	22,529	0,037	-0,022
-398,423	-83,657	0,056	0,013
-397,409	-183,909	-0,207	0,002
-396,394	-62,888	0,066	0,020
-395,379	11,790	0,126	0,070
-394,365	22,047	-0,042	0,025
-393,350	800,000	0,077	-0,185
-392,336	19,687	0,109	-0,064
-391,321	-200,000	0,022	-0,078
-390,306	53,327	-0,188	-0,130
-389,292	-200,000	-0,047	-0,154
-388,277	800,000	-0,022	0,057
-387,263	800,000	-0,024	0,075
-386,248	-92,999	0,085	-0,017
-385,233	167,855	-0,074	-0,077
-384,219	-200,000	-0,018	-0,111
-383,204	1,910	0,020	-0,010
-382,190	800,000	0,023	-0,048
-381,175	800,000	0,028	0,073
-380,160	-46,488	0,077	-0,027
-379,146	-200,000	-0,036	0,160
-378,131	800,000	-0,059	0,123
-377,117	41,591	-0,080	0,052
-376,102	-200,000	-0,006	-0,122
-375,088	-200,000	-0,004	0,056
-374,073	-200,000	0,025	0,096
-373,058	-194,739	-0,037	0,000
-372,044	800,000	-0,010	-0,026
-371,029	330,203	0,050	0,070
-370,015	-51,271	0,046	-0,016
-369,000	-200,000	0,017	-0,112
-367,985	11,356	0,073	-0,041
-366,971	800,000	-0,024	-0,070
-365,956	-35,905	-0,052	0,020
-364,942	-21,671	0,122	-0,054
-363,927	-124,859	0,074	0,008
-362,912	344,946	0,122	0,174
-361,898	-123,194	-0,032	0,004
-360,883	-75,456	-0,132	-0,034
-359,869	-58,946	-0,098	-0,030
-358,854	-200,000	-0,012	-0,041
-357,839	150,309	-0,047	-0,047
-356,825	22,338	0,092	-0,055
-355,810	206,090	0,029	-0,032
-354,796	473,763	-0,020	-0,033
-353,781	-25,194	-0,088	-0,038
-352,766	-10,523	-0,093	-0,044
-351,752	-200,000	-0,003	-0,025
-350,737	690,369	0,034	0,065
-349,723	-200,000	0,006	0,124
-348,708	84,318	0,025	-0,020
-347,693	149,688	-0,042	0,042
-346,679	86,526	-0,147	-0,118
-345,664	498,969	-0,063	0,105
-344,650	-200,000	-0,009	0,274
-343,635	33,143	-0,053	-0,033
-342,620	39,855	0,164	0,107
-341,606	-200,000	-0,015	0,162
-340,591	800,000	0,045	0,095
-339,577	295,799	0,077	-0,102
-338,562	124,611	0,085	-0,078
-337,548	800,000	-0,024	-0,051
-336,533	180,727	0,041	0,044
-335,518	-24,194	0,114	-0,049
-334,504	-165,364	-0,021	-0,001
-333,489	162,842	0,121	-0,123
-332,475	298,051	-0,088	-0,118
-331,460	228,334	0,060	-0,071
-330,445	-144,419	0,060	0,004
-329,431	-77,571	0,146	-0,036
-328,416	107,494	0,084	0,072
-327,402	255,039	-0,048	0,059
-326,387	157,600	0,108	-0,108
-325,372	26,384	0,091	0,055
-324,358	800,000	-0,019	0,053
-323,343	632,260	-0,078	-0,144
-322,329	-103,915	0,073	0,012
-321,314	39,011	-0,076	-0,049
-320,299	51,644	-0,057	-0,039
-319,285	-182,212	0,089	0,001
-318,270	21,396	-0,124	0,073
-317,256	184,380	0,056	0,060
-316,241	-91,054	0,036	-0,007
-315,226	667,181	-0,081	-0,153
-314,212	-118,746	0,155	-0,020
-313,197	-200,000	-0,017	0,071
-312,183	-77,683	0,053	0,013
-311,168	-200,000	-0,031	-0,099
-310,153	-125,466	-0,026	-0,003
-309,139	29,626	0,107	-0,066
-308,124	4,584	-0,031	-0,017
-307,110	-200,000	0,022	0,107
-306,095	800,000	-0,021	0,058
-305,080	-93,367	0,124	0,025
-304,066	-26,483	-0,033	0,014
-303,051	-200,000	0,004	0,061
-302,037	-200,000	-0,002	0,014
-301,022	-200,000	0,013	-0,094
-300,008	6,802	0,023	0,012
-298,993	79,764	0,049	0,038
-297,978	328,482	0,036	-0,050
-296,964	-102,534	-0,027	0,005
-295,949	-200,000	-0,037	-0,195
-294,935	-26,239	-0,057	0,024
-293,920	565,906	0,060	-0,106
-292,905	-79,946	0,080	-0,019
-291,891	-200,000	0,008	0,091
-290,876	800,000	-0,033	0,077
-289,862	103,082	0,065	0,055
-288,847	800,000	-0,055	-0,153
-287,832	-200,000	0,014	-0,306
-286,818	800,000	-0,021	-0,053
-285,803	-149,917	0,120	0,007
-284,789	800,000	0,018	0,038
-283,774	-200,000	0,011	0,134
-282,759	-142,999	0,114	0,008
-281,745	-136,327	-0,160	-0,013
-280,730	114,477	-0,091	-0,080
-279,716	-46,812	0,095	-0,034
-278,701	-200,000	0,008	0,115
-277,686	-200,000	0,029	0,103
-276,672	81,690	-0,099	0,077
-275,657	-148,296	0,077	0,005
-274,643	-89,659	-0,165	-0,035
-273,628	265,745	-0,121	-0,154
-272,613	-137,489	-0,079	0,006
-271,599	461,618	0,034	-0,055
-270,584	55,183	0,084	0,059
-269,570	798,777	0,049	0,098
-268,555	60,371	0,063	-0,045
-267,540	10,466	-0,008	-0,004
-266,526	800,000	0,020	0,061
-265,511	55,986	-0,064	-0,045
-264,497	-200,000	0,004	0,125
-263,482	-200,000	0,022	0,077
-262,467	29,690	-0,038	0,023
-261,453	-20,677	-0,047	0,021
-260,438	-127,429	0,118	-0,012
-259,424	758,151	-0,070	0,138
-258,409	-140,811	-0,084	0,006
-257,395	-2,655	0,056	-0,028
-256,380	-200,000	-0,023	0,082
-255,365	-117,795	-0,105	-0,014
-254,351	149,465	0,050	0,048
-253,336	261,007	0,063	-0,079
-252,322	24,773	-0,106	-0,063
-251,307	-68,974	0,047	-0,013
-250,292	-10,186	0,091	-0,044
-249,278	-4,078	0,141	-0,070
-248,263	-194,768	0,081	-0,000
-247,249	37,801	-0,093	0,060
-246,234	10,368	0,038	-0,021
-245,219	-156,514	-0,088	-0,004
-244,205	-25,421	-0,089	0,038
-243,190	357,291	0,035	0,050
-242,176	469,164	0,026	-0,042
-241,161	-200,000	-0,026	0,115
-240,146	-178,148	-0,058	0,001
-239,132	82,890	0,067	0,053
-238,117	13,826	-0,025	0,014
-237,103	-50,794	-0,095	-0,032
-236,088	-200,000	0,008	0,188
-235,073	-200,000	-0,029	-0,188
-234,059	159,713	-0,061	0,062
-233,044	-44,480	0,103	-0,037
-232,030	232,411	-0,038	0,045
-231,015	155,394	-0,075	0,075
-230,000	-4,828	-0,075	0,037
-228,986	102,624	0,152	-0,129
-227,971	-55,001	0,058	-0,019
-226,957	139,986	-0,056	0,053
-225,942	11,232	0,090	-0,050
-224,927	-200,000	-0,017	-0,073
-223,913	273,783	0,035	0,045
-222,898	340,908	-0,037	0,052
-221,884	25,022	0,104	-0,062
-220,869	-200,000	-0,011	-0,092
-219,855	5,428	-0,071	0,037
-218,840	-200,000	-0,026	0,128
-217,825	9,760	0,070	0,038
-216,811	120,101	-0,099	-0,088
-215,796	-200,000	0,018	-0,079
-214,782	-157,313	-0,136	0,006
-213,767	-66,872	-0,127	0,036
-212,752	-77,815	0,106	0,026
-211,738	142,566	-0,098	0,094
-210,723	10,199	-0,051	0,028
-209,709	-171,004	0,193	0,005
-208,694	616,537	0,023	0,042
-207,679	5,848	0,033	-0,018
-206,665	368,160	0,054	-0,079
-205,650	800,000	-0,029	0,083
-204,636	110,199	0,138	0,119
-203,621	800,000	0,062	-0,185
-202,606	670,217	-0,053	-0,100
-201,592	800,000	0,020	0,041
-200,577	800,000	0,036	0,083
-199,563	-200,000	-0,024	0,161
-198,548	28,363	0,055	-0,033
-197,533	31,459	0,065	-0,040
-196,519	-118,501	-0,184	-0,023
-195,504	-200,000	-0,004	0,031
-194,490	42,514	0,212	-0,139
-193,475	-42,977	0,046	-0,017
-192,460	364,122	-0,063	-0,091
-191,446	800,000	0,031	0,082
-190,431	-200,000	0,007	-0,044
-189,417	-118,084	-0,098	-0,012
-188,402	-200,000	-0,024	-0,089
-187,387	136,476	-0,150	-0,141
-186,373	-200,000	0,012	-0,054
-185,358	-200,000	-0,013	-0,130
-184,344	-200,000	0,012	0,064
-183,329	800,000	0,011	0,036
-182,315	763,986	-0,059	-0,116
-181,300	613,537	-0,047	0,085
-180,285	414,912	-0,040	0,061
-179,271	-200,000	-0,031	-0,123
-178,256	-145,868	-0,053	-0,003
-177,242	-200,000	-0,027	0,190
-176,227	-45,095	0,180	-0,064
-175,212	143,585	0,066	0,064
-174,198	283,461	-0,088	0,114
-173,183	188,251	0,080	-0,086
-172,169	88,321	0,053	-0,042
-171,154	-200,000	-0,027	-0,093
-170,139	800,000	-0,036	-0,094
-169,125	7,865	0,040	0,022
-168,110	33,028	0,011	-0,007
-167,096	-200,000	0,029	-0,102
-166,081	282,009	0,036	-0,047
-165,066	389,714	0,043	-0,064
-164,052	86,549	-0,083	0,066
-163,037	672,446	0,054	0,101
-162,023	-200,000	-0,008	0,037
-161,008	26,567	0,065	0,039
-159,993	11,781	-0,020	-0,011
-158,979	-141,824	-0,062	-0,004
-157,964	-14,698	-0,142	-0,065
-156,950	88,140	0,054	-0,043
-155,935	-138,181	0,154	0,012
-154,920	161,235	0,084	0,084
-153,906	800,000	0,052	0,123
-152,891	79,316	0,115	-0,088
-151,877	34,132	-0,151	-0,095
-150,862	-62,392	-0,100	-0,030
-149,847	800,000	-0,036	0,075
-148,833	-31,911	-0,030	0,012
-147,818	-112,833	0,035	0,005
-146,804	-63,489	0,132	-0,039
-145,789	0,468	0,033	0,017
-144,775	26,649	-0,047	-0,028
-143,760	-200,000	-0,007	-0,125
-142,745	73,795	0,038	-0,029
-141,731	93,622	-0,056	0,045
-140,716	280,777	-0,016	-0,021
-139,702	-93,530	-0,088	0,017
-138,687	127,656	0,096	-0,088
-137,672	-120,154	0,055	0,007
-136,658	589,713	-0,126	-0,225
-135,643	-200,000	-0,011	-0,076
-134,629	120,191	-0,030	-0,026
-133,614	800,000	0,045	0,105
-132,599	800,000	0,054	0,111
-131,585	-89,326	-0,042	-0,009
-130,570	-200,000	0,010	-0,048
-129,556	348,616	-0,029	-0,042
-128,541	-49,647	-0,141	-0,048
-127,526	-200,000	0,009	0,068
-126,512	-200,000	-0,016	0,096
-125,497	94,607	0,135	0,110
-124,483	-75,130	0,157	-0,040
-123,468	678,405	0,022	0,041
-122,453	800,000	-0,049	-0,124
-121,439	312,412	-0,022	0,030
-120,424	201,822	-0,071	-0,078
-119,410	685,657	0,014	0,027
