DTS Sentinel unit serial number:	SN410029Multiplexer serial number:	ORYXHardware model number:	OX2-SRSoftware version number:	ORYX F/W v4,00 Oryx Data Collector v3.7.2.0data status	okinstallation	B5 Nyhavnadifferential loss correction	single-endedforward channel	channel 2reverse channel	N/Adate	2023/12/12time	12:42:13forward acquisition time	300,00reverse acquisition time	0,00gamma	499,1914k internal	0,3158k external	0,3158temperature offset calibration	1,0000default loss term (dB/km)	0,3820temperature slope calibration	1,0000multiplexer offset coefficient	1,0000multiplexer slope coefficient	1,0000fibre end	0,00T internal ref (°C)	15,38T ext. ref 1 (°C)	-0,49T ext. ref 2 (°C)	-0,74length (m)	temperature (°C)	Stokes	anti-Stokes-744,400	-40,689	0,155	0,059
-743,385	-61,419	-0,267	0,082
-742,371	-200,000	0,043	0,165
-741,356	-54,732	-0,245	0,081
-740,342	81,375	0,077	0,061
-739,327	-108,821	-0,216	-0,034
-738,312	-200,000	0,051	-0,257
-737,298	-114,374	-0,323	-0,045
-736,283	274,810	-0,042	0,054
-735,269	-71,931	-0,282	0,077
-734,254	-200,000	-0,004	-0,028
-733,239	-52,829	-0,533	-0,180
-732,225	191,281	0,118	0,131
-731,210	9,197	-0,063	-0,035
-730,196	44,376	-0,052	0,035
-729,181	-119,582	-0,145	0,018
-728,167	169,128	0,008	0,008
-727,152	-44,661	-0,197	0,072
-726,137	-200,000	-0,016	-0,058
-725,123	137,604	-0,144	-0,139
-724,108	-200,000	-0,019	-0,174
-723,094	-41,572	-0,135	-0,051
-722,079	-200,000	-0,007	-0,155
-721,064	-14,849	0,052	-0,024
-720,050	18,148	-0,112	0,066
-719,035	-133,026	-0,013	-0,001
-718,021	-36,144	-0,093	-0,037
-717,006	327,206	-0,032	-0,045
-715,991	-70,643	-0,064	0,018
-714,977	122,246	-0,070	-0,064
-713,962	780,646	0,041	0,083
-712,948	-200,000	0,007	-0,114
-711,933	-48,776	-0,172	0,060
-710,918	-200,000	0,004	0,082
-709,904	-200,000	-0,024	-0,119
-708,889	315,147	-0,029	-0,041
-707,875	-200,000	-0,023	-0,081
-706,860	393,226	0,076	-0,117
-705,845	-200,000	-0,003	-0,030
-704,831	800,000	-0,027	0,070
-703,816	-79,702	0,095	0,023
-702,802	800,000	-0,051	0,110
-701,787	-172,069	-0,122	0,003
-700,772	800,000	-0,024	-0,058
-699,758	-200,000	-0,051	0,000
-698,743	800,000	-0,059	0,145
-697,729	800,000	-0,004	0,009
-696,714	451,972	-0,060	-0,099
-695,699	-5,392	-0,044	0,022
-694,685	-200,000	-0,001	0,027
-693,670	233,396	-0,015	0,018
-692,656	-26,394	-0,107	-0,046
-691,641	-18,439	0,036	0,016
-690,627	474,653	-0,017	0,028
-689,612	800,000	-0,016	-0,034
-688,597	-200,000	-0,003	-0,062
-687,583	-200,000	0,029	-0,102
-686,568	555,349	0,074	-0,132
-685,554	-93,402	0,060	0,012
-684,539	47,433	0,127	0,087
-683,524	78,469	0,056	0,044
-682,510	43,229	0,061	-0,041
-681,495	800,000	-0,015	0,046
-680,481	73,961	-0,162	0,125
-679,466	5,709	0,099	-0,054
-678,451	800,000	0,022	-0,048
-677,437	100,172	0,058	-0,050
-676,422	131,803	-0,135	0,128
-675,408	457,092	0,034	-0,055
-674,393	489,427	-0,048	0,080
-673,378	-200,000	-0,007	0,034
-672,364	511,485	-0,015	0,025
-671,349	42,197	0,099	0,066
-670,335	346,895	0,097	-0,141
-669,320	-200,000	-0,007	0,039
-668,305	-200,000	0,019	-0,070
-667,291	643,761	-0,013	0,024
-666,276	-200,000	0,022	-0,140
-665,262	163,432	-0,098	-0,101
-664,247	-200,000	0,025	-0,137
-663,232	-126,550	-0,141	0,015
-662,218	61,376	0,081	-0,059
-661,203	-200,000	0,026	-0,101
-660,189	-200,000	0,006	0,133
-659,174	14,171	-0,189	-0,108
-658,159	-200,000	-0,001	-0,126
-657,145	-200,000	0,042	-0,145
-656,130	-78,289	-0,059	0,015
-655,116	-200,000	0,005	-0,025
-654,101	-200,000	-0,019	-0,106
-653,086	140,422	-0,108	-0,104
-652,072	-200,000	0,046	0,189
-651,057	9,644	-0,019	0,010
-650,043	230,790	-0,075	-0,090
-649,028	405,436	-0,058	-0,090
-648,014	140,206	-0,084	-0,082
-646,999	83,384	-0,056	0,045
-645,984	-85,429	0,227	-0,052
-644,970	-200,000	0,001	-0,075
-643,955	-65,013	-0,077	-0,023
-642,941	-200,000	-0,016	-0,158
-641,926	-44,979	-0,103	0,037
-640,911	800,000	-0,042	-0,089
-639,897	-62,398	-0,165	0,050
-638,882	-8,146	0,082	-0,041
-637,868	-195,035	0,038	0,000
-636,853	-200,000	0,010	-0,047
-635,838	-200,000	-0,034	-0,149
-634,824	113,847	0,092	0,083
-633,809	-200,000	0,006	-0,032
-632,795	-149,716	0,042	0,002
-631,780	26,195	-0,085	-0,052
-630,765	501,856	-0,088	-0,151
-629,751	371,188	0,056	-0,084
-628,736	258,424	-0,059	-0,075
-627,722	-33,593	0,081	-0,033
-626,707	17,168	0,042	-0,024
-625,692	231,527	0,037	0,044
-624,678	632,901	-0,063	0,117
-623,663	-200,000	0,062	0,203
-622,649	214,572	0,025	-0,029
-621,634	-200,000	0,009	-0,049
-620,619	-200,000	-0,012	0,072
-619,605	34,128	-0,116	0,074
-618,590	185,508	-0,073	-0,079
-617,576	26,393	0,195	0,120
-616,561	-200,000	0,022	-0,079
-615,546	-200,000	0,024	-0,094
-614,532	36,462	-0,034	0,022
-613,517	-119,064	0,104	0,013
-612,503	141,616	-0,057	-0,055
-611,488	55,626	0,082	-0,058
-610,474	105,502	0,054	0,047
-609,459	-80,080	0,173	0,042
-608,444	35,580	0,120	-0,077
-607,430	176,188	-0,069	-0,073
-606,415	138,875	0,046	0,044
-605,401	-141,284	0,075	-0,006
-604,386	6,328	0,084	-0,045
-603,371	-103,565	-0,049	0,008
-602,357	800,000	-0,020	0,057
-601,342	39,573	-0,082	0,054
-600,328	116,037	0,008	0,007
-599,313	-200,000	0,004	0,123
-598,298	145,607	-0,064	0,063
-597,284	-58,556	0,096	-0,030
-596,269	-31,814	0,072	0,030
-595,255	-106,255	0,095	-0,015
-594,240	-104,523	-0,130	-0,022
-593,225	-200,000	0,017	-0,112
-592,211	7,427	-0,058	0,032
-591,196	800,000	0,028	0,090
-590,182	-200,000	-0,002	0,126
-589,167	246,412	0,175	0,216
-588,152	219,916	-0,064	0,075
-587,138	392,387	-0,055	0,085
-586,123	-200,000	0,005	0,034
-585,109	-200,000	-0,014	-0,123
-584,094	-200,000	0,002	-0,031
-583,079	416,273	0,059	-0,093
-582,065	-200,000	-0,025	-0,112
-581,050	-46,928	0,056	-0,020
-580,036	112,086	-0,053	0,047
-579,021	12,726	-0,201	-0,113
-578,006	-145,935	-0,065	-0,004
-576,992	-158,454	-0,135	0,006
-575,977	186,827	-0,068	-0,074
-574,963	-200,000	0,014	-0,086
-573,948	-128,560	-0,158	-0,016
-572,934	178,259	-0,055	0,059
-571,919	800,000	-0,056	-0,163
-570,904	510,686	-0,085	-0,146
-569,890	21,817	0,069	-0,041
-568,875	-200,000	-0,002	-0,088
-567,861	246,392	0,086	-0,107
-566,846	-127,515	-0,100	-0,010
-565,831	800,000	-0,009	0,030
-564,817	-138,962	-0,070	-0,006
-563,802	34,454	0,088	0,056
-562,788	224,830	-0,030	0,036
-561,773	588,229	-0,025	0,045
-560,758	46,531	0,104	-0,071
-559,744	-17,348	-0,104	0,048
-558,729	-200,000	0,006	-0,067
-557,715	-106,957	0,135	-0,022
-556,700	800,000	-0,007	0,022
-555,685	64,183	-0,077	0,057
-554,671	-200,000	0,002	-0,054
-553,656	35,443	0,102	-0,065
-552,642	-200,000	0,031	0,120
-551,627	282,164	-0,017	0,022
-550,612	-53,196	0,072	-0,024
-549,598	137,412	-0,008	0,008
-548,583	-200,000	-0,015	-0,069
-547,569	167,876	-0,081	-0,085
-546,554	211,258	0,100	0,116
-545,539	-200,000	0,017	0,084
-544,525	800,000	0,067	-0,138
-543,510	-96,914	0,071	0,013
-542,496	-83,103	-0,142	-0,033
-541,481	800,000	-0,019	0,062
-540,466	633,057	0,070	-0,131
-539,452	800,000	-0,017	-0,041
-538,437	160,421	-0,107	0,109
-537,423	257,477	-0,037	0,046
-536,408	800,000	0,022	-0,052
-535,393	218,843	-0,045	-0,053
-534,379	-80,336	0,017	-0,004
-533,364	800,000	-0,028	0,069
-532,350	46,268	0,012	-0,008
-531,335	466,862	-0,025	-0,041
-530,321	292,869	0,084	-0,113
-529,306	28,082	-0,038	0,024
-528,291	-121,321	-0,091	-0,011
-527,277	800,000	0,025	-0,065
-526,262	-200,000	-0,010	0,067
-525,248	-200,000	0,019	0,093
-524,233	183,848	0,071	0,076
-523,218	-146,604	-0,057	-0,004
-522,204	101,933	0,048	-0,041
-521,189	145,427	-0,028	0,027
-520,175	-200,000	-0,017	-0,072
-519,160	800,000	0,027	-0,077
-518,145	-200,000	-0,003	-0,129
-517,131	-164,850	0,088	0,003
-516,116	43,940	-0,060	0,040
-515,102	141,341	0,065	-0,063
-514,087	-4,673	0,088	-0,044
-513,072	800,000	0,026	0,067
-512,058	800,000	0,015	-0,044
-511,043	800,000	0,033	-0,091
-510,029	-200,000	0,030	0,149
-509,014	2,795	0,036	-0,019
-507,999	210,454	-0,055	-0,063
-506,985	-88,129	0,057	-0,012
-505,970	800,000	-0,014	-0,042
-504,956	-200,000	0,014	-0,125
-503,941	-200,000	-0,003	0,118
-502,926	-101,015	0,104	-0,018
-501,912	-200,000	0,016	-0,066
-500,897	405,084	-0,065	-0,101
-499,883	564,824	0,029	-0,052
-498,868	24,025	0,074	-0,044
-497,853	7,186	-0,072	0,039
-496,839	-200,000	0,003	-0,120
-495,824	-116,805	-0,051	-0,007
-494,810	118,009	0,103	0,092
-493,795	-200,000	-0,018	0,089
-492,781	-200,000	-0,017	0,063
-491,766	120,493	0,068	-0,062
-490,751	-8,708	-0,027	0,013
-489,737	6,630	-0,084	-0,045
-488,722	-35,904	-0,029	-0,011
-487,708	-89,577	-0,054	-0,012
-486,693	119,157	-0,051	0,046
-485,678	212,575	0,035	-0,041
-484,664	-42,594	-0,047	-0,017
-483,649	-200,000	-0,011	0,112
-482,635	-128,111	0,084	-0,009
-481,620	-125,266	-0,018	-0,002
-480,605	550,382	0,029	0,051
-479,591	770,801	-0,040	0,080
-478,576	-133,595	0,034	0,003
-477,562	-200,000	-0,027	-0,124
-476,547	-80,318	-0,116	-0,028
-475,532	-200,000	0,013	0,057
-474,518	-200,000	0,022	-0,131
-473,503	-182,652	0,141	0,002
-472,489	-200,000	0,010	0,059
-471,474	-4,449	-0,069	-0,034
-470,459	-134,907	-0,031	-0,003
-469,445	-200,000	-0,014	-0,065
-468,430	152,285	0,034	0,034
-467,416	-20,568	-0,104	0,046
-466,401	699,923	-0,070	0,135
-465,386	800,000	-0,016	0,051
-464,372	800,000	-0,065	0,151
-463,357	19,644	-0,020	0,011
-462,343	-200,000	-0,004	0,045
-461,328	468,294	-0,025	0,041
-460,313	60,391	0,036	-0,026
-459,299	753,232	0,042	-0,082
-458,284	-69,940	-0,060	-0,016
-457,270	-77,832	-0,064	0,016
-456,255	800,000	-0,043	-0,109
-455,241	-200,000	0,023	0,094
-454,226	166,198	-0,103	0,106
-453,211	-200,000	0,026	-0,095
-452,197	-124,133	0,110	0,012
-451,182	7,594	-0,112	0,061
-450,168	-73,940	0,038	-0,010
-449,153	147,051	0,039	-0,039
-448,138	-6,816	-0,166	-0,082
-447,124	800,000	-0,018	-0,054
-446,109	-112,099	0,052	0,007
-445,095	-200,000	0,012	0,189
-444,080	-74,758	0,120	-0,031
-443,065	23,399	-0,083	0,050
-442,051	327,374	-0,092	0,129
-441,036	40,576	-0,015	-0,010
-440,022	-128,034	0,082	0,008
-439,007	52,904	0,101	-0,071
-437,992	42,455	-0,098	0,065
-436,978	800,000	-0,038	0,101
-435,963	-52,564	0,064	0,021
-434,949	-105,468	-0,060	0,010
-433,934	658,425	-0,023	-0,044
-432,919	-117,029	-0,045	0,006
-431,905	720,282	0,019	0,037
-430,890	800,000	0,052	0,105
-429,876	-200,000	0,010	0,083
-428,861	800,000	0,032	0,082
-427,846	800,000	-0,030	0,087
-426,832	-1,441	0,017	0,009
-425,817	-200,000	0,034	-0,191
-424,803	800,000	0,030	-0,069
-423,788	-30,935	0,097	-0,040
-422,773	201,517	0,046	0,051
-421,759	81,827	0,088	-0,069
-420,744	20,142	-0,034	0,020
-419,730	-98,035	-0,097	-0,018
-418,715	59,638	-0,095	-0,068
-417,701	463,019	0,005	-0,008
-416,686	437,252	0,061	0,096
-415,671	-129,999	0,081	-0,008
-414,657	326,923	0,075	-0,104
-413,642	800,000	-0,029	0,083
-412,628	-110,736	0,025	0,004
-411,613	319,495	0,113	0,156
-410,598	-200,000	0,011	0,141
-409,584	-21,512	-0,083	-0,037
-408,569	206,437	-0,036	-0,041
-407,555	278,463	-0,032	0,041
-406,540	-29,711	-0,062	-0,026
-405,525	800,000	0,024	0,053
-404,511	-61,475	0,067	-0,020
-403,496	800,000	-0,014	0,028
-402,482	-30,474	0,089	0,036
-401,467	550,375	0,026	0,045
-400,452	476,053	0,049	0,081
-399,438	-200,000	-0,009	0,068
-398,423	142,763	0,059	0,057
-397,409	240,515	0,054	-0,066
-396,394	-200,000	-0,007	-0,033
-395,379	-12,113	-0,148	0,070
-394,365	800,000	0,014	0,029
-393,350	-51,080	-0,044	0,015
-392,336	753,465	-0,042	0,084
-391,321	5,285	0,036	0,019
-390,306	-200,000	0,034	-0,143
-389,292	800,000	-0,070	-0,212
-388,277	-105,760	0,030	-0,005
-387,263	302,241	0,124	0,167
-386,248	-17,333	-0,108	-0,049
-385,233	800,000	-0,059	0,188
-384,219	46,644	-0,095	0,064
-383,204	280,688	0,032	0,042
-382,190	367,104	0,048	0,071
-381,175	74,734	0,107	0,082
-380,160	-83,502	0,013	0,003
-379,146	-99,890	0,080	-0,014
-378,131	65,104	-0,066	0,048
-377,117	17,614	0,064	-0,037
-376,102	-74,356	-0,138	0,036
-375,088	-77,362	0,109	0,027
-374,073	-37,013	-0,133	0,051
-373,058	800,000	0,056	-0,149
-372,044	-200,000	0,025	0,170
-371,029	302,485	-0,072	-0,098
-370,015	-200,000	0,023	-0,138
-369,000	-37,899	0,056	0,022
-367,985	-200,000	0,007	-0,139
-366,971	-128,922	0,075	0,008
-365,956	-18,959	0,114	-0,052
-364,942	91,322	-0,087	-0,071
-363,927	336,932	-0,059	0,083
-362,912	-95,023	0,046	-0,009
-361,898	-131,287	-0,064	-0,006
-360,883	-63,961	0,053	0,016
-359,869	800,000	-0,037	-0,097
-358,854	-102,091	0,036	-0,006
-357,839	-30,485	0,152	-0,062
-356,825	-144,994	0,029	-0,002
-355,810	54,473	-0,050	-0,035
-354,796	324,688	-0,023	0,033
-353,781	232,496	-0,101	-0,121
-352,766	-200,000	-0,011	-0,062
-351,752	-200,000	-0,010	0,101
-350,737	-200,000	-0,018	0,076
-349,723	-25,908	0,039	0,017
-348,708	562,208	0,123	-0,217
-347,693	122,920	-0,077	-0,070
-346,679	-51,247	0,163	-0,055
-345,664	-49,494	0,055	-0,019
-344,650	-55,615	0,023	0,008
-343,635	-32,162	0,038	0,015
-342,620	687,423	-0,030	0,056
-341,606	800,000	0,035	0,090
-340,591	-64,539	0,047	-0,014
-339,577	-193,192	-0,088	-0,001
-338,562	156,176	-0,079	-0,079
-337,548	-51,938	-0,149	0,050
-336,533	26,845	-0,092	0,056
-335,518	281,860	-0,052	0,067
-334,504	800,000	-0,045	0,117
-333,489	-60,808	-0,178	0,054
-332,475	314,244	-0,026	-0,036
-331,460	-200,000	-0,001	-0,025
-330,445	-55,471	-0,114	0,037
-329,431	-200,000	0,014	0,066
-328,416	-200,000	0,035	0,199
-327,402	189,525	-0,117	0,127
-326,387	-82,099	-0,148	-0,035
-325,372	705,018	0,025	0,048
-324,358	-200,000	0,006	0,095
-323,343	84,316	0,093	-0,074
-322,329	-11,713	0,050	-0,024
-321,314	800,000	0,037	0,117
-320,299	-89,270	-0,069	0,015
-319,285	-96,889	0,123	0,023
-318,270	-26,309	-0,118	-0,050
-317,256	800,000	-0,077	-0,173
-316,241	257,958	0,038	-0,048
-315,226	-200,000	0,025	0,104
-314,212	-200,000	0,018	0,091
-313,197	800,000	-0,074	-0,161
-312,183	-114,994	0,082	0,011
-311,168	190,480	-0,014	0,016
-310,153	-200,000	-0,022	-0,128
-309,139	-55,916	0,040	0,013
-308,124	-110,800	0,080	-0,012
-307,110	-89,373	0,152	-0,032
-306,095	60,866	0,048	0,035
-305,080	-175,085	0,061	-0,001
-304,066	-200,000	-0,009	0,037
-303,051	-81,825	0,072	-0,017
-302,037	190,891	0,053	0,058
-301,022	800,000	0,097	-0,227
-300,008	-147,822	0,096	-0,006
-298,993	-35,328	0,054	-0,021
-297,978	-200,000	0,053	-0,222
-296,964	800,000	-0,007	0,017
-295,949	-153,367	-0,039	-0,002
-294,935	439,443	-0,007	0,012
-293,920	4,948	-0,129	-0,069
-292,905	-57,993	0,091	0,029
-291,891	-36,569	0,088	0,034
-290,876	-161,438	-0,126	0,005
-289,862	-9,453	0,126	-0,061
-288,847	-131,645	-0,182	-0,017
-287,832	14,054	0,046	0,026
-286,818	-89,692	-0,034	-0,007
-285,803	-200,000	0,007	-0,047
-284,789	800,000	0,054	-0,149
-283,774	275,420	0,030	-0,038
-282,759	353,207	0,019	0,028
-281,745	-101,685	-0,091	0,016
-280,730	-49,444	-0,037	-0,013
-279,716	266,816	-0,042	0,053
-278,701	29,398	0,131	-0,080
-277,686	160,804	0,086	-0,087
-276,672	-68,813	-0,057	0,016
-275,657	-200,000	-0,018	0,174
-274,643	-111,415	0,027	-0,004
-273,628	43,709	0,122	0,080
-272,613	-91,362	0,069	-0,014
-271,599	800,000	0,036	-0,077
-270,584	-200,000	-0,008	0,146
-269,570	-79,638	0,050	-0,012
-268,555	-200,000	0,026	0,090
-267,540	-95,628	-0,009	0,002
-266,526	-200,000	-0,033	-0,149
-265,511	177,499	-0,054	0,057
-264,497	623,844	-0,011	0,020
-263,482	471,444	0,044	0,071
-262,467	187,568	0,109	0,118
-261,453	-200,000	0,019	0,135
-260,438	516,405	-0,072	0,123
-259,424	55,329	-0,082	-0,057
-258,409	-200,000	0,031	0,155
-257,395	241,184	0,020	-0,024
-256,380	-109,667	0,101	0,015
-255,365	-108,742	0,047	-0,007
-254,351	67,414	-0,174	0,128
-253,336	-20,004	0,084	-0,037
-252,322	-200,000	-0,004	-0,064
-251,307	-24,981	-0,082	-0,035
-250,292	66,295	-0,044	-0,032
-249,278	474,532	-0,051	0,083
-248,263	-129,581	-0,050	-0,005
-247,249	-154,762	-0,091	-0,004
-246,234	32,996	0,037	0,023
-245,219	421,292	-0,014	-0,022
-244,205	-200,000	-0,031	-0,181
-243,190	435,664	0,008	-0,012
-242,176	800,000	0,026	-0,066
-241,161	109,690	0,046	-0,040
-240,146	-200,000	0,008	0,059
-239,132	-41,758	0,105	-0,039
-238,117	413,768	0,030	-0,047
-237,103	69,909	-0,106	-0,079
-236,088	-16,211	-0,062	0,028
-235,073	420,314	0,093	0,144
-234,059	-3,110	-0,019	0,010
-233,044	800,000	-0,025	0,059
-232,030	800,000	0,029	0,082
-231,015	800,000	0,053	0,109
-230,000	-14,939	-0,047	0,021
-228,986	318,716	0,061	0,084
-227,971	-75,610	0,059	0,015
-226,957	-95,687	-0,040	-0,008
-225,942	-87,699	-0,108	0,023
-224,927	17,087	0,029	-0,016
-223,913	800,000	0,012	-0,034
-222,898	-155,767	-0,027	0,001
-221,884	25,708	-0,076	0,046
-220,869	180,274	-0,067	0,071
-219,855	93,427	-0,064	-0,052
-218,840	-181,406	-0,041	0,001
-217,825	-200,000	0,027	0,167
-216,811	-122,896	0,072	-0,008
-215,796	-55,995	-0,103	-0,033
-214,782	800,000	-0,028	-0,078
-213,767	216,944	0,061	0,070
-212,752	-200,000	-0,017	0,113
-211,738	-133,850	-0,063	-0,006
-210,723	123,924	-0,070	-0,064
-209,709	-200,000	0,006	-0,083
-208,694	-18,769	-0,075	0,033
-207,679	-69,981	-0,089	-0,024
-206,665	-125,638	-0,106	-0,011
-205,650	37,706	0,087	0,056
-204,636	-22,474	-0,049	-0,021
-203,621	378,024	0,095	-0,140
-202,606	416,411	0,042	-0,065
-201,592	-150,171	-0,180	0,010
-200,577	-200,000	-0,012	-0,144
-199,563	-70,149	-0,009	-0,002
-198,548	-28,411	-0,076	-0,031
-197,533	-131,953	0,166	0,015
-196,519	260,709	0,058	0,073
-195,504	-54,864	-0,019	0,006
-194,490	37,726	-0,063	-0,041
-193,475	269,381	0,059	-0,074
-192,460	16,096	-0,081	0,046
-191,446	-200,000	0,010	0,038
-190,431	800,000	-0,020	0,056
-189,417	-84,514	-0,097	0,022
-188,402	-200,000	-0,024	-0,145
-187,387	-200,000	0,015	-0,076
-186,373	-54,906	-0,054	0,017
-185,358	240,073	-0,092	-0,110
-184,344	490,674	0,038	0,063
-183,329	-112,181	0,124	0,018
-182,315	144,640	-0,031	0,030
-181,300	35,546	0,047	0,030
-180,285	800,000	-0,059	0,134
-179,271	320,505	0,072	-0,099
-178,256	45,560	-0,128	0,085
-177,242	-40,547	0,148	0,055
-176,227	-22,186	-0,057	0,025
-175,212	-81,915	-0,115	0,027
-174,198	139,655	0,055	-0,053
-173,183	284,223	0,069	-0,089
-172,169	-200,000	-0,004	-0,108
-171,154	-200,000	0,018	0,121
-170,139	107,041	-0,098	0,084
-169,125	-200,000	0,048	0,213
-168,110	31,956	-0,084	-0,052
-167,096	120,112	-0,030	0,027
-166,081	800,000	0,081	-0,178
-165,066	351,410	-0,062	-0,089
-164,052	41,392	-0,109	-0,071
-163,037	-64,188	0,094	-0,027
-162,023	-149,633	0,232	0,013
-161,008	17,171	-0,028	0,016
-159,993	-76,816	-0,130	0,033
-158,979	-200,000	0,009	-0,059
-157,964	10,734	0,064	0,035
-156,950	232,823	0,045	-0,053
-155,935	-62,673	0,179	0,053
-154,920	800,000	0,064	0,139
-153,906	305,043	-0,046	0,062
-152,891	-123,975	0,045	0,005
-151,877	123,595	-0,069	0,062
-150,862	-29,617	-0,096	-0,039
-149,847	202,366	-0,077	-0,086
-148,833	452,830	-0,054	-0,086
-147,818	428,384	0,106	-0,166
-146,804	32,411	0,085	-0,052
-145,789	8,230	0,059	0,032
-144,775	217,120	-0,055	-0,063
-143,760	744,385	0,019	-0,036
-142,745	188,400	0,048	-0,052
-141,731	605,176	0,025	0,045
-140,716	-200,000	0,013	-0,069
-139,702	800,000	0,041	-0,106
-138,687	-146,334	-0,179	-0,011
-137,672	-108,640	-0,135	-0,021
-136,658	-200,000	-0,008	-0,167
-135,643	-200,000	0,011	0,079
-134,629	800,000	-0,031	0,084
-133,614	-89,025	0,053	0,011
-132,599	70,775	-0,142	0,106
-131,585	-50,712	-0,031	0,011
-130,570	-200,000	0,027	0,092
-129,556	-44,691	-0,229	0,082
-128,541	-111,505	0,104	0,015
-127,526	152,688	-0,073	-0,072
-126,512	-200,000	-0,011	-0,052
-125,497	-131,732	0,160	-0,015
-124,483	800,000	0,041	-0,119
-123,468	-200,000	-0,008	-0,051
-122,453	73,085	-0,093	0,070
-121,439	-200,000	-0,024	-0,107
-120,424	-14,429	0,052	-0,024
-119,410	223,122	-0,009	0,011
