DTS Sentinel unit serial number:	SN410029Multiplexer serial number:	ORYXHardware model number:	OX2-SRSoftware version number:	ORYX F/W v4,00 Oryx Data Collector v3.7.2.0data status	okinstallation	B5 Nyhavnadifferential loss correction	single-endedforward channel	channel 2reverse channel	N/Adate	2023/12/11time	21:42:13forward acquisition time	300,00reverse acquisition time	0,00gamma	499,1914k internal	0,3156k external	0,3156temperature offset calibration	1,0000default loss term (dB/km)	0,3820temperature slope calibration	1,0000multiplexer offset coefficient	1,0000multiplexer slope coefficient	1,0000fibre end	0,00T internal ref (°C)	16,26T ext. ref 1 (°C)	0,23T ext. ref 2 (°C)	-0,03length (m)	temperature (°C)	Stokes	anti-Stokes-744,400	275,724	0,066	-0,086
-743,385	-8,315	-0,203	-0,100
-742,371	8,825	0,026	-0,015
-741,356	-82,401	-0,263	-0,062
-740,342	-71,369	0,208	0,057
-739,327	-145,704	-0,287	0,019
-738,312	-110,950	0,227	-0,034
-737,298	-35,065	-0,347	0,139
-736,283	-109,006	-0,104	-0,016
-735,269	-7,319	-0,186	0,093
-734,254	-55,216	0,114	0,037
-733,239	-2,605	-0,459	-0,236
-732,225	134,314	0,153	0,147
-731,210	264,863	-0,044	0,056
-730,196	201,094	-0,049	0,055
-729,181	-73,877	-0,088	-0,023
-728,167	-37,594	0,145	0,057
-727,152	-85,466	0,056	0,013
-726,137	-125,089	-0,130	0,014
-725,123	-200,000	-0,011	0,099
-724,108	13,864	0,024	0,014
-723,094	94,440	-0,061	0,051
-722,079	723,309	-0,006	-0,011
-721,064	5,768	0,085	0,046
-720,050	-44,025	-0,080	0,029
-719,035	458,603	-0,034	-0,056
-718,021	800,000	-0,026	0,079
-717,006	-20,986	-0,086	-0,039
-715,991	298,209	-0,093	-0,127
-714,977	800,000	-0,026	0,082
-713,962	-69,153	0,086	0,024
-712,948	-69,147	-0,133	-0,037
-711,933	-161,673	0,058	-0,002
-710,918	-73,574	-0,056	-0,015
-709,904	63,570	-0,094	0,069
-708,889	800,000	-0,045	-0,102
-707,875	-200,000	-0,004	0,018
-706,860	101,242	0,035	0,030
-705,845	-153,148	0,100	-0,005
-704,831	-163,088	0,100	-0,004
-703,816	-92,652	0,079	0,016
-702,802	800,000	-0,026	-0,065
-701,787	74,633	-0,110	-0,085
-700,772	-14,916	0,078	-0,037
-699,758	-75,261	0,191	-0,050
-698,743	-49,366	-0,076	-0,027
-697,729	-37,012	-0,140	0,055
-696,714	-200,000	0,002	0,117
-695,699	-165,238	-0,044	0,001
-694,685	-130,011	0,055	0,005
-693,670	235,853	0,046	-0,056
-692,656	-200,000	0,002	0,149
-691,641	-200,000	0,025	0,143
-690,627	-200,000	-0,025	0,120
-689,612	-77,558	0,034	0,009
-688,597	-200,000	0,015	-0,067
-687,583	-17,679	-0,091	-0,042
-686,568	80,304	-0,083	-0,066
-685,554	66,768	-0,043	0,032
-684,539	159,073	0,127	0,130
-683,524	72,165	-0,117	-0,090
-682,510	-79,628	0,054	0,013
-681,495	139,608	0,065	-0,063
-680,481	316,886	-0,028	-0,039
-679,466	-79,717	-0,047	-0,012
-678,451	-37,754	0,156	0,061
-677,437	432,151	0,031	0,050
-676,422	0,354	0,030	-0,016
-675,408	-200,000	0,009	-0,054
-674,393	800,000	0,033	-0,080
-673,378	-135,577	-0,128	-0,011
-672,364	-200,000	-0,011	0,071
-671,349	-200,000	0,103	-0,000
-670,335	-200,000	-0,002	0,071
-669,320	4,391	0,064	0,035
-668,305	-5,964	0,093	-0,047
-667,291	-38,923	-0,087	0,034
-666,276	91,537	-0,012	0,010
-665,262	-200,000	0,034	-0,139
-664,247	-30,118	-0,118	-0,049
-663,232	-122,011	0,174	-0,021
-662,218	-200,000	-0,026	-0,136
-661,203	-168,304	0,105	-0,003
-660,189	800,000	-0,055	0,115
-659,174	21,095	0,089	-0,053
-658,159	-200,000	0,005	0,036
-657,145	404,277	-0,015	-0,023
-656,130	800,000	0,028	0,084
-655,116	-200,000	-0,021	0,085
-654,101	-200,000	-0,016	-0,063
-653,086	-115,787	0,087	0,012
-652,072	77,818	0,064	0,050
-651,057	75,016	0,058	-0,045
-650,043	59,942	-0,084	0,061
-649,028	7,386	0,019	0,010
-648,014	-166,547	-0,091	-0,003
-646,999	231,144	0,029	-0,035
-645,984	319,034	0,071	0,100
-644,970	-53,613	-0,067	-0,022
-643,955	174,960	-0,028	-0,030
-642,941	-145,730	-0,029	0,002
-641,926	147,603	0,091	0,090
-640,911	414,654	0,057	0,090
-639,897	-200,000	0,045	0,157
-638,882	-145,961	-0,089	0,006
-637,868	221,577	0,103	-0,122
-636,853	164,936	-0,066	-0,069
-635,838	-34,775	-0,110	-0,044
-634,824	109,965	0,072	-0,064
-633,809	131,591	0,041	-0,039
-632,795	19,300	-0,088	0,052
-631,780	-95,758	0,069	0,013
-630,765	-200,000	-0,004	0,050
-629,751	-67,260	-0,084	0,024
-628,736	20,106	-0,031	0,018
-627,722	70,731	-0,017	0,013
-626,707	258,819	0,096	0,122
-625,692	800,000	0,013	-0,032
-624,678	-44,952	0,218	0,079
-623,663	118,236	-0,038	0,034
-622,649	211,228	-0,035	-0,040
-621,634	-200,000	-0,008	0,082
-620,619	444,529	-0,032	0,052
-619,605	800,000	0,027	-0,067
-618,590	690,051	-0,056	0,109
-617,576	331,658	-0,002	0,003
-616,561	4,896	-0,091	0,049
-615,546	-200,000	-0,047	-0,153
-614,532	251,334	-0,083	-0,104
-613,517	800,000	0,021	-0,060
-612,503	142,658	0,032	-0,032
-611,488	17,515	0,080	0,047
-610,474	-200,000	-0,005	-0,058
-609,459	800,000	-0,007	-0,022
-608,444	800,000	0,044	-0,119
-607,430	93,941	-0,035	-0,029
-606,415	-39,528	-0,203	-0,078
-605,401	57,415	0,088	-0,063
-604,386	-147,821	0,100	0,006
-603,371	-62,415	0,019	-0,006
-602,357	-26,436	-0,075	-0,032
-601,342	29,698	-0,109	0,068
-600,328	800,000	-0,028	0,083
-599,313	800,000	-0,067	-0,149
-598,298	800,000	-0,051	-0,142
-597,284	-200,000	-0,023	-0,102
-596,269	-200,000	0,006	-0,082
-595,255	-100,294	-0,086	-0,015
-594,240	800,000	0,043	-0,107
-593,225	19,092	-0,089	-0,052
-592,211	-136,199	-0,054	-0,005
-591,196	-104,940	-0,107	0,018
-590,182	-86,595	0,137	-0,031
-589,167	127,061	0,119	0,111
-588,152	800,000	0,060	-0,135
-587,138	-200,000	-0,003	-0,026
-586,123	-200,000	-0,017	-0,114
-585,109	-200,000	0,000	-0,151
-584,094	517,950	0,031	-0,054
-583,079	800,000	-0,031	0,094
-582,065	-165,516	0,100	0,003
-581,050	421,799	-0,044	0,069
-580,036	-82,219	0,018	-0,004
-579,021	-103,863	0,130	-0,022
-578,006	-200,000	-0,027	-0,161
-576,992	5,786	0,042	0,023
-575,977	234,854	0,032	0,039
-574,963	-51,755	0,220	0,075
-573,948	-200,000	-0,006	0,043
-572,934	378,713	-0,008	-0,013
-571,919	-200,000	0,023	-0,159
-570,904	-200,000	-0,018	0,074
-569,890	-58,566	-0,066	-0,021
-568,875	100,106	-0,028	-0,024
-567,861	-200,000	-0,011	0,040
-566,846	371,338	-0,043	-0,064
-565,831	-83,865	0,209	0,048
-564,817	-200,000	0,008	-0,146
-563,802	191,092	0,063	0,070
-562,788	800,000	0,025	-0,077
-561,773	800,000	-0,044	-0,137
-560,758	800,000	0,049	0,113
-559,744	-6,741	0,038	-0,019
-558,729	-3,737	-0,060	0,030
-557,715	452,134	0,016	-0,026
-556,700	383,486	-0,109	-0,165
-555,685	-200,000	0,017	-0,198
-554,671	264,715	-0,093	-0,119
-553,656	-1,460	0,042	-0,022
-552,642	-200,000	-0,032	0,111
-551,627	121,932	0,190	0,174
-550,612	184,246	0,053	-0,057
-549,598	288,004	-0,120	-0,160
-548,583	800,000	-0,073	-0,172
-547,569	-70,599	0,033	-0,009
-546,554	367,081	0,123	-0,182
-545,539	-200,000	0,008	0,160
-544,525	-200,000	0,002	0,008
-543,510	-54,007	-0,179	0,059
-542,496	-200,000	-0,021	0,078
-541,481	800,000	-0,012	-0,026
-540,466	-23,396	0,053	0,023
-539,452	99,074	-0,069	0,058
-538,437	-200,000	-0,003	0,169
-537,423	-79,029	-0,122	-0,030
-536,408	250,207	-0,090	0,112
-535,393	-200,000	-0,009	-0,062
-534,379	647,937	0,048	0,090
-533,364	800,000	-0,059	-0,153
-532,350	-22,325	0,034	0,015
-531,335	198,131	-0,044	0,050
-530,321	-200,000	-0,037	0,158
-529,306	191,363	0,132	-0,146
-528,291	118,969	-0,135	-0,122
-527,277	-90,778	-0,102	-0,021
-526,262	-25,153	0,098	-0,042
-525,248	359,352	0,115	0,168
-524,233	800,000	-0,095	0,237
-523,218	-200,000	0,007	-0,132
-522,204	502,350	0,039	-0,067
-521,189	-170,233	0,039	0,001
-520,175	800,000	0,015	-0,033
-519,160	28,705	0,066	0,041
-518,145	800,000	0,063	0,178
-517,131	565,719	0,076	0,136
-516,116	-0,637	0,062	0,032
-515,102	-140,484	-0,125	-0,009
-514,087	177,836	0,050	0,053
-513,072	-16,549	-0,050	0,023
-512,058	800,000	0,062	0,190
-511,043	423,746	-0,083	0,131
-510,029	-200,000	-0,006	0,051
-509,014	759,008	0,007	-0,014
-507,999	524,217	-0,032	0,054
-506,985	160,966	-0,080	-0,082
-505,970	-200,000	-0,020	0,083
-504,956	19,588	-0,083	-0,049
-503,941	-200,000	-0,003	-0,059
-502,926	395,776	0,087	-0,133
-501,912	-45,123	-0,042	-0,015
-500,897	-143,497	0,225	-0,015
-499,883	-107,619	-0,084	-0,013
-498,868	-61,009	0,143	0,044
-497,853	405,365	0,036	-0,055
-496,839	-200,000	-0,016	-0,071
-495,824	106,522	-0,069	0,060
-494,810	283,597	0,072	0,094
-493,795	81,859	-0,149	0,118
-492,781	-200,000	-0,033	-0,116
-491,766	227,429	0,109	0,129
-490,751	-65,656	0,063	0,018
-489,737	135,727	-0,037	0,035
-488,722	-200,000	0,179	0,001
-487,708	-200,000	0,014	0,059
-486,693	189,992	0,098	-0,108
-485,678	-29,057	0,074	0,031
-484,664	-99,341	-0,056	0,010
-483,649	-168,192	-0,076	-0,002
-482,635	207,726	0,063	0,072
-481,620	800,000	0,032	0,073
-480,605	55,322	0,119	0,084
-479,591	91,697	0,184	0,151
-478,576	-200,000	-0,007	0,119
-477,562	-200,000	-0,012	0,061
-476,547	-200,000	0,001	0,020
-475,532	241,842	0,046	-0,057
-474,518	-79,168	-0,078	-0,019
-473,503	-57,870	0,087	-0,028
-472,489	800,000	0,003	-0,006
-471,474	181,563	-0,065	-0,070
-470,459	-113,050	-0,068	-0,010
-469,445	147,162	-0,055	0,054
-468,430	98,204	0,103	0,087
-467,416	800,000	-0,005	-0,015
-466,401	173,115	0,051	0,053
-465,386	256,569	-0,072	-0,091
-464,372	243,136	0,017	-0,021
-463,357	20,836	0,051	-0,030
-462,343	-175,536	-0,156	-0,003
-461,328	800,000	-0,029	0,064
-460,313	218,545	0,072	-0,083
-459,299	-93,712	-0,120	-0,024
-458,284	-200,000	0,003	-0,036
-457,270	11,095	0,093	0,052
-456,255	-200,000	-0,020	-0,141
-455,241	-200,000	-0,056	-0,194
-454,226	64,611	0,087	0,064
-453,211	-200,000	-0,007	-0,029
-452,197	800,000	-0,047	0,137
-451,182	370,251	0,062	0,093
-450,168	261,868	0,041	-0,052
-449,153	-1,269	-0,095	-0,049
-448,138	67,865	0,064	-0,047
-447,124	-200,000	-0,005	-0,049
-446,109	800,000	-0,049	0,113
-445,095	-101,758	-0,158	-0,028
-444,080	-85,798	0,122	-0,027
-443,065	-200,000	-0,004	0,095
-442,051	710,529	0,029	0,056
-441,036	63,581	0,083	0,060
-440,022	-74,233	0,069	0,018
-439,007	-170,475	-0,085	0,002
-437,992	82,332	-0,023	-0,018
-436,978	-200,000	0,037	0,209
-435,963	-2,912	0,043	0,022
-434,949	320,444	-0,036	0,050
-433,934	-200,000	-0,017	-0,142
-432,919	-200,000	0,021	-0,140
-431,905	7,935	0,029	0,016
-430,890	-140,964	-0,061	-0,004
-429,876	800,000	-0,044	0,103
-428,861	16,287	0,115	0,066
-427,846	-13,359	0,037	0,018
-426,832	-143,020	-0,134	-0,009
-425,817	-200,000	-0,020	0,101
-424,803	-200,000	-0,008	0,032
-423,788	114,302	0,091	0,081
-422,773	-200,000	-0,014	0,261
-421,759	30,305	0,054	0,033
-420,744	-76,318	0,056	0,014
-419,730	800,000	-0,016	0,050
-418,715	-200,000	0,026	-0,156
-417,701	25,219	-0,170	-0,103
-416,686	-200,000	-0,006	-0,084
-415,671	-200,000	-0,008	0,045
-414,657	1,312	-0,114	-0,059
-413,642	-200,000	0,013	0,105
-412,628	-156,607	0,172	0,008
-411,613	-40,800	-0,099	0,037
-410,598	-23,697	-0,030	0,013
-409,584	562,064	-0,067	0,118
-408,569	343,375	0,065	0,093
-407,555	20,453	-0,063	-0,037
-406,540	-106,731	-0,114	-0,018
-405,525	676,384	-0,056	-0,106
-404,511	228,625	0,068	-0,081
-403,496	134,497	-0,056	-0,053
-402,482	36,516	-0,006	-0,004
-401,467	-42,845	0,044	-0,016
-400,452	-200,000	0,001	-0,077
-399,438	62,915	-0,044	0,032
-398,423	-101,670	-0,050	0,009
-397,409	800,000	0,021	-0,060
-396,394	-200,000	-0,003	-0,124
-395,379	-34,595	-0,143	0,057
-394,365	-97,213	0,163	0,031
-393,350	171,387	-0,037	0,038
-392,336	-25,387	0,072	0,031
-391,321	150,224	0,003	-0,003
-390,306	-51,558	0,065	-0,022
-389,292	-200,000	-0,014	0,085
-388,277	-200,000	0,049	-0,176
-387,263	-200,000	0,006	-0,075
-386,248	-23,672	0,125	0,054
-385,233	179,936	-0,099	0,105
-384,219	80,857	-0,074	0,058
-383,204	69,400	-0,196	0,147
-382,190	800,000	-0,028	-0,058
-381,175	-99,533	-0,063	0,011
-380,160	-200,000	-0,000	-0,078
-379,146	69,136	0,062	-0,046
-378,131	-70,274	0,064	0,018
-377,117	-200,000	-0,006	-0,124
-376,102	185,062	-0,022	-0,023
-375,088	-130,560	-0,105	-0,010
-374,073	105,487	-0,109	-0,093
-373,058	480,608	-0,010	0,017
-372,044	181,852	0,018	-0,019
-371,029	-5,234	0,068	-0,034
-370,015	660,315	-0,017	-0,031
-369,000	-200,000	0,014	0,083
-367,985	2,079	-0,067	0,035
-366,971	800,000	0,041	-0,110
-365,956	-12,679	0,146	0,069
-364,942	-12,736	-0,057	-0,027
-363,927	60,610	0,092	0,066
-362,912	-200,000	0,012	-0,070
-361,898	210,518	0,067	0,077
-360,883	-22,383	0,085	0,037
-359,869	-111,625	-0,094	-0,014
-358,854	-4,340	0,109	0,054
-357,839	206,503	0,023	0,027
-356,825	-0,876	0,079	0,041
-355,810	-200,000	0,003	-0,046
-354,796	-200,000	-0,016	-0,087
-353,781	-182,795	-0,005	0,000
-352,766	-200,000	0,015	-0,061
-351,752	800,000	-0,010	0,031
-350,737	387,579	0,034	0,052
-349,723	800,000	-0,069	-0,148
-348,708	-200,000	0,018	0,188
-347,693	-200,000	0,000	0,005
-346,679	48,972	-0,146	-0,099
-345,664	-200,000	0,010	0,075
-344,650	65,431	-0,062	-0,045
-343,635	656,909	0,048	-0,090
-342,620	-0,314	0,141	0,072
-341,606	291,187	-0,079	0,105
-340,591	-200,000	0,007	-0,032
-339,577	23,637	-0,044	0,026
-338,562	165,488	-0,068	-0,070
-337,548	-200,000	0,014	-0,049
-336,533	800,000	-0,030	-0,063
-335,518	-200,000	-0,002	0,039
-334,504	698,305	-0,027	-0,051
-333,489	-46,662	-0,051	-0,018
-332,475	318,678	-0,098	0,136
-331,460	311,909	0,063	0,086
-330,445	217,104	-0,069	-0,079
-329,431	-200,000	0,015	0,116
-328,416	22,342	0,076	0,045
-327,402	-149,128	-0,152	-0,009
-326,387	-22,464	0,032	-0,014
-325,372	132,168	-0,085	-0,079
-324,358	93,891	0,080	-0,066
-323,343	800,000	0,027	-0,081
-322,329	101,435	0,086	-0,073
-321,314	800,000	-0,022	-0,052
-320,299	-71,645	0,036	-0,010
-319,285	412,809	0,111	0,172
-318,270	-200,000	-0,020	-0,157
-317,256	-200,000	-0,004	-0,012
-316,241	-164,628	0,111	0,004
-315,226	-200,000	-0,013	0,080
-314,212	350,715	-0,008	-0,012
-313,197	7,784	0,052	-0,028
-312,183	371,414	-0,027	0,040
-311,168	94,210	-0,131	-0,108
-310,153	171,124	0,088	-0,092
-309,139	394,948	0,036	-0,054
-308,124	800,000	-0,038	0,077
-307,110	25,407	0,028	0,017
-306,095	51,231	0,147	0,101
-305,080	-200,000	-0,004	-0,124
-304,066	82,250	0,037	-0,029
-303,051	-200,000	0,008	-0,116
-302,037	-200,000	-0,019	0,125
-301,022	800,000	0,048	-0,104
-300,008	-200,000	-0,003	0,014
-298,993	800,000	0,024	0,073
-297,978	284,805	0,030	0,039
-296,964	65,939	-0,081	0,059
-295,949	260,027	-0,127	0,159
-294,935	-200,000	-0,008	0,054
-293,920	-103,600	0,122	-0,021
-292,905	-200,000	0,018	-0,062
-291,891	-98,639	-0,108	-0,020
-290,876	74,248	0,076	0,058
-289,862	800,000	-0,002	-0,005
-288,847	243,206	-0,034	-0,042
-287,832	-200,000	0,046	-0,148
-286,818	-32,171	0,028	-0,011
-285,803	81,399	0,066	0,051
-284,789	800,000	0,027	0,064
-283,774	301,806	0,074	0,100
-282,759	24,937	0,086	-0,052
-281,745	221,072	-0,067	0,078
-280,730	133,965	-0,088	0,082
-279,716	142,788	0,022	-0,021
-278,701	0,666	0,069	-0,036
-277,686	800,000	0,037	-0,094
-276,672	532,436	-0,017	-0,029
-275,657	-40,548	-0,045	0,017
-274,643	-91,231	-0,064	-0,013
-273,628	-21,490	-0,078	-0,034
-272,613	14,248	-0,143	-0,080
-271,599	432,164	0,096	0,151
-270,584	-142,236	0,096	-0,007
-269,570	-17,647	0,125	0,056
-268,555	241,375	0,054	0,065
-267,540	-179,686	-0,091	-0,001
-266,526	386,757	0,020	-0,031
-265,511	24,224	-0,078	-0,047
-264,497	-90,731	-0,075	-0,016
-263,482	39,192	0,131	0,085
-262,467	67,699	0,048	0,035
-261,453	-37,185	-0,073	-0,028
-260,438	-200,000	0,013	-0,164
-259,424	800,000	-0,034	-0,098
-258,409	-36,038	0,061	0,024
-257,395	-147,267	-0,137	-0,008
-256,380	327,891	-0,085	0,118
-255,365	-102,154	0,072	0,012
-254,351	330,936	0,044	0,061
-253,336	136,791	0,026	0,025
-252,322	-200,000	-0,034	-0,118
-251,307	107,438	-0,077	-0,066
-250,292	127,329	0,062	-0,057
-249,278	176,662	0,079	0,083
-248,263	174,886	-0,087	0,092
-247,249	-200,000	-0,001	0,046
-246,234	-200,000	-0,014	-0,069
-245,219	-200,000	0,013	-0,116
-244,205	9,410	-0,093	0,051
-243,190	-52,771	-0,161	-0,053
-242,176	213,557	0,035	0,040
-241,161	614,260	0,063	0,114
-240,146	800,000	0,036	0,081
-239,132	160,002	0,033	-0,033
-238,117	800,000	-0,038	-0,112
-237,103	84,158	-0,160	-0,126
-236,088	-74,856	-0,035	0,009
-235,073	331,788	0,114	0,159
-234,059	60,780	0,151	0,108
-233,044	-13,526	-0,019	0,009
-232,030	-28,537	-0,093	0,039
-231,015	15,639	-0,060	0,034
-230,000	-16,944	-0,082	-0,037
-228,986	105,211	0,112	0,096
-227,971	161,578	0,095	0,097
-226,957	71,332	0,025	0,018
-225,942	-140,490	-0,033	0,002
-224,927	-83,188	-0,145	0,033
-223,913	-84,896	-0,101	0,023
-222,898	-32,362	0,000	0,000
-221,884	132,940	0,076	0,071
-220,869	30,277	-0,069	0,042
-219,855	-200,000	-0,028	-0,163
-218,840	611,918	0,037	-0,067
-217,825	332,437	-0,030	0,041
-216,811	-106,360	0,021	-0,003
-215,796	800,000	0,015	-0,034
-214,782	168,693	0,016	-0,017
-213,767	-89,392	0,086	0,018
-212,752	-200,000	-0,003	0,052
-211,738	-89,853	0,082	-0,017
-210,723	179,182	-0,118	-0,125
-209,709	-200,000	0,027	-0,152
-208,694	-32,966	0,121	-0,048
-207,679	800,000	-0,027	0,058
-206,665	26,021	-0,098	-0,059
-205,650	-104,015	0,120	-0,020
-204,636	431,988	-0,012	-0,019
-203,621	-60,651	-0,144	0,044
-202,606	-33,131	-0,108	-0,043
-201,592	800,000	-0,041	-0,107
-200,577	-70,445	-0,078	0,021
-199,563	-71,172	0,037	-0,010
-198,548	164,046	0,064	-0,066
-197,533	-200,000	0,007	-0,039
-196,519	-200,000	0,001	-0,022
-195,504	-200,000	0,003	-0,060
-194,490	-4,397	-0,062	-0,031
-193,475	-200,000	-0,019	-0,204
-192,460	-116,034	0,101	-0,013
-191,446	427,910	0,027	-0,042
-190,431	141,211	0,156	0,149
-189,417	128,120	-0,029	0,027
-188,402	470,240	-0,030	0,049
-187,387	-63,212	-0,149	-0,044
-186,373	164,106	-0,083	0,084
-185,358	73,348	0,060	-0,046
-184,344	-200,000	-0,007	0,056
-183,329	-200,000	-0,016	-0,116
-182,315	800,000	-0,008	0,020
-181,300	-87,199	-0,153	-0,033
-180,285	-200,000	-0,025	0,082
-179,271	-69,357	-0,066	-0,018
-178,256	-107,955	-0,035	-0,005
-177,242	172,454	0,035	-0,037
-176,227	6,256	0,041	0,022
-175,212	36,753	0,073	-0,046
-174,198	95,688	0,019	0,016
-173,183	302,686	0,064	0,086
-172,169	-94,619	0,062	0,012
-171,154	144,404	-0,030	-0,028
-170,139	800,000	-0,035	-0,090
-169,125	115,611	0,080	0,070
-168,110	-106,975	-0,138	0,022
-167,096	460,065	0,084	0,135
-166,081	142,051	-0,052	-0,050
-165,066	800,000	-0,047	-0,123
-164,052	292,263	0,033	0,043
-163,037	305,908	-0,029	0,039
-162,023	-118,335	-0,123	0,016
-161,008	800,000	0,046	0,121
-159,993	-200,000	-0,004	-0,052
-158,979	87,183	0,123	0,098
-157,964	440,756	-0,066	0,104
-156,950	363,644	-0,014	-0,021
-155,935	800,000	0,052	0,115
-154,920	-200,000	-0,006	-0,033
-153,906	106,096	-0,031	0,027
-152,891	800,000	0,013	-0,031
-151,877	-95,511	0,205	0,039
-150,862	200,066	-0,090	-0,100
-149,847	-44,944	0,043	-0,015
-148,833	674,237	0,027	0,051
-147,818	-72,583	0,084	0,022
-146,804	430,337	0,018	-0,027
-145,789	-99,395	0,139	0,025
-144,775	-200,000	-0,020	-0,109
-143,760	82,798	-0,071	0,056
-142,745	577,788	0,029	0,052
-141,731	783,321	-0,022	-0,044
-140,716	-167,083	0,122	-0,004
-139,702	-93,047	-0,066	-0,013
-138,687	124,236	0,017	-0,016
-137,672	-200,000	-0,021	-0,093
-136,658	93,465	0,023	-0,019
-135,643	-60,617	0,063	-0,019
-134,629	800,000	-0,015	-0,036
-133,614	216,716	0,093	0,107
-132,599	455,244	0,027	0,042
-131,585	374,791	0,074	0,109
-130,570	-200,000	-0,008	-0,164
-129,556	-147,494	0,043	0,003
-128,541	779,289	-0,098	-0,194
-127,526	250,693	-0,098	-0,120
-126,512	-200,000	0,020	0,062
-125,497	-90,710	-0,084	0,017
-124,483	438,932	0,054	0,084
-123,468	-26,519	0,123	0,052
-122,453	7,160	-0,086	0,046
-121,439	650,098	0,054	0,100
-120,424	-200,000	0,015	-0,133
-119,410	157,962	0,015	0,015
-118,395	-200,000	0,022	0,154
