DTS Sentinel unit serial number:	SN410029Multiplexer serial number:	ORYXHardware model number:	OX2-SRSoftware version number:	ORYX F/W v4,00 Oryx Data Collector v3.7.2.0data status	okinstallation	B5 Nyhavnadifferential loss correction	single-endedforward channel	channel 2reverse channel	N/Adate	2023/12/13time	04:17:13forward acquisition time	300,00reverse acquisition time	0,00gamma	499,1914k internal	0,3160k external	0,3160temperature offset calibration	1,0000default loss term (dB/km)	0,3820temperature slope calibration	1,0000multiplexer offset coefficient	1,0000multiplexer slope coefficient	1,0000fibre end	0,00T internal ref (°C)	13,94T ext. ref 1 (°C)	-2,44T ext. ref 2 (°C)	-2,75length (m)	temperature (°C)	Stokes	anti-Stokes-744,400	-158,428	0,179	-0,007
-743,385	-121,323	-0,313	0,038
-742,371	-200,000	0,132	0,000
-741,356	-112,618	-0,278	0,040
-740,342	395,027	0,048	-0,074
-739,327	-137,527	-0,333	-0,027
-738,312	800,000	0,021	0,061
-737,298	-122,102	-0,349	-0,042
-736,283	24,792	0,050	0,030
-735,269	-46,489	-0,190	-0,068
-734,254	157,403	0,169	0,173
-733,239	-53,239	-0,531	-0,178
-732,225	34,517	0,264	0,169
-731,210	-200,000	-0,001	-0,006
-730,196	-94,103	0,134	0,027
-729,181	-144,652	-0,119	0,008
-728,167	109,332	0,070	-0,062
-727,152	322,760	0,057	0,080
-726,137	-3,496	-0,092	-0,047
-725,123	15,627	-0,102	-0,059
-724,108	-123,570	-0,120	0,014
-723,094	-78,522	0,042	-0,010
-722,079	-200,000	-0,007	0,088
-721,064	-7,919	0,014	0,007
-720,050	86,839	-0,127	0,103
-719,035	121,591	0,106	-0,097
-718,021	134,050	-0,062	-0,059
-717,006	-49,209	-0,094	-0,033
-715,991	-169,504	0,035	-0,001
-714,977	-73,130	-0,061	-0,016
-713,962	-32,798	-0,055	-0,023
-712,948	-21,393	0,078	0,035
-711,933	734,937	-0,034	0,068
-710,918	258,514	0,040	0,051
-709,904	628,659	-0,077	-0,144
-708,889	132,299	0,070	-0,067
-707,875	86,635	-0,013	-0,010
-706,860	800,000	-0,016	-0,039
-705,845	-115,051	0,072	-0,010
-704,831	28,895	0,074	0,046
-703,816	-94,053	0,055	-0,011
-702,802	-200,000	-0,007	-0,048
-701,787	-67,003	0,021	0,006
-700,772	800,000	0,005	-0,011
-699,758	-200,000	0,019	0,070
-698,743	69,164	0,010	0,008
-697,729	-46,263	0,067	-0,024
-696,714	-157,849	-0,065	-0,003
-695,699	781,144	-0,042	0,085
-694,685	800,000	-0,028	0,081
-693,670	505,949	-0,029	-0,050
-692,656	-160,209	-0,090	0,004
-691,641	-189,815	0,100	0,001
-690,627	-200,000	-0,035	0,143
-689,612	312,644	-0,034	-0,046
-688,597	-200,000	-0,014	-0,052
-687,583	-17,930	0,085	-0,039
-686,568	800,000	-0,021	-0,043
-685,554	-200,000	-0,021	-0,070
-684,539	680,526	0,038	-0,072
-683,524	140,142	-0,008	0,008
-682,510	68,726	-0,104	-0,078
-681,495	-60,738	0,060	0,018
-680,481	-157,617	-0,081	0,004
-679,466	45,146	-0,137	-0,093
-678,451	157,027	-0,062	0,063
-677,437	-200,000	-0,016	-0,115
-676,422	-200,000	-0,011	-0,102
-675,408	171,680	-0,193	-0,204
-674,393	-200,000	0,010	-0,083
-673,378	-200,000	0,020	-0,155
-672,364	-200,000	-0,004	-0,071
-671,349	-55,408	-0,048	-0,016
-670,335	-86,951	0,108	-0,024
-669,320	800,000	0,043	0,104
-668,305	800,000	0,011	-0,027
-667,291	800,000	-0,048	0,118
-666,276	18,566	-0,092	0,054
-665,262	-16,469	-0,131	-0,061
-664,247	-200,000	-0,001	0,050
-663,232	-11,148	-0,092	0,044
-662,218	107,032	0,066	0,057
-661,203	-200,000	0,003	-0,090
-660,189	41,368	-0,044	0,029
-659,174	-131,257	-0,055	0,005
-658,159	800,000	0,026	-0,054
-657,145	-200,000	-0,004	-0,110
-656,130	-45,233	0,136	0,049
-655,116	720,169	-0,006	0,012
-654,101	84,381	0,152	0,122
-653,086	-200,000	-0,001	0,114
-652,072	-200,000	0,020	-0,092
-651,057	-176,200	-0,152	0,003
-650,043	501,148	-0,014	0,023
-649,028	522,819	-0,035	-0,061
-648,014	-200,000	0,023	0,100
-646,999	101,733	-0,063	0,054
-645,984	-111,020	0,037	0,005
-644,970	-26,459	-0,065	0,028
-643,955	-162,804	-0,217	-0,008
-642,941	800,000	-0,079	-0,193
-641,926	792,442	0,031	0,062
-640,911	-79,781	0,105	0,026
-639,897	209,879	-0,027	0,031
-638,882	27,356	-0,040	-0,025
-637,868	117,189	0,060	-0,054
-636,853	-59,360	-0,092	-0,029
-635,838	-38,348	-0,124	0,048
-634,824	-91,955	-0,055	-0,011
-633,809	-99,983	-0,185	0,034
-632,795	800,000	0,025	0,058
-631,780	-75,888	-0,081	-0,021
-630,765	786,052	0,021	-0,043
-629,751	96,776	0,020	-0,017
-628,736	425,490	-0,053	-0,085
-627,722	-157,908	-0,042	0,002
-626,707	131,801	-0,043	0,041
-625,692	-200,000	0,007	-0,055
-624,678	68,172	-0,027	-0,020
-623,663	800,000	-0,017	0,037
-622,649	800,000	-0,013	-0,028
-621,634	-128,934	-0,043	0,004
-620,619	492,447	-0,058	0,097
-619,605	-200,000	-0,020	0,131
-618,590	-52,108	0,090	0,030
-617,576	-200,000	0,018	-0,124
-616,561	-105,592	-0,022	0,004
-615,546	-139,091	-0,059	0,005
-614,532	-200,000	0,015	-0,105
-613,517	-200,000	-0,020	0,086
-612,503	-200,000	0,003	0,011
-611,488	-200,000	0,006	0,040
-610,474	-135,626	-0,071	0,006
-609,459	800,000	-0,015	0,036
-608,444	455,146	-0,041	-0,067
-607,430	-200,000	-0,017	-0,058
-606,415	-46,276	-0,107	-0,038
-605,401	35,300	-0,121	-0,077
-604,386	-137,898	0,133	0,011
-603,371	800,000	0,036	0,107
-602,357	226,461	-0,065	0,078
-601,342	34,012	0,035	-0,022
-600,328	326,995	0,078	-0,110
-599,313	-200,000	0,017	-0,126
-598,298	800,000	0,040	0,088
-597,284	-97,164	-0,051	0,010
-596,269	-200,000	-0,004	0,041
-595,255	800,000	-0,011	-0,026
-594,240	-105,679	0,067	-0,011
-593,225	-36,666	-0,094	-0,037
-592,211	800,000	-0,059	-0,127
-591,196	800,000	-0,029	-0,062
-590,182	36,564	0,087	0,056
-589,167	152,891	-0,100	-0,100
-588,152	-93,839	-0,131	0,026
-587,138	197,966	-0,031	0,035
-586,123	800,000	0,016	0,038
-585,109	800,000	0,064	0,140
-584,094	-200,000	-0,026	0,092
-583,079	23,664	-0,083	-0,050
-582,065	693,373	-0,034	0,065
-581,050	-200,000	0,007	0,077
-580,036	41,159	-0,065	-0,043
-579,021	203,589	-0,070	0,080
-578,006	-200,000	0,001	-0,101
-576,992	18,641	0,032	0,019
-575,977	87,098	-0,082	0,066
-574,963	-200,000	0,042	0,172
-573,948	800,000	0,070	0,143
-572,934	800,000	-0,003	0,007
-571,919	356,572	0,009	0,013
-570,904	-200,000	-0,038	-0,150
-569,890	92,591	0,051	-0,042
-568,875	-7,045	0,088	-0,043
-567,861	-200,000	0,002	0,096
-566,846	173,928	0,092	0,097
-565,831	-32,473	0,079	-0,032
-564,817	-159,686	0,119	-0,005
-563,802	800,000	-0,034	-0,096
-562,788	344,124	-0,010	0,015
-561,773	156,863	0,115	0,116
-560,758	800,000	-0,090	0,198
-559,744	184,185	0,009	-0,010
-558,729	-129,136	0,081	-0,008
-557,715	-200,000	-0,038	-0,136
-556,700	-24,309	-0,078	-0,034
-555,685	-81,212	-0,138	0,033
-554,671	-91,091	0,023	-0,005
-553,656	99,152	-0,032	-0,027
-552,642	-66,352	0,222	-0,064
-551,627	-200,000	-0,033	-0,188
-550,612	-200,000	-0,041	-0,185
-549,598	-53,180	0,128	0,043
-548,583	-60,987	-0,132	0,041
-547,569	-144,280	-0,165	-0,011
-546,554	-85,087	0,135	-0,031
-545,539	800,000	0,032	-0,073
-544,525	-200,000	-0,003	0,098
-543,510	32,775	-0,096	-0,061
-542,496	-200,000	0,000	0,018
-541,481	-200,000	0,014	-0,082
-540,466	98,106	0,077	0,065
-539,452	210,569	0,025	-0,028
-538,437	245,153	0,043	0,053
-537,423	257,561	0,051	0,065
-536,408	272,753	-0,148	0,191
-535,393	-57,186	-0,089	0,028
-534,379	-200,000	0,003	-0,034
-533,364	362,375	-0,035	-0,051
-532,350	514,512	-0,057	0,098
-531,335	800,000	-0,033	-0,089
-530,321	-43,852	0,007	-0,003
-529,306	-10,240	-0,102	-0,050
-528,291	-200,000	0,003	-0,131
-527,277	-13,649	-0,161	-0,076
-526,262	-150,095	0,121	0,007
-525,248	548,648	-0,021	-0,037
-524,233	-200,000	0,006	0,026
-523,218	-200,000	-0,002	0,018
-522,204	800,000	-0,038	0,088
-521,189	107,184	-0,133	0,115
-520,175	-200,000	0,014	-0,073
-519,160	-200,000	-0,030	-0,160
-518,145	436,308	-0,051	-0,082
-517,131	-3,596	0,159	-0,080
-516,116	101,275	-0,097	0,083
-515,102	-200,000	-0,007	0,026
-514,087	289,324	-0,060	0,080
-513,072	800,000	0,011	-0,026
-512,058	-194,080	0,063	0,000
-511,043	-154,335	-0,131	0,006
-510,029	-200,000	-0,016	0,084
-509,014	270,519	-0,097	0,125
-507,999	-2,618	-0,041	0,021
-506,985	82,746	-0,038	0,030
-505,970	-53,085	0,101	-0,034
-504,956	484,012	-0,021	0,034
-503,941	-200,000	0,028	-0,117
-502,926	445,177	-0,009	0,015
-501,912	-200,000	0,010	-0,041
-500,897	800,000	0,007	0,015
-499,883	662,616	-0,029	0,054
-498,868	800,000	-0,015	0,037
-497,853	581,473	-0,035	-0,063
-496,839	7,248	0,129	-0,070
-495,824	800,000	0,032	0,080
-494,810	-179,367	-0,051	-0,001
-493,795	-200,000	0,002	0,043
-492,781	800,000	0,010	-0,027
-491,766	-200,000	-0,016	-0,135
-490,751	-200,000	0,027	-0,093
-489,737	123,853	0,087	0,080
-488,722	442,051	0,015	0,024
-487,708	338,313	0,069	0,098
-486,693	249,909	-0,151	0,188
-485,678	800,000	0,020	-0,046
-484,664	-0,033	-0,061	0,032
-483,649	-73,002	-0,008	0,002
-482,635	-200,000	0,035	0,145
-481,620	-200,000	-0,017	0,114
-480,605	87,411	0,155	0,125
-479,591	800,000	0,024	0,067
-478,576	800,000	-0,055	-0,154
-477,562	-89,676	-0,060	0,013
-476,547	-23,102	0,048	-0,021
-475,532	800,000	0,031	-0,068
-474,518	256,581	0,010	0,012
-473,503	800,000	0,046	0,104
-472,489	-14,964	0,044	0,020
-471,474	-160,598	0,015	0,001
-470,459	-4,457	-0,101	-0,051
-469,445	-200,000	-0,009	-0,030
-468,430	-31,165	-0,068	-0,028
-467,416	439,421	-0,036	-0,058
-466,401	402,508	0,074	0,113
-465,386	21,375	0,018	0,010
-464,372	50,822	0,126	-0,087
-463,357	-200,000	-0,002	-0,046
-462,343	-200,000	-0,002	-0,144
-461,328	145,966	0,081	-0,079
-460,313	-126,380	0,078	0,008
-459,299	505,560	-0,091	-0,154
-458,284	800,000	-0,063	-0,175
-457,270	-35,516	0,043	-0,017
-456,255	-200,000	-0,023	-0,083
-455,241	-113,975	-0,089	0,012
-454,226	-93,630	0,197	0,039
-453,211	800,000	-0,039	-0,092
-452,197	-51,804	0,116	0,039
-451,182	86,691	-0,058	0,047
-450,168	371,954	0,031	-0,046
-449,153	-22,852	0,055	0,024
-448,138	-89,284	-0,112	0,024
-447,124	-200,000	0,017	-0,098
-446,109	-200,000	0,027	0,122
-445,095	166,743	0,046	0,047
-444,080	-200,000	0,000	-0,026
-443,065	231,796	0,024	0,028
-442,051	248,363	-0,074	0,091
-441,036	-200,000	-0,005	0,171
-440,022	80,961	-0,014	0,011
-439,007	-68,703	0,078	-0,022
-437,992	-15,316	-0,059	0,027
-436,978	608,423	0,063	0,116
-435,963	-200,000	-0,016	0,111
-434,949	-200,000	0,022	-0,079
-433,934	41,545	-0,066	0,043
-432,919	800,000	0,049	-0,123
-431,905	263,879	-0,053	0,068
-430,890	43,496	0,025	-0,016
-429,876	419,348	0,029	-0,045
-428,861	308,498	-0,033	-0,045
-427,846	270,685	-0,032	0,041
-426,832	800,000	-0,007	0,016
-425,817	495,786	-0,018	-0,030
-424,803	-200,000	0,009	0,031
-423,788	221,993	-0,042	0,049
-422,773	-130,798	-0,158	-0,015
-421,759	-200,000	0,042	-0,193
-420,744	256,294	0,114	-0,143
-419,730	800,000	0,029	-0,061
-418,715	462,196	-0,029	-0,047
-417,701	-80,610	-0,086	0,021
-416,686	-97,216	0,148	0,028
-415,671	-200,000	-0,035	-0,137
-414,657	-70,931	0,070	0,019
-413,642	-10,051	0,053	-0,026
-412,628	167,187	-0,057	-0,059
-411,613	275,011	0,029	-0,037
-410,598	-88,427	0,072	0,015
-409,584	-94,582	0,075	0,015
-408,569	-200,000	0,002	-0,045
-407,555	-200,000	0,038	-0,143
-406,540	-12,612	-0,120	0,057
-405,525	800,000	-0,008	-0,019
-404,511	220,553	0,085	-0,099
-403,496	-43,722	-0,080	-0,029
-402,482	80,784	0,067	0,053
-401,467	-200,000	-0,002	0,043
-400,452	137,873	0,036	-0,034
-399,438	800,000	-0,054	0,117
-398,423	106,321	0,056	-0,048
-397,409	293,874	0,070	-0,094
-396,394	-200,000	-0,014	-0,051
-395,379	-63,574	0,060	-0,018
-394,365	58,585	0,092	0,066
-393,350	-141,482	-0,014	0,001
-392,336	-200,000	-0,016	-0,058
-391,321	-200,000	-0,008	-0,038
-390,306	-166,155	-0,095	-0,003
-389,292	78,901	-0,023	0,018
-388,277	-200,000	-0,019	-0,066
-387,263	40,156	0,059	-0,038
-386,248	-200,000	-0,016	0,111
-385,233	800,000	-0,036	0,079
-384,219	-32,167	0,137	-0,055
-383,204	420,469	0,058	0,091
-382,190	323,193	-0,098	-0,136
-381,175	-200,000	-0,018	-0,080
-380,160	174,213	0,115	0,121
-379,146	-200,000	-0,009	0,082
-378,131	-200,000	0,012	-0,108
-377,117	-200,000	0,047	-0,177
-376,102	800,000	-0,032	0,082
-375,088	-63,652	-0,176	0,052
-374,073	469,244	-0,113	-0,185
-373,058	115,138	0,064	-0,057
-372,044	17,474	0,054	-0,031
-371,029	800,000	-0,065	0,162
-370,015	-200,000	0,021	0,222
-369,000	275,810	0,031	-0,040
-367,985	352,886	0,118	-0,170
-366,971	233,702	-0,119	-0,142
-365,956	70,401	0,214	0,161
-364,942	-139,904	-0,018	0,001
-363,927	619,530	-0,026	-0,048
-362,912	800,000	0,022	0,059
-361,898	-200,000	-0,007	0,026
-360,883	158,822	-0,032	0,032
-359,869	322,818	0,042	-0,058
-358,854	-85,434	0,142	-0,032
-357,839	-82,088	0,055	0,013
-356,825	222,773	-0,034	-0,040
-355,810	452,384	0,024	-0,038
-354,796	33,858	0,097	-0,061
-353,781	-166,902	-0,105	0,003
-352,766	800,000	0,037	-0,108
-351,752	415,311	0,020	0,031
-350,737	505,785	0,048	0,081
-349,723	-12,742	0,146	-0,069
-348,708	76,593	0,056	0,043
-347,693	103,794	-0,072	-0,061
-346,679	-83,340	-0,105	0,024
-345,664	-118,060	0,062	-0,008
-344,650	-200,000	-0,006	-0,061
-343,635	-3,505	0,165	-0,083
-342,620	70,619	0,040	-0,030
-341,606	92,606	0,070	-0,057
-340,591	-41,115	0,054	0,020
-339,577	800,000	-0,067	-0,189
-338,562	-19,097	-0,184	0,083
-337,548	55,061	-0,103	0,072
-336,533	78,469	-0,041	0,032
-335,518	-200,000	-0,011	0,075
-334,504	21,530	0,055	0,032
-333,489	-200,000	-0,015	0,069
-332,475	-200,000	-0,017	-0,061
-331,460	68,808	-0,026	-0,019
-330,445	-200,000	0,000	0,018
-329,431	477,639	0,106	0,174
-328,416	310,130	0,124	0,169
-327,402	272,889	-0,046	-0,059
-326,387	-127,589	-0,144	0,015
-325,372	580,406	0,040	-0,071
-324,358	-39,246	0,065	0,025
-323,343	-200,000	0,009	0,101
-322,329	2,321	-0,005	0,003
-321,314	-200,000	0,016	0,092
-320,299	-200,000	-0,018	0,072
-319,285	-200,000	0,018	0,145
-318,270	-200,000	-0,015	-0,067
-317,256	218,774	-0,032	0,037
-316,241	-200,000	0,002	-0,143
-315,226	11,276	0,084	0,046
-314,212	31,312	-0,094	0,058
-313,197	315,232	0,023	-0,031
-312,183	336,060	0,049	0,069
-311,168	471,929	-0,016	-0,026
-310,153	494,550	-0,052	-0,086
-309,139	-61,823	-0,079	0,024
-308,124	-200,000	-0,015	0,081
-307,110	-22,313	-0,062	-0,027
-306,095	-40,169	0,054	0,020
-305,080	800,000	0,057	0,140
-304,066	-15,186	-0,028	0,013
-303,051	130,931	0,070	-0,065
-302,037	-13,273	0,081	-0,038
-301,022	333,779	0,017	0,024
-300,008	800,000	-0,058	0,180
-298,993	-200,000	-0,014	0,066
-297,978	-200,000	-0,005	-0,196
-296,964	-116,728	-0,092	-0,012
-295,949	800,000	-0,035	0,085
-294,935	-99,187	-0,079	0,014
-293,920	-200,000	-0,017	0,114
-292,905	-69,829	0,112	0,031
-291,891	228,813	0,107	0,127
-290,876	800,000	0,013	0,033
-289,862	-113,437	0,067	-0,009
-288,847	-56,896	-0,090	-0,029
-287,832	269,191	0,094	0,119
-286,818	52,011	-0,046	0,032
-285,803	-80,267	0,081	-0,019
-284,789	314,730	0,037	-0,051
-283,774	-200,000	0,018	0,063
-282,759	800,000	0,021	0,046
-281,745	134,492	0,029	0,027
-280,730	-140,312	0,086	-0,006
-279,716	-200,000	-0,022	-0,072
-278,701	-26,530	0,282	-0,119
-277,686	350,808	-0,017	-0,024
-276,672	210,516	0,056	0,063
-275,657	-23,592	0,088	0,038
-274,643	-200,000	-0,014	-0,061
-273,628	120,210	-0,067	-0,060
-272,613	800,000	-0,012	0,031
-271,599	-87,488	0,115	0,025
-270,584	-90,047	0,045	0,009
-269,570	-200,000	0,053	0,195
-268,555	141,095	-0,136	-0,130
-267,540	-52,322	-0,028	0,009
-266,526	375,838	-0,043	-0,064
-265,511	-200,000	0,000	0,023
-264,497	-200,000	0,020	0,164
-263,482	-27,992	0,185	0,077
-262,467	33,775	0,136	-0,085
-261,453	33,677	0,100	0,063
-260,438	-54,583	0,051	-0,017
-259,424	-59,350	0,094	0,029
-258,409	-12,428	-0,141	0,066
-257,395	-76,649	-0,055	0,014
-256,380	239,451	-0,139	0,168
-255,365	163,496	0,077	0,078
-254,351	-105,128	0,097	-0,016
-253,336	142,765	0,079	-0,076
-252,322	-91,672	0,049	-0,010
-251,307	-76,435	0,044	-0,011
-250,292	-57,602	-0,074	-0,023
-249,278	-200,000	0,031	0,110
-248,263	-0,461	-0,123	-0,063
-247,249	614,533	-0,029	0,053
-246,234	-200,000	-0,027	-0,198
-245,219	5,831	0,049	-0,026
-244,205	206,333	0,046	0,052
-243,190	-200,000	-0,007	-0,059
-242,176	73,750	0,085	-0,065
-241,161	17,382	0,052	-0,030
-240,146	-111,249	-0,133	0,019
-239,132	-200,000	0,012	-0,040
-238,117	264,343	0,117	-0,147
-237,103	-79,354	0,044	0,011
-236,088	336,800	-0,010	-0,014
-235,073	245,996	0,056	-0,068
-234,059	468,552	0,057	0,092
-233,044	-200,000	-0,024	0,085
-232,030	-200,000	0,001	-0,141
-231,015	-36,999	-0,135	0,052
-230,000	800,000	-0,049	-0,126
-228,986	98,908	-0,038	-0,032
-227,971	173,782	0,061	-0,063
-226,957	-200,000	0,009	-0,124
-225,942	-27,826	-0,019	0,008
-224,927	342,687	0,067	0,096
-223,913	472,765	0,054	0,089
-222,898	170,101	-0,111	0,115
-221,884	76,517	0,015	0,011
-220,869	-200,000	0,021	-0,069
-219,855	-200,000	0,025	0,133
-218,840	-62,493	0,114	-0,034
-217,825	9,782	-0,038	0,021
-216,811	443,950	0,021	0,034
-215,796	183,095	0,091	0,097
-214,782	172,312	0,059	-0,061
-213,767	287,181	-0,035	-0,046
-212,752	800,000	-0,021	0,057
-211,738	-136,210	-0,062	-0,005
-210,723	-136,868	-0,047	0,004
-209,709	-39,728	-0,078	-0,029
-208,694	195,314	-0,100	0,110
-207,679	-58,583	-0,043	0,013
-206,665	-22,986	-0,118	-0,051
-205,650	-49,269	0,124	0,043
-204,636	-200,000	0,019	0,092
-203,621	800,000	0,077	0,172
-202,606	336,531	0,060	-0,084
-201,592	-23,833	-0,232	-0,100
-200,577	284,001	-0,117	-0,152
-199,563	22,303	0,140	0,082
-198,548	-62,205	0,137	0,041
-197,533	-200,000	0,000	-0,079
-196,519	-200,000	0,000	-0,030
-195,504	48,480	-0,130	-0,088
-194,490	-200,000	0,013	-0,070
-193,475	-200,000	0,004	-0,062
-192,460	42,879	0,029	0,019
-191,446	-200,000	0,014	-0,061
-190,431	800,000	-0,041	0,113
-189,417	-137,804	-0,027	-0,002
-188,402	497,994	-0,072	0,120
-187,387	-56,950	0,020	-0,006
-186,373	-200,000	0,002	0,034
-185,358	-128,116	-0,086	-0,009
-184,344	320,403	0,055	-0,075
-183,329	-35,573	-0,122	0,047
-182,315	-150,125	0,034	-0,002
-181,300	140,152	-0,036	-0,034
-180,285	250,070	0,044	-0,054
-179,271	800,000	-0,081	0,194
-178,256	286,960	0,026	-0,033
-177,242	800,000	-0,039	-0,087
-176,227	-200,000	-0,000	0,062
-175,212	800,000	0,011	0,035
-174,198	151,676	0,078	-0,077
-173,183	9,532	-0,122	-0,066
-172,169	-91,695	0,110	-0,022
-171,154	-200,000	-0,013	-0,073
-170,139	51,540	0,076	-0,052
-169,125	-110,067	-0,113	0,017
-168,110	295,826	-0,045	-0,060
-167,096	21,033	-0,035	-0,020
-166,081	-200,000	-0,016	0,078
-165,066	141,790	0,004	0,004
-164,052	-117,135	0,079	0,010
-163,037	-155,478	-0,053	-0,002
-162,023	667,315	-0,092	0,172
-161,008	-9,058	0,050	0,024
-159,993	-153,230	-0,084	0,004
-158,979	179,726	-0,069	0,073
-157,964	-200,000	-0,036	-0,164
-156,950	-200,000	-0,019	-0,154
-155,935	-63,371	0,055	-0,016
-154,920	86,610	0,033	0,027
-153,906	-19,261	0,074	-0,033
-152,891	81,160	0,007	0,006
-151,877	117,807	-0,075	0,066
-150,862	-107,246	-0,024	-0,004
-149,847	-200,000	0,020	-0,141
-148,833	154,703	0,101	-0,100
-147,818	224,654	0,062	0,072
-146,804	-200,000	-0,015	0,118
-145,789	-200,000	-0,009	0,057
-144,775	800,000	0,033	-0,066
-143,760	-69,717	-0,050	-0,014
-142,745	-26,536	0,148	0,062
-141,731	-200,000	-0,024	0,167
-140,716	600,530	-0,040	0,071
-139,702	-5,145	-0,144	0,071
-138,687	-165,386	0,078	0,002
-137,672	-200,000	-0,018	0,096
-136,658	282,865	-0,054	-0,070
-135,643	-71,404	-0,068	-0,018
-134,629	-11,408	-0,021	0,010
-133,614	-200,000	-0,018	-0,060
-132,599	48,006	-0,024	-0,016
-131,585	-200,000	-0,003	-0,087
-130,570	263,024	-0,032	-0,041
-129,556	64,181	-0,064	0,046
-128,541	111,225	-0,051	0,044
-127,526	-86,147	0,134	-0,029
-126,512	106,348	-0,072	0,061
-125,497	800,000	0,047	0,117
-124,483	-102,869	0,098	-0,017
-123,468	382,253	0,091	-0,134
-122,453	-53,449	-0,141	0,046
-121,439	-200,000	-0,008	0,087
-120,424	-200,000	0,029	-0,134
-119,410	800,000	0,051	0,108
