DTS Sentinel unit serial number:	SN410029Multiplexer serial number:	ORYXHardware model number:	OX2-SRSoftware version number:	ORYX F/W v4,00 Oryx Data Collector v3.7.2.0data status	okinstallation	B5 Nyhavnadifferential loss correction	single-endedforward channel	channel 2reverse channel	N/Adate	2023/12/12time	19:57:13forward acquisition time	300,00reverse acquisition time	0,00gamma	499,1914k internal	0,3157k external	0,3157temperature offset calibration	1,0000default loss term (dB/km)	0,3820temperature slope calibration	1,0000multiplexer offset coefficient	1,0000multiplexer slope coefficient	1,0000fibre end	0,00T internal ref (°C)	15,38T ext. ref 1 (°C)	-1,24T ext. ref 2 (°C)	-1,53length (m)	temperature (°C)	Stokes	anti-Stokes-744,400	577,622	0,100	0,181
-743,385	-140,247	-0,367	-0,028
-742,371	-136,044	0,086	-0,007
-741,356	-96,712	-0,462	0,089
-740,342	471,813	0,112	0,187
-739,327	-65,085	-0,412	0,122
-738,312	800,000	0,055	0,122
-737,298	37,710	-0,161	-0,105
-736,283	367,277	0,039	0,058
-735,269	-100,220	-0,293	0,053
-734,254	-45,635	0,098	0,036
-733,239	-10,585	-0,560	-0,272
-732,225	-33,961	0,079	0,032
-731,210	800,000	-0,016	0,032
-730,196	-200,000	-0,017	-0,105
-729,181	800,000	-0,016	0,041
-728,167	114,227	0,050	-0,045
-727,152	202,974	0,078	-0,089
-726,137	-144,271	-0,105	0,007
-725,123	212,550	0,048	-0,056
-724,108	333,043	-0,105	-0,150
-723,094	200,424	-0,149	-0,169
-722,079	-48,203	0,202	-0,071
-721,064	-200,000	0,029	0,114
-720,050	-85,303	0,036	0,008
-719,035	-145,336	-0,087	-0,006
-718,021	72,741	-0,098	0,075
-717,006	201,327	-0,147	-0,168
-715,991	248,315	-0,062	-0,078
-714,977	90,899	-0,085	-0,070
-713,962	-200,000	0,023	0,075
-712,948	251,920	0,075	0,094
-711,933	-34,309	-0,093	0,037
-710,918	-76,121	-0,118	-0,031
-709,904	-200,000	-0,035	-0,119
-708,889	0,839	-0,030	-0,016
-707,875	107,894	-0,065	0,057
-706,860	-200,000	0,020	-0,081
-705,845	-83,404	0,158	0,037
-704,831	57,545	0,076	0,055
-703,816	30,484	-0,082	0,051
-702,802	-200,000	-0,027	-0,126
-701,787	22,665	-0,101	0,060
-700,772	-200,000	0,005	-0,155
-699,758	-200,000	0,027	-0,129
-698,743	81,986	0,032	0,026
-697,729	-78,452	-0,049	-0,012
-696,714	-200,000	0,030	0,097
-695,699	285,766	0,009	0,011
-694,685	214,520	-0,076	0,088
-693,670	-200,000	0,000	0,045
-692,656	800,000	-0,002	-0,004
-691,641	-149,099	-0,093	0,005
-690,627	290,913	0,045	-0,061
-689,612	356,344	-0,060	0,088
-688,597	227,686	0,059	-0,071
-687,583	235,685	-0,046	-0,056
-686,568	279,988	-0,057	-0,076
-685,554	259,646	-0,046	-0,059
-684,539	74,640	0,124	0,096
-683,524	287,037	0,032	0,043
-682,510	-1,391	-0,076	0,039
-681,495	12,080	0,053	-0,030
-680,481	71,094	-0,104	0,079
-679,466	546,879	0,057	-0,100
-678,451	144,773	0,036	-0,035
-677,437	-0,413	-0,123	-0,064
-676,422	-78,661	0,072	0,018
-675,408	3,664	-0,035	0,019
-674,393	-190,008	0,018	0,000
-673,378	-58,081	-0,040	0,013
-672,364	149,596	-0,057	0,057
-671,349	6,842	-0,119	-0,065
-670,335	800,000	0,029	-0,089
-669,320	800,000	-0,095	-0,204
-668,305	223,791	-0,113	-0,134
-667,291	-84,476	0,033	-0,008
-666,276	701,175	0,041	0,079
-665,262	-200,000	0,001	-0,079
-664,247	-191,727	-0,071	-0,001
-663,232	-137,468	-0,103	-0,008
-662,218	-34,395	-0,166	0,066
-661,203	-200,000	-0,044	-0,143
-660,189	-80,473	0,051	0,012
-659,174	800,000	-0,031	-0,099
-658,159	-108,064	-0,054	0,009
-657,145	156,156	-0,124	-0,126
-656,130	164,571	0,070	0,073
-655,116	472,238	-0,040	0,067
-654,101	483,012	-0,043	0,073
-653,086	60,887	0,011	0,008
-652,072	-200,000	-0,011	-0,070
-651,057	-74,242	-0,072	-0,019
-650,043	-108,257	-0,036	-0,006
-649,028	461,735	0,029	-0,048
-648,014	-200,000	-0,021	0,079
-646,999	800,000	-0,024	0,055
-645,984	117,131	0,114	-0,103
-644,970	-200,000	-0,003	-0,083
-643,955	296,187	0,072	0,098
-642,941	-11,854	-0,120	-0,058
-641,926	-200,000	0,029	-0,096
-640,911	800,000	0,007	0,023
-639,897	-136,802	0,086	0,007
-638,882	500,755	0,020	-0,034
-637,868	306,359	0,131	0,180
-636,853	800,000	-0,072	-0,191
-635,838	-200,000	0,014	0,092
-634,824	-31,963	-0,153	0,063
-633,809	7,289	0,044	-0,024
-632,795	-35,148	-0,071	0,028
-631,780	800,000	0,026	0,062
-630,765	-11,744	-0,028	0,013
-629,751	800,000	-0,046	0,097
-628,736	12,579	0,020	0,011
-627,722	-200,000	-0,038	0,141
-626,707	-200,000	0,016	-0,067
-625,692	127,575	-0,069	-0,065
-624,678	-9,717	-0,060	0,029
-623,663	-200,000	0,006	-0,054
-622,649	-155,468	-0,093	-0,004
-621,634	-200,000	-0,024	-0,110
-620,619	230,854	0,024	0,029
-619,605	-200,000	-0,004	0,028
-618,590	-200,000	0,013	0,082
-617,576	-24,412	0,081	-0,035
-616,561	800,000	0,062	-0,142
-615,546	-85,165	-0,183	-0,042
-614,532	-200,000	0,020	0,069
-613,517	800,000	-0,080	-0,165
-612,503	143,878	0,084	0,082
-611,488	-165,491	-0,084	0,003
-610,474	800,000	-0,035	0,091
-609,459	800,000	-0,040	-0,096
-608,444	800,000	-0,049	-0,105
-607,430	628,876	0,113	-0,210
-606,415	-23,129	0,045	-0,020
-605,401	800,000	-0,018	-0,047
-604,386	209,977	0,094	0,109
-603,371	-191,677	0,067	0,000
-602,357	32,938	-0,131	0,083
-601,342	560,129	-0,005	-0,008
-600,328	800,000	-0,013	-0,037
-599,313	247,050	0,065	-0,081
-598,298	-50,559	0,087	-0,030
-597,284	-26,810	0,081	-0,035
-596,269	-111,174	-0,072	-0,011
-595,255	-21,121	-0,098	0,044
-594,240	84,269	0,131	-0,105
-593,225	800,000	-0,033	-0,079
-592,211	-200,000	-0,000	0,031
-591,196	800,000	0,008	-0,016
-590,182	-200,000	0,022	-0,071
-589,167	559,773	0,063	0,112
-588,152	-69,887	-0,061	-0,017
-587,138	277,453	0,059	0,077
-586,123	184,018	-0,066	-0,072
-585,109	800,000	-0,072	0,148
-584,094	20,175	0,149	-0,088
-583,079	-66,605	0,034	-0,010
-582,065	-200,000	-0,028	0,128
-581,050	345,776	0,050	0,072
-580,036	534,081	-0,029	-0,051
-579,021	-103,235	0,072	-0,012
-578,006	-27,205	-0,092	-0,039
-576,992	-200,000	-0,002	0,114
-575,977	800,000	-0,016	-0,049
-574,963	-200,000	-0,045	0,178
-573,948	410,890	0,019	-0,030
-572,934	-200,000	-0,001	-0,003
-571,919	-127,325	0,069	0,007
-570,904	-200,000	0,046	-0,171
-569,890	-84,395	-0,163	-0,037
-568,875	75,902	0,018	0,014
-567,861	384,092	-0,046	0,070
-566,846	-25,269	0,042	0,018
-565,831	800,000	-0,041	0,088
-564,817	-52,522	-0,112	-0,038
-563,802	41,738	0,099	-0,066
-562,788	577,135	-0,021	-0,039
-561,773	357,954	0,040	-0,059
-560,758	-200,000	-0,002	0,031
-559,744	-200,000	-0,033	0,119
-558,729	275,795	0,015	-0,020
-557,715	177,630	0,050	-0,053
-556,700	54,660	0,033	-0,023
-555,685	34,608	0,114	-0,073
-554,671	9,556	0,101	-0,056
-553,656	-200,000	-0,003	0,166
-552,642	-200,000	-0,020	0,105
-551,627	-200,000	-0,016	-0,103
-550,612	-200,000	-0,002	0,093
-549,598	8,140	0,045	-0,025
-548,583	-21,297	-0,149	-0,066
-547,569	-95,171	-0,129	-0,025
-546,554	359,943	0,070	-0,103
-545,539	-77,567	-0,040	-0,010
-544,525	5,043	0,143	-0,077
-543,510	-200,000	0,003	0,029
-542,496	800,000	-0,033	-0,090
-541,481	-50,658	-0,106	-0,036
-540,466	299,914	0,056	0,076
-539,452	136,738	0,038	-0,037
-538,437	-200,000	0,002	0,195
-537,423	-93,088	0,068	-0,014
-536,408	-61,478	0,052	-0,016
-535,393	-200,000	0,014	-0,065
-534,379	-80,142	-0,033	-0,008
-533,364	160,537	-0,119	0,122
-532,350	179,161	-0,055	0,059
-531,335	500,922	0,103	0,174
-530,321	244,419	-0,078	0,096
-529,306	-200,000	-0,020	-0,070
-528,291	21,718	-0,077	0,046
-527,277	-58,295	-0,068	-0,022
-526,262	-200,000	0,002	-0,070
-525,248	564,787	-0,049	-0,088
-524,233	619,523	-0,021	0,039
-523,218	24,071	0,090	0,054
-522,204	104,110	-0,080	0,068
-521,189	21,094	-0,155	-0,092
-520,175	7,353	-0,042	0,023
-519,160	157,049	-0,044	-0,044
-518,145	482,016	0,025	0,042
-517,131	219,758	-0,015	-0,017
-516,116	65,560	0,062	0,046
-515,102	-200,000	-0,014	0,178
-514,087	32,595	0,142	0,089
-513,072	262,762	-0,033	-0,042
-512,058	294,258	-0,034	-0,045
-511,043	604,457	-0,060	0,109
-510,029	800,000	0,028	0,081
-509,014	11,397	0,128	0,072
-507,999	800,000	0,040	-0,086
-506,985	-200,000	-0,012	0,055
-505,970	-200,000	0,040	-0,164
-504,956	-129,725	-0,045	-0,004
-503,941	60,998	0,052	0,038
-502,926	-20,303	0,085	0,038
-501,912	-200,000	-0,014	0,131
-500,897	-94,059	-0,128	0,025
-499,883	-156,198	0,049	-0,002
-498,868	-123,308	-0,151	-0,017
-497,853	-200,000	-0,008	-0,081
-496,839	-200,000	0,009	-0,095
-495,824	-91,272	-0,060	-0,012
-494,810	800,000	-0,047	0,098
-493,795	-125,376	0,078	-0,009
-492,781	800,000	-0,016	-0,033
-491,766	-32,583	-0,080	0,032
-490,751	-158,653	-0,160	-0,007
-489,737	-200,000	-0,028	-0,099
-488,722	204,086	0,060	0,068
-487,708	-200,000	-0,006	-0,151
-486,693	90,431	-0,136	0,111
-485,678	67,862	-0,046	-0,035
-484,664	189,780	0,041	-0,044
-483,649	-200,000	-0,007	-0,131
-482,635	-144,439	-0,076	-0,005
-481,620	-200,000	-0,012	0,101
-480,605	-13,131	0,080	0,038
-479,591	-200,000	0,008	0,082
-478,576	421,321	0,041	0,064
-477,562	12,864	-0,039	-0,022
-476,547	613,704	-0,039	-0,072
-475,532	310,318	0,058	-0,080
-474,518	337,609	0,034	-0,048
-473,503	-200,000	-0,002	-0,121
-472,489	-200,000	0,022	-0,079
-471,474	282,722	-0,084	0,110
-470,459	-200,000	-0,024	-0,105
-469,445	-110,235	0,101	0,015
-468,430	-200,000	0,011	-0,047
-467,416	-200,000	0,012	0,067
-466,401	713,276	0,070	-0,135
-465,386	800,000	0,042	-0,089
-464,372	-200,000	0,014	0,067
-463,357	296,322	-0,066	-0,088
-462,343	-200,000	-0,004	-0,033
-461,328	-98,214	-0,024	-0,004
-460,313	60,419	0,078	-0,056
-459,299	800,000	0,045	0,133
-458,284	-200,000	0,006	-0,034
-457,270	-103,024	0,123	0,021
-456,255	543,809	0,025	-0,043
-455,241	51,783	-0,077	-0,053
-454,226	138,449	0,052	0,050
-453,211	8,936	-0,066	0,036
-452,197	-163,951	0,143	0,005
-451,182	181,839	0,059	-0,063
-450,168	-10,506	-0,153	-0,074
-449,153	-26,768	0,051	-0,021
-448,138	24,383	-0,154	-0,093
-447,124	24,014	-0,093	0,056
-446,109	-57,621	0,075	-0,024
-445,095	-51,336	0,107	0,036
-444,080	414,374	0,053	0,082
-443,065	-200,000	-0,021	-0,109
-442,051	800,000	-0,009	-0,023
-441,036	-200,000	-0,001	-0,034
-440,022	444,184	0,008	0,012
-439,007	-200,000	0,010	0,173
-437,992	-115,844	0,144	0,019
-436,978	45,384	-0,056	0,037
-435,963	198,996	0,068	0,076
-434,949	800,000	-0,042	-0,116
-433,934	-200,000	0,007	-0,121
-432,919	19,728	-0,023	0,014
-431,905	800,000	0,036	-0,077
-430,890	144,020	-0,060	0,059
-429,876	-200,000	-0,028	0,115
-428,861	-200,000	0,056	0,220
-427,846	217,671	-0,025	0,029
-426,832	398,782	0,044	0,068
-425,817	2,497	-0,090	0,047
-424,803	-200,000	-0,026	-0,114
-423,788	625,301	-0,011	0,020
-422,773	590,511	-0,059	0,107
-421,759	122,690	0,125	-0,114
-420,744	86,657	-0,094	0,076
-419,730	-200,000	-0,001	0,052
-418,715	264,434	0,101	0,129
-417,701	-200,000	0,000	0,010
-416,686	175,232	0,066	0,070
-415,671	179,636	0,079	0,084
-414,657	-55,265	0,137	-0,045
-413,642	-182,796	0,050	-0,001
-412,628	-200,000	0,017	-0,089
-411,613	21,178	0,036	-0,021
-410,598	2,212	0,030	0,016
-409,584	800,000	-0,041	0,097
-408,569	107,082	-0,032	-0,028
-407,555	800,000	-0,073	0,158
-406,540	-200,000	-0,002	-0,032
-405,525	195,094	-0,043	-0,048
-404,511	723,759	-0,019	-0,037
-403,496	643,776	0,043	-0,079
-402,482	277,955	0,098	-0,127
-401,467	-200,000	-0,022	0,082
-400,452	41,732	-0,132	0,087
-399,438	32,970	-0,117	0,074
-398,423	76,646	0,051	-0,039
-397,409	58,096	-0,112	0,080
-396,394	-96,893	-0,075	-0,014
-395,379	-93,365	-0,038	0,008
-394,365	461,065	0,057	0,093
-393,350	457,626	-0,059	-0,095
-392,336	-66,825	0,154	-0,044
-391,321	30,541	0,075	0,047
-390,306	78,907	-0,115	-0,089
-389,292	-32,033	-0,098	-0,040
-388,277	-200,000	0,025	0,095
-387,263	800,000	0,033	0,068
-386,248	-47,719	0,103	-0,036
-385,233	800,000	-0,051	-0,108
-384,219	62,360	-0,051	0,037
-383,204	800,000	-0,021	-0,050
-382,190	357,827	0,026	0,038
-381,175	800,000	-0,022	0,048
-380,160	535,889	-0,034	0,058
-379,146	433,568	0,015	-0,023
-378,131	800,000	0,008	0,026
-377,117	800,000	0,080	-0,179
-376,102	676,194	-0,057	-0,108
-375,088	-83,146	0,043	-0,010
-374,073	800,000	0,059	-0,130
-373,058	11,245	0,014	-0,008
-372,044	-6,018	-0,162	0,080
-371,029	37,992	0,059	-0,038
-370,015	79,390	-0,048	-0,038
-369,000	800,000	0,025	-0,074
-367,985	339,939	-0,050	-0,071
-366,971	-35,439	0,127	-0,050
-365,956	800,000	0,013	0,035
-364,942	-200,000	0,002	0,114
-363,927	-200,000	-0,002	0,045
-362,912	-72,736	0,057	0,015
-361,898	800,000	-0,062	0,131
-360,883	-27,886	0,019	-0,008
-359,869	-141,305	-0,111	-0,008
-358,854	800,000	0,016	-0,040
-357,839	57,367	0,059	0,042
-356,825	800,000	-0,020	-0,062
-355,810	177,723	0,013	0,014
-354,796	-200,000	-0,020	-0,088
-353,781	-200,000	0,008	-0,122
-352,766	-200,000	-0,005	-0,047
-351,752	-34,825	0,143	0,056
-350,737	-200,000	0,005	-0,116
-349,723	406,169	0,016	-0,025
-348,708	-136,361	-0,026	-0,002
-347,693	800,000	0,031	0,091
-346,679	800,000	0,029	0,068
-345,664	783,367	0,037	-0,074
-344,650	-16,043	0,089	-0,041
-343,635	-20,550	-0,079	-0,035
-342,620	-200,000	0,000	0,036
-341,606	-10,194	0,009	0,004
-340,591	210,432	-0,090	-0,103
-339,577	77,915	-0,132	-0,102
-338,562	800,000	0,039	0,093
-337,548	4,506	0,050	0,027
-336,533	-200,000	0,015	0,152
-335,518	-200,000	-0,031	0,138
-334,504	-113,746	-0,031	0,004
-333,489	92,556	0,047	-0,039
-332,475	385,818	0,024	0,036
-331,460	800,000	-0,009	0,024
-330,445	29,447	0,107	-0,066
-329,431	800,000	0,038	-0,097
-328,416	326,262	0,062	0,086
-327,402	97,843	0,121	0,101
-326,387	-24,070	-0,067	-0,029
-325,372	-192,326	-0,092	-0,001
-324,358	163,409	-0,040	0,041
-323,343	49,194	0,061	0,042
-322,329	-200,000	0,013	-0,110
-321,314	-49,948	0,044	-0,015
-320,299	172,331	-0,060	0,063
-319,285	-200,000	-0,008	-0,074
-318,270	-200,000	0,028	-0,098
-317,256	800,000	0,034	0,091
-316,241	10,766	0,063	0,035
-315,226	70,541	-0,018	0,013
-314,212	112,817	-0,063	0,056
-313,197	-200,000	-0,003	0,143
-312,183	84,159	0,040	-0,032
-311,168	197,654	-0,042	-0,047
-310,153	800,000	-0,037	-0,118
-309,139	800,000	-0,069	-0,171
-308,124	-19,705	0,099	-0,044
-307,110	652,764	0,042	0,078
-306,095	306,648	0,060	0,082
-305,080	177,230	0,132	0,140
-304,066	-98,961	-0,021	0,004
-303,051	301,243	-0,033	-0,044
-302,037	171,090	-0,037	0,038
-301,022	-4,732	0,056	-0,028
-300,008	-200,000	-0,004	0,020
-298,993	-161,887	0,086	-0,003
-297,978	-200,000	-0,027	-0,126
-296,964	502,883	-0,038	-0,065
-295,949	-28,407	0,057	0,024
-294,935	150,858	-0,109	-0,107
-293,920	-163,391	0,080	-0,003
-292,905	-200,000	-0,011	0,086
-291,891	205,803	0,105	0,118
-290,876	-117,086	-0,063	-0,008
-289,862	136,946	-0,025	0,024
-288,847	800,000	-0,016	-0,034
-287,832	-200,000	-0,016	-0,206
-286,818	-0,027	-0,119	-0,061
-285,803	800,000	-0,038	-0,111
-284,789	-200,000	0,008	-0,038
-283,774	800,000	0,042	0,086
-282,759	-88,176	-0,068	0,015
-281,745	-140,445	0,036	-0,003
-280,730	800,000	-0,068	0,143
-279,716	27,410	-0,055	-0,033
-278,701	-200,000	0,007	-0,035
-277,686	-200,000	0,021	0,100
-276,672	-30,224	-0,084	-0,034
-275,657	-64,021	0,017	0,005
-274,643	-58,758	-0,068	-0,021
-273,628	123,933	-0,016	0,014
-272,613	88,098	0,099	0,079
-271,599	-147,921	-0,029	0,002
-270,584	-96,797	0,141	-0,027
-269,570	-200,000	-0,014	0,192
-268,555	252,754	0,039	-0,048
-267,540	-14,756	-0,059	-0,027
-266,526	87,793	0,101	0,081
-265,511	19,292	-0,088	-0,051
-264,497	573,571	0,048	-0,084
-263,482	-28,071	0,109	0,045
-262,467	-200,000	0,033	-0,121
-261,453	-200,000	0,056	0,000
-260,438	-29,846	0,024	0,010
-259,424	-200,000	-0,015	-0,103
-258,409	-200,000	-0,024	-0,175
-257,395	800,000	0,047	0,121
-256,380	-200,000	0,026	0,154
-255,365	79,348	0,057	-0,044
-254,351	-31,446	-0,017	0,007
-253,336	-200,000	-0,001	0,118
-252,322	-200,000	0,003	-0,103
-251,307	463,654	-0,040	-0,065
-250,292	65,928	0,128	0,094
-249,278	-67,536	-0,147	0,041
-248,263	119,769	0,036	0,032
-247,249	66,052	-0,156	0,114
-246,234	-200,000	-0,017	-0,061
-245,219	-55,699	0,042	-0,014
-244,205	-66,731	-0,053	0,015
-243,190	-200,000	0,011	-0,048
-242,176	-73,393	0,021	-0,005
-241,161	-200,000	-0,005	-0,087
-240,146	800,000	-0,091	0,200
-239,132	594,894	0,042	0,076
-238,117	-200,000	-0,004	0,053
-237,103	800,000	-0,049	-0,131
-236,088	-200,000	-0,008	-0,071
-235,073	74,299	0,120	0,091
-234,059	123,413	0,047	-0,042
-233,044	-143,796	0,146	0,010
-232,030	-200,000	0,041	-0,139
-231,015	-86,553	-0,092	-0,020
-230,000	-200,000	0,001	-0,078
-228,986	-37,188	-0,060	0,023
-227,971	676,815	-0,134	-0,253
-226,957	-200,000	0,004	0,044
-225,942	800,000	-0,061	0,147
-224,927	373,251	0,038	-0,056
-223,913	193,527	0,027	-0,029
-222,898	-200,000	0,001	-0,077
-221,884	36,065	0,174	-0,110
-220,869	71,821	0,051	0,039
-219,855	-112,503	0,041	-0,006
-218,840	82,927	-0,095	-0,075
-217,825	-28,776	0,083	0,034
-216,811	1,292	-0,176	0,091
-215,796	258,927	-0,034	-0,043
-214,782	-77,407	0,200	0,050
-213,767	800,000	-0,005	0,014
-212,752	-200,000	0,026	0,223
-211,738	-200,000	-0,007	0,037
-210,723	-200,000	-0,043	0,145
-209,709	-52,617	0,043	-0,014
-208,694	-5,915	-0,082	-0,040
-207,679	15,594	0,154	-0,087
-206,665	24,482	-0,035	0,021
-205,650	153,134	-0,069	-0,068
-204,636	800,000	0,024	0,066
-203,621	156,632	-0,032	0,032
-202,606	10,939	-0,079	0,043
-201,592	-200,000	-0,022	-0,106
-200,577	-114,117	0,066	0,009
-199,563	127,269	-0,114	0,105
-198,548	266,759	0,083	-0,104
-197,533	215,761	0,030	-0,034
-196,519	15,943	-0,056	-0,032
-195,504	-29,932	-0,012	-0,005
-194,490	781,179	-0,062	-0,124
-193,475	-119,728	0,037	0,005
-192,460	-200,000	0,002	0,131
-191,446	285,337	-0,024	0,031
-190,431	221,289	0,069	0,080
-189,417	-141,951	-0,015	-0,001
-188,402	-27,574	-0,081	-0,034
-187,387	-200,000	-0,146	-0,000
-186,373	-38,395	0,118	-0,045
-185,358	-107,749	-0,046	0,007
-184,344	-11,591	0,033	-0,016
-183,329	-200,000	0,012	-0,040
-182,315	584,584	-0,073	0,130
-181,300	104,931	-0,062	-0,053
-180,285	-200,000	0,007	0,057
-179,271	-39,430	-0,103	0,039
-178,256	-90,170	0,092	0,019
-177,242	-108,547	-0,050	0,008
-176,227	5,186	0,033	0,018
-175,212	-21,925	-0,164	-0,072
-174,198	-100,964	0,017	-0,003
-173,183	-117,476	-0,071	0,009
-172,169	191,431	-0,033	0,036
-171,154	800,000	-0,006	-0,013
-170,139	-99,907	-0,030	-0,005
-169,125	90,029	0,046	0,037
-168,110	-89,246	0,076	0,016
-167,096	315,781	-0,044	0,060
-166,081	220,889	0,019	-0,022
-165,066	119,661	-0,056	0,050
-164,052	257,949	-0,018	0,022
-163,037	160,748	0,048	0,049
-162,023	-90,188	0,106	-0,022
-161,008	800,000	0,052	-0,136
-159,993	800,000	0,025	-0,072
-158,979	800,000	0,017	-0,043
-157,964	30,468	0,086	-0,053
-156,950	800,000	-0,036	0,091
-155,935	128,622	-0,061	0,056
-154,920	-95,138	-0,071	0,014
-153,906	-154,348	0,161	0,008
-152,891	144,591	-0,140	0,134
-151,877	-200,000	-0,008	0,039
-150,862	184,307	-0,085	-0,091
-149,847	-200,000	0,004	-0,016
-148,833	598,001	-0,067	-0,119
-147,818	-112,847	-0,040	0,006
-146,804	515,162	-0,020	0,034
-145,789	523,663	-0,043	-0,074
-144,775	507,146	0,045	-0,076
-143,760	-5,896	-0,083	-0,041
-142,745	-200,000	0,022	0,139
-141,731	800,000	-0,047	-0,130
-140,716	-200,000	0,017	-0,074
-139,702	-104,574	-0,022	-0,004
-138,687	-28,106	-0,175	0,072
-137,672	-39,491	0,099	-0,037
-136,658	800,000	0,028	0,079
-135,643	147,682	-0,117	-0,113
-134,629	37,694	-0,067	0,043
-133,614	-200,000	0,005	-0,086
-132,599	-97,369	0,129	-0,024
-131,585	-138,365	0,058	-0,005
-130,570	-200,000	0,019	0,185
-129,556	-169,827	-0,068	-0,002
-128,541	-29,481	-0,044	0,018
-127,526	-9,786	0,098	-0,047
-126,512	50,053	0,083	-0,056
-125,497	800,000	0,011	-0,029
-124,483	-21,844	-0,140	-0,061
-123,468	800,000	0,033	0,066
-122,453	-200,000	0,007	-0,150
-121,439	-200,000	0,007	0,040
-120,424	-200,000	-0,014	-0,072
-119,410	-200,000	0,033	-0,125
