DTS Sentinel unit serial number:	SN410029Multiplexer serial number:	ORYXHardware model number:	OX2-SRSoftware version number:	ORYX F/W v4,00 Oryx Data Collector v3.7.2.0data status	okinstallation	B5 Nyhavnadifferential loss correction	single-endedforward channel	channel 2reverse channel	N/Adate	2023/12/14time	04:42:13forward acquisition time	300,00reverse acquisition time	0,00gamma	499,1914k internal	0,3157k external	0,3157temperature offset calibration	1,0000default loss term (dB/km)	0,3820temperature slope calibration	1,0000multiplexer offset coefficient	1,0000multiplexer slope coefficient	1,0000fibre end	0,00T internal ref (°C)	7,82T ext. ref 1 (°C)	-8,59T ext. ref 2 (°C)	-8,63length (m)	temperature (°C)	Stokes	anti-Stokes-744,400	-200,000	-0,028	0,133
-743,385	-16,227	-0,289	-0,135
-742,371	-70,463	0,129	0,036
-741,356	-20,040	-0,289	-0,131
-740,342	-123,850	0,093	-0,011
-739,327	-72,782	-0,248	-0,067
-738,312	204,040	0,038	-0,044
-737,298	-84,688	-0,400	-0,092
-736,283	-52,397	0,154	0,052
-735,269	-66,604	-0,421	-0,122
-734,254	792,129	0,112	0,228
-733,239	0,112	-0,623	-0,327
-732,225	-77,584	0,324	0,082
-731,210	-102,835	-0,054	-0,009
-730,196	800,000	-0,028	0,073
-729,181	312,683	-0,023	-0,032
-728,167	-200,000	-0,006	-0,126
-727,152	477,387	-0,054	-0,090
-726,137	359,811	-0,089	-0,132
-725,123	800,000	-0,039	0,087
-724,108	-200,000	0,022	-0,147
-723,094	-107,340	0,053	0,009
-722,079	-31,454	-0,088	-0,036
-721,064	175,589	0,040	-0,043
-720,050	118,617	-0,057	0,052
-719,035	800,000	0,009	-0,027
-718,021	-146,639	-0,106	0,007
-717,006	-157,266	0,074	0,003
-715,991	-9,727	-0,126	-0,062
-714,977	28,972	-0,126	-0,078
-713,962	-200,000	-0,007	0,182
-712,948	232,049	0,050	0,060
-711,933	-126,689	0,100	0,011
-710,918	-150,662	-0,070	0,004
-709,904	-111,972	0,079	0,012
-708,889	111,332	-0,078	-0,069
-707,875	733,363	0,047	-0,092
-706,860	-121,782	0,109	0,013
-705,845	6,764	0,058	0,032
-704,831	-200,000	-0,010	-0,109
-703,816	-53,310	0,135	-0,045
-702,802	800,000	-0,025	0,065
-701,787	-42,613	-0,147	-0,055
-700,772	95,225	-0,049	-0,041
-699,758	124,446	-0,022	0,020
-698,743	-200,000	0,006	0,090
-697,729	75,573	0,109	-0,085
-696,714	252,522	-0,070	0,088
-695,699	-122,655	0,105	0,012
-694,685	-200,000	-0,012	-0,090
-693,670	204,903	0,077	-0,088
-692,656	-200,000	0,007	0,037
-691,641	-200,000	0,006	0,026
-690,627	-97,696	0,104	-0,020
-689,612	0,970	-0,077	-0,041
-688,597	-38,067	0,076	-0,029
-687,583	63,527	0,052	0,039
-686,568	800,000	0,049	0,110
-685,554	-72,341	0,116	0,031
-684,539	25,351	0,048	0,029
-683,524	61,199	0,017	-0,013
-682,510	141,235	-0,053	0,051
-681,495	-200,000	0,003	0,050
-680,481	800,000	-0,019	0,038
-679,466	691,601	-0,057	-0,110
-678,451	-67,798	-0,072	0,021
-677,437	-200,000	0,026	0,119
-676,422	146,577	-0,046	-0,046
-675,408	800,000	0,031	-0,080
-674,393	59,290	0,057	0,042
-673,378	38,372	-0,152	0,099
-672,364	17,475	-0,074	-0,043
-671,349	29,528	0,193	-0,121
-670,335	-200,000	-0,001	0,090
-669,320	-200,000	0,007	0,053
-668,305	173,312	0,037	0,039
-667,291	-40,014	-0,112	0,043
-666,276	-200,000	-0,033	-0,187
-665,262	26,567	0,079	0,049
-664,247	57,797	-0,084	-0,060
-663,232	124,196	-0,101	-0,094
-662,218	-76,066	0,112	-0,029
-661,203	800,000	-0,019	-0,053
-660,189	-200,000	0,009	0,140
-659,174	56,614	-0,110	-0,078
-658,159	87,358	-0,126	-0,102
-657,145	-200,000	0,030	-0,112
-656,130	402,004	0,067	-0,104
-655,116	156,249	-0,013	-0,014
-654,101	-200,000	-0,034	0,115
-653,086	-200,000	-0,021	0,092
-652,072	23,151	-0,058	0,035
-651,057	-91,319	-0,177	0,037
-650,043	-114,235	-0,073	0,010
-649,028	-174,673	0,124	-0,003
-648,014	186,643	-0,031	-0,034
-646,999	101,821	-0,062	0,053
-645,984	-5,789	0,148	0,074
-644,970	-200,000	-0,009	-0,068
-643,955	-200,000	-0,009	-0,034
-642,941	81,411	-0,034	0,027
-641,926	148,822	0,056	-0,056
-640,911	-137,401	0,159	0,013
-639,897	586,479	0,111	0,202
-638,882	771,889	0,045	0,090
-637,868	-100,173	0,079	0,014
-636,853	26,671	0,042	-0,026
-635,838	800,000	-0,013	-0,029
-634,824	-71,219	-0,138	-0,038
-633,809	108,769	0,143	0,125
-632,795	101,319	0,020	-0,017
-631,780	-200,000	-0,004	0,059
-630,765	-200,000	0,008	-0,135
-629,751	-200,000	-0,020	-0,090
-628,736	19,541	0,046	-0,027
-627,722	83,239	0,067	0,054
-626,707	-134,519	-0,125	0,011
-625,692	-151,096	0,020	-0,001
-624,678	-148,237	-0,017	-0,001
-623,663	-70,584	0,006	0,002
-622,649	-100,597	-0,035	-0,006
-621,634	800,000	-0,037	-0,094
-620,619	800,000	0,031	-0,069
-619,605	179,702	0,046	-0,050
-618,590	800,000	0,040	0,100
-617,576	-200,000	-0,100	-0,000
-616,561	-200,000	-0,015	0,114
-615,546	379,499	0,016	0,025
-614,532	-200,000	-0,006	0,019
-613,517	-200,000	-0,015	-0,052
-612,503	-200,000	-0,002	-0,053
-611,488	-200,000	-0,010	0,059
-610,474	-36,096	-0,143	-0,056
-609,459	-100,996	-0,058	0,010
-608,444	10,245	0,176	0,098
-607,430	1,351	-0,073	0,038
-606,415	175,618	0,012	0,013
-605,401	-18,706	0,075	-0,034
-604,386	109,464	-0,092	0,081
-603,371	457,205	0,021	-0,034
-602,357	800,000	-0,069	-0,153
-601,342	-125,432	0,164	-0,018
-600,328	12,054	-0,037	-0,021
-599,313	800,000	0,046	-0,125
-598,298	-146,720	0,030	-0,002
-597,284	800,000	-0,026	0,068
-596,269	-91,001	-0,071	-0,015
-595,255	800,000	0,024	-0,049
-594,240	74,406	0,059	0,045
-593,225	800,000	-0,012	-0,031
-592,211	65,169	-0,116	0,086
-591,196	-200,000	-0,009	-0,101
-590,182	73,445	0,060	-0,046
-589,167	45,017	0,057	0,038
-588,152	8,078	-0,115	-0,063
-587,138	252,982	-0,029	0,037
-586,123	800,000	-0,032	-0,079
-585,109	593,736	-0,046	-0,084
-584,094	-8,900	-0,100	-0,049
-583,079	-200,000	0,013	-0,080
-582,065	46,827	-0,094	0,064
-581,050	-155,636	0,096	-0,004
-580,036	74,483	-0,116	0,089
-579,021	-200,000	-0,037	-0,140
-578,006	18,370	0,108	0,063
-576,992	15,465	-0,075	0,043
-575,977	-145,149	0,093	0,006
-574,963	435,988	-0,048	0,078
-573,948	514,736	0,026	0,044
-572,934	-77,392	0,095	0,024
-571,919	101,511	0,041	-0,035
-570,904	-112,120	0,071	0,010
-569,890	-77,785	-0,131	-0,033
-568,875	800,000	0,026	-0,070
-567,861	201,520	-0,103	0,117
-566,846	138,682	0,058	0,056
-565,831	792,198	0,047	-0,096
-564,817	462,299	-0,042	-0,069
-563,802	683,625	-0,006	0,012
-562,788	356,033	0,041	-0,061
-561,773	645,938	0,046	0,087
-560,758	-30,785	0,118	0,049
-559,744	8,604	0,094	0,052
-558,729	112,771	-0,141	0,125
-557,715	175,400	-0,085	0,090
-556,700	117,526	-0,022	-0,019
-555,685	-200,000	0,004	0,052
-554,671	-66,089	0,068	-0,020
-553,656	-200,000	0,016	0,104
-552,642	-18,225	0,041	0,019
-551,627	292,301	0,056	-0,075
-550,612	-200,000	-0,021	-0,134
-549,598	149,599	-0,058	-0,057
-548,583	-93,492	0,141	0,028
-547,569	-104,693	0,069	-0,012
-546,554	-16,528	-0,079	-0,037
-545,539	-28,316	0,153	0,064
-544,525	800,000	-0,006	0,013
-543,510	-200,000	0,001	0,028
-542,496	82,475	-0,022	-0,017
-541,481	-200,000	0,010	-0,062
-540,466	-121,617	0,141	0,017
-539,452	-173,851	0,115	0,002
-538,437	800,000	-0,070	0,202
-537,423	-200,000	-0,031	0,165
-536,408	66,367	-0,111	0,082
-535,393	6,868	-0,077	0,042
-534,379	-200,000	-0,016	-0,061
-533,364	-77,909	0,179	-0,045
-532,350	-16,183	-0,045	0,021
-531,335	-35,031	0,062	-0,025
-530,321	526,369	0,030	0,051
-529,306	340,710	0,119	0,170
-528,291	-200,000	-0,004	0,069
-527,277	299,891	0,043	-0,058
-526,262	329,949	-0,042	-0,059
-525,248	-200,000	-0,009	0,053
-524,233	137,442	0,039	-0,037
-523,218	800,000	-0,013	-0,029
-522,204	-200,000	-0,002	0,010
-521,189	109,994	-0,158	-0,139
-520,175	-57,326	-0,093	-0,030
-519,160	-200,000	-0,011	0,058
-518,145	-200,000	-0,015	0,200
-517,131	-200,000	-0,002	0,022
-516,116	-108,070	0,100	-0,016
-515,102	-121,955	0,056	0,007
-514,087	432,405	-0,074	-0,118
-513,072	-10,430	-0,102	-0,049
-512,058	-200,000	0,019	-0,167
-511,043	800,000	0,030	0,072
-510,029	133,864	0,059	0,056
-509,014	-40,986	0,113	0,043
-507,999	605,096	0,023	0,042
-506,985	-200,000	0,011	-0,065
-505,970	-200,000	-0,008	-0,077
-504,956	357,764	0,098	-0,144
-503,941	144,951	-0,027	0,027
-502,926	-200,000	-0,021	-0,114
-501,912	-74,191	-0,104	-0,027
-500,897	46,007	0,034	0,023
-499,883	-35,914	-0,067	-0,026
-498,868	229,785	0,041	-0,049
-497,853	56,528	-0,068	-0,048
-496,839	303,070	0,053	-0,072
-495,824	-126,292	-0,149	0,016
-494,810	-200,000	0,012	0,044
-493,795	61,355	0,059	0,043
-492,781	800,000	0,053	-0,131
-491,766	131,712	-0,109	-0,102
-490,751	-200,000	0,007	-0,165
-489,737	-11,065	0,049	-0,024
-488,722	-200,000	0,007	-0,036
-487,708	-200,000	0,016	0,125
-486,693	118,965	0,060	0,054
-485,678	111,951	0,057	0,050
-484,664	334,697	-0,036	-0,051
-483,649	22,823	-0,031	-0,018
-482,635	-200,000	0,006	-0,021
-481,620	-200,000	-0,009	-0,108
-480,605	800,000	0,034	0,077
-479,591	-166,805	-0,183	-0,005
-478,576	3,025	0,116	0,061
-477,562	-124,323	-0,144	0,016
-476,547	174,705	-0,060	-0,064
-475,532	-80,437	-0,018	0,004
-474,518	31,743	0,099	-0,062
-473,503	405,192	-0,077	0,118
-472,489	-99,528	-0,048	0,009
-471,474	-200,000	0,017	0,075
-470,459	-200,000	0,034	0,200
-469,445	-200,000	0,001	-0,047
-468,430	68,586	-0,069	0,052
-467,416	-200,000	0,025	0,104
-466,401	50,078	0,056	-0,038
-465,386	-87,159	0,149	0,033
-464,372	82,314	0,028	-0,022
-463,357	-200,000	-0,011	0,130
-462,343	-200,000	-0,019	-0,161
-461,328	-200,000	0,003	0,025
-460,313	-72,014	0,200	-0,054
-459,299	800,000	0,062	-0,151
-458,284	446,690	0,030	0,049
-457,270	261,454	-0,095	0,121
-456,255	303,513	0,044	-0,060
-455,241	-64,736	-0,091	0,027
-454,226	-36,997	-0,134	-0,052
-453,211	82,345	0,064	0,050
-452,197	762,934	0,021	0,043
-451,182	649,105	-0,049	0,092
-450,168	-200,000	0,034	-0,156
-449,153	-200,000	0,009	0,055
-448,138	-200,000	-0,012	0,085
-447,124	44,682	-0,060	-0,040
-446,109	240,080	-0,024	0,029
-445,095	479,662	0,023	-0,039
-444,080	-98,172	0,065	-0,012
-443,065	-200,000	-0,018	0,117
-442,051	68,470	-0,031	-0,023
-441,036	298,133	0,070	-0,094
-440,022	235,034	-0,095	-0,114
-439,007	333,450	-0,014	-0,020
-437,992	800,000	0,027	-0,057
-436,978	119,703	-0,123	0,111
-435,963	-200,000	-0,015	0,102
-434,949	-20,099	0,086	-0,038
-433,934	-200,000	-0,009	-0,049
-432,919	800,000	-0,037	-0,077
-431,905	-200,000	0,018	-0,069
-430,890	-200,000	-0,012	0,042
-429,876	6,470	-0,030	-0,016
-428,861	560,869	0,034	0,060
-427,846	143,423	0,069	0,067
-426,832	79,783	-0,028	-0,022
-425,817	-84,680	-0,245	0,056
-424,803	-91,390	-0,091	0,019
-423,788	92,739	0,059	0,048
-422,773	-87,195	-0,079	0,017
-421,759	-200,000	0,015	0,079
-420,744	800,000	0,014	0,043
-419,730	-126,593	0,043	-0,005
-418,715	-200,000	-0,001	-0,074
-417,701	800,000	0,021	-0,062
-416,686	-200,000	0,034	0,136
-415,671	502,218	-0,033	0,055
-414,657	-51,514	0,096	-0,032
-413,642	800,000	0,049	0,126
-412,628	-24,861	-0,116	-0,050
-411,613	465,876	0,102	-0,166
-410,598	513,310	0,027	-0,046
-409,584	680,472	0,024	-0,046
-408,569	53,366	0,037	0,026
-407,555	-200,000	0,013	0,133
-406,540	-200,000	0,010	-0,101
-405,525	611,604	0,008	-0,015
-404,511	-200,000	-0,002	-0,088
-403,496	155,616	-0,030	-0,030
-402,482	-200,000	0,005	0,091
-401,467	-72,476	0,059	-0,016
-400,452	67,466	0,096	0,071
-399,438	-200,000	0,016	0,114
-398,423	45,878	-0,053	0,035
-397,409	269,483	0,047	-0,060
-396,394	-200,000	-0,011	-0,071
-395,379	-48,963	0,102	0,035
-394,365	-29,859	0,206	0,085
-393,350	-200,000	0,000	0,028
-392,336	-200,000	-0,014	-0,100
-391,321	390,778	0,075	0,114
-390,306	272,655	-0,077	0,099
-389,292	121,762	-0,128	0,116
-388,277	800,000	0,047	-0,100
-387,263	-96,982	0,115	0,022
-386,248	800,000	-0,034	-0,099
-385,233	281,834	0,096	-0,126
-384,219	-200,000	0,007	-0,133
-383,204	-200,000	0,023	-0,128
-382,190	612,714	0,018	-0,034
-381,175	147,678	0,127	-0,125
-380,160	800,000	0,032	-0,100
-379,146	-200,000	0,017	-0,076
-378,131	620,434	-0,013	0,024
-377,117	408,802	-0,031	-0,048
-376,102	-200,000	-0,035	0,117
-375,088	73,625	0,100	-0,076
-374,073	-200,000	-0,001	-0,076
-373,058	2,286	0,061	-0,032
-372,044	-136,940	0,051	0,004
-371,029	-13,688	-0,169	0,079
-370,015	394,925	0,019	-0,029
-369,000	-146,177	-0,071	-0,004
-367,985	361,049	0,067	-0,098
-366,971	311,530	0,008	0,011
-365,956	635,280	0,041	-0,076
-364,942	-200,000	-0,015	0,081
-363,927	27,928	-0,078	-0,048
-362,912	-200,000	-0,018	0,102
-361,898	-200,000	-0,004	-0,042
-360,883	-153,723	0,072	0,004
-359,869	255,345	-0,006	0,007
-358,854	-200,000	-0,002	0,023
-357,839	-200,000	-0,024	-0,090
-356,825	4,519	-0,064	-0,034
-355,810	-40,795	-0,046	-0,017
-354,796	29,544	-0,036	-0,022
-353,781	35,804	-0,098	-0,062
-352,766	-141,981	-0,078	0,006
-351,752	-200,000	0,002	-0,082
-350,737	-200,000	-0,004	0,040
-349,723	-200,000	0,011	0,106
-348,708	10,362	0,113	-0,062
-347,693	-200,000	0,007	0,105
-346,679	-200,000	0,012	-0,048
-345,664	567,184	-0,088	0,155
-344,650	-98,631	-0,030	-0,005
-343,635	800,000	0,030	-0,087
-342,620	-158,388	0,113	-0,005
-341,606	800,000	-0,017	-0,045
-340,591	103,858	-0,025	0,021
-339,577	55,639	-0,054	0,038
-338,562	292,215	-0,101	-0,134
-337,548	-164,782	-0,077	-0,002
-336,533	-191,861	0,072	0,000
-335,518	19,541	0,098	0,057
-334,504	-103,026	-0,097	0,017
-333,489	24,418	-0,108	-0,065
-332,475	117,205	-0,031	-0,028
-331,460	601,425	0,062	-0,112
-330,445	-105,981	0,143	-0,023
-329,431	-200,000	0,015	0,128
-328,416	-200,000	-0,001	0,076
-327,402	800,000	-0,041	-0,116
-326,387	-200,000	-0,029	-0,097
-325,372	-200,000	0,017	-0,105
-324,358	-200,000	0,002	-0,021
-323,343	-32,880	-0,080	-0,032
-322,329	-200,000	0,008	0,073
-321,314	-10,568	0,078	0,037
-320,299	437,501	0,022	0,035
-319,285	-40,456	0,103	0,039
-318,270	30,523	-0,160	-0,099
-317,256	435,400	0,091	-0,144
-316,241	-39,355	-0,103	-0,039
-315,226	-200,000	-0,001	-0,016
-314,212	-21,447	-0,079	0,035
-313,197	-126,162	-0,151	-0,016
-312,183	-200,000	0,008	-0,139
-311,168	800,000	0,032	-0,101
-310,153	-200,000	0,004	-0,145
-309,139	178,834	-0,082	0,087
-308,124	-200,000	-0,032	-0,195
-307,110	800,000	0,035	-0,098
-306,095	-200,000	-0,007	-0,026
-305,080	800,000	0,060	0,156
-304,066	-200,000	-0,007	0,126
-303,051	-200,000	-0,001	-0,084
-302,037	-8,860	0,101	-0,049
-301,022	428,064	0,102	0,160
-300,008	800,000	0,031	0,085
-298,993	-23,094	0,110	0,048
-297,978	-55,521	-0,088	0,028
-296,964	-104,539	0,055	0,009
-295,949	-200,000	0,003	-0,015
-294,935	-161,946	-0,216	-0,008
-293,920	-22,399	-0,043	0,019
-292,905	24,558	-0,031	-0,018
-291,891	-117,905	0,065	0,008
-290,876	82,925	0,165	-0,130
-289,862	800,000	-0,058	-0,122
-288,847	42,082	-0,106	-0,069
-287,832	123,594	0,087	-0,079
-286,818	352,877	0,065	0,093
-285,803	800,000	-0,040	-0,095
-284,789	-200,000	-0,014	-0,076
-283,774	551,177	-0,027	0,046
-282,759	-200,000	0,002	-0,036
-281,745	198,809	-0,142	-0,158
-280,730	800,000	-0,061	-0,132
-279,716	140,812	0,094	0,090
-278,701	-134,265	-0,055	0,005
-277,686	283,136	0,017	0,022
-276,672	99,054	0,088	0,073
-275,657	-200,000	-0,010	0,100
-274,643	-200,000	0,018	-0,128
-273,628	642,324	-0,092	-0,171
-272,613	800,000	-0,033	-0,101
-271,599	-115,635	0,027	-0,004
-270,584	-115,946	-0,150	0,020
-269,570	-200,000	-0,023	0,103
-268,555	345,176	0,107	-0,153
-267,540	-200,000	-0,100	-0,000
-266,526	35,023	-0,033	0,021
-265,511	370,342	-0,069	0,101
-264,497	-200,000	-0,004	0,168
-263,482	800,000	0,022	0,062
-262,467	-200,000	-0,006	0,069
-261,453	800,000	0,012	-0,027
-260,438	-91,414	-0,261	0,053
-259,424	-200,000	0,015	-0,055
-258,409	-200,000	0,047	-0,197
-257,395	-145,116	0,017	-0,001
-256,380	-99,374	0,129	-0,023
-255,365	-83,763	-0,053	-0,012
-254,351	-200,000	0,010	0,054
-253,336	800,000	0,031	-0,082
-252,322	53,033	0,054	-0,038
-251,307	132,966	-0,068	-0,063
-250,292	110,623	0,050	-0,044
-249,278	17,486	-0,058	0,033
-248,263	39,872	-0,108	0,070
-247,249	81,840	-0,077	0,061
-246,234	236,322	0,092	0,111
-245,219	-112,057	-0,153	0,022
-244,205	-200,000	0,012	0,064
-243,190	204,059	0,047	0,053
-242,176	658,196	0,042	0,079
-241,161	-108,304	0,061	0,009
-240,146	2,181	0,087	-0,045
-239,132	287,667	-0,086	0,112
-238,117	-76,350	-0,112	-0,028
-237,103	61,741	-0,065	-0,046
-236,088	86,190	0,103	-0,082
-235,073	800,000	0,061	0,127
-234,059	219,196	0,122	0,141
-233,044	-42,520	0,028	0,010
-232,030	800,000	0,028	0,068
-231,015	574,295	-0,051	-0,091
-230,000	-23,481	-0,082	0,035
-228,986	590,423	0,049	0,088
-227,971	145,531	0,018	0,017
-226,957	-200,000	0,002	0,017
-225,942	800,000	-0,018	-0,044
-224,927	368,524	0,069	-0,101
-223,913	-134,227	-0,036	-0,003
-222,898	-1,920	-0,180	0,091
-221,884	-200,000	-0,010	0,166
-220,869	309,036	0,080	0,109
-219,855	-106,322	0,090	0,014
-218,840	344,927	0,054	0,076
-217,825	463,805	-0,027	-0,044
-216,811	32,593	0,074	0,046
-215,796	-200,000	0,004	0,067
-214,782	-78,285	0,188	-0,046
-213,767	55,145	0,151	0,105
-212,752	-200,000	0,033	0,107
-211,738	-200,000	-0,017	0,107
-210,723	-133,329	-0,042	0,004
-209,709	800,000	0,014	-0,040
-208,694	85,529	-0,058	-0,046
-207,679	348,073	0,032	-0,046
-206,665	121,628	-0,023	-0,021
-205,650	800,000	-0,017	-0,035
-204,636	55,500	-0,100	0,070
-203,621	800,000	0,051	-0,113
-202,606	654,162	-0,052	0,098
-201,592	24,518	-0,112	0,067
-200,577	-104,316	-0,056	0,009
-199,563	-84,856	-0,039	0,009
-198,548	220,051	-0,051	0,059
-197,533	-99,211	-0,026	0,005
-196,519	187,209	0,071	0,077
-195,504	98,128	0,112	0,093
-194,490	580,307	-0,060	0,107
-193,475	-119,156	-0,114	0,014
-192,460	-93,379	-0,019	0,004
-191,446	126,901	0,092	0,084
-190,431	-117,296	-0,050	-0,006
-189,417	119,613	-0,067	0,060
-188,402	-42,994	-0,053	-0,019
-187,387	197,564	-0,062	-0,068
-186,373	-141,038	-0,094	0,007
-185,358	523,206	-0,043	0,073
-184,344	456,864	0,042	-0,068
-183,329	84,582	0,052	-0,041
-182,315	-12,472	0,079	-0,037
-181,300	-200,000	-0,010	0,050
-180,285	138,161	0,038	-0,036
-179,271	-200,000	-0,003	0,089
-178,256	46,171	0,106	-0,071
-177,242	-115,593	-0,164	0,022
-176,227	-200,000	0,025	-0,160
-175,212	-29,014	-0,044	0,018
-174,198	147,391	0,061	-0,060
-173,183	-89,086	-0,123	-0,026
-172,169	783,818	-0,028	-0,056
-171,154	-200,000	0,037	-0,161
-170,139	3,808	0,157	0,082
-169,125	-200,000	-0,022	-0,090
-168,110	-200,000	-0,000	0,146
-167,096	82,343	0,107	0,084
-166,081	336,668	-0,064	0,090
-165,066	-200,000	-0,020	-0,067
-164,052	37,856	-0,155	-0,099
-163,037	634,185	0,042	0,077
-162,023	-200,000	0,033	0,139
-161,008	-200,000	0,010	-0,210
-159,993	-108,163	-0,123	-0,019
-158,979	799,689	-0,034	0,069
-157,964	113,374	-0,055	0,048
-156,950	-17,545	-0,054	0,024
-155,935	50,544	-0,086	0,059
-154,920	115,758	0,065	0,057
-153,906	151,573	-0,122	0,120
-152,891	-200,000	0,011	0,154
-151,877	-123,247	0,130	0,015
-150,862	90,293	-0,090	-0,073
-149,847	-200,000	0,006	-0,063
-148,833	800,000	-0,034	-0,106
-147,818	-33,144	0,094	-0,037
-146,804	-45,137	0,110	0,039
-145,789	454,165	-0,057	0,092
-144,775	71,963	0,133	-0,100
-143,760	800,000	-0,025	-0,061
-142,745	800,000	0,023	0,058
-141,731	-145,357	-0,039	-0,003
-140,716	236,836	0,070	0,084
-139,702	-200,000	0,017	0,160
-138,687	800,000	-0,042	0,090
-137,672	-200,000	0,021	-0,077
-136,658	213,116	0,039	0,045
-135,643	189,877	0,057	-0,061
-134,629	69,231	0,040	-0,030
-133,614	-13,197	0,053	0,025
-132,599	800,000	0,023	-0,068
-131,585	-60,216	0,113	-0,034
-130,570	163,016	0,068	-0,069
-129,556	-31,362	0,052	-0,021
-128,541	29,261	-0,094	0,058
-127,526	-12,506	-0,060	0,028
-126,512	-73,674	0,202	0,053
-125,497	-29,145	0,086	0,035
-124,483	159,967	-0,093	0,094
-123,468	-200,000	0,011	0,065
-122,453	-43,736	-0,076	-0,028
-121,439	-200,000	-0,038	-0,159
-120,424	-40,270	-0,071	0,026
-119,410	-75,092	0,054	-0,014
