DTS Sentinel unit serial number:	SN410029Multiplexer serial number:	ORYXHardware model number:	OX2-SRSoftware version number:	ORYX F/W v4,00 Oryx Data Collector v3.7.2.0data status	okinstallation	B5 Nyhavnadifferential loss correction	single-endedforward channel	channel 2reverse channel	N/Adate	2023/12/12time	09:12:13forward acquisition time	300,00reverse acquisition time	0,00gamma	499,1914k internal	0,3157k external	0,3157temperature offset calibration	1,0000default loss term (dB/km)	0,3820temperature slope calibration	1,0000multiplexer offset coefficient	1,0000multiplexer slope coefficient	1,0000fibre end	0,00T internal ref (°C)	15,03T ext. ref 1 (°C)	-1,30T ext. ref 2 (°C)	-1,59length (m)	temperature (°C)	Stokes	anti-Stokes-744,400	206,078	0,088	0,101
-743,385	-151,023	-0,288	0,016
-742,371	215,284	0,146	-0,171
-741,356	-78,122	-0,066	-0,017
-740,342	351,350	0,147	-0,215
-739,327	-129,377	-0,340	-0,034
-738,312	-27,782	0,101	-0,043
-737,298	-79,341	-0,324	-0,080
-736,283	4,750	0,200	-0,108
-735,269	-172,454	-0,309	0,007
-734,254	-158,416	0,109	-0,005
-733,239	-131,045	-0,594	-0,058
-732,225	208,409	0,095	0,110
-731,210	-99,356	-0,093	0,017
-730,196	75,799	0,066	-0,051
-729,181	800,000	-0,058	0,147
-728,167	-125,441	0,073	-0,008
-727,152	81,125	0,109	-0,087
-726,137	800,000	-0,072	-0,151
-725,123	-17,062	-0,059	0,027
-724,108	-160,555	0,032	-0,001
-723,094	319,281	-0,130	-0,182
-722,079	-56,404	0,160	-0,052
-721,064	39,440	0,029	0,019
-720,050	130,959	-0,126	0,119
-719,035	112,280	-0,049	0,044
-718,021	800,000	0,020	0,056
-717,006	-200,000	-0,007	-0,095
-715,991	263,972	-0,064	0,083
-714,977	-200,000	0,001	-0,061
-713,962	-113,043	-0,129	0,019
-712,948	126,697	0,074	-0,069
-711,933	-200,000	-0,005	-0,081
-710,918	18,363	-0,057	-0,033
-709,904	-168,136	-0,106	-0,003
-708,889	-6,629	-0,076	-0,038
-707,875	90,660	-0,058	0,048
-706,860	-200,000	-0,037	0,128
-705,845	48,214	0,042	0,029
-704,831	-200,000	0,001	-0,077
-703,816	800,000	-0,012	-0,038
-702,802	-76,090	0,017	-0,004
-701,787	-200,000	-0,011	-0,143
-700,772	19,558	-0,083	0,049
-699,758	800,000	0,023	0,065
-698,743	-16,361	-0,123	0,057
-697,729	800,000	0,026	-0,067
-696,714	-167,784	0,040	-0,001
-695,699	-200,000	-0,002	-0,114
-694,685	800,000	0,009	0,024
-693,670	-36,154	-0,119	0,047
-692,656	6,296	0,164	0,089
-691,641	12,024	0,104	0,059
-690,627	800,000	0,017	-0,045
-689,612	357,781	-0,038	0,055
-688,597	-26,371	-0,089	0,038
-687,583	11,665	-0,031	-0,017
-686,568	-200,000	0,005	0,033
-685,554	-95,417	0,069	0,013
-684,539	-119,365	-0,160	0,020
-683,524	321,056	-0,076	-0,107
-682,510	-60,813	-0,102	0,032
-681,495	-2,448	-0,099	0,051
-680,481	158,821	-0,057	-0,059
-679,466	68,815	-0,061	-0,046
-678,451	800,000	-0,014	0,042
-677,437	30,909	0,055	0,035
-676,422	6,126	0,080	0,044
-675,408	-83,813	-0,105	-0,024
-674,393	-200,000	0,056	0,187
-673,378	-200,000	0,001	-0,102
-672,364	670,948	0,029	-0,056
-671,349	-200,000	0,006	0,025
-670,335	-73,361	0,016	0,004
-669,320	-55,212	0,055	0,018
-668,305	295,497	0,034	-0,046
-667,291	110,139	0,031	-0,027
-666,276	-56,112	0,099	0,032
-665,262	481,947	-0,077	-0,129
-664,247	479,343	-0,067	0,111
-663,232	800,000	0,041	-0,105
-662,218	46,189	0,117	0,080
-661,203	492,396	-0,047	0,080
-660,189	66,464	0,084	-0,063
-659,174	-103,067	0,053	-0,009
-658,159	-1,898	-0,052	0,027
-657,145	-200,000	0,021	0,105
-656,130	426,461	-0,061	-0,096
-655,116	106,426	-0,025	-0,022
-654,101	800,000	-0,023	-0,061
-653,086	-200,000	-0,030	0,106
-652,072	129,875	-0,050	-0,047
-651,057	-200,000	-0,001	-0,042
-650,043	-200,000	0,000	0,008
-649,028	94,374	0,121	-0,101
-648,014	9,965	-0,051	0,028
-646,999	-200,000	-0,034	0,187
-645,984	12,431	-0,036	0,021
-644,970	420,547	-0,108	-0,170
-643,955	137,694	0,006	-0,006
-642,941	-184,240	-0,141	-0,002
-641,926	800,000	-0,044	-0,106
-640,911	-170,750	0,220	0,005
-639,897	-200,000	0,004	0,020
-638,882	800,000	-0,055	-0,147
-637,868	-100,029	-0,100	0,018
-636,853	-18,492	0,144	-0,066
-635,838	4,694	-0,103	0,055
-634,824	-129,528	-0,097	-0,010
-633,809	-39,050	-0,071	-0,027
-632,795	19,217	0,092	0,054
-631,780	-200,000	-0,006	0,049
-630,765	800,000	0,028	-0,085
-629,751	41,614	0,128	-0,085
-628,736	450,516	-0,034	-0,056
-627,722	-81,287	-0,193	-0,046
-626,707	-200,000	0,035	-0,125
-625,692	54,569	-0,064	-0,045
-624,678	189,639	-0,067	0,074
-623,663	-200,000	0,030	-0,112
-622,649	-155,912	-0,114	-0,005
-621,634	306,056	-0,043	0,059
-620,619	-54,428	0,087	-0,029
-619,605	-3,133	0,061	-0,031
-618,590	-141,213	-0,098	0,007
-617,576	-8,675	0,037	0,018
-616,561	76,073	0,104	-0,081
-615,546	271,994	-0,060	-0,078
-614,532	-88,852	-0,152	0,033
-613,517	-200,000	0,011	-0,054
-612,503	311,572	0,023	-0,032
-611,488	462,175	0,087	0,143
-610,474	800,000	-0,034	0,090
-609,459	-48,613	0,023	0,008
-608,444	-13,903	0,050	-0,024
-607,430	-22,807	-0,023	-0,010
-606,415	-200,000	0,027	-0,148
-605,401	-10,376	-0,022	0,011
-604,386	60,224	-0,068	-0,049
-603,371	46,063	0,062	-0,042
-602,357	800,000	0,029	-0,072
-601,342	-168,870	-0,118	0,003
-600,328	225,802	-0,056	-0,066
-599,313	37,057	-0,150	-0,097
-598,298	56,741	-0,010	-0,007
-597,284	800,000	0,049	-0,108
-596,269	-2,118	-0,139	-0,072
-595,255	-200,000	0,006	-0,042
-594,240	-200,000	0,035	-0,121
-593,225	-40,898	0,029	-0,011
-592,211	-77,377	0,029	-0,007
-591,196	-153,463	0,137	-0,007
-590,182	800,000	0,045	0,120
-589,167	-200,000	0,005	-0,113
-588,152	31,240	0,055	-0,034
-587,138	31,033	-0,104	-0,065
-586,123	-200,000	0,003	-0,078
-585,109	-45,135	0,125	-0,045
-584,094	148,624	-0,041	-0,041
-583,079	-86,359	0,046	-0,010
-582,065	211,576	0,063	0,073
-581,050	277,183	-0,077	-0,100
-580,036	-134,013	0,108	-0,010
-579,021	509,283	-0,057	0,098
-578,006	-200,000	0,009	-0,150
-576,992	136,694	-0,013	-0,012
-575,977	95,202	-0,071	0,059
-574,963	800,000	0,028	0,076
-573,948	124,114	-0,021	0,019
-572,934	112,280	0,012	-0,011
-571,919	-84,157	0,026	0,006
-570,904	431,095	0,060	-0,095
-569,890	219,811	-0,050	0,058
-568,875	800,000	0,044	0,135
-567,861	-108,395	-0,195	0,030
-566,846	-200,000	-0,006	0,092
-565,831	281,302	0,047	-0,062
-564,817	153,631	0,030	0,030
-563,802	-111,342	-0,095	0,014
-562,788	-24,101	0,076	-0,033
-561,773	598,157	-0,070	0,127
-560,758	-129,454	0,008	0,001
-559,744	8,317	0,035	0,019
-558,729	220,286	-0,081	-0,095
-557,715	-200,000	0,012	0,090
-556,700	84,474	0,058	0,046
-555,685	403,583	-0,102	-0,157
-554,671	-118,521	0,115	0,015
-553,656	-200,000	-0,010	0,057
-552,642	47,951	-0,044	-0,030
-551,627	-154,761	0,158	0,008
-550,612	-200,000	0,016	0,088
-549,598	-134,049	0,055	0,005
-548,583	800,000	-0,067	-0,143
-547,569	-2,436	-0,073	0,038
-546,554	412,458	0,050	0,078
-545,539	49,533	-0,069	0,048
-544,525	-200,000	-0,012	0,250
-543,510	28,934	-0,097	-0,060
-542,496	-113,238	-0,082	0,012
-541,481	-102,314	-0,025	-0,004
-540,466	-200,000	0,002	-0,007
-539,452	331,575	0,044	0,062
-538,437	800,000	0,034	0,081
-537,423	113,928	-0,110	0,098
-536,408	-200,000	0,018	0,062
-535,393	179,919	-0,081	0,087
-534,379	166,512	0,046	-0,048
-533,364	-200,000	0,016	-0,142
-532,350	201,148	0,037	-0,042
-531,335	238,219	-0,081	0,099
-530,321	-200,000	-0,017	0,057
-529,306	-61,483	0,083	-0,025
-528,291	540,897	0,051	-0,089
-527,277	164,805	-0,045	0,046
-526,262	-200,000	-0,000	0,068
-525,248	-200,000	0,153	-0,000
-524,233	16,634	0,178	0,102
-523,218	-111,954	-0,017	-0,002
-522,204	250,530	0,060	-0,074
-521,189	71,947	0,045	-0,034
-520,175	-200,000	-0,005	-0,063
-519,160	50,756	0,081	-0,056
-518,145	-200,000	-0,005	0,106
-517,131	-26,366	-0,125	-0,053
-516,116	6,904	0,134	-0,073
-515,102	-200,000	0,009	-0,074
-514,087	449,353	0,055	-0,089
-513,072	-200,000	0,009	0,083
-512,058	-58,570	0,030	-0,009
-511,043	747,207	0,070	0,139
-510,029	88,988	0,126	-0,103
-509,014	800,000	-0,035	0,095
-507,999	800,000	0,024	-0,061
-506,985	-200,000	-0,005	-0,036
-505,970	-97,675	-0,107	0,020
-504,956	-91,899	-0,088	0,018
-503,941	4,099	0,083	0,044
-502,926	-200,000	-0,044	0,161
-501,912	53,047	-0,048	0,033
-500,897	-200,000	0,015	0,100
-499,883	64,568	0,009	-0,007
-498,868	-200,000	-0,001	0,034
-497,853	-99,000	-0,130	-0,024
-496,839	-48,851	0,047	-0,016
-495,824	-132,240	-0,108	-0,010
-494,810	33,493	-0,038	-0,024
-493,795	-184,334	0,079	0,001
-492,781	-91,902	-0,146	-0,030
-491,766	-129,363	0,064	-0,006
-490,751	309,365	-0,055	-0,075
-489,737	144,436	0,070	0,068
-488,722	206,247	0,053	-0,060
-487,708	209,853	-0,079	0,090
-486,693	-158,304	0,144	-0,006
-485,678	800,000	-0,042	-0,114
-484,664	349,485	-0,041	-0,059
-483,649	-200,000	-0,001	-0,161
-482,635	-200,000	0,004	-0,068
-481,620	15,656	0,104	0,060
-480,605	800,000	0,019	-0,051
-479,591	616,377	-0,009	-0,017
-478,576	800,000	0,041	0,108
-477,562	-87,977	-0,075	-0,016
-476,547	800,000	0,024	0,072
-475,532	-113,938	0,131	-0,018
-474,518	157,164	-0,071	0,072
-473,503	-3,130	0,095	0,048
-472,489	-105,749	0,043	-0,007
-471,474	-123,032	-0,106	0,012
-470,459	105,839	0,107	-0,092
-469,445	180,317	-0,037	0,039
-468,430	-200,000	-0,032	0,111
-467,416	76,514	-0,058	-0,045
-466,401	290,270	-0,017	0,022
-465,386	-4,707	-0,166	0,083
-464,372	38,463	0,157	-0,102
-463,357	-48,657	-0,054	-0,019
-462,343	158,010	-0,060	-0,060
-461,328	141,029	0,043	0,041
-460,313	-31,118	-0,048	0,019
-459,299	-200,000	0,002	-0,096
-458,284	18,686	0,067	-0,039
-457,270	120,805	-0,079	0,071
-456,255	-87,728	-0,091	-0,020
-455,241	800,000	0,069	-0,160
-454,226	800,000	0,008	-0,017
-453,211	120,354	-0,059	0,054
-452,197	-51,279	0,052	0,018
-451,182	-58,719	0,097	0,031
-450,168	458,332	0,061	0,099
-449,153	-200,000	-0,041	-0,170
-448,138	-21,686	-0,020	-0,009
-447,124	-44,447	-0,110	0,040
-446,109	1,640	-0,063	0,033
-445,095	2,314	-0,110	0,058
-444,080	-24,487	0,046	0,020
-443,065	116,143	0,039	0,035
-442,051	38,295	0,098	-0,063
-441,036	-27,463	-0,064	0,027
-440,022	-200,000	0,033	0,131
-439,007	-200,000	-0,017	-0,072
-437,992	-73,363	0,028	0,008
-436,978	-175,547	0,042	-0,001
-435,963	295,942	-0,088	-0,117
-434,949	-78,731	0,086	0,021
-433,934	-200,000	0,019	-0,072
-432,919	800,000	0,031	0,094
-431,905	242,053	-0,056	-0,068
-430,890	745,278	0,035	-0,068
-429,876	800,000	0,038	-0,087
-428,861	-200,000	0,017	-0,099
-427,846	14,868	-0,062	-0,035
-426,832	14,800	-0,098	0,056
-425,817	-157,820	-0,065	0,003
-424,803	57,711	0,135	-0,096
-423,788	-200,000	-0,003	-0,062
-422,773	-200,000	0,017	-0,067
-421,759	-200,000	0,014	0,082
-420,744	48,053	-0,068	-0,046
-419,730	181,777	-0,026	-0,028
-418,715	524,631	-0,047	0,082
-417,701	267,976	-0,055	0,071
-416,686	128,806	-0,072	0,067
-415,671	190,665	-0,033	-0,036
-414,657	-200,000	0,004	-0,015
-413,642	800,000	0,022	0,066
-412,628	800,000	-0,006	0,015
-411,613	184,218	-0,018	0,020
-410,598	45,996	0,070	-0,047
-409,584	36,516	-0,044	-0,028
-408,569	-200,000	-0,001	0,054
-407,555	765,842	-0,030	0,060
-406,540	164,531	-0,104	0,107
-405,525	-200,000	-0,019	-0,186
-404,511	-21,898	-0,108	-0,047
-403,496	-200,000	-0,079	0,000
-402,482	-1,631	0,105	-0,054
-401,467	-200,000	-0,021	0,000
-400,452	800,000	0,031	0,083
-399,438	-200,000	-0,002	0,222
-398,423	94,487	0,078	-0,064
-397,409	416,042	-0,067	-0,104
-396,394	490,976	-0,065	-0,108
-395,379	800,000	-0,056	0,130
-394,365	800,000	0,040	0,110
-393,350	-200,000	0,033	0,112
-392,336	-100,400	0,124	0,022
-391,321	-32,183	0,032	0,013
-390,306	800,000	-0,014	-0,042
-389,292	268,100	-0,093	-0,119
-388,277	-102,531	-0,115	-0,020
-387,263	301,659	0,036	0,048
-386,248	61,882	0,059	-0,043
-385,233	800,000	0,029	0,075
-384,219	800,000	-0,029	0,077
-383,204	258,759	-0,093	0,117
-382,190	403,158	0,103	-0,157
-381,175	-93,461	0,100	0,020
-380,160	686,213	-0,040	0,077
-379,146	-200,000	0,003	0,096
-378,131	-31,025	-0,147	0,060
-377,117	-200,000	0,033	-0,143
-376,102	800,000	-0,027	-0,055
-375,088	-200,000	0,008	-0,047
-374,073	-200,000	-0,021	-0,104
-373,058	696,075	-0,031	0,059
-372,044	516,430	-0,031	-0,053
-371,029	130,650	0,123	0,115
-370,015	120,278	0,066	-0,060
-369,000	-29,929	-0,072	-0,030
-367,985	800,000	-0,012	0,028
-366,971	143,270	0,081	0,078
-365,956	-58,364	-0,055	0,017
-364,942	43,869	0,064	0,043
-363,927	539,002	0,066	0,115
-362,912	567,132	-0,017	0,030
-361,898	184,684	-0,080	-0,087
-360,883	33,435	0,107	0,067
-359,869	-200,000	0,003	-0,028
-358,854	-200,000	0,018	0,065
-357,839	-190,491	0,065	0,000
-356,825	17,112	0,058	0,033
-355,810	-127,305	0,054	0,006
-354,796	-200,000	0,001	-0,037
-353,781	-86,720	-0,076	0,017
-352,766	-53,179	-0,126	-0,042
-351,752	249,395	-0,039	0,048
-350,737	-51,809	0,136	-0,046
-349,723	5,147	-0,086	0,046
-348,708	-14,738	0,058	-0,027
-347,693	58,560	-0,087	-0,062
-346,679	156,592	0,051	-0,051
-345,664	-184,116	-0,124	0,001
-344,650	-200,000	0,015	-0,087
-343,635	-104,919	0,119	-0,020
-342,620	739,475	-0,032	-0,063
-341,606	-200,000	0,011	0,108
-340,591	1,332	-0,065	0,034
-339,577	-128,812	-0,065	0,007
-338,562	169,930	-0,038	-0,039
-337,548	191,496	0,050	-0,055
-336,533	800,000	0,020	-0,057
-335,518	-132,611	0,138	-0,013
-334,504	-9,725	-0,106	0,051
-333,489	79,627	-0,097	-0,075
-332,475	-200,000	-0,020	-0,179
-331,460	-26,539	-0,052	-0,022
-330,445	327,694	0,047	-0,065
-329,431	-51,910	-0,054	0,018
-328,416	800,000	0,059	0,151
-327,402	58,464	0,111	0,079
-326,387	-0,812	0,036	0,018
-325,372	-200,000	-0,010	-0,044
-324,358	-94,918	-0,037	0,007
-323,343	-106,553	-0,108	0,017
-322,329	406,277	0,011	0,017
-321,314	-1,496	0,162	-0,083
-320,299	27,755	-0,131	-0,080
-319,285	352,244	0,030	0,043
-318,270	-200,000	0,002	-0,076
-317,256	37,546	-0,102	-0,065
-316,241	292,576	-0,016	-0,021
-315,226	-200,000	-0,014	-0,045
-314,212	800,000	-0,008	-0,023
-313,197	800,000	0,034	0,100
-312,183	548,207	-0,072	0,125
-311,168	-166,869	-0,109	0,003
-310,153	78,168	0,050	0,038
-309,139	257,819	0,025	-0,031
-308,124	-46,672	0,037	0,013
-307,110	-83,201	0,178	0,041
-306,095	1,777	0,036	-0,019
-305,080	-51,875	0,096	0,032
-304,066	554,156	0,018	-0,032
-303,051	-14,905	-0,037	-0,017
-302,037	64,482	0,059	0,043
-301,022	-200,000	0,018	0,120
-300,008	-125,363	0,160	-0,017
-298,993	-92,422	0,027	-0,006
-297,978	151,806	0,133	0,131
-296,964	317,561	0,006	-0,009
-295,949	-200,000	-0,019	-0,077
-294,935	-200,000	0,001	-0,045
-293,920	74,566	-0,082	0,062
-292,905	-200,000	-0,006	0,070
-291,891	800,000	0,020	0,048
-290,876	-200,000	-0,017	0,077
-289,862	-200,000	0,007	0,046
-288,847	51,070	0,076	0,052
-287,832	-200,000	-0,016	-0,153
-286,818	18,079	0,027	-0,015
-285,803	800,000	-0,049	-0,103
-284,789	124,976	-0,060	0,055
-283,774	-200,000	-0,012	-0,059
-282,759	76,698	0,019	0,015
-281,745	37,005	0,121	-0,077
-280,730	-117,178	-0,190	-0,025
-279,716	-200,000	-0,001	-0,152
-278,701	-104,144	0,029	-0,005
-277,686	22,423	0,228	0,135
-276,672	215,147	0,103	0,118
-275,657	434,396	0,012	-0,020
-274,643	171,963	-0,057	-0,060
-273,628	5,917	-0,126	0,067
-272,613	-200,000	-0,002	0,015
-271,599	-200,000	0,023	-0,076
-270,584	539,335	-0,047	0,081
-269,570	-200,000	-0,027	0,157
-268,555	800,000	0,049	-0,109
-267,540	229,991	-0,088	-0,104
-266,526	-200,000	0,022	-0,146
-265,511	191,306	0,076	-0,082
-264,497	315,252	0,123	0,168
-263,482	-104,017	0,050	-0,008
-262,467	-200,000	0,025	0,091
-261,453	-200,000	-0,004	0,066
-260,438	-116,612	0,063	0,008
-259,424	27,236	-0,074	0,045
-258,409	-68,885	-0,127	0,035
-257,395	-111,128	0,084	0,012
-256,380	800,000	0,048	-0,121
-255,365	-108,495	-0,034	0,005
-254,351	-200,000	-0,005	0,070
-253,336	355,953	0,034	-0,049
-252,322	800,000	-0,015	0,035
-251,307	800,000	-0,042	-0,096
-250,292	591,093	-0,064	-0,114
-249,278	-172,026	0,082	-0,002
-248,263	98,852	-0,080	0,066
-247,249	800,000	-0,031	0,074
-246,234	-66,654	0,087	0,025
-245,219	-164,133	-0,084	0,003
-244,205	91,506	0,068	-0,055
-243,190	-37,227	0,006	0,002
-242,176	-200,000	0,000	-0,164
-241,161	-131,080	-0,007	-0,001
-240,146	-147,577	0,085	-0,005
-239,132	80,873	0,042	0,033
-238,117	-42,902	0,030	-0,011
-237,103	-200,000	0,019	-0,093
-236,088	-177,615	0,092	0,002
-235,073	-31,387	-0,034	0,014
-234,059	-200,000	-0,014	0,072
-233,044	-37,746	0,031	-0,012
-232,030	65,437	0,088	0,064
-231,015	800,000	-0,053	-0,123
-230,000	-21,054	-0,093	0,041
-228,986	21,333	-0,129	0,076
-227,971	227,212	0,023	0,027
-226,957	153,606	-0,130	0,129
-225,942	-200,000	0,010	-0,040
-224,927	-0,720	-0,041	0,021
-223,913	-200,000	-0,003	0,037
-222,898	-39,917	-0,047	-0,018
-221,884	240,000	0,021	0,025
-220,869	-80,603	0,117	-0,028
-219,855	200,111	-0,063	-0,070
-218,840	-200,000	-0,011	0,081
-217,825	-13,750	-0,060	-0,028
-216,811	-200,000	-0,002	0,178
-215,796	-200,000	-0,020	0,068
-214,782	165,375	0,078	0,080
-213,767	-162,161	-0,062	-0,002
-212,752	-45,552	0,128	0,046
-211,738	119,905	0,110	0,099
-210,723	4,837	-0,018	-0,010
-209,709	33,676	0,067	-0,042
-208,694	748,403	-0,023	-0,046
-207,679	-200,000	-0,008	0,031
-206,665	-33,259	0,088	-0,035
-205,650	800,000	-0,017	0,043
-204,636	-140,339	-0,108	-0,008
-203,621	697,672	-0,034	0,064
-202,606	-84,783	-0,080	0,018
-201,592	800,000	0,049	-0,131
-200,577	32,824	-0,086	-0,053
-199,563	-69,205	0,032	0,009
-198,548	-79,044	0,120	-0,029
-197,533	800,000	-0,026	-0,070
-196,519	338,392	0,029	-0,041
-195,504	44,448	-0,031	0,020
-194,490	800,000	-0,019	-0,054
-193,475	18,096	0,060	0,034
-192,460	327,520	-0,058	-0,081
-191,446	36,846	0,076	-0,049
-190,431	399,017	0,031	0,047
-189,417	-12,144	0,063	0,030
-188,402	-47,827	-0,141	0,049
-187,387	11,050	-0,076	-0,042
-186,373	800,000	-0,040	-0,097
-185,358	149,797	-0,025	0,024
-184,344	36,556	-0,039	0,025
-183,329	156,049	0,046	0,046
-182,315	157,131	0,087	0,087
-181,300	11,086	-0,095	0,052
-180,285	-200,000	-0,050	-0,161
-179,271	800,000	-0,027	0,077
-178,256	755,575	-0,064	-0,125
-177,242	-61,871	-0,004	-0,001
-176,227	11,413	0,141	0,078
-175,212	119,571	0,087	0,078
-174,198	-200,000	-0,025	-0,139
-173,183	526,814	0,091	0,156
-172,169	394,544	0,045	0,069
-171,154	41,146	-0,067	-0,044
-170,139	228,650	0,054	0,064
-169,125	355,758	0,026	-0,037
-168,110	-200,000	-0,017	0,070
-167,096	-92,528	-0,166	0,033
-166,081	-200,000	-0,007	0,111
-165,066	476,703	-0,026	0,043
-164,052	307,817	-0,054	0,072
-163,037	68,551	-0,063	0,047
-162,023	238,437	0,147	0,176
-161,008	-19,271	-0,064	0,028
-159,993	-200,000	0,055	0,227
-158,979	136,341	0,044	-0,041
-157,964	217,198	0,123	-0,142
-156,950	300,061	-0,060	-0,079
-155,935	-97,969	-0,059	0,011
-154,920	721,303	0,098	0,189
-153,906	31,806	0,127	0,079
-152,891	800,000	-0,066	-0,167
-151,877	257,932	0,033	-0,041
-150,862	800,000	0,031	-0,085
-149,847	86,999	-0,074	-0,059
-148,833	-35,662	0,210	-0,082
-147,818	-71,160	-0,123	-0,033
-146,804	40,842	0,026	-0,017
-145,789	800,000	0,022	0,064
-144,775	-200,000	-0,000	0,015
-143,760	-95,522	-0,079	0,015
-142,745	312,907	-0,065	-0,089
-141,731	39,296	-0,052	0,033
-140,716	800,000	-0,049	0,128
-139,702	199,876	-0,095	0,105
-138,687	80,575	-0,024	0,019
-137,672	340,901	-0,082	0,115
-136,658	800,000	-0,023	-0,051
-135,643	64,986	0,099	-0,072
-134,629	-103,839	0,155	0,026
-133,614	-200,000	-0,031	0,138
-132,599	264,000	-0,043	0,054
-131,585	-200,000	0,002	-0,029
-130,570	-200,000	-0,008	-0,031
-129,556	209,261	0,036	-0,040
-128,541	375,853	0,025	0,036
-127,526	101,969	0,213	0,179
-126,512	-91,106	0,062	-0,013
-125,497	168,847	0,070	0,072
-124,483	-200,000	-0,021	0,165
-123,468	129,954	0,083	0,076
-122,453	112,035	-0,132	-0,115
-121,439	-88,957	0,122	-0,026
-120,424	789,238	-0,042	-0,084
-119,410	51,594	0,091	-0,062
-118,395	800,000	-0,033	-0,092
-117,380	287,300	0,029	0,038
