DTS Sentinel unit serial number:	SN410029Multiplexer serial number:	ORYXHardware model number:	OX2-SRSoftware version number:	ORYX F/W v4,00 Oryx Data Collector v3.7.2.0data status	okinstallation	B5 Nyhavnadifferential loss correction	single-endedforward channel	channel 2reverse channel	N/Adate	2023/12/13time	16:52:14forward acquisition time	300,00reverse acquisition time	0,00gamma	499,1914k internal	0,3159k external	0,3159temperature offset calibration	1,0000default loss term (dB/km)	0,3820temperature slope calibration	1,0000multiplexer offset coefficient	1,0000multiplexer slope coefficient	1,0000fibre end	0,00T internal ref (°C)	14,42T ext. ref 1 (°C)	-2,79T ext. ref 2 (°C)	-2,86length (m)	temperature (°C)	Stokes	anti-Stokes-744,400	-28,451	0,104	-0,044
-743,385	-132,270	-0,352	-0,033
-742,371	647,949	0,057	0,107
-741,356	-144,567	-0,404	0,027
-740,342	78,654	0,309	0,244
-739,327	-4,676	-0,138	-0,070
-738,312	800,000	-0,025	-0,064
-737,298	-60,998	-0,316	-0,098
-736,283	-29,341	0,230	0,096
-735,269	-59,872	-0,299	0,094
-734,254	-144,826	0,071	-0,005
-733,239	-43,924	-0,317	-0,117
-732,225	10,472	0,245	-0,137
-731,210	-61,963	-0,105	-0,032
-730,196	-142,897	-0,085	0,006
-729,181	-200,000	0,009	-0,073
-728,167	-200,000	-0,010	-0,074
-727,152	311,278	0,032	0,044
-726,137	97,178	-0,096	-0,081
-725,123	148,803	-0,105	-0,104
-724,108	-200,000	0,005	-0,075
-723,094	733,102	-0,089	-0,176
-722,079	56,607	0,020	0,014
-721,064	42,238	-0,054	-0,036
-720,050	74,643	0,117	-0,091
-719,035	359,726	0,071	0,105
-718,021	-109,539	-0,109	-0,017
-717,006	-184,134	-0,028	-0,000
-715,991	113,224	-0,170	-0,152
-714,977	-200,000	0,001	0,019
-713,962	-23,214	-0,002	0,001
-712,948	-200,000	-0,006	0,031
-711,933	-200,000	-0,014	-0,046
-710,918	-200,000	-0,004	0,123
-709,904	37,398	-0,053	-0,034
-708,889	800,000	0,055	0,115
-707,875	17,102	-0,164	-0,095
-706,860	11,552	0,071	-0,040
-705,845	-29,939	0,134	0,056
-704,831	72,674	0,055	-0,042
-703,816	800,000	-0,032	-0,066
-702,802	-109,742	-0,138	-0,021
-701,787	800,000	-0,006	0,019
-700,772	-200,000	-0,017	-0,073
-699,758	800,000	-0,033	-0,070
-698,743	-3,317	-0,045	0,023
-697,729	800,000	0,040	0,106
-696,714	-128,714	-0,108	0,011
-695,699	557,718	-0,015	-0,026
-694,685	-200,000	0,030	-0,162
-693,670	-55,734	-0,071	-0,023
-692,656	-200,000	-0,018	0,068
-691,641	-102,878	0,092	-0,016
-690,627	-46,464	-0,071	-0,025
-689,612	-200,000	-0,017	0,183
-688,597	116,800	-0,124	0,112
-687,583	-127,663	-0,145	-0,015
-686,568	-151,243	-0,070	0,004
-685,554	-79,377	0,089	-0,022
-684,539	-80,669	-0,049	-0,012
-683,524	-200,000	0,004	-0,085
-682,510	-77,814	0,185	0,047
-681,495	-99,228	-0,037	-0,007
-680,481	800,000	-0,024	-0,075
-679,466	587,968	-0,071	-0,129
-678,451	-72,036	-0,040	-0,011
-677,437	-44,465	0,099	-0,036
-676,422	-71,789	-0,089	-0,024
-675,408	-200,000	-0,006	0,027
-674,393	-136,385	-0,112	-0,009
-673,378	-200,000	-0,009	0,036
-672,364	-17,041	-0,041	-0,019
-671,349	11,542	-0,068	-0,038
-670,335	22,864	0,023	-0,014
-669,320	309,400	-0,016	-0,022
-668,305	9,353	-0,087	-0,048
-667,291	-140,155	-0,146	0,011
-666,276	-200,000	0,020	0,069
-665,262	158,198	-0,052	-0,053
-664,247	55,743	-0,020	-0,014
-663,232	172,849	0,083	-0,088
-662,218	279,897	0,057	0,075
-661,203	-200,000	-0,017	0,102
-660,189	-200,000	0,005	0,048
-659,174	131,893	-0,045	0,042
-658,159	-167,477	-0,233	-0,007
-657,145	51,866	0,111	-0,078
-656,130	-200,000	-0,007	0,050
-655,116	-5,745	0,076	0,038
-654,101	-200,000	-0,014	-0,161
-653,086	212,633	-0,062	-0,071
-652,072	-200,000	-0,020	-0,089
-651,057	62,566	-0,086	-0,063
-650,043	146,269	0,048	-0,047
-649,028	86,187	-0,046	0,037
-648,014	-92,552	-0,087	0,018
-646,999	-65,269	-0,103	0,030
-645,984	-51,932	-0,099	0,034
-644,970	64,732	-0,099	0,073
-643,955	85,850	-0,096	0,078
-642,941	-200,000	-0,013	-0,100
-641,926	234,443	-0,063	-0,076
-640,911	-200,000	0,028	0,183
-639,897	74,727	0,147	0,114
-638,882	-200,000	0,013	-0,059
-637,868	65,525	-0,048	0,036
-636,853	-200,000	0,003	-0,028
-635,838	800,000	0,042	-0,135
-634,824	800,000	0,023	-0,058
-633,809	362,887	0,013	-0,020
-632,795	542,036	-0,029	0,051
-631,780	-100,364	0,056	-0,010
-630,765	-19,440	-0,046	0,021
-629,751	596,025	0,038	0,069
-628,736	308,720	0,065	0,089
-627,722	564,725	0,011	-0,019
-626,707	800,000	-0,045	-0,125
-625,692	-200,000	-0,026	0,103
-624,678	-41,988	0,053	0,020
-623,663	-200,000	-0,004	-0,049
-622,649	114,727	-0,061	-0,054
-621,634	-200,000	0,016	-0,154
-620,619	182,022	0,051	0,055
-619,605	-200,000	0,014	-0,062
-618,590	22,662	0,032	0,019
-617,576	-102,432	-0,094	-0,016
-616,561	800,000	-0,031	0,081
-615,546	169,322	0,076	-0,080
-614,532	28,587	0,044	-0,027
-613,517	69,494	-0,076	-0,058
-612,503	-200,000	-0,007	-0,027
-611,488	101,934	0,079	-0,067
-610,474	693,307	-0,004	-0,008
-609,459	-200,000	-0,020	0,085
-608,444	416,637	-0,057	-0,090
-607,430	375,794	-0,102	-0,153
-606,415	-200,000	-0,031	-0,121
-605,401	256,424	0,060	0,075
-604,386	-200,000	0,020	-0,080
-603,371	25,911	0,055	0,033
-602,357	388,034	-0,038	0,058
-601,342	-200,000	0,006	0,063
-600,328	-200,000	0,027	-0,165
-599,313	-200,000	0,010	-0,078
-598,298	-98,473	-0,049	0,009
-597,284	-200,000	-0,008	0,042
-596,269	-173,746	0,053	-0,001
-595,255	-163,183	-0,041	-0,001
-594,240	-200,000	0,009	-0,037
-593,225	-63,297	-0,059	-0,018
-592,211	120,128	-0,053	-0,048
-591,196	201,742	-0,042	0,048
-590,182	800,000	0,046	-0,112
-589,167	-200,000	-0,030	0,125
-588,152	-83,734	-0,176	0,041
-587,138	-96,412	-0,086	-0,017
-586,123	614,464	-0,077	-0,143
-585,109	422,588	0,058	-0,092
-584,094	-29,305	-0,083	-0,035
-583,079	-160,609	-0,102	-0,004
-582,065	-200,000	0,046	0,193
-581,050	74,863	0,078	0,060
-580,036	18,335	-0,172	0,100
-579,021	-200,000	-0,039	-0,142
-578,006	-200,000	-0,050	-0,184
-576,992	69,575	-0,087	-0,065
-575,977	-43,803	-0,043	-0,016
-574,963	-200,000	-0,009	0,031
-573,948	-41,126	-0,080	0,030
-572,934	508,888	0,075	-0,129
-571,919	800,000	-0,039	-0,084
-570,904	-128,803	0,098	-0,010
-569,890	625,507	-0,041	0,077
-568,875	-147,655	-0,023	-0,001
-567,861	72,771	0,075	-0,057
-566,846	110,099	0,044	0,039
-565,831	-173,353	-0,077	-0,002
-564,817	32,841	-0,046	-0,029
-563,802	-17,767	-0,075	0,034
-562,788	49,335	0,006	0,004
-561,773	142,666	-0,113	-0,110
-560,758	-64,143	0,034	0,010
-559,744	-200,000	-0,031	0,155
-558,729	328,924	-0,034	0,048
-557,715	-57,667	-0,152	0,049
-556,700	800,000	-0,066	-0,151
-555,685	-163,847	-0,066	0,002
-554,671	-200,000	0,002	0,103
-553,656	-7,778	0,049	0,024
-552,642	93,879	-0,017	-0,014
-551,627	334,499	0,054	0,076
-550,612	68,374	-0,067	-0,050
-549,598	396,073	-0,061	0,093
-548,583	-200,000	0,011	-0,075
-547,569	-200,000	0,008	0,073
-546,554	-126,786	0,153	-0,016
-545,539	-200,000	-0,015	-0,102
-544,525	131,450	-0,054	0,051
-543,510	14,167	0,122	-0,069
-542,496	-143,983	-0,148	0,010
-541,481	377,137	-0,071	-0,107
-540,466	-28,407	0,056	0,024
-539,452	-200,000	0,000	0,069
-538,437	800,000	-0,053	0,149
-537,423	-140,222	0,091	0,007
-536,408	124,497	-0,052	-0,048
-535,393	350,840	0,050	0,073
-534,379	79,468	-0,052	0,041
-533,364	32,225	0,070	-0,044
-532,350	-3,119	0,066	-0,034
-531,335	-200,000	0,027	-0,103
-530,321	60,422	0,122	0,088
-529,306	-15,036	-0,031	0,014
-528,291	350,062	0,012	0,018
-527,277	-61,186	-0,169	-0,052
-526,262	-167,605	0,094	0,003
-525,248	-102,525	0,068	-0,012
-524,233	800,000	-0,069	0,155
-523,218	68,937	-0,004	0,003
-522,204	663,940	0,100	0,190
-521,189	210,582	-0,047	-0,054
-520,175	24,640	-0,070	-0,042
-519,160	45,440	0,118	-0,080
-518,145	-156,743	0,058	0,003
-517,131	66,608	0,076	-0,056
-516,116	237,512	-0,095	0,115
-515,102	13,716	-0,101	0,057
-514,087	-61,336	-0,091	0,028
-513,072	610,395	0,051	-0,093
-512,058	36,957	-0,153	-0,099
-511,043	-200,000	-0,030	-0,114
-510,029	-175,354	0,122	-0,002
-509,014	458,472	-0,052	0,085
-507,999	-200,000	-0,033	0,149
-506,985	-192,744	-0,141	-0,001
-505,970	168,407	0,066	-0,068
-504,956	556,567	0,071	-0,125
-503,941	-200,000	0,014	0,052
-502,926	353,405	0,050	-0,072
-501,912	644,446	0,058	0,109
-500,897	330,451	0,059	0,083
-499,883	619,809	0,028	0,051
-498,868	800,000	-0,054	-0,144
-497,853	-70,213	-0,041	0,011
-496,839	64,870	-0,041	-0,030
-495,824	800,000	-0,036	-0,083
-494,810	696,113	0,050	0,096
-493,795	-5,639	-0,042	0,021
-492,781	-200,000	0,013	-0,147
-491,766	545,048	0,041	-0,072
-490,751	-200,000	0,006	0,024
-489,737	409,695	0,076	-0,117
-488,722	630,373	-0,037	-0,068
-487,708	800,000	0,023	-0,072
-486,693	288,458	-0,047	-0,063
-485,678	-200,000	-0,019	-0,147
-484,664	74,860	-0,126	-0,097
-483,649	109,192	-0,018	-0,015
-482,635	-200,000	0,005	0,088
-481,620	82,553	0,086	0,068
-480,605	-67,468	-0,125	0,035
-479,591	409,051	0,029	-0,045
-478,576	611,724	0,070	0,129
-477,562	-91,092	0,070	-0,014
-476,547	79,155	-0,045	-0,035
-475,532	2,023	0,128	-0,067
-474,518	-200,000	0,007	0,084
-473,503	-200,000	-0,029	-0,101
-472,489	-200,000	-0,024	-0,108
-471,474	8,558	-0,066	-0,036
-470,459	170,667	-0,051	0,053
-469,445	-18,623	-0,161	0,073
-468,430	72,499	-0,037	0,028
-467,416	-200,000	0,005	-0,138
-466,401	-127,712	0,024	0,003
-465,386	480,132	0,140	-0,233
-464,372	-14,861	-0,057	0,027
-463,357	-87,730	-0,107	0,023
-462,343	-67,814	0,124	0,035
-461,328	42,368	-0,051	-0,033
-460,313	28,859	0,060	0,037
-459,299	44,396	-0,048	0,032
-458,284	-200,000	0,003	0,088
-457,270	-200,000	-0,017	-0,118
-456,255	-9,715	-0,080	-0,039
-455,241	24,781	-0,092	-0,055
-454,226	74,941	0,072	-0,055
-453,211	800,000	-0,028	-0,078
-452,197	-79,487	0,125	-0,031
-451,182	-200,000	-0,017	0,207
-450,168	-200,000	0,004	0,053
-449,153	-200,000	-0,002	0,019
-448,138	-179,645	-0,080	-0,001
-447,124	-200,000	0,032	0,182
-446,109	246,595	-0,004	-0,005
-445,095	-200,000	0,002	0,048
-444,080	356,964	0,055	0,079
-443,065	-77,973	0,129	-0,032
-442,051	-200,000	0,031	-0,120
-441,036	-102,732	-0,090	-0,015
-440,022	-200,000	-0,027	0,110
-439,007	-200,000	-0,016	-0,117
-437,992	-200,000	-0,009	0,120
-436,978	-65,281	0,040	-0,012
-435,963	420,740	0,055	0,086
-434,949	-200,000	0,022	0,170
-433,934	800,000	0,023	-0,053
-432,919	444,102	0,044	-0,070
-431,905	97,764	0,021	0,017
-430,890	453,951	0,096	0,155
-429,876	-5,712	0,132	-0,066
-428,861	800,000	-0,024	0,049
-427,846	-200,000	-0,002	0,098
-426,832	232,890	-0,032	-0,039
-425,817	800,000	0,021	-0,057
-424,803	142,481	-0,110	-0,107
-423,788	-200,000	-0,014	0,075
-422,773	-200,000	-0,003	0,070
-421,759	-200,000	0,030	0,162
-420,744	-44,237	0,084	-0,030
-419,730	434,710	-0,044	0,070
-418,715	-48,006	0,111	0,039
-417,701	-200,000	0,002	0,122
-416,686	133,723	0,101	0,095
-415,671	-200,000	-0,008	0,070
-414,657	-200,000	0,002	0,017
-413,642	638,976	-0,036	-0,067
-412,628	190,204	-0,137	-0,150
-411,613	73,679	-0,051	-0,039
-410,598	229,721	0,073	-0,087
-409,584	-85,197	0,091	-0,020
-408,569	39,518	-0,061	-0,040
-407,555	694,111	0,045	0,086
-406,540	800,000	-0,035	0,089
-405,525	-200,000	-0,025	-0,102
-404,511	-40,865	0,038	0,014
-403,496	145,743	0,046	0,045
-402,482	490,248	0,049	-0,083
-401,467	459,279	-0,040	-0,064
-400,452	314,834	0,035	0,049
-399,438	-200,000	-0,030	0,102
-398,423	405,045	0,065	-0,100
-397,409	-155,406	0,055	0,003
-396,394	289,764	-0,063	-0,083
-395,379	138,189	-0,060	0,057
-394,365	-157,777	0,120	-0,005
-393,350	-135,143	0,131	-0,011
-392,336	-70,665	-0,051	0,014
-391,321	12,638	0,037	-0,021
-390,306	189,389	-0,018	-0,020
-389,292	259,028	-0,034	-0,043
-388,277	800,000	0,011	-0,036
-387,263	-95,060	0,074	-0,014
-386,248	-179,009	0,041	-0,001
-385,233	-143,954	0,144	0,010
-384,219	800,000	0,055	-0,133
-383,204	-93,983	0,105	-0,021
-382,190	100,638	-0,140	-0,118
-381,175	-41,951	0,020	0,007
-380,160	99,999	0,061	0,051
-379,146	-69,758	0,045	-0,012
-378,131	-200,000	-0,022	0,118
-377,117	217,564	0,072	-0,083
-376,102	406,697	0,045	-0,069
-375,088	-200,000	-0,005	0,044
-374,073	-200,000	-0,001	-0,088
-373,058	42,274	-0,124	-0,081
-372,044	-80,430	0,176	0,042
-371,029	-5,307	0,083	0,041
-370,015	-66,587	-0,120	-0,034
-369,000	230,490	-0,043	-0,052
-367,985	-200,000	-0,013	-0,051
-366,971	-85,607	0,124	-0,028
-365,956	16,426	0,038	0,022
-364,942	166,513	-0,030	0,031
-363,927	-200,000	0,007	0,029
-362,912	76,312	0,045	0,035
-361,898	-200,000	0,014	-0,078
-360,883	-18,828	-0,120	-0,054
-359,869	-200,000	0,003	0,084
-358,854	-6,407	0,081	0,040
-357,839	456,752	0,016	-0,026
-356,825	-76,252	0,075	0,019
-355,810	-102,084	0,026	-0,005
-354,796	800,000	0,017	-0,035
-353,781	78,266	-0,068	0,053
-352,766	-200,000	-0,006	-0,058
-351,752	265,488	0,065	-0,082
-350,737	-120,009	-0,105	-0,013
-349,723	78,878	0,054	0,042
-348,708	-200,000	0,010	-0,052
-347,693	424,526	-0,023	-0,035
-346,679	335,346	-0,041	-0,058
-345,664	-200,000	0,012	-0,182
-344,650	-47,026	0,064	0,022
-343,635	-200,000	0,003	0,028
-342,620	-34,636	0,068	0,027
-341,606	-76,314	0,121	0,031
-340,591	10,174	0,080	-0,044
-339,577	-48,979	-0,140	-0,048
-338,562	318,606	-0,027	-0,037
-337,548	-200,000	0,022	0,079
-336,533	58,163	0,173	0,123
-335,518	-147,846	0,038	0,002
-334,504	12,267	0,028	0,016
-333,489	-200,000	0,018	0,073
-332,475	-84,900	-0,041	0,009
-331,460	-3,836	0,064	-0,032
-330,445	460,509	0,043	-0,069
-329,431	13,214	-0,039	-0,022
-328,416	-200,000	0,018	0,110
-327,402	156,507	0,039	0,039
-326,387	800,000	-0,037	0,119
-325,372	-200,000	-0,007	-0,070
-324,358	192,796	0,044	-0,048
-323,343	85,198	0,022	-0,018
-322,329	-200,000	0,013	0,069
-321,314	0,574	0,076	0,039
-320,299	-93,871	-0,014	0,003
-319,285	800,000	-0,023	0,073
-318,270	800,000	0,043	-0,121
-317,256	-44,501	0,106	-0,038
-316,241	800,000	-0,040	0,103
-315,226	276,534	-0,051	0,066
-314,212	27,254	0,066	0,040
-313,197	-30,733	0,050	0,021
-312,183	-16,923	-0,101	0,046
-311,168	-200,000	0,007	0,128
-310,153	-200,000	0,020	-0,197
-309,139	-200,000	-0,027	0,086
-308,124	37,395	-0,081	-0,052
-307,110	-118,052	0,138	0,018
-306,095	241,579	-0,081	0,098
-305,080	147,986	0,021	0,021
-304,066	800,000	0,011	-0,023
-303,051	145,127	-0,031	-0,030
-302,037	462,008	-0,046	-0,075
-301,022	2,324	0,051	-0,027
-300,008	-200,000	-0,001	0,087
-298,993	-117,251	0,081	-0,011
-297,978	800,000	0,084	0,168
-296,964	-38,453	-0,045	0,017
-295,949	-200,000	-0,014	-0,064
-294,935	134,474	-0,062	-0,058
-293,920	647,814	-0,040	-0,074
-292,905	255,306	-0,054	0,067
-291,891	-122,422	0,072	-0,008
-290,876	-200,000	0,041	0,236
-289,862	-131,924	-0,069	-0,006
-288,847	-113,773	0,033	-0,005
-287,832	687,679	0,063	-0,120
-286,818	178,158	-0,070	0,074
-285,803	-200,000	-0,060	0,209
-284,789	408,834	-0,055	0,085
-283,774	-96,811	0,098	-0,019
-282,759	291,185	-0,107	0,141
-281,745	800,000	-0,012	0,030
-280,730	-200,000	0,002	-0,093
-279,716	-102,986	-0,037	-0,006
-278,701	22,200	0,072	-0,043
-277,686	174,021	0,120	0,125
-276,672	-200,000	0,009	-0,059
-275,657	365,096	-0,014	-0,021
-274,643	-66,355	-0,067	0,019
-273,628	-200,000	-0,029	0,096
-272,613	-200,000	-0,007	0,100
-271,599	-56,209	0,063	-0,020
-270,584	81,397	-0,027	0,021
-269,570	-200,000	-0,001	0,019
-268,555	-200,000	0,006	-0,042
-267,540	-200,000	0,013	-0,075
-266,526	4,717	-0,106	-0,056
-265,511	30,033	-0,071	0,044
-264,497	48,463	0,071	0,048
-263,482	-200,000	0,052	0,166
-262,467	800,000	0,021	0,054
-261,453	-79,014	0,100	0,024
-260,438	-7,450	-0,127	-0,062
-259,424	-200,000	-0,036	-0,202
-258,409	-37,970	-0,051	-0,020
-257,395	184,526	0,042	0,045
-256,380	-200,000	-0,026	0,123
-255,365	800,000	-0,008	0,024
-254,351	122,138	0,062	-0,056
-253,336	-200,000	0,001	-0,053
-252,322	-200,000	-0,023	-0,203
-251,307	18,401	0,068	0,039
-250,292	-28,265	-0,152	0,063
-249,278	-200,000	0,014	0,210
-248,263	-200,000	-0,012	0,060
-247,249	119,889	0,066	-0,059
-246,234	-200,000	-0,019	-0,065
-245,219	45,075	0,049	-0,033
-244,205	-26,653	-0,045	-0,019
-243,190	323,672	-0,078	0,107
-242,176	422,796	-0,050	-0,077
-241,161	195,812	-0,050	-0,055
-240,146	2,270	-0,142	0,074
-239,132	22,418	-0,024	-0,014
-238,117	-67,111	-0,069	0,019
-237,103	-200,000	-0,008	-0,155
-236,088	-200,000	-0,007	-0,035
-235,073	202,906	0,061	-0,068
-234,059	-197,582	0,047	0,000
-233,044	262,963	-0,101	0,127
-232,030	-200,000	-0,016	0,089
-231,015	-147,789	-0,132	0,008
-230,000	216,554	-0,046	0,053
-228,986	-200,000	0,033	-0,106
-227,971	800,000	0,014	0,039
-226,957	-80,187	0,040	0,010
-225,942	800,000	0,052	0,105
-224,927	442,765	-0,055	-0,087
-223,913	-41,961	-0,200	0,074
-222,898	291,347	-0,010	-0,013
-221,884	54,539	-0,096	-0,067
-220,869	396,157	0,074	-0,112
-219,855	437,275	-0,051	0,081
-218,840	746,717	-0,048	0,095
-217,825	-14,182	0,131	0,061
-216,811	-107,020	-0,056	0,009
-215,796	-48,609	0,105	0,036
-214,782	800,000	-0,061	-0,128
-213,767	117,176	0,106	0,094
-212,752	-176,254	-0,021	0,000
-211,738	-200,000	-0,023	-0,088
-210,723	-200,000	0,039	0,192
-209,709	409,094	-0,042	-0,064
-208,694	472,459	-0,030	-0,050
-207,679	800,000	-0,060	-0,129
-206,665	253,199	0,022	-0,028
-205,650	351,897	0,078	0,112
-204,636	34,217	-0,071	-0,045
-203,621	-200,000	0,003	0,074
-202,606	648,989	0,049	-0,091
-201,592	-200,000	-0,002	-0,045
-200,577	800,000	-0,007	-0,015
-199,563	800,000	0,056	0,156
-198,548	800,000	-0,078	-0,167
-197,533	125,856	0,113	0,103
-196,519	-116,554	-0,203	0,027
-195,504	171,043	-0,123	-0,128
-194,490	-200,000	-0,009	-0,098
-193,475	-200,000	0,002	0,016
-192,460	800,000	-0,016	-0,036
-191,446	-65,454	0,158	-0,045
-190,431	-111,558	0,018	0,003
-189,417	-200,000	-0,009	0,100
-188,402	347,541	-0,051	0,073
-187,387	800,000	0,084	-0,223
-186,373	-145,427	0,090	-0,006
-185,358	-82,026	0,062	-0,015
-184,344	-200,000	0,009	0,057
-183,329	80,689	0,038	0,030
-182,315	-105,110	0,172	-0,028
-181,300	-200,000	-0,011	0,116
-180,285	-65,000	-0,080	0,023
-179,271	267,891	0,040	-0,050
-178,256	469,544	-0,034	0,055
-177,242	800,000	0,026	0,075
-176,227	-46,660	0,087	0,031
-175,212	19,625	-0,144	0,083
-174,198	-32,780	0,088	-0,035
-173,183	-200,000	-0,001	-0,051
-172,169	800,000	0,017	0,040
-171,154	185,484	0,080	-0,086
-170,139	-200,000	-0,011	0,145
-169,125	-36,920	-0,080	0,031
-168,110	-71,047	0,165	0,044
-167,096	-200,000	0,024	-0,077
-166,081	-23,577	0,029	0,012
-165,066	-200,000	0,002	0,019
-164,052	443,573	0,029	0,045
-163,037	116,568	-0,043	0,038
-162,023	289,711	0,085	0,112
-161,008	-86,030	0,079	0,017
-159,993	-200,000	0,015	0,094
-158,979	732,323	0,024	-0,047
-157,964	800,000	-0,053	-0,154
-156,950	21,708	0,117	-0,069
-155,935	-80,227	0,022	0,005
-154,920	403,637	-0,083	0,127
-153,906	-200,000	0,015	0,060
-152,891	-200,000	-0,045	-0,163
-151,877	256,938	0,078	-0,097
-150,862	800,000	-0,031	-0,063
-149,847	55,564	0,032	0,022
-148,833	-200,000	-0,010	-0,094
-147,818	-200,000	-0,002	-0,031
-146,804	102,555	0,084	0,071
-145,789	35,429	-0,031	0,020
-144,775	109,804	-0,110	-0,095
-143,760	-23,778	-0,116	0,050
-142,745	104,123	0,087	0,073
-141,731	26,724	-0,062	-0,037
-140,716	-200,000	-0,009	0,088
-139,702	-200,000	0,036	0,131
-138,687	-200,000	0,036	0,146
-137,672	172,056	0,071	-0,074
-136,658	696,127	-0,043	-0,082
-135,643	280,598	0,059	-0,076
-134,629	-200,000	-0,027	0,142
-133,614	-200,000	-0,004	0,193
-132,599	800,000	0,033	0,080
-131,585	-101,365	-0,056	0,010
-130,570	269,992	-0,063	-0,080
-129,556	-200,000	0,030	0,099
-128,541	-200,000	0,005	0,062
-127,526	178,627	0,115	0,121
-126,512	110,121	0,052	-0,045
-125,497	-34,307	0,186	-0,073
-124,483	224,320	0,010	0,011
-123,468	-119,454	0,059	0,007
-122,453	101,802	-0,069	0,058
-121,439	-91,938	-0,088	-0,018
-120,424	119,107	-0,027	0,024
