DTS Sentinel unit serial number:	SN410029Multiplexer serial number:	ORYXHardware model number:	OX2-SRSoftware version number:	ORYX F/W v4,00 Oryx Data Collector v3.7.2.0data status	okinstallation	B5 Nyhavnadifferential loss correction	single-endedforward channel	channel 2reverse channel	N/Adate	2023/12/14time	02:42:13forward acquisition time	300,00reverse acquisition time	0,00gamma	499,1914k internal	0,3154k external	0,3154temperature offset calibration	1,0000default loss term (dB/km)	0,3820temperature slope calibration	1,0000multiplexer offset coefficient	1,0000multiplexer slope coefficient	1,0000fibre end	0,00T internal ref (°C)	8,44T ext. ref 1 (°C)	-7,90T ext. ref 2 (°C)	-7,95length (m)	temperature (°C)	Stokes	anti-Stokes-744,400	-180,841	0,079	0,001
-743,385	-12,737	-0,324	-0,155
-742,371	-40,994	0,187	-0,071
-741,356	-26,921	-0,377	-0,162
-740,342	33,027	0,186	0,119
-739,327	34,433	-0,263	-0,169
-738,312	-121,550	0,202	0,024
-737,298	-67,821	-0,364	-0,104
-736,283	38,588	-0,027	0,017
-735,269	64,270	-0,283	-0,210
-734,254	-102,356	0,135	-0,024
-733,239	-109,149	-0,549	-0,085
-732,225	61,890	0,180	0,132
-731,210	-160,918	-0,075	-0,003
-730,196	800,000	-0,035	-0,084
-729,181	124,859	0,097	-0,091
-728,167	-200,000	0,003	-0,110
-727,152	-72,777	0,049	-0,013
-726,137	-26,055	-0,210	-0,091
-725,123	-58,551	-0,209	0,067
-724,108	-157,961	-0,140	-0,006
-723,094	-53,610	-0,075	-0,025
-722,079	17,760	-0,040	-0,023
-721,064	249,553	0,056	-0,071
-720,050	176,675	-0,089	0,096
-719,035	92,801	-0,083	-0,069
-718,021	98,292	-0,125	-0,106
-717,006	417,643	-0,077	-0,121
-715,991	75,345	-0,175	-0,136
-714,977	800,000	0,046	-0,109
-713,962	800,000	0,029	0,071
-712,948	800,000	-0,051	0,129
-711,933	800,000	-0,013	-0,028
-710,918	34,396	-0,110	0,071
-709,904	181,177	0,041	0,044
-708,889	-63,129	0,084	0,025
-707,875	120,425	0,066	-0,060
-706,860	-32,910	0,022	-0,009
-705,845	-56,189	-0,035	-0,011
-704,831	-145,614	0,096	0,006
-703,816	31,878	-0,056	0,036
-702,802	800,000	0,039	-0,127
-701,787	-200,000	-0,035	-0,151
-700,772	434,506	-0,058	-0,093
-699,758	66,399	0,103	-0,077
-698,743	800,000	0,044	-0,121
-697,729	800,000	-0,033	-0,089
-696,714	-34,170	-0,144	0,058
-695,699	-146,531	0,083	-0,005
-694,685	229,543	-0,073	-0,088
-693,670	499,030	-0,051	-0,086
-692,656	-200,000	-0,011	-0,069
-691,641	93,982	-0,096	0,080
-690,627	-89,478	-0,045	-0,010
-689,612	296,362	-0,065	0,088
-688,597	-200,000	0,016	-0,077
-687,583	-35,420	-0,167	-0,066
-686,568	800,000	0,059	-0,129
-685,554	-27,217	-0,085	-0,036
-684,539	-72,336	-0,061	0,016
-683,524	161,467	-0,040	0,042
-682,510	800,000	0,058	0,160
-681,495	49,658	-0,033	0,023
-680,481	-30,325	-0,145	-0,060
-679,466	800,000	0,058	-0,181
-678,451	-29,734	0,059	-0,025
-677,437	668,762	0,025	-0,049
-676,422	800,000	0,016	-0,046
-675,408	252,908	-0,118	0,149
-674,393	100,749	-0,036	-0,031
-673,378	432,545	-0,064	-0,102
-672,364	-144,454	0,031	-0,002
-671,349	-200,000	-0,014	0,105
-670,335	-36,729	-0,140	-0,055
-669,320	-125,922	0,058	-0,006
-668,305	-50,523	-0,123	0,042
-667,291	-200,000	-0,000	0,084
-666,276	106,657	-0,085	-0,074
-665,262	-168,519	-0,081	0,002
-664,247	-200,000	-0,016	-0,147
-663,232	567,026	-0,054	0,096
-662,218	86,676	0,015	-0,012
-661,203	800,000	0,021	0,060
-660,189	-200,000	0,017	-0,120
-659,174	179,495	-0,068	-0,073
-658,159	-200,000	-0,011	-0,129
-657,145	222,307	-0,069	0,082
-656,130	800,000	0,056	-0,121
-655,116	-192,848	-0,028	0,000
-654,101	137,002	-0,076	0,073
-653,086	-200,000	0,015	-0,057
-652,072	4,030	-0,089	0,048
-651,057	-200,000	0,048	-0,171
-650,043	349,482	0,027	-0,040
-649,028	194,338	0,079	0,088
-648,014	-109,959	-0,198	0,030
-646,999	60,206	0,059	0,043
-645,984	56,294	-0,104	0,074
-644,970	-200,000	-0,012	0,077
-643,955	-200,000	0,035	0,136
-642,941	-25,124	-0,140	-0,061
-641,926	60,106	-0,050	0,036
-640,911	-56,560	-0,095	0,031
-639,897	-103,969	0,037	-0,006
-638,882	-80,843	0,041	0,010
-637,868	-37,676	-0,079	0,031
-636,853	346,188	0,080	-0,116
-635,838	-52,372	-0,059	0,020
-634,824	-49,731	-0,061	-0,021
-633,809	0,236	-0,106	0,056
-632,795	-145,342	0,073	-0,005
-631,780	481,613	-0,098	0,165
-630,765	-200,000	0,039	-0,184
-629,751	11,009	-0,087	-0,049
-628,736	590,003	-0,059	-0,107
-627,722	-200,000	-0,041	-0,147
-626,707	614,518	0,023	-0,043
-625,692	184,817	-0,045	-0,049
-624,678	-200,000	-0,002	0,094
-623,663	395,464	0,057	0,087
-622,649	-200,000	-0,011	-0,190
-621,634	800,000	0,014	0,035
-620,619	800,000	0,044	-0,141
-619,605	472,024	-0,045	-0,074
-618,590	6,288	-0,063	0,034
-617,576	89,608	0,100	0,081
-616,561	-75,373	-0,061	-0,016
-615,546	800,000	-0,006	-0,014
-614,532	400,618	-0,049	-0,076
-613,517	41,435	0,127	0,084
-612,503	304,409	0,070	-0,096
-611,488	-79,552	0,113	-0,028
-610,474	-189,266	-0,094	-0,001
-609,459	56,613	0,016	0,012
-608,444	47,772	-0,034	0,024
-607,430	-200,000	-0,004	-0,018
-606,415	295,512	0,012	-0,016
-605,401	-200,000	-0,010	0,065
-604,386	346,173	-0,029	0,042
-603,371	-156,557	0,030	0,001
-602,357	184,037	-0,076	0,083
-601,342	-49,349	-0,019	0,007
-600,328	150,304	-0,062	-0,062
-599,313	52,094	0,068	0,048
-598,298	800,000	-0,067	-0,160
-597,284	26,941	0,081	-0,050
-596,269	800,000	0,019	-0,047
-595,255	-119,490	-0,205	-0,026
-594,240	-200,000	0,001	0,018
-593,225	-200,000	-0,011	-0,137
-592,211	616,698	0,064	-0,119
-591,196	26,069	-0,137	-0,083
-590,182	-200,000	0,019	0,106
-589,167	-200,000	0,015	0,083
-588,152	-200,000	0,005	-0,023
-587,138	-7,107	0,074	-0,037
-586,123	-94,370	-0,036	-0,007
-585,109	27,975	-0,039	0,024
-584,094	-200,000	-0,026	0,121
-583,079	800,000	-0,037	0,086
-582,065	-200,000	0,018	0,073
-581,050	-28,221	-0,025	-0,010
-580,036	-25,582	-0,033	0,014
-579,021	21,978	-0,080	-0,047
-578,006	68,088	0,123	-0,092
-576,992	-153,735	0,080	0,004
-575,977	-200,000	-0,012	-0,087
-574,963	800,000	0,034	0,089
-573,948	-200,000	-0,013	0,073
-572,934	498,361	-0,051	0,086
-571,919	-153,676	0,060	0,003
-570,904	-43,775	0,062	0,023
-569,890	243,004	-0,047	-0,058
-568,875	349,936	-0,020	-0,030
-567,861	-133,439	0,225	0,020
-566,846	-39,636	-0,103	-0,039
-565,831	-200,000	0,027	0,159
-564,817	-200,000	-0,022	0,102
-563,802	800,000	-0,073	-0,182
-562,788	-93,767	0,054	0,011
-561,773	-76,174	0,068	0,018
-560,758	-3,236	0,093	-0,047
-559,744	756,195	-0,035	0,070
-558,729	-200,000	0,027	-0,104
-557,715	295,022	0,068	-0,091
-556,700	216,370	-0,047	-0,054
-555,685	-58,401	-0,175	-0,055
-554,671	-200,000	-0,004	-0,095
-553,656	-200,000	0,027	0,149
-552,642	371,454	0,037	-0,055
-551,627	-15,604	0,047	-0,022
-550,612	-200,000	0,004	0,151
-549,598	-162,691	-0,100	0,004
-548,583	182,370	-0,057	0,062
-547,569	112,905	-0,083	-0,074
-546,554	-200,000	-0,008	0,094
-545,539	-200,000	-0,001	0,093
-544,525	48,076	0,181	0,124
-543,510	31,756	-0,055	-0,034
-542,496	-173,565	0,078	0,002
-541,481	-47,678	0,091	-0,032
-540,466	-88,694	-0,095	0,021
-539,452	-15,702	0,009	0,004
-538,437	-20,260	-0,132	-0,059
-537,423	-22,535	-0,047	0,021
-536,408	-72,767	0,072	-0,019
-535,393	454,011	-0,035	-0,057
-534,379	-95,703	-0,041	-0,008
-533,364	-107,458	0,136	0,022
-532,350	35,403	0,087	0,056
-531,335	-50,489	0,036	-0,012
-530,321	-98,368	-0,039	0,007
-529,306	-124,658	0,065	-0,007
-528,291	49,455	0,049	-0,034
-527,277	-200,000	-0,000	-0,108
-526,262	664,368	0,055	-0,104
-525,248	800,000	-0,012	-0,033
-524,233	-200,000	-0,002	0,037
-523,218	800,000	-0,060	0,123
-522,204	-72,321	0,059	-0,016
-521,189	630,732	-0,042	-0,079
-520,175	800,000	0,037	-0,104
-519,160	379,616	-0,046	0,069
-518,145	-200,000	0,001	0,022
-517,131	508,681	0,046	0,078
-516,116	-107,281	-0,098	0,016
-515,102	709,513	-0,049	-0,096
-514,087	-68,783	-0,084	-0,024
-513,072	43,519	0,091	0,061
-512,058	-110,348	0,101	-0,015
-511,043	-200,000	-0,009	-0,097
-510,029	-100,536	0,056	0,010
-509,014	-200,000	-0,015	0,055
-507,999	-102,955	-0,169	-0,029
-506,985	800,000	0,017	0,049
-505,970	46,527	0,009	-0,006
-504,956	113,556	-0,073	-0,065
-503,941	-200,000	-0,015	0,100
-502,926	-200,000	0,003	-0,039
-501,912	-200,000	0,050	0,197
-500,897	23,450	0,083	-0,050
-499,883	-195,659	-0,054	0,000
-498,868	-67,293	-0,115	-0,033
-497,853	-200,000	-0,001	0,019
-496,839	395,483	0,116	0,177
-495,824	-143,841	0,152	-0,010
-494,810	-200,000	-0,040	0,191
-493,795	-200,000	-0,076	0,000
-492,781	62,734	-0,049	-0,036
-491,766	-103,681	-0,065	0,011
-490,751	-94,414	0,029	-0,006
-489,737	-105,800	0,072	0,012
-488,722	-200,000	-0,022	-0,111
-487,708	800,000	0,085	-0,173
-486,693	199,267	-0,041	0,045
-485,678	-166,207	-0,084	-0,003
-484,664	-200,000	-0,030	-0,130
-483,649	-200,000	-0,003	0,028
-482,635	-200,000	-0,013	0,056
-481,620	345,105	0,054	0,078
-480,605	18,479	-0,088	0,051
-479,591	-7,005	0,023	-0,012
-478,576	-200,000	0,017	0,103
-477,562	-145,671	0,045	0,003
-476,547	22,162	-0,129	0,077
-475,532	-47,147	-0,081	0,029
-474,518	-54,098	-0,093	0,031
-473,503	491,339	-0,011	0,018
-472,489	348,833	0,036	-0,052
-471,474	44,227	-0,040	0,027
-470,459	-32,101	0,039	0,016
-469,445	32,632	0,127	0,080
-468,430	800,000	-0,061	-0,164
-467,416	88,399	0,077	0,063
-466,401	-128,191	0,128	-0,013
-465,386	40,741	0,077	-0,050
-464,372	197,277	0,048	-0,054
-463,357	80,507	-0,057	0,045
-462,343	63,124	-0,130	0,095
-461,328	525,521	0,057	-0,098
-460,313	800,000	0,037	0,080
-459,299	800,000	-0,054	0,151
-458,284	800,000	-0,029	-0,072
-457,270	-200,000	0,012	0,092
-456,255	-200,000	-0,021	-0,121
-455,241	519,167	0,015	-0,026
-454,226	-200,000	-0,025	-0,110
-453,211	393,082	0,068	0,104
-452,197	-111,278	0,063	0,009
-451,182	-200,000	-0,003	0,023
-450,168	-93,192	0,056	-0,011
-449,153	-53,644	-0,093	0,031
-448,138	143,611	-0,027	-0,026
-447,124	-125,490	0,106	-0,012
-446,109	-200,000	-0,044	0,154
-445,095	36,525	-0,063	0,041
-444,080	220,007	-0,078	0,091
-443,065	773,417	0,028	-0,056
-442,051	-200,000	-0,006	0,075
-441,036	-200,000	-0,024	-0,092
-440,022	-126,717	0,039	-0,004
-439,007	800,000	-0,026	-0,076
-437,992	-174,339	0,072	0,001
-436,978	-200,000	-0,016	0,055
-435,963	-200,000	0,003	0,036
-434,949	-200,000	-0,018	-0,132
-433,934	168,379	-0,009	-0,009
-432,919	291,064	-0,015	0,020
-431,905	-110,731	0,045	0,007
-430,890	800,000	0,036	-0,104
-429,876	-129,631	0,075	-0,007
-428,861	-200,000	0,018	0,157
-427,846	-130,164	0,048	-0,005
-426,832	72,340	-0,078	0,059
-425,817	-200,000	0,016	-0,148
-424,803	800,000	-0,067	-0,154
-423,788	438,723	-0,059	0,094
-422,773	5,840	0,076	0,041
-421,759	236,591	-0,029	0,035
-420,744	-194,580	0,105	-0,001
-419,730	-62,460	-0,135	0,041
-418,715	-38,166	-0,114	-0,044
-417,701	-118,018	-0,041	-0,005
-416,686	193,436	-0,084	-0,093
-415,671	18,977	0,127	-0,074
-414,657	-37,720	-0,111	-0,043
-413,642	-97,319	0,110	0,021
-412,628	-200,000	0,005	0,035
-411,613	712,437	-0,013	0,026
-410,598	-122,531	0,075	-0,009
-409,584	402,610	-0,034	0,052
-408,569	-129,208	0,079	-0,008
-407,555	195,343	0,050	0,055
-406,540	-120,189	0,217	-0,027
-405,525	-200,000	0,000	-0,037
-404,511	-200,000	0,004	-0,119
-403,496	-103,569	-0,045	-0,008
-402,482	586,620	0,085	-0,152
-401,467	8,142	-0,007	-0,004
-400,452	-156,105	0,073	0,003
-399,438	226,051	0,085	0,101
-398,423	463,201	0,020	-0,033
-397,409	800,000	0,006	0,018
-396,394	271,100	0,033	-0,043
-395,379	800,000	0,042	0,100
-394,365	88,655	0,037	0,030
-393,350	-200,000	0,014	0,052
-392,336	191,467	-0,039	-0,042
-391,321	-68,156	0,119	-0,033
-390,306	-125,499	-0,091	0,010
-389,292	-33,968	0,115	-0,046
-388,277	562,972	0,073	-0,129
-387,263	-45,247	0,164	-0,059
-386,248	200,133	0,048	0,054
-385,233	18,911	0,058	0,034
-384,219	-200,000	-0,004	-0,147
-383,204	162,775	-0,069	-0,070
-382,190	192,340	0,065	-0,072
-381,175	75,059	-0,050	-0,038
-380,160	-49,628	0,085	-0,029
-379,146	-200,000	0,006	0,083
-378,131	459,432	0,075	-0,122
-377,117	173,592	0,056	-0,059
-376,102	-38,824	-0,034	-0,013
-375,088	-200,000	-0,006	-0,062
-374,073	25,128	0,080	-0,048
-373,058	-7,683	0,134	-0,066
-372,044	116,557	-0,022	-0,020
-371,029	91,025	0,084	0,068
-370,015	89,967	0,035	-0,028
-369,000	771,741	-0,012	-0,024
-367,985	22,616	0,056	-0,033
-366,971	-4,421	-0,129	-0,065
-365,956	-200,000	-0,006	-0,052
-364,942	800,000	0,006	0,015
-363,927	-129,486	-0,023	-0,002
-362,912	441,414	0,113	-0,180
-361,898	-26,596	-0,128	0,054
-360,883	15,716	-0,028	-0,016
-359,869	800,000	0,037	-0,083
-358,854	153,501	0,015	-0,015
-357,839	-200,000	0,001	0,042
-356,825	-200,000	-0,031	-0,112
-355,810	103,915	0,061	-0,052
-354,796	800,000	-0,037	-0,099
-353,781	-200,000	0,004	-0,145
-352,766	198,536	0,071	-0,079
-351,752	-53,553	-0,075	0,025
-350,737	-14,010	0,125	0,059
-349,723	-8,853	0,138	-0,067
-348,708	397,671	-0,025	-0,038
-347,693	283,248	0,007	-0,010
-346,679	297,512	-0,012	0,016
-345,664	-200,000	-0,021	0,114
-344,650	427,318	0,026	-0,041
-343,635	75,692	-0,203	0,156
-342,620	-113,159	0,052	0,007
-341,606	61,371	0,163	0,117
-340,591	131,274	-0,120	-0,112
-339,577	-200,000	-0,012	-0,113
-338,562	128,007	0,076	0,070
-337,548	155,988	-0,090	-0,090
-336,533	-50,969	0,013	-0,004
-335,518	-81,454	0,063	-0,015
-334,504	800,000	0,060	0,127
-333,489	-200,000	0,009	-0,049
-332,475	479,128	0,034	0,056
-331,460	-68,231	-0,232	-0,065
-330,445	89,521	0,091	-0,074
-329,431	-200,000	-0,009	-0,158
-328,416	-200,000	0,003	-0,141
-327,402	-200,000	-0,005	0,071
-326,387	-95,041	0,132	-0,026
-325,372	-200,000	0,018	-0,101
-324,358	367,236	-0,029	0,043
-323,343	-60,364	-0,030	-0,009
-322,329	800,000	-0,009	0,027
-321,314	800,000	0,026	0,058
-320,299	800,000	-0,080	0,171
-319,285	-27,373	0,033	0,014
-318,270	-200,000	0,000	0,062
-317,256	-167,320	-0,100	-0,003
-316,241	55,351	-0,069	-0,048
-315,226	-77,870	0,102	0,025
-314,212	737,730	0,056	0,110
-313,197	282,017	-0,032	-0,042
-312,183	800,000	0,041	0,087
-311,168	197,770	0,061	-0,068
-310,153	50,125	-0,110	-0,075
-309,139	220,365	0,022	-0,026
-308,124	800,000	-0,023	-0,052
-307,110	649,974	-0,084	0,157
-306,095	-200,000	0,023	0,232
-305,080	-200,000	0,007	-0,168
-304,066	800,000	-0,058	0,144
-303,051	77,927	-0,077	-0,060
-302,037	375,028	0,062	-0,092
-301,022	-166,124	-0,034	0,001
-300,008	-200,000	-0,020	0,170
-298,993	-200,000	0,012	0,076
-297,978	198,398	0,063	-0,070
-296,964	153,012	-0,116	0,115
-295,949	-23,436	-0,077	-0,033
-294,935	329,298	-0,030	0,042
-293,920	-200,000	0,119	0,000
-292,905	-186,832	0,072	0,001
-291,891	183,766	-0,070	0,075
-290,876	800,000	0,042	-0,099
-289,862	93,743	-0,193	-0,159
-288,847	-88,827	0,092	-0,020
-287,832	-200,000	0,014	-0,148
-286,818	790,969	-0,014	0,028
-285,803	21,625	0,095	0,056
-284,789	189,138	0,027	-0,030
-283,774	-42,419	-0,056	0,021
-282,759	114,066	-0,057	0,050
-281,745	36,267	0,086	-0,055
-280,730	174,152	0,056	0,059
-279,716	-162,242	-0,102	0,004
-278,701	119,369	0,054	-0,049
-277,686	-200,000	-0,009	0,116
-276,672	181,948	-0,103	0,110
-275,657	-137,155	-0,019	0,002
-274,643	113,121	0,026	-0,023
-273,628	-149,813	0,133	0,007
-272,613	-109,096	-0,153	0,023
-271,599	-200,000	-0,027	0,150
-270,584	34,715	0,096	0,061
-269,570	-48,105	-0,120	-0,042
-268,555	-50,398	-0,093	-0,032
-267,540	-95,698	-0,099	0,019
-266,526	593,273	0,047	-0,085
-265,511	-10,039	0,070	0,034
-264,497	-200,000	0,023	0,136
-263,482	183,926	-0,023	0,025
-262,467	-46,335	0,078	-0,028
-261,453	-172,567	-0,045	-0,001
-260,438	670,548	-0,103	-0,194
-259,424	-200,000	0,001	0,050
-258,409	-114,707	-0,012	0,002
-257,395	-93,103	0,064	0,013
-256,380	-94,219	0,045	0,009
-255,365	-200,000	-0,036	0,132
-254,351	-200,000	0,028	-0,106
-253,336	-200,000	-0,044	0,148
-252,322	-184,813	0,052	-0,001
-251,307	-200,000	-0,004	-0,055
-250,292	-200,000	-0,009	0,063
-249,278	-109,843	0,154	0,023
-248,263	-58,020	-0,069	0,022
-247,249	-164,079	0,175	-0,006
-246,234	-200,000	-0,038	0,124
-245,219	9,106	-0,145	-0,079
-244,205	-112,277	0,128	0,018
-243,190	546,328	-0,029	0,051
-242,176	764,859	0,107	-0,211
-241,161	-80,183	0,046	0,011
-240,146	800,000	-0,089	0,193
-239,132	800,000	-0,005	-0,011
-238,117	27,763	0,048	-0,029
-237,103	-200,000	-0,045	-0,184
-236,088	-200,000	-0,022	0,100
-235,073	47,419	0,130	0,087
-234,059	-200,000	-0,006	0,118
-233,044	-117,578	0,175	-0,023
-232,030	473,877	-0,090	-0,148
-231,015	-155,514	0,041	-0,002
-230,000	52,460	-0,151	0,104
-228,986	-149,478	0,080	0,005
-227,971	-109,180	-0,076	0,012
-226,957	225,822	0,069	0,081
-225,942	800,000	-0,057	0,117
-224,927	271,291	-0,074	0,095
-223,913	726,905	-0,014	-0,027
-222,898	237,299	-0,050	-0,060
-221,884	432,672	-0,048	0,075
-220,869	-82,361	0,041	0,009
-219,855	-32,523	0,115	-0,046
-218,840	26,065	-0,088	0,053
-217,825	-200,000	0,004	-0,048
-216,811	-145,369	-0,079	0,005
-215,796	2,287	0,061	0,032
-214,782	14,487	-0,125	-0,070
-213,767	-173,744	0,105	-0,002
-212,752	800,000	-0,035	0,071
-211,738	-30,816	-0,105	-0,043
-210,723	-74,613	-0,038	0,010
-209,709	438,432	-0,067	-0,106
-208,694	676,211	-0,099	-0,186
-207,679	-200,000	0,021	-0,096
-206,665	800,000	-0,002	0,003
-205,650	-200,000	0,044	0,176
-204,636	259,410	0,079	-0,099
-203,621	36,746	-0,056	0,035
-202,606	-17,424	-0,088	-0,040
-201,592	62,814	-0,154	-0,111
-200,577	487,995	0,090	-0,148
-199,563	-101,964	-0,092	-0,016
-198,548	66,110	0,057	0,041
-197,533	-200,000	-0,008	-0,049
-196,519	800,000	0,036	0,093
-195,504	-137,719	0,110	-0,009
-194,490	190,746	-0,052	-0,057
-193,475	-8,362	0,106	0,051
-192,460	-154,717	-0,162	0,008
-191,446	800,000	-0,058	0,121
-190,431	550,227	0,046	0,079
-189,417	-74,179	-0,062	0,016
-188,402	110,653	0,032	0,028
-187,387	2,996	0,062	-0,033
-186,373	-82,869	-0,118	-0,027
-185,358	-141,937	0,046	0,003
-184,344	-200,000	0,005	0,037
-183,329	-34,097	0,099	0,039
-182,315	87,712	-0,195	0,156
-181,300	-200,000	-0,005	0,033
-180,285	89,223	-0,090	-0,072
-179,271	751,093	0,036	0,071
-178,256	-90,834	0,117	0,024
-177,242	-147,082	-0,061	0,004
-176,227	800,000	-0,045	0,111
-175,212	-200,000	0,043	0,204
-174,198	-200,000	-0,004	-0,098
-173,183	-129,119	0,070	0,007
-172,169	104,744	-0,096	0,082
-171,154	-200,000	0,017	-0,077
-170,139	20,815	-0,048	0,028
-169,125	45,881	0,053	-0,035
-168,110	-200,000	0,001	0,058
-167,096	-200,000	0,013	0,069
-166,081	-189,491	-0,084	-0,001
-165,066	-200,000	-0,002	-0,208
-164,052	12,746	0,046	0,026
-163,037	154,565	0,061	0,061
-162,023	-151,140	-0,066	-0,003
-161,008	-102,867	0,149	0,025
-159,993	-200,000	0,015	0,144
-158,979	-32,481	-0,158	0,063
-157,964	-200,000	-0,020	-0,163
-156,950	800,000	0,022	-0,048
-155,935	-38,984	0,072	0,027
-154,920	478,992	-0,037	0,060
-153,906	-35,838	0,072	0,028
-152,891	-176,561	-0,116	0,002
-151,877	13,629	-0,096	-0,053
-150,862	800,000	-0,038	0,090
-149,847	-186,954	-0,115	-0,001
-148,833	-57,734	0,040	-0,013
-147,818	-103,692	-0,105	-0,018
-146,804	-158,601	0,015	0,001
-145,789	-48,139	0,034	0,012
-144,775	-15,312	-0,094	-0,043
-143,760	800,000	0,020	-0,058
-142,745	-200,000	0,032	-0,137
-141,731	176,259	-0,086	-0,090
-140,716	-13,618	0,073	-0,034
-139,702	800,000	0,020	-0,052
-138,687	2,393	-0,091	0,047
-137,672	-200,000	-0,001	0,050
-136,658	-200,000	0,010	-0,091
-135,643	-200,000	-0,006	-0,095
-134,629	70,427	0,092	0,069
-133,614	404,118	-0,041	-0,063
-132,599	67,782	0,100	0,074
-131,585	156,066	-0,034	-0,034
-130,570	-200,000	0,018	-0,171
-129,556	-123,574	-0,155	-0,018
-128,541	-200,000	0,010	-0,047
-127,526	166,684	-0,087	-0,089
-126,512	-200,000	-0,050	0,180
-125,497	-200,000	0,001	0,120
-124,483	201,591	0,017	0,019
-123,468	-17,992	0,171	0,077
-122,453	800,000	-0,058	-0,129
-121,439	-39,537	-0,084	-0,031
-120,424	225,585	-0,094	-0,110
