DTS Sentinel unit serial number:	SN410029Multiplexer serial number:	ORYXHardware model number:	OX2-SRSoftware version number:	ORYX F/W v4,00 Oryx Data Collector v3.7.2.0data status	okinstallation	B5 Nyhavnadifferential loss correction	single-endedforward channel	channel 2reverse channel	N/Adate	2023/12/13time	19:17:13forward acquisition time	300,00reverse acquisition time	0,00gamma	499,1914k internal	0,3160k external	0,3160temperature offset calibration	1,0000default loss term (dB/km)	0,3820temperature slope calibration	1,0000multiplexer offset coefficient	1,0000multiplexer slope coefficient	1,0000fibre end	0,00T internal ref (°C)	11,89T ext. ref 1 (°C)	-5,26T ext. ref 2 (°C)	-5,36length (m)	temperature (°C)	Stokes	anti-Stokes-744,400	49,422	0,083	-0,058
-743,385	-108,792	-0,404	-0,063
-742,371	-80,309	-0,084	0,021
-741,356	-137,279	-0,369	0,030
-740,342	16,107	0,149	0,087
-739,327	-180,587	-0,366	-0,005
-738,312	-172,999	0,187	0,004
-737,298	-139,531	-0,295	-0,023
-736,283	97,814	0,178	-0,151
-735,269	-161,546	-0,422	0,016
-734,254	-200,000	0,003	0,138
-733,239	-51,287	-0,529	-0,181
-732,225	-142,893	0,252	0,018
-731,210	-200,000	-0,044	0,192
-730,196	-200,000	0,011	0,038
-729,181	-11,984	-0,172	-0,083
-728,167	800,000	0,007	-0,015
-727,152	281,738	-0,110	0,146
-726,137	168,461	0,055	-0,058
-725,123	800,000	-0,050	-0,157
-724,108	-71,165	-0,029	-0,008
-723,094	214,521	-0,087	-0,102
-722,079	82,312	0,143	-0,114
-721,064	-200,000	-0,018	-0,259
-720,050	370,517	-0,074	0,111
-719,035	114,230	-0,094	0,084
-718,021	800,000	-0,041	-0,117
-717,006	454,297	-0,072	-0,118
-715,991	-200,000	0,018	-0,102
-714,977	23,640	0,125	-0,075
-713,962	41,065	0,045	-0,030
-712,948	-99,264	0,144	-0,027
-711,933	317,590	-0,031	-0,043
-710,918	-200,000	0,003	-0,019
-709,904	355,800	-0,111	-0,163
-708,889	-200,000	-0,002	-0,093
-707,875	191,361	0,036	-0,040
-706,860	-35,413	-0,120	-0,048
-705,845	189,871	0,088	-0,097
-704,831	147,528	-0,099	0,098
-703,816	-200,000	-0,015	-0,077
-702,802	-200,000	-0,009	-0,071
-701,787	-200,000	-0,015	0,122
-700,772	-98,297	-0,167	-0,031
-699,758	-120,372	0,151	0,019
-698,743	737,310	-0,037	-0,074
-697,729	778,220	0,027	0,055
-696,714	-200,000	0,002	-0,022
-695,699	-22,869	-0,222	-0,098
-694,685	-200,000	0,018	-0,130
-693,670	-200,000	-0,023	-0,138
-692,656	-200,000	-0,010	-0,054
-691,641	800,000	-0,033	0,086
-690,627	-200,000	0,004	-0,028
-689,612	24,421	-0,059	-0,035
-688,597	-200,000	0,048	-0,199
-687,583	-188,398	-0,078	-0,001
-686,568	800,000	0,029	0,060
-685,554	-200,000	0,037	-0,144
-684,539	-65,556	-0,052	0,015
-683,524	-200,000	-0,003	0,041
-682,510	599,275	-0,034	-0,061
-681,495	-133,069	-0,037	0,003
-680,481	77,884	-0,114	-0,089
-679,466	-62,938	-0,138	-0,042
-678,451	60,844	0,014	-0,010
-677,437	60,462	-0,054	0,039
-676,422	-118,511	-0,073	0,009
-675,408	248,956	-0,039	0,049
-674,393	800,000	0,023	0,061
-673,378	148,624	-0,035	-0,035
-672,364	23,390	-0,097	-0,059
-671,349	110,434	-0,091	0,081
-670,335	800,000	-0,023	0,056
-669,320	-108,211	0,048	-0,008
-668,305	-71,865	-0,040	0,011
-667,291	-61,776	-0,064	-0,020
-666,276	131,824	0,040	0,038
-665,262	-111,554	-0,073	-0,011
-664,247	230,652	0,070	-0,085
-663,232	800,000	0,036	-0,097
-662,218	800,000	0,084	0,239
-661,203	197,778	0,036	-0,041
-660,189	-148,269	0,033	-0,002
-659,174	800,000	0,032	0,085
-658,159	-200,000	-0,001	-0,154
-657,145	73,904	-0,052	-0,040
-656,130	-5,523	0,044	0,022
-655,116	-163,117	0,058	0,002
-654,101	-23,129	-0,023	-0,010
-653,086	253,899	0,025	-0,031
-652,072	800,000	0,056	-0,177
-651,057	-200,000	0,001	0,008
-650,043	68,026	0,100	-0,075
-649,028	170,505	0,046	0,049
-648,014	-200,000	-0,001	0,050
-646,999	800,000	-0,036	0,075
-645,984	-200,000	-0,040	0,134
-644,970	-200,000	-0,020	0,098
-643,955	800,000	-0,036	0,082
-642,941	800,000	0,014	0,031
-641,926	800,000	0,022	0,061
-640,911	-24,328	-0,057	-0,025
-639,897	-200,000	0,014	-0,062
-638,882	-16,956	-0,045	-0,021
-637,868	645,353	-0,030	-0,057
-636,853	-200,000	-0,011	-0,046
-635,838	-160,383	-0,136	0,005
-634,824	158,843	0,007	-0,007
-633,809	-79,959	-0,036	-0,009
-632,795	460,777	0,018	0,029
-631,780	-48,361	-0,008	0,003
-630,765	384,168	-0,014	0,021
-629,751	165,875	-0,054	-0,056
-628,736	517,652	-0,072	-0,125
-627,722	530,757	0,076	-0,133
-626,707	53,509	0,022	-0,015
-625,692	800,000	-0,024	0,063
-624,678	164,331	0,045	0,046
-623,663	-200,000	-0,003	-0,038
-622,649	-200,000	0,006	-0,091
-621,634	-200,000	-0,048	0,000
-620,619	672,776	-0,047	-0,089
-619,605	800,000	0,008	0,023
-618,590	54,969	0,025	0,018
-617,576	388,115	-0,092	0,140
-616,561	-200,000	-0,037	0,168
-615,546	11,060	-0,026	0,014
-614,532	-31,085	-0,097	0,040
-613,517	-200,000	-0,012	-0,044
-612,503	258,790	-0,031	0,039
-611,488	-131,973	0,085	-0,008
-610,474	180,688	-0,057	-0,062
-609,459	800,000	0,004	0,009
-608,444	354,286	-0,049	-0,072
-607,430	-8,112	-0,141	0,070
-606,415	800,000	-0,042	0,094
-605,401	-61,584	0,057	-0,017
-604,386	-94,721	0,082	0,016
-603,371	86,975	-0,180	0,145
-602,357	56,387	-0,049	0,035
-601,342	-8,070	-0,081	0,040
-600,328	-200,000	-0,003	-0,076
-599,313	-30,230	0,132	-0,055
-598,298	326,558	-0,042	-0,060
-597,284	-53,959	-0,024	0,008
-596,269	800,000	0,031	0,083
-595,255	-200,000	-0,001	0,041
-594,240	33,493	0,084	-0,053
-593,225	407,235	0,089	-0,138
-592,211	89,278	-0,080	-0,065
-591,196	139,168	0,033	-0,032
-590,182	37,152	0,110	0,071
-589,167	-15,551	-0,114	-0,053
-588,152	-20,615	0,129	-0,058
-587,138	179,104	-0,095	0,101
-586,123	-97,053	-0,105	-0,020
-585,109	800,000	0,028	-0,074
-584,094	218,659	0,114	0,134
-583,079	407,936	0,080	-0,124
-582,065	-200,000	-0,040	0,151
-581,050	-200,000	-0,034	0,109
-580,036	168,030	0,084	-0,088
-579,021	-200,000	0,012	-0,048
-578,006	146,470	-0,021	-0,021
-576,992	-50,500	-0,034	-0,012
-575,977	578,475	0,069	0,124
-574,963	-96,856	-0,050	-0,010
-573,948	-200,000	-0,012	0,058
-572,934	-200,000	0,000	0,070
-571,919	339,623	0,042	-0,060
-570,904	-132,691	-0,123	0,011
-569,890	800,000	-0,072	-0,177
-568,875	800,000	-0,033	0,096
-567,861	-160,111	0,095	0,004
-566,846	-138,424	0,044	-0,003
-565,831	-200,000	-0,005	0,093
-564,817	-200,000	-0,019	0,066
-563,802	800,000	-0,058	-0,157
-562,788	135,210	0,040	-0,038
-561,773	171,989	-0,062	0,065
-560,758	144,967	0,122	-0,119
-559,744	475,117	-0,012	-0,019
-558,729	800,000	0,045	-0,131
-557,715	349,849	-0,030	0,043
-556,700	167,257	0,052	-0,054
-555,685	11,150	0,102	-0,057
-554,671	800,000	-0,032	0,097
-553,656	-45,668	0,109	0,039
-552,642	-200,000	-0,013	-0,069
-551,627	-200,000	-0,015	-0,141
-550,612	214,369	-0,043	0,050
-549,598	-43,369	0,062	0,023
-548,583	-200,000	-0,041	-0,136
-547,569	800,000	-0,015	0,046
-546,554	24,871	-0,114	0,069
-545,539	98,276	0,123	0,104
-544,525	61,919	-0,031	-0,023
-543,510	560,912	-0,048	-0,085
-542,496	158,503	-0,064	0,065
-541,481	-200,000	0,056	-0,185
-540,466	-20,951	-0,112	0,050
-539,452	114,262	-0,018	0,016
-538,437	-200,000	0,020	0,072
-537,423	285,081	0,087	0,114
-536,408	-52,330	-0,052	-0,018
-535,393	21,629	0,055	0,033
-534,379	54,957	0,016	-0,011
-533,364	217,522	-0,053	-0,062
-532,350	369,175	-0,059	0,088
-531,335	-145,429	-0,058	-0,004
-530,321	468,189	0,062	-0,103
-529,306	148,378	-0,084	0,083
-528,291	-50,063	-0,118	-0,041
-527,277	-200,000	0,012	-0,049
-526,262	800,000	-0,025	0,072
-525,248	-84,751	0,115	-0,026
-524,233	11,042	-0,050	-0,028
-523,218	70,338	-0,054	-0,041
-522,204	-200,000	0,036	0,129
-521,189	422,032	-0,054	0,085
-520,175	800,000	-0,034	-0,077
-519,160	-200,000	0,003	-0,089
-518,145	800,000	-0,020	0,064
-517,131	74,841	0,051	0,039
-516,116	-162,459	-0,089	-0,003
-515,102	-200,000	0,003	-0,035
-514,087	373,503	-0,069	-0,102
-513,072	211,536	-0,112	-0,128
-512,058	177,959	0,039	-0,042
-511,043	-193,769	0,045	0,000
-510,029	-200,000	-0,013	0,102
-509,014	-200,000	-0,017	0,103
-507,999	4,703	-0,134	-0,071
-506,985	289,370	0,114	-0,151
-505,970	788,407	-0,075	-0,152
-504,956	-16,816	-0,129	0,059
-503,941	308,276	0,048	0,066
-502,926	800,000	-0,020	-0,052
-501,912	-200,000	-0,002	0,148
-500,897	-200,000	-0,005	0,030
-499,883	-96,580	-0,084	-0,016
-498,868	-200,000	-0,004	0,088
-497,853	360,627	0,059	0,087
-496,839	85,470	-0,102	-0,082
-495,824	-200,000	0,031	0,114
-494,810	7,835	0,084	-0,046
-493,795	-200,000	-0,017	0,102
-492,781	-200,000	-0,025	0,130
-491,766	275,029	0,013	0,017
-490,751	27,572	-0,015	-0,009
-489,737	60,647	-0,054	0,039
-488,722	-157,924	-0,032	0,001
-487,708	-18,439	0,168	0,076
-486,693	708,272	-0,049	-0,095
-485,678	-40,389	-0,089	0,033
-484,664	-30,189	-0,067	0,028
-483,649	-200,000	-0,013	-0,065
-482,635	-200,000	-0,001	0,039
-481,620	488,063	0,056	0,094
-480,605	-200,000	-0,017	0,059
-479,591	-200,000	0,015	0,127
-478,576	291,465	-0,053	-0,070
-477,562	-200,000	0,027	0,146
-476,547	-200,000	-0,043	-0,143
-475,532	-54,709	0,059	0,019
-474,518	-161,297	-0,031	-0,001
-473,503	15,095	0,142	0,081
-472,489	-200,000	-0,009	0,042
-471,474	-83,395	0,056	-0,013
-470,459	-120,349	-0,045	-0,006
-469,445	-200,000	0,016	0,071
-468,430	-69,188	-0,113	-0,032
-467,416	-200,000	-0,003	-0,115
-466,401	74,708	-0,089	0,068
-465,386	201,555	-0,018	0,021
-464,372	283,355	-0,024	-0,032
-463,357	-77,776	-0,143	-0,036
-462,343	-200,000	0,008	-0,077
-461,328	-130,126	-0,096	0,009
-460,313	-127,291	-0,033	0,004
-459,299	800,000	-0,046	-0,101
-458,284	-62,522	0,052	0,015
-457,270	162,444	-0,058	0,059
-456,255	162,377	-0,077	-0,078
-455,241	800,000	-0,026	-0,069
-454,226	-200,000	0,016	-0,117
-453,211	294,511	0,051	0,068
-452,197	425,148	-0,048	0,075
-451,182	-144,223	0,108	0,007
-450,168	695,778	-0,068	-0,131
-449,153	790,370	0,027	-0,055
-448,138	-27,588	-0,020	0,008
-447,124	-200,000	-0,026	-0,084
-446,109	-200,000	-0,001	0,075
-445,095	76,030	0,056	0,043
-444,080	800,000	-0,021	0,047
-443,065	284,552	0,107	-0,141
-442,051	-3,676	-0,120	0,061
-441,036	-20,804	0,101	-0,045
-440,022	-30,893	-0,096	-0,039
-439,007	-200,000	0,012	-0,059
-437,992	-58,525	0,137	-0,043
-436,978	800,000	-0,051	0,112
-435,963	-143,621	0,056	0,004
-434,949	305,563	-0,019	0,026
-433,934	-200,000	0,031	-0,103
-432,919	-200,000	0,013	-0,129
-431,905	-17,375	0,011	0,005
-430,890	-106,194	0,116	0,019
-429,876	-13,949	-0,107	0,050
-428,861	168,463	-0,072	0,075
-427,846	-200,000	-0,028	0,190
-426,832	-200,000	-0,004	-0,089
-425,817	-200,000	0,013	0,086
-424,803	800,000	-0,018	-0,052
-423,788	-200,000	0,027	0,110
-422,773	-200,000	0,019	0,077
-421,759	15,644	-0,029	0,017
-420,744	35,490	0,065	-0,041
-419,730	-57,798	-0,076	-0,024
-418,715	-200,000	-0,013	-0,070
-417,701	-200,000	0,001	-0,146
-416,686	477,701	-0,006	0,010
-415,671	310,529	-0,077	0,106
-414,657	-37,387	0,052	-0,020
-413,642	800,000	0,033	0,088
-412,628	411,834	-0,014	-0,022
-411,613	6,587	0,145	-0,078
-410,598	99,639	-0,084	-0,070
-409,584	-44,261	0,069	0,025
-408,569	800,000	0,018	0,049
-407,555	800,000	0,036	0,075
-406,540	-200,000	-0,051	0,169
-405,525	63,622	-0,032	-0,024
-404,511	6,296	-0,110	0,059
-403,496	-200,000	-0,003	0,063
-402,482	465,024	0,166	0,270
-401,467	394,476	0,050	0,077
-400,452	-116,013	0,117	0,016
-399,438	46,531	-0,087	0,059
-398,423	800,000	0,021	0,050
-397,409	-200,000	0,005	-0,080
-396,394	-117,106	0,029	-0,004
-395,379	800,000	0,056	0,114
-394,365	261,536	0,073	0,092
-393,350	511,235	-0,029	0,049
-392,336	37,696	-0,082	0,053
-391,321	-5,779	-0,155	-0,077
-390,306	134,308	-0,067	0,063
-389,292	-200,000	-0,011	-0,084
-388,277	629,781	0,043	-0,079
-387,263	398,782	-0,079	0,121
-386,248	800,000	0,027	0,079
-385,233	365,447	0,088	0,130
-384,219	-13,984	-0,018	0,009
-383,204	-59,060	-0,043	0,013
-382,190	662,354	0,049	-0,092
-381,175	800,000	-0,014	-0,033
-380,160	-46,054	-0,082	-0,029
-379,146	-200,000	-0,020	0,084
-378,131	-200,000	-0,006	0,027
-377,117	-44,867	0,034	0,012
-376,102	-8,948	0,035	-0,017
-375,088	-200,000	-0,006	-0,070
-374,073	-200,000	-0,005	-0,065
-373,058	-84,588	0,152	-0,035
-372,044	237,161	-0,081	-0,097
-371,029	800,000	0,063	0,129
-370,015	48,669	0,089	-0,061
-369,000	-42,882	-0,116	0,043
-367,985	-200,000	-0,004	-0,033
-366,971	-125,447	0,005	-0,001
-365,956	-101,069	0,037	-0,006
-364,942	800,000	-0,007	-0,015
-363,927	-10,033	0,031	-0,015
-362,912	-128,921	0,082	-0,008
-361,898	-175,986	0,040	0,001
-360,883	-100,586	0,090	0,016
-359,869	-131,658	-0,072	-0,007
-358,854	4,084	-0,052	-0,028
-357,839	800,000	0,008	-0,020
-356,825	86,863	0,009	-0,007
-355,810	800,000	0,035	-0,109
-354,796	250,420	-0,045	-0,056
-353,781	800,000	0,019	-0,050
-352,766	68,161	0,027	-0,020
-351,752	800,000	-0,046	0,106
-350,737	366,969	0,079	-0,116
-349,723	162,962	-0,089	0,090
-348,708	-50,315	0,130	0,044
-347,693	359,066	-0,038	-0,055
-346,679	-39,734	-0,105	-0,039
-345,664	-200,000	-0,004	0,036
-344,650	800,000	0,072	0,161
-343,635	70,854	0,101	0,076
-342,620	319,758	0,058	0,080
-341,606	-29,519	0,132	-0,055
-340,591	151,093	-0,136	-0,134
-339,577	-200,000	-0,005	-0,208
-338,562	-108,754	-0,098	-0,015
-337,548	63,331	0,067	0,048
-336,533	796,274	0,074	0,149
-335,518	66,490	0,031	0,023
-334,504	234,922	0,054	0,065
-333,489	-58,768	0,057	-0,018
-332,475	177,022	-0,119	-0,126
-331,460	174,344	0,055	-0,058
-330,445	114,819	0,118	-0,104
-329,431	41,950	0,039	-0,025
-328,416	116,170	0,120	-0,107
-327,402	-0,253	0,034	0,017
-326,387	-82,167	0,092	-0,022
-325,372	-200,000	0,001	-0,108
-324,358	-200,000	0,011	0,052
-323,343	-42,249	0,053	0,020
-322,329	-200,000	0,012	-0,113
-321,314	-200,000	0,012	0,080
-320,299	-200,000	-0,020	0,109
-319,285	800,000	-0,039	-0,116
-318,270	800,000	-0,055	-0,123
-317,256	-113,144	0,058	0,008
-316,241	40,132	-0,162	-0,106
-315,226	800,000	-0,030	0,069
-314,212	-34,138	0,073	0,029
-313,197	80,156	0,088	-0,068
-312,183	-41,063	-0,015	0,005
-311,168	344,049	0,055	-0,079
-310,153	-33,859	-0,080	0,032
-309,139	624,568	-0,028	-0,051
-308,124	-200,000	0,025	0,121
-307,110	167,847	0,014	-0,014
-306,095	-200,000	-0,030	-0,097
-305,080	119,232	0,057	0,051
-304,066	-200,000	-0,008	0,039
-303,051	-149,351	-0,038	0,002
-302,037	-28,798	0,048	-0,020
-301,022	-200,000	-0,026	-0,142
-300,008	-142,170	0,088	0,006
-298,993	800,000	0,033	0,078
-297,978	-92,517	0,031	0,006
-296,964	289,082	-0,042	-0,055
-295,949	-200,000	0,013	-0,092
-294,935	800,000	0,061	-0,122
-293,920	-50,739	0,095	-0,032
-292,905	229,971	0,084	-0,099
-291,891	52,073	-0,058	-0,040
-290,876	-181,214	-0,053	0,001
-289,862	-200,000	0,018	-0,104
-288,847	-94,993	-0,072	0,014
-287,832	-97,007	-0,016	-0,003
-286,818	-35,113	-0,080	0,031
-285,803	800,000	0,017	-0,043
-284,789	-200,000	0,000	0,121
-283,774	-200,000	0,009	-0,081
-282,759	-200,000	0,005	-0,108
-281,745	-200,000	-0,026	-0,173
-280,730	800,000	0,030	-0,075
-279,716	439,882	0,052	-0,083
-278,701	-33,362	0,126	0,050
-277,686	697,309	-0,020	0,039
-276,672	606,758	-0,067	0,122
-275,657	15,885	-0,027	-0,015
-274,643	800,000	0,047	0,125
-273,628	-34,070	-0,071	-0,028
-272,613	800,000	0,008	0,025
-271,599	380,674	0,031	-0,046
-270,584	-200,000	-0,004	-0,093
-269,570	-200,000	-0,003	-0,024
-268,555	800,000	-0,022	-0,049
-267,540	70,119	-0,121	-0,090
-266,526	86,308	0,114	0,091
-265,511	-200,000	0,009	0,162
-264,497	457,994	-0,052	0,084
-263,482	105,959	-0,054	-0,046
-262,467	229,311	0,046	0,055
-261,453	398,298	-0,061	0,093
-260,438	-175,415	0,040	-0,001
-259,424	-49,571	0,138	-0,047
-258,409	-53,386	0,130	-0,043
-257,395	-200,000	-0,000	-0,114
-256,380	681,884	0,030	0,056
-255,365	-200,000	-0,004	0,035
-254,351	75,913	-0,068	0,052
-253,336	113,250	0,041	0,036
-252,322	66,095	0,084	-0,061
-251,307	-100,277	-0,103	0,018
-250,292	-200,000	-0,011	-0,087
-249,278	700,753	-0,106	0,203
-248,263	-200,000	0,002	0,015
-247,249	800,000	0,038	0,111
-246,234	800,000	0,016	0,046
-245,219	361,463	-0,018	0,027
-244,205	800,000	-0,037	-0,115
-243,190	625,369	-0,031	-0,057
-242,176	77,777	-0,132	-0,102
-241,161	-105,046	0,080	0,013
-240,146	-200,000	-0,018	0,113
-239,132	800,000	0,015	-0,047
-238,117	800,000	-0,038	-0,113
-237,103	331,451	0,046	0,065
-236,088	-200,000	0,011	0,088
-235,073	-74,036	-0,050	0,013
-234,059	-200,000	-0,003	0,026
-233,044	-28,846	0,131	-0,054
-232,030	180,694	0,070	-0,075
-231,015	800,000	0,066	-0,145
-230,000	-200,000	-0,048	-0,156
-228,986	147,166	0,046	-0,044
-227,971	44,543	-0,044	-0,029
-226,957	134,720	0,013	0,013
-225,942	776,093	-0,059	-0,116
-224,927	-200,000	-0,026	0,147
-223,913	-45,223	0,053	0,019
-222,898	-58,608	0,084	-0,026
-221,884	483,205	-0,025	0,041
-220,869	79,300	-0,037	-0,029
-219,855	36,543	0,137	0,087
-218,840	649,019	0,019	0,035
-217,825	56,048	-0,122	-0,085
-216,811	81,779	-0,039	-0,031
-215,796	171,498	-0,109	0,113
-214,782	-145,797	0,061	-0,004
-213,767	146,483	0,039	-0,038
-212,752	-200,000	-0,017	0,186
-211,738	-108,893	0,012	-0,002
-210,723	106,298	0,091	-0,078
-209,709	-141,691	-0,227	0,016
-208,694	57,357	0,010	0,007
-207,679	411,561	0,060	-0,093
-206,665	-150,487	-0,047	-0,003
-205,650	800,000	0,020	0,055
-204,636	800,000	-0,028	0,061
-203,621	577,442	-0,083	0,147
-202,606	352,548	-0,101	-0,144
-201,592	800,000	-0,064	-0,153
-200,577	68,830	0,110	-0,081
-199,563	127,766	-0,084	-0,077
-198,548	-200,000	0,010	0,053
-197,533	-132,578	0,125	0,011
-196,519	-39,844	0,092	-0,034
-195,504	800,000	-0,020	0,052
-194,490	358,464	0,017	0,025
-193,475	800,000	0,020	-0,042
-192,460	-117,936	-0,127	-0,016
-191,446	800,000	0,115	0,246
-190,431	-25,914	0,027	0,011
-189,417	-200,000	0,022	-0,091
-188,402	-21,732	0,054	0,024
-187,387	800,000	-0,031	-0,063
-186,373	-200,000	0,033	-0,124
-185,358	-200,000	0,009	-0,193
-184,344	-200,000	0,005	0,110
-183,329	800,000	0,009	-0,026
-182,315	800,000	-0,058	0,158
-181,300	800,000	-0,014	-0,034
-180,285	166,159	0,057	-0,058
-179,271	135,834	-0,111	-0,104
-178,256	-200,000	-0,013	-0,057
-177,242	-20,324	0,081	-0,036
-176,227	-200,000	0,028	0,124
-175,212	36,213	0,117	0,074
-174,198	800,000	0,008	0,020
-173,183	241,969	0,080	-0,096
-172,169	188,470	-0,012	-0,013
-171,154	255,934	-0,071	0,088
-170,139	77,031	0,049	-0,037
-169,125	800,000	0,043	-0,104
-168,110	40,508	0,073	0,048
-167,096	-97,933	0,053	0,010
-166,081	5,425	-0,067	-0,036
-165,066	266,047	0,032	0,040
-164,052	800,000	0,030	0,073
-163,037	664,197	0,056	0,105
-162,023	-27,013	0,136	0,057
-161,008	-200,000	-0,008	-0,083
-159,993	800,000	-0,029	0,068
-158,979	89,707	0,079	0,064
-157,964	298,808	-0,051	-0,067
-156,950	37,528	-0,041	-0,026
-155,935	-4,480	0,029	0,015
-154,920	800,000	0,068	0,150
-153,906	220,279	0,051	0,059
-152,891	-200,000	0,004	-0,013
-151,877	468,651	0,011	-0,018
-150,862	-5,509	0,090	-0,044
-149,847	-200,000	-0,017	-0,167
-148,833	-103,782	0,030	0,005
-147,818	-200,000	-0,013	-0,053
-146,804	-200,000	0,021	0,094
-145,789	-76,182	-0,071	-0,018
-144,775	211,736	-0,078	0,088
-143,760	-200,000	0,011	-0,057
-142,745	161,304	0,045	-0,046
-141,731	133,329	-0,100	0,093
-140,716	177,233	-0,045	0,047
-139,702	-200,000	0,004	0,031
-138,687	313,415	-0,035	-0,047
-137,672	249,265	-0,044	0,054
-136,658	86,609	-0,036	-0,029
-135,643	-164,987	-0,149	0,005
-134,629	-200,000	0,012	0,101
-133,614	156,570	0,049	0,049
-132,599	-63,206	-0,025	-0,007
-131,585	800,000	-0,047	0,094
-130,570	-200,000	-0,001	0,038
-129,556	-134,385	-0,188	0,016
-128,541	-200,000	0,009	0,094
-127,526	352,796	-0,042	0,060
-126,512	114,923	-0,021	0,018
-125,497	-115,215	0,052	0,007
-124,483	15,051	-0,140	-0,078
-123,468	717,050	-0,009	0,017
-122,453	-63,940	-0,025	-0,007
-121,439	-200,000	-0,052	-0,194
-120,424	-21,748	0,109	-0,048
