DTS Sentinel unit serial number:	SN410029Multiplexer serial number:	ORYXHardware model number:	OX2-SRSoftware version number:	ORYX F/W v4,00 Oryx Data Collector v3.7.2.0data status	okinstallation	B5 Nyhavnadifferential loss correction	single-endedforward channel	channel 2reverse channel	N/Adate	2023/12/13time	00:07:13forward acquisition time	300,00reverse acquisition time	0,00gamma	499,1914k internal	0,3159k external	0,3159temperature offset calibration	1,0000default loss term (dB/km)	0,3820temperature slope calibration	1,0000multiplexer offset coefficient	1,0000multiplexer slope coefficient	1,0000fibre end	0,00T internal ref (°C)	14,33T ext. ref 1 (°C)	-2,21T ext. ref 2 (°C)	-2,53length (m)	temperature (°C)	Stokes	anti-Stokes-744,400	630,750	-0,016	-0,029
-743,385	-116,885	-0,249	-0,033
-742,371	800,000	-0,020	-0,057
-741,356	-104,773	-0,220	0,037
-740,342	393,436	0,063	0,096
-739,327	-146,528	-0,265	-0,017
-738,312	800,000	-0,024	-0,074
-737,298	-93,637	-0,250	-0,051
-736,283	29,769	0,074	0,047
-735,269	-85,898	-0,394	-0,089
-734,254	-200,000	0,019	0,081
-733,239	-145,128	-0,465	-0,031
-732,225	-28,481	0,191	0,081
-731,210	-200,000	-0,006	0,052
-730,196	331,098	-0,050	0,071
-729,181	18,474	0,037	0,022
-728,167	-58,233	-0,045	-0,014
-727,152	162,030	-0,077	-0,079
-726,137	365,831	-0,066	-0,099
-725,123	27,982	-0,134	0,083
-724,108	409,677	-0,074	-0,116
-723,094	-91,021	-0,092	0,019
-722,079	-191,419	-0,120	-0,001
-721,064	322,864	0,045	-0,064
-720,050	412,702	-0,063	-0,098
-719,035	469,233	0,033	0,054
-718,021	380,778	-0,101	-0,153
-717,006	800,000	0,028	0,059
-715,991	-200,000	0,000	-0,033
-714,977	-200,000	0,000	0,126
-713,962	19,654	-0,124	-0,074
-712,948	800,000	0,047	0,103
-711,933	-200,000	-0,010	-0,033
-710,918	263,798	-0,026	0,033
-709,904	188,568	-0,072	0,079
-708,889	24,551	-0,109	-0,066
-707,875	282,829	0,055	-0,072
-706,860	-101,214	-0,108	-0,019
-705,845	-101,760	0,165	0,029
-704,831	800,000	-0,046	0,099
-703,816	-200,000	0,011	-0,056
-702,802	-72,469	0,053	0,014
-701,787	800,000	-0,048	-0,122
-700,772	118,887	0,135	0,122
-699,758	800,000	-0,010	-0,028
-698,743	800,000	0,036	0,080
-697,729	230,608	-0,055	0,067
-696,714	57,589	0,110	0,079
-695,699	-0,264	0,047	-0,025
-694,685	800,000	-0,095	-0,268
-693,670	-20,495	-0,205	0,092
-692,656	-104,595	-0,093	-0,016
-691,641	-110,436	-0,024	0,004
-690,627	19,625	-0,063	0,037
-689,612	161,667	0,088	-0,091
-688,597	146,901	0,078	-0,077
-687,583	7,818	-0,191	-0,105
-686,568	173,625	-0,047	-0,050
-685,554	-200,000	-0,015	-0,110
-684,539	-159,312	0,102	0,004
-683,524	495,685	-0,139	-0,236
-682,510	122,232	0,081	0,074
-681,495	128,696	-0,072	0,067
-680,481	-200,000	0,001	-0,041
-679,466	-200,000	0,004	-0,130
-678,451	-200,000	-0,008	0,027
-677,437	800,000	-0,068	0,142
-676,422	-117,528	-0,048	-0,006
-675,408	97,841	0,014	0,011
-674,393	21,015	-0,148	-0,088
-673,378	-115,524	-0,118	0,016
-672,364	-200,000	0,026	0,103
-671,349	800,000	0,049	0,132
-670,335	-200,000	-0,004	0,132
-669,320	800,000	0,050	0,138
-668,305	30,310	0,053	-0,033
-667,291	-73,985	-0,193	-0,051
-666,276	606,881	0,058	-0,107
-665,262	-200,000	0,023	-0,101
-664,247	-69,596	-0,129	-0,036
-663,232	800,000	-0,041	-0,114
-662,218	89,897	0,200	-0,164
-661,203	800,000	-0,062	-0,137
-660,189	72,874	0,123	-0,094
-659,174	706,241	-0,034	-0,066
-658,159	261,042	-0,075	-0,096
-657,145	129,293	-0,074	-0,070
-656,130	294,607	0,113	0,152
-655,116	-200,000	0,033	0,108
-654,101	-59,280	-0,065	-0,020
-653,086	-48,609	-0,066	-0,023
-652,072	-121,718	-0,058	-0,007
-651,057	800,000	-0,008	0,022
-650,043	-200,000	-0,007	0,037
-649,028	81,150	-0,071	-0,056
-648,014	33,224	-0,088	0,056
-646,999	460,729	0,020	-0,033
-645,984	-35,071	-0,121	0,048
-644,970	-200,000	0,003	-0,094
-643,955	-200,000	0,004	-0,062
-642,941	800,000	0,040	-0,116
-641,926	800,000	0,018	0,040
-640,911	-76,368	-0,009	0,002
-639,897	-93,520	-0,021	-0,004
-638,882	-200,000	-0,010	0,065
-637,868	-187,567	-0,048	0,000
-636,853	-50,793	-0,100	-0,034
-635,838	39,070	0,048	-0,032
-634,824	-69,812	0,097	0,027
-633,809	443,135	-0,074	0,120
-632,795	800,000	0,032	-0,090
-631,780	-120,162	0,033	0,004
-630,765	800,000	0,013	0,042
-629,751	-5,649	0,046	0,023
-628,736	800,000	-0,063	-0,149
-627,722	-200,000	0,007	-0,126
-626,707	-73,581	-0,035	0,009
-625,692	800,000	-0,029	0,082
-624,678	-200,000	-0,011	0,078
-623,663	-200,000	0,010	0,092
-622,649	-200,000	-0,018	0,099
-621,634	186,796	0,081	-0,088
-620,619	800,000	0,055	-0,152
-619,605	-53,557	0,085	0,028
-618,590	797,711	-0,054	-0,110
-617,576	776,802	0,045	0,091
-616,561	-57,788	0,066	0,021
-615,546	537,675	-0,105	-0,183
-614,532	-200,000	-0,054	-0,177
-613,517	-35,204	0,005	0,002
-612,503	16,021	-0,083	0,048
-611,488	71,713	-0,015	-0,012
-610,474	587,767	-0,044	0,080
-609,459	-102,315	0,122	0,021
-608,444	800,000	0,003	-0,009
-607,430	-200,000	-0,006	0,028
-606,415	607,743	-0,078	-0,143
-605,401	-103,751	0,116	-0,020
-604,386	119,797	-0,119	0,108
-603,371	-111,426	-0,073	0,011
-602,357	-200,000	0,022	0,088
-601,342	-200,000	0,007	-0,146
-600,328	128,988	-0,073	-0,068
-599,313	-12,928	-0,148	-0,070
-598,298	-200,000	-0,017	0,097
-597,284	575,134	-0,032	0,058
-596,269	-73,843	0,060	-0,016
-595,255	-32,093	0,112	-0,046
-594,240	800,000	-0,045	-0,137
-593,225	-106,265	-0,056	0,009
-592,211	50,774	-0,062	-0,043
-591,196	-200,000	0,005	-0,054
-590,182	-200,000	0,034	0,000
-589,167	466,669	0,048	-0,079
-588,152	-200,000	-0,040	0,195
-587,138	447,763	0,081	-0,131
-586,123	20,847	-0,099	-0,059
-585,109	161,545	-0,068	-0,070
-584,094	-0,332	0,050	0,026
-583,079	-200,000	0,008	0,078
-582,065	-37,226	0,170	0,066
-581,050	17,884	-0,101	0,059
-580,036	-63,795	0,050	0,015
-579,021	65,035	-0,067	-0,049
-578,006	-200,000	-0,024	-0,134
-576,992	-56,319	0,086	0,028
-575,977	57,840	-0,085	0,061
-574,963	800,000	0,052	0,140
-573,948	-200,000	-0,037	0,179
-572,934	-73,117	-0,087	-0,023
-571,919	38,203	-0,091	-0,059
-570,904	-46,889	-0,081	-0,029
-569,890	-124,438	0,065	-0,007
-568,875	581,214	0,027	0,049
-567,861	111,978	-0,077	0,068
-566,846	800,000	0,027	0,056
-565,831	-100,583	-0,085	-0,015
-564,817	-200,000	-0,012	-0,054
-563,802	282,402	0,021	-0,027
-562,788	-16,841	0,072	0,033
-561,773	-200,000	0,000	0,046
-560,758	-10,891	0,184	0,089
-559,744	-51,416	0,093	0,032
-558,729	-34,529	-0,104	0,041
-557,715	-55,877	0,019	0,006
-556,700	-200,000	0,023	-0,100
-555,685	-150,210	-0,113	-0,006
-554,671	-35,944	0,110	0,043
-553,656	105,081	0,152	-0,131
-552,642	39,758	0,100	0,066
-551,627	-1,041	-0,081	-0,042
-550,612	39,564	-0,038	-0,025
-549,598	-200,000	0,001	0,090
-548,583	199,560	-0,061	-0,068
-547,569	-200,000	-0,020	-0,115
-546,554	-200,000	-0,013	0,109
-545,539	440,533	-0,089	0,143
-544,525	152,027	0,065	0,065
-543,510	201,649	-0,024	-0,027
-542,496	186,544	0,065	0,070
-541,481	-78,431	-0,038	0,009
-540,466	-29,032	-0,062	0,026
-539,452	58,885	0,130	-0,093
-538,437	230,971	-0,039	-0,047
-537,423	22,021	-0,074	-0,044
-536,408	-147,048	-0,103	-0,006
-535,393	800,000	-0,064	-0,166
-534,379	359,627	0,042	-0,061
-533,364	282,730	0,020	-0,026
-532,350	-121,561	0,064	0,008
-531,335	-51,026	0,077	0,026
-530,321	52,676	-0,085	-0,059
-529,306	-110,190	-0,153	0,023
-528,291	-102,445	-0,073	-0,013
-527,277	-31,248	0,083	-0,034
-526,262	-118,699	-0,071	-0,009
-525,248	-86,182	0,077	-0,017
-524,233	800,000	0,042	0,095
-523,218	694,586	0,055	-0,106
-522,204	272,488	-0,027	-0,035
-521,189	176,781	-0,055	-0,059
-520,175	-200,000	-0,010	-0,182
-519,160	-200,000	-0,038	-0,215
-518,145	-96,921	0,057	-0,011
-517,131	345,429	0,020	-0,029
-516,116	-36,049	0,079	-0,031
-515,102	540,578	-0,020	0,034
-514,087	51,052	0,082	0,057
-513,072	-200,000	-0,000	0,005
-512,058	-200,000	-0,016	0,060
-511,043	50,131	-0,044	0,030
-510,029	-200,000	0,030	0,233
-509,014	800,000	0,062	0,171
-507,999	53,613	-0,100	0,070
-506,985	484,946	-0,033	-0,055
-505,970	-99,152	0,147	-0,027
-504,956	800,000	-0,024	0,053
-503,941	394,686	0,027	-0,041
-502,926	36,784	0,070	-0,045
-501,912	129,603	0,102	0,095
-500,897	675,226	0,015	-0,029
-499,883	800,000	0,021	0,054
-498,868	-200,000	0,004	0,054
-497,853	-200,000	-0,015	-0,127
-496,839	-200,000	0,006	-0,054
-495,824	800,000	-0,013	0,036
-494,810	-200,000	0,019	0,095
-493,795	60,222	0,028	-0,020
-492,781	18,575	-0,085	-0,050
-491,766	19,902	-0,061	-0,036
-490,751	-200,000	0,011	-0,046
-489,737	316,800	-0,046	0,064
-488,722	37,682	-0,040	0,026
-487,708	800,000	0,057	0,130
-486,693	-48,607	0,087	0,030
-485,678	20,705	-0,177	0,104
-484,664	-114,252	-0,072	0,010
-483,649	163,249	-0,129	-0,132
-482,635	-200,000	-0,005	-0,175
-481,620	-200,000	-0,002	-0,017
-480,605	-0,625	0,088	0,045
-479,591	-129,922	0,140	-0,014
-478,576	-109,772	-0,089	0,013
-477,562	34,580	0,062	-0,039
-476,547	-200,000	-0,012	-0,092
-475,532	800,000	-0,040	-0,092
-474,518	85,464	0,069	0,056
-473,503	160,715	0,039	0,040
-472,489	-45,155	-0,089	0,032
-471,474	167,522	-0,028	0,029
-470,459	165,346	-0,019	-0,019
-469,445	133,075	-0,096	-0,091
-468,430	-184,357	0,074	0,001
-467,416	2,615	0,164	-0,086
-466,401	-32,492	0,214	0,086
-465,386	-26,957	-0,060	0,026
-464,372	-200,000	0,007	-0,049
-463,357	800,000	-0,014	-0,038
-462,343	172,093	-0,065	0,068
-461,328	-200,000	0,001	-0,146
-460,313	-58,204	-0,117	0,037
-459,299	-200,000	0,025	-0,093
-458,284	111,537	-0,047	0,041
-457,270	127,183	0,091	0,084
-456,255	-72,414	-0,048	-0,013
-455,241	181,731	-0,008	-0,008
-454,226	187,992	-0,037	-0,040
-453,211	800,000	-0,033	-0,078
-452,197	150,012	0,072	0,071
-451,182	83,423	0,015	0,012
-450,168	-31,948	0,109	-0,044
-449,153	-99,942	-0,072	-0,013
-448,138	-107,560	-0,125	-0,020
-447,124	-200,000	-0,020	-0,077
-446,109	-200,000	0,013	0,058
-445,095	-200,000	0,013	-0,062
-444,080	-31,336	-0,086	0,035
-443,065	-200,000	0,007	-0,056
-442,051	9,673	0,026	-0,015
-441,036	-200,000	-0,003	-0,174
-440,022	-122,909	-0,116	-0,014
-439,007	-200,000	-0,026	0,118
-437,992	-103,405	-0,068	0,012
-436,978	-62,781	0,061	-0,018
-435,963	363,645	0,070	0,102
-434,949	262,398	0,015	0,019
-433,934	-38,933	0,040	-0,015
-432,919	-9,690	-0,094	0,045
-431,905	-153,970	0,122	-0,006
-430,890	404,644	0,064	0,098
-429,876	800,000	0,038	0,111
-428,861	-200,000	0,008	0,145
-427,846	295,771	-0,030	-0,040
-426,832	31,885	-0,117	-0,073
-425,817	-107,811	-0,056	0,009
-424,803	373,723	0,044	-0,065
-423,788	-30,118	-0,010	0,004
-422,773	-200,000	-0,012	0,044
-421,759	238,355	0,072	0,088
-420,744	28,469	-0,148	0,091
-419,730	-43,434	-0,065	0,024
-418,715	-136,693	-0,185	-0,015
-417,701	633,357	0,045	0,084
-416,686	423,704	-0,049	0,077
-415,671	800,000	0,065	-0,153
-414,657	290,615	-0,033	0,043
-413,642	78,804	0,021	0,016
-412,628	448,233	-0,064	-0,103
-411,613	-4,317	0,052	0,026
-410,598	72,584	0,103	-0,078
-409,584	-39,490	-0,149	-0,056
-408,569	800,000	0,050	0,133
-407,555	800,000	-0,043	0,105
-406,540	800,000	-0,034	-0,084
-405,525	84,527	-0,115	0,091
-404,511	-123,396	-0,030	0,003
-403,496	-108,921	0,025	0,004
-402,482	-156,211	0,028	-0,001
-401,467	66,280	-0,031	0,023
-400,452	-200,000	0,001	0,124
-399,438	-200,000	0,007	0,138
-398,423	-162,964	-0,023	0,001
-397,409	-200,000	0,005	-0,046
-396,394	73,628	-0,120	-0,091
-395,379	-76,464	0,125	-0,032
-394,365	93,073	0,040	0,033
-393,350	800,000	-0,052	0,164
-392,336	-200,000	0,005	0,153
-391,321	-89,208	0,080	-0,017
-390,306	-43,137	0,058	0,021
-389,292	74,454	0,057	-0,044
-388,277	151,122	0,007	-0,007
-387,263	374,833	0,059	0,088
-386,248	-81,822	0,036	-0,009
-385,233	377,850	0,033	-0,050
-384,219	-32,915	0,076	-0,030
-383,204	13,215	-0,080	-0,045
-382,190	-200,000	0,020	0,101
-381,175	-200,000	-0,012	-0,099
-380,160	17,046	0,095	0,055
-379,146	112,276	-0,124	0,109
-378,131	-195,040	-0,035	-0,000
-377,117	-19,845	-0,182	0,081
-376,102	249,617	0,019	-0,024
-375,088	-84,363	0,050	-0,011
-374,073	-146,775	-0,095	0,006
-373,058	800,000	0,047	-0,100
-372,044	-34,742	-0,030	0,012
-371,029	-136,103	0,152	0,013
-370,015	-200,000	-0,036	0,151
-369,000	-200,000	0,015	0,085
-367,985	71,379	-0,076	0,057
-366,971	-200,000	0,013	-0,146
-365,956	243,644	0,005	0,006
-364,942	67,676	0,044	0,032
-363,927	64,529	0,045	0,033
-362,912	416,734	0,025	-0,038
-361,898	-200,000	-0,002	-0,090
-360,883	37,147	-0,123	-0,079
-359,869	800,000	-0,018	-0,047
-358,854	496,824	0,053	0,089
-357,839	-200,000	-0,009	0,096
-356,825	-76,379	-0,039	0,010
-355,810	-10,989	-0,081	0,039
-354,796	-181,595	0,056	-0,001
-353,781	-69,891	0,112	-0,031
-352,766	87,698	-0,023	-0,019
-351,752	171,534	-0,100	0,104
-350,737	293,181	-0,098	0,130
-349,723	800,000	0,065	0,164
-348,708	-37,770	0,041	0,016
-347,693	372,814	-0,100	-0,147
-346,679	-51,203	-0,090	-0,030
-345,664	-101,206	-0,187	0,033
-344,650	-142,765	0,101	0,007
-343,635	13,587	0,036	-0,020
-342,620	-116,626	0,116	-0,015
-341,606	-200,000	0,004	0,019
-340,591	-129,400	-0,132	0,013
-339,577	169,397	0,080	-0,083
-338,562	-82,863	0,021	0,005
-337,548	29,530	-0,047	0,029
-336,533	800,000	-0,023	0,048
-335,518	-55,086	0,157	-0,051
-334,504	67,486	0,061	0,045
-333,489	800,000	-0,021	0,067
-332,475	732,759	0,042	-0,082
-331,460	-200,000	-0,012	-0,055
-330,445	178,868	0,084	-0,089
-329,431	346,329	0,053	-0,076
-328,416	129,393	-0,082	0,076
-327,402	474,343	-0,028	-0,046
-326,387	-50,743	-0,076	-0,026
-325,372	486,148	-0,070	-0,117
-324,358	544,137	-0,050	-0,086
-323,343	-200,000	0,021	-0,082
-322,329	-200,000	-0,008	-0,147
-321,314	66,365	0,069	-0,050
-320,299	235,112	-0,033	0,040
-319,285	89,131	-0,019	0,015
-318,270	-47,561	0,060	-0,021
-317,256	243,802	-0,051	-0,062
-316,241	-132,086	0,009	0,001
-315,226	187,288	0,052	-0,056
-314,212	-200,000	-0,015	-0,066
-313,197	-200,000	0,005	0,121
-312,183	-200,000	-0,049	0,174
-311,168	18,551	0,063	-0,036
-310,153	-200,000	-0,002	0,018
-309,139	-200,000	-0,045	-0,154
-308,124	9,546	-0,043	0,023
-307,110	5,844	-0,122	0,065
-306,095	-200,000	-0,018	-0,145
-305,080	-200,000	-0,027	-0,097
-304,066	51,751	0,086	-0,059
-303,051	260,577	-0,063	-0,079
-302,037	-120,780	-0,078	0,009
-301,022	-200,000	0,014	-0,096
-300,008	-200,000	0,052	0,186
-298,993	18,474	0,074	-0,043
-297,978	127,758	0,108	0,099
-296,964	-200,000	0,003	-0,067
-295,949	-200,000	-0,010	-0,166
-294,935	-200,000	-0,030	-0,120
-293,920	186,788	0,036	0,039
-292,905	800,000	0,049	0,107
-291,891	800,000	0,093	0,187
-290,876	157,155	-0,063	-0,063
-289,862	-159,066	0,046	-0,002
-288,847	-118,267	-0,147	-0,019
-287,832	800,000	-0,010	-0,032
-286,818	-200,000	0,031	-0,139
-285,803	11,870	0,133	0,074
-284,789	376,872	0,040	0,060
-283,774	-200,000	0,007	-0,092
-282,759	-95,149	-0,049	-0,009
-281,745	-5,037	0,039	0,019
-280,730	376,089	-0,055	-0,082
-279,716	-200,000	0,018	0,091
-278,701	0,821	0,130	0,067
-277,686	44,391	0,076	0,050
-276,672	41,061	0,021	0,013
-275,657	116,935	0,048	-0,042
-274,643	800,000	0,022	0,045
-273,628	-83,033	0,035	0,008
-272,613	800,000	-0,026	0,062
-271,599	-101,896	0,106	0,018
-270,584	-200,000	0,017	0,082
-269,570	-200,000	0,013	0,077
-268,555	-55,689	0,016	-0,005
-267,540	-137,304	0,047	0,004
-266,526	28,547	-0,100	0,061
-265,511	73,555	0,110	0,083
-264,497	-200,000	0,001	-0,070
-263,482	271,228	0,086	-0,110
-262,467	177,834	0,069	-0,072
-261,453	-101,824	0,085	0,015
-260,438	-200,000	-0,008	-0,216
-259,424	-200,000	-0,008	-0,037
-258,409	-200,000	-0,005	0,108
-257,395	-149,432	-0,082	-0,005
-256,380	-60,860	0,027	-0,008
-255,365	-119,187	0,098	0,012
-254,351	-156,175	0,034	0,002
-253,336	-200,000	-0,011	0,078
-252,322	-47,980	0,174	-0,061
-251,307	789,928	-0,060	0,120
-250,292	496,967	-0,007	-0,012
-249,278	298,851	-0,051	0,067
-248,263	168,811	0,030	0,031
-247,249	-200,000	0,044	0,180
-246,234	-97,750	-0,083	0,015
-245,219	800,000	-0,042	-0,108
-244,205	-200,000	-0,013	0,046
-243,190	800,000	-0,023	-0,068
-242,176	622,696	0,024	0,043
-241,161	-129,679	0,033	0,003
-240,146	800,000	0,072	0,183
-239,132	-200,000	0,011	0,043
-238,117	800,000	-0,048	-0,128
-237,103	-149,516	-0,136	0,008
-236,088	-200,000	0,015	-0,103
-235,073	380,101	0,064	0,096
-234,059	760,300	0,029	0,057
-233,044	800,000	0,034	-0,106
-232,030	44,993	0,110	-0,073
-231,015	413,107	-0,100	-0,155
-230,000	-36,840	-0,072	0,028
-228,986	121,282	0,092	0,083
-227,971	-105,076	0,035	-0,006
-226,957	137,399	-0,106	0,100
-225,942	-65,875	-0,069	-0,020
-224,927	-173,087	-0,119	0,003
-223,913	63,405	-0,045	0,033
-222,898	-85,725	-0,108	-0,024
-221,884	-200,000	0,023	-0,194
-220,869	350,050	0,030	-0,044
-219,855	800,000	-0,017	0,040
-218,840	112,605	0,077	0,068
-217,825	800,000	-0,012	0,031
-216,811	246,509	0,055	-0,067
-215,796	-200,000	0,034	-0,159
-214,782	-90,795	-0,109	0,023
-213,767	800,000	-0,051	0,154
-212,752	-92,562	0,075	-0,015
-211,738	-200,000	0,010	-0,035
-210,723	753,635	-0,022	0,044
-209,709	-200,000	0,022	-0,146
-208,694	206,614	0,115	-0,129
-207,679	-200,000	-0,012	-0,098
-206,665	-104,132	0,036	-0,006
-205,650	377,599	-0,158	0,234
-204,636	-59,506	-0,049	0,015
-203,621	-200,000	-0,016	0,128
-202,606	109,252	-0,038	-0,033
-201,592	-200,000	-0,021	-0,122
-200,577	-71,489	-0,083	-0,022
-199,563	245,934	0,083	0,101
-198,548	800,000	0,035	0,093
-197,533	-47,820	0,079	0,028
-196,519	800,000	0,024	0,050
-195,504	334,681	-0,067	-0,093
-194,490	-200,000	0,013	-0,065
-193,475	776,318	-0,035	0,070
-192,460	-87,150	0,029	0,006
-191,446	200,600	0,058	0,064
-190,431	-147,377	-0,059	-0,004
-189,417	191,111	0,055	0,059
-188,402	518,297	-0,044	-0,074
-187,387	-200,000	0,007	0,078
-186,373	-68,407	-0,050	-0,014
-185,358	-165,488	-0,064	0,002
-184,344	-42,421	-0,061	0,022
-183,329	-200,000	-0,005	0,239
-182,315	-200,000	-0,005	-0,069
-181,300	-200,000	0,008	-0,099
-180,285	156,566	-0,100	-0,100
-179,271	-3,343	0,007	-0,004
-178,256	-80,206	-0,062	-0,015
-177,242	800,000	0,045	0,104
-176,227	-27,841	0,244	0,102
-175,212	453,041	-0,025	-0,039
-174,198	-176,801	0,133	-0,002
-173,183	114,352	-0,050	0,044
-172,169	621,947	-0,024	-0,044
-171,154	155,910	0,058	0,058
-170,139	65,578	-0,039	0,028
-169,125	-200,000	0,004	-0,013
-168,110	-200,000	0,010	-0,041
-167,096	-200,000	0,025	0,089
-166,081	529,188	0,032	-0,055
-165,066	800,000	0,020	0,053
-164,052	-105,194	0,014	-0,002
-163,037	419,414	0,083	-0,128
-162,023	-79,286	0,098	-0,024
-161,008	-150,711	0,052	-0,003
-159,993	522,411	-0,025	-0,043
-158,979	-80,132	0,029	0,007
-157,964	-13,309	0,049	-0,023
-156,950	565,729	0,054	0,095
-155,935	-200,000	-0,027	0,114
-154,920	-169,440	0,080	0,002
-153,906	121,791	0,024	-0,021
-152,891	24,020	0,018	0,011
-151,877	104,225	0,134	0,114
-150,862	89,513	0,088	-0,071
-149,847	-65,687	-0,155	0,044
-148,833	207,384	0,054	0,061
-147,818	-47,211	-0,014	0,005
-146,804	-200,000	-0,032	0,172
-145,789	-200,000	0,023	-0,102
-144,775	-107,310	-0,205	-0,032
-143,760	30,671	-0,094	0,058
-142,745	156,485	-0,045	0,045
-141,731	-98,438	-0,161	-0,029
-140,716	245,862	-0,067	-0,081
-139,702	-12,969	0,149	0,070
-138,687	235,518	0,041	-0,049
-137,672	800,000	-0,030	-0,091
-136,658	519,536	-0,013	-0,022
-135,643	508,013	-0,031	-0,052
-134,629	-200,000	0,012	-0,058
-133,614	-70,346	-0,112	-0,030
-132,599	-38,840	-0,110	-0,042
-131,585	338,476	0,043	0,061
-130,570	83,568	-0,090	0,070
-129,556	252,378	-0,122	-0,149
-128,541	-34,745	0,013	-0,005
-127,526	32,054	-0,052	0,032
-126,512	-95,551	0,148	0,028
-125,497	323,865	0,060	-0,082
-124,483	-200,000	0,048	-0,171
-123,468	45,894	-0,113	0,075
-122,453	-50,443	0,142	-0,048
-121,439	174,332	-0,022	-0,023
-120,424	-200,000	0,002	0,118
-119,410	-112,125	0,094	-0,014
