DTS Sentinel unit serial number:	SN410029Multiplexer serial number:	ORYXHardware model number:	OX2-SRSoftware version number:	ORYX F/W v4,00 Oryx Data Collector v3.7.2.0data status	okinstallation	B5 Nyhavnadifferential loss correction	single-endedforward channel	channel 2reverse channel	N/Adate	2023/12/12time	01:37:13forward acquisition time	300,00reverse acquisition time	0,00gamma	499,1914k internal	0,3156k external	0,3156temperature offset calibration	1,0000default loss term (dB/km)	0,3820temperature slope calibration	1,0000multiplexer offset coefficient	1,0000multiplexer slope coefficient	1,0000fibre end	0,00T internal ref (°C)	15,89T ext. ref 1 (°C)	-0,49T ext. ref 2 (°C)	-0,77length (m)	temperature (°C)	Stokes	anti-Stokes-744,400	-74,804	0,082	-0,022
-743,385	-171,592	-0,259	0,006
-742,371	612,461	0,094	-0,173
-741,356	41,059	-0,159	0,106
-740,342	800,000	-0,025	-0,069
-739,327	-66,060	-0,077	-0,023
-738,312	-93,416	0,086	-0,017
-737,298	-144,532	-0,282	0,019
-736,283	-96,106	0,150	0,029
-735,269	-60,460	-0,161	0,050
-734,254	-26,720	0,104	-0,045
-733,239	-47,804	-0,538	-0,191
-732,225	110,163	0,076	0,067
-731,210	800,000	-0,023	0,047
-730,196	125,223	-0,105	0,098
-729,181	-200,000	0,009	0,073
-728,167	284,152	0,069	-0,091
-727,152	-200,000	-0,007	-0,082
-726,137	333,922	0,058	0,083
-725,123	-118,666	-0,036	-0,005
-724,108	-200,000	-0,005	-0,136
-723,094	-200,000	-0,023	-0,087
-722,079	-200,000	0,021	-0,113
-721,064	264,483	0,020	-0,026
-720,050	-26,130	0,059	0,025
-719,035	102,587	-0,035	0,030
-718,021	246,674	-0,070	0,087
-717,006	-200,000	0,036	-0,142
-715,991	-71,454	-0,149	-0,041
-714,977	441,546	-0,020	-0,032
-713,962	-67,385	-0,025	0,007
-712,948	-200,000	-0,002	0,204
-711,933	155,447	-0,073	-0,074
-710,918	-115,751	-0,087	0,012
-709,904	41,007	0,022	0,015
-708,889	15,193	-0,133	-0,076
-707,875	-200,000	0,045	-0,156
-706,860	-200,000	0,002	-0,045
-705,845	-200,000	0,024	0,179
-704,831	-30,581	-0,034	0,014
-703,816	490,567	-0,090	-0,152
-702,802	-200,000	0,001	0,033
-701,787	135,293	-0,138	-0,132
-700,772	272,043	-0,022	-0,028
-699,758	423,721	-0,083	-0,132
-698,743	-52,872	0,046	0,015
-697,729	-113,507	0,109	0,015
-696,714	2,661	0,087	0,046
-695,699	28,686	-0,134	0,083
-694,685	800,000	0,058	-0,134
-693,670	-200,000	0,011	-0,067
-692,656	27,331	0,101	0,062
-691,641	800,000	0,052	-0,106
-690,627	-200,000	-0,009	0,034
-689,612	113,739	0,071	0,063
-688,597	800,000	-0,037	-0,118
-687,583	-153,305	-0,189	0,010
-686,568	-14,418	-0,056	0,026
-685,554	71,552	-0,012	0,010
-684,539	-47,186	0,109	-0,039
-683,524	-200,000	0,005	0,081
-682,510	1,054	0,042	-0,022
-681,495	113,775	-0,065	0,058
-680,481	-36,471	-0,109	-0,043
-679,466	-200,000	-0,000	-0,090
-678,451	-38,135	-0,075	-0,029
-677,437	335,871	-0,033	0,048
-676,422	-103,470	-0,058	-0,010
-675,408	238,234	0,074	-0,091
-674,393	41,009	0,043	-0,029
-673,378	800,000	-0,095	-0,252
-672,364	-66,065	-0,233	-0,068
-671,349	80,849	-0,171	-0,135
-670,335	204,999	0,050	-0,057
-669,320	-122,860	-0,057	0,007
-668,305	800,000	0,027	-0,088
-667,291	732,716	-0,026	-0,052
-666,276	199,175	-0,097	-0,110
-665,262	135,972	-0,131	0,125
-664,247	-200,000	-0,016	-0,076
-663,232	-104,257	-0,065	0,011
-662,218	390,033	-0,029	-0,045
-661,203	-200,000	0,010	-0,065
-660,189	235,611	-0,041	0,049
-659,174	121,247	-0,056	-0,051
-658,159	406,073	0,045	0,070
-657,145	76,280	-0,215	0,167
-656,130	-125,295	-0,050	0,006
-655,116	-89,417	0,114	0,024
-654,101	-200,000	0,033	-0,126
-653,086	800,000	0,016	0,038
-652,072	241,840	0,022	0,027
-651,057	24,536	0,021	0,013
-650,043	-1,445	-0,122	0,063
-649,028	543,946	0,053	-0,093
-648,014	114,662	0,040	0,036
-646,999	-49,148	-0,028	-0,010
-645,984	-200,000	-0,011	-0,042
-644,970	-14,177	-0,044	0,021
-643,955	291,527	-0,072	-0,096
-642,941	-68,657	-0,073	-0,021
-641,926	-200,000	-0,032	-0,124
-640,911	-152,350	0,080	0,004
-639,897	-80,741	0,223	0,054
-638,882	82,922	-0,127	0,101
-637,868	-200,000	0,015	-0,098
-636,853	-98,887	0,147	0,027
-635,838	-103,785	-0,103	-0,018
-634,824	80,625	-0,039	-0,031
-633,809	62,756	0,079	-0,058
-632,795	-159,319	0,050	-0,002
-631,780	800,000	-0,042	0,107
-630,765	223,676	-0,077	-0,091
-629,751	23,998	-0,054	-0,033
-628,736	800,000	-0,031	-0,084
-627,722	103,874	0,083	0,072
-626,707	-33,044	0,104	0,042
-625,692	184,902	0,108	0,118
-624,678	228,300	0,048	-0,058
-623,663	-23,226	-0,076	0,034
-622,649	88,850	-0,075	0,062
-621,634	800,000	0,054	-0,143
-620,619	68,069	0,095	-0,071
-619,605	-73,649	0,076	-0,020
-618,590	-200,000	-0,015	0,072
-617,576	-49,436	-0,089	0,031
-616,561	18,077	0,104	0,061
-615,546	-188,686	-0,033	-0,000
-614,532	800,000	0,078	-0,185
-613,517	-156,427	-0,123	0,006
-612,503	174,845	-0,014	-0,015
-611,488	177,591	0,046	0,049
-610,474	56,282	-0,056	-0,040
-609,459	17,174	-0,084	-0,049
-608,444	-15,637	-0,076	-0,035
-607,430	775,928	0,025	0,050
-606,415	-200,000	0,012	-0,041
-605,401	-5,443	-0,099	-0,050
-604,386	800,000	0,020	-0,060
-603,371	153,525	-0,092	0,092
-602,357	-176,582	0,189	0,003
-601,342	81,994	-0,047	0,037
-600,328	-200,000	0,019	0,125
-599,313	-200,000	0,004	-0,042
-598,298	-52,072	-0,098	0,033
-597,284	-200,000	0,006	0,135
-596,269	411,348	0,038	0,060
-595,255	282,102	0,027	0,035
-594,240	-200,000	0,001	-0,043
-593,225	78,043	0,022	0,017
-592,211	-200,000	0,001	-0,058
-591,196	4,347	-0,016	0,009
-590,182	-113,929	0,128	0,018
-589,167	800,000	-0,015	0,036
-588,152	-147,740	0,067	0,004
-587,138	662,154	-0,060	-0,115
-586,123	800,000	-0,054	0,141
-585,109	-159,434	-0,079	0,003
-584,094	-200,000	-0,021	-0,148
-583,079	-36,046	0,008	-0,003
-582,065	457,078	0,038	0,062
-581,050	81,404	0,089	0,070
-580,036	-200,000	0,008	0,150
-579,021	-110,342	0,073	-0,011
-578,006	588,678	0,027	0,050
-576,992	209,916	0,045	-0,051
-575,977	126,059	0,046	0,042
-574,963	-65,872	0,046	0,013
-573,948	237,003	0,065	0,080
-572,934	800,000	0,006	0,019
-571,919	800,000	0,071	-0,214
-570,904	556,825	-0,046	-0,082
-569,890	-109,225	-0,091	0,014
-568,875	526,014	0,055	0,096
-567,861	128,203	0,109	0,101
-566,846	800,000	0,100	0,217
-565,831	-46,852	-0,172	-0,061
-564,817	-200,000	-0,006	-0,061
-563,802	800,000	-0,033	-0,090
-562,788	76,571	-0,101	-0,079
-561,773	41,184	0,034	0,023
-560,758	96,847	0,138	-0,116
-559,744	-200,000	-0,008	0,120
-558,729	355,609	-0,042	0,061
-557,715	-141,576	-0,138	-0,010
-556,700	599,174	-0,022	-0,040
-555,685	23,200	-0,087	-0,052
-554,671	-23,115	-0,108	-0,047
-553,656	-101,808	0,062	0,011
-552,642	231,627	0,068	0,082
-551,627	-10,696	-0,127	0,061
-550,612	-200,000	-0,000	-0,041
-549,598	56,754	-0,084	-0,059
-548,583	64,207	-0,057	-0,042
-547,569	-46,317	0,030	-0,011
-546,554	217,291	0,042	0,049
-545,539	-200,000	0,007	0,102
-544,525	800,000	-0,071	0,166
-543,510	341,407	0,049	0,070
-542,496	623,406	-0,034	-0,063
-541,481	-149,509	-0,126	-0,007
-540,466	-200,000	0,028	-0,140
-539,452	538,483	-0,043	0,076
-538,437	-200,000	0,002	0,058
-537,423	-59,089	0,138	0,043
-536,408	28,754	-0,124	-0,077
-535,393	225,471	-0,107	0,127
-534,379	205,175	0,111	-0,126
-533,364	107,386	-0,024	0,021
-532,350	-43,919	0,057	-0,021
-531,335	12,191	0,045	-0,025
-530,321	714,412	0,027	0,053
-529,306	-200,000	-0,015	0,067
-528,291	-200,000	-0,009	0,053
-527,277	800,000	-0,032	0,095
-526,262	420,573	-0,095	-0,150
-525,248	-53,852	0,145	0,048
-524,233	188,652	0,004	0,004
-523,218	297,358	0,076	-0,102
-522,204	-200,000	-0,020	0,103
-521,189	800,000	-0,105	-0,269
-520,175	167,581	-0,028	0,029
-519,160	-116,558	-0,064	-0,008
-518,145	48,449	0,059	-0,040
-517,131	-128,359	-0,124	-0,013
-516,116	-200,000	-0,009	0,034
-515,102	-61,354	0,101	0,031
-514,087	-200,000	0,022	0,100
-513,072	-7,471	0,108	-0,053
-512,058	-41,685	-0,015	0,006
-511,043	-16,499	-0,112	-0,052
-510,029	-53,011	0,118	0,039
-509,014	0,813	0,098	0,051
-507,999	-200,000	-0,007	0,061
-506,985	-200,000	-0,010	-0,121
-505,970	514,634	-0,062	-0,105
-504,956	719,015	-0,048	-0,093
-503,941	-14,310	0,140	0,066
-502,926	-200,000	0,003	-0,036
-501,912	-200,000	0,016	0,071
-500,897	800,000	0,039	0,086
-499,883	-122,621	0,034	-0,004
-498,868	-200,000	-0,020	-0,165
-497,853	-200,000	0,005	-0,116
-496,839	-200,000	-0,002	-0,120
-495,824	-200,000	-0,002	0,033
-494,810	7,148	-0,041	-0,022
-493,795	-93,428	-0,056	-0,011
-492,781	800,000	-0,035	-0,112
-491,766	42,470	-0,120	-0,080
-490,751	-200,000	0,005	-0,132
-489,737	772,414	0,076	-0,153
-488,722	35,788	0,080	-0,051
-487,708	267,685	0,078	0,099
-486,693	-111,414	-0,032	-0,005
-485,678	113,635	0,077	-0,068
-484,664	132,031	0,050	-0,047
-483,649	800,000	0,023	0,052
-482,635	187,226	0,006	-0,007
-481,620	800,000	0,033	-0,078
-480,605	165,786	0,093	0,096
-479,591	387,090	-0,037	0,056
-478,576	800,000	-0,033	0,083
-477,562	-200,000	-0,036	-0,190
-476,547	-111,003	0,053	0,008
-475,532	-30,248	0,067	0,027
-474,518	-200,000	-0,032	-0,115
-473,503	262,387	0,078	0,099
-472,489	440,998	-0,027	0,044
-471,474	-23,124	0,089	0,039
-470,459	115,101	-0,036	0,032
-469,445	800,000	-0,047	-0,114
-468,430	-102,261	-0,058	0,010
-467,416	-113,198	-0,004	-0,001
-466,401	-139,252	0,104	-0,008
-465,386	309,281	0,080	0,109
-464,372	248,619	-0,013	0,016
-463,357	591,044	-0,023	0,041
-462,343	-142,133	-0,095	-0,007
-461,328	175,290	-0,172	0,182
-460,313	-200,000	0,003	-0,047
-459,299	-200,000	0,003	0,030
-458,284	-197,363	0,089	-0,000
-457,270	800,000	-0,033	0,079
-456,255	-200,000	0,016	-0,106
-455,241	219,655	0,064	0,075
-454,226	-80,868	0,095	0,023
-453,211	-116,884	0,045	-0,006
-452,197	298,327	0,009	-0,012
-451,182	800,000	0,013	0,040
-450,168	800,000	0,005	0,014
-449,153	34,677	0,050	0,032
-448,138	-36,763	-0,021	-0,008
-447,124	-163,769	0,060	-0,002
-446,109	-156,764	-0,116	0,005
-445,095	333,973	-0,053	-0,074
-444,080	-200,000	0,014	0,126
-443,065	372,640	0,087	0,129
-442,051	800,000	-0,057	0,171
-441,036	41,496	-0,057	-0,037
-440,022	-200,000	-0,001	-0,105
-439,007	-200,000	0,003	0,041
-437,992	213,299	0,088	-0,101
-436,978	-126,009	0,066	0,007
-435,963	-183,514	-0,032	-0,000
-434,949	-115,203	-0,119	0,016
-433,934	-200,000	-0,020	-0,066
-432,919	-200,000	0,026	-0,224
-431,905	-200,000	0,008	-0,135
-430,890	341,240	0,034	-0,048
-429,876	-200,000	0,018	0,232
-428,861	-200,000	-0,025	0,109
-427,846	-200,000	0,026	-0,133
-426,832	-27,822	-0,057	-0,024
-425,817	-55,280	-0,044	0,014
-424,803	341,727	0,045	-0,064
-423,788	131,541	-0,050	-0,046
-422,773	54,632	-0,037	0,026
-421,759	-200,000	-0,001	0,010
-420,744	-136,433	0,110	-0,009
-419,730	-123,376	-0,149	-0,017
-418,715	293,031	-0,047	-0,063
-417,701	800,000	-0,037	0,092
-416,686	-113,667	0,138	-0,019
-415,671	800,000	0,025	0,071
-414,657	-58,316	0,086	0,027
-413,642	-200,000	0,007	-0,234
-412,628	126,450	-0,131	-0,121
-411,613	-124,319	-0,014	-0,002
-410,598	-77,976	-0,043	0,011
-409,584	-61,366	-0,080	-0,024
-408,569	-200,000	0,020	-0,116
-407,555	217,141	0,067	0,078
-406,540	800,000	-0,047	-0,108
-405,525	-61,747	-0,096	0,029
-404,511	45,839	-0,049	-0,033
-403,496	136,623	-0,065	-0,062
-402,482	596,718	-0,058	-0,105
-401,467	800,000	0,017	0,044
-400,452	-60,022	-0,101	0,031
-399,438	-200,000	0,008	-0,044
-398,423	527,525	0,080	-0,138
-397,409	-84,178	0,055	-0,012
-396,394	-200,000	-0,012	0,049
-395,379	401,641	0,072	-0,111
-394,365	-200,000	0,004	-0,037
-393,350	-200,000	-0,021	0,094
-392,336	-200,000	0,004	0,087
-391,321	-200,000	0,004	-0,062
-390,306	663,267	-0,095	-0,178
-389,292	-53,399	-0,065	0,022
-388,277	317,384	0,027	-0,037
-387,263	-200,000	-0,018	-0,067
-386,248	-100,238	0,217	0,039
-385,233	-200,000	0,015	0,091
-384,219	-121,775	-0,108	0,013
-383,204	23,105	0,041	-0,025
-382,190	103,334	-0,078	-0,066
-381,175	88,950	0,051	0,042
-380,160	496,149	0,048	-0,080
-379,146	130,962	0,019	-0,018
-378,131	512,831	-0,078	-0,133
-377,117	-100,878	-0,179	-0,032
-376,102	800,000	0,018	0,053
-375,088	-200,000	0,012	-0,092
-374,073	127,298	0,092	0,085
-373,058	-200,000	-0,008	0,187
-372,044	655,171	-0,036	0,068
-371,029	430,538	0,028	0,044
-370,015	72,868	0,026	-0,020
-369,000	-60,371	-0,223	-0,069
-367,985	-2,827	0,081	0,041
-366,971	-95,851	-0,067	-0,013
-365,956	97,322	-0,074	0,062
-364,942	-200,000	0,030	0,107
-363,927	-3,187	0,153	-0,077
-362,912	-150,589	0,098	-0,005
-361,898	-25,891	0,093	-0,039
-360,883	752,104	-0,025	-0,050
-359,869	-200,000	-0,016	-0,067
-358,854	800,000	0,041	-0,094
-357,839	800,000	-0,091	0,188
-356,825	-82,027	-0,077	0,018
-355,810	-87,136	-0,143	-0,031
-354,796	282,737	0,038	0,050
-353,781	800,000	-0,024	-0,071
-352,766	-41,231	-0,085	-0,032
-351,752	-200,000	-0,023	0,106
-350,737	476,352	0,024	-0,039
-349,723	54,809	0,083	-0,058
-348,708	800,000	-0,023	0,056
-347,693	-200,000	0,018	-0,109
-346,679	-62,542	0,076	-0,023
-345,664	-59,845	-0,061	0,019
-344,650	-200,000	-0,024	0,112
-343,635	270,299	0,020	-0,025
-342,620	72,375	0,185	0,140
-341,606	84,495	0,087	-0,069
-340,591	-4,443	0,092	0,046
-339,577	76,234	-0,085	-0,066
-338,562	-124,646	-0,072	-0,008
-337,548	-113,806	-0,176	0,025
-336,533	-83,832	0,065	-0,015
-335,518	425,122	0,029	-0,046
-334,504	-200,000	-0,045	0,165
-333,489	800,000	0,032	0,087
-332,475	11,974	-0,112	0,062
-331,460	-200,000	0,025	-0,145
-330,445	204,136	-0,073	-0,082
-329,431	-78,811	0,040	-0,010
-328,416	-49,653	0,057	-0,019
-327,402	-36,222	-0,055	-0,021
-326,387	217,517	0,062	-0,071
-325,372	-200,000	-0,019	-0,075
-324,358	164,011	-0,136	0,139
-323,343	132,580	-0,038	0,036
-322,329	-200,000	0,006	0,040
-321,314	-55,316	-0,068	-0,022
-320,299	-117,713	0,053	-0,007
-319,285	-200,000	-0,010	0,044
-318,270	-111,192	-0,184	-0,027
-317,256	410,589	0,034	0,052
-316,241	-157,436	-0,211	-0,009
-315,226	176,087	0,058	0,061
-314,212	58,511	0,016	0,011
-313,197	12,434	0,018	-0,010
-312,183	45,998	0,035	-0,023
-311,168	58,196	-0,054	-0,038
-310,153	408,114	0,045	-0,069
-309,139	-79,641	0,070	0,017
-308,124	112,891	0,045	-0,040
-307,110	-115,866	0,063	-0,008
-306,095	36,679	-0,062	-0,040
-305,080	-39,727	0,081	0,031
-304,066	-89,054	-0,040	-0,009
-303,051	-200,000	-0,017	-0,116
-302,037	-200,000	0,006	0,033
-301,022	-68,119	-0,062	-0,017
-300,008	-164,901	0,118	-0,004
-298,993	-42,762	0,072	0,026
-297,978	119,168	0,046	-0,041
-296,964	486,143	-0,031	-0,051
-295,949	800,000	0,015	-0,033
-294,935	17,028	0,040	0,023
-293,920	-77,715	-0,098	0,024
-292,905	127,567	-0,022	-0,020
-291,891	-184,037	0,088	-0,001
-290,876	-5,922	-0,102	0,050
-289,862	20,414	-0,083	0,048
-288,847	-200,000	-0,018	0,062
-287,832	471,347	0,036	0,059
-286,818	38,816	-0,049	-0,032
-285,803	-23,292	0,179	0,078
-284,789	596,354	0,042	0,076
-283,774	98,773	-0,035	-0,030
-282,759	-43,539	-0,110	-0,040
-281,745	-200,000	0,005	0,127
-280,730	184,630	-0,052	-0,056
-279,716	426,291	0,112	0,176
-278,701	-118,551	0,174	-0,022
-277,686	156,248	0,048	0,048
-276,672	185,276	0,025	-0,027
-275,657	93,110	-0,112	-0,091
-274,643	500,163	-0,035	-0,059
-273,628	800,000	0,048	0,112
-272,613	-200,000	-0,000	-0,007
-271,599	328,103	0,041	-0,058
-270,584	258,784	0,050	0,063
-269,570	-15,143	-0,037	0,017
-268,555	-200,000	-0,011	0,091
-267,540	-114,812	-0,076	-0,010
-266,526	125,248	-0,086	-0,078
-265,511	800,000	0,038	-0,090
-264,497	-11,490	-0,043	-0,020
-263,482	-71,622	0,084	-0,023
-262,467	800,000	0,026	-0,058
-261,453	-22,801	-0,039	-0,017
-260,438	-118,780	-0,121	-0,015
-259,424	-131,921	0,166	-0,016
-258,409	233,583	-0,131	0,156
-257,395	267,832	0,092	-0,117
-256,380	332,928	0,005	0,007
-255,365	800,000	0,049	0,147
-254,351	800,000	0,020	0,045
-253,336	-57,233	-0,102	-0,032
-252,322	-88,790	-0,068	0,014
-251,307	3,965	-0,029	-0,015
-250,292	-200,000	-0,016	-0,106
-249,278	29,372	-0,170	0,104
-248,263	382,889	0,042	0,063
-247,249	110,402	0,053	-0,046
-246,234	-53,027	-0,039	-0,013
-245,219	273,672	0,039	0,051
-244,205	62,409	-0,040	-0,029
-243,190	-200,000	0,007	0,079
-242,176	287,846	0,016	-0,021
-241,161	335,355	0,102	0,144
-240,146	179,060	-0,078	0,083
-239,132	-200,000	-0,070	-0,258
-238,117	-200,000	0,029	-0,100
-237,103	-35,772	0,056	-0,022
-236,088	-200,000	-0,013	0,068
-235,073	379,904	0,043	-0,063
-234,059	352,786	0,055	0,079
-233,044	800,000	-0,040	-0,118
-232,030	552,905	-0,050	0,088
-231,015	-200,000	0,009	0,030
-230,000	-132,842	-0,138	0,013
-228,986	-200,000	0,010	-0,109
-227,971	-36,516	0,141	-0,055
-226,957	-101,925	0,128	0,022
-225,942	800,000	0,053	0,157
-224,927	800,000	-0,023	-0,056
-223,913	88,692	0,048	0,038
-222,898	-45,295	-0,046	0,017
-221,884	-191,515	-0,112	0,001
-220,869	-200,000	0,006	-0,062
-219,855	295,227	0,013	0,017
-218,840	-30,992	-0,075	-0,030
-217,825	441,032	-0,062	-0,098
-216,811	235,728	0,049	-0,059
-215,796	-58,521	-0,096	-0,030
-214,782	800,000	0,044	-0,113
-213,767	-200,000	0,001	-0,133
-212,752	-200,000	-0,021	0,099
-211,738	122,400	0,091	0,082
-210,723	-200,000	0,019	-0,093
-209,709	-200,000	0,002	-0,101
-208,694	35,686	0,094	0,060
-207,679	-80,754	0,090	-0,021
-206,665	55,082	0,058	-0,040
-205,650	800,000	-0,032	0,087
-204,636	800,000	-0,038	0,082
-203,621	16,713	-0,036	0,021
-202,606	230,908	-0,045	-0,053
-201,592	-47,659	-0,122	0,042
-200,577	102,118	0,064	-0,054
-199,563	289,826	0,030	0,040
-198,548	-200,000	-0,025	0,113
-197,533	-200,000	-0,026	0,203
-196,519	-200,000	0,017	0,122
-195,504	22,757	0,092	0,054
-194,490	-79,896	-0,164	-0,039
-193,475	-200,000	0,015	-0,051
-192,460	-96,807	-0,043	-0,008
-191,446	-200,000	0,009	0,069
-190,431	563,196	0,041	0,072
-189,417	-200,000	0,029	0,092
-188,402	176,064	-0,107	0,113
-187,387	-200,000	0,180	-0,000
-186,373	-200,000	0,008	0,055
-185,358	-25,363	0,081	-0,035
-184,344	-95,362	0,083	-0,016
-183,329	-48,496	0,098	-0,034
-182,315	-200,000	-0,001	0,044
-181,300	-200,000	-0,021	-0,118
-180,285	43,051	-0,132	-0,087
-179,271	140,808	-0,092	-0,087
-178,256	24,205	-0,045	-0,027
-177,242	300,696	0,091	0,121
-176,227	-200,000	0,001	-0,027
-175,212	-200,000	0,005	-0,039
-174,198	223,349	0,103	0,119
-173,183	238,379	-0,028	-0,034
-172,169	146,719	0,010	-0,009
-171,154	752,512	-0,051	-0,099
-170,139	83,230	0,095	-0,074
-169,125	800,000	-0,073	0,196
-168,110	-85,943	0,046	-0,010
-167,096	-200,000	0,034	0,139
-166,081	800,000	0,036	0,111
-165,066	800,000	0,011	-0,034
-164,052	-52,733	-0,130	0,043
-163,037	-40,178	0,120	0,045
-162,023	-200,000	-0,012	0,211
-161,008	-200,000	-0,001	0,017
-159,993	43,699	-0,033	0,022
-158,979	-54,695	-0,091	0,030
-157,964	306,476	0,047	-0,064
-156,950	-140,155	-0,126	0,009
-155,935	295,548	0,050	0,067
-154,920	241,496	0,108	0,131
-153,906	-5,191	-0,012	-0,006
-152,891	-200,000	-0,003	0,058
-151,877	-200,000	-0,019	0,082
-150,862	233,054	0,084	-0,100
-149,847	-28,168	-0,047	-0,020
-148,833	-132,102	-0,079	0,007
-147,818	318,035	-0,016	-0,022
-146,804	800,000	-0,049	0,144
-145,789	-139,005	-0,057	0,004
-144,775	657,396	-0,058	0,107
-143,760	461,287	0,031	-0,051
-142,745	49,182	-0,131	-0,089
-141,731	180,859	-0,041	0,044
-140,716	-124,887	0,054	-0,006
-139,702	800,000	0,046	0,130
-138,687	800,000	0,042	0,094
-137,672	2,140	-0,055	0,028
-136,658	-46,914	-0,101	0,035
-135,643	385,378	-0,031	-0,046
-134,629	11,322	-0,062	0,034
-133,614	-200,000	-0,005	0,060
-132,599	84,928	0,143	0,112
-131,585	-55,586	-0,058	-0,019
-130,570	167,343	-0,058	-0,060
-129,556	-200,000	0,037	-0,145
-128,541	800,000	0,045	-0,094
-127,526	-117,140	-0,031	-0,004
-126,512	33,711	0,072	-0,045
-125,497	-147,838	-0,032	0,002
-124,483	-200,000	-0,028	0,132
-123,468	-200,000	0,016	0,097
-122,453	41,423	0,114	0,074
-121,439	466,297	-0,026	-0,042
-120,424	-200,000	0,041	0,139
