DTS Sentinel unit serial number:	SN410029Multiplexer serial number:	ORYXHardware model number:	OX2-SRSoftware version number:	ORYX F/W v4,00 Oryx Data Collector v3.7.2.0data status	okinstallation	B5 Nyhavnadifferential loss correction	single-endedforward channel	channel 2reverse channel	N/Adate	2023/12/13time	20:37:13forward acquisition time	300,00reverse acquisition time	0,00gamma	499,1914k internal	0,3157k external	0,3157temperature offset calibration	1,0000default loss term (dB/km)	0,3820temperature slope calibration	1,0000multiplexer offset coefficient	1,0000multiplexer slope coefficient	1,0000fibre end	0,00T internal ref (°C)	10,65T ext. ref 1 (°C)	-6,34T ext. ref 2 (°C)	-6,43length (m)	temperature (°C)	Stokes	anti-Stokes-744,400	-70,642	0,204	-0,056
-743,385	-40,680	-0,360	0,137
-742,371	-53,341	0,204	0,068
-741,356	-190,269	-0,267	0,002
-740,342	161,148	0,108	0,111
-739,327	-70,825	-0,489	-0,135
-738,312	481,883	0,055	-0,093
-737,298	-154,513	-0,344	0,017
-736,283	-55,716	0,312	0,102
-735,269	-118,020	-0,368	-0,048
-734,254	-106,529	0,041	0,007
-733,239	-69,549	-0,559	-0,157
-732,225	-133,886	0,217	0,020
-731,210	-200,000	0,011	0,186
-730,196	800,000	-0,034	0,075
-729,181	197,077	0,012	0,013
-728,167	14,098	0,093	0,053
-727,152	-37,866	-0,085	0,033
-726,137	-200,000	-0,019	-0,103
-725,123	-200,000	-0,031	0,104
-724,108	247,948	-0,134	-0,167
-723,094	358,432	0,070	-0,104
-722,079	-85,116	0,201	0,046
-721,064	132,706	-0,085	-0,081
-720,050	-200,000	0,004	0,093
-719,035	102,980	-0,058	0,050
-718,021	283,215	0,034	0,045
-717,006	485,033	-0,076	-0,128
-715,991	-200,000	-0,048	-0,199
-714,977	178,334	-0,068	-0,074
-713,962	800,000	-0,020	0,053
-712,948	800,000	0,016	-0,040
-711,933	110,014	0,037	0,033
-710,918	83,982	-0,072	-0,058
-709,904	35,963	-0,099	-0,064
-708,889	-58,182	-0,148	0,047
-707,875	-94,667	0,060	-0,012
-706,860	-157,369	0,026	0,001
-705,845	-26,384	-0,059	0,025
-704,831	-77,794	-0,096	-0,024
-703,816	-200,000	0,031	0,183
-702,802	800,000	-0,046	-0,106
-701,787	-171,219	-0,224	0,005
-700,772	-200,000	-0,023	0,111
-699,758	-75,180	-0,031	-0,008
-698,743	-167,063	-0,046	-0,001
-697,729	800,000	-0,035	-0,101
-696,714	94,252	-0,123	-0,103
-695,699	-117,883	-0,045	-0,006
-694,685	-143,428	-0,087	-0,006
-693,670	191,955	-0,043	-0,047
-692,656	-200,000	-0,026	-0,152
-691,641	-200,000	-0,006	0,033
-690,627	177,590	0,073	0,078
-689,612	177,775	0,018	0,019
-688,597	-200,000	0,004	-0,014
-687,583	4,966	0,078	-0,042
-686,568	416,479	0,052	-0,082
-685,554	-98,726	-0,076	0,014
-684,539	-96,426	-0,120	0,023
-683,524	800,000	0,060	0,155
-682,510	58,010	0,089	-0,064
-681,495	54,654	-0,093	-0,066
-680,481	101,274	-0,037	-0,032
-679,466	-200,000	0,004	-0,084
-678,451	165,335	0,069	-0,072
-677,437	-103,336	-0,110	0,019
-676,422	-157,084	0,058	-0,003
-675,408	-31,537	0,049	0,020
-674,393	501,493	0,062	-0,106
-673,378	-56,163	-0,108	-0,035
-672,364	-73,352	-0,124	0,033
-671,349	-140,505	0,184	-0,014
-670,335	-200,000	-0,036	0,122
-669,320	-200,000	-0,010	-0,081
-668,305	-84,231	-0,077	-0,018
-667,291	-169,288	-0,080	-0,002
-666,276	-99,124	0,122	0,022
-665,262	800,000	-0,050	-0,124
-664,247	-200,000	-0,033	-0,129
-663,232	-200,000	0,005	-0,041
-662,218	-88,841	0,115	0,025
-661,203	130,659	-0,120	0,113
-660,189	-97,346	-0,079	0,015
-659,174	206,924	-0,068	-0,078
-658,159	-93,201	-0,029	0,006
-657,145	-200,000	-0,005	0,116
-656,130	224,572	0,055	-0,066
-655,116	-9,922	0,086	-0,042
-654,101	13,068	0,039	-0,022
-653,086	-200,000	0,002	0,118
-652,072	210,660	0,049	0,057
-651,057	103,206	-0,065	0,056
-650,043	32,947	-0,155	0,099
-649,028	-137,460	0,031	-0,003
-648,014	-200,000	0,016	0,057
-646,999	-37,656	0,060	-0,024
-645,984	35,951	0,040	0,026
-644,970	54,021	-0,089	-0,063
-643,955	800,000	-0,009	0,019
-642,941	800,000	0,015	-0,040
-641,926	58,713	-0,094	-0,068
-640,911	28,427	0,101	0,062
-639,897	-51,229	-0,072	-0,025
-638,882	575,277	0,069	0,124
-637,868	-77,050	0,045	-0,011
-636,853	-200,000	-0,009	-0,209
-635,838	234,415	-0,091	-0,111
-634,824	2,998	0,050	-0,027
-633,809	278,904	-0,060	-0,079
-632,795	-200,000	0,004	0,093
-631,780	-200,000	0,014	-0,075
-630,765	9,679	0,052	-0,029
-629,751	102,293	-0,062	-0,053
-628,736	33,169	0,021	0,013
-627,722	-62,771	-0,039	0,012
-626,707	117,940	-0,136	-0,123
-625,692	-111,525	0,163	0,024
-624,678	-200,000	0,022	-0,107
-623,663	-94,456	-0,111	-0,022
-622,649	15,233	-0,085	0,049
-621,634	800,000	-0,074	-0,152
-620,619	-154,270	0,113	-0,005
-619,605	-138,083	0,108	-0,009
-618,590	-200,000	-0,012	0,081
-617,576	27,982	-0,143	-0,088
-616,561	-200,000	0,003	0,065
-615,546	-169,961	0,048	-0,001
-614,532	800,000	-0,067	-0,180
-613,517	47,105	0,041	0,028
-612,503	482,665	0,071	0,119
-611,488	-45,335	-0,068	-0,025
-610,474	-68,904	-0,105	-0,030
-609,459	310,116	-0,040	0,055
-608,444	-97,690	-0,132	-0,025
-607,430	800,000	0,081	-0,182
-606,415	-200,000	0,071	0,000
-605,401	-200,000	-0,013	-0,074
-604,386	-200,000	-0,008	-0,091
-603,371	-105,209	-0,097	-0,016
-602,357	634,546	-0,038	-0,071
-601,342	-200,000	0,014	-0,105
-600,328	16,099	-0,045	0,026
-599,313	163,509	-0,048	0,050
-598,298	526,118	-0,009	-0,015
-597,284	-41,648	0,107	0,040
-596,269	-200,000	-0,006	-0,038
-595,255	800,000	0,038	0,092
-594,240	-123,971	0,075	0,009
-593,225	800,000	-0,033	-0,094
-592,211	580,348	-0,016	-0,029
-591,196	130,539	-0,048	0,045
-590,182	-76,000	-0,098	0,025
-589,167	-200,000	-0,020	-0,065
-588,152	-16,549	-0,090	0,041
-587,138	800,000	0,012	-0,032
-586,123	-67,099	-0,079	0,023
-585,109	-60,400	-0,162	-0,050
-584,094	-45,507	0,191	0,069
-583,079	800,000	-0,048	0,117
-582,065	800,000	-0,020	0,050
-581,050	741,690	-0,033	0,066
-580,036	327,002	-0,047	-0,066
-579,021	17,775	-0,053	-0,031
-578,006	-200,000	0,016	-0,138
-576,992	385,812	-0,051	-0,078
-575,977	-200,000	0,006	-0,029
-574,963	-140,497	-0,025	0,002
-573,948	200,193	-0,013	-0,014
-572,934	301,765	-0,030	0,041
-571,919	20,374	-0,028	-0,017
-570,904	-112,678	-0,066	-0,009
-569,890	130,131	-0,072	-0,067
-568,875	-98,793	0,151	0,028
-567,861	-63,195	-0,068	-0,020
-566,846	184,294	-0,120	0,130
-565,831	-125,049	-0,113	-0,013
-564,817	110,738	-0,047	-0,041
-563,802	325,077	-0,107	0,150
-562,788	-200,000	-0,006	0,041
-561,773	404,929	-0,068	0,105
-560,758	325,048	0,073	0,102
-559,744	-133,096	0,042	0,004
-558,729	-200,000	0,004	-0,013
-557,715	10,238	-0,170	0,094
-556,700	-7,822	-0,051	-0,025
-555,685	19,185	0,108	-0,063
-554,671	174,614	-0,055	0,058
-553,656	501,217	0,056	0,096
-552,642	304,997	0,074	0,100
-551,627	7,897	0,106	0,058
-550,612	-99,298	-0,106	0,019
-549,598	-168,558	0,145	-0,004
-548,583	220,237	0,075	-0,088
-547,569	-200,000	-0,009	0,116
-546,554	800,000	0,036	-0,090
-545,539	293,501	-0,034	-0,046
-544,525	-200,000	0,016	0,079
-543,510	209,505	0,080	0,092
-542,496	17,363	-0,077	-0,045
-541,481	329,259	-0,028	-0,040
-540,466	392,609	0,074	0,113
-539,452	94,322	-0,058	0,048
-538,437	-200,000	-0,014	0,050
-537,423	-10,186	-0,055	0,026
-536,408	194,921	0,080	-0,089
-535,393	-25,655	0,089	0,038
-534,379	-100,492	-0,106	0,019
-533,364	-53,034	0,111	0,037
-532,350	199,860	0,042	0,047
-531,335	-200,000	0,029	-0,145
-530,321	-200,000	-0,011	0,066
-529,306	-189,674	0,176	0,001
-528,291	81,016	0,132	-0,104
-527,277	-200,000	-0,026	-0,238
-526,262	716,903	0,015	-0,030
-525,248	200,979	0,156	-0,176
-524,233	800,000	0,001	-0,002
-523,218	-5,271	0,051	0,026
-522,204	-91,364	-0,098	-0,020
-521,189	611,968	0,044	-0,081
-520,175	114,497	-0,043	0,038
-519,160	103,943	-0,059	0,050
-518,145	-104,485	0,034	-0,006
-517,131	-91,002	0,096	0,020
-516,116	-200,000	-0,013	0,080
-515,102	-140,975	0,043	0,003
-514,087	-84,136	-0,087	0,020
-513,072	-200,000	0,010	-0,075
-512,058	-200,000	-0,005	-0,052
-511,043	283,143	0,085	-0,112
-510,029	800,000	0,021	-0,060
-509,014	-200,000	-0,001	-0,057
-507,999	488,444	0,032	0,054
-506,985	800,000	0,013	0,030
-505,970	800,000	0,031	-0,100
-504,956	242,512	-0,039	0,047
-503,941	-45,788	-0,052	0,019
-502,926	249,459	0,068	-0,085
-501,912	355,890	0,043	0,063
-500,897	86,103	-0,058	0,047
-499,883	-200,000	0,009	0,068
-498,868	24,798	-0,050	0,030
-497,853	188,241	-0,048	0,053
-496,839	54,611	-0,104	0,073
-495,824	800,000	0,049	-0,104
-494,810	365,970	0,062	0,092
-493,795	-48,583	0,043	0,015
-492,781	-3,039	-0,046	0,023
-491,766	-10,680	-0,090	0,043
-490,751	582,040	0,054	-0,097
-489,737	75,251	-0,019	0,015
-488,722	-200,000	0,004	0,077
-487,708	-200,000	0,019	0,100
-486,693	-24,459	0,127	-0,055
-485,678	-105,881	-0,133	-0,022
-484,664	79,801	-0,051	0,040
-483,649	109,693	0,078	-0,068
-482,635	-200,000	-0,009	-0,052
-481,620	-17,324	-0,017	-0,008
-480,605	-76,099	0,124	-0,032
-479,591	49,790	0,087	-0,060
-478,576	81,238	-0,083	0,066
-477,562	800,000	-0,038	0,122
-476,547	800,000	0,030	-0,086
-475,532	247,041	0,054	-0,067
-474,518	-48,642	-0,059	-0,020
-473,503	427,570	0,085	-0,135
-472,489	-200,000	0,022	0,080
-471,474	104,955	-0,062	-0,054
-470,459	-200,000	0,012	-0,087
-469,445	480,609	-0,064	-0,107
-468,430	131,392	-0,058	0,055
-467,416	93,951	0,025	0,021
-466,401	53,466	0,087	-0,061
-465,386	116,234	0,145	0,130
-464,372	-200,000	-0,017	0,083
-463,357	3,265	-0,061	0,032
-462,343	602,058	-0,030	-0,055
-461,328	22,381	-0,096	0,057
-460,313	-174,875	0,090	-0,002
-459,299	-200,000	0,006	0,073
-458,284	-23,318	0,058	-0,025
-457,270	95,679	0,036	-0,030
-456,255	82,938	0,013	-0,010
-455,241	33,104	-0,204	0,129
-454,226	221,810	-0,041	-0,049
-453,211	15,737	0,177	0,101
-452,197	-15,708	-0,051	-0,023
-451,182	2,893	0,032	-0,017
-450,168	756,982	0,027	-0,053
-449,153	-148,127	0,054	-0,003
-448,138	44,234	-0,075	0,050
-447,124	-31,613	-0,062	0,025
-446,109	231,729	-0,074	-0,089
-445,095	-200,000	-0,002	0,098
-444,080	-200,000	-0,000	0,055
-443,065	190,635	-0,047	0,052
-442,051	-72,481	0,100	0,027
-441,036	112,885	-0,079	-0,070
-440,022	-60,173	-0,105	-0,032
-439,007	44,604	0,089	-0,060
-437,992	-104,838	0,114	0,019
-436,978	800,000	-0,064	0,149
-435,963	-52,025	0,057	-0,019
-434,949	800,000	0,051	0,110
-433,934	-11,854	-0,078	-0,037
-432,919	150,894	-0,032	-0,032
-431,905	-117,842	-0,062	-0,008
-430,890	800,000	0,013	0,036
-429,876	-200,000	0,019	0,127
-428,861	-133,618	-0,071	-0,006
-427,846	132,002	0,077	-0,072
-426,832	-173,395	-0,073	0,002
-425,817	-200,000	-0,015	-0,062
-424,803	72,852	-0,060	0,046
-423,788	-200,000	-0,000	-0,016
-422,773	298,704	-0,041	0,055
-421,759	-200,000	0,002	-0,097
-420,744	-200,000	-0,004	-0,022
-419,730	10,533	0,031	0,017
-418,715	-200,000	-0,019	-0,073
-417,701	361,221	-0,030	0,044
-416,686	327,889	-0,039	-0,055
-415,671	-200,000	0,001	-0,008
-414,657	228,482	0,146	0,174
-413,642	-182,345	0,150	0,002
-412,628	-35,789	-0,056	-0,022
-411,613	93,819	-0,041	-0,034
-410,598	-200,000	0,045	-0,155
-409,584	-104,069	-0,033	-0,005
-408,569	86,707	0,094	0,075
-407,555	655,192	-0,030	0,057
-406,540	91,800	-0,123	-0,101
-405,525	-200,000	0,000	-0,073
-404,511	800,000	-0,062	-0,154
-403,496	688,300	0,014	-0,026
-402,482	690,753	0,075	-0,144
-401,467	-147,198	-0,070	-0,004
-400,452	-98,860	-0,115	-0,021
-399,438	-200,000	0,039	-0,139
-398,423	-29,505	-0,059	-0,024
-397,409	111,027	-0,070	-0,061
-396,394	-200,000	-0,002	-0,020
-395,379	142,190	-0,083	0,080
-394,365	75,170	-0,066	0,051
-393,350	-200,000	0,100	0,000
-392,336	-200,000	-0,021	0,130
-391,321	-32,148	0,043	-0,018
-390,306	726,317	0,040	0,078
-389,292	-189,593	-0,154	-0,001
-388,277	-39,267	-0,143	-0,054
-387,263	221,047	-0,007	-0,009
-386,248	800,000	0,012	0,033
-385,233	-86,998	0,097	0,021
-384,219	11,172	0,062	-0,035
-383,204	-84,447	0,107	0,024
-382,190	38,465	0,066	0,042
-381,175	800,000	0,064	-0,199
-380,160	2,499	0,083	0,044
-379,146	-200,000	0,034	0,112
-378,131	-64,061	-0,043	-0,013
-377,117	-28,311	-0,041	0,017
-376,102	29,380	0,092	-0,056
-375,088	-24,216	-0,085	-0,037
-374,073	166,854	0,117	-0,121
-373,058	90,260	0,021	-0,017
-372,044	-81,651	0,136	0,032
-371,029	800,000	0,059	0,143
-370,015	300,055	0,030	0,041
-369,000	-200,000	0,008	-0,062
-367,985	800,000	-0,014	-0,033
-366,971	-200,000	0,011	0,034
-365,956	26,972	0,117	-0,071
-364,942	438,053	0,044	-0,070
-363,927	51,183	0,108	0,074
-362,912	284,111	-0,042	0,055
-361,898	-21,277	0,097	0,043
-360,883	198,869	-0,066	-0,074
-359,869	-200,000	-0,001	0,042
-358,854	800,000	-0,057	0,133
-357,839	-149,573	-0,085	-0,005
-356,825	618,294	0,100	0,183
-355,810	-3,562	0,100	0,050
-354,796	0,633	-0,083	-0,043
-353,781	800,000	-0,045	-0,106
-352,766	-39,607	-0,074	-0,028
-351,752	387,749	0,097	0,146
-350,737	-149,231	0,205	0,012
-349,723	76,054	-0,059	-0,046
-348,708	-81,906	0,074	-0,017
-347,693	-40,315	-0,053	0,020
-346,679	-200,000	0,018	-0,079
-345,664	-200,000	-0,027	-0,123
-344,650	-73,661	-0,019	-0,005
-343,635	189,663	0,096	0,104
-342,620	-200,000	-0,002	-0,088
-341,606	53,627	-0,074	0,051
-340,591	800,000	0,030	-0,062
-339,577	800,000	-0,076	-0,156
-338,562	-62,091	-0,051	-0,015
-337,548	-1,599	-0,060	0,031
-336,533	800,000	-0,041	0,098
-335,518	-123,927	0,142	0,016
-334,504	-200,000	-0,014	-0,116
-333,489	313,410	-0,111	-0,152
-332,475	368,006	0,040	-0,059
-331,460	-200,000	-0,024	0,090
-330,445	-144,961	0,135	0,009
-329,431	-200,000	0,037	0,119
-328,416	-68,662	-0,055	0,015
-327,402	800,000	0,058	0,154
-326,387	-200,000	0,021	0,087
-325,372	-147,045	-0,185	0,011
-324,358	-110,862	-0,065	-0,010
-323,343	445,737	0,063	0,100
-322,329	800,000	-0,052	-0,158
-321,314	123,328	0,010	0,009
-320,299	51,323	0,128	0,088
-319,285	-200,000	-0,022	0,096
-318,270	-10,501	-0,119	0,057
-317,256	30,528	0,065	0,040
-316,241	118,383	0,048	0,043
-315,226	263,932	-0,125	0,158
-314,212	354,216	-0,062	0,089
-313,197	800,000	0,025	0,080
-312,183	141,472	-0,154	0,148
-311,168	-166,237	-0,056	-0,002
-310,153	159,778	0,007	-0,007
-309,139	143,632	0,084	-0,081
-308,124	82,735	0,014	0,011
-307,110	-183,758	0,058	0,001
-306,095	675,909	0,015	0,028
-305,080	273,807	0,047	0,061
-304,066	-200,000	-0,006	0,056
-303,051	719,515	-0,060	-0,116
-302,037	-28,032	-0,108	-0,045
-301,022	57,591	-0,047	0,033
-300,008	-200,000	0,005	0,139
-298,993	106,281	0,054	-0,046
-297,978	-70,585	-0,106	0,029
-296,964	179,103	0,035	-0,037
-295,949	30,872	0,018	-0,011
-294,935	-116,040	0,111	-0,015
-293,920	-200,000	0,005	0,063
-292,905	-138,458	0,068	0,005
-291,891	-200,000	0,005	0,030
-290,876	42,044	-0,093	0,061
-289,862	-200,000	-0,046	0,181
-288,847	490,997	0,024	-0,041
-287,832	-200,000	0,005	0,059
-286,818	-80,019	0,042	0,010
-285,803	-200,000	0,024	0,103
-284,789	671,262	-0,009	0,017
-283,774	-86,200	0,058	0,013
-282,759	-34,198	0,136	0,054
-281,745	-21,926	0,029	-0,013
-280,730	-120,181	0,115	-0,014
-279,716	553,908	-0,020	-0,035
-278,701	597,443	-0,014	0,024
-277,686	-200,000	-0,018	0,150
-276,672	-200,000	-0,009	0,078
-275,657	-200,000	-0,021	0,093
-274,643	-89,613	-0,072	-0,015
-273,628	800,000	0,087	-0,241
-272,613	514,724	0,037	0,063
-271,599	-200,000	-0,009	0,087
-270,584	800,000	0,034	-0,084
-269,570	-200,000	0,010	0,098
-268,555	800,000	-0,062	0,127
-267,540	-132,527	-0,018	0,002
-266,526	-200,000	-0,002	0,080
-265,511	-79,534	-0,092	-0,022
-264,497	-121,423	0,203	0,024
-263,482	-145,130	-0,074	0,005
-262,467	19,695	0,060	-0,035
-261,453	-200,000	-0,023	0,080
-260,438	800,000	0,035	-0,093
-259,424	421,545	-0,085	0,132
-258,409	-40,426	0,032	0,012
-257,395	-200,000	0,023	-0,167
-256,380	276,033	-0,013	0,017
-255,365	259,419	0,146	0,183
-254,351	43,722	-0,205	0,135
-253,336	-184,367	-0,115	0,001
-252,322	238,324	-0,086	-0,104
-251,307	-200,000	-0,013	-0,078
-250,292	800,000	-0,006	0,017
-249,278	300,235	-0,049	0,066
-248,263	-200,000	-0,019	-0,098
-247,249	-200,000	-0,001	0,011
-246,234	604,742	-0,059	-0,107
-245,219	-200,000	-0,046	0,168
-244,205	663,413	0,079	-0,147
-243,190	161,876	0,059	0,060
-242,176	330,592	-0,034	0,047
-241,161	170,838	0,126	0,131
-240,146	395,088	0,055	0,083
-239,132	-200,000	-0,010	0,067
-238,117	-7,870	0,179	-0,087
-237,103	-52,188	0,074	0,025
-236,088	800,000	-0,013	0,029
-235,073	-104,909	0,124	-0,020
-234,059	-200,000	-0,030	0,139
-233,044	116,845	-0,132	-0,118
-232,030	-142,950	0,206	-0,014
-231,015	0,617	0,037	-0,019
-230,000	-200,000	-0,006	0,108
-228,986	-46,928	0,115	-0,040
-227,971	800,000	-0,022	0,068
-226,957	92,509	0,163	0,133
-225,942	-140,344	-0,057	0,004
-224,927	8,395	-0,075	-0,041
-223,913	-108,666	-0,049	0,008
-222,898	-51,844	-0,111	-0,037
-221,884	-200,000	0,008	-0,031
-220,869	-200,000	-0,009	0,077
-219,855	-119,832	0,123	0,015
-218,840	-200,000	0,000	-0,055
-217,825	800,000	-0,022	0,053
-216,811	79,452	-0,092	-0,072
-215,796	-200,000	-0,010	-0,087
-214,782	-200,000	-0,013	-0,101
-213,767	-200,000	0,015	-0,114
-212,752	-45,625	0,042	0,015
-211,738	-55,581	-0,157	-0,050
-210,723	800,000	0,061	0,170
-209,709	-200,000	-0,004	-0,101
-208,694	-48,050	-0,134	0,046
-207,679	-41,151	-0,068	-0,025
-206,665	-200,000	-0,010	-0,039
-205,650	-200,000	0,018	0,073
-204,636	-200,000	0,023	0,074
-203,621	167,417	-0,075	0,077
-202,606	225,535	0,038	-0,045
-201,592	800,000	-0,033	-0,097
-200,577	-200,000	0,010	-0,078
-199,563	-200,000	-0,020	-0,086
-198,548	800,000	0,033	0,079
-197,533	-190,724	-0,022	0,000
-196,519	137,970	-0,098	0,092
-195,504	136,862	-0,123	-0,116
-194,490	728,869	-0,099	-0,191
-193,475	-142,779	-0,029	-0,002
-192,460	-200,000	0,002	-0,031
-191,446	118,227	0,111	-0,099
-190,431	-200,000	-0,003	-0,037
-189,417	-19,168	0,111	0,050
-188,402	-200,000	0,027	-0,087
-187,387	54,634	-0,099	-0,069
-186,373	466,968	-0,048	0,078
-185,358	132,852	-0,029	-0,027
-184,344	-42,853	-0,051	0,018
-183,329	288,077	0,064	-0,084
-182,315	197,219	0,045	0,049
-181,300	800,000	-0,042	0,101
-180,285	-45,390	-0,106	-0,038
-179,271	-200,000	-0,023	0,109
-178,256	297,640	0,020	-0,027
-177,242	161,267	0,126	-0,127
-176,227	800,000	-0,016	-0,043
-175,212	-62,082	-0,174	0,052
-174,198	-33,278	-0,188	0,075
-173,183	148,586	0,019	-0,018
-172,169	-200,000	0,026	-0,127
-171,154	-147,199	0,187	0,011
-170,139	654,282	0,022	-0,040
-169,125	-82,617	0,034	0,008
-168,110	88,463	0,084	0,067
-167,096	-173,693	0,285	-0,006
-166,081	-95,359	-0,108	-0,021
-165,066	-200,000	-0,007	-0,241
-164,052	141,432	0,117	-0,112
-163,037	-200,000	-0,005	0,018
-162,023	-59,724	-0,107	0,033
-161,008	10,938	-0,026	-0,014
-159,993	-200,000	0,025	-0,144
-158,979	-120,283	0,088	-0,011
-157,964	700,520	0,027	-0,051
-156,950	258,158	0,013	0,016
-155,935	-32,849	0,093	0,037
-154,920	800,000	-0,025	-0,071
-153,906	21,686	-0,064	-0,037
-152,891	501,064	-0,049	0,082
-151,877	-200,000	-0,013	-0,077
-150,862	-200,000	0,024	-0,186
-149,847	-200,000	0,005	0,060
-148,833	-29,659	-0,042	0,017
-147,818	-200,000	-0,022	-0,075
-146,804	-65,194	0,074	-0,021
-145,789	15,362	-0,084	-0,047
-144,775	-73,662	-0,132	-0,034
-143,760	620,605	-0,015	-0,027
-142,745	342,761	0,027	-0,039
-141,731	-200,000	-0,000	0,020
-140,716	800,000	0,027	0,078
-139,702	-200,000	-0,001	0,080
-138,687	83,284	-0,073	-0,057
-137,672	278,384	0,065	0,083
-136,658	-200,000	-0,004	-0,087
-135,643	301,740	-0,049	-0,066
-134,629	-99,198	-0,191	0,034
-133,614	191,662	0,123	0,134
-132,599	435,962	-0,055	-0,086
-131,585	-58,462	0,099	0,031
-130,570	-174,167	0,055	-0,001
-129,556	-50,555	-0,070	0,023
-128,541	-200,000	-0,017	-0,226
-127,526	345,565	-0,029	-0,041
-126,512	74,392	0,131	-0,099
-125,497	-200,000	-0,004	-0,110
-124,483	56,687	-0,026	-0,019
-123,468	-85,681	0,124	0,028
-122,453	397,793	-0,041	0,062
-121,439	800,000	-0,013	0,032
-120,424	-9,489	-0,065	-0,031
