DTS Sentinel unit serial number:	SN410029Multiplexer serial number:	ORYXHardware model number:	OX2-SRSoftware version number:	ORYX F/W v4,00 Oryx Data Collector v3.7.2.0data status	okinstallation	B5 Nyhavnadifferential loss correction	single-endedforward channel	channel 2reverse channel	N/Adate	2023/12/13time	13:02:13forward acquisition time	300,00reverse acquisition time	0,00gamma	499,1914k internal	0,3161k external	0,3161temperature offset calibration	1,0000default loss term (dB/km)	0,3820temperature slope calibration	1,0000multiplexer offset coefficient	1,0000multiplexer slope coefficient	1,0000fibre end	0,00T internal ref (°C)	14,37T ext. ref 1 (°C)	-1,42T ext. ref 2 (°C)	-1,66length (m)	temperature (°C)	Stokes	anti-Stokes-744,400	194,186	0,103	0,115
-743,385	-160,637	-0,330	0,013
-742,371	59,886	0,185	0,134
-741,356	-55,433	-0,264	-0,087
-740,342	-43,495	0,091	0,034
-739,327	12,970	-0,189	-0,107
-738,312	-154,554	-0,018	0,001
-737,298	-124,776	-0,311	0,035
-736,283	-129,757	0,234	0,023
-735,269	-120,224	-0,336	0,042
-734,254	607,989	0,059	0,109
-733,239	94,506	-0,361	-0,302
-732,225	-177,294	0,133	-0,002
-731,210	195,944	0,103	0,116
-730,196	800,000	-0,007	-0,015
-729,181	-48,973	-0,122	0,043
-728,167	57,813	0,031	-0,022
-727,152	800,000	0,070	-0,195
-726,137	-88,850	0,012	-0,003
-725,123	-73,812	-0,088	-0,023
-724,108	800,000	0,046	-0,117
-723,094	162,461	-0,195	-0,201
-722,079	-200,000	-0,006	-0,028
-721,064	-200,000	-0,040	-0,160
-720,050	168,339	0,082	-0,086
-719,035	-18,217	-0,109	0,050
-718,021	-200,000	-0,022	-0,112
-717,006	-40,047	-0,061	-0,023
-715,991	800,000	-0,043	-0,136
-714,977	-67,039	0,051	0,015
-713,962	27,544	-0,141	-0,087
-712,948	17,632	0,024	0,014
-711,933	-200,000	-0,009	0,071
-710,918	-200,000	-0,019	-0,102
-709,904	-142,909	-0,203	-0,014
-708,889	91,885	-0,039	-0,032
-707,875	-96,857	-0,151	-0,029
-706,860	356,010	0,045	-0,067
-705,845	390,845	0,057	0,087
-704,831	-200,000	-0,004	0,152
-703,816	-200,000	-0,005	0,171
-702,802	222,974	-0,035	-0,041
-701,787	-200,000	-0,041	-0,290
-700,772	-200,000	0,003	-0,063
-699,758	800,000	-0,034	0,099
-698,743	-14,776	0,039	0,018
-697,729	800,000	0,038	0,084
-696,714	800,000	-0,035	-0,089
-695,699	281,684	-0,013	0,017
-694,685	-200,000	-0,018	-0,083
-693,670	-110,407	-0,099	0,015
-692,656	-200,000	-0,003	-0,013
-691,641	628,300	0,033	0,061
-690,627	155,753	-0,092	0,094
-689,612	-72,148	0,115	-0,031
-688,597	-133,653	0,107	0,010
-687,583	-60,490	-0,099	0,031
-686,568	-200,000	-0,004	-0,079
-685,554	174,162	0,038	-0,040
-684,539	-200,000	-0,014	-0,068
-683,524	-24,538	0,105	-0,046
-682,510	800,000	-0,014	-0,046
-681,495	800,000	-0,037	-0,086
-680,481	-52,552	-0,096	-0,033
-679,466	-200,000	0,027	-0,091
-678,451	172,394	0,044	-0,047
-677,437	800,000	0,043	-0,101
-676,422	212,489	0,063	-0,073
-675,408	-70,286	-0,068	-0,019
-674,393	-143,851	-0,051	-0,004
-673,378	-200,000	-0,022	-0,159
-672,364	623,467	0,047	-0,088
-671,349	-200,000	-0,028	-0,100
-670,335	-12,337	-0,157	-0,075
-669,320	47,802	0,091	-0,062
-668,305	-19,647	0,048	-0,022
-667,291	800,000	0,040	0,092
-666,276	-130,582	0,054	0,005
-665,262	218,935	0,068	-0,080
-664,247	-13,875	0,098	0,046
-663,232	-83,810	-0,088	0,021
-662,218	351,704	0,147	0,214
-661,203	-119,973	0,089	0,011
-660,189	338,896	0,049	0,070
-659,174	-200,000	-0,019	-0,079
-658,159	-23,893	0,021	-0,009
-657,145	-200,000	0,016	-0,065
-656,130	-21,714	-0,131	-0,058
-655,116	-58,806	-0,095	0,030
-654,101	-200,000	-0,023	-0,143
-653,086	45,306	0,014	0,009
-652,072	93,223	0,053	0,044
-651,057	-59,040	0,092	-0,029
-650,043	-200,000	-0,021	0,142
-649,028	297,064	-0,010	-0,013
-648,014	-81,170	0,043	-0,010
-646,999	-77,238	0,076	-0,019
-645,984	-15,538	0,093	0,043
-644,970	-125,537	-0,117	0,013
-643,955	-200,000	-0,001	0,067
-642,941	-30,415	0,048	-0,020
-641,926	61,245	-0,077	0,056
-640,911	-103,340	0,078	0,013
-639,897	-200,000	0,009	0,090
-638,882	-200,000	0,003	-0,010
-637,868	184,640	-0,031	0,034
-636,853	-200,000	-0,023	0,081
-635,838	-156,221	-0,118	-0,005
-634,824	18,677	0,090	-0,053
-633,809	733,492	0,042	0,083
-632,795	-143,888	0,086	0,006
-631,780	657,846	0,057	0,108
-630,765	-163,464	-0,113	-0,004
-629,751	336,164	-0,051	-0,073
-628,736	103,744	0,035	0,030
-627,722	200,963	-0,097	-0,110
-626,707	205,389	0,116	0,133
-625,692	-200,000	0,001	0,104
-624,678	200,616	-0,081	-0,092
-623,663	-200,000	-0,024	0,126
-622,649	-200,000	-0,026	0,109
-621,634	800,000	-0,059	-0,132
-620,619	69,723	0,004	-0,003
-619,605	-151,770	-0,132	0,007
-618,590	474,585	0,005	-0,008
-617,576	491,307	0,065	-0,110
-616,561	-121,319	0,061	0,007
-615,546	538,460	0,070	-0,123
-614,532	-9,781	-0,102	-0,050
-613,517	-28,184	0,082	0,035
-612,503	19,223	-0,050	-0,029
-611,488	-200,000	0,007	0,082
-610,474	-200,000	0,014	0,060
-609,459	-193,151	0,044	0,000
-608,444	-61,128	-0,065	0,020
-607,430	800,000	-0,067	-0,139
-606,415	-189,462	0,080	0,001
-605,401	-29,713	-0,043	-0,018
-604,386	-200,000	0,010	-0,115
-603,371	-95,613	-0,070	0,014
-602,357	800,000	0,036	-0,080
-601,342	70,057	-0,051	0,039
-600,328	-200,000	0,022	-0,070
-599,313	611,012	-0,058	-0,107
-598,298	264,579	0,054	-0,070
-597,284	-117,956	0,031	0,004
-596,269	800,000	-0,055	-0,150
-595,255	800,000	-0,009	-0,020
-594,240	124,144	-0,098	-0,090
-593,225	800,000	-0,029	-0,061
-592,211	-200,000	0,000	-0,078
-591,196	166,853	-0,047	-0,049
-590,182	800,000	-0,037	0,079
-589,167	-200,000	0,014	0,064
-588,152	659,250	-0,064	-0,122
-587,138	800,000	0,013	0,038
-586,123	800,000	0,015	-0,041
-585,109	-3,512	-0,034	-0,017
-584,094	800,000	0,035	0,074
-583,079	156,496	0,036	-0,036
-582,065	-200,000	-0,017	-0,093
-581,050	170,408	0,060	0,063
-580,036	800,000	0,025	-0,072
-579,021	-200,000	-0,008	0,030
-578,006	142,471	-0,097	-0,094
-576,992	574,038	0,064	-0,115
-575,977	-200,000	0,014	0,067
-574,963	771,383	-0,116	0,232
-573,948	-59,266	-0,112	-0,035
-572,934	-136,018	-0,132	-0,011
-571,919	20,589	0,014	-0,008
-570,904	177,849	-0,034	0,036
-569,890	800,000	-0,057	0,150
-568,875	379,121	0,116	0,174
-567,861	410,071	0,028	0,043
-566,846	417,873	-0,051	-0,080
-565,831	-200,000	0,007	0,050
-564,817	-53,453	-0,114	0,038
-563,802	-159,534	0,038	0,002
-562,788	-200,000	0,025	0,108
-561,773	153,650	0,089	-0,089
-560,758	-200,000	0,005	0,026
-559,744	800,000	0,053	0,134
-558,729	201,504	0,013	0,014
-557,715	-149,080	-0,095	-0,005
-556,700	800,000	-0,032	-0,078
-555,685	-66,808	-0,123	-0,035
-554,671	800,000	-0,020	-0,058
-553,656	-147,667	0,100	-0,006
-552,642	314,753	-0,034	-0,047
-551,627	-57,114	0,061	0,020
-550,612	239,677	-0,072	0,087
-549,598	-108,606	0,049	-0,008
-548,583	800,000	-0,023	0,061
-547,569	-4,006	0,031	-0,016
-546,554	-12,485	-0,016	0,007
-545,539	247,451	0,029	-0,036
-544,525	330,776	-0,038	-0,054
-543,510	800,000	-0,044	-0,091
-542,496	800,000	0,019	-0,056
-541,481	-200,000	-0,002	0,028
-540,466	-87,245	-0,057	0,012
-539,452	-75,795	-0,055	-0,014
-538,437	64,243	-0,146	0,107
-537,423	-167,150	-0,055	-0,002
-536,408	-200,000	0,019	-0,082
-535,393	30,637	-0,004	0,002
-534,379	-200,000	-0,007	0,063
-533,364	369,892	-0,002	-0,002
-532,350	152,320	0,098	0,098
-531,335	177,095	0,032	-0,034
-530,321	203,050	-0,032	0,036
-529,306	-150,021	-0,095	0,005
-528,291	485,163	-0,058	-0,097
-527,277	-167,731	-0,049	-0,001
-526,262	-18,258	0,045	0,020
-525,248	-151,096	0,042	-0,002
-524,233	145,206	0,064	0,062
-523,218	-72,092	0,056	-0,015
-522,204	-117,061	-0,029	-0,004
-521,189	-27,949	-0,144	-0,061
-520,175	52,170	0,092	-0,064
-519,160	0,174	0,094	-0,049
-518,145	486,875	-0,051	-0,084
-517,131	39,978	0,036	-0,024
-516,116	800,000	0,015	0,047
-515,102	81,615	0,054	-0,042
-514,087	-51,056	-0,046	-0,016
-513,072	800,000	0,045	-0,096
-512,058	182,411	-0,006	0,007
-511,043	-200,000	-0,003	0,066
-510,029	-11,278	0,079	-0,038
-509,014	800,000	-0,025	0,075
-507,999	187,333	0,077	0,084
-506,985	-81,627	0,074	-0,017
-505,970	800,000	-0,051	-0,140
-504,956	-169,702	-0,087	-0,002
-503,941	161,535	-0,016	-0,016
-502,926	36,731	-0,040	0,025
-501,912	669,851	-0,031	0,059
-500,897	711,447	0,050	-0,097
-499,883	-200,000	-0,025	-0,160
-498,868	-43,461	0,131	-0,048
-497,853	-200,000	0,019	0,084
-496,839	-10,723	-0,098	-0,047
-495,824	-149,551	0,068	0,004
-494,810	319,662	0,015	-0,021
-493,795	-200,000	0,053	0,191
-492,781	800,000	-0,014	0,039
-491,766	800,000	0,038	0,095
-490,751	800,000	-0,031	0,087
-489,737	800,000	0,028	-0,074
-488,722	95,840	0,021	-0,017
-487,708	-86,738	0,052	-0,012
-486,693	140,008	0,090	-0,087
-485,678	-61,468	0,059	0,018
-484,664	-200,000	0,002	-0,099
-483,649	-200,000	0,017	-0,104
-482,635	112,425	-0,130	-0,115
-481,620	334,002	0,064	0,090
-480,605	149,436	0,053	-0,052
-479,591	800,000	0,064	-0,139
-478,576	-200,000	-0,005	0,056
-477,562	599,468	-0,061	-0,111
-476,547	-200,000	-0,034	-0,152
-475,532	800,000	0,047	0,112
-474,518	292,303	-0,051	-0,068
-473,503	800,000	-0,006	0,012
-472,489	-180,007	0,063	-0,001
-471,474	-47,667	-0,127	-0,045
-470,459	391,228	0,011	0,016
-469,445	6,273	-0,029	0,016
-468,430	-200,000	-0,002	-0,075
-467,416	-200,000	-0,041	-0,151
-466,401	63,330	0,091	-0,067
-465,386	-200,000	0,002	0,063
-464,372	618,956	-0,049	-0,091
-463,357	-71,955	0,093	0,025
-462,343	-112,385	-0,130	0,019
-461,328	-54,581	0,064	0,021
-460,313	14,295	-0,027	-0,016
-459,299	800,000	0,023	-0,072
-458,284	-19,925	-0,099	0,044
-457,270	800,000	0,046	0,141
-456,255	800,000	0,032	-0,076
-455,241	-61,259	-0,067	-0,020
-454,226	800,000	-0,015	0,036
-453,211	800,000	0,089	0,179
-452,197	-200,000	0,002	0,040
-451,182	-11,004	0,149	0,071
-450,168	-200,000	-0,007	0,053
-449,153	112,497	-0,085	-0,075
-448,138	-200,000	-0,042	-0,164
-447,124	-200,000	0,002	0,032
-446,109	-200,000	-0,015	-0,097
-445,095	71,014	0,022	0,017
-444,080	105,817	0,089	0,077
-443,065	152,269	-0,068	-0,067
-442,051	347,287	0,005	-0,007
-441,036	-41,590	0,037	-0,014
-440,022	-3,903	-0,080	-0,040
-439,007	137,706	-0,057	0,054
-437,992	126,211	0,057	0,052
-436,978	-200,000	-0,003	-0,079
-435,963	476,226	-0,050	-0,082
-434,949	-200,000	-0,010	0,139
-433,934	800,000	0,018	0,056
-432,919	264,277	-0,121	-0,154
-431,905	8,400	-0,153	-0,083
-430,890	-70,903	0,142	0,039
-429,876	8,060	0,064	-0,035
-428,861	800,000	0,051	-0,123
-427,846	76,008	0,050	0,038
-426,832	-82,222	0,075	0,018
-425,817	-74,949	-0,094	0,024
-424,803	15,917	-0,040	0,023
-423,788	800,000	0,044	0,091
-422,773	-200,000	0,010	0,117
-421,759	-49,759	-0,138	-0,047
-420,744	274,746	-0,033	-0,042
-419,730	-16,007	0,130	-0,060
-418,715	-200,000	0,016	-0,170
-417,701	557,653	-0,065	-0,115
-416,686	-200,000	0,024	-0,116
-415,671	800,000	0,046	0,134
-414,657	653,180	-0,079	0,147
-413,642	-150,215	0,074	0,004
-412,628	800,000	-0,022	0,049
-411,613	-200,000	-0,015	-0,065
-410,598	-160,758	0,121	-0,005
-409,584	120,457	0,064	0,058
-408,569	715,545	-0,010	-0,020
-407,555	800,000	0,017	-0,051
-406,540	-60,979	0,100	-0,031
-405,525	-200,000	-0,038	0,159
-404,511	-200,000	0,003	-0,083
-403,496	-200,000	-0,018	-0,087
-402,482	77,998	-0,050	0,038
-401,467	-87,166	0,049	-0,011
-400,452	-200,000	0,020	0,165
-399,438	6,755	-0,075	0,040
-398,423	758,884	-0,034	-0,067
-397,409	65,566	0,054	0,039
-396,394	-111,919	-0,040	0,006
-395,379	96,053	-0,044	0,036
-394,365	-24,880	0,223	-0,096
-393,350	-200,000	0,039	0,222
-392,336	800,000	-0,043	0,087
-391,321	359,127	-0,119	-0,173
-390,306	-200,000	-0,002	0,026
-389,292	-14,480	-0,090	-0,042
-388,277	800,000	-0,009	0,023
-387,263	-200,000	0,032	0,107
-386,248	333,310	0,054	0,076
-385,233	285,035	-0,034	0,044
-384,219	-94,549	0,136	-0,027
-383,204	270,052	0,015	0,019
-382,190	-200,000	0,024	-0,096
-381,175	-200,000	0,009	0,031
-380,160	-200,000	0,008	-0,076
-379,146	28,111	0,126	0,077
-378,131	-200,000	0,011	0,102
-377,117	-131,314	0,102	-0,010
-376,102	102,616	-0,057	-0,048
-375,088	494,201	0,018	0,030
-374,073	-200,000	0,004	-0,036
-373,058	-114,825	0,060	0,008
-372,044	501,233	0,033	0,055
-371,029	136,387	0,026	0,025
-370,015	-70,175	0,078	-0,021
-369,000	20,087	-0,126	0,074
-367,985	-10,506	0,053	0,025
-366,971	-101,575	0,103	-0,018
-365,956	238,367	0,022	-0,027
-364,942	-120,857	0,135	-0,016
-363,927	-56,311	-0,088	0,028
-362,912	800,000	0,034	0,083
-361,898	94,104	-0,080	0,066
-360,883	-85,131	0,045	-0,010
-359,869	-21,057	-0,110	-0,048
-358,854	101,305	0,057	0,048
-357,839	93,513	0,053	0,043
-356,825	-116,248	0,093	-0,012
-355,810	3,749	0,090	0,047
-354,796	165,451	0,055	0,056
-353,781	-200,000	-0,000	0,015
-352,766	435,068	0,049	-0,078
-351,752	483,645	-0,009	-0,015
-350,737	-86,237	0,052	0,011
-349,723	-200,000	-0,007	0,204
-348,708	800,000	0,043	0,110
-347,693	291,939	-0,063	0,083
-346,679	-33,091	-0,035	-0,014
-345,664	264,253	-0,032	0,040
-344,650	-89,969	0,035	0,007
-343,635	-200,000	-0,012	0,155
-342,620	800,000	0,039	0,104
-341,606	235,501	0,073	-0,088
-340,591	481,022	0,100	0,165
-339,577	31,841	-0,130	0,081
-338,562	800,000	0,044	-0,089
-337,548	33,086	-0,037	-0,023
-336,533	-200,000	0,018	0,229
-335,518	800,000	0,039	-0,123
-334,504	394,077	0,045	-0,069
-333,489	-200,000	0,005	-0,032
-332,475	-200,000	0,031	-0,197
-331,460	303,482	0,051	-0,069
-330,445	-119,762	-0,081	-0,010
-329,431	-200,000	0,000	0,076
-328,416	-147,007	0,055	0,003
-327,402	130,572	0,200	0,185
-326,387	-5,052	-0,077	-0,038
-325,372	645,006	0,006	-0,011
-324,358	340,282	-0,053	0,075
-323,343	131,051	0,005	-0,005
-322,329	212,880	0,019	-0,021
-321,314	659,000	-0,004	0,008
-320,299	-200,000	-0,017	0,113
-319,285	-7,552	0,035	0,017
-318,270	-200,000	-0,006	-0,093
-317,256	-41,816	-0,085	-0,031
-316,241	-200,000	-0,013	-0,047
-315,226	29,140	0,138	0,085
-314,212	-48,924	0,094	-0,032
-313,197	-200,000	-0,028	0,132
-312,183	84,757	-0,123	0,098
-311,168	-117,839	-0,067	0,009
-310,153	-200,000	-0,008	0,100
-309,139	448,623	-0,068	-0,109
-308,124	-200,000	0,026	0,096
-307,110	-200,000	0,015	0,095
-306,095	96,675	0,102	0,085
-305,080	-45,883	-0,123	-0,044
-304,066	230,755	0,074	0,087
-303,051	-195,129	0,070	-0,000
-302,037	-67,217	-0,071	0,020
-301,022	114,321	0,157	-0,138
-300,008	105,302	-0,105	-0,090
-298,993	800,000	-0,036	0,097
-297,978	-135,537	0,070	0,006
-296,964	236,657	-0,066	0,079
-295,949	-157,918	0,070	0,003
-294,935	274,859	0,036	0,046
-293,920	210,331	0,035	0,039
-292,905	-179,761	0,039	0,001
-291,891	27,734	-0,153	0,093
-290,876	609,165	0,048	-0,087
-289,862	-65,484	-0,160	0,046
-288,847	300,160	-0,069	-0,092
-287,832	143,231	0,037	0,036
-286,818	-110,745	-0,044	0,006
-285,803	-88,561	-0,127	0,027
-284,789	800,000	0,031	-0,077
-283,774	-103,622	-0,081	-0,014
-282,759	-200,000	0,024	0,108
-281,745	-22,419	-0,121	-0,053
-280,730	144,011	0,075	-0,072
-279,716	339,591	-0,099	0,140
-278,701	24,255	0,118	-0,070
-277,686	-75,075	0,172	-0,044
-276,672	-200,000	-0,001	-0,034
-275,657	154,134	0,026	0,026
-274,643	-200,000	0,019	-0,092
-273,628	-200,000	0,016	-0,055
-272,613	17,910	0,129	-0,074
-271,599	-200,000	-0,009	0,117
-270,584	-200,000	-0,051	0,000
-269,570	-200,000	0,019	-0,067
-268,555	800,000	-0,076	-0,157
-267,540	192,355	-0,077	0,085
-266,526	-61,933	-0,069	0,021
-265,511	169,433	-0,020	0,020
-264,497	-31,037	-0,097	-0,039
-263,482	-45,228	-0,061	0,022
-262,467	392,118	-0,052	0,078
-261,453	-120,609	0,113	-0,014
-260,438	74,451	-0,113	-0,086
-259,424	143,322	-0,115	-0,111
-258,409	-200,000	-0,006	-0,235
-257,395	314,677	-0,063	0,087
-256,380	800,000	0,011	0,027
-255,365	480,950	0,024	-0,039
-254,351	-78,724	-0,046	0,011
-253,336	-52,980	-0,030	-0,010
-252,322	2,954	0,038	0,020
-251,307	286,494	-0,105	-0,138
-250,292	-80,307	0,071	0,017
-249,278	157,447	0,046	0,046
-248,263	-200,000	0,004	-0,075
-247,249	100,603	-0,047	-0,039
-246,234	-200,000	-0,003	-0,023
-245,219	52,060	0,030	-0,020
-244,205	220,297	-0,129	-0,149
-243,190	-36,189	0,048	0,019
-242,176	635,931	0,037	0,068
-241,161	-200,000	0,005	0,024
-240,146	-155,006	-0,112	-0,005
-239,132	489,827	-0,045	0,075
-238,117	672,972	0,014	0,026
-237,103	-107,310	-0,072	0,011
-236,088	-200,000	0,021	-0,116
-235,073	-63,010	0,140	0,041
-234,059	-26,763	0,099	-0,042
-233,044	-78,766	-0,007	-0,002
-232,030	800,000	-0,021	-0,066
-231,015	-162,722	-0,028	-0,001
-230,000	-20,969	0,111	-0,049
-228,986	311,337	-0,047	-0,064
-227,971	492,457	0,056	0,093
-226,957	-49,403	0,115	0,039
-225,942	260,568	-0,091	-0,114
-224,927	-200,000	0,023	0,124
-223,913	395,355	-0,057	0,086
-222,898	236,673	-0,086	-0,102
-221,884	217,668	0,063	-0,073
-220,869	800,000	-0,030	0,072
-219,855	800,000	0,042	0,101
-218,840	-23,115	0,063	-0,027
-217,825	800,000	-0,020	0,044
-216,811	-176,294	-0,158	-0,003
-215,796	23,367	0,094	-0,056
-214,782	-200,000	0,012	-0,064
-213,767	571,694	0,080	0,140
-212,752	421,307	-0,020	0,031
-211,738	-175,511	0,064	-0,001
-210,723	800,000	-0,039	0,120
-209,709	412,505	0,058	-0,090
-208,694	223,706	-0,073	-0,085
-207,679	-200,000	-0,009	0,150
-206,665	-54,672	-0,042	0,014
-205,650	800,000	0,027	0,057
-204,636	-200,000	0,013	-0,070
-203,621	-200,000	-0,014	-0,170
-202,606	30,639	0,065	-0,040
-201,592	800,000	0,049	-0,120
-200,577	-87,942	-0,014	-0,003
-199,563	800,000	-0,028	-0,079
-198,548	800,000	0,024	-0,066
-197,533	-3,419	0,066	-0,033
-196,519	-200,000	-0,020	-0,123
-195,504	-81,162	-0,016	0,004
-194,490	-109,476	0,081	-0,012
-193,475	18,892	-0,126	0,073
-192,460	-158,718	-0,114	-0,005
-191,446	-200,000	-0,030	-0,126
-190,431	658,489	-0,019	0,035
-189,417	-114,066	-0,102	-0,014
-188,402	-95,281	-0,148	0,029
-187,387	66,891	0,074	0,055
-186,373	800,000	-0,005	0,011
-185,358	-200,000	-0,019	-0,104
-184,344	-32,753	0,076	0,030
-183,329	-200,000	-0,014	-0,122
-182,315	135,460	0,003	0,003
-181,300	125,971	0,078	-0,071
-180,285	800,000	-0,041	-0,106
-179,271	-153,893	-0,157	-0,008
-178,256	-107,499	0,160	0,025
-177,242	98,680	0,035	-0,029
-176,227	-200,000	-0,031	0,131
-175,212	800,000	0,033	0,092
-174,198	-182,298	-0,032	-0,000
-173,183	-200,000	0,028	-0,091
-172,169	800,000	-0,052	-0,128
-171,154	-194,020	0,141	0,001
-170,139	338,391	-0,035	-0,049
-169,125	-200,000	-0,003	0,035
-168,110	-37,990	0,096	0,036
-167,096	396,880	-0,056	0,085
-166,081	-200,000	0,003	0,010
-165,066	606,671	-0,030	-0,053
-164,052	-200,000	0,008	0,062
-163,037	-12,631	-0,091	-0,043
-162,023	519,551	0,107	0,181
-161,008	220,281	-0,118	0,136
-159,993	-143,942	0,039	-0,003
-158,979	1,907	-0,141	0,073
-157,964	-200,000	-0,012	0,107
-156,950	-200,000	-0,010	0,104
-155,935	16,764	0,096	0,055
-154,920	1,226	-0,109	-0,056
-153,906	20,808	0,098	0,057
-152,891	-200,000	0,016	0,108
-151,877	-200,000	0,010	-0,085
-150,862	-200,000	0,019	-0,069
-149,847	800,000	0,055	-0,128
-148,833	-200,000	-0,014	-0,081
-147,818	22,937	0,066	0,039
-146,804	-117,514	-0,063	-0,008
-145,789	-200,000	0,003	-0,062
-144,775	208,670	-0,089	-0,100
-143,760	-200,000	-0,158	0,000
-142,745	-113,590	0,121	0,017
-141,731	-200,000	0,002	0,127
-140,716	-51,024	-0,033	-0,011
-139,702	328,412	0,022	-0,030
-138,687	-126,521	-0,052	0,005
-137,672	-86,299	-0,108	0,024
-136,658	-200,000	-0,012	0,059
-135,643	582,257	-0,058	-0,103
-134,629	800,000	0,026	-0,079
-133,614	34,446	0,159	0,100
-132,599	142,129	0,029	0,027
-131,585	797,200	-0,025	0,050
-130,570	-93,969	0,049	-0,010
-129,556	-200,000	-0,017	0,102
-128,541	-200,000	-0,048	-0,165
-127,526	-47,528	0,149	-0,052
-126,512	-2,103	0,023	0,011
-125,497	-200,000	-0,005	0,043
-124,483	-200,000	-0,019	0,105
-123,468	-200,000	-0,051	0,174
-122,453	-200,000	0,021	-0,117
-121,439	217,091	0,040	-0,046
-120,424	800,000	0,053	-0,133
