DTS Sentinel unit serial number:	SN410029Multiplexer serial number:	ORYXHardware model number:	OX2-SRSoftware version number:	ORYX F/W v4,00 Oryx Data Collector v3.7.2.0data status	okinstallation	B5 Nyhavnadifferential loss correction	single-endedforward channel	channel 2reverse channel	N/Adate	2023/12/14time	04:52:13forward acquisition time	300,00reverse acquisition time	0,00gamma	499,1914k internal	0,3156k external	0,3156temperature offset calibration	1,0000default loss term (dB/km)	0,3820temperature slope calibration	1,0000multiplexer offset coefficient	1,0000multiplexer slope coefficient	1,0000fibre end	0,00T internal ref (°C)	7,81T ext. ref 1 (°C)	-8,71T ext. ref 2 (°C)	-8,74length (m)	temperature (°C)	Stokes	anti-Stokes-744,400	800,000	0,082	0,173
-743,385	-16,122	-0,244	-0,114
-742,371	126,243	0,093	0,087
-741,356	-160,669	-0,363	0,014
-740,342	-122,940	0,225	0,026
-739,327	-127,325	-0,478	-0,051
-738,312	-102,719	0,255	0,044
-737,298	-119,876	-0,375	-0,047
-736,283	211,029	0,082	0,095
-735,269	-139,773	-0,429	-0,033
-734,254	-78,303	0,094	-0,024
-733,239	60,296	-0,589	-0,429
-732,225	94,622	0,132	0,110
-731,210	800,000	0,038	0,079
-730,196	529,639	0,054	-0,094
-729,181	387,354	-0,072	-0,109
-728,167	-89,205	-0,151	0,032
-727,152	-200,000	-0,006	0,115
-726,137	-200,000	-0,003	-0,102
-725,123	9,060	-0,134	-0,074
-724,108	-70,794	-0,069	0,019
-723,094	-25,832	-0,195	-0,084
-722,079	800,000	0,026	-0,072
-721,064	-107,077	-0,142	0,023
-720,050	276,802	-0,082	-0,108
-719,035	229,590	-0,043	-0,051
-718,021	257,312	0,044	-0,056
-717,006	547,703	0,010	0,017
-715,991	-77,361	-0,032	0,008
-714,977	-98,820	-0,121	-0,023
-713,962	690,556	-0,021	0,040
-712,948	164,225	0,020	-0,021
-711,933	-200,000	-0,031	-0,113
-710,918	-200,000	-0,007	0,075
-709,904	-60,175	-0,120	-0,037
-708,889	-200,000	0,009	0,051
-707,875	-113,637	-0,118	0,017
-706,860	84,287	0,027	-0,022
-705,845	268,128	0,079	0,103
-704,831	19,575	0,051	-0,030
-703,816	800,000	-0,042	-0,100
-702,802	-139,155	0,112	0,009
-701,787	118,485	0,116	0,105
-700,772	10,947	-0,134	0,075
-699,758	-200,000	-0,000	-0,024
-698,743	800,000	0,027	-0,078
-697,729	96,779	-0,040	0,033
-696,714	9,355	0,145	0,081
-695,699	-200,000	-0,002	-0,191
-694,685	364,323	-0,030	-0,044
-693,670	99,275	0,014	0,012
-692,656	-109,402	0,055	0,008
-691,641	206,729	0,116	0,133
-690,627	-97,353	0,077	-0,015
-689,612	-31,521	0,078	-0,032
-688,597	-103,445	0,033	0,006
-687,583	222,839	-0,014	-0,016
-686,568	58,602	0,076	-0,055
-685,554	46,535	-0,083	-0,056
-684,539	800,000	0,039	0,102
-683,524	-73,392	-0,113	-0,030
-682,510	148,519	0,033	-0,033
-681,495	800,000	-0,030	0,077
-680,481	33,383	-0,061	0,039
-679,466	-92,319	-0,203	0,042
-678,451	58,749	0,148	0,107
-677,437	-65,305	0,135	-0,040
-676,422	17,624	-0,027	-0,016
-675,408	-152,189	0,117	0,006
-674,393	-200,000	-0,004	-0,022
-673,378	-200,000	-0,003	-0,140
-672,364	123,127	-0,137	-0,126
-671,349	-200,000	0,005	-0,101
-670,335	-57,853	0,052	0,017
-669,320	54,667	-0,016	0,011
-668,305	-200,000	0,002	-0,194
-667,291	-59,549	0,092	0,029
-666,276	476,909	-0,033	0,055
-665,262	108,998	-0,083	-0,073
-664,247	290,674	-0,060	-0,081
-663,232	201,993	0,063	-0,071
-662,218	-54,125	-0,030	0,010
-661,203	-5,579	-0,106	-0,053
-660,189	-200,000	-0,002	0,055
-659,174	104,182	0,068	-0,059
-658,159	356,325	-0,040	-0,058
-657,145	-200,000	-0,045	-0,155
-656,130	151,578	0,016	-0,016
-655,116	-200,000	0,012	-0,048
-654,101	-173,236	-0,078	-0,002
-653,086	-31,914	0,103	-0,042
-652,072	-14,062	-0,038	0,018
-651,057	-200,000	0,003	-0,166
-650,043	-62,970	-0,052	0,016
-649,028	330,140	0,152	-0,215
-648,014	-200,000	-0,016	0,148
-646,999	500,736	0,033	0,056
-645,984	161,373	-0,062	-0,063
-644,970	68,203	-0,157	-0,118
-643,955	307,918	-0,117	-0,161
-642,941	-200,000	-0,016	-0,183
-641,926	-200,000	-0,014	-0,065
-640,911	-200,000	-0,001	-0,063
-639,897	248,042	-0,023	-0,029
-638,882	-106,934	0,125	0,020
-637,868	800,000	0,030	-0,076
-636,853	129,161	0,082	-0,077
-635,838	284,299	0,025	0,033
-634,824	660,838	0,034	-0,064
-633,809	800,000	0,031	0,079
-632,795	490,358	0,034	-0,057
-631,780	-46,130	-0,163	0,059
-630,765	661,221	0,071	0,135
-629,751	-84,472	0,074	-0,017
-628,736	128,955	-0,103	-0,097
-627,722	155,495	0,058	-0,059
-626,707	-134,458	-0,109	0,010
-625,692	-200,000	-0,021	-0,155
-624,678	-200,000	0,004	0,031
-623,663	-200,000	-0,062	-0,000
-622,649	8,757	-0,067	0,037
-621,634	283,763	-0,090	-0,119
-620,619	-136,650	-0,045	0,004
-619,605	800,000	0,075	-0,162
-618,590	87,365	-0,065	0,052
-617,576	-200,000	0,003	0,178
-616,561	-200,000	0,011	0,045
-615,546	27,796	-0,042	-0,026
-614,532	800,000	-0,029	-0,077
-613,517	-7,839	-0,077	0,038
-612,503	79,807	0,086	0,068
-611,488	800,000	0,065	0,153
-610,474	69,861	-0,084	-0,063
-609,459	-200,000	-0,026	-0,088
-608,444	-98,398	0,035	-0,007
-607,430	145,532	-0,095	-0,093
-606,415	-25,421	-0,042	-0,018
-605,401	-101,185	0,085	-0,015
-604,386	-200,000	-0,007	0,050
-603,371	72,061	-0,071	-0,054
-602,357	-32,361	-0,128	-0,052
-601,342	-200,000	0,027	-0,178
-600,328	22,100	0,072	0,043
-599,313	-200,000	-0,010	-0,139
-598,298	-69,281	0,126	-0,035
-597,284	800,000	-0,034	0,091
-596,269	-200,000	0,018	-0,080
-595,255	704,001	0,032	-0,063
-594,240	166,960	-0,062	-0,064
-593,225	-106,069	0,108	-0,018
-592,211	-200,000	-0,018	-0,061
-591,196	53,163	0,047	0,033
-590,182	-36,337	0,123	-0,048
-589,167	-26,799	-0,091	0,039
-588,152	312,851	-0,057	0,078
-587,138	-92,006	0,033	0,007
-586,123	-104,783	-0,043	0,007
-585,109	201,216	-0,039	-0,044
-584,094	-200,000	-0,001	-0,012
-583,079	603,734	-0,012	-0,021
-582,065	-112,484	0,042	0,006
-581,050	190,031	0,023	0,026
-580,036	-36,960	-0,099	0,039
-579,021	62,809	-0,050	-0,036
-578,006	-94,841	0,135	-0,027
-576,992	-53,125	0,103	-0,034
-575,977	384,975	0,014	0,021
-574,963	241,661	0,033	0,041
-573,948	-200,000	-0,011	-0,062
-572,934	118,693	-0,061	0,055
-571,919	116,173	-0,132	-0,118
-570,904	358,774	0,034	0,050
-569,890	-200,000	-0,004	0,072
-568,875	800,000	0,065	0,164
-567,861	555,537	0,114	-0,201
-566,846	-200,000	0,017	0,090
-565,831	-200,000	0,185	0,000
-564,817	121,871	-0,035	-0,032
-563,802	670,246	-0,034	0,065
-562,788	1,574	-0,059	-0,031
-561,773	5,169	-0,052	0,028
-560,758	462,874	0,059	0,096
-559,744	800,000	-0,005	0,014
-558,729	800,000	0,013	0,028
-557,715	108,057	-0,047	-0,041
-556,700	422,092	-0,051	-0,080
-555,685	33,097	-0,110	-0,069
-554,671	-98,833	-0,106	0,020
-553,656	800,000	-0,037	-0,102
-552,642	-26,007	0,051	-0,022
-551,627	106,617	0,113	0,098
-550,612	20,705	-0,019	-0,011
-549,598	-27,010	-0,119	-0,050
-548,583	207,891	0,071	-0,081
-547,569	800,000	-0,023	-0,068
-546,554	800,000	0,035	-0,107
-545,539	-48,843	-0,199	-0,070
-544,525	181,833	0,081	0,087
-543,510	145,714	-0,061	0,060
-542,496	-51,069	-0,037	0,013
-541,481	800,000	-0,021	0,046
-540,466	66,176	0,069	-0,051
-539,452	-200,000	0,006	0,077
-538,437	764,790	0,066	0,133
-537,423	346,173	0,022	-0,032
-536,408	49,883	-0,089	0,061
-535,393	397,085	-0,080	0,123
-534,379	44,461	0,109	0,073
-533,364	2,259	-0,059	-0,031
-532,350	-200,000	-0,001	-0,047
-531,335	173,955	0,031	-0,033
-530,321	56,294	-0,024	-0,017
-529,306	158,298	-0,087	0,088
-528,291	233,242	0,069	-0,083
-527,277	25,736	-0,162	-0,099
-526,262	121,394	-0,081	-0,074
-525,248	800,000	-0,040	0,089
-524,233	800,000	-0,044	0,116
-523,218	-92,433	0,063	-0,013
-522,204	494,553	0,049	-0,082
-521,189	179,081	-0,027	-0,029
-520,175	-80,276	-0,021	0,005
-519,160	33,702	0,097	-0,062
-518,145	-122,755	0,081	-0,009
-517,131	800,000	0,031	0,064
-516,116	-18,527	0,080	-0,037
-515,102	-200,000	0,016	-0,058
-514,087	-139,953	0,132	0,010
-513,072	-35,645	-0,138	-0,054
-512,058	787,297	0,057	0,115
-511,043	419,703	0,024	-0,038
-510,029	-200,000	-0,017	0,072
-509,014	119,632	0,109	-0,099
-507,999	-200,000	-0,021	-0,128
-506,985	-200,000	-0,001	0,047
-505,970	250,694	-0,035	-0,044
-504,956	-90,797	-0,077	-0,016
-503,941	-5,404	0,111	-0,056
-502,926	657,922	0,078	0,147
-501,912	-33,228	0,087	0,035
-500,897	355,919	0,032	0,046
-499,883	-102,858	-0,058	-0,010
-498,868	29,337	-0,116	-0,072
-497,853	-200,000	-0,018	-0,067
-496,839	195,784	0,108	0,120
-495,824	-200,000	0,014	-0,054
-494,810	-200,000	0,037	0,229
-493,795	800,000	0,040	0,115
-492,781	-185,114	0,096	0,001
-491,766	134,538	-0,076	-0,072
-490,751	278,495	-0,052	-0,067
-489,737	-23,887	0,116	-0,050
-488,722	206,295	-0,072	-0,082
-487,708	713,213	-0,011	0,022
-486,693	24,779	0,129	0,078
-485,678	800,000	0,023	0,069
-484,664	-99,161	0,078	0,014
-483,649	-154,325	-0,158	-0,008
-482,635	-200,000	0,009	0,062
-481,620	630,300	0,027	0,049
-480,605	-200,000	0,011	0,084
-479,591	35,391	-0,048	0,030
-478,576	357,109	-0,030	0,044
-477,562	122,656	0,085	0,077
-476,547	71,702	-0,121	0,091
-475,532	-28,438	-0,077	-0,032
-474,518	800,000	-0,030	0,078
-473,503	-81,337	0,054	-0,013
-472,489	-102,348	0,109	-0,019
-471,474	-200,000	-0,008	-0,117
-470,459	-30,970	-0,096	-0,039
-469,445	-200,000	-0,011	-0,119
-468,430	6,075	-0,103	-0,056
-467,416	27,528	0,126	0,077
-466,401	-200,000	-0,003	-0,012
-465,386	48,436	-0,054	-0,037
-464,372	78,882	0,063	-0,049
-463,357	-118,977	-0,063	-0,008
-462,343	-200,000	-0,016	-0,115
-461,328	800,000	0,028	0,090
-460,313	-109,230	-0,042	0,006
-459,299	4,772	-0,034	0,018
-458,284	800,000	0,038	0,102
-457,270	-10,040	0,016	0,008
-456,255	-78,895	-0,099	-0,024
-455,241	-200,000	-0,001	0,025
-454,226	425,430	0,099	0,156
-453,211	-200,000	0,004	0,097
-452,197	343,673	0,052	0,074
-451,182	-139,025	-0,134	-0,010
-450,168	120,133	-0,076	-0,069
-449,153	-156,492	-0,078	0,003
-448,138	409,047	0,064	-0,099
-447,124	-115,426	-0,122	-0,017
-446,109	800,000	0,019	0,058
-445,095	-200,000	0,034	-0,153
-444,080	146,642	0,058	0,057
-443,065	312,257	0,073	0,099
-442,051	-200,000	0,016	-0,157
-441,036	800,000	-0,048	-0,115
-440,022	590,404	-0,032	-0,058
-439,007	295,013	-0,060	0,080
-437,992	61,774	-0,130	0,094
-436,978	-76,628	0,198	0,050
-435,963	93,256	0,015	-0,012
-434,949	374,964	-0,051	-0,077
-433,934	251,068	0,032	-0,040
-432,919	-75,050	-0,138	0,036
-431,905	795,494	0,020	-0,040
-430,890	262,250	-0,073	0,093
-429,876	-200,000	0,014	0,052
-428,861	50,236	-0,075	0,052
-427,846	664,796	0,032	-0,061
-426,832	12,322	0,051	-0,028
-425,817	-33,574	-0,115	-0,046
-424,803	-200,000	-0,055	0,192
-423,788	-200,000	0,011	0,065
-422,773	-2,341	0,078	-0,040
-421,759	17,158	0,065	-0,037
-420,744	0,764	0,106	0,055
-419,730	87,571	0,069	0,056
-418,715	-62,044	0,085	-0,026
-417,701	-42,020	-0,092	-0,034
-416,686	-164,400	0,070	0,002
-415,671	508,045	-0,031	-0,053
-414,657	8,945	0,027	-0,015
-413,642	62,290	-0,051	0,037
-412,628	441,954	0,041	-0,066
-411,613	-200,000	0,008	-0,031
-410,598	-179,125	0,073	-0,001
-409,584	-200,000	-0,017	0,068
-408,569	800,000	-0,029	0,059
-407,555	280,085	0,027	-0,035
-406,540	-200,000	-0,006	0,054
-405,525	-200,000	-0,029	0,096
-404,511	-123,467	0,145	-0,017
-403,496	-116,680	-0,138	0,018
-402,482	-66,942	-0,036	0,010
-401,467	637,231	0,052	-0,097
-400,452	16,183	0,043	-0,024
-399,438	-200,000	0,006	-0,092
-398,423	-200,000	0,038	-0,140
-397,409	-90,200	-0,146	-0,031
-396,394	-200,000	-0,010	-0,044
-395,379	142,987	-0,089	-0,086
-394,365	150,033	-0,046	0,045
-393,350	193,895	0,032	-0,035
-392,336	-38,367	0,002	0,001
-391,321	-40,035	-0,087	0,033
-390,306	173,090	-0,070	-0,074
-389,292	-200,000	-0,013	-0,072
-388,277	36,575	0,150	-0,096
-387,263	-166,307	-0,108	-0,003
-386,248	247,837	-0,098	0,121
-385,233	292,695	0,100	0,133
-384,219	65,030	-0,093	0,068
-383,204	149,583	0,049	-0,048
-382,190	-41,548	-0,142	-0,053
-381,175	80,370	-0,038	0,030
-380,160	-200,000	0,001	0,078
-379,146	122,932	0,078	0,071
-378,131	-73,446	-0,086	-0,023
-377,117	-200,000	-0,025	0,248
-376,102	-200,000	0,010	-0,094
-375,088	3,098	-0,093	0,049
-374,073	57,380	0,034	-0,024
-373,058	-101,696	0,108	-0,019
-372,044	-37,427	0,057	0,022
-371,029	265,227	0,035	-0,045
-370,015	800,000	-0,049	-0,105
-369,000	800,000	0,041	-0,086
-367,985	85,027	-0,073	-0,058
-366,971	-66,985	-0,077	-0,022
-365,956	-68,217	0,084	0,023
-364,942	171,161	-0,062	-0,064
-363,927	6,109	0,031	-0,016
-362,912	-200,000	-0,025	0,139
-361,898	285,679	-0,057	-0,075
-360,883	-10,296	0,107	0,051
-359,869	-118,453	-0,051	-0,006
-358,854	-200,000	-0,003	0,060
-357,839	312,163	-0,079	-0,108
-356,825	17,059	0,047	-0,027
-355,810	757,935	-0,101	0,199
-354,796	24,990	0,117	0,071
-353,781	-26,184	0,047	-0,020
-352,766	215,437	0,054	-0,062
-351,752	-68,942	0,009	0,003
-350,737	244,827	0,075	-0,092
-349,723	-200,000	0,002	0,007
-348,708	7,435	-0,029	0,016
-347,693	66,444	-0,039	-0,029
-346,679	336,724	0,065	0,092
-345,664	-200,000	0,014	0,060
-344,650	-25,116	-0,086	0,037
-343,635	150,891	0,100	0,099
-342,620	35,406	0,129	0,082
-341,606	800,000	0,091	0,187
-340,591	204,729	-0,074	0,083
-339,577	622,941	0,018	0,034
-338,562	377,905	0,020	0,030
-337,548	591,057	-0,073	0,132
-336,533	37,051	0,062	0,040
-335,518	-30,335	0,127	-0,052
-334,504	-7,989	-0,084	-0,041
-333,489	52,659	0,040	-0,027
-332,475	-200,000	-0,007	-0,225
-331,460	-200,000	0,007	0,061
-330,445	213,004	0,052	0,060
-329,431	209,253	0,097	-0,110
-328,416	227,377	-0,058	0,068
-327,402	-100,695	0,093	0,017
-326,387	-166,992	-0,119	-0,003
-325,372	375,623	0,092	-0,137
-324,358	227,878	-0,065	-0,077
-323,343	77,746	-0,061	-0,047
-322,329	-200,000	-0,019	0,168
-321,314	-200,000	0,023	0,083
-320,299	526,671	-0,053	-0,091
-319,285	28,667	0,099	-0,061
-318,270	-200,000	-0,004	-0,070
-317,256	77,769	-0,105	-0,081
-316,241	496,437	-0,021	-0,035
-315,226	466,868	-0,021	0,035
-314,212	493,490	0,040	0,067
-313,197	-200,000	-0,001	0,009
-312,183	-113,654	0,149	-0,021
-311,168	-23,038	-0,026	0,011
-310,153	382,941	0,033	-0,050
-309,139	75,690	-0,113	-0,086
-308,124	-200,000	-0,009	0,030
-307,110	180,388	0,095	-0,101
-306,095	-118,571	0,118	0,015
-305,080	-126,112	-0,130	0,014
-304,066	800,000	0,033	0,093
-303,051	-81,338	-0,125	0,030
-302,037	-125,969	0,078	0,008
-301,022	800,000	0,034	0,104
-300,008	228,072	0,064	0,075
-298,993	-200,000	-0,024	0,092
-297,978	800,000	0,050	-0,135
-296,964	-28,569	-0,051	-0,021
-295,949	-2,886	-0,080	-0,040
-294,935	4,705	0,054	0,029
-293,920	462,207	0,055	-0,089
-292,905	-119,470	-0,089	0,011
-291,891	-200,000	-0,029	0,107
-290,876	-200,000	0,008	-0,183
-289,862	-168,071	-0,141	-0,004
-288,847	-23,712	0,024	-0,010
-287,832	-15,059	-0,069	0,032
-286,818	800,000	0,032	0,095
-285,803	-200,000	-0,029	0,117
-284,789	-1,707	0,209	0,106
-283,774	800,000	0,030	0,084
-282,759	57,367	-0,021	0,015
-281,745	-11,775	-0,045	0,021
-280,730	133,227	-0,193	-0,181
-279,716	51,579	0,075	0,051
-278,701	92,034	-0,144	0,118
-277,686	509,901	-0,034	0,057
-276,672	75,794	-0,066	0,051
-275,657	800,000	-0,042	-0,100
-274,643	-0,223	-0,077	-0,039
-273,628	-200,000	0,017	-0,072
-272,613	49,427	-0,048	-0,033
-271,599	453,897	0,040	0,064
-270,584	-200,000	-0,003	-0,013
-269,570	-168,367	0,134	0,004
-268,555	-45,747	-0,179	0,064
-267,540	52,723	-0,010	-0,007
-266,526	66,928	-0,047	-0,035
-265,511	425,239	0,052	-0,081
-264,497	-158,646	-0,139	-0,006
-263,482	-200,000	0,002	0,041
-262,467	466,771	0,085	0,138
-261,453	-200,000	-0,025	-0,105
-260,438	800,000	-0,022	-0,046
-259,424	549,835	0,037	0,065
-258,409	800,000	0,023	0,070
-257,395	800,000	0,040	-0,081
-256,380	800,000	-0,022	-0,066
-255,365	379,201	-0,066	0,098
-254,351	-34,671	0,052	0,021
-253,336	-51,324	0,098	-0,033
-252,322	800,000	0,068	0,169
-251,307	-200,000	0,013	0,062
-250,292	-23,881	0,137	0,059
-249,278	800,000	0,069	0,164
-248,263	234,693	0,021	0,026
-247,249	800,000	-0,017	0,051
-246,234	164,263	0,111	0,113
-245,219	4,691	0,085	-0,045
-244,205	86,296	-0,099	-0,078
-243,190	543,520	0,059	-0,103
-242,176	-200,000	-0,029	0,151
-241,161	-146,221	0,014	-0,001
-240,146	800,000	-0,024	-0,067
-239,132	-105,440	0,173	-0,028
-238,117	800,000	-0,030	0,064
-237,103	9,212	-0,049	0,027
-236,088	57,909	0,051	-0,036
-235,073	800,000	0,051	-0,137
-234,059	-165,705	0,096	0,003
-233,044	14,195	0,102	0,057
-232,030	80,645	-0,020	0,016
-231,015	112,325	-0,063	0,055
-230,000	-141,992	0,029	-0,002
-228,986	238,420	0,064	0,077
-227,971	800,000	0,032	-0,071
-226,957	-69,613	-0,039	0,011
-225,942	-77,602	-0,173	0,043
-224,927	800,000	-0,027	-0,057
-223,913	-34,137	-0,004	0,002
-222,898	63,407	-0,037	0,027
-221,884	22,988	0,033	0,020
-220,869	351,115	-0,027	-0,039
-219,855	-200,000	0,000	-0,016
-218,840	460,587	0,016	0,026
-217,825	346,534	0,042	0,060
-216,811	-54,500	-0,049	0,016
-215,796	57,765	-0,131	-0,092
-214,782	-200,000	-0,014	-0,104
-213,767	-85,802	0,106	0,024
-212,752	-200,000	0,009	-0,057
-211,738	-130,966	0,169	-0,016
-210,723	372,864	-0,063	0,092
-209,709	146,581	-0,075	0,073
-208,694	291,384	0,089	0,117
-207,679	270,669	0,094	-0,119
-206,665	-28,598	0,003	0,001
-205,650	-200,000	-0,016	0,066
-204,636	249,822	0,038	0,047
-203,621	27,292	-0,098	-0,059
-202,606	800,000	-0,019	-0,050
-201,592	-200,000	0,006	-0,029
-200,577	-200,000	-0,030	-0,098
-199,563	-59,978	0,133	0,041
-198,548	-200,000	-0,008	0,090
-197,533	-200,000	-0,004	-0,128
-196,519	800,000	0,026	0,064
-195,504	-104,692	-0,159	-0,026
-194,490	0,251	-0,036	-0,018
-193,475	-76,803	0,056	-0,014
-192,460	698,333	-0,027	0,051
-191,446	143,072	-0,031	0,030
-190,431	-139,291	-0,096	0,007
-189,417	685,379	0,073	-0,138
-188,402	-84,998	0,099	-0,022
-187,387	-92,087	-0,081	0,016
-186,373	425,617	-0,110	-0,172
-185,358	26,424	-0,121	-0,073
-184,344	-60,408	0,109	-0,033
-183,329	83,107	0,101	0,080
-182,315	14,222	0,124	0,070
-181,300	-157,558	-0,176	0,007
-180,285	293,394	-0,014	0,018
-179,271	164,559	-0,025	-0,025
-178,256	57,582	0,077	-0,054
-177,242	105,746	0,043	-0,037
-176,227	207,934	0,033	0,037
-175,212	800,000	0,050	0,126
-174,198	22,806	-0,054	0,032
-173,183	-126,602	-0,139	-0,015
-172,169	310,827	-0,015	-0,020
-171,154	-200,000	0,023	-0,081
-170,139	299,140	-0,068	0,090
-169,125	-200,000	-0,005	-0,036
-168,110	5,194	0,043	-0,023
-167,096	176,358	-0,025	-0,026
-166,081	5,020	-0,152	0,081
-165,066	-200,000	-0,013	0,135
-164,052	228,087	0,075	-0,088
-163,037	800,000	-0,032	-0,091
-162,023	-200,000	-0,010	-0,075
-161,008	-121,389	0,088	-0,010
-159,993	250,198	-0,049	0,060
-158,979	14,251	0,157	0,088
-157,964	26,863	-0,019	-0,012
-156,950	-47,323	-0,023	-0,008
-155,935	800,000	0,006	0,012
-154,920	162,934	0,106	0,107
-153,906	-119,761	0,062	0,008
-152,891	1,321	0,196	0,101
-151,877	354,534	0,018	-0,026
-150,862	-54,758	-0,104	-0,034
-149,847	-65,524	0,118	-0,034
-148,833	284,453	0,043	0,056
-147,818	288,619	0,037	0,049
-146,804	-54,557	0,039	0,013
-145,789	-200,000	-0,005	0,102
-144,775	-81,381	-0,145	-0,034
-143,760	-183,801	-0,053	0,001
-142,745	8,552	-0,144	0,078
-141,731	406,147	0,032	0,048
-140,716	-2,430	0,034	0,017
-139,702	-200,000	-0,006	0,194
-138,687	218,670	-0,068	0,079
-137,672	-200,000	0,026	-0,115
-136,658	103,959	0,097	-0,082
-135,643	283,717	0,177	-0,230
-134,629	-51,511	0,062	-0,021
-133,614	474,066	0,066	-0,107
-132,599	8,286	-0,090	-0,049
-131,585	-23,249	0,030	-0,013
-130,570	33,261	-0,093	-0,058
-129,556	200,477	-0,056	0,062
-128,541	-200,000	0,006	-0,094
-127,526	322,958	0,058	0,080
-126,512	-56,483	0,084	-0,027
-125,497	-132,169	0,081	-0,007
-124,483	97,864	0,058	0,048
-123,468	-200,000	-0,003	0,037
-122,453	294,202	-0,085	-0,112
-121,439	800,000	0,025	0,056
-120,424	191,768	-0,114	-0,124
-119,410	-200,000	0,028	0,096
-118,395	800,000	0,040	0,107
-117,380	-72,934	-0,088	0,023
