DTS Sentinel unit serial number:	SN410029Multiplexer serial number:	ORYXHardware model number:	OX2-SRSoftware version number:	ORYX F/W v4,00 Oryx Data Collector v3.7.2.0data status	okinstallation	B5 Nyhavnadifferential loss correction	single-endedforward channel	channel 2reverse channel	N/Adate	2023/12/14time	04:37:13forward acquisition time	300,00reverse acquisition time	0,00gamma	499,1914k internal	0,3156k external	0,3156temperature offset calibration	1,0000default loss term (dB/km)	0,3820temperature slope calibration	1,0000multiplexer offset coefficient	1,0000multiplexer slope coefficient	1,0000fibre end	0,00T internal ref (°C)	7,82T ext. ref 1 (°C)	-8,60T ext. ref 2 (°C)	-8,64length (m)	temperature (°C)	Stokes	anti-Stokes-744,400	98,505	0,170	0,145
-743,385	-63,304	-0,450	-0,136
-742,371	-64,803	0,223	0,066
-741,356	-175,578	-0,334	-0,007
-740,342	636,720	0,118	0,221
-739,327	-33,351	-0,158	-0,064
-738,312	504,772	0,107	0,184
-737,298	-42,433	-0,458	-0,171
-736,283	-136,442	0,155	0,013
-735,269	6,438	-0,331	-0,181
-734,254	245,145	0,209	0,260
-733,239	50,012	-0,501	-0,348
-732,225	-33,624	0,205	0,083
-731,210	-20,927	0,098	-0,044
-730,196	-48,981	-0,086	-0,030
-729,181	195,873	0,022	-0,025
-728,167	-200,000	-0,012	0,043
-727,152	-200,000	-0,001	0,025
-726,137	-113,307	-0,086	0,012
-725,123	99,148	-0,128	0,109
-724,108	-133,651	-0,083	-0,008
-723,094	-200,000	-0,018	-0,296
-722,079	-200,000	-0,009	-0,061
-721,064	-11,264	-0,056	0,027
-720,050	507,247	-0,100	-0,172
-719,035	-53,619	0,110	-0,037
-718,021	800,000	-0,040	-0,105
-717,006	-146,281	-0,128	-0,008
-715,991	199,197	0,096	-0,108
-714,977	373,966	-0,039	-0,058
-713,962	-67,982	-0,110	-0,031
-712,948	-200,000	-0,013	0,066
-711,933	-150,598	0,085	-0,005
-710,918	-3,915	0,093	-0,047
-709,904	161,906	0,045	-0,047
-708,889	44,328	-0,054	-0,036
-707,875	-108,537	-0,127	0,020
-706,860	-200,000	-0,014	-0,124
-705,845	121,524	-0,153	-0,141
-704,831	-46,876	-0,072	-0,026
-703,816	800,000	-0,031	-0,068
-702,802	499,453	-0,079	-0,135
-701,787	-200,000	-0,018	-0,114
-700,772	-147,816	-0,053	-0,003
-699,758	-157,638	-0,059	0,003
-698,743	-91,792	-0,232	0,048
-697,729	154,030	0,058	-0,059
-696,714	13,642	0,081	-0,046
-695,699	-59,087	-0,070	-0,022
-694,685	224,323	-0,043	-0,051
-693,670	154,227	0,026	-0,026
-692,656	800,000	-0,030	-0,079
-691,641	-97,377	0,091	0,017
-690,627	-29,477	-0,086	-0,036
-689,612	236,681	0,109	0,134
-688,597	533,580	-0,082	0,143
-687,583	87,582	-0,063	0,051
-686,568	424,460	-0,055	-0,087
-685,554	-200,000	-0,010	0,068
-684,539	800,000	-0,083	-0,173
-683,524	-46,536	0,136	0,049
-682,510	512,081	-0,010	0,018
-681,495	-58,843	-0,168	-0,053
-680,481	800,000	0,038	-0,082
-679,466	319,461	-0,050	-0,071
-678,451	147,324	-0,138	-0,137
-677,437	800,000	0,036	-0,106
-676,422	423,447	-0,042	0,067
-675,408	-12,737	-0,104	0,050
-674,393	-200,000	0,020	0,071
-673,378	-132,710	-0,173	-0,016
-672,364	-102,103	-0,107	-0,019
-671,349	-21,906	-0,116	-0,051
-670,335	-128,072	-0,091	0,009
-669,320	-103,998	-0,035	-0,006
-668,305	-200,000	0,009	0,080
-667,291	-113,797	0,078	0,011
-666,276	-12,917	-0,128	0,061
-665,262	263,904	-0,129	-0,166
-664,247	-200,000	0,032	0,189
-663,232	800,000	0,007	-0,015
-662,218	17,533	-0,044	0,025
-661,203	-106,669	0,138	0,022
-660,189	800,000	-0,031	0,071
-659,174	-28,000	-0,105	-0,045
-658,159	-18,540	0,081	0,037
-657,145	-149,804	0,100	-0,006
-656,130	38,664	-0,023	0,015
-655,116	53,963	-0,032	0,022
-654,101	-200,000	0,002	0,025
-653,086	-88,432	-0,122	-0,027
-652,072	-1,666	-0,027	-0,014
-651,057	123,832	-0,046	0,042
-650,043	-5,746	0,097	-0,049
-649,028	626,157	-0,064	0,119
-648,014	800,000	-0,037	0,097
-646,999	-178,453	0,159	-0,003
-645,984	357,408	-0,070	0,103
-644,970	-200,000	0,006	0,027
-643,955	791,436	-0,020	-0,040
-642,941	-97,615	-0,036	-0,007
-641,926	-92,252	-0,238	-0,049
-640,911	18,971	0,159	0,093
-639,897	322,593	-0,036	0,051
-638,882	-34,447	-0,175	0,070
-637,868	-200,000	0,021	-0,087
-636,853	800,000	0,010	0,020
-635,838	-200,000	-0,010	-0,069
-634,824	89,988	-0,111	-0,091
-633,809	-18,663	0,076	0,035
-632,795	-101,993	-0,178	-0,031
-631,780	-200,000	-0,011	0,110
-630,765	-95,030	0,029	0,006
-629,751	38,743	0,059	-0,039
-628,736	245,765	0,021	-0,026
-627,722	33,551	0,079	0,050
-626,707	-105,878	-0,020	-0,003
-625,692	42,135	0,044	0,030
-624,678	800,000	-0,037	0,090
-623,663	-105,850	0,088	-0,014
-622,649	-200,000	-0,005	-0,138
-621,634	-32,974	0,022	-0,009
-620,619	800,000	-0,014	0,031
-619,605	800,000	-0,045	-0,144
-618,590	365,815	0,082	0,122
-617,576	32,073	0,140	0,089
-616,561	-98,017	-0,133	0,025
-615,546	143,772	-0,033	-0,032
-614,532	800,000	0,032	0,092
-613,517	-200,000	-0,001	-0,040
-612,503	183,770	-0,008	-0,009
-611,488	-143,546	0,092	-0,006
-610,474	-96,250	-0,041	0,008
-609,459	486,245	-0,022	0,036
-608,444	-200,000	-0,003	0,032
-607,430	-112,978	-0,080	-0,012
-606,415	-200,000	-0,012	0,075
-605,401	-111,556	-0,048	0,007
-604,386	-200,000	0,014	-0,092
-603,371	-111,454	-0,039	-0,006
-602,357	351,403	-0,028	0,040
-601,342	-200,000	-0,023	-0,106
-600,328	-8,481	-0,086	-0,042
-599,313	-98,852	-0,107	-0,020
-598,298	144,964	-0,130	-0,128
-597,284	-40,745	0,092	0,035
-596,269	116,758	-0,056	0,050
-595,255	-200,000	-0,021	0,099
-594,240	184,341	0,069	-0,075
-593,225	-80,944	-0,186	0,045
-592,211	-149,674	-0,056	0,003
-591,196	-200,000	-0,001	0,037
-590,182	-151,382	0,128	0,007
-589,167	-200,000	-0,017	0,106
-588,152	-200,000	0,015	0,063
-587,138	-33,674	0,073	0,029
-586,123	-104,078	-0,148	-0,025
-585,109	-149,502	0,039	-0,002
-584,094	356,710	0,010	-0,015
-583,079	-200,000	-0,009	0,074
-582,065	-114,724	0,095	0,013
-581,050	-50,099	-0,211	-0,073
-580,036	-200,000	-0,006	-0,076
-579,021	373,113	0,029	-0,043
-578,006	-36,643	0,030	-0,012
-576,992	-85,138	0,038	-0,009
-575,977	-200,000	0,032	-0,103
-574,963	-45,982	-0,055	-0,020
-573,948	124,119	0,013	0,012
-572,934	205,668	0,060	-0,069
-571,919	301,854	-0,146	-0,199
-570,904	-88,597	-0,128	0,028
-569,890	257,328	-0,052	-0,066
-568,875	98,984	-0,016	-0,013
-567,861	-105,623	0,092	0,015
-566,846	393,504	0,059	0,090
-565,831	-59,549	-0,101	0,032
-564,817	-126,380	-0,053	-0,006
-563,802	-200,000	-0,024	-0,204
-562,788	36,242	-0,034	-0,022
-561,773	800,000	-0,009	0,023
-560,758	-200,000	-0,015	0,087
-559,744	-200,000	0,004	-0,016
-558,729	-82,184	0,037	-0,009
-557,715	-18,975	0,041	-0,018
-556,700	-142,013	-0,110	0,008
-555,685	-135,680	-0,125	0,011
-554,671	387,680	0,078	-0,118
-553,656	800,000	0,048	0,139
-552,642	26,863	0,040	0,024
-551,627	-98,061	0,128	0,024
-550,612	800,000	0,032	-0,089
-549,598	5,867	0,066	0,036
-548,583	-28,973	-0,134	-0,056
-547,569	355,332	0,060	0,087
-546,554	67,500	0,053	0,039
-545,539	225,578	-0,047	-0,056
-544,525	644,234	0,023	0,043
-543,510	-65,092	0,080	-0,024
-542,496	800,000	0,017	0,035
-541,481	124,934	-0,152	-0,140
-540,466	-54,839	-0,025	-0,008
-539,452	-200,000	-0,025	0,220
-538,437	-70,149	-0,140	0,039
-537,423	227,850	-0,119	0,142
-536,408	-142,518	0,100	-0,007
-535,393	559,093	0,128	-0,227
-534,379	163,036	-0,044	-0,045
-533,364	102,241	-0,040	-0,034
-532,350	800,000	0,028	-0,075
-531,335	-172,028	0,147	-0,003
-530,321	-150,972	0,033	-0,002
-529,306	-200,000	-0,007	-0,151
-528,291	-72,136	0,158	0,042
-527,277	-200,000	-0,002	0,043
-526,262	23,420	-0,105	-0,063
-525,248	-200,000	-0,003	-0,029
-524,233	800,000	0,072	-0,164
-523,218	-135,129	-0,044	0,004
-522,204	471,511	-0,073	0,120
-521,189	-108,589	-0,122	-0,019
-520,175	800,000	0,018	-0,040
-519,160	-95,572	0,068	-0,013
-518,145	800,000	0,045	-0,106
-517,131	-178,851	0,030	0,000
-516,116	-200,000	0,013	-0,096
-515,102	134,571	-0,081	-0,077
-514,087	-171,494	-0,188	0,004
-513,072	105,832	0,031	-0,027
-512,058	-79,107	-0,126	0,031
-511,043	-200,000	0,000	0,070
-510,029	800,000	0,071	0,150
-509,014	-200,000	0,000	0,050
-507,999	-11,209	-0,059	0,028
-506,985	-200,000	-0,012	0,086
-505,970	-127,871	0,059	0,006
-504,956	-23,848	0,120	0,052
-503,941	174,679	-0,034	-0,036
-502,926	457,827	-0,017	0,027
-501,912	538,170	-0,043	0,075
-500,897	-112,669	0,124	0,018
-499,883	489,493	-0,039	-0,065
-498,868	800,000	0,041	-0,107
-497,853	800,000	-0,021	0,056
-496,839	-147,344	-0,081	-0,005
-495,824	800,000	0,034	0,101
-494,810	39,367	-0,119	0,078
-493,795	330,277	-0,058	0,082
-492,781	432,512	-0,067	-0,106
-491,766	800,000	-0,024	-0,062
-490,751	55,068	0,131	-0,092
-489,737	9,586	-0,005	0,003
-488,722	800,000	-0,017	0,048
-487,708	197,901	0,098	0,110
-486,693	-83,127	0,115	-0,027
-485,678	800,000	-0,030	0,088
-484,664	236,223	-0,004	-0,005
-483,649	-86,026	-0,175	0,039
-482,635	800,000	-0,056	0,113
-481,620	6,330	0,082	-0,044
-480,605	800,000	-0,040	-0,098
-479,591	295,234	-0,051	-0,068
-478,576	470,840	-0,028	0,047
-477,562	-200,000	0,004	0,051
-476,547	800,000	-0,035	0,095
-475,532	-102,814	0,078	-0,013
-474,518	151,604	-0,012	-0,012
-473,503	50,016	0,101	0,069
-472,489	231,298	-0,070	-0,083
-471,474	-56,697	0,145	-0,046
-470,459	-200,000	-0,008	0,050
-469,445	800,000	-0,063	0,144
-468,430	-200,000	-0,026	0,095
-467,416	81,381	0,099	0,078
-466,401	-24,718	0,132	0,057
-465,386	-200,000	0,001	0,016
-464,372	232,931	0,053	-0,064
-463,357	800,000	-0,052	0,125
-462,343	800,000	-0,051	-0,152
-461,328	-11,601	-0,094	0,045
-460,313	-200,000	0,004	-0,039
-459,299	549,535	0,045	0,079
-458,284	-200,000	-0,013	0,108
-457,270	-92,422	0,067	-0,014
-456,255	-116,467	-0,083	-0,011
-455,241	-54,668	0,035	-0,012
-454,226	217,080	-0,018	-0,021
-453,211	-200,000	0,002	-0,077
-452,197	-200,000	0,006	0,089
-451,182	430,631	0,103	0,163
-450,168	-105,171	0,049	-0,008
-449,153	-47,240	-0,084	-0,030
-448,138	-63,103	-0,035	0,011
-447,124	-8,361	0,119	0,058
-446,109	-135,805	-0,071	0,006
-445,095	-200,000	0,007	0,085
-444,080	-25,897	-0,050	-0,021
-443,065	-118,141	-0,084	0,011
-442,051	-200,000	0,000	0,079
-441,036	800,000	0,068	0,160
-440,022	-200,000	0,008	-0,030
-439,007	-200,000	-0,022	0,179
-437,992	236,035	0,015	0,018
-436,978	800,000	0,060	-0,156
-435,963	-200,000	-0,005	-0,120
-434,949	-200,000	0,008	-0,093
-433,934	-200,000	0,010	-0,039
-432,919	-32,141	0,046	0,019
-431,905	-73,226	-0,147	0,039
-430,890	145,658	0,086	0,084
-429,876	328,077	0,057	0,080
-428,861	800,000	-0,045	0,094
-427,846	-200,000	0,017	-0,120
-426,832	800,000	-0,055	-0,139
-425,817	-200,000	-0,003	-0,021
-424,803	-108,436	-0,146	0,023
-423,788	-200,000	0,003	0,029
-422,773	-200,000	0,005	-0,054
-421,759	-80,219	0,133	0,032
-420,744	92,516	0,123	-0,101
-419,730	-14,831	-0,101	-0,047
-418,715	-200,000	-0,010	0,062
-417,701	271,096	0,096	0,123
-416,686	-113,718	0,148	-0,021
-415,671	9,400	-0,116	0,064
-414,657	373,507	0,113	-0,167
-413,642	-200,000	-0,040	-0,152
-412,628	-200,000	0,008	-0,031
-411,613	22,483	-0,172	-0,102
-410,598	418,048	0,042	0,066
-409,584	170,593	-0,085	0,089
-408,569	-200,000	-0,005	-0,070
-407,555	-200,000	-0,017	0,104
-406,540	115,638	-0,023	-0,021
-405,525	376,662	0,062	-0,093
-404,511	-200,000	-0,032	-0,174
-403,496	101,034	0,073	-0,062
-402,482	-34,100	-0,077	0,031
-401,467	327,827	-0,061	0,086
-400,452	-200,000	-0,025	0,096
-399,438	-155,061	-0,052	-0,002
-398,423	99,021	0,045	0,038
-397,409	296,534	-0,026	0,035
-396,394	-60,945	-0,048	0,015
-395,379	-200,000	-0,024	-0,089
-394,365	377,501	0,038	0,056
-393,350	509,815	0,045	0,076
-392,336	194,208	-0,013	-0,014
-391,321	280,926	-0,020	0,026
-390,306	-200,000	-0,010	-0,085
-389,292	800,000	0,035	-0,072
-388,277	-12,278	0,099	0,047
-387,263	-3,252	-0,051	0,026
-386,248	-20,822	0,128	-0,057
-385,233	7,546	-0,094	0,051
-384,219	-200,000	0,039	-0,128
-383,204	51,727	-0,098	-0,067
-382,190	501,386	0,147	-0,247
-381,175	90,855	-0,050	0,041
-380,160	83,006	-0,029	0,023
-379,146	800,000	0,035	0,104
-378,131	-200,000	0,018	-0,113
-377,117	-26,491	-0,106	0,045
-376,102	-26,947	0,157	0,066
-375,088	306,607	-0,064	-0,087
-374,073	332,126	0,060	0,085
-373,058	-46,903	0,114	0,040
-372,044	211,734	-0,066	-0,076
-371,029	661,471	-0,050	0,094
-370,015	800,000	-0,041	0,094
-369,000	178,217	-0,098	-0,104
-367,985	786,175	0,052	-0,105
-366,971	800,000	0,026	-0,056
-365,956	146,907	-0,071	0,069
-364,942	62,622	-0,052	-0,038
-363,927	15,121	0,093	0,053
-362,912	66,007	0,011	-0,008
-361,898	23,670	-0,011	0,007
-360,883	-123,377	0,095	-0,011
-359,869	-174,112	-0,065	0,001
-358,854	-200,000	0,036	0,124
-357,839	-15,500	0,010	-0,005
-356,825	72,900	0,075	-0,057
-355,810	83,965	-0,020	-0,015
-354,796	-195,498	0,094	0,000
-353,781	204,974	-0,089	-0,101
-352,766	800,000	-0,007	-0,015
-351,752	-200,000	0,003	-0,049
-350,737	-200,000	0,003	0,021
-349,723	-186,743	0,147	0,001
-348,708	133,233	0,073	0,069
-347,693	-31,506	-0,080	-0,033
-346,679	198,293	0,098	-0,109
-345,664	-7,388	-0,103	0,051
-344,650	-200,000	-0,005	0,017
-343,635	800,000	0,025	-0,073
-342,620	-42,673	0,195	0,072
-341,606	-200,000	0,005	0,075
-340,591	-200,000	-0,013	-0,073
-339,577	-149,719	-0,176	0,010
-338,562	277,889	0,048	-0,062
-337,548	442,150	0,098	0,156
-336,533	-21,107	0,167	0,074
-335,518	70,564	0,052	0,039
-334,504	-109,547	-0,057	-0,009
-333,489	800,000	0,068	0,161
-332,475	-200,000	-0,001	0,095
-331,460	800,000	0,044	-0,127
-330,445	441,241	-0,033	0,052
-329,431	63,668	0,106	0,077
-328,416	39,524	0,122	0,079
-327,402	36,620	-0,017	-0,011
-326,387	786,774	-0,065	0,131
-325,372	-12,418	0,056	0,027
-324,358	-200,000	0,016	0,052
-323,343	286,756	-0,077	0,102
-322,329	226,901	-0,080	0,094
-321,314	-200,000	0,029	0,137
-320,299	-200,000	0,004	-0,066
-319,285	56,572	-0,079	-0,056
-318,270	-165,565	-0,047	0,001
-317,256	-200,000	-0,001	-0,041
-316,241	-50,522	0,187	0,064
-315,226	-47,719	0,091	-0,032
-314,212	-200,000	-0,004	-0,081
-313,197	-155,678	-0,058	0,003
-312,183	800,000	0,013	-0,035
-311,168	-200,000	0,003	0,114
-310,153	102,702	-0,114	-0,097
-309,139	-68,865	-0,124	-0,035
-308,124	-200,000	-0,026	0,084
-307,110	199,060	0,047	0,052
-306,095	-200,000	-0,002	0,167
-305,080	18,952	-0,106	0,062
-304,066	-200,000	0,007	-0,077
-303,051	-165,236	-0,129	-0,004
-302,037	-200,000	0,018	0,063
-301,022	-71,154	-0,007	-0,002
-300,008	562,962	0,052	-0,092
-298,993	-200,000	0,034	-0,116
-297,978	-93,597	-0,067	0,013
-296,964	-156,325	0,064	0,003
-295,949	-200,000	-0,006	-0,046
-294,935	-200,000	-0,021	-0,160
-293,920	-107,321	0,064	0,010
-292,905	-200,000	0,001	-0,051
-291,891	99,027	0,040	-0,033
-290,876	-200,000	0,002	0,086
-289,862	-17,897	0,097	0,044
-288,847	800,000	0,041	0,126
-287,832	-200,000	-0,019	-0,117
-286,818	-42,348	0,085	0,031
-285,803	-200,000	0,011	-0,048
-284,789	35,765	-0,110	-0,070
-283,774	-200,000	0,023	0,124
-282,759	-200,000	-0,019	0,073
-281,745	547,762	0,050	0,087
-280,730	-112,476	0,034	0,005
-279,716	366,617	0,092	0,135
-278,701	-200,000	-0,002	-0,022
-277,686	120,462	0,060	-0,054
-276,672	519,414	0,051	-0,086
-275,657	-107,787	0,058	-0,009
-274,643	296,851	-0,015	-0,020
-273,628	370,771	0,059	-0,086
-272,613	285,237	0,057	-0,074
-271,599	-97,418	0,023	0,004
-270,584	-34,830	0,086	0,034
-269,570	-200,000	0,003	-0,026
-268,555	393,536	-0,059	0,089
-267,540	800,000	0,043	-0,130
-266,526	7,362	-0,085	0,046
-265,511	-200,000	-0,017	-0,084
-264,497	33,257	-0,046	-0,029
-263,482	-200,000	0,018	0,100
-262,467	-55,157	-0,069	-0,022
-261,453	-68,384	0,109	-0,030
-260,438	800,000	-0,014	-0,041
-259,424	-200,000	-0,015	-0,120
-258,409	800,000	0,040	-0,091
-257,395	-17,456	-0,098	-0,044
-256,380	314,728	0,031	0,042
-255,365	-200,000	0,005	0,062
-254,351	-81,326	-0,010	0,002
-253,336	32,102	-0,009	0,005
-252,322	-200,000	0,015	-0,071
-251,307	30,656	-0,014	-0,008
-250,292	-102,420	-0,036	0,006
-249,278	800,000	-0,031	-0,098
-248,263	362,477	0,032	0,047
-247,249	-50,002	0,059	0,020
-246,234	417,325	-0,021	-0,033
-245,219	229,488	-0,085	0,101
-244,205	-20,454	0,202	-0,090
-243,190	-200,000	-0,002	-0,070
-242,176	-14,603	0,142	-0,066
-241,161	25,317	0,123	0,074
-240,146	-200,000	-0,009	-0,032
-239,132	25,860	0,139	-0,083
-238,117	199,110	-0,138	-0,153
-237,103	-46,158	-0,044	0,016
-236,088	-63,698	0,027	0,008
-235,073	80,616	0,109	-0,085
-234,059	51,370	0,037	-0,026
-233,044	800,000	0,048	-0,108
-232,030	-78,975	0,128	0,031
-231,015	484,884	-0,077	-0,127
-230,000	800,000	-0,050	-0,122
-228,986	-166,633	-0,145	0,004
-227,971	800,000	0,065	0,135
-226,957	275,155	0,064	0,082
-225,942	800,000	0,051	0,109
-224,927	135,329	0,046	0,043
-223,913	-19,571	-0,044	-0,019
-222,898	12,049	-0,038	-0,021
-221,884	46,836	-0,127	-0,085
-220,869	78,574	0,054	-0,041
-219,855	156,778	0,055	-0,055
-218,840	-194,969	0,131	-0,001
-217,825	338,354	0,041	0,058
-216,811	-200,000	0,037	-0,153
-215,796	-200,000	-0,006	-0,064
-214,782	129,793	0,080	0,074
-213,767	67,400	0,048	0,035
-212,752	-45,084	0,156	0,056
-211,738	-5,066	0,036	0,018
-210,723	353,575	0,048	-0,069
-209,709	-138,058	-0,121	-0,010
-208,694	800,000	-0,037	0,088
-207,679	75,279	0,039	0,030
-206,665	800,000	-0,053	-0,165
-205,650	153,051	0,107	0,106
-204,636	75,744	0,092	-0,070
-203,621	20,199	0,029	0,017
-202,606	78,892	-0,093	-0,072
-201,592	226,440	0,036	-0,042
-200,577	-148,533	0,096	0,006
-199,563	800,000	-0,036	0,083
-198,548	-200,000	-0,006	0,023
-197,533	-200,000	0,009	0,095
-196,519	-200,000	-0,023	0,100
-195,504	17,547	-0,072	-0,041
-194,490	-200,000	-0,046	-0,158
-193,475	-76,924	-0,141	0,035
-192,460	-200,000	0,030	0,125
-191,446	-71,684	-0,048	-0,013
-190,431	-69,896	-0,113	-0,031
-189,417	302,477	0,089	-0,120
-188,402	13,954	0,064	0,036
-187,387	-133,066	-0,154	-0,014
-186,373	-200,000	0,008	0,033
-185,358	-37,201	-0,142	0,055
-184,344	794,007	-0,017	-0,035
-183,329	542,687	0,051	0,088
-182,315	387,447	-0,049	0,074
-181,300	-200,000	0,008	0,061
-180,285	-200,000	0,013	0,064
-179,271	171,078	-0,068	-0,071
-178,256	800,000	0,012	-0,035
-177,242	-128,343	-0,070	-0,007
-176,227	-200,000	0,025	0,222
-175,212	-200,000	-0,014	-0,075
-174,198	162,984	-0,019	0,019
-173,183	800,000	-0,058	-0,167
-172,169	175,123	-0,107	0,112
-171,154	520,480	0,045	-0,076
-170,139	800,000	0,006	0,015
-169,125	450,383	-0,045	-0,072
-168,110	-22,793	-0,140	0,061
-167,096	-200,000	0,027	-0,098
-166,081	-121,109	-0,077	-0,009
-165,066	800,000	-0,018	0,037
-164,052	92,060	-0,051	0,041
-163,037	750,462	-0,030	-0,059
-162,023	48,772	-0,064	0,043
-161,008	312,000	0,090	-0,122
-159,993	-200,000	-0,002	-0,075
-158,979	-103,301	-0,081	0,014
-157,964	-200,000	0,011	0,040
-156,950	800,000	-0,029	-0,069
-155,935	-200,000	0,012	-0,116
-154,920	-40,745	0,072	-0,027
-153,906	-94,161	0,052	0,010
-152,891	-200,000	0,008	0,067
-151,877	-200,000	0,007	-0,082
-150,862	181,831	0,051	-0,054
-149,847	-116,379	-0,200	-0,026
-148,833	183,622	0,040	-0,042
-147,818	-108,255	-0,063	0,010
-146,804	348,739	0,065	0,092
-145,789	-200,000	0,030	-0,095
-144,775	-200,000	0,015	-0,054
-143,760	24,961	-0,122	0,073
-142,745	41,774	-0,028	-0,018
-141,731	800,000	-0,028	-0,057
-140,716	-1,280	0,038	0,019
-139,702	-72,925	0,135	-0,035
-138,687	800,000	0,038	0,106
-137,672	-111,072	-0,132	0,019
-136,658	-200,000	0,019	-0,118
-135,643	-64,061	0,038	-0,011
-134,629	397,123	0,022	0,033
-133,614	180,347	0,020	-0,021
-132,599	658,335	-0,055	0,102
-131,585	224,727	0,125	0,146
-130,570	313,509	0,036	-0,049
-129,556	-200,000	0,004	0,026
-128,541	72,296	-0,099	-0,074
-127,526	185,744	0,055	0,059
-126,512	113,586	0,104	0,091
-125,497	84,952	-0,138	0,109
-124,483	-109,442	0,159	-0,024
-123,468	800,000	-0,038	-0,077
-122,453	294,693	-0,033	-0,043
-121,439	-200,000	0,022	-0,072
-120,424	114,034	0,034	0,030
