DTS Sentinel unit serial number:	SN410029Multiplexer serial number:	ORYXHardware model number:	OX2-SRSoftware version number:	ORYX F/W v4,00 Oryx Data Collector v3.7.2.0data status	okinstallation	B5 Nyhavnadifferential loss correction	single-endedforward channel	channel 2reverse channel	N/Adate	2023/12/12time	07:07:13forward acquisition time	300,00reverse acquisition time	0,00gamma	499,1914k internal	0,3158k external	0,3158temperature offset calibration	1,0000default loss term (dB/km)	0,3820temperature slope calibration	1,0000multiplexer offset coefficient	1,0000multiplexer slope coefficient	1,0000fibre end	0,00T internal ref (°C)	15,18T ext. ref 1 (°C)	-1,13T ext. ref 2 (°C)	-1,43length (m)	temperature (°C)	Stokes	anti-Stokes-744,400	600,870	0,078	0,144
-743,385	-33,296	-0,322	0,131
-742,371	77,639	0,138	0,109
-741,356	-177,261	-0,333	-0,006
-740,342	-200,000	0,021	0,102
-739,327	-119,243	-0,287	0,036
-738,312	-135,965	0,109	-0,009
-737,298	-109,348	-0,294	0,045
-736,283	-200,000	0,070	-0,239
-735,269	-112,708	-0,356	-0,052
-734,254	99,028	0,047	0,040
-733,239	-32,452	-0,470	-0,192
-732,225	-154,469	0,201	-0,010
-731,210	169,494	-0,064	-0,068
-730,196	790,316	0,057	0,116
-729,181	-200,000	0,004	-0,161
-728,167	-200,000	-0,007	-0,181
-727,152	-138,198	-0,109	0,009
-726,137	-0,876	0,062	-0,032
-725,123	198,248	0,079	-0,090
-724,108	-200,000	0,006	-0,038
-723,094	-9,638	-0,065	-0,032
-722,079	-45,737	-0,087	0,032
-721,064	800,000	-0,060	-0,143
-720,050	317,427	-0,061	0,085
-719,035	192,483	0,068	-0,076
-718,021	18,089	-0,060	0,035
-717,006	-152,384	-0,139	0,007
-715,991	800,000	0,024	0,052
-714,977	-200,000	0,017	-0,123
-713,962	-18,807	-0,036	0,017
-712,948	800,000	0,019	-0,061
-711,933	147,827	-0,107	-0,106
-710,918	800,000	0,043	0,122
-709,904	-76,793	-0,105	0,027
-708,889	197,110	-0,061	-0,068
-707,875	20,584	-0,110	-0,065
-706,860	800,000	-0,006	0,020
-705,845	-29,151	-0,128	0,054
-704,831	307,973	0,103	0,142
-703,816	-79,172	-0,053	-0,013
-702,802	-200,000	-0,016	0,102
-701,787	-84,065	-0,164	-0,038
-700,772	-66,969	-0,132	0,038
-699,758	-17,463	-0,088	0,041
-698,743	-200,000	-0,014	0,084
-697,729	-200,000	0,003	0,047
-696,714	192,976	-0,093	0,104
-695,699	-131,616	0,041	0,004
-694,685	-200,000	-0,004	-0,049
-693,670	-169,327	-0,143	-0,004
-692,656	791,578	0,020	0,041
-691,641	-139,782	-0,040	0,003
-690,627	-39,454	0,096	0,037
-689,612	-96,294	-0,188	-0,036
-688,597	-82,970	-0,124	0,029
-687,583	-200,000	0,006	-0,114
-686,568	-112,336	0,068	-0,010
-685,554	-61,048	-0,084	0,026
-684,539	-200,000	-0,003	0,235
-683,524	-79,016	-0,113	0,028
-682,510	-200,000	0,009	-0,039
-681,495	337,798	0,054	0,077
-680,481	216,403	-0,101	-0,119
-679,466	62,191	-0,077	-0,056
-678,451	-142,469	0,029	-0,002
-677,437	-200,000	0,030	0,149
-676,422	-200,000	0,002	0,156
-675,408	-200,000	0,002	0,068
-674,393	-100,447	-0,068	0,012
-673,378	720,200	-0,040	-0,079
-672,364	-37,097	0,052	0,021
-671,349	800,000	-0,019	-0,038
-670,335	327,065	-0,006	0,008
-669,320	-200,000	0,007	0,059
-668,305	-130,393	0,153	0,015
-667,291	-200,000	0,000	0,028
-666,276	55,000	0,037	-0,026
-665,262	384,882	-0,092	-0,140
-664,247	-79,333	0,059	-0,015
-663,232	800,000	0,023	-0,062
-662,218	193,640	-0,074	-0,082
-661,203	165,694	-0,171	0,178
-660,189	800,000	-0,063	-0,152
-659,174	93,947	-0,125	-0,104
-658,159	8,503	0,124	-0,069
-657,145	56,188	-0,136	-0,097
-656,130	-81,487	-0,106	-0,025
-655,116	150,001	0,041	-0,040
-654,101	-149,516	0,107	0,006
-653,086	-200,000	-0,002	-0,046
-652,072	-134,047	-0,088	-0,008
-651,057	45,155	-0,054	-0,036
-650,043	108,308	0,076	-0,066
-649,028	226,215	-0,043	-0,052
-648,014	-76,059	0,125	-0,032
-646,999	336,829	-0,003	-0,004
-645,984	-45,717	-0,035	-0,013
-644,970	-96,742	-0,073	-0,014
-643,955	-200,000	0,009	-0,061
-642,941	-200,000	-0,007	-0,098
-641,926	92,207	-0,052	-0,043
-640,911	800,000	0,009	-0,024
-639,897	-200,000	-0,005	-0,074
-638,882	242,907	-0,031	-0,038
-637,868	297,387	-0,041	-0,055
-636,853	-176,634	-0,030	-0,001
-635,838	-200,000	-0,007	-0,075
-634,824	-150,381	-0,057	-0,003
-633,809	414,270	0,105	0,165
-632,795	433,674	-0,050	0,080
-631,780	800,000	-0,028	-0,067
-630,765	-200,000	0,055	-0,212
-629,751	800,000	0,048	-0,142
-628,736	94,348	0,123	-0,102
-627,722	-42,898	-0,101	-0,037
-626,707	800,000	0,034	-0,080
-625,692	-77,375	0,078	0,020
-624,678	-200,000	-0,012	-0,078
-623,663	-41,368	0,051	0,019
-622,649	-200,000	-0,050	0,164
-621,634	436,538	-0,077	-0,123
-620,619	223,417	-0,122	-0,145
-619,605	800,000	0,035	-0,106
-618,590	-200,000	0,008	-0,029
-617,576	5,793	-0,051	0,028
-616,561	96,819	-0,070	0,059
-615,546	107,574	0,155	-0,136
-614,532	-67,751	-0,109	0,031
-613,517	-60,119	-0,110	0,034
-612,503	573,687	0,025	-0,044
-611,488	630,448	0,037	0,069
-610,474	-200,000	-0,025	-0,132
-609,459	69,235	-0,104	-0,079
-608,444	-62,993	-0,023	-0,007
-607,430	101,447	-0,147	-0,126
-606,415	129,772	-0,078	-0,073
-605,401	18,952	0,072	0,042
-604,386	-2,079	0,093	-0,048
-603,371	-167,732	0,027	-0,001
-602,357	800,000	0,054	-0,169
-601,342	-200,000	0,018	-0,128
-600,328	-191,299	0,042	0,000
-599,313	-40,388	-0,146	-0,055
-598,298	664,038	-0,086	-0,163
-597,284	-170,910	0,022	0,001
-596,269	244,183	0,046	-0,056
-595,255	107,090	-0,054	0,047
-594,240	702,070	-0,025	0,048
-593,225	24,862	0,094	-0,057
-592,211	-200,000	-0,023	0,102
-591,196	258,454	-0,042	0,053
-590,182	-1,032	0,045	-0,023
-589,167	1,455	0,113	0,059
-588,152	-44,840	0,073	0,027
-587,138	-83,015	0,041	0,010
-586,123	-95,242	-0,161	-0,032
-585,109	-200,000	0,004	0,072
-584,094	417,995	-0,035	0,055
-583,079	-62,535	-0,084	-0,025
-582,065	266,556	-0,043	0,055
-581,050	-3,113	-0,079	0,040
-580,036	-105,962	0,061	0,010
-579,021	800,000	0,043	-0,106
-578,006	800,000	0,023	-0,047
-576,992	87,806	-0,074	-0,060
-575,977	-200,000	-0,000	-0,053
-574,963	98,424	-0,057	-0,048
-573,948	50,056	0,023	-0,016
-572,934	-56,512	-0,087	0,028
-571,919	-200,000	0,008	-0,152
-570,904	403,273	-0,033	-0,050
-569,890	127,966	-0,063	0,059
-568,875	-200,000	-0,014	0,066
-567,861	-200,000	0,003	-0,038
-566,846	320,574	-0,062	0,086
-565,831	38,925	-0,063	0,041
-564,817	187,065	-0,080	0,088
-563,802	-159,113	-0,104	-0,004
-562,788	-200,000	0,008	0,059
-561,773	-120,477	0,048	0,006
-560,758	-10,349	-0,069	-0,034
-559,744	-170,063	0,073	-0,002
-558,729	-82,372	0,102	-0,024
-557,715	-200,000	0,023	0,097
-556,700	-42,913	-0,116	-0,043
-555,685	638,498	-0,056	0,104
-554,671	-57,543	-0,048	-0,015
-553,656	-200,000	-0,005	-0,067
-552,642	800,000	-0,043	0,120
-551,627	312,181	-0,060	0,082
-550,612	-200,000	0,000	-0,006
-549,598	88,045	-0,027	-0,022
-548,583	147,531	0,038	0,038
-547,569	800,000	0,019	-0,057
-546,554	151,737	-0,099	-0,098
-545,539	800,000	-0,060	0,123
-544,525	-200,000	0,162	-0,000
-543,510	194,314	-0,061	0,067
-542,496	705,824	-0,085	-0,164
-541,481	-200,000	-0,004	-0,033
-540,466	22,441	0,045	0,027
-539,452	48,492	-0,050	0,034
-538,437	-200,000	0,005	0,170
-537,423	-200,000	0,057	-0,000
-536,408	-52,512	0,064	0,021
-535,393	193,502	-0,056	-0,063
-534,379	-32,434	0,062	0,025
-533,364	-200,000	-0,017	0,073
-532,350	144,292	0,142	0,139
-531,335	198,151	0,035	0,039
-530,321	-166,391	0,065	-0,002
-529,306	800,000	-0,044	0,128
-528,291	651,634	-0,040	0,074
-527,277	-107,514	0,078	-0,012
-526,262	800,000	0,060	-0,159
-525,248	-200,000	-0,004	-0,100
-524,233	78,796	0,146	0,114
-523,218	-200,000	-0,036	-0,128
-522,204	515,065	0,064	-0,110
-521,189	-200,000	0,006	-0,030
-520,175	124,619	-0,115	-0,106
-519,160	293,340	0,016	0,022
-518,145	74,019	-0,028	-0,022
-517,131	156,275	0,023	-0,023
-516,116	173,108	-0,045	0,048
-515,102	800,000	-0,012	0,033
-514,087	704,393	0,074	-0,143
-513,072	140,091	0,058	0,056
-512,058	-200,000	-0,036	0,131
-511,043	-200,000	0,019	-0,082
-510,029	-58,458	0,090	0,028
-509,014	-200,000	0,002	-0,033
-507,999	-15,294	-0,161	0,075
-506,985	-200,000	0,000	-0,084
-505,970	301,982	0,064	-0,087
-504,956	800,000	-0,041	-0,102
-503,941	-200,000	0,017	-0,111
-502,926	-200,000	0,008	0,098
-501,912	64,661	-0,117	0,086
-500,897	800,000	-0,072	0,193
-499,883	-200,000	-0,004	0,021
-498,868	25,738	-0,084	0,051
-497,853	-13,965	0,168	0,079
-496,839	-200,000	-0,004	0,021
-495,824	184,623	0,085	0,093
-494,810	800,000	0,038	0,095
-493,795	-18,030	0,108	-0,049
-492,781	800,000	0,028	0,066
-491,766	-2,242	-0,092	-0,047
-490,751	2,940	-0,081	-0,043
-489,737	800,000	-0,025	0,067
-488,722	-158,102	0,088	-0,004
-487,708	-72,788	0,066	0,017
-486,693	-200,000	-0,009	-0,033
-485,678	-200,000	0,009	-0,033
-484,664	183,073	-0,095	-0,102
-483,649	-151,210	0,209	0,011
-482,635	225,226	-0,118	0,140
-481,620	254,882	0,020	0,025
-480,605	699,756	0,040	0,078
-479,591	-120,373	0,038	-0,005
-478,576	-200,000	0,004	0,017
-477,562	-200,000	-0,002	0,023
-476,547	800,000	0,052	-0,106
-475,532	136,820	-0,058	-0,055
-474,518	-52,988	0,134	-0,045
-473,503	135,704	0,017	-0,016
-472,489	-200,000	-0,019	0,198
-471,474	-72,312	0,117	0,031
-470,459	310,594	-0,009	0,013
-469,445	-200,000	0,005	-0,131
-468,430	-54,234	-0,101	-0,033
-467,416	-200,000	-0,033	-0,141
-466,401	-36,461	0,039	-0,015
-465,386	240,570	-0,033	-0,040
-464,372	355,702	0,077	-0,113
-463,357	164,482	0,034	-0,035
-462,343	800,000	0,034	-0,087
-461,328	-0,219	-0,139	0,072
-460,313	365,613	-0,061	-0,090
-459,299	227,030	-0,083	0,099
-458,284	59,842	-0,083	0,059
-457,270	-200,000	-0,022	0,093
-456,255	25,609	0,026	0,016
-455,241	-200,000	-0,045	0,000
-454,226	84,747	0,032	-0,025
-453,211	800,000	0,045	-0,132
-452,197	224,711	0,049	0,058
-451,182	-131,647	0,051	-0,005
-450,168	-200,000	-0,024	-0,081
-449,153	-200,000	-0,018	0,091
-448,138	521,569	-0,010	-0,018
-447,124	-196,319	-0,043	0,000
-446,109	262,494	0,003	0,004
-445,095	-127,267	0,086	0,009
-444,080	207,157	0,035	0,040
-443,065	-7,917	0,079	-0,039
-442,051	-200,000	0,025	0,107
-441,036	-53,852	-0,058	-0,019
-440,022	35,175	-0,065	0,041
-439,007	-200,000	-0,029	0,094
-437,992	6,929	-0,135	0,073
-436,978	-200,000	0,049	0,195
-435,963	33,821	0,051	0,032
-434,949	800,000	0,050	0,109
-433,934	-125,068	0,148	0,016
-432,919	598,351	-0,083	0,150
-431,905	-167,658	-0,133	0,004
-430,890	96,319	0,114	0,095
-429,876	64,032	0,030	0,022
-428,861	-71,406	-0,090	-0,024
-427,846	298,174	-0,100	-0,135
-426,832	800,000	0,034	0,073
-425,817	-200,000	-0,001	-0,004
-424,803	252,211	-0,016	0,020
-423,788	-200,000	0,003	0,081
-422,773	-200,000	0,026	-0,102
-421,759	800,000	-0,062	0,132
-420,744	-200,000	0,000	0,076
-419,730	800,000	-0,024	-0,068
-418,715	494,909	0,025	-0,042
-417,701	-17,454	-0,075	-0,034
-416,686	414,522	-0,059	0,092
-415,671	-127,058	0,133	0,014
-414,657	-200,000	0,022	-0,144
-413,642	-200,000	-0,014	0,057
-412,628	381,541	0,043	0,065
-411,613	-157,366	-0,070	0,003
-410,598	110,846	-0,085	-0,075
-409,584	-34,409	0,053	0,021
-408,569	137,767	0,044	-0,042
-407,555	300,904	0,121	0,163
-406,540	-200,000	0,022	0,166
-405,525	-117,635	-0,028	-0,004
-404,511	-200,000	-0,012	-0,064
-403,496	-35,271	0,067	-0,026
-402,482	800,000	-0,032	0,077
-401,467	-200,000	0,015	-0,098
-400,452	681,384	0,034	-0,066
-399,438	210,820	-0,019	0,022
-398,423	48,360	-0,060	-0,041
-397,409	1,959	-0,060	0,032
-396,394	-43,979	0,129	-0,047
-395,379	800,000	0,028	0,069
-394,365	132,956	0,078	-0,073
-393,350	800,000	0,023	-0,066
-392,336	-160,990	-0,210	0,008
-391,321	83,199	-0,053	0,042
-390,306	-115,410	-0,120	0,016
-389,292	800,000	0,025	-0,074
-388,277	-200,000	-0,001	0,148
-387,263	421,880	0,065	-0,102
-386,248	-200,000	-0,018	0,090
-385,233	-200,000	-0,015	0,102
-384,219	-1,406	0,073	-0,037
-383,204	128,925	-0,043	0,040
-382,190	24,499	0,061	-0,036
-381,175	750,004	-0,020	-0,039
-380,160	-189,873	-0,068	-0,001
-379,146	-52,695	0,102	0,034
-378,131	-200,000	-0,002	-0,132
-377,117	-12,546	-0,056	-0,026
-376,102	95,563	-0,078	-0,065
-375,088	-200,000	0,010	-0,216
-374,073	680,571	-0,019	-0,036
-373,058	-171,620	0,091	0,002
-372,044	749,332	-0,057	0,112
-371,029	-196,757	0,050	-0,000
-370,015	58,830	0,111	0,079
-369,000	-200,000	-0,012	-0,077
-367,985	436,236	-0,013	0,020
-366,971	3,582	0,173	-0,091
-365,956	145,498	0,069	0,067
-364,942	-18,386	0,091	0,041
-363,927	800,000	0,036	0,106
-362,912	-200,000	0,046	0,169
-361,898	-200,000	0,021	-0,071
-360,883	-200,000	0,004	-0,072
-359,869	29,907	0,041	-0,026
-358,854	468,795	0,060	-0,098
-357,839	-2,306	0,133	0,068
-356,825	178,087	-0,109	-0,116
-355,810	250,143	-0,039	-0,048
-354,796	-68,924	0,049	0,014
-353,781	557,419	0,020	0,035
-352,766	-200,000	-0,029	-0,146
-351,752	-115,917	-0,062	-0,008
-350,737	625,485	0,070	0,128
-349,723	-51,632	0,047	-0,016
-348,708	70,326	-0,132	0,099
-347,693	-155,717	0,038	-0,002
-346,679	800,000	-0,018	0,043
-345,664	-8,946	0,082	-0,040
-344,650	-30,113	-0,056	0,023
-343,635	293,225	0,026	-0,034
-342,620	65,328	0,019	-0,014
-341,606	34,454	0,015	-0,010
-340,591	266,167	0,087	0,111
-339,577	106,090	-0,081	0,069
-338,562	111,450	-0,098	0,086
-337,548	-39,325	-0,034	0,013
-336,533	-130,868	0,044	-0,004
-335,518	800,000	0,047	0,106
-334,504	-160,506	-0,077	-0,003
-333,489	783,710	-0,061	0,121
-332,475	409,287	0,009	0,014
-331,460	710,415	-0,064	0,123
-330,445	139,984	-0,087	0,084
-329,431	348,310	-0,052	0,074
-328,416	-47,803	0,092	0,032
-327,402	411,447	-0,086	0,133
-326,387	-200,000	-0,002	-0,013
-325,372	-200,000	0,021	0,136
-324,358	-49,243	0,033	-0,011
-323,343	-127,733	-0,040	-0,004
-322,329	690,712	0,063	0,120
-321,314	86,447	0,124	0,099
-320,299	34,858	0,179	0,113
-319,285	-200,000	0,046	0,148
-318,270	236,643	-0,111	-0,133
-317,256	63,167	0,037	-0,027
-316,241	-200,000	0,019	-0,070
-315,226	132,407	0,129	0,121
-314,212	-16,630	0,119	0,055
-313,197	-81,472	0,070	-0,017
-312,183	-44,063	0,028	-0,010
-311,168	81,962	-0,105	-0,083
-310,153	800,000	-0,026	-0,059
-309,139	800,000	-0,018	0,044
-308,124	-200,000	0,001	-0,043
-307,110	800,000	0,044	0,092
-306,095	-200,000	0,013	0,127
-305,080	-78,136	0,079	-0,020
-304,066	-200,000	-0,013	0,131
-303,051	255,520	0,060	-0,075
-302,037	460,078	0,022	-0,036
-301,022	-200,000	-0,000	0,082
-300,008	11,417	0,035	-0,020
-298,993	396,166	0,066	0,099
-297,978	8,731	-0,154	0,084
-296,964	-133,560	-0,151	-0,014
-295,949	-200,000	0,014	0,113
-294,935	368,215	-0,054	-0,079
-293,920	363,470	0,098	0,143
-292,905	674,591	-0,036	0,069
-291,891	122,947	0,121	0,110
-290,876	-61,270	0,082	-0,025
-289,862	286,487	-0,025	-0,033
-288,847	-200,000	-0,003	-0,080
-287,832	-200,000	0,021	-0,110
-286,818	6,513	-0,146	-0,078
-285,803	-51,818	0,255	0,085
-284,789	125,800	0,096	-0,088
-283,774	-5,752	0,075	-0,037
-282,759	-200,000	-0,015	-0,143
-281,745	800,000	-0,077	-0,175
-280,730	230,559	0,034	-0,040
-279,716	101,326	-0,088	-0,075
-278,701	-126,081	-0,062	0,007
-277,686	-19,408	-0,068	0,031
-276,672	108,740	-0,053	-0,046
-275,657	128,100	0,025	-0,023
-274,643	-31,000	-0,115	-0,047
-273,628	-200,000	0,002	-0,101
-272,613	765,648	-0,015	-0,029
-271,599	315,397	0,066	-0,091
-270,584	800,000	-0,047	-0,100
-269,570	89,907	-0,035	0,029
-268,555	644,401	-0,057	-0,106
-267,540	22,955	0,068	-0,040
-266,526	-4,856	-0,093	-0,046
-265,511	134,437	0,032	-0,030
-264,497	154,226	0,013	-0,013
-263,482	-200,000	-0,036	0,142
-262,467	-200,000	-0,037	0,184
-261,453	-200,000	0,037	0,186
-260,438	-200,000	-0,005	0,053
-259,424	-151,552	-0,024	0,001
-258,409	-62,981	-0,121	0,036
-257,395	-200,000	0,018	-0,073
-256,380	-140,441	0,096	-0,007
-255,365	-109,528	0,121	0,018
-254,351	-115,526	-0,040	-0,005
-253,336	687,819	0,051	-0,097
-252,322	493,760	0,001	-0,002
-251,307	65,791	-0,043	-0,032
-250,292	-127,115	0,073	0,008
-249,278	-200,000	0,004	0,049
-248,263	800,000	0,050	0,123
-247,249	28,063	0,006	0,004
-246,234	-7,656	-0,042	-0,020
-245,219	-169,840	-0,119	-0,003
-244,205	453,952	0,076	0,122
-243,190	800,000	0,048	0,111
-242,176	207,401	0,130	0,147
-241,161	488,821	-0,050	0,084
-240,146	-157,319	-0,116	-0,005
-239,132	-30,847	0,059	-0,024
-238,117	136,228	-0,053	-0,050
-237,103	211,646	-0,076	0,086
-236,088	569,631	0,050	0,088
-235,073	244,282	0,069	-0,084
-234,059	364,108	-0,034	0,050
-233,044	112,529	0,099	0,087
-232,030	800,000	0,013	0,029
-231,015	-4,309	0,018	0,009
-230,000	-200,000	0,002	0,117
-228,986	800,000	0,015	-0,040
-227,971	-78,122	0,104	-0,026
-226,957	108,901	0,067	0,058
-225,942	-31,860	0,055	-0,022
-224,927	-200,000	-0,018	0,116
-223,913	800,000	-0,040	-0,115
-222,898	647,579	-0,019	-0,035
-221,884	-96,029	-0,117	-0,022
-220,869	800,000	0,053	-0,125
-219,855	309,826	0,081	-0,109
-218,840	23,685	-0,093	-0,055
-217,825	-200,000	0,005	-0,017
-216,811	48,878	-0,189	0,128
-215,796	234,304	-0,024	-0,029
-214,782	800,000	0,011	0,025
-213,767	303,459	-0,093	0,124
-212,752	-3,531	0,097	-0,049
-211,738	-91,687	-0,079	-0,016
-210,723	119,163	-0,110	0,098
-209,709	112,081	-0,083	-0,072
-208,694	-60,499	-0,121	0,037
-207,679	100,992	0,058	-0,049
-206,665	188,308	-0,037	-0,040
-205,650	800,000	0,027	-0,083
-204,636	-92,863	0,206	-0,041
-203,621	-1,183	-0,113	0,057
-202,606	87,446	-0,121	-0,097
-201,592	167,324	0,055	-0,056
-200,577	800,000	-0,026	-0,065
-199,563	61,071	-0,032	-0,023
-198,548	83,570	0,119	0,094
-197,533	-200,000	-0,003	-0,045
-196,519	18,699	-0,043	0,024
-195,504	-167,533	-0,069	0,002
-194,490	222,980	-0,045	0,053
-193,475	287,438	-0,067	-0,087
-192,460	-200,000	-0,031	0,115
-191,446	286,040	0,069	0,090
-190,431	-200,000	0,003	0,046
-189,417	-15,566	0,144	0,066
-188,402	289,645	-0,148	-0,194
-187,387	-200,000	-0,001	-0,052
-186,373	214,279	-0,043	0,049
-185,358	27,645	0,125	-0,075
-184,344	-136,437	0,124	0,010
-183,329	148,125	0,074	0,072
-182,315	-200,000	0,009	-0,070
-181,300	800,000	-0,062	0,131
-180,285	204,229	-0,059	-0,066
-179,271	22,416	-0,178	-0,104
-178,256	22,720	0,113	0,066
-177,242	24,489	0,063	-0,037
-176,227	-200,000	-0,015	-0,103
-175,212	-114,760	-0,064	0,009
-174,198	-200,000	0,016	0,129
-173,183	-200,000	-0,012	-0,122
-172,169	7,596	-0,035	0,019
-171,154	-112,658	-0,110	-0,016
-170,139	33,394	0,107	-0,067
-169,125	4,361	0,085	-0,045
-168,110	278,347	-0,008	0,011
-167,096	766,093	0,078	-0,154
-166,081	6,115	-0,178	-0,095
-165,066	-200,000	-0,003	0,039
-164,052	322,442	0,077	0,106
-163,037	-155,385	0,127	0,006
-162,023	800,000	-0,014	0,039
-161,008	-200,000	0,026	-0,112
-159,993	-200,000	0,021	-0,110
-158,979	800,000	-0,046	-0,093
-157,964	-200,000	-0,016	-0,140
-156,950	-200,000	-0,024	-0,118
-155,935	-200,000	0,012	0,052
-154,920	161,618	0,024	0,025
-153,906	-137,518	0,075	0,006
-152,891	261,382	-0,071	-0,089
-151,877	580,468	0,059	-0,105
-150,862	800,000	-0,012	0,037
-149,847	-200,000	0,007	-0,130
-148,833	636,847	-0,037	0,069
-147,818	-79,168	-0,009	0,002
-146,804	-128,267	0,136	-0,014
-145,789	251,158	0,033	0,041
-144,775	207,231	0,053	0,059
-143,760	422,049	-0,051	0,080
-142,745	800,000	-0,037	-0,077
-141,731	800,000	0,015	0,032
-140,716	-39,075	-0,109	0,041
-139,702	-200,000	0,042	0,154
-138,687	800,000	0,026	0,071
-137,672	386,441	0,034	-0,051
-136,658	-200,000	-0,016	-0,070
-135,643	-84,033	0,097	-0,022
-134,629	-200,000	0,035	0,160
-133,614	-6,739	-0,065	-0,032
-132,599	562,930	-0,074	0,130
-131,585	-198,800	-0,061	-0,000
-130,570	167,531	0,028	0,028
-129,556	-81,423	-0,110	0,026
-128,541	29,845	-0,050	0,030
-127,526	-25,642	-0,036	0,015
-126,512	416,296	-0,134	0,206
-125,497	8,822	-0,014	0,008
-124,483	47,764	-0,071	-0,048
-123,468	-86,438	-0,097	0,021
-122,453	800,000	-0,023	-0,060
-121,439	-200,000	-0,002	-0,026
-120,424	310,477	0,044	0,060
-119,410	213,717	-0,082	-0,094
