DTS Sentinel unit serial number:	SN410029Multiplexer serial number:	ORYXHardware model number:	OX2-SRSoftware version number:	ORYX F/W v4,00 Oryx Data Collector v3.7.2.0data status	okinstallation	B5 Nyhavnadifferential loss correction	single-endedforward channel	channel 2reverse channel	N/Adate	2023/12/12time	23:42:13forward acquisition time	300,00reverse acquisition time	0,00gamma	499,1914k internal	0,3159k external	0,3159temperature offset calibration	1,0000default loss term (dB/km)	0,3820temperature slope calibration	1,0000multiplexer offset coefficient	1,0000multiplexer slope coefficient	1,0000fibre end	0,00T internal ref (°C)	14,41T ext. ref 1 (°C)	-2,15T ext. ref 2 (°C)	-2,47length (m)	temperature (°C)	Stokes	anti-Stokes-744,400	-66,444	0,179	0,052
-743,385	-55,231	-0,258	0,085
-742,371	-43,883	0,109	0,040
-741,356	-52,805	-0,281	-0,095
-740,342	-122,050	0,156	-0,019
-739,327	-123,670	-0,339	-0,039
-738,312	9,358	0,100	-0,055
-737,298	-157,384	-0,298	-0,013
-736,283	-88,448	0,055	-0,012
-735,269	-4,445	-0,196	0,100
-734,254	-158,066	0,086	0,004
-733,239	-94,678	-0,530	-0,105
-732,225	-117,828	0,201	0,026
-731,210	800,000	0,025	0,054
-730,196	800,000	-0,044	-0,111
-729,181	800,000	-0,006	-0,015
-728,167	612,100	-0,037	0,069
-727,152	800,000	0,037	-0,076
-726,137	-200,000	-0,017	-0,067
-725,123	683,299	-0,065	-0,125
-724,108	161,044	-0,034	-0,035
-723,094	108,191	-0,120	0,105
-722,079	-79,232	-0,126	-0,031
-721,064	-200,000	-0,016	0,065
-720,050	-89,063	0,109	-0,024
-719,035	-140,671	-0,073	0,005
-718,021	800,000	-0,009	0,020
-717,006	-200,000	0,015	-0,104
-715,991	-103,035	0,044	0,008
-714,977	75,858	-0,196	0,153
-713,962	-135,340	0,089	0,008
-712,948	230,114	-0,080	0,097
-711,933	-13,446	-0,093	0,044
-710,918	-192,624	-0,142	0,001
-709,904	800,000	-0,082	-0,223
-708,889	-200,000	-0,033	-0,204
-707,875	542,440	0,065	0,115
-706,860	-100,893	0,026	0,005
-705,845	598,786	-0,083	0,153
-704,831	-200,000	-0,009	0,104
-703,816	271,890	-0,074	-0,096
-702,802	-200,000	0,000	-0,079
-701,787	157,310	-0,025	-0,025
-700,772	37,527	-0,132	-0,086
-699,758	-130,395	0,087	0,009
-698,743	-31,900	0,041	-0,017
-697,729	36,284	0,096	0,062
-696,714	-123,065	-0,105	0,012
-695,699	-59,331	0,136	-0,043
-694,685	-200,000	0,017	0,063
-693,670	-47,770	0,123	0,043
-692,656	-200,000	0,010	-0,039
-691,641	-200,000	-0,013	-0,056
-690,627	-200,000	0,016	-0,064
-689,612	283,219	-0,046	-0,061
-688,597	401,279	-0,055	0,085
-687,583	-95,637	-0,215	-0,042
-686,568	-76,873	-0,049	-0,012
-685,554	327,165	-0,046	-0,065
-684,539	-52,497	0,022	0,007
-683,524	7,904	0,126	-0,069
-682,510	29,669	0,079	-0,049
-681,495	426,955	0,053	-0,085
-680,481	735,110	-0,051	0,100
-679,466	135,643	-0,075	-0,072
-678,451	648,831	0,052	-0,099
-677,437	-200,000	0,024	-0,098
-676,422	279,825	-0,082	-0,108
-675,408	74,437	-0,155	-0,120
-674,393	417,718	0,053	0,084
-673,378	110,375	0,080	0,070
-672,364	-21,635	-0,077	0,035
-671,349	143,137	0,041	0,040
-670,335	-134,668	0,113	0,010
-669,320	-200,000	-0,007	0,027
-668,305	108,965	-0,076	0,067
-667,291	656,597	-0,092	0,174
-666,276	86,127	0,033	-0,026
-665,262	800,000	0,068	-0,156
-664,247	-49,249	0,020	0,007
-663,232	56,919	-0,044	-0,031
-662,218	517,748	-0,096	0,165
-661,203	-200,000	0,006	-0,032
-660,189	20,349	-0,043	-0,026
-659,174	-111,918	-0,146	-0,021
-658,159	82,684	-0,017	0,014
-657,145	44,142	-0,017	0,012
-656,130	-89,675	0,230	-0,049
-655,116	-98,363	0,197	-0,037
-654,101	-200,000	-0,019	-0,119
-653,086	81,289	-0,025	0,020
-652,072	-33,078	0,041	-0,017
-651,057	268,417	-0,023	0,030
-650,043	-14,550	-0,106	-0,050
-649,028	33,137	-0,066	0,042
-648,014	-118,075	0,116	0,015
-646,999	424,381	0,105	-0,167
-645,984	132,440	-0,035	0,033
-644,970	114,978	-0,062	-0,055
-643,955	-200,000	-0,010	-0,180
-642,941	-200,000	0,002	-0,188
-641,926	-200,000	-0,008	-0,047
-640,911	800,000	0,049	-0,103
-639,897	-26,752	-0,029	-0,012
-638,882	5,410	-0,075	0,041
-637,868	233,145	-0,041	0,050
-636,853	123,880	0,061	-0,056
-635,838	654,021	-0,046	0,087
-634,824	-120,233	0,127	-0,016
-633,809	644,338	0,058	-0,109
-632,795	800,000	0,016	0,048
-631,780	570,074	0,049	0,088
-630,765	-200,000	0,003	-0,099
-629,751	67,718	0,137	0,103
-628,736	-200,000	0,008	-0,032
-627,722	-162,821	-0,187	0,007
-626,707	-26,304	-0,131	-0,056
-625,692	-80,845	0,056	0,014
-624,678	131,866	0,086	0,081
-623,663	-200,000	0,047	0,153
-622,649	800,000	0,045	0,111
-621,634	-200,000	-0,031	-0,156
-620,619	-200,000	-0,052	-0,225
-619,605	800,000	0,021	-0,067
-618,590	124,597	-0,099	-0,092
-617,576	4,994	-0,050	0,027
-616,561	-200,000	-0,009	0,096
-615,546	-57,531	0,027	0,009
-614,532	-200,000	0,007	0,040
-613,517	-138,441	-0,048	-0,004
-612,503	-200,000	-0,013	0,074
-611,488	506,112	0,044	0,075
-610,474	32,164	-0,053	-0,033
-609,459	-200,000	0,016	0,125
-608,444	23,639	-0,104	-0,063
-607,430	10,251	-0,124	-0,069
-606,415	800,000	-0,024	-0,072
-605,401	-33,242	0,053	0,022
-604,386	-193,261	0,158	-0,001
-603,371	129,766	0,060	-0,057
-602,357	800,000	-0,041	0,101
-601,342	-200,000	-0,011	-0,192
-600,328	-110,453	-0,106	-0,016
-599,313	706,908	0,006	-0,011
-598,298	-200,000	-0,002	-0,055
-597,284	800,000	0,027	0,072
-596,269	-200,000	-0,018	0,129
-595,255	-140,834	-0,015	-0,001
-594,240	-79,212	0,085	-0,021
-593,225	750,163	-0,018	-0,037
-592,211	6,672	-0,037	0,020
-591,196	194,637	-0,075	-0,084
-590,182	-168,721	0,186	0,005
-589,167	-137,015	-0,051	0,004
-588,152	419,066	-0,075	-0,118
-587,138	100,524	-0,112	-0,095
-586,123	336,515	-0,074	-0,106
-585,109	-78,278	-0,079	0,020
-584,094	-200,000	0,018	-0,089
-583,079	-200,000	-0,001	0,246
-582,065	80,013	-0,085	0,067
-581,050	-119,709	-0,099	-0,012
-580,036	258,120	0,081	0,102
-579,021	-46,751	-0,120	0,043
-578,006	-53,147	-0,057	-0,019
-576,992	21,341	-0,154	0,092
-575,977	175,155	0,073	-0,078
-574,963	-44,688	0,082	-0,030
-573,948	800,000	-0,006	0,018
-572,934	-25,898	-0,039	-0,017
-571,919	-91,674	-0,080	-0,016
-570,904	153,283	0,021	0,021
-569,890	102,310	-0,179	-0,153
-568,875	-12,971	0,124	-0,059
-567,861	-93,160	0,060	0,012
-566,846	-89,986	-0,113	0,024
-565,831	-149,000	-0,048	0,003
-564,817	570,267	0,091	0,162
-563,802	-54,794	-0,107	0,035
-562,788	188,186	-0,088	-0,096
-561,773	193,920	-0,058	0,064
-560,758	-200,000	0,027	0,092
-559,744	-200,000	0,031	0,100
-558,729	-200,000	-0,003	0,024
-557,715	106,086	0,095	-0,083
-556,700	-200,000	0,016	-0,077
-555,685	500,018	-0,113	-0,191
-554,671	-128,235	-0,083	0,009
-553,656	606,968	0,061	-0,112
-552,642	420,418	0,081	-0,128
-551,627	682,320	-0,034	0,066
-550,612	77,499	-0,029	0,023
-549,598	-75,538	-0,074	0,019
-548,583	-88,943	0,100	0,022
-547,569	36,360	-0,033	-0,021
-546,554	-86,078	0,087	0,019
-545,539	-200,000	-0,002	0,112
-544,525	-61,792	-0,087	-0,026
-543,510	138,049	-0,084	0,081
-542,496	-17,866	-0,203	-0,093
-541,481	-200,000	-0,011	-0,125
-540,466	800,000	0,040	0,118
-539,452	-64,494	0,119	0,035
-538,437	-145,712	-0,106	-0,007
-537,423	275,957	0,080	0,105
-536,408	800,000	-0,023	-0,058
-535,393	479,058	-0,088	-0,147
-534,379	677,494	-0,098	-0,187
-533,364	149,049	0,034	0,034
-532,350	-41,141	-0,081	-0,030
-531,335	-200,000	-0,001	0,114
-530,321	800,000	0,025	-0,061
-529,306	2,304	0,031	0,016
-528,291	63,068	-0,066	-0,048
-527,277	277,097	-0,097	-0,126
-526,262	-200,000	0,017	0,078
-525,248	256,424	0,033	0,041
-524,233	800,000	0,043	0,099
-523,218	800,000	0,019	0,061
-522,204	-200,000	0,014	0,062
-521,189	306,930	0,037	0,050
-520,175	16,460	-0,073	0,042
-519,160	194,991	-0,084	0,093
-518,145	286,618	0,025	0,033
-517,131	483,002	-0,060	0,099
-516,116	-200,000	0,011	0,064
-515,102	92,482	-0,120	0,099
-514,087	45,856	-0,043	0,029
-513,072	266,232	-0,020	-0,025
-512,058	789,559	0,047	-0,094
-511,043	-73,153	0,072	0,019
-510,029	223,017	0,049	-0,058
-509,014	-200,000	-0,002	-0,038
-507,999	-200,000	-0,015	0,072
-506,985	800,000	-0,029	-0,093
-505,970	525,133	-0,058	-0,101
-504,956	800,000	-0,064	-0,156
-503,941	-200,000	0,000	-0,003
-502,926	800,000	-0,030	-0,077
-501,912	423,531	0,024	0,037
-500,897	-200,000	0,007	0,094
-499,883	732,603	-0,011	0,022
-498,868	2,262	-0,098	-0,052
-497,853	800,000	0,045	-0,101
-496,839	-73,718	-0,046	0,012
-495,824	235,514	0,075	0,090
-494,810	-40,438	0,053	-0,020
-493,795	-200,000	0,001	-0,028
-492,781	-167,819	-0,043	-0,001
-491,766	129,484	0,038	-0,036
-490,751	73,147	-0,090	-0,069
-489,737	305,119	0,058	-0,079
-488,722	-134,275	0,114	0,010
-487,708	206,491	0,038	-0,043
-486,693	-193,184	-0,015	0,000
-485,678	696,967	-0,074	0,143
-484,664	538,475	-0,046	-0,080
-483,649	-200,000	-0,009	-0,080
-482,635	-200,000	0,009	0,110
-481,620	-73,660	0,084	-0,022
-480,605	-5,780	0,115	0,057
-479,591	-200,000	0,010	-0,069
-478,576	-138,926	-0,119	-0,009
-477,562	62,335	0,066	-0,048
-476,547	-200,000	0,005	0,035
-475,532	378,901	0,050	0,075
-474,518	-57,411	0,117	0,037
-473,503	-41,922	-0,050	-0,018
-472,489	-200,000	-0,010	0,165
-471,474	92,760	0,079	-0,065
-470,459	800,000	-0,092	-0,211
-469,445	-200,000	-0,009	-0,226
-468,430	368,449	-0,040	0,059
-467,416	71,289	0,148	0,112
-466,401	-124,681	0,117	0,013
-465,386	146,944	-0,014	-0,014
-464,372	2,796	0,094	0,050
-463,357	-99,838	-0,052	0,009
-462,343	-165,242	-0,102	0,003
-461,328	-124,179	-0,121	0,014
-460,313	-200,000	0,032	0,114
-459,299	-200,000	-0,014	-0,069
-458,284	-200,000	0,026	0,181
-457,270	191,562	-0,066	-0,072
-456,255	-83,983	0,080	0,018
-455,241	35,867	-0,049	-0,031
-454,226	384,593	-0,057	-0,087
-453,211	246,408	-0,055	0,067
-452,197	4,102	0,035	0,019
-451,182	14,301	-0,201	0,114
-450,168	-51,931	0,045	0,015
-449,153	-107,700	-0,066	-0,010
-448,138	-200,000	-0,011	-0,096
-447,124	-200,000	0,009	-0,042
-446,109	239,539	-0,081	0,099
-445,095	-31,526	0,204	0,083
-444,080	800,000	-0,036	0,081
-443,065	-200,000	-0,001	-0,032
-442,051	186,353	-0,023	-0,025
-441,036	-200,000	0,012	0,114
-440,022	-102,016	-0,084	0,015
-439,007	-26,526	0,032	0,014
-437,992	800,000	0,028	-0,074
-436,978	642,283	0,035	0,066
-435,963	-65,506	0,064	-0,018
-434,949	106,441	-0,089	0,077
-433,934	800,000	0,036	0,095
-432,919	600,304	-0,082	-0,148
-431,905	-200,000	0,007	0,026
-430,890	-200,000	-0,001	0,022
-429,876	-200,000	-0,042	0,146
-428,861	-101,972	0,119	-0,021
-427,846	-106,264	0,031	0,005
-426,832	-75,642	-0,062	-0,016
-425,817	440,213	0,088	-0,140
-424,803	-200,000	0,002	-0,105
-423,788	216,593	0,101	-0,118
-422,773	-200,000	-0,013	0,104
-421,759	-200,000	0,037	0,176
-420,744	-23,393	-0,043	0,019
-419,730	-200,000	0,012	0,074
-418,715	-46,190	-0,131	-0,047
-417,701	312,776	0,015	0,021
-416,686	-50,914	0,043	-0,015
-415,671	-200,000	-0,027	-0,107
-414,657	140,997	0,054	-0,052
-413,642	112,568	-0,092	-0,081
-412,628	-200,000	0,002	-0,181
-411,613	261,005	0,057	0,072
-410,598	46,353	0,036	-0,024
-409,584	-200,000	0,010	-0,168
-408,569	-35,117	0,030	-0,012
-407,555	16,868	-0,039	0,022
-406,540	198,512	-0,094	0,105
-405,525	-200,000	0,038	0,136
-404,511	-200,000	-0,014	0,070
-403,496	-88,273	-0,078	0,017
-402,482	-84,977	0,041	-0,009
-401,467	64,254	-0,031	0,022
-400,452	-128,264	0,050	-0,005
-399,438	269,035	-0,054	0,069
-398,423	800,000	0,017	0,047
-397,409	800,000	-0,065	-0,147
-396,394	-81,304	0,038	-0,009
-395,379	800,000	0,074	0,166
-394,365	-54,044	0,091	0,030
-393,350	115,379	0,086	-0,076
-392,336	-68,604	-0,084	0,023
-391,321	-94,000	0,050	0,010
-390,306	-46,230	-0,073	0,026
-389,292	33,741	-0,028	0,018
-388,277	800,000	0,072	0,196
-387,263	587,853	0,049	0,088
-386,248	800,000	-0,012	0,026
-385,233	-55,512	0,093	0,030
-384,219	66,544	-0,079	0,058
-383,204	219,296	-0,015	-0,018
-382,190	-200,000	-0,016	-0,098
-381,175	186,905	0,086	0,093
-380,160	477,026	0,066	0,108
-379,146	-200,000	-0,002	-0,008
-378,131	206,510	0,023	0,026
-377,117	-79,161	-0,078	-0,019
-376,102	-98,640	-0,053	0,010
-375,088	-200,000	-0,007	0,037
-374,073	93,187	-0,099	-0,081
-373,058	-136,614	-0,094	-0,008
-372,044	-200,000	0,017	0,085
-371,029	800,000	0,006	-0,015
-370,015	46,413	0,072	0,048
-369,000	-63,363	-0,092	0,027
-367,985	800,000	-0,039	-0,117
-366,971	-200,000	-0,007	-0,027
-365,956	-162,946	-0,143	0,005
-364,942	22,932	-0,037	0,022
-363,927	-59,198	0,078	-0,024
-362,912	217,224	-0,044	-0,051
-361,898	98,032	0,062	-0,051
-360,883	-24,382	-0,053	0,023
-359,869	-133,232	0,083	0,008
-358,854	-109,876	0,088	0,013
-357,839	-200,000	0,035	-0,118
-356,825	292,393	0,016	-0,021
-355,810	245,870	-0,041	-0,050
-354,796	-29,823	0,121	0,050
-353,781	-51,892	-0,182	-0,061
-352,766	-125,636	0,107	-0,012
-351,752	-7,877	0,113	0,055
-350,737	62,422	0,072	0,052
-349,723	-112,108	0,171	-0,025
-348,708	-40,733	0,083	0,031
-347,693	-200,000	-0,017	0,089
-346,679	137,733	0,070	-0,067
-345,664	182,868	0,038	0,041
-344,650	168,852	-0,058	0,060
-343,635	148,993	0,075	0,073
-342,620	321,162	-0,034	0,047
-341,606	800,000	-0,037	0,099
-340,591	-200,000	-0,006	0,055
-339,577	-22,779	-0,126	0,055
-338,562	323,441	0,028	-0,039
-337,548	-200,000	0,025	-0,123
-336,533	-60,556	0,129	0,039
-335,518	21,063	0,053	-0,031
-334,504	-200,000	0,057	-0,205
-333,489	-200,000	0,010	0,049
-332,475	484,462	-0,021	0,035
-331,460	800,000	-0,022	-0,052
-330,445	-200,000	0,010	0,200
-329,431	-81,018	-0,084	-0,020
-328,416	162,104	0,087	0,089
-327,402	800,000	0,037	0,082
-326,387	1,948	-0,089	-0,046
-325,372	800,000	-0,061	-0,136
-324,358	-200,000	0,012	-0,088
-323,343	-200,000	-0,016	0,060
-322,329	691,433	-0,074	0,140
-321,314	-200,000	-0,003	-0,016
-320,299	-141,410	0,086	0,006
-319,285	-200,000	-0,012	-0,039
-318,270	800,000	0,057	-0,121
-317,256	-200,000	-0,001	-0,009
-316,241	318,152	-0,068	-0,093
-315,226	-200,000	0,012	-0,044
-314,212	410,069	-0,016	0,025
-313,197	467,260	0,045	-0,073
-312,183	261,301	0,038	0,048
-311,168	130,893	0,135	0,126
-310,153	-44,173	-0,226	-0,082
-309,139	-62,587	0,131	0,039
-308,124	65,131	0,061	0,045
-307,110	-200,000	-0,016	0,133
-306,095	-36,230	0,133	-0,052
-305,080	800,000	-0,034	0,087
-304,066	-147,144	-0,026	0,002
-303,051	106,717	-0,050	0,043
-302,037	-200,000	0,023	-0,092
-301,022	-200,000	-0,009	0,041
-300,008	-145,232	0,079	-0,005
-298,993	-119,145	0,038	0,005
-297,978	48,019	0,095	0,064
-296,964	-200,000	0,002	0,063
-295,949	141,889	-0,108	-0,104
-294,935	195,657	-0,045	0,050
-293,920	-57,852	0,127	0,040
-292,905	321,602	0,062	-0,085
-291,891	476,953	-0,062	-0,101
-290,876	505,955	-0,086	0,145
-289,862	-106,411	0,042	0,007
-288,847	-53,838	-0,091	0,030
-287,832	-200,000	0,004	0,021
-286,818	127,798	0,065	-0,060
-285,803	665,577	-0,016	-0,029
-284,789	-166,809	0,038	-0,001
-283,774	800,000	-0,033	0,069
-282,759	800,000	0,028	-0,057
-281,745	-18,335	0,039	0,017
-280,730	800,000	0,037	-0,077
-279,716	88,075	0,090	-0,072
-278,701	255,137	0,021	0,026
-277,686	-200,000	0,006	-0,086
-276,672	-162,986	0,032	-0,001
-275,657	82,228	0,053	0,041
-274,643	-19,254	-0,028	0,013
-273,628	-17,936	0,022	-0,010
-272,613	-149,700	-0,053	-0,003
-271,599	800,000	-0,024	0,073
-270,584	800,000	0,065	0,190
-269,570	-36,851	0,138	-0,053
-268,555	-54,664	-0,048	0,016
-267,540	-17,708	-0,024	0,011
-266,526	-185,902	-0,100	0,001
-265,511	722,118	0,054	-0,105
-264,497	-125,590	-0,138	-0,015
-263,482	198,320	-0,168	-0,186
-262,467	396,914	-0,067	-0,102
-261,453	-200,000	0,020	0,084
-260,438	-60,872	0,076	-0,023
-259,424	-78,751	-0,060	-0,015
-258,409	800,000	0,045	-0,101
-257,395	311,808	-0,047	-0,064
-256,380	-87,380	0,158	0,034
-255,365	122,759	0,049	0,044
-254,351	80,317	0,139	0,108
-253,336	87,107	-0,049	0,039
-252,322	-200,000	0,023	-0,089
-251,307	800,000	-0,029	-0,074
-250,292	317,661	0,052	0,072
-249,278	140,439	0,145	-0,139
-248,263	-160,390	-0,095	0,004
-247,249	-200,000	-0,006	0,032
-246,234	28,581	0,074	0,045
-245,219	193,723	-0,007	0,007
-244,205	-22,222	-0,055	0,024
-243,190	800,000	-0,046	0,112
-242,176	-93,168	0,166	0,033
-241,161	-15,570	0,012	-0,005
-240,146	-200,000	-0,009	0,065
-239,132	133,167	-0,034	0,032
-238,117	-200,000	0,016	0,095
-237,103	130,366	0,067	-0,062
-236,088	0,702	-0,103	0,053
-235,073	-200,000	-0,007	0,069
-234,059	370,190	-0,123	0,180
-233,044	-200,000	-0,010	0,045
-232,030	-7,438	0,089	0,043
-231,015	247,730	-0,015	0,018
-230,000	-80,034	-0,094	0,023
-228,986	-200,000	-0,019	-0,078
-227,971	177,594	0,089	-0,094
-226,957	-91,465	0,023	-0,005
-225,942	-200,000	-0,004	-0,056
-224,927	111,755	0,039	0,034
-223,913	-88,883	-0,137	0,029
-222,898	-63,509	-0,043	-0,013
-221,884	185,671	-0,033	0,036
-220,869	800,000	0,015	0,033
-219,855	-200,000	0,008	-0,110
-218,840	-52,746	0,106	-0,035
-217,825	-57,663	-0,112	-0,035
-216,811	60,350	0,085	0,060
-215,796	297,863	0,039	-0,051
-214,782	-68,557	-0,218	0,060
-213,767	-200,000	0,156	-0,000
-212,752	800,000	0,009	-0,024
-211,738	13,487	0,124	-0,069
-210,723	800,000	0,030	0,070
-209,709	-25,394	-0,069	-0,029
-208,694	211,700	-0,035	-0,040
-207,679	475,843	0,052	0,085
-206,665	-8,956	-0,119	-0,057
-205,650	-200,000	0,007	-0,099
-204,636	800,000	-0,040	0,088
-203,621	123,345	0,022	-0,020
-202,606	359,026	0,054	-0,078
-201,592	-43,978	-0,051	0,019
-200,577	-31,963	-0,062	-0,025
-199,563	-83,724	0,133	0,030
-198,548	305,769	-0,047	-0,063
-197,533	-200,000	-0,001	-0,154
-196,519	-31,780	0,064	0,026
-195,504	2,916	0,015	0,008
-194,490	116,398	-0,092	-0,081
-193,475	-105,626	0,056	-0,009
-192,460	-200,000	0,012	0,183
-191,446	512,893	-0,022	0,037
-190,431	556,114	0,027	0,047
-189,417	1,887	0,048	-0,025
-188,402	173,536	-0,087	-0,090
-187,387	800,000	0,057	-0,163
-186,373	-114,397	-0,076	0,010
-185,358	113,265	0,046	-0,040
-184,344	-62,451	-0,016	0,005
-183,329	-121,080	0,180	0,022
-182,315	-200,000	0,026	0,218
-181,300	9,917	-0,048	-0,026
-180,285	-48,132	0,087	-0,030
-179,271	-200,000	-0,013	-0,064
-178,256	-146,534	0,123	-0,008
-177,242	800,000	-0,052	0,153
-176,227	-44,988	0,043	0,015
-175,212	585,892	-0,078	-0,138
-174,198	-172,380	0,049	-0,001
-173,183	-200,000	0,020	-0,105
-172,169	800,000	0,020	-0,060
-171,154	-200,000	0,032	-0,133
-170,139	-200,000	0,009	0,096
-169,125	-34,802	0,095	0,037
-168,110	286,275	-0,023	-0,030
-167,096	-200,000	-0,015	0,079
-166,081	693,890	0,029	-0,055
-165,066	482,930	0,062	-0,101
-164,052	-200,000	-0,013	-0,050
-163,037	-200,000	-0,018	0,113
-162,023	181,363	-0,018	0,019
-161,008	-200,000	-0,017	-0,106
-159,993	795,962	-0,052	0,104
-158,979	-31,598	-0,103	-0,041
-157,964	230,532	0,049	-0,058
-156,950	-102,785	0,056	-0,010
-155,935	-200,000	0,014	0,103
-154,920	189,263	0,057	0,062
-153,906	-82,295	-0,025	0,006
-152,891	-200,000	0,008	0,067
-151,877	-200,000	-0,029	0,177
-150,862	113,159	-0,061	0,053
-149,847	800,000	-0,028	-0,068
-148,833	766,776	-0,031	-0,061
-147,818	800,000	-0,040	0,089
-146,804	-200,000	-0,001	0,077
-145,789	16,981	-0,046	0,026
-144,775	-200,000	0,001	0,103
-143,760	39,770	-0,060	0,038
-142,745	181,385	0,099	-0,105
-141,731	145,667	0,088	0,085
-140,716	-130,685	-0,102	-0,010
-139,702	-144,265	0,117	0,008
-138,687	800,000	0,020	-0,049
-137,672	-53,235	0,034	-0,011
-136,658	-200,000	-0,033	-0,186
-135,643	-56,097	-0,050	0,016
-134,629	25,545	0,050	-0,030
-133,614	-135,481	-0,088	0,007
-132,599	-200,000	-0,013	0,048
-131,585	-135,463	0,040	-0,003
-130,570	239,690	0,088	0,105
-129,556	86,844	0,073	0,058
-128,541	-13,651	-0,206	-0,096
-127,526	-147,851	0,153	0,009
-126,512	337,323	0,049	0,068
-125,497	-200,000	-0,011	0,053
-124,483	292,015	0,134	0,175
-123,468	456,823	-0,040	0,064
-122,453	-31,953	0,077	-0,031
-121,439	-200,000	-0,009	-0,057
-120,424	501,257	0,020	-0,034
-119,410	-165,436	-0,032	-0,001
