DTS Sentinel unit serial number:	SN410029Multiplexer serial number:	ORYXHardware model number:	OX2-SRSoftware version number:	ORYX F/W v4,00 Oryx Data Collector v3.7.2.0data status	okinstallation	B5 Nyhavnadifferential loss correction	single-endedforward channel	channel 2reverse channel	N/Adate	2023/12/14time	09:02:13forward acquisition time	300,00reverse acquisition time	0,00gamma	499,1914k internal	0,3161k external	0,3161temperature offset calibration	1,0000default loss term (dB/km)	0,3820temperature slope calibration	1,0000multiplexer offset coefficient	1,0000multiplexer slope coefficient	1,0000fibre end	0,00T internal ref (°C)	7,01T ext. ref 1 (°C)	-9,18T ext. ref 2 (°C)	-9,23length (m)	temperature (°C)	Stokes	anti-Stokes-744,400	-59,311	0,203	0,064
-743,385	-14,578	-0,356	-0,168
-742,371	-148,050	0,142	0,009
-741,356	-133,902	-0,418	0,038
-740,342	48,344	0,179	0,123
-739,327	-111,551	-0,445	-0,066
-738,312	-146,650	0,209	-0,013
-737,298	-32,500	-0,307	-0,126
-736,283	77,064	0,095	0,074
-735,269	-84,440	-0,374	0,086
-734,254	53,667	0,120	0,084
-733,239	-14,782	-0,456	-0,215
-732,225	301,737	0,148	0,202
-731,210	-25,053	-0,123	0,053
-730,196	81,716	0,066	0,052
-729,181	159,162	-0,053	0,054
-728,167	800,000	0,043	0,104
-727,152	-66,956	-0,106	-0,031
-726,137	-200,000	0,005	-0,057
-725,123	331,199	-0,043	0,061
-724,108	-130,390	-0,082	-0,008
-723,094	800,000	0,013	-0,032
-722,079	800,000	-0,043	-0,106
-721,064	115,160	-0,119	0,107
-720,050	-55,420	0,071	0,023
-719,035	56,970	-0,060	-0,043
-718,021	771,203	0,040	0,081
-717,006	800,000	-0,028	0,063
-715,991	800,000	0,065	-0,136
-714,977	-200,000	-0,010	-0,131
-713,962	-200,000	-0,018	-0,111
-712,948	800,000	-0,017	-0,054
-711,933	-200,000	0,018	0,164
-710,918	-72,906	-0,085	0,023
-709,904	8,667	0,044	-0,024
-708,889	-58,949	-0,132	-0,042
-707,875	-61,845	-0,050	-0,015
-706,860	32,147	0,068	0,043
-705,845	-184,486	-0,040	0,000
-704,831	-200,000	0,010	0,096
-703,816	308,527	-0,039	0,053
-702,802	111,278	-0,068	-0,060
-701,787	138,366	-0,128	-0,124
-700,772	199,836	0,071	-0,080
-699,758	72,412	-0,062	0,047
-698,743	224,211	0,098	0,117
-697,729	-200,000	0,003	0,035
-696,714	-200,000	-0,026	0,131
-695,699	800,000	0,031	0,081
-694,685	-76,791	-0,078	-0,020
-693,670	-94,662	-0,048	-0,009
-692,656	40,404	0,094	-0,062
-691,641	-200,000	0,032	0,154
-690,627	117,205	-0,070	-0,063
-689,612	-200,000	-0,040	-0,141
-688,597	-126,196	0,028	-0,003
-687,583	-29,429	-0,149	-0,062
-686,568	71,561	-0,068	-0,052
-685,554	276,993	-0,056	-0,073
-684,539	733,650	-0,071	0,140
-683,524	-200,000	0,012	0,049
-682,510	-61,104	0,027	0,008
-681,495	15,516	0,023	0,013
-680,481	-200,000	0,020	-0,068
-679,466	-6,084	0,069	-0,034
-678,451	-200,000	-0,007	0,072
-677,437	598,460	-0,103	0,189
-676,422	-100,105	-0,202	0,037
-675,408	-200,000	-0,031	0,121
-674,393	-200,000	-0,006	-0,048
-673,378	-200,000	0,004	0,070
-672,364	-200,000	-0,022	-0,155
-671,349	199,678	-0,058	-0,065
-670,335	762,310	-0,021	0,042
-669,320	212,715	0,037	-0,043
-668,305	800,000	0,053	0,126
-667,291	260,892	-0,039	-0,050
-666,276	16,354	-0,053	0,031
-665,262	52,541	-0,060	-0,042
-664,247	187,057	0,028	0,030
-663,232	-200,000	-0,002	0,023
-662,218	-16,964	-0,151	-0,070
-661,203	-200,000	-0,027	0,097
-660,189	-200,000	0,004	-0,116
-659,174	-200,000	-0,053	-0,240
-658,159	-200,000	-0,022	-0,124
-657,145	-200,000	-0,011	-0,038
-656,130	77,729	0,026	0,020
-655,116	-116,840	0,056	0,007
-654,101	-49,461	-0,065	0,023
-653,086	-200,000	-0,002	-0,026
-652,072	-8,480	-0,063	0,031
-651,057	274,981	-0,093	-0,121
-650,043	-96,840	-0,049	-0,009
-649,028	18,530	0,044	-0,026
-648,014	20,391	-0,113	0,067
-646,999	-200,000	-0,020	0,149
-645,984	-200,000	0,008	0,030
-644,970	464,559	0,044	-0,073
-643,955	146,287	-0,034	-0,034
-642,941	-200,000	-0,020	-0,069
-641,926	-200,000	-0,019	0,070
-640,911	364,472	0,076	-0,113
-639,897	206,920	-0,116	0,133
-638,882	800,000	0,039	0,098
-637,868	-95,959	-0,066	-0,013
-636,853	326,883	0,102	0,143
-635,838	30,189	-0,113	-0,070
-634,824	300,667	-0,066	-0,089
-633,809	-123,301	-0,087	0,010
-632,795	800,000	0,058	0,186
-631,780	-173,899	0,022	0,000
-630,765	162,279	-0,031	0,032
-629,751	-37,511	-0,108	-0,042
-628,736	-99,642	-0,063	-0,011
-627,722	-164,391	-0,004	0,000
-626,707	177,441	0,005	0,006
-625,692	-200,000	0,003	-0,012
-624,678	120,069	0,031	0,028
-623,663	-168,070	-0,119	-0,003
-622,649	410,938	0,018	-0,029
-621,634	553,004	-0,082	-0,145
-620,619	216,752	-0,035	0,041
-619,605	-200,000	-0,016	0,101
-618,590	317,155	-0,063	0,087
-617,576	127,530	0,083	-0,077
-616,561	609,518	-0,043	-0,079
-615,546	800,000	-0,047	0,099
-614,532	800,000	-0,050	-0,113
-613,517	-70,882	-0,015	-0,004
-612,503	677,621	-0,098	-0,188
-611,488	88,830	-0,083	-0,067
-610,474	-200,000	0,011	0,038
-609,459	800,000	0,053	0,158
-608,444	-200,000	0,012	-0,063
-607,430	-67,371	0,078	0,022
-606,415	-102,463	-0,174	0,030
-605,401	800,000	-0,011	0,024
-604,386	-9,834	-0,010	0,005
-603,371	-18,369	-0,111	-0,051
-602,357	-15,803	0,133	0,062
-601,342	263,706	-0,053	0,068
-600,328	214,599	0,056	0,065
-599,313	262,417	0,111	-0,141
-598,298	634,301	-0,042	0,079
-597,284	33,319	0,033	0,021
-596,269	-200,000	-0,004	0,026
-595,255	-200,000	-0,063	0,207
-594,240	338,207	0,050	0,071
-593,225	-156,588	-0,068	0,003
-592,211	-65,724	0,019	0,006
-591,196	-122,428	0,144	-0,017
-590,182	800,000	0,040	-0,128
-589,167	-110,329	0,100	0,015
-588,152	171,710	-0,070	0,074
-587,138	-132,693	-0,076	0,007
-586,123	515,927	0,026	0,044
-585,109	92,439	0,088	-0,073
-584,094	445,039	-0,059	-0,095
-583,079	-88,217	0,106	0,023
-582,065	353,270	0,130	0,189
-581,050	200,807	-0,015	0,017
-580,036	800,000	0,047	0,117
-579,021	184,726	-0,019	0,020
-578,006	-200,000	-0,060	-0,219
-576,992	-115,268	-0,113	-0,015
-575,977	-120,940	0,127	0,015
-574,963	285,778	-0,050	0,066
-573,948	197,887	0,111	-0,124
-572,934	207,071	-0,096	-0,109
-571,919	-32,811	-0,097	-0,039
-570,904	-104,818	-0,093	0,015
-569,890	800,000	-0,062	-0,149
-568,875	-21,546	-0,070	-0,031
-567,861	253,223	-0,018	0,022
-566,846	27,941	-0,065	0,040
-565,831	312,740	-0,059	0,081
-564,817	800,000	-0,012	-0,033
-563,802	-114,671	-0,111	-0,015
-562,788	-200,000	-0,027	0,106
-561,773	55,886	0,079	0,056
-560,758	212,668	-0,057	-0,066
-559,744	800,000	-0,044	-0,129
-558,729	647,235	-0,084	0,158
-557,715	-85,754	0,111	0,025
-556,700	-0,158	0,104	-0,054
-555,685	-14,340	0,067	-0,032
-554,671	39,391	0,099	-0,065
-553,656	407,436	0,079	-0,123
-552,642	-49,312	0,121	0,042
-551,627	410,057	0,019	-0,030
-550,612	225,145	0,057	-0,068
-549,598	-39,228	0,052	0,020
-548,583	800,000	0,031	0,084
-547,569	298,356	0,028	0,038
-546,554	180,413	-0,041	0,044
-545,539	8,612	0,101	0,056
-544,525	-45,467	-0,032	-0,012
-543,510	106,099	0,042	0,037
-542,496	-139,262	0,046	-0,004
-541,481	406,238	0,055	0,086
-540,466	-124,512	-0,070	0,008
-539,452	119,988	0,092	-0,084
-538,437	-200,000	0,011	0,080
-537,423	-200,000	-0,009	0,204
-536,408	87,363	0,096	0,077
-535,393	800,000	0,007	-0,017
-534,379	-200,000	0,014	-0,079
-533,364	18,771	-0,071	-0,041
-532,350	-200,000	0,039	-0,138
-531,335	-200,000	0,011	0,142
-530,321	4,475	0,128	-0,068
-529,306	359,836	-0,069	0,101
-528,291	-200,000	-0,044	-0,154
-527,277	-106,206	0,074	-0,012
-526,262	-159,806	0,157	0,006
-525,248	-132,375	-0,052	-0,005
-524,233	800,000	0,074	0,192
-523,218	401,670	-0,010	0,016
-522,204	-200,000	-0,004	0,016
-521,189	800,000	-0,022	0,068
-520,175	-200,000	0,009	0,121
-519,160	171,126	0,040	-0,042
-518,145	42,553	-0,150	-0,099
-517,131	20,162	0,054	0,032
-516,116	-200,000	0,002	-0,011
-515,102	800,000	0,030	-0,088
-514,087	-72,839	0,033	-0,009
-513,072	-200,000	0,027	0,110
-512,058	-200,000	0,014	-0,050
-511,043	455,661	-0,034	-0,056
-510,029	-44,832	0,118	0,043
-509,014	-50,080	-0,049	-0,017
-507,999	-39,161	0,009	-0,003
-506,985	137,312	0,081	0,077
-505,970	-1,318	-0,104	0,053
-504,956	800,000	0,018	-0,046
-503,941	-132,246	-0,094	0,009
-502,926	-26,286	0,169	0,072
-501,912	-121,225	0,167	-0,020
-500,897	-82,430	-0,117	-0,027
-499,883	-90,097	-0,005	-0,001
-498,868	-20,405	-0,135	0,060
-497,853	315,358	0,115	0,159
-496,839	472,280	0,052	0,086
-495,824	-113,069	0,040	0,006
-494,810	-91,378	-0,027	0,006
-493,795	800,000	-0,050	0,147
-492,781	142,594	-0,110	-0,107
-491,766	172,837	0,074	-0,078
-490,751	-84,860	-0,075	0,017
-489,737	-99,217	0,107	0,020
-488,722	-163,693	0,065	0,002
-487,708	800,000	-0,029	0,079
-486,693	19,746	-0,061	0,036
-485,678	139,287	0,073	0,071
-484,664	276,814	-0,051	0,066
-483,649	276,754	-0,070	-0,091
-482,635	91,373	0,045	0,037
-481,620	412,533	0,110	0,171
-480,605	27,556	-0,118	-0,072
-479,591	666,947	-0,009	0,016
-478,576	749,177	0,099	0,195
-477,562	-58,031	-0,152	0,048
-476,547	-200,000	-0,038	-0,162
-475,532	-200,000	0,001	-0,012
-474,518	31,937	0,094	0,059
-473,503	105,046	0,059	0,051
-472,489	-200,000	-0,005	-0,039
-471,474	74,238	0,026	-0,020
-470,459	-119,627	-0,091	0,011
-469,445	-8,221	0,093	-0,045
-468,430	-36,111	-0,032	-0,013
-467,416	-151,812	-0,170	-0,009
-466,401	193,765	0,079	-0,088
-465,386	-200,000	-0,007	0,067
-464,372	162,807	-0,083	0,085
-463,357	306,365	0,045	-0,062
-462,343	-168,163	-0,022	-0,001
-461,328	470,377	-0,051	-0,084
-460,313	-120,837	-0,126	-0,015
-459,299	260,185	0,025	0,032
-458,284	800,000	0,036	0,094
-457,270	-200,000	0,009	-0,046
-456,255	-16,934	0,008	0,004
-455,241	29,460	-0,061	-0,038
-454,226	-200,000	0,014	-0,142
-453,211	800,000	0,025	0,071
-452,197	-48,062	0,093	-0,033
-451,182	800,000	0,044	0,114
-450,168	-200,000	-0,016	0,091
-449,153	800,000	0,034	0,076
-448,138	-56,692	-0,145	0,046
-447,124	-100,042	0,086	0,015
-446,109	-25,815	0,074	-0,032
-445,095	-153,607	0,105	0,005
-444,080	-200,000	0,012	0,045
-443,065	-81,449	0,048	-0,011
-442,051	-200,000	0,021	-0,088
-441,036	26,214	-0,049	-0,030
-440,022	-83,500	0,057	0,013
-439,007	-33,140	0,078	-0,032
-437,992	-200,000	0,017	0,120
-436,978	-200,000	0,002	0,067
-435,963	-200,000	-0,000	0,095
-434,949	236,250	-0,014	0,017
-433,934	281,263	-0,033	-0,043
-432,919	-200,000	0,034	0,126
-431,905	-41,448	0,100	-0,037
-430,890	13,989	0,014	-0,008
-429,876	-43,483	-0,020	-0,007
-428,861	-200,000	-0,016	-0,083
-427,846	-200,000	-0,015	-0,081
-426,832	378,387	-0,120	-0,179
-425,817	-85,193	0,076	0,017
-424,803	74,134	0,073	-0,056
-423,788	-101,396	0,046	0,008
-422,773	-200,000	-0,037	0,153
-421,759	-77,713	0,185	-0,046
-420,744	-200,000	0,001	-0,008
-419,730	-113,086	0,014	-0,002
-418,715	123,127	-0,119	0,109
-417,701	-200,000	-0,018	-0,059
-416,686	-200,000	-0,021	-0,138
-415,671	336,963	0,035	0,049
-414,657	-200,000	0,018	-0,119
-413,642	800,000	-0,008	-0,024
-412,628	800,000	0,048	-0,127
-411,613	-200,000	-0,007	-0,037
-410,598	-65,405	-0,119	0,034
-409,584	-200,000	0,009	0,045
-408,569	-28,948	0,012	0,005
-407,555	-48,340	-0,058	-0,020
-406,540	800,000	0,051	0,114
-405,525	157,991	-0,081	0,081
-404,511	371,635	0,054	-0,080
-403,496	-200,000	0,007	-0,154
-402,482	800,000	-0,011	0,026
-401,467	-71,824	0,053	0,014
-400,452	127,081	0,115	0,106
-399,438	800,000	0,034	0,083
-398,423	-200,000	-0,007	0,046
-397,409	65,022	-0,081	-0,059
-396,394	-69,233	0,054	-0,015
-395,379	-200,000	-0,017	-0,066
-394,365	-25,712	-0,030	-0,013
-393,350	373,347	0,055	0,082
-392,336	97,492	0,128	-0,106
-391,321	-108,780	-0,051	0,008
-390,306	-23,923	-0,042	0,018
-389,292	-87,542	-0,155	-0,034
-388,277	306,055	0,091	0,124
-387,263	270,128	0,029	0,038
-386,248	-134,790	0,144	-0,013
-385,233	-21,073	0,021	-0,009
-384,219	-41,737	-0,181	0,067
-383,204	-55,833	0,083	0,027
-382,190	-97,480	-0,154	0,029
-381,175	-32,617	-0,076	-0,030
-380,160	104,761	-0,053	-0,045
-379,146	44,959	0,037	0,025
-378,131	61,067	0,096	-0,069
-377,117	800,000	0,047	-0,098
-376,102	-176,567	0,084	0,002
-375,088	122,697	0,122	-0,110
-374,073	800,000	0,018	-0,036
-373,058	-200,000	-0,003	0,022
-372,044	624,465	0,014	-0,026
-371,029	-12,768	0,048	0,022
-370,015	-200,000	0,001	0,024
-369,000	800,000	0,035	0,076
-367,985	-95,692	-0,089	-0,017
-366,971	343,601	-0,048	-0,068
-365,956	800,000	-0,023	0,049
-364,942	-43,958	0,081	-0,029
-363,927	800,000	0,038	0,103
-362,912	-63,317	-0,063	0,019
-361,898	687,520	0,038	-0,073
-360,883	348,468	-0,055	-0,079
-359,869	157,461	0,046	-0,046
-358,854	-200,000	-0,008	-0,063
-357,839	159,882	-0,092	0,093
-356,825	-49,257	0,164	-0,056
-355,810	-200,000	0,005	-0,049
-354,796	-189,496	-0,075	-0,001
-353,781	12,285	-0,065	-0,036
-352,766	-200,000	0,015	-0,061
-351,752	105,465	-0,049	-0,042
-350,737	52,863	-0,095	0,066
-349,723	-200,000	0,016	0,065
-348,708	727,577	-0,012	-0,024
-347,693	685,092	0,072	0,136
-346,679	-130,575	-0,121	0,012
-345,664	577,239	0,053	0,095
-344,650	800,000	-0,049	0,146
-343,635	-200,000	-0,020	0,085
-342,620	-45,526	-0,138	0,049
-341,606	361,923	0,059	-0,087
-340,591	800,000	-0,060	0,161
-339,577	-65,218	-0,089	0,026
-338,562	-200,000	0,018	-0,165
-337,548	161,197	-0,117	-0,118
-336,533	97,073	-0,130	0,108
-335,518	-200,000	-0,009	0,030
-334,504	-26,666	0,089	0,038
-333,489	-114,375	0,083	-0,011
-332,475	473,055	-0,057	-0,093
-331,460	98,041	0,015	-0,012
-330,445	-200,000	0,003	-0,137
-329,431	-200,000	-0,002	-0,028
-328,416	-61,287	0,095	0,029
-327,402	146,566	-0,046	0,045
-326,387	139,267	0,006	0,006
-325,372	253,985	0,043	-0,053
-324,358	800,000	-0,055	0,159
-323,343	-59,065	0,075	-0,023
-322,329	-200,000	0,008	0,147
-321,314	216,767	0,133	-0,153
-320,299	72,927	0,028	0,021
-319,285	-12,086	-0,108	-0,051
-318,270	-89,328	-0,051	0,011
-317,256	501,976	-0,078	-0,131
-316,241	181,460	-0,051	-0,055
-315,226	-200,000	-0,039	0,267
-314,212	245,090	0,065	0,079
-313,197	-200,000	0,035	0,119
-312,183	147,476	0,129	0,126
-311,168	272,716	-0,067	-0,086
-310,153	800,000	0,026	-0,056
-309,139	-46,657	-0,099	-0,035
-308,124	-200,000	-0,000	0,053
-307,110	-172,773	0,162	0,004
-306,095	174,361	0,013	-0,014
-305,080	131,197	0,067	0,062
-304,066	23,187	-0,018	0,011
-303,051	-200,000	-0,021	-0,133
-302,037	800,000	-0,010	-0,019
-301,022	49,273	0,061	-0,042
-300,008	606,303	0,036	0,065
-298,993	21,092	-0,123	0,072
-297,978	-97,640	0,076	0,014
-296,964	163,359	0,056	0,057
-295,949	-200,000	0,010	-0,089
-294,935	-89,323	-0,147	0,031
-293,920	126,945	0,089	0,081
-292,905	-200,000	-0,003	-0,019
-291,891	-65,708	0,114	0,033
-290,876	800,000	0,051	0,124
-289,862	-200,000	-0,032	-0,118
-288,847	-14,439	-0,016	0,008
-287,832	-150,279	-0,093	0,005
-286,818	312,402	-0,049	-0,066
-285,803	373,441	-0,056	0,082
-284,789	800,000	-0,008	0,018
-283,774	800,000	0,022	-0,064
-282,759	800,000	0,051	-0,131
-281,745	166,456	-0,127	-0,130
-280,730	-173,090	-0,016	0,000
-279,716	-200,000	0,015	0,173
-278,701	-200,000	-0,000	0,012
-277,686	-13,685	-0,100	-0,047
-276,672	800,000	0,025	0,069
-275,657	-200,000	0,008	-0,045
-274,643	23,603	-0,081	-0,048
-273,628	66,744	-0,178	-0,131
-272,613	-56,906	0,079	0,025
-271,599	-200,000	0,001	0,015
-270,584	-151,551	0,088	-0,005
-269,570	-28,418	-0,112	0,047
-268,555	-27,786	0,151	-0,063
-267,540	-200,000	-0,005	-0,076
-266,526	217,476	-0,087	-0,100
-265,511	-200,000	-0,004	-0,083
-264,497	10,999	0,052	0,029
-263,482	-47,322	0,043	0,015
-262,467	411,321	0,044	-0,067
-261,453	-200,000	-0,007	-0,097
-260,438	174,864	-0,063	-0,066
-259,424	-200,000	0,009	0,051
-258,409	354,495	-0,042	0,061
-257,395	42,658	-0,074	0,049
-256,380	-200,000	0,032	0,152
-255,365	-200,000	-0,027	0,089
-254,351	364,685	-0,118	-0,173
-253,336	268,487	0,024	-0,030
-252,322	-180,195	-0,093	-0,001
-251,307	75,201	-0,016	-0,012
-250,292	800,000	0,053	-0,107
-249,278	-29,819	-0,033	0,013
-248,263	-200,000	-0,029	-0,125
-247,249	34,631	0,057	-0,036
-246,234	-124,296	0,070	-0,008
-245,219	-200,000	-0,051	-0,186
-244,205	100,118	-0,130	-0,109
-243,190	92,743	0,079	-0,064
-242,176	346,128	0,052	0,075
-241,161	800,000	0,015	-0,042
-240,146	-150,410	-0,092	-0,005
-239,132	577,649	0,010	-0,017
-238,117	800,000	-0,005	-0,013
-237,103	-129,071	-0,112	-0,011
-236,088	-77,374	0,154	0,038
-235,073	313,181	0,139	0,189
-234,059	800,000	0,013	0,030
-233,044	-200,000	0,046	-0,208
-232,030	98,323	-0,142	-0,118
-231,015	9,697	0,080	-0,043
-230,000	-200,000	-0,020	0,156
-228,986	-200,000	-0,009	-0,046
-227,971	-200,000	-0,002	0,020
-226,957	-200,000	-0,032	0,129
-225,942	800,000	-0,009	0,026
-224,927	30,452	0,040	-0,025
-223,913	-134,605	-0,124	-0,011
-222,898	800,000	0,012	-0,036
-221,884	-200,000	-0,005	0,068
-220,869	-141,487	-0,077	0,006
-219,855	-117,487	0,134	-0,017
-218,840	558,402	-0,046	0,080
-217,825	33,015	-0,039	0,024
-216,811	800,000	-0,056	-0,133
-215,796	-200,000	0,007	-0,087
-214,782	-67,556	-0,082	-0,023
-213,767	153,689	0,058	-0,058
-212,752	-101,412	0,183	0,032
-211,738	800,000	-0,033	-0,100
-210,723	158,177	-0,064	-0,064
-209,709	355,435	-0,036	-0,052
-208,694	-53,375	-0,022	-0,007
-207,679	800,000	0,023	-0,048
-206,665	-54,047	0,080	-0,026
-205,650	-101,712	-0,058	0,010
-204,636	-200,000	0,022	0,151
-203,621	16,150	-0,036	-0,020
-202,606	-200,000	-0,017	-0,066
-201,592	117,345	0,084	-0,074
-200,577	90,408	-0,060	0,048
-199,563	-95,654	-0,109	-0,021
-198,548	-200,000	0,007	0,037
-197,533	510,011	-0,030	0,051
-196,519	80,263	-0,109	-0,084
-195,504	394,041	-0,063	-0,095
-194,490	-53,871	-0,083	0,027
-193,475	397,298	0,008	-0,012
-192,460	97,131	0,147	-0,121
-191,446	-147,263	0,147	0,009
-190,431	-88,293	-0,109	-0,023
-189,417	603,444	-0,024	0,042
-188,402	122,912	0,050	-0,045
-187,387	800,000	-0,005	-0,012
-186,373	729,870	-0,034	-0,065
-185,358	-121,775	0,056	-0,007
-184,344	-96,830	0,120	-0,023
-183,329	-200,000	-0,030	0,109
-182,315	179,664	-0,138	0,146
-181,300	284,531	-0,066	-0,085
-180,285	-200,000	0,045	-0,172
-179,271	-46,888	0,167	-0,058
-178,256	-200,000	-0,073	-0,000
-177,242	-10,681	-0,064	-0,030
-176,227	56,927	-0,128	0,090
-175,212	138,829	0,127	0,120
-174,198	67,257	0,072	-0,053
-173,183	134,826	-0,087	-0,081
-172,169	-200,000	0,013	-0,055
-171,154	477,418	0,125	-0,205
-170,139	-119,167	-0,058	0,007
-169,125	-184,449	0,059	0,001
-168,110	-151,029	0,024	-0,001
-167,096	453,509	-0,008	-0,013
-166,081	400,305	0,031	-0,047
-165,066	-43,612	-0,088	0,032
-164,052	-6,211	0,051	-0,025
-163,037	800,000	-0,024	-0,051
-162,023	114,084	0,069	0,061
-161,008	104,637	0,092	0,078
-159,993	149,556	-0,071	0,069
-158,979	-200,000	0,022	-0,098
-157,964	19,180	-0,168	0,097
-156,950	91,282	-0,032	0,026
-155,935	-61,172	0,056	-0,017
-154,920	-171,564	0,098	0,002
-153,906	-64,159	0,189	-0,055
-152,891	-112,230	-0,117	-0,017
-151,877	-80,360	0,097	0,023
-150,862	794,667	0,042	-0,084
-149,847	-200,000	0,015	-0,113
-148,833	66,866	0,033	-0,024
-147,818	181,280	0,087	-0,092
-146,804	287,521	-0,057	0,074
-145,789	-33,398	0,117	-0,046
-144,775	800,000	0,021	-0,063
-143,760	-57,826	-0,030	0,009
-142,745	213,855	-0,111	0,127
-141,731	219,437	-0,083	-0,096
-140,716	-200,000	-0,025	-0,126
-139,702	124,888	0,155	-0,140
-138,687	800,000	0,024	-0,066
-137,672	-107,251	-0,135	-0,021
-136,658	0,536	-0,095	-0,049
-135,643	-200,000	-0,046	0,147
-134,629	345,351	-0,082	0,116
-133,614	-144,917	0,067	0,004
-132,599	-156,210	-0,168	0,007
-131,585	256,157	0,029	0,036
-130,570	206,680	0,011	-0,012
-129,556	-79,846	-0,057	-0,014
-128,541	-106,106	-0,091	0,014
-127,526	800,000	0,079	0,167
-126,512	262,787	-0,037	0,046
-125,497	-86,887	0,132	-0,029
-124,483	310,285	-0,044	0,059
-123,468	800,000	0,039	-0,088
-122,453	-200,000	0,017	-0,121
-121,439	-200,000	0,006	-0,106
-120,424	-200,000	0,008	0,065
