DTS Sentinel unit serial number:	SN410029Multiplexer serial number:	ORYXHardware model number:	OX2-SRSoftware version number:	ORYX F/W v4,00 Oryx Data Collector v3.7.2.0data status	okinstallation	B5 Nyhavnadifferential loss correction	single-endedforward channel	channel 2reverse channel	N/Adate	2023/12/11time	17:47:13forward acquisition time	300,00reverse acquisition time	0,00gamma	499,1914k internal	0,3163k external	0,3163temperature offset calibration	1,0000default loss term (dB/km)	0,3820temperature slope calibration	1,0000multiplexer offset coefficient	1,0000multiplexer slope coefficient	1,0000fibre end	0,00T internal ref (°C)	14,87T ext. ref 1 (°C)	-0,64T ext. ref 2 (°C)	-0,88length (m)	temperature (°C)	Stokes	anti-Stokes-744,400	-128,359	0,106	-0,011
-743,385	-83,430	-0,256	0,060
-742,371	800,000	0,056	0,116
-741,356	-101,320	-0,231	0,041
-740,342	152,375	0,091	-0,091
-739,327	-5,501	-0,232	0,117
-738,312	444,129	-0,053	-0,086
-737,298	9,229	-0,215	0,119
-736,283	214,505	0,073	-0,085
-735,269	-82,101	-0,291	-0,069
-734,254	-167,090	0,153	0,004
-733,239	-25,191	-0,387	-0,168
-732,225	800,000	0,014	0,041
-731,210	120,989	0,061	0,056
-730,196	535,282	0,051	0,090
-729,181	800,000	0,045	0,129
-728,167	-163,027	-0,185	0,006
-727,152	117,003	-0,060	0,054
-726,137	22,297	0,038	0,023
-725,123	-200,000	0,025	-0,140
-724,108	-200,000	0,007	-0,031
-723,094	690,487	-0,066	-0,128
-722,079	-11,967	-0,160	-0,077
-721,064	193,344	0,167	-0,186
-720,050	-64,867	0,075	-0,022
-719,035	-200,000	0,005	0,067
-718,021	46,560	-0,102	-0,069
-717,006	-1,182	-0,082	0,042
-715,991	800,000	-0,054	-0,112
-714,977	-138,265	-0,172	0,014
-713,962	-123,134	0,054	0,006
-712,948	-54,385	0,031	-0,010
-711,933	-59,254	-0,120	-0,038
-710,918	310,796	-0,086	-0,119
-709,904	-200,000	-0,021	0,109
-708,889	-86,117	-0,069	-0,015
-707,875	800,000	-0,042	-0,098
-706,860	-164,420	0,080	0,003
-705,845	-200,000	0,014	0,088
-704,831	800,000	-0,032	-0,098
-703,816	-119,788	0,060	-0,007
-702,802	124,993	0,043	0,040
-701,787	125,875	0,063	-0,058
-700,772	9,451	-0,101	-0,056
-699,758	-131,855	-0,028	0,003
-698,743	800,000	-0,028	0,061
-697,729	10,605	0,041	0,023
-696,714	265,866	0,066	-0,085
-695,699	800,000	0,026	0,053
-694,685	82,132	-0,162	-0,129
-693,670	-57,625	-0,014	-0,005
-692,656	800,000	0,020	-0,050
-691,641	-166,419	0,026	-0,001
-690,627	-200,000	0,006	-0,023
-689,612	-47,000	-0,055	0,020
-688,597	800,000	-0,060	-0,131
-687,583	-121,185	-0,040	-0,005
-686,568	-92,695	-0,107	0,022
-685,554	17,025	-0,022	0,012
-684,539	114,437	-0,084	0,075
-683,524	-200,000	0,031	0,165
-682,510	169,077	-0,013	0,013
-681,495	-27,957	-0,169	-0,071
-680,481	-68,076	-0,064	0,018
-679,466	-200,000	-0,006	-0,077
-678,451	20,071	-0,140	-0,083
-677,437	267,425	0,063	0,082
-676,422	51,435	0,069	-0,048
-675,408	-200,000	0,036	0,128
-674,393	45,967	-0,028	0,019
-673,378	1,591	0,024	-0,013
-672,364	-200,000	0,006	0,083
-671,349	229,701	0,027	-0,033
-670,335	-200,000	0,021	0,198
-669,320	-200,000	-0,015	0,050
-668,305	800,000	0,038	-0,080
-667,291	800,000	0,009	-0,023
-666,276	92,368	-0,146	-0,121
-665,262	44,517	-0,180	-0,121
-664,247	682,182	0,016	0,031
-663,232	-200,000	0,009	0,056
-662,218	413,134	0,083	-0,130
-661,203	68,650	-0,114	-0,086
-660,189	44,063	-0,029	-0,019
-659,174	-71,344	-0,054	0,015
-658,159	-64,729	-0,093	0,027
-657,145	50,372	0,046	0,032
-656,130	800,000	0,029	-0,088
-655,116	800,000	0,066	-0,135
-654,101	-50,680	0,094	-0,032
-653,086	-200,000	-0,034	0,112
-652,072	-188,251	0,090	-0,001
-651,057	460,280	-0,084	-0,138
-650,043	152,351	-0,040	-0,041
-649,028	800,000	-0,057	-0,143
-648,014	197,240	-0,057	-0,064
-646,999	301,825	-0,112	-0,152
-645,984	-39,148	0,139	0,053
-644,970	-97,329	-0,048	0,009
-643,955	167,309	-0,081	-0,084
-642,941	5,813	-0,148	0,080
-641,926	536,363	0,043	0,075
-640,911	-97,263	-0,161	-0,031
-639,897	-39,849	0,058	-0,022
-638,882	71,938	-0,038	0,029
-637,868	23,109	-0,182	0,109
-636,853	202,273	-0,124	0,141
-635,838	-200,000	-0,002	0,071
-634,824	-200,000	0,003	-0,185
-633,809	218,095	0,059	-0,070
-632,795	-66,254	0,171	-0,050
-631,780	800,000	0,032	0,067
-630,765	-145,261	-0,153	-0,010
-629,751	-76,820	-0,043	-0,011
-628,736	-145,451	0,031	0,002
-627,722	655,487	-0,089	-0,169
-626,707	331,295	-0,062	0,088
-625,692	323,812	-0,043	-0,060
-624,678	38,247	-0,075	0,049
-623,663	111,656	-0,042	0,037
-622,649	-200,000	-0,003	-0,018
-621,634	-200,000	0,013	-0,045
-620,619	-59,236	-0,037	-0,012
-619,605	83,899	0,104	0,083
-618,590	105,186	0,182	0,157
-617,576	-60,578	-0,141	-0,043
-616,561	622,264	-0,018	-0,034
-615,546	22,320	-0,065	-0,039
-614,532	-26,848	-0,053	-0,023
-613,517	369,006	-0,088	-0,131
-612,503	-27,948	0,183	0,077
-611,488	-72,493	0,053	-0,014
-610,474	333,058	-0,054	0,076
-609,459	-200,000	0,015	0,160
-608,444	400,422	-0,030	0,046
-607,430	-200,000	-0,005	-0,044
-606,415	136,752	0,053	-0,051
-605,401	800,000	0,045	-0,093
-604,386	-15,986	0,057	-0,026
-603,371	800,000	-0,043	0,089
-602,357	-10,587	-0,071	-0,034
-601,342	-22,182	-0,009	-0,004
-600,328	-23,950	-0,076	-0,033
-599,313	255,036	0,045	-0,057
-598,298	-159,346	0,146	-0,006
-597,284	356,224	-0,035	0,051
-596,269	-200,000	0,024	0,080
-595,255	-200,000	0,014	-0,074
-594,240	800,000	-0,050	-0,125
-593,225	285,047	-0,058	-0,077
-592,211	800,000	-0,060	-0,137
-591,196	-200,000	-0,013	-0,086
-590,182	383,304	-0,008	0,012
-589,167	677,267	-0,010	-0,019
-588,152	-200,000	0,032	0,108
-587,138	800,000	-0,026	0,074
-586,123	-67,391	0,012	-0,003
-585,109	7,506	-0,183	-0,100
-584,094	-128,149	0,085	0,009
-583,079	626,165	0,078	-0,144
-582,065	-55,377	0,101	0,033
-581,050	429,785	-0,014	0,022
-580,036	-21,132	0,079	0,035
-579,021	175,570	0,053	-0,056
-578,006	-141,657	0,114	-0,008
-576,992	28,126	0,072	-0,044
-575,977	-135,291	-0,199	-0,017
-574,963	-49,588	0,082	-0,028
-573,948	-45,377	-0,090	-0,033
-572,934	-46,569	0,041	-0,015
-571,919	800,000	-0,036	-0,090
-570,904	-186,849	-0,081	0,001
-569,890	-120,001	-0,025	0,003
-568,875	-200,000	0,028	0,125
-567,861	-10,392	0,104	-0,050
-566,846	480,442	0,036	0,060
-565,831	112,923	0,027	-0,024
-564,817	-67,397	-0,066	-0,019
-563,802	272,845	0,061	-0,078
-562,788	-52,676	-0,065	0,022
-561,773	9,483	0,075	-0,041
-560,758	135,565	0,075	0,071
-559,744	-89,513	-0,075	0,016
-558,729	516,688	0,024	0,042
-557,715	-20,585	-0,018	0,008
-556,700	100,897	-0,009	0,008
-555,685	566,015	-0,058	-0,104
-554,671	75,894	0,100	0,077
-553,656	-73,846	0,103	-0,027
-552,642	-200,000	0,019	0,136
-551,627	-8,448	0,087	-0,042
-550,612	-200,000	0,016	0,074
-549,598	-200,000	0,002	-0,073
-548,583	231,760	0,107	-0,128
-547,569	-63,204	0,072	0,022
-546,554	64,036	-0,036	0,026
-545,539	-166,090	-0,171	-0,005
-544,525	142,481	0,039	0,038
-543,510	92,465	0,087	-0,072
-542,496	-129,341	-0,055	0,006
-541,481	-0,137	0,125	-0,065
-540,466	317,569	0,046	0,063
-539,452	82,396	-0,124	-0,098
-538,437	321,781	0,104	-0,145
-537,423	-200,000	-0,004	-0,097
-536,408	284,856	0,089	-0,117
-535,393	245,784	0,036	0,044
-534,379	-200,000	-0,005	-0,087
-533,364	43,651	-0,115	-0,076
-532,350	-69,545	-0,115	0,032
-531,335	-200,000	0,167	0,001
-530,321	15,457	0,069	-0,040
-529,306	348,591	0,042	-0,061
-528,291	-35,535	-0,149	0,059
-527,277	800,000	-0,071	-0,187
-526,262	-138,426	0,062	-0,005
-525,248	-200,000	0,002	0,058
-524,233	-145,307	-0,179	0,012
-523,218	800,000	0,042	0,099
-522,204	-200,000	-0,001	0,034
-521,189	-200,000	0,003	-0,054
-520,175	800,000	0,014	0,030
-519,160	424,457	0,020	0,031
-518,145	-22,986	0,067	-0,029
-517,131	70,065	-0,140	0,105
-516,116	-200,000	0,010	0,110
-515,102	-12,281	-0,045	-0,021
-514,087	-29,903	-0,188	-0,078
-513,072	69,287	-0,045	-0,034
-512,058	594,810	0,101	0,183
-511,043	-90,491	-0,064	0,013
-510,029	-200,000	0,017	0,075
-509,014	-200,000	-0,008	-0,033
-507,999	-200,000	-0,010	-0,136
-506,985	422,667	0,073	-0,114
-505,970	76,757	-0,066	0,051
-504,956	800,000	-0,037	-0,085
-503,941	303,086	0,045	0,061
-502,926	31,160	-0,110	-0,069
-501,912	-20,583	0,143	0,064
-500,897	-37,590	0,039	0,015
-499,883	501,962	-0,038	0,064
-498,868	131,509	-0,112	0,105
-497,853	150,415	0,088	-0,087
-496,839	719,750	0,041	-0,080
-495,824	43,705	-0,116	0,078
-494,810	41,372	0,083	-0,055
-493,795	-71,554	0,090	-0,024
-492,781	-200,000	-0,011	-0,070
-491,766	-200,000	-0,020	-0,154
-490,751	231,652	0,021	-0,025
-489,737	166,853	-0,021	0,021
-488,722	-7,027	0,050	0,025
-487,708	59,825	0,063	0,045
-486,693	-39,162	0,056	0,021
-485,678	566,729	0,039	0,070
-484,664	138,853	-0,182	-0,174
-483,649	273,534	-0,015	0,019
-482,635	365,217	-0,071	-0,105
-481,620	-46,981	0,100	0,035
-480,605	-200,000	-0,000	0,052
-479,591	-200,000	-0,031	0,200
-478,576	800,000	0,064	0,175
-477,562	312,207	-0,069	-0,095
-476,547	800,000	0,024	-0,067
-475,532	-114,065	0,026	-0,004
-474,518	-107,219	-0,106	-0,017
-473,503	34,975	0,103	0,066
-472,489	-200,000	0,020	0,086
-471,474	150,909	0,068	-0,067
-470,459	-11,066	-0,017	-0,008
-469,445	800,000	0,032	-0,074
-468,430	-68,211	-0,079	0,022
-467,416	-35,547	-0,007	0,003
-466,401	211,216	0,029	0,033
-465,386	-14,284	0,081	-0,038
-464,372	-200,000	-0,011	-0,070
-463,357	745,279	0,094	-0,185
-462,343	-104,264	-0,052	0,009
-461,328	800,000	0,007	-0,018
-460,313	410,324	-0,020	-0,031
-459,299	-180,752	0,123	0,002
-458,284	-200,000	0,044	-0,148
-457,270	434,250	0,018	0,029
-456,255	-200,000	-0,002	-0,110
-455,241	661,247	0,076	-0,143
-454,226	-94,876	0,085	-0,017
-453,211	255,531	-0,024	-0,030
-452,197	-83,173	0,114	-0,026
-451,182	-200,000	-0,027	-0,094
-450,168	800,000	-0,025	-0,058
-449,153	-200,000	-0,006	-0,047
-448,138	102,508	0,072	-0,061
-447,124	-110,820	0,121	0,018
-446,109	333,065	0,033	0,046
-445,095	115,935	0,014	0,013
-444,080	14,180	-0,094	0,053
-443,065	72,559	-0,029	0,022
-442,051	326,039	-0,059	-0,082
-441,036	-200,000	-0,010	-0,089
-440,022	-150,706	-0,073	0,004
-439,007	-200,000	0,006	-0,022
-437,992	-90,554	-0,036	-0,007
-436,978	-26,119	-0,101	-0,043
-435,963	147,827	-0,040	-0,039
-434,949	-200,000	-0,002	-0,032
-433,934	800,000	-0,106	-0,264
-432,919	-42,747	-0,131	-0,048
-431,905	472,260	0,060	-0,099
-430,890	-84,760	-0,154	0,035
-429,876	-200,000	-0,000	0,121
-428,861	-89,008	-0,093	0,020
-427,846	-200,000	0,025	0,182
-426,832	249,285	0,035	0,043
-425,817	-64,495	-0,116	-0,034
-424,803	800,000	0,013	0,038
-423,788	-125,235	-0,079	-0,009
-422,773	73,010	0,035	0,026
-421,759	-149,577	-0,087	-0,005
-420,744	800,000	-0,058	-0,130
-419,730	-119,441	0,066	0,008
-418,715	-200,000	-0,015	-0,075
-417,701	-200,000	0,013	0,115
-416,686	-121,437	-0,144	-0,017
-415,671	-154,350	0,107	0,005
-414,657	-60,015	-0,152	0,047
-413,642	-200,000	0,041	0,147
-412,628	-90,503	-0,064	0,013
-411,613	248,256	0,046	-0,057
-410,598	-200,000	-0,017	0,103
-409,584	-200,000	-0,024	0,128
-408,569	-40,609	-0,053	-0,020
-407,555	-200,000	0,031	0,246
-406,540	36,790	-0,104	0,067
-405,525	-115,455	0,035	0,005
-404,511	800,000	-0,044	-0,113
-403,496	-151,642	-0,066	-0,003
-402,482	-200,000	0,005	-0,095
-401,467	657,557	-0,029	0,054
-400,452	800,000	0,036	0,088
-399,438	85,223	0,033	0,026
-398,423	-200,000	0,014	0,082
-397,409	433,577	0,030	0,047
-396,394	-200,000	0,009	-0,030
-395,379	18,338	-0,049	-0,028
-394,365	800,000	0,038	-0,090
-393,350	96,842	-0,072	0,060
-392,336	-200,000	0,191	-0,000
-391,321	-200,000	-0,009	0,049
-390,306	-47,966	-0,144	0,050
-389,292	-200,000	-0,004	-0,065
-388,277	-200,000	0,017	0,065
-387,263	27,147	0,066	-0,040
-386,248	-200,000	0,015	-0,152
-385,233	-38,263	-0,122	0,047
-384,219	-65,540	-0,140	0,041
-383,204	-200,000	0,019	-0,084
-382,190	-1,705	0,091	-0,046
-381,175	21,541	0,066	-0,039
-380,160	76,825	-0,099	0,076
-379,146	-200,000	0,011	0,040
-378,131	-150,380	-0,172	0,009
-377,117	-28,300	0,087	-0,036
-376,102	556,194	-0,041	-0,071
-375,088	-15,102	0,075	0,035
-374,073	407,430	0,033	-0,051
-373,058	-29,247	0,027	-0,011
-372,044	-73,132	0,086	-0,023
-371,029	-60,518	-0,101	0,031
-370,015	-200,000	0,003	-0,169
-369,000	84,649	-0,087	0,069
-367,985	79,118	0,008	0,006
-366,971	-200,000	-0,028	-0,164
-365,956	-127,383	0,075	0,008
-364,942	51,184	0,057	0,039
-363,927	-94,511	-0,100	-0,019
-362,912	-200,000	0,001	0,029
-361,898	800,000	-0,049	-0,130
-360,883	-136,109	0,114	0,010
-359,869	139,840	-0,087	0,083
-358,854	167,386	0,054	-0,056
-357,839	-122,800	0,066	0,008
-356,825	131,544	0,050	0,046
-355,810	-28,103	0,069	0,029
-354,796	-200,000	-0,008	0,044
-353,781	-133,583	-0,101	-0,009
-352,766	66,703	-0,121	0,089
-351,752	-200,000	-0,003	0,110
-350,737	800,000	0,089	0,182
-349,723	-200,000	-0,023	0,079
-348,708	172,268	-0,095	0,100
-347,693	52,489	0,066	-0,045
-346,679	309,527	-0,067	-0,091
-345,664	-200,000	-0,024	-0,094
-344,650	754,765	0,055	0,108
-343,635	-200,000	-0,021	0,113
-342,620	800,000	-0,021	0,061
-341,606	-200,000	-0,002	-0,019
-340,591	665,816	-0,036	0,067
-339,577	800,000	0,028	-0,081
-338,562	104,115	-0,105	0,089
-337,548	139,601	-0,060	0,057
-336,533	6,306	0,106	-0,057
-335,518	-200,000	-0,005	-0,068
-334,504	69,516	0,053	0,040
-333,489	800,000	-0,083	-0,170
-332,475	549,396	0,090	-0,158
-331,460	-50,960	-0,146	-0,049
-330,445	-74,556	-0,066	-0,017
-329,431	-72,515	0,094	0,025
-328,416	-200,000	-0,012	0,065
-327,402	154,360	-0,130	0,129
-326,387	16,225	0,124	0,071
-325,372	-200,000	0,008	-0,068
-324,358	800,000	0,014	-0,034
-323,343	104,119	-0,081	-0,069
-322,329	-44,277	0,062	0,022
-321,314	-107,124	0,051	0,008
-320,299	8,576	0,114	0,062
-319,285	391,382	0,009	0,014
-318,270	-200,000	-0,018	0,096
-317,256	-56,791	0,028	-0,009
-316,241	800,000	-0,028	-0,061
-315,226	-99,959	0,108	0,019
-314,212	754,620	0,035	0,068
-313,197	800,000	-0,026	0,078
-312,183	106,756	0,045	-0,038
-311,168	-133,681	0,032	0,003
-310,153	451,299	-0,043	-0,069
-309,139	333,203	0,018	-0,025
-308,124	88,456	0,053	0,042
-307,110	-200,000	0,039	0,171
-306,095	15,050	-0,004	-0,003
-305,080	-99,528	0,048	-0,009
-304,066	800,000	-0,007	0,023
-303,051	184,704	-0,105	0,113
-302,037	40,297	-0,105	-0,068
-301,022	-200,000	-0,002	0,145
-300,008	-38,666	0,098	-0,037
-298,993	-143,342	0,118	0,008
-297,978	544,934	0,050	0,086
-296,964	180,070	0,023	-0,025
-295,949	-200,000	-0,023	0,152
-294,935	-169,270	-0,122	-0,003
-293,920	582,874	-0,030	-0,054
-292,905	800,000	-0,020	-0,046
-291,891	25,863	0,128	-0,077
-290,876	800,000	0,017	0,040
-289,862	80,647	-0,014	0,011
-288,847	-200,000	-0,004	-0,087
-287,832	-159,706	-0,220	0,009
-286,818	-59,876	-0,043	0,013
-285,803	-132,730	0,113	-0,010
-284,789	-200,000	-0,008	0,099
-283,774	-200,000	0,004	0,091
-282,759	125,302	0,057	-0,052
-281,745	43,849	0,072	0,047
-280,730	800,000	-0,034	-0,107
-279,716	800,000	-0,070	0,141
-278,701	-47,500	0,068	0,024
-277,686	-196,697	0,131	0,001
-276,672	320,609	-0,088	-0,121
-275,657	-98,681	-0,149	0,027
-274,643	-85,042	0,171	0,038
-273,628	-200,000	-0,054	-0,181
-272,613	-3,542	0,046	0,023
-271,599	-82,003	-0,071	0,017
-270,584	800,000	0,015	0,032
-269,570	385,329	-0,054	-0,081
-268,555	-200,000	0,014	0,080
-267,540	294,966	-0,095	0,126
-266,526	-135,418	-0,110	0,009
-265,511	-200,000	0,028	-0,103
-264,497	-200,000	-0,006	-0,029
-263,482	66,017	0,123	0,090
-262,467	5,540	0,089	0,048
-261,453	-50,761	-0,045	-0,015
-260,438	-200,000	-0,013	-0,100
-259,424	-200,000	0,013	-0,075
-258,409	-200,000	-0,022	0,158
-257,395	591,645	0,121	-0,217
-256,380	-31,798	-0,119	0,048
-255,365	-200,000	0,003	0,069
-254,351	-42,671	-0,088	0,032
-253,336	-200,000	0,021	-0,074
-252,322	800,000	-0,076	-0,167
-251,307	782,641	-0,043	-0,086
-250,292	96,438	0,056	0,046
-249,278	56,903	0,188	0,132
-248,263	199,545	0,064	0,071
-247,249	-200,000	-0,003	0,034
-246,234	-152,320	-0,060	-0,003
-245,219	-70,810	0,019	-0,005
-244,205	-77,185	0,069	0,017
-243,190	98,135	-0,030	0,025
-242,176	43,320	0,016	-0,011
-241,161	-87,422	0,147	0,032
-240,146	241,829	-0,097	-0,117
-239,132	-200,000	-0,051	-0,193
-238,117	776,479	0,032	-0,064
-237,103	-200,000	-0,004	-0,056
-236,088	225,666	-0,029	-0,034
-235,073	-200,000	-0,010	0,114
-234,059	11,304	0,157	0,086
-233,044	-90,854	0,057	-0,012
-232,030	800,000	0,033	-0,075
-231,015	438,998	-0,068	-0,107
-230,000	43,084	0,075	-0,049
-228,986	-200,000	0,007	-0,066
-227,971	276,994	0,015	0,020
-226,957	800,000	-0,058	0,169
-225,942	595,031	0,073	0,130
-224,927	800,000	-0,013	0,031
-223,913	-43,927	0,158	0,057
-222,898	108,844	0,050	-0,043
-221,884	-70,432	-0,036	-0,010
-220,869	800,000	0,037	0,093
-219,855	-30,457	0,049	0,020
-218,840	800,000	-0,048	0,112
-217,825	-200,000	0,015	0,063
-216,811	-200,000	0,055	-0,191
-215,796	-36,303	-0,203	-0,078
-214,782	663,137	0,043	0,081
-213,767	-11,158	0,019	0,009
-212,752	-200,000	0,020	0,159
-211,738	42,802	0,052	-0,034
-210,723	56,127	0,065	0,046
-209,709	-80,743	-0,037	0,009
-208,694	-31,079	-0,149	-0,060
-207,679	174,852	-0,036	-0,037
-206,665	-51,776	0,105	0,035
-205,650	87,889	-0,039	-0,031
-204,636	-123,432	-0,035	-0,004
-203,621	235,681	0,045	0,054
-202,606	445,414	0,078	0,124
-201,592	243,883	-0,090	-0,109
-200,577	-66,456	-0,053	0,015
-199,563	134,431	0,117	0,110
-198,548	15,021	0,097	-0,055
-197,533	-200,000	0,039	0,176
-196,519	-45,050	0,168	0,060
-195,504	-114,602	0,133	0,018
-194,490	-200,000	0,008	0,087
-193,475	-171,600	0,104	-0,002
-192,460	382,503	0,037	0,054
-191,446	38,358	0,059	-0,038
-190,431	130,553	-0,105	0,097
-189,417	800,000	-0,043	-0,087
-188,402	552,214	-0,036	0,062
-187,387	398,220	-0,021	0,031
-186,373	76,849	0,029	-0,022
-185,358	111,038	-0,110	-0,095
-184,344	800,000	-0,002	-0,004
-183,329	742,727	-0,057	0,112
-182,315	-200,000	-0,021	0,106
-181,300	-200,000	-0,017	0,088
-180,285	65,560	-0,086	0,062
-179,271	-40,684	0,016	-0,006
-178,256	-200,000	0,006	0,035
-177,242	-88,690	0,162	-0,034
-176,227	-200,000	0,003	-0,016
-175,212	504,872	0,084	0,140
-174,198	692,559	-0,037	0,070
-173,183	-53,888	0,024	0,008
-172,169	-200,000	0,003	-0,103
-171,154	99,234	0,067	-0,055
-170,139	-200,000	-0,006	-0,052
-169,125	800,000	-0,052	0,106
-168,110	-200,000	0,021	0,079
-167,096	331,976	0,076	0,105
-166,081	104,732	-0,103	-0,087
-165,066	800,000	-0,043	-0,131
-164,052	683,443	-0,026	0,050
-163,037	96,664	-0,055	0,045
-162,023	-200,000	-0,016	-0,086
-161,008	-200,000	0,046	0,177
-159,993	4,804	-0,050	0,026
-158,979	639,612	0,017	0,032
-157,964	-200,000	0,002	0,110
-156,950	-58,174	-0,027	-0,008
-155,935	184,807	0,068	-0,072
-154,920	690,360	0,070	0,132
-153,906	-128,880	0,112	0,011
-152,891	-200,000	0,012	-0,087
-151,877	800,000	0,052	0,119
-150,862	800,000	-0,043	-0,127
-149,847	800,000	0,043	0,088
-148,833	8,167	-0,076	-0,041
-147,818	-200,000	0,002	-0,030
-146,804	217,913	-0,041	-0,047
-145,789	-77,798	-0,052	0,013
-144,775	167,174	-0,097	0,100
-143,760	800,000	0,026	-0,061
-142,745	-136,507	0,027	0,002
-141,731	-56,050	0,104	-0,033
-140,716	529,386	0,085	-0,145
-139,702	-93,361	0,103	0,020
-138,687	800,000	-0,014	-0,034
-137,672	151,104	0,126	0,124
-136,658	-61,864	-0,170	0,051
-135,643	6,695	0,130	-0,069
-134,629	-95,016	-0,111	-0,021
-133,614	283,974	0,067	0,087
-132,599	177,872	0,051	0,054
-131,585	66,504	0,041	0,030
-130,570	4,181	-0,049	-0,026
-129,556	386,481	0,060	-0,089
-128,541	-200,000	0,007	-0,096
-127,526	-156,543	-0,026	0,001
-126,512	-200,000	0,005	0,045
-125,497	51,888	0,047	-0,032
-124,483	-115,377	0,022	-0,003
-123,468	340,963	-0,066	-0,093
-122,453	437,768	0,066	-0,103
-121,439	35,605	0,014	-0,009
-120,424	-200,000	0,031	-0,121
-119,410	800,000	0,035	-0,075
-118,395	-200,000	0,029	0,174
