DTS Sentinel unit serial number:	SN410029Multiplexer serial number:	ORYXHardware model number:	OX2-SRSoftware version number:	ORYX F/W v4,00 Oryx Data Collector v3.7.2.0data status	okinstallation	B5 Nyhavnadifferential loss correction	single-endedforward channel	channel 2reverse channel	N/Adate	2023/12/14time	12:17:13forward acquisition time	300,00reverse acquisition time	0,00gamma	499,1914k internal	0,3158k external	0,3158temperature offset calibration	1,0000default loss term (dB/km)	0,3820temperature slope calibration	1,0000multiplexer offset coefficient	1,0000multiplexer slope coefficient	1,0000fibre end	0,00T internal ref (°C)	7,74T ext. ref 1 (°C)	-7,75T ext. ref 2 (°C)	-7,78length (m)	temperature (°C)	Stokes	anti-Stokes-744,400	-171,410	0,162	0,004
-743,385	-108,657	-0,450	-0,070
-742,371	113,061	0,078	0,069
-741,356	-68,661	-0,258	-0,073
-740,342	-145,425	0,181	0,012
-739,327	-13,240	-0,398	-0,190
-738,312	246,723	0,080	-0,099
-737,298	-160,312	-0,259	-0,010
-736,283	724,354	0,076	0,151
-735,269	-81,053	-0,415	0,100
-734,254	-64,982	0,196	-0,058
-733,239	-67,396	-0,586	-0,168
-732,225	18,694	0,246	0,144
-731,210	13,745	-0,026	-0,015
-730,196	439,329	-0,104	-0,168
-729,181	-200,000	0,004	0,127
-728,167	50,126	-0,123	-0,086
-727,152	40,429	-0,036	-0,024
-726,137	-64,710	-0,111	-0,033
-725,123	-140,675	-0,126	-0,009
-724,108	-144,867	-0,170	-0,011
-723,094	481,871	-0,053	-0,089
-722,079	-107,983	-0,061	-0,010
-721,064	-200,000	-0,007	-0,040
-720,050	-151,326	-0,074	-0,004
-719,035	-200,000	0,000	-0,172
-718,021	-200,000	0,014	-0,052
-717,006	43,375	-0,156	-0,104
-715,991	800,000	0,018	-0,041
-714,977	-152,247	-0,075	0,004
-713,962	-117,108	-0,125	0,017
-712,948	-200,000	0,016	0,064
-711,933	447,953	0,047	0,077
-710,918	-200,000	-0,069	-0,000
-709,904	-122,377	-0,042	-0,005
-708,889	-91,975	-0,108	-0,022
-707,875	-200,000	-0,005	-0,061
-706,860	358,292	0,092	-0,136
-705,845	401,945	-0,024	0,037
-704,831	-200,000	-0,012	-0,066
-703,816	428,878	0,029	0,047
-702,802	-14,599	0,052	0,024
-701,787	-200,000	0,021	-0,105
-700,772	-200,000	-0,017	-0,166
-699,758	83,359	-0,030	0,024
-698,743	-137,610	0,170	0,014
-697,729	57,311	-0,061	-0,044
-696,714	222,769	-0,072	-0,085
-695,699	112,168	0,073	0,065
-694,685	36,146	-0,077	-0,050
-693,670	-200,000	-0,028	-0,118
-692,656	-200,000	-0,026	0,124
-691,641	764,662	-0,048	-0,097
-690,627	-61,252	-0,052	0,016
-689,612	-200,000	-0,007	-0,066
-688,597	800,000	-0,032	-0,081
-687,583	595,830	0,051	-0,094
-686,568	800,000	-0,044	0,094
-685,554	-77,337	0,082	-0,021
-684,539	-14,303	0,046	-0,022
-683,524	-141,269	-0,067	-0,005
-682,510	-200,000	-0,023	0,129
-681,495	114,135	-0,099	0,089
-680,481	-23,774	0,148	-0,065
-679,466	-0,623	-0,137	-0,071
-678,451	-122,620	-0,026	0,003
-677,437	-200,000	0,030	-0,141
-676,422	-200,000	0,003	-0,056
-675,408	-19,560	-0,110	0,050
-674,393	800,000	-0,041	-0,129
-673,378	-73,823	-0,085	-0,023
-672,364	-47,945	-0,034	-0,012
-671,349	-200,000	-0,046	-0,208
-670,335	-200,000	0,029	0,098
-669,320	-200,000	0,015	-0,052
-668,305	-200,000	0,006	0,074
-667,291	128,485	0,059	-0,056
-666,276	482,910	-0,050	-0,085
-665,262	27,577	-0,048	-0,029
-664,247	-71,582	-0,050	-0,014
-663,232	800,000	-0,053	0,121
-662,218	-200,000	0,011	-0,094
-661,203	-200,000	-0,007	0,080
-660,189	78,708	-0,095	0,074
-659,174	-200,000	0,000	-0,013
-658,159	182,062	-0,033	-0,036
-657,145	-200,000	0,025	-0,162
-656,130	33,387	0,096	0,061
-655,116	-200,000	-0,021	-0,093
-654,101	71,985	0,150	0,114
-653,086	2,697	0,073	0,039
-652,072	646,495	0,086	-0,162
-651,057	95,336	0,073	-0,061
-650,043	55,136	-0,119	-0,084
-649,028	334,562	0,011	-0,016
-648,014	-131,640	-0,082	0,008
-646,999	-200,000	-0,013	0,045
-645,984	-17,529	-0,034	-0,016
-644,970	184,912	0,024	0,027
-643,955	96,223	-0,085	-0,072
-642,941	-47,531	-0,120	-0,043
-641,926	-200,000	-0,002	-0,024
-640,911	703,303	0,055	0,107
-639,897	211,678	0,084	0,097
-638,882	-200,000	-0,015	0,095
-637,868	257,900	-0,043	-0,054
-636,853	194,557	0,032	0,036
-635,838	-65,329	-0,100	-0,029
-634,824	155,128	0,046	0,047
-633,809	-40,026	-0,102	0,039
-632,795	-25,393	0,097	0,042
-631,780	627,370	-0,048	0,089
-630,765	190,325	-0,079	0,087
-629,751	-200,000	0,014	-0,108
-628,736	276,882	-0,034	-0,044
-627,722	800,000	-0,050	-0,133
-626,707	427,780	-0,067	-0,107
-625,692	800,000	0,014	-0,041
-624,678	-200,000	0,018	-0,095
-623,663	-42,882	-0,106	-0,039
-622,649	51,526	-0,121	-0,084
-621,634	-84,099	-0,060	-0,014
-620,619	355,383	-0,027	-0,039
-619,605	557,444	-0,071	0,127
-618,590	13,387	0,043	-0,024
-617,576	-200,000	-0,043	-0,144
-616,561	39,575	0,073	0,048
-615,546	-32,622	-0,096	-0,039
-614,532	800,000	0,046	-0,101
-613,517	-52,125	-0,116	0,039
-612,503	-51,309	0,155	0,053
-611,488	-141,080	-0,037	-0,003
-610,474	-19,990	-0,051	-0,023
-609,459	-30,400	-0,023	0,010
-608,444	29,534	-0,017	-0,011
-607,430	-200,000	-0,002	-0,176
-606,415	88,887	-0,134	0,110
-605,401	54,706	-0,042	0,030
-604,386	-200,000	0,005	-0,049
-603,371	-136,945	0,148	-0,012
-602,357	104,879	-0,078	-0,068
-601,342	67,779	-0,069	0,052
-600,328	800,000	0,052	-0,115
-599,313	-200,000	0,001	-0,075
-598,298	-77,498	-0,035	-0,009
-597,284	392,110	0,032	-0,049
-596,269	800,000	-0,062	-0,137
-595,255	-138,452	0,091	0,007
-594,240	134,281	0,022	-0,021
-593,225	189,658	-0,153	-0,168
-592,211	-175,614	0,049	-0,001
-591,196	-153,452	-0,081	0,004
-590,182	529,721	0,041	-0,072
-589,167	-118,825	-0,012	0,002
-588,152	-74,228	0,005	-0,001
-587,138	-200,000	-0,014	-0,048
-586,123	235,069	0,162	-0,196
-585,109	-38,654	-0,086	-0,033
-584,094	-9,581	0,005	-0,002
-583,079	-200,000	0,020	0,141
-582,065	143,080	-0,060	0,058
-581,050	800,000	0,011	-0,030
-580,036	800,000	0,036	-0,093
-579,021	-200,000	0,006	-0,029
-578,006	90,308	-0,050	-0,041
-576,992	130,256	-0,069	0,065
-575,977	-91,725	-0,087	-0,018
-574,963	126,528	0,010	-0,009
-573,948	58,965	0,068	-0,049
-572,934	-89,240	-0,157	0,034
-571,919	-143,666	-0,072	-0,005
-570,904	-102,523	-0,092	0,016
-569,890	-200,000	-0,014	-0,081
-568,875	-15,780	0,123	0,057
-567,861	-101,237	-0,143	-0,025
-566,846	800,000	-0,022	0,053
-565,831	-64,478	0,095	-0,028
-564,817	-200,000	-0,009	-0,069
-563,802	680,733	0,039	-0,075
-562,788	-167,157	-0,035	0,001
-561,773	48,558	-0,080	-0,055
-560,758	122,911	-0,106	0,097
-559,744	444,454	0,042	-0,067
-558,729	-52,367	0,071	0,024
-557,715	-200,000	0,006	-0,105
-556,700	330,828	-0,013	0,018
-555,685	420,601	-0,040	0,063
-554,671	-45,632	0,173	-0,062
-553,656	-91,284	0,174	0,036
-552,642	316,054	0,048	0,067
-551,627	-200,000	-0,011	-0,088
-550,612	284,409	-0,073	0,096
-549,598	-200,000	0,010	-0,083
-548,583	800,000	0,042	0,099
-547,569	149,073	-0,070	-0,069
-546,554	262,800	-0,007	0,008
-545,539	-200,000	0,012	0,053
-544,525	-200,000	0,038	0,122
-543,510	254,515	0,033	0,042
-542,496	-200,000	-0,015	-0,070
-541,481	7,708	0,088	0,048
-540,466	-19,471	0,098	-0,044
-539,452	115,120	-0,084	-0,075
-538,437	800,000	-0,033	0,078
-537,423	43,120	-0,041	0,027
-536,408	-200,000	0,018	0,141
-535,393	212,062	-0,058	-0,067
-534,379	-200,000	0,001	-0,013
-533,364	296,581	-0,041	0,054
-532,350	800,000	0,023	0,047
-531,335	-22,984	-0,110	0,048
-530,321	-200,000	0,024	0,105
-529,306	391,175	0,068	-0,104
-528,291	461,792	0,036	-0,058
-527,277	275,478	-0,049	0,064
-526,262	800,000	-0,030	-0,085
-525,248	764,804	0,030	0,060
-524,233	83,224	0,047	-0,037
-523,218	-199,329	-0,023	0,000
-522,204	-22,476	0,048	-0,021
-521,189	-16,437	-0,165	0,076
-520,175	125,861	-0,124	-0,115
-519,160	-200,000	0,001	-0,098
-518,145	-56,981	0,084	0,027
-517,131	-177,050	0,098	0,002
-516,116	-200,000	-0,004	0,092
-515,102	438,718	-0,026	0,041
-514,087	-28,141	0,044	-0,019
-513,072	747,480	-0,080	-0,158
-512,058	-200,000	-0,013	-0,117
-511,043	-200,000	0,003	0,103
-510,029	-51,287	0,148	0,050
-509,014	800,000	0,070	0,172
-507,999	-122,328	-0,108	-0,013
-506,985	800,000	-0,040	0,085
-505,970	-6,551	0,062	-0,031
-504,956	-42,133	-0,117	-0,043
-503,941	196,929	0,056	0,062
-502,926	36,046	-0,169	0,108
-501,912	800,000	-0,061	0,148
-500,897	800,000	-0,053	0,116
-499,883	-200,000	0,018	-0,078
-498,868	30,142	0,066	0,041
-497,853	-138,492	-0,088	-0,007
-496,839	-200,000	0,054	0,194
-495,824	-200,000	-0,013	-0,084
-494,810	334,501	0,058	0,082
-493,795	-46,598	0,025	-0,009
-492,781	-168,818	0,047	-0,001
-491,766	110,675	-0,105	-0,092
-490,751	25,935	-0,031	-0,019
-489,737	182,055	-0,037	-0,039
-488,722	-142,557	0,055	-0,004
-487,708	-200,000	0,041	0,139
-486,693	-200,000	0,006	0,152
-485,678	-98,982	0,036	0,007
-484,664	-200,000	0,011	-0,053
-483,649	-73,546	-0,098	-0,026
-482,635	-200,000	-0,005	-0,084
-481,620	86,074	0,107	0,086
-480,605	-43,374	0,058	0,021
-479,591	800,000	-0,057	0,125
-478,576	800,000	0,028	-0,062
-477,562	-18,806	-0,066	0,030
-476,547	512,004	-0,082	-0,140
-475,532	103,894	-0,027	-0,023
-474,518	800,000	-0,051	-0,137
-473,503	-167,171	0,118	-0,003
-472,489	-135,097	0,071	-0,006
-471,474	72,591	-0,057	0,043
-470,459	-200,000	-0,017	-0,082
-469,445	-68,340	-0,075	-0,021
-468,430	-200,000	-0,009	-0,088
-467,416	-200,000	-0,039	-0,126
-466,401	75,029	-0,114	0,088
-465,386	-6,636	0,045	0,022
-464,372	-200,000	0,011	-0,129
-463,357	-27,949	-0,041	-0,017
-462,343	800,000	-0,066	-0,151
-461,328	-127,146	0,111	0,012
-460,313	800,000	-0,023	-0,051
-459,299	-72,599	0,098	-0,026
-458,284	800,000	0,032	-0,081
-457,270	-200,000	-0,007	-0,031
-456,255	-22,688	-0,150	0,066
-455,241	50,929	-0,085	0,059
-454,226	-200,000	-0,016	-0,081
-453,211	-200,000	0,022	0,164
-452,197	4,317	0,035	-0,018
-451,182	-116,203	0,077	-0,010
-450,168	800,000	0,048	0,106
-449,153	-75,141	-0,128	0,033
-448,138	-200,000	0,004	-0,094
-447,124	249,269	-0,065	-0,080
-446,109	-200,000	0,020	-0,095
-445,095	238,299	-0,050	0,061
-444,080	-200,000	-0,029	0,115
-443,065	-200,000	-0,004	-0,064
-442,051	47,592	0,093	0,063
-441,036	800,000	-0,026	-0,058
-440,022	42,208	-0,041	-0,027
-439,007	9,517	0,082	-0,045
-437,992	-94,822	-0,066	0,013
-436,978	-200,000	-0,006	-0,158
-435,963	332,999	0,074	0,104
-434,949	-68,087	0,039	0,011
-433,934	800,000	-0,013	-0,040
-432,919	-1,265	-0,070	-0,036
-431,905	-200,000	0,013	0,065
-430,890	-64,868	-0,058	0,017
-429,876	42,243	0,103	0,068
-428,861	-200,000	-0,002	0,030
-427,846	101,615	0,049	0,041
-426,832	800,000	0,004	0,011
-425,817	-200,000	0,016	-0,127
-424,803	506,636	0,062	0,105
-423,788	-71,974	0,050	0,014
-422,773	84,321	0,106	0,085
-421,759	-115,408	-0,092	-0,013
-420,744	573,009	-0,086	0,153
-419,730	127,025	0,077	0,071
-418,715	431,487	-0,034	0,053
-417,701	800,000	-0,029	-0,078
-416,686	800,000	0,060	0,145
-415,671	5,151	-0,016	-0,009
-414,657	91,903	0,167	0,137
-413,642	166,316	-0,132	-0,136
-412,628	-50,547	-0,070	-0,024
-411,613	-24,133	-0,103	0,045
-410,598	690,178	0,021	-0,040
-409,584	-200,000	-0,017	0,158
-408,569	305,488	0,135	0,183
-407,555	-52,893	0,054	-0,018
-406,540	-59,011	0,072	-0,022
-405,525	-200,000	-0,011	-0,045
-404,511	-200,000	-0,000	-0,028
-403,496	-200,000	-0,030	-0,164
-402,482	-103,218	0,154	0,026
-401,467	800,000	0,036	0,073
-400,452	217,895	-0,048	-0,056
-399,438	197,838	0,105	-0,116
-398,423	261,660	-0,122	-0,154
-397,409	88,484	0,127	-0,102
-396,394	800,000	-0,023	-0,066
-395,379	6,904	-0,070	0,038
-394,365	352,124	0,052	0,075
-393,350	76,299	0,083	0,064
-392,336	-120,831	0,067	-0,008
-391,321	46,901	0,017	-0,011
-390,306	800,000	0,072	-0,181
-389,292	11,782	0,032	-0,018
-388,277	-200,000	-0,006	0,169
-387,263	-46,462	0,174	0,062
-386,248	61,150	-0,057	-0,041
-385,233	800,000	-0,051	0,121
-384,219	-56,583	-0,120	-0,038
-383,204	-71,190	-0,110	-0,030
-382,190	800,000	-0,017	-0,039
-381,175	197,601	-0,030	0,033
-380,160	-61,111	0,029	-0,009
-379,146	362,461	-0,060	0,087
-378,131	-189,330	0,148	0,001
-377,117	-163,642	-0,142	0,005
-376,102	-74,696	0,047	0,012
-375,088	-96,897	0,077	0,015
-374,073	-103,675	-0,082	-0,014
-373,058	-128,049	-0,145	0,015
-372,044	25,403	0,069	0,042
-371,029	800,000	-0,021	-0,048
-370,015	-200,000	0,037	0,157
-369,000	446,984	0,033	0,053
-367,985	228,504	0,136	-0,162
-366,971	38,436	0,130	0,084
-365,956	21,215	0,057	0,033
-364,942	375,151	0,043	0,063
-363,927	105,450	-0,036	-0,031
-362,912	-29,060	0,056	-0,023
-361,898	631,492	-0,037	0,069
-360,883	-12,921	0,119	-0,056
-359,869	-88,774	0,031	-0,007
-358,854	-74,875	0,057	0,015
-357,839	-6,904	0,236	0,116
-356,825	-0,346	-0,088	0,045
-355,810	224,272	-0,070	0,082
-354,796	622,777	0,004	-0,007
-353,781	-157,471	0,070	-0,003
-352,766	800,000	0,015	-0,044
-351,752	27,767	-0,042	-0,026
-350,737	-77,881	0,033	-0,008
-349,723	348,683	0,087	0,125
-348,708	-71,135	0,066	0,018
-347,693	271,682	-0,091	-0,117
-346,679	-200,000	-0,035	-0,184
-345,664	566,451	-0,148	-0,261
-344,650	48,348	0,061	-0,042
-343,635	-118,491	-0,015	-0,002
-342,620	416,431	-0,019	0,030
-341,606	376,818	0,058	0,087
-340,591	-200,000	0,000	0,141
-339,577	-2,322	-0,102	-0,052
-338,562	-135,962	0,142	-0,012
-337,548	108,479	0,051	0,045
-336,533	60,654	0,107	0,077
-335,518	-97,383	-0,080	0,015
-334,504	274,392	0,059	0,076
-333,489	-30,475	-0,076	0,031
-332,475	618,479	0,045	-0,082
-331,460	-200,000	-0,008	-0,114
-330,445	-160,724	-0,112	0,004
-329,431	-200,000	-0,030	0,100
-328,416	57,829	0,062	0,044
-327,402	252,232	0,042	-0,052
-326,387	-200,000	-0,008	0,034
-325,372	-24,581	0,064	-0,028
-324,358	27,181	-0,097	-0,059
-323,343	-200,000	-0,017	0,054
-322,329	117,478	0,116	0,103
-321,314	-200,000	-0,046	0,196
-320,299	-17,478	-0,061	0,028
-319,285	-50,343	-0,050	-0,017
-318,270	-41,989	0,110	-0,040
-317,256	800,000	0,048	0,124
-316,241	166,358	-0,088	-0,090
-315,226	-39,759	0,127	-0,048
-314,212	42,628	0,125	0,083
-313,197	-56,513	-0,119	-0,038
-312,183	13,038	0,058	-0,032
-311,168	241,601	0,009	0,011
-310,153	-56,041	0,013	-0,004
-309,139	59,473	-0,178	0,127
-308,124	-200,000	-0,016	0,056
-307,110	90,831	0,062	0,051
-306,095	109,364	-0,059	0,051
-305,080	800,000	0,034	-0,093
-304,066	78,055	-0,011	0,009
-303,051	800,000	-0,021	-0,047
-302,037	520,070	-0,059	-0,101
-301,022	-85,410	-0,046	0,010
-300,008	800,000	0,031	0,077
-298,993	-200,000	-0,009	0,055
-297,978	173,996	-0,050	0,053
-296,964	-38,421	-0,046	0,018
-295,949	-29,221	-0,167	0,069
-294,935	13,995	0,012	-0,007
-293,920	-200,000	-0,004	0,049
-292,905	-193,551	0,029	-0,000
-291,891	550,605	0,074	-0,130
-290,876	-200,000	-0,002	0,121
-289,862	-200,000	-0,027	-0,103
-288,847	-200,000	0,006	-0,086
-287,832	-200,000	-0,017	0,075
-286,818	-200,000	-0,012	0,061
-285,803	-99,860	0,080	0,014
-284,789	800,000	0,019	0,059
-283,774	-64,478	-0,133	0,039
-282,759	-56,664	0,118	-0,038
-281,745	-200,000	0,004	0,131
-280,730	800,000	-0,038	-0,119
-279,716	23,481	-0,134	-0,079
-278,701	-15,496	0,122	0,056
-277,686	-106,657	-0,083	-0,013
-276,672	-200,000	0,087	-0,000
-275,657	-200,000	-0,036	0,159
-274,643	800,000	-0,038	0,081
-273,628	-49,279	0,082	-0,028
-272,613	-3,525	-0,015	-0,008
-271,599	800,000	0,027	-0,057
-270,584	-200,000	0,013	0,069
-269,570	-200,000	-0,015	-0,111
-268,555	606,616	0,047	-0,085
-267,540	-200,000	0,009	-0,065
-266,526	800,000	0,092	-0,226
-265,511	100,933	-0,051	-0,043
-264,497	-116,284	-0,063	-0,008
-263,482	-38,053	0,130	0,050
-262,467	800,000	0,031	-0,073
-261,453	204,604	0,039	0,044
-260,438	-43,824	-0,075	-0,027
-259,424	-200,000	-0,019	-0,133
-258,409	83,217	0,136	-0,107
-257,395	-200,000	0,004	-0,033
-256,380	-81,522	0,140	-0,033
-255,365	-69,586	-0,172	-0,047
-254,351	613,207	-0,041	-0,074
-253,336	273,570	-0,055	0,070
-252,322	721,891	-0,087	-0,168
-251,307	39,823	-0,042	-0,027
-250,292	108,034	0,045	-0,039
-249,278	-27,323	0,056	0,024
-248,263	800,000	0,017	-0,043
-247,249	25,471	0,087	-0,052
-246,234	800,000	0,026	-0,061
-245,219	-77,095	0,056	-0,014
-244,205	157,980	0,059	-0,059
-243,190	481,248	0,042	0,070
-242,176	-200,000	0,007	-0,087
-241,161	800,000	-0,050	0,130
-240,146	160,716	-0,127	0,129
-239,132	800,000	0,018	0,049
-238,117	-29,389	-0,090	-0,037
-237,103	167,296	0,063	-0,065
-236,088	-200,000	-0,001	-0,045
-235,073	758,477	0,025	-0,050
-234,059	-80,461	-0,061	0,015
-233,044	800,000	0,043	0,108
-232,030	158,518	-0,085	-0,085
-231,015	609,142	-0,018	0,032
-230,000	-105,726	0,176	0,028
-228,986	96,831	-0,047	-0,039
-227,971	324,927	-0,032	-0,045
-226,957	84,909	0,037	-0,029
-225,942	-200,000	-0,047	0,175
-224,927	-80,309	0,161	0,038
-223,913	128,027	-0,035	0,032
-222,898	360,673	-0,040	0,057
-221,884	800,000	-0,042	0,086
-220,869	-27,522	0,066	-0,028
-219,855	-200,000	-0,003	-0,045
-218,840	-167,491	0,073	0,002
-217,825	800,000	-0,005	0,013
-216,811	138,531	0,033	0,031
-215,796	-200,000	-0,025	-0,180
-214,782	-148,070	0,111	-0,007
-213,767	-200,000	-0,010	-0,090
-212,752	800,000	-0,060	0,172
-211,738	-152,394	-0,050	-0,003
-210,723	-47,680	-0,071	0,025
-209,709	34,933	0,139	0,088
-208,694	-143,315	-0,180	-0,012
-207,679	-41,172	0,050	0,019
-206,665	-77,841	0,092	0,023
-205,650	132,174	0,118	-0,110
-204,636	800,000	-0,034	0,069
-203,621	29,239	-0,103	0,063
-202,606	796,875	0,058	-0,116
-201,592	89,822	-0,068	-0,055
-200,577	-139,641	-0,089	0,007
-199,563	-69,718	0,099	0,027
-198,548	370,652	0,087	0,128
-197,533	-20,850	0,043	-0,019
-196,519	-49,229	0,044	-0,015
-195,504	792,617	-0,036	-0,072
-194,490	800,000	0,071	0,144
-193,475	-137,143	0,063	-0,005
-192,460	-52,870	-0,081	-0,027
-191,446	45,372	0,102	0,068
-190,431	-200,000	0,046	0,174
-189,417	-14,705	0,073	-0,034
-188,402	211,020	-0,067	0,076
-187,387	-200,000	-0,011	-0,048
-186,373	-200,000	0,005	-0,029
-185,358	-166,855	0,118	-0,003
-184,344	-25,768	-0,122	0,052
-183,329	-200,000	-0,015	0,066
-182,315	-200,000	-0,008	-0,037
-181,300	236,808	-0,034	0,041
-180,285	139,961	0,125	-0,119
-179,271	207,320	-0,038	-0,043
-178,256	39,718	-0,027	0,017
-177,242	-200,000	0,018	0,096
-176,227	-200,000	-0,002	-0,020
-175,212	339,194	0,047	0,066
-174,198	58,486	0,116	-0,082
-173,183	45,163	-0,101	0,067
-172,169	-200,000	-0,030	0,109
-171,154	-200,000	0,008	-0,036
-170,139	-50,958	-0,016	0,006
-169,125	-86,531	0,172	0,038
-168,110	248,570	-0,018	0,021
-167,096	93,384	-0,032	0,026
-166,081	132,392	0,028	0,026
-165,066	188,261	-0,060	-0,065
-164,052	-200,000	0,005	-0,093
-163,037	-22,975	0,012	0,005
-162,023	249,678	-0,033	0,040
-161,008	7,214	0,028	0,015
-159,993	-109,382	-0,033	0,005
-158,979	34,362	-0,039	0,024
-157,964	39,272	-0,057	0,037
-156,950	283,178	-0,058	-0,075
-155,935	389,096	0,031	-0,047
-154,920	80,130	0,112	0,087
-153,906	409,950	-0,058	0,089
-152,891	148,074	0,018	-0,017
-151,877	70,702	0,132	-0,098
-150,862	20,039	-0,055	-0,032
-149,847	200,134	-0,077	-0,085
-148,833	218,845	0,072	-0,083
-147,818	-79,781	0,089	0,021
-146,804	-94,992	0,087	0,017
-145,789	-15,622	0,081	0,037
-144,775	-45,853	0,055	-0,019
-143,760	22,045	-0,029	-0,017
-142,745	162,533	0,054	-0,055
-141,731	-82,324	0,106	0,025
-140,716	-200,000	0,003	-0,090
-139,702	54,524	-0,014	-0,010
-138,687	183,837	0,033	0,035
-137,672	112,388	0,036	-0,031
-136,658	-192,462	0,056	0,000
-135,643	800,000	-0,029	0,087
-134,629	-200,000	0,022	0,082
-133,614	-200,000	0,003	0,086
-132,599	153,767	0,071	-0,070
-131,585	800,000	-0,021	0,055
-130,570	800,000	-0,023	-0,058
-129,556	3,405	0,059	-0,031
-128,541	-116,698	-0,151	0,020
-127,526	-64,900	-0,033	0,010
-126,512	72,644	0,092	0,069
-125,497	78,890	0,123	0,095
-124,483	800,000	-0,040	0,107
-123,468	-94,234	-0,053	0,010
-122,453	-200,000	0,000	-0,027
-121,439	-115,083	-0,141	0,019
-120,424	706,608	0,075	-0,143
