DTS Sentinel unit serial number:	SN410029Multiplexer serial number:	ORYXHardware model number:	OX2-SRSoftware version number:	ORYX F/W v4,00 Oryx Data Collector v3.7.2.0data status	okinstallation	B5 Nyhavnadifferential loss correction	single-endedforward channel	channel 2reverse channel	N/Adate	2023/12/11time	22:07:13forward acquisition time	300,00reverse acquisition time	0,00gamma	499,1914k internal	0,3156k external	0,3156temperature offset calibration	1,0000default loss term (dB/km)	0,3820temperature slope calibration	1,0000multiplexer offset coefficient	1,0000multiplexer slope coefficient	1,0000fibre end	0,00T internal ref (°C)	16,31T ext. ref 1 (°C)	0,09T ext. ref 2 (°C)	-0,14length (m)	temperature (°C)	Stokes	anti-Stokes-744,400	489,147	0,083	0,140
-743,385	19,332	-0,343	-0,203
-742,371	-54,963	0,164	-0,054
-741,356	-117,190	-0,303	0,040
-740,342	55,524	0,108	0,077
-739,327	2,328	-0,215	0,115
-738,312	97,705	-0,029	0,024
-737,298	-74,313	-0,346	-0,092
-736,283	800,000	-0,006	-0,014
-735,269	-143,959	-0,233	0,016
-734,254	-200,000	-0,004	0,017
-733,239	-23,561	-0,452	-0,199
-732,225	-76,245	0,230	0,059
-731,210	334,441	-0,015	0,021
-730,196	800,000	0,100	-0,210
-729,181	-200,000	-0,033	0,169
-728,167	212,901	0,077	0,089
-727,152	153,920	-0,041	0,042
-726,137	-53,621	-0,084	0,028
-725,123	-175,470	-0,092	0,002
-724,108	-200,000	0,017	-0,110
-723,094	800,000	-0,095	-0,277
-722,079	-117,404	-0,090	0,012
-721,064	-105,951	0,146	0,024
-720,050	-200,000	-0,005	0,026
-719,035	49,591	-0,107	0,074
-718,021	163,856	-0,055	0,057
-717,006	-65,952	0,058	0,017
-715,991	-133,774	-0,122	0,011
-714,977	-120,930	0,066	-0,008
-713,962	257,466	0,037	-0,047
-712,948	800,000	-0,023	0,056
-711,933	-200,000	-0,013	-0,051
-710,918	28,662	-0,073	-0,046
-709,904	137,555	-0,130	-0,126
-708,889	-200,000	0,000	-0,089
-707,875	800,000	-0,029	-0,089
-706,860	800,000	-0,027	0,059
-705,845	800,000	-0,058	0,123
-704,831	246,569	0,050	0,062
-703,816	40,696	0,064	-0,042
-702,802	160,814	0,013	-0,014
-701,787	800,000	-0,001	-0,002
-700,772	20,570	-0,035	-0,021
-699,758	800,000	0,048	-0,115
-698,743	463,119	0,084	0,139
-697,729	264,949	-0,043	0,056
-696,714	-200,000	-0,012	0,129
-695,699	800,000	-0,054	-0,167
-694,685	-74,719	-0,091	-0,024
-693,670	-200,000	-0,008	0,130
-692,656	464,172	0,009	-0,014
-691,641	-121,880	0,046	0,005
-690,627	488,554	-0,103	0,174
-689,612	789,763	0,018	-0,037
-688,597	-200,000	-0,001	-0,028
-687,583	-96,175	0,111	0,022
-686,568	-12,723	-0,027	0,013
-685,554	-26,771	-0,024	-0,010
-684,539	37,351	-0,094	-0,061
-683,524	-34,502	0,069	0,028
-682,510	169,855	0,056	-0,059
-681,495	-200,000	0,029	0,125
-680,481	-200,000	-0,112	0,000
-679,466	-200,000	0,000	0,127
-678,451	349,387	0,027	-0,039
-677,437	-200,000	-0,021	0,108
-676,422	32,807	0,063	-0,040
-675,408	-158,662	0,063	-0,003
-674,393	-173,932	-0,090	0,002
-673,378	119,506	-0,145	-0,132
-672,364	-161,712	-0,058	0,002
-671,349	800,000	0,027	-0,070
-670,335	323,710	0,025	0,035
-669,320	32,058	-0,078	-0,050
-668,305	46,351	-0,016	0,011
-667,291	-200,000	0,018	0,159
-666,276	76,810	0,044	-0,035
-665,262	-35,243	-0,104	-0,041
-664,247	-34,084	0,099	0,040
-663,232	-56,734	-0,140	-0,045
-662,218	234,728	0,023	-0,028
-661,203	-200,000	0,009	0,040
-660,189	-153,688	0,064	0,003
-659,174	235,772	-0,114	-0,139
-658,159	-200,000	0,005	-0,170
-657,145	800,000	-0,015	0,032
-656,130	-135,328	-0,078	-0,007
-655,116	295,967	0,039	-0,052
-654,101	28,236	0,112	-0,069
-653,086	404,297	-0,046	-0,072
-652,072	-200,000	-0,006	-0,106
-651,057	39,413	-0,031	0,020
-650,043	800,000	-0,070	-0,152
-649,028	800,000	0,053	-0,151
-648,014	220,337	-0,035	-0,041
-646,999	12,551	-0,072	-0,041
-645,984	-105,215	-0,181	0,030
-644,970	170,608	0,074	0,078
-643,955	-200,000	-0,004	0,055
-642,941	177,547	0,071	-0,076
-641,926	131,014	0,096	0,090
-640,911	-176,843	0,098	0,002
-639,897	-200,000	-0,008	0,124
-638,882	410,901	0,018	-0,029
-637,868	-117,227	-0,079	0,010
-636,853	151,795	0,032	0,032
-635,838	303,113	-0,093	-0,126
-634,824	-74,384	-0,095	-0,025
-633,809	-9,209	0,042	0,021
-632,795	-158,407	-0,061	0,003
-631,780	-200,000	-0,014	0,050
-630,765	147,271	-0,046	-0,045
-629,751	-200,000	0,006	0,041
-628,736	192,274	-0,030	-0,033
-627,722	435,540	-0,023	-0,037
-626,707	103,765	-0,083	-0,071
-625,692	-77,373	-0,109	-0,028
-624,678	-200,000	0,002	0,020
-623,663	134,395	-0,054	-0,052
-622,649	106,227	-0,032	-0,028
-621,634	-200,000	-0,030	0,103
-620,619	114,392	-0,112	-0,100
-619,605	-86,669	0,092	-0,021
-618,590	36,947	0,011	-0,007
-617,576	188,786	0,074	0,082
-616,561	-33,558	-0,081	-0,033
-615,546	80,836	-0,013	-0,011
-614,532	-46,147	-0,144	-0,052
-613,517	-2,436	0,025	-0,013
-612,503	227,643	-0,101	-0,121
-611,488	-79,138	0,063	-0,016
-610,474	33,276	0,114	0,073
-609,459	800,000	0,033	-0,070
-608,444	-43,490	-0,072	0,027
-607,430	-200,000	-0,003	-0,121
-606,415	-200,000	0,003	0,048
-605,401	-55,118	0,062	-0,020
-604,386	228,830	0,055	0,066
-603,371	-62,855	0,013	-0,004
-602,357	-167,557	-0,039	-0,001
-601,342	-158,111	-0,019	-0,001
-600,328	-86,770	0,072	0,016
-599,313	73,450	-0,137	-0,105
-598,298	733,323	-0,009	0,018
-597,284	196,189	0,139	0,155
-596,269	207,837	0,033	0,038
-595,255	-114,571	0,104	-0,014
-594,240	4,456	-0,164	-0,088
-593,225	-61,329	0,113	-0,035
-592,211	-35,689	-0,039	-0,016
-591,196	-200,000	0,010	0,093
-590,182	-200,000	-0,002	0,122
-589,167	59,972	0,060	-0,043
-588,152	777,700	-0,044	-0,089
-587,138	-200,000	-0,018	-0,059
-586,123	344,003	0,070	0,101
-585,109	800,000	-0,003	-0,010
-584,094	-200,000	-0,015	-0,098
-583,079	61,731	-0,068	0,050
-582,065	-10,911	0,123	-0,059
-581,050	636,687	-0,070	0,132
-580,036	-200,000	0,003	0,051
-579,021	-187,665	-0,031	0,000
-578,006	-200,000	-0,002	-0,061
-576,992	265,218	-0,060	0,077
-575,977	-200,000	0,019	-0,064
-574,963	-200,000	0,004	-0,048
-573,948	-100,455	0,026	0,005
-572,934	-124,588	-0,055	0,006
-571,919	-200,000	-0,017	-0,110
-570,904	599,294	0,051	-0,094
-569,890	-128,366	-0,044	-0,005
-568,875	800,000	0,032	0,104
-567,861	800,000	0,015	-0,041
-566,846	-200,000	-0,027	0,140
-565,831	-200,000	-0,023	-0,139
-564,817	-200,000	-0,042	0,143
-563,802	800,000	-0,014	0,037
-562,788	121,263	0,132	-0,121
-561,773	800,000	0,057	0,179
-560,758	-200,000	-0,017	-0,112
-559,744	-200,000	0,019	0,139
-558,729	800,000	0,032	0,083
-557,715	-51,322	-0,219	0,075
-556,700	-200,000	-0,016	-0,065
-555,685	800,000	0,025	-0,063
-554,671	194,715	0,036	0,041
-553,656	-200,000	0,006	-0,160
-552,642	-187,158	0,074	0,001
-551,627	-13,313	0,077	0,036
-550,612	-41,588	0,035	-0,013
-549,598	751,061	-0,019	-0,038
-548,583	459,755	-0,012	0,020
-547,569	-200,000	0,018	0,131
-546,554	-200,000	-0,034	0,118
-545,539	800,000	0,044	0,113
-544,525	87,223	0,094	0,076
-543,510	-104,802	-0,105	0,017
-542,496	52,586	-0,108	-0,076
-541,481	-74,263	0,163	0,043
-540,466	-156,552	-0,052	-0,002
-539,452	317,970	0,046	-0,064
-538,437	-200,000	-0,009	-0,103
-537,423	-200,000	-0,009	0,073
-536,408	106,619	-0,014	0,012
-535,393	800,000	-0,043	-0,097
-534,379	17,968	-0,153	-0,089
-533,364	44,093	0,131	-0,088
-532,350	130,676	-0,026	0,024
-531,335	-89,884	0,061	-0,013
-530,321	137,803	0,116	-0,111
-529,306	-53,629	-0,141	-0,047
-528,291	800,000	-0,023	-0,057
-527,277	104,477	0,124	0,107
-526,262	800,000	0,023	-0,049
-525,248	-200,000	-0,003	-0,082
-524,233	-200,000	-0,000	0,177
-523,218	766,909	-0,036	-0,072
-522,204	-200,000	0,037	-0,136
-521,189	454,220	0,046	-0,075
-520,175	-7,527	0,039	-0,019
-519,160	768,182	0,078	-0,157
-518,145	-47,818	-0,110	-0,039
-517,131	-200,000	0,007	-0,049
-516,116	326,209	-0,008	0,011
-515,102	278,309	-0,103	0,135
-514,087	81,700	0,045	-0,035
-513,072	238,667	-0,008	-0,009
-512,058	-51,308	0,123	-0,042
-511,043	143,193	0,026	0,025
-510,029	509,433	0,054	0,092
-509,014	-55,951	0,106	0,035
-507,999	-102,606	-0,099	0,017
-506,985	800,000	0,019	0,044
-505,970	-200,000	-0,031	-0,135
-504,956	46,656	-0,047	-0,032
-503,941	-43,990	-0,076	-0,028
-502,926	-180,121	0,105	0,002
-501,912	-200,000	-0,036	0,123
-500,897	800,000	-0,013	0,039
-499,883	-16,928	-0,101	0,046
-498,868	-39,920	0,180	-0,068
-497,853	111,679	-0,094	-0,083
-496,839	-91,957	-0,058	0,012
-495,824	-200,000	0,009	0,086
-494,810	27,100	0,077	-0,047
-493,795	800,000	0,064	-0,143
-492,781	162,041	-0,051	-0,052
-491,766	82,310	0,043	-0,034
-490,751	-46,131	-0,258	0,092
-489,737	-88,559	0,113	-0,024
-488,722	-112,907	-0,125	-0,018
-487,708	294,239	0,073	0,098
-486,693	800,000	-0,058	-0,157
-485,678	122,144	-0,098	-0,090
-484,664	257,193	-0,125	-0,157
-483,649	-68,152	0,029	-0,008
-482,635	-200,000	0,032	-0,105
-481,620	-167,611	0,082	0,002
-480,605	-18,392	0,077	0,035
-479,591	-200,000	-0,016	-0,072
-478,576	263,829	-0,065	-0,082
-477,562	629,031	-0,077	-0,143
-476,547	215,674	-0,058	-0,067
-475,532	116,986	-0,068	-0,061
-474,518	-200,000	0,006	-0,114
-473,503	471,377	0,048	0,080
-472,489	69,781	-0,010	-0,008
-471,474	242,146	0,051	0,063
-470,459	-23,393	0,047	-0,021
-469,445	800,000	-0,026	-0,070
-468,430	57,158	-0,138	-0,098
-467,416	123,952	-0,058	0,053
-466,401	26,790	-0,028	0,017
-465,386	-88,370	-0,059	-0,013
-464,372	-200,000	-0,031	0,120
-463,357	249,517	-0,034	-0,042
-462,343	-117,311	-0,038	0,005
-461,328	633,128	0,011	-0,021
-460,313	-6,624	0,117	0,058
-459,299	-87,379	0,153	-0,034
-458,284	380,203	-0,040	0,061
-457,270	-104,056	0,085	0,014
-456,255	23,802	-0,057	-0,034
-455,241	701,512	-0,017	-0,033
-454,226	-200,000	-0,025	-0,161
-453,211	319,894	-0,053	0,073
-452,197	456,314	0,079	0,128
-451,182	-200,000	-0,013	0,101
-450,168	-16,997	0,094	0,043
-449,153	-200,000	0,030	0,114
-448,138	25,456	-0,171	0,103
-447,124	2,523	-0,111	-0,058
-446,109	-21,396	-0,086	0,038
-445,095	-66,123	0,072	0,021
-444,080	800,000	0,033	0,089
-443,065	-200,000	0,007	0,129
-442,051	20,066	0,087	-0,051
-441,036	233,204	0,002	0,003
-440,022	-200,000	0,010	-0,088
-439,007	138,987	-0,043	0,042
-437,992	122,157	0,026	0,023
-436,978	-200,000	-0,019	0,133
-435,963	779,243	0,063	0,125
-434,949	-200,000	-0,001	0,047
-433,934	800,000	0,025	-0,070
-432,919	800,000	-0,017	-0,044
-431,905	138,484	-0,006	-0,006
-430,890	531,731	0,084	0,145
-429,876	131,410	-0,040	0,037
-428,861	-200,000	0,026	0,092
-427,846	141,525	0,098	0,094
-426,832	140,322	-0,050	0,048
-425,817	800,000	0,020	-0,051
-424,803	49,548	-0,064	-0,044
-423,788	-200,000	0,003	-0,054
-422,773	-200,000	0,003	-0,245
-421,759	-70,140	0,173	0,047
-420,744	536,794	-0,055	0,095
-419,730	165,106	-0,152	0,156
-418,715	-3,031	-0,043	-0,022
-417,701	83,029	0,103	0,082
-416,686	-86,369	-0,081	-0,018
-415,671	449,066	0,084	0,136
-414,657	336,505	0,069	-0,098
-413,642	-104,893	0,068	0,011
-412,628	-15,033	-0,071	0,033
-411,613	431,806	-0,033	0,052
-410,598	-48,354	0,024	-0,008
-409,584	800,000	-0,028	0,088
-408,569	-29,833	0,105	0,043
-407,555	729,978	0,056	0,108
-406,540	-36,463	-0,039	-0,015
-405,525	-200,000	-0,003	0,050
-404,511	87,614	0,056	-0,045
-403,496	-154,849	-0,079	-0,004
-402,482	649,062	0,037	-0,069
-401,467	67,668	0,113	0,084
-400,452	800,000	-0,020	0,043
-399,438	-75,967	0,138	-0,035
-398,423	-73,033	-0,062	-0,016
-397,409	-200,000	-0,013	0,050
-396,394	-100,498	-0,195	-0,035
-395,379	326,445	-0,043	0,060
-394,365	-33,616	-0,019	0,008
-393,350	108,308	0,167	0,145
-392,336	-31,398	0,078	0,032
-391,321	-12,457	-0,069	-0,033
-390,306	-200,000	0,018	-0,176
-389,292	-108,378	0,025	-0,004
-388,277	208,814	-0,065	-0,074
-387,263	-184,428	-0,099	0,001
-386,248	268,425	0,057	-0,073
-385,233	-200,000	-0,014	0,056
-384,219	-41,856	-0,104	0,039
-383,204	751,124	0,034	-0,067
-382,190	91,956	0,009	-0,007
-381,175	-200,000	-0,020	-0,106
-380,160	-142,626	0,135	-0,009
-379,146	800,000	-0,014	-0,030
-378,131	-200,000	0,007	-0,101
-377,117	-77,170	-0,107	-0,027
-376,102	-200,000	0,007	-0,085
-375,088	-76,036	-0,065	0,017
-374,073	-32,317	0,190	-0,077
-373,058	242,190	-0,064	-0,078
-372,044	149,544	0,075	0,074
-371,029	-164,851	-0,136	-0,004
-370,015	-23,471	-0,083	0,036
-369,000	-18,221	-0,071	-0,032
-367,985	-200,000	0,008	-0,070
-366,971	-97,239	-0,098	-0,019
-365,956	-132,151	-0,087	0,008
-364,942	0,960	-0,101	0,052
-363,927	61,056	-0,054	0,039
-362,912	21,872	-0,083	0,049
-361,898	-119,209	-0,053	-0,007
-360,883	8,955	-0,025	-0,014
-359,869	-70,810	-0,265	-0,072
-358,854	-200,000	0,035	0,128
-357,839	100,011	0,146	-0,123
-356,825	-170,159	-0,045	-0,001
-355,810	-14,225	0,138	0,064
-354,796	-72,314	0,029	-0,008
-353,781	3,111	-0,088	-0,046
-352,766	800,000	0,014	0,045
-351,752	-39,592	-0,102	-0,039
-350,737	57,814	0,102	0,073
-349,723	193,196	0,022	-0,025
-348,708	-68,053	-0,063	-0,018
-347,693	-200,000	0,018	0,108
-346,679	800,000	-0,012	-0,032
-345,664	95,995	0,063	0,052
-344,650	-200,000	0,004	0,015
-343,635	58,610	0,129	0,092
-342,620	-62,510	0,054	0,016
-341,606	254,270	-0,044	-0,055
-340,591	-70,596	-0,144	0,039
-339,577	32,826	0,089	0,056
-338,562	600,014	-0,033	0,059
-337,548	800,000	-0,013	-0,039
-336,533	-140,057	0,041	-0,003
-335,518	-66,509	-0,131	-0,038
-334,504	8,338	0,056	0,031
-333,489	282,620	0,043	-0,056
-332,475	12,588	-0,099	0,055
-331,460	-200,000	0,023	0,130
-330,445	800,000	0,063	0,139
-329,431	-121,090	0,117	0,014
-328,416	-175,304	0,069	-0,001
-327,402	57,441	-0,041	0,029
-326,387	1,266	0,120	-0,062
-325,372	-200,000	-0,009	0,043
-324,358	-87,363	-0,100	0,022
-323,343	377,651	-0,047	0,070
-322,329	272,638	-0,024	-0,030
-321,314	291,411	0,046	0,061
-320,299	-165,110	-0,101	0,003
-319,285	800,000	-0,031	-0,069
-318,270	-200,000	0,003	-0,011
-317,256	-200,000	0,001	0,005
-316,241	352,491	-0,060	0,086
-315,226	177,513	0,085	0,090
-314,212	-92,311	-0,041	-0,008
-313,197	-195,404	-0,090	-0,000
-312,183	75,110	0,083	-0,063
-311,168	-25,712	-0,123	0,052
-310,153	433,266	-0,057	-0,091
-309,139	-186,589	-0,100	-0,001
-308,124	-87,170	0,109	-0,024
-307,110	13,779	0,142	-0,080
-306,095	-101,693	0,102	0,018
-305,080	-200,000	-0,010	-0,133
-304,066	-158,440	0,062	0,003
-303,051	-86,904	0,050	-0,011
-302,037	239,405	-0,061	-0,074
-301,022	167,381	-0,015	0,016
-300,008	800,000	0,039	0,090
-298,993	-102,014	0,092	-0,016
-297,978	800,000	0,052	0,140
-296,964	-200,000	-0,004	0,035
-295,949	-200,000	0,009	-0,245
-294,935	10,709	-0,051	-0,028
-293,920	800,000	0,020	-0,041
-292,905	-63,991	0,117	0,034
-291,891	-160,969	-0,036	0,001
-290,876	152,090	-0,030	-0,030
-289,862	-200,000	0,013	-0,058
-288,847	422,715	-0,038	-0,059
-287,832	533,483	0,079	-0,136
-286,818	316,926	-0,093	-0,128
-285,803	-84,139	0,167	0,038
-284,789	143,634	0,035	0,034
-283,774	-200,000	-0,012	0,148
-282,759	130,467	-0,093	0,087
-281,745	-200,000	-0,004	0,070
-280,730	800,000	-0,031	0,077
-279,716	-102,189	0,053	-0,009
-278,701	368,390	0,025	-0,037
-277,686	800,000	-0,043	0,121
-276,672	-200,000	0,009	0,089
-275,657	270,556	-0,021	0,026
-274,643	-159,140	0,083	0,003
-273,628	-137,013	0,072	0,006
-272,613	800,000	0,062	-0,166
-271,599	751,503	0,041	0,080
-270,584	414,770	-0,048	0,075
-269,570	800,000	0,014	-0,034
-268,555	67,664	0,081	-0,060
-267,540	-102,294	-0,179	-0,031
-266,526	295,227	0,020	0,027
-265,511	143,815	0,093	-0,090
-264,497	800,000	0,043	0,123
-263,482	603,817	0,070	0,127
-262,467	135,682	-0,069	0,065
-261,453	-200,000	0,002	-0,104
-260,438	-87,274	0,088	-0,019
-259,424	228,646	0,049	0,058
-258,409	239,876	-0,049	0,059
-257,395	800,000	0,042	0,116
-256,380	-89,592	0,191	0,040
-255,365	-12,701	-0,119	0,056
-254,351	133,748	-0,067	-0,063
-253,336	71,121	-0,092	0,069
-252,322	-200,000	-0,016	-0,075
-251,307	-137,946	-0,147	0,012
-250,292	-200,000	0,011	-0,087
-249,278	800,000	0,007	0,015
-248,263	61,216	-0,061	0,044
-247,249	380,476	0,032	0,048
-246,234	-172,120	0,035	-0,001
-245,219	-160,258	0,114	-0,004
-244,205	-200,000	-0,017	-0,056
-243,190	4,199	-0,098	-0,052
-242,176	507,955	-0,014	0,024
-241,161	-84,626	0,060	0,013
-240,146	-200,000	-0,038	0,129
-239,132	800,000	0,014	0,040
-238,117	800,000	0,007	-0,015
-237,103	651,178	-0,042	-0,079
-236,088	4,640	-0,086	0,046
-235,073	14,861	0,048	-0,027
-234,059	362,856	-0,034	0,050
-233,044	-70,269	0,064	-0,017
-232,030	174,967	-0,128	-0,134
-231,015	800,000	0,045	0,096
-230,000	27,334	0,084	0,051
-228,986	-15,690	0,166	-0,076
-227,971	-200,000	0,006	0,021
-226,957	-200,000	0,015	0,075
-225,942	89,330	0,051	0,041
-224,927	-200,000	-0,008	-0,027
-223,913	800,000	-0,031	-0,068
-222,898	58,797	-0,105	-0,074
-221,884	-33,433	-0,069	0,027
-220,869	359,822	0,045	0,066
-219,855	297,055	-0,089	0,119
-218,840	202,726	-0,017	0,019
-217,825	-93,490	0,066	0,013
-216,811	-54,616	-0,176	-0,057
-215,796	-63,687	0,187	-0,055
-214,782	800,000	0,043	-0,114
-213,767	398,772	0,040	0,061
-212,752	79,960	0,064	-0,050
-211,738	-200,000	-0,022	-0,112
-210,723	172,168	-0,042	0,044
-209,709	32,020	0,105	0,065
-208,694	566,974	-0,041	0,073
-207,679	46,917	-0,079	-0,053
-206,665	-6,825	0,055	0,027
-205,650	-107,657	0,072	0,011
-204,636	143,245	-0,021	-0,021
-203,621	222,783	0,031	0,036
-202,606	110,271	0,105	-0,091
-201,592	800,000	-0,044	-0,101
-200,577	28,596	-0,029	-0,018
-199,563	140,705	0,160	-0,153
-198,548	117,700	0,027	0,024
-197,533	-200,000	-0,006	-0,093
-196,519	155,342	0,090	-0,090
-195,504	-35,494	0,022	-0,008
-194,490	-54,648	0,032	-0,010
-193,475	-129,518	-0,052	0,005
-192,460	2,838	-0,050	-0,026
-191,446	800,000	0,033	0,075
-190,431	-52,366	-0,061	-0,020
-189,417	491,283	-0,030	0,049
-188,402	-200,000	-0,006	-0,022
-187,387	369,609	-0,048	0,071
-186,373	-200,000	-0,005	-0,189
-185,358	-25,009	0,160	-0,068
-184,344	67,257	0,091	-0,067
-183,329	800,000	0,021	0,045
-182,315	-200,000	0,016	0,110
-181,300	40,634	-0,001	0,001
-180,285	-79,755	-0,057	0,014
-179,271	-2,494	-0,086	0,043
-178,256	-200,000	0,005	0,035
-177,242	471,411	0,058	0,094
-176,227	-12,644	0,114	0,053
-175,212	-68,201	-0,015	0,004
-174,198	-200,000	0,033	0,121
-173,183	1,916	-0,113	-0,059
-172,169	800,000	0,018	0,039
-171,154	-170,999	0,066	0,002
-170,139	-62,804	-0,101	0,030
-169,125	-200,000	0,001	-0,050
-168,110	283,939	-0,092	0,119
-167,096	236,352	0,114	0,137
-166,081	800,000	-0,031	-0,065
-165,066	69,236	-0,104	-0,077
-164,052	496,675	0,077	-0,129
-163,037	-200,000	-0,010	0,035
-162,023	-48,992	0,051	-0,017
-161,008	344,424	-0,065	-0,093
-159,993	-200,000	0,009	-0,031
-158,979	-200,000	-0,008	0,049
-157,964	302,362	-0,058	-0,078
-156,950	-200,000	0,015	-0,073
-155,935	97,118	0,080	0,066
-154,920	-200,000	-0,007	0,165
-153,906	244,235	0,040	-0,049
-152,891	25,100	-0,017	0,010
-151,877	647,745	0,067	-0,124
-150,862	-200,000	-0,010	-0,112
-149,847	-143,821	0,017	0,001
-148,833	38,643	-0,098	-0,063
-147,818	105,524	0,031	-0,026
-146,804	-200,000	-0,007	0,068
-145,789	452,994	-0,045	0,072
-144,775	23,741	-0,117	0,069
-143,760	217,875	-0,030	-0,034
-142,745	-136,815	0,066	0,005
-141,731	89,882	-0,025	0,020
-140,716	4,710	0,124	0,066
-139,702	134,145	0,035	0,033
-138,687	-200,000	0,024	0,083
-137,672	-69,878	0,191	0,052
-136,658	-200,000	-0,004	-0,064
-135,643	758,764	0,070	0,137
-134,629	-49,771	-0,075	-0,026
-133,614	-19,988	0,151	0,067
-132,599	-200,000	-0,032	0,149
-131,585	-27,223	0,057	-0,024
-130,570	-200,000	0,006	0,058
-129,556	377,740	-0,077	-0,114
-128,541	60,356	0,103	0,074
-127,526	-200,000	0,002	0,100
-126,512	-149,075	0,175	-0,010
-125,497	-200,000	-0,003	0,158
-124,483	-184,214	0,137	0,002
-123,468	-200,000	-0,012	-0,168
-122,453	62,728	-0,151	-0,109
-121,439	-200,000	-0,001	-0,072
-120,424	-14,150	0,090	0,042
-119,410	162,494	0,077	0,078
