DTS Sentinel unit serial number:	SN410029Multiplexer serial number:	ORYXHardware model number:	OX2-SRSoftware version number:	ORYX F/W v4,00 Oryx Data Collector v3.7.2.0data status	okinstallation	B5 Nyhavnadifferential loss correction	single-endedforward channel	channel 2reverse channel	N/Adate	2023/12/13time	23:12:13forward acquisition time	300,00reverse acquisition time	0,00gamma	499,1914k internal	0,3154k external	0,3154temperature offset calibration	1,0000default loss term (dB/km)	0,3820temperature slope calibration	1,0000multiplexer offset coefficient	1,0000multiplexer slope coefficient	1,0000fibre end	0,00T internal ref (°C)	9,00T ext. ref 1 (°C)	-7,53T ext. ref 2 (°C)	-7,53length (m)	temperature (°C)	Stokes	anti-Stokes-744,400	-151,804	0,316	-0,017
-743,385	-126,191	-0,356	-0,039
-742,371	153,042	0,207	0,210
-741,356	-125,579	-0,426	-0,047
-740,342	44,707	0,233	0,158
-739,327	-120,251	-0,402	0,050
-738,312	13,146	0,109	0,062
-737,298	-26,813	-0,330	-0,142
-736,283	-162,952	0,136	-0,005
-735,269	-163,397	-0,306	-0,011
-734,254	56,522	0,221	0,158
-733,239	-61,222	-0,540	-0,167
-732,225	-91,325	0,389	0,081
-731,210	800,000	-0,051	0,127
-730,196	-96,806	0,117	0,023
-729,181	-42,719	0,046	-0,017
-728,167	156,990	-0,105	0,107
-727,152	288,439	-0,129	0,172
-726,137	713,420	0,039	-0,077
-725,123	-48,517	-0,088	-0,031
-724,108	-192,995	-0,104	-0,001
-723,094	800,000	0,040	-0,085
-722,079	239,789	0,046	-0,057
-721,064	-200,000	0,029	-0,112
-720,050	-200,000	-0,011	-0,116
-719,035	-5,693	-0,076	-0,038
-718,021	-111,709	-0,023	-0,003
-717,006	336,374	-0,062	-0,089
-715,991	-200,000	0,001	0,020
-714,977	-46,621	-0,112	-0,040
-713,962	-200,000	-0,026	-0,178
-712,948	145,463	-0,083	0,082
-711,933	-151,599	0,052	0,003
-710,918	-98,177	-0,106	-0,020
-709,904	31,665	-0,038	-0,024
-708,889	93,256	-0,116	-0,097
-707,875	-112,563	0,041	0,006
-706,860	39,076	-0,047	0,031
-705,845	211,297	-0,042	-0,049
-704,831	-132,177	0,007	0,001
-703,816	800,000	-0,023	-0,064
-702,802	798,244	-0,026	0,053
-701,787	800,000	-0,043	0,134
-700,772	-200,000	-0,008	0,040
-699,758	-58,920	0,156	-0,049
-698,743	694,671	-0,043	0,083
-697,729	89,102	0,091	-0,075
-696,714	463,630	0,075	-0,123
-695,699	-200,000	-0,007	0,035
-694,685	-200,000	0,020	-0,098
-693,670	-22,304	-0,085	0,038
-692,656	-159,565	-0,057	0,002
-691,641	193,984	0,026	0,029
-690,627	147,056	0,093	0,092
-689,612	738,831	-0,095	-0,190
-688,597	-95,709	0,029	0,006
-687,583	-3,834	0,057	-0,029
-686,568	218,776	-0,012	-0,014
-685,554	54,536	-0,062	0,044
-684,539	34,686	0,136	0,087
-683,524	800,000	-0,002	0,005
-682,510	-26,933	-0,012	0,005
-681,495	-37,214	0,073	0,028
-680,481	800,000	0,044	-0,091
-679,466	-108,421	-0,028	-0,004
-678,451	-46,627	0,134	-0,048
-677,437	91,489	0,129	-0,106
-676,422	-4,969	-0,062	-0,031
-675,408	431,968	0,070	0,112
-674,393	-47,751	-0,155	-0,055
-673,378	-158,547	0,078	-0,003
-672,364	-114,513	-0,159	0,022
-671,349	-91,469	0,063	0,013
-670,335	-97,717	-0,119	-0,022
-669,320	-56,850	0,095	0,031
-668,305	-70,614	-0,053	-0,015
-667,291	-109,546	0,092	0,014
-666,276	800,000	0,060	0,123
-665,262	22,303	-0,020	0,012
-664,247	800,000	-0,038	0,099
-663,232	-158,805	0,130	0,005
-662,218	800,000	-0,047	0,124
-661,203	-39,647	0,053	-0,020
-660,189	611,285	0,028	-0,051
-659,174	85,270	0,037	-0,030
-658,159	-200,000	0,022	-0,076
-657,145	-126,479	-0,040	-0,004
-656,130	-54,437	0,094	0,031
-655,116	800,000	-0,033	-0,089
-654,101	-54,354	0,108	0,036
-653,086	-200,000	0,013	-0,066
-652,072	21,996	-0,121	0,072
-651,057	-200,000	0,001	0,025
-650,043	-12,340	0,053	-0,026
-649,028	576,588	-0,102	-0,185
-648,014	99,146	-0,116	-0,099
-646,999	17,525	0,035	0,020
-645,984	290,512	-0,039	-0,053
-644,970	-200,000	0,001	-0,026
-643,955	-64,889	-0,182	-0,054
-642,941	50,084	-0,063	0,044
-641,926	-13,983	0,082	-0,039
-640,911	-200,000	-0,005	0,032
-639,897	-13,970	-0,150	0,071
-638,882	359,031	0,051	0,075
-637,868	192,363	-0,083	0,092
-636,853	115,791	0,054	0,049
-635,838	-200,000	-0,019	-0,076
-634,824	800,000	-0,023	-0,050
-633,809	21,279	-0,158	-0,094
-632,795	-200,000	0,014	-0,062
-631,780	-90,290	0,064	-0,014
-630,765	800,000	-0,030	0,093
-629,751	-37,662	0,035	0,014
-628,736	-34,375	-0,208	-0,083
-627,722	-200,000	-0,002	-0,027
-626,707	-146,595	-0,077	0,005
-625,692	-62,227	-0,043	0,013
-624,678	420,737	0,051	0,081
-623,663	-200,000	-0,008	0,076
-622,649	465,509	-0,060	-0,100
-621,634	169,213	-0,025	-0,026
-620,619	-102,377	-0,040	0,007
-619,605	-45,558	-0,085	-0,031
-618,590	177,302	0,091	0,097
-617,576	800,000	0,010	-0,021
-616,561	-200,000	-0,011	0,086
-615,546	177,260	-0,039	0,042
-614,532	800,000	-0,019	-0,059
-613,517	-13,661	-0,098	-0,046
-612,503	-65,185	0,080	0,024
-611,488	273,982	0,056	0,072
-610,474	107,526	0,018	0,016
-609,459	95,899	0,032	0,026
-608,444	71,251	-0,124	-0,095
-607,430	210,386	-0,067	0,077
-606,415	-114,409	-0,128	-0,018
-605,401	-108,236	0,164	0,026
-604,386	-67,877	0,041	-0,012
-603,371	763,835	-0,065	-0,130
-602,357	-137,408	-0,188	0,015
-601,342	-200,000	-0,001	0,083
-600,328	-12,172	-0,097	-0,046
-599,313	14,404	0,108	-0,062
-598,298	-123,053	-0,037	-0,004
-597,284	800,000	0,025	0,052
-596,269	46,344	0,137	0,093
-595,255	800,000	-0,006	-0,019
-594,240	-41,416	-0,083	0,031
-593,225	-33,403	0,029	-0,012
-592,211	-200,000	-0,041	-0,140
-591,196	367,657	-0,045	0,067
-590,182	-200,000	-0,019	0,293
-589,167	-121,256	0,059	-0,007
-588,152	161,676	-0,052	-0,053
-587,138	347,789	0,007	-0,011
-586,123	-41,181	-0,120	-0,045
-585,109	-200,000	-0,030	-0,151
-584,094	-173,535	0,129	0,003
-583,079	301,171	0,066	-0,090
-582,065	-41,303	0,187	0,070
-581,050	-102,348	0,049	-0,009
-580,036	-15,636	-0,074	-0,034
-579,021	-39,711	-0,080	-0,030
-578,006	800,000	0,044	-0,096
-576,992	800,000	-0,057	-0,172
-575,977	184,866	-0,058	-0,063
-574,963	-14,111	0,147	0,069
-573,948	31,948	-0,209	-0,132
-572,934	-200,000	-0,009	0,051
-571,919	-200,000	-0,011	-0,128
-570,904	181,903	-0,043	-0,047
-569,890	55,013	0,065	-0,046
-568,875	-200,000	-0,014	0,049
-567,861	-200,000	-0,007	-0,059
-566,846	-166,721	0,066	0,002
-565,831	199,924	0,045	0,051
-564,817	-158,366	-0,080	0,003
-563,802	-113,929	0,074	-0,010
-562,788	11,667	-0,060	-0,034
-561,773	-200,000	0,016	0,140
-560,758	265,093	0,050	-0,064
-559,744	-200,000	0,015	0,148
-558,729	-200,000	0,004	0,041
-557,715	436,958	-0,064	0,103
-556,700	-200,000	-0,000	-0,054
-555,685	-65,210	-0,116	0,034
-554,671	800,000	0,023	0,055
-553,656	-200,000	0,017	0,084
-552,642	-101,348	0,151	0,027
-551,627	-38,192	0,074	0,029
-550,612	-65,822	-0,023	0,007
-549,598	53,762	-0,069	-0,049
-548,583	-200,000	-0,018	-0,162
-547,569	212,909	-0,043	-0,050
-546,554	-200,000	-0,027	0,138
-545,539	17,621	-0,082	-0,048
-544,525	-35,820	-0,032	-0,013
-543,510	-33,989	0,048	-0,019
-542,496	128,964	-0,090	-0,084
-541,481	124,520	0,051	-0,047
-540,466	-200,000	-0,046	0,151
-539,452	-104,041	0,086	-0,015
-538,437	-90,545	-0,044	-0,009
-537,423	78,047	0,051	-0,040
-536,408	-200,000	0,004	0,122
-535,393	-200,000	-0,044	-0,164
-534,379	800,000	0,010	-0,023
-533,364	800,000	0,039	0,084
-532,350	-200,000	0,020	0,154
-531,335	1,436	0,119	0,062
-530,321	-51,860	-0,013	0,005
-529,306	-98,700	-0,060	-0,011
-528,291	303,780	-0,046	-0,062
-527,277	-200,000	0,013	-0,067
-526,262	-137,896	0,118	0,010
-525,248	-200,000	-0,034	-0,196
-524,233	800,000	0,038	0,085
-523,218	-157,053	-0,081	0,004
-522,204	-200,000	-0,017	0,095
-521,189	-81,881	-0,058	0,014
-520,175	18,306	-0,101	0,059
-519,160	56,443	0,069	0,049
-518,145	800,000	-0,060	-0,172
-517,131	-138,613	0,097	0,008
-516,116	379,482	0,031	0,047
-515,102	800,000	0,024	0,059
-514,087	271,903	0,039	-0,051
-513,072	425,174	0,036	-0,057
-512,058	71,913	0,067	0,051
-511,043	116,254	-0,033	-0,029
-510,029	-200,000	-0,005	-0,099
-509,014	-200,000	0,009	-0,062
-507,999	288,911	0,079	-0,105
-506,985	-30,234	-0,053	0,022
-505,970	150,737	0,026	0,026
-504,956	-57,369	-0,099	0,032
-503,941	8,946	-0,045	-0,025
-502,926	800,000	0,018	0,049
-501,912	800,000	0,042	-0,089
-500,897	-44,891	-0,180	-0,065
-499,883	-95,675	-0,092	-0,018
-498,868	800,000	-0,041	0,090
-497,853	-56,811	0,128	0,041
-496,839	-200,000	-0,005	0,157
-495,824	267,591	0,090	0,115
-494,810	-200,000	-0,001	-0,023
-493,795	-200,000	0,025	0,161
-492,781	-200,000	-0,017	-0,070
-491,766	800,000	0,056	-0,154
-490,751	-25,340	-0,084	0,036
-489,737	-200,000	0,004	-0,035
-488,722	194,804	0,103	-0,114
-487,708	446,435	0,063	-0,102
-486,693	4,190	0,093	0,050
-485,678	-200,000	-0,007	-0,024
-484,664	142,962	0,062	-0,060
-483,649	800,000	-0,044	-0,105
-482,635	700,398	0,123	-0,237
-481,620	283,824	-0,036	-0,047
-480,605	-100,940	0,044	0,008
-479,591	-200,000	0,001	0,158
-478,576	185,755	-0,085	-0,092
-477,562	235,301	-0,038	-0,047
-476,547	2,186	-0,080	0,042
-475,532	-51,312	-0,061	0,021
-474,518	-101,913	0,219	0,038
-473,503	-136,346	0,085	-0,007
-472,489	152,215	-0,038	0,038
-471,474	-200,000	-0,016	-0,062
-470,459	56,298	-0,179	-0,127
-469,445	25,548	0,168	-0,102
-468,430	-6,839	0,091	-0,045
-467,416	-200,000	-0,029	-0,138
-466,401	321,978	0,052	-0,073
-465,386	-200,000	0,001	0,075
-464,372	58,902	0,153	-0,109
-463,357	-200,000	-0,010	-0,145
-462,343	800,000	0,046	-0,105
-461,328	38,254	0,067	0,044
-460,313	34,874	-0,133	-0,085
-459,299	-200,000	0,025	-0,117
-458,284	578,265	-0,038	0,068
-457,270	-143,839	-0,198	0,013
-456,255	266,918	-0,062	-0,080
-455,241	-69,295	-0,083	-0,023
-454,226	87,498	-0,105	-0,084
-453,211	187,952	0,004	0,005
-452,197	346,353	0,056	-0,081
-451,182	280,983	-0,039	-0,051
-450,168	134,165	-0,090	0,085
-449,153	-200,000	-0,012	-0,069
-448,138	-119,119	-0,037	0,005
-447,124	-200,000	-0,023	-0,158
-446,109	124,256	0,061	-0,056
-445,095	-130,242	0,083	0,008
-444,080	-200,000	-0,006	0,035
-443,065	49,729	-0,054	0,037
-442,051	-200,000	-0,006	0,064
-441,036	22,644	0,163	-0,097
-440,022	-109,976	-0,105	-0,016
-439,007	161,770	-0,042	0,043
-437,992	106,561	0,075	0,065
-436,978	-19,422	0,046	-0,021
-435,963	-200,000	-0,005	0,038
-434,949	-152,987	-0,020	0,001
-433,934	-84,120	-0,058	-0,013
-432,919	570,857	-0,048	-0,086
-431,905	-200,000	-0,002	-0,046
-430,890	54,084	0,155	0,108
-429,876	-24,338	0,068	-0,030
-428,861	-40,970	0,044	0,017
-427,846	-200,000	0,001	0,021
-426,832	749,344	-0,023	-0,046
-425,817	-1,601	-0,031	0,016
-424,803	-110,628	-0,054	-0,008
-423,788	800,000	0,018	0,055
-422,773	-23,133	-0,028	0,012
-421,759	224,478	0,093	0,110
-420,744	-200,000	0,026	0,130
-419,730	232,615	-0,055	0,066
-418,715	800,000	-0,044	-0,142
-417,701	-200,000	0,009	-0,079
-416,686	104,218	-0,049	0,042
-415,671	551,262	-0,017	0,029
-414,657	-91,398	-0,069	-0,014
-413,642	712,084	0,047	0,090
-412,628	-141,950	-0,194	-0,014
-411,613	515,922	0,062	-0,105
-410,598	-87,409	-0,042	0,009
-409,584	-200,000	-0,006	-0,034
-408,569	-112,673	0,171	0,025
-407,555	-56,605	-0,090	-0,029
-406,540	-60,917	-0,104	0,032
-405,525	-200,000	0,002	-0,031
-404,511	800,000	-0,090	-0,205
-403,496	73,739	0,038	-0,029
-402,482	167,383	0,066	0,068
-401,467	-11,490	0,203	0,097
-400,452	-200,000	0,012	0,213
-399,438	800,000	0,068	0,157
-398,423	-54,121	0,069	-0,023
-397,409	85,573	-0,073	-0,058
-396,394	116,580	-0,079	0,071
-395,379	800,000	0,013	0,031
-394,365	-149,340	0,250	0,014
-393,350	25,118	-0,025	-0,015
-392,336	-78,965	-0,064	0,016
-391,321	-200,000	-0,009	0,084
-390,306	-146,720	-0,183	0,011
-389,292	-200,000	-0,034	0,191
-388,277	800,000	0,014	-0,033
-387,263	-200,000	0,015	0,096
-386,248	-38,760	-0,059	0,023
-385,233	50,184	-0,040	-0,028
-384,219	42,543	-0,127	0,084
-383,204	-200,000	0,000	-0,056
-382,190	-143,245	-0,094	-0,006
-381,175	800,000	-0,035	0,090
-380,160	-200,000	0,020	0,158
-379,146	-200,000	-0,001	0,290
-378,131	4,901	0,138	0,074
-377,117	107,212	-0,049	-0,043
-376,102	-177,851	0,064	0,001
-375,088	-25,558	-0,064	-0,027
-374,073	-200,000	0,019	-0,076
-373,058	800,000	0,055	-0,123
-372,044	-200,000	-0,003	0,073
-371,029	546,512	0,061	-0,107
-370,015	310,370	-0,048	-0,065
-369,000	78,104	-0,025	0,020
-367,985	-128,109	-0,043	0,004
-366,971	800,000	0,037	0,109
-365,956	376,251	-0,050	0,074
-364,942	261,762	-0,049	-0,062
-363,927	-200,000	0,007	0,051
-362,912	-200,000	0,015	-0,091
-361,898	-200,000	0,004	-0,041
-360,883	64,415	0,055	-0,040
-359,869	95,832	-0,035	-0,029
-358,854	-6,247	0,086	0,043
-357,839	244,950	-0,034	0,042
-356,825	-200,000	-0,016	0,124
-355,810	323,306	0,016	0,023
-354,796	178,416	-0,111	-0,118
-353,781	-58,262	-0,109	0,034
-352,766	-200,000	0,012	-0,082
-351,752	52,050	-0,147	-0,102
-350,737	-124,948	0,212	-0,023
-349,723	734,017	0,040	0,079
-348,708	-200,000	0,022	-0,162
-347,693	-157,266	0,148	0,006
-346,679	-200,000	-0,024	-0,206
-345,664	44,779	-0,104	-0,070
-344,650	76,447	0,032	-0,025
-343,635	22,504	0,069	-0,041
-342,620	-103,705	0,129	0,022
-341,606	800,000	-0,030	0,064
-340,591	135,649	-0,078	0,074
-339,577	87,498	-0,138	-0,111
-338,562	-66,284	-0,166	0,048
-337,548	41,989	0,149	-0,098
-336,533	-200,000	0,074	-0,000
-335,518	-142,946	0,037	-0,003
-334,504	800,000	0,024	0,066
-333,489	-200,000	0,014	-0,078
-332,475	37,669	-0,027	0,017
-331,460	127,414	-0,018	-0,016
-330,445	-72,517	-0,046	-0,012
-329,431	-103,698	0,073	0,012
-328,416	-49,018	-0,112	0,039
-327,402	602,402	-0,020	-0,037
-326,387	800,000	0,022	-0,063
-325,372	74,374	0,022	0,017
-324,358	36,894	0,111	0,071
-323,343	-200,000	0,014	0,051
-322,329	-175,085	-0,048	0,001
-321,314	800,000	-0,069	-0,174
-320,299	-46,867	0,137	-0,048
-319,285	26,762	-0,055	0,033
-318,270	-200,000	-0,000	-0,026
-317,256	317,736	-0,031	-0,042
-316,241	162,793	0,065	-0,066
-315,226	-78,455	0,116	0,029
-314,212	398,521	0,046	-0,070
-313,197	51,122	0,124	-0,085
-312,183	-37,551	0,047	0,018
-311,168	333,395	-0,064	0,090
-310,153	598,186	-0,096	-0,173
-309,139	-200,000	0,008	-0,047
-308,124	-200,000	0,000	0,044
-307,110	584,609	-0,033	0,060
-306,095	-200,000	-0,006	-0,023
-305,080	32,110	-0,161	0,101
-304,066	-200,000	-0,002	0,050
-303,051	-200,000	0,003	0,113
-302,037	-200,000	0,001	-0,051
-301,022	385,908	0,083	0,124
-300,008	-200,000	0,008	-0,066
-298,993	-200,000	0,039	0,128
-297,978	-200,000	0,004	-0,095
-296,964	106,144	0,113	-0,097
-295,949	-33,135	0,050	-0,020
-294,935	800,000	-0,032	-0,065
-293,920	-200,000	-0,009	0,059
-292,905	-16,506	0,124	-0,057
-291,891	-200,000	0,002	0,066
-290,876	337,154	0,062	0,087
-289,862	82,106	-0,073	0,057
-288,847	39,085	-0,131	-0,085
-287,832	-200,000	-0,002	-0,177
-286,818	140,900	0,098	0,094
-285,803	559,410	-0,101	0,178
-284,789	164,384	-0,044	-0,045
-283,774	800,000	0,006	0,013
-282,759	-65,260	-0,194	0,056
-281,745	336,367	0,014	-0,020
-280,730	-176,960	0,156	-0,003
-279,716	-4,435	0,079	-0,039
-278,701	-69,428	0,154	-0,043
-277,686	85,725	0,083	-0,066
-276,672	800,000	-0,022	0,054
-275,657	105,569	0,079	0,068
-274,643	-78,453	-0,156	0,038
-273,628	-200,000	-0,009	-0,099
-272,613	-168,703	0,060	-0,002
-271,599	-200,000	-0,018	0,076
-270,584	470,680	-0,045	0,074
-269,570	-143,071	0,071	-0,005
-268,555	800,000	-0,028	-0,058
-267,540	-200,000	0,010	-0,057
-266,526	224,420	-0,052	0,061
-265,511	-36,783	0,077	0,030
-264,497	800,000	0,028	-0,078
-263,482	491,633	0,040	0,066
-262,467	800,000	0,013	0,034
-261,453	-200,000	0,011	0,105
-260,438	59,765	-0,130	0,093
-259,424	-47,861	-0,148	0,052
-258,409	521,350	0,043	-0,073
-257,395	20,706	-0,134	-0,078
-256,380	376,037	0,042	0,063
-255,365	125,724	0,071	0,065
-254,351	180,906	0,038	0,040
-253,336	-81,451	0,181	-0,043
-252,322	800,000	0,037	0,093
-251,307	-200,000	0,018	0,072
-250,292	800,000	-0,018	-0,056
-249,278	170,406	0,140	0,146
-248,263	69,086	0,044	0,033
-247,249	-15,187	-0,021	0,010
-246,234	-1,547	-0,168	-0,086
-245,219	-55,847	-0,025	-0,008
-244,205	183,248	-0,039	-0,041
-243,190	-200,000	0,007	-0,043
-242,176	123,148	0,065	-0,058
-241,161	-163,011	0,148	-0,005
-240,146	254,940	-0,085	0,105
-239,132	-200,000	-0,007	-0,093
-238,117	-200,000	-0,004	0,102
-237,103	599,820	-0,036	0,064
-236,088	-200,000	0,025	-0,128
-235,073	-1,110	0,125	-0,064
-234,059	-200,000	0,005	0,205
-233,044	293,355	0,079	-0,104
-232,030	800,000	0,008	0,017
-231,015	163,212	0,084	0,085
-230,000	56,937	0,103	0,072
-228,986	321,475	-0,054	-0,074
-227,971	-92,903	-0,051	-0,010
-226,957	-35,469	0,153	-0,060
-225,942	-137,518	0,103	0,008
-224,927	800,000	0,009	-0,026
-223,913	-35,149	0,040	-0,016
-222,898	583,471	-0,027	0,048
-221,884	148,189	0,126	0,123
-220,869	-127,262	0,117	-0,012
-219,855	34,400	-0,068	-0,043
-218,840	78,372	0,069	0,053
-217,825	-184,485	-0,093	-0,001
-216,811	-200,000	0,012	-0,054
-215,796	-44,252	0,126	0,045
-214,782	100,187	0,075	0,063
-213,767	800,000	0,031	-0,078
-212,752	-200,000	0,007	0,100
-211,738	4,682	0,041	-0,022
-210,723	-115,269	-0,074	0,010
-209,709	-24,037	-0,050	0,022
-208,694	800,000	-0,021	0,054
-207,679	-19,204	0,035	-0,016
-206,665	-200,000	-0,030	-0,097
-205,650	-143,392	-0,109	-0,007
-204,636	-83,176	-0,132	0,031
-203,621	161,528	-0,030	-0,030
-202,606	-200,000	0,007	-0,096
-201,592	318,503	0,122	-0,168
-200,577	-106,320	-0,087	-0,014
-199,563	800,000	0,034	-0,086
-198,548	800,000	0,024	-0,055
-197,533	800,000	0,050	0,125
-196,519	-200,000	-0,006	0,042
-195,504	115,432	-0,053	0,047
-194,490	-43,882	-0,066	0,024
-193,475	-9,215	0,041	0,020
-192,460	59,479	0,061	0,043
-191,446	18,147	0,043	0,025
-190,431	-40,346	-0,081	-0,030
-189,417	-115,420	0,096	0,013
-188,402	-18,211	-0,103	0,046
-187,387	-200,000	0,021	0,107
-186,373	-200,000	0,008	-0,042
-185,358	-200,000	-0,010	-0,123
-184,344	-85,515	-0,198	-0,044
-183,329	141,485	0,148	0,141
-182,315	-200,000	-0,055	0,249
-181,300	-118,229	0,089	0,011
-180,285	-200,000	0,005	0,054
-179,271	-146,290	-0,048	-0,003
-178,256	279,785	0,046	-0,060
-177,242	-130,913	0,161	-0,015
-176,227	800,000	-0,094	0,198
-175,212	-73,281	-0,080	0,021
-174,198	10,513	-0,057	0,031
-173,183	-166,925	0,083	0,002
-172,169	-62,499	0,039	0,012
-171,154	-125,397	-0,059	-0,006
-170,139	-174,362	0,153	0,003
-169,125	271,409	-0,090	0,115
-168,110	-102,427	0,007	-0,001
-167,096	258,788	0,062	0,078
-166,081	-123,863	-0,181	0,020
-165,066	-200,000	0,010	-0,163
-164,052	615,674	0,074	0,135
-163,037	302,881	-0,069	0,092
-162,023	800,000	0,077	0,211
-161,008	800,000	-0,010	-0,030
-159,993	-200,000	0,019	0,147
-158,979	-18,967	0,060	-0,027
-157,964	-112,771	0,068	-0,010
-156,950	604,221	-0,016	-0,029
-155,935	379,299	-0,071	0,105
-154,920	60,631	0,072	0,052
-153,906	800,000	-0,035	-0,107
-152,891	689,463	-0,031	0,059
-151,877	-7,184	-0,045	-0,022
-150,862	-200,000	-0,012	-0,081
-149,847	486,076	-0,038	0,062
-148,833	-200,000	0,022	0,119
-147,818	-12,469	-0,074	-0,035
-146,804	232,068	-0,039	0,046
-145,789	-79,829	-0,062	-0,015
-144,775	-154,181	-0,068	0,003
-143,760	-200,000	-0,042	0,158
-142,745	-200,000	0,001	0,043
-141,731	82,555	0,066	0,051
-140,716	-200,000	0,054	0,176
-139,702	800,000	0,101	0,223
-138,687	-200,000	0,029	0,093
-137,672	-200,000	-0,015	0,081
-136,658	130,620	-0,114	-0,105
-135,643	17,328	0,150	-0,086
-134,629	84,467	-0,056	-0,044
-133,614	800,000	0,025	0,073
-132,599	94,938	-0,088	0,072
-131,585	-18,626	-0,024	0,011
-130,570	800,000	-0,017	0,045
-129,556	800,000	0,054	-0,131
-128,541	-200,000	0,003	-0,112
-127,526	174,571	0,059	0,061
-126,512	308,807	-0,035	-0,047
-125,497	228,742	-0,082	0,096
-124,483	-87,797	0,144	0,031
-123,468	800,000	-0,026	-0,068
-122,453	800,000	-0,008	-0,017
-121,439	587,094	-0,113	-0,201
-120,424	-31,841	-0,055	0,022
-119,410	148,990	0,053	0,052
