DTS Sentinel unit serial number:	SN410029Multiplexer serial number:	ORYXHardware model number:	OX2-SRSoftware version number:	ORYX F/W v4,00 Oryx Data Collector v3.7.2.0data status	okinstallation	B5 Nyhavnadifferential loss correction	single-endedforward channel	channel 2reverse channel	N/Adate	2023/12/14time	13:57:13forward acquisition time	300,00reverse acquisition time	0,00gamma	499,1914k internal	0,3157k external	0,3157temperature offset calibration	1,0000default loss term (dB/km)	0,3820temperature slope calibration	1,0000multiplexer offset coefficient	1,0000multiplexer slope coefficient	1,0000fibre end	0,00T internal ref (°C)	8,06T ext. ref 1 (°C)	-7,89T ext. ref 2 (°C)	-7,97length (m)	temperature (°C)	Stokes	anti-Stokes-744,400	86,593	0,314	0,256
-743,385	-88,550	-0,318	-0,069
-742,371	-111,434	0,175	0,026
-741,356	-44,478	-0,363	-0,133
-740,342	249,114	0,139	0,174
-739,327	-126,070	-0,413	-0,045
-738,312	-54,472	0,290	-0,096
-737,298	2,699	-0,385	-0,205
-736,283	1,573	0,093	0,049
-735,269	-122,432	-0,326	-0,039
-734,254	515,729	0,148	0,256
-733,239	-88,614	-0,639	-0,139
-732,225	-87,958	0,247	0,054
-731,210	184,230	-0,032	-0,034
-730,196	141,962	0,055	-0,054
-729,181	-99,184	-0,086	-0,016
-728,167	54,188	-0,087	-0,062
-727,152	312,933	0,062	-0,086
-726,137	561,351	-0,053	-0,095
-725,123	93,641	-0,113	-0,094
-724,108	-103,799	-0,065	0,011
-723,094	-200,000	0,002	0,114
-722,079	-114,793	0,062	-0,009
-721,064	-157,829	-0,085	-0,004
-720,050	275,294	-0,136	0,178
-719,035	380,708	-0,018	-0,027
-718,021	187,206	-0,099	-0,109
-717,006	643,434	-0,022	0,042
-715,991	-37,151	-0,124	-0,049
-714,977	-200,000	0,005	-0,022
-713,962	-109,533	0,077	-0,012
-712,948	-200,000	0,000	-0,050
-711,933	-200,000	-0,025	-0,128
-710,918	-71,984	0,046	0,013
-709,904	-24,061	-0,090	0,040
-708,889	133,939	-0,018	0,017
-707,875	-14,687	-0,062	0,029
-706,860	-34,350	0,135	0,054
-705,845	437,189	-0,038	0,061
-704,831	-188,289	-0,014	0,000
-703,816	-6,761	-0,059	-0,030
-702,802	238,011	-0,104	0,128
-701,787	-74,592	-0,094	0,025
-700,772	106,311	0,094	0,082
-699,758	462,638	0,050	-0,082
-698,743	-80,357	0,067	-0,016
-697,729	-200,000	0,054	0,191
-696,714	460,299	0,054	-0,089
-695,699	-112,070	-0,149	-0,022
-694,685	800,000	-0,016	0,043
-693,670	128,840	-0,052	-0,049
-692,656	4,448	0,097	0,052
-691,641	2,975	-0,034	0,018
-690,627	-166,096	-0,024	-0,001
-689,612	800,000	0,070	-0,198
-688,597	-200,000	-0,001	-0,003
-687,583	-143,630	-0,065	0,004
-686,568	46,784	-0,129	0,088
-685,554	-54,216	-0,082	-0,027
-684,539	104,978	-0,067	0,058
-683,524	-125,092	0,029	-0,003
-682,510	198,780	0,092	-0,103
-681,495	-200,000	-0,014	-0,163
-680,481	800,000	-0,062	-0,178
-679,466	-200,000	-0,002	-0,025
-678,451	-140,080	0,172	-0,013
-677,437	79,596	-0,146	-0,115
-676,422	529,964	-0,053	-0,092
-675,408	48,055	0,118	0,081
-674,393	-200,000	0,012	-0,138
-673,378	368,107	-0,019	-0,028
-672,364	-100,741	-0,045	0,008
-671,349	202,440	-0,034	-0,039
-670,335	126,712	-0,095	-0,088
-669,320	-200,000	0,003	0,027
-668,305	800,000	0,023	0,060
-667,291	-200,000	-0,000	-0,094
-666,276	800,000	0,072	-0,149
-665,262	283,731	-0,015	-0,020
-664,247	591,760	-0,023	-0,042
-663,232	62,008	-0,129	-0,094
-662,218	45,716	-0,065	-0,044
-661,203	800,000	-0,049	0,110
-660,189	305,686	-0,075	0,102
-659,174	294,849	0,024	0,033
-658,159	143,858	-0,049	-0,048
-657,145	364,199	-0,063	-0,094
-656,130	-200,000	-0,008	0,112
-655,116	-181,200	-0,057	-0,001
-654,101	-200,000	-0,000	-0,057
-653,086	-200,000	-0,003	-0,022
-652,072	-51,729	-0,095	0,032
-651,057	800,000	-0,054	-0,115
-650,043	800,000	-0,038	0,097
-649,028	9,653	0,066	-0,036
-648,014	-132,456	-0,102	-0,009
-646,999	-123,652	-0,100	-0,012
-645,984	723,363	0,049	-0,096
-644,970	-200,000	-0,007	0,042
-643,955	138,514	-0,078	0,075
-642,941	-52,900	0,095	-0,032
-641,926	339,750	-0,042	0,061
-640,911	173,202	0,030	-0,032
-639,897	322,891	-0,114	0,159
-638,882	25,466	-0,029	-0,017
-637,868	587,146	0,019	-0,035
-636,853	-122,332	-0,092	-0,011
-635,838	118,732	0,112	-0,102
-634,824	800,000	-0,069	-0,148
-633,809	655,580	0,049	-0,092
-632,795	-200,000	-0,027	0,134
-631,780	349,048	-0,054	0,079
-630,765	800,000	0,022	0,061
-629,751	85,386	0,021	-0,017
-628,736	209,976	0,036	-0,041
-627,722	-200,000	-0,023	-0,076
-626,707	69,585	-0,033	0,025
-625,692	384,096	-0,010	0,015
-624,678	-200,000	0,002	-0,107
-623,663	-108,865	-0,039	0,006
-622,649	675,796	0,036	-0,069
-621,634	663,054	-0,063	0,119
-620,619	15,986	0,078	0,045
-619,605	-200,000	0,013	-0,083
-618,590	-41,063	-0,060	0,023
-617,576	154,318	-0,047	0,047
-616,561	-31,706	-0,034	-0,014
-615,546	-49,025	-0,062	-0,022
-614,532	-104,828	-0,153	-0,026
-613,517	-180,743	-0,169	-0,002
-612,503	-160,955	0,053	-0,002
-611,488	-200,000	0,009	0,129
-610,474	631,843	0,030	-0,056
-609,459	-200,000	-0,004	-0,034
-608,444	800,000	-0,015	-0,038
-607,430	-151,373	0,037	0,002
-606,415	333,187	0,066	-0,094
-605,401	267,809	-0,048	0,062
-604,386	114,181	0,046	0,041
-603,371	-200,000	-0,005	0,027
-602,357	800,000	-0,015	0,046
-601,342	800,000	-0,053	-0,132
-600,328	-118,790	-0,138	-0,018
-599,313	138,550	0,042	-0,040
-598,298	6,401	0,048	0,026
-597,284	-100,671	-0,018	0,003
-596,269	800,000	0,045	-0,112
-595,255	744,680	-0,060	-0,118
-594,240	-200,000	0,004	-0,024
-593,225	-127,416	-0,115	-0,012
-592,211	-116,620	-0,088	0,012
-591,196	687,425	0,053	-0,101
-590,182	559,822	0,028	0,050
-589,167	116,927	0,082	0,074
-588,152	-47,173	0,052	-0,018
-587,138	-149,504	-0,121	-0,007
-586,123	77,566	-0,095	-0,074
-585,109	36,041	0,093	-0,060
-584,094	407,720	0,020	-0,031
-583,079	-200,000	-0,038	0,133
-582,065	800,000	0,023	0,056
-581,050	48,395	-0,074	-0,051
-580,036	-188,320	-0,043	-0,000
-579,021	152,040	-0,110	-0,110
-578,006	-69,083	-0,014	0,004
-576,992	-200,000	-0,024	-0,127
-575,977	-131,481	-0,074	-0,007
-574,963	-79,232	0,077	-0,019
-573,948	129,183	0,123	0,115
-572,934	800,000	-0,044	0,105
-571,919	800,000	-0,033	-0,096
-570,904	800,000	-0,031	-0,064
-569,890	-58,735	-0,053	-0,017
-568,875	578,233	-0,055	-0,098
-567,861	-200,000	0,004	-0,163
-566,846	-200,000	-0,105	0,000
-565,831	-90,663	0,136	0,029
-564,817	-200,000	0,003	-0,014
-563,802	-200,000	0,018	-0,106
-562,788	-101,953	0,025	-0,004
-561,773	-105,118	-0,169	-0,028
-560,758	-26,396	0,129	0,055
-559,744	185,683	0,016	0,018
-558,729	-200,000	-0,010	-0,079
-557,715	-200,000	-0,003	-0,127
-556,700	122,892	-0,116	-0,107
-555,685	-200,000	0,000	-0,077
-554,671	286,132	0,074	0,098
-553,656	588,835	0,037	0,067
-552,642	-5,820	0,084	0,042
-551,627	-42,577	-0,012	0,004
-550,612	433,303	-0,034	-0,054
-549,598	167,430	0,116	-0,120
-548,583	800,000	-0,026	-0,079
-547,569	-34,421	-0,026	0,010
-546,554	344,228	-0,040	0,058
-545,539	410,931	0,039	-0,061
-544,525	-200,000	-0,053	0,179
-543,510	0,117	0,035	0,018
-542,496	662,807	-0,057	-0,109
-541,481	429,807	-0,046	0,073
-540,466	421,662	0,018	0,028
-539,452	-54,085	0,122	0,040
-538,437	800,000	0,025	0,069
-537,423	-200,000	0,019	0,153
-536,408	-32,518	-0,119	-0,048
-535,393	204,494	0,074	-0,085
-534,379	-86,873	-0,239	-0,053
-533,364	-200,000	0,021	-0,086
-532,350	214,451	-0,012	0,014
-531,335	78,157	0,100	0,078
-530,321	-158,994	-0,047	-0,002
-529,306	-147,746	-0,074	-0,004
-528,291	-200,000	-0,011	-0,135
-527,277	-97,785	0,097	0,018
-526,262	237,512	0,022	-0,027
-525,248	-41,034	0,080	0,030
-524,233	-20,978	0,022	0,010
-523,218	392,010	0,088	0,134
-522,204	339,422	0,082	0,118
-521,189	156,939	-0,071	0,072
-520,175	-200,000	0,019	-0,096
-519,160	32,281	0,111	0,070
-518,145	-200,000	-0,002	0,046
-517,131	61,366	0,164	0,119
-516,116	-17,504	-0,052	0,024
-515,102	441,299	-0,066	-0,106
-514,087	800,000	0,011	-0,025
-513,072	4,439	-0,079	-0,042
-512,058	-110,894	0,047	0,007
-511,043	-70,040	0,086	0,024
-510,029	800,000	-0,031	0,079
-509,014	800,000	-0,028	-0,059
-507,999	-76,678	-0,169	-0,043
-506,985	-162,214	-0,077	0,003
-505,970	-200,000	0,006	-0,094
-504,956	-200,000	0,004	-0,060
-503,941	-53,467	0,072	-0,024
-502,926	138,712	0,052	-0,050
-501,912	-200,000	-0,007	-0,060
-500,897	-200,000	-0,011	-0,083
-499,883	297,201	-0,038	0,051
-498,868	-108,680	-0,134	-0,021
-497,853	-127,086	0,122	-0,013
-496,839	-44,441	-0,049	-0,018
-495,824	-69,697	0,060	-0,017
-494,810	-193,339	0,166	-0,001
-493,795	-111,483	-0,053	0,008
-492,781	800,000	-0,032	0,072
-491,766	800,000	0,056	-0,128
-490,751	-181,026	-0,049	-0,001
-489,737	-110,931	-0,041	-0,006
-488,722	-76,111	0,036	0,009
-487,708	-200,000	-0,001	-0,131
-486,693	395,935	0,034	0,052
-485,678	19,985	0,042	0,024
-484,664	-86,951	-0,144	-0,032
-483,649	4,311	-0,063	-0,034
-482,635	-179,054	-0,031	-0,000
-481,620	800,000	-0,021	0,053
-480,605	-200,000	0,009	-0,075
-479,591	-23,280	0,167	-0,073
-478,576	7,871	-0,155	0,085
-477,562	513,424	-0,027	-0,047
-476,547	-200,000	0,009	-0,046
-475,532	-120,290	0,187	0,023
-474,518	-42,309	-0,048	0,018
-473,503	574,320	0,045	-0,081
-472,489	134,343	0,063	-0,060
-471,474	-182,407	-0,097	-0,001
-470,459	39,111	0,017	0,011
-469,445	82,220	-0,031	0,024
-468,430	436,045	-0,037	0,060
-467,416	-126,050	-0,104	0,011
-466,401	800,000	-0,045	-0,117
-465,386	-19,848	-0,064	0,029
-464,372	269,483	-0,012	0,015
-463,357	-7,724	-0,118	0,058
-462,343	-200,000	-0,029	0,171
-461,328	610,315	0,054	-0,098
-460,313	38,284	0,106	-0,069
-459,299	800,000	0,068	0,138
-458,284	-200,000	0,003	0,071
-457,270	-42,392	0,025	-0,009
-456,255	-200,000	-0,021	-0,158
-455,241	-170,048	-0,137	0,003
-454,226	77,445	0,025	0,019
-453,211	-96,452	0,138	-0,026
-452,197	311,974	0,069	0,095
-451,182	233,624	0,090	0,108
-450,168	-200,000	-0,017	0,069
-449,153	-200,000	-0,011	-0,078
-448,138	104,579	-0,108	-0,093
-447,124	-200,000	0,031	0,122
-446,109	257,628	-0,069	-0,086
-445,095	-37,334	0,045	-0,018
-444,080	91,393	-0,026	-0,022
-443,065	-200,000	0,039	0,227
-442,051	574,228	0,077	0,137
-441,036	-80,461	-0,115	-0,028
-440,022	-56,236	-0,092	-0,030
-439,007	-200,000	0,011	-0,108
-437,992	-15,691	0,060	0,028
-436,978	-118,997	0,038	-0,005
-435,963	425,230	-0,051	-0,080
-434,949	800,000	-0,035	0,079
-433,934	800,000	0,020	0,063
-432,919	-200,000	0,028	-0,091
-431,905	278,345	0,017	0,022
-430,890	-200,000	-0,017	0,074
-429,876	41,711	0,109	0,072
-428,861	44,130	0,014	0,010
-427,846	670,513	-0,075	-0,141
-426,832	312,154	0,048	-0,066
-425,817	43,860	-0,073	-0,049
-424,803	-127,877	0,037	-0,004
-423,788	32,131	0,100	0,062
-422,773	34,000	-0,023	0,014
-421,759	-200,000	-0,018	-0,077
-420,744	-200,000	-0,016	-0,148
-419,730	0,453	-0,066	0,034
-418,715	-56,119	0,048	0,015
-417,701	-157,464	-0,034	0,001
-416,686	-78,870	0,117	0,029
-415,671	-82,555	0,068	-0,016
-414,657	-200,000	-0,003	0,089
-413,642	-200,000	-0,001	-0,068
-412,628	-103,394	0,079	0,013
-411,613	-130,645	-0,109	0,011
-410,598	-37,192	0,049	-0,019
-409,584	0,561	0,104	-0,054
-408,569	-52,136	0,092	0,031
-407,555	-200,000	0,021	-0,074
-406,540	-136,612	-0,135	0,011
-405,525	75,497	0,111	-0,085
-404,511	348,475	-0,016	0,023
-403,496	205,081	0,088	0,100
-402,482	-9,011	0,152	0,074
-401,467	433,362	-0,021	0,033
-400,452	-200,000	-0,013	0,212
-399,438	-161,621	-0,070	-0,003
-398,423	-200,000	-0,021	-0,141
-397,409	-188,165	-0,066	-0,001
-396,394	88,392	-0,077	0,062
-395,379	296,808	-0,040	0,054
-394,365	-200,000	-0,011	0,112
-393,350	-200,000	-0,010	0,060
-392,336	800,000	0,045	-0,108
-391,321	800,000	-0,036	0,102
-390,306	800,000	-0,029	-0,068
-389,292	228,926	0,092	0,109
-388,277	5,970	0,051	0,028
-387,263	-200,000	0,001	-0,036
-386,248	800,000	0,045	0,129
-385,233	93,520	0,051	0,042
-384,219	579,273	-0,101	-0,180
-383,204	226,716	-0,057	-0,067
-382,190	-200,000	-0,017	0,058
-381,175	800,000	0,061	0,126
-380,160	-9,126	-0,100	0,048
-379,146	74,704	-0,022	0,017
-378,131	-200,000	0,000	0,119
-377,117	69,272	0,105	-0,079
-376,102	5,709	-0,076	0,041
-375,088	55,172	-0,039	-0,027
-374,073	179,909	-0,071	0,075
-373,058	-200,000	0,019	0,193
-372,044	147,163	0,032	-0,031
-371,029	342,151	-0,025	0,036
-370,015	800,000	-0,020	0,059
-369,000	380,756	0,104	-0,155
-367,985	282,893	-0,084	-0,110
-366,971	800,000	-0,014	0,029
-365,956	90,214	0,139	0,113
-364,942	99,411	0,067	0,056
-363,927	532,592	0,069	0,119
-362,912	602,655	-0,039	0,070
-361,898	-19,801	0,029	-0,013
-360,883	800,000	-0,023	-0,052
-359,869	369,871	0,036	0,054
-358,854	139,037	0,044	-0,042
-357,839	39,040	0,037	0,024
-356,825	-41,543	-0,130	-0,048
-355,810	505,312	-0,087	0,146
-354,796	-98,531	-0,056	0,010
-353,781	800,000	0,028	0,071
-352,766	-200,000	-0,015	-0,077
-351,752	-200,000	-0,006	-0,050
-350,737	68,296	0,014	-0,010
-349,723	135,642	0,081	0,077
-348,708	-200,000	-0,011	0,123
-347,693	15,001	0,118	0,067
-346,679	-101,273	-0,121	-0,021
-345,664	272,072	-0,033	-0,042
-344,650	164,540	-0,050	-0,051
-343,635	78,312	0,097	0,075
-342,620	26,064	-0,079	0,047
-341,606	800,000	-0,026	0,084
-340,591	-200,000	0,017	-0,087
-339,577	-200,000	0,009	-0,083
-338,562	-200,000	-0,004	-0,038
-337,548	-69,986	-0,134	0,037
-336,533	25,411	0,026	0,016
-335,518	-56,906	0,104	0,033
-334,504	800,000	-0,031	-0,069
-333,489	-200,000	0,007	-0,068
-332,475	800,000	-0,006	-0,013
-331,460	-200,000	-0,027	-0,157
-330,445	-165,141	0,046	-0,001
-329,431	-55,203	0,059	-0,019
-328,416	-84,290	-0,133	-0,030
-327,402	-200,000	0,019	0,103
-326,387	-200,000	0,018	-0,080
-325,372	-68,309	-0,167	0,047
-324,358	-83,443	0,025	-0,006
-323,343	-58,335	0,065	-0,020
-322,329	-181,595	0,051	-0,001
-321,314	115,048	0,121	0,107
-320,299	-200,000	0,009	-0,092
-319,285	-200,000	0,010	0,074
-318,270	715,451	-0,032	0,061
-317,256	101,131	0,060	-0,051
-316,241	344,909	-0,079	-0,112
-315,226	648,693	-0,026	0,048
-314,212	800,000	0,027	0,065
-313,197	-200,000	0,043	0,148
-312,183	326,779	-0,061	0,085
-311,168	710,091	-0,035	-0,068
-310,153	-121,787	0,062	-0,007
-309,139	-160,172	-0,054	0,002
-308,124	194,565	-0,052	0,057
-307,110	367,608	0,092	0,135
-306,095	745,800	-0,077	0,151
-305,080	592,916	-0,019	0,034
-304,066	-63,767	0,106	-0,031
-303,051	309,155	-0,084	0,114
-302,037	800,000	0,048	0,103
-301,022	800,000	-0,008	0,021
-300,008	361,635	0,099	-0,144
-298,993	800,000	-0,028	0,086
-297,978	107,163	0,036	-0,031
-296,964	-88,922	0,031	0,007
-295,949	143,532	0,027	0,026
-294,935	278,446	0,056	-0,072
-293,920	54,163	0,075	-0,053
-292,905	690,081	-0,056	0,107
-291,891	353,062	-0,061	0,088
-290,876	138,119	0,157	-0,149
-289,862	56,650	-0,121	0,085
-288,847	-19,697	-0,134	-0,060
-287,832	-32,590	0,118	0,047
-286,818	67,335	-0,025	0,018
-285,803	77,051	-0,017	-0,013
-284,789	123,977	-0,049	0,044
-283,774	65,328	0,041	-0,030
-282,759	-36,233	-0,098	0,038
-281,745	16,942	0,097	0,055
-280,730	-16,905	0,123	0,056
-279,716	41,297	-0,076	-0,050
-278,701	-51,228	0,105	0,035
-277,686	-157,010	-0,131	-0,006
-276,672	290,964	0,056	-0,074
-275,657	-113,210	-0,128	-0,018
-274,643	-47,882	0,194	0,068
-273,628	800,000	-0,029	-0,092
-272,613	-200,000	-0,026	-0,098
-271,599	146,993	-0,061	0,060
-270,584	150,475	0,053	0,053
-269,570	800,000	0,008	-0,024
-268,555	-38,797	0,036	0,014
-267,540	86,543	-0,088	0,070
-266,526	198,157	0,099	-0,110
-265,511	-200,000	-0,024	0,093
-264,497	-102,801	-0,070	-0,012
-263,482	-200,000	-0,013	-0,092
-262,467	215,437	0,032	0,037
-261,453	-200,000	-0,041	0,174
-260,438	-200,000	0,009	-0,050
-259,424	64,652	-0,044	-0,032
-258,409	785,214	0,010	-0,019
-257,395	-89,684	0,066	0,014
-256,380	-103,085	0,047	0,008
-255,365	57,346	0,105	0,074
-254,351	-56,548	0,185	0,059
-253,336	-10,100	0,059	0,028
-252,322	-200,000	-0,002	-0,127
-251,307	-162,071	0,114	-0,004
-250,292	14,978	0,114	-0,064
-249,278	-64,418	0,177	0,052
-248,263	199,428	-0,068	-0,076
-247,249	-99,797	0,055	-0,010
-246,234	739,323	0,033	0,065
-245,219	-200,000	-0,030	-0,126
-244,205	800,000	-0,072	-0,146
-243,190	353,715	-0,035	-0,051
-242,176	800,000	0,029	0,074
-241,161	-193,136	-0,061	-0,000
-240,146	569,655	-0,014	0,025
-239,132	-200,000	0,014	0,109
-238,117	255,667	0,052	0,065
-237,103	-130,728	0,036	-0,003
-236,088	-52,668	0,061	-0,020
-235,073	195,472	-0,074	0,081
-234,059	130,793	0,055	0,051
-233,044	-85,245	-0,127	0,028
-232,030	-200,000	-0,012	0,091
-231,015	630,067	0,037	-0,068
-230,000	800,000	-0,037	-0,105
-228,986	53,612	0,112	-0,078
-227,971	277,870	0,085	-0,110
-226,957	-200,000	-0,019	-0,141
-225,942	800,000	0,030	0,095
-224,927	192,363	-0,093	-0,102
-223,913	800,000	0,028	-0,074
-222,898	-84,320	-0,051	-0,012
-221,884	-142,729	-0,090	0,006
-220,869	-117,883	0,181	-0,023
-219,855	57,729	-0,086	-0,061
-218,840	429,715	-0,030	0,047
-217,825	102,610	0,056	-0,047
-216,811	800,000	0,026	-0,061
-215,796	237,424	-0,065	-0,078
-214,782	243,750	-0,010	0,012
-213,767	0,903	0,133	-0,069
-212,752	-200,000	0,004	0,060
-211,738	-200,000	-0,019	-0,073
-210,723	273,572	-0,045	0,057
-209,709	290,254	-0,019	0,025
-208,694	-45,856	-0,231	-0,082
-207,679	72,524	-0,138	-0,104
-206,665	800,000	0,067	-0,138
-205,650	-92,870	0,071	-0,014
-204,636	267,154	0,089	0,112
-203,621	-200,000	0,023	-0,074
-202,606	800,000	0,004	0,009
-201,592	397,791	-0,030	-0,046
-200,577	-123,832	-0,096	0,011
-199,563	-200,000	-0,012	-0,063
-198,548	800,000	0,054	0,127
-197,533	-200,000	-0,006	0,065
-196,519	800,000	0,031	0,063
-195,504	-113,100	-0,215	0,030
-194,490	800,000	-0,030	-0,078
-193,475	-99,543	0,152	0,027
-192,460	-67,117	-0,036	-0,010
-191,446	50,793	0,135	-0,092
-190,431	13,060	0,073	0,041
-189,417	161,533	-0,055	0,056
-188,402	611,732	0,021	0,038
-187,387	275,929	-0,066	-0,084
-186,373	-200,000	-0,025	0,085
-185,358	800,000	-0,030	-0,073
-184,344	-163,816	0,024	0,001
-183,329	317,512	0,033	-0,045
-182,315	-113,987	-0,082	0,011
-181,300	-66,275	-0,075	0,021
-180,285	-69,893	0,065	0,018
-179,271	23,508	0,064	0,038
-178,256	-200,000	-0,014	0,065
-177,242	0,901	-0,102	-0,053
-176,227	-97,809	0,060	0,011
-175,212	-101,048	0,117	0,020
-174,198	-200,000	0,021	-0,072
-173,183	-52,631	0,027	0,009
-172,169	196,432	0,122	-0,134
-171,154	-119,987	-0,148	0,018
-170,139	-30,859	0,089	0,036
-169,125	-200,000	0,048	0,219
-168,110	-43,639	-0,012	0,004
-167,096	-200,000	-0,005	-0,023
-166,081	800,000	-0,049	0,116
-165,066	455,582	-0,032	-0,052
-164,052	-12,084	-0,036	-0,017
-163,037	-40,415	-0,087	0,032
-162,023	60,736	-0,032	0,023
-161,008	275,144	0,042	-0,054
-159,993	13,752	-0,018	-0,010
-158,979	800,000	0,010	0,024
-157,964	-157,268	-0,072	0,003
-156,950	374,524	-0,046	-0,068
-155,935	800,000	0,074	0,230
-154,920	73,715	-0,047	-0,036
-153,906	-200,000	-0,013	0,076
-152,891	-33,739	0,130	-0,051
-151,877	509,289	-0,030	0,050
-150,862	-178,754	-0,147	-0,002
-149,847	-81,768	0,113	-0,027
-148,833	136,680	-0,107	0,101
-147,818	284,471	0,096	0,125
-146,804	175,341	-0,041	-0,043
-145,789	324,831	0,109	-0,151
-144,775	-33,891	-0,093	-0,037
-143,760	287,388	0,037	-0,049
-142,745	119,352	-0,060	-0,053
-141,731	-135,635	0,141	0,012
-140,716	-200,000	0,017	0,094
-139,702	348,253	-0,058	0,082
-138,687	454,870	0,014	0,022
-137,672	-50,572	-0,070	0,024
-136,658	-57,844	0,056	0,018
-135,643	698,973	-0,028	-0,054
-134,629	226,450	-0,071	-0,083
-133,614	-12,361	0,074	0,035
-132,599	144,010	0,127	0,122
-131,585	800,000	-0,016	0,033
-130,570	217,227	-0,068	-0,078
-129,556	117,125	0,060	-0,053
-128,541	800,000	0,025	0,067
-127,526	33,080	-0,135	-0,084
-126,512	270,319	-0,045	0,057
-125,497	280,482	0,053	0,069
-124,483	597,738	0,045	-0,081
-123,468	82,001	-0,026	-0,020
-122,453	-168,434	-0,075	-0,002
-121,439	-6,171	-0,107	-0,052
-120,424	32,739	0,136	-0,084
