DTS Sentinel unit serial number:	SN410029Multiplexer serial number:	ORYXHardware model number:	OX2-SRSoftware version number:	ORYX F/W v4,00 Oryx Data Collector v3.7.2.0data status	okinstallation	B5 Nyhavnadifferential loss correction	single-endedforward channel	channel 2reverse channel	N/Adate	2023/12/13time	09:47:13forward acquisition time	300,00reverse acquisition time	0,00gamma	499,1914k internal	0,3160k external	0,3160temperature offset calibration	1,0000default loss term (dB/km)	0,3820temperature slope calibration	1,0000multiplexer offset coefficient	1,0000multiplexer slope coefficient	1,0000fibre end	0,00T internal ref (°C)	13,65T ext. ref 1 (°C)	-2,73T ext. ref 2 (°C)	-3,03length (m)	temperature (°C)	Stokes	anti-Stokes-744,400	64,857	0,090	0,067
-743,385	-187,656	-0,328	0,003
-742,371	11,627	0,168	0,095
-741,356	-65,597	-0,336	0,099
-740,342	-119,979	0,134	0,017
-739,327	-117,103	-0,324	-0,043
-738,312	-62,861	0,118	0,036
-737,298	-99,733	-0,323	-0,059
-736,283	599,568	-0,082	-0,150
-735,269	-19,116	-0,179	-0,081
-734,254	-125,123	0,105	0,012
-733,239	-12,208	-0,458	-0,220
-732,225	-24,068	0,281	0,123
-731,210	102,150	-0,133	0,114
-730,196	-76,096	-0,009	0,002
-729,181	-27,906	-0,137	0,058
-728,167	-200,000	0,003	-0,080
-727,152	800,000	-0,039	-0,103
-726,137	-13,151	-0,013	0,006
-725,123	-200,000	-0,009	-0,030
-724,108	-188,573	-0,136	0,001
-723,094	-95,159	-0,016	0,003
-722,079	123,839	-0,103	-0,095
-721,064	800,000	0,068	-0,146
-720,050	571,485	-0,091	-0,163
-719,035	135,553	0,026	0,025
-718,021	-200,000	0,001	0,053
-717,006	-2,363	-0,107	0,055
-715,991	-19,513	-0,034	0,015
-714,977	646,849	0,048	-0,091
-713,962	-149,999	-0,083	0,005
-712,948	40,320	0,094	-0,062
-711,933	64,727	0,095	0,070
-710,918	-22,652	-0,074	-0,033
-709,904	26,674	0,064	0,039
-708,889	88,486	-0,124	-0,101
-707,875	-141,312	-0,124	-0,009
-706,860	-199,282	0,193	0,001
-705,845	800,000	-0,041	0,111
-704,831	291,123	0,076	-0,103
-703,816	800,000	0,057	0,168
-702,802	243,819	-0,061	-0,075
-701,787	34,331	-0,097	-0,062
-700,772	800,000	-0,053	-0,119
-699,758	-163,477	-0,180	0,006
-698,743	800,000	0,057	-0,125
-697,729	-114,476	0,066	-0,009
-696,714	800,000	0,040	0,084
-695,699	800,000	-0,066	-0,184
-694,685	-200,000	0,015	-0,090
-693,670	800,000	-0,061	-0,184
-692,656	-200,000	0,023	-0,083
-691,641	-90,612	0,155	0,033
-690,627	320,985	-0,016	-0,022
-689,612	800,000	-0,032	0,091
-688,597	800,000	-0,038	-0,080
-687,583	-43,757	-0,185	0,068
-686,568	285,515	0,031	0,041
-685,554	350,391	-0,063	0,092
-684,539	-122,757	0,036	0,004
-683,524	-48,931	0,110	0,039
-682,510	-200,000	-0,008	0,079
-681,495	-75,989	0,104	0,027
-680,481	-200,000	-0,010	-0,129
-679,466	65,915	-0,081	-0,060
-678,451	-150,232	0,101	-0,006
-677,437	-200,000	-0,045	-0,168
-676,422	125,577	0,073	-0,067
-675,408	-200,000	-0,012	0,042
-674,393	-122,346	-0,018	-0,002
-673,378	-200,000	0,003	0,047
-672,364	-200,000	0,006	-0,049
-671,349	723,711	-0,033	-0,064
-670,335	-82,698	-0,164	-0,039
-669,320	-0,791	0,159	0,083
-668,305	-14,637	-0,021	0,010
-667,291	-26,240	-0,196	0,084
-666,276	-200,000	-0,019	0,063
-665,262	-39,028	-0,151	0,058
-664,247	-3,092	-0,048	-0,024
-663,232	61,521	-0,045	0,033
-662,218	-133,077	0,092	-0,008
-661,203	800,000	-0,057	0,140
-660,189	51,691	0,078	0,054
-659,174	7,876	-0,045	0,025
-658,159	344,404	-0,048	0,070
-657,145	62,193	-0,174	-0,127
-656,130	687,302	0,035	0,067
-655,116	-14,055	0,059	-0,028
-654,101	-106,313	-0,065	-0,011
-653,086	-200,000	-0,034	0,125
-652,072	800,000	-0,016	-0,044
-651,057	-173,900	-0,121	-0,003
-650,043	727,819	-0,044	-0,086
-649,028	-89,818	-0,033	-0,007
-648,014	-65,957	0,087	0,025
-646,999	310,622	0,073	0,101
-645,984	-170,889	0,080	-0,002
-644,970	-200,000	-0,003	-0,012
-643,955	-42,814	-0,081	-0,030
-642,941	73,873	-0,034	0,026
-641,926	202,869	-0,081	-0,092
-640,911	-83,512	-0,117	-0,027
-639,897	-129,890	0,109	0,011
-638,882	167,750	-0,108	0,113
-637,868	55,190	0,052	0,037
-636,853	-200,000	-0,020	-0,105
-635,838	101,962	-0,076	-0,065
-634,824	-151,628	-0,081	-0,004
-633,809	800,000	0,042	0,101
-632,795	-107,726	-0,063	0,010
-631,780	800,000	-0,017	0,047
-630,765	800,000	-0,017	-0,051
-629,751	800,000	-0,037	0,094
-628,736	572,850	0,007	-0,012
-627,722	-200,000	-0,011	0,149
-626,707	173,526	0,041	0,043
-625,692	159,091	0,036	0,037
-624,678	302,188	0,024	0,033
-623,663	690,284	-0,015	-0,029
-622,649	-200,000	-0,011	-0,058
-621,634	-91,114	-0,154	-0,032
-620,619	-200,000	-0,003	0,014
-619,605	-132,652	0,094	0,009
-618,590	800,000	0,039	-0,092
-617,576	-36,956	0,103	-0,040
-616,561	-21,919	-0,128	-0,057
-615,546	217,826	0,064	-0,075
-614,532	-95,952	-0,069	0,013
-613,517	-200,000	0,018	-0,067
-612,503	38,518	0,028	0,018
-611,488	535,950	-0,010	-0,018
-610,474	-200,000	-0,025	0,104
-609,459	27,624	0,142	-0,087
-608,444	-123,757	-0,078	0,009
-607,430	-89,665	-0,132	0,028
-606,415	-44,526	-0,084	0,031
-605,401	303,697	0,046	-0,062
-604,386	50,668	0,121	0,084
-603,371	-200,000	0,017	0,058
-602,357	-108,522	0,017	-0,003
-601,342	210,676	-0,060	0,069
-600,328	-199,431	-0,035	0,000
-599,313	59,245	-0,147	-0,106
-598,298	-200,000	0,073	0,000
-597,284	333,075	-0,046	-0,065
-596,269	-93,412	0,057	0,011
-595,255	-200,000	-0,002	0,009
-594,240	195,025	-0,044	0,049
-593,225	-149,460	-0,089	-0,005
-592,211	800,000	0,023	-0,059
-591,196	-200,000	-0,006	-0,024
-590,182	-85,306	0,074	0,017
-589,167	313,867	0,078	0,107
-588,152	131,885	-0,036	-0,034
-587,138	800,000	-0,008	-0,022
-586,123	800,000	-0,056	0,151
-585,109	-58,447	-0,065	-0,021
-584,094	-147,508	-0,167	-0,010
-583,079	-54,697	0,067	-0,022
-582,065	800,000	-0,006	-0,017
-581,050	202,933	-0,039	-0,044
-580,036	-74,317	0,016	-0,004
-579,021	549,411	0,043	-0,076
-578,006	495,403	-0,019	-0,032
-576,992	30,759	-0,125	0,078
-575,977	-72,314	-0,106	0,028
-574,963	66,064	0,124	-0,092
-573,948	354,824	-0,071	0,104
-572,934	81,648	0,109	0,086
-571,919	-121,274	0,020	0,002
-570,904	415,663	0,073	-0,115
-569,890	-112,813	0,114	0,016
-568,875	-86,786	-0,104	0,023
-567,861	593,075	0,094	0,171
-566,846	-200,000	0,028	0,101
-565,831	-106,391	0,100	0,016
-564,817	-74,523	-0,062	0,016
-563,802	800,000	-0,044	0,109
-562,788	-200,000	0,007	-0,100
-561,773	256,402	-0,042	-0,053
-560,758	800,000	-0,025	0,059
-559,744	87,617	0,069	-0,056
-558,729	-200,000	0,009	-0,042
-557,715	-200,000	0,009	0,094
-556,700	8,644	-0,083	0,045
-555,685	158,335	0,062	-0,063
-554,671	-200,000	-0,022	0,074
-553,656	319,086	0,050	0,070
-552,642	235,813	0,067	0,081
-551,627	-39,476	-0,051	0,019
-550,612	800,000	-0,008	-0,027
-549,598	-7,598	-0,064	0,031
-548,583	513,363	0,070	0,120
-547,569	331,362	0,050	0,071
-546,554	800,000	-0,003	-0,010
-545,539	-200,000	0,015	0,166
-544,525	569,363	-0,055	0,098
-543,510	800,000	-0,060	-0,135
-542,496	110,784	-0,104	-0,091
-541,481	800,000	-0,030	-0,065
-540,466	800,000	-0,028	0,085
-539,452	768,199	0,093	0,185
-538,437	134,139	-0,098	-0,093
-537,423	-6,266	0,044	-0,022
-536,408	-200,000	0,009	0,114
-535,393	18,188	-0,165	-0,096
-534,379	-58,597	-0,098	-0,031
-533,364	-58,123	0,142	0,045
-532,350	-200,000	0,035	0,148
-531,335	81,459	0,018	-0,014
-530,321	-9,515	0,133	0,065
-529,306	199,728	-0,095	-0,107
-528,291	145,397	-0,065	-0,063
-527,277	-47,359	0,029	-0,010
-526,262	51,263	-0,073	0,051
-525,248	800,000	-0,051	-0,132
-524,233	645,728	0,031	0,058
-523,218	395,212	-0,070	0,107
-522,204	76,087	-0,028	0,021
-521,189	577,297	-0,053	-0,096
-520,175	225,047	-0,034	0,041
-519,160	403,041	-0,095	-0,147
-518,145	-63,740	-0,141	-0,042
-517,131	-200,000	-0,008	0,186
-516,116	167,819	0,004	-0,004
-515,102	156,231	-0,043	0,043
-514,087	-61,243	-0,082	0,025
-513,072	72,737	-0,062	-0,047
-512,058	232,056	0,055	0,066
-511,043	263,349	0,032	0,041
-510,029	471,511	-0,051	0,083
-509,014	434,494	0,012	0,019
-507,999	448,758	-0,048	-0,078
-506,985	800,000	0,077	-0,192
-505,970	35,265	0,083	0,053
-504,956	163,709	-0,104	-0,106
-503,941	-200,000	-0,003	0,029
-502,926	800,000	-0,041	0,084
-501,912	-61,573	-0,088	0,027
-500,897	357,826	0,026	-0,039
-499,883	493,093	0,013	0,022
-498,868	-200,000	-0,013	-0,124
-497,853	587,874	-0,024	-0,043
-496,839	-25,581	-0,106	0,045
-495,824	-200,000	-0,012	-0,067
-494,810	-51,857	0,117	0,039
-493,795	369,872	-0,050	-0,074
-492,781	382,864	0,030	-0,045
-491,766	-119,094	0,085	0,011
-490,751	-40,992	-0,085	0,032
-489,737	36,129	0,117	-0,075
-488,722	289,418	0,047	-0,062
-487,708	14,727	0,107	0,061
-486,693	800,000	0,038	0,117
-485,678	169,485	0,016	-0,017
-484,664	96,815	-0,102	-0,086
-483,649	-129,737	0,090	-0,009
-482,635	-135,123	-0,123	0,011
-481,620	268,884	0,121	0,155
-480,605	800,000	-0,055	0,146
-479,591	-200,000	0,005	-0,030
-478,576	800,000	0,024	-0,059
-477,562	800,000	-0,043	-0,091
-476,547	800,000	-0,051	-0,154
-475,532	800,000	0,024	-0,060
-474,518	-200,000	0,008	0,129
-473,503	-66,822	0,054	0,016
-472,489	114,155	-0,101	-0,089
-471,474	-161,771	0,119	-0,004
-470,459	-4,093	0,124	-0,062
-469,445	800,000	-0,053	-0,128
-468,430	277,946	-0,090	-0,118
-467,416	398,543	0,028	-0,043
-466,401	-3,186	-0,063	-0,032
-465,386	-16,023	0,135	0,062
-464,372	-200,000	-0,006	0,061
-463,357	365,112	0,029	-0,043
-462,343	329,222	-0,081	-0,114
-461,328	-34,028	-0,123	0,049
-460,313	-103,005	0,078	0,013
-459,299	-200,000	0,007	-0,024
-458,284	-48,327	0,094	0,033
-457,270	-13,003	-0,020	-0,010
-456,255	-200,000	-0,026	-0,147
-455,241	-200,000	0,001	0,057
-454,226	42,327	-0,073	-0,048
-453,211	800,000	-0,013	-0,032
-452,197	-200,000	-0,019	-0,149
-451,182	128,328	0,046	0,043
-450,168	20,370	-0,042	0,025
-449,153	14,327	0,079	-0,045
-448,138	200,904	-0,102	-0,114
-447,124	370,789	-0,079	-0,116
-446,109	-200,000	0,014	-0,086
-445,095	-200,000	0,010	0,086
-444,080	266,624	0,055	0,070
-443,065	432,648	-0,046	-0,073
-442,051	-109,471	-0,107	0,016
-441,036	1,456	-0,087	0,045
-440,022	212,435	0,071	-0,081
-439,007	-200,000	-0,015	-0,069
-437,992	-200,000	0,023	0,140
-436,978	-142,670	0,104	-0,007
-435,963	-119,880	-0,080	0,010
-434,949	-26,883	-0,016	-0,007
-433,934	-200,000	-0,010	-0,038
-432,919	-200,000	-0,007	-0,129
-431,905	479,607	-0,057	0,095
-430,890	-27,885	0,073	0,031
-429,876	12,040	0,034	-0,019
-428,861	-200,000	-0,006	0,056
-427,846	-39,888	0,137	-0,052
-426,832	-161,210	-0,150	0,006
-425,817	310,820	0,038	0,052
-424,803	59,202	0,079	0,056
-423,788	52,960	0,146	-0,102
-422,773	466,263	0,063	0,102
-421,759	-200,000	0,040	0,150
-420,744	381,939	0,015	-0,023
-419,730	304,764	0,022	0,030
-418,715	699,163	0,029	0,056
-417,701	131,186	0,085	0,080
-416,686	87,626	0,029	-0,023
-415,671	-29,217	0,108	0,045
-414,657	-105,857	0,203	-0,033
-413,642	800,000	0,019	-0,051
-412,628	-26,785	-0,071	-0,030
-411,613	136,113	0,055	-0,052
-410,598	-104,166	-0,142	-0,024
-409,584	-200,000	-0,010	-0,089
-408,569	-7,348	-0,009	0,005
-407,555	110,386	-0,053	0,046
-406,540	-138,801	-0,201	-0,016
-405,525	31,303	-0,049	0,030
-404,511	33,212	0,102	-0,064
-403,496	800,000	0,054	-0,164
-402,482	80,294	-0,120	-0,094
-401,467	297,063	-0,010	-0,014
-400,452	-132,808	-0,124	0,011
-399,438	45,783	-0,070	-0,047
-398,423	317,420	0,025	0,034
-397,409	800,000	-0,037	-0,082
-396,394	163,827	0,108	0,110
-395,379	-5,087	-0,021	0,011
-394,365	-66,824	0,134	-0,038
-393,350	-21,205	0,133	-0,059
-392,336	148,372	-0,049	0,048
-391,321	-135,137	-0,049	-0,004
-390,306	-200,000	-0,001	-0,004
-389,292	364,503	-0,057	-0,084
-388,277	185,179	-0,028	0,030
-387,263	800,000	-0,016	-0,033
-386,248	671,867	0,051	-0,097
-385,233	198,078	-0,049	-0,054
-384,219	-200,000	-0,002	0,079
-383,204	-108,464	0,034	0,005
-382,190	-200,000	0,012	-0,104
-381,175	-86,146	-0,111	-0,025
-380,160	-52,273	0,147	0,049
-379,146	-1,825	-0,140	0,072
-378,131	-66,203	0,059	0,017
-377,117	-200,000	0,001	0,128
-376,102	-200,000	0,017	-0,076
-375,088	12,933	-0,040	-0,022
-374,073	800,000	0,011	-0,035
-373,058	34,848	-0,015	-0,010
-372,044	-20,478	0,098	0,043
-371,029	-200,000	0,007	-0,054
-370,015	82,284	-0,103	-0,081
-369,000	-200,000	0,006	-0,130
-367,985	-130,778	0,101	0,010
-366,971	-92,578	0,033	-0,007
-365,956	140,772	-0,064	-0,061
-364,942	58,903	0,102	0,073
-363,927	-200,000	0,005	0,110
-362,912	-79,025	0,036	-0,009
-361,898	800,000	-0,033	0,087
-360,883	-200,000	0,021	-0,097
-359,869	800,000	0,027	0,070
-358,854	318,958	-0,081	0,111
-357,839	188,816	0,017	0,019
-356,825	-200,000	-0,018	0,087
-355,810	-43,968	0,072	-0,026
-354,796	-130,593	0,079	-0,008
-353,781	404,986	0,031	-0,048
-352,766	800,000	-0,024	-0,073
-351,752	76,890	0,032	0,025
-350,737	800,000	-0,035	0,102
-349,723	800,000	-0,057	-0,142
-348,708	800,000	0,059	0,156
-347,693	-115,001	0,155	-0,021
-346,679	800,000	-0,036	0,115
-345,664	47,021	-0,092	-0,062
-344,650	643,721	0,023	-0,043
-343,635	188,797	-0,057	-0,062
-342,620	9,170	-0,024	-0,013
-341,606	-99,126	0,103	-0,019
-340,591	-102,763	0,047	0,008
-339,577	170,341	-0,073	-0,076
-338,562	653,555	0,007	0,013
-337,548	-200,000	0,018	0,139
-336,533	-9,084	0,129	0,062
-335,518	-200,000	-0,023	-0,124
-334,504	-63,518	0,092	-0,027
-333,489	299,866	-0,044	-0,058
-332,475	-200,000	-0,029	-0,110
-331,460	800,000	-0,082	-0,178
-330,445	-141,591	-0,067	-0,005
-329,431	549,129	0,066	0,116
-328,416	-163,485	-0,134	-0,005
-327,402	-200,000	-0,022	-0,075
-326,387	-200,000	-0,040	-0,152
-325,372	-84,689	-0,103	0,023
-324,358	-200,000	0,003	0,032
-323,343	115,920	-0,132	-0,117
-322,329	-113,490	0,114	0,016
-321,314	-68,617	0,208	0,058
-320,299	-200,000	0,030	-0,190
-319,285	-200,000	-0,029	0,118
-318,270	-200,000	-0,021	0,129
-317,256	169,991	-0,025	0,026
-316,241	77,197	0,025	-0,020
-315,226	-200,000	-0,009	0,112
-314,212	800,000	-0,050	0,143
-313,197	-125,678	0,046	-0,005
-312,183	179,027	-0,030	-0,032
-311,168	-200,000	0,002	-0,020
-310,153	-49,943	-0,144	-0,049
-309,139	-200,000	-0,009	-0,171
-308,124	-113,221	0,222	0,031
-307,110	-50,296	-0,085	-0,029
-306,095	7,625	0,088	0,047
-305,080	-70,841	0,179	-0,049
-304,066	-77,350	-0,109	-0,027
-303,051	-200,000	-0,011	-0,091
-302,037	-95,404	0,068	0,013
-301,022	-200,000	-0,015	0,098
-300,008	-157,862	0,085	0,004
-298,993	96,951	-0,034	0,029
-297,978	211,279	-0,048	0,055
-296,964	400,669	0,040	0,061
-295,949	90,654	-0,150	0,122
-294,935	-43,885	-0,103	-0,037
-293,920	-176,443	0,054	0,001
-292,905	-200,000	-0,001	-0,090
-291,891	-200,000	0,014	0,074
-290,876	-28,154	-0,039	0,016
-289,862	-2,070	-0,020	-0,010
-288,847	800,000	0,047	0,110
-287,832	168,072	-0,024	-0,024
-286,818	-200,000	0,012	0,081
-285,803	46,406	-0,014	-0,009
-284,789	-200,000	0,036	0,128
-283,774	660,833	-0,011	-0,021
-282,759	-46,376	-0,108	-0,038
-281,745	421,718	0,043	-0,067
-280,730	199,704	-0,082	-0,091
-279,716	-200,000	0,031	0,115
-278,701	58,755	-0,025	0,018
-277,686	-200,000	-0,047	0,239
-276,672	115,543	0,120	0,107
-275,657	1,755	-0,117	0,061
-274,643	-200,000	0,020	-0,138
-273,628	800,000	-0,009	0,018
-272,613	-200,000	-0,131	0,000
-271,599	349,082	0,036	-0,051
-270,584	-200,000	0,041	0,135
-269,570	-138,686	0,130	-0,010
-268,555	159,327	0,070	-0,070
-267,540	-48,502	-0,137	-0,047
-266,526	-200,000	0,013	-0,118
-265,511	54,603	0,041	-0,028
-264,497	-90,773	0,130	-0,027
-263,482	683,397	0,073	-0,138
-262,467	-63,793	-0,070	0,020
-261,453	148,691	-0,129	0,126
-260,438	185,639	0,062	-0,067
-259,424	-200,000	0,024	-0,104
-258,409	800,000	-0,029	0,061
-257,395	800,000	0,041	0,125
-256,380	-123,056	0,119	0,014
-255,365	800,000	0,048	-0,101
-254,351	-103,041	-0,148	0,025
-253,336	-9,245	0,076	-0,037
-252,322	-200,000	0,001	0,178
-251,307	800,000	-0,018	-0,051
-250,292	119,057	-0,025	-0,022
-249,278	-137,701	0,048	0,004
-248,263	-87,070	0,063	-0,014
-247,249	-97,103	0,181	0,034
-246,234	290,221	-0,064	-0,085
-245,219	-200,000	-0,034	-0,123
-244,205	436,960	0,032	-0,051
-243,190	578,516	-0,068	-0,120
-242,176	461,357	0,036	-0,059
-241,161	-121,153	0,040	0,005
-240,146	723,232	-0,026	0,051
-239,132	322,517	-0,050	-0,069
-238,117	-6,011	-0,066	0,033
-237,103	-62,667	-0,024	-0,007
-236,088	361,221	-0,025	-0,037
-235,073	-62,141	0,046	0,014
-234,059	800,000	-0,042	0,088
-233,044	401,196	0,028	-0,042
-232,030	-200,000	0,006	-0,055
-231,015	-104,853	-0,144	0,024
-230,000	-200,000	-0,002	-0,093
-228,986	-146,808	0,111	0,007
-227,971	-200,000	-0,003	0,045
-226,957	-96,130	0,104	0,020
-225,942	33,870	0,055	-0,034
-224,927	77,636	0,075	-0,058
-223,913	800,000	-0,053	0,125
-222,898	5,327	0,010	0,005
-221,884	800,000	-0,051	0,109
-220,869	762,938	0,050	0,099
-219,855	130,174	-0,075	-0,070
-218,840	192,665	0,082	0,089
-217,825	161,731	-0,074	0,075
-216,811	-179,844	-0,077	-0,001
-215,796	20,523	-0,074	-0,043
-214,782	-32,453	0,100	0,040
-213,767	-115,141	0,187	0,025
-212,752	-117,343	0,083	0,011
-211,738	800,000	-0,007	-0,016
-210,723	31,482	0,132	0,082
-209,709	-187,197	-0,211	0,002
-208,694	187,110	-0,104	-0,112
-207,679	-5,455	0,062	0,031
-206,665	179,823	-0,037	0,040
-205,650	-83,293	-0,039	-0,009
-204,636	-200,000	0,043	0,147
-203,621	-200,000	-0,009	0,063
-202,606	100,054	0,230	-0,193
-201,592	800,000	-0,006	-0,013
-200,577	-127,121	-0,062	-0,006
-199,563	587,827	-0,030	0,053
-198,548	64,169	-0,032	-0,023
-197,533	800,000	0,064	0,145
-196,519	-200,000	-0,011	-0,051
-195,504	313,779	0,044	0,059
-194,490	-142,483	0,164	0,011
-193,475	261,936	-0,041	-0,052
-192,460	55,485	-0,026	0,018
-191,446	-200,000	0,013	-0,118
-190,431	-4,703	0,134	0,066
-189,417	-75,643	-0,083	-0,021
-188,402	175,423	0,045	0,047
-187,387	69,792	0,095	-0,071
-186,373	505,706	0,053	-0,089
-185,358	-86,681	-0,076	0,017
-184,344	-200,000	-0,014	-0,056
-183,329	-21,944	-0,105	0,046
-182,315	-200,000	0,000	0,108
-181,300	-66,641	-0,131	0,037
-180,285	24,892	-0,050	0,030
-179,271	-41,111	0,071	-0,026
-178,256	463,927	-0,116	0,188
-177,242	302,467	-0,072	-0,096
-176,227	-159,294	0,136	-0,005
-175,212	800,000	0,045	0,094
-174,198	-200,000	-0,004	-0,053
-173,183	-162,999	-0,051	-0,002
-172,169	-160,391	-0,042	-0,002
-171,154	-41,888	0,098	-0,036
-170,139	-100,848	0,080	0,014
-169,125	15,839	0,115	0,065
-168,110	114,370	0,007	0,006
-167,096	-74,202	-0,065	0,017
-166,081	51,402	-0,067	0,046
-165,066	-77,528	0,025	0,006
-164,052	-14,501	0,032	0,015
-163,037	-200,000	0,033	-0,116
-162,023	-200,000	-0,028	-0,090
-161,008	-200,000	-0,036	-0,142
-159,993	800,000	-0,042	0,130
-158,979	-144,957	0,190	0,012
-157,964	-200,000	0,016	-0,092
-156,950	290,201	-0,050	-0,065
-155,935	210,663	-0,025	0,028
-154,920	-200,000	0,033	0,128
-153,906	-97,103	0,038	0,007
-152,891	800,000	0,030	0,076
-151,877	-200,000	-0,033	-0,200
-150,862	-21,322	0,071	0,031
-149,847	800,000	-0,037	-0,113
-148,833	-63,177	0,132	0,039
-147,818	323,015	-0,075	0,104
-146,804	-39,006	-0,091	0,034
-145,789	104,971	0,039	-0,033
-144,775	800,000	0,069	0,142
-143,760	0,092	-0,102	0,052
-142,745	-151,480	-0,047	0,002
-141,731	525,392	-0,070	0,119
-140,716	480,630	-0,053	-0,087
-139,702	800,000	0,055	0,111
-138,687	20,792	-0,048	0,028
-137,672	-162,686	0,085	0,003
-136,658	-200,000	-0,051	-0,191
-135,643	458,327	0,030	-0,048
-134,629	-145,918	0,087	0,005
-133,614	-130,319	0,159	-0,015
-132,599	800,000	-0,023	0,066
-131,585	-94,934	0,073	0,014
-130,570	-56,234	-0,113	-0,036
-129,556	668,007	-0,113	-0,212
-128,541	-93,696	-0,196	0,039
-127,526	97,313	-0,129	0,106
-126,512	-200,000	0,031	0,132
-125,497	2,163	0,113	0,058
-124,483	-115,676	0,065	0,009
-123,468	-200,000	0,026	0,135
-122,453	-200,000	-0,011	-0,148
-121,439	800,000	0,040	-0,107
-120,424	800,000	0,042	0,086
-119,410	789,842	0,061	0,122
