DTS Sentinel unit serial number:	SN410029Multiplexer serial number:	ORYXHardware model number:	OX2-SRSoftware version number:	ORYX F/W v4,00 Oryx Data Collector v3.7.2.0data status	okinstallation	B5 Nyhavnadifferential loss correction	single-endedforward channel	channel 2reverse channel	N/Adate	2023/12/11time	23:32:13forward acquisition time	300,00reverse acquisition time	0,00gamma	499,1914k internal	0,3156k external	0,3156temperature offset calibration	1,0000default loss term (dB/km)	0,3820temperature slope calibration	1,0000multiplexer offset coefficient	1,0000multiplexer slope coefficient	1,0000fibre end	0,00T internal ref (°C)	16,25T ext. ref 1 (°C)	-0,05T ext. ref 2 (°C)	-0,33length (m)	temperature (°C)	Stokes	anti-Stokes-744,400	-65,038	0,053	-0,016
-743,385	-134,754	-0,295	-0,026
-742,371	-133,510	0,097	-0,009
-741,356	-83,097	-0,299	0,070
-740,342	75,259	0,073	-0,057
-739,327	-90,780	-0,238	-0,050
-738,312	-26,202	0,148	0,064
-737,298	-42,077	-0,302	0,113
-736,283	-200,000	0,008	0,057
-735,269	19,232	-0,277	0,164
-734,254	603,189	0,001	-0,001
-733,239	-53,763	-0,504	-0,168
-732,225	-110,338	0,106	-0,016
-731,210	-200,000	0,006	0,029
-730,196	177,651	-0,011	-0,011
-729,181	241,755	0,026	-0,033
-728,167	-123,179	-0,063	0,007
-727,152	-71,804	-0,056	0,015
-726,137	155,802	-0,029	-0,030
-725,123	191,443	-0,118	-0,131
-724,108	-200,000	-0,015	-0,149
-723,094	258,940	-0,043	-0,054
-722,079	-60,079	-0,062	-0,019
-721,064	122,952	-0,115	-0,106
-720,050	-200,000	-0,006	-0,023
-719,035	462,361	0,027	-0,045
-718,021	563,255	0,043	-0,077
-717,006	95,986	-0,130	-0,110
-715,991	632,867	-0,103	-0,193
-714,977	91,030	-0,139	-0,115
-713,962	-200,000	0,028	0,119
-712,948	-200,000	0,017	0,150
-711,933	-191,256	-0,098	0,001
-710,918	47,972	-0,077	-0,053
-709,904	800,000	0,034	-0,070
-708,889	-200,000	-0,009	0,076
-707,875	-122,715	0,102	-0,012
-706,860	185,570	-0,063	0,069
-705,845	217,898	0,025	-0,029
-704,831	41,081	0,134	-0,089
-703,816	148,523	-0,029	0,029
-702,802	-200,000	-0,015	-0,099
-701,787	-200,000	0,024	-0,140
-700,772	-200,000	0,004	-0,032
-699,758	-200,000	-0,006	-0,030
-698,743	800,000	0,023	-0,055
-697,729	448,751	-0,040	0,065
-696,714	514,018	0,041	-0,071
-695,699	15,937	-0,082	0,047
-694,685	800,000	-0,013	-0,036
-693,670	-200,000	-0,025	-0,117
-692,656	-200,000	-0,028	-0,120
-691,641	118,532	0,076	-0,069
-690,627	135,934	0,070	0,067
-689,612	-200,000	0,001	0,118
-688,597	-80,604	-0,047	0,012
-687,583	-150,453	-0,043	-0,002
-686,568	95,931	-0,086	-0,072
-685,554	-200,000	-0,027	-0,116
-684,539	-150,614	0,092	-0,005
-683,524	-47,855	0,049	-0,017
-682,510	4,580	-0,106	-0,057
-681,495	-200,000	-0,026	-0,105
-680,481	-200,000	0,014	-0,060
-679,466	31,488	0,046	-0,029
-678,451	41,724	0,009	-0,006
-677,437	95,742	0,038	-0,032
-676,422	209,054	-0,093	-0,107
-675,408	-200,000	0,003	0,034
-674,393	-200,000	0,002	0,012
-673,378	-113,652	-0,119	0,017
-672,364	-87,068	-0,136	0,030
-671,349	-200,000	-0,021	-0,093
-670,335	222,159	-0,027	-0,033
-669,320	-76,253	0,134	0,034
-668,305	-200,000	-0,000	-0,005
-667,291	-200,000	0,026	0,136
-666,276	-42,369	-0,138	-0,052
-665,262	-87,617	-0,067	0,015
-664,247	530,850	-0,079	-0,138
-663,232	99,533	0,023	-0,020
-662,218	-31,894	0,088	0,036
-661,203	-200,000	-0,010	0,063
-660,189	-173,964	-0,065	0,001
-659,174	-200,000	-0,034	0,120
-658,159	705,662	-0,069	0,135
-657,145	73,276	-0,060	0,046
-656,130	-146,584	0,026	-0,002
-655,116	-200,000	0,007	0,040
-654,101	175,177	0,035	-0,037
-653,086	-189,847	-0,169	0,001
-652,072	5,391	-0,023	-0,012
-651,057	259,983	-0,024	0,031
-650,043	800,000	0,067	-0,159
-649,028	800,000	-0,043	-0,122
-648,014	467,882	0,078	-0,129
-646,999	-106,186	0,090	0,015
-645,984	129,294	-0,129	0,121
-644,970	93,327	-0,081	0,068
-643,955	-97,968	0,088	-0,017
-642,941	-115,079	-0,248	0,034
-641,926	72,580	0,052	-0,039
-640,911	158,551	-0,086	-0,087
-639,897	631,319	0,056	-0,105
-638,882	-41,650	0,167	-0,063
-637,868	-176,030	-0,056	0,001
-636,853	48,433	-0,114	0,078
-635,838	20,153	0,040	0,024
-634,824	17,142	-0,169	0,098
-633,809	-200,000	0,003	0,019
-632,795	25,660	0,044	0,027
-631,780	61,325	0,052	-0,038
-630,765	21,903	-0,063	-0,037
-629,751	800,000	-0,103	-0,231
-628,736	81,086	-0,087	-0,069
-627,722	585,696	0,025	-0,046
-626,707	12,696	0,078	0,044
-625,692	800,000	0,059	0,124
-624,678	180,708	0,055	0,059
-623,663	-109,731	-0,171	0,026
-622,649	-200,000	0,004	-0,132
-621,634	800,000	-0,037	0,086
-620,619	-107,390	-0,086	-0,014
-619,605	-73,086	0,061	0,016
-618,590	-200,000	0,004	0,049
-617,576	72,445	0,141	0,108
-616,561	15,483	0,132	-0,076
-615,546	128,088	-0,048	0,045
-614,532	166,587	-0,129	-0,134
-613,517	-100,949	-0,100	0,018
-612,503	-119,366	0,147	-0,019
-611,488	-200,000	-0,007	0,093
-610,474	334,780	-0,098	0,140
-609,459	64,322	0,040	0,030
-608,444	-82,533	-0,049	0,012
-607,430	-15,823	-0,090	0,042
-606,415	-79,714	-0,096	-0,023
-605,401	-44,780	0,106	0,039
-604,386	-160,870	0,126	-0,005
-603,371	172,815	-0,078	0,083
-602,357	-43,311	0,101	-0,037
-601,342	800,000	-0,035	0,073
-600,328	-200,000	-0,031	-0,108
-599,313	615,003	-0,042	-0,078
-598,298	419,087	0,045	0,071
-597,284	-129,129	0,194	-0,020
-596,269	197,447	0,043	0,048
-595,255	-158,730	-0,192	-0,008
-594,240	-200,000	-0,002	-0,042
-593,225	-200,000	-0,015	-0,071
-592,211	194,648	-0,108	0,120
-591,196	24,044	-0,028	0,017
-590,182	-20,249	-0,140	-0,063
-589,167	800,000	0,039	0,105
-588,152	52,865	0,068	0,048
-587,138	58,951	0,105	-0,076
-586,123	-40,332	-0,094	-0,036
-585,109	-89,971	-0,225	0,048
-584,094	265,810	0,034	-0,044
-583,079	800,000	0,034	0,084
-582,065	91,658	0,171	0,141
-581,050	800,000	-0,008	0,021
-580,036	-77,315	0,095	0,024
-579,021	655,693	-0,083	0,156
-578,006	-28,941	0,116	-0,049
-576,992	240,463	0,063	0,077
-575,977	800,000	0,043	0,117
-574,963	71,127	0,111	0,084
-573,948	-200,000	-0,028	0,114
-572,934	-4,277	0,066	0,033
-571,919	-200,000	-0,027	-0,119
-570,904	-92,757	-0,111	-0,023
-569,890	197,209	0,047	0,052
-568,875	127,237	0,074	-0,068
-567,861	-137,321	0,054	-0,004
-566,846	345,176	-0,014	0,020
-565,831	256,444	0,061	-0,077
-564,817	484,376	-0,007	-0,012
-563,802	-200,000	-0,026	-0,088
-562,788	38,823	0,035	-0,023
-561,773	27,040	-0,092	-0,056
-560,758	14,019	0,067	0,038
-559,744	164,397	-0,080	0,083
-558,729	150,573	-0,095	-0,094
-557,715	134,819	-0,113	0,108
-556,700	36,602	-0,184	0,119
-555,685	180,799	0,033	-0,035
-554,671	74,824	0,135	0,104
-553,656	-26,133	0,046	-0,020
-552,642	-36,325	-0,091	0,036
-551,627	-200,000	0,021	0,071
-550,612	-108,890	-0,158	0,024
-549,598	458,429	0,059	0,097
-548,583	134,990	-0,058	0,056
-547,569	33,780	-0,036	0,023
-546,554	-200,000	-0,001	-0,009
-545,539	-83,507	0,119	0,028
-544,525	26,008	-0,074	-0,045
-543,510	-59,173	-0,085	-0,027
-542,496	213,971	0,027	-0,032
-541,481	598,772	-0,100	-0,183
-540,466	55,127	-0,091	0,064
-539,452	-200,000	-0,005	0,033
-538,437	-200,000	-0,007	0,057
-537,423	-200,000	-0,001	0,040
-536,408	-200,000	-0,009	-0,037
-535,393	54,448	0,131	-0,092
-534,379	8,513	-0,121	0,066
-533,364	-200,000	0,028	-0,187
-532,350	32,269	0,065	-0,041
-531,335	800,000	0,050	0,128
-530,321	146,182	-0,017	-0,017
-529,306	43,582	0,047	-0,031
-528,291	-147,324	0,101	-0,006
-527,277	54,729	-0,103	-0,072
-526,262	-200,000	0,018	0,088
-525,248	-93,954	0,068	-0,014
-524,233	-200,000	-0,002	0,013
-523,218	-200,000	-0,003	0,155
-522,204	-47,041	0,095	0,034
-521,189	9,112	0,061	0,033
-520,175	73,802	-0,059	-0,045
-519,160	27,845	0,078	0,048
-518,145	-200,000	0,007	-0,024
-517,131	-200,000	-0,003	0,070
-516,116	35,049	0,114	0,073
-515,102	-111,388	-0,075	-0,011
-514,087	96,723	0,019	0,016
-513,072	-43,857	-0,106	-0,039
-512,058	-65,390	-0,103	-0,030
-511,043	-200,000	-0,025	0,112
-510,029	-200,000	0,002	0,077
-509,014	-15,731	0,021	0,010
-507,999	-42,630	0,034	-0,013
-506,985	232,816	-0,021	0,025
-505,970	26,382	-0,015	-0,009
-504,956	0,923	-0,045	0,024
-503,941	-200,000	-0,039	0,195
-502,926	54,394	-0,035	-0,025
-501,912	800,000	-0,010	0,021
-500,897	800,000	0,068	0,145
-499,883	424,390	-0,111	-0,175
-498,868	475,198	-0,041	-0,067
-497,853	-104,434	-0,091	0,015
-496,839	126,166	0,065	0,060
-495,824	-191,543	0,149	0,001
-494,810	-200,000	0,008	0,166
-493,795	110,970	0,077	0,068
-492,781	-200,000	0,047	-0,162
-491,766	-87,429	-0,108	-0,024
-490,751	-200,000	-0,003	-0,134
-489,737	-200,000	0,007	0,056
-488,722	-159,209	0,103	0,004
-487,708	383,874	0,067	-0,101
-486,693	-106,339	0,103	-0,017
-485,678	800,000	-0,057	-0,150
-484,664	257,440	-0,051	-0,064
-483,649	31,160	-0,023	-0,014
-482,635	-200,000	-0,011	0,097
-481,620	-12,817	0,046	0,022
-480,605	800,000	0,050	-0,131
-479,591	800,000	0,053	0,132
-478,576	-200,000	-0,012	-0,064
-477,562	171,969	-0,126	0,132
-476,547	-200,000	-0,006	0,044
-475,532	26,915	0,103	0,063
-474,518	565,274	-0,050	0,090
-473,503	-137,105	0,088	-0,007
-472,489	800,000	-0,047	0,145
-471,474	800,000	0,040	0,100
-470,459	-59,517	-0,097	0,030
-469,445	800,000	0,014	0,032
-468,430	304,059	-0,040	-0,055
-467,416	800,000	0,053	0,126
-466,401	42,811	0,054	0,036
-465,386	-200,000	-0,013	0,094
-464,372	-200,000	0,011	0,047
-463,357	-57,320	-0,078	-0,025
-462,343	-200,000	-0,001	0,030
-461,328	112,620	-0,080	-0,071
-460,313	177,968	0,095	0,101
-459,299	-10,453	0,057	0,028
-458,284	-22,653	0,107	-0,047
-457,270	279,339	0,084	-0,110
-456,255	800,000	-0,031	-0,078
-455,241	-200,000	-0,006	-0,077
-454,226	-70,226	-0,100	0,027
-453,211	-200,000	-0,004	0,043
-452,197	800,000	0,050	0,102
-451,182	18,967	0,042	-0,024
-450,168	-60,138	0,069	-0,021
-449,153	93,189	-0,098	-0,080
-448,138	-200,000	0,007	-0,118
-447,124	128,614	-0,124	0,116
-446,109	-200,000	-0,014	0,060
-445,095	251,094	0,080	0,100
-444,080	113,486	0,031	0,027
-443,065	-200,000	0,009	-0,085
-442,051	218,648	0,020	-0,023
-441,036	13,545	-0,084	0,048
-440,022	122,033	0,007	0,006
-439,007	-200,000	0,017	-0,053
-437,992	561,464	-0,031	0,055
-436,978	7,753	-0,081	-0,044
-435,963	-157,464	-0,021	-0,001
-434,949	-68,260	-0,069	0,019
-433,934	-56,236	0,098	-0,031
-432,919	800,000	0,023	-0,053
-431,905	-15,717	0,092	-0,043
-430,890	800,000	0,019	0,045
-429,876	12,850	0,129	-0,073
-428,861	120,568	0,095	0,086
-427,846	-200,000	0,001	-0,116
-426,832	-58,940	0,143	-0,045
-425,817	-7,886	-0,093	-0,045
-424,803	-42,288	-0,100	0,037
-423,788	800,000	-0,017	0,053
-422,773	713,650	0,023	-0,044
-421,759	275,985	-0,082	0,107
-420,744	69,557	-0,077	-0,058
-419,730	800,000	0,053	-0,146
-418,715	-200,000	-0,043	-0,163
-417,701	-200,000	-0,013	0,076
-416,686	66,076	0,089	0,066
-415,671	-0,062	0,030	-0,016
-414,657	800,000	-0,019	-0,058
-413,642	11,352	-0,051	-0,028
-412,628	-63,633	-0,062	-0,018
-411,613	21,953	-0,117	0,069
-410,598	800,000	0,027	0,067
-409,584	587,145	0,006	0,011
-408,569	297,601	0,146	-0,195
-407,555	-161,904	-0,174	-0,006
-406,540	-200,000	-0,022	0,091
-405,525	79,485	-0,068	-0,053
-404,511	225,130	0,068	-0,080
-403,496	-200,000	0,008	-0,097
-402,482	-200,000	0,016	-0,064
-401,467	-200,000	0,018	0,086
-400,452	782,991	0,060	0,121
-399,438	80,755	0,091	0,071
-398,423	-110,213	-0,067	0,010
-397,409	121,933	-0,043	0,039
-396,394	-168,607	-0,124	-0,003
-395,379	68,331	0,041	0,031
-394,365	152,599	-0,068	0,067
-393,350	-33,324	0,115	-0,046
-392,336	671,167	-0,054	0,103
-391,321	215,491	-0,020	-0,023
-390,306	-36,491	0,059	0,023
-389,292	-200,000	0,020	-0,080
-388,277	-200,000	-0,002	-0,020
-387,263	-58,822	0,099	0,031
-386,248	-127,701	0,074	-0,008
-385,233	214,597	-0,019	0,022
-384,219	-200,000	0,001	0,095
-383,204	5,167	-0,039	-0,021
-382,190	-200,000	-0,041	-0,155
-381,175	-141,134	-0,050	0,004
-380,160	541,521	0,029	-0,051
-379,146	73,106	-0,045	0,035
-378,131	800,000	-0,013	-0,036
-377,117	-200,000	0,008	-0,114
-376,102	371,018	-0,041	-0,061
-375,088	-12,971	-0,074	-0,035
-374,073	-200,000	0,022	-0,128
-373,058	-17,840	0,032	0,014
-372,044	-63,390	0,103	0,031
-371,029	164,135	0,113	-0,115
-370,015	144,196	-0,058	-0,057
-369,000	-26,311	-0,079	-0,034
-367,985	-200,000	0,001	-0,155
-366,971	-200,000	-0,011	-0,076
-365,956	800,000	0,043	-0,101
-364,942	-200,000	-0,006	0,063
-363,927	29,640	-0,054	0,033
-362,912	-65,977	0,095	0,027
-361,898	-29,287	-0,027	0,011
-360,883	-52,751	-0,246	-0,082
-359,869	800,000	-0,054	0,118
-358,854	800,000	0,064	0,143
-357,839	-90,454	0,086	-0,018
-356,825	800,000	0,016	-0,039
-355,810	258,570	-0,113	0,141
-354,796	-79,741	-0,054	0,013
-353,781	145,630	0,011	-0,011
-352,766	-46,710	-0,127	0,045
-351,752	800,000	0,056	0,158
-350,737	-23,313	-0,036	-0,016
-349,723	94,228	0,046	0,038
-348,708	-96,838	0,088	0,017
-347,693	-100,937	0,047	-0,008
-346,679	-69,130	-0,158	-0,044
-345,664	453,551	-0,061	-0,099
-344,650	-44,064	0,113	-0,041
-343,635	-74,112	0,170	0,044
-342,620	-11,093	-0,046	-0,022
-341,606	-200,000	-0,012	0,158
-340,591	86,788	-0,100	-0,080
-339,577	-200,000	0,006	-0,113
-338,562	-200,000	-0,018	-0,062
-337,548	800,000	0,012	0,035
-336,533	66,589	0,120	0,088
-335,518	447,695	-0,019	0,030
-334,504	156,971	-0,045	0,045
-333,489	304,241	0,061	0,082
-332,475	-200,000	0,004	0,139
-331,460	202,665	0,124	-0,140
-330,445	100,674	0,123	-0,104
-329,431	-140,710	0,019	0,001
-328,416	-200,000	0,016	0,128
-327,402	412,024	0,093	-0,144
-326,387	-28,307	-0,117	-0,049
-325,372	-86,699	-0,113	0,025
-324,358	114,620	0,041	-0,036
-323,343	226,298	-0,051	-0,060
-322,329	319,558	0,086	-0,118
-321,314	-58,373	-0,014	-0,004
-320,299	-12,628	0,220	0,104
-319,285	572,578	0,042	0,074
-318,270	-50,957	-0,087	-0,029
-317,256	-200,000	0,013	0,062
-316,241	173,833	-0,062	0,065
-315,226	121,081	0,079	-0,071
-314,212	-61,919	-0,074	0,022
-313,197	117,047	-0,076	-0,068
-312,183	-200,000	-0,007	0,150
-311,168	114,078	-0,117	-0,104
-310,153	-200,000	0,007	0,064
-309,139	158,288	0,020	-0,020
-308,124	-200,000	-0,003	0,022
-307,110	-139,118	0,094	-0,007
-306,095	800,000	-0,029	0,073
-305,080	124,049	-0,112	0,102
-304,066	375,501	-0,035	-0,052
-303,051	34,658	-0,050	0,032
-302,037	72,296	-0,045	-0,034
-301,022	-200,000	0,008	-0,054
-300,008	271,839	0,038	0,049
-298,993	516,305	0,013	-0,021
-297,978	1,639	-0,037	-0,019
-296,964	800,000	0,012	0,033
-295,949	327,734	-0,086	-0,120
-294,935	-60,312	0,121	-0,037
-293,920	611,168	0,081	0,147
-292,905	800,000	-0,076	0,165
-291,891	326,919	0,071	-0,099
-290,876	-200,000	-0,013	0,048
-289,862	343,955	0,037	-0,052
-288,847	204,840	0,027	-0,030
-287,832	-200,000	-0,001	-0,073
-286,818	-169,316	0,016	0,000
-285,803	-76,779	-0,022	-0,006
-284,789	-12,084	0,171	0,081
-283,774	-198,961	0,066	-0,000
-282,759	-92,168	0,069	-0,014
-281,745	171,771	0,081	-0,084
-280,730	103,552	-0,077	-0,065
-279,716	-187,597	-0,062	-0,001
-278,701	-200,000	0,019	-0,111
-277,686	-110,951	0,084	0,012
-276,672	-200,000	-0,028	0,118
-275,657	-200,000	-0,009	0,048
-274,643	-200,000	-0,026	-0,090
-273,628	-200,000	-0,030	0,108
-272,613	131,975	-0,023	0,021
-271,599	-63,938	0,052	0,015
-270,584	-200,000	0,013	-0,124
-269,570	130,084	0,134	0,124
-268,555	-43,654	0,114	0,041
-267,540	495,615	-0,058	0,097
-266,526	519,436	0,088	-0,150
-265,511	739,806	0,011	0,021
-264,497	147,666	-0,149	-0,146
-263,482	-200,000	-0,004	-0,063
-262,467	-93,433	0,086	-0,017
-261,453	800,000	-0,032	0,096
-260,438	800,000	-0,030	0,061
-259,424	-183,488	-0,083	-0,001
-258,409	-87,672	0,153	-0,033
-257,395	301,903	-0,064	-0,086
-256,380	59,156	-0,111	-0,079
-255,365	23,587	0,087	0,052
-254,351	209,972	0,116	0,132
-253,336	120,259	0,014	-0,012
-252,322	-200,000	-0,022	-0,102
-251,307	-90,773	-0,030	0,006
-250,292	-102,689	0,089	0,015
-249,278	-72,336	0,159	0,042
-248,263	178,066	0,063	-0,067
-247,249	-137,631	0,164	0,013
-246,234	7,691	0,024	0,013
-245,219	90,891	-0,071	-0,058
-244,205	263,537	-0,020	-0,025
-243,190	547,426	0,032	-0,056
-242,176	92,347	0,101	0,082
-241,161	-200,000	0,032	0,119
-240,146	102,899	0,023	0,019
-239,132	548,032	-0,068	-0,118
-238,117	479,669	-0,042	-0,069
-237,103	-92,980	-0,141	-0,028
-236,088	-1,008	0,094	-0,048
-235,073	574,256	0,023	-0,040
-234,059	399,909	0,051	0,078
-233,044	-49,544	0,196	-0,067
-232,030	-200,000	-0,011	0,173
-231,015	-200,000	-0,002	-0,054
-230,000	-67,222	0,126	-0,036
-228,986	-28,560	-0,070	-0,029
-227,971	-200,000	0,003	0,043
-226,957	34,022	0,080	-0,051
-225,942	60,657	0,023	-0,016
-224,927	463,798	0,077	0,125
-223,913	178,793	-0,085	-0,089
-222,898	-11,864	0,021	0,010
-221,884	-5,548	-0,078	0,039
-220,869	306,477	0,087	-0,117
-219,855	-200,000	-0,001	0,101
-218,840	-66,769	0,016	0,005
-217,825	-13,636	-0,047	-0,022
-216,811	244,243	-0,065	0,080
-215,796	-127,409	-0,028	-0,003
-214,782	344,229	-0,009	-0,013
-213,767	507,509	0,032	0,053
-212,752	643,672	-0,026	-0,049
-211,738	-200,000	0,005	-0,018
-210,723	-4,651	0,015	0,008
-209,709	213,755	0,094	-0,108
-208,694	29,528	-0,175	-0,107
-207,679	-200,000	-0,002	-0,070
-206,665	-200,000	-0,000	-0,023
-205,650	-110,364	0,061	0,009
-204,636	625,180	0,013	-0,024
-203,621	628,467	-0,050	0,092
-202,606	-200,000	-0,022	-0,070
-201,592	-200,000	-0,000	-0,083
-200,577	-147,739	-0,115	0,007
-199,563	-131,898	-0,047	-0,004
-198,548	611,799	0,042	0,075
-197,533	800,000	0,044	0,089
-196,519	395,553	0,037	0,056
-195,504	-26,328	-0,050	0,021
-194,490	-23,677	-0,074	-0,032
-193,475	-200,000	0,008	-0,096
-192,460	-200,000	0,003	-0,092
-191,446	-56,244	-0,047	-0,015
-190,431	-200,000	0,012	-0,126
-189,417	-73,700	-0,092	0,024
-188,402	-117,756	-0,142	-0,018
-187,387	472,103	0,018	-0,030
-186,373	-71,450	-0,125	-0,034
-185,358	-200,000	0,006	-0,083
-184,344	-1,233	-0,045	-0,023
-183,329	-145,706	-0,120	-0,008
-182,315	-134,028	0,126	0,011
-181,300	-54,645	-0,084	0,027
-180,285	209,222	0,098	-0,111
-179,271	-200,000	-0,024	-0,089
-178,256	800,000	0,018	-0,058
-177,242	-200,000	0,017	-0,160
-176,227	-200,000	-0,010	0,136
-175,212	187,331	0,053	-0,057
-174,198	9,141	-0,032	-0,017
-173,183	16,012	-0,079	-0,045
-172,169	359,995	-0,041	-0,060
-171,154	-200,000	0,005	-0,076
-170,139	800,000	-0,043	0,113
-169,125	-101,725	0,092	-0,016
-168,110	-200,000	-0,051	0,184
-167,096	344,224	-0,032	-0,045
-166,081	-66,861	-0,044	0,012
-165,066	337,459	-0,045	-0,064
-164,052	126,838	0,089	0,081
-163,037	0,693	-0,073	0,038
-162,023	-25,836	0,126	-0,053
-161,008	631,837	-0,063	-0,116
-159,993	-200,000	0,008	0,102
-158,979	-87,465	-0,144	-0,031
-157,964	-200,000	-0,005	-0,027
-156,950	8,534	0,055	-0,030
-155,935	779,020	-0,098	-0,193
-154,920	182,679	0,135	0,144
-153,906	-200,000	0,008	0,056
-152,891	53,640	-0,112	-0,077
-151,877	-200,000	-0,006	0,041
-150,862	-200,000	0,029	-0,162
-149,847	800,000	0,075	-0,175
-148,833	260,967	-0,037	0,046
-147,818	-15,246	-0,021	-0,010
-146,804	711,899	-0,023	-0,045
-145,789	162,883	0,027	-0,027
-144,775	-200,000	0,008	-0,086
-143,760	-200,000	-0,011	-0,073
-142,745	-200,000	-0,008	0,193
-141,731	-113,323	-0,099	0,014
-140,716	197,775	0,125	0,137
-139,702	-117,441	0,090	0,012
-138,687	172,660	-0,022	0,023
-137,672	45,439	-0,061	0,040
-136,658	-56,692	-0,125	0,040
-135,643	-100,624	-0,123	-0,022
-134,629	73,357	-0,121	0,091
-133,614	456,996	-0,030	0,048
-132,599	-166,448	0,092	-0,003
-131,585	-143,492	-0,109	-0,007
-130,570	-200,000	0,013	-0,109
-129,556	-177,750	-0,068	0,001
-128,541	62,598	-0,073	0,053
-127,526	-98,074	0,083	0,015
-126,512	-200,000	0,010	-0,069
-125,497	800,000	-0,064	0,151
-124,483	-49,842	-0,046	-0,016
-123,468	95,642	-0,067	-0,055
-122,453	800,000	0,027	0,065
-121,439	-200,000	0,012	0,065
-120,424	125,965	-0,017	-0,015
-119,410	-200,000	-0,029	0,128
