DTS Sentinel unit serial number:	SN410029Multiplexer serial number:	ORYXHardware model number:	OX2-SRSoftware version number:	ORYX F/W v4,00 Oryx Data Collector v3.7.2.0data status	okinstallation	B5 Nyhavnadifferential loss correction	single-endedforward channel	channel 2reverse channel	N/Adate	2023/12/14time	05:37:13forward acquisition time	300,00reverse acquisition time	0,00gamma	499,1914k internal	0,3157k external	0,3157temperature offset calibration	1,0000default loss term (dB/km)	0,3820temperature slope calibration	1,0000multiplexer offset coefficient	1,0000multiplexer slope coefficient	1,0000fibre end	0,00T internal ref (°C)	7,75T ext. ref 1 (°C)	-8,71T ext. ref 2 (°C)	-8,80length (m)	temperature (°C)	Stokes	anti-Stokes-744,400	59,330	0,128	0,093
-743,385	-12,989	-0,431	-0,206
-742,371	291,162	0,134	0,181
-741,356	-41,865	-0,328	-0,123
-740,342	263,547	0,085	0,110
-739,327	-128,791	-0,216	-0,022
-738,312	-200,000	-0,019	-0,117
-737,298	-9,355	-0,358	-0,176
-736,283	20,149	0,129	0,076
-735,269	-182,400	-0,397	0,005
-734,254	-95,556	0,213	0,042
-733,239	2,306	-0,501	-0,266
-732,225	-11,762	0,196	0,095
-731,210	90,624	-0,075	0,062
-730,196	-183,393	-0,171	-0,002
-729,181	29,638	0,022	-0,014
-728,167	-68,924	-0,117	0,033
-727,152	-46,634	0,085	0,030
-726,137	193,418	0,029	-0,032
-725,123	-136,241	-0,091	0,008
-724,108	398,938	-0,088	-0,136
-723,094	115,535	-0,122	-0,110
-722,079	800,000	-0,025	-0,075
-721,064	145,510	-0,052	-0,052
-720,050	267,497	0,045	0,059
-719,035	267,925	-0,023	0,030
-718,021	4,527	-0,119	0,064
-717,006	800,000	0,049	-0,117
-715,991	155,968	-0,141	-0,144
-714,977	306,521	-0,067	-0,091
-713,962	8,370	0,063	-0,035
-712,948	-200,000	0,012	0,135
-711,933	-200,000	-0,036	0,119
-710,918	-200,000	0,032	-0,137
-709,904	76,822	-0,098	0,077
-708,889	-200,000	0,017	-0,090
-707,875	-151,230	-0,074	0,004
-706,860	-22,631	0,197	-0,087
-705,845	-8,333	-0,058	0,029
-704,831	-81,759	-0,060	0,014
-703,816	304,474	0,046	-0,063
-702,802	500,716	-0,050	-0,086
-701,787	168,210	-0,067	-0,070
-700,772	-200,000	0,012	-0,057
-699,758	297,023	0,035	-0,048
-698,743	316,377	-0,076	-0,106
-697,729	-200,000	-0,014	0,136
-696,714	389,766	-0,073	0,111
-695,699	520,242	-0,024	-0,041
-694,685	-200,000	0,003	-0,093
-693,670	-200,000	-0,023	0,079
-692,656	-200,000	-0,031	0,156
-691,641	800,000	-0,030	-0,089
-690,627	677,402	0,037	-0,071
-689,612	-200,000	0,004	-0,148
-688,597	-200,000	0,021	0,082
-687,583	-200,000	-0,004	-0,145
-686,568	-200,000	0,012	-0,057
-685,554	-0,655	-0,086	-0,045
-684,539	270,008	-0,047	0,061
-683,524	5,481	0,043	0,023
-682,510	-200,000	0,006	0,041
-681,495	-200,000	-0,006	0,026
-680,481	-200,000	-0,021	0,112
-679,466	110,708	0,110	-0,097
-678,451	800,000	0,043	0,105
-677,437	-123,314	0,064	0,007
-676,422	-105,416	-0,097	-0,016
-675,408	-83,113	0,072	0,017
-674,393	70,036	-0,045	-0,034
-673,378	-8,655	-0,119	0,058
-672,364	107,183	0,084	0,073
-671,349	319,137	-0,057	-0,080
-670,335	-83,955	-0,036	-0,008
-669,320	-200,000	0,001	-0,038
-668,305	800,000	0,085	0,180
-667,291	800,000	-0,041	0,101
-666,276	-160,284	-0,142	-0,006
-665,262	398,127	0,051	-0,078
-664,247	-200,000	0,021	0,075
-663,232	581,478	0,010	0,018
-662,218	-60,312	0,231	-0,072
-661,203	632,082	0,010	-0,018
-660,189	109,232	-0,050	0,044
-659,174	800,000	0,040	-0,083
-658,159	560,655	-0,111	-0,198
-657,145	800,000	-0,021	-0,055
-656,130	28,062	0,083	0,051
-655,116	-141,752	-0,051	0,004
-654,101	263,157	0,057	-0,073
-653,086	399,899	-0,042	-0,065
-652,072	127,729	0,042	0,040
-651,057	-200,000	0,008	-0,149
-650,043	30,694	-0,041	0,026
-649,028	44,536	-0,117	0,079
-648,014	392,847	0,107	0,163
-646,999	-200,000	-0,035	0,126
-645,984	800,000	-0,060	-0,168
-644,970	-134,953	-0,106	-0,009
-643,955	308,491	-0,042	-0,058
-642,941	-117,900	0,061	0,008
-641,926	-99,690	-0,101	-0,018
-640,911	283,448	0,076	-0,100
-639,897	-200,000	-0,024	0,143
-638,882	800,000	0,001	-0,003
-637,868	167,144	0,045	0,047
-636,853	442,532	-0,032	0,052
-635,838	-42,526	0,029	-0,011
-634,824	-26,274	-0,118	-0,051
-633,809	-200,000	0,015	-0,092
-632,795	74,929	-0,053	-0,041
-631,780	89,455	-0,113	0,093
-630,765	-51,825	0,106	0,036
-629,751	-80,220	-0,148	-0,036
-628,736	-200,000	-0,005	0,016
-627,722	614,832	-0,036	-0,067
-626,707	595,338	0,015	-0,028
-625,692	16,832	0,050	0,029
-624,678	800,000	0,064	0,163
-623,663	-19,334	0,153	0,069
-622,649	800,000	-0,044	-0,102
-621,634	11,357	-0,102	-0,057
-620,619	-200,000	0,007	0,263
-619,605	-200,000	-0,025	0,091
-618,590	-83,450	-0,031	0,007
-617,576	-36,419	0,098	0,038
-616,561	-113,979	-0,112	-0,016
-615,546	354,294	0,048	0,070
-614,532	30,371	0,046	-0,028
-613,517	-62,679	0,095	-0,029
-612,503	654,346	-0,080	-0,152
-611,488	-180,841	0,164	-0,002
-610,474	-200,000	0,014	-0,046
-609,459	800,000	0,044	0,118
-608,444	-154,084	-0,129	0,006
-607,430	219,736	0,038	-0,045
-606,415	556,363	-0,045	-0,080
-605,401	800,000	-0,042	-0,104
-604,386	-99,587	0,043	-0,008
-603,371	-27,376	0,133	0,056
-602,357	-82,526	-0,086	-0,020
-601,342	252,392	-0,092	-0,115
-600,328	-122,165	-0,095	0,011
-599,313	-200,000	-0,011	-0,100
-598,298	-137,652	-0,055	-0,005
-597,284	-200,000	-0,001	0,116
-596,269	0,151	-0,072	-0,037
-595,255	-63,352	-0,039	-0,012
-594,240	-200,000	-0,008	-0,090
-593,225	-48,114	-0,216	-0,076
-592,211	800,000	0,019	0,043
-591,196	50,303	-0,090	0,062
-590,182	-74,006	0,041	0,011
-589,167	308,365	-0,118	0,162
-588,152	116,042	-0,081	-0,072
-587,138	-200,000	-0,007	0,032
-586,123	-200,000	-0,003	-0,021
-585,109	67,008	-0,021	-0,016
-584,094	800,000	0,024	-0,058
-583,079	-109,028	-0,056	0,009
-582,065	-200,000	0,022	0,081
-581,050	-27,449	0,039	-0,017
-580,036	335,122	-0,066	-0,094
-579,021	-66,880	-0,136	-0,039
-578,006	87,588	-0,011	-0,009
-576,992	639,625	0,084	-0,158
-575,977	-148,334	-0,116	-0,007
-574,963	-68,174	0,121	0,034
-573,948	-123,878	0,166	-0,019
-572,934	-45,529	0,055	-0,020
-571,919	800,000	-0,074	-0,165
-570,904	584,311	0,031	-0,055
-569,890	344,656	-0,057	0,082
-568,875	211,514	0,114	0,132
-567,861	-136,640	0,021	0,002
-566,846	800,000	0,031	0,070
-565,831	-200,000	-0,007	-0,028
-564,817	-200,000	0,010	-0,103
-563,802	-200,000	-0,027	-0,106
-562,788	800,000	-0,054	0,132
-561,773	82,016	0,142	-0,113
-560,758	41,625	-0,086	-0,057
-559,744	667,342	-0,074	0,141
-558,729	93,515	0,048	-0,040
-557,715	800,000	-0,035	-0,091
-556,700	-200,000	0,037	-0,171
-555,685	800,000	0,053	0,136
-554,671	-200,000	-0,012	0,152
-553,656	800,000	0,036	-0,085
-552,642	800,000	-0,024	0,049
-551,627	-200,000	0,025	0,181
-550,612	-54,564	-0,147	0,048
-549,598	-200,000	0,022	-0,093
-548,583	102,558	0,063	-0,054
-547,569	-200,000	0,017	0,146
-546,554	-200,000	-0,009	-0,170
-545,539	-200,000	-0,015	0,148
-544,525	10,283	-0,197	-0,109
-543,510	-4,267	0,033	-0,017
-542,496	-200,000	0,009	-0,212
-541,481	194,651	-0,119	-0,132
-540,466	310,721	0,105	-0,145
-539,452	57,068	0,057	-0,040
-538,437	-200,000	-0,044	0,193
-537,423	131,185	-0,014	-0,013
-536,408	108,232	0,081	-0,071
-535,393	152,289	-0,070	-0,070
-534,379	-5,339	0,138	0,069
-533,364	-68,879	0,168	0,047
-532,350	-200,000	-0,050	0,203
-531,335	800,000	0,019	-0,041
-530,321	142,830	0,046	-0,045
-529,306	-19,304	0,061	0,027
-528,291	132,749	-0,072	0,068
-527,277	800,000	0,026	-0,067
-526,262	-200,000	0,010	-0,068
-525,248	800,000	0,065	-0,136
-524,233	-200,000	-0,007	0,087
-523,218	190,005	0,030	-0,033
-522,204	126,494	0,041	0,038
-521,189	-200,000	0,008	-0,031
-520,175	-134,528	-0,068	-0,006
-519,160	-200,000	-0,102	0,000
-518,145	-73,930	0,112	-0,029
-517,131	800,000	-0,030	0,075
-516,116	-113,748	0,010	-0,001
-515,102	-200,000	0,003	-0,038
-514,087	800,000	0,031	-0,080
-513,072	-200,000	-0,029	0,122
-512,058	800,000	0,023	-0,056
-511,043	-200,000	0,006	-0,119
-510,029	-53,800	0,068	-0,023
-509,014	366,559	0,026	-0,039
-507,999	510,861	0,070	0,119
-506,985	130,894	-0,112	-0,105
-505,970	-200,000	0,026	-0,112
-504,956	68,440	-0,060	0,045
-503,941	-200,000	-0,003	-0,101
-502,926	-200,000	0,041	0,139
-501,912	159,051	0,080	0,082
-500,897	244,884	0,035	0,043
-499,883	0,065	0,089	0,046
-498,868	-200,000	0,004	-0,029
-497,853	800,000	-0,027	-0,083
-496,839	10,735	0,164	0,091
-495,824	10,846	0,129	-0,072
-494,810	-14,444	0,141	0,066
-493,795	148,670	0,032	-0,032
-492,781	72,494	0,048	0,037
-491,766	-200,000	-0,023	-0,101
-490,751	262,890	-0,061	-0,077
-489,737	119,369	-0,029	-0,026
-488,722	-27,234	0,073	0,031
-487,708	-200,000	-0,003	0,051
-486,693	15,401	-0,060	0,034
-485,678	-121,104	-0,079	0,009
-484,664	458,108	-0,063	-0,103
-483,649	318,310	0,048	-0,067
-482,635	465,261	0,032	-0,052
-481,620	-200,000	-0,010	0,037
-480,605	190,254	0,037	0,041
-479,591	-200,000	0,000	-0,022
-478,576	800,000	0,017	-0,036
-477,562	87,655	-0,104	-0,084
-476,547	460,187	-0,045	-0,074
-475,532	-200,000	-0,022	0,091
-474,518	800,000	0,013	0,028
-473,503	800,000	0,058	0,126
-472,489	29,085	-0,039	-0,024
-471,474	-154,142	-0,116	-0,006
-470,459	71,001	0,016	0,012
-469,445	-119,505	-0,082	0,010
-468,430	-200,000	0,009	-0,031
-467,416	-60,229	0,052	-0,016
-466,401	368,369	-0,007	0,010
-465,386	38,777	-0,106	-0,069
-464,372	754,507	-0,026	0,052
-463,357	34,131	-0,036	0,023
-462,343	215,142	0,078	-0,091
-461,328	105,377	-0,123	-0,106
-460,313	-200,000	-0,019	-0,066
-459,299	-74,198	-0,085	0,022
-458,284	124,983	-0,099	0,091
-457,270	-71,615	0,141	0,038
-456,255	32,366	0,095	-0,060
-455,241	32,906	-0,054	-0,034
-454,226	-200,000	0,004	-0,056
-453,211	800,000	0,030	0,094
-452,197	-200,000	-0,012	-0,078
-451,182	-200,000	-0,031	0,173
-450,168	-158,055	0,144	0,006
-449,153	344,497	-0,062	-0,089
-448,138	107,149	0,073	0,063
-447,124	-200,000	-0,019	0,065
-446,109	650,985	-0,030	0,056
-445,095	-115,973	0,166	0,022
-444,080	15,144	0,148	0,084
-443,065	-126,125	-0,069	-0,007
-442,051	482,065	0,032	0,053
-441,036	341,038	-0,047	0,068
-440,022	372,186	0,030	0,044
-439,007	662,228	-0,050	-0,094
-437,992	-200,000	-0,035	0,180
-436,978	-60,562	0,067	-0,021
-435,963	-174,295	0,082	-0,002
-434,949	-73,746	0,077	-0,020
-433,934	101,867	-0,131	-0,112
-432,919	41,520	0,119	-0,078
-431,905	-200,000	0,007	0,104
-430,890	488,594	0,075	0,125
-429,876	-82,831	-0,117	0,027
-428,861	-61,805	-0,053	-0,016
-427,846	-194,265	0,127	-0,001
-426,832	453,160	-0,161	-0,260
-425,817	-108,636	-0,039	-0,006
-424,803	800,000	-0,037	0,120
-423,788	800,000	-0,040	-0,086
-422,773	-159,851	0,102	0,004
-421,759	-200,000	-0,004	-0,019
-420,744	-18,008	-0,102	0,047
-419,730	320,453	-0,062	0,086
-418,715	-200,000	0,021	0,107
-417,701	-86,236	0,067	-0,015
-416,686	-54,061	0,046	0,015
-415,671	800,000	0,015	-0,033
-414,657	-8,902	-0,040	0,019
-413,642	266,742	-0,081	0,103
-412,628	131,577	-0,082	-0,076
-411,613	163,753	-0,053	-0,054
-410,598	534,986	-0,057	-0,098
-409,584	1,536	0,066	-0,034
-408,569	-6,888	-0,148	0,073
-407,555	-155,522	-0,052	0,002
-406,540	-50,737	-0,038	0,013
-405,525	-200,000	0,039	-0,141
-404,511	-200,000	-0,022	0,111
-403,496	120,328	0,075	-0,068
-402,482	71,418	-0,106	0,080
-401,467	-133,740	0,128	-0,011
-400,452	-89,950	0,068	-0,014
-399,438	110,915	0,062	0,054
-398,423	-32,621	-0,136	-0,055
-397,409	-180,985	-0,130	0,002
-396,394	-200,000	-0,016	-0,054
-395,379	-55,009	0,086	0,028
-394,365	800,000	-0,067	0,141
-393,350	-200,000	-0,006	0,052
-392,336	-200,000	0,005	0,043
-391,321	-200,000	0,005	-0,093
-390,306	60,770	-0,041	-0,029
-389,292	-200,000	0,006	-0,202
-388,277	-200,000	-0,028	0,174
-387,263	20,320	0,058	0,034
-386,248	-200,000	0,008	-0,034
-385,233	154,088	0,051	-0,051
-384,219	-35,360	0,159	0,062
-383,204	-200,000	0,005	-0,122
-382,190	-112,284	-0,121	0,017
-381,175	8,910	-0,040	-0,022
-380,160	151,975	0,068	0,067
-379,146	-200,000	0,014	0,102
-378,131	800,000	-0,006	0,016
-377,117	-88,352	0,090	0,019
-376,102	-48,663	-0,084	0,029
-375,088	-45,252	-0,152	0,054
-374,073	91,941	0,084	-0,069
-373,058	-28,876	-0,061	-0,026
-372,044	-153,144	0,145	-0,007
-371,029	-91,616	-0,045	0,009
-370,015	69,568	0,052	-0,039
-369,000	568,930	-0,060	-0,106
-367,985	-154,650	-0,075	-0,004
-366,971	83,074	0,100	0,079
-365,956	800,000	-0,047	0,101
-364,942	-200,000	-0,015	0,112
-363,927	-200,000	-0,031	0,111
-362,912	105,427	-0,038	0,033
-361,898	-103,732	-0,152	0,026
-360,883	-200,000	-0,008	-0,133
-359,869	136,767	-0,051	-0,048
-358,854	623,347	-0,006	-0,011
-357,839	207,391	0,067	-0,076
-356,825	-127,001	-0,077	-0,008
-355,810	232,327	0,070	0,084
-354,796	28,289	-0,177	0,108
-353,781	14,868	0,131	-0,074
-352,766	175,034	-0,049	0,051
-351,752	722,326	0,041	0,079
-350,737	121,238	0,066	-0,060
-349,723	102,807	-0,014	0,012
-348,708	-200,000	-0,001	0,074
-347,693	157,429	-0,036	-0,036
-346,679	171,514	0,049	0,051
-345,664	84,403	-0,082	-0,065
-344,650	-184,193	0,067	0,001
-343,635	-94,455	0,098	0,019
-342,620	412,940	-0,015	0,023
-341,606	-200,000	-0,067	-0,215
-340,591	282,416	-0,070	0,091
-339,577	-136,506	0,089	-0,007
-338,562	11,838	0,050	0,028
-337,548	144,556	0,042	-0,041
-336,533	182,266	-0,043	-0,046
-335,518	-6,468	0,046	0,023
-334,504	17,826	0,097	0,056
-333,489	-200,000	0,018	0,156
-332,475	93,146	0,112	0,092
-331,460	10,279	0,069	0,038
-330,445	-7,429	0,073	-0,036
-329,431	276,631	0,040	0,052
-328,416	-38,475	0,022	-0,008
-327,402	800,000	-0,114	-0,239
-326,387	-80,746	0,130	0,031
-325,372	800,000	-0,014	-0,043
-324,358	79,801	0,051	0,040
-323,343	-94,563	0,078	-0,015
-322,329	-179,764	-0,055	-0,001
-321,314	-59,243	0,088	0,027
-320,299	-68,231	-0,045	0,013
-319,285	800,000	-0,046	-0,106
-318,270	-200,000	-0,126	0,000
-317,256	121,188	0,069	-0,062
-316,241	63,045	0,053	-0,038
-315,226	-38,055	-0,122	0,047
-314,212	-23,388	-0,048	0,021
-313,197	111,681	0,091	0,079
-312,183	159,639	-0,020	0,020
-311,168	-31,103	0,103	0,042
-310,153	549,978	0,041	-0,071
-309,139	-138,679	-0,065	0,005
-308,124	41,509	0,158	0,103
-307,110	-145,823	0,175	-0,011
-306,095	516,842	-0,058	0,098
-305,080	-200,000	0,005	0,035
-304,066	-73,266	-0,066	0,017
-303,051	-48,643	0,059	-0,020
-302,037	-200,000	-0,041	-0,131
-301,022	800,000	-0,044	0,090
-300,008	129,747	0,058	0,054
-298,993	94,433	0,048	-0,040
-297,978	182,388	-0,046	0,050
-296,964	-200,000	-0,090	0,000
-295,949	234,193	-0,073	0,087
-294,935	800,000	0,028	-0,068
-293,920	291,304	0,017	0,023
-292,905	-57,225	0,147	-0,046
-291,891	-118,955	-0,124	-0,016
-290,876	433,780	-0,022	-0,035
-289,862	-200,000	0,003	-0,086
-288,847	-69,094	-0,110	-0,030
-287,832	-1,805	0,092	-0,047
-286,818	550,143	0,034	0,059
-285,803	-39,382	-0,071	-0,027
-284,789	-46,231	0,117	-0,041
-283,774	-200,000	-0,002	0,040
-282,759	17,008	-0,059	0,034
-281,745	800,000	-0,032	-0,081
-280,730	507,972	-0,028	-0,047
-279,716	800,000	-0,010	-0,030
-278,701	754,285	0,022	0,044
-277,686	-200,000	0,012	0,068
-276,672	35,742	0,052	-0,033
-275,657	800,000	-0,015	-0,038
-274,643	800,000	0,031	-0,079
-273,628	13,129	-0,041	-0,023
-272,613	-112,886	-0,042	-0,006
-271,599	-200,000	-0,004	-0,037
-270,584	15,908	0,122	0,070
-269,570	11,067	-0,068	0,037
-268,555	-200,000	0,005	0,019
-267,540	800,000	-0,016	-0,039
-266,526	-142,942	0,109	-0,008
-265,511	-164,537	-0,036	-0,001
-264,497	-200,000	-0,022	-0,074
-263,482	46,091	0,113	0,076
-262,467	-72,891	-0,052	0,014
-261,453	-200,000	0,023	0,109
-260,438	-185,530	0,110	0,001
-259,424	800,000	-0,048	-0,119
-258,409	-200,000	-0,027	0,143
-257,395	-53,052	-0,091	0,030
-256,380	-200,000	0,034	0,141
-255,365	267,108	-0,026	0,033
-254,351	-63,783	0,026	-0,008
-253,336	-117,447	-0,106	-0,014
-252,322	183,034	-0,068	-0,073
-251,307	-32,023	-0,066	-0,027
-250,292	-200,000	0,031	0,141
-249,278	-68,838	-0,044	-0,012
-248,263	-13,219	-0,080	0,037
-247,249	-117,274	0,135	-0,017
-246,234	192,412	-0,179	-0,195
-245,219	-75,035	0,071	0,018
-244,205	1,482	-0,052	-0,027
-243,190	-200,000	-0,015	0,078
-242,176	-200,000	-0,008	0,194
-241,161	56,490	-0,067	0,047
-240,146	-87,119	0,089	-0,019
-239,132	800,000	-0,047	-0,108
-238,117	157,203	0,011	0,011
-237,103	87,022	0,049	-0,039
-236,088	64,369	0,098	-0,071
-235,073	800,000	0,029	-0,066
-234,059	-116,785	0,112	0,015
-233,044	800,000	0,029	0,072
-232,030	303,657	-0,058	0,078
-231,015	-62,786	-0,015	-0,005
-230,000	100,388	-0,073	0,061
-228,986	-168,836	-0,104	-0,003
-227,971	800,000	-0,018	0,041
-226,957	-114,021	0,051	-0,007
-225,942	227,466	-0,064	0,075
-224,927	14,500	0,069	-0,039
-223,913	-200,000	-0,008	-0,091
-222,898	495,602	0,103	-0,171
-221,884	237,887	-0,043	-0,052
-220,869	65,345	-0,084	0,061
-219,855	800,000	0,006	0,019
-218,840	170,350	-0,061	0,063
-217,825	33,061	-0,040	0,025
-216,811	52,038	-0,043	-0,030
-215,796	-57,588	0,037	0,012
-214,782	12,967	0,132	0,074
-213,767	119,593	0,063	-0,057
-212,752	800,000	0,010	-0,020
-211,738	374,993	-0,094	-0,139
-210,723	800,000	0,051	-0,141
-209,709	-200,000	0,026	-0,100
-208,694	17,745	-0,133	-0,077
-207,679	800,000	-0,033	-0,066
-206,665	-200,000	0,020	-0,096
-205,650	76,859	0,175	0,134
-204,636	-200,000	-0,002	0,037
-203,621	97,261	0,014	-0,011
-202,606	91,490	0,048	-0,039
-201,592	410,627	-0,081	0,125
-200,577	-186,808	0,069	0,001
-199,563	57,569	0,073	-0,051
-198,548	-200,000	-0,026	0,237
-197,533	-67,894	-0,119	0,033
-196,519	-11,807	0,139	0,065
-195,504	-100,822	0,038	-0,007
-194,490	800,000	-0,025	0,067
-193,475	-200,000	0,045	0,166
-192,460	-119,661	0,170	-0,021
-191,446	-106,589	-0,121	0,019
-190,431	19,483	0,044	-0,025
-189,417	12,834	-0,055	-0,030
-188,402	137,076	-0,129	0,121
-187,387	-109,574	0,095	-0,014
-186,373	-12,752	-0,138	-0,065
-185,358	135,053	0,093	-0,088
-184,344	800,000	0,006	0,018
-183,329	273,442	0,045	0,057
-182,315	117,522	0,023	-0,020
-181,300	-62,840	-0,097	-0,029
-180,285	66,402	-0,055	0,040
-179,271	63,325	-0,141	-0,102
-178,256	79,705	0,105	-0,081
-177,242	98,865	0,089	0,074
-176,227	-105,016	0,024	0,004
-175,212	-51,696	-0,101	0,034
-174,198	362,420	-0,028	-0,040
-173,183	127,464	-0,107	-0,098
-172,169	-200,000	0,007	0,054
-171,154	488,672	0,052	-0,086
-170,139	-57,393	0,079	-0,025
-169,125	178,007	-0,039	-0,041
-168,110	-98,202	0,043	0,008
-167,096	800,000	0,031	0,086
-166,081	-153,932	0,074	0,004
-165,066	471,450	-0,023	-0,037
-164,052	-36,192	-0,072	0,028
-163,037	800,000	0,028	-0,084
-162,023	-200,000	-0,017	0,100
-161,008	-73,407	0,009	0,002
-159,993	-13,114	-0,021	0,010
-158,979	645,811	0,052	0,096
-157,964	58,186	0,076	0,053
-156,950	-45,290	-0,097	0,034
-155,935	-25,022	0,032	0,014
-154,920	-70,567	0,110	0,030
-153,906	-84,183	0,039	-0,009
-152,891	-200,000	-0,044	-0,190
-151,877	68,688	-0,029	-0,021
-150,862	14,691	0,085	0,048
-149,847	-200,000	0,021	0,067
-148,833	254,943	0,070	-0,087
-147,818	129,925	0,030	-0,028
-146,804	-73,273	-0,059	0,015
-145,789	800,000	-0,027	0,075
-144,775	-10,654	-0,046	0,022
-143,760	-134,452	-0,098	-0,009
-142,745	38,234	0,049	-0,032
-141,731	27,655	0,150	-0,091
-140,716	170,225	0,093	0,096
-139,702	41,565	0,052	0,034
-138,687	-41,238	-0,044	0,016
-137,672	-94,562	0,030	-0,006
-136,658	97,307	0,043	-0,036
-135,643	-106,731	-0,110	-0,017
-134,629	-74,728	-0,059	-0,015
-133,614	-32,731	-0,040	0,016
-132,599	-200,000	0,049	0,173
-131,585	232,414	0,128	0,152
-130,570	-35,434	-0,117	-0,046
-129,556	-56,889	-0,080	-0,025
-128,541	-200,000	0,002	-0,032
-127,526	-200,000	-0,009	-0,047
-126,512	38,274	0,071	0,045
-125,497	132,459	-0,005	-0,005
-124,483	179,118	-0,098	0,103
-123,468	272,686	-0,049	0,062
-122,453	-200,000	0,013	-0,120
-121,439	566,793	0,071	-0,124
-120,424	-23,021	0,018	0,008
-119,410	219,526	-0,044	0,051
