DTS Sentinel unit serial number:	SN410029Multiplexer serial number:	ORYXHardware model number:	OX2-SRSoftware version number:	ORYX F/W v4,00 Oryx Data Collector v3.7.2.0data status	okinstallation	B5 Nyhavnadifferential loss correction	single-endedforward channel	channel 2reverse channel	N/Adate	2023/12/11time	17:27:13forward acquisition time	300,00reverse acquisition time	0,00gamma	499,1914k internal	0,3163k external	0,3163temperature offset calibration	1,0000default loss term (dB/km)	0,3820temperature slope calibration	1,0000multiplexer offset coefficient	1,0000multiplexer slope coefficient	1,0000fibre end	0,00T internal ref (°C)	14,68T ext. ref 1 (°C)	-0,65T ext. ref 2 (°C)	-0,84length (m)	temperature (°C)	Stokes	anti-Stokes-744,400	-200,000	0,006	-0,065
-743,385	-75,082	-0,254	0,066
-742,371	499,454	0,050	0,085
-741,356	12,299	-0,181	0,103
-740,342	-200,000	-0,012	0,159
-739,327	-154,005	-0,298	0,015
-738,312	-38,377	0,099	0,038
-737,298	-139,191	-0,301	-0,024
-736,283	-200,000	-0,021	-0,086
-735,269	-94,544	-0,315	0,063
-734,254	-99,391	0,105	0,019
-733,239	10,150	-0,459	-0,256
-732,225	-80,911	0,159	-0,038
-731,210	-200,000	-0,002	0,007
-730,196	-200,000	-0,003	0,062
-729,181	-200,000	0,006	-0,103
-728,167	-200,000	-0,002	-0,080
-727,152	-38,120	-0,195	0,076
-726,137	598,727	-0,069	-0,126
-725,123	-52,979	-0,089	-0,030
-724,108	174,995	-0,146	-0,156
-723,094	649,590	-0,018	-0,035
-722,079	-151,854	-0,105	-0,006
-721,064	-138,551	-0,064	-0,005
-720,050	156,544	-0,109	-0,111
-719,035	36,349	-0,161	0,104
-718,021	-89,304	-0,085	-0,018
-717,006	800,000	-0,026	-0,055
-715,991	2,389	0,024	-0,012
-714,977	366,088	-0,108	-0,160
-713,962	-136,635	0,114	0,010
-712,948	43,307	-0,076	-0,051
-711,933	-18,184	0,069	-0,032
-710,918	118,016	-0,075	-0,068
-709,904	-200,000	0,027	0,139
-708,889	-99,630	-0,054	-0,010
-707,875	605,371	-0,064	-0,118
-706,860	130,397	-0,080	0,076
-705,845	-200,000	0,043	0,148
-704,831	-162,541	-0,076	-0,003
-703,816	496,708	0,062	-0,105
-702,802	800,000	-0,039	-0,083
-701,787	42,437	-0,091	-0,061
-700,772	378,918	0,086	-0,130
-699,758	-66,733	0,018	0,005
-698,743	-62,290	-0,049	0,015
-697,729	-200,000	-0,001	0,084
-696,714	-45,638	0,025	0,009
-695,699	80,215	-0,073	-0,058
-694,685	-19,889	-0,098	-0,044
-693,670	396,939	-0,061	-0,095
-692,656	800,000	0,042	0,114
-691,641	800,000	0,044	0,112
-690,627	495,324	0,088	0,149
-689,612	-200,000	-0,009	0,063
-688,597	800,000	-0,052	-0,124
-687,583	800,000	-0,007	-0,021
-686,568	104,681	-0,086	-0,074
-685,554	13,047	-0,218	-0,123
-684,539	-151,534	0,037	-0,002
-683,524	229,936	0,062	-0,074
-682,510	-4,658	-0,113	0,057
-681,495	151,685	-0,026	0,026
-680,481	130,758	-0,061	-0,057
-679,466	-175,064	0,100	-0,002
-678,451	-200,000	0,001	-0,015
-677,437	467,982	-0,046	0,076
-676,422	-200,000	0,019	0,062
-675,408	497,448	-0,033	0,055
-674,393	-105,864	-0,065	-0,011
-673,378	36,242	-0,096	0,062
-672,364	-48,189	-0,079	-0,028
-671,349	201,885	-0,024	-0,027
-670,335	-55,769	0,058	0,019
-669,320	136,869	0,133	0,127
-668,305	-170,702	-0,073	0,002
-667,291	-78,179	-0,058	-0,014
-666,276	800,000	0,026	-0,058
-665,262	-27,030	-0,055	0,023
-664,247	80,653	-0,201	-0,159
-663,232	29,921	0,117	-0,073
-662,218	-148,336	0,032	0,002
-661,203	683,905	-0,068	0,132
-660,189	-196,729	-0,119	-0,001
-659,174	-2,457	0,115	-0,059
-658,159	224,727	0,066	-0,078
-657,145	33,036	-0,040	0,025
-656,130	403,546	0,038	0,059
-655,116	152,448	0,035	-0,035
-654,101	-6,676	0,052	0,026
-653,086	53,781	0,122	-0,086
-652,072	240,614	-0,051	-0,062
-651,057	-200,000	-0,008	-0,064
-650,043	170,522	-0,098	-0,103
-649,028	263,965	-0,034	0,044
-648,014	800,000	-0,039	0,120
-646,999	357,378	-0,091	0,133
-645,984	441,575	-0,054	0,087
-644,970	800,000	-0,028	-0,060
-643,955	-200,000	-0,008	0,091
-642,941	-50,969	0,019	-0,007
-641,926	-200,000	-0,017	-0,118
-640,911	800,000	-0,074	-0,155
-639,897	-73,274	-0,106	0,028
-638,882	398,095	0,041	0,064
-637,868	-144,794	-0,118	-0,008
-636,853	800,000	0,021	-0,051
-635,838	800,000	0,014	-0,042
-634,824	-132,705	-0,138	0,013
-633,809	-77,993	0,127	0,032
-632,795	9,058	0,071	-0,039
-631,780	-96,201	0,080	-0,015
-630,765	154,890	-0,072	-0,072
-629,751	-200,000	-0,005	0,025
-628,736	-112,975	0,080	0,011
-627,722	800,000	0,009	-0,020
-626,707	-200,000	0,021	-0,082
-625,692	800,000	0,027	0,076
-624,678	-84,166	0,159	0,037
-623,663	-200,000	0,041	0,155
-622,649	-200,000	-0,004	-0,048
-621,634	587,071	-0,063	-0,114
-620,619	229,354	-0,017	0,020
-619,605	-29,212	0,114	-0,047
-618,590	-196,194	-0,099	-0,000
-617,576	-108,449	0,053	-0,008
-616,561	-200,000	0,026	0,139
-615,546	140,495	-0,083	0,080
-614,532	-95,098	0,102	-0,020
-613,517	-200,000	-0,016	0,141
-612,503	26,331	-0,028	0,017
-611,488	62,434	-0,041	0,030
-610,474	-200,000	0,012	-0,062
-609,459	491,762	0,018	-0,030
-608,444	99,632	0,045	-0,038
-607,430	29,515	0,071	-0,044
-606,415	-200,000	-0,037	-0,123
-605,401	169,099	0,083	-0,087
-604,386	-200,000	-0,034	0,123
-603,371	223,638	0,056	0,066
-602,357	87,653	0,033	-0,026
-601,342	-200,000	0,011	0,058
-600,328	596,189	-0,065	-0,118
-599,313	340,765	-0,028	0,040
-598,298	800,000	-0,036	0,110
-597,284	188,404	-0,051	0,055
-596,269	-75,015	0,113	-0,029
-595,255	800,000	-0,037	0,096
-594,240	800,000	0,017	-0,049
-593,225	385,800	-0,042	-0,064
-592,211	800,000	-0,046	-0,129
-591,196	-200,000	-0,001	-0,110
-590,182	-56,840	0,115	0,037
-589,167	-200,000	-0,007	0,091
-588,152	-81,497	0,079	-0,019
-587,138	-200,000	-0,022	0,104
-586,123	-200,000	-0,009	-0,050
-585,109	-200,000	0,002	-0,009
-584,094	-21,151	-0,066	-0,029
-583,079	122,347	0,072	0,066
-582,065	-200,000	0,006	0,022
-581,050	-13,524	-0,037	0,018
-580,036	-200,000	0,014	0,189
-579,021	-84,771	0,262	-0,060
-578,006	-66,928	-0,028	-0,008
-576,992	-200,000	-0,005	0,028
-575,977	800,000	-0,046	-0,146
-574,963	567,277	0,048	-0,085
-573,948	198,624	0,071	0,080
-572,934	-200,000	-0,080	-0,000
-571,919	800,000	-0,010	0,029
-570,904	-200,000	-0,012	-0,093
-569,890	-200,000	-0,017	-0,058
-568,875	66,887	0,065	-0,048
-567,861	-56,928	0,064	0,021
-566,846	399,288	-0,070	0,107
-565,831	-65,025	-0,111	0,033
-564,817	-200,000	-0,006	-0,040
-563,802	567,813	-0,021	-0,038
-562,788	-200,000	0,022	-0,105
-561,773	244,151	0,068	0,084
-560,758	-80,913	-0,068	-0,016
-559,744	-200,000	-0,005	0,030
-558,729	44,846	0,041	0,027
-557,715	-200,000	-0,026	-0,219
-556,700	161,768	0,019	-0,019
-555,685	-70,583	-0,150	-0,041
-554,671	-200,000	0,010	0,092
-553,656	-30,589	-0,119	0,049
-552,642	469,871	0,067	0,111
-551,627	29,676	-0,113	0,070
-550,612	52,470	0,165	-0,115
-549,598	151,529	-0,090	-0,090
-548,583	-200,000	0,029	-0,104
-547,569	128,181	0,051	0,048
-546,554	672,545	0,087	0,165
-545,539	243,826	0,070	0,085
-544,525	800,000	-0,060	0,156
-543,510	-200,000	-0,013	0,092
-542,496	646,225	0,045	-0,085
-541,481	-127,266	-0,118	-0,012
-540,466	56,145	-0,026	-0,018
-539,452	-200,000	0,013	-0,221
-538,437	-51,687	-0,033	-0,011
-537,423	225,955	-0,066	0,079
-536,408	-53,906	0,106	0,035
-535,393	-32,484	-0,051	0,021
-534,379	-158,193	-0,152	0,006
-533,364	393,137	-0,046	0,070
-532,350	-200,000	-0,038	0,138
-531,335	-58,172	0,124	0,039
-530,321	46,569	0,124	0,084
-529,306	-157,938	0,027	0,001
-528,291	-91,101	-0,008	-0,002
-527,277	-86,510	-0,111	-0,025
-526,262	45,354	-0,075	0,050
-525,248	-8,086	-0,083	-0,040
-524,233	609,780	0,036	-0,065
-523,218	-200,000	0,001	0,095
-522,204	-200,000	0,001	-0,022
-521,189	257,999	0,065	-0,082
-520,175	-31,844	-0,159	-0,065
-519,160	664,145	-0,060	0,113
-518,145	-200,000	0,006	0,039
-517,131	-158,656	0,093	-0,004
-516,116	-200,000	0,003	0,009
-515,102	34,345	-0,016	-0,010
-514,087	543,024	0,025	-0,043
-513,072	-6,414	0,096	-0,048
-512,058	143,426	-0,071	-0,069
-511,043	-0,873	-0,072	-0,037
-510,029	-200,000	0,022	0,082
-509,014	800,000	0,014	0,038
-507,999	21,908	-0,105	0,063
-506,985	270,451	-0,022	0,028
-505,970	-18,416	-0,054	-0,025
-504,956	-200,000	0,038	-0,153
-503,941	25,316	-0,091	0,055
-502,926	-200,000	0,002	0,036
-501,912	-200,000	0,011	0,054
-500,897	272,209	0,074	0,096
-499,883	59,233	-0,180	0,129
-498,868	171,670	0,040	-0,042
-497,853	-37,333	0,049	0,019
-496,839	-118,824	-0,124	-0,016
-495,824	-200,000	-0,013	0,060
-494,810	-153,645	0,126	-0,006
-493,795	601,521	-0,016	0,028
-492,781	87,580	0,008	-0,006
-491,766	-18,720	-0,040	0,018
-490,751	-200,000	0,002	-0,092
-489,737	160,868	0,004	0,005
-488,722	-200,000	0,019	0,071
-487,708	354,909	0,028	0,041
-486,693	800,000	0,018	0,050
-485,678	-200,000	0,016	-0,056
-484,664	35,640	0,088	-0,056
-483,649	103,231	-0,124	-0,106
-482,635	-93,311	0,137	0,027
-481,620	-132,016	-0,116	0,011
-480,605	800,000	-0,019	-0,041
-479,591	800,000	-0,022	-0,047
-478,576	-112,396	-0,136	0,020
-477,562	-35,224	-0,071	0,028
-476,547	-200,000	-0,005	-0,101
-475,532	31,116	0,058	0,036
-474,518	-200,000	0,005	0,066
-473,503	-171,076	0,041	-0,001
-472,489	-162,815	0,070	-0,002
-471,474	113,204	-0,057	0,050
-470,459	-200,000	0,002	-0,010
-469,445	153,993	-0,106	-0,106
-468,430	-14,783	0,031	0,015
-467,416	17,572	-0,026	0,015
-466,401	-200,000	0,004	0,050
-465,386	-116,726	-0,117	0,016
-464,372	-107,025	0,041	0,007
-463,357	108,483	-0,073	0,063
-462,343	-200,000	0,017	-0,076
-461,328	229,543	-0,050	0,060
-460,313	-4,260	0,056	0,028
-459,299	238,638	0,051	0,062
-458,284	112,915	-0,024	-0,022
-457,270	-200,000	0,037	-0,126
-456,255	-200,000	0,040	-0,131
-455,241	-64,306	0,040	0,012
-454,226	31,608	-0,129	0,081
-453,211	162,597	0,129	-0,132
-452,197	800,000	0,043	-0,107
-451,182	622,157	-0,050	-0,091
-450,168	-47,089	0,120	0,042
-449,153	800,000	-0,061	-0,146
-448,138	-200,000	0,008	0,044
-447,124	-107,785	-0,076	0,012
-446,109	418,352	-0,054	-0,084
-445,095	-118,004	0,087	-0,011
-444,080	187,748	-0,060	0,065
-443,065	-140,764	-0,132	-0,010
-442,051	800,000	-0,013	0,038
-441,036	432,173	-0,044	-0,070
-440,022	-77,532	-0,068	0,017
-439,007	76,680	0,133	-0,102
-437,992	-200,000	-0,034	0,150
-436,978	59,943	-0,037	-0,026
-435,963	-37,854	-0,104	-0,040
-434,949	-178,824	-0,122	-0,002
-433,934	800,000	-0,038	-0,085
-432,919	56,245	-0,021	0,015
-431,905	-31,004	0,008	-0,003
-430,890	-200,000	0,005	0,128
-429,876	317,717	0,024	-0,033
-428,861	238,852	0,079	-0,096
-427,846	800,000	-0,038	-0,083
-426,832	221,689	-0,062	0,073
-425,817	-200,000	-0,004	-0,047
-424,803	-200,000	-0,005	-0,154
-423,788	800,000	-0,060	-0,122
-422,773	800,000	-0,027	0,086
-421,759	-37,363	0,043	-0,016
-420,744	-200,000	-0,037	0,130
-419,730	-79,735	0,140	-0,034
-418,715	-200,000	0,006	0,075
-417,701	460,852	-0,037	0,060
-416,686	-200,000	-0,019	0,130
-415,671	-200,000	-0,014	0,158
-414,657	92,406	-0,021	-0,017
-413,642	-30,011	0,123	-0,051
-412,628	-11,007	-0,018	0,009
-411,613	19,206	-0,045	-0,026
-410,598	-11,761	0,099	-0,047
-409,584	-200,000	-0,021	-0,130
-408,569	202,590	0,068	0,077
-407,555	69,421	-0,060	0,045
-406,540	800,000	-0,052	0,119
-405,525	53,787	0,012	0,008
-404,511	-200,000	-0,012	0,061
-403,496	115,169	-0,056	-0,050
-402,482	-9,012	-0,030	-0,014
-401,467	800,000	-0,015	0,031
-400,452	-200,000	-0,010	-0,096
-399,438	230,728	0,044	-0,052
-398,423	93,447	-0,080	-0,066
-397,409	217,685	-0,072	-0,083
-396,394	-149,269	-0,076	-0,004
-395,379	800,000	0,060	-0,135
-394,365	75,099	0,030	0,023
-393,350	-200,000	0,018	-0,083
-392,336	-10,396	0,128	0,061
-391,321	800,000	-0,020	0,044
-390,306	-50,948	-0,117	0,040
-389,292	19,660	0,096	0,056
-388,277	-97,202	0,090	0,017
-387,263	599,943	-0,076	0,137
-386,248	125,730	0,105	-0,096
-385,233	-200,000	-0,037	0,128
-384,219	353,395	0,064	0,092
-383,204	215,227	0,041	-0,048
-382,190	-200,000	0,017	-0,057
-381,175	114,957	-0,078	-0,069
-380,160	727,805	0,052	-0,100
-379,146	18,080	-0,056	0,032
-378,131	-99,262	-0,027	-0,005
-377,117	69,801	0,104	0,078
-376,102	-29,823	-0,123	0,051
-375,088	147,699	0,101	-0,099
-374,073	-32,998	-0,034	0,014
-373,058	120,533	-0,035	-0,031
-372,044	800,000	-0,051	-0,111
-371,029	-200,000	-0,023	0,098
-370,015	310,603	0,081	-0,111
-369,000	800,000	-0,017	-0,044
-367,985	-49,841	-0,050	-0,017
-366,971	-200,000	0,002	-0,042
-365,956	800,000	0,022	-0,048
-364,942	38,180	-0,029	-0,019
-363,927	-49,940	-0,134	-0,046
-362,912	481,521	0,054	0,090
-361,898	800,000	0,007	0,020
-360,883	-200,000	0,016	-0,105
-359,869	800,000	-0,048	-0,114
-358,854	-50,074	0,095	0,032
-357,839	37,423	-0,038	0,024
-356,825	124,346	-0,012	0,011
-355,810	90,309	0,069	-0,056
-354,796	-122,962	-0,133	-0,015
-353,781	-200,000	-0,020	-0,103
-352,766	-200,000	0,035	-0,160
-351,752	585,668	0,030	-0,054
-350,737	135,157	0,040	0,038
-349,723	-118,390	0,122	0,016
-348,708	97,753	0,112	0,093
-347,693	800,000	0,023	-0,059
-346,679	800,000	-0,040	-0,119
-345,664	-200,000	0,017	-0,066
-344,650	97,054	0,048	-0,040
-343,635	-64,429	0,059	0,017
-342,620	-108,088	0,036	-0,006
-341,606	-149,300	0,035	-0,002
-340,591	-200,000	0,006	0,096
-339,577	227,252	-0,006	-0,007
-338,562	-200,000	-0,002	0,014
-337,548	-93,213	-0,149	0,030
-336,533	-200,000	-0,024	-0,215
-335,518	196,589	-0,096	-0,106
-334,504	-155,487	-0,088	-0,004
-333,489	-146,365	0,002	-0,000
-332,475	-179,627	-0,095	0,001
-331,460	724,956	-0,023	0,045
-330,445	239,808	-0,024	-0,029
-329,431	-200,000	-0,002	0,016
-328,416	132,180	0,089	-0,083
-327,402	251,814	-0,121	0,150
-326,387	494,183	0,037	-0,062
-325,372	199,817	-0,031	-0,034
-324,358	535,871	0,007	0,012
-323,343	-200,000	0,010	0,061
-322,329	-200,000	-0,028	0,114
-321,314	-200,000	-0,006	-0,144
-320,299	-200,000	-0,001	0,023
-319,285	800,000	0,026	0,063
-318,270	434,992	0,044	0,069
-317,256	22,445	0,016	-0,010
-316,241	-154,521	0,067	-0,003
-315,226	103,698	-0,080	-0,068
-314,212	-16,273	0,044	0,020
-313,197	-200,000	-0,006	0,069
-312,183	-200,000	0,039	0,183
-311,168	526,766	0,028	-0,048
-310,153	207,166	0,047	-0,053
-309,139	574,690	0,029	-0,052
-308,124	89,973	0,068	-0,055
-307,110	-200,000	0,008	0,072
-306,095	-7,974	-0,064	-0,031
-305,080	-200,000	-0,001	0,083
-304,066	442,056	-0,042	0,066
-303,051	165,533	-0,065	-0,066
-302,037	40,729	-0,046	-0,030
-301,022	648,225	-0,075	0,140
-300,008	316,714	-0,023	-0,032
-298,993	743,648	-0,038	0,075
-297,978	56,460	0,056	0,040
-296,964	-168,306	0,130	0,004
-295,949	-67,261	-0,061	0,017
-294,935	-200,000	0,027	-0,122
-293,920	91,029	0,078	0,064
-292,905	45,455	-0,072	0,048
-291,891	-38,320	0,193	0,073
-290,876	-200,000	-0,014	-0,055
-289,862	24,692	0,058	0,035
-288,847	-108,980	-0,090	0,014
-287,832	-200,000	-0,003	-0,040
-286,818	800,000	0,055	-0,118
-285,803	-180,200	0,113	-0,002
-284,789	-39,210	-0,055	0,021
-283,774	-115,988	0,021	0,003
-282,759	-200,000	-0,004	0,057
-281,745	27,247	-0,086	-0,052
-280,730	-51,477	0,068	-0,023
-279,716	-27,296	0,047	0,019
-278,701	800,000	0,027	-0,055
-277,686	93,403	0,057	0,047
-276,672	579,288	-0,043	0,077
-275,657	-149,228	-0,088	0,005
-274,643	-135,096	0,108	0,009
-273,628	-34,142	-0,040	-0,016
-272,613	-159,231	0,064	0,003
-271,599	-86,290	0,114	0,025
-270,584	800,000	-0,038	0,115
-269,570	533,462	0,049	0,084
-268,555	184,575	0,093	0,099
-267,540	-33,037	-0,040	0,016
-266,526	-47,099	0,058	-0,020
-265,511	800,000	-0,026	0,056
-264,497	-49,321	0,103	0,035
-263,482	-200,000	0,012	0,041
-262,467	-144,038	0,155	0,010
-261,453	-51,747	0,051	-0,017
-260,438	-200,000	-0,001	0,073
-259,424	-94,107	-0,171	0,034
-258,409	182,449	0,041	0,043
-257,395	228,990	0,015	0,018
-256,380	526,584	0,038	-0,064
-255,365	800,000	-0,043	0,111
-254,351	417,154	-0,042	0,065
-253,336	43,235	0,072	-0,047
-252,322	-200,000	-0,016	-0,065
-251,307	469,227	-0,032	-0,051
-250,292	-110,775	0,105	0,016
-249,278	-81,895	0,010	-0,002
-248,263	-200,000	0,006	0,098
-247,249	-97,952	-0,059	-0,011
-246,234	349,377	0,105	-0,151
-245,219	-97,145	-0,039	-0,007
-244,205	800,000	-0,015	-0,047
-243,190	-200,000	0,015	0,063
-242,176	-130,036	0,103	0,010
-241,161	587,915	-0,025	0,044
-240,146	-200,000	0,011	0,109
-239,132	5,072	0,077	0,041
-238,117	502,611	-0,089	0,149
-237,103	200,398	-0,056	0,062
-236,088	-200,000	0,035	-0,117
-235,073	168,651	0,076	0,079
-234,059	397,070	0,079	0,119
-233,044	546,813	0,026	0,046
-232,030	77,887	-0,070	0,053
-231,015	-200,000	0,003	-0,009
-230,000	-200,000	-0,032	-0,134
-228,986	-105,147	-0,042	-0,007
-227,971	-200,000	-0,018	-0,059
-226,957	-200,000	0,000	0,083
-225,942	-143,573	-0,302	0,020
-224,927	557,251	-0,117	0,205
-223,913	-200,000	-0,006	-0,040
-222,898	-200,000	0,029	-0,107
-221,884	-200,000	0,009	-0,060
-220,869	20,599	0,074	0,043
-219,855	323,255	-0,033	0,046
-218,840	800,000	0,049	0,114
-217,825	-98,482	0,065	0,012
-216,811	94,855	-0,024	0,020
-215,796	397,292	-0,129	-0,195
-214,782	15,132	0,019	0,011
-213,767	-93,647	0,136	-0,027
-212,752	-123,473	0,116	0,013
-211,738	204,485	0,021	-0,023
-210,723	278,977	-0,066	-0,085
-209,709	-200,000	-0,010	-0,056
-208,694	-97,674	-0,098	-0,018
-207,679	-200,000	-0,017	-0,103
-206,665	-55,936	0,127	-0,041
-205,650	469,392	0,119	-0,193
-204,636	-200,000	-0,014	-0,061
-203,621	-200,000	-0,007	-0,183
-202,606	58,193	-0,075	-0,053
-201,592	91,232	0,202	-0,164
-200,577	144,952	-0,137	-0,132
-199,563	-200,000	-0,014	-0,059
-198,548	-54,732	-0,080	-0,026
-197,533	456,875	-0,021	-0,033
-196,519	-200,000	0,002	0,018
-195,504	-160,504	-0,079	0,003
-194,490	-29,987	0,052	0,021
-193,475	-200,000	0,000	-0,061
-192,460	-154,885	-0,045	0,002
-191,446	-200,000	0,011	-0,057
-190,431	800,000	0,045	-0,121
-189,417	341,011	0,040	0,056
-188,402	-102,687	-0,094	0,016
-187,387	272,831	0,063	0,080
-186,373	-200,000	-0,002	-0,037
-185,358	-150,530	0,044	-0,002
-184,344	-200,000	-0,016	0,091
-183,329	797,868	-0,023	0,047
-182,315	471,305	-0,058	0,094
-181,300	186,782	-0,032	0,034
-180,285	420,979	-0,069	0,107
-179,271	-200,000	-0,001	-0,031
-178,256	-108,177	0,196	0,030
-177,242	58,848	-0,165	0,117
-176,227	-29,452	-0,068	-0,028
-175,212	135,931	0,105	0,099
-174,198	227,971	-0,011	0,013
-173,183	-100,329	-0,104	0,018
-172,169	166,703	-0,032	-0,032
-171,154	-186,059	0,096	-0,001
-170,139	-74,834	0,123	0,031
-169,125	59,331	0,179	0,127
-168,110	-103,328	0,040	0,007
-167,096	284,809	0,057	-0,074
-166,081	-200,000	0,021	0,087
-165,066	596,571	-0,034	0,062
-164,052	-43,458	0,078	-0,028
-163,037	514,835	0,034	0,057
-162,023	-48,796	-0,073	-0,025
-161,008	4,539	0,152	-0,080
-159,993	297,523	-0,062	-0,083
-158,979	-200,000	-0,001	-0,048
-157,964	45,034	-0,126	0,084
-156,950	-183,214	-0,042	0,001
-155,935	425,904	0,011	-0,018
-154,920	132,266	0,087	-0,081
-153,906	800,000	0,021	0,043
-152,891	-102,059	0,053	0,009
-151,877	77,767	-0,056	-0,043
-150,862	-54,002	-0,057	-0,018
-149,847	-200,000	-0,018	0,156
-148,833	800,000	0,006	0,018
-147,818	70,172	-0,110	-0,082
-146,804	289,557	0,016	-0,021
-145,789	800,000	-0,033	0,067
-144,775	800,000	0,024	0,053
-143,760	-200,000	0,010	0,056
-142,745	-36,380	-0,131	0,050
-141,731	-118,356	0,104	-0,013
-140,716	-200,000	-0,006	0,089
-139,702	324,117	0,082	0,113
-138,687	459,667	-0,106	0,170
-137,672	-200,000	0,010	0,075
-136,658	23,463	-0,075	-0,045
-135,643	-116,652	-0,059	-0,008
-134,629	-200,000	0,020	0,073
-133,614	-39,318	0,073	0,027
-132,599	-98,269	0,075	-0,014
-131,585	-200,000	-0,012	0,071
-130,570	223,312	-0,113	0,132
-129,556	-135,055	-0,180	0,015
-128,541	-200,000	-0,012	0,051
-127,526	-68,983	0,180	0,049
-126,512	-71,696	-0,057	0,015
-125,497	504,902	0,016	0,027
-124,483	-200,000	-0,031	0,174
-123,468	78,440	0,027	0,020
-122,453	4,123	-0,093	-0,049
-121,439	-151,202	0,030	0,002
-120,424	-35,801	-0,137	0,053
