DTS Sentinel unit serial number:	SN410029Multiplexer serial number:	ORYXHardware model number:	OX2-SRSoftware version number:	ORYX F/W v4,00 Oryx Data Collector v3.7.2.0data status	okinstallation	B5 Nyhavnadifferential loss correction	single-endedforward channel	channel 2reverse channel	N/Adate	2023/12/11time	23:52:13forward acquisition time	300,00reverse acquisition time	0,00gamma	499,1914k internal	0,3155k external	0,3155temperature offset calibration	1,0000default loss term (dB/km)	0,3820temperature slope calibration	1,0000multiplexer offset coefficient	1,0000multiplexer slope coefficient	1,0000fibre end	0,00T internal ref (°C)	16,19T ext. ref 1 (°C)	-0,16T ext. ref 2 (°C)	-0,43length (m)	temperature (°C)	Stokes	anti-Stokes-744,400	-125,192	0,055	0,006
-743,385	-50,074	-0,245	0,085
-742,371	-89,731	0,237	-0,051
-741,356	-80,038	-0,329	0,081
-740,342	-135,031	0,080	0,007
-739,327	12,179	-0,278	0,157
-738,312	-200,000	-0,001	0,138
-737,298	-180,772	-0,388	-0,006
-736,283	354,317	0,038	-0,056
-735,269	-112,378	-0,151	-0,022
-734,254	-124,470	0,264	-0,030
-733,239	115,651	-0,425	-0,383
-732,225	266,084	0,025	0,032
-731,210	15,716	0,074	0,043
-730,196	32,070	-0,064	0,040
-729,181	-11,362	0,047	-0,023
-728,167	169,019	-0,051	0,053
-727,152	-200,000	0,002	0,062
-726,137	-60,918	-0,144	-0,045
-725,123	-200,000	0,011	-0,068
-724,108	212,863	-0,020	-0,023
-723,094	-61,410	-0,056	-0,017
-722,079	-200,000	-0,032	-0,134
-721,064	602,917	-0,063	0,116
-720,050	-104,472	-0,162	-0,027
-719,035	-168,508	-0,054	-0,001
-718,021	800,000	-0,010	0,023
-717,006	150,977	-0,013	-0,013
-715,991	4,114	-0,130	-0,070
-714,977	82,039	-0,046	-0,037
-713,962	665,852	0,045	-0,086
-712,948	106,559	0,048	-0,042
-711,933	-200,000	0,013	0,184
-710,918	800,000	-0,089	-0,203
-709,904	-0,745	0,015	-0,008
-708,889	15,503	-0,125	0,072
-707,875	165,997	-0,069	-0,072
-706,860	59,904	-0,077	0,056
-705,845	-200,000	0,011	-0,098
-704,831	553,793	0,059	0,104
-703,816	-76,875	-0,058	0,015
-702,802	459,460	-0,048	0,079
-701,787	-200,000	-0,000	-0,156
-700,772	12,663	0,089	0,051
-699,758	64,931	-0,028	-0,021
-698,743	6,554	0,005	0,003
-697,729	12,912	0,120	0,068
-696,714	-175,836	-0,026	-0,001
-695,699	356,105	-0,072	-0,105
-694,685	-174,588	-0,107	0,002
-693,670	76,650	0,087	0,068
-692,656	604,010	-0,079	-0,145
-691,641	-200,000	0,008	-0,147
-690,627	427,616	-0,046	-0,074
-689,612	224,835	0,073	-0,087
-688,597	382,588	-0,054	-0,081
-687,583	610,018	0,043	-0,079
-686,568	-65,694	-0,116	0,034
-685,554	-200,000	-0,013	-0,115
-684,539	-80,529	-0,051	0,012
-683,524	273,181	-0,052	-0,068
-682,510	-200,000	-0,027	0,091
-681,495	641,121	0,011	0,020
-680,481	-106,898	0,079	-0,013
-679,466	71,194	-0,214	-0,163
-678,451	145,603	0,064	-0,063
-677,437	-200,000	0,036	-0,140
-676,422	-15,456	-0,094	-0,044
-675,408	-200,000	-0,011	-0,118
-674,393	295,560	-0,061	-0,083
-673,378	3,519	0,027	0,014
-672,364	-200,000	0,028	-0,094
-671,349	-189,656	-0,084	0,001
-670,335	533,450	0,095	0,167
-669,320	-200,000	-0,009	-0,029
-668,305	371,848	0,041	0,061
-667,291	800,000	0,017	0,040
-666,276	-119,848	-0,072	0,009
-665,262	18,058	-0,067	0,039
-664,247	689,161	0,019	-0,036
-663,232	466,259	0,066	0,109
-662,218	-200,000	-0,015	0,182
-661,203	-200,000	-0,004	0,031
-660,189	109,778	-0,096	0,085
-659,174	-87,829	0,019	0,004
-658,159	-200,000	-0,013	-0,049
-657,145	-200,000	0,011	-0,067
-656,130	800,000	0,017	-0,043
-655,116	2,073	0,062	-0,033
-654,101	119,102	-0,049	0,045
-653,086	-47,308	-0,039	0,014
-652,072	97,065	-0,124	-0,105
-651,057	44,841	-0,040	-0,027
-650,043	-15,417	-0,091	-0,043
-649,028	-108,984	-0,028	0,004
-648,014	-28,368	0,045	0,019
-646,999	42,278	-0,052	0,034
-645,984	800,000	0,031	-0,082
-644,970	-136,779	0,031	-0,003
-643,955	27,034	0,103	0,063
-642,941	-119,234	-0,055	0,007
-641,926	-17,435	0,012	0,006
-640,911	-36,771	0,014	0,006
-639,897	800,000	0,020	0,061
-638,882	165,741	-0,040	0,041
-637,868	647,691	-0,062	-0,117
-636,853	800,000	0,044	-0,093
-635,838	-86,989	-0,131	0,029
-634,824	381,887	0,095	-0,143
-633,809	800,000	0,041	0,088
-632,795	190,083	0,069	-0,077
-631,780	-200,000	-0,019	0,098
-630,765	36,640	-0,107	-0,070
-629,751	264,337	0,074	-0,094
-628,736	304,582	-0,076	-0,103
-627,722	-200,000	-0,019	-0,086
-626,707	113,766	0,014	-0,012
-625,692	193,172	0,097	-0,107
-624,678	-200,000	-0,027	0,098
-623,663	44,074	-0,133	-0,089
-622,649	800,000	-0,017	-0,039
-621,634	2,929	-0,034	-0,018
-620,619	128,353	-0,182	-0,170
-619,605	-36,096	-0,096	0,038
-618,590	-200,000	0,013	0,132
-617,576	23,521	0,045	0,027
-616,561	64,084	-0,064	0,047
-615,546	800,000	-0,012	0,038
-614,532	800,000	-0,027	-0,056
-613,517	175,566	-0,053	0,056
-612,503	-200,000	-0,014	0,120
-611,488	-200,000	-0,017	-0,177
-610,474	-200,000	-0,015	-0,059
-609,459	409,147	0,084	-0,131
-608,444	-200,000	-0,024	-0,180
-607,430	193,124	-0,083	0,092
-606,415	-97,785	-0,059	0,011
-605,401	800,000	-0,002	0,006
-604,386	42,357	0,012	-0,008
-603,371	-200,000	-0,007	0,035
-602,357	800,000	0,052	0,128
-601,342	82,856	-0,109	0,087
-600,328	29,246	-0,124	-0,077
-599,313	-60,331	-0,069	-0,021
-598,298	570,363	-0,014	-0,025
-597,284	248,143	0,058	-0,072
-596,269	-200,000	-0,008	0,116
-595,255	153,959	0,050	-0,051
-594,240	-200,000	-0,003	-0,141
-593,225	-200,000	0,002	-0,042
-592,211	-70,701	-0,167	-0,046
-591,196	-200,000	0,027	-0,177
-590,182	800,000	0,020	0,055
-589,167	800,000	0,021	0,060
-588,152	-127,054	0,142	-0,015
-587,138	-200,000	0,026	0,100
-586,123	-143,309	-0,069	-0,005
-585,109	-34,013	-0,084	-0,034
-584,094	-99,090	0,038	-0,007
-583,079	-92,517	-0,083	0,017
-582,065	-44,110	0,207	-0,076
-581,050	280,804	0,094	-0,123
-580,036	-55,847	-0,097	0,032
-579,021	298,382	-0,017	0,022
-578,006	-200,000	-0,007	-0,101
-576,992	265,206	-0,016	0,021
-575,977	-17,066	-0,135	0,062
-574,963	552,947	0,053	0,093
-573,948	-135,558	-0,070	0,006
-572,934	-23,114	-0,046	-0,020
-571,919	-6,418	-0,128	0,064
-570,904	-200,000	0,024	0,084
-569,890	-184,830	-0,137	0,002
-568,875	800,000	0,038	0,080
-567,861	-38,920	-0,062	0,024
-566,846	-150,538	-0,087	0,005
-565,831	791,094	-0,060	0,121
-564,817	-200,000	-0,004	-0,041
-563,802	271,022	-0,135	0,174
-562,788	800,000	0,016	0,037
-561,773	-200,000	-0,001	-0,050
-560,758	109,862	-0,036	0,031
-559,744	121,163	0,067	-0,062
-558,729	-60,218	-0,066	0,021
-557,715	800,000	-0,032	-0,075
-556,700	-115,971	-0,139	-0,019
-555,685	69,794	0,011	-0,009
-554,671	138,103	0,101	-0,097
-553,656	136,110	0,101	-0,096
-552,642	-90,983	-0,042	0,009
-551,627	-134,014	-0,121	-0,011
-550,612	65,988	-0,078	0,058
-549,598	368,842	0,024	-0,036
-548,583	-200,000	0,002	-0,024
-547,569	-25,855	-0,007	0,003
-546,554	681,144	-0,035	0,068
-545,539	-151,318	-0,039	0,002
-544,525	-200,000	-0,017	-0,099
-543,510	250,953	-0,049	-0,062
-542,496	800,000	0,020	-0,054
-541,481	21,740	0,047	0,028
-540,466	800,000	-0,043	-0,136
-539,452	-120,088	-0,088	0,011
-538,437	-200,000	0,011	0,237
-537,423	169,631	-0,113	0,118
-536,408	-157,820	0,022	-0,001
-535,393	-139,921	-0,001	0,000
-534,379	2,944	0,101	-0,053
-533,364	5,803	-0,056	0,030
-532,350	-169,390	0,215	0,006
-531,335	-200,000	0,001	-0,115
-530,321	38,909	-0,038	0,025
-529,306	-40,097	-0,027	0,010
-528,291	-200,000	-0,011	-0,210
-527,277	-37,676	-0,138	0,053
-526,262	-17,485	0,117	-0,054
-525,248	-95,935	-0,071	-0,014
-524,233	-195,054	-0,034	-0,000
-523,218	800,000	0,026	0,082
-522,204	279,144	0,100	0,130
-521,189	-200,000	0,001	-0,268
-520,175	5,923	-0,114	-0,061
-519,160	-129,567	-0,108	-0,011
-518,145	-200,000	0,029	-0,101
-517,131	-200,000	-0,012	-0,067
-516,116	117,973	-0,097	0,088
-515,102	-200,000	0,004	-0,031
-514,087	-157,228	-0,080	0,003
-513,072	112,760	-0,037	-0,033
-512,058	4,280	-0,110	-0,058
-511,043	-134,598	0,059	0,005
-510,029	-116,855	-0,020	0,003
-509,014	-112,485	0,045	-0,007
-507,999	112,596	-0,017	-0,015
-506,985	-200,000	0,030	0,110
-505,970	89,281	0,074	0,060
-504,956	800,000	-0,029	-0,091
-503,941	319,948	-0,049	0,068
-502,926	800,000	0,040	-0,106
-501,912	361,301	0,073	0,107
-500,897	-61,129	-0,147	0,045
-499,883	355,571	0,008	-0,012
-498,868	-101,150	-0,070	0,012
-497,853	148,755	0,050	0,049
-496,839	43,353	-0,061	-0,040
-495,824	784,827	0,067	0,134
-494,810	294,913	0,034	0,046
-493,795	-89,876	0,125	0,026
-492,781	-103,829	0,043	-0,007
-491,766	283,809	-0,028	-0,037
-490,751	-200,000	-0,008	-0,056
-489,737	292,324	0,022	-0,029
-488,722	-50,053	0,075	0,026
-487,708	-34,704	0,061	0,024
-486,693	-200,000	0,038	0,179
-485,678	-194,445	0,081	0,000
-484,664	-86,200	-0,129	0,029
-483,649	-200,000	-0,024	-0,185
-482,635	-35,789	0,100	-0,039
-481,620	233,705	-0,084	0,101
-480,605	168,534	0,101	0,106
-479,591	243,459	-0,027	-0,033
-478,576	-119,255	0,097	0,012
-477,562	-17,917	0,043	-0,020
-476,547	148,649	-0,103	0,101
-475,532	217,046	0,026	-0,031
-474,518	330,969	0,081	-0,115
-473,503	219,680	0,040	0,047
-472,489	800,000	0,044	0,112
-471,474	-21,571	-0,047	-0,021
-470,459	-121,377	0,132	0,016
-469,445	-132,623	-0,091	0,008
-468,430	669,642	0,036	0,068
-467,416	-200,000	-0,016	0,113
-466,401	-200,000	-0,042	-0,138
-465,386	55,628	0,098	-0,069
-464,372	-200,000	-0,032	0,155
-463,357	-22,677	0,092	0,040
-462,343	-200,000	-0,027	-0,110
-461,328	-97,149	-0,127	-0,024
-460,313	-84,025	0,128	0,030
-459,299	0,016	0,127	0,066
-458,284	410,399	-0,043	-0,067
-457,270	260,942	-0,103	-0,130
-456,255	-134,209	-0,117	0,010
-455,241	122,907	0,062	-0,057
-454,226	330,743	0,051	-0,073
-453,211	800,000	-0,046	0,095
-452,197	81,987	0,083	0,065
-451,182	-200,000	0,001	-0,045
-450,168	-200,000	-0,017	0,080
-449,153	207,529	0,039	-0,045
-448,138	-54,556	0,030	0,010
-447,124	45,660	-0,119	-0,080
-446,109	800,000	-0,043	0,089
-445,095	-129,880	0,088	0,009
-444,080	49,972	0,245	0,168
-443,065	800,000	-0,014	-0,029
-442,051	-61,969	0,059	0,018
-441,036	-200,000	-0,008	-0,194
-440,022	800,000	-0,041	0,110
-439,007	-200,000	0,025	-0,097
-437,992	71,732	-0,042	0,032
-436,978	-200,000	0,010	0,140
-435,963	-200,000	-0,011	-0,078
-434,949	77,656	-0,089	-0,069
-433,934	-100,325	0,053	0,010
-432,919	-28,677	-0,050	-0,021
-431,905	800,000	0,047	-0,147
-430,890	404,833	-0,054	0,084
-429,876	-200,000	0,010	0,045
-428,861	270,863	-0,035	0,045
-427,846	139,370	-0,080	0,077
-426,832	-200,000	0,012	0,040
-425,817	344,196	0,067	-0,096
-424,803	46,609	0,140	-0,095
-423,788	142,179	-0,082	-0,080
-422,773	-200,000	0,040	-0,248
-421,759	800,000	-0,005	-0,011
-420,744	-200,000	0,014	0,079
-419,730	510,506	0,057	-0,097
-418,715	688,406	-0,067	-0,128
-417,701	-48,140	0,133	-0,047
-416,686	137,375	0,090	-0,086
-415,671	38,644	0,149	-0,097
-414,657	-31,725	0,090	-0,037
-413,642	-96,403	0,074	0,014
-412,628	69,119	0,067	0,050
-411,613	84,318	-0,032	-0,026
-410,598	-32,231	-0,121	-0,049
-409,584	800,000	0,051	0,123
-408,569	0,694	0,039	0,020
-407,555	-184,930	0,111	-0,001
-406,540	252,290	-0,048	0,060
-405,525	800,000	0,023	-0,060
-404,511	-200,000	0,016	-0,096
-403,496	800,000	-0,055	-0,113
-402,482	800,000	0,022	-0,046
-401,467	0,230	-0,047	0,024
-400,452	-148,821	0,018	-0,001
-399,438	194,568	0,065	0,072
-398,423	5,237	0,031	0,016
-397,409	-13,328	-0,170	0,080
-396,394	26,812	0,024	0,014
-395,379	-200,000	-0,023	-0,138
-394,365	-20,179	-0,059	0,026
-393,350	-31,590	0,065	-0,027
-392,336	362,920	0,072	0,106
-391,321	800,000	-0,007	0,022
-390,306	22,569	-0,086	-0,051
-389,292	-33,240	0,171	-0,068
-388,277	-81,008	-0,035	0,008
-387,263	264,837	0,048	-0,060
-386,248	800,000	-0,051	0,115
-385,233	41,224	-0,079	-0,052
-384,219	-200,000	0,003	0,016
-383,204	209,710	0,040	0,046
-382,190	-115,759	-0,116	-0,016
-381,175	-111,140	0,186	0,027
-380,160	40,096	-0,038	0,025
-379,146	61,941	0,149	0,108
-378,131	166,358	0,033	0,034
-377,117	132,853	0,083	-0,078
-376,102	-200,000	-0,013	0,061
-375,088	800,000	0,033	-0,079
-374,073	734,651	-0,110	-0,216
-373,058	-200,000	-0,023	0,123
-372,044	-19,025	0,028	0,013
-371,029	353,634	0,048	-0,069
-370,015	737,350	-0,008	-0,016
-369,000	-174,383	0,050	-0,001
-367,985	-96,968	-0,094	-0,018
-366,971	-0,434	-0,041	0,021
-365,956	-46,798	0,069	-0,025
-364,942	641,394	-0,036	0,067
-363,927	-44,725	0,071	0,026
-362,912	-11,261	0,042	0,020
-361,898	800,000	0,022	0,062
-360,883	-165,057	0,039	-0,001
-359,869	-200,000	-0,004	0,110
-358,854	149,364	-0,100	0,098
-357,839	-134,271	0,027	0,002
-356,825	-140,609	0,031	0,002
-355,810	311,026	0,019	-0,025
-354,796	-200,000	-0,035	-0,117
-353,781	800,000	0,018	0,056
-352,766	-200,000	-0,043	-0,187
-351,752	-200,000	0,022	0,103
-350,737	800,000	-0,038	0,103
-349,723	440,445	0,027	0,044
-348,708	-130,295	0,127	0,012
-347,693	496,809	-0,064	-0,108
-346,679	-200,000	-0,031	-0,110
-345,664	-200,000	-0,011	0,122
-344,650	-22,436	-0,138	0,061
-343,635	-15,070	-0,074	-0,034
-342,620	-200,000	-0,011	-0,095
-341,606	316,057	-0,026	0,036
-340,591	-47,434	-0,073	-0,026
-339,577	123,661	-0,145	0,132
-338,562	252,077	-0,090	-0,111
-337,548	-45,075	-0,061	-0,022
-336,533	-99,945	0,083	-0,015
-335,518	172,451	0,056	0,058
-334,504	800,000	-0,052	-0,107
-333,489	-140,504	0,063	-0,005
-332,475	800,000	-0,006	-0,014
-331,460	114,072	-0,056	-0,050
-330,445	287,035	-0,021	0,028
-329,431	800,000	-0,022	-0,054
-328,416	-91,461	0,033	-0,007
-327,402	-107,240	0,054	-0,009
-326,387	324,447	0,054	-0,075
-325,372	159,985	0,009	-0,010
-324,358	-135,706	0,094	-0,008
-323,343	-69,038	0,088	-0,024
-322,329	800,000	-0,059	0,135
-321,314	-147,124	0,038	0,002
-320,299	800,000	0,039	0,080
-319,285	-200,000	-0,026	0,130
-318,270	10,622	0,037	0,020
-317,256	-102,352	-0,047	-0,008
-316,241	800,000	0,048	-0,120
-315,226	800,000	0,094	0,216
-314,212	800,000	0,019	0,053
-313,197	-13,693	-0,092	0,043
-312,183	54,490	0,117	0,082
-311,168	124,061	-0,059	-0,054
-310,153	-39,296	-0,149	-0,056
-309,139	-200,000	0,005	-0,043
-308,124	90,795	-0,039	-0,032
-307,110	188,678	0,069	0,075
-306,095	-26,225	0,044	0,019
-305,080	800,000	-0,016	-0,036
-304,066	800,000	0,029	0,071
-303,051	664,296	-0,040	-0,075
-302,037	-101,143	-0,114	-0,020
-301,022	-110,695	0,139	0,021
-300,008	-200,000	0,034	0,115
-298,993	-144,393	-0,025	0,002
-297,978	-72,269	0,082	0,022
-296,964	800,000	0,035	0,077
-295,949	307,368	-0,034	0,046
-294,935	-64,274	0,064	0,019
-293,920	-74,095	0,020	-0,005
-292,905	-200,000	0,007	0,133
-291,891	59,639	0,089	-0,064
-290,876	-200,000	-0,023	0,078
-289,862	-8,149	0,055	0,027
-288,847	299,312	0,031	0,042
-287,832	-200,000	0,009	-0,053
-286,818	133,554	0,054	-0,050
-285,803	-87,074	0,056	-0,012
-284,789	800,000	-0,008	0,022
-283,774	-89,531	-0,050	0,011
-282,759	-59,117	0,046	0,014
-281,745	75,445	-0,116	0,089
-280,730	-130,509	0,038	0,004
-279,716	-26,597	-0,110	0,046
-278,701	-172,400	0,006	0,000
-277,686	-200,000	0,007	-0,052
-276,672	-102,720	0,103	-0,018
-275,657	-62,372	-0,065	-0,019
-274,643	365,376	-0,111	-0,163
-273,628	-200,000	-0,018	-0,081
-272,613	-200,000	0,004	0,060
-271,599	-200,000	-0,004	-0,028
-270,584	-94,547	0,072	-0,014
-269,570	84,080	0,053	0,042
-268,555	68,765	0,133	0,099
-267,540	800,000	0,041	0,095
-266,526	-87,308	0,111	-0,024
-265,511	342,647	-0,073	-0,104
-264,497	-20,144	0,090	-0,040
-263,482	150,169	0,096	-0,095
-262,467	-200,000	-0,009	-0,044
-261,453	734,206	0,036	-0,070
-260,438	-29,485	-0,032	-0,013
-259,424	800,000	-0,038	-0,080
-258,409	3,398	0,077	-0,041
-257,395	-200,000	0,006	-0,077
-256,380	78,005	0,129	0,099
-255,365	800,000	-0,010	0,028
-254,351	-200,000	-0,005	0,067
-253,336	20,351	0,073	0,043
-252,322	-28,497	-0,089	0,037
-251,307	213,745	-0,030	-0,035
-250,292	325,417	0,073	-0,102
-249,278	240,450	0,055	0,067
-248,263	-120,330	0,028	0,003
-247,249	-25,864	-0,058	0,025
-246,234	-200,000	0,012	0,108
-245,219	-200,000	0,008	0,057
-244,205	154,286	0,102	-0,101
-243,190	800,000	0,037	-0,090
-242,176	-111,919	-0,149	-0,022
-241,161	119,700	0,122	0,110
-240,146	-80,944	-0,055	-0,013
-239,132	33,283	-0,135	0,085
-238,117	-96,414	-0,097	0,018
-237,103	-169,684	0,061	-0,002
-236,088	35,734	0,089	0,057
-235,073	-28,882	-0,092	0,038
-234,059	800,000	0,086	0,229
-233,044	-200,000	-0,012	0,162
-232,030	-149,463	-0,032	-0,002
-231,015	-200,000	0,011	-0,113
-230,000	-200,000	0,032	-0,131
-228,986	-193,963	-0,137	0,001
-227,971	-39,582	-0,064	0,024
-226,957	245,355	0,100	0,122
-225,942	-34,935	0,062	0,024
-224,927	250,812	-0,047	-0,058
-223,913	125,503	-0,048	-0,044
-222,898	-99,363	0,075	-0,014
-221,884	97,652	-0,089	0,074
-220,869	59,552	0,083	0,059
-219,855	-200,000	0,036	0,127
-218,840	-84,864	0,045	-0,010
-217,825	-145,825	0,195	0,012
-216,811	-20,595	-0,192	0,085
-215,796	-71,642	0,155	0,042
-214,782	-200,000	0,003	0,061
-213,767	472,984	-0,062	-0,102
-212,752	800,000	-0,048	0,131
-211,738	-200,000	-0,005	-0,056
-210,723	-38,869	-0,051	0,019
-209,709	191,491	-0,139	-0,151
-208,694	-95,720	-0,069	0,013
-207,679	432,163	-0,095	-0,150
-206,665	-163,155	0,176	-0,006
-205,650	-120,042	-0,043	0,005
-204,636	100,292	-0,023	0,019
-203,621	181,061	0,118	0,125
-202,606	800,000	0,023	0,059
-201,592	800,000	-0,033	0,101
-200,577	-137,560	0,034	0,003
-199,563	83,136	0,107	-0,084
-198,548	543,074	0,061	-0,106
-197,533	471,718	0,030	0,049
-196,519	235,671	-0,049	0,059
-195,504	644,201	-0,106	0,196
-194,490	-200,000	-0,027	0,095
-193,475	-103,978	-0,057	0,010
-192,460	800,000	0,107	-0,280
-191,446	-116,786	0,080	-0,010
-190,431	167,795	0,117	-0,120
-189,417	-57,487	-0,105	0,033
-188,402	-200,000	0,009	0,092
-187,387	-46,158	-0,185	-0,065
-186,373	-200,000	-0,028	-0,187
-185,358	-200,000	0,029	-0,122
-184,344	-70,961	0,059	0,016
-183,329	286,010	0,029	0,038
-182,315	4,460	0,065	0,034
-181,300	800,000	-0,020	-0,045
-180,285	528,069	-0,034	0,059
-179,271	-102,552	-0,082	-0,014
-178,256	164,098	0,092	0,094
-177,242	-96,773	0,115	-0,022
-176,227	-200,000	0,035	0,167
-175,212	800,000	-0,040	0,128
-174,198	-94,311	0,103	-0,020
-173,183	196,961	-0,145	-0,159
-172,169	76,612	0,107	-0,082
-171,154	624,337	0,056	-0,103
-170,139	800,000	0,068	0,142
-169,125	-55,147	-0,049	0,016
-168,110	-200,000	-0,041	0,133
-167,096	-67,613	-0,112	-0,031
-166,081	100,637	-0,064	-0,054
-165,066	-200,000	0,025	-0,150
-164,052	-174,935	-0,184	-0,004
-163,037	240,100	-0,048	0,057
-162,023	800,000	0,031	0,083
-161,008	-52,438	0,018	0,006
-159,993	-200,000	-0,002	0,087
-158,979	-200,000	-0,001	0,048
-157,964	800,000	-0,012	0,033
-156,950	118,044	-0,048	0,042
-155,935	119,965	-0,132	0,118
-154,920	800,000	0,040	0,119
-153,906	231,916	0,047	-0,056
-152,891	146,235	-0,067	-0,065
-151,877	634,584	0,037	0,068
-150,862	-200,000	0,038	-0,191
-149,847	571,358	0,045	-0,079
-148,833	-200,000	-0,017	-0,142
-147,818	318,856	0,059	0,080
-146,804	142,045	-0,104	0,100
-145,789	-30,312	0,099	-0,040
-144,775	617,249	-0,008	0,014
-143,760	-132,920	-0,054	-0,005
-142,745	800,000	-0,016	0,047
-141,731	-78,742	-0,040	0,010
-140,716	364,766	-0,092	0,134
-139,702	557,592	0,034	0,060
-138,687	-86,151	-0,083	0,018
-137,672	-20,338	0,112	-0,050
-136,658	800,000	-0,027	0,067
-135,643	-200,000	-0,004	-0,098
-134,629	307,788	0,054	-0,072
-133,614	344,359	0,030	-0,043
-132,599	220,775	-0,023	-0,026
-131,585	-30,730	-0,048	-0,020
-130,570	21,804	-0,074	0,043
-129,556	-200,000	-0,019	-0,137
-128,541	211,527	-0,171	-0,194
-127,526	-73,878	-0,023	0,006
-126,512	-169,887	0,076	-0,002
-125,497	-200,000	0,010	0,079
-124,483	22,624	0,111	-0,066
-123,468	-200,000	-0,023	0,144
-122,453	-200,000	0,017	-0,080
-121,439	-200,000	0,023	-0,105
-120,424	534,821	-0,042	0,072
-119,410	-200,000	0,026	0,126
