DTS Sentinel unit serial number:	SN410029Multiplexer serial number:	ORYXHardware model number:	OX2-SRSoftware version number:	ORYX F/W v4,00 Oryx Data Collector v3.7.2.0data status	okinstallation	B5 Nyhavnadifferential loss correction	single-endedforward channel	channel 2reverse channel	N/Adate	2023/12/13time	11:52:13forward acquisition time	300,00reverse acquisition time	0,00gamma	499,1914k internal	0,3161k external	0,3161temperature offset calibration	1,0000default loss term (dB/km)	0,3820temperature slope calibration	1,0000multiplexer offset coefficient	1,0000multiplexer slope coefficient	1,0000fibre end	0,00T internal ref (°C)	13,89T ext. ref 1 (°C)	-2,03T ext. ref 2 (°C)	-2,32length (m)	temperature (°C)	Stokes	anti-Stokes-744,400	-138,329	0,123	0,010
-743,385	-131,477	-0,302	-0,029
-742,371	167,409	0,177	0,185
-741,356	-108,672	-0,360	-0,056
-740,342	800,000	0,037	-0,099
-739,327	-99,560	-0,360	-0,066
-738,312	417,245	0,057	0,090
-737,298	-106,191	-0,501	-0,082
-736,283	-77,304	0,213	-0,054
-735,269	-185,196	-0,296	0,003
-734,254	-132,282	0,083	-0,008
-733,239	-21,319	-0,538	-0,241
-732,225	-43,864	0,244	0,090
-731,210	-200,000	0,006	0,021
-730,196	357,246	-0,027	0,040
-729,181	-200,000	-0,010	-0,073
-728,167	123,740	-0,067	-0,062
-727,152	335,074	-0,045	-0,064
-726,137	-200,000	-0,025	-0,140
-725,123	-62,838	0,047	0,014
-724,108	67,484	-0,043	-0,033
-723,094	189,482	0,042	0,046
-722,079	91,492	-0,120	-0,099
-721,064	-200,000	-0,003	0,033
-720,050	-95,521	-0,132	-0,026
-719,035	688,605	-0,063	-0,121
-718,021	-91,148	0,111	-0,023
-717,006	71,473	-0,076	-0,058
-715,991	249,712	0,028	-0,035
-714,977	-2,476	-0,084	-0,043
-713,962	800,000	0,025	0,057
-712,948	800,000	0,010	0,025
-711,933	38,364	0,126	0,083
-710,918	37,968	-0,077	-0,051
-709,904	-87,442	-0,114	0,025
-708,889	-157,529	-0,086	0,004
-707,875	221,883	-0,032	-0,038
-706,860	-15,796	0,098	-0,046
-705,845	-145,266	-0,016	-0,001
-704,831	-125,906	0,068	-0,007
-703,816	800,000	-0,043	-0,090
-702,802	128,119	-0,153	-0,143
-701,787	-63,588	0,084	-0,025
-700,772	191,655	-0,020	-0,022
-699,758	-200,000	0,029	-0,109
-698,743	56,403	0,056	-0,040
-697,729	800,000	-0,040	-0,123
-696,714	800,000	-0,034	0,082
-695,699	-58,521	-0,085	-0,027
-694,685	492,767	-0,035	-0,060
-693,670	767,607	-0,025	-0,050
-692,656	164,384	-0,046	-0,048
-691,641	800,000	0,015	-0,038
-690,627	-9,858	0,103	0,050
-689,612	-200,000	-0,006	0,081
-688,597	-5,597	0,083	-0,042
-687,583	631,822	-0,065	-0,122
-686,568	195,782	-0,061	0,068
-685,554	199,953	-0,032	0,037
-684,539	800,000	0,016	0,039
-683,524	317,878	-0,112	-0,157
-682,510	-11,139	0,097	0,047
-681,495	53,042	-0,095	0,067
-680,481	9,094	0,020	0,011
-679,466	169,357	-0,166	-0,175
-678,451	-200,000	0,020	-0,084
-677,437	370,687	-0,010	-0,015
-676,422	-200,000	0,023	0,109
-675,408	448,817	-0,027	-0,044
-674,393	188,694	-0,005	0,006
-673,378	-115,728	-0,044	-0,006
-672,364	-200,000	-0,023	-0,116
-671,349	-138,301	-0,106	-0,008
-670,335	-128,654	0,056	-0,006
-669,320	-67,621	-0,050	0,014
-668,305	-114,815	0,063	-0,009
-667,291	165,521	-0,005	-0,005
-666,276	650,058	0,026	-0,050
-665,262	-39,046	-0,106	-0,041
-664,247	59,379	0,122	-0,088
-663,232	-77,499	0,086	0,022
-662,218	-144,868	-0,043	0,003
-661,203	-39,262	0,130	0,050
-660,189	-101,203	-0,045	-0,008
-659,174	48,685	-0,072	0,050
-658,159	165,420	-0,140	-0,145
-657,145	-200,000	-0,055	-0,256
-656,130	17,742	0,146	0,085
-655,116	800,000	-0,035	0,072
-654,101	-200,000	0,006	0,048
-653,086	253,575	0,020	0,026
-652,072	-200,000	-0,024	0,107
-651,057	-6,105	-0,145	-0,073
-650,043	719,021	-0,044	-0,087
-649,028	-200,000	0,015	0,092
-648,014	203,903	0,068	0,077
-646,999	-200,000	-0,018	0,076
-645,984	-139,694	-0,058	0,004
-644,970	-189,345	-0,045	-0,000
-643,955	-103,042	0,114	0,020
-642,941	-200,000	-0,019	-0,083
-641,926	-33,439	0,091	-0,037
-640,911	-28,941	-0,065	0,027
-639,897	290,921	0,039	-0,052
-638,882	212,124	0,064	0,075
-637,868	-200,000	-0,012	-0,041
-636,853	-123,463	-0,067	-0,008
-635,838	-200,000	-0,003	-0,081
-634,824	-5,737	-0,027	0,014
-633,809	35,327	-0,070	-0,045
-632,795	800,000	-0,015	-0,046
-631,780	142,866	-0,071	-0,069
-630,765	54,579	-0,037	-0,026
-629,751	-93,008	-0,027	0,005
-628,736	204,963	0,029	-0,033
-627,722	-200,000	0,032	-0,140
-626,707	-200,000	-0,021	-0,138
-625,692	316,617	0,037	0,052
-624,678	409,735	0,035	-0,055
-623,663	800,000	0,025	-0,065
-622,649	-110,956	-0,057	0,008
-621,634	337,898	0,088	-0,126
-620,619	352,795	-0,058	-0,084
-619,605	-200,000	0,003	-0,098
-618,590	112,956	0,038	-0,034
-617,576	408,569	0,075	-0,117
-616,561	68,307	-0,044	0,033
-615,546	-200,000	-0,028	-0,113
-614,532	342,265	0,087	-0,125
-613,517	228,659	0,045	-0,053
-612,503	800,000	0,056	-0,130
-611,488	-34,144	0,126	0,051
-610,474	-151,397	-0,130	-0,007
-609,459	183,078	-0,028	-0,031
-608,444	-26,149	-0,039	-0,017
-607,430	-200,000	-0,024	-0,101
-606,415	79,922	-0,075	-0,059
-605,401	-200,000	-0,004	0,019
-604,386	269,279	0,103	0,133
-603,371	-200,000	0,017	0,200
-602,357	-200,000	-0,008	0,103
-601,342	-83,182	-0,031	-0,007
-600,328	-115,436	-0,057	-0,008
-599,313	-200,000	-0,006	-0,138
-598,298	-6,662	-0,012	-0,006
-597,284	271,303	0,041	0,054
-596,269	475,145	-0,048	0,080
-595,255	800,000	0,073	0,174
-594,240	115,281	-0,083	0,074
-593,225	-46,817	-0,124	0,044
-592,211	461,999	-0,022	-0,037
-591,196	-19,330	0,054	-0,024
-590,182	800,000	-0,024	0,072
-589,167	800,000	0,025	0,059
-588,152	-74,766	0,154	0,040
-587,138	-173,119	0,106	0,002
-586,123	27,466	-0,180	-0,111
-585,109	122,997	0,054	-0,050
-584,094	151,830	-0,081	-0,081
-583,079	-96,295	0,064	0,012
-582,065	347,973	0,076	0,110
-581,050	-85,369	0,007	0,002
-580,036	91,210	-0,050	0,041
-579,021	119,704	-0,041	0,037
-578,006	-200,000	0,001	-0,059
-576,992	-63,029	-0,075	0,023
-575,977	-200,000	-0,010	0,036
-574,963	-163,173	0,049	0,002
-573,948	-129,876	0,086	0,008
-572,934	-68,371	0,056	-0,016
-571,919	154,488	-0,038	0,038
-570,904	-7,724	0,023	0,012
-569,890	437,095	0,069	-0,110
-568,875	307,745	-0,039	-0,053
-567,861	248,864	0,063	0,078
-566,846	37,554	-0,062	0,040
-565,831	-82,715	0,040	-0,009
-564,817	299,320	0,072	-0,097
-563,802	-200,000	0,004	0,086
-562,788	-200,000	0,014	0,105
-561,773	-23,951	-0,082	-0,036
-560,758	58,542	0,037	0,026
-559,744	55,424	-0,054	0,038
-558,729	-83,117	-0,086	-0,020
-557,715	-66,071	-0,167	-0,048
-556,700	800,000	0,027	-0,058
-555,685	-149,994	-0,155	-0,009
-554,671	-200,000	0,003	-0,183
-553,656	-169,735	0,040	0,001
-552,642	505,883	-0,028	0,048
-551,627	164,690	0,014	0,015
-550,612	20,208	0,034	-0,020
-549,598	-176,698	-0,033	0,001
-548,583	-200,000	-0,002	0,016
-547,569	-117,670	-0,067	0,009
-546,554	134,937	-0,105	0,100
-545,539	52,873	-0,145	-0,101
-544,525	800,000	-0,085	0,207
-543,510	14,036	0,089	0,050
-542,496	-123,853	-0,082	-0,009
-541,481	-200,000	-0,016	-0,068
-540,466	-96,969	0,115	0,022
-539,452	-7,308	-0,030	0,015
-538,437	680,811	-0,074	0,142
-537,423	114,123	-0,098	-0,087
-536,408	-68,350	-0,033	-0,009
-535,393	800,000	-0,067	0,175
-534,379	162,046	-0,124	0,127
-533,364	-200,000	-0,025	-0,087
-532,350	-200,000	-0,040	-0,133
-531,335	-200,000	0,025	-0,092
-530,321	-82,400	0,140	0,033
-529,306	-38,783	0,026	-0,010
-528,291	161,355	-0,034	0,035
-527,277	800,000	-0,037	-0,077
-526,262	-94,731	-0,114	-0,022
-525,248	41,662	-0,154	-0,101
-524,233	800,000	0,026	0,079
-523,218	-200,000	-0,006	0,042
-522,204	-200,000	0,003	0,037
-521,189	68,968	0,033	0,025
-520,175	213,970	-0,056	0,065
-519,160	800,000	0,054	-0,143
-518,145	45,310	0,170	-0,114
-517,131	800,000	0,021	0,045
-516,116	133,946	0,103	0,097
-515,102	261,192	-0,019	-0,024
-514,087	472,936	0,042	-0,070
-513,072	800,000	0,010	0,031
-512,058	68,487	0,049	-0,037
-511,043	800,000	0,022	-0,067
-510,029	541,801	0,071	0,124
-509,014	591,802	0,034	-0,062
-507,999	-89,738	-0,019	-0,004
-506,985	778,328	0,024	0,047
-505,970	795,504	-0,068	-0,137
-504,956	21,680	0,045	-0,027
-503,941	-200,000	0,006	-0,056
-502,926	432,606	0,040	-0,063
-501,912	780,479	0,034	0,067
-500,897	800,000	-0,062	-0,127
-499,883	500,325	-0,101	0,171
-498,868	-200,000	-0,010	-0,041
-497,853	106,313	-0,055	-0,048
-496,839	205,516	0,066	-0,075
-495,824	231,174	0,045	0,054
-494,810	-200,000	-0,011	-0,062
-493,795	-127,548	-0,093	0,010
-492,781	-200,000	-0,011	-0,091
-491,766	-1,262	-0,069	-0,036
-490,751	-47,382	0,046	-0,016
-489,737	800,000	0,042	0,097
-488,722	104,802	-0,076	-0,065
-487,708	-103,518	0,130	-0,022
-486,693	-200,000	0,016	-0,118
-485,678	577,053	-0,061	-0,109
-484,664	-200,000	0,006	0,105
-483,649	800,000	-0,025	-0,053
-482,635	-9,219	-0,093	-0,045
-481,620	-200,000	0,024	0,161
-480,605	-200,000	-0,005	0,059
-479,591	-148,127	0,132	0,008
-478,576	-180,386	-0,164	0,002
-477,562	-96,880	0,030	0,006
-476,547	-11,436	-0,084	-0,040
-475,532	393,970	-0,037	0,056
-474,518	-200,000	0,030	0,140
-473,503	150,269	-0,064	0,063
-472,489	-200,000	-0,010	-0,058
-471,474	-56,421	-0,079	0,025
-470,459	-1,059	0,101	-0,052
-469,445	120,464	-0,053	-0,048
-468,430	-200,000	0,027	-0,134
-467,416	800,000	0,030	0,085
-466,401	274,190	0,033	0,043
-465,386	800,000	0,062	-0,174
-464,372	657,934	-0,049	-0,093
-463,357	-200,000	-0,003	-0,041
-462,343	800,000	-0,040	-0,095
-461,328	133,112	0,066	-0,062
-460,313	-200,000	0,014	-0,071
-459,299	-200,000	-0,027	0,102
-458,284	239,907	0,061	0,074
-457,270	-137,947	-0,145	0,012
-456,255	579,696	-0,023	-0,042
-455,241	-111,296	0,138	-0,020
-454,226	206,771	-0,052	-0,059
-453,211	366,405	-0,053	0,079
-452,197	-54,776	0,082	0,027
-451,182	-200,000	-0,000	0,010
-450,168	-67,716	0,082	-0,023
-449,153	-200,000	0,002	-0,040
-448,138	-200,000	-0,003	-0,088
-447,124	209,271	0,026	-0,030
-446,109	350,712	0,065	0,095
-445,095	-180,730	-0,123	0,002
-444,080	-200,000	-0,009	0,156
-443,065	71,732	-0,114	0,086
-442,051	353,397	-0,046	0,067
-441,036	179,806	0,088	0,094
-440,022	20,074	0,002	-0,001
-439,007	800,000	-0,031	-0,075
-437,992	316,661	-0,040	-0,056
-436,978	222,169	-0,012	0,015
-435,963	-44,519	0,115	0,042
-434,949	800,000	-0,046	0,113
-433,934	190,411	-0,059	0,065
-432,919	800,000	0,050	-0,134
-431,905	-85,670	0,099	-0,022
-430,890	63,698	0,052	-0,038
-429,876	-148,231	0,101	-0,006
-428,861	-3,675	0,105	-0,053
-427,846	-40,985	-0,033	-0,012
-426,832	-200,000	0,001	0,004
-425,817	800,000	0,019	0,047
-424,803	-8,364	0,100	0,049
-423,788	-152,264	-0,016	-0,001
-422,773	599,982	-0,027	0,050
-421,759	-4,075	0,064	0,032
-420,744	-11,150	-0,159	-0,076
-419,730	800,000	0,025	-0,075
-418,715	5,815	-0,051	-0,027
-417,701	276,996	0,035	0,046
-416,686	-40,160	-0,027	-0,010
-415,671	384,297	0,068	0,102
-414,657	-200,000	-0,012	0,079
-413,642	543,167	-0,029	-0,050
-412,628	-68,768	-0,047	0,013
-411,613	40,625	0,097	-0,063
-410,598	224,753	0,064	-0,076
-409,584	-93,097	0,079	0,016
-408,569	225,114	0,092	0,108
-407,555	-200,000	-0,023	-0,126
-406,540	-29,920	0,188	-0,078
-405,525	-84,779	-0,053	-0,012
-404,511	534,874	0,030	0,053
-403,496	163,382	-0,066	0,067
-402,482	800,000	-0,032	-0,076
-401,467	275,831	0,068	0,088
-400,452	-83,759	0,036	0,008
-399,438	-90,295	-0,039	0,008
-398,423	-126,265	0,116	-0,012
-397,409	-200,000	-0,006	0,038
-396,394	260,941	-0,027	-0,033
-395,379	169,915	0,028	0,029
-394,365	-53,533	-0,078	-0,026
-393,350	-13,951	0,067	0,031
-392,336	-200,000	0,007	-0,046
-391,321	-96,702	-0,154	0,029
-390,306	747,221	-0,024	0,048
-389,292	-200,000	-0,021	-0,127
-388,277	-130,508	-0,103	0,010
-387,263	-96,069	0,082	-0,016
-386,248	800,000	0,023	-0,052
-385,233	-150,140	0,030	-0,002
-384,219	191,568	-0,075	0,082
-383,204	800,000	-0,016	-0,046
-382,190	501,898	-0,051	-0,086
-381,175	-138,142	-0,028	-0,002
-380,160	45,489	0,111	0,074
-379,146	-200,000	-0,001	0,079
-378,131	376,378	-0,050	0,075
-377,117	251,586	0,054	-0,066
-376,102	102,076	0,115	-0,098
-375,088	-40,810	-0,073	0,027
-374,073	448,366	0,063	0,102
-373,058	568,310	0,058	0,103
-372,044	-200,000	0,012	0,065
-371,029	-18,441	0,179	0,081
-370,015	-175,391	-0,165	0,003
-369,000	548,392	-0,016	0,028
-367,985	-200,000	0,002	-0,030
-366,971	-69,198	-0,081	0,022
-365,956	-65,183	-0,130	0,038
-364,942	166,979	0,075	0,077
-363,927	-148,614	0,146	0,008
-362,912	477,497	-0,028	0,046
-361,898	344,936	-0,050	-0,071
-360,883	800,000	-0,033	-0,082
-359,869	-99,618	0,088	0,016
-358,854	65,950	0,028	0,021
-357,839	-200,000	0,037	0,150
-356,825	800,000	0,018	-0,040
-355,810	61,393	0,049	-0,035
-354,796	28,027	-0,093	0,057
-353,781	369,263	-0,110	-0,161
-352,766	-19,752	-0,014	-0,006
-351,752	59,566	0,054	0,039
-350,737	39,647	-0,117	0,076
-349,723	-200,000	0,007	0,048
-348,708	15,193	0,086	-0,049
-347,693	-66,387	-0,070	0,020
-346,679	14,404	-0,086	0,049
-345,664	-15,225	-0,085	-0,039
-344,650	-200,000	0,063	0,206
-343,635	97,111	-0,080	-0,066
-342,620	-200,000	-0,005	0,054
-341,606	-59,032	0,127	0,039
-340,591	192,250	-0,039	-0,043
-339,577	-200,000	-0,005	-0,100
-338,562	206,780	0,051	0,058
-337,548	800,000	0,034	0,100
-336,533	-138,133	0,229	-0,018
-335,518	13,259	-0,101	0,057
-334,504	-13,114	-0,043	0,020
-333,489	-75,865	-0,077	0,019
-332,475	800,000	0,072	-0,193
-331,460	-28,314	-0,147	0,061
-330,445	323,803	0,130	-0,180
-329,431	320,546	0,005	-0,007
-328,416	-101,372	0,052	0,009
-327,402	1,904	0,068	-0,035
-326,387	-200,000	0,001	-0,108
-325,372	-7,716	0,025	-0,012
-324,358	800,000	-0,033	-0,092
-323,343	-15,133	-0,099	0,046
-322,329	61,038	-0,020	0,015
-321,314	-91,251	0,159	0,033
-320,299	-67,469	0,037	0,011
-319,285	83,664	0,061	-0,048
-318,270	-200,000	-0,002	-0,093
-317,256	-18,758	-0,067	0,030
-316,241	141,787	-0,052	-0,050
-315,226	800,000	-0,016	-0,032
-314,212	126,551	-0,085	0,078
-313,197	83,169	0,066	-0,052
-312,183	-183,337	-0,083	-0,001
-311,168	-200,000	-0,013	0,057
-310,153	800,000	0,049	0,102
-309,139	-200,000	-0,020	0,109
-308,124	-200,000	0,023	-0,104
-307,110	800,000	-0,040	0,092
-306,095	92,894	0,050	0,041
-305,080	72,909	-0,111	0,084
-304,066	-122,794	-0,111	0,013
-303,051	-33,405	0,068	0,027
-302,037	474,372	0,072	0,118
-301,022	800,000	-0,041	0,101
-300,008	800,000	0,037	0,116
-298,993	-200,000	0,020	-0,107
-297,978	187,205	0,082	0,089
-296,964	-16,032	0,038	-0,018
-295,949	-200,000	-0,003	-0,018
-294,935	518,875	0,093	-0,158
-293,920	-200,000	0,003	0,051
-292,905	147,947	0,046	-0,045
-291,891	-44,374	-0,017	-0,006
-290,876	-120,945	-0,082	0,010
-289,862	215,416	0,100	0,115
-288,847	-200,000	-0,004	-0,093
-287,832	172,825	0,041	-0,042
-286,818	-85,065	-0,041	-0,009
-285,803	-200,000	0,018	0,078
-284,789	-200,000	0,004	0,014
-283,774	-124,548	-0,054	-0,006
-282,759	105,050	0,049	-0,042
-281,745	-200,000	0,007	-0,072
-280,730	417,643	-0,044	0,069
-279,716	11,700	-0,047	0,026
-278,701	-200,000	0,019	0,115
-277,686	-200,000	-0,013	0,097
-276,672	-113,342	-0,095	-0,013
-275,657	800,000	0,043	0,123
-274,643	-79,313	0,049	-0,012
-273,628	-200,000	-0,016	0,095
-272,613	-115,532	0,097	-0,013
-271,599	20,699	0,050	0,029
-270,584	39,544	0,112	-0,072
-269,570	-74,543	-0,070	-0,018
-268,555	52,551	-0,033	-0,023
-267,540	800,000	-0,052	-0,125
-266,526	-200,000	0,034	0,116
-265,511	-131,906	-0,084	0,008
-264,497	-165,669	-0,030	0,001
-263,482	511,303	0,015	0,025
-262,467	372,620	0,074	0,110
-261,453	429,569	0,055	-0,086
-260,438	7,100	0,027	0,015
-259,424	-18,062	-0,054	-0,024
-258,409	489,809	-0,021	-0,035
-257,395	395,895	0,088	0,133
-256,380	85,793	-0,068	0,054
-255,365	-200,000	-0,035	0,156
-254,351	800,000	-0,045	0,122
-253,336	-200,000	0,001	-0,073
-252,322	800,000	0,017	-0,050
-251,307	23,192	0,120	-0,071
-250,292	91,114	0,031	-0,025
-249,278	57,263	0,027	0,019
-248,263	-80,076	0,098	0,024
-247,249	-131,564	-0,065	-0,006
-246,234	-56,420	-0,124	-0,039
-245,219	28,413	0,081	0,050
-244,205	554,105	-0,058	-0,101
-243,190	-57,830	0,087	0,027
-242,176	313,756	0,064	0,087
-241,161	244,059	0,061	-0,075
-240,146	397,193	-0,096	-0,145
-239,132	-200,000	0,018	-0,071
-238,117	623,444	-0,040	0,074
-237,103	47,890	-0,113	-0,076
-236,088	47,814	-0,028	-0,019
-235,073	132,288	0,046	0,043
-234,059	-93,061	0,051	0,010
-233,044	800,000	0,060	0,173
-232,030	125,848	-0,124	0,113
-231,015	-200,000	0,018	0,063
-230,000	-200,000	0,030	-0,119
-228,986	36,496	-0,082	-0,052
-227,971	-200,000	0,004	0,085
-226,957	-145,339	-0,048	0,003
-225,942	-200,000	0,007	0,106
-224,927	-200,000	-0,011	0,087
-223,913	-4,365	0,033	-0,016
-222,898	-167,461	0,055	-0,002
-221,884	259,930	-0,067	-0,083
-220,869	325,161	0,020	-0,028
-219,855	800,000	-0,011	0,029
-218,840	-200,000	-0,003	0,040
-217,825	76,529	-0,077	0,059
-216,811	-85,895	-0,174	-0,039
-215,796	109,430	0,157	-0,136
-214,782	223,816	0,050	-0,058
-213,767	191,851	0,045	-0,049
-212,752	-110,716	0,007	-0,001
-211,738	557,621	-0,036	0,064
-210,723	-119,248	0,078	0,010
-209,709	800,000	-0,049	0,131
-208,694	-100,071	-0,140	-0,025
-207,679	215,760	-0,070	-0,080
-206,665	-200,000	0,029	0,118
-205,650	-200,000	-0,013	-0,136
-204,636	197,535	-0,110	0,122
-203,621	-46,243	0,150	0,053
-202,606	-45,860	-0,021	0,007
-201,592	-16,662	-0,131	0,060
-200,577	355,505	0,067	-0,097
-199,563	260,975	0,071	-0,088
-198,548	-101,826	-0,007	0,001
-197,533	-200,000	0,014	0,097
-196,519	224,182	0,072	-0,084
-195,504	-106,413	-0,122	0,019
-194,490	-200,000	0,029	-0,117
-193,475	-151,773	-0,119	-0,006
-192,460	-121,802	-0,048	0,006
-191,446	150,818	-0,139	-0,136
-190,431	-84,262	0,078	-0,018
-189,417	72,834	-0,112	0,084
-188,402	800,000	0,034	0,108
-187,387	238,539	-0,063	-0,076
-186,373	1,643	-0,157	-0,081
-185,358	150,428	0,057	-0,056
-184,344	800,000	0,043	0,132
-183,329	800,000	-0,034	-0,094
-182,315	12,801	-0,090	0,050
-181,300	-113,917	0,101	0,014
-180,285	51,679	0,076	-0,052
-179,271	-200,000	-0,007	-0,045
-178,256	-107,930	0,104	-0,016
-177,242	-18,232	0,068	0,030
-176,227	-200,000	-0,007	0,088
-175,212	-136,207	0,079	0,007
-174,198	253,082	-0,074	0,091
-173,183	-200,000	0,010	-0,158
-172,169	-93,091	-0,077	-0,015
-171,154	31,261	0,039	-0,024
-170,139	-108,048	0,162	0,025
-169,125	25,872	-0,053	-0,032
-168,110	-200,000	-0,021	-0,068
-167,096	-200,000	0,006	0,087
-166,081	-170,301	-0,024	0,001
-165,066	412,080	-0,025	-0,039
-164,052	-200,000	-0,010	-0,038
-163,037	-200,000	-0,000	-0,004
-162,023	94,385	0,135	0,111
-161,008	800,000	0,048	-0,106
-159,993	800,000	-0,028	0,069
-158,979	54,038	-0,051	-0,036
-157,964	-200,000	-0,012	-0,069
-156,950	144,457	0,033	0,032
-155,935	-155,891	0,140	0,006
-154,920	800,000	-0,031	0,069
-153,906	188,839	0,028	0,030
-152,891	372,812	0,065	-0,095
-151,877	-19,282	0,100	0,044
-150,862	629,140	-0,056	-0,103
-149,847	-200,000	-0,011	-0,046
-148,833	158,001	-0,118	0,118
-147,818	800,000	-0,023	-0,069
-146,804	-74,471	0,084	-0,022
-145,789	83,868	-0,008	-0,006
-144,775	-120,350	-0,101	-0,012
-143,760	800,000	-0,037	0,083
-142,745	800,000	0,029	-0,084
-141,731	-69,959	-0,077	-0,021
-140,716	79,093	0,098	0,075
-139,702	161,280	0,036	-0,036
-138,687	-12,563	0,134	0,063
-137,672	-200,000	-0,020	0,104
-136,658	-115,238	0,038	-0,005
-135,643	-189,543	-0,087	0,001
-134,629	91,306	0,047	-0,038
-133,614	-129,103	-0,079	0,008
-132,599	-148,803	0,116	0,007
-131,585	-140,206	0,057	-0,004
-130,570	-163,394	-0,104	-0,004
-129,556	800,000	0,019	0,044
-128,541	-158,331	-0,028	0,001
-127,526	-13,252	0,118	0,055
-126,512	403,990	-0,049	-0,075
-125,497	-200,000	0,048	-0,158
-124,483	-200,000	0,014	-0,050
-123,468	347,330	-0,053	-0,076
-122,453	-200,000	-0,045	-0,223
-121,439	-68,513	-0,029	-0,008
-120,424	122,572	-0,078	-0,070
