DTS Sentinel unit serial number:	SN410029Multiplexer serial number:	ORYXHardware model number:	OX2-SRSoftware version number:	ORYX F/W v4,00 Oryx Data Collector v3.7.2.0data status	okinstallation	B5 Nyhavnadifferential loss correction	single-endedforward channel	channel 2reverse channel	N/Adate	2023/12/11time	20:22:13forward acquisition time	300,00reverse acquisition time	0,00gamma	499,1914k internal	0,3158k external	0,3158temperature offset calibration	1,0000default loss term (dB/km)	0,3820temperature slope calibration	1,0000multiplexer offset coefficient	1,0000multiplexer slope coefficient	1,0000fibre end	0,00T internal ref (°C)	15,94T ext. ref 1 (°C)	0,17T ext. ref 2 (°C)	-0,07length (m)	temperature (°C)	Stokes	anti-Stokes-744,400	346,062	-0,059	-0,086
-743,385	-185,779	-0,217	-0,002
-742,371	-166,334	0,026	-0,001
-741,356	-86,179	-0,193	0,044
-740,342	167,355	0,047	0,049
-739,327	-29,589	-0,248	-0,104
-738,312	769,687	0,052	-0,106
-737,298	-71,780	-0,236	0,064
-736,283	-58,120	0,102	-0,032
-735,269	32,294	-0,190	0,120
-734,254	-106,258	0,114	0,019
-733,239	-123,563	-0,442	-0,051
-732,225	-98,523	0,231	0,043
-731,210	-200,000	-0,001	0,216
-730,196	-13,889	-0,075	0,035
-729,181	38,440	-0,083	-0,055
-728,167	-200,000	0,002	0,014
-727,152	800,000	-0,043	-0,141
-726,137	262,387	0,019	0,024
-725,123	-121,594	-0,083	0,010
-724,108	-76,929	-0,127	-0,032
-723,094	152,209	-0,078	-0,078
-722,079	130,676	-0,135	-0,127
-721,064	154,644	-0,003	-0,003
-720,050	-30,071	-0,102	0,043
-719,035	-200,000	-0,003	0,060
-718,021	-147,136	-0,075	-0,005
-717,006	-5,203	-0,086	0,043
-715,991	50,551	-0,113	-0,078
-714,977	301,023	-0,038	-0,052
-713,962	-65,343	-0,026	-0,008
-712,948	-105,040	0,051	0,009
-711,933	-200,000	0,010	-0,084
-710,918	-200,000	0,009	0,109
-709,904	800,000	-0,062	-0,168
-708,889	800,000	-0,042	-0,088
-707,875	46,058	0,058	0,039
-706,860	479,723	-0,092	-0,154
-705,845	-68,612	0,089	-0,025
-704,831	-200,000	0,022	0,114
-703,816	800,000	0,035	0,084
-702,802	261,570	-0,116	-0,149
-701,787	212,229	-0,048	-0,056
-700,772	42,646	-0,073	0,049
-699,758	129,816	0,037	0,035
-698,743	268,089	-0,056	0,072
-697,729	-146,113	0,067	0,004
-696,714	-125,748	0,082	-0,009
-695,699	-170,654	-0,057	-0,001
-694,685	-3,134	-0,044	0,023
-693,670	8,258	-0,150	-0,083
-692,656	-91,468	-0,065	-0,014
-691,641	195,546	0,024	-0,026
-690,627	800,000	-0,022	0,065
-689,612	73,934	-0,107	0,083
-688,597	223,533	0,043	-0,052
-687,583	-200,000	-0,043	-0,203
-686,568	-9,266	0,205	-0,100
-685,554	-11,844	0,156	-0,075
-684,539	-200,000	-0,034	0,161
-683,524	4,527	0,016	-0,009
-682,510	800,000	-0,036	0,094
-681,495	-71,093	-0,128	-0,035
-680,481	-31,162	-0,171	-0,070
-679,466	-13,560	-0,129	-0,061
-678,451	800,000	-0,042	-0,093
-677,437	380,953	-0,003	0,005
-676,422	84,932	-0,083	0,067
-675,408	-9,761	-0,046	0,023
-674,393	-0,296	0,030	-0,015
-673,378	271,004	-0,046	-0,060
-672,364	141,852	0,096	0,094
-671,349	-200,000	-0,011	-0,049
-670,335	757,756	0,013	0,027
-669,320	-200,000	-0,002	-0,116
-668,305	800,000	-0,065	0,142
-667,291	-200,000	-0,010	0,076
-666,276	669,051	-0,031	-0,060
-665,262	-124,729	-0,125	-0,014
-664,247	-46,570	-0,100	-0,036
-663,232	-200,000	0,019	-0,070
-662,218	347,261	-0,032	-0,046
-661,203	-13,985	-0,132	-0,062
-660,189	-137,929	0,099	0,008
-659,174	-40,828	-0,133	-0,050
-658,159	-200,000	0,009	-0,048
-657,145	149,157	-0,100	-0,099
-656,130	356,690	0,018	0,026
-655,116	800,000	-0,043	-0,090
-654,101	800,000	0,063	0,180
-653,086	800,000	-0,072	0,192
-652,072	472,683	-0,062	-0,103
-651,057	24,755	-0,031	-0,019
-650,043	-163,790	0,101	-0,003
-649,028	-200,000	-0,001	-0,035
-648,014	316,194	0,049	-0,068
-646,999	-200,000	-0,019	-0,097
-645,984	4,494	0,023	0,013
-644,970	-200,000	0,001	0,176
-643,955	609,034	-0,072	-0,132
-642,941	800,000	0,038	-0,089
-641,926	-200,000	-0,003	0,083
-640,911	800,000	-0,010	0,032
-639,897	411,860	0,074	0,116
-638,882	12,373	0,030	0,017
-637,868	-1,777	0,097	0,050
-636,853	-55,194	-0,102	0,033
-635,838	-200,000	0,029	-0,095
-634,824	-200,000	0,007	-0,136
-633,809	54,497	0,024	-0,017
-632,795	-65,922	0,087	0,025
-631,780	-137,296	-0,004	0,000
-630,765	220,662	-0,054	0,064
-629,751	28,029	0,046	-0,028
-628,736	656,395	-0,066	-0,125
-627,722	36,788	0,119	-0,077
-626,707	-200,000	-0,012	0,055
-625,692	542,428	0,053	0,093
-624,678	800,000	0,013	-0,038
-623,663	-49,071	-0,194	-0,068
-622,649	81,203	0,047	-0,037
-621,634	-200,000	-0,026	-0,119
-620,619	-200,000	-0,002	0,093
-619,605	800,000	0,006	0,016
-618,590	11,567	-0,096	-0,054
-617,576	800,000	0,067	0,175
-616,561	28,936	0,032	-0,020
-615,546	113,070	-0,117	-0,104
-614,532	-39,246	0,074	-0,028
-613,517	-200,000	0,035	-0,120
-612,503	-11,082	-0,055	0,027
-611,488	-125,280	-0,084	0,009
-610,474	257,919	-0,053	0,067
-609,459	99,697	-0,081	0,069
-608,444	-20,548	0,101	-0,045
-607,430	183,811	0,059	0,064
-606,415	-200,000	0,010	0,046
-605,401	-200,000	0,001	0,084
-604,386	-200,000	-0,018	0,078
-603,371	45,878	-0,061	0,041
-602,357	82,847	-0,117	-0,093
-601,342	-25,908	0,146	-0,063
-600,328	307,921	-0,027	0,037
-599,313	-200,000	0,001	-0,107
-598,298	-62,589	0,087	-0,026
-597,284	-161,270	-0,068	0,003
-596,269	76,551	0,034	-0,027
-595,255	800,000	0,010	0,023
-594,240	520,361	-0,079	-0,137
-593,225	-28,399	-0,157	0,066
-592,211	800,000	-0,024	0,054
-591,196	800,000	-0,031	-0,090
-590,182	800,000	0,022	0,071
-589,167	197,104	-0,056	0,063
-588,152	-95,514	0,103	-0,020
-587,138	680,917	-0,052	-0,100
-586,123	10,651	-0,025	0,014
-585,109	132,513	-0,051	-0,048
-584,094	-36,434	0,057	0,022
-583,079	32,420	0,078	0,049
-582,065	70,979	0,035	0,027
-581,050	-62,422	-0,032	0,010
-580,036	125,018	0,074	-0,069
-579,021	-1,122	-0,136	-0,070
-578,006	273,407	-0,085	0,110
-576,992	76,622	0,077	-0,060
-575,977	28,682	-0,097	0,060
-574,963	-200,000	-0,045	0,192
-573,948	530,131	0,014	-0,024
-572,934	800,000	-0,034	0,097
-571,919	330,567	0,019	-0,027
-570,904	800,000	-0,029	0,069
-569,890	752,355	-0,026	0,051
-568,875	-20,226	-0,161	0,072
-567,861	-95,488	0,135	0,026
-566,846	800,000	0,017	0,041
-565,831	266,336	0,063	-0,081
-564,817	199,898	-0,017	0,019
-563,802	262,856	0,081	-0,104
-562,788	800,000	0,036	0,092
-561,773	800,000	0,048	0,134
-560,758	-86,406	-0,065	0,015
-559,744	-86,153	-0,093	0,021
-558,729	-123,740	0,029	0,003
-557,715	166,381	-0,014	0,014
-556,700	263,456	-0,061	-0,078
-555,685	237,846	-0,081	0,099
-554,671	-117,584	0,190	-0,025
-553,656	-200,000	0,011	0,121
-552,642	65,839	0,091	0,068
-551,627	67,813	-0,077	0,057
-550,612	800,000	-0,018	-0,054
-549,598	-148,177	-0,079	0,005
-548,583	-92,742	-0,168	-0,034
-547,569	-200,000	0,007	-0,096
-546,554	-119,688	-0,019	0,002
-545,539	-200,000	0,023	0,089
-544,525	254,077	-0,034	0,043
-543,510	170,806	0,044	-0,046
-542,496	-83,018	-0,143	0,034
-541,481	-200,000	-0,012	0,153
-540,466	-5,724	-0,103	-0,052
-539,452	131,952	0,043	0,041
-538,437	232,797	0,130	0,156
-537,423	-94,020	0,086	-0,017
-536,408	198,845	0,095	-0,107
-535,393	-200,000	0,011	-0,068
-534,379	-200,000	0,008	-0,061
-533,364	777,050	-0,059	0,118
-532,350	-200,000	0,012	0,051
-531,335	800,000	-0,034	-0,068
-530,321	1,265	-0,077	0,040
-529,306	-200,000	-0,017	-0,099
-528,291	528,396	-0,026	-0,045
-527,277	734,271	0,040	0,079
-526,262	17,906	-0,100	-0,058
-525,248	-200,000	-0,033	-0,121
-524,233	78,028	0,096	0,075
-523,218	308,882	0,049	-0,067
-522,204	-200,000	-0,058	-0,247
-521,189	-152,163	-0,054	-0,003
-520,175	-139,094	0,080	0,006
-519,160	404,963	0,061	0,094
-518,145	800,000	-0,031	0,071
-517,131	-172,380	0,063	-0,001
-516,116	-200,000	-0,009	0,038
-515,102	170,047	-0,059	-0,062
-514,087	-13,451	0,085	0,040
-513,072	98,890	-0,065	-0,054
-512,058	800,000	0,009	0,024
-511,043	-200,000	-0,004	0,015
-510,029	-175,624	0,081	0,002
-509,014	179,048	-0,097	-0,103
-507,999	10,582	-0,090	-0,050
-506,985	226,425	-0,053	-0,062
-505,970	95,852	0,039	0,033
-504,956	139,058	0,001	0,001
-503,941	800,000	0,049	-0,130
-502,926	192,491	0,084	-0,093
-501,912	479,182	0,032	0,054
-500,897	352,121	0,018	-0,025
-499,883	-200,000	0,001	-0,142
-498,868	-200,000	0,006	-0,071
-497,853	714,776	-0,030	-0,058
-496,839	-200,000	0,003	0,045
-495,824	800,000	0,042	0,099
-494,810	-24,093	-0,057	-0,025
-493,795	-176,926	-0,034	-0,001
-492,781	-200,000	0,011	0,096
-491,766	-20,119	-0,089	0,040
-490,751	17,951	-0,068	-0,040
-489,737	-7,651	0,012	0,006
-488,722	41,007	-0,150	0,099
-487,708	20,939	0,013	-0,008
-486,693	800,000	0,062	0,131
-485,678	-97,098	-0,088	0,017
-484,664	-200,000	-0,036	-0,145
-483,649	23,186	-0,170	-0,102
-482,635	490,400	-0,011	0,018
-481,620	800,000	0,033	-0,105
-480,605	-200,000	0,011	-0,055
-479,591	-200,000	-0,013	0,092
-478,576	322,650	-0,030	0,042
-477,562	699,910	0,033	-0,064
-476,547	151,486	-0,033	-0,032
-475,532	800,000	0,015	-0,037
-474,518	800,000	-0,047	-0,103
-473,503	-94,511	0,062	0,012
-472,489	-129,163	-0,103	-0,010
-471,474	36,994	0,020	-0,013
-470,459	-100,298	-0,081	0,014
-469,445	25,605	0,105	-0,064
-468,430	-200,000	0,018	-0,112
-467,416	-56,771	0,066	0,021
-466,401	800,000	0,032	0,084
-465,386	320,607	0,039	-0,055
-464,372	-200,000	-0,005	0,060
-463,357	-54,462	-0,100	-0,033
-462,343	-200,000	-0,021	-0,179
-461,328	-150,268	0,032	-0,002
-460,313	130,343	0,051	0,048
-459,299	-18,099	0,048	0,022
-458,284	132,993	0,015	-0,014
-457,270	0,757	-0,044	0,023
-456,255	15,228	-0,197	0,112
-455,241	55,810	0,057	-0,040
-454,226	6,308	0,127	-0,068
-453,211	-200,000	-0,006	-0,049
-452,197	-200,000	0,013	0,072
-451,182	-200,000	-0,012	-0,045
-450,168	-200,000	0,027	0,192
-449,153	-126,615	-0,135	-0,014
-448,138	800,000	-0,079	-0,162
-447,124	-188,635	0,104	0,001
-446,109	-200,000	-0,004	-0,014
-445,095	288,331	-0,047	0,062
-444,080	87,658	0,078	0,063
-443,065	86,588	-0,052	-0,042
-442,051	354,781	-0,041	0,060
-441,036	163,603	-0,030	0,030
-440,022	230,103	0,048	-0,057
-439,007	800,000	0,030	0,093
-437,992	341,945	-0,016	-0,023
-436,978	-81,750	0,272	0,064
-435,963	228,153	-0,097	-0,115
-434,949	-64,890	-0,065	0,019
-433,934	-200,000	0,010	-0,141
-432,919	-200,000	-0,017	-0,199
-431,905	182,977	0,079	-0,085
-430,890	-200,000	-0,021	0,073
-429,876	-200,000	-0,033	0,125
-428,861	800,000	0,059	0,144
-427,846	237,341	-0,036	0,043
-426,832	-143,065	0,094	0,007
-425,817	-34,700	0,053	-0,021
-424,803	184,527	0,062	-0,067
-423,788	-200,000	-0,030	0,100
-422,773	19,990	0,066	-0,039
-421,759	-114,473	-0,042	-0,006
-420,744	-64,105	-0,044	0,013
-419,730	800,000	-0,024	-0,057
-418,715	142,797	-0,044	0,042
-417,701	-59,530	-0,039	0,012
-416,686	686,256	0,065	-0,124
-415,671	41,936	-0,011	-0,007
-414,657	-120,626	0,120	0,015
-413,642	-200,000	0,005	-0,146
-412,628	41,977	-0,036	0,024
-411,613	-200,000	0,019	-0,088
-410,598	401,522	0,112	-0,172
-409,584	-200,000	-0,006	0,027
-408,569	-22,220	0,022	0,010
-407,555	352,772	0,027	0,039
-406,540	800,000	-0,052	0,113
-405,525	33,148	-0,124	-0,078
-404,511	800,000	-0,087	-0,200
-403,496	572,480	-0,051	-0,091
-402,482	109,881	-0,039	0,034
-401,467	-27,248	-0,069	0,029
-400,452	-200,000	-0,004	0,080
-399,438	-200,000	-0,017	0,217
-398,423	-200,000	0,021	0,084
-397,409	800,000	0,035	0,076
-396,394	-200,000	-0,023	0,172
-395,379	506,069	0,024	0,041
-394,365	533,401	0,030	0,052
-393,350	800,000	0,044	0,097
-392,336	-11,866	0,157	0,074
-391,321	-195,111	-0,016	0,000
-390,306	-200,000	0,001	-0,097
-389,292	-16,623	0,019	-0,009
-388,277	203,156	0,098	-0,110
-387,263	413,499	0,078	0,120
-386,248	-121,878	0,095	0,011
-385,233	-76,250	-0,061	-0,016
-384,219	-123,907	0,039	-0,004
-383,204	181,724	0,102	-0,109
-382,190	800,000	-0,034	-0,074
-381,175	800,000	-0,023	0,061
-380,160	-200,000	0,025	0,133
-379,146	8,256	0,018	0,010
-378,131	-154,333	0,035	-0,002
-377,117	-183,770	-0,097	0,001
-376,102	-15,519	-0,060	-0,028
-375,088	-34,249	-0,006	-0,002
-374,073	31,593	0,045	-0,028
-373,058	-200,000	-0,030	0,159
-372,044	-37,921	0,057	0,022
-371,029	-200,000	0,019	0,097
-370,015	-134,807	0,045	0,004
-369,000	800,000	0,065	-0,154
-367,985	27,144	0,122	-0,074
-366,971	-200,000	-0,002	-0,076
-365,956	-200,000	0,013	-0,166
-364,942	-74,828	-0,091	-0,024
-363,927	-169,960	0,206	0,005
-362,912	18,529	-0,053	-0,031
-361,898	329,622	-0,018	-0,025
-360,883	-114,750	-0,009	0,001
-359,869	542,928	-0,033	-0,057
-358,854	242,124	-0,059	0,071
-357,839	119,297	0,111	0,100
-356,825	-200,000	-0,004	0,056
-355,810	-22,755	-0,127	0,055
-354,796	-200,000	-0,014	-0,059
-353,781	10,120	0,067	0,037
-352,766	-200,000	-0,025	-0,180
-351,752	44,594	-0,038	0,025
-350,737	-160,419	0,157	0,006
-349,723	69,120	0,052	0,039
-348,708	-35,782	-0,054	-0,021
-347,693	800,000	0,025	0,052
-346,679	-1,878	-0,046	0,024
-345,664	-67,523	0,035	0,010
-344,650	30,738	0,192	-0,119
-343,635	206,387	-0,035	0,040
-342,620	185,914	0,150	0,162
-341,606	545,572	0,021	-0,036
-340,591	800,000	-0,025	-0,070
-339,577	-200,000	0,006	-0,062
-338,562	-51,580	0,048	-0,016
-337,548	57,635	0,035	-0,025
-336,533	477,489	0,070	0,115
-335,518	112,414	0,119	0,104
-334,504	554,885	0,088	-0,154
-333,489	-200,000	-0,017	0,056
-332,475	67,704	0,070	-0,052
-331,460	-4,933	0,070	-0,035
-330,445	-200,000	-0,030	0,134
-329,431	25,886	0,089	0,054
-328,416	800,000	0,046	0,114
-327,402	-200,000	0,005	0,084
-326,387	59,260	-0,136	0,097
-325,372	225,290	0,031	-0,037
-324,358	-119,961	-0,075	0,009
-323,343	-24,611	-0,025	0,011
-322,329	241,978	-0,075	-0,092
-321,314	-182,016	0,116	0,002
-320,299	-200,000	0,030	0,131
-319,285	800,000	-0,036	0,073
-318,270	91,050	-0,020	0,017
-317,256	-200,000	-0,008	-0,140
-316,241	-200,000	-0,005	0,113
-315,226	-87,797	0,038	0,008
-314,212	-135,176	0,082	-0,007
-313,197	800,000	-0,052	0,131
-312,183	-8,711	0,033	0,016
-311,168	-200,000	0,025	-0,088
-310,153	-200,000	-0,003	-0,086
-309,139	32,320	0,115	-0,072
-308,124	-24,848	0,088	0,038
-307,110	-200,000	-0,076	-0,000
-306,095	30,270	0,119	0,074
-305,080	800,000	0,030	0,084
-304,066	-100,881	-0,184	-0,033
-303,051	-200,000	-0,035	-0,135
-302,037	45,528	-0,126	-0,084
-301,022	800,000	-0,062	-0,138
-300,008	299,648	0,108	0,145
-298,993	360,137	0,058	-0,084
-297,978	252,658	-0,026	0,032
-296,964	-200,000	0,005	-0,022
-295,949	800,000	0,060	-0,187
-294,935	490,574	0,029	0,048
-293,920	-135,726	-0,082	-0,007
-292,905	-200,000	0,046	0,158
-291,891	800,000	0,061	0,136
-290,876	235,672	-0,086	0,104
-289,862	-200,000	-0,006	-0,058
-288,847	-8,123	-0,096	0,047
-287,832	-26,658	-0,027	-0,011
-286,818	97,944	-0,057	0,048
-285,803	-53,590	0,178	0,059
-284,789	-200,000	-0,020	-0,067
-283,774	155,772	-0,051	-0,051
-282,759	-38,871	-0,055	-0,021
-281,745	0,541	-0,100	-0,051
-280,730	-90,154	-0,103	-0,022
-279,716	-76,560	-0,085	0,021
-278,701	-200,000	0,014	-0,119
-277,686	481,507	0,055	-0,090
-276,672	800,000	-0,032	-0,077
-275,657	800,000	0,050	0,151
-274,643	427,317	-0,075	0,118
-273,628	134,370	-0,007	-0,006
-272,613	800,000	-0,015	-0,032
-271,599	494,465	0,040	-0,067
-270,584	-13,857	-0,026	-0,012
-269,570	644,645	-0,039	0,072
-268,555	3,007	0,038	0,020
-267,540	800,000	0,025	-0,059
-266,526	-184,693	-0,053	-0,001
-265,511	800,000	0,059	-0,129
-264,497	647,468	0,054	0,100
-263,482	800,000	0,041	0,094
-262,467	206,313	0,056	0,064
-261,453	-200,000	0,001	-0,008
-260,438	535,015	-0,019	0,033
-259,424	-91,655	0,110	-0,022
-258,409	621,926	-0,007	-0,013
-257,395	-200,000	-0,008	-0,032
-256,380	-70,160	0,035	0,010
-255,365	310,673	0,028	0,038
-254,351	-200,000	-0,014	-0,083
-253,336	800,000	-0,076	-0,153
-252,322	-200,000	0,004	0,055
-251,307	-200,000	-0,012	0,179
-250,292	146,810	-0,042	-0,041
-249,278	99,691	-0,030	0,025
-248,263	-200,000	-0,000	0,128
-247,249	-30,382	-0,100	0,041
-246,234	-200,000	-0,005	0,047
-245,219	-14,992	0,128	-0,059
-244,205	490,801	-0,091	-0,151
-243,190	336,361	0,084	-0,118
-242,176	-200,000	0,007	0,134
-241,161	-50,989	0,110	-0,037
-240,146	113,807	0,159	0,140
-239,132	800,000	0,008	0,021
-238,117	800,000	-0,027	-0,070
-237,103	-25,185	0,119	-0,051
-236,088	69,204	-0,107	-0,079
-235,073	800,000	0,035	0,109
-234,059	296,274	0,024	0,032
-233,044	-7,296	-0,101	0,049
-232,030	6,147	0,021	0,011
-231,015	22,993	-0,042	-0,025
-230,000	-96,982	-0,154	0,029
-228,986	367,286	0,075	0,109
-227,971	250,948	0,109	0,135
-226,957	437,742	0,051	-0,081
-225,942	-110,326	-0,008	-0,001
-224,927	9,921	0,070	0,038
-223,913	800,000	-0,003	-0,008
-222,898	-62,187	-0,042	-0,012
-221,884	71,878	-0,023	-0,017
-220,869	-172,893	0,075	-0,002
-219,855	-113,198	0,064	0,009
-218,840	85,443	0,078	-0,061
-217,825	-78,412	-0,125	-0,031
-216,811	-63,453	-0,043	0,013
-215,796	-200,000	0,011	-0,092
-214,782	-200,000	0,001	-0,076
-213,767	800,000	-0,053	-0,127
-212,752	-57,390	0,105	0,033
-211,738	800,000	0,027	0,064
-210,723	-200,000	-0,043	-0,163
-209,709	346,736	0,100	-0,142
-208,694	83,024	-0,081	-0,064
-207,679	12,332	-0,117	0,065
-206,665	-1,858	-0,039	-0,020
-205,650	-46,263	0,073	-0,026
-204,636	-83,487	-0,107	-0,025
-203,621	203,238	-0,028	-0,031
-202,606	5,348	0,237	-0,126
-201,592	714,280	0,061	-0,117
-200,577	224,384	-0,037	-0,043
-199,563	66,134	-0,089	0,065
-198,548	379,938	0,039	0,058
-197,533	4,274	-0,065	0,034
-196,519	66,800	-0,026	0,019
-195,504	192,468	-0,047	0,051
-194,490	-200,000	-0,034	-0,112
-193,475	-200,000	0,016	-0,114
-192,460	-155,463	-0,142	-0,007
-191,446	-133,377	-0,063	-0,006
-190,431	-28,658	0,088	0,036
-189,417	179,906	-0,021	-0,022
-188,402	-12,628	-0,036	-0,017
-187,387	-80,659	-0,084	-0,020
-186,373	702,035	0,032	-0,061
-185,358	-150,453	-0,047	-0,003
-184,344	-200,000	-0,022	-0,077
-183,329	-97,863	0,064	-0,012
-182,315	-200,000	0,008	0,123
-181,300	423,577	0,041	0,063
-180,285	96,468	0,019	0,015
-179,271	800,000	-0,030	-0,091
-178,256	-110,315	0,078	0,012
-177,242	-200,000	-0,032	-0,160
-176,227	-200,000	-0,026	-0,112
-175,212	190,946	-0,044	0,048
-174,198	-200,000	-0,070	0,231
-173,183	17,233	-0,109	-0,062
-172,169	93,491	-0,081	0,066
-171,154	-88,381	0,039	-0,008
-170,139	-111,756	0,064	-0,009
-169,125	800,000	0,033	0,086
-168,110	-1,189	0,079	-0,040
-167,096	405,241	-0,071	0,109
-166,081	69,744	0,024	0,018
-165,066	-141,405	-0,157	-0,011
-164,052	29,662	-0,140	-0,086
-163,037	315,880	-0,039	0,054
-162,023	736,876	0,052	0,101
-161,008	800,000	0,022	0,046
-159,993	-200,000	-0,009	0,115
-158,979	-28,862	-0,080	0,033
-157,964	-78,714	-0,079	-0,019
-156,950	-45,098	0,065	0,023
-155,935	210,960	0,050	0,056
-154,920	-45,133	0,035	0,013
-153,906	94,570	-0,077	0,063
-152,891	800,000	-0,070	0,142
-151,877	-101,532	-0,135	-0,023
-150,862	-68,168	-0,113	-0,031
-149,847	36,427	-0,032	-0,021
-148,833	169,692	-0,065	0,067
-147,818	-16,488	0,040	-0,018
-146,804	-200,000	-0,004	0,037
-145,789	49,058	0,039	-0,026
-144,775	108,492	0,090	-0,077
-143,760	-200,000	0,006	0,068
-142,745	800,000	-0,086	-0,246
-141,731	-52,439	0,148	0,049
-140,716	225,012	0,017	0,020
-139,702	-200,000	0,010	-0,044
-138,687	-200,000	-0,020	-0,107
-137,672	-63,215	-0,092	0,027
-136,658	800,000	0,040	-0,094
-135,643	198,731	-0,090	0,100
-134,629	-200,000	0,018	-0,212
-133,614	-78,732	0,063	-0,015
-132,599	-200,000	0,004	0,084
-131,585	347,495	0,019	-0,027
-130,570	-200,000	-0,003	-0,076
-129,556	509,055	-0,056	0,093
-128,541	-200,000	-0,013	-0,097
-127,526	-200,000	0,001	-0,010
-126,512	-134,854	-0,032	0,003
-125,497	-55,412	0,231	0,074
-124,483	334,139	-0,059	-0,082
-123,468	800,000	0,018	0,055
-122,453	223,291	-0,079	0,091
-121,439	32,216	0,049	0,031
-120,424	800,000	-0,047	-0,142
-119,410	145,064	0,138	0,133
-118,395	233,180	0,062	0,073
