DTS Sentinel unit serial number:	SN410029Multiplexer serial number:	ORYXHardware model number:	OX2-SRSoftware version number:	ORYX F/W v4,00 Oryx Data Collector v3.7.2.0data status	okinstallation	B5 Nyhavnadifferential loss correction	single-endedforward channel	channel 2reverse channel	N/Adate	2023/12/13time	06:52:13forward acquisition time	300,00reverse acquisition time	0,00gamma	499,1914k internal	0,3160k external	0,3160temperature offset calibration	1,0000default loss term (dB/km)	0,3820temperature slope calibration	1,0000multiplexer offset coefficient	1,0000multiplexer slope coefficient	1,0000fibre end	0,00T internal ref (°C)	13,75T ext. ref 1 (°C)	-2,76T ext. ref 2 (°C)	-3,05length (m)	temperature (°C)	Stokes	anti-Stokes-744,400	-200,000	0,008	0,054
-743,385	-121,022	-0,360	0,044
-742,371	-189,234	0,172	-0,001
-741,356	118,865	-0,197	0,180
-740,342	-56,476	0,097	0,032
-739,327	73,042	-0,244	0,188
-738,312	800,000	-0,032	0,073
-737,298	-41,295	-0,292	0,110
-736,283	292,199	0,120	0,162
-735,269	-153,627	-0,104	-0,005
-734,254	-30,052	0,196	0,082
-733,239	-37,569	-0,467	-0,182
-732,225	-13,029	0,244	0,116
-731,210	-45,950	0,067	-0,024
-730,196	151,561	-0,094	0,094
-729,181	8,273	0,069	0,038
-728,167	607,024	0,046	-0,085
-727,152	12,347	-0,109	-0,062
-726,137	-32,174	-0,067	-0,027
-725,123	-200,000	0,018	-0,091
-724,108	-32,463	-0,066	0,027
-723,094	31,026	-0,150	-0,094
-722,079	161,755	-0,028	0,029
-721,064	-200,000	-0,036	0,164
-720,050	-4,377	-0,041	-0,021
-719,035	373,640	-0,067	-0,100
-718,021	-200,000	0,022	-0,124
-717,006	800,000	-0,051	0,128
-715,991	800,000	-0,044	0,119
-714,977	118,791	-0,049	-0,044
-713,962	-19,174	0,056	-0,026
-712,948	14,765	0,071	-0,041
-711,933	51,908	-0,051	0,036
-710,918	800,000	-0,067	0,154
-709,904	49,909	-0,135	-0,093
-708,889	-101,055	0,007	0,001
-707,875	800,000	-0,026	0,072
-706,860	656,943	-0,101	0,193
-705,845	-200,000	-0,030	0,103
-704,831	-200,000	0,006	0,082
-703,816	-200,000	0,015	-0,050
-702,802	800,000	-0,028	-0,062
-701,787	130,545	-0,095	-0,089
-700,772	-80,868	-0,062	0,015
-699,758	51,141	0,158	0,110
-698,743	-200,000	-0,011	-0,070
-697,729	-23,445	-0,114	-0,050
-696,714	-200,000	-0,002	0,007
-695,699	360,683	-0,066	-0,098
-694,685	-200,000	-0,000	-0,070
-693,670	-130,622	-0,047	-0,005
-692,656	800,000	-0,036	0,087
-691,641	-105,323	-0,172	0,028
-690,627	246,360	-0,061	0,075
-689,612	121,283	-0,005	-0,005
-688,597	800,000	-0,023	-0,049
-687,583	-68,244	-0,083	-0,024
-686,568	-65,329	-0,211	0,062
-685,554	-123,122	0,213	0,025
-684,539	800,000	0,014	-0,038
-683,524	-200,000	-0,026	-0,129
-682,510	-200,000	-0,006	0,030
-681,495	-95,486	0,142	-0,028
-680,481	-52,450	-0,117	0,040
-679,466	336,099	-0,096	-0,138
-678,451	-82,559	-0,151	0,036
-677,437	-200,000	0,025	-0,175
-676,422	-83,996	0,061	-0,014
-675,408	800,000	-0,046	0,117
-674,393	203,183	0,073	-0,083
-673,378	-116,336	-0,204	-0,027
-672,364	-4,654	-0,092	-0,047
-671,349	-200,000	-0,001	-0,157
-670,335	-200,000	0,028	0,109
-669,320	800,000	0,052	-0,125
-668,305	-3,679	0,106	-0,054
-667,291	-200,000	-0,007	-0,131
-666,276	416,684	0,034	0,053
-665,262	-200,000	0,013	-0,078
-664,247	778,263	-0,033	-0,067
-663,232	114,954	-0,074	-0,066
-662,218	510,878	0,091	-0,156
-661,203	-132,816	-0,094	-0,009
-660,189	-63,703	0,013	-0,004
-659,174	800,000	-0,080	-0,184
-658,159	32,210	0,062	-0,039
-657,145	-103,928	-0,033	-0,006
-656,130	-7,898	0,094	-0,047
-655,116	-119,959	0,026	-0,003
-654,101	-120,280	0,161	-0,020
-653,086	316,710	-0,073	0,102
-652,072	675,790	-0,055	-0,104
-651,057	-200,000	0,003	-0,118
-650,043	-200,000	-0,015	-0,050
-649,028	-45,524	0,149	-0,054
-648,014	-52,224	0,021	-0,007
-646,999	800,000	0,045	0,114
-645,984	-49,891	-0,025	-0,009
-644,970	800,000	-0,037	0,099
-643,955	234,342	0,051	0,062
-642,941	328,314	0,096	-0,136
-641,926	249,216	-0,076	-0,094
-640,911	-118,234	-0,015	0,002
-639,897	-200,000	-0,007	0,030
-638,882	-200,000	-0,000	-0,028
-637,868	800,000	-0,039	-0,084
-636,853	-184,388	-0,097	0,001
-635,838	245,555	0,030	-0,038
-634,824	323,293	-0,039	-0,055
-633,809	5,634	0,096	-0,052
-632,795	147,768	-0,089	0,088
-631,780	210,243	0,059	0,068
-630,765	800,000	0,014	-0,037
-629,751	16,818	0,100	-0,058
-628,736	-79,335	-0,071	0,017
-627,722	-87,517	-0,123	0,027
-626,707	-127,729	0,050	-0,005
-625,692	-42,634	-0,010	0,004
-624,678	-61,873	0,145	0,044
-623,663	-129,237	-0,123	0,012
-622,649	55,366	0,032	0,023
-621,634	-200,000	-0,011	0,111
-620,619	-27,541	-0,164	0,069
-619,605	96,439	0,053	0,044
-618,590	-65,860	-0,036	0,010
-617,576	800,000	-0,055	-0,123
-616,561	192,238	-0,123	-0,136
-615,546	800,000	0,069	-0,186
-614,532	265,946	-0,030	-0,039
-613,517	478,545	0,062	0,103
-612,503	-200,000	0,003	-0,078
-611,488	192,709	-0,059	0,065
-610,474	238,954	0,066	0,080
-609,459	288,158	0,062	0,083
-608,444	182,220	-0,065	-0,071
-607,430	116,502	-0,127	-0,114
-606,415	22,078	-0,096	-0,057
-605,401	39,209	0,053	-0,035
-604,386	397,973	-0,069	0,106
-603,371	583,782	0,026	0,048
-602,357	800,000	0,035	-0,103
-601,342	402,524	-0,047	0,073
-600,328	78,366	-0,199	-0,155
-599,313	-200,000	-0,009	-0,048
-598,298	-80,990	0,048	0,012
-597,284	-200,000	0,005	0,107
-596,269	-130,197	0,044	0,004
-595,255	-17,030	-0,087	0,040
-594,240	-32,529	-0,122	0,049
-593,225	-200,000	-0,049	-0,166
-592,211	291,685	-0,127	-0,170
-591,196	-200,000	0,001	0,054
-590,182	158,836	0,065	0,066
-589,167	377,575	0,073	0,109
-588,152	782,639	-0,063	0,127
-587,138	-57,722	-0,061	-0,019
-586,123	-51,759	-0,057	-0,019
-585,109	-81,183	-0,086	-0,021
-584,094	800,000	0,054	-0,173
-583,079	800,000	0,036	0,074
-582,065	800,000	0,010	-0,029
-581,050	-157,610	-0,078	-0,003
-580,036	61,585	-0,066	-0,048
-579,021	-16,850	0,029	-0,013
-578,006	-156,603	-0,171	0,008
-576,992	649,530	0,056	-0,105
-575,977	51,015	-0,121	0,084
-574,963	70,241	0,015	-0,011
-573,948	193,952	0,047	0,052
-572,934	-200,000	-0,014	-0,065
-571,919	-200,000	0,000	-0,064
-570,904	13,559	-0,215	0,122
-569,890	12,855	0,010	-0,006
-568,875	115,272	0,072	0,064
-567,861	-113,073	0,053	0,008
-566,846	800,000	-0,073	0,164
-565,831	365,121	0,096	0,142
-564,817	686,533	0,025	-0,047
-563,802	30,537	-0,116	-0,073
-562,788	-21,685	0,128	0,057
-561,773	-200,000	0,046	0,191
-560,758	-200,000	0,031	0,122
-559,744	-33,075	0,142	0,057
-558,729	42,480	0,185	0,123
-557,715	3,485	-0,023	0,012
-556,700	-41,418	-0,109	-0,041
-555,685	-134,771	-0,200	-0,018
-554,671	800,000	-0,034	0,102
-553,656	800,000	-0,009	0,024
-552,642	-200,000	0,019	-0,162
-551,627	-200,000	0,003	0,090
-550,612	13,284	-0,137	0,077
-549,598	-46,769	0,053	0,019
-548,583	-41,895	-0,052	-0,019
-547,569	789,499	0,026	-0,052
-546,554	-200,000	-0,002	0,050
-545,539	-142,131	0,250	0,018
-544,525	800,000	0,035	-0,113
-543,510	252,857	-0,039	0,048
-542,496	-200,000	0,021	0,070
-541,481	-124,536	0,041	-0,005
-540,466	141,760	0,136	-0,131
-539,452	78,640	-0,068	0,053
-538,437	113,106	0,071	-0,063
-537,423	179,732	-0,079	-0,084
-536,408	-188,985	-0,088	-0,001
-535,393	280,907	-0,035	-0,046
-534,379	800,000	-0,007	0,017
-533,364	174,922	0,044	0,046
-532,350	273,095	-0,109	-0,141
-531,335	-200,000	0,008	0,171
-530,321	-200,000	-0,012	0,050
-529,306	-190,775	-0,050	-0,000
-528,291	49,543	-0,180	0,124
-527,277	-200,000	-0,021	0,073
-526,262	-200,000	0,002	0,044
-525,248	800,000	-0,027	-0,077
-524,233	800,000	-0,043	0,091
-523,218	-1,479	0,082	0,042
-522,204	-200,000	0,032	-0,103
-521,189	304,699	0,050	-0,068
-520,175	120,974	-0,025	0,022
-519,160	60,417	-0,058	0,042
-518,145	268,829	0,049	0,063
-517,131	-200,000	0,005	0,102
-516,116	320,191	-0,091	-0,126
-515,102	40,914	0,188	0,124
-514,087	-42,493	-0,081	0,030
-513,072	175,480	-0,107	0,114
-512,058	-50,768	-0,110	0,038
-511,043	499,716	-0,073	0,124
-510,029	-58,588	0,147	0,046
-509,014	-200,000	0,021	-0,151
-507,999	94,738	-0,062	-0,052
-506,985	-12,832	0,016	-0,007
-505,970	214,868	-0,107	0,124
-504,956	800,000	0,054	-0,150
-503,941	82,847	-0,047	-0,037
-502,926	-31,312	0,085	0,035
-501,912	-200,000	-0,018	0,113
-500,897	800,000	-0,023	0,058
-499,883	-34,608	0,127	-0,050
-498,868	164,288	-0,063	0,065
-497,853	2,074	0,019	-0,010
-496,839	-22,538	0,087	0,038
-495,824	264,213	-0,085	0,109
-494,810	-13,277	0,145	0,068
-493,795	111,010	-0,019	-0,017
-492,781	-189,896	0,033	-0,000
-491,766	-11,563	-0,039	0,018
-490,751	-200,000	-0,002	-0,095
-489,737	90,614	0,159	-0,130
-488,722	-200,000	-0,006	0,100
-487,708	174,458	0,035	0,037
-486,693	-200,000	-0,015	-0,111
-485,678	800,000	-0,037	0,080
-484,664	-32,843	0,072	-0,029
-483,649	-134,636	-0,122	-0,011
-482,635	-4,421	0,122	0,061
-481,620	-37,033	0,062	0,024
-480,605	-106,290	-0,062	-0,010
-479,591	224,935	0,150	0,178
-478,576	-49,946	-0,109	0,038
-477,562	234,287	-0,087	0,105
-476,547	-200,000	-0,029	-0,124
-475,532	619,229	-0,057	-0,105
-474,518	308,849	-0,025	0,034
-473,503	561,518	0,059	0,105
-472,489	209,718	0,049	-0,056
-471,474	-200,000	-0,030	-0,096
-470,459	24,333	0,060	-0,036
-469,445	800,000	-0,021	0,065
-468,430	51,706	0,061	-0,042
-467,416	32,127	-0,058	0,036
-466,401	-149,574	0,132	-0,008
-465,386	-138,730	-0,012	-0,001
-464,372	488,663	0,014	0,023
-463,357	67,050	-0,099	-0,074
-462,343	10,104	-0,030	0,016
-461,328	11,243	-0,154	-0,086
-460,313	38,594	0,079	-0,051
-459,299	-41,686	0,065	0,024
-458,284	-200,000	-0,001	-0,072
-457,270	-126,448	0,110	0,012
-456,255	-200,000	-0,006	-0,045
-455,241	800,000	0,038	-0,082
-454,226	-133,821	-0,121	0,011
-453,211	74,723	0,039	0,030
-452,197	248,933	-0,066	-0,081
-451,182	-24,474	0,117	-0,050
-450,168	-200,000	0,019	0,093
-449,153	132,347	0,050	-0,047
-448,138	800,000	0,042	0,116
-447,124	43,478	-0,046	-0,031
-446,109	70,106	0,121	-0,091
-445,095	-136,757	-0,040	-0,003
-444,080	156,966	0,058	-0,059
-443,065	800,000	0,025	-0,065
-442,051	-92,521	-0,072	-0,015
-441,036	-129,760	-0,105	-0,010
-440,022	6,020	-0,011	0,006
-439,007	383,274	0,015	0,023
-437,992	12,543	0,125	0,070
-436,978	-200,000	0,022	0,124
-435,963	-115,712	0,141	0,019
-434,949	47,956	-0,135	0,092
-433,934	300,997	-0,049	-0,067
-432,919	-200,000	0,010	-0,072
-431,905	20,645	-0,037	0,022
-430,890	-53,471	0,169	0,056
-429,876	-200,000	-0,008	-0,061
-428,861	521,195	0,008	0,014
-427,846	800,000	-0,044	-0,116
-426,832	215,769	-0,079	-0,091
-425,817	341,699	0,047	-0,067
-424,803	8,055	0,144	-0,078
-423,788	-200,000	0,013	0,043
-422,773	-200,000	0,023	-0,089
-421,759	215,247	0,033	0,038
-420,744	-58,237	0,060	0,019
-419,730	800,000	-0,050	-0,123
-418,715	-137,115	0,038	0,003
-417,701	635,345	0,035	-0,064
-416,686	-200,000	0,026	-0,109
-415,671	-41,186	0,116	0,043
-414,657	-126,029	-0,150	0,016
-413,642	-86,718	-0,110	0,024
-412,628	25,612	-0,034	0,021
-411,613	17,927	-0,137	-0,079
-410,598	295,862	0,011	0,014
-409,584	-175,493	-0,064	0,001
-408,569	-200,000	-0,003	-0,032
-407,555	800,000	0,081	0,212
-406,540	-200,000	-0,006	0,097
-405,525	-200,000	-0,003	0,045
-404,511	-101,608	-0,049	-0,009
-403,496	217,401	-0,041	-0,048
-402,482	85,597	0,079	0,063
-401,467	462,225	0,030	0,049
-400,452	174,785	-0,043	0,045
-399,438	-81,131	0,048	-0,011
-398,423	-92,127	-0,084	0,017
-397,409	-148,832	0,105	0,006
-396,394	107,719	-0,020	0,017
-395,379	109,986	0,032	-0,028
-394,365	631,352	0,048	0,088
-393,350	-43,073	0,050	0,018
-392,336	491,018	0,019	0,032
-391,321	8,885	0,107	0,059
-390,306	800,000	-0,047	-0,130
-389,292	304,558	-0,062	-0,083
-388,277	1,463	0,108	-0,056
-387,263	800,000	0,020	0,046
-386,248	252,134	-0,034	0,042
-385,233	800,000	-0,064	0,142
-384,219	371,209	-0,066	-0,097
-383,204	134,346	0,080	-0,076
-382,190	-200,000	0,017	-0,063
-381,175	-148,150	0,005	0,000
-380,160	-200,000	0,016	-0,056
-379,146	82,633	0,048	-0,038
-378,131	-200,000	-0,038	0,143
-377,117	800,000	0,063	-0,191
-376,102	-200,000	0,000	-0,213
-375,088	19,603	-0,083	-0,049
-374,073	32,910	-0,036	-0,022
-373,058	-59,035	-0,094	-0,029
-372,044	445,371	0,087	0,139
-371,029	-200,000	0,003	0,071
-370,015	800,000	0,040	-0,086
-369,000	82,766	-0,017	0,013
-367,985	-10,326	0,056	-0,027
-366,971	99,018	-0,033	-0,028
-365,956	174,380	-0,073	0,077
-364,942	-162,614	0,023	0,001
-363,927	7,511	-0,139	0,075
-362,912	-200,000	0,020	0,099
-361,898	258,166	-0,074	0,093
-360,883	800,000	-0,008	0,018
-359,869	-200,000	-0,021	-0,121
-358,854	-200,000	-0,019	0,067
-357,839	-200,000	0,023	0,083
-356,825	-112,180	0,048	0,007
-355,810	320,147	-0,063	0,088
-354,796	-200,000	-0,019	-0,084
-353,781	638,040	-0,117	-0,218
-352,766	-200,000	0,008	-0,070
-351,752	-181,591	-0,039	0,001
-350,737	9,610	-0,033	-0,018
-349,723	-142,545	-0,136	-0,010
-348,708	-101,846	-0,080	-0,014
-347,693	-200,000	0,011	-0,051
-346,679	31,408	-0,026	-0,016
-345,664	316,712	0,057	-0,079
-344,650	-40,995	0,194	-0,073
-343,635	-200,000	-0,010	0,101
-342,620	640,989	-0,028	0,053
-341,606	534,221	0,041	0,071
-340,591	-5,755	0,169	0,083
-339,577	215,360	-0,024	-0,028
-338,562	256,324	-0,019	-0,024
-337,548	605,050	0,046	-0,083
-336,533	288,660	0,047	-0,062
-335,518	-60,706	0,193	-0,059
-334,504	539,390	-0,073	0,127
-333,489	10,466	-0,048	0,026
-332,475	800,000	-0,054	-0,114
-331,460	800,000	0,026	0,061
-330,445	-200,000	0,016	0,052
-329,431	-200,000	-0,003	0,072
-328,416	-200,000	-0,029	0,117
-327,402	800,000	0,025	0,076
-326,387	109,624	-0,083	-0,072
-325,372	-95,563	0,026	-0,005
-324,358	-44,279	-0,117	0,042
-323,343	-200,000	-0,030	-0,098
-322,329	77,888	0,050	-0,038
-321,314	-65,409	0,138	-0,040
-320,299	246,366	0,027	-0,033
-319,285	198,463	-0,032	-0,036
-318,270	-139,690	0,063	-0,005
-317,256	190,117	0,081	-0,088
-316,241	178,984	-0,034	0,036
-315,226	-59,269	0,023	0,007
-314,212	-95,515	-0,086	0,017
-313,197	404,277	0,045	0,069
-312,183	800,000	-0,054	0,149
-311,168	-138,823	-0,079	-0,006
-310,153	-200,000	-0,003	0,063
-309,139	100,548	-0,130	0,109
-308,124	-6,574	-0,053	0,026
-307,110	263,791	0,204	0,257
-306,095	-26,494	0,161	0,068
-305,080	-200,000	0,024	-0,141
-304,066	-33,798	-0,034	-0,013
-303,051	128,933	-0,075	-0,069
-302,037	165,697	0,142	-0,146
-301,022	235,226	0,047	-0,056
-300,008	-85,616	0,101	-0,023
-298,993	-42,322	-0,115	-0,042
-297,978	-200,000	-0,001	-0,027
-296,964	216,929	0,057	0,066
-295,949	800,000	-0,023	-0,051
-294,935	-200,000	-0,015	-0,083
-293,920	800,000	-0,019	-0,044
-292,905	-55,874	0,060	-0,019
-291,891	82,841	0,044	-0,035
-290,876	-66,153	0,035	-0,010
-289,862	404,544	-0,032	-0,049
-288,847	352,571	-0,052	0,075
-287,832	-12,006	0,073	0,035
-286,818	-44,231	0,063	-0,023
-285,803	-200,000	0,006	-0,092
-284,789	800,000	0,026	0,056
-283,774	-200,000	0,012	0,058
-282,759	800,000	-0,008	-0,018
-281,745	579,703	-0,047	-0,083
-280,730	-124,776	0,073	-0,008
-279,716	-140,303	-0,035	-0,003
-278,701	389,593	0,038	-0,057
-277,686	274,718	-0,032	-0,041
-276,672	800,000	0,050	0,121
-275,657	-178,618	0,050	0,001
-274,643	-46,991	0,092	0,032
-273,628	-200,000	-0,026	0,095
-272,613	-200,000	-0,005	-0,118
-271,599	134,819	0,073	-0,069
-270,584	36,254	0,029	0,018
-269,570	-200,000	0,007	0,062
-268,555	800,000	0,049	0,145
-267,540	256,131	-0,044	-0,055
-266,526	145,759	-0,071	0,069
-265,511	-36,130	0,154	0,060
-264,497	6,785	0,102	0,055
-263,482	10,505	0,142	0,078
-262,467	-149,252	0,084	-0,005
-261,453	59,635	-0,136	-0,097
-260,438	363,112	0,059	0,085
-259,424	-67,121	-0,074	0,021
-258,409	-200,000	-0,003	-0,148
-257,395	-90,646	0,033	-0,007
-256,380	70,059	-0,111	-0,083
-255,365	-96,884	0,070	0,013
-254,351	82,868	0,027	-0,021
-253,336	-5,123	0,055	0,027
-252,322	65,860	0,140	-0,102
-251,307	800,000	-0,065	-0,145
-250,292	-166,389	0,055	-0,002
-249,278	121,586	0,108	0,097
-248,263	-71,010	-0,153	0,041
-247,249	-21,191	0,119	-0,052
-246,234	-44,311	-0,109	-0,039
-245,219	-179,490	-0,045	-0,001
-244,205	-47,600	-0,045	-0,016
-243,190	30,480	-0,087	0,054
-242,176	800,000	0,056	-0,118
-241,161	519,240	-0,037	0,062
-240,146	800,000	0,052	-0,120
-239,132	89,585	0,064	-0,052
-238,117	-200,000	0,001	0,102
-237,103	78,145	-0,152	-0,117
-236,088	538,783	-0,073	0,125
-235,073	-91,781	0,039	0,008
-234,059	-188,729	0,188	0,002
-233,044	-200,000	-0,012	0,125
-232,030	245,713	-0,047	-0,057
-231,015	-61,867	-0,131	-0,039
-230,000	800,000	0,037	-0,103
-228,986	-49,405	0,051	-0,017
-227,971	-176,358	0,012	0,000
-226,957	102,979	0,043	0,037
-225,942	-40,642	-0,050	-0,019
-224,927	217,800	-0,058	-0,067
-223,913	-91,526	0,106	-0,022
-222,898	-55,932	-0,060	-0,019
-221,884	800,000	-0,048	-0,105
-220,869	770,294	-0,023	-0,046
-219,855	730,158	-0,019	-0,036
-218,840	-190,444	-0,021	-0,000
-217,825	27,408	-0,034	-0,021
-216,811	-200,000	0,064	0,232
-215,796	542,549	-0,057	-0,099
-214,782	-58,216	0,011	-0,003
-213,767	-200,000	-0,033	0,144
-212,752	-93,600	0,090	0,018
-211,738	-118,310	-0,106	0,013
-210,723	-185,126	-0,084	0,001
-209,709	-200,000	0,038	-0,163
-208,694	165,954	0,044	0,045
-207,679	-200,000	-0,003	-0,112
-206,665	34,338	-0,064	-0,040
-205,650	800,000	0,013	-0,036
-204,636	-200,000	0,020	0,091
-203,621	-200,000	0,025	0,105
-202,606	2,639	-0,091	-0,047
-201,592	49,040	-0,083	-0,056
-200,577	-200,000	-0,014	0,088
-199,563	-200,000	-0,013	-0,068
-198,548	-200,000	0,016	0,056
-197,533	-28,573	0,124	0,051
-196,519	-80,397	0,077	0,018
-195,504	83,169	0,071	-0,055
-194,490	-128,491	-0,049	-0,005
-193,475	800,000	-0,022	0,048
-192,460	-56,830	0,089	-0,028
-191,446	52,402	-0,027	0,018
-190,431	424,744	-0,055	0,086
-189,417	-200,000	-0,026	0,110
-188,402	800,000	0,026	0,081
-187,387	7,135	-0,058	-0,031
-186,373	-200,000	0,019	-0,077
-185,358	-9,104	0,097	-0,047
-184,344	725,118	-0,064	-0,123
-183,329	727,772	0,039	-0,075
-182,315	-200,000	0,002	-0,089
-181,300	6,284	0,130	-0,069
-180,285	-200,000	-0,018	-0,058
-179,271	800,000	-0,052	-0,107
-178,256	716,119	0,039	-0,075
-177,242	43,355	0,095	0,063
-176,227	234,060	-0,068	0,081
-175,212	800,000	0,024	0,052
-174,198	231,456	-0,020	-0,024
-173,183	60,254	0,032	-0,023
-172,169	-101,250	-0,098	-0,017
-171,154	370,808	-0,054	0,079
-170,139	2,807	-0,094	0,049
-169,125	319,198	-0,049	0,068
-168,110	50,337	-0,138	0,094
-167,096	-28,453	0,069	-0,028
-166,081	139,799	0,090	-0,085
-165,066	456,499	-0,008	0,013
-164,052	-200,000	0,010	0,061
-163,037	800,000	-0,012	-0,029
-162,023	-200,000	0,017	-0,107
-161,008	-200,000	-0,032	0,223
-159,993	-200,000	0,009	0,083
-158,979	-200,000	0,011	-0,064
-157,964	-14,487	-0,135	-0,062
-156,950	-103,369	-0,053	0,009
-155,935	-200,000	-0,002	-0,096
-154,920	-55,857	0,076	0,024
-153,906	800,000	0,019	0,043
-152,891	453,117	0,025	0,040
-151,877	227,710	-0,067	-0,079
-150,862	-112,027	-0,081	0,012
-149,847	-200,000	0,017	0,158
-148,833	800,000	-0,063	0,151
-147,818	-61,517	-0,052	0,016
-146,804	89,114	0,074	0,060
-145,789	187,175	-0,069	0,074
-144,775	76,826	-0,079	-0,060
-143,760	-82,837	0,029	-0,007
-142,745	-200,000	-0,018	-0,069
-141,731	-200,000	-0,013	0,054
-140,716	-200,000	-0,023	-0,076
-139,702	475,589	0,015	0,024
-138,687	-87,402	-0,127	0,027
-137,672	47,329	0,094	-0,063
-136,658	719,799	0,037	-0,072
-135,643	142,070	0,029	0,027
-134,629	-80,563	-0,097	0,023
-133,614	-149,679	0,075	-0,004
-132,599	290,814	0,068	0,090
-131,585	-3,749	0,039	0,020
-130,570	203,622	-0,024	0,026
-129,556	-164,841	0,070	0,002
-128,541	-47,570	-0,137	-0,048
-127,526	-200,000	0,018	0,111
-126,512	-200,000	0,013	0,078
-125,497	-56,324	0,030	-0,010
-124,483	411,283	0,059	0,090
-123,468	225,342	0,048	0,056
-122,453	-26,733	-0,074	-0,031
-121,439	-55,086	0,028	0,009
-120,424	91,687	0,096	-0,078
-119,410	684,122	0,028	0,052
-118,395	-31,542	0,070	0,028
