DTS Sentinel unit serial number:	SN410029Multiplexer serial number:	ORYXHardware model number:	OX2-SRSoftware version number:	ORYX F/W v4,00 Oryx Data Collector v3.7.2.0data status	okinstallation	B5 Nyhavnadifferential loss correction	single-endedforward channel	channel 2reverse channel	N/Adate	2023/12/13time	08:02:13forward acquisition time	300,00reverse acquisition time	0,00gamma	499,1914k internal	0,3160k external	0,3160temperature offset calibration	1,0000default loss term (dB/km)	0,3820temperature slope calibration	1,0000multiplexer offset coefficient	1,0000multiplexer slope coefficient	1,0000fibre end	0,00T internal ref (°C)	13,65T ext. ref 1 (°C)	-2,80T ext. ref 2 (°C)	-3,13length (m)	temperature (°C)	Stokes	anti-Stokes-744,400	-163,120	0,077	-0,003
-743,385	-127,902	-0,346	-0,036
-742,371	66,885	0,144	0,108
-741,356	-131,254	-0,325	0,031
-740,342	478,654	0,131	0,220
-739,327	-142,429	-0,356	0,025
-738,312	150,244	-0,050	-0,050
-737,298	-114,977	-0,279	0,039
-736,283	168,359	0,073	0,077
-735,269	-112,274	-0,187	0,027
-734,254	101,801	0,052	-0,045
-733,239	-63,507	-0,361	-0,108
-732,225	-18,012	0,146	-0,067
-731,210	800,000	0,028	0,064
-730,196	-173,798	0,066	-0,001
-729,181	52,838	-0,065	-0,046
-728,167	-200,000	-0,010	-0,148
-727,152	675,733	-0,033	-0,064
-726,137	-200,000	0,001	-0,081
-725,123	-200,000	-0,003	-0,073
-724,108	-154,612	0,164	-0,008
-723,094	-110,860	-0,121	0,018
-722,079	115,946	0,108	-0,098
-721,064	334,231	-0,078	-0,112
-720,050	-95,986	-0,081	-0,016
-719,035	164,017	0,103	-0,107
-718,021	800,000	-0,033	-0,078
-717,006	-2,029	-0,197	-0,102
-715,991	73,932	0,100	-0,077
-714,977	-200,000	0,027	-0,124
-713,962	-200,000	-0,017	-0,098
-712,948	-99,186	-0,090	0,017
-711,933	-200,000	0,002	0,071
-710,918	-79,528	-0,088	0,022
-709,904	800,000	-0,039	-0,090
-708,889	184,365	0,090	-0,098
-707,875	53,096	-0,117	-0,082
-706,860	-43,149	0,094	-0,035
-705,845	-200,000	0,031	0,110
-704,831	99,294	0,013	-0,011
-703,816	115,197	0,096	0,086
-702,802	185,061	0,065	-0,071
-701,787	-200,000	0,017	-0,137
-700,772	-200,000	-0,024	-0,125
-699,758	-16,089	-0,049	-0,023
-698,743	1,894	0,108	0,057
-697,729	40,152	-0,100	0,066
-696,714	30,864	0,067	0,042
-695,699	-42,231	-0,118	-0,044
-694,685	-200,000	0,004	0,149
-693,670	-187,611	-0,069	0,001
-692,656	-71,983	-0,107	-0,029
-691,641	42,557	-0,098	-0,066
-690,627	400,695	-0,051	-0,078
-689,612	-200,000	0,013	-0,108
-688,597	-78,328	-0,017	-0,004
-687,583	68,738	0,084	0,063
-686,568	-200,000	-0,022	-0,105
-685,554	-200,000	-0,011	-0,081
-684,539	74,296	-0,137	-0,105
-683,524	2,602	0,061	0,032
-682,510	-200,000	0,000	-0,037
-681,495	530,180	-0,095	-0,165
-680,481	-200,000	-0,000	0,043
-679,466	-35,388	0,074	-0,029
-678,451	81,159	0,076	-0,060
-677,437	-200,000	0,006	-0,052
-676,422	275,855	0,050	0,065
-675,408	-62,686	-0,027	0,008
-674,393	737,060	0,008	0,017
-673,378	200,374	-0,048	-0,054
-672,364	240,680	-0,092	0,113
-671,349	400,986	-0,084	0,129
-670,335	-200,000	-0,024	-0,085
-669,320	628,938	-0,097	0,180
-668,305	-200,000	0,029	-0,112
-667,291	-42,372	0,030	-0,011
-666,276	72,238	-0,195	0,149
-665,262	106,058	-0,073	-0,063
-664,247	694,007	0,025	-0,048
-663,232	800,000	-0,075	-0,203
-662,218	-27,021	0,070	0,030
-661,203	-200,000	-0,084	0,000
-660,189	-74,906	-0,059	0,016
-659,174	220,784	-0,043	0,051
-658,159	-157,409	-0,098	-0,004
-657,145	-136,627	-0,068	-0,006
-656,130	-104,786	-0,118	0,020
-655,116	-75,796	-0,074	-0,019
-654,101	421,070	-0,106	0,167
-653,086	-200,000	0,016	0,059
-652,072	-200,000	-0,009	-0,108
-651,057	-200,000	-0,004	-0,081
-650,043	-22,228	-0,189	0,084
-649,028	25,883	0,073	0,045
-648,014	0,918	0,129	-0,068
-646,999	-200,000	0,017	-0,058
-645,984	800,000	-0,049	0,118
-644,970	169,247	0,078	-0,081
-643,955	-57,128	0,111	0,036
-642,941	800,000	0,048	-0,127
-641,926	-101,061	0,074	0,013
-640,911	800,000	-0,050	0,106
-639,897	71,499	0,079	0,060
-638,882	-60,107	-0,066	0,021
-637,868	583,961	0,058	-0,105
-636,853	-200,000	-0,002	-0,078
-635,838	416,946	-0,045	0,071
-634,824	-200,000	0,002	0,013
-633,809	198,106	-0,018	0,020
-632,795	-150,730	0,140	-0,008
-631,780	800,000	-0,052	-0,107
-630,765	94,696	0,013	0,011
-629,751	-114,943	0,065	0,009
-628,736	800,000	-0,067	-0,186
-627,722	-131,953	-0,110	-0,010
-626,707	-200,000	0,001	-0,020
-625,692	-16,796	0,064	0,030
-624,678	376,362	0,059	-0,088
-623,663	360,163	0,037	-0,054
-622,649	469,708	-0,076	0,126
-621,634	-200,000	-0,020	0,103
-620,619	-23,739	0,165	-0,072
-619,605	-200,000	-0,029	-0,099
-618,590	-52,853	-0,031	-0,010
-617,576	-59,453	0,159	-0,050
-616,561	152,040	-0,039	0,039
-615,546	38,956	-0,067	0,044
-614,532	106,379	-0,164	-0,143
-613,517	800,000	0,040	-0,129
-612,503	800,000	0,010	-0,031
-611,488	147,296	0,076	0,075
-610,474	53,164	0,074	0,052
-609,459	-132,343	0,083	0,008
-608,444	46,578	-0,044	-0,030
-607,430	-200,000	-0,002	0,022
-606,415	800,000	-0,049	0,106
-605,401	800,000	0,071	-0,171
-604,386	12,838	0,177	0,100
-603,371	-132,871	0,142	-0,013
-602,357	49,896	-0,114	0,079
-601,342	-26,669	-0,076	-0,032
-600,328	194,266	-0,034	0,038
-599,313	163,616	-0,062	-0,064
-598,298	-200,000	-0,139	-0,000
-597,284	188,576	0,056	0,061
-596,269	-23,977	0,015	0,007
-595,255	800,000	-0,018	0,038
-594,240	800,000	-0,061	0,145
-593,225	800,000	-0,085	-0,199
-592,211	224,355	0,095	-0,112
-591,196	-115,335	-0,120	-0,016
-590,182	14,158	0,200	-0,114
-589,167	282,110	-0,059	0,078
-588,152	-200,000	0,004	-0,056
-587,138	29,753	-0,114	0,071
-586,123	-200,000	-0,046	0,169
-585,109	-71,402	-0,123	-0,033
-584,094	-200,000	-0,011	-0,083
-583,079	-200,000	0,013	0,078
-582,065	-36,322	0,227	0,089
-581,050	-125,103	-0,060	-0,007
-580,036	412,397	0,050	0,079
-579,021	-35,668	-0,072	-0,029
-578,006	-142,432	0,160	0,011
-576,992	131,266	-0,073	-0,068
-575,977	-200,000	0,030	-0,099
-574,963	-200,000	-0,011	0,067
-573,948	-42,090	0,144	-0,054
-572,934	-200,000	0,014	-0,208
-571,919	45,910	-0,056	0,038
-570,904	-95,384	-0,095	0,018
-569,890	-200,000	0,024	0,082
-568,875	-156,079	-0,085	0,004
-567,861	-200,000	0,015	0,094
-566,846	-101,832	0,179	0,031
-565,831	800,000	-0,007	-0,017
-564,817	-70,397	-0,038	0,011
-563,802	28,714	-0,131	-0,081
-562,788	-62,243	-0,209	0,063
-561,773	-200,000	-0,017	0,171
-560,758	190,200	-0,047	0,051
-559,744	800,000	-0,022	0,056
-558,729	-59,504	0,010	0,003
-557,715	800,000	-0,038	-0,090
-556,700	231,542	0,115	-0,139
-555,685	46,153	-0,050	0,034
-554,671	-200,000	0,012	-0,159
-553,656	-111,895	-0,116	0,017
-552,642	-79,552	0,092	-0,023
-551,627	-200,000	-0,021	-0,129
-550,612	-129,458	-0,120	-0,012
-549,598	-39,347	-0,089	-0,034
-548,583	-200,000	0,013	-0,121
-547,569	204,418	-0,071	0,081
-546,554	376,085	0,024	0,035
-545,539	-200,000	-0,027	0,123
-544,525	-108,743	-0,141	0,022
-543,510	32,036	-0,074	-0,046
-542,496	-200,000	0,017	-0,121
-541,481	-200,000	-0,025	-0,109
-540,466	217,920	0,085	-0,099
-539,452	422,180	-0,016	-0,026
-538,437	800,000	-0,062	0,139
-537,423	-200,000	-0,012	0,052
-536,408	800,000	-0,030	-0,077
-535,393	-152,643	0,105	-0,005
-534,379	559,827	-0,024	0,043
-533,364	-42,640	-0,125	0,046
-532,350	-200,000	0,003	0,013
-531,335	144,243	0,018	0,018
-530,321	-28,593	0,126	0,053
-529,306	-150,767	-0,135	0,007
-528,291	-37,065	0,007	0,003
-527,277	150,019	-0,061	-0,061
-526,262	-200,000	-0,013	0,104
-525,248	-200,000	-0,010	-0,039
-524,233	-200,000	-0,007	-0,026
-523,218	333,202	0,027	0,039
-522,204	-200,000	-0,038	0,133
-521,189	-200,000	-0,000	-0,129
-520,175	704,375	-0,049	-0,095
-519,160	-15,236	0,033	-0,015
-518,145	800,000	0,035	-0,085
-517,131	-200,000	-0,012	0,115
-516,116	592,246	-0,003	-0,006
-515,102	-200,000	0,004	-0,013
-514,087	140,188	-0,127	-0,123
-513,072	-16,226	-0,088	-0,040
-512,058	-96,425	0,061	0,012
-511,043	-200,000	0,000	0,012
-510,029	-200,000	0,014	0,173
-509,014	67,578	-0,115	0,086
-507,999	-82,299	0,061	0,014
-506,985	-18,162	-0,084	0,038
-505,970	129,944	-0,141	-0,132
-504,956	-118,000	0,101	-0,013
-503,941	-35,202	0,101	0,040
-502,926	-87,321	-0,044	-0,010
-501,912	292,702	-0,031	0,042
-500,897	-64,074	0,116	0,034
-499,883	16,538	-0,208	0,119
-498,868	-58,520	-0,089	0,028
-497,853	800,000	-0,051	-0,106
-496,839	-200,000	0,010	-0,058
-495,824	-200,000	0,009	-0,066
-494,810	16,969	0,029	0,017
-493,795	-13,984	-0,067	0,032
-492,781	800,000	-0,037	-0,109
-491,766	-108,432	0,155	0,024
-490,751	728,461	-0,051	0,101
-489,737	314,633	0,031	0,043
-488,722	434,007	-0,046	0,073
-487,708	104,057	-0,029	-0,025
-486,693	195,730	-0,074	-0,083
-485,678	-96,357	-0,132	0,025
-484,664	-35,667	-0,009	0,003
-483,649	-7,182	-0,095	-0,047
-482,635	405,405	-0,054	0,083
-481,620	496,309	0,006	0,010
-480,605	-38,102	0,095	0,037
-479,591	5,546	-0,083	-0,044
-478,576	220,342	-0,046	0,053
-477,562	337,790	0,059	0,083
-476,547	-92,158	-0,157	-0,032
-475,532	83,807	-0,072	-0,057
-474,518	-40,414	0,103	-0,039
-473,503	574,297	-0,065	0,116
-472,489	800,000	0,027	0,063
-471,474	16,789	-0,089	0,051
-470,459	-105,852	-0,117	-0,019
-469,445	-200,000	-0,011	-0,095
-468,430	378,988	-0,059	-0,089
-467,416	14,193	0,066	-0,037
-466,401	8,815	0,164	-0,090
-465,386	-200,000	-0,034	0,201
-464,372	-60,261	0,072	0,022
-463,357	126,543	0,006	-0,005
-462,343	65,429	0,019	0,014
-461,328	289,519	-0,033	0,044
-460,313	-200,000	0,006	-0,036
-459,299	699,309	0,020	0,038
-458,284	158,332	0,064	0,065
-457,270	434,544	0,029	0,046
-456,255	-56,277	-0,056	0,018
-455,241	455,885	0,071	-0,116
-454,226	800,000	-0,005	-0,012
-453,211	-200,000	0,002	-0,008
-452,197	250,637	0,078	0,096
-451,182	800,000	-0,046	0,096
-450,168	38,657	0,090	0,059
-449,153	-9,883	-0,071	-0,034
-448,138	800,000	0,031	-0,070
-447,124	44,842	-0,096	-0,064
-446,109	-51,151	0,040	-0,014
-445,095	-76,924	0,103	0,026
-444,080	-26,780	-0,071	-0,030
-443,065	-200,000	0,000	-0,056
-442,051	394,821	0,092	0,140
-441,036	-200,000	-0,020	-0,080
-440,022	-14,237	-0,151	0,071
-439,007	-200,000	0,002	0,114
-437,992	-9,622	0,040	0,019
-436,978	-143,670	-0,061	0,004
-435,963	31,600	0,044	-0,028
-434,949	203,020	-0,109	0,123
-433,934	-82,169	-0,068	-0,016
-432,919	556,744	-0,086	-0,151
-431,905	800,000	0,019	0,042
-430,890	-86,343	-0,090	0,020
-429,876	12,938	-0,042	-0,023
-428,861	119,925	0,097	0,088
-427,846	-57,661	-0,052	-0,017
-426,832	-42,554	-0,063	0,023
-425,817	55,400	-0,115	-0,081
-424,803	-200,000	-0,003	0,019
-423,788	200,289	-0,055	0,061
-422,773	148,117	-0,059	0,058
-421,759	371,896	0,037	0,054
-420,744	238,815	0,076	0,092
-419,730	-5,964	-0,037	-0,019
-418,715	71,165	-0,032	0,024
-417,701	-111,475	-0,204	-0,030
-416,686	-76,272	-0,037	0,009
-415,671	-108,592	0,139	0,021
-414,657	72,791	-0,074	-0,056
-413,642	-132,106	-0,019	0,002
-412,628	-200,000	0,033	-0,140
-411,613	800,000	0,038	-0,078
-410,598	-200,000	0,015	0,068
-409,584	-200,000	-0,010	0,106
-408,569	299,801	0,030	0,040
-407,555	134,024	0,036	0,034
-406,540	59,801	-0,166	0,119
-405,525	-200,000	-0,047	-0,171
-404,511	-200,000	0,033	0,127
-403,496	405,042	0,057	0,087
-402,482	-200,000	-0,017	0,089
-401,467	-200,000	0,009	0,077
-400,452	-6,122	-0,070	-0,035
-399,438	-200,000	0,014	0,080
-398,423	-189,337	0,070	-0,001
-397,409	-12,520	-0,085	-0,040
-396,394	-113,171	0,031	0,004
-395,379	-191,680	-0,092	-0,001
-394,365	2,748	0,079	-0,041
-393,350	-200,000	-0,014	0,111
-392,336	-67,764	0,137	0,039
-391,321	-86,851	-0,151	-0,033
-390,306	-97,658	-0,072	0,013
-389,292	-200,000	0,020	-0,072
-388,277	714,816	-0,026	-0,050
-387,263	-200,000	0,004	0,029
-386,248	138,540	-0,056	0,053
-385,233	-200,000	0,005	0,044
-384,219	-200,000	0,000	-0,096
-383,204	-200,000	0,005	-0,098
-382,190	-200,000	0,024	-0,157
-381,175	-60,298	0,054	0,017
-380,160	-41,023	-0,078	0,029
-379,146	64,111	0,139	-0,102
-378,131	1,273	0,130	-0,067
-377,117	0,612	-0,086	-0,044
-376,102	-113,093	0,179	-0,025
-375,088	-31,910	-0,081	-0,033
-374,073	-89,198	-0,110	0,023
-373,058	509,843	0,082	-0,139
-372,044	269,400	0,035	0,044
-371,029	107,904	-0,047	-0,041
-370,015	74,608	0,093	-0,071
-369,000	-30,550	-0,058	0,024
-367,985	25,573	-0,069	-0,042
-366,971	236,243	-0,022	0,027
-365,956	-112,803	0,147	0,021
-364,942	-150,851	-0,076	0,004
-363,927	-68,071	0,082	0,023
-362,912	-200,000	-0,001	-0,129
-361,898	800,000	0,021	-0,044
-360,883	241,158	-0,011	-0,013
-359,869	-140,487	-0,055	0,004
-358,854	63,358	0,060	0,044
-357,839	-121,709	0,078	0,009
-356,825	492,446	0,071	0,119
-355,810	800,000	-0,016	-0,033
-354,796	-24,944	-0,031	-0,013
-353,781	413,064	-0,054	0,084
-352,766	-4,039	0,123	-0,062
-351,752	23,937	0,075	-0,045
-350,737	-103,549	-0,062	0,010
-349,723	800,000	-0,001	-0,002
-348,708	-200,000	0,000	-0,072
-347,693	-1,342	0,068	-0,035
-346,679	-82,697	0,113	-0,026
-345,664	212,603	-0,124	-0,142
-344,650	59,745	0,049	-0,035
-343,635	-70,776	0,116	0,032
-342,620	-200,000	-0,008	0,060
-341,606	-149,262	0,117	0,007
-340,591	6,070	-0,056	-0,030
-339,577	-87,816	-0,052	-0,011
-338,562	46,782	-0,141	-0,095
-337,548	200,243	0,040	0,045
-336,533	48,277	0,072	-0,049
-335,518	76,950	0,069	0,053
-334,504	-87,097	0,071	0,016
-333,489	431,328	0,037	-0,058
-332,475	44,903	-0,054	0,036
-331,460	-200,000	0,000	-0,011
-330,445	119,945	0,081	-0,073
-329,431	-200,000	-0,000	-0,026
-328,416	-67,310	0,061	0,017
-327,402	335,937	-0,041	-0,058
-326,387	549,996	0,034	0,059
-325,372	361,114	-0,030	0,043
-324,358	797,923	-0,046	-0,091
-323,343	-3,030	0,068	-0,034
-322,329	-170,387	-0,170	0,004
-321,314	-60,347	0,051	0,016
-320,299	205,479	0,060	-0,068
-319,285	55,995	0,050	-0,035
-318,270	128,559	0,082	-0,076
-317,256	-200,000	0,010	0,136
-316,241	8,408	0,126	0,068
-315,226	-200,000	0,016	0,064
-314,212	-53,909	0,113	0,037
-313,197	-18,924	0,131	0,059
-312,183	16,147	-0,051	0,029
-311,168	187,905	-0,082	-0,089
-310,153	512,989	0,014	0,024
-309,139	-200,000	-0,001	0,099
-308,124	-200,000	0,016	0,056
-307,110	-150,138	0,183	0,010
-306,095	-28,353	-0,114	0,048
-305,080	-84,013	0,012	-0,003
-304,066	-43,792	-0,022	0,008
-303,051	-200,000	0,020	0,098
-302,037	435,958	-0,060	-0,095
-301,022	623,115	-0,055	-0,100
-300,008	-200,000	0,035	-0,114
-298,993	45,678	0,055	-0,037
-297,978	-200,000	0,004	0,030
-296,964	184,745	0,080	0,086
-295,949	-125,389	-0,066	0,007
-294,935	20,970	-0,006	0,004
-293,920	-200,000	-0,028	-0,100
-292,905	-200,000	0,000	0,094
-291,891	-88,234	-0,016	-0,003
-290,876	46,667	0,088	0,059
-289,862	-61,432	0,064	-0,019
-288,847	-200,000	-0,003	0,060
-287,832	152,676	-0,029	0,029
-286,818	509,451	-0,092	0,156
-285,803	-159,999	-0,036	0,001
-284,789	247,974	-0,062	0,076
-283,774	800,000	0,034	-0,082
-282,759	120,478	-0,097	0,087
-281,745	211,513	-0,063	0,072
-280,730	28,072	0,095	0,058
-279,716	-49,750	0,141	-0,048
-278,701	-200,000	-0,007	0,035
-277,686	312,770	0,129	0,175
-276,672	-80,500	-0,119	0,028
-275,657	35,589	-0,045	0,028
-274,643	-66,732	-0,111	-0,031
-273,628	133,508	0,039	-0,037
-272,613	-146,708	-0,053	-0,003
-271,599	-200,000	-0,006	-0,046
-270,584	496,566	0,035	0,058
-269,570	-92,689	0,049	0,010
-268,555	89,367	0,142	0,115
-267,540	-110,171	0,081	-0,012
-266,526	-200,000	0,010	0,112
-265,511	-146,200	-0,074	-0,005
-264,497	800,000	0,008	-0,020
-263,482	-200,000	-0,007	-0,091
-262,467	-200,000	-0,012	0,066
-261,453	-132,877	-0,042	-0,004
-260,438	800,000	0,033	-0,068
-259,424	398,863	-0,042	0,064
-258,409	-24,441	-0,130	-0,056
-257,395	800,000	0,022	-0,063
-256,380	755,100	0,089	0,175
-255,365	88,824	0,037	-0,030
-254,351	-200,000	0,026	-0,095
-253,336	584,882	-0,035	-0,062
-252,322	42,207	-0,097	-0,064
-251,307	-200,000	-0,002	-0,030
-250,292	-105,612	0,163	0,026
-249,278	554,265	0,046	0,081
-248,263	526,131	0,058	-0,099
-247,249	-200,000	-0,016	0,219
-246,234	-200,000	-0,019	-0,194
-245,219	-90,314	-0,063	0,013
-244,205	186,349	-0,068	-0,073
-243,190	-86,160	0,050	0,011
-242,176	-200,000	0,001	0,096
-241,161	492,222	0,054	0,089
-240,146	-126,664	0,118	-0,012
-239,132	46,321	0,014	0,009
-238,117	-105,392	-0,118	-0,019
-237,103	-200,000	-0,007	0,072
-236,088	126,480	0,101	-0,093
-235,073	-101,432	-0,017	0,003
-234,059	117,189	0,095	-0,085
-233,044	140,382	-0,083	0,079
-232,030	-74,570	0,070	-0,018
-231,015	241,098	-0,092	-0,111
-230,000	-200,000	0,060	-0,212
-228,986	157,245	0,040	0,040
-227,971	800,000	0,015	-0,047
-226,957	-82,065	0,133	-0,031
-225,942	119,203	-0,069	0,061
-224,927	255,638	-0,028	0,034
-223,913	184,287	-0,085	0,091
-222,898	-103,466	0,127	-0,021
-221,884	800,000	-0,055	-0,153
-220,869	-24,552	-0,080	-0,034
-219,855	578,972	-0,066	0,117
-218,840	-38,405	-0,022	-0,009
-217,825	-200,000	-0,005	-0,071
-216,811	-199,545	-0,059	-0,000
-215,796	-66,641	-0,063	0,018
-214,782	-200,000	0,013	-0,266
-213,767	-173,285	0,138	-0,003
-212,752	295,036	0,060	0,080
-211,738	40,901	-0,021	-0,013
-210,723	-200,000	0,025	0,192
-209,709	213,668	-0,061	-0,069
-208,694	-148,667	-0,078	-0,005
-207,679	113,970	0,076	-0,067
-206,665	800,000	-0,033	-0,071
-205,650	385,954	-0,050	0,074
-204,636	-200,000	0,014	-0,065
-203,621	-53,735	0,123	-0,040
-202,606	800,000	0,041	0,094
-201,592	-47,979	-0,063	-0,022
-200,577	-13,967	-0,134	-0,062
-199,563	706,088	0,023	-0,045
-198,548	-167,015	0,206	0,006
-197,533	-200,000	-0,008	0,096
-196,519	20,560	-0,066	0,038
-195,504	800,000	0,026	0,052
-194,490	800,000	0,047	-0,096
-193,475	-200,000	0,016	-0,068
-192,460	-100,852	-0,068	-0,012
-191,446	-200,000	0,014	0,158
-190,431	683,985	0,065	-0,123
-189,417	-132,749	-0,076	0,007
-188,402	-200,000	0,016	-0,055
-187,387	800,000	0,051	-0,116
-186,373	-200,000	-0,004	-0,135
-185,358	-97,539	-0,112	-0,021
-184,344	800,000	0,023	0,055
-183,329	-200,000	0,005	-0,114
-182,315	59,141	0,097	0,069
-181,300	498,902	-0,040	-0,067
-180,285	412,815	0,050	0,078
-179,271	58,820	-0,040	-0,028
-178,256	-134,135	0,043	0,004
-177,242	-44,497	0,092	0,033
-176,227	-113,711	-0,047	-0,007
-175,212	793,397	0,012	-0,023
-174,198	24,876	0,018	0,011
-173,183	499,933	0,022	0,037
-172,169	-200,000	-0,006	-0,101
-171,154	84,188	-0,032	-0,025
-170,139	-200,000	-0,004	0,036
-169,125	-134,042	0,170	0,015
-168,110	8,436	0,075	0,041
-167,096	800,000	0,020	-0,054
-166,081	-200,000	0,002	0,076
-165,066	129,143	0,043	0,039
-164,052	-200,000	-0,008	0,114
-163,037	193,747	-0,054	0,059
-162,023	-7,442	0,100	-0,048
-161,008	-70,909	-0,064	-0,017
-159,993	800,000	-0,044	0,135
-158,979	-39,916	0,104	0,039
-157,964	-200,000	-0,010	-0,083
-156,950	-44,256	0,034	-0,012
-155,935	-1,565	0,082	0,041
-154,920	5,985	0,117	0,062
-153,906	-200,000	-0,001	0,129
-152,891	-8,732	-0,190	0,092
-151,877	379,880	-0,047	-0,070
-150,862	298,891	-0,073	0,097
-149,847	-200,000	0,006	-0,037
-148,833	231,974	0,107	0,127
-147,818	13,831	-0,107	-0,060
-146,804	-113,416	0,018	-0,003
-145,789	-200,000	0,006	0,061
-144,775	-91,038	-0,103	0,021
-143,760	-200,000	-0,016	-0,108
-142,745	112,812	-0,063	-0,055
-141,731	-200,000	-0,014	-0,082
-140,716	-61,953	0,077	-0,023
-139,702	-200,000	0,014	-0,106
-138,687	-2,951	0,041	0,020
-137,672	75,431	0,089	-0,067
-136,658	134,699	-0,088	-0,083
-135,643	20,029	-0,065	-0,037
-134,629	45,897	-0,088	-0,058
-133,614	48,821	0,064	0,043
-132,599	133,013	0,063	0,058
-131,585	-100,789	-0,035	-0,006
-130,570	800,000	-0,018	-0,056
-129,556	-95,918	-0,131	-0,025
-128,541	0,324	-0,121	-0,062
-127,526	-49,106	0,048	-0,017
-126,512	198,648	-0,042	-0,047
-125,497	-132,768	0,079	0,007
-124,483	-200,000	0,012	-0,118
-123,468	94,883	-0,105	-0,086
-122,453	-200,000	-0,008	-0,054
-121,439	800,000	-0,078	-0,158
-120,424	339,414	0,023	0,033
-119,410	18,075	0,019	0,011
