DTS Sentinel unit serial number:	SN410029Multiplexer serial number:	ORYXHardware model number:	OX2-SRSoftware version number:	ORYX F/W v4,00 Oryx Data Collector v3.7.2.0data status	okinstallation	B5 Nyhavnadifferential loss correction	single-endedforward channel	channel 2reverse channel	N/Adate	2023/12/11time	22:17:13forward acquisition time	300,00reverse acquisition time	0,00gamma	499,1914k internal	0,3155k external	0,3155temperature offset calibration	1,0000default loss term (dB/km)	0,3820temperature slope calibration	1,0000multiplexer offset coefficient	1,0000multiplexer slope coefficient	1,0000fibre end	0,00T internal ref (°C)	16,31T ext. ref 1 (°C)	0,14T ext. ref 2 (°C)	-0,11length (m)	temperature (°C)	Stokes	anti-Stokes-744,400	766,762	-0,016	-0,033
-743,385	-147,121	-0,281	0,017
-742,371	68,676	0,101	0,076
-741,356	-18,416	-0,212	0,097
-740,342	-104,399	0,085	-0,014
-739,327	-101,173	-0,276	0,049
-738,312	-200,000	-0,004	-0,041
-737,298	-129,142	-0,358	0,036
-736,283	800,000	-0,010	-0,026
-735,269	94,870	-0,239	0,200
-734,254	-200,000	0,002	0,172
-733,239	54,144	-0,265	-0,188
-732,225	98,183	0,111	-0,094
-731,210	547,670	0,051	0,090
-730,196	-200,000	0,009	-0,085
-729,181	-29,186	-0,080	0,034
-728,167	-200,000	-0,009	0,087
-727,152	95,204	0,023	-0,019
-726,137	-132,224	0,157	0,015
-725,123	-107,786	-0,049	0,008
-724,108	300,193	-0,065	-0,089
-723,094	-94,689	0,013	-0,003
-722,079	460,336	-0,074	-0,122
-721,064	800,000	0,021	-0,046
-720,050	-200,000	0,013	-0,094
-719,035	-59,893	-0,051	0,016
-718,021	-200,000	0,025	-0,089
-717,006	386,103	-0,093	-0,143
-715,991	-200,000	-0,012	-0,161
-714,977	800,000	-0,019	-0,049
-713,962	485,250	-0,093	-0,157
-712,948	13,311	0,123	-0,070
-711,933	-200,000	0,026	-0,133
-710,918	800,000	-0,055	-0,134
-709,904	-32,548	-0,019	0,008
-708,889	-89,787	0,035	-0,007
-707,875	19,101	-0,079	-0,047
-706,860	-200,000	-0,002	0,055
-705,845	-200,000	0,007	0,125
-704,831	800,000	0,028	0,068
-703,816	111,665	-0,096	0,086
-702,802	638,875	-0,051	0,096
-701,787	-200,000	0,008	0,064
-700,772	38,501	-0,049	-0,032
-699,758	-200,000	-0,018	-0,107
-698,743	-54,957	0,020	-0,007
-697,729	-200,000	0,013	0,190
-696,714	-131,514	0,097	-0,009
-695,699	198,186	-0,025	-0,028
-694,685	-200,000	-0,045	-0,155
-693,670	102,805	-0,162	-0,139
-692,656	-168,753	-0,113	0,003
-691,641	800,000	-0,055	-0,168
-690,627	-200,000	0,010	0,087
-689,612	-200,000	-0,034	0,149
-688,597	-200,000	-0,019	0,115
-687,583	-37,326	-0,058	-0,023
-686,568	-40,510	-0,072	0,027
-685,554	-101,315	0,068	0,012
-684,539	800,000	0,023	-0,069
-683,524	-89,717	0,068	0,015
-682,510	-200,000	-0,009	0,052
-681,495	-45,241	0,074	-0,027
-680,481	133,238	-0,072	-0,069
-679,466	-200,000	0,001	-0,009
-678,451	800,000	-0,079	-0,165
-677,437	-147,677	0,143	-0,009
-676,422	88,534	0,024	0,020
-675,408	-183,192	-0,097	0,001
-674,393	207,377	0,022	0,025
-673,378	-200,000	-0,005	-0,089
-672,364	-18,179	-0,053	0,024
-671,349	-77,103	-0,094	-0,024
-670,335	-4,969	-0,163	-0,082
-669,320	-200,000	0,003	-0,071
-668,305	-135,765	-0,025	0,002
-667,291	-200,000	-0,032	0,170
-666,276	-76,891	0,117	-0,030
-665,262	534,427	-0,003	0,006
-664,247	581,664	-0,065	-0,118
-663,232	236,197	-0,058	-0,071
-662,218	-200,000	-0,002	-0,033
-661,203	800,000	-0,024	0,057
-660,189	183,877	-0,061	-0,067
-659,174	-79,499	-0,057	0,014
-658,159	-175,124	-0,122	0,002
-657,145	-49,297	-0,154	-0,054
-656,130	-52,874	0,145	0,049
-655,116	800,000	0,047	0,097
-654,101	-200,000	-0,001	-0,154
-653,086	66,118	-0,048	-0,036
-652,072	-200,000	-0,017	-0,061
-651,057	-200,000	0,015	-0,074
-650,043	-200,000	-0,020	-0,111
-649,028	110,948	-0,081	-0,071
-648,014	800,000	0,017	0,056
-646,999	800,000	0,056	0,137
-645,984	800,000	0,041	0,093
-644,970	45,297	-0,042	-0,028
-643,955	513,769	0,031	0,054
-642,941	-91,557	0,180	-0,037
-641,926	160,862	0,101	0,104
-640,911	-113,771	-0,048	-0,007
-639,897	-11,988	0,049	-0,023
-638,882	11,996	0,096	0,054
-637,868	-117,657	0,035	0,005
-636,853	495,148	0,054	0,092
-635,838	117,652	-0,156	-0,141
-634,824	-46,744	0,028	0,010
-633,809	-200,000	0,028	-0,108
-632,795	321,915	0,059	0,083
-631,780	739,687	-0,059	0,116
-630,765	-144,511	-0,094	0,006
-629,751	208,737	0,103	0,119
-628,736	-200,000	0,000	0,003
-627,722	99,000	-0,034	-0,029
-626,707	49,312	0,061	-0,042
-625,692	-11,510	-0,065	0,031
-624,678	437,499	0,021	-0,034
-623,663	-16,509	-0,041	0,019
-622,649	-70,941	0,104	-0,029
-621,634	800,000	0,031	-0,083
-620,619	-200,000	-0,004	0,069
-619,605	-23,446	0,141	-0,062
-618,590	-200,000	0,004	0,034
-617,576	800,000	-0,030	0,087
-616,561	-13,638	0,076	-0,036
-615,546	-200,000	-0,009	-0,188
-614,532	-200,000	-0,017	-0,121
-613,517	270,214	-0,058	-0,075
-612,503	-200,000	0,001	-0,095
-611,488	162,907	0,042	0,044
-610,474	-200,000	-0,008	0,044
-609,459	800,000	-0,011	0,025
-608,444	106,465	-0,093	0,081
-607,430	-200,000	0,002	0,040
-606,415	394,276	-0,044	-0,067
-605,401	-200,000	-0,003	0,082
-604,386	56,581	0,028	0,020
-603,371	-200,000	-0,007	-0,024
-602,357	-81,576	-0,141	-0,034
-601,342	337,209	-0,076	0,108
-600,328	800,000	0,032	-0,068
-599,313	800,000	-0,024	-0,076
-598,298	314,316	-0,046	-0,063
-597,284	-124,889	-0,100	0,011
-596,269	325,596	-0,012	-0,017
-595,255	-200,000	-0,003	0,067
-594,240	-200,000	0,010	-0,063
-593,225	24,032	-0,091	-0,055
-592,211	49,546	0,070	-0,048
-591,196	-200,000	0,006	-0,034
-590,182	-200,000	-0,007	-0,097
-589,167	210,752	-0,038	0,044
-588,152	4,769	-0,097	0,052
-587,138	800,000	0,038	-0,084
-586,123	-148,974	-0,107	0,006
-585,109	-200,000	0,002	0,014
-584,094	-200,000	0,002	0,023
-583,079	800,000	0,036	0,091
-582,065	144,782	0,055	0,054
-581,050	-122,547	0,069	0,008
-580,036	146,477	-0,111	0,109
-579,021	12,962	0,138	-0,078
-578,006	19,701	-0,224	-0,132
-576,992	25,334	-0,107	-0,065
-575,977	11,403	0,187	0,105
-574,963	151,242	0,094	0,094
-573,948	113,654	0,049	-0,044
-572,934	220,294	0,013	0,015
-571,919	61,515	0,033	0,024
-570,904	3,728	-0,028	-0,015
-569,890	-200,000	-0,001	0,030
-568,875	-200,000	0,033	0,155
-567,861	40,222	-0,062	-0,041
-566,846	186,138	-0,030	-0,033
-565,831	800,000	0,011	-0,029
-564,817	800,000	-0,034	-0,109
-563,802	108,839	-0,064	-0,056
-562,788	197,408	0,051	-0,057
-561,773	-144,105	-0,194	0,013
-560,758	-118,431	0,096	0,012
-559,744	6,127	0,133	-0,072
-558,729	-200,000	-0,002	-0,080
-557,715	314,603	-0,082	0,113
-556,700	340,388	0,074	0,106
-555,685	-158,903	0,078	-0,003
-554,671	175,515	-0,011	-0,012
-553,656	-28,251	-0,088	-0,037
-552,642	-200,000	-0,017	-0,083
-551,627	285,935	0,044	-0,059
-550,612	8,261	-0,276	-0,151
-549,598	11,452	0,122	-0,068
-548,583	800,000	0,022	-0,059
-547,569	364,381	0,054	0,080
-546,554	-200,000	-0,023	0,103
-545,539	-200,000	0,021	0,164
-544,525	-200,000	0,057	0,185
-543,510	583,128	-0,060	0,108
-542,496	-44,545	-0,164	0,060
-541,481	800,000	0,025	0,081
-540,466	148,930	-0,037	0,037
-539,452	800,000	-0,019	0,051
-538,437	800,000	-0,016	-0,050
-537,423	754,992	-0,024	-0,049
-536,408	-200,000	-0,001	-0,005
-535,393	-49,514	-0,117	0,041
-534,379	-115,544	0,073	0,010
-533,364	800,000	0,058	-0,138
-532,350	592,571	0,054	0,097
-531,335	5,714	0,101	0,054
-530,321	594,869	-0,023	-0,041
-529,306	652,273	-0,006	-0,012
-528,291	800,000	0,017	0,054
-527,277	11,939	0,019	0,011
-526,262	-200,000	-0,006	-0,068
-525,248	102,479	-0,009	-0,008
-524,233	-200,000	-0,017	0,160
-523,218	-200,000	-0,005	0,060
-522,204	366,840	0,087	0,128
-521,189	458,593	-0,056	-0,091
-520,175	233,130	-0,078	-0,094
-519,160	156,255	-0,034	-0,034
-518,145	-76,624	0,047	0,012
-517,131	-25,059	0,012	-0,005
-516,116	-132,463	0,077	-0,007
-515,102	-45,001	-0,052	-0,019
-514,087	74,200	0,054	-0,042
-513,072	126,315	-0,105	-0,098
-512,058	-200,000	0,028	0,137
-511,043	159,397	0,026	-0,026
-510,029	45,230	0,076	0,051
-509,014	800,000	0,030	0,080
-507,999	130,703	-0,065	-0,061
-506,985	396,182	0,079	-0,120
-505,970	142,157	-0,063	-0,061
-504,956	-108,246	0,137	0,021
-503,941	761,294	0,063	0,125
-502,926	-169,110	0,120	-0,003
-501,912	-44,913	0,017	0,006
-500,897	610,466	-0,069	-0,126
-499,883	-80,572	-0,128	-0,031
-498,868	-60,995	-0,047	0,014
-497,853	-107,818	-0,208	-0,033
-496,839	-79,453	0,127	-0,031
-495,824	282,914	-0,019	-0,026
-494,810	800,000	-0,016	0,048
-493,795	390,211	0,031	0,048
-492,781	93,342	0,058	-0,048
-491,766	347,739	-0,030	-0,044
-490,751	145,905	-0,076	-0,074
-489,737	137,683	0,037	0,035
-488,722	-200,000	-0,009	0,052
-487,708	13,696	-0,099	-0,056
-486,693	470,905	-0,053	0,087
-485,678	239,149	-0,058	0,070
-484,664	-130,452	-0,093	0,009
-483,649	129,895	0,105	-0,098
-482,635	-66,372	-0,070	-0,020
-481,620	288,410	0,038	-0,051
-480,605	-71,552	0,236	0,064
-479,591	800,000	-0,028	-0,060
-478,576	115,277	-0,050	0,045
-477,562	-200,000	-0,025	0,134
-476,547	-81,335	-0,042	0,010
-475,532	89,016	0,095	0,077
-474,518	317,328	-0,029	0,041
-473,503	-67,730	0,050	0,014
-472,489	202,620	-0,050	0,057
-471,474	115,843	-0,078	0,070
-470,459	-200,000	0,004	-0,096
-469,445	-200,000	-0,008	-0,148
-468,430	51,115	-0,122	-0,085
-467,416	-200,000	-0,010	0,056
-466,401	102,848	0,053	0,046
-465,386	3,125	0,015	0,008
-464,372	-200,000	-0,022	0,088
-463,357	45,081	-0,094	0,063
-462,343	28,375	-0,178	-0,109
-461,328	222,260	-0,076	0,089
-460,313	-200,000	-0,005	0,058
-459,299	-94,492	0,047	0,009
-458,284	520,500	0,043	0,073
-457,270	55,900	-0,045	0,032
-456,255	-200,000	0,008	-0,107
-455,241	43,588	-0,066	0,044
-454,226	82,450	-0,048	-0,038
-453,211	-200,000	-0,032	-0,109
-452,197	218,515	0,026	-0,030
-451,182	4,975	0,146	0,078
-450,168	-30,696	-0,158	-0,065
-449,153	128,397	0,139	-0,130
-448,138	-66,326	-0,107	0,031
-447,124	392,026	-0,102	0,155
-446,109	-3,399	0,021	0,011
-445,095	116,495	-0,086	0,077
-444,080	249,795	0,039	-0,049
-443,065	529,397	-0,016	0,028
-442,051	593,070	0,045	0,081
-441,036	370,363	-0,113	-0,168
-440,022	56,317	-0,158	0,112
-439,007	-200,000	-0,023	0,087
-437,992	-107,991	0,107	0,017
-436,978	-200,000	-0,033	0,139
-435,963	-200,000	-0,030	0,098
-434,949	-101,692	0,073	0,013
-433,934	-10,368	0,025	0,012
-432,919	-130,912	0,161	-0,015
-431,905	-121,404	0,051	-0,006
-430,890	-200,000	0,001	-0,019
-429,876	-7,491	0,064	-0,031
-428,861	382,987	-0,035	-0,052
-427,846	-135,643	-0,108	0,009
-426,832	286,058	0,062	0,082
-425,817	800,000	0,020	0,051
-424,803	484,168	-0,059	-0,098
-423,788	604,300	0,005	-0,009
-422,773	800,000	-0,017	0,049
-421,759	607,207	-0,079	-0,143
-420,744	127,006	0,100	0,093
-419,730	-200,000	0,043	0,185
-418,715	-89,482	-0,135	-0,029
-417,701	715,297	-0,021	-0,041
-416,686	33,219	0,080	-0,050
-415,671	-140,930	0,096	-0,007
-414,657	262,033	0,053	-0,067
-413,642	800,000	-0,039	0,122
-412,628	-200,000	-0,001	0,074
-411,613	-200,000	-0,004	-0,015
-410,598	-200,000	0,002	-0,015
-409,584	-57,856	0,092	-0,029
-408,569	554,928	-0,046	0,081
-407,555	-117,112	0,121	0,016
-406,540	-18,349	0,029	-0,013
-405,525	-200,000	0,022	0,098
-404,511	785,853	0,036	-0,072
-403,496	111,467	0,033	0,029
-402,482	-123,919	0,140	0,016
-401,467	-60,333	0,042	0,013
-400,452	800,000	0,009	0,022
-399,438	46,210	-0,102	0,069
-398,423	-57,980	0,059	0,019
-397,409	-200,000	-0,014	-0,048
-396,394	800,000	0,049	-0,118
-395,379	55,526	-0,088	-0,062
-394,365	-78,019	0,093	0,023
-393,350	-9,230	-0,104	-0,050
-392,336	-200,000	0,038	0,126
-391,321	181,980	-0,105	-0,113
-390,306	258,439	-0,076	-0,095
-389,292	-148,381	0,053	-0,003
-388,277	-188,178	-0,089	-0,001
-387,263	28,449	0,066	-0,040
-386,248	39,272	-0,106	0,069
-385,233	176,374	0,043	-0,046
-384,219	-132,660	-0,178	0,016
-383,204	-138,105	-0,126	-0,010
-382,190	471,795	-0,032	0,052
-381,175	800,000	0,031	0,066
-380,160	-200,000	0,019	-0,086
-379,146	144,484	0,007	-0,006
-378,131	-200,000	0,013	0,068
-377,117	-200,000	-0,028	0,090
-376,102	800,000	0,035	0,070
-375,088	71,390	-0,045	-0,034
-374,073	-200,000	-0,011	-0,060
-373,058	-9,855	0,008	0,004
-372,044	-109,335	-0,117	0,018
-371,029	-43,362	0,202	0,074
-370,015	-108,810	-0,127	0,019
-369,000	-81,072	-0,124	-0,030
-367,985	-200,000	-0,015	-0,151
-366,971	-191,612	0,143	0,001
-365,956	11,170	0,047	0,026
-364,942	-200,000	0,022	0,080
-363,927	68,366	-0,112	0,083
-362,912	-200,000	-0,003	0,078
-361,898	0,625	0,109	-0,056
-360,883	-113,053	-0,089	-0,013
-359,869	-26,778	-0,069	-0,029
-358,854	94,944	0,038	0,031
-357,839	-28,139	0,139	-0,058
-356,825	-118,692	-0,069	-0,009
-355,810	800,000	-0,058	0,176
-354,796	126,895	0,014	0,013
-353,781	-38,250	-0,126	-0,048
-352,766	-200,000	-0,004	-0,024
-351,752	107,520	0,099	0,086
-350,737	432,366	0,071	0,112
-349,723	-82,318	-0,047	-0,011
-348,708	-168,031	0,048	0,001
-347,693	78,293	0,039	-0,030
-346,679	-200,000	-0,001	0,019
-345,664	98,535	0,068	-0,057
-344,650	6,296	-0,055	0,030
-343,635	-11,839	0,086	-0,041
-342,620	-2,207	0,113	-0,057
-341,606	-200,000	0,005	-0,057
-340,591	800,000	0,047	0,107
-339,577	116,446	0,079	-0,070
-338,562	-37,107	0,035	-0,014
-337,548	133,074	-0,120	-0,112
-336,533	800,000	0,024	0,053
-335,518	-48,693	0,070	-0,024
-334,504	323,392	0,060	0,083
-333,489	122,445	-0,133	-0,120
-332,475	-200,000	0,109	0,000
-331,460	-200,000	0,009	-0,084
-330,445	66,806	-0,063	0,046
-329,431	-200,000	0,006	0,039
-328,416	-32,516	0,098	0,039
-327,402	800,000	0,022	-0,057
-326,387	290,128	-0,043	-0,056
-325,372	216,050	0,057	0,066
-324,358	800,000	0,031	-0,082
-323,343	49,118	-0,075	-0,051
-322,329	-200,000	0,011	0,063
-321,314	-32,026	0,145	0,059
-320,299	-17,455	0,151	-0,069
-319,285	-2,412	0,086	0,043
-318,270	-103,075	-0,083	-0,014
-317,256	775,022	-0,045	-0,090
-316,241	182,418	-0,066	-0,070
-315,226	-101,677	0,062	0,011
-314,212	0,481	0,130	0,067
-313,197	-200,000	0,036	0,137
-312,183	-110,448	0,069	-0,010
-311,168	-7,063	-0,074	0,036
-310,153	800,000	-0,056	-0,153
-309,139	-95,924	-0,165	-0,032
-308,124	-92,315	-0,125	0,025
-307,110	-99,347	0,112	0,020
-306,095	-200,000	0,003	0,051
-305,080	800,000	-0,038	0,104
-304,066	-111,874	-0,110	0,016
-303,051	-75,567	0,057	-0,015
-302,037	59,538	0,026	-0,019
-301,022	21,380	0,060	0,035
-300,008	-23,574	0,117	0,051
-298,993	-93,243	0,060	-0,012
-297,978	41,844	-0,015	0,010
-296,964	215,466	0,104	-0,120
-295,949	70,363	-0,022	-0,017
-294,935	-150,744	0,108	-0,006
-293,920	-200,000	0,002	-0,044
-292,905	305,318	0,060	-0,082
-291,891	-133,117	0,138	0,012
-290,876	-200,000	0,002	0,095
-289,862	-200,000	-0,011	-0,061
-288,847	460,265	-0,126	-0,205
-287,832	-200,000	-0,027	-0,154
-286,818	-48,022	0,155	-0,054
-285,803	-107,503	0,044	-0,007
-284,789	285,983	0,069	0,090
-283,774	-48,910	0,077	0,026
-282,759	99,645	0,040	0,033
-281,745	-144,917	-0,049	-0,003
-280,730	800,000	-0,053	-0,164
-279,716	15,683	-0,042	0,024
-278,701	-64,731	0,130	-0,038
-277,686	-83,355	-0,116	-0,027
-276,672	-200,000	0,008	-0,157
-275,657	102,454	-0,009	0,008
-274,643	161,642	0,098	-0,099
-273,628	-52,557	-0,100	0,033
-272,613	-200,000	-0,024	-0,164
-271,599	-62,037	-0,067	0,020
-270,584	-200,000	0,010	-0,057
-269,570	-200,000	-0,008	-0,044
-268,555	-69,018	0,164	0,045
-267,540	409,182	-0,075	-0,115
-266,526	443,456	0,063	-0,101
-265,511	-200,000	-0,019	0,086
-264,497	131,402	0,095	0,088
-263,482	364,136	-0,063	-0,091
-262,467	237,893	0,049	-0,059
-261,453	1,371	-0,115	0,060
-260,438	56,807	-0,064	0,045
-259,424	413,083	0,067	-0,104
-258,409	389,314	-0,063	-0,096
-257,395	-98,600	0,016	0,003
-256,380	800,000	-0,090	0,203
-255,365	341,036	0,033	-0,047
-254,351	147,984	-0,132	-0,129
-253,336	800,000	0,020	-0,054
-252,322	800,000	-0,006	0,019
-251,307	-200,000	0,027	-0,107
-250,292	-64,606	-0,076	-0,022
-249,278	800,000	-0,033	0,075
-248,263	-58,009	0,122	-0,038
-247,249	639,960	-0,009	-0,017
-246,234	85,956	0,094	0,075
-245,219	114,557	-0,026	-0,023
-244,205	309,386	-0,108	-0,146
-243,190	-125,998	-0,126	-0,014
-242,176	-200,000	0,001	0,054
-241,161	-154,624	0,151	0,007
-240,146	-170,874	-0,038	0,001
-239,132	601,719	0,028	-0,051
-238,117	-200,000	-0,016	-0,062
-237,103	-200,000	0,023	-0,079
-236,088	338,177	-0,067	-0,094
-235,073	-39,220	0,162	-0,061
-234,059	21,528	0,070	0,041
-233,044	-22,868	-0,118	0,051
-232,030	76,889	-0,048	0,037
-231,015	118,535	0,063	0,057
-230,000	-173,906	0,059	-0,001
-228,986	800,000	-0,048	-0,100
-227,971	-200,000	-0,003	0,049
-226,957	643,278	0,013	0,023
-225,942	-123,573	-0,172	-0,019
-224,927	526,701	0,007	-0,013
-223,913	-64,933	0,123	0,036
-222,898	-200,000	0,008	-0,026
-221,884	-118,192	-0,044	0,006
-220,869	-200,000	-0,014	0,075
-219,855	-87,559	0,062	0,013
-218,840	-35,770	0,062	-0,024
-217,825	-94,967	0,071	0,014
-216,811	-121,997	-0,159	-0,019
-215,796	800,000	0,019	0,046
-214,782	-83,761	0,153	-0,035
-213,767	332,929	0,015	-0,022
-212,752	401,919	-0,058	0,088
-211,738	443,999	-0,025	0,040
-210,723	800,000	-0,060	0,136
-209,709	800,000	-0,038	0,077
-208,694	-17,143	-0,014	-0,007
-207,679	-127,253	0,127	-0,013
-206,665	-200,000	0,024	0,094
-205,650	-128,004	-0,122	-0,012
-204,636	800,000	-0,007	-0,021
-203,621	206,641	-0,020	0,023
-202,606	-136,226	0,166	-0,014
-201,592	-200,000	0,024	0,150
-200,577	365,515	0,041	-0,060
-199,563	431,453	0,077	0,121
-198,548	-13,855	0,094	0,044
-197,533	-96,178	0,021	-0,004
-196,519	-200,000	-0,018	0,064
-195,504	-2,654	-0,164	-0,083
-194,490	9,487	0,049	0,027
-193,475	75,638	-0,092	-0,070
-192,460	-200,000	0,008	-0,055
-191,446	-114,773	0,105	0,014
-190,431	-200,000	-0,005	0,028
-189,417	-28,306	0,056	-0,023
-188,402	-200,000	-0,028	-0,093
-187,387	-146,451	-0,130	-0,008
-186,373	258,291	-0,091	0,114
-185,358	800,000	0,043	0,120
-184,344	-200,000	0,014	-0,082
-183,329	101,566	0,048	0,040
-182,315	-89,196	0,108	0,023
-181,300	-21,472	0,056	-0,024
-180,285	-200,000	-0,020	-0,066
-179,271	800,000	-0,016	-0,032
-178,256	123,044	-0,098	-0,088
-177,242	800,000	0,043	0,128
-176,227	-5,077	0,054	-0,027
-175,212	-60,860	-0,130	0,039
-174,198	-200,000	0,006	0,080
-173,183	-139,982	-0,064	0,005
-172,169	800,000	0,059	-0,138
-171,154	44,091	-0,121	0,080
-170,139	-200,000	0,012	0,068
-169,125	296,429	-0,018	0,024
-168,110	-68,362	0,111	0,031
-167,096	800,000	-0,045	-0,126
-166,081	29,436	-0,154	-0,094
-165,066	183,748	-0,112	-0,120
-164,052	65,686	0,014	0,011
-163,037	97,611	0,060	-0,050
-162,023	800,000	-0,031	0,090
-161,008	-200,000	0,011	0,037
-159,993	10,228	-0,079	0,043
-158,979	-160,039	-0,172	-0,007
-157,964	-200,000	-0,024	-0,108
-156,950	-200,000	0,004	-0,127
-155,935	531,509	-0,053	0,091
-154,920	-57,325	0,011	-0,004
-153,906	588,101	0,068	0,122
-152,891	210,587	0,057	-0,065
-151,877	-150,058	-0,013	-0,001
-150,862	46,887	-0,103	-0,069
-149,847	-121,341	-0,043	0,005
-148,833	18,321	0,111	0,064
-147,818	-109,102	-0,112	0,017
-146,804	-200,000	0,008	0,076
-145,789	-200,000	-0,003	-0,042
-144,775	205,608	0,016	0,018
-143,760	-200,000	0,019	-0,067
-142,745	254,659	-0,070	0,087
-141,731	800,000	-0,008	-0,016
-140,716	238,146	0,075	0,090
-139,702	-200,000	-0,018	-0,164
-138,687	436,080	0,042	-0,066
-137,672	-200,000	0,007	-0,173
-136,658	343,685	-0,054	0,077
-135,643	525,852	-0,073	-0,124
-134,629	113,023	0,029	0,025
-133,614	147,875	-0,074	0,072
-132,599	318,061	-0,048	0,066
-131,585	-119,712	0,066	-0,008
-130,570	-200,000	0,010	-0,155
-129,556	-97,593	-0,172	0,032
-128,541	-143,602	-0,161	0,011
-127,526	-200,000	0,017	0,059
-126,512	121,165	-0,081	-0,073
-125,497	63,922	0,203	0,147
-124,483	-172,311	0,031	0,001
-123,468	800,000	-0,018	0,047
-122,453	-200,000	-0,000	-0,046
-121,439	112,419	0,110	0,096
-120,424	-52,094	-0,007	0,002
-119,410	144,964	0,138	-0,133
