DTS Sentinel unit serial number:	SN410029Multiplexer serial number:	ORYXHardware model number:	OX2-SRSoftware version number:	ORYX F/W v4,00 Oryx Data Collector v3.7.2.0data status	okinstallation	B5 Nyhavnadifferential loss correction	single-endedforward channel	channel 2reverse channel	N/Adate	2023/12/12time	23:27:13forward acquisition time	300,00reverse acquisition time	0,00gamma	499,1914k internal	0,3158k external	0,3158temperature offset calibration	1,0000default loss term (dB/km)	0,3820temperature slope calibration	1,0000multiplexer offset coefficient	1,0000multiplexer slope coefficient	1,0000fibre end	0,00T internal ref (°C)	14,45T ext. ref 1 (°C)	-2,08T ext. ref 2 (°C)	-2,37length (m)	temperature (°C)	Stokes	anti-Stokes-744,400	-152,196	0,106	0,006
-743,385	-54,828	-0,215	0,071
-742,371	800,000	0,030	-0,083
-741,356	-136,577	-0,256	-0,022
-740,342	-46,385	0,068	-0,024
-739,327	-195,298	-0,396	-0,002
-738,312	-111,748	0,109	0,016
-737,298	-137,697	-0,317	0,026
-736,283	-68,267	0,152	0,043
-735,269	-65,823	-0,400	-0,117
-734,254	-59,075	0,107	-0,034
-733,239	-10,969	-0,428	-0,207
-732,225	-102,773	0,332	0,058
-731,210	-90,375	-0,097	-0,020
-730,196	580,553	0,035	-0,063
-729,181	-200,000	0,019	-0,079
-728,167	47,802	-0,060	0,041
-727,152	100,746	-0,022	0,019
-726,137	-200,000	0,042	-0,172
-725,123	-200,000	0,023	-0,092
-724,108	-200,000	0,005	0,070
-723,094	49,698	-0,159	-0,110
-722,079	59,921	-0,056	0,040
-721,064	161,998	-0,007	-0,007
-720,050	-1,668	-0,025	-0,013
-719,035	107,448	-0,090	-0,079
-718,021	-200,000	0,000	-0,100
-717,006	800,000	-0,036	-0,075
-715,991	145,788	-0,119	-0,117
-714,977	320,816	-0,072	0,101
-713,962	24,564	-0,032	-0,020
-712,948	800,000	0,030	0,089
-711,933	-200,000	-0,018	0,124
-710,918	-21,377	-0,077	0,034
-709,904	-89,732	0,110	-0,024
-708,889	-89,678	-0,092	0,020
-707,875	580,148	0,096	-0,174
-706,860	-200,000	0,020	-0,065
-705,845	97,541	-0,018	-0,015
-704,831	244,634	-0,019	-0,024
-703,816	-64,861	0,013	-0,004
-702,802	44,846	-0,036	-0,024
-701,787	-200,000	0,006	-0,053
-700,772	625,585	0,054	-0,101
-699,758	339,895	0,012	0,017
-698,743	-132,059	0,092	0,009
-697,729	-200,000	-0,021	-0,109
-696,714	-54,749	-0,097	-0,032
-695,699	-188,131	-0,030	0,000
-694,685	113,287	0,021	0,019
-693,670	800,000	-0,060	0,125
-692,656	800,000	-0,036	-0,103
-691,641	-140,063	0,138	-0,011
-690,627	-200,000	-0,019	0,188
-689,612	-200,000	-0,003	0,161
-688,597	-200,000	0,007	-0,053
-687,583	65,303	-0,114	0,085
-686,568	-170,083	-0,095	-0,002
-685,554	-36,603	-0,091	-0,036
-684,539	55,782	0,072	0,051
-683,524	-200,000	-0,010	0,085
-682,510	18,626	-0,117	0,069
-681,495	-200,000	0,017	-0,133
-680,481	170,347	0,051	-0,054
-679,466	-200,000	0,024	-0,195
-678,451	179,455	-0,143	-0,155
-677,437	-200,000	-0,003	0,065
-676,422	-200,000	0,015	0,064
-675,408	-130,427	-0,091	-0,009
-674,393	-22,023	0,086	-0,038
-673,378	-56,891	-0,144	0,047
-672,364	678,143	0,026	-0,050
-671,349	-200,000	-0,004	-0,192
-670,335	-197,183	-0,109	-0,000
-669,320	-200,000	-0,008	-0,031
-668,305	357,507	0,138	0,203
-667,291	-46,921	-0,109	0,039
-666,276	800,000	-0,006	0,015
-665,262	-200,000	-0,008	-0,085
-664,247	134,722	0,033	-0,031
-663,232	502,019	0,035	-0,059
-662,218	800,000	0,021	0,057
-661,203	-161,791	-0,069	0,003
-660,189	350,908	-0,041	0,060
-659,174	-200,000	-0,035	-0,128
-658,159	264,783	-0,102	-0,131
-657,145	64,746	-0,088	0,065
-656,130	190,612	-0,030	-0,033
-655,116	-41,777	-0,093	0,035
-654,101	76,019	0,027	0,021
-653,086	490,569	-0,051	-0,085
-652,072	390,704	0,057	0,087
-651,057	800,000	0,047	0,120
-650,043	-34,015	-0,090	0,036
-649,028	5,474	-0,056	-0,030
-648,014	-16,477	0,032	-0,015
-646,999	568,429	0,086	0,154
-645,984	-4,671	0,100	0,051
-644,970	268,223	-0,019	0,024
-643,955	-101,225	-0,207	0,037
-642,941	130,755	0,068	-0,064
-641,926	300,299	0,074	0,100
-640,911	105,530	-0,062	0,054
-639,897	-67,657	0,119	0,034
-638,882	-43,461	-0,033	-0,012
-637,868	800,000	-0,047	-0,139
-636,853	-200,000	-0,046	-0,155
-635,838	-62,338	-0,093	-0,028
-634,824	-200,000	0,005	0,068
-633,809	800,000	0,036	-0,074
-632,795	134,679	0,081	0,077
-631,780	800,000	0,040	-0,091
-630,765	3,595	-0,118	-0,063
-629,751	-200,000	-0,029	-0,127
-628,736	800,000	0,048	-0,154
-627,722	-200,000	0,001	0,007
-626,707	5,278	0,054	-0,029
-625,692	-174,633	-0,072	-0,001
-624,678	-123,472	0,206	-0,024
-623,663	-112,543	-0,051	0,007
-622,649	151,312	0,065	-0,065
-621,634	614,617	0,061	-0,113
-620,619	56,796	0,045	0,032
-619,605	165,016	-0,077	-0,079
-618,590	800,000	0,017	-0,038
-617,576	-28,985	-0,024	-0,010
-616,561	221,429	0,116	0,137
-615,546	-67,261	-0,031	-0,009
-614,532	800,000	-0,022	0,064
-613,517	133,782	-0,086	-0,081
-612,503	-200,000	-0,003	-0,136
-611,488	43,825	0,039	-0,026
-610,474	-200,000	-0,010	0,099
-609,459	474,250	0,035	-0,058
-608,444	-155,623	-0,104	0,005
-607,430	800,000	0,029	0,073
-606,415	700,878	-0,035	-0,068
-605,401	10,698	0,055	0,030
-604,386	-108,209	0,140	0,022
-603,371	-43,027	-0,080	0,030
-602,357	13,309	0,015	0,008
-601,342	130,632	-0,072	-0,068
-600,328	-120,224	0,108	-0,013
-599,313	800,000	-0,058	-0,123
-598,298	-200,000	-0,002	0,061
-597,284	-200,000	-0,021	0,099
-596,269	365,984	0,094	0,139
-595,255	-35,507	-0,082	0,033
-594,240	102,413	-0,073	0,063
-593,225	205,440	0,081	-0,092
-592,211	46,107	0,080	0,054
-591,196	800,000	-0,050	-0,127
-590,182	-64,192	0,047	-0,014
-589,167	-24,326	0,118	-0,051
-588,152	-200,000	0,002	-0,107
-587,138	106,184	0,020	-0,018
-586,123	-114,038	0,060	-0,008
-585,109	85,857	-0,056	0,045
-584,094	-200,000	-0,003	-0,032
-583,079	237,200	-0,022	0,027
-582,065	189,229	-0,080	0,088
-581,050	800,000	0,025	0,069
-580,036	198,665	-0,073	-0,082
-579,021	-200,000	0,006	0,098
-578,006	-156,553	-0,040	0,002
-576,992	38,666	0,194	0,126
-575,977	-200,000	0,010	0,076
-574,963	-30,161	-0,097	0,040
-573,948	-5,791	0,170	0,085
-572,934	116,529	0,090	-0,081
-571,919	-30,960	-0,116	-0,048
-570,904	-181,370	-0,049	0,001
-569,890	259,290	0,050	-0,064
-568,875	800,000	0,080	-0,184
-567,861	800,000	0,043	-0,111
-566,846	149,946	0,065	0,064
-565,831	-78,463	-0,055	-0,014
-564,817	-70,151	-0,037	-0,010
-563,802	-200,000	0,001	0,048
-562,788	439,507	0,051	-0,082
-561,773	-7,714	0,007	-0,004
-560,758	-27,895	0,109	0,046
-559,744	77,245	0,078	0,061
-558,729	104,347	0,076	-0,066
-557,715	-144,453	-0,106	0,007
-556,700	-133,994	-0,119	0,011
-555,685	-41,952	0,021	0,008
-554,671	-200,000	-0,042	0,151
-553,656	-200,000	-0,003	-0,009
-552,642	-200,000	-0,003	-0,053
-551,627	74,911	0,050	0,038
-550,612	800,000	0,036	-0,086
-549,598	377,389	0,084	-0,126
-548,583	-200,000	-0,030	-0,182
-547,569	28,801	0,074	-0,046
-546,554	709,422	-0,015	-0,028
-545,539	97,680	0,074	-0,062
-544,525	307,686	-0,043	-0,058
-543,510	-200,000	-0,014	-0,077
-542,496	271,126	0,017	0,022
-541,481	272,801	-0,062	-0,080
-540,466	800,000	-0,044	0,133
-539,452	38,960	0,033	0,021
-538,437	-200,000	0,011	0,076
-537,423	-200,000	0,004	0,072
-536,408	-94,159	-0,023	0,004
-535,393	-87,634	0,040	0,009
-534,379	-200,000	-0,018	-0,130
-533,364	-88,665	0,071	-0,015
-532,350	139,370	-0,084	-0,080
-531,335	112,483	-0,056	-0,049
-530,321	-200,000	0,036	0,124
-529,306	104,800	-0,163	-0,140
-528,291	175,213	-0,086	-0,091
-527,277	-200,000	-0,006	-0,086
-526,262	192,794	0,047	0,052
-525,248	-200,000	-0,013	0,096
-524,233	-200,000	-0,012	0,076
-523,218	-56,902	0,058	0,019
-522,204	800,000	-0,066	-0,151
-521,189	600,916	-0,059	-0,107
-520,175	-130,236	-0,129	0,013
-519,160	800,000	0,045	0,112
-518,145	134,225	0,066	0,062
-517,131	800,000	0,027	-0,074
-516,116	-161,668	-0,137	0,005
-515,102	272,499	-0,023	0,029
-514,087	318,347	0,090	-0,125
-513,072	388,971	0,022	-0,034
-512,058	-200,000	0,026	-0,147
-511,043	-200,000	0,029	-0,151
-510,029	-96,105	0,094	-0,018
-509,014	800,000	0,036	0,089
-507,999	23,000	0,020	0,012
-506,985	-55,107	-0,048	-0,016
-505,970	-148,710	-0,038	-0,002
-504,956	-53,367	-0,102	-0,034
-503,941	-200,000	0,022	-0,087
-502,926	-109,603	0,042	0,006
-501,912	-200,000	0,005	-0,107
-500,897	147,156	0,085	0,084
-499,883	141,206	-0,126	0,122
-498,868	-83,338	-0,028	-0,007
-497,853	-158,588	0,043	0,002
-496,839	1,967	-0,100	-0,053
-495,824	60,263	0,149	-0,108
-494,810	124,682	0,060	0,056
-493,795	800,000	0,032	0,076
-492,781	-11,285	-0,036	0,017
-491,766	287,439	-0,026	-0,035
-490,751	-200,000	0,021	-0,112
-489,737	14,995	-0,034	-0,020
-488,722	800,000	0,047	0,145
-487,708	800,000	0,076	0,212
-486,693	153,022	-0,059	-0,059
-485,678	800,000	0,054	0,121
-484,664	124,077	-0,029	0,027
-483,649	-200,000	0,027	-0,104
-482,635	800,000	-0,014	-0,033
-481,620	-21,486	-0,060	-0,027
-480,605	25,812	0,132	0,080
-479,591	800,000	0,025	0,062
-478,576	-155,445	-0,232	-0,011
-477,562	408,450	0,022	0,034
-476,547	-55,860	0,062	-0,020
-475,532	800,000	0,043	-0,125
-474,518	665,252	0,052	-0,099
-473,503	355,016	0,047	-0,068
-472,489	-200,000	0,014	0,074
-471,474	591,107	-0,028	0,050
-470,459	612,623	-0,033	-0,061
-469,445	198,479	-0,056	-0,063
-468,430	-28,922	0,057	0,024
-467,416	-26,656	0,107	0,045
-466,401	-71,783	-0,033	0,009
-465,386	128,580	0,030	0,028
-464,372	-200,000	0,003	0,027
-463,357	-69,699	-0,052	-0,014
-462,343	12,751	0,124	0,069
-461,328	437,604	-0,116	-0,185
-460,313	107,328	-0,083	0,072
-459,299	55,911	-0,113	0,080
-458,284	-200,000	0,009	0,039
-457,270	-65,343	0,011	0,003
-456,255	-73,866	-0,090	0,024
-455,241	-57,888	0,082	0,026
-454,226	-200,000	0,017	-0,095
-453,211	800,000	0,042	-0,100
-452,197	800,000	0,032	0,068
-451,182	800,000	0,022	0,063
-450,168	-116,020	0,045	0,006
-449,153	-200,000	-0,020	0,070
-448,138	314,835	0,046	-0,063
-447,124	-189,460	0,060	-0,000
-446,109	247,268	-0,098	0,121
-445,095	-25,892	0,106	0,045
-444,080	-168,342	0,081	0,002
-443,065	-200,000	-0,015	0,058
-442,051	351,379	-0,059	-0,085
-441,036	800,000	-0,053	-0,114
-440,022	800,000	-0,066	0,137
-439,007	536,390	0,066	0,114
-437,992	-200,000	0,004	-0,052
-436,978	213,921	0,027	0,032
-435,963	0,788	0,044	0,023
-434,949	800,000	0,055	-0,138
-433,934	407,362	-0,107	-0,165
-432,919	106,563	0,021	0,018
-431,905	-109,410	0,108	-0,016
-430,890	29,000	0,099	0,061
-429,876	-200,000	0,016	0,094
-428,861	-200,000	-0,004	0,042
-427,846	788,402	-0,002	-0,004
-426,832	81,176	-0,110	-0,086
-425,817	449,911	0,073	-0,117
-424,803	-200,000	0,012	0,109
-423,788	-200,000	-0,032	-0,138
-422,773	-200,000	0,020	0,094
-421,759	-200,000	0,004	0,045
-420,744	332,071	0,053	0,074
-419,730	800,000	-0,023	0,058
-418,715	-135,000	-0,145	0,013
-417,701	800,000	0,057	-0,142
-416,686	800,000	0,030	-0,062
-415,671	-23,179	0,057	0,025
-414,657	-124,905	-0,125	-0,014
-413,642	138,763	-0,086	-0,082
-412,628	-167,190	-0,177	0,005
-411,613	800,000	-0,051	0,106
-410,598	-200,000	0,010	-0,066
-409,584	221,173	0,034	-0,040
-408,569	800,000	0,032	0,094
-407,555	-8,494	-0,072	-0,035
-406,540	800,000	0,033	-0,070
-405,525	800,000	-0,029	-0,073
-404,511	234,448	0,028	0,034
-403,496	466,951	-0,026	-0,043
-402,482	25,557	0,015	-0,009
-401,467	-200,000	0,004	-0,036
-400,452	-112,362	0,145	-0,021
-399,438	-200,000	-0,012	0,066
-398,423	-122,714	-0,062	-0,007
-397,409	-200,000	-0,006	-0,131
-396,394	353,734	-0,069	0,099
-395,379	-73,294	-0,017	-0,004
-394,365	91,266	0,084	-0,069
-393,350	126,565	0,030	0,028
-392,336	-4,978	0,088	0,044
-391,321	412,639	-0,029	-0,046
-390,306	-200,000	0,006	-0,115
-389,292	187,589	-0,047	-0,051
-388,277	-135,199	0,045	-0,004
-387,263	-200,000	0,003	0,103
-386,248	-123,714	-0,101	-0,012
-385,233	-200,000	-0,017	0,079
-384,219	375,662	-0,074	0,110
-383,204	-97,055	0,056	0,011
-382,190	-124,696	-0,122	-0,014
-381,175	-77,780	-0,112	0,028
-380,160	-200,000	0,083	0,276
-379,146	-200,000	0,001	0,147
-378,131	139,399	0,057	-0,054
-377,117	-95,792	0,069	-0,013
-376,102	-70,267	-0,092	-0,025
-375,088	144,618	-0,044	0,042
-374,073	800,000	0,040	0,105
-373,058	243,387	-0,052	0,063
-372,044	114,643	0,095	0,084
-371,029	-49,726	0,021	0,007
-370,015	782,288	-0,056	-0,112
-369,000	-106,808	0,056	-0,009
-367,985	104,956	-0,151	-0,129
-366,971	-200,000	0,024	-0,109
-365,956	-15,802	0,069	-0,032
-364,942	97,659	-0,061	-0,051
-363,927	-82,016	0,087	-0,020
-362,912	100,917	0,086	0,072
-361,898	-92,350	-0,130	0,026
-360,883	66,303	0,055	-0,040
-359,869	-200,000	0,011	-0,112
-358,854	-18,336	0,032	0,015
-357,839	24,237	0,067	0,040
-356,825	-52,633	0,174	0,058
-355,810	394,069	-0,064	-0,098
-354,796	-174,180	-0,075	-0,002
-353,781	800,000	-0,056	-0,136
-352,766	-43,640	-0,123	-0,045
-351,752	-115,670	-0,080	-0,011
-350,737	800,000	0,051	0,138
-349,723	11,478	0,036	0,020
-348,708	-200,000	-0,009	0,059
-347,693	-200,000	0,009	-0,038
-346,679	-24,191	-0,124	0,053
-345,664	-161,864	0,079	0,003
-344,650	630,592	0,074	-0,136
-343,635	27,316	0,079	0,048
-342,620	539,883	0,052	0,090
-341,606	94,250	-0,121	0,099
-340,591	314,610	0,025	-0,035
-339,577	-200,000	0,009	-0,091
-338,562	323,026	-0,118	-0,164
-337,548	-200,000	-0,000	0,043
-336,533	-200,000	0,015	-0,153
-335,518	175,526	0,139	0,146
-334,504	-200,000	-0,013	-0,051
-333,489	47,439	0,013	-0,009
-332,475	-56,109	-0,070	-0,023
-331,460	-200,000	0,001	-0,031
-330,445	-200,000	0,014	-0,089
-329,431	-79,841	-0,025	-0,006
-328,416	729,354	-0,038	0,073
-327,402	510,692	0,038	0,064
-326,387	-200,000	-0,042	0,155
-325,372	-200,000	-0,006	-0,057
-324,358	40,680	0,105	-0,069
-323,343	800,000	-0,039	-0,090
-322,329	-200,000	0,017	0,120
-321,314	-128,517	0,158	0,016
-320,299	-200,000	-0,017	0,077
-319,285	800,000	0,041	0,115
-318,270	242,543	-0,071	-0,087
-317,256	-200,000	0,012	0,126
-316,241	-123,038	0,061	0,007
-315,226	33,863	0,081	-0,051
-314,212	-164,439	0,162	0,005
-313,197	48,773	-0,056	0,038
-312,183	113,798	0,132	0,116
-311,168	8,951	-0,103	-0,056
-310,153	-200,000	-0,005	-0,026
-309,139	-200,000	0,013	0,103
-308,124	360,652	0,020	-0,030
-307,110	396,639	0,051	0,078
-306,095	112,684	0,070	0,061
-305,080	182,193	0,009	0,010
-304,066	572,442	-0,103	-0,182
-303,051	32,600	0,078	-0,049
-302,037	99,151	0,032	-0,027
-301,022	800,000	0,022	0,068
-300,008	273,147	0,028	-0,037
-298,993	800,000	-0,029	-0,058
-297,978	-200,000	-0,015	0,236
-296,964	116,871	-0,166	-0,148
-295,949	800,000	-0,041	-0,094
-294,935	35,334	-0,075	0,048
-293,920	202,491	-0,022	-0,025
-292,905	122,027	-0,029	-0,027
-291,891	-200,000	0,018	0,096
-290,876	-72,315	0,109	-0,029
-289,862	327,333	0,018	0,025
-288,847	702,608	-0,126	-0,241
-287,832	81,610	0,064	-0,050
-286,818	-183,636	-0,039	0,000
-285,803	-200,000	0,003	0,065
-284,789	-40,457	0,124	0,046
-283,774	767,930	0,037	-0,074
-282,759	381,713	-0,070	0,105
-281,745	16,820	-0,046	0,026
-280,730	39,178	-0,109	-0,071
-279,716	321,397	-0,078	-0,107
-278,701	428,541	0,076	0,120
-277,686	37,887	-0,057	0,036
-276,672	78,895	0,084	0,065
-275,657	245,056	-0,048	-0,058
-274,643	583,724	0,062	0,111
-273,628	158,445	-0,093	0,093
-272,613	-200,000	0,003	0,056
-271,599	323,441	0,029	-0,040
-270,584	-200,000	-0,000	0,096
-269,570	-200,000	-0,014	0,093
-268,555	409,687	0,096	0,148
-267,540	-30,124	-0,083	-0,034
-266,526	-200,000	-0,027	0,136
-265,511	325,678	-0,011	0,016
-264,497	-41,413	0,108	-0,040
-263,482	747,037	-0,025	0,049
-262,467	-200,000	0,007	-0,098
-261,453	503,997	-0,010	0,017
-260,438	-12,149	-0,080	0,038
-259,424	690,609	-0,020	-0,038
-258,409	-200,000	-0,006	-0,039
-257,395	1,466	0,065	0,034
-256,380	-200,000	-0,025	0,165
-255,365	682,633	0,029	0,054
-254,351	58,714	-0,065	0,046
-253,336	78,605	-0,059	0,045
-252,322	-200,000	0,001	-0,084
-251,307	-3,211	0,047	-0,023
-250,292	475,114	0,037	-0,061
-249,278	71,620	-0,047	0,036
-248,263	275,364	0,048	0,061
-247,249	-3,111	-0,077	-0,039
-246,234	-116,783	-0,068	0,009
-245,219	-169,251	-0,101	-0,003
-244,205	66,005	-0,095	-0,069
-243,190	-200,000	-0,008	-0,088
-242,176	50,132	0,121	0,082
-241,161	800,000	0,036	-0,081
-240,146	-200,000	0,015	0,119
-239,132	-200,000	0,021	-0,088
-238,117	-200,000	-0,075	0,000
-237,103	800,000	0,029	-0,068
-236,088	134,633	0,062	-0,059
-235,073	22,178	-0,063	-0,037
-234,059	26,405	0,007	0,004
-233,044	-112,190	-0,061	0,009
-232,030	760,292	-0,043	0,085
-231,015	66,268	0,050	-0,037
-230,000	141,943	-0,052	0,050
-228,986	490,956	0,031	-0,051
-227,971	800,000	0,022	0,056
-226,957	-121,879	-0,121	0,014
-225,942	522,731	-0,031	0,052
-224,927	227,429	0,043	-0,051
-223,913	-200,000	-0,010	-0,056
-222,898	-200,000	0,005	0,023
-221,884	470,731	-0,035	0,057
-220,869	127,358	0,041	0,037
-219,855	800,000	-0,052	-0,104
-218,840	61,891	0,048	0,034
-217,825	-200,000	-0,005	0,167
-216,811	779,136	-0,012	-0,025
-215,796	-200,000	-0,017	-0,101
-214,782	82,549	-0,188	0,148
-213,767	-73,508	0,082	-0,021
-212,752	-200,000	0,021	-0,081
-211,738	-200,000	-0,007	-0,035
-210,723	72,000	0,035	0,026
-209,709	21,845	0,106	-0,062
-208,694	-200,000	0,004	-0,104
-207,679	669,446	-0,042	-0,078
-206,665	-200,000	0,017	0,075
-205,650	235,296	0,055	0,065
-204,636	-200,000	0,019	0,251
-203,621	800,000	-0,003	-0,009
-202,606	150,899	-0,063	0,062
-201,592	-132,864	-0,147	-0,013
-200,577	-173,936	0,085	-0,002
-199,563	-200,000	0,032	0,148
-198,548	-200,000	-0,023	-0,129
-197,533	-37,770	0,081	-0,031
-196,519	448,889	-0,035	-0,056
-195,504	-200,000	0,001	-0,104
-194,490	304,050	-0,027	0,036
-193,475	-200,000	-0,014	0,121
-192,460	800,000	0,034	-0,073
-191,446	228,528	0,001	-0,002
-190,431	21,515	0,089	0,052
-189,417	-70,677	-0,072	-0,019
-188,402	-200,000	-0,007	-0,045
-187,387	-200,000	0,031	0,138
-186,373	30,039	0,060	0,037
-185,358	132,968	-0,068	-0,063
-184,344	-200,000	0,026	0,111
-183,329	17,341	-0,068	0,039
-182,315	152,093	0,037	-0,037
-181,300	-200,000	-0,006	0,109
-180,285	65,450	-0,137	-0,100
-179,271	14,528	-0,118	-0,066
-178,256	401,425	0,044	-0,067
-177,242	-23,700	0,149	-0,064
-176,227	6,814	-0,051	0,027
-175,212	-200,000	0,019	0,082
-174,198	33,815	0,031	-0,020
-173,183	-154,746	-0,066	-0,003
-172,169	142,350	-0,039	0,038
-171,154	185,549	-0,025	0,027
-170,139	-157,604	-0,068	-0,003
-169,125	-200,000	0,001	-0,021
-168,110	7,899	-0,166	0,089
-167,096	-200,000	-0,007	-0,068
-166,081	-1,979	-0,030	-0,015
-165,066	-70,068	-0,147	-0,040
-164,052	180,763	-0,030	0,032
-163,037	-93,090	-0,072	-0,014
-162,023	-200,000	0,014	-0,069
-161,008	-200,000	0,012	0,070
-159,993	-200,000	-0,014	0,223
-158,979	45,584	0,110	-0,073
-157,964	61,807	-0,131	-0,094
-156,950	800,000	0,017	-0,037
-155,935	-200,000	0,014	0,164
-154,920	-83,132	0,146	0,034
-153,906	-200,000	0,015	0,250
-152,891	-116,933	0,037	-0,005
-151,877	-200,000	0,001	0,019
-150,862	-200,000	-0,017	0,094
-149,847	-200,000	0,026	0,114
-148,833	-42,928	-0,016	0,006
-147,818	-10,464	0,068	-0,032
-146,804	800,000	-0,046	-0,127
-145,789	-88,599	-0,121	0,026
-144,775	-51,116	-0,086	0,029
-143,760	385,889	0,020	0,030
-142,745	259,729	0,015	0,019
-141,731	738,973	0,028	-0,054
-140,716	-35,140	0,038	-0,015
-139,702	-200,000	-0,005	-0,188
-138,687	-200,000	-0,015	0,132
-137,672	-200,000	0,017	0,056
-136,658	157,974	0,129	-0,128
-135,643	-200,000	-0,027	-0,091
-134,629	-200,000	-0,008	-0,080
-133,614	800,000	-0,028	0,074
-132,599	-13,019	0,045	-0,021
-131,585	-54,484	0,056	-0,018
-130,570	-200,000	0,006	0,074
-129,556	-36,120	-0,039	-0,015
-128,541	23,932	-0,078	0,046
-127,526	-200,000	0,009	0,123
-126,512	-200,000	0,017	0,179
-125,497	-200,000	0,019	0,168
-124,483	-113,725	-0,069	-0,010
-123,468	-33,451	0,075	-0,030
-122,453	-200,000	0,002	-0,034
-121,439	116,541	-0,068	-0,060
-120,424	-200,000	0,003	-0,036
-119,410	-200,000	0,064	0,210
