DTS Sentinel unit serial number:	SN410029Multiplexer serial number:	ORYXHardware model number:	OX2-SRSoftware version number:	ORYX F/W v4,00 Oryx Data Collector v3.7.2.0data status	okinstallation	B5 Nyhavnadifferential loss correction	single-endedforward channel	channel 2reverse channel	N/Adate	2023/12/14time	08:37:13forward acquisition time	300,00reverse acquisition time	0,00gamma	499,1914k internal	0,3160k external	0,3160temperature offset calibration	1,0000default loss term (dB/km)	0,3820temperature slope calibration	1,0000multiplexer offset coefficient	1,0000multiplexer slope coefficient	1,0000fibre end	0,00T internal ref (°C)	7,03T ext. ref 1 (°C)	-9,19T ext. ref 2 (°C)	-9,26length (m)	temperature (°C)	Stokes	anti-Stokes-744,400	172,802	0,074	0,079
-743,385	107,721	-0,262	-0,230
-742,371	73,980	0,166	0,128
-741,356	-160,692	-0,384	0,015
-740,342	-45,368	0,208	0,076
-739,327	35,237	-0,330	-0,213
-738,312	-57,642	0,241	0,077
-737,298	-87,817	-0,455	-0,100
-736,283	-71,111	0,204	0,056
-735,269	-74,051	-0,399	-0,106
-734,254	57,079	0,097	0,069
-733,239	-58,052	-0,692	-0,221
-732,225	-59,351	0,237	0,075
-731,210	116,560	-0,044	-0,040
-730,196	2,742	0,012	0,006
-729,181	-12,210	-0,049	-0,024
-728,167	800,000	0,031	-0,069
-727,152	42,336	-0,081	-0,054
-726,137	23,451	-0,078	-0,047
-725,123	52,650	0,031	0,022
-724,108	52,011	-0,066	-0,046
-723,094	800,000	-0,029	0,068
-722,079	-200,000	0,001	0,043
-721,064	-36,138	-0,011	0,004
-720,050	17,477	-0,078	0,045
-719,035	40,558	-0,052	-0,034
-718,021	-200,000	0,000	-0,100
-717,006	800,000	-0,025	-0,070
-715,991	-200,000	-0,009	-0,104
-714,977	-57,766	-0,081	-0,026
-713,962	-200,000	0,025	0,109
-712,948	-200,000	-0,003	0,129
-711,933	-200,000	-0,015	0,054
-710,918	74,832	-0,049	0,038
-709,904	65,877	-0,064	0,048
-708,889	-200,000	-0,003	-0,104
-707,875	-3,697	0,053	0,027
-706,860	-11,737	-0,079	0,038
-705,845	-154,976	0,133	0,006
-704,831	-73,159	0,087	-0,023
-703,816	-37,836	0,068	-0,026
-702,802	-200,000	0,014	-0,095
-701,787	-53,855	-0,193	-0,064
-700,772	460,149	-0,023	-0,038
-699,758	326,947	0,073	-0,104
-698,743	-140,797	-0,084	-0,006
-697,729	-15,453	0,203	0,095
-696,714	-200,000	0,003	0,068
-695,699	-200,000	0,019	-0,094
-694,685	800,000	0,012	0,034
-693,670	800,000	-0,103	0,211
-692,656	-200,000	0,024	-0,180
-691,641	-69,692	-0,112	0,031
-690,627	800,000	0,034	0,101
-689,612	412,714	-0,044	0,069
-688,597	-93,848	-0,100	-0,020
-687,583	-200,000	0,015	-0,071
-686,568	-46,105	-0,038	-0,014
-685,554	-200,000	0,009	-0,189
-684,539	53,270	0,143	-0,100
-683,524	800,000	0,024	0,071
-682,510	800,000	0,004	-0,011
-681,495	-93,857	-0,088	-0,018
-680,481	246,465	-0,116	-0,143
-679,466	800,000	-0,047	-0,148
-678,451	64,238	-0,174	-0,128
-677,437	250,174	-0,037	0,046
-676,422	729,383	-0,071	-0,140
-675,408	6,674	-0,042	0,023
-674,393	-61,119	-0,044	0,013
-673,378	269,981	0,052	-0,067
-672,364	800,000	-0,058	-0,130
-671,349	19,667	0,040	0,024
-670,335	16,564	-0,070	0,041
-669,320	434,090	-0,038	0,061
-668,305	-51,299	0,101	-0,035
-667,291	127,745	-0,050	-0,046
-666,276	8,844	-0,076	-0,042
-665,262	50,829	0,153	-0,106
-664,247	-200,000	-0,008	0,128
-663,232	52,804	-0,184	0,129
-662,218	665,735	0,059	0,112
-661,203	75,806	0,138	0,107
-660,189	150,193	0,103	-0,103
-659,174	178,724	-0,072	-0,078
-658,159	-200,000	-0,022	-0,117
-657,145	469,659	-0,096	-0,159
-656,130	57,975	0,037	0,027
-655,116	595,321	0,015	0,027
-654,101	55,086	-0,027	0,019
-653,086	-144,404	0,092	-0,006
-652,072	-200,000	-0,001	-0,076
-651,057	800,000	-0,060	-0,143
-650,043	214,264	-0,012	0,014
-649,028	92,847	-0,011	0,009
-648,014	185,355	0,115	0,125
-646,999	229,358	-0,066	-0,079
-645,984	586,206	0,045	-0,082
-644,970	-3,903	-0,079	-0,040
-643,955	-200,000	0,013	-0,144
-642,941	-200,000	-0,016	-0,172
-641,926	-132,471	-0,073	-0,007
-640,911	-139,610	0,145	-0,011
-639,897	163,799	-0,101	-0,104
-638,882	-200,000	0,007	0,090
-637,868	-83,798	-0,033	-0,008
-636,853	67,494	-0,030	-0,023
-635,838	215,445	-0,125	-0,145
-634,824	800,000	0,012	-0,027
-633,809	-0,464	0,007	-0,004
-632,795	165,308	-0,017	0,018
-631,780	365,116	0,069	0,103
-630,765	43,078	-0,205	-0,137
-629,751	-200,000	0,020	-0,088
-628,736	46,600	-0,018	0,012
-627,722	65,088	-0,130	-0,096
-626,707	55,746	-0,041	0,029
-625,692	466,189	0,085	-0,140
-624,678	89,474	0,134	0,110
-623,663	-61,994	-0,069	0,021
-622,649	-6,581	0,126	-0,063
-621,634	15,841	0,006	-0,003
-620,619	-47,131	-0,131	-0,047
-619,605	-66,107	-0,116	0,034
-618,590	32,373	0,129	0,082
-617,576	-52,171	-0,189	-0,064
-616,561	584,929	-0,028	-0,050
-615,546	140,349	-0,093	-0,090
-614,532	-200,000	0,011	-0,074
-613,517	-200,000	0,006	0,077
-612,503	-2,134	0,109	0,056
-611,488	51,680	-0,064	0,045
-610,474	478,223	-0,068	0,113
-609,459	-200,000	-0,010	0,072
-608,444	513,864	0,057	-0,098
-607,430	526,198	0,017	0,029
-606,415	163,052	-0,084	-0,087
-605,401	7,941	-0,136	-0,075
-604,386	-200,000	-0,001	-0,011
-603,371	-200,000	-0,006	-0,022
-602,357	-74,007	-0,070	-0,018
-601,342	40,508	0,157	0,103
-600,328	-200,000	-0,035	-0,151
-599,313	99,125	-0,089	-0,075
-598,298	-156,039	0,046	-0,002
-597,284	-136,520	-0,059	0,005
-596,269	6,706	-0,108	0,059
-595,255	-200,000	-0,002	0,008
-594,240	-94,589	-0,105	-0,021
-593,225	297,266	0,048	-0,065
-592,211	-85,712	-0,054	0,012
-591,196	143,972	-0,088	-0,086
-590,182	30,484	-0,086	-0,054
-589,167	-200,000	0,006	0,060
-588,152	221,218	0,020	0,024
-587,138	-17,259	0,089	-0,041
-586,123	115,148	-0,080	-0,071
-585,109	28,527	-0,047	0,029
-584,094	-53,056	-0,007	0,002
-583,079	-48,025	0,104	-0,037
-582,065	46,666	-0,107	0,073
-581,050	-92,002	0,137	0,028
-580,036	800,000	-0,044	-0,117
-579,021	-94,842	0,016	0,003
-578,006	-52,851	-0,062	0,021
-576,992	-149,525	0,134	0,008
-575,977	39,440	0,089	-0,058
-574,963	800,000	0,020	0,062
-573,948	-129,413	0,066	0,007
-572,934	-200,000	-0,016	0,084
-571,919	13,885	-0,098	0,056
-570,904	-129,462	-0,122	0,012
-569,890	-200,000	-0,013	0,045
-568,875	800,000	0,017	0,035
-567,861	120,193	-0,093	-0,085
-566,846	372,194	-0,058	0,086
-565,831	284,863	0,086	0,113
-564,817	-113,003	-0,086	-0,012
-563,802	511,313	-0,035	-0,059
-562,788	-16,053	0,058	0,027
-561,773	-55,693	-0,021	-0,007
-560,758	800,000	0,023	0,057
-559,744	-134,259	-0,034	0,003
-558,729	-147,007	-0,003	0,000
-557,715	-32,647	0,080	-0,032
-556,700	24,133	-0,188	0,113
-555,685	-49,579	0,167	-0,058
-554,671	350,515	0,030	-0,044
-553,656	300,699	0,115	0,156
-552,642	-7,921	0,139	0,068
-551,627	-54,903	0,066	0,022
-550,612	-96,946	-0,089	0,017
-549,598	-200,000	-0,027	-0,173
-548,583	217,936	0,065	-0,076
-547,569	-200,000	-0,015	0,052
-546,554	100,518	0,086	0,073
-545,539	39,009	0,180	0,117
-544,525	-200,000	0,033	0,120
-543,510	378,359	-0,021	0,031
-542,496	176,049	0,044	-0,046
-541,481	-180,935	0,123	-0,002
-540,466	-200,000	-0,039	-0,173
-539,452	352,878	-0,101	-0,147
-538,437	-126,106	0,074	0,008
-537,423	550,074	-0,040	0,071
-536,408	-200,000	-0,006	-0,022
-535,393	-4,618	-0,154	-0,077
-534,379	97,200	-0,007	0,006
-533,364	48,333	-0,034	0,024
-532,350	-119,946	0,131	0,016
-531,335	290,868	-0,020	-0,027
-530,321	-17,819	0,084	-0,038
-529,306	62,771	-0,050	0,037
-528,291	27,643	0,072	-0,044
-527,277	-58,952	-0,179	-0,056
-526,262	800,000	0,047	-0,102
-525,248	44,953	-0,079	0,053
-524,233	-133,057	0,075	0,007
-523,218	-200,000	-0,023	0,082
-522,204	-200,000	-0,006	0,052
-521,189	-134,559	-0,047	0,004
-520,175	-200,000	0,009	-0,032
-519,160	-107,650	-0,115	-0,018
-518,145	-200,000	-0,003	-0,061
-517,131	800,000	0,048	-0,145
-516,116	-175,428	0,115	0,002
-515,102	-30,587	0,107	0,044
-514,087	-200,000	0,003	-0,128
-513,072	-200,000	0,004	0,051
-512,058	367,134	0,054	0,080
-511,043	-61,149	0,099	-0,030
-510,029	108,134	-0,053	0,047
-509,014	-92,253	0,113	-0,023
-507,999	-158,318	0,023	0,001
-506,985	28,749	0,058	-0,036
-505,970	28,069	-0,092	-0,057
-504,956	-200,000	0,023	-0,172
-503,941	-126,492	0,023	0,002
-502,926	6,934	0,071	0,038
-501,912	227,483	0,107	0,128
-500,897	-30,194	0,059	-0,024
-499,883	-200,000	-0,005	-0,042
-498,868	-200,000	0,002	-0,010
-497,853	800,000	0,017	-0,051
-496,839	-66,809	-0,076	-0,022
-495,824	173,930	-0,156	0,164
-494,810	-7,169	0,038	0,019
-493,795	405,493	-0,050	0,078
-492,781	144,110	0,027	0,026
-491,766	-200,000	-0,021	-0,089
-490,751	-76,790	-0,133	0,034
-489,737	-200,000	0,010	-0,037
-488,722	-200,000	-0,011	0,084
-487,708	-34,925	0,059	0,023
-486,693	800,000	-0,020	-0,056
-485,678	-102,637	-0,099	0,017
-484,664	181,848	-0,089	-0,095
-483,649	6,338	0,116	-0,063
-482,635	19,915	0,134	0,078
-481,620	-64,525	-0,070	0,020
-480,605	-175,519	-0,046	-0,001
-479,591	420,120	0,037	0,058
-478,576	-74,099	-0,151	0,039
-477,562	-116,586	0,012	-0,002
-476,547	-200,000	-0,053	-0,194
-475,532	-95,218	0,148	-0,029
-474,518	-105,266	0,207	0,034
-473,503	340,753	0,034	0,049
-472,489	-47,411	-0,055	-0,019
-471,474	17,473	-0,078	0,045
-470,459	322,685	-0,110	0,154
-469,445	52,220	0,079	-0,055
-468,430	-65,200	0,018	-0,005
-467,416	214,078	-0,007	-0,008
-466,401	139,004	0,139	0,133
-465,386	104,313	-0,037	-0,032
-464,372	-200,000	-0,002	0,158
-463,357	-200,000	-0,002	-0,125
-462,343	195,842	0,010	-0,011
-461,328	-82,802	-0,090	-0,021
-460,313	202,643	0,130	0,147
-459,299	-144,427	0,062	-0,004
-458,284	-200,000	0,002	0,050
-457,270	36,528	-0,053	-0,034
-456,255	543,935	-0,001	-0,002
-455,241	47,386	-0,046	-0,031
-454,226	184,911	0,058	0,062
-453,211	-200,000	-0,005	-0,134
-452,197	-15,570	0,083	-0,038
-451,182	-109,374	0,065	0,010
-450,168	-200,000	-0,021	-0,082
-449,153	48,291	0,044	-0,030
-448,138	-200,000	0,026	-0,084
-447,124	-200,000	0,008	0,061
-446,109	-166,003	0,020	0,001
-445,095	-6,840	0,086	0,042
-444,080	128,234	0,116	0,108
-443,065	-38,641	-0,103	-0,039
-442,051	227,459	-0,039	0,046
-441,036	800,000	-0,023	-0,067
-440,022	63,061	0,103	-0,075
-439,007	226,755	0,068	-0,081
-437,992	70,612	0,083	0,062
-436,978	97,925	-0,047	0,039
-435,963	-200,000	0,025	0,131
-434,949	800,000	-0,035	-0,100
-433,934	800,000	0,058	0,121
-432,919	-200,000	0,000	-0,034
-431,905	31,876	0,129	0,081
-430,890	-145,797	0,162	0,010
-429,876	-200,000	0,001	0,075
-428,861	181,817	0,028	0,030
-427,846	-200,000	-0,011	0,104
-426,832	412,490	-0,025	-0,039
-425,817	488,199	-0,043	0,071
-424,803	-200,000	-0,004	0,049
-423,788	800,000	-0,053	-0,128
-422,773	-200,000	-0,001	-0,038
-421,759	-32,322	-0,108	0,044
-420,744	8,516	-0,042	-0,023
-419,730	83,637	-0,050	0,039
-418,715	-39,586	-0,061	-0,023
-417,701	26,403	-0,062	-0,038
-416,686	229,107	-0,068	-0,081
-415,671	-200,000	0,013	-0,054
-414,657	-105,116	-0,160	-0,026
-413,642	648,052	-0,023	0,043
-412,628	-200,000	0,014	0,055
-411,613	23,229	-0,102	-0,061
-410,598	394,357	-0,038	-0,057
-409,584	-105,925	0,078	-0,013
-408,569	225,881	0,092	0,109
-407,555	-200,000	0,009	0,039
-406,540	-175,026	0,051	-0,001
-405,525	93,599	-0,090	-0,074
-404,511	800,000	-0,035	-0,093
-403,496	230,665	-0,031	-0,037
-402,482	424,760	0,052	0,082
-401,467	148,056	-0,035	0,034
-400,452	-134,528	-0,056	-0,005
-399,438	800,000	-0,018	-0,049
-398,423	392,798	-0,042	0,063
-397,409	-129,667	0,036	0,004
-396,394	-44,929	0,111	-0,040
-395,379	-26,747	-0,064	0,027
-394,365	-200,000	0,012	0,097
-393,350	243,839	-0,054	0,065
-392,336	246,462	-0,042	0,051
-391,321	800,000	0,049	0,147
-390,306	-30,063	-0,016	-0,007
-389,292	296,091	-0,105	-0,140
-388,277	-200,000	-0,013	-0,054
-387,263	-200,000	0,000	0,065
-386,248	-51,053	0,024	-0,008
-385,233	225,040	0,049	-0,057
-384,219	39,708	0,058	0,037
-383,204	-200,000	-0,012	-0,057
-382,190	800,000	-0,025	-0,078
-381,175	-75,029	0,027	-0,007
-380,160	-200,000	0,030	-0,112
-379,146	250,972	-0,049	0,060
-378,131	-200,000	-0,008	0,162
-377,117	265,786	-0,045	-0,058
-376,102	333,502	0,029	0,041
-375,088	-165,206	-0,080	-0,003
-374,073	-36,775	0,114	0,044
-373,058	-200,000	-0,015	0,093
-372,044	124,777	0,067	0,062
-371,029	-94,127	0,068	0,013
-370,015	67,233	0,055	0,041
-369,000	19,285	0,060	0,035
-367,985	163,809	-0,011	-0,012
-366,971	-68,829	-0,086	-0,024
-365,956	345,903	-0,053	0,075
-364,942	-200,000	0,007	-0,045
-363,927	800,000	-0,029	0,068
-362,912	369,303	-0,133	-0,196
-361,898	-80,838	-0,081	0,019
-360,883	369,291	-0,109	0,161
-359,869	800,000	-0,022	0,070
-358,854	-64,873	-0,100	0,029
-357,839	-161,456	0,163	-0,006
-356,825	32,266	-0,099	0,062
-355,810	-66,830	0,092	0,026
-354,796	36,450	-0,191	0,122
-353,781	-75,014	0,068	0,017
-352,766	800,000	0,062	-0,129
-351,752	-200,000	0,032	-0,105
-350,737	800,000	0,014	0,035
-349,723	-200,000	-0,009	0,109
-348,708	70,732	0,030	0,023
-347,693	-7,149	-0,098	0,048
-346,679	-200,000	0,015	-0,100
-345,664	736,492	-0,047	-0,093
-344,650	-80,268	0,055	-0,013
-343,635	-23,116	0,031	0,014
-342,620	-103,744	0,022	0,004
-341,606	117,941	-0,137	-0,123
-340,591	28,348	-0,009	0,006
-339,577	800,000	-0,005	-0,014
-338,562	-200,000	0,018	-0,121
-337,548	267,442	0,057	0,073
-336,533	66,185	0,104	0,077
-335,518	166,305	0,060	0,062
-334,504	-200,000	-0,014	-0,095
-333,489	2,182	0,106	-0,055
-332,475	-4,089	-0,076	-0,038
-331,460	-76,798	-0,103	0,026
-330,445	800,000	-0,067	0,136
-329,431	-43,826	0,090	0,033
-328,416	78,041	0,145	-0,112
-327,402	-34,244	0,031	-0,012
-326,387	464,125	-0,020	-0,033
-325,372	-200,000	-0,004	0,025
-324,358	-158,805	-0,132	0,005
-323,343	144,720	-0,021	0,021
-322,329	-200,000	0,007	0,043
-321,314	85,356	0,080	0,064
-320,299	-59,920	-0,121	-0,037
-319,285	329,140	0,045	0,063
-318,270	-8,404	0,033	0,016
-317,256	-28,312	-0,043	-0,018
-316,241	394,859	0,017	0,026
-315,226	-126,483	0,070	0,007
-314,212	800,000	0,022	0,066
-313,197	-23,963	-0,072	0,031
-312,183	-134,928	-0,042	-0,004
-311,168	153,512	-0,105	0,104
-310,153	-91,052	0,081	-0,017
-309,139	-37,924	-0,062	-0,024
-308,124	-200,000	-0,011	-0,136
-307,110	-200,000	0,013	-0,062
-306,095	-4,004	0,061	-0,031
-305,080	91,920	-0,025	0,020
-304,066	3,118	-0,100	-0,052
-303,051	-200,000	-0,033	-0,110
-302,037	800,000	0,006	0,016
-301,022	234,500	0,057	-0,069
-300,008	86,033	0,057	0,045
-298,993	22,018	-0,048	-0,028
-297,978	-82,367	0,073	0,017
-296,964	35,038	0,036	-0,023
-295,949	800,000	-0,042	-0,096
-294,935	179,493	-0,040	0,043
-293,920	-7,724	0,117	-0,057
-292,905	800,000	-0,015	-0,038
-291,891	-200,000	-0,009	-0,062
-290,876	-106,505	0,096	0,015
-289,862	28,937	-0,070	-0,043
-288,847	800,000	0,043	-0,109
-287,832	93,584	0,027	0,022
-286,818	159,591	0,069	-0,070
-285,803	800,000	0,032	0,079
-284,789	-49,166	0,179	0,062
-283,774	-63,329	0,128	-0,038
-282,759	-24,275	-0,212	0,091
-281,745	19,962	0,077	0,045
-280,730	800,000	0,033	0,091
-279,716	-55,699	0,096	-0,031
-278,701	-200,000	-0,013	0,078
-277,686	800,000	0,042	0,089
-276,672	243,246	-0,097	-0,118
-275,657	-5,029	0,095	-0,047
-274,643	-154,088	-0,182	-0,009
-273,628	-73,146	0,093	0,024
-272,613	-105,902	0,075	0,012
-271,599	231,671	0,051	0,061
-270,584	99,609	0,069	-0,058
-269,570	800,000	0,067	0,148
-268,555	-82,313	0,070	-0,016
-267,540	-55,724	-0,117	-0,038
-266,526	800,000	0,075	-0,164
-265,511	311,438	-0,018	-0,024
-264,497	64,886	0,018	-0,013
-263,482	-88,384	0,128	0,028
-262,467	-200,000	-0,039	0,166
-261,453	-200,000	0,009	-0,077
-260,438	-65,085	-0,107	0,031
-259,424	-46,998	0,128	0,045
-258,409	-64,912	-0,078	0,023
-257,395	800,000	0,089	-0,189
-256,380	-125,932	0,045	0,005
-255,365	-80,379	0,073	0,018
-254,351	206,941	0,082	0,093
-253,336	565,188	-0,065	0,115
-252,322	-200,000	-0,004	-0,115
-251,307	-200,000	0,014	-0,194
-250,292	-41,182	-0,071	-0,026
-249,278	-200,000	0,026	-0,101
-248,263	184,296	0,101	0,108
-247,249	-115,257	-0,010	0,001
-246,234	224,346	-0,090	-0,105
-245,219	-200,000	0,012	0,046
-244,205	-6,848	-0,109	0,053
-243,190	-85,375	0,124	0,028
-242,176	-200,000	0,028	0,114
-241,161	770,903	-0,072	-0,143
-240,146	-142,623	0,038	0,003
-239,132	80,077	-0,109	0,085
-238,117	699,175	0,014	-0,027
-237,103	-162,556	-0,103	-0,004
-236,088	-200,000	-0,004	-0,045
-235,073	800,000	-0,031	0,093
-234,059	-10,314	-0,025	0,012
-233,044	108,163	-0,050	-0,043
-232,030	-200,000	-0,019	0,109
-231,015	-200,000	0,008	0,105
-230,000	560,334	-0,051	-0,089
-228,986	-200,000	-0,019	-0,074
-227,971	34,722	0,090	-0,056
-226,957	-100,330	0,207	-0,037
-225,942	16,947	-0,050	0,028
-224,927	800,000	-0,060	0,139
-223,913	800,000	0,044	-0,090
-222,898	305,237	-0,093	-0,125
-221,884	-200,000	-0,030	0,163
-220,869	-200,000	0,003	0,063
-219,855	-200,000	0,018	0,097
-218,840	53,980	-0,072	-0,050
-217,825	1,341	-0,008	-0,004
-216,811	551,744	0,052	0,090
-215,796	-29,556	-0,128	0,052
-214,782	260,271	0,040	0,051
-213,767	800,000	0,058	0,159
-212,752	800,000	0,052	0,125
-211,738	-200,000	-0,026	0,115
-210,723	-53,389	0,047	-0,016
-209,709	-124,112	-0,128	0,014
-208,694	-200,000	0,005	-0,054
-207,679	-192,153	-0,044	0,000
-206,665	-160,257	0,056	0,002
-205,650	-63,400	-0,050	-0,015
-204,636	9,578	0,030	0,016
-203,621	-191,976	-0,132	-0,001
-202,606	-164,176	-0,141	0,005
-201,592	-54,494	0,135	-0,044
-200,577	-164,557	0,048	-0,002
-199,563	-73,899	0,133	-0,034
-198,548	74,396	-0,015	-0,011
-197,533	221,878	0,057	0,066
-196,519	689,933	0,021	-0,040
-195,504	-142,588	-0,111	0,008
-194,490	-200,000	-0,028	-0,237
-193,475	-53,326	-0,168	-0,055
-192,460	-200,000	0,029	0,140
-191,446	-9,851	0,031	0,015
-190,431	800,000	-0,011	0,032
-189,417	-55,843	0,052	-0,017
-188,402	357,761	0,047	-0,068
-187,387	-45,038	-0,030	0,011
-186,373	254,404	0,043	0,054
-185,358	-80,743	0,145	-0,034
-184,344	267,641	0,076	-0,096
-183,329	252,883	0,008	-0,010
-182,315	165,512	-0,049	0,050
-181,300	93,625	-0,042	-0,034
-180,285	-200,000	-0,015	0,094
-179,271	687,998	0,022	0,041
-178,256	-114,565	0,130	0,018
-177,242	666,589	0,016	0,030
-176,227	-166,466	-0,104	-0,003
-175,212	-200,000	0,007	0,047
-174,198	-26,323	-0,059	-0,025
-173,183	-170,984	0,019	-0,000
-172,169	116,267	0,102	-0,090
-171,154	-200,000	-0,005	-0,113
-170,139	165,652	-0,053	-0,054
-169,125	-200,000	-0,002	0,047
-168,110	-103,625	-0,060	0,010
-167,096	-200,000	0,001	-0,113
-166,081	-68,045	-0,086	-0,024
-165,066	800,000	0,016	-0,044
-164,052	-152,570	-0,048	0,002
-163,037	288,553	-0,051	-0,067
-162,023	29,102	0,096	0,058
-161,008	114,025	0,072	0,063
-159,993	664,001	-0,040	0,074
-158,979	-102,830	-0,207	-0,035
-157,964	461,465	0,036	0,058
-156,950	33,239	0,002	-0,001
-155,935	227,043	-0,055	0,065
-154,920	25,208	0,023	0,013
-153,906	339,529	0,089	0,126
-152,891	800,000	-0,034	0,082
-151,877	-200,000	-0,013	-0,104
-150,862	-148,961	-0,197	-0,011
-149,847	6,171	-0,024	0,013
-148,833	-200,000	0,007	0,094
-147,818	528,858	-0,025	0,043
-146,804	-183,395	-0,033	0,000
-145,789	-200,000	0,013	0,161
-144,775	65,710	0,073	-0,053
-143,760	-127,260	-0,122	-0,013
-142,745	-200,000	-0,001	0,066
-141,731	-166,245	0,041	-0,001
-140,716	-72,082	0,060	-0,016
-139,702	56,788	-0,026	0,018
-138,687	-200,000	-0,028	-0,117
-137,672	-87,338	0,122	0,026
-136,658	-200,000	0,001	-0,040
-135,643	-200,000	-0,023	-0,109
-134,629	-80,987	0,187	-0,044
-133,614	-200,000	0,019	0,175
-132,599	148,586	0,114	0,111
-131,585	-100,938	-0,042	0,007
-130,570	-127,758	-0,058	0,006
-129,556	-27,667	0,033	0,014
-128,541	-200,000	-0,002	-0,041
-127,526	-19,397	0,084	-0,037
-126,512	-200,000	-0,009	-0,073
-125,497	-166,445	-0,041	-0,001
-124,483	-56,919	-0,099	0,031
-123,468	-107,285	-0,053	0,008
-122,453	800,000	0,031	0,088
-121,439	-35,357	0,019	-0,007
-120,424	102,939	-0,066	0,055
-119,410	200,416	-0,059	-0,065
-118,395	800,000	0,022	0,049
