DTS Sentinel unit serial number:	SN410029Multiplexer serial number:	ORYXHardware model number:	OX2-SRSoftware version number:	ORYX F/W v4,00 Oryx Data Collector v3.7.2.0data status	okinstallation	B5 Nyhavnadifferential loss correction	single-endedforward channel	channel 2reverse channel	N/Adate	2023/12/13time	19:52:13forward acquisition time	300,00reverse acquisition time	0,00gamma	499,1914k internal	0,3159k external	0,3159temperature offset calibration	1,0000default loss term (dB/km)	0,3820temperature slope calibration	1,0000multiplexer offset coefficient	1,0000multiplexer slope coefficient	1,0000fibre end	0,00T internal ref (°C)	11,32T ext. ref 1 (°C)	-5,79T ext. ref 2 (°C)	-5,85length (m)	temperature (°C)	Stokes	anti-Stokes-744,400	338,648	0,012	0,018
-743,385	-20,635	-0,285	-0,128
-742,371	176,486	0,198	0,212
-741,356	-107,698	-0,265	-0,042
-740,342	100,883	0,081	0,070
-739,327	-82,940	-0,334	-0,079
-738,312	-72,049	0,096	0,026
-737,298	-63,409	-0,252	-0,076
-736,283	324,392	0,141	0,199
-735,269	-107,595	-0,333	0,053
-734,254	153,674	0,119	0,120
-733,239	-35,819	-0,472	-0,187
-732,225	-83,390	0,281	0,066
-731,210	263,666	-0,073	0,093
-730,196	-200,000	0,014	0,057
-729,181	-200,000	-0,031	-0,135
-728,167	7,757	0,088	-0,049
-727,152	-200,000	-0,006	-0,054
-726,137	-200,000	-0,015	-0,081
-725,123	-91,045	-0,114	-0,024
-724,108	-45,562	-0,071	-0,026
-723,094	800,000	-0,051	-0,111
-722,079	40,044	-0,047	0,031
-721,064	504,189	0,009	0,016
-720,050	271,120	-0,027	-0,036
-719,035	-200,000	0,028	-0,121
-718,021	131,139	-0,074	0,070
-717,006	107,901	-0,145	0,127
-715,991	461,986	-0,053	-0,088
-714,977	800,000	-0,012	-0,034
-713,962	2,392	-0,074	-0,039
-712,948	228,778	0,020	0,024
-711,933	-19,982	-0,076	0,034
-710,918	-73,089	-0,072	0,019
-709,904	-104,876	-0,036	-0,006
-708,889	101,568	-0,069	-0,059
-707,875	139,049	0,046	-0,044
-706,860	-143,161	0,167	-0,012
-705,845	-131,789	-0,114	-0,011
-704,831	28,841	-0,035	0,022
-703,816	-200,000	-0,015	-0,061
-702,802	135,348	0,072	-0,069
-701,787	-13,975	-0,127	0,060
-700,772	112,844	0,040	0,036
-699,758	800,000	0,017	-0,041
-698,743	-76,175	0,071	-0,018
-697,729	177,547	0,061	-0,066
-696,714	130,677	-0,049	-0,046
-695,699	55,908	0,036	-0,026
-694,685	800,000	-0,065	-0,163
-693,670	340,610	0,058	-0,084
-692,656	190,998	0,107	-0,118
-691,641	800,000	0,062	0,130
-690,627	-63,315	-0,048	-0,014
-689,612	120,432	-0,006	-0,006
-688,597	253,614	-0,040	0,050
-687,583	664,794	-0,124	-0,237
-686,568	130,815	-0,057	-0,054
-685,554	-200,000	-0,021	-0,102
-684,539	-200,000	-0,019	0,105
-683,524	-200,000	0,004	0,086
-682,510	130,552	0,014	0,013
-681,495	88,713	-0,026	-0,021
-680,481	17,986	0,115	-0,067
-679,466	-12,594	-0,058	-0,028
-678,451	449,637	0,067	-0,109
-677,437	73,108	-0,051	-0,039
-676,422	273,698	0,095	-0,123
-675,408	89,237	-0,112	-0,091
-674,393	800,000	-0,036	-0,088
-673,378	-67,030	0,052	0,015
-672,364	141,186	-0,102	-0,099
-671,349	175,286	-0,152	-0,163
-670,335	800,000	-0,008	0,022
-669,320	-200,000	0,006	-0,110
-668,305	800,000	-0,062	0,138
-667,291	800,000	-0,028	0,068
-666,276	179,002	0,032	-0,034
-665,262	336,084	0,086	-0,123
-664,247	695,409	-0,049	0,095
-663,232	800,000	-0,031	0,066
-662,218	126,449	0,010	0,009
-661,203	419,023	0,044	0,070
-660,189	160,029	0,145	0,148
-659,174	-200,000	-0,024	-0,112
-658,159	344,833	-0,075	-0,109
-657,145	-10,133	-0,142	-0,069
-656,130	19,146	-0,104	-0,061
-655,116	800,000	0,059	-0,156
-654,101	89,130	0,135	-0,110
-653,086	90,879	0,074	0,061
-652,072	800,000	0,058	-0,119
-651,057	-200,000	0,018	-0,082
-650,043	741,241	0,039	-0,078
-649,028	-200,000	0,011	-0,072
-648,014	277,960	0,064	0,083
-646,999	161,894	0,033	0,034
-645,984	-4,227	0,030	-0,015
-644,970	444,864	-0,081	-0,131
-643,955	24,549	0,103	-0,063
-642,941	43,484	0,086	0,058
-641,926	134,565	0,040	-0,038
-640,911	257,587	0,078	-0,099
-639,897	-200,000	0,012	0,087
-638,882	427,249	0,024	-0,038
-637,868	175,257	-0,104	-0,111
-636,853	213,959	0,122	-0,142
-635,838	-200,000	-0,033	-0,158
-634,824	-75,683	-0,056	-0,014
-633,809	-200,000	0,010	0,074
-632,795	-34,593	-0,109	0,044
-631,780	-22,597	0,069	-0,030
-630,765	-22,960	-0,112	0,049
-629,751	-200,000	0,028	0,120
-628,736	125,167	-0,033	-0,031
-627,722	286,223	0,004	0,005
-626,707	98,286	-0,055	0,046
-625,692	29,796	0,029	-0,018
-624,678	6,736	0,044	0,024
-623,663	-200,000	-0,021	-0,096
-622,649	171,966	-0,053	-0,056
-621,634	10,260	-0,137	-0,076
-620,619	-35,341	-0,133	-0,053
-619,605	800,000	-0,024	-0,074
-618,590	415,075	0,079	-0,124
-617,576	-200,000	-0,009	0,060
-616,561	-134,357	-0,196	0,017
-615,546	632,403	-0,034	-0,063
-614,532	92,672	-0,181	-0,150
-613,517	-134,771	0,126	-0,011
-612,503	103,274	0,119	-0,102
-611,488	64,000	-0,083	-0,061
-610,474	-200,000	-0,011	-0,049
-609,459	-200,000	0,015	-0,138
-608,444	42,787	-0,121	0,081
-607,430	800,000	0,012	-0,038
-606,415	-200,000	-0,011	-0,059
-605,401	-200,000	0,001	0,021
-604,386	189,135	0,095	-0,105
-603,371	-200,000	-0,006	0,085
-602,357	-15,430	0,065	0,030
-601,342	25,054	-0,085	-0,051
-600,328	-200,000	0,001	-0,014
-599,313	-200,000	-0,006	-0,129
-598,298	-115,774	-0,022	-0,003
-597,284	-80,487	-0,082	-0,020
-596,269	295,361	-0,055	-0,074
-595,255	800,000	-0,042	0,094
-594,240	-200,000	-0,007	0,245
-593,225	-200,000	0,014	-0,051
-592,211	-108,270	-0,147	-0,023
-591,196	185,022	-0,019	0,021
-590,182	19,137	0,057	-0,033
-589,167	765,055	0,048	0,097
-588,152	110,685	0,049	0,043
-587,138	29,681	-0,236	0,147
-586,123	-47,800	-0,044	0,016
-585,109	128,518	0,020	0,018
-584,094	-200,000	0,007	-0,022
-583,079	30,829	-0,024	0,015
-582,065	334,517	-0,015	0,022
-581,050	-200,000	0,010	-0,151
-580,036	-125,221	-0,029	-0,003
-579,021	544,346	-0,027	0,048
-578,006	-151,098	-0,089	0,005
-576,992	-200,000	0,011	-0,096
-575,977	-118,182	0,173	-0,022
-574,963	13,236	0,087	0,049
-573,948	333,537	0,032	0,046
-572,934	35,831	-0,102	0,066
-571,919	-200,000	0,019	-0,141
-570,904	526,146	0,066	-0,115
-569,890	800,000	-0,011	0,024
-568,875	255,908	-0,074	0,093
-567,861	555,848	0,047	0,084
-566,846	-200,000	0,013	0,073
-565,831	141,778	0,051	0,049
-564,817	-200,000	0,001	0,051
-563,802	561,773	-0,028	-0,049
-562,788	-56,937	-0,130	-0,042
-561,773	-38,139	0,295	-0,114
-560,758	-172,995	0,162	-0,004
-559,744	-200,000	-0,028	0,148
-558,729	303,567	-0,046	0,062
-557,715	218,269	0,082	-0,096
-556,700	800,000	0,032	0,074
-555,685	491,909	0,067	-0,113
-554,671	777,817	0,073	0,147
-553,656	-200,000	0,007	-0,079
-552,642	800,000	0,023	0,047
-551,627	-3,788	0,015	0,008
-550,612	-88,354	-0,034	0,007
-549,598	-118,712	-0,043	-0,005
-548,583	-200,000	-0,012	0,078
-547,569	-4,896	-0,105	-0,053
-546,554	-147,549	0,042	0,003
-545,539	202,011	-0,062	-0,070
-544,525	-14,569	-0,071	-0,033
-543,510	-10,500	-0,095	0,046
-542,496	-200,000	-0,001	0,144
-541,481	-83,542	-0,087	0,020
-540,466	318,977	0,033	-0,046
-539,452	-53,444	-0,032	-0,010
-538,437	-150,735	0,090	0,005
-537,423	41,667	0,105	0,069
-536,408	52,410	-0,019	0,013
-535,393	-19,388	-0,032	-0,014
-534,379	-200,000	-0,015	0,079
-533,364	-47,676	-0,100	-0,035
-532,350	90,212	0,131	-0,107
-531,335	-5,989	0,148	0,074
-530,321	477,019	0,034	0,057
-529,306	-200,000	0,026	0,141
-528,291	130,713	-0,019	-0,017
-527,277	-200,000	-0,039	-0,140
-526,262	-85,566	0,081	0,018
-525,248	0,061	0,153	0,079
-524,233	-128,958	-0,119	0,012
-523,218	424,485	-0,062	0,098
-522,204	252,118	0,070	-0,087
-521,189	326,406	-0,049	0,069
-520,175	68,891	-0,105	-0,079
-519,160	-117,827	0,078	-0,010
-518,145	55,820	0,065	-0,046
-517,131	-200,000	0,028	0,099
-516,116	-200,000	0,006	0,067
-515,102	800,000	0,041	0,123
-514,087	-200,000	0,018	-0,080
-513,072	-148,234	-0,176	0,010
-512,058	-196,384	0,051	-0,000
-511,043	301,325	0,050	-0,068
-510,029	127,752	0,051	-0,047
-509,014	90,101	-0,059	0,048
-507,999	-164,933	-0,141	0,005
-506,985	82,459	-0,029	-0,023
-505,970	-188,694	-0,170	0,001
-504,956	87,118	-0,082	-0,066
-503,941	19,505	0,157	-0,092
-502,926	-131,812	0,121	0,011
-501,912	-96,649	0,110	0,021
-500,897	25,469	-0,085	-0,052
-499,883	-200,000	0,029	-0,121
-498,868	800,000	0,063	-0,197
-497,853	-93,116	-0,162	-0,033
-496,839	235,044	0,055	0,066
-495,824	9,268	0,131	-0,072
-494,810	38,175	0,101	0,065
-493,795	800,000	0,029	0,065
-492,781	800,000	0,067	-0,156
-491,766	-200,000	0,019	-0,063
-490,751	-37,053	0,042	0,016
-489,737	171,023	-0,051	-0,053
-488,722	545,683	0,063	0,110
-487,708	-121,007	0,013	-0,002
-486,693	-200,000	-0,022	-0,157
-485,678	35,185	-0,015	-0,010
-484,664	-97,791	-0,081	-0,015
-483,649	-75,370	-0,203	-0,052
-482,635	-88,826	-0,113	-0,024
-481,620	-98,852	0,057	0,011
-480,605	-35,679	0,043	0,017
-479,591	-200,000	-0,030	0,119
-478,576	-113,355	-0,049	0,007
-477,562	52,472	-0,059	-0,041
-476,547	-200,000	0,000	-0,084
-475,532	-200,000	0,048	-0,165
-474,518	64,635	0,065	-0,048
-473,503	-90,033	0,121	0,026
-472,489	162,615	0,065	-0,067
-471,474	112,585	0,130	-0,115
-470,459	125,575	-0,039	-0,036
-469,445	312,345	0,108	0,149
-468,430	-37,768	-0,109	-0,042
-467,416	48,689	-0,130	0,089
-466,401	16,185	0,143	-0,082
-465,386	-37,403	-0,028	0,011
-464,372	800,000	-0,053	0,170
-463,357	-111,978	0,055	-0,008
-462,343	800,000	-0,031	0,064
-461,328	-200,000	-0,028	0,098
-460,313	-12,432	-0,083	-0,040
-459,299	-94,817	0,193	0,038
-458,284	800,000	-0,010	0,023
-457,270	-200,000	-0,009	0,077
-456,255	136,868	0,051	-0,049
-455,241	106,762	-0,084	-0,072
-454,226	29,225	-0,089	-0,055
-453,211	324,039	0,032	-0,045
-452,197	-169,475	-0,123	0,003
-451,182	102,580	0,139	0,118
-450,168	450,721	0,054	-0,086
-449,153	-126,430	-0,100	-0,011
-448,138	-102,799	-0,026	-0,004
-447,124	413,841	0,024	0,037
-446,109	-24,456	-0,016	0,007
-445,095	-86,724	0,093	0,021
-444,080	150,861	-0,023	-0,023
-443,065	247,542	-0,059	-0,072
-442,051	63,174	0,086	-0,063
-441,036	266,924	-0,069	-0,087
-440,022	-200,000	-0,004	0,017
-439,007	-112,766	0,007	0,001
-437,992	-200,000	0,027	-0,116
-436,978	111,114	0,130	0,114
-435,963	-80,096	0,093	0,022
-434,949	370,706	-0,077	0,114
-433,934	572,775	-0,061	-0,109
-432,919	-200,000	0,085	0,000
-431,905	-159,426	-0,040	0,002
-430,890	29,157	-0,076	-0,047
-429,876	-138,858	0,086	-0,007
-428,861	424,764	0,102	0,160
-427,846	-78,698	-0,124	-0,030
-426,832	-3,407	-0,016	-0,008
-425,817	562,583	-0,063	-0,111
-424,803	-75,934	0,096	-0,025
-423,788	-108,273	0,040	-0,006
-422,773	-200,000	0,018	0,175
-421,759	-94,261	-0,081	0,016
-420,744	-112,372	0,157	-0,023
-419,730	-200,000	-0,006	0,055
-418,715	-46,828	0,084	0,030
-417,701	212,896	0,021	-0,024
-416,686	-200,000	-0,016	0,059
-415,671	30,035	-0,068	0,042
-414,657	-72,016	-0,065	0,018
-413,642	169,661	-0,046	-0,047
-412,628	88,141	0,031	-0,025
-411,613	-84,995	0,178	0,040
-410,598	-200,000	0,028	-0,164
-409,584	-129,357	0,068	-0,007
-408,569	800,000	0,025	-0,052
-407,555	-200,000	0,011	-0,057
-406,540	-72,200	-0,048	0,013
-405,525	330,103	-0,026	0,037
-404,511	-186,731	-0,051	0,001
-403,496	55,667	-0,101	-0,071
-402,482	67,549	-0,049	-0,037
-401,467	-71,657	0,113	-0,031
-400,452	268,981	-0,047	0,060
-399,438	800,000	0,045	0,116
-398,423	-93,130	-0,092	-0,018
-397,409	-7,613	0,087	0,042
-396,394	42,097	0,059	0,039
-395,379	579,487	0,050	0,090
-394,365	-106,886	0,160	0,026
-393,350	408,005	0,056	0,087
-392,336	-81,916	-0,057	-0,014
-391,321	113,330	-0,112	-0,098
-390,306	70,463	-0,119	-0,089
-389,292	-200,000	0,020	-0,111
-388,277	12,150	0,047	0,026
-387,263	-200,000	-0,005	0,077
-386,248	-200,000	0,024	0,083
-385,233	231,901	-0,041	0,050
-384,219	-106,507	-0,047	-0,008
-383,204	-200,000	-0,007	-0,052
-382,190	-200,000	-0,034	-0,185
-381,175	20,638	-0,029	-0,017
-380,160	27,452	0,051	-0,031
-379,146	-36,356	0,103	-0,040
-378,131	-200,000	0,059	0,195
-377,117	82,730	-0,098	0,078
-376,102	-65,090	0,077	0,022
-375,088	-200,000	0,028	0,132
-374,073	262,948	0,036	-0,045
-373,058	-121,057	-0,121	0,015
-372,044	648,509	0,071	-0,133
-371,029	-200,000	0,007	-0,048
-370,015	69,566	0,046	-0,034
-369,000	-50,264	0,051	0,017
-367,985	-161,236	-0,081	0,003
-366,971	-200,000	0,025	-0,112
-365,956	800,000	-0,065	-0,145
-364,942	-17,292	0,093	0,042
-363,927	-200,000	0,004	0,050
-362,912	-200,000	-0,012	0,065
-361,898	-44,336	0,026	0,009
-360,883	63,255	0,086	-0,062
-359,869	-79,943	0,057	0,014
-358,854	5,849	0,081	-0,044
-357,839	-25,214	0,023	-0,010
-356,825	476,784	-0,058	0,096
-355,810	76,013	-0,073	0,056
-354,796	-75,809	-0,139	-0,036
-353,781	800,000	0,016	0,035
-352,766	49,603	-0,063	-0,043
-351,752	174,173	0,083	-0,087
-350,737	433,482	0,053	0,083
-349,723	485,571	0,057	0,095
-348,708	-200,000	0,017	0,093
-347,693	-200,000	0,027	0,180
-346,679	432,780	0,087	-0,137
-345,664	-200,000	0,011	0,043
-344,650	-200,000	0,014	-0,128
-343,635	-174,486	-0,039	-0,001
-342,620	-200,000	0,023	0,143
-341,606	-200,000	0,018	0,087
-340,591	138,606	0,120	-0,115
-339,577	-200,000	0,000	0,114
-338,562	-36,873	0,147	0,057
-337,548	-200,000	-0,004	-0,088
-336,533	348,316	-0,050	0,072
-335,518	-200,000	-0,009	0,035
-334,504	-200,000	0,010	0,094
-333,489	-200,000	-0,010	0,035
-332,475	-150,290	-0,162	0,009
-331,460	341,934	-0,039	-0,056
-330,445	359,332	-0,077	-0,111
-329,431	-144,057	0,075	-0,005
-328,416	-200,000	-0,030	0,118
-327,402	-200,000	-0,025	0,125
-326,387	-115,792	0,211	0,028
-325,372	-46,499	-0,033	-0,012
-324,358	-200,000	-0,015	0,123
-323,343	-26,473	0,078	0,033
-322,329	-161,358	0,095	-0,003
-321,314	602,946	0,040	0,072
-320,299	127,971	0,080	-0,073
-319,285	-119,757	0,034	-0,004
-318,270	53,705	0,026	-0,018
-317,256	800,000	0,029	0,075
-316,241	-200,000	-0,027	-0,087
-315,226	137,064	-0,048	0,046
-314,212	230,956	0,030	0,036
-313,197	-200,000	-0,004	0,044
-312,183	14,761	-0,044	0,025
-311,168	-200,000	0,044	0,000
-310,153	-200,000	0,016	-0,100
-309,139	-49,013	0,021	-0,007
-308,124	-200,000	-0,023	-0,099
-307,110	800,000	0,006	-0,016
-306,095	-147,997	-0,056	0,003
-305,080	753,695	-0,090	0,176
-304,066	-200,000	0,051	-0,204
-303,051	-200,000	-0,014	0,061
-302,037	460,390	-0,082	-0,133
-301,022	31,058	-0,055	0,034
-300,008	45,690	0,073	-0,049
-298,993	6,531	-0,073	0,039
-297,978	-173,722	0,063	-0,001
-296,964	-200,000	-0,025	-0,102
-295,949	-5,949	-0,108	-0,053
-294,935	-175,118	-0,086	0,002
-293,920	547,619	-0,042	0,074
-292,905	606,004	0,043	-0,079
-291,891	723,921	-0,011	0,022
-290,876	-135,403	0,054	0,005
-289,862	-13,863	0,032	0,015
-288,847	-98,750	-0,083	0,015
-287,832	800,000	0,035	0,103
-286,818	800,000	0,048	0,146
-285,803	-147,583	0,121	-0,007
-284,789	800,000	0,026	-0,078
-283,774	-200,000	0,022	0,097
-282,759	8,152	-0,042	0,023
-281,745	800,000	-0,020	0,063
-280,730	-152,061	0,135	0,007
-279,716	100,797	-0,117	-0,099
-278,701	-161,467	0,164	0,006
-277,686	383,116	-0,072	0,107
-276,672	-38,104	-0,089	-0,034
-275,657	-157,261	0,147	0,006
-274,643	-200,000	-0,001	-0,118
-273,628	322,451	0,018	-0,025
-272,613	-0,859	0,038	-0,020
-271,599	114,857	0,023	0,020
-270,584	-200,000	-0,010	0,073
-269,570	-182,734	-0,061	-0,001
-268,555	214,275	-0,059	-0,068
-267,540	159,399	-0,069	0,070
-266,526	800,000	-0,059	-0,159
-265,511	427,306	0,054	0,085
-264,497	721,502	-0,021	-0,040
-263,482	281,801	0,047	0,061
-262,467	-92,942	0,147	-0,029
-261,453	704,889	-0,028	0,054
-260,438	-200,000	0,001	-0,009
-259,424	-200,000	0,007	-0,091
-258,409	185,756	0,033	-0,036
-257,395	334,959	0,163	0,229
-256,380	-78,001	0,030	0,008
-255,365	490,031	-0,024	0,040
-254,351	-200,000	-0,028	0,124
-253,336	800,000	0,005	0,014
-252,322	-46,101	-0,071	-0,025
-251,307	-200,000	-0,007	-0,037
-250,292	-83,569	0,059	-0,013
-249,278	139,289	-0,044	-0,042
-248,263	-200,000	-0,019	-0,148
-247,249	-89,916	-0,052	0,011
-246,234	114,784	0,036	-0,032
-245,219	61,824	-0,090	0,065
-244,205	232,626	0,113	-0,134
-243,190	-30,017	-0,136	0,056
-242,176	800,000	-0,039	0,093
-241,161	397,856	0,034	0,051
-240,146	316,060	0,034	-0,046
-239,132	-48,021	0,032	0,011
-238,117	398,749	-0,038	-0,058
-237,103	280,371	-0,044	-0,056
-236,088	22,487	-0,085	-0,050
-235,073	550,033	-0,019	-0,033
-234,059	-200,000	-0,006	0,134
-233,044	-200,000	0,006	0,030
-232,030	44,660	0,090	-0,059
-231,015	-68,981	-0,142	0,039
-230,000	449,386	0,059	-0,095
-228,986	-53,233	-0,064	0,021
-227,971	314,900	-0,053	-0,072
-226,957	254,421	0,089	0,110
-225,942	-200,000	0,007	0,095
-224,927	231,792	0,073	0,087
-223,913	-156,950	-0,170	-0,007
-222,898	-200,000	-0,005	-0,023
-221,884	46,164	0,033	-0,022
-220,869	-200,000	0,018	-0,124
-219,855	294,832	-0,056	0,074
-218,840	34,298	0,065	0,041
-217,825	529,427	0,023	-0,039
-216,811	-37,714	-0,089	0,034
-215,796	-67,641	-0,013	0,004
-214,782	34,880	0,038	0,024
-213,767	-78,668	-0,183	-0,045
-212,752	-200,000	0,034	0,166
-211,738	509,129	-0,040	0,068
-210,723	429,987	-0,041	-0,064
-209,709	-200,000	-0,017	0,083
-208,694	319,077	-0,112	-0,153
-207,679	69,701	-0,081	0,060
-206,665	800,000	-0,042	0,092
-205,650	12,005	0,012	-0,007
-204,636	800,000	0,063	0,180
-203,621	368,340	-0,065	-0,095
-202,606	244,864	0,054	0,065
-201,592	-200,000	0,006	-0,122
-200,577	800,000	-0,013	0,040
-199,563	-19,834	-0,107	-0,048
-198,548	302,881	-0,051	-0,068
-197,533	65,911	0,022	-0,016
-196,519	-135,035	0,056	0,005
-195,504	1,749	0,067	-0,035
-194,490	-200,000	-0,025	-0,081
-193,475	518,774	-0,011	0,019
-192,460	-160,448	0,114	-0,004
-191,446	-162,566	-0,073	0,003
-190,431	47,492	0,140	0,094
-189,417	-200,000	0,014	-0,085
-188,402	55,757	-0,061	0,043
-187,387	-51,318	-0,149	-0,050
-186,373	442,593	0,058	-0,092
-185,358	66,345	0,068	0,050
-184,344	45,701	-0,051	0,034
-183,329	29,158	-0,040	0,024
-182,315	-104,742	-0,064	0,011
-181,300	-136,145	-0,053	0,004
-180,285	-4,441	-0,138	0,068
-179,271	800,000	-0,036	0,073
-178,256	268,068	-0,034	0,043
-177,242	800,000	0,020	0,046
-176,227	-18,693	0,042	0,019
-175,212	-9,554	0,050	0,024
-174,198	800,000	-0,030	-0,073
-173,183	-200,000	-0,010	-0,089
-172,169	-14,752	-0,074	-0,034
-171,154	-110,522	0,044	-0,007
-170,139	-200,000	-0,004	0,131
-169,125	-58,527	0,037	-0,011
-168,110	800,000	-0,055	0,118
-167,096	800,000	-0,026	-0,065
-166,081	5,161	-0,047	0,025
-165,066	800,000	0,028	0,089
-164,052	-183,233	-0,020	-0,000
-163,037	800,000	-0,034	-0,093
-162,023	-53,689	0,133	-0,043
-161,008	-105,120	-0,271	0,044
-159,993	286,280	0,098	0,128
-158,979	200,085	-0,040	0,044
-157,964	459,941	-0,030	0,048
-156,950	360,695	0,028	-0,040
-155,935	-8,690	0,062	-0,030
-154,920	800,000	0,028	0,060
-153,906	800,000	-0,035	0,082
-152,891	-17,249	-0,102	-0,046
-151,877	-200,000	-0,002	-0,105
-150,862	44,763	-0,128	-0,085
-149,847	-200,000	0,019	-0,075
-148,833	-200,000	-0,001	-0,031
-147,818	329,621	-0,065	-0,090
-146,804	-40,002	0,133	0,050
-145,789	532,106	0,036	-0,062
-144,775	74,676	-0,088	0,066
-143,760	-200,000	0,014	0,097
-142,745	515,360	0,009	0,016
-141,731	-84,533	-0,124	-0,028
-140,716	800,000	0,025	0,059
-139,702	-171,746	0,052	-0,001
-138,687	-200,000	-0,010	0,033
-137,672	-37,854	-0,094	-0,036
-136,658	47,434	-0,107	-0,072
-135,643	-95,582	-0,029	-0,006
-134,629	800,000	0,048	0,100
-133,614	245,489	0,039	-0,048
-132,599	-200,000	0,067	0,229
-131,585	-200,000	-0,002	0,020
-130,570	-200,000	0,021	0,079
-129,556	109,304	0,147	0,127
-128,541	544,232	-0,018	-0,032
-127,526	278,684	-0,077	0,099
-126,512	-47,300	-0,048	-0,017
-125,497	-200,000	-0,021	0,075
-124,483	-200,000	0,008	0,146
-123,468	-33,030	-0,040	-0,016
-122,453	-200,000	-0,009	0,058
-121,439	-200,000	-0,007	-0,130
-120,424	57,495	0,014	-0,010
-119,410	370,768	-0,107	0,156
