DTS Sentinel unit serial number:	SN410029Multiplexer serial number:	ORYXHardware model number:	OX2-SRSoftware version number:	ORYX F/W v4,00 Oryx Data Collector v3.7.2.0data status	okinstallation	B5 Nyhavnadifferential loss correction	single-endedforward channel	channel 2reverse channel	N/Adate	2023/12/14time	13:42:13forward acquisition time	300,00reverse acquisition time	0,00gamma	499,1914k internal	0,3157k external	0,3157temperature offset calibration	1,0000default loss term (dB/km)	0,3820temperature slope calibration	1,0000multiplexer offset coefficient	1,0000multiplexer slope coefficient	1,0000fibre end	0,00T internal ref (°C)	8,06T ext. ref 1 (°C)	-7,83T ext. ref 2 (°C)	-7,88length (m)	temperature (°C)	Stokes	anti-Stokes-744,400	-3,964	0,071	0,036
-743,385	-92,298	-0,368	-0,076
-742,371	22,494	0,151	0,091
-741,356	-101,739	-0,502	-0,089
-740,342	93,031	0,152	0,127
-739,327	-141,196	-0,346	0,026
-738,312	800,000	0,034	0,104
-737,298	-25,288	-0,361	-0,157
-736,283	-20,845	0,157	0,071
-735,269	-152,344	-0,342	0,018
-734,254	3,656	0,205	0,110
-733,239	-31,820	-0,414	-0,170
-732,225	-118,485	0,267	0,034
-731,210	382,540	0,044	0,067
-730,196	536,597	-0,034	-0,060
-729,181	-200,000	-0,013	-0,085
-728,167	-109,247	-0,072	0,011
-727,152	-128,442	0,099	-0,010
-726,137	-51,225	-0,166	0,057
-725,123	160,276	-0,042	-0,043
-724,108	800,000	-0,013	-0,041
-723,094	-99,786	-0,051	-0,009
-722,079	17,345	-0,105	-0,062
-721,064	553,319	0,027	0,047
-720,050	800,000	0,089	-0,183
-719,035	800,000	0,045	-0,116
-718,021	364,656	0,076	-0,112
-717,006	-90,904	0,094	0,020
-715,991	651,282	-0,035	-0,066
-714,977	-81,226	0,054	-0,013
-713,962	-25,623	-0,090	0,039
-712,948	-171,792	0,029	-0,001
-711,933	413,377	-0,070	0,111
-710,918	446,092	0,041	-0,067
-709,904	800,000	-0,049	-0,139
-708,889	-200,000	0,012	-0,080
-707,875	50,674	-0,096	0,067
-706,860	-51,996	0,111	-0,038
-705,845	-200,000	0,008	-0,035
-704,831	-200,000	-0,010	-0,080
-703,816	-200,000	-0,020	-0,083
-702,802	-119,964	0,035	-0,004
-701,787	3,747	-0,035	-0,019
-700,772	-200,000	-0,023	-0,192
-699,758	-200,000	-0,036	-0,126
-698,743	102,741	0,037	-0,032
-697,729	800,000	0,008	-0,023
-696,714	800,000	-0,041	0,106
-695,699	800,000	0,025	0,054
-694,685	800,000	-0,029	-0,070
-693,670	111,441	-0,097	-0,086
-692,656	-200,000	-0,002	-0,032
-691,641	41,303	0,072	0,048
-690,627	340,239	0,068	0,098
-689,612	496,045	0,002	-0,003
-688,597	6,250	-0,031	-0,017
-687,583	-200,000	-0,021	-0,074
-686,568	248,590	-0,048	-0,060
-685,554	-27,617	0,040	-0,017
-684,539	800,000	-0,007	0,017
-683,524	-83,757	-0,036	0,008
-682,510	63,066	-0,089	0,066
-681,495	174,502	0,042	0,045
-680,481	250,843	0,050	0,062
-679,466	486,447	-0,088	0,148
-678,451	-200,000	-0,006	-0,030
-677,437	166,209	0,053	-0,055
-676,422	-200,000	0,027	0,103
-675,408	-76,480	-0,086	0,022
-674,393	260,571	0,043	0,055
-673,378	-136,588	-0,105	-0,009
-672,364	-200,000	-0,006	0,103
-671,349	800,000	0,029	-0,065
-670,335	622,834	-0,033	0,062
-669,320	98,423	0,051	0,043
-668,305	-200,000	0,006	0,046
-667,291	-20,064	-0,062	0,028
-666,276	22,968	-0,062	-0,038
-665,262	-60,613	-0,133	-0,041
-664,247	-200,000	0,020	-0,076
-663,232	613,052	-0,056	-0,104
-662,218	-57,515	0,075	0,024
-661,203	-200,000	-0,010	0,060
-660,189	96,362	0,041	-0,034
-659,174	386,336	0,054	0,082
-658,159	57,135	-0,128	0,092
-657,145	-200,000	0,008	-0,057
-656,130	101,426	0,071	0,061
-655,116	800,000	-0,062	-0,126
-654,101	-200,000	0,006	0,045
-653,086	255,357	-0,073	0,092
-652,072	800,000	-0,056	-0,178
-651,057	-137,975	0,050	-0,004
-650,043	506,523	-0,015	-0,026
-649,028	-69,130	0,018	-0,005
-648,014	98,295	-0,027	0,023
-646,999	134,188	0,060	0,057
-645,984	-20,119	-0,026	-0,012
-644,970	0,441	-0,100	-0,053
-643,955	800,000	-0,037	-0,081
-642,941	-105,026	-0,075	0,013
-641,926	295,007	0,076	0,103
-640,911	23,255	-0,106	0,064
-639,897	-200,000	0,079	-0,000
-638,882	82,245	0,046	0,037
-637,868	283,596	-0,074	0,098
-636,853	283,543	-0,075	-0,099
-635,838	280,834	-0,012	0,015
-634,824	254,806	-0,054	-0,068
-633,809	800,000	-0,022	-0,068
-632,795	-8,379	0,097	0,048
-631,780	-20,995	-0,082	0,037
-630,765	-38,366	0,047	0,018
-629,751	-33,744	-0,034	0,014
-628,736	800,000	0,034	0,078
-627,722	-200,000	0,018	0,087
-626,707	-200,000	-0,006	0,085
-625,692	379,316	-0,009	0,013
-624,678	-120,821	0,017	0,002
-623,663	-10,082	0,077	-0,037
-622,649	-173,684	-0,052	0,001
-621,634	-200,000	-0,046	-0,177
-620,619	-200,000	0,005	-0,183
-619,605	-200,000	-0,011	0,070
-618,590	-183,182	0,114	0,001
-617,576	581,892	0,033	0,060
-616,561	292,073	-0,094	0,126
-615,546	-200,000	-0,028	-0,127
-614,532	-200,000	-0,005	-0,032
-613,517	-200,000	-0,020	-0,135
-612,503	-200,000	-0,012	0,043
-611,488	275,718	-0,057	-0,074
-610,474	-47,363	0,077	-0,027
-609,459	488,159	-0,037	-0,062
-608,444	-200,000	-0,014	0,069
-607,430	-94,865	-0,155	-0,031
-606,415	-200,000	-0,021	0,120
-605,401	763,711	-0,055	-0,110
-604,386	-200,000	-0,007	-0,042
-603,371	-27,198	0,084	-0,036
-602,357	-109,455	-0,057	0,009
-601,342	-200,000	-0,004	0,073
-600,328	-143,712	-0,073	0,005
-599,313	800,000	0,036	0,091
-598,298	381,150	-0,047	-0,071
-597,284	-4,684	-0,062	0,031
-596,269	-200,000	-0,012	0,199
-595,255	217,702	-0,070	0,082
-594,240	-124,581	-0,090	-0,010
-593,225	-64,362	-0,109	-0,032
-592,211	-43,714	0,035	-0,013
-591,196	193,407	-0,042	-0,047
-590,182	159,711	0,013	0,013
-589,167	524,702	0,067	0,115
-588,152	84,643	-0,080	0,064
-587,138	800,000	0,024	0,061
-586,123	401,346	-0,064	0,098
-585,109	401,843	-0,018	-0,027
-584,094	459,384	0,055	0,089
-583,079	120,774	0,066	0,060
-582,065	-200,000	0,009	-0,059
-581,050	800,000	-0,024	-0,076
-580,036	800,000	-0,012	-0,025
-579,021	98,070	0,089	0,075
-578,006	-10,914	0,049	0,024
-576,992	-200,000	-0,012	0,048
-575,977	800,000	0,073	0,156
-574,963	80,429	-0,037	0,029
-573,948	800,000	0,018	-0,043
-572,934	-200,000	0,013	0,058
-571,919	-200,000	-0,000	-0,007
-570,904	448,713	-0,102	-0,165
-569,890	800,000	0,014	-0,041
-568,875	114,343	0,116	-0,104
-567,861	-200,000	-0,019	-0,068
-566,846	4,082	0,044	-0,024
-565,831	-26,631	0,165	-0,070
-564,817	213,293	0,020	0,023
-563,802	-67,469	0,042	-0,012
-562,788	233,418	0,023	0,028
-561,773	9,661	-0,124	0,068
-560,758	416,874	0,020	-0,032
-559,744	-8,648	0,059	0,029
-558,729	16,292	0,084	0,048
-557,715	-200,000	0,014	-0,113
-556,700	-200,000	0,001	-0,024
-555,685	-102,475	-0,085	0,015
-554,671	-41,022	0,056	-0,021
-553,656	211,563	-0,034	-0,039
-552,642	-200,000	0,009	0,067
-551,627	-61,938	-0,126	0,038
-550,612	-23,709	-0,054	-0,024
-549,598	-200,000	0,009	-0,172
-548,583	-200,000	0,010	-0,052
-547,569	-111,522	-0,073	0,011
-546,554	-51,743	0,161	0,055
-545,539	800,000	-0,025	0,052
-544,525	116,726	-0,090	0,081
-543,510	800,000	-0,011	0,026
-542,496	-200,000	-0,026	0,143
-541,481	-121,425	-0,232	0,028
-540,466	161,896	-0,034	-0,035
-539,452	-153,975	0,143	-0,007
-538,437	577,876	0,031	0,056
-537,423	224,780	-0,005	0,006
-536,408	332,078	0,004	-0,006
-535,393	653,032	-0,018	0,034
-534,379	-84,273	-0,128	-0,030
-533,364	-200,000	-0,002	-0,071
-532,350	-200,000	-0,004	-0,040
-531,335	-100,391	-0,019	0,003
-530,321	352,103	-0,050	-0,073
-529,306	-140,260	0,051	0,004
-528,291	-27,385	0,050	0,021
-527,277	123,829	-0,124	-0,113
-526,262	-200,000	-0,017	-0,085
-525,248	-200,000	-0,006	0,088
-524,233	-78,931	0,104	-0,026
-523,218	516,087	0,039	-0,067
-522,204	-123,359	-0,115	-0,013
-521,189	37,943	0,049	-0,032
-520,175	-76,793	-0,074	-0,019
-519,160	411,666	0,061	0,095
-518,145	-98,675	-0,090	-0,017
-517,131	47,968	0,083	0,057
-516,116	648,949	0,051	0,096
-515,102	220,224	-0,024	0,028
-514,087	623,518	0,070	-0,129
-513,072	-30,345	0,062	-0,025
-512,058	110,935	0,062	0,055
-511,043	-132,299	0,124	0,012
-510,029	-200,000	0,003	0,121
-509,014	155,389	0,091	0,092
-507,999	-200,000	-0,006	-0,038
-506,985	-47,781	-0,105	-0,037
-505,970	152,549	0,028	-0,028
-504,956	18,826	-0,145	-0,084
-503,941	61,765	-0,105	-0,076
-502,926	45,425	0,074	0,050
-501,912	20,382	0,073	0,043
-500,897	41,242	-0,051	-0,033
-499,883	-200,000	0,017	0,063
-498,868	-48,662	-0,087	-0,030
-497,853	32,099	-0,102	0,064
-496,839	-9,194	-0,040	-0,019
-495,824	800,000	-0,049	-0,139
-494,810	-28,368	0,088	-0,037
-493,795	800,000	0,028	-0,066
-492,781	-37,115	-0,099	0,038
-491,766	-177,441	-0,041	0,001
-490,751	713,878	-0,044	-0,086
-489,737	-82,572	-0,091	-0,021
-488,722	397,279	0,042	0,065
-487,708	-185,798	-0,135	-0,001
-486,693	800,000	0,015	0,039
-485,678	281,389	0,061	-0,080
-484,664	-15,378	-0,026	0,012
-483,649	-200,000	-0,025	-0,121
-482,635	-119,324	-0,116	0,015
-481,620	-200,000	-0,007	-0,051
-480,605	-200,000	0,018	0,141
-479,591	452,466	0,111	0,180
-478,576	39,594	-0,050	0,033
-477,562	97,186	0,050	0,042
-476,547	-200,000	-0,027	-0,206
-475,532	273,280	-0,107	-0,138
-474,518	298,473	0,147	0,198
-473,503	196,589	0,030	0,033
-472,489	-200,000	-0,005	-0,125
-471,474	-200,000	0,016	-0,061
-470,459	-200,000	0,023	-0,077
-469,445	800,000	-0,023	-0,048
-468,430	-11,166	0,006	-0,003
-467,416	83,781	0,083	0,066
-466,401	-200,000	-0,017	0,201
-465,386	46,131	-0,075	0,051
-464,372	-30,530	0,034	-0,014
-463,357	790,276	-0,015	0,031
-462,343	237,681	0,016	-0,020
-461,328	-67,486	-0,171	-0,049
-460,313	-64,992	0,039	0,011
-459,299	166,023	-0,053	0,055
-458,284	-200,000	-0,024	0,109
-457,270	651,145	-0,023	0,043
-456,255	800,000	0,009	-0,019
-455,241	-200,000	-0,009	-0,166
-454,226	-169,659	0,043	0,001
-453,211	23,435	-0,079	0,047
-452,197	-42,551	-0,070	0,026
-451,182	-176,812	0,187	-0,003
-450,168	-200,000	0,002	0,080
-449,153	-179,803	-0,111	0,002
-448,138	-200,000	0,022	-0,137
-447,124	51,624	-0,119	-0,083
-446,109	-200,000	-0,011	-0,043
-445,095	-200,000	0,000	0,050
-444,080	800,000	0,038	-0,082
-443,065	-200,000	-0,004	0,108
-442,051	48,457	-0,013	0,009
-441,036	147,063	0,028	0,028
-440,022	-103,580	0,135	0,023
-439,007	287,937	0,005	-0,007
-437,992	270,293	0,015	0,019
-436,978	-200,000	0,018	0,063
-435,963	-149,861	0,028	0,002
-434,949	-200,000	0,000	0,003
-433,934	491,172	-0,051	-0,085
-432,919	800,000	0,002	-0,006
-431,905	333,921	-0,091	-0,129
-430,890	800,000	-0,078	0,160
-429,876	800,000	0,046	0,098
-428,861	800,000	-0,030	-0,092
-427,846	-200,000	-0,031	-0,118
-426,832	-200,000	0,004	-0,130
-425,817	-61,670	-0,199	-0,061
-424,803	141,592	0,040	0,039
-423,788	6,928	0,085	0,046
-422,773	224,531	0,054	-0,064
-421,759	-59,247	-0,128	-0,040
-420,744	379,099	0,085	0,127
-419,730	154,963	0,055	-0,055
-418,715	-16,701	-0,094	0,043
-417,701	-200,000	-0,017	-0,066
-416,686	-115,385	0,066	0,009
-415,671	800,000	-0,044	0,117
-414,657	-137,918	-0,035	-0,003
-413,642	-120,353	0,220	-0,027
-412,628	-81,650	-0,076	-0,018
-411,613	-200,000	-0,001	-0,037
-410,598	278,903	0,097	-0,127
-409,584	-22,765	0,090	-0,040
-408,569	800,000	0,025	-0,060
-407,555	33,302	0,052	0,033
-406,540	-190,888	0,193	-0,001
-405,525	-33,787	-0,210	-0,084
-404,511	172,789	-0,010	0,010
-403,496	800,000	0,031	-0,079
-402,482	30,890	-0,161	-0,100
-401,467	17,220	-0,076	-0,044
-400,452	524,194	0,045	0,078
-399,438	-185,579	0,063	0,001
-398,423	-17,310	-0,092	0,042
-397,409	87,173	-0,181	-0,145
-396,394	-109,874	0,113	0,017
-395,379	342,737	0,018	-0,026
-394,365	800,000	0,038	0,088
-393,350	182,052	-0,015	-0,017
-392,336	-200,000	0,003	-0,075
-391,321	34,649	-0,047	-0,030
-390,306	143,152	0,068	0,066
-389,292	800,000	0,019	0,044
-388,277	-200,000	-0,011	0,085
-387,263	800,000	0,046	0,125
-386,248	22,670	0,146	-0,087
-385,233	-37,836	0,064	0,025
-384,219	183,218	-0,028	0,030
-383,204	-73,210	-0,237	-0,063
-382,190	-69,451	-0,051	0,014
-381,175	-200,000	-0,008	-0,159
-380,160	-40,366	0,136	-0,051
-379,146	-200,000	0,024	-0,107
-378,131	61,781	0,064	-0,046
-377,117	-91,159	-0,228	-0,047
-376,102	800,000	-0,081	-0,185
-375,088	-200,000	0,015	-0,067
-374,073	16,586	-0,135	0,078
-373,058	-157,261	0,073	0,003
-372,044	-129,913	0,089	-0,009
-371,029	800,000	0,021	-0,066
-370,015	-200,000	0,001	-0,032
-369,000	-118,473	0,016	0,002
-367,985	90,808	0,093	-0,076
-366,971	159,448	-0,022	-0,022
-365,956	-200,000	0,011	0,066
-364,942	635,868	0,026	-0,049
-363,927	360,000	0,063	0,092
-362,912	281,759	0,036	-0,048
-361,898	6,544	-0,066	-0,036
-360,883	-117,280	-0,030	0,004
-359,869	657,367	0,047	0,088
-358,854	8,533	-0,016	0,009
-357,839	800,000	-0,047	0,135
-356,825	52,525	0,120	0,083
-355,810	476,378	-0,051	0,084
-354,796	-200,000	0,008	-0,044
-353,781	-200,000	0,003	0,085
-352,766	-118,893	0,073	-0,009
-351,752	-145,328	0,047	-0,003
-350,737	-11,697	0,155	0,074
-349,723	800,000	-0,040	-0,095
-348,708	400,803	-0,001	-0,002
-347,693	49,301	0,094	-0,064
-346,679	-48,297	0,018	-0,006
-345,664	-54,611	0,056	0,018
-344,650	212,000	0,065	0,074
-343,635	800,000	0,036	0,094
-342,620	-15,206	0,099	-0,046
-341,606	50,163	0,068	0,047
-340,591	6,343	0,059	0,032
-339,577	-173,985	-0,059	-0,001
-338,562	-63,584	-0,098	-0,029
-337,548	243,124	-0,107	-0,130
-336,533	-200,000	0,010	-0,072
-335,518	-29,464	-0,027	0,011
-334,504	-40,617	-0,096	0,036
-333,489	-200,000	0,008	0,075
-332,475	-142,097	-0,142	0,010
-331,460	800,000	0,013	-0,027
-330,445	-107,373	0,178	0,028
-329,431	88,697	0,074	-0,060
-328,416	-200,000	0,002	0,047
-327,402	-84,159	-0,085	0,020
-326,387	800,000	-0,007	-0,019
-325,372	-45,227	0,059	0,021
-324,358	-61,525	-0,046	0,014
-323,343	-58,765	0,066	0,020
-322,329	127,991	0,057	-0,053
-321,314	115,828	-0,043	0,038
-320,299	129,832	0,183	-0,170
-319,285	149,540	0,064	0,063
-318,270	374,160	0,047	0,070
-317,256	800,000	-0,057	-0,152
-316,241	271,826	0,051	0,066
-315,226	-87,289	0,065	0,014
-314,212	68,872	0,069	-0,051
-313,197	53,332	-0,029	-0,020
-312,183	215,211	-0,025	0,029
-311,168	155,382	-0,093	-0,093
-310,153	800,000	-0,021	-0,052
-309,139	-112,847	0,094	0,013
-308,124	-76,298	-0,042	-0,011
-307,110	425,004	0,068	-0,107
-306,095	430,382	0,049	-0,078
-305,080	129,423	-0,079	0,073
-304,066	-66,330	-0,159	0,046
-303,051	24,522	0,044	-0,026
-302,037	800,000	0,038	0,109
-301,022	-18,046	0,063	-0,029
-300,008	-200,000	-0,041	0,000
-298,993	800,000	-0,015	0,042
-297,978	-4,166	-0,068	0,034
-296,964	-92,721	-0,060	-0,012
-295,949	204,415	0,029	-0,033
-294,935	-200,000	-0,009	-0,224
-293,920	309,629	0,038	0,052
-292,905	-200,000	0,007	-0,076
-291,891	-95,775	0,114	-0,022
-290,876	5,868	0,088	0,047
-289,862	279,555	-0,039	0,051
-288,847	385,072	0,022	0,033
-287,832	-23,162	0,075	-0,033
-286,818	358,492	0,018	0,027
-285,803	343,326	0,036	0,051
-284,789	-110,467	0,102	-0,015
-283,774	-28,373	0,104	0,043
-282,759	800,000	-0,030	-0,083
-281,745	148,646	0,075	0,074
-280,730	800,000	-0,055	-0,142
-279,716	149,192	0,058	0,057
-278,701	154,502	-0,112	-0,111
-277,686	800,000	0,020	0,046
-276,672	211,416	0,070	-0,080
-275,657	800,000	-0,050	-0,155
-274,643	89,319	0,055	-0,045
-273,628	747,850	0,060	-0,117
-272,613	-61,906	-0,103	0,031
-271,599	-47,808	-0,037	-0,013
-270,584	135,607	0,094	0,089
-269,570	26,116	-0,087	-0,052
-268,555	-200,000	0,033	0,125
-267,540	-90,437	-0,181	-0,038
-266,526	-200,000	0,044	0,188
-265,511	-59,270	-0,127	-0,039
-264,497	-200,000	-0,002	-0,162
-263,482	-65,959	0,036	-0,010
-262,467	1,332	0,087	0,045
-261,453	505,694	-0,017	-0,028
-260,438	-200,000	-0,049	-0,170
-259,424	665,669	0,036	-0,067
-258,409	-28,098	-0,118	-0,049
-257,395	-200,000	0,012	0,118
-256,380	-54,079	0,110	0,036
-255,365	-200,000	-0,017	0,143
-254,351	782,674	-0,012	0,024
-253,336	-14,721	-0,087	-0,040
-252,322	-2,167	-0,063	-0,032
-251,307	-130,336	-0,109	-0,011
-250,292	-125,056	0,165	0,018
-249,278	72,166	0,075	0,056
-248,263	-105,388	-0,045	0,007
-247,249	800,000	-0,037	-0,109
-246,234	-200,000	-0,023	0,000
-245,219	-200,000	0,007	-0,200
-244,205	140,854	0,090	-0,086
-243,190	800,000	0,046	0,097
-242,176	92,694	-0,053	-0,044
-241,161	103,607	-0,141	0,119
-240,146	285,595	0,097	0,127
-239,132	-19,952	-0,054	0,024
-238,117	10,164	-0,106	-0,058
-237,103	179,531	0,072	-0,077
-236,088	-61,152	-0,078	0,024
-235,073	800,000	0,082	0,203
-234,059	-97,136	0,080	0,015
-233,044	306,883	0,087	0,117
-232,030	-127,829	0,182	0,019
-231,015	86,395	-0,096	-0,076
-230,000	-27,548	0,047	-0,020
-228,986	-200,000	-0,018	0,079
-227,971	-200,000	0,020	0,121
-226,957	-200,000	0,002	-0,028
-225,942	-200,000	-0,014	0,088
-224,927	-170,387	0,147	-0,004
-223,913	800,000	-0,031	-0,064
-222,898	99,390	-0,086	0,072
-221,884	46,046	-0,041	0,028
-220,869	-200,000	0,003	0,041
-219,855	-143,296	0,054	-0,004
-218,840	-146,908	0,022	-0,001
-217,825	-59,104	0,025	0,008
-216,811	328,598	-0,057	-0,080
-215,796	-81,618	-0,146	0,034
-214,782	334,659	-0,019	-0,026
-213,767	95,072	0,070	0,057
-212,752	800,000	0,026	0,078
-211,738	95,180	0,116	0,096
-210,723	120,745	0,102	-0,091
-209,709	154,260	0,026	0,026
-208,694	-200,000	0,006	-0,144
-207,679	99,709	-0,084	-0,070
-206,665	-160,459	-0,099	-0,004
-205,650	800,000	0,046	0,127
-204,636	-200,000	-0,027	0,133
-203,621	-112,395	0,073	0,010
-202,606	-200,000	0,026	0,084
-201,592	-104,750	0,104	0,017
-200,577	-11,243	-0,022	0,011
-199,563	-68,169	-0,022	-0,006
-198,548	-200,000	-0,020	0,109
-197,533	-0,617	-0,144	0,074
-196,519	544,023	-0,043	-0,074
-195,504	-111,891	-0,067	-0,010
-194,490	262,758	0,055	0,069
-193,475	-64,171	0,074	-0,022
-192,460	-200,000	0,051	0,182
-191,446	-200,000	0,015	0,125
-190,431	800,000	0,029	0,080
-189,417	-88,035	-0,138	-0,030
-188,402	-70,478	0,081	0,022
-187,387	130,098	0,113	-0,104
-186,373	234,071	-0,029	-0,034
-185,358	67,031	-0,061	0,045
-184,344	-119,388	0,070	0,009
-183,329	800,000	0,012	0,036
-182,315	408,399	-0,049	-0,075
-181,300	-200,000	-0,006	0,069
-180,285	-200,000	-0,011	-0,089
-179,271	142,693	0,025	-0,024
-178,256	127,002	-0,027	-0,025
-177,242	130,732	0,069	-0,063
-176,227	-26,946	0,149	-0,062
-175,212	-200,000	0,003	0,043
-174,198	800,000	-0,016	0,033
-173,183	16,318	0,086	0,049
-172,169	179,037	-0,125	-0,132
-171,154	357,780	-0,102	-0,147
-170,139	-45,755	0,089	0,031
-169,125	-85,033	0,054	-0,012
-168,110	-200,000	-0,000	0,104
-167,096	-78,909	-0,174	0,042
-166,081	800,000	-0,021	-0,049
-165,066	790,732	-0,042	-0,083
-164,052	624,769	0,004	-0,008
-163,037	-60,732	-0,144	0,044
-162,023	800,000	0,066	0,142
-161,008	124,128	0,093	0,084
-159,993	800,000	0,031	0,094
-158,979	74,725	0,030	0,023
-157,964	-200,000	-0,011	-0,062
-156,950	-50,720	-0,220	-0,074
-155,935	-48,165	0,040	0,014
-154,920	-200,000	-0,007	0,139
-153,906	-138,705	0,137	0,011
-152,891	800,000	0,058	0,119
-151,877	74,503	0,010	-0,008
-150,862	800,000	-0,050	0,110
-149,847	-151,873	-0,119	0,006
-148,833	-174,192	0,118	-0,002
-147,818	800,000	-0,018	0,052
-146,804	-29,795	-0,009	0,004
-145,789	800,000	0,049	0,118
-144,775	-200,000	0,020	-0,149
-143,760	800,000	-0,048	-0,142
-142,745	-200,000	0,012	0,098
-141,731	590,996	-0,010	-0,018
-140,716	800,000	0,091	0,202
-139,702	-123,382	-0,007	0,001
-138,687	57,011	-0,091	-0,064
-137,672	-104,689	0,015	0,002
-136,658	114,744	-0,027	-0,024
-135,643	134,709	-0,056	-0,052
-134,629	86,892	0,158	-0,125
-133,614	800,000	-0,037	0,097
-132,599	57,517	-0,216	0,151
-131,585	-200,000	-0,003	0,088
-130,570	284,150	-0,061	0,079
-129,556	267,488	0,128	-0,161
-128,541	778,228	-0,010	0,019
-127,526	-170,041	0,068	-0,002
-126,512	-200,000	0,030	0,105
-125,497	463,462	0,059	0,096
-124,483	800,000	0,037	-0,112
-123,468	-27,254	0,073	0,031
-122,453	800,000	0,012	-0,035
-121,439	212,538	0,096	-0,109
-120,424	-111,957	0,053	-0,008
-119,410	800,000	0,018	0,042
-118,395	545,959	-0,031	0,053
