DTS Sentinel unit serial number:	SN410029Multiplexer serial number:	ORYXHardware model number:	OX2-SRSoftware version number:	ORYX F/W v4,00 Oryx Data Collector v3.7.2.0data status	okinstallation	B5 Nyhavnadifferential loss correction	single-endedforward channel	channel 2reverse channel	N/Adate	2023/12/12time	18:57:13forward acquisition time	300,00reverse acquisition time	0,00gamma	499,1914k internal	0,3157k external	0,3157temperature offset calibration	1,0000default loss term (dB/km)	0,3820temperature slope calibration	1,0000multiplexer offset coefficient	1,0000multiplexer slope coefficient	1,0000fibre end	0,00T internal ref (°C)	15,55T ext. ref 1 (°C)	-1,09T ext. ref 2 (°C)	-1,41length (m)	temperature (°C)	Stokes	anti-Stokes-744,400	-9,468	-0,114	-0,056
-743,385	-102,913	-0,171	-0,030
-742,371	-98,622	0,123	0,023
-741,356	-42,251	-0,166	0,062
-740,342	225,936	0,011	0,013
-739,327	-165,140	-0,332	-0,011
-738,312	-200,000	-0,005	-0,029
-737,298	-98,725	-0,262	-0,049
-736,283	3,271	0,178	0,095
-735,269	-173,584	-0,377	0,008
-734,254	-200,000	0,124	0,000
-733,239	-87,413	-0,405	-0,090
-732,225	-200,000	0,032	-0,165
-731,210	800,000	0,034	-0,089
-730,196	-200,000	-0,027	-0,133
-729,181	-39,709	-0,032	0,012
-728,167	-200,000	-0,001	-0,043
-727,152	-121,377	0,075	-0,009
-726,137	53,188	-0,204	0,144
-725,123	214,762	0,114	-0,134
-724,108	-73,090	-0,159	-0,043
-723,094	240,540	-0,032	0,039
-722,079	-72,582	-0,076	-0,021
-721,064	-119,730	-0,069	-0,009
-720,050	800,000	0,066	-0,139
-719,035	-200,000	0,003	-0,042
-718,021	12,841	-0,007	-0,004
-717,006	800,000	0,068	-0,168
-715,991	505,011	-0,117	-0,201
-714,977	97,680	-0,057	0,049
-713,962	-200,000	-0,017	-0,080
-712,948	414,602	-0,032	-0,050
-711,933	109,855	0,109	-0,096
-710,918	800,000	-0,046	0,097
-709,904	543,068	-0,087	-0,153
-708,889	-53,287	-0,018	-0,006
-707,875	335,465	-0,026	0,037
-706,860	-127,132	0,062	-0,007
-705,845	-200,000	0,000	-0,031
-704,831	-72,941	0,118	0,032
-703,816	-52,095	0,049	0,017
-702,802	-200,000	-0,013	-0,103
-701,787	-35,608	-0,108	0,043
-700,772	-13,198	-0,076	0,036
-699,758	70,343	-0,070	0,053
-698,743	133,064	-0,019	-0,018
-697,729	428,770	0,049	-0,078
-696,714	800,000	0,030	0,071
-695,699	-156,923	-0,098	-0,004
-694,685	800,000	0,047	-0,136
-693,670	661,923	-0,025	0,047
-692,656	-46,283	-0,071	-0,025
-691,641	486,273	0,052	-0,087
-690,627	306,331	-0,004	0,005
-689,612	-46,341	0,035	0,013
-688,597	-200,000	-0,013	-0,126
-687,583	-180,416	-0,243	0,004
-686,568	153,652	0,082	0,082
-685,554	248,488	-0,030	0,037
-684,539	73,581	0,059	0,045
-683,524	283,938	0,030	-0,040
-682,510	-93,087	0,107	-0,022
-681,495	137,551	-0,052	0,050
-680,481	242,168	-0,026	0,032
-679,466	302,991	-0,055	-0,076
-678,451	-145,848	0,080	0,005
-677,437	13,106	-0,029	0,016
-676,422	113,640	0,117	0,104
-675,408	-59,449	0,024	-0,007
-674,393	-200,000	-0,006	-0,119
-673,378	485,992	-0,094	-0,159
-672,364	-155,349	-0,091	-0,004
-671,349	119,002	-0,068	0,062
-670,335	70,616	-0,063	-0,048
-669,320	-184,187	0,114	0,001
-668,305	-200,000	-0,021	0,117
-667,291	-200,000	-0,023	-0,112
-666,276	641,230	-0,088	-0,166
-665,262	151,778	-0,016	0,016
-664,247	239,848	-0,047	-0,058
-663,232	-200,000	-0,027	-0,145
-662,218	-200,000	0,016	-0,176
-661,203	-106,629	-0,156	0,025
-660,189	-80,397	-0,125	0,030
-659,174	283,275	-0,019	-0,025
-658,159	-58,284	-0,032	-0,010
-657,145	204,184	-0,052	-0,060
-656,130	406,191	-0,055	0,086
-655,116	162,253	-0,106	0,109
-654,101	337,344	0,019	0,027
-653,086	800,000	-0,059	-0,140
-652,072	24,072	-0,011	0,007
-651,057	-6,540	-0,062	-0,031
-650,043	-200,000	0,132	0,000
-649,028	-200,000	-0,022	0,112
-648,014	-68,550	0,078	-0,022
-646,999	329,692	-0,080	-0,113
-645,984	-109,645	-0,036	0,005
-644,970	-25,166	0,079	-0,034
-643,955	-57,327	0,072	-0,023
-642,941	-10,225	-0,049	0,024
-641,926	664,733	-0,047	0,090
-640,911	-82,746	0,082	0,019
-639,897	332,362	0,021	-0,030
-638,882	-69,237	-0,146	0,041
-637,868	139,188	-0,066	0,064
-636,853	-200,000	-0,003	-0,042
-635,838	-23,876	-0,081	-0,035
-634,824	251,738	-0,045	0,057
-633,809	192,279	-0,148	0,164
-632,795	111,183	0,182	0,161
-631,780	-141,439	-0,079	0,006
-630,765	338,240	-0,070	-0,100
-629,751	355,462	-0,044	0,064
-628,736	42,122	-0,137	0,091
-627,722	800,000	-0,031	0,083
-626,707	-49,412	0,089	-0,031
-625,692	800,000	0,028	0,059
-624,678	800,000	-0,037	-0,108
-623,663	800,000	-0,035	0,074
-622,649	453,501	-0,092	-0,150
-621,634	-105,694	-0,117	-0,019
-620,619	-168,910	-0,114	-0,003
-619,605	-40,758	0,070	0,027
-618,590	103,589	0,022	0,019
-617,576	-20,747	-0,057	-0,025
-616,561	53,715	0,077	-0,054
-615,546	194,732	-0,160	-0,179
-614,532	320,712	0,018	-0,026
-613,517	800,000	0,033	-0,080
-612,503	800,000	0,045	-0,103
-611,488	-200,000	-0,007	-0,164
-610,474	313,787	-0,036	0,050
-609,459	384,810	-0,040	-0,061
-608,444	499,462	-0,079	0,134
-607,430	-200,000	0,010	-0,114
-606,415	800,000	-0,034	-0,099
-605,401	-200,000	0,031	-0,118
-604,386	146,709	0,049	0,049
-603,371	56,636	-0,078	0,055
-602,357	313,563	0,059	-0,082
-601,342	1,895	-0,092	-0,049
-600,328	448,279	0,045	0,073
-599,313	-200,000	0,009	0,084
-598,298	-131,994	-0,124	-0,012
-597,284	33,296	0,155	0,098
-596,269	63,684	0,060	0,044
-595,255	60,696	-0,090	0,066
-594,240	-128,072	-0,111	-0,011
-593,225	-107,319	-0,112	-0,018
-592,211	249,507	-0,051	0,064
-591,196	-200,000	0,033	-0,178
-590,182	-200,000	0,004	0,056
-589,167	292,855	0,037	-0,049
-588,152	492,688	0,022	-0,037
-587,138	293,538	-0,129	0,173
-586,123	101,473	0,042	-0,036
-585,109	74,592	0,094	-0,072
-584,094	-65,814	-0,131	-0,038
-583,079	174,650	-0,138	-0,146
-582,065	196,621	-0,025	0,028
-581,050	-200,000	-0,007	-0,041
-580,036	309,072	-0,018	0,025
-579,021	-75,765	-0,061	0,016
-578,006	-200,000	0,004	-0,026
-576,992	360,932	-0,077	-0,113
-575,977	-44,013	-0,149	-0,055
-574,963	-200,000	0,002	-0,027
-573,948	-200,000	0,010	-0,108
-572,934	-46,277	0,082	0,029
-571,919	-10,577	-0,107	-0,052
-570,904	-200,000	0,010	-0,194
-569,890	93,945	0,132	0,110
-568,875	-157,977	0,119	0,005
-567,861	52,083	0,013	-0,009
-566,846	323,957	-0,054	0,076
-565,831	12,656	-0,083	-0,047
-564,817	-200,000	0,002	-0,036
-563,802	44,154	-0,083	-0,056
-562,788	-13,272	0,066	-0,031
-561,773	307,766	-0,035	-0,048
-560,758	-113,916	0,028	0,004
-559,744	737,957	-0,031	0,062
-558,729	-160,769	0,055	-0,002
-557,715	-81,898	-0,097	-0,023
-556,700	-77,265	-0,064	-0,016
-555,685	451,551	0,065	-0,106
-554,671	62,199	-0,080	0,059
-553,656	153,300	0,024	-0,024
-552,642	16,148	0,117	0,067
-551,627	294,607	0,041	0,055
-550,612	-132,837	-0,112	-0,010
-549,598	-36,350	0,094	-0,037
-548,583	220,074	-0,076	-0,089
-547,569	-200,000	0,013	0,077
-546,554	-200,000	0,004	0,076
-545,539	291,555	-0,062	-0,082
-544,525	-65,594	-0,140	0,041
-543,510	277,681	-0,033	-0,043
-542,496	800,000	-0,032	-0,076
-541,481	605,932	0,058	-0,107
-540,466	800,000	0,025	-0,069
-539,452	-104,769	0,154	0,026
-538,437	463,285	-0,028	0,046
-537,423	-103,786	-0,084	0,014
-536,408	-94,413	0,076	-0,015
-535,393	800,000	-0,076	0,175
-534,379	402,059	-0,056	-0,086
-533,364	-200,000	-0,004	-0,123
-532,350	102,557	0,120	0,102
-531,335	-15,574	-0,011	-0,005
-530,321	800,000	-0,041	0,093
-529,306	-59,533	-0,042	-0,013
-528,291	-200,000	0,008	0,049
-527,277	-146,675	-0,096	0,006
-526,262	-129,017	-0,081	0,008
-525,248	-200,000	-0,003	-0,156
-524,233	-200,000	-0,014	0,120
-523,218	289,690	-0,102	0,135
-522,204	15,511	0,089	0,051
-521,189	-200,000	0,009	-0,087
-520,175	-200,000	-0,000	-0,039
-519,160	45,880	0,037	-0,025
-518,145	30,393	0,070	-0,044
-517,131	-200,000	0,011	0,135
-516,116	79,584	-0,105	0,082
-515,102	492,769	0,002	-0,004
-514,087	354,344	-0,027	-0,039
-513,072	800,000	0,027	0,080
-512,058	-134,845	-0,155	-0,014
-511,043	77,060	-0,100	0,078
-510,029	800,000	-0,031	0,072
-509,014	123,013	0,031	-0,028
-507,999	-44,356	0,030	-0,011
-506,985	-110,615	-0,153	0,023
-505,970	-200,000	0,004	0,015
-504,956	-200,000	-0,015	-0,069
-503,941	46,481	-0,135	0,091
-502,926	-166,136	0,073	0,002
-501,912	65,450	0,137	0,101
-500,897	8,804	-0,046	0,025
-499,883	128,456	0,080	0,074
-498,868	-54,082	-0,094	-0,031
-497,853	193,682	-0,093	-0,103
-496,839	-50,296	-0,137	-0,047
-495,824	654,098	0,071	0,134
-494,810	-200,000	0,006	0,033
-493,795	65,318	-0,053	0,039
-492,781	-200,000	-0,011	0,148
-491,766	800,000	0,076	-0,159
-490,751	-200,000	0,000	0,077
-489,737	-62,033	0,127	-0,038
-488,722	-200,000	0,012	0,060
-487,708	-200,000	0,019	0,204
-486,693	56,463	-0,054	-0,039
-485,678	-200,000	0,007	-0,070
-484,664	-200,000	0,011	-0,047
-483,649	292,046	0,055	0,073
-482,635	800,000	0,043	-0,097
-481,620	441,606	-0,021	0,034
-480,605	-141,091	0,062	-0,005
-479,591	800,000	-0,039	0,093
-478,576	-90,027	0,108	0,023
-477,562	-2,023	-0,105	-0,054
-476,547	800,000	-0,022	-0,048
-475,532	160,157	-0,026	-0,026
-474,518	-200,000	0,023	0,124
-473,503	800,000	-0,009	0,024
-472,489	366,912	0,079	0,116
-471,474	764,552	-0,021	0,041
-470,459	-82,720	0,125	-0,029
-469,445	-28,635	-0,081	0,034
-468,430	365,530	-0,067	-0,098
-467,416	-200,000	-0,002	-0,072
-466,401	-169,321	0,121	-0,003
-465,386	-161,890	0,103	-0,004
-464,372	251,373	0,048	-0,060
-463,357	-200,000	0,010	0,061
-462,343	161,847	-0,103	-0,106
-461,328	290,369	0,034	0,045
-460,313	-200,000	-0,012	0,168
-459,299	-200,000	0,021	0,118
-458,284	47,926	-0,021	-0,014
-457,270	-200,000	0,029	0,176
-456,255	-200,000	0,012	0,077
-455,241	-200,000	-0,006	-0,182
-454,226	-200,000	-0,008	-0,066
-453,211	-105,899	0,141	0,023
-452,197	-104,195	0,094	0,016
-451,182	-200,000	-0,019	0,066
-450,168	54,945	-0,037	-0,026
-449,153	-80,327	0,073	-0,018
-448,138	506,818	-0,088	-0,149
-447,124	208,372	0,045	-0,052
-446,109	-200,000	0,015	-0,094
-445,095	150,517	0,085	0,084
-444,080	-77,213	-0,132	0,033
-443,065	-41,023	0,097	0,036
-442,051	-200,000	-0,029	-0,114
-441,036	23,882	-0,017	0,010
-440,022	800,000	0,023	0,070
-439,007	800,000	0,008	-0,018
-437,992	16,423	0,059	0,034
-436,978	-92,114	0,160	0,033
-435,963	109,030	0,066	0,057
-434,949	-69,333	-0,051	-0,014
-433,934	800,000	0,014	0,041
-432,919	-178,793	0,137	0,002
-431,905	800,000	0,022	-0,051
-430,890	-176,716	0,051	0,001
-429,876	-35,307	0,022	0,009
-428,861	800,000	0,063	0,135
-427,846	-200,000	0,030	0,145
-426,832	188,508	-0,074	0,081
-425,817	351,199	0,008	-0,011
-424,803	-35,654	0,028	0,011
-423,788	-143,711	0,091	0,006
-422,773	139,523	0,147	0,141
-421,759	323,182	-0,005	-0,007
-420,744	-94,516	-0,063	-0,012
-419,730	248,759	0,094	-0,116
-418,715	368,741	-0,046	-0,068
-417,701	-24,413	-0,103	0,044
-416,686	-30,268	-0,006	-0,002
-415,671	154,735	0,056	-0,057
-414,657	800,000	0,025	0,069
-413,642	255,479	-0,052	0,065
-412,628	48,157	-0,124	-0,084
-411,613	-200,000	-0,010	0,109
-410,598	-110,346	0,161	-0,024
-409,584	353,427	-0,030	0,043
-408,569	-23,751	0,044	-0,019
-407,555	155,242	0,086	0,086
-406,540	-200,000	0,002	0,040
-405,525	-128,136	-0,109	-0,011
-404,511	-200,000	0,003	0,055
-403,496	-25,322	0,052	0,022
-402,482	800,000	-0,021	-0,046
-401,467	27,321	0,027	-0,016
-400,452	-93,308	0,039	-0,008
-399,438	85,375	-0,097	-0,077
-398,423	127,959	0,043	0,039
-397,409	-92,821	-0,140	0,028
-396,394	265,027	0,040	-0,050
-395,379	-95,420	0,132	0,026
-394,365	160,796	-0,054	-0,055
-393,350	44,578	0,134	0,089
-392,336	300,501	-0,003	-0,004
-391,321	-15,862	-0,028	-0,013
-390,306	-200,000	0,009	0,120
-389,292	-150,807	-0,134	-0,007
-388,277	-164,863	-0,022	0,001
-387,263	54,472	-0,015	0,010
-386,248	387,942	0,008	0,012
-385,233	-200,000	0,031	0,143
-384,219	86,669	-0,022	-0,017
-383,204	-194,328	-0,068	0,000
-382,190	138,352	-0,165	-0,157
-381,175	800,000	-0,035	-0,110
-380,160	17,215	-0,125	0,072
-379,146	-139,524	0,104	-0,008
-378,131	-200,000	0,001	0,020
-377,117	618,225	0,121	0,221
-376,102	-91,469	-0,103	-0,021
-375,088	-65,878	0,022	0,006
-374,073	800,000	0,027	0,067
-373,058	242,457	0,087	0,106
-372,044	226,155	0,072	0,085
-371,029	220,328	0,136	0,159
-370,015	-76,538	0,156	0,039
-369,000	547,226	0,058	-0,102
-367,985	285,185	0,045	-0,059
-366,971	207,569	-0,067	-0,076
-365,956	-97,403	-0,081	0,015
-364,942	-24,614	0,098	0,042
-363,927	-159,820	-0,142	0,006
-362,912	800,000	0,007	0,018
-361,898	210,115	-0,042	-0,048
-360,883	43,245	-0,163	-0,108
-359,869	-200,000	-0,001	0,069
-358,854	-116,517	0,092	0,012
-357,839	-200,000	-0,004	-0,115
-356,825	-200,000	0,014	-0,060
-355,810	-200,000	-0,013	0,069
-354,796	420,312	-0,054	0,085
-353,781	-200,000	0,012	-0,155
-352,766	800,000	0,055	0,115
-351,752	440,081	0,042	0,067
-350,737	-107,177	0,088	0,014
-349,723	-38,539	0,050	0,019
-348,708	-127,209	0,051	0,005
-347,693	25,370	-0,073	0,044
-346,679	-10,987	-0,066	-0,031
-345,664	-200,000	-0,002	-0,035
-344,650	800,000	-0,022	0,051
-343,635	54,995	0,088	-0,062
-342,620	145,745	-0,056	-0,055
-341,606	37,421	-0,029	-0,019
-340,591	-200,000	0,031	-0,118
-339,577	-39,026	-0,059	0,022
-338,562	-116,736	-0,146	-0,019
-337,548	142,394	0,070	0,068
-336,533	-200,000	-0,007	0,063
-335,518	65,904	-0,066	-0,049
-334,504	-200,000	0,003	-0,099
-333,489	-200,000	0,026	0,130
-332,475	-42,683	0,032	0,012
-331,460	157,186	-0,035	0,036
-330,445	153,315	0,040	0,040
-329,431	-97,807	0,126	0,023
-328,416	800,000	0,050	0,128
-327,402	800,000	-0,042	0,112
-326,387	366,670	0,036	0,053
-325,372	800,000	-0,051	-0,105
-324,358	-200,000	0,014	-0,151
-323,343	252,298	-0,062	-0,076
-322,329	-88,304	0,067	-0,015
-321,314	-136,046	0,145	0,012
-320,299	204,096	-0,010	0,011
-319,285	559,523	-0,029	-0,051
-318,270	-118,148	-0,123	-0,016
-317,256	-44,903	-0,093	-0,033
-316,241	-123,508	-0,033	-0,004
-315,226	7,876	0,107	-0,058
-314,212	800,000	0,038	0,083
-313,197	622,364	-0,019	0,035
-312,183	-117,586	0,042	-0,005
-311,168	-200,000	-0,004	0,047
-310,153	-200,000	-0,008	0,035
-309,139	55,777	0,065	-0,046
-308,124	-200,000	-0,010	-0,049
-307,110	800,000	-0,050	0,112
-306,095	-126,523	-0,041	-0,004
-305,080	800,000	0,031	0,073
-304,066	800,000	-0,031	0,090
-303,051	-104,357	-0,035	0,006
-302,037	-33,711	0,047	-0,019
-301,022	-91,340	0,201	0,041
-300,008	800,000	0,044	0,089
-298,993	227,265	0,016	0,019
-297,978	32,504	-0,114	0,072
-296,964	-86,986	0,056	0,012
-295,949	13,540	0,071	0,040
-294,935	-94,996	-0,063	-0,012
-293,920	-200,000	-0,023	-0,158
-292,905	49,066	0,024	-0,016
-291,891	175,544	0,018	0,019
-290,876	506,760	0,050	-0,084
-289,862	-111,157	-0,086	-0,013
-288,847	-200,000	-0,005	-0,077
-287,832	721,469	0,021	0,040
-286,818	-200,000	-0,007	0,089
-285,803	-200,000	-0,025	0,097
-284,789	344,756	0,068	-0,096
-283,774	665,193	0,035	-0,066
-282,759	800,000	0,025	0,055
-281,745	800,000	0,040	-0,092
-280,730	113,891	0,062	0,054
-279,716	-44,726	-0,072	-0,026
-278,701	-197,771	0,087	-0,000
-277,686	800,000	-0,007	0,016
-276,672	-200,000	-0,007	0,031
-275,657	539,678	-0,044	0,077
-274,643	358,886	0,059	-0,085
-273,628	85,815	-0,074	-0,059
-272,613	214,891	0,083	-0,096
-271,599	-68,780	0,116	-0,032
-270,584	-200,000	0,019	0,182
-269,570	-71,894	0,088	0,024
-268,555	48,175	0,040	-0,027
-267,540	343,620	-0,070	-0,100
-266,526	-142,329	-0,098	0,007
-265,511	151,036	-0,064	-0,063
-264,497	301,762	0,054	-0,072
-263,482	800,000	-0,016	-0,033
-262,467	-200,000	-0,024	-0,117
-261,453	-200,000	0,002	0,021
-260,438	-200,000	-0,018	-0,059
-259,424	-200,000	-0,027	-0,131
-258,409	-200,000	0,039	-0,178
-257,395	-164,162	0,104	0,003
-256,380	-200,000	0,035	0,147
-255,365	27,181	0,051	-0,031
-254,351	-90,928	0,060	0,012
-253,336	38,129	0,125	0,081
-252,322	-18,184	-0,152	0,068
-251,307	112,717	0,074	0,065
-250,292	-17,029	0,166	-0,076
-249,278	-144,963	0,059	-0,004
-248,263	164,114	0,064	0,065
-247,249	163,096	-0,059	-0,060
-246,234	-35,452	0,066	-0,026
-245,219	-200,000	0,033	-0,131
-244,205	-153,222	-0,038	0,002
-243,190	98,115	0,116	-0,097
-242,176	311,918	0,014	-0,019
-241,161	-82,681	0,017	-0,004
-240,146	66,481	-0,058	0,043
-239,132	800,000	-0,041	0,085
-238,117	-141,843	0,040	-0,003
-237,103	62,834	-0,053	-0,038
-236,088	-43,835	0,052	-0,019
-235,073	-9,898	0,095	0,046
-234,059	-200,000	-0,033	-0,141
-233,044	-113,108	0,171	-0,024
-232,030	800,000	0,019	-0,057
-231,015	-200,000	-0,000	-0,050
-230,000	-200,000	-0,011	-0,040
-228,986	-97,195	0,088	0,016
-227,971	-146,209	0,042	-0,003
-226,957	475,434	-0,057	-0,094
-225,942	-200,000	0,006	-0,021
-224,927	-200,000	-0,004	-0,118
-223,913	183,199	-0,075	-0,080
-222,898	193,854	-0,052	-0,057
-221,884	800,000	0,006	-0,013
-220,869	-200,000	0,013	-0,047
-219,855	800,000	-0,021	0,056
-218,840	436,014	-0,050	0,079
-217,825	-44,743	-0,136	-0,049
-216,811	800,000	0,014	-0,028
-215,796	-200,000	0,004	-0,033
-214,782	-200,000	0,016	0,093
-213,767	-54,096	-0,068	-0,022
-212,752	50,694	0,047	0,032
-211,738	-51,613	-0,090	-0,030
-210,723	-200,000	0,007	-0,256
-209,709	301,080	-0,080	-0,107
-208,694	15,456	0,048	0,027
-207,679	-69,638	-0,040	-0,011
-206,665	162,047	0,075	0,076
-205,650	8,630	-0,032	0,017
-204,636	800,000	0,053	-0,159
-203,621	83,213	-0,098	-0,077
-202,606	-200,000	0,001	-0,025
-201,592	-200,000	-0,002	0,036
-200,577	-50,147	-0,094	-0,032
-199,563	193,559	0,083	-0,091
-198,548	722,749	-0,039	0,075
-197,533	36,577	0,068	0,043
-196,519	233,021	0,044	-0,053
-195,504	-200,000	-0,019	-0,082
-194,490	122,835	-0,078	-0,070
-193,475	2,453	0,059	-0,031
-192,460	58,610	0,029	0,020
-191,446	800,000	0,016	-0,033
-190,431	-200,000	0,010	0,049
-189,417	2,039	-0,109	0,056
-188,402	43,969	-0,105	-0,069
-187,387	224,887	0,061	-0,071
-186,373	-200,000	-0,030	0,177
-185,358	183,251	-0,049	-0,052
-184,344	189,952	-0,056	0,060
-183,329	196,641	0,096	0,106
-182,315	-200,000	-0,013	0,142
-181,300	-139,566	-0,048	0,004
-180,285	243,761	-0,065	0,078
-179,271	27,001	-0,104	-0,063
-178,256	191,978	0,065	0,071
-177,242	-200,000	0,024	-0,093
-176,227	-80,107	0,150	-0,036
-175,212	-200,000	-0,007	0,162
-174,198	438,340	-0,036	0,057
-173,183	800,000	-0,014	-0,042
-172,169	-106,162	-0,021	-0,003
-171,154	-73,185	-0,061	-0,016
-170,139	-142,703	0,048	0,003
-169,125	-22,242	0,034	0,015
-168,110	-200,000	-0,006	0,079
-167,096	228,583	0,096	0,113
-166,081	701,964	-0,022	-0,042
-165,066	-6,572	-0,015	0,007
-164,052	-110,278	0,077	-0,011
-163,037	-105,752	0,014	-0,002
-162,023	332,301	0,024	-0,033
-161,008	-126,828	0,049	0,005
-159,993	709,547	0,031	-0,059
-158,979	28,376	-0,176	-0,107
-157,964	-15,906	-0,027	-0,012
-156,950	-99,142	-0,028	-0,005
-155,935	-200,000	-0,006	0,047
-154,920	-107,403	0,049	-0,008
-153,906	-200,000	-0,004	0,052
-152,891	-23,738	0,124	-0,053
-151,877	800,000	-0,013	-0,040
-150,862	220,383	-0,055	-0,063
-149,847	800,000	0,026	-0,061
-148,833	25,396	0,064	0,038
-147,818	-73,829	0,121	-0,032
-146,804	800,000	0,026	0,075
-145,789	17,372	-0,105	0,060
-144,775	22,137	-0,111	-0,065
-143,760	122,334	-0,045	-0,041
-142,745	-26,523	0,120	0,050
-141,731	483,971	-0,087	-0,143
-140,716	800,000	0,009	-0,018
-139,702	-128,609	0,044	-0,004
-138,687	-200,000	0,007	-0,042
-137,672	-69,999	0,028	-0,007
-136,658	344,940	-0,020	-0,028
-135,643	800,000	0,016	-0,036
-134,629	-200,000	-0,009	-0,040
-133,614	304,030	0,071	-0,095
-132,599	-157,018	0,149	-0,006
-131,585	-200,000	-0,018	0,088
-130,570	-200,000	0,008	0,100
-129,556	328,730	-0,071	-0,099
-128,541	276,602	-0,093	0,119
-127,526	-200,000	-0,001	0,049
-126,512	548,085	0,080	-0,138
-125,497	-200,000	-0,030	0,115
-124,483	-164,334	-0,042	0,001
-123,468	-200,000	0,019	0,119
-122,453	317,593	0,021	-0,029
-121,439	-141,384	-0,029	-0,002
-120,424	584,012	0,011	-0,020
