DTS Sentinel unit serial number:	SN410029Multiplexer serial number:	ORYXHardware model number:	OX2-SRSoftware version number:	ORYX F/W v4,00 Oryx Data Collector v3.7.2.0data status	okinstallation	B5 Nyhavnadifferential loss correction	single-endedforward channel	channel 2reverse channel	N/Adate	2023/12/14time	00:17:13forward acquisition time	300,00reverse acquisition time	0,00gamma	499,1914k internal	0,3155k external	0,3155temperature offset calibration	1,0000default loss term (dB/km)	0,3820temperature slope calibration	1,0000multiplexer offset coefficient	1,0000multiplexer slope coefficient	1,0000fibre end	0,00T internal ref (°C)	8,68T ext. ref 1 (°C)	-7,45T ext. ref 2 (°C)	-7,49length (m)	temperature (°C)	Stokes	anti-Stokes-744,400	-110,011	0,271	0,041
-743,385	-43,462	-0,306	-0,113
-742,371	32,377	0,229	0,146
-741,356	-135,839	-0,435	0,037
-740,342	131,451	0,102	0,096
-739,327	-94,080	-0,338	-0,068
-738,312	235,206	0,150	0,183
-737,298	-90,683	-0,363	-0,077
-736,283	-193,498	0,071	0,000
-735,269	-116,735	-0,201	-0,027
-734,254	-200,000	-0,012	0,071
-733,239	-71,524	-0,554	-0,152
-732,225	-107,434	0,147	0,024
-731,210	523,142	-0,076	0,132
-730,196	-8,632	-0,013	0,006
-729,181	-113,126	-0,144	-0,021
-728,167	9,164	-0,011	-0,006
-727,152	-200,000	0,003	0,079
-726,137	-140,198	-0,146	-0,011
-725,123	51,196	-0,127	-0,089
-724,108	62,809	-0,103	-0,076
-723,094	-200,000	0,026	-0,182
-722,079	-200,000	-0,006	-0,111
-721,064	97,739	0,015	-0,013
-720,050	-151,647	-0,042	-0,002
-719,035	277,758	0,053	0,069
-718,021	3,656	0,063	-0,034
-717,006	197,584	-0,107	0,121
-715,991	800,000	-0,039	-0,101
-714,977	-78,336	-0,038	0,010
-713,962	243,939	-0,043	-0,053
-712,948	-15,337	-0,041	0,019
-711,933	-200,000	0,001	-0,033
-710,918	800,000	0,039	0,089
-709,904	625,834	0,049	-0,092
-708,889	-200,000	-0,031	-0,192
-707,875	-68,830	-0,170	0,048
-706,860	45,972	0,063	-0,043
-705,845	-200,000	-0,003	0,211
-704,831	16,588	0,144	-0,084
-703,816	-200,000	-0,017	-0,136
-702,802	574,643	0,013	0,024
-701,787	69,402	-0,088	-0,067
-700,772	800,000	0,015	0,043
-699,758	52,212	0,081	-0,057
-698,743	800,000	0,027	0,062
-697,729	92,672	-0,135	0,112
-696,714	233,571	0,006	0,007
-695,699	800,000	0,010	0,021
-694,685	231,502	-0,125	0,152
-693,670	564,831	0,078	-0,140
-692,656	-130,219	-0,036	-0,004
-691,641	101,080	0,040	-0,034
-690,627	-9,396	0,081	0,040
-689,612	-200,000	-0,009	0,119
-688,597	-200,000	0,020	-0,111
-687,583	30,137	0,060	0,038
-686,568	54,642	-0,068	-0,048
-685,554	-200,000	-0,011	-0,163
-684,539	518,863	0,087	0,150
-683,524	-98,784	0,082	-0,015
-682,510	-200,000	-0,005	-0,021
-681,495	-24,783	-0,023	-0,010
-680,481	-200,000	-0,007	-0,057
-679,466	-109,647	-0,042	-0,006
-678,451	93,924	-0,050	-0,041
-677,437	63,966	0,057	0,042
-676,422	-30,390	-0,046	-0,019
-675,408	-57,836	-0,050	0,016
-674,393	42,556	-0,038	-0,026
-673,378	800,000	0,024	-0,071
-672,364	55,570	-0,054	-0,039
-671,349	800,000	0,035	0,099
-670,335	-200,000	0,028	0,183
-669,320	-200,000	0,012	0,048
-668,305	347,449	0,097	0,141
-667,291	152,386	-0,028	0,028
-666,276	-101,409	-0,242	0,043
-665,262	335,236	-0,039	-0,056
-664,247	116,038	0,026	0,023
-663,232	-43,809	-0,147	-0,054
-662,218	-160,910	0,096	0,004
-661,203	-50,150	-0,048	-0,017
-660,189	418,759	-0,035	0,055
-659,174	-200,000	-0,012	-0,169
-658,159	-115,712	-0,102	-0,014
-657,145	800,000	-0,038	-0,081
-656,130	-98,839	-0,009	0,002
-655,116	216,931	0,094	0,111
-654,101	145,515	0,036	0,036
-653,086	-124,025	0,066	0,008
-652,072	595,200	0,012	0,022
-651,057	256,805	-0,083	-0,105
-650,043	-65,404	-0,173	0,051
-649,028	17,858	-0,111	-0,065
-648,014	-200,000	-0,009	0,108
-646,999	145,185	0,022	0,022
-645,984	361,553	-0,072	-0,106
-644,970	269,828	-0,020	-0,026
-643,955	331,304	-0,125	-0,177
-642,941	442,509	-0,081	-0,131
-641,926	-200,000	-0,008	0,058
-640,911	277,888	-0,096	0,126
-639,897	511,262	-0,078	0,134
-638,882	-200,000	-0,028	-0,131
-637,868	-200,000	-0,023	-0,121
-636,853	13,661	-0,116	-0,066
-635,838	800,000	-0,012	-0,028
-634,824	655,439	0,015	0,029
-633,809	-196,645	-0,052	-0,000
-632,795	-170,728	0,074	0,002
-631,780	138,312	0,024	0,023
-630,765	408,254	-0,040	0,062
-629,751	-129,399	-0,133	-0,013
-628,736	-196,479	0,001	0,000
-627,722	-55,568	0,137	-0,045
-626,707	8,079	0,066	-0,036
-625,692	97,945	0,065	-0,055
-624,678	-200,000	-0,011	0,053
-623,663	81,214	-0,052	-0,041
-622,649	-200,000	-0,023	-0,124
-621,634	-178,208	-0,130	-0,002
-620,619	626,877	-0,054	0,101
-619,605	-109,701	0,054	0,008
-618,590	-200,000	0,025	-0,083
-617,576	-122,920	0,101	0,012
-616,561	-32,759	-0,023	0,009
-615,546	76,689	-0,081	0,063
-614,532	-92,511	-0,055	0,011
-613,517	229,807	-0,038	-0,046
-612,503	800,000	-0,022	0,060
-611,488	163,053	0,063	-0,065
-610,474	-196,437	0,068	0,000
-609,459	86,096	0,037	0,030
-608,444	315,341	0,044	0,061
-607,430	800,000	0,060	0,150
-606,415	263,972	-0,063	0,080
-605,401	-115,938	0,078	0,011
-604,386	-9,966	-0,086	-0,042
-603,371	-84,474	0,064	0,015
-602,357	226,297	-0,080	0,096
-601,342	78,129	0,053	0,041
-600,328	-89,345	-0,044	-0,009
-599,313	-62,875	-0,050	0,015
-598,298	-75,298	-0,112	-0,029
-597,284	-66,633	0,067	0,019
-596,269	-200,000	0,022	-0,147
-595,255	800,000	-0,019	0,059
-594,240	-200,000	-0,006	-0,123
-593,225	-124,749	-0,085	0,010
-592,211	-43,649	0,075	-0,028
-591,196	497,370	-0,054	0,092
-590,182	-32,677	0,110	-0,045
-589,167	203,162	-0,033	0,037
-588,152	800,000	0,005	-0,016
-587,138	-15,386	0,061	0,028
-586,123	666,877	0,032	0,061
-585,109	-200,000	-0,002	-0,112
-584,094	-107,190	0,034	-0,005
-583,079	-200,000	-0,005	0,048
-582,065	48,973	0,023	-0,016
-581,050	800,000	-0,025	-0,070
-580,036	800,000	-0,015	-0,036
-579,021	163,663	0,077	0,079
-578,006	-146,389	0,154	0,010
-576,992	242,622	0,014	-0,018
-575,977	-200,000	0,000	-0,016
-574,963	-200,000	0,010	0,076
-573,948	516,657	-0,030	0,051
-572,934	128,709	-0,030	-0,028
-571,919	800,000	-0,029	-0,093
-570,904	-200,000	-0,005	-0,123
-569,890	800,000	-0,040	-0,123
-568,875	-200,000	0,030	-0,160
-567,861	800,000	-0,054	0,158
-566,846	11,112	-0,112	-0,063
-565,831	765,895	0,031	0,063
-564,817	-39,691	-0,140	-0,053
-563,802	537,343	0,048	0,083
-562,788	-159,758	0,032	0,001
-561,773	-200,000	0,041	-0,167
-560,758	-138,794	0,211	0,017
-559,744	-120,826	0,156	-0,019
-558,729	800,000	-0,041	-0,102
-557,715	310,020	-0,022	-0,030
-556,700	-58,012	-0,071	-0,022
-555,685	-200,000	-0,018	-0,134
-554,671	15,818	-0,127	0,073
-553,656	-200,000	0,016	0,068
-552,642	504,987	-0,023	0,039
-551,627	0,146	-0,079	-0,041
-550,612	800,000	0,012	-0,027
-549,598	-109,389	-0,193	-0,030
-548,583	44,466	-0,096	0,065
-547,569	399,701	-0,022	0,033
-546,554	114,744	0,078	0,070
-545,539	65,668	-0,024	0,017
-544,525	637,810	0,044	0,082
-543,510	-146,645	-0,081	0,005
-542,496	-100,605	-0,112	-0,020
-541,481	-105,394	0,052	0,009
-540,466	-104,064	0,043	-0,007
-539,452	800,000	-0,033	-0,074
-538,437	800,000	0,023	0,047
-537,423	143,055	-0,087	-0,084
-536,408	-200,000	-0,006	-0,102
-535,393	-52,798	-0,037	-0,012
-534,379	2,748	-0,045	-0,024
-533,364	-200,000	-0,002	-0,021
-532,350	800,000	-0,035	0,096
-531,335	-42,913	0,049	0,018
-530,321	-200,000	-0,020	0,134
-529,306	800,000	-0,033	0,088
-528,291	-124,886	-0,141	-0,016
-527,277	598,887	0,037	-0,067
-526,262	-200,000	-0,004	-0,145
-525,248	800,000	-0,029	-0,064
-524,233	-200,000	-0,021	0,114
-523,218	800,000	-0,016	-0,037
-522,204	-200,000	0,020	0,145
-521,189	-68,067	-0,141	-0,040
-520,175	-200,000	0,018	-0,130
-519,160	-200,000	-0,013	0,115
-518,145	500,142	-0,024	0,041
-517,131	-85,012	0,046	-0,010
-516,116	444,245	-0,039	-0,063
-515,102	389,053	-0,090	-0,137
-514,087	-200,000	-0,017	-0,064
-513,072	296,864	0,066	-0,089
-512,058	-200,000	0,011	0,145
-511,043	108,894	0,059	-0,051
-510,029	151,371	-0,078	0,078
-509,014	7,865	0,123	0,067
-507,999	113,367	-0,097	0,086
-506,985	-200,000	-0,054	-0,219
-505,970	397,725	-0,080	-0,122
-504,956	800,000	-0,028	-0,065
-503,941	800,000	0,085	-0,240
-502,926	686,287	0,055	0,106
-501,912	-110,053	0,065	-0,010
-500,897	-200,000	0,005	-0,084
-499,883	-109,980	-0,064	0,010
-498,868	188,523	-0,113	-0,124
-497,853	800,000	-0,035	0,095
-496,839	9,275	-0,107	0,059
-495,824	173,013	0,063	-0,067
-494,810	113,054	-0,001	0,001
-493,795	670,306	-0,030	-0,057
-492,781	437,082	-0,081	0,129
-491,766	246,329	-0,031	-0,038
-490,751	154,881	-0,110	-0,111
-489,737	458,577	-0,046	0,075
-488,722	205,835	0,015	-0,017
-487,708	800,000	0,006	-0,015
-486,693	57,431	-0,118	-0,084
-485,678	156,317	0,045	-0,045
-484,664	232,012	0,026	-0,031
-483,649	85,065	0,081	-0,065
-482,635	318,921	-0,050	0,070
-481,620	46,657	0,086	0,058
-480,605	-40,202	0,058	0,022
-479,591	548,619	0,072	-0,126
-478,576	-33,688	0,034	0,014
-477,562	-48,558	0,100	0,035
-476,547	48,884	-0,129	-0,088
-475,532	117,322	-0,119	0,107
-474,518	-39,762	0,103	-0,039
-473,503	-81,502	-0,059	-0,014
-472,489	800,000	-0,021	0,044
-471,474	-139,703	-0,161	-0,012
-470,459	-50,494	0,125	0,043
-469,445	-200,000	-0,005	0,041
-468,430	418,947	-0,030	0,047
-467,416	800,000	0,075	0,189
-466,401	125,861	0,152	0,141
-465,386	501,976	0,016	-0,028
-464,372	-200,000	-0,011	0,090
-463,357	-142,482	-0,064	0,005
-462,343	72,990	0,025	-0,019
-461,328	53,024	-0,057	-0,040
-460,313	58,528	-0,091	0,065
-459,299	-174,226	-0,038	-0,001
-458,284	68,151	0,148	0,110
-457,270	-200,000	0,003	0,066
-456,255	-137,409	-0,131	0,011
-455,241	128,694	-0,061	-0,056
-454,226	157,442	0,087	-0,088
-453,211	97,122	-0,067	-0,056
-452,197	-67,261	-0,086	0,025
-451,182	-76,130	-0,075	-0,019
-450,168	-127,034	0,098	-0,010
-449,153	-35,689	0,114	-0,045
-448,138	641,032	0,034	-0,063
-447,124	24,257	-0,092	-0,055
-446,109	260,677	0,052	0,066
-445,095	174,401	-0,044	-0,047
-444,080	-200,000	0,002	-0,016
-443,065	152,161	0,033	-0,033
-442,051	-15,657	0,079	-0,036
-441,036	50,047	0,023	0,016
-440,022	-128,025	-0,039	0,004
-439,007	299,011	0,075	0,101
-437,992	-200,000	0,003	0,160
-436,978	19,231	-0,106	-0,062
-435,963	-200,000	-0,013	0,115
-434,949	-200,000	0,005	-0,022
-433,934	249,836	0,095	0,118
-432,919	-94,373	0,183	0,036
-431,905	-200,000	-0,001	-0,026
-430,890	-200,000	0,005	0,096
-429,876	157,783	-0,014	0,014
-428,861	131,802	0,043	0,041
-427,846	-200,000	0,002	-0,036
-426,832	22,914	-0,061	-0,037
-425,817	249,338	0,059	0,073
-424,803	59,148	-0,106	0,076
-423,788	291,955	-0,091	0,121
-422,773	0,129	0,042	-0,022
-421,759	26,863	0,049	0,030
-420,744	-40,346	0,059	-0,022
-419,730	280,840	0,118	-0,154
-418,715	-174,787	-0,055	-0,001
-417,701	160,466	0,084	-0,086
-416,686	-200,000	-0,010	0,069
-415,671	-83,078	0,134	-0,031
-414,657	-116,194	0,021	-0,003
-413,642	186,898	-0,101	0,110
-412,628	-200,000	-0,005	0,025
-411,613	-200,000	-0,016	-0,117
-410,598	-200,000	-0,002	0,028
-409,584	-90,036	-0,009	0,002
-408,569	-116,583	-0,073	0,010
-407,555	510,705	-0,035	0,060
-406,540	166,825	0,096	0,099
-405,525	-200,000	-0,019	0,159
-404,511	800,000	0,014	-0,032
-403,496	355,437	-0,059	0,086
-402,482	230,761	-0,018	-0,022
-401,467	-61,907	0,121	0,037
-400,452	-200,000	0,005	0,036
-399,438	289,923	0,047	0,062
-398,423	-200,000	-0,020	-0,068
-397,409	800,000	0,084	-0,184
-396,394	-200,000	0,001	0,047
-395,379	115,370	-0,024	-0,021
-394,365	-116,749	-0,074	-0,010
-393,350	750,838	-0,043	-0,086
-392,336	-105,526	0,089	0,015
-391,321	144,830	-0,154	0,150
-390,306	233,744	0,052	-0,063
-389,292	-200,000	-0,015	-0,102
-388,277	118,315	-0,101	0,091
-387,263	-200,000	-0,012	-0,046
-386,248	-200,000	-0,004	0,030
-385,233	-76,721	-0,066	0,017
-384,219	-106,383	0,119	0,019
-383,204	800,000	-0,043	-0,116
-382,190	800,000	0,019	-0,049
-381,175	121,235	-0,138	0,125
-380,160	-200,000	-0,005	-0,037
-379,146	800,000	-0,051	-0,106
-378,131	-140,151	0,071	-0,005
-377,117	52,149	-0,020	-0,014
-376,102	800,000	0,023	0,046
-375,088	-45,033	0,068	-0,025
-374,073	535,862	-0,119	-0,207
-373,058	126,870	0,027	-0,025
-372,044	-43,843	0,108	0,039
-371,029	800,000	-0,007	-0,020
-370,015	-200,000	0,039	-0,161
-369,000	541,291	-0,011	-0,018
-367,985	-71,690	-0,043	-0,011
-366,971	30,540	0,046	0,028
-365,956	-24,512	0,096	-0,041
-364,942	-200,000	0,014	0,141
-363,927	-200,000	0,005	0,050
-362,912	-46,639	0,174	0,062
-361,898	149,938	0,099	-0,097
-360,883	33,153	0,111	0,070
-359,869	360,553	-0,043	-0,063
-358,854	-200,000	-0,028	-0,116
-357,839	-106,936	0,192	-0,031
-356,825	-49,441	-0,049	0,017
-355,810	354,199	0,065	0,094
-354,796	800,000	-0,007	0,019
-353,781	-200,000	0,045	-0,193
-352,766	-200,000	-0,012	-0,108
-351,752	800,000	0,034	-0,077
-350,737	137,057	0,027	-0,025
-349,723	800,000	0,023	0,066
-348,708	-200,000	-0,010	-0,080
-347,693	491,018	-0,013	0,022
-346,679	18,899	-0,076	-0,044
-345,664	761,528	0,021	-0,042
-344,650	-124,885	0,105	0,012
-343,635	-24,210	0,128	0,055
-342,620	347,417	0,037	-0,054
-341,606	38,964	-0,063	0,041
-340,591	12,816	-0,168	0,094
-339,577	800,000	0,026	0,053
-338,562	150,561	-0,023	0,022
-337,548	-200,000	-0,006	-0,105
-336,533	72,832	0,050	0,038
-335,518	-200,000	-0,021	0,089
-334,504	800,000	-0,030	0,090
-333,489	136,086	-0,071	-0,068
-332,475	-59,634	-0,027	0,008
-331,460	-114,077	0,047	-0,007
-330,445	-200,000	0,012	0,057
-329,431	16,470	-0,058	-0,033
-328,416	79,159	-0,040	0,031
-327,402	34,561	0,070	-0,044
-326,387	-200,000	-0,020	-0,065
-325,372	-200,000	0,008	-0,032
-324,358	800,000	-0,047	-0,116
-323,343	225,381	-0,041	-0,048
-322,329	-96,850	-0,050	-0,009
-321,314	-78,079	-0,045	-0,011
-320,299	484,063	-0,042	0,069
-319,285	693,126	-0,047	0,089
-318,270	757,460	0,037	-0,072
-317,256	47,228	-0,087	0,059
-316,241	404,262	0,061	0,094
-315,226	-71,834	0,123	0,033
-314,212	-14,026	0,114	-0,053
-313,197	-200,000	-0,021	0,183
-312,183	-200,000	0,003	0,037
-311,168	-91,665	0,022	-0,005
-310,153	-200,000	0,005	0,051
-309,139	568,347	0,077	-0,135
-308,124	219,197	-0,069	-0,081
-307,110	447,363	0,037	-0,060
-306,095	-70,905	-0,154	0,042
-305,080	-200,000	-0,002	0,104
-304,066	718,710	-0,041	-0,080
-303,051	30,044	0,081	0,050
-302,037	61,301	-0,032	0,023
-301,022	-117,371	0,111	-0,014
-300,008	182,614	-0,016	0,017
-298,993	183,119	-0,033	-0,035
-297,978	-188,853	0,037	-0,000
-296,964	-183,574	-0,047	-0,001
-295,949	172,729	-0,108	0,113
-294,935	-72,873	0,037	0,010
-293,920	289,438	-0,029	-0,038
-292,905	-200,000	-0,008	0,062
-291,891	123,302	-0,020	-0,018
-290,876	-146,476	0,074	0,005
-289,862	-130,857	0,107	0,010
-288,847	344,265	-0,020	-0,029
-287,832	-168,824	0,113	-0,003
-286,818	-200,000	0,003	0,049
-285,803	-42,932	0,127	-0,047
-284,789	-150,611	0,149	-0,008
-283,774	-200,000	0,027	0,157
-282,759	671,295	-0,052	0,099
-281,745	-92,008	-0,105	0,021
-280,730	-53,210	0,061	0,020
-279,716	-25,411	0,076	0,032
-278,701	-200,000	-0,008	-0,047
-277,686	196,154	-0,048	0,053
-276,672	-68,930	0,134	-0,037
-275,657	188,766	0,073	-0,079
-274,643	-47,717	-0,073	0,026
-273,628	-78,332	-0,169	0,042
-272,613	-200,000	-0,011	0,053
-271,599	336,096	0,052	-0,073
-270,584	334,344	0,042	-0,059
-269,570	37,357	-0,019	-0,012
-268,555	412,584	0,029	-0,045
-267,540	-113,203	0,044	0,006
-266,526	-200,000	-0,001	0,079
-265,511	-48,869	-0,075	-0,026
-264,497	-170,151	0,111	0,003
-263,482	380,982	0,024	-0,035
-262,467	-200,000	-0,016	0,053
-261,453	277,432	-0,084	0,108
-260,438	-200,000	0,006	-0,073
-259,424	800,000	0,018	0,041
-258,409	800,000	0,021	0,048
-257,395	-89,749	0,020	-0,004
-256,380	-28,218	0,071	0,030
-255,365	800,000	-0,005	0,011
-254,351	800,000	0,031	-0,073
-253,336	-200,000	0,010	-0,075
-252,322	800,000	-0,038	-0,080
-251,307	265,240	-0,047	-0,059
-250,292	477,596	0,082	-0,135
-249,278	-181,060	0,107	0,002
-248,263	13,261	0,021	0,012
-247,249	-200,000	-0,012	-0,076
-246,234	-133,225	-0,087	-0,008
-245,219	-38,701	0,077	-0,029
-244,205	462,632	-0,072	-0,116
-243,190	34,201	-0,043	-0,027
-242,176	-98,649	-0,094	0,017
-241,161	-200,000	-0,014	0,132
-240,146	165,483	-0,013	-0,013
-239,132	800,000	0,049	-0,148
-238,117	144,625	-0,009	0,009
-237,103	-152,594	-0,145	0,007
-236,088	-200,000	-0,005	0,038
-235,073	-200,000	-0,005	0,034
-234,059	-23,959	0,088	0,038
-233,044	227,354	-0,023	0,027
-232,030	-200,000	0,032	0,000
-231,015	-200,000	0,018	0,083
-230,000	-91,416	0,049	-0,010
-228,986	-200,000	-0,005	-0,076
-227,971	108,451	0,016	0,014
-226,957	2,335	-0,008	-0,004
-225,942	153,043	0,104	0,103
-224,927	-93,867	0,051	-0,010
-223,913	-200,000	-0,000	-0,061
-222,898	800,000	-0,002	-0,006
-221,884	28,801	-0,124	-0,076
-220,869	-168,084	0,109	-0,003
-219,855	308,598	-0,051	0,069
-218,840	-149,128	0,104	0,006
-217,825	-85,861	-0,039	0,009
-216,811	115,380	0,030	0,026
-215,796	-200,000	-0,018	-0,060
-214,782	800,000	0,021	0,055
-213,767	-107,782	0,142	0,022
-212,752	287,485	0,050	0,065
-211,738	800,000	0,022	0,052
-210,723	152,045	-0,070	-0,069
-209,709	-200,000	0,007	0,108
-208,694	259,679	-0,046	0,058
-207,679	-102,827	-0,092	-0,016
-206,665	649,305	0,039	0,072
-205,650	-64,065	-0,099	0,029
-204,636	-79,934	0,098	0,024
-203,621	-200,000	0,032	-0,135
-202,606	-200,000	0,005	-0,052
-201,592	227,902	-0,062	-0,073
-200,577	-200,000	-0,002	-0,078
-199,563	602,521	0,053	0,095
-198,548	800,000	0,039	-0,113
-197,533	-130,877	-0,149	0,014
-196,519	391,650	-0,072	0,108
-195,504	800,000	0,026	0,059
-194,490	800,000	-0,061	0,155
-193,475	220,739	0,052	-0,061
-192,460	147,198	0,009	0,009
-191,446	800,000	0,035	-0,094
-190,431	-51,537	0,034	0,012
-189,417	510,785	-0,027	0,045
-188,402	-36,562	-0,047	0,018
-187,387	-86,578	-0,178	-0,039
-186,373	-44,524	-0,130	0,047
-185,358	-200,000	-0,026	0,126
-184,344	-200,000	0,014	0,069
-183,329	36,338	-0,067	0,043
-182,315	-115,370	0,030	-0,004
-181,300	-52,155	-0,032	0,011
-180,285	-200,000	-0,031	0,130
-179,271	-127,667	-0,117	-0,012
-178,256	127,301	0,118	-0,108
-177,242	327,208	0,061	-0,084
-176,227	800,000	0,020	0,061
-175,212	-15,397	0,113	0,052
-174,198	-61,515	0,090	-0,027
-173,183	-200,000	-0,007	-0,029
-172,169	126,893	-0,036	0,033
-171,154	800,000	0,037	0,087
-170,139	-0,698	0,123	0,063
-169,125	58,801	0,134	0,095
-168,110	-26,124	0,104	-0,044
-167,096	-17,477	-0,110	-0,050
-166,081	800,000	-0,015	0,033
-165,066	103,687	-0,036	0,030
-164,052	-99,364	0,013	-0,002
-163,037	-189,323	0,161	-0,001
-162,023	733,198	-0,019	-0,036
-161,008	164,411	-0,026	0,027
-159,993	97,867	0,112	0,093
-158,979	77,601	-0,119	0,091
-157,964	289,360	-0,040	0,052
-156,950	-137,040	-0,049	0,004
-155,935	-51,727	0,069	-0,023
-154,920	-8,886	0,106	0,051
-153,906	-143,393	0,235	-0,016
-152,891	658,014	-0,045	-0,084
-151,877	17,169	-0,133	0,076
-150,862	79,847	-0,008	-0,006
-149,847	-66,820	0,078	0,022
-148,833	228,528	-0,046	0,054
-147,818	73,179	0,075	-0,056
-146,804	800,000	-0,037	-0,088
-145,789	430,864	-0,057	0,089
-144,775	-81,469	0,046	0,011
-143,760	800,000	0,023	0,063
-142,745	-32,443	0,073	-0,029
-141,731	-200,000	0,018	-0,177
-140,716	-138,780	0,053	0,004
-139,702	-102,533	0,041	0,007
-138,687	-200,000	0,004	0,091
-137,672	-133,895	-0,147	-0,013
-136,658	-82,066	-0,105	-0,024
-135,643	222,701	0,065	-0,076
-134,629	-200,000	-0,029	-0,139
-133,614	16,221	-0,061	-0,034
-132,599	-171,033	0,186	-0,004
-131,585	-151,373	-0,104	-0,006
-130,570	477,854	-0,015	0,025
-129,556	-39,985	-0,135	0,051
-128,541	-157,565	-0,133	-0,006
-127,526	735,635	-0,029	-0,057
-126,512	527,046	-0,024	0,041
-125,497	278,741	0,085	-0,109
-124,483	-47,422	0,115	-0,040
-123,468	-83,921	0,090	0,020
-122,453	-115,074	-0,053	0,007
-121,439	348,597	-0,005	-0,007
-120,424	7,255	-0,124	0,066
